SpectraSuite Data File
++++++++++++++++++++++++++++++++++++
Date: Thu May 05 21:10:47 CEST 2016
User: root
Dark Spectrum Present: No
Reference Spectrum Present: No
Number of Sampled Component Spectra: 1
Spectrometers: USB4C02835
Integration Time (usec): 100000 (USB4C02835)
Spectra Averaged: 1 (USB4C02835)
Boxcar Smoothing: 0 (USB4C02835)
Correct for Electrical Dark: No (USB4C02835)
Strobe/Lamp Enabled: No (USB4C02835)
Correct for Detector Non-linearity: No (USB4C02835)
Correct for Stray Light: No (USB4C02835)
Number of Pixels in Processed Spectrum: 3648
>>>>>Begin Processed Spectral Data<<<<<
177.47	2084.83
177.69	2084.83
177.91	2084.83
178.13	2101.22
178.36	2185.18
178.58	2818.00
178.80	2918.36
179.02	2725.85
179.24	2828.24
179.46	2658.26
179.68	2719.70
179.90	2967.51
180.13	2953.17
180.35	2531.29
180.57	2617.30
180.79	3112.91
181.01	2940.88
181.23	2736.09
181.45	2838.48
181.67	3086.29
181.90	3082.19
182.12	2729.94
182.34	2529.24
182.56	3084.24
182.78	3074.00
183.00	2691.03
183.22	2709.46
183.44	2662.36
183.66	3522.51
183.89	2791.38
184.11	2736.09
184.33	3047.38
184.55	3141.58
184.77	2682.84
184.99	2789.33
185.21	2863.06
185.43	3424.20
185.65	2717.65
185.87	2572.25
186.10	3354.57
186.32	3364.81
186.54	2850.77
186.76	2793.43
186.98	3143.63
187.20	2969.55
187.42	2680.79
187.64	2701.27
187.86	3090.38
188.08	3186.64
188.30	2568.15
188.52	2738.13
188.75	3276.75
188.97	3166.16
189.19	2619.35
189.41	2672.60
189.63	3076.05
189.85	2940.88
190.07	2547.67
190.29	2506.71
190.51	3065.81
190.73	2777.05
190.95	2848.72
191.17	2762.71
191.39	2818.00
191.61	2998.23
191.84	2656.22
192.06	2820.05
192.28	2725.85
192.50	3542.99
192.72	2799.57
192.94	2779.09
193.16	3170.26
193.38	3119.06
193.60	2580.44
193.82	2775.00
194.04	3102.67
194.26	3026.90
194.48	2662.36
194.70	2625.50
194.92	2766.81
195.14	3125.20
195.36	2578.39
195.58	2736.09
195.80	2906.07
196.02	2901.97
196.24	2627.54
196.46	2787.29
196.69	2910.16
196.91	3416.01
197.13	2688.98
197.35	2779.09
197.57	3250.13
197.79	3096.53
198.01	2731.99
198.23	2662.36
198.45	3057.62
198.67	2803.67
198.89	2590.68
199.11	2777.05
199.33	2854.87
199.55	2623.45
199.77	2598.87
199.99	2734.04
200.21	2953.17
200.43	3022.80
200.65	2639.83
200.87	2494.43
201.09	2985.94
201.31	2924.50
201.53	2670.55
201.75	2729.94
201.97	3082.19
202.19	3008.47
202.41	2731.99
202.63	2869.20
202.85	3076.05
203.07	3084.24
203.29	2721.75
203.51	2564.06
203.73	2881.49
203.95	3454.92
204.17	2709.46
204.39	2877.40
204.61	3057.62
204.83	2826.20
205.05	2832.34
205.27	2682.84
205.49	3340.24
205.71	2975.70
205.93	2611.16
206.15	2611.16
206.37	2932.69
206.59	2963.41
206.81	2568.15
207.03	2609.11
207.25	2922.45
207.47	3090.38
207.69	2731.99
207.91	2942.93
208.13	3211.22
208.34	2885.59
208.56	2629.59
208.78	2715.61
209.00	2934.74
209.22	2863.06
209.44	2639.83
209.66	2648.02
209.88	2920.40
210.10	2953.17
210.32	2711.51
210.54	2725.85
210.76	2973.65
210.98	3184.59
211.20	2566.10
211.42	2744.28
211.64	3155.92
211.86	3110.86
212.08	2789.33
212.30	2672.60
212.52	2904.02
212.74	3076.05
212.96	2795.48
213.17	2746.33
213.39	3100.62
213.61	3241.93
213.83	2645.98
214.05	2600.92
214.27	3217.36
214.49	2834.39
214.71	2639.83
214.93	2715.61
215.15	2963.41
215.37	3108.82
215.59	2666.46
215.81	2768.85
216.03	3266.51
216.24	2992.08
216.46	2660.31
216.68	2799.57
216.90	3096.53
217.12	3160.02
217.34	2648.02
217.56	2805.72
217.78	3262.41
218.00	3104.72
218.22	2867.16
218.44	2752.47
218.66	3037.14
218.87	3413.96
219.09	2715.61
219.31	2664.41
219.53	2985.94
219.75	2928.60
219.97	2766.81
220.19	2707.41
220.41	2963.41
220.63	3266.51
220.85	2709.46
221.06	2775.00
221.28	3164.11
221.50	3129.30
221.72	2656.22
221.94	2611.16
222.16	3045.33
222.38	3049.43
222.60	2691.03
222.82	2721.75
223.03	3200.98
223.25	2842.58
223.47	2654.17
223.69	2885.59
223.91	3157.97
224.13	3018.71
224.35	2680.79
224.57	2873.30
224.78	3098.58
225.00	2766.81
225.22	2721.75
225.44	2666.46
225.66	3114.96
225.88	2879.44
226.10	2789.33
226.32	2684.89
226.53	3246.03
226.75	2983.89
226.97	2772.95
227.19	2707.41
227.41	2836.44
227.63	2856.92
227.85	2527.19
228.06	2684.89
228.28	3016.66
228.50	3172.30
228.72	2488.28
228.94	2656.22
229.16	2668.50
229.37	2736.09
229.59	2572.25
229.81	2963.41
230.03	2904.02
230.25	2742.23
230.47	2564.06
230.69	2594.78
230.90	3119.06
231.12	2797.53
231.34	2713.56
231.56	2750.42
231.78	2875.35
232.00	2990.03
232.21	2699.22
232.43	2766.81
232.65	2586.58
232.87	3096.53
233.09	2641.88
233.30	2674.65
233.52	3119.06
233.74	2994.13
233.96	2650.07
234.18	2889.68
234.40	3008.47
234.61	3418.06
234.83	2598.87
235.05	2621.40
235.27	3418.06
235.49	3217.36
235.70	2557.91
235.92	2688.98
236.14	3110.86
236.36	3346.38
236.58	2559.96
236.79	2779.09
237.01	2940.88
237.23	2994.13
237.45	2883.54
237.67	2738.13
237.88	3096.53
238.10	3264.46
238.32	2674.65
238.54	2643.93
238.76	2957.27
238.97	2832.34
239.19	2615.26
239.41	2670.55
239.63	3160.02
239.85	2877.40
240.06	2772.95
240.28	2670.55
240.50	3160.02
240.72	2934.74
240.93	2590.68
241.15	2793.43
241.37	2930.64
241.59	3184.59
241.81	2631.64
242.02	2670.55
242.24	3002.32
242.46	3098.58
242.68	2545.63
242.89	2627.54
243.11	3139.54
243.33	2961.36
243.55	2725.85
243.76	2719.70
243.98	2930.64
244.20	3026.90
244.42	2772.95
244.64	2709.46
244.85	2777.05
245.07	2822.10
245.29	2715.61
245.51	2617.30
245.72	3061.71
245.94	3137.49
246.16	2678.74
246.38	2697.17
246.59	2879.44
246.81	2801.62
247.03	2621.40
247.24	2582.49
247.46	2836.44
247.68	2936.79
247.90	2641.88
248.11	2686.94
248.33	3119.06
248.55	2979.79
248.77	2760.66
248.98	2797.53
249.20	3260.37
249.42	2957.27
249.64	2697.17
249.85	2662.36
250.07	2934.74
250.29	3057.62
250.50	2791.38
250.72	2594.78
250.94	3008.47
251.16	3379.15
251.37	2623.45
251.59	2770.90
251.81	3090.38
252.02	3164.11
252.24	2623.45
252.46	2832.34
252.68	2959.31
252.89	2899.92
253.11	2553.82
253.33	2863.06
253.54	3278.80
253.76	2897.88
253.98	2664.41
254.20	2668.50
254.41	2797.53
254.63	2920.40
254.85	2559.96
255.06	2727.89
255.28	2987.99
255.50	2895.83
255.71	2629.59
255.93	2541.53
256.15	2928.60
256.36	3061.71
256.58	2580.44
256.80	2652.12
257.02	2928.60
257.23	2969.55
257.45	2686.94
257.67	2861.01
257.88	2967.51
258.10	3030.99
258.32	2586.58
258.53	2785.24
258.75	3235.79
258.97	2875.35
259.18	2613.21
259.40	2625.50
259.62	3295.18
259.83	3340.24
260.05	2654.17
260.27	3436.49
260.48	3123.15
260.70	2881.49
260.92	2574.30
261.13	2750.42
261.35	3008.47
261.57	3076.05
261.78	2611.16
262.00	2705.37
262.22	3067.86
262.43	2871.25
262.65	2746.33
262.86	2719.70
263.08	3434.44
263.30	2961.36
263.51	2543.58
263.73	2586.58
263.95	3364.81
264.16	2832.34
264.38	2574.30
264.60	2691.03
264.81	3022.80
265.03	3203.02
265.25	2987.99
265.46	2680.79
265.68	3223.50
265.89	3033.04
266.11	2578.39
266.33	2691.03
266.54	3160.02
266.76	3133.39
266.98	2912.21
267.19	2828.24
267.41	3176.40
267.62	3041.23
267.84	2506.71
268.06	2838.48
268.27	3030.99
268.49	3221.45
268.70	2744.28
268.92	2715.61
269.14	2793.43
269.35	2752.47
269.57	2775.00
269.79	2766.81
270.00	2899.92
270.22	3262.41
270.43	2598.87
270.65	2510.81
270.87	2998.23
271.08	3069.91
271.30	2795.48
271.51	2613.21
271.73	3205.07
271.95	3246.03
272.16	2613.21
272.38	2838.48
272.59	2955.22
272.81	3057.62
273.02	2684.89
273.24	2791.38
273.46	3100.62
273.67	2731.99
273.89	2586.58
274.10	2688.98
274.32	3190.74
274.54	3016.66
274.75	2756.57
274.97	2797.53
275.18	3147.73
275.40	3049.43
275.61	2744.28
275.83	2838.48
276.05	2766.81
276.26	2904.02
276.48	2754.52
276.69	2805.72
276.91	2865.11
277.12	3160.02
277.34	2897.88
277.55	2961.36
277.77	2961.36
277.99	2924.50
278.20	2791.38
278.42	2662.36
278.63	2899.92
278.85	2809.81
279.06	2701.27
279.28	2875.35
279.49	3170.26
279.71	3043.28
279.93	2854.87
280.14	2836.44
280.36	2836.44
280.57	3235.79
280.79	2885.59
281.00	2731.99
281.22	2881.49
281.43	3203.02
281.65	2574.30
281.86	2717.65
282.08	3084.24
282.29	3317.71
282.51	2654.17
282.73	2688.98
282.94	2789.33
283.16	3182.54
283.37	2947.03
283.59	2815.96
283.80	2990.03
284.02	3016.66
284.23	2838.48
284.45	2805.72
284.66	2861.01
284.88	2897.88
285.09	2754.52
285.31	2883.54
285.52	3090.38
285.74	2711.51
285.95	2994.13
286.17	2854.87
286.38	3209.17
286.60	2846.68
286.81	2717.65
287.03	2766.81
287.24	3020.75
287.46	2994.13
287.67	2826.20
287.89	3012.56
288.10	2918.36
288.32	3004.37
288.53	2963.41
288.75	2803.67
288.96	3061.71
289.18	2889.68
289.39	2740.18
289.61	2869.20
289.82	3276.75
290.04	3305.42
290.25	2637.78
290.47	2811.86
290.68	2947.03
290.90	3149.78
291.11	2688.98
291.33	2936.79
291.54	2850.77
291.76	2893.78
291.97	2906.07
292.18	2852.82
292.40	2873.30
292.61	2863.06
292.83	3100.62
293.04	2828.24
293.26	3020.75
293.47	2957.27
293.69	2736.09
293.90	2770.90
294.12	3301.33
294.33	3004.37
294.55	2883.54
294.76	2963.41
294.97	3209.17
295.19	3330.00
295.40	2736.09
295.62	2891.73
295.83	3180.50
296.05	2834.39
296.26	3106.77
296.48	2764.76
296.69	2963.41
296.90	3004.37
297.12	2926.55
297.33	2918.36
297.55	3049.43
297.76	2916.31
297.98	2928.60
298.19	2932.69
298.41	3014.61
298.62	2887.64
298.83	2963.41
299.05	2834.39
299.26	2936.79
299.48	2875.35
299.69	2799.57
299.90	2805.72
300.12	2818.00
300.33	3039.19
300.55	2772.95
300.76	2863.06
300.98	2801.62
301.19	3162.06
301.40	2809.81
301.62	2768.85
301.83	3133.39
302.05	2971.60
302.26	2877.40
302.47	2940.88
302.69	2791.38
302.90	3057.62
303.12	2551.77
303.33	2879.44
303.54	3405.77
303.76	2891.73
303.97	2826.20
304.19	2963.41
304.40	2820.05
304.61	3008.47
304.83	2828.24
305.04	2934.74
305.26	3108.82
305.47	2861.01
305.68	2846.68
305.90	2598.87
306.11	3276.75
306.33	3022.80
306.54	2746.33
306.75	2762.71
306.97	2670.55
307.18	2850.77
307.39	2777.05
307.61	2832.34
307.82	2971.60
308.04	3024.85
308.25	2688.98
308.46	2967.51
308.68	2975.70
308.89	3006.42
309.10	2910.16
309.32	2901.97
309.53	2953.17
309.74	3069.91
309.96	2758.61
310.17	2953.17
310.39	2873.30
310.60	3069.91
310.81	2822.10
311.03	2713.56
311.24	3098.58
311.45	2969.55
311.67	3008.47
311.88	2873.30
312.09	2961.36
312.31	2815.96
312.52	2807.77
312.73	2813.91
312.95	2777.05
313.16	2807.77
313.37	3000.27
313.59	2938.84
313.80	3145.68
314.01	3321.81
314.23	2801.62
314.44	2680.79
314.65	2746.33
314.87	2854.87
315.08	2777.05
315.29	2750.42
315.51	2805.72
315.72	2693.08
315.93	2830.29
316.15	2832.34
316.36	2920.40
316.57	3024.85
316.79	2818.00
317.00	2750.42
317.21	3041.23
317.43	2775.00
317.64	2873.30
317.85	2711.51
318.07	2869.20
318.28	2807.77
318.49	2885.59
318.70	3049.43
318.92	3071.95
319.13	3067.86
319.34	3043.28
319.56	2742.23
319.77	3045.33
319.98	3065.81
320.20	3033.04
320.41	2949.08
320.62	3084.24
320.83	2881.49
321.05	3006.42
321.26	2822.10
321.47	2979.79
321.69	3098.58
321.90	2725.85
322.11	2656.22
322.32	2955.22
322.54	3205.07
322.75	2856.92
322.96	3504.07
323.18	2709.46
323.39	2582.49
323.60	2719.70
323.81	2983.89
324.03	2881.49
324.24	2969.55
324.45	2938.84
324.66	2691.03
324.88	3209.17
325.09	3172.30
325.30	2738.13
325.52	2731.99
325.73	3026.90
325.94	2809.81
326.15	2662.36
326.37	2760.66
326.58	3117.01
326.79	3315.66
327.00	2746.33
327.22	2748.37
327.43	2975.70
327.64	2740.18
327.85	2877.40
328.07	2834.39
328.28	3282.89
328.49	2858.96
328.70	2799.57
328.92	2734.04
329.13	2926.55
329.34	3049.43
329.55	3022.80
329.76	2969.55
329.98	2930.64
330.19	3190.74
330.40	2805.72
330.61	2918.36
330.83	3119.06
331.04	2865.11
331.25	2908.12
331.46	2820.05
331.68	2768.85
331.89	3209.17
332.10	2908.12
332.31	2731.99
332.52	3000.27
332.74	3094.48
332.95	2645.98
333.16	2854.87
333.37	3129.30
333.58	2897.88
333.80	2893.78
334.01	2596.82
334.22	3014.61
334.43	2979.79
334.64	2752.47
334.86	2727.89
335.07	2826.20
335.28	3280.85
335.49	2695.13
335.70	2854.87
335.92	3248.08
336.13	3346.38
336.34	2879.44
336.55	2826.20
336.76	3014.61
336.98	2650.07
337.19	2764.76
337.40	2869.20
337.61	3473.36
337.82	3035.09
338.04	2961.36
338.25	2594.78
338.46	2947.03
338.67	2908.12
338.88	2703.32
339.09	2688.98
339.31	2918.36
339.52	2783.19
339.73	2818.00
339.94	2772.95
340.15	3069.91
340.36	2852.82
340.58	2785.24
340.79	2680.79
341.00	3098.58
341.21	2815.96
341.42	2977.75
341.63	2815.96
341.85	3104.72
342.06	3010.51
342.27	2760.66
342.48	2893.78
342.69	2805.72
342.90	3002.32
343.12	3104.72
343.33	2766.81
343.54	3170.26
343.75	3209.17
343.96	2934.74
344.17	2699.22
344.38	2981.84
344.60	2879.44
344.81	2705.37
345.02	2795.48
345.23	3178.45
345.44	3387.34
345.65	2830.29
345.86	2854.87
346.07	2955.22
346.29	2940.88
346.50	2947.03
346.71	2795.48
346.92	3246.03
347.13	3338.19
347.34	2893.78
347.55	2699.22
347.76	3074.00
347.98	2740.18
348.19	2848.72
348.40	2928.60
348.61	2928.60
348.82	3168.21
349.03	2877.40
349.24	2701.27
349.45	3280.85
349.66	2637.78
349.88	2754.52
350.09	2717.65
350.30	3323.85
350.51	3133.39
350.72	3020.75
350.93	2828.24
351.14	2912.21
351.35	3096.53
351.56	2777.05
351.77	2883.54
351.99	3086.29
352.20	3252.17
352.41	2926.55
352.62	2543.58
352.83	2967.51
353.04	2965.46
353.25	2820.05
353.46	2785.24
353.67	3086.29
353.88	2633.69
354.09	2719.70
354.30	2832.34
354.52	3076.05
354.73	2953.17
354.94	2738.13
355.15	2783.19
355.36	3338.19
355.57	2922.45
355.78	2805.72
355.99	2723.80
356.20	2912.21
356.41	3172.30
356.62	2852.82
356.83	2887.64
357.04	3241.93
357.25	2682.84
357.46	2731.99
357.68	2703.32
357.89	2797.53
358.10	3024.85
358.31	2815.96
358.52	2791.38
358.73	2787.29
358.94	2813.91
359.15	2762.71
359.36	2824.15
359.57	3094.48
359.78	2936.79
359.99	2992.08
360.20	2781.14
360.41	2981.84
360.62	3096.53
360.83	2820.05
361.04	2820.05
361.25	2994.13
361.46	3252.17
361.67	2871.25
361.88	2805.72
362.09	3157.97
362.30	3059.67
362.51	2736.09
362.72	2856.92
362.93	3127.25
363.14	3037.14
363.35	2871.25
363.56	2748.37
363.78	3166.16
363.99	3151.82
364.20	2764.76
364.41	2895.83
364.62	3348.43
364.83	3045.33
365.04	2830.29
365.25	2881.49
365.46	3311.57
365.67	2815.96
365.88	2908.12
366.09	2838.48
366.30	2897.88
366.51	2983.89
366.72	2670.55
366.93	2756.57
367.14	2932.69
367.35	3264.46
367.56	2731.99
367.77	2867.16
367.98	2996.18
368.18	3051.47
368.39	2895.83
368.60	2709.46
368.81	3092.43
369.02	3028.95
369.23	2838.48
369.44	2633.69
369.65	2906.07
369.86	3117.01
370.07	2901.97
370.28	2764.76
370.49	2942.93
370.70	3024.85
370.91	2740.18
371.12	2701.27
371.33	3203.02
371.54	2899.92
371.75	2918.36
371.96	2512.86
372.17	2979.79
372.38	3000.27
372.59	2854.87
372.80	2813.91
373.01	2824.15
373.22	3037.14
373.43	2762.71
373.64	2701.27
373.85	3188.69
374.06	3360.72
374.26	2922.45
374.47	2973.65
374.68	3188.69
374.89	3043.28
375.10	2836.44
375.31	2979.79
375.52	2965.46
375.73	3010.51
375.94	2658.26
376.15	2916.31
376.36	2893.78
376.57	3067.86
376.78	2789.33
376.99	2830.29
377.20	3315.66
377.40	2967.51
377.61	3090.38
377.82	2705.37
378.03	3149.78
378.24	3035.09
378.45	2897.88
378.66	2901.97
378.87	2707.41
379.08	2754.52
379.29	2785.24
379.50	2910.16
379.71	2949.08
379.91	3127.25
380.12	2795.48
380.33	2822.10
380.54	2981.84
380.75	2938.84
380.96	2820.05
381.17	2822.10
381.38	3010.51
381.59	3016.66
381.80	2822.10
382.00	2975.70
382.21	3010.51
382.42	3254.22
382.63	3119.06
382.84	3024.85
383.05	3119.06
383.26	3235.79
383.47	2869.20
383.68	2785.24
383.88	3033.04
384.09	2932.69
384.30	3114.96
384.51	2867.16
384.72	2875.35
384.93	2797.53
385.14	2873.30
385.35	3014.61
385.55	2729.94
385.76	3178.45
385.97	2848.72
386.18	2697.17
386.39	2779.09
386.60	2938.84
386.81	2824.15
387.02	2715.61
387.22	2764.76
387.43	3059.67
387.64	2918.36
387.85	3004.37
388.06	3071.95
388.27	4042.69
388.48	7319.44
388.68	10917.72
388.89	13399.86
389.10	14671.65
389.31	14268.20
389.52	11261.78
389.73	9789.29
389.93	8697.72
390.14	8185.73
390.35	7276.43
390.56	6602.65
390.77	5586.86
390.98	4353.98
391.18	3639.24
391.39	3444.68
391.60	2969.55
391.81	2992.08
392.02	2791.38
392.23	3352.52
392.43	3014.61
392.64	3033.04
392.85	2887.64
393.06	3264.46
393.27	2987.99
393.47	2742.23
393.68	2924.50
393.89	2918.36
394.10	3186.64
394.31	2873.30
394.52	2779.09
394.72	2877.40
394.93	3278.80
395.14	2754.52
395.35	2877.40
395.56	2918.36
395.76	2996.18
395.97	2793.43
396.18	2879.44
396.39	3100.62
396.60	3594.19
396.80	3074.00
397.01	3018.71
397.22	3176.40
397.43	3178.45
397.64	2861.01
397.84	2942.93
398.05	3364.81
398.26	3045.33
398.47	2973.65
398.67	3016.66
398.88	2897.88
399.09	3200.98
399.30	2834.39
399.51	2877.40
399.71	2826.20
399.92	3006.42
400.13	2967.51
400.34	2863.06
400.54	2942.93
400.75	3278.80
400.96	3014.61
401.17	3129.30
401.37	3166.16
401.58	3030.99
401.79	2805.72
402.00	3014.61
402.21	3481.55
402.41	3139.54
402.62	3123.15
402.83	3121.10
403.04	3358.67
403.24	3645.38
403.45	2910.16
403.66	3145.68
403.87	3147.73
404.07	3272.65
404.28	3104.72
404.49	3121.10
404.70	3030.99
404.90	3110.86
405.11	2891.73
405.32	2924.50
405.52	2852.82
405.73	2981.84
405.94	2752.47
406.15	2940.88
406.35	3055.57
406.56	3098.58
406.77	2940.88
406.98	2883.54
407.18	2908.12
407.39	3221.45
407.60	2877.40
407.80	2895.83
408.01	2895.83
408.22	3026.90
408.43	2721.75
408.63	2977.75
408.84	3143.63
409.05	3098.58
409.25	2811.86
409.46	2848.72
409.67	2885.59
409.88	2885.59
410.08	2852.82
410.29	2822.10
410.50	3119.06
410.70	3043.28
410.91	2736.09
411.12	2852.82
411.32	2961.36
411.53	2805.72
411.74	2844.63
411.95	2897.88
412.15	2973.65
412.36	3074.00
412.57	2957.27
412.77	2987.99
412.98	2885.59
413.19	2926.55
413.39	2930.64
413.60	2908.12
413.81	3190.74
414.01	2824.15
414.22	2875.35
414.43	2992.08
414.63	2811.86
414.84	3176.40
415.05	2881.49
415.25	2680.79
415.46	3112.91
415.67	2934.74
415.87	2897.88
416.08	2922.45
416.29	2975.70
416.49	3080.14
416.70	2848.72
416.91	2869.20
417.11	2912.21
417.32	3123.15
417.53	3004.37
417.73	2959.31
417.94	2944.98
418.15	3006.42
418.35	2854.87
418.56	2897.88
418.77	3379.15
418.97	2899.92
419.18	2873.30
419.38	2510.81
419.59	2973.65
419.80	3198.93
420.00	2789.33
420.21	2844.63
420.42	3200.98
420.62	2977.75
420.83	2762.71
421.04	2887.64
421.24	3037.14
421.45	3178.45
421.65	2877.40
421.86	2912.21
422.07	3147.73
422.27	2969.55
422.48	2785.24
422.69	2717.65
422.89	2940.88
423.10	2895.83
423.30	2682.84
423.51	2930.64
423.72	3147.73
423.92	3164.11
424.13	2715.61
424.33	2934.74
424.54	3133.39
424.75	3102.67
424.95	3082.19
425.16	2791.38
425.36	2994.13
425.57	3129.30
425.78	2908.12
425.98	2947.03
426.19	2949.08
426.39	2889.68
426.60	2947.03
426.81	2985.94
427.01	2979.79
427.22	2818.00
427.42	2607.06
427.63	2783.19
427.83	3137.49
428.04	3280.85
428.25	2922.45
428.45	2959.31
428.66	3155.92
428.86	2938.84
429.07	2807.77
429.28	2852.82
429.48	2934.74
429.69	2830.29
429.89	2895.83
430.10	2717.65
430.30	3033.04
430.51	3123.15
430.71	2797.53
430.92	2756.57
431.13	2928.60
431.33	3143.63
431.54	2920.40
431.74	3008.47
431.95	3366.86
432.15	2828.24
432.36	2803.67
432.56	2863.06
432.77	3344.33
432.98	3295.18
433.18	2899.92
433.39	2725.85
433.59	2975.70
433.80	3323.85
434.00	3035.09
434.21	2844.63
434.41	2858.96
434.62	3444.68
434.82	2752.47
435.03	2785.24
435.23	3004.37
435.44	2762.71
435.64	2760.66
435.85	2912.21
436.06	3067.86
436.26	3221.45
436.47	2895.83
436.67	2832.34
436.88	2996.18
437.08	3215.31
437.29	2961.36
437.49	2979.79
437.70	3123.15
437.90	2985.94
438.11	3030.99
438.31	2951.12
438.52	3225.55
438.72	3141.58
438.93	3194.83
439.13	2965.46
439.34	3192.78
439.54	2951.12
439.75	2949.08
439.95	2836.44
440.16	2893.78
440.36	2992.08
440.57	2918.36
440.77	2799.57
440.98	2908.12
441.18	3061.71
441.39	2752.47
441.59	2650.07
441.80	3268.56
442.00	2926.55
442.21	2895.83
442.41	2707.41
442.62	3127.25
442.82	2918.36
443.02	2848.72
443.23	2881.49
443.43	2926.55
443.64	3258.32
443.84	2772.95
444.05	2906.07
444.25	2975.70
444.46	2854.87
444.66	2807.77
444.87	3166.16
445.07	2750.42
445.28	2951.12
445.48	3045.33
445.69	2832.34
445.89	3502.03
446.09	2928.60
446.30	3170.26
446.50	3209.17
446.71	4702.14
446.91	5754.79
447.12	6504.35
447.32	7055.25
447.53	6891.41
447.73	5754.79
447.93	5052.34
448.14	4749.24
448.34	4931.51
448.55	4063.17
448.75	4149.18
448.96	3835.85
449.16	3600.33
449.36	3502.03
449.57	3074.00
449.77	2920.40
449.98	2971.60
450.18	3053.52
450.39	2766.81
450.59	3035.09
450.79	3030.99
451.00	2867.16
451.20	3033.04
451.41	2832.34
451.61	3024.85
451.81	2938.84
452.02	2828.24
452.22	2846.68
452.43	2832.34
452.63	2824.15
