SpectraSuite Data File
++++++++++++++++++++++++++++++++++++
Date: Thu May 05 21:10:44 CEST 2016
User: root
Dark Spectrum Present: No
Reference Spectrum Present: No
Number of Sampled Component Spectra: 1
Spectrometers: USB4C02835
Integration Time (usec): 100000 (USB4C02835)
Spectra Averaged: 1 (USB4C02835)
Boxcar Smoothing: 0 (USB4C02835)
Correct for Electrical Dark: No (USB4C02835)
Strobe/Lamp Enabled: No (USB4C02835)
Correct for Detector Non-linearity: No (USB4C02835)
Correct for Stray Light: No (USB4C02835)
Number of Pixels in Processed Spectrum: 3648
>>>>>Begin Processed Spectral Data<<<<<
177.47	2162.66
177.69	2162.66
177.91	2162.66
178.13	2113.50
178.36	2095.07
178.58	2826.20
178.80	2959.31
179.02	2682.84
179.24	2832.34
179.46	2691.03
179.68	2713.56
179.90	3035.09
180.13	2992.08
180.35	2533.34
180.57	2609.11
180.79	3053.52
181.01	3028.95
181.23	2697.17
181.45	2770.90
181.67	3125.20
181.90	3125.20
182.12	2672.60
182.34	2516.95
182.56	3100.62
182.78	3074.00
183.00	2615.26
183.22	2770.90
183.44	2715.61
183.66	3444.68
183.89	2795.48
184.11	2713.56
184.33	3090.38
184.55	3114.96
184.77	2699.22
184.99	2723.80
185.21	2891.73
185.43	3385.29
185.65	2719.70
185.87	2545.63
186.10	3315.66
186.32	3360.72
186.54	2758.61
186.76	2775.00
186.98	3190.74
187.20	2953.17
187.42	2750.42
187.64	2623.45
187.86	3055.57
188.08	3121.10
188.30	2549.72
188.52	2674.65
188.75	3180.50
188.97	3192.78
189.19	2602.97
189.41	2682.84
189.63	3088.34
189.85	2901.97
190.07	2508.76
190.29	2488.28
190.51	3086.29
190.73	2754.52
190.95	2832.34
191.17	2740.18
191.39	2754.52
191.61	2959.31
191.84	2697.17
192.06	2791.38
192.28	2734.04
192.50	3565.51
192.72	2813.91
192.94	2756.57
193.16	3157.97
193.38	3010.51
193.60	2611.16
193.82	2791.38
194.04	3215.31
194.26	3035.09
194.48	2664.41
194.70	2695.13
194.92	2953.17
195.14	3053.52
195.36	2711.51
195.58	2781.14
195.80	2916.31
196.02	2871.25
196.24	2598.87
196.46	2797.53
196.69	2955.22
196.91	3434.44
197.13	2639.83
197.35	2711.51
197.57	3231.69
197.79	3139.54
198.01	2756.57
198.23	2727.89
198.45	3102.67
198.67	2820.05
198.89	2519.00
199.11	2809.81
199.33	2861.01
199.55	2607.06
199.77	2670.55
199.99	2871.25
200.21	2875.35
200.43	3028.95
200.65	2590.68
200.87	2535.39
201.09	2906.07
201.31	2938.84
201.53	2766.81
201.75	2867.16
201.97	3057.62
202.19	2965.46
202.41	2727.89
202.63	2803.67
202.85	3100.62
203.07	2996.18
203.29	2699.22
203.51	2629.59
203.73	2871.25
203.95	3491.79
204.17	2633.69
204.39	2758.61
204.61	3071.95
204.83	2910.16
205.05	2863.06
205.27	2715.61
205.49	3344.33
205.71	2928.60
205.93	2504.67
206.15	2645.98
206.37	2990.03
206.59	3000.27
206.81	2559.96
207.03	2566.10
207.25	2803.67
207.47	3061.71
207.69	2711.51
207.91	2879.44
208.13	3286.99
208.34	2897.88
208.56	2678.74
208.78	2715.61
209.00	2871.25
209.22	2910.16
209.44	2707.41
209.66	2631.64
209.88	2971.60
210.10	3014.61
210.32	2721.75
210.54	2736.09
210.76	2951.12
210.98	3149.78
211.20	2543.58
211.42	2789.33
211.64	3190.74
211.86	3088.34
212.08	2736.09
212.30	2607.06
212.52	2928.60
212.74	3094.48
212.96	2818.00
213.17	2752.47
213.39	3112.91
213.61	3327.95
213.83	2639.83
214.05	2658.26
214.27	3137.49
214.49	2846.68
214.71	2666.46
214.93	2748.37
215.15	2957.27
215.37	3155.92
215.59	2539.48
215.81	2699.22
216.03	3164.11
216.24	2969.55
216.46	2699.22
216.68	2705.37
216.90	3057.62
217.12	3157.97
217.34	2633.69
217.56	2850.77
217.78	3336.14
218.00	3080.14
218.22	2762.71
218.44	2883.54
218.66	2979.79
218.87	3440.59
219.09	2637.78
219.31	2721.75
219.53	3127.25
219.75	2990.03
219.97	2672.60
220.19	2719.70
220.41	3045.33
220.63	3237.84
220.85	2662.36
221.06	2629.59
221.28	3180.50
221.50	3020.75
221.72	2688.98
221.94	2633.69
222.16	2963.41
222.38	3137.49
222.60	2555.86
222.82	2793.43
223.03	3176.40
223.25	2785.24
223.47	2684.89
223.69	2971.60
223.91	3121.10
224.13	2951.12
224.35	2600.92
224.57	2889.68
224.78	3098.58
225.00	2856.92
225.22	2723.80
225.44	2625.50
225.66	3153.87
225.88	2824.15
226.10	2815.96
226.32	2664.41
226.53	3237.84
226.75	2838.48
226.97	2752.47
227.19	2688.98
227.41	2809.81
227.63	2971.60
227.85	2512.86
228.06	2744.28
228.28	3012.56
228.50	3211.22
228.72	2559.96
228.94	2650.07
229.16	2609.11
229.37	2838.48
229.59	2586.58
229.81	2858.96
230.03	2932.69
230.25	2770.90
230.47	2562.01
230.69	2648.02
230.90	3047.38
231.12	2877.40
231.34	2754.52
231.56	2707.41
231.78	2811.86
232.00	3049.43
232.21	2703.32
232.43	2740.18
232.65	2656.22
232.87	3061.71
233.09	2570.20
233.30	2594.78
233.52	3219.41
233.74	2955.22
233.96	2652.12
234.18	2777.05
234.40	3000.27
234.61	3373.00
234.83	2549.72
235.05	2652.12
235.27	3551.18
235.49	3215.31
235.70	2564.06
235.92	2729.94
236.14	3084.24
236.36	3381.20
236.58	2664.41
236.79	2779.09
237.01	2918.36
237.23	2930.64
237.45	2959.31
237.67	2740.18
237.88	3065.81
238.10	3334.09
238.32	2611.16
238.54	2676.70
238.76	2893.78
238.97	2820.05
239.19	2639.83
239.41	2699.22
239.63	3096.53
239.85	2871.25
240.06	2707.41
240.28	2650.07
240.50	3141.58
240.72	2979.79
240.93	2617.30
241.15	2850.77
241.37	2961.36
241.59	3227.60
241.81	2699.22
242.02	2738.13
242.24	3082.19
242.46	3082.19
242.68	2500.57
242.89	2629.59
243.11	3074.00
243.33	2887.64
243.55	2711.51
243.76	2762.71
243.98	2897.88
244.20	3028.95
244.42	2684.89
244.64	2674.65
244.85	2738.13
245.07	2818.00
245.29	2629.59
245.51	2695.13
245.72	3076.05
245.94	3147.73
246.16	2756.57
246.38	2754.52
246.59	2901.97
246.81	2842.58
247.03	2586.58
247.24	2541.53
247.46	2828.24
247.68	3006.42
247.90	2574.30
248.11	2772.95
248.33	3145.68
248.55	2992.08
248.77	2744.28
248.98	2768.85
249.20	3284.94
249.42	3006.42
249.64	2637.78
249.85	2639.83
250.07	2928.60
250.29	3127.25
250.50	2742.23
250.72	2547.67
250.94	2990.03
251.16	3311.57
251.37	2672.60
251.59	2734.04
251.81	2979.79
252.02	3176.40
252.24	2592.73
252.46	2906.07
252.68	2883.54
252.89	2793.43
253.11	2570.20
253.33	2850.77
253.54	3194.83
253.76	2803.67
253.98	2670.55
254.20	2576.34
254.41	2801.62
254.63	2975.70
254.85	2529.24
255.06	2791.38
255.28	3069.91
255.50	2934.74
255.71	2625.50
255.93	2543.58
256.15	2977.75
256.36	3063.76
256.58	2582.49
256.80	2656.22
257.02	2891.73
257.23	2899.92
257.45	2795.48
257.67	2777.05
257.88	2936.79
258.10	3030.99
258.32	2652.12
258.53	2697.17
258.75	3338.19
258.97	2916.31
259.18	2631.64
259.40	2652.12
259.62	3313.61
259.83	3254.22
260.05	2691.03
260.27	3397.58
260.48	3143.63
260.70	2760.66
260.92	2553.82
261.13	2717.65
261.35	3020.75
261.57	3110.86
261.78	2562.01
262.00	2549.72
262.22	3096.53
262.43	2811.86
262.65	2701.27
262.86	2760.66
263.08	3450.83
263.30	2969.55
263.51	2537.43
263.73	2658.26
263.95	3354.57
264.16	2811.86
264.38	2557.91
264.60	2693.08
264.81	2944.98
265.03	3117.01
265.25	3067.86
265.46	2635.74
265.68	3215.31
265.89	3041.23
266.11	2562.01
266.33	2666.46
266.54	3223.50
266.76	3106.77
266.98	2793.43
267.19	2895.83
267.41	3215.31
267.62	2934.74
267.84	2545.63
268.06	2783.19
268.27	3018.71
268.49	3141.58
268.70	2717.65
268.92	2729.94
269.14	2830.29
269.35	2705.37
269.57	2723.80
269.79	2740.18
270.00	2944.98
270.22	3235.79
270.43	2660.31
270.65	2559.96
270.87	3043.28
271.08	3100.62
271.30	2789.33
271.51	2768.85
271.73	3100.62
271.95	3262.41
272.16	2660.31
272.38	2740.18
272.59	2914.26
272.81	2996.18
273.02	2668.50
273.24	2836.44
273.46	3164.11
273.67	2752.47
273.89	2631.64
274.10	2672.60
274.32	3192.78
274.54	3035.09
274.75	2815.96
274.97	2727.89
275.18	3117.01
275.40	2961.36
275.61	2678.74
275.83	2863.06
276.05	2772.95
276.26	2926.55
276.48	2752.47
276.69	2803.67
276.91	2856.92
277.12	3280.85
277.34	2914.26
277.55	2938.84
277.77	3012.56
277.99	2957.27
278.20	2721.75
278.42	2734.04
278.63	2842.58
278.85	2834.39
279.06	2764.76
279.28	2883.54
279.49	3137.49
279.71	3098.58
279.93	2811.86
280.14	2772.95
280.36	2932.69
280.57	3149.78
280.79	2877.40
281.00	2754.52
281.22	2910.16
281.43	3276.75
281.65	2582.49
281.86	2666.46
282.08	3092.43
282.29	3350.48
282.51	2631.64
282.73	2639.83
282.94	2652.12
283.16	3063.76
283.37	2891.73
283.59	2869.20
283.80	3084.24
284.02	2957.27
284.23	2897.88
284.45	2803.67
284.66	2848.72
284.88	2877.40
285.09	2820.05
285.31	2879.44
285.52	3028.95
285.74	2693.08
285.95	3000.27
286.17	2885.59
286.38	3190.74
286.60	2881.49
286.81	2748.37
287.03	2795.48
287.24	2904.02
287.46	3110.86
287.67	2914.26
287.89	3028.95
288.10	2908.12
288.32	3004.37
288.53	2975.70
288.75	2779.09
288.96	3065.81
289.18	2926.55
289.39	2750.42
289.61	2838.48
289.82	3418.06
290.04	3327.95
290.25	2658.26
290.47	2848.72
290.68	2930.64
290.90	3133.39
291.11	2654.17
291.33	2944.98
291.54	2848.72
291.76	2893.78
291.97	2922.45
292.18	2883.54
292.40	2916.31
292.61	2805.72
292.83	3008.47
293.04	2893.78
293.26	2971.60
293.47	2961.36
293.69	2674.65
293.90	2791.38
294.12	3176.40
294.33	2957.27
294.55	2807.77
294.76	2969.55
294.97	3182.54
295.19	3325.90
295.40	2738.13
295.62	2856.92
295.83	3104.72
296.05	2834.39
296.26	2979.79
296.48	2826.20
296.69	2990.03
296.90	2955.22
297.12	2994.13
297.33	2936.79
297.55	2957.27
297.76	3086.29
297.98	2961.36
298.19	2883.54
298.41	2891.73
298.62	2856.92
298.83	3047.38
299.05	2908.12
299.26	2992.08
299.48	2779.09
299.69	2895.83
299.90	2777.05
300.12	2795.48
300.33	3114.96
300.55	2891.73
300.76	2805.72
300.98	2693.08
301.19	3119.06
301.40	2787.29
301.62	2697.17
301.83	3094.48
302.05	2975.70
302.26	2791.38
302.47	2891.73
302.69	2877.40
302.90	2975.70
303.12	2717.65
303.33	2955.22
303.54	3319.76
303.76	2879.44
303.97	2740.18
304.19	2944.98
304.40	2805.72
304.61	3047.38
304.83	2983.89
305.04	2875.35
305.26	3108.82
305.47	2840.53
305.68	2715.61
305.90	2719.70
306.11	3250.13
306.33	2979.79
306.54	2693.08
306.75	2740.18
306.97	2731.99
307.18	2875.35
307.39	2807.77
307.61	2895.83
307.82	3000.27
308.04	3039.19
308.25	2684.89
308.46	2815.96
308.68	2985.94
308.89	3012.56
309.10	2861.01
309.32	2813.91
309.53	3004.37
309.74	3155.92
309.96	2664.41
310.17	2861.01
310.39	2983.89
310.60	3100.62
310.81	2854.87
311.03	2668.50
311.24	3078.10
311.45	2977.75
311.67	3104.72
311.88	2904.02
312.09	2965.46
312.31	2887.64
312.52	2803.67
312.73	2772.95
312.95	2713.56
313.16	2867.16
313.37	2987.99
313.59	2953.17
313.80	3043.28
314.01	3235.79
314.23	2723.80
314.44	2803.67
314.65	2719.70
314.87	2787.29
315.08	2768.85
315.29	2789.33
315.51	2818.00
315.72	2766.81
315.93	2944.98
316.15	2815.96
316.36	2906.07
316.57	2975.70
316.79	2815.96
317.00	2791.38
317.21	3084.24
317.43	2867.16
317.64	2850.77
317.85	2709.46
318.07	2889.68
318.28	2895.83
318.49	2965.46
318.70	3016.66
318.92	2983.89
319.13	3022.80
319.34	2961.36
319.56	2772.95
319.77	3049.43
319.98	3074.00
320.20	3030.99
320.41	2926.55
320.62	3059.67
320.83	2775.00
321.05	3043.28
321.26	2805.72
321.47	3016.66
321.69	3076.05
321.90	2748.37
322.11	2772.95
322.32	3053.52
322.54	3223.50
322.75	2772.95
322.96	3594.19
323.18	2715.61
323.39	2682.84
323.60	2660.31
323.81	2899.92
324.03	2818.00
324.24	2998.23
324.45	2910.16
324.66	2717.65
324.88	3112.91
325.09	3137.49
325.30	2815.96
325.52	2742.23
325.73	3080.14
325.94	2811.86
326.15	2656.22
326.37	2742.23
326.58	3092.43
326.79	3205.07
327.00	2736.09
327.22	2809.81
327.43	2934.74
327.64	2717.65
327.85	2955.22
328.07	2844.63
328.28	3379.15
328.49	2961.36
328.70	2830.29
328.92	2869.20
329.13	3020.75
329.34	3039.19
329.55	3004.37
329.76	2926.55
329.98	2975.70
330.19	3205.07
330.40	2883.54
330.61	2901.97
330.83	3102.67
331.04	2924.50
331.25	2844.63
331.46	2854.87
331.68	2764.76
331.89	3139.54
332.10	2787.29
332.31	2801.62
332.52	2996.18
332.74	3166.16
332.95	2611.16
333.16	2795.48
333.37	3143.63
333.58	2838.48
333.80	2846.68
334.01	2582.49
334.22	2965.46
334.43	2832.34
334.64	2772.95
334.86	2717.65
335.07	2869.20
335.28	3241.93
335.49	2703.32
335.70	2955.22
335.92	3243.98
336.13	3323.85
336.34	2865.11
336.55	2836.44
336.76	3033.04
336.98	2656.22
337.19	2844.63
337.40	2904.02
337.61	3418.06
337.82	2873.30
338.04	2951.12
338.25	2637.78
338.46	2969.55
338.67	2838.48
338.88	2709.46
339.09	2766.81
339.31	2969.55
339.52	2799.57
339.73	2734.04
339.94	2875.35
340.15	3182.54
340.36	2748.37
340.58	2799.57
340.79	2660.31
341.00	3096.53
341.21	2832.34
341.42	2990.03
341.63	2828.24
341.85	3198.93
342.06	3002.32
342.27	2820.05
342.48	2983.89
342.69	2791.38
342.90	3016.66
343.12	3121.10
343.33	2725.85
343.54	3182.54
343.75	3291.09
343.96	2885.59
344.17	2719.70
344.38	2951.12
344.60	2848.72
344.81	2709.46
345.02	2727.89
345.23	3119.06
345.44	3391.44
345.65	2838.48
345.86	2871.25
346.07	2979.79
346.29	2865.11
346.50	2904.02
346.71	2838.48
346.92	3282.89
347.13	3362.76
347.34	2871.25
347.55	2715.61
347.76	3084.24
347.98	2766.81
348.19	2834.39
348.40	3033.04
348.61	2914.26
348.82	3243.98
349.03	2830.29
349.24	2668.50
349.45	3323.85
349.66	2641.88
349.88	2842.58
350.09	2713.56
350.30	3317.71
350.51	3237.84
350.72	2861.01
350.93	2789.33
351.14	2922.45
351.35	3028.95
351.56	2838.48
351.77	2850.77
351.99	3106.77
352.20	3286.99
352.41	2904.02
352.62	2639.83
352.83	3016.66
353.04	3002.32
353.25	2822.10
353.46	2770.90
353.67	3172.30
353.88	2605.02
354.09	2768.85
354.30	2932.69
354.52	3080.14
354.73	3020.75
354.94	2705.37
355.15	2781.14
355.36	3340.24
355.57	2893.78
355.78	2740.18
355.99	2807.77
356.20	2922.45
356.41	3186.64
356.62	2848.72
356.83	2779.09
357.04	3174.35
357.25	2680.79
357.46	2834.39
357.68	2656.22
357.89	2781.14
358.10	2969.55
358.31	2764.76
358.52	2791.38
358.73	2783.19
358.94	2744.28
359.15	2781.14
359.36	2861.01
359.57	2926.55
359.78	2944.98
359.99	2981.84
360.20	2797.53
360.41	2916.31
360.62	3074.00
360.83	2914.26
361.04	2850.77
361.25	3053.52
361.46	3235.79
361.67	2865.11
361.88	2936.79
362.09	3143.63
362.30	3030.99
362.51	2813.91
362.72	2770.90
362.93	3137.49
363.14	3051.47
363.35	2881.49
363.56	2727.89
363.78	3213.26
363.99	3139.54
364.20	2772.95
364.41	2830.29
364.62	3309.52
364.83	3033.04
365.04	2891.73
365.25	2787.29
365.46	3286.99
365.67	2834.39
365.88	2985.94
366.09	2818.00
366.30	2922.45
366.51	3028.95
366.72	2736.09
366.93	2844.63
367.14	3006.42
367.35	3362.76
367.56	2775.00
367.77	2973.65
367.98	2994.13
368.18	3108.82
368.39	2926.55
368.60	2727.89
368.81	3096.53
369.02	2996.18
369.23	2867.16
369.44	2633.69
369.65	2869.20
369.86	3010.51
370.07	2936.79
370.28	2668.50
370.49	3088.34
370.70	3108.82
370.91	2727.89
371.12	2658.26
371.33	3209.17
371.54	2928.60
371.75	2928.60
371.96	2527.19
372.17	2971.60
372.38	2916.31
372.59	2908.12
372.80	2750.42
373.01	2942.93
373.22	2963.41
373.43	2840.53
373.64	2691.03
373.85	3190.74
374.06	3239.89
374.26	2961.36
374.47	2904.02
374.68	3307.47
374.89	2987.99
375.10	2836.44
375.31	2824.15
375.52	2936.79
375.73	2981.84
375.94	2660.31
376.15	3002.32
376.36	2807.77
376.57	2863.06
376.78	2811.86
376.99	2879.44
377.20	3200.98
377.40	2926.55
377.61	3127.25
377.82	2699.22
378.03	3106.77
378.24	3086.29
378.45	2906.07
378.66	2936.79
378.87	2713.56
379.08	2734.04
379.29	2826.20
379.50	3016.66
379.71	2987.99
379.91	3102.67
380.12	2793.43
380.33	2858.96
380.54	3018.71
380.75	3053.52
380.96	2736.09
381.17	2916.31
381.38	3102.67
381.59	2893.78
381.80	2785.24
382.00	2994.13
382.21	3014.61
382.42	3344.33
382.63	3071.95
382.84	2910.16
383.05	3133.39
383.26	3170.26
383.47	2949.08
383.68	2813.91
383.88	3104.72
384.09	3033.04
384.30	3002.32
384.51	2897.88
384.72	2906.07
384.93	2799.57
385.14	2897.88
385.35	3016.66
385.55	2750.42
385.76	3176.40
385.97	2871.25
386.18	2662.36
386.39	2858.96
386.60	2912.21
386.81	2799.57
387.02	2713.56
387.22	2738.13
387.43	3086.29
387.64	2848.72
387.85	3051.47
388.06	3053.52
388.27	4104.13
388.48	7333.78
388.68	10745.69
388.89	13268.79
389.10	14479.14
389.31	13956.91
389.52	11138.90
389.73	9643.88
389.93	8851.32
390.14	8093.57
390.35	7415.69
390.56	6688.67
390.77	5631.91
390.98	4319.17
391.18	3678.15
391.39	3340.24
391.60	3030.99
391.81	3043.28
392.02	2850.77
392.23	3344.33
392.43	3037.14
392.64	2961.36
392.85	2965.46
393.06	3284.94
393.27	3002.32
393.47	2738.13
393.68	3016.66
393.89	3000.27
394.10	3221.45
394.31	2818.00
394.52	2818.00
394.72	2865.11
394.93	3280.85
395.14	2750.42
395.35	2930.64
395.56	2953.17
395.76	2926.55
395.97	2775.00
396.18	2981.84
396.39	2969.55
396.60	3565.51
396.80	3069.91
397.01	3057.62
397.22	3053.52
397.43	3176.40
397.64	2809.81
397.84	2916.31
398.05	3383.24
398.26	3008.47
398.47	2895.83
398.67	3078.10
398.88	2961.36
399.09	3039.19
399.30	2820.05
399.51	2844.63
399.71	2736.09
399.92	3008.47
400.13	2926.55
400.34	2828.24
400.54	2992.08
400.75	3332.05
400.96	3059.67
401.17	3117.01
401.37	3020.75
401.58	2936.79
401.79	2830.29
402.00	3018.71
402.21	3428.30
402.41	3114.96
402.62	3149.78
402.83	3121.10
403.04	3319.76
403.24	3620.81
403.45	2906.07
403.66	3190.74
403.87	3243.98
404.07	3379.15
404.28	3033.04
404.49	3076.05
404.70	3098.58
404.90	3131.34
405.11	2899.92
405.32	2912.21
405.52	2867.16
405.73	2877.40
405.94	2746.33
406.15	2818.00
406.35	3131.34
406.56	3049.43
406.77	2846.68
406.98	2799.57
407.18	2908.12
407.39	3250.13
407.60	2824.15
407.80	2951.12
408.01	2965.46
408.22	3049.43
408.43	2770.90
408.63	2897.88
408.84	3129.30
409.05	3117.01
409.25	2727.89
409.46	2770.90
409.67	2930.64
409.88	2828.24
410.08	2850.77
410.29	2818.00
410.50	3121.10
410.70	3059.67
410.91	2695.13
411.12	2963.41
411.32	3000.27
411.53	2760.66
411.74	2815.96
411.95	2899.92
412.15	3022.80
412.36	3041.23
412.57	2996.18
412.77	3078.10
412.98	2942.93
413.19	2895.83
413.39	2920.40
413.60	2867.16
413.81	3334.09
414.01	2844.63
414.22	2852.82
414.43	2983.89
414.63	2889.68
414.84	3067.86
415.05	2881.49
415.25	2750.42
415.46	3071.95
415.67	2832.34
415.87	2840.53
416.08	2797.53
416.29	2942.93
416.49	3086.29
416.70	2867.16
416.91	2836.44
417.11	2932.69
417.32	3207.12
417.53	2914.26
417.73	2906.07
417.94	2944.98
418.15	3065.81
418.35	2895.83
418.56	2854.87
418.77	3360.72
418.97	3010.51
419.18	2883.54
419.38	2621.40
419.59	2942.93
419.80	3301.33
420.00	2879.44
420.21	2799.57
420.42	3233.74
420.62	3043.28
420.83	2779.09
421.04	2865.11
421.24	2885.59
421.45	3129.30
421.65	2955.22
421.86	2803.67
422.07	3084.24
422.27	3082.19
422.48	2801.62
422.69	2633.69
422.89	3016.66
423.10	2863.06
423.30	2742.23
423.51	2854.87
423.72	3024.85
423.92	3114.96
424.13	2680.79
424.33	2904.02
424.54	3078.10
424.75	3088.34
424.95	3110.86
425.16	2807.77
425.36	3002.32
425.57	3135.44
425.78	2922.45
425.98	2955.22
426.19	2908.12
426.39	2787.29
426.60	2951.12
426.81	2947.03
427.01	3053.52
427.22	2932.69
427.42	2713.56
427.63	2723.80
427.83	3143.63
428.04	3319.76
428.25	2904.02
428.45	3008.47
428.66	3137.49
428.86	2930.64
429.07	2852.82
429.28	2858.96
429.48	2944.98
429.69	2844.63
429.89	2987.99
430.10	2682.84
430.30	3059.67
430.51	3172.30
430.71	2818.00
430.92	2781.14
431.13	2947.03
431.33	2998.23
431.54	2983.89
431.74	3110.86
431.95	3438.54
432.15	2893.78
432.36	2887.64
432.56	2926.55
432.77	3354.57
432.98	3289.04
433.18	2895.83
433.39	2811.86
433.59	2979.79
433.80	3297.23
434.00	3020.75
434.21	2887.64
434.41	2844.63
434.62	3436.49
434.82	2674.65
435.03	2711.51
435.23	3074.00
435.44	2715.61
435.64	2811.86
435.85	2906.07
436.06	3047.38
436.26	3192.78
436.47	2844.63
436.67	2842.58
436.88	2967.51
437.08	3205.07
437.29	2973.65
437.49	2906.07
437.70	3221.45
437.90	2910.16
438.11	2967.51
438.31	2887.64
438.52	3200.98
438.72	3096.53
438.93	3164.11
439.13	2959.31
439.34	3190.74
439.54	2906.07
439.75	2951.12
439.95	2873.30
440.16	2869.20
440.36	2983.89
440.57	2873.30
440.77	2877.40
440.98	3039.19
441.18	3061.71
441.39	2813.91
441.59	2697.17
441.80	3346.38
442.00	2930.64
442.21	2918.36
442.41	2678.74
442.62	3170.26
442.82	2893.78
443.02	2826.20
443.23	2963.41
443.43	2965.46
443.64	3219.41
443.84	2734.04
444.05	3035.09
444.25	3018.71
444.46	2942.93
444.66	2807.77
444.87	3010.51
445.07	2738.13
445.28	3002.32
445.48	3018.71
445.69	2940.88
445.89	3350.48
446.09	2899.92
446.30	3243.98
446.50	3166.16
446.71	4607.93
446.91	5754.79
447.12	6594.46
447.32	6952.85
447.53	6774.68
447.73	5771.18
447.93	4962.23
448.14	4747.19
448.34	4865.97
448.55	4044.74
448.75	3889.09
448.96	3762.12
449.16	3647.43
449.36	3502.03
449.57	3094.48
449.77	2908.12
449.98	2887.64
450.18	3080.14
450.39	2863.06
450.59	2959.31
450.79	3018.71
451.00	2795.48
451.20	2985.94
451.41	2850.77
451.61	3076.05
451.81	2924.50
452.02	2756.57
452.22	2895.83
452.43	2944.98
452.63	2879.44
