SpectraSuite Data File
++++++++++++++++++++++++++++++++++++
Date: Thu May 05 21:10:45 CEST 2016
User: root
Dark Spectrum Present: No
Reference Spectrum Present: No
Number of Sampled Component Spectra: 1
Spectrometers: USB4C02835
Integration Time (usec): 100000 (USB4C02835)
Spectra Averaged: 1 (USB4C02835)
Boxcar Smoothing: 0 (USB4C02835)
Correct for Electrical Dark: No (USB4C02835)
Strobe/Lamp Enabled: No (USB4C02835)
Correct for Detector Non-linearity: No (USB4C02835)
Correct for Stray Light: No (USB4C02835)
Number of Pixels in Processed Spectrum: 3648
>>>>>Begin Processed Spectral Data<<<<<
177.47	2164.70
177.69	2164.70
177.91	2164.70
178.13	2172.89
178.36	2168.80
178.58	2697.17
178.80	2883.54
179.02	2822.10
179.24	2777.05
179.46	2648.02
179.68	2658.26
179.90	2992.08
180.13	3104.72
180.35	2533.34
180.57	2627.54
180.79	3133.39
181.01	2904.02
181.23	2674.65
181.45	2824.15
181.67	3063.76
181.90	3162.06
182.12	2744.28
182.34	2453.47
182.56	3098.58
182.78	3057.62
183.00	2602.97
183.22	2746.33
183.44	2607.06
183.66	3522.51
183.89	2783.19
184.11	2697.17
184.33	3088.34
184.55	3180.50
184.77	2650.07
184.99	2734.04
185.21	2910.16
185.43	3461.07
185.65	2686.94
185.87	2621.40
186.10	3452.88
186.32	3395.53
186.54	2805.72
186.76	2762.71
186.98	3258.32
187.20	2887.64
187.42	2783.19
187.64	2664.41
187.86	2983.89
188.08	3112.91
188.30	2596.82
188.52	2731.99
188.75	3172.30
188.97	3217.36
189.19	2691.03
189.41	2688.98
189.63	2990.03
189.85	2971.60
190.07	2543.58
190.29	2529.24
190.51	3131.34
190.73	2746.33
190.95	2871.25
191.17	2697.17
191.39	2772.95
191.61	2897.88
191.84	2729.94
192.06	2803.67
192.28	2699.22
192.50	3483.59
192.72	2760.66
192.94	2740.18
193.16	3149.78
193.38	3063.76
193.60	2629.59
193.82	2897.88
194.04	3196.88
194.26	3096.53
194.48	2580.44
194.70	2713.56
194.92	2922.45
195.14	3061.71
195.36	2699.22
195.58	2758.61
195.80	2967.51
196.02	2918.36
196.24	2645.98
196.46	2852.82
196.69	2918.36
196.91	3444.68
197.13	2684.89
197.35	2672.60
197.57	3280.85
197.79	3123.15
198.01	2682.84
198.23	2740.18
198.45	3084.24
198.67	2805.72
198.89	2557.91
199.11	2768.85
199.33	2858.96
199.55	2582.49
199.77	2639.83
199.99	2887.64
200.21	2861.01
200.43	2996.18
200.65	2533.34
200.87	2578.39
201.09	2983.89
201.31	2940.88
201.53	2691.03
201.75	2738.13
201.97	3024.85
202.19	3012.56
202.41	2834.39
202.63	2803.67
202.85	3135.44
203.07	3061.71
203.29	2750.42
203.51	2609.11
203.73	2965.46
203.95	3491.79
204.17	2693.08
204.39	2824.15
204.61	3004.37
204.83	2863.06
205.05	2869.20
205.27	2672.60
205.49	3336.14
205.71	2934.74
205.93	2645.98
206.15	2625.50
206.37	2916.31
206.59	2877.40
206.81	2574.30
207.03	2580.44
207.25	2836.44
207.47	3004.37
207.69	2738.13
207.91	2869.20
208.13	3268.56
208.34	2936.79
208.56	2674.65
208.78	2791.38
209.00	2961.36
209.22	2885.59
209.44	2801.62
209.66	2648.02
209.88	2973.65
210.10	2947.03
210.32	2650.07
210.54	2729.94
210.76	2965.46
210.98	3112.91
211.20	2584.54
211.42	2760.66
211.64	3241.93
211.86	3119.06
212.08	2830.29
212.30	2717.65
212.52	2949.08
212.74	3123.15
212.96	2770.90
213.17	2758.61
213.39	3094.48
213.61	3209.17
213.83	2684.89
214.05	2582.49
214.27	3239.89
214.49	2895.83
214.71	2695.13
214.93	2781.14
215.15	2951.12
215.37	3203.02
215.59	2572.25
215.81	2729.94
216.03	3254.22
216.24	2961.36
216.46	2693.08
216.68	2844.63
216.90	3080.14
217.12	3170.26
217.34	2676.70
217.56	2861.01
217.78	3207.12
218.00	3133.39
218.22	2820.05
218.44	2734.04
218.66	3084.24
218.87	3477.45
219.09	2684.89
219.31	2703.32
219.53	3127.25
219.75	2914.26
219.97	2758.61
220.19	2723.80
220.41	2951.12
220.63	3194.83
220.85	2619.35
221.06	2674.65
221.28	3334.09
221.50	3067.86
221.72	2772.95
221.94	2547.67
222.16	3039.19
222.38	3035.09
222.60	2600.92
222.82	2680.79
223.03	3196.88
223.25	2822.10
223.47	2631.64
223.69	2901.97
223.91	3137.49
224.13	3067.86
224.35	2609.11
224.57	2820.05
224.78	3059.67
225.00	2848.72
225.22	2791.38
225.44	2598.87
225.66	3033.04
225.88	2873.30
226.10	2822.10
226.32	2699.22
226.53	3293.13
226.75	2844.63
226.97	2805.72
227.19	2658.26
227.41	2883.54
227.63	2889.68
227.85	2484.19
228.06	2695.13
228.28	3076.05
228.50	3108.82
228.72	2582.49
228.94	2680.79
229.16	2731.99
229.37	2705.37
229.59	2602.97
229.81	2883.54
230.03	2969.55
230.25	2740.18
230.47	2525.15
230.69	2715.61
230.90	3037.14
231.12	2908.12
231.34	2791.38
231.56	2760.66
231.78	2820.05
232.00	3022.80
232.21	2693.08
232.43	2656.22
232.65	2705.37
232.87	3114.96
233.09	2584.54
233.30	2664.41
233.52	3266.51
233.74	3076.05
233.96	2697.17
234.18	2779.09
234.40	3016.66
234.61	3409.87
234.83	2637.78
235.05	2602.97
235.27	3485.64
235.49	3176.40
235.70	2609.11
235.92	2715.61
236.14	3164.11
236.36	3416.01
236.58	2641.88
236.79	2840.53
237.01	3020.75
237.23	2994.13
237.45	2836.44
237.67	2719.70
237.88	3061.71
238.10	3352.52
238.32	2662.36
238.54	2643.93
238.76	2996.18
238.97	2824.15
239.19	2611.16
239.41	2783.19
239.63	3153.87
239.85	2910.16
240.06	2688.98
240.28	2598.87
240.50	3221.45
240.72	2973.65
240.93	2576.34
241.15	2779.09
241.37	2996.18
241.59	3155.92
241.81	2668.50
242.02	2729.94
242.24	2990.03
242.46	3174.35
242.68	2547.67
242.89	2680.79
243.11	3067.86
243.33	2953.17
243.55	2645.98
243.76	2738.13
243.98	2846.68
244.20	2957.27
244.42	2668.50
244.64	2715.61
244.85	2750.42
245.07	2832.34
245.29	2703.32
245.51	2656.22
245.72	3047.38
245.94	3141.58
246.16	2703.32
246.38	2709.46
246.59	2891.73
246.81	2879.44
247.03	2590.68
247.24	2590.68
247.46	2881.49
247.68	3071.95
247.90	2568.15
248.11	2695.13
248.33	3147.73
248.55	2936.79
248.77	2815.96
248.98	2715.61
249.20	3227.60
249.42	2996.18
249.64	2619.35
249.85	2592.73
250.07	2891.73
250.29	3129.30
250.50	2762.71
250.72	2564.06
250.94	3051.47
251.16	3313.61
251.37	2680.79
251.59	2746.33
251.81	3016.66
252.02	3258.32
252.24	2654.17
252.46	2848.72
252.68	2781.14
252.89	2879.44
253.11	2529.24
253.33	2840.53
253.54	3190.74
253.76	2756.57
253.98	2713.56
254.20	2670.55
254.41	2709.46
254.63	2996.18
254.85	2557.91
255.06	2793.43
255.28	3053.52
255.50	2979.79
255.71	2645.98
255.93	2555.86
256.15	2936.79
256.36	3104.72
256.58	2482.14
256.80	2658.26
257.02	2985.94
257.23	2959.31
257.45	2717.65
257.67	2775.00
257.88	2875.35
258.10	3055.57
258.32	2680.79
258.53	2772.95
258.75	3198.93
258.97	2834.39
259.18	2533.34
259.40	2664.41
259.62	3289.04
259.83	3239.89
260.05	2652.12
260.27	3397.58
260.48	3108.82
260.70	2762.71
260.92	2588.63
261.13	2703.32
261.35	3084.24
261.57	3059.67
261.78	2551.77
262.00	2627.54
262.22	3065.81
262.43	2828.24
262.65	2686.94
262.86	2785.24
263.08	3375.05
263.30	3086.29
263.51	2535.39
263.73	2609.11
263.95	3217.36
264.16	2863.06
264.38	2670.55
264.60	2625.50
264.81	3008.47
265.03	3178.45
265.25	3026.90
265.46	2605.02
265.68	3274.70
265.89	3074.00
266.11	2559.96
266.33	2607.06
266.54	3129.30
266.76	3057.62
266.98	2785.24
267.19	2789.33
267.41	3090.38
267.62	3014.61
267.84	2525.15
268.06	2820.05
268.27	3028.95
268.49	3180.50
268.70	2781.14
268.92	2660.31
269.14	2822.10
269.35	2836.44
269.57	2742.23
269.79	2740.18
270.00	2852.82
270.22	3284.94
270.43	2611.16
270.65	2516.95
270.87	2996.18
271.08	3092.43
271.30	2752.47
271.51	2625.50
271.73	3067.86
271.95	3225.55
272.16	2615.26
272.38	2809.81
272.59	2932.69
272.81	3028.95
273.02	2668.50
273.24	2746.33
273.46	3143.63
273.67	2799.57
273.89	2531.29
274.10	2670.55
274.32	3286.99
274.54	3049.43
274.75	2785.24
274.97	2791.38
275.18	3133.39
275.40	3090.38
275.61	2658.26
275.83	2830.29
276.05	2813.91
276.26	2998.23
276.48	2748.37
276.69	2844.63
276.91	2893.78
277.12	3209.17
277.34	2873.30
277.55	2983.89
277.77	3047.38
277.99	2969.55
278.20	2760.66
278.42	2695.13
278.63	2844.63
278.85	2832.34
279.06	2648.02
279.28	2897.88
279.49	3145.68
279.71	3114.96
279.93	2893.78
280.14	2871.25
280.36	2889.68
280.57	3080.14
280.79	2926.55
281.00	2664.41
281.22	2920.40
281.43	3250.13
281.65	2594.78
281.86	2713.56
282.08	2953.17
282.29	3239.89
282.51	2643.93
282.73	2701.27
282.94	2764.76
283.16	3088.34
283.37	2940.88
283.59	2777.05
283.80	3141.58
284.02	2963.41
284.23	2803.67
284.45	2795.48
284.66	2875.35
284.88	2809.81
285.09	2705.37
285.31	2914.26
285.52	3086.29
285.74	2711.51
285.95	3014.61
286.17	2772.95
286.38	3141.58
286.60	2813.91
286.81	2762.71
287.03	2764.76
287.24	2979.79
287.46	3076.05
287.67	2861.01
287.89	3030.99
288.10	2949.08
288.32	2922.45
288.53	2955.22
288.75	2852.82
288.96	3098.58
289.18	2777.05
289.39	2719.70
289.61	2822.10
289.82	3336.14
290.04	3303.37
290.25	2731.99
290.47	2783.19
290.68	2926.55
290.90	3164.11
291.11	2693.08
291.33	2910.16
291.54	2797.53
291.76	2863.06
291.97	2940.88
292.18	2832.34
292.40	2871.25
292.61	2856.92
292.83	3160.02
293.04	2848.72
293.26	3080.14
293.47	2953.17
293.69	2725.85
293.90	2684.89
294.12	3258.32
294.33	3033.04
294.55	2760.66
294.76	2975.70
294.97	3198.93
295.19	3434.44
295.40	2713.56
295.62	2901.97
295.83	3076.05
296.05	2828.24
296.26	3002.32
296.48	2824.15
296.69	2983.89
296.90	2977.75
297.12	2897.88
297.33	2981.84
297.55	2942.93
297.76	3059.67
297.98	2922.45
298.19	2936.79
298.41	2955.22
298.62	2928.60
298.83	3022.80
299.05	2871.25
299.26	2867.16
299.48	2885.59
299.69	2807.77
299.90	2785.24
300.12	2787.29
300.33	3133.39
300.55	2942.93
300.76	2901.97
300.98	2699.22
301.19	3088.34
301.40	2760.66
301.62	2805.72
301.83	3039.19
302.05	2967.51
302.26	2834.39
302.47	2795.48
302.69	2854.87
302.90	3051.47
303.12	2629.59
303.33	2899.92
303.54	3266.51
303.76	2973.65
303.97	2793.43
304.19	2985.94
304.40	2865.11
304.61	3067.86
304.83	3006.42
305.04	2873.30
305.26	3153.87
305.47	2834.39
305.68	2852.82
305.90	2668.50
306.11	3260.37
306.33	2871.25
306.54	2674.65
306.75	2770.90
306.97	2676.70
307.18	2736.09
307.39	2756.57
307.61	2846.68
307.82	2840.53
308.04	3000.27
308.25	2623.45
308.46	2899.92
308.68	2971.60
308.89	2987.99
309.10	2920.40
309.32	2846.68
309.53	2985.94
309.74	3094.48
309.96	2734.04
310.17	2969.55
310.39	2818.00
310.60	3108.82
310.81	2766.81
311.03	2691.03
311.24	3094.48
311.45	2998.23
311.67	2973.65
311.88	2881.49
312.09	2928.60
312.31	2828.24
312.52	2766.81
312.73	2783.19
312.95	2807.77
313.16	2813.91
313.37	2908.12
313.59	2963.41
313.80	3180.50
314.01	3166.16
314.23	2824.15
314.44	2791.38
314.65	2754.52
314.87	2875.35
315.08	2742.23
315.29	2760.66
315.51	2801.62
315.72	2758.61
315.93	2877.40
316.15	2781.14
316.36	2955.22
316.57	3028.95
316.79	2785.24
317.00	2723.80
317.21	3096.53
317.43	2865.11
317.64	2889.68
317.85	2715.61
318.07	2938.84
318.28	2865.11
318.49	2883.54
318.70	3059.67
318.92	3030.99
319.13	3061.71
319.34	3020.75
319.56	2758.61
319.77	3082.19
319.98	3119.06
320.20	3022.80
320.41	2979.79
320.62	3092.43
320.83	2885.59
321.05	3088.34
321.26	2850.77
321.47	2969.55
321.69	3114.96
321.90	2723.80
322.11	2756.57
322.32	3016.66
322.54	3276.75
322.75	2725.85
322.96	3563.47
323.18	2723.80
323.39	2695.13
323.60	2746.33
323.81	2883.54
324.03	2840.53
324.24	2969.55
324.45	2910.16
324.66	2799.57
324.88	3303.37
325.09	3127.25
325.30	2838.48
325.52	2746.33
325.73	3018.71
325.94	2813.91
326.15	2629.59
326.37	2721.75
326.58	3147.73
326.79	3198.93
327.00	2736.09
327.22	2815.96
327.43	2852.82
327.64	2803.67
327.85	2981.84
328.07	2861.01
328.28	3368.91
328.49	2838.48
328.70	2848.72
328.92	2824.15
329.13	2944.98
329.34	3108.82
329.55	3008.47
329.76	2930.64
329.98	2867.16
330.19	3207.12
330.40	2906.07
330.61	2836.44
330.83	3219.41
331.04	2856.92
331.25	2850.77
331.46	2838.48
331.68	2842.58
331.89	3096.53
332.10	2793.43
332.31	2670.55
332.52	2967.51
332.74	3213.26
332.95	2600.92
333.16	2789.33
333.37	3117.01
333.58	2904.02
333.80	2799.57
334.01	2590.68
334.22	2979.79
334.43	2826.20
334.64	2779.09
334.86	2723.80
335.07	2793.43
335.28	3270.61
335.49	2799.57
335.70	2815.96
335.92	3203.02
336.13	3401.68
336.34	2899.92
336.55	2850.77
336.76	3096.53
336.98	2717.65
337.19	2799.57
337.40	2887.64
337.61	3411.92
337.82	2955.22
338.04	2916.31
338.25	2613.21
338.46	2940.88
338.67	2994.13
338.88	2684.89
339.09	2688.98
339.31	2906.07
339.52	2775.00
339.73	2770.90
339.94	2785.24
340.15	3117.01
340.36	2951.12
340.58	2881.49
340.79	2701.27
341.00	3110.86
341.21	2809.81
341.42	3090.38
341.63	2768.85
341.85	3141.58
342.06	3008.47
342.27	2729.94
342.48	2979.79
342.69	2848.72
342.90	3092.43
343.12	3127.25
343.33	2705.37
343.54	3114.96
343.75	3280.85
343.96	2975.70
344.17	2619.35
344.38	3020.75
344.60	2838.48
344.81	2680.79
345.02	2742.23
345.23	3119.06
345.44	3448.78
345.65	2901.97
345.86	2832.34
346.07	3057.62
346.29	2897.88
346.50	2912.21
346.71	2854.87
346.92	3200.98
347.13	3428.30
347.34	2850.77
347.55	2674.65
347.76	3051.47
347.98	2734.04
348.19	2875.35
348.40	2963.41
348.61	2914.26
348.82	3207.12
349.03	2846.68
349.24	2766.81
349.45	3424.20
349.66	2662.36
349.88	2754.52
350.09	2770.90
350.30	3176.40
350.51	3239.89
350.72	2983.89
350.93	2820.05
351.14	2944.98
351.35	3084.24
351.56	2805.72
351.77	2861.01
351.99	3067.86
352.20	3196.88
352.41	2963.41
352.62	2699.22
352.83	2998.23
353.04	3004.37
353.25	2803.67
353.46	2797.53
353.67	3160.02
353.88	2693.08
354.09	2803.67
354.30	2820.05
354.52	3076.05
354.73	2918.36
354.94	2764.76
355.15	2787.29
355.36	3319.76
355.57	2887.64
355.78	2834.39
355.99	2768.85
356.20	2944.98
356.41	3172.30
356.62	2881.49
356.83	2901.97
357.04	3182.54
357.25	2746.33
357.46	2801.62
357.68	2707.41
357.89	2803.67
358.10	3026.90
358.31	2775.00
358.52	2838.48
358.73	2799.57
358.94	2867.16
359.15	2848.72
359.36	2828.24
359.57	2959.31
359.78	2971.60
359.99	2985.94
360.20	2781.14
360.41	2957.27
360.62	3059.67
360.83	2897.88
361.04	2811.86
361.25	3024.85
361.46	3203.02
361.67	2998.23
361.88	2926.55
362.09	3063.76
362.30	3043.28
362.51	2727.89
362.72	2758.61
362.93	3125.20
363.14	3061.71
363.35	2824.15
363.56	2699.22
363.78	3207.12
363.99	3180.50
364.20	2791.38
364.41	2861.01
364.62	3332.05
364.83	3016.66
365.04	2842.58
365.25	2818.00
365.46	3334.09
365.67	2813.91
365.88	2996.18
366.09	2791.38
366.30	2932.69
366.51	3051.47
366.72	2725.85
366.93	2760.66
367.14	3061.71
367.35	3258.32
367.56	2707.41
367.77	2998.23
367.98	2998.23
368.18	3065.81
368.39	2861.01
368.60	2809.81
368.81	3135.44
369.02	3117.01
369.23	2850.77
369.44	2654.17
369.65	2951.12
369.86	3016.66
370.07	2969.55
370.28	2674.65
370.49	3018.71
370.70	3086.29
370.91	2717.65
371.12	2738.13
371.33	3168.21
371.54	2791.38
371.75	2953.17
371.96	2498.52
372.17	3010.51
372.38	2934.74
372.59	2799.57
372.80	2797.53
373.01	2936.79
373.22	2983.89
373.43	2699.22
373.64	2682.84
373.85	3223.50
374.06	3317.71
374.26	2955.22
374.47	2967.51
374.68	3268.56
374.89	3004.37
375.10	2742.23
375.31	2891.73
375.52	2965.46
375.73	3084.24
375.94	2643.93
376.15	2899.92
376.36	2912.21
376.57	2990.03
376.78	2811.86
376.99	2885.59
377.20	3246.03
377.40	2916.31
377.61	3022.80
377.82	2762.71
378.03	3217.36
378.24	3096.53
378.45	2904.02
378.66	2875.35
378.87	2666.46
379.08	2691.03
379.29	2854.87
379.50	2920.40
379.71	2957.27
379.91	3180.50
380.12	2783.19
380.33	2803.67
380.54	2918.36
380.75	2955.22
380.96	2783.19
381.17	2848.72
381.38	3086.29
381.59	3004.37
381.80	2856.92
382.00	3010.51
382.21	3051.47
382.42	3268.56
382.63	3104.72
382.84	2951.12
383.05	3139.54
383.26	3237.84
383.47	2934.74
383.68	2830.29
383.88	3053.52
384.09	2934.74
384.30	3106.77
384.51	2944.98
384.72	2838.48
384.93	2795.48
385.14	2764.76
385.35	2994.13
385.55	2842.58
385.76	3100.62
385.97	2895.83
386.18	2662.36
386.39	2877.40
386.60	2910.16
386.81	2830.29
387.02	2742.23
387.22	2764.76
387.43	3149.78
387.64	2906.07
387.85	3018.71
388.06	3014.61
388.27	4106.18
388.48	7258.00
388.68	10774.36
388.89	13453.11
389.10	14491.43
389.31	14065.45
389.52	11327.32
389.73	9897.83
389.93	8900.47
390.14	7960.45
390.35	7444.37
390.56	6832.02
390.77	5687.21
390.98	4337.60
391.18	3696.58
391.39	3416.01
391.60	3004.37
391.81	3033.04
392.02	2861.01
392.23	3362.76
392.43	3045.33
392.64	2949.08
392.85	2875.35
393.06	3248.08
393.27	2957.27
393.47	2758.61
393.68	2856.92
393.89	2869.20
394.10	3170.26
394.31	2848.72
394.52	2789.33
394.72	2899.92
394.93	3186.64
395.14	2699.22
395.35	2963.41
395.56	2947.03
395.76	2969.55
395.97	2809.81
396.18	3020.75
396.39	2979.79
396.60	3553.23
396.80	3106.77
397.01	3012.56
397.22	3182.54
397.43	3133.39
397.64	2740.18
397.84	3039.19
398.05	3330.00
398.26	2930.64
398.47	2875.35
398.67	2975.70
398.88	2944.98
399.09	3166.16
399.30	2750.42
399.51	2963.41
399.71	2815.96
399.92	2963.41
400.13	2891.73
400.34	2856.92
400.54	3006.42
400.75	3237.84
400.96	2940.88
401.17	3200.98
401.37	3014.61
401.58	2969.55
401.79	2762.71
402.00	2940.88
402.21	3444.68
402.41	3133.39
402.62	3055.57
402.83	3188.69
403.04	3334.09
403.24	3694.54
403.45	2932.69
403.66	3082.19
403.87	3176.40
404.07	3274.70
404.28	3020.75
404.49	3098.58
404.70	2973.65
404.90	3086.29
405.11	2824.15
405.32	2861.01
405.52	2867.16
405.73	2906.07
405.94	2738.13
406.15	2928.60
406.35	3033.04
406.56	3211.22
406.77	2873.30
406.98	2822.10
407.18	2871.25
407.39	3262.41
407.60	2918.36
407.80	2930.64
408.01	2928.60
408.22	3008.47
408.43	2813.91
408.63	2944.98
408.84	3143.63
409.05	3117.01
409.25	2803.67
409.46	2830.29
409.67	2934.74
409.88	2830.29
410.08	2949.08
410.29	2799.57
410.50	3084.24
410.70	3145.68
410.91	2738.13
411.12	2897.88
411.32	2973.65
411.53	2805.72
411.74	2883.54
411.95	2979.79
412.15	3045.33
412.36	3084.24
412.57	2981.84
412.77	3035.09
412.98	2918.36
413.19	2940.88
413.39	2881.49
413.60	2924.50
413.81	3221.45
414.01	2805.72
414.22	2873.30
414.43	2959.31
414.63	2863.06
414.84	3149.78
415.05	2928.60
415.25	2701.27
415.46	3057.62
415.67	2811.86
415.87	2944.98
416.08	2861.01
416.29	2908.12
416.49	3129.30
416.70	2852.82
416.91	2836.44
417.11	2947.03
417.32	3303.37
417.53	2979.79
417.73	2899.92
417.94	2979.79
418.15	3026.90
418.35	2840.53
418.56	2924.50
418.77	3426.25
418.97	3053.52
419.18	2881.49
419.38	2602.97
419.59	2977.75
419.80	3250.13
420.00	2803.67
420.21	2861.01
420.42	3231.69
420.62	3016.66
420.83	2811.86
421.04	2803.67
421.24	2916.31
421.45	3086.29
421.65	2869.20
421.86	2861.01
422.07	3041.23
422.27	3057.62
422.48	2787.29
422.69	2695.13
422.89	2985.94
423.10	2928.60
423.30	2756.57
423.51	2844.63
423.72	3065.81
423.92	3127.25
424.13	2746.33
424.33	2875.35
424.54	3123.15
424.75	3051.47
424.95	3080.14
425.16	2877.40
425.36	3018.71
425.57	3155.92
425.78	3012.56
425.98	2885.59
426.19	2936.79
426.39	2930.64
426.60	2875.35
426.81	3012.56
427.01	2971.60
427.22	2828.24
427.42	2623.45
427.63	2781.14
427.83	3106.77
428.04	3266.51
428.25	2873.30
428.45	2926.55
428.66	3160.02
428.86	2940.88
429.07	2795.48
429.28	2877.40
429.48	2994.13
429.69	2846.68
429.89	2957.27
430.10	2756.57
430.30	3108.82
430.51	3123.15
430.71	2762.71
430.92	2912.21
431.13	2971.60
431.33	3063.76
431.54	2838.48
431.74	3033.04
431.95	3338.19
432.15	2877.40
432.36	2830.29
432.56	2869.20
432.77	3303.37
432.98	3370.96
433.18	2850.77
433.39	2756.57
433.59	2899.92
433.80	3262.41
434.00	2998.23
434.21	2889.68
434.41	2848.72
434.62	3450.83
434.82	2768.85
435.03	2746.33
435.23	3057.62
435.44	2684.89
435.64	2797.53
435.85	2834.39
436.06	3119.06
436.26	3164.11
436.47	2838.48
436.67	2764.76
436.88	2971.60
437.08	3155.92
437.29	3053.52
437.49	3051.47
437.70	3254.22
437.90	2873.30
438.11	2998.23
438.31	2949.08
438.52	3164.11
438.72	3198.93
438.93	3135.44
439.13	2996.18
439.34	3153.87
439.54	2932.69
439.75	2961.36
439.95	2918.36
440.16	2820.05
440.36	2914.26
440.57	2791.38
440.77	2897.88
440.98	3035.09
441.18	3092.43
441.39	2789.33
441.59	2734.04
441.80	3340.24
442.00	2940.88
442.21	2854.87
442.41	2762.71
442.62	3108.82
442.82	2897.88
443.02	2867.16
443.23	2830.29
443.43	2904.02
443.64	3190.74
443.84	2801.62
444.05	3010.51
444.25	3008.47
444.46	2906.07
444.66	2746.33
444.87	3012.56
445.07	2731.99
445.28	2981.84
445.48	3071.95
445.69	2949.08
445.89	3440.59
446.09	2895.83
446.30	3203.02
446.50	3252.17
446.71	4722.62
446.91	5738.41
447.12	6621.08
447.32	6948.76
447.53	6832.02
447.73	5834.66
447.93	4988.85
448.14	4784.06
448.34	4906.93
448.55	4106.18
448.75	3960.77
448.96	3817.41
449.16	3565.51
449.36	3456.97
449.57	3125.20
449.77	2973.65
449.98	2881.49
450.18	3010.51
450.39	2815.96
450.59	3035.09
450.79	2881.49
451.00	2828.24
451.20	2944.98
451.41	2760.66
451.61	3022.80
451.81	2871.25
452.02	2713.56
452.22	2826.20
452.43	2924.50
452.63	2871.25
