SpectraSuite Data File
++++++++++++++++++++++++++++++++++++
Date: Thu May 05 21:10:40 CEST 2016
User: root
Dark Spectrum Present: No
Reference Spectrum Present: No
Number of Sampled Component Spectra: 1
Spectrometers: USB4C02835
Integration Time (usec): 100000 (USB4C02835)
Spectra Averaged: 1 (USB4C02835)
Boxcar Smoothing: 0 (USB4C02835)
Correct for Electrical Dark: No (USB4C02835)
Strobe/Lamp Enabled: No (USB4C02835)
Correct for Detector Non-linearity: No (USB4C02835)
Correct for Stray Light: No (USB4C02835)
Number of Pixels in Processed Spectrum: 3648
>>>>>Begin Processed Spectral Data<<<<<
177.47	2148.32
177.69	2148.32
177.91	2148.32
178.13	2174.94
178.36	2156.51
178.58	2691.03
178.80	2875.35
179.02	2635.74
179.24	2850.77
179.46	2627.54
179.68	2688.98
179.90	2973.65
180.13	2998.23
180.35	2482.14
180.57	2650.07
180.79	3030.99
181.01	3026.90
181.23	2680.79
181.45	2738.13
181.67	3127.25
181.90	3168.21
182.12	2691.03
182.34	2541.53
182.56	3035.09
182.78	3102.67
183.00	2652.12
183.22	2748.37
183.44	2684.89
183.66	3432.40
183.89	2848.72
184.11	2772.95
184.33	3080.14
184.55	3155.92
184.77	2693.08
184.99	2781.14
185.21	2914.26
185.43	3452.88
185.65	2697.17
185.87	2629.59
186.10	3465.16
186.32	3346.38
186.54	2815.96
186.76	2709.46
186.98	3137.49
187.20	2926.55
187.42	2697.17
187.64	2693.08
187.86	3012.56
188.08	3139.54
188.30	2605.02
188.52	2705.37
188.75	3205.07
188.97	3264.46
189.19	2703.32
189.41	2652.12
189.63	3071.95
189.85	2975.70
190.07	2529.24
190.29	2541.53
190.51	3041.23
190.73	2736.09
190.95	2863.06
191.17	2744.28
191.39	2703.32
191.61	2889.68
191.84	2643.93
192.06	2740.18
192.28	2744.28
192.50	3477.45
192.72	2861.01
192.94	2789.33
193.16	3096.53
193.38	3078.10
193.60	2633.69
193.82	2805.72
194.04	3141.58
194.26	3123.15
194.48	2662.36
194.70	2684.89
194.92	2861.01
195.14	3074.00
195.36	2729.94
195.58	2758.61
195.80	2979.79
196.02	2815.96
196.24	2605.02
196.46	2791.38
196.69	2869.20
196.91	3348.43
197.13	2713.56
197.35	2664.41
197.57	3270.61
197.79	3092.43
198.01	2697.17
198.23	2803.67
198.45	3096.53
198.67	2697.17
198.89	2549.72
199.11	2764.76
199.33	2869.20
199.55	2586.58
199.77	2670.55
199.99	2813.91
200.21	2893.78
200.43	3043.28
200.65	2600.92
200.87	2559.96
201.09	2963.41
201.31	2912.21
201.53	2721.75
201.75	2756.57
201.97	3037.14
202.19	2990.03
202.41	2801.62
202.63	2881.49
202.85	3106.77
203.07	3084.24
203.29	2766.81
203.51	2627.54
203.73	2826.20
203.95	3436.49
204.17	2707.41
204.39	2820.05
204.61	2924.50
204.83	2863.06
205.05	2885.59
205.27	2729.94
205.49	3393.48
205.71	2983.89
205.93	2615.26
206.15	2605.02
206.37	3022.80
206.59	2914.26
206.81	2586.58
207.03	2609.11
207.25	2885.59
207.47	3172.30
207.69	2666.46
207.91	2899.92
208.13	3278.80
208.34	2897.88
208.56	2635.74
208.78	2654.17
209.00	2936.79
209.22	2930.64
209.44	2713.56
209.66	2645.98
209.88	3020.75
210.10	2899.92
210.32	2707.41
210.54	2725.85
210.76	3014.61
210.98	3198.93
211.20	2602.97
211.42	2785.24
211.64	3194.83
211.86	3067.86
212.08	2744.28
212.30	2691.03
212.52	2985.94
212.74	3106.77
212.96	2779.09
213.17	2707.41
213.39	3086.29
213.61	3241.93
213.83	2703.32
214.05	2506.71
214.27	3256.27
214.49	2725.85
214.71	2613.21
214.93	2799.57
215.15	2971.60
215.37	3160.02
215.59	2557.91
215.81	2701.27
216.03	3254.22
216.24	3008.47
216.46	2754.52
216.68	2787.29
216.90	3137.49
217.12	3164.11
217.34	2623.45
217.56	2789.33
217.78	3282.89
218.00	3076.05
218.22	2838.48
218.44	2789.33
218.66	3067.86
218.87	3534.79
219.09	2572.25
219.31	2734.04
219.53	3096.53
219.75	2949.08
219.97	2781.14
220.19	2766.81
220.41	2924.50
220.63	3303.37
220.85	2756.57
221.06	2746.33
221.28	3198.93
221.50	3096.53
221.72	2684.89
221.94	2623.45
222.16	3092.43
222.38	3229.65
222.60	2762.71
222.82	2678.74
223.03	3174.35
223.25	2803.67
223.47	2715.61
223.69	2979.79
223.91	3133.39
224.13	3002.32
224.35	2576.34
224.57	2854.87
224.78	3008.47
225.00	2818.00
225.22	2760.66
225.44	2676.70
225.66	3147.73
225.88	2912.21
226.10	2738.13
226.32	2719.70
226.53	3243.98
226.75	2920.40
226.97	2764.76
227.19	2707.41
227.41	2861.01
227.63	2959.31
227.85	2521.05
228.06	2824.15
228.28	3041.23
228.50	3207.12
228.72	2570.20
228.94	2738.13
229.16	2752.47
229.37	2865.11
229.59	2658.26
229.81	2942.93
230.03	2881.49
230.25	2752.47
230.47	2512.86
230.69	2691.03
230.90	3104.72
231.12	2836.44
231.34	2740.18
231.56	2740.18
231.78	2754.52
232.00	3053.52
232.21	2805.72
232.43	2707.41
232.65	2633.69
232.87	3131.34
233.09	2521.05
233.30	2609.11
233.52	3215.31
233.74	2858.96
233.96	2623.45
234.18	2895.83
234.40	3080.14
234.61	3327.95
234.83	2521.05
235.05	2572.25
235.27	3452.88
235.49	3194.83
235.70	2566.10
235.92	2682.84
236.14	3125.20
236.36	3344.33
236.58	2557.91
236.79	2750.42
237.01	2916.31
237.23	2957.27
237.45	2801.62
237.67	2734.04
237.88	3020.75
238.10	3246.03
238.32	2592.73
238.54	2672.60
238.76	2994.13
238.97	2848.72
239.19	2564.06
239.41	2693.08
239.63	3117.01
239.85	2893.78
240.06	2680.79
240.28	2682.84
240.50	3233.74
240.72	2975.70
240.93	2578.39
241.15	2725.85
241.37	2951.12
241.59	3272.65
241.81	2715.61
242.02	2772.95
242.24	2969.55
242.46	3061.71
242.68	2547.67
242.89	2623.45
243.11	3119.06
243.33	2951.12
243.55	2678.74
243.76	2691.03
243.98	2852.82
244.20	2983.89
244.42	2648.02
244.64	2686.94
244.85	2752.47
245.07	2793.43
245.29	2662.36
245.51	2672.60
245.72	3092.43
245.94	3104.72
246.16	2684.89
246.38	2775.00
246.59	2908.12
246.81	2850.77
247.03	2629.59
247.24	2508.76
247.46	2944.98
247.68	3033.04
247.90	2648.02
248.11	2727.89
248.33	3127.25
248.55	2963.41
248.77	2678.74
248.98	2830.29
249.20	3293.13
249.42	2973.65
249.64	2682.84
249.85	2621.40
250.07	2775.00
250.29	3086.29
250.50	2744.28
250.72	2629.59
250.94	3067.86
251.16	3387.34
251.37	2695.13
251.59	2762.71
251.81	3024.85
252.02	3174.35
252.24	2588.63
252.46	2781.14
252.68	2828.24
252.89	2877.40
253.11	2541.53
253.33	2869.20
253.54	3358.67
253.76	2785.24
253.98	2719.70
254.20	2707.41
254.41	2775.00
254.63	2944.98
254.85	2564.06
255.06	2818.00
255.28	3133.39
255.50	2893.78
255.71	2598.87
255.93	2486.23
256.15	2926.55
256.36	3143.63
256.58	2543.58
256.80	2643.93
257.02	2938.84
257.23	2916.31
257.45	2744.28
257.67	2789.33
257.88	2955.22
258.10	3108.82
258.32	2762.71
258.53	2744.28
258.75	3336.14
258.97	2842.58
259.18	2588.63
259.40	2639.83
259.62	3209.17
259.83	3270.61
260.05	2701.27
260.27	3567.56
260.48	3157.97
260.70	2840.53
260.92	2607.06
261.13	2734.04
261.35	3039.19
261.57	3102.67
261.78	2607.06
262.00	2617.30
262.22	3074.00
262.43	2818.00
262.65	2725.85
262.86	2734.04
263.08	3405.77
263.30	2971.60
263.51	2494.43
263.73	2668.50
263.95	3219.41
264.16	2848.72
264.38	2559.96
264.60	2654.17
264.81	2899.92
265.03	3141.58
265.25	3049.43
265.46	2701.27
265.68	3178.45
265.89	3069.91
266.11	2516.95
266.33	2674.65
266.54	3117.01
266.76	3137.49
266.98	2836.44
267.19	2811.86
267.41	3194.83
267.62	2891.73
267.84	2527.19
268.06	2789.33
268.27	3012.56
268.49	3164.11
268.70	2820.05
268.92	2697.17
269.14	2848.72
269.35	2738.13
269.57	2731.99
269.79	2795.48
270.00	2815.96
270.22	3276.75
270.43	2564.06
270.65	2555.86
270.87	3037.14
271.08	3123.15
271.30	2807.77
271.51	2787.29
271.73	3071.95
271.95	3260.37
272.16	2623.45
272.38	2850.77
272.59	2953.17
272.81	3037.14
273.02	2703.32
273.24	2721.75
273.46	3131.34
273.67	2754.52
273.89	2672.60
274.10	2654.17
274.32	3174.35
274.54	2977.75
274.75	2832.34
274.97	2791.38
275.18	3114.96
275.40	2910.16
275.61	2779.09
275.83	2826.20
276.05	2848.72
276.26	2936.79
276.48	2785.24
276.69	2807.77
276.91	2916.31
277.12	3151.82
277.34	2873.30
277.55	2881.49
277.77	2944.98
277.99	2887.64
278.20	2731.99
278.42	2641.88
278.63	2861.01
278.85	2811.86
279.06	2781.14
279.28	2881.49
279.49	3094.48
279.71	3190.74
279.93	2836.44
280.14	2858.96
280.36	2963.41
280.57	3139.54
280.79	2951.12
281.00	2725.85
281.22	2877.40
281.43	3147.73
281.65	2564.06
281.86	2742.23
282.08	2990.03
282.29	3344.33
282.51	2701.27
282.73	2715.61
282.94	2742.23
283.16	3102.67
283.37	2906.07
283.59	2818.00
283.80	3096.53
284.02	2963.41
284.23	2861.01
284.45	2758.61
284.66	2858.96
284.88	2820.05
285.09	2693.08
285.31	2797.53
285.52	3076.05
285.74	2762.71
285.95	2920.40
286.17	2832.34
286.38	3094.48
286.60	2877.40
286.81	2744.28
287.03	2703.32
287.24	2975.70
287.46	3104.72
287.67	2897.88
287.89	2959.31
288.10	2975.70
288.32	3014.61
288.53	2928.60
288.75	2895.83
288.96	3098.58
289.18	2787.29
289.39	2738.13
289.61	2942.93
289.82	3385.29
290.04	3276.75
290.25	2738.13
290.47	2889.68
290.68	3010.51
290.90	3196.88
291.11	2666.46
291.33	2846.68
291.54	2760.66
291.76	2983.89
291.97	2856.92
292.18	2869.20
292.40	2981.84
292.61	2832.34
292.83	3078.10
293.04	2844.63
293.26	3067.86
293.47	2963.41
293.69	2736.09
293.90	2721.75
294.12	3198.93
294.33	2967.51
294.55	2830.29
294.76	2924.50
294.97	3321.81
295.19	3362.76
295.40	2783.19
295.62	2922.45
295.83	3082.19
296.05	2822.10
296.26	2987.99
296.48	2822.10
296.69	3014.61
296.90	2994.13
297.12	2899.92
297.33	2947.03
297.55	2985.94
297.76	3057.62
297.98	2916.31
298.19	2899.92
298.41	2930.64
298.62	2813.91
298.83	3010.51
299.05	2897.88
299.26	2955.22
299.48	2811.86
299.69	2889.68
299.90	2766.81
300.12	2822.10
300.33	3106.77
300.55	2891.73
300.76	2826.20
300.98	2787.29
301.19	3137.49
301.40	2838.48
301.62	2775.00
301.83	3024.85
302.05	2981.84
302.26	2738.13
302.47	2928.60
302.69	2848.72
302.90	2916.31
303.12	2705.37
303.33	2955.22
303.54	3254.22
303.76	3010.51
303.97	2815.96
304.19	2895.83
304.40	2824.15
304.61	2967.51
304.83	2985.94
305.04	2916.31
305.26	3155.92
305.47	2918.36
305.68	2820.05
305.90	2707.41
306.11	3221.45
306.33	2871.25
306.54	2613.21
306.75	2805.72
306.97	2734.04
307.18	2842.58
307.39	2832.34
307.61	2891.73
307.82	3024.85
308.04	3090.38
308.25	2670.55
308.46	2967.51
308.68	2990.03
308.89	2934.74
309.10	2934.74
309.32	2920.40
309.53	3018.71
309.74	3067.86
309.96	2746.33
310.17	2920.40
310.39	2940.88
310.60	3153.87
310.81	2842.58
311.03	2697.17
311.24	3143.63
311.45	3028.95
311.67	2944.98
311.88	2863.06
312.09	2912.21
312.31	2805.72
312.52	2738.13
312.73	2807.77
312.95	2721.75
313.16	2828.24
313.37	2922.45
313.59	2942.93
313.80	3133.39
314.01	3246.03
314.23	2729.94
314.44	2754.52
314.65	2717.65
314.87	2858.96
315.08	2750.42
315.29	2838.48
315.51	2838.48
315.72	2717.65
315.93	2832.34
316.15	2889.68
316.36	2910.16
316.57	3082.19
316.79	2807.77
317.00	2736.09
317.21	3092.43
317.43	2836.44
317.64	2840.53
317.85	2748.37
318.07	2875.35
318.28	2863.06
318.49	2881.49
318.70	3092.43
318.92	3039.19
319.13	2969.55
319.34	3026.90
319.56	2803.67
319.77	2996.18
319.98	3035.09
320.20	3014.61
320.41	2858.96
320.62	3088.34
320.83	2811.86
321.05	2996.18
321.26	2832.34
321.47	2977.75
321.69	3123.15
321.90	2707.41
322.11	2707.41
322.32	2987.99
322.54	3313.61
322.75	2803.67
322.96	3598.28
323.18	2764.76
323.39	2775.00
323.60	2693.08
323.81	2959.31
324.03	2875.35
324.24	3043.28
324.45	2881.49
324.66	2748.37
324.88	3090.38
325.09	3227.60
325.30	2766.81
325.52	2709.46
325.73	3121.10
325.94	2858.96
326.15	2684.89
326.37	2711.51
326.58	3080.14
326.79	3344.33
327.00	2768.85
327.22	2744.28
327.43	2951.12
327.64	2789.33
327.85	2961.36
328.07	2824.15
328.28	3309.52
328.49	2897.88
328.70	2787.29
328.92	2807.77
329.13	2901.97
329.34	2971.60
329.55	2992.08
329.76	2998.23
329.98	2906.07
330.19	3237.84
330.40	2858.96
330.61	2920.40
330.83	3106.77
331.04	2789.33
331.25	2846.68
331.46	2844.63
331.68	2695.13
331.89	3145.68
332.10	2836.44
332.31	2658.26
332.52	2947.03
332.74	3223.50
332.95	2744.28
333.16	2738.13
333.37	3076.05
333.58	2922.45
333.80	2824.15
334.01	2650.07
334.22	3033.04
334.43	2881.49
334.64	2701.27
334.86	2688.98
335.07	2873.30
335.28	3297.23
335.49	2666.46
335.70	2940.88
335.92	3182.54
336.13	3362.76
336.34	2858.96
336.55	2863.06
336.76	3022.80
336.98	2576.34
337.19	2826.20
337.40	2920.40
337.61	3512.27
337.82	3012.56
338.04	2840.53
338.25	2705.37
338.46	2971.60
338.67	3033.04
338.88	2680.79
339.09	2703.32
339.31	2910.16
339.52	2699.22
339.73	2828.24
339.94	2832.34
340.15	3071.95
340.36	2910.16
340.58	2938.84
340.79	2703.32
341.00	3074.00
341.21	2856.92
341.42	3018.71
341.63	2789.33
341.85	3131.34
342.06	3080.14
342.27	2760.66
342.48	2983.89
342.69	2738.13
342.90	3067.86
343.12	3078.10
343.33	2731.99
343.54	3110.86
343.75	3254.22
343.96	2914.26
344.17	2639.83
344.38	3016.66
344.60	2885.59
344.81	2680.79
345.02	2799.57
345.23	3209.17
345.44	3456.97
345.65	2916.31
345.86	2887.64
346.07	3061.71
346.29	2840.53
346.50	2916.31
346.71	2858.96
346.92	3170.26
347.13	3340.24
347.34	2885.59
347.55	2711.51
347.76	3203.02
347.98	2699.22
348.19	2889.68
348.40	2992.08
348.61	2861.01
348.82	3270.61
349.03	2858.96
349.24	2734.04
349.45	3379.15
349.66	2699.22
349.88	2727.89
350.09	2754.52
350.30	3264.46
350.51	3125.20
350.72	2944.98
350.93	2838.48
351.14	2934.74
351.35	3071.95
351.56	2820.05
351.77	2820.05
351.99	3049.43
352.20	3190.74
352.41	2895.83
352.62	2625.50
352.83	2994.13
353.04	3002.32
353.25	2764.76
353.46	2858.96
353.67	3119.06
353.88	2672.60
354.09	2775.00
354.30	2846.68
354.52	3037.14
354.73	2955.22
354.94	2758.61
355.15	2842.58
355.36	3213.26
355.57	2877.40
355.78	2783.19
355.99	2768.85
356.20	2951.12
356.41	3258.32
356.62	2852.82
356.83	2830.29
357.04	3250.13
357.25	2727.89
357.46	2799.57
357.68	2664.41
357.89	2760.66
358.10	3028.95
358.31	2832.34
358.52	2877.40
358.73	2764.76
358.94	2850.77
359.15	2867.16
359.36	2947.03
359.57	2983.89
359.78	2930.64
359.99	3000.27
360.20	2742.23
360.41	2938.84
360.62	3033.04
360.83	2844.63
361.04	2813.91
361.25	3004.37
361.46	3323.85
361.67	2916.31
361.88	2883.54
362.09	3139.54
362.30	3035.09
362.51	2736.09
362.72	2848.72
362.93	3168.21
363.14	3178.45
363.35	2854.87
363.56	2781.14
363.78	3192.78
363.99	3119.06
364.20	2705.37
364.41	2871.25
364.62	3246.03
364.83	3084.24
365.04	2785.24
365.25	2897.88
365.46	3309.52
365.67	2852.82
365.88	2994.13
366.09	2854.87
366.30	2912.21
366.51	2985.94
366.72	2760.66
366.93	2772.95
367.14	2983.89
367.35	3174.35
367.56	2770.90
367.77	2916.31
367.98	2936.79
368.18	3059.67
368.39	2973.65
368.60	2691.03
368.81	3055.57
369.02	3047.38
369.23	2858.96
369.44	2686.94
369.65	2957.27
369.86	3145.68
370.07	2942.93
370.28	2691.03
370.49	3022.80
370.70	3006.42
370.91	2717.65
371.12	2656.22
371.33	3176.40
371.54	2863.06
371.75	2961.36
371.96	2637.78
372.17	3030.99
372.38	2887.64
372.59	2807.77
372.80	2727.89
373.01	2971.60
373.22	2963.41
373.43	2838.48
373.64	2775.00
373.85	3221.45
374.06	3225.55
374.26	2975.70
374.47	2951.12
374.68	3313.61
374.89	3018.71
375.10	2811.86
375.31	2908.12
375.52	2983.89
375.73	2969.55
375.94	2768.85
376.15	2963.41
376.36	2877.40
376.57	2947.03
376.78	2824.15
376.99	2887.64
377.20	3229.65
377.40	3002.32
377.61	3182.54
377.82	2783.19
378.03	3221.45
378.24	3123.15
378.45	2877.40
378.66	2856.92
378.87	2799.57
379.08	2746.33
379.29	2832.34
379.50	2961.36
379.71	2924.50
379.91	3090.38
380.12	2783.19
380.33	2836.44
380.54	2990.03
380.75	2965.46
380.96	2863.06
381.17	2922.45
381.38	2992.08
381.59	3026.90
381.80	2781.14
382.00	3026.90
382.21	3020.75
382.42	3172.30
382.63	3164.11
382.84	2944.98
383.05	3080.14
383.26	3260.37
383.47	2947.03
383.68	2740.18
383.88	3043.28
384.09	3008.47
384.30	3008.47
384.51	2901.97
384.72	2965.46
384.93	2756.57
385.14	2916.31
385.35	3008.47
385.55	2777.05
385.76	3205.07
385.97	2801.62
386.18	2682.84
386.39	2895.83
386.60	2846.68
386.81	2850.77
387.02	2731.99
387.22	2701.27
387.43	3069.91
387.64	2926.55
387.85	3020.75
388.06	3008.47
388.27	4003.78
388.48	7245.71
388.68	10864.47
388.89	13244.21
389.10	14608.16
389.31	13999.91
389.52	11226.96
389.73	9623.41
389.93	8793.98
390.14	7952.26
390.35	7180.18
390.56	6637.47
390.77	5691.31
390.98	4261.82
391.18	3661.77
391.39	3379.15
391.60	3106.77
391.81	3110.86
392.02	2906.07
392.23	3391.44
392.43	3055.57
392.64	2889.68
392.85	2895.83
393.06	3219.41
393.27	2969.55
393.47	2731.99
393.68	2832.34
393.89	2912.21
394.10	3164.11
394.31	2846.68
394.52	2795.48
394.72	2901.97
394.93	3227.60
395.14	2650.07
395.35	2967.51
395.56	2881.49
395.76	3000.27
395.97	2797.53
396.18	2967.51
396.39	3078.10
396.60	3497.93
396.80	3098.58
397.01	3039.19
397.22	3164.11
397.43	3176.40
397.64	2783.19
397.84	2914.26
398.05	3276.75
398.26	2977.75
398.47	2981.84
398.67	3123.15
398.88	2908.12
399.09	3153.87
399.30	2883.54
399.51	2861.01
399.71	2813.91
399.92	2953.17
400.13	2971.60
400.34	2930.64
400.54	3014.61
400.75	3235.79
400.96	2942.93
401.17	3117.01
401.37	3065.81
401.58	2920.40
401.79	2863.06
402.00	2977.75
402.21	3448.78
402.41	3080.14
402.62	3051.47
402.83	3221.45
403.04	3319.76
403.24	3655.62
403.45	2887.64
403.66	3084.24
403.87	3176.40
404.07	3289.04
404.28	3119.06
404.49	3041.23
404.70	3117.01
404.90	3145.68
405.11	2848.72
405.32	3020.75
405.52	2834.39
405.73	2916.31
405.94	2648.02
406.15	2820.05
406.35	3114.96
406.56	3094.48
406.77	2897.88
406.98	2826.20
407.18	2926.55
407.39	3231.69
407.60	2867.16
407.80	2983.89
408.01	2908.12
408.22	3110.86
408.43	2754.52
408.63	2912.21
408.84	3176.40
409.05	3088.34
409.25	2758.61
409.46	2850.77
409.67	2940.88
409.88	2889.68
410.08	2865.11
410.29	2809.81
410.50	3182.54
410.70	3149.78
410.91	2842.58
411.12	2838.48
411.32	2961.36
411.53	2877.40
411.74	2834.39
411.95	2918.36
412.15	3000.27
412.36	3082.19
412.57	3033.04
412.77	3008.47
412.98	2938.84
413.19	2885.59
413.39	2985.94
413.60	2893.78
413.81	3258.32
414.01	2797.53
414.22	2799.57
414.43	3026.90
414.63	2904.02
414.84	3192.78
415.05	2904.02
415.25	2668.50
415.46	3112.91
415.67	2922.45
415.87	2848.72
416.08	2809.81
416.29	2885.59
416.49	3074.00
416.70	2822.10
416.91	2852.82
417.11	2924.50
417.32	3121.10
417.53	2934.74
417.73	2944.98
417.94	2955.22
418.15	2994.13
418.35	2889.68
418.56	2795.48
418.77	3446.73
418.97	2981.84
419.18	2918.36
419.38	2461.66
419.59	2967.51
419.80	3239.89
420.00	2787.29
420.21	2893.78
420.42	3182.54
420.62	3010.51
420.83	2836.44
421.04	2852.82
421.24	3000.27
421.45	3057.62
421.65	2832.34
421.86	2805.72
422.07	3110.86
422.27	3194.83
422.48	2701.27
422.69	2668.50
422.89	2969.55
423.10	2965.46
423.30	2789.33
423.51	2885.59
423.72	3022.80
423.92	3108.82
424.13	2688.98
424.33	2926.55
424.54	3123.15
424.75	3078.10
424.95	3088.34
425.16	2801.62
425.36	3037.14
425.57	3250.13
425.78	2967.51
425.98	2910.16
426.19	2977.75
426.39	2861.01
426.60	2994.13
426.81	2965.46
427.01	3076.05
427.22	2811.86
427.42	2641.88
427.63	2703.32
427.83	3104.72
428.04	3274.70
428.25	2885.59
428.45	2951.12
428.66	3178.45
428.86	3004.37
429.07	2908.12
429.28	2906.07
429.48	2959.31
429.69	2852.82
429.89	2938.84
430.10	2764.76
430.30	3110.86
430.51	3241.93
430.71	2777.05
430.92	2828.24
431.13	2811.86
431.33	3157.97
431.54	2877.40
431.74	3143.63
431.95	3319.76
432.15	2772.95
432.36	2842.58
432.56	2985.94
432.77	3307.47
432.98	3344.33
433.18	2942.93
433.39	2815.96
433.59	2998.23
433.80	3438.54
434.00	3098.58
434.21	2832.34
434.41	2871.25
434.62	3381.20
434.82	2695.13
435.03	2734.04
435.23	3049.43
435.44	2734.04
435.64	2791.38
435.85	2879.44
436.06	3026.90
436.26	3168.21
436.47	2809.81
436.67	2717.65
436.88	2875.35
437.08	3235.79
437.29	3006.42
437.49	2977.75
437.70	3264.46
437.90	2944.98
438.11	3125.20
438.31	2926.55
438.52	3266.51
438.72	3076.05
438.93	3043.28
439.13	2883.54
439.34	3147.73
439.54	2918.36
439.75	2936.79
439.95	2934.74
440.16	2807.77
440.36	2977.75
440.57	2822.10
440.77	2803.67
440.98	2969.55
441.18	3119.06
441.39	2721.75
441.59	2699.22
441.80	3350.48
442.00	2985.94
442.21	2957.27
442.41	2707.41
442.62	3219.41
442.82	2873.30
443.02	2883.54
443.23	2910.16
443.43	2914.26
443.64	3168.21
443.84	2758.61
444.05	2910.16
444.25	2990.03
444.46	2973.65
444.66	2840.53
444.87	3055.57
445.07	2789.33
445.28	2975.70
445.48	2951.12
445.69	2844.63
445.89	3362.76
446.09	3020.75
446.30	3114.96
446.50	3176.40
446.71	4628.41
446.91	5789.61
447.12	6598.56
447.32	7032.72
447.53	6842.26
447.73	5818.28
447.93	5089.20
448.14	4784.06
448.34	4804.53
448.55	4116.42
448.75	4046.79
448.96	3844.04
449.16	3688.39
449.36	3604.42
449.57	3151.82
449.77	2928.60
449.98	2996.18
450.18	2981.84
450.39	2836.44
450.59	3045.33
450.79	3012.56
451.00	2815.96
451.20	2942.93
451.41	2828.24
451.61	2975.70
451.81	2932.69
452.02	2873.30
452.22	2844.63
452.43	2908.12
452.63	2930.64
