SpectraSuite Data File
++++++++++++++++++++++++++++++++++++
Date: Thu May 05 21:10:39 CEST 2016
User: root
Dark Spectrum Present: No
Reference Spectrum Present: No
Number of Sampled Component Spectra: 1
Spectrometers: USB4C02835
Integration Time (usec): 100000 (USB4C02835)
Spectra Averaged: 1 (USB4C02835)
Boxcar Smoothing: 0 (USB4C02835)
Correct for Electrical Dark: No (USB4C02835)
Strobe/Lamp Enabled: No (USB4C02835)
Correct for Detector Non-linearity: No (USB4C02835)
Correct for Stray Light: No (USB4C02835)
Number of Pixels in Processed Spectrum: 3648
>>>>>Begin Processed Spectral Data<<<<<
177.47	2176.99
177.69	2176.99
177.91	2176.99
178.13	2146.27
178.36	2136.03
178.58	2846.68
178.80	2897.88
179.02	2709.46
179.24	2818.00
179.46	2539.48
179.68	2633.69
179.90	2973.65
180.13	2981.84
180.35	2551.77
180.57	2631.64
180.79	3092.43
181.01	2979.79
181.23	2703.32
181.45	2740.18
181.67	3117.01
181.90	3143.63
182.12	2791.38
182.34	2508.76
182.56	3065.81
182.78	3155.92
183.00	2650.07
183.22	2777.05
183.44	2705.37
183.66	3450.83
183.89	2846.68
184.11	2680.79
184.33	3053.52
184.55	3196.88
184.77	2707.41
184.99	2725.85
185.21	2842.58
185.43	3452.88
185.65	2666.46
185.87	2666.46
186.10	3420.11
186.32	3420.11
186.54	2850.77
186.76	2748.37
186.98	3184.59
187.20	2977.75
187.42	2742.23
187.64	2656.22
187.86	3008.47
188.08	3088.34
188.30	2572.25
188.52	2717.65
188.75	3178.45
188.97	3207.12
189.19	2664.41
189.41	2631.64
189.63	3002.32
189.85	2922.45
190.07	2490.33
190.29	2559.96
190.51	2998.23
190.73	2734.04
190.95	2834.39
191.17	2650.07
191.39	2666.46
191.61	3000.27
191.84	2721.75
192.06	2875.35
192.28	2734.04
192.50	3461.07
192.72	2809.81
192.94	2693.08
193.16	3180.50
193.38	3071.95
193.60	2609.11
193.82	2852.82
194.04	3112.91
194.26	3035.09
194.48	2744.28
194.70	2635.74
194.92	2895.83
195.14	3047.38
195.36	2637.78
195.58	2779.09
195.80	2940.88
196.02	2891.73
196.24	2633.69
196.46	2748.37
196.69	2977.75
196.91	3411.92
197.13	2744.28
197.35	2645.98
197.57	3248.08
197.79	3100.62
198.01	2695.13
198.23	2705.37
198.45	3084.24
198.67	2633.69
198.89	2566.10
199.11	2838.48
199.33	2840.53
199.55	2594.78
199.77	2672.60
199.99	2815.96
200.21	2926.55
200.43	2969.55
200.65	2562.01
200.87	2482.14
201.09	2953.17
201.31	2918.36
201.53	2740.18
201.75	2729.94
201.97	2983.89
202.19	3041.23
202.41	2750.42
202.63	2848.72
202.85	3149.78
203.07	3022.80
203.29	2779.09
203.51	2594.78
203.73	2811.86
203.95	3444.68
204.17	2715.61
204.39	2824.15
204.61	2947.03
204.83	2910.16
205.05	2832.34
205.27	2688.98
205.49	3405.77
205.71	2930.64
205.93	2611.16
206.15	2645.98
206.37	3018.71
206.59	2922.45
206.81	2568.15
207.03	2557.91
207.25	2803.67
207.47	3112.91
207.69	2688.98
207.91	2922.45
208.13	3284.94
208.34	2871.25
208.56	2619.35
208.78	2697.17
209.00	2938.84
209.22	2904.02
209.44	2715.61
209.66	2779.09
209.88	2959.31
210.10	2992.08
210.32	2717.65
210.54	2674.65
210.76	2940.88
210.98	3168.21
211.20	2449.37
211.42	2791.38
211.64	3102.67
211.86	2994.13
212.08	2731.99
212.30	2738.13
212.52	2881.49
212.74	3024.85
212.96	2713.56
213.17	2748.37
213.39	3057.62
213.61	3262.41
213.83	2709.46
214.05	2551.77
214.27	3129.30
214.49	2822.10
214.71	2676.70
214.93	2801.62
215.15	3055.57
215.37	3065.81
215.59	2525.15
215.81	2682.84
216.03	3338.19
216.24	2887.64
216.46	2738.13
216.68	2705.37
216.90	3016.66
217.12	3160.02
217.34	2648.02
217.56	2779.09
217.78	3268.56
218.00	3061.71
218.22	2772.95
218.44	2772.95
218.66	3039.19
218.87	3315.66
219.09	2635.74
219.31	2709.46
219.53	3055.57
219.75	2883.54
219.97	2717.65
220.19	2721.75
220.41	2953.17
220.63	3266.51
220.85	2715.61
221.06	2725.85
221.28	3223.50
221.50	3022.80
221.72	2600.92
221.94	2519.00
222.16	3100.62
222.38	3174.35
222.60	2656.22
222.82	2715.61
223.03	3164.11
223.25	2805.72
223.47	2764.76
223.69	2961.36
223.91	3239.89
224.13	3020.75
224.35	2639.83
224.57	2832.34
224.78	3119.06
225.00	2828.24
225.22	2752.47
225.44	2592.73
225.66	3090.38
225.88	2875.35
226.10	2799.57
226.32	2781.14
226.53	3149.78
226.75	2936.79
226.97	2775.00
227.19	2738.13
227.41	2861.01
227.63	2832.34
227.85	2559.96
228.06	2719.70
228.28	3012.56
228.50	3219.41
228.72	2473.95
228.94	2629.59
229.16	2654.17
229.37	2832.34
229.59	2525.15
229.81	2830.29
230.03	2969.55
230.25	2787.29
230.47	2514.91
230.69	2627.54
230.90	3162.06
231.12	2889.68
231.34	2762.71
231.56	2768.85
231.78	2775.00
232.00	3037.14
232.21	2707.41
232.43	2727.89
232.65	2688.98
232.87	3039.19
233.09	2527.19
233.30	2676.70
233.52	3211.22
233.74	2961.36
233.96	2662.36
234.18	2869.20
234.40	3041.23
234.61	3418.06
234.83	2521.05
235.05	2668.50
235.27	3389.39
235.49	3180.50
235.70	2592.73
235.92	2789.33
236.14	3047.38
236.36	3344.33
236.58	2605.02
236.79	2803.67
237.01	2961.36
237.23	2983.89
237.45	2889.68
237.67	2688.98
237.88	3024.85
238.10	3321.81
238.32	2586.58
238.54	2707.41
238.76	2914.26
238.97	2879.44
239.19	2588.63
239.41	2691.03
239.63	3217.36
239.85	2910.16
240.06	2693.08
240.28	2731.99
240.50	3153.87
240.72	3008.47
240.93	2621.40
241.15	2764.76
241.37	3039.19
241.59	3157.97
241.81	2588.63
242.02	2748.37
242.24	3024.85
242.46	3051.47
242.68	2502.62
242.89	2605.02
243.11	3135.44
243.33	2895.83
243.55	2643.93
243.76	2664.41
243.98	2832.34
244.20	2947.03
244.42	2662.36
244.64	2645.98
244.85	2777.05
245.07	2828.24
245.29	2734.04
245.51	2641.88
245.72	2983.89
245.94	3196.88
246.16	2674.65
246.38	2783.19
246.59	2940.88
246.81	2879.44
247.03	2580.44
247.24	2555.86
247.46	2979.79
247.68	2987.99
247.90	2625.50
248.11	2676.70
248.33	3125.20
248.55	2963.41
248.77	2721.75
248.98	2830.29
249.20	3311.57
249.42	3002.32
249.64	2682.84
249.85	2674.65
250.07	2877.40
250.29	3194.83
250.50	2783.19
250.72	2617.30
250.94	3053.52
251.16	3346.38
251.37	2717.65
251.59	2760.66
251.81	3102.67
252.02	3282.89
252.24	2629.59
252.46	2830.29
252.68	2842.58
252.89	2863.06
253.11	2568.15
253.33	2836.44
253.54	3235.79
253.76	2793.43
253.98	2717.65
254.20	2715.61
254.41	2850.77
254.63	2951.12
254.85	2521.05
255.06	2777.05
255.28	3037.14
255.50	2920.40
255.71	2658.26
255.93	2547.67
256.15	2949.08
256.36	3059.67
256.58	2562.01
256.80	2662.36
257.02	2998.23
257.23	2901.97
257.45	2725.85
257.67	2740.18
257.88	2953.17
258.10	3067.86
258.32	2619.35
258.53	2772.95
258.75	3209.17
258.97	2850.77
259.18	2643.93
259.40	2660.31
259.62	3293.13
259.83	3254.22
260.05	2617.30
260.27	3477.45
260.48	3164.11
260.70	2754.52
260.92	2553.82
261.13	2719.70
261.35	3010.51
261.57	3076.05
261.78	2537.43
262.00	2590.68
262.22	3090.38
262.43	2858.96
262.65	2731.99
262.86	2697.17
263.08	3545.03
263.30	3010.51
263.51	2527.19
263.73	2662.36
263.95	3198.93
264.16	2795.48
264.38	2586.58
264.60	2645.98
264.81	2932.69
265.03	3227.60
265.25	3045.33
265.46	2691.03
265.68	3112.91
265.89	3049.43
266.11	2498.52
266.33	2656.22
266.54	3162.06
266.76	3100.62
266.98	2815.96
267.19	2820.05
267.41	3235.79
267.62	2957.27
267.84	2463.71
268.06	2856.92
268.27	3045.33
268.49	3207.12
268.70	2756.57
268.92	2719.70
269.14	2818.00
269.35	2752.47
269.57	2699.22
269.79	2760.66
270.00	2875.35
270.22	3225.55
270.43	2592.73
270.65	2541.53
270.87	3006.42
271.08	3045.33
271.30	2811.86
271.51	2699.22
271.73	3045.33
271.95	3297.23
272.16	2705.37
272.38	2787.29
272.59	3004.37
272.81	3147.73
273.02	2664.41
273.24	2805.72
273.46	3151.82
273.67	2764.76
273.89	2559.96
274.10	2672.60
274.32	3123.15
274.54	3026.90
274.75	2611.16
274.97	2854.87
275.18	3123.15
275.40	3037.14
275.61	2717.65
275.83	2951.12
276.05	2822.10
276.26	3035.09
276.48	2783.19
276.69	2775.00
276.91	2865.11
277.12	3262.41
277.34	2854.87
277.55	3043.28
277.77	3010.51
277.99	2942.93
278.20	2760.66
278.42	2658.26
278.63	2760.66
278.85	2775.00
279.06	2680.79
279.28	2863.06
279.49	3121.10
279.71	3127.25
279.93	2805.72
280.14	2803.67
280.36	2910.16
280.57	3180.50
280.79	2899.92
281.00	2598.87
281.22	2877.40
281.43	3123.15
281.65	2566.10
281.86	2760.66
282.08	3063.76
282.29	3391.44
282.51	2676.70
282.73	2707.41
282.94	2762.71
283.16	3131.34
283.37	2979.79
283.59	2789.33
283.80	3133.39
284.02	2961.36
284.23	2805.72
284.45	2807.77
284.66	2861.01
284.88	2766.81
285.09	2758.61
285.31	2865.11
285.52	3045.33
285.74	2736.09
285.95	2942.93
286.17	2852.82
286.38	3096.53
286.60	2828.24
286.81	2701.27
287.03	2707.41
287.24	2994.13
287.46	3020.75
287.67	2834.39
287.89	3018.71
288.10	2938.84
288.32	3022.80
288.53	3000.27
288.75	2895.83
288.96	3088.34
289.18	2830.29
289.39	2697.17
289.61	2873.30
289.82	3385.29
290.04	3297.23
290.25	2629.59
290.47	2844.63
290.68	2985.94
290.90	3178.45
291.11	2596.82
291.33	2926.55
291.54	2820.05
291.76	2856.92
291.97	2977.75
292.18	2912.21
292.40	2910.16
292.61	2887.64
292.83	3012.56
293.04	2818.00
293.26	3049.43
293.47	2951.12
293.69	2764.76
293.90	2709.46
294.12	3200.98
294.33	3078.10
294.55	2840.53
294.76	2987.99
294.97	3213.26
295.19	3360.72
295.40	2813.91
295.62	2895.83
295.83	3137.49
296.05	2846.68
296.26	3033.04
296.48	2805.72
296.69	2942.93
296.90	2940.88
297.12	2924.50
297.33	2940.88
297.55	2940.88
297.76	3059.67
297.98	2869.20
298.19	2926.55
298.41	2967.51
298.62	2832.34
298.83	2936.79
299.05	2893.78
299.26	2889.68
299.48	2809.81
299.69	2895.83
299.90	2815.96
300.12	2770.90
300.33	3100.62
300.55	2889.68
300.76	2848.72
300.98	2799.57
301.19	3104.72
301.40	2844.63
301.62	2742.23
301.83	3121.10
302.05	2967.51
302.26	2783.19
302.47	2824.15
302.69	2775.00
302.90	2969.55
303.12	2674.65
303.33	2881.49
303.54	3346.38
303.76	2897.88
303.97	2752.47
304.19	2992.08
304.40	2799.57
304.61	3088.34
304.83	2973.65
305.04	2908.12
305.26	3065.81
305.47	2820.05
305.68	2918.36
305.90	2721.75
306.11	3168.21
306.33	2885.59
306.54	2680.79
306.75	2723.80
306.97	2697.17
307.18	2813.91
307.39	2772.95
307.61	2938.84
307.82	2981.84
308.04	3133.39
308.25	2664.41
308.46	2975.70
308.68	3035.09
308.89	2955.22
309.10	2906.07
309.32	2914.26
309.53	2955.22
309.74	3170.26
309.96	2684.89
310.17	2959.31
310.39	2934.74
310.60	3196.88
310.81	2850.77
311.03	2631.64
311.24	3131.34
311.45	3014.61
311.67	3035.09
311.88	2832.34
312.09	2920.40
312.31	2918.36
312.52	2721.75
312.73	2838.48
312.95	2762.71
313.16	2797.53
313.37	3010.51
313.59	2953.17
313.80	3104.72
314.01	3295.18
314.23	2754.52
314.44	2713.56
314.65	2764.76
314.87	2850.77
315.08	2785.24
315.29	2758.61
315.51	2813.91
315.72	2799.57
315.93	2895.83
316.15	2846.68
316.36	2967.51
316.57	2967.51
316.79	2811.86
317.00	2615.26
317.21	3090.38
317.43	2879.44
317.64	2904.02
317.85	2686.94
318.07	2901.97
318.28	2985.94
318.49	2963.41
318.70	3000.27
318.92	3000.27
319.13	3074.00
319.34	2908.12
319.56	2750.42
319.77	3123.15
319.98	3067.86
320.20	2977.75
320.41	2940.88
320.62	3121.10
320.83	2818.00
321.05	3022.80
321.26	2787.29
321.47	2912.21
321.69	3184.59
321.90	2654.17
322.11	2693.08
322.32	3022.80
322.54	3315.66
322.75	2803.67
322.96	3547.08
323.18	2678.74
323.39	2721.75
323.60	2602.97
323.81	2944.98
324.03	2801.62
324.24	3082.19
324.45	2828.24
324.66	2818.00
324.88	3153.87
325.09	3272.65
325.30	2660.31
325.52	2781.14
325.73	3076.05
325.94	2777.05
326.15	2703.32
326.37	2611.16
326.58	3125.20
326.79	3246.03
327.00	2693.08
327.22	2758.61
327.43	2897.88
327.64	2863.06
327.85	2928.60
328.07	2797.53
328.28	3391.44
328.49	2901.97
328.70	2834.39
328.92	2910.16
329.13	2947.03
329.34	3067.86
329.55	2985.94
329.76	2912.21
329.98	2863.06
330.19	3192.78
330.40	2850.77
330.61	2908.12
330.83	3104.72
331.04	2836.44
331.25	2893.78
331.46	2822.10
331.68	2676.70
331.89	3172.30
332.10	2811.86
332.31	2707.41
332.52	2971.60
332.74	3139.54
332.95	2580.44
333.16	2746.33
333.37	3063.76
333.58	2971.60
333.80	2779.09
334.01	2572.25
334.22	2949.08
334.43	2852.82
334.64	2693.08
334.86	2654.17
335.07	2805.72
335.28	3305.42
335.49	2711.51
335.70	2873.30
335.92	3241.93
336.13	3325.90
336.34	2883.54
336.55	2791.38
336.76	3106.77
336.98	2650.07
337.19	2772.95
337.40	2885.59
337.61	3405.77
337.82	2869.20
338.04	2889.68
338.25	2707.41
338.46	2875.35
338.67	2969.55
338.88	2754.52
339.09	2699.22
339.31	2871.25
339.52	2731.99
339.73	2764.76
339.94	2775.00
340.15	3131.34
340.36	2867.16
340.58	2797.53
340.79	2707.41
341.00	3069.91
341.21	2813.91
341.42	3092.43
341.63	2822.10
341.85	3114.96
342.06	3016.66
342.27	2799.57
342.48	2940.88
342.69	2742.23
342.90	3127.25
343.12	3135.44
343.33	2717.65
343.54	3182.54
343.75	3256.27
343.96	2856.92
344.17	2777.05
344.38	2881.49
344.60	2850.77
344.81	2758.61
345.02	2803.67
345.23	3168.21
345.44	3428.30
345.65	2840.53
345.86	2895.83
346.07	3110.86
346.29	2815.96
346.50	2922.45
346.71	2916.31
346.92	3235.79
347.13	3389.39
347.34	2844.63
347.55	2727.89
347.76	3119.06
347.98	2707.41
348.19	2869.20
348.40	3016.66
348.61	2893.78
348.82	3160.02
349.03	2830.29
349.24	2729.94
349.45	3243.98
349.66	2707.41
349.88	2799.57
350.09	2762.71
350.30	3241.93
350.51	3172.30
350.72	2987.99
350.93	2803.67
351.14	2922.45
351.35	3039.19
351.56	2854.87
351.77	2828.24
351.99	3051.47
352.20	3336.14
352.41	2932.69
352.62	2672.60
352.83	2990.03
353.04	2904.02
353.25	2783.19
353.46	2895.83
353.67	3127.25
353.88	2699.22
354.09	2787.29
354.30	2926.55
354.52	3117.01
354.73	2861.01
354.94	2713.56
355.15	2787.29
355.36	3313.61
355.57	2953.17
355.78	2779.09
355.99	2756.57
356.20	2918.36
356.41	3129.30
356.62	2795.48
356.83	2809.81
357.04	3180.50
357.25	2672.60
357.46	2783.19
357.68	2584.54
357.89	2801.62
358.10	3053.52
358.31	2752.47
358.52	2844.63
358.73	2803.67
358.94	2770.90
359.15	2834.39
359.36	2799.57
359.57	2930.64
359.78	3016.66
359.99	2904.02
360.20	2756.57
360.41	2887.64
360.62	3067.86
360.83	2863.06
361.04	2842.58
361.25	2908.12
361.46	3336.14
361.67	2928.60
361.88	2836.44
362.09	3114.96
362.30	2998.23
362.51	2756.57
362.72	2836.44
362.93	3123.15
363.14	3125.20
363.35	2912.21
363.56	2686.94
363.78	3164.11
363.99	3125.20
364.20	2787.29
364.41	2928.60
364.62	3221.45
364.83	3043.28
365.04	2795.48
365.25	2820.05
365.46	3434.44
365.67	2881.49
365.88	2881.49
366.09	2717.65
366.30	2920.40
366.51	3000.27
366.72	2717.65
366.93	2768.85
367.14	2975.70
367.35	3213.26
367.56	2785.24
367.77	2940.88
367.98	2957.27
368.18	3061.71
368.39	2908.12
368.60	2748.37
368.81	3067.86
369.02	3090.38
369.23	2830.29
369.44	2627.54
369.65	2856.92
369.86	3016.66
370.07	2944.98
370.28	2703.32
370.49	3028.95
370.70	3108.82
370.91	2697.17
371.12	2701.27
371.33	3139.54
371.54	2842.58
371.75	2951.12
371.96	2539.48
372.17	3045.33
372.38	2934.74
372.59	2875.35
372.80	2725.85
373.01	2961.36
373.22	3006.42
373.43	2793.43
373.64	2650.07
373.85	3117.01
374.06	3266.51
374.26	2967.51
374.47	2901.97
374.68	3207.12
374.89	2942.93
375.10	2818.00
375.31	2811.86
375.52	2985.94
375.73	3139.54
375.94	2697.17
376.15	2920.40
376.36	2897.88
376.57	2867.16
376.78	2838.48
376.99	2832.34
377.20	3284.94
377.40	2858.96
377.61	3117.01
377.82	2787.29
378.03	3186.64
378.24	3098.58
378.45	2891.73
378.66	2871.25
378.87	2744.28
379.08	2723.80
379.29	2887.64
379.50	2957.27
379.71	2887.64
379.91	3139.54
380.12	2840.53
380.33	2934.74
380.54	2930.64
380.75	2987.99
380.96	2760.66
381.17	2787.29
381.38	2863.06
381.59	2957.27
381.80	2865.11
382.00	3049.43
382.21	2967.51
382.42	3198.93
382.63	3135.44
382.84	2928.60
383.05	3129.30
383.26	3286.99
383.47	3022.80
383.68	2779.09
383.88	3102.67
384.09	3043.28
384.30	2992.08
384.51	2928.60
384.72	2881.49
384.93	2721.75
385.14	2881.49
385.35	2998.23
385.55	2793.43
385.76	3186.64
385.97	2793.43
386.18	2729.94
386.39	2865.11
386.60	2914.26
386.81	2861.01
387.02	2766.81
387.22	2723.80
387.43	3096.53
387.64	2944.98
387.85	3010.51
388.06	3051.47
388.27	4007.87
388.48	7049.11
388.68	11018.07
388.89	13377.33
389.10	14724.90
389.31	14032.68
389.52	11290.45
389.73	9662.32
389.93	8853.37
390.14	8122.24
390.35	7387.02
390.56	6737.82
390.77	5599.15
390.98	4272.06
391.18	3649.48
391.39	3399.63
391.60	2994.13
391.81	3110.86
392.02	2932.69
392.23	3420.11
392.43	2998.23
392.64	2953.17
392.85	2934.74
393.06	3209.17
393.27	3024.85
393.47	2727.89
393.68	2871.25
393.89	2932.69
394.10	3233.74
394.31	2895.83
394.52	2729.94
394.72	2858.96
394.93	3196.88
395.14	2746.33
395.35	2871.25
395.56	2934.74
395.76	2928.60
395.97	2830.29
396.18	2885.59
396.39	3135.44
396.60	3573.71
396.80	3096.53
397.01	3022.80
397.22	3129.30
397.43	3168.21
397.64	2881.49
397.84	3016.66
398.05	3264.46
398.26	3010.51
398.47	3016.66
398.67	2949.08
398.88	2998.23
399.09	3078.10
399.30	2744.28
399.51	2893.78
399.71	2887.64
399.92	3049.43
400.13	2852.82
400.34	2748.37
400.54	2981.84
400.75	3340.24
400.96	2987.99
401.17	3157.97
401.37	3074.00
401.58	2987.99
401.79	2791.38
402.00	2920.40
402.21	3495.88
402.41	3209.17
402.62	3137.49
402.83	3186.64
403.04	3350.48
403.24	3706.82
403.45	2887.64
403.66	3198.93
403.87	3243.98
404.07	3293.13
404.28	3086.29
404.49	3145.68
404.70	2992.08
404.90	3100.62
405.11	2861.01
405.32	2936.79
405.52	2924.50
405.73	2828.24
405.94	2750.42
406.15	2926.55
406.35	3102.67
406.56	3188.69
406.77	2897.88
406.98	2850.77
407.18	2881.49
407.39	3219.41
407.60	2879.44
407.80	2959.31
408.01	2863.06
408.22	3108.82
408.43	2779.09
408.63	2897.88
408.84	3119.06
409.05	3133.39
409.25	2691.03
409.46	2824.15
409.67	2912.21
409.88	2899.92
410.08	2830.29
410.29	2879.44
410.50	3104.72
410.70	3084.24
410.91	2758.61
411.12	2963.41
411.32	3071.95
411.53	2916.31
411.74	2789.33
411.95	2947.03
412.15	3067.86
412.36	3114.96
412.57	3002.32
412.77	3008.47
412.98	2879.44
413.19	2904.02
413.39	2932.69
413.60	2852.82
413.81	3254.22
414.01	2787.29
414.22	2899.92
414.43	3016.66
414.63	2834.39
414.84	3082.19
415.05	2832.34
415.25	2656.22
415.46	3096.53
415.67	2854.87
415.87	2858.96
416.08	2836.44
416.29	2850.77
416.49	3094.48
416.70	2920.40
416.91	2807.77
417.11	2994.13
417.32	3100.62
417.53	2967.51
417.73	2914.26
417.94	2912.21
418.15	3002.32
418.35	2858.96
418.56	2899.92
418.77	3395.53
418.97	2889.68
419.18	2928.60
419.38	2617.30
419.59	2963.41
419.80	3250.13
420.00	2836.44
420.21	2848.72
420.42	3217.36
420.62	3047.38
420.83	2764.76
421.04	2867.16
421.24	2955.22
421.45	3108.82
421.65	2916.31
421.86	2787.29
422.07	3117.01
422.27	3084.24
422.48	2793.43
422.69	2719.70
422.89	2981.84
423.10	2928.60
423.30	2781.14
423.51	2881.49
423.72	2977.75
423.92	3037.14
424.13	2713.56
424.33	2904.02
424.54	3153.87
424.75	3039.19
424.95	3016.66
425.16	2850.77
425.36	2983.89
425.57	3246.03
425.78	2953.17
425.98	2926.55
426.19	2953.17
426.39	2834.39
426.60	2883.54
426.81	2996.18
427.01	3039.19
427.22	2834.39
427.42	2686.94
427.63	2746.33
427.83	3176.40
428.04	3270.61
428.25	2940.88
428.45	2985.94
428.66	3178.45
428.86	2906.07
429.07	2844.63
429.28	2813.91
429.48	2883.54
429.69	2842.58
429.89	2934.74
430.10	2691.03
430.30	3117.01
430.51	3246.03
430.71	2852.82
430.92	2764.76
431.13	2889.68
431.33	3139.54
431.54	2932.69
431.74	3035.09
431.95	3332.05
432.15	2815.96
432.36	2828.24
432.56	2947.03
432.77	3317.71
432.98	3254.22
433.18	2881.49
433.39	2813.91
433.59	2895.83
433.80	3360.72
434.00	3080.14
434.21	2844.63
434.41	2775.00
434.62	3383.24
434.82	2703.32
435.03	2752.47
435.23	3024.85
435.44	2762.71
435.64	2824.15
435.85	2928.60
436.06	3149.78
436.26	3131.34
436.47	2772.95
436.67	2781.14
436.88	2957.27
437.08	3076.05
437.29	3020.75
437.49	2928.60
437.70	3127.25
437.90	3002.32
438.11	3018.71
438.31	2953.17
438.52	3188.69
438.72	3223.50
438.93	3108.82
439.13	2990.03
439.34	3133.39
439.54	3004.37
439.75	3016.66
439.95	2881.49
440.16	2869.20
440.36	2983.89
440.57	2865.11
440.77	2811.86
440.98	2992.08
441.18	3121.10
441.39	2797.53
441.59	2756.57
441.80	3418.06
442.00	3033.04
442.21	2955.22
442.41	2686.94
442.62	3178.45
442.82	2889.68
443.02	2828.24
443.23	2871.25
443.43	2940.88
443.64	3143.63
443.84	2760.66
444.05	2981.84
444.25	2985.94
444.46	2938.84
444.66	2828.24
444.87	3080.14
445.07	2725.85
445.28	3039.19
445.48	3049.43
445.69	2916.31
445.89	3340.24
446.09	2926.55
446.30	3153.87
446.50	3264.46
446.71	4650.94
446.91	5719.98
447.12	6692.76
447.32	6987.67
447.53	6909.85
447.73	5695.40
447.93	5044.15
448.14	4825.01
448.34	4794.29
448.55	4069.31
448.75	3995.59
448.96	3790.79
449.16	3645.38
449.36	3682.25
449.57	3096.53
449.77	2961.36
449.98	2863.06
450.18	3092.43
450.39	2846.68
450.59	3041.23
450.79	3016.66
451.00	2854.87
451.20	2893.78
451.41	2736.09
451.61	3143.63
451.81	2961.36
452.02	2795.48
452.22	2766.81
452.43	2932.69
452.63	2879.44
