SpectraSuite Data File
++++++++++++++++++++++++++++++++++++
Date: Thu May 05 21:10:46 CEST 2016
User: root
Dark Spectrum Present: No
Reference Spectrum Present: No
Number of Sampled Component Spectra: 1
Spectrometers: USB4C02835
Integration Time (usec): 100000 (USB4C02835)
Spectra Averaged: 1 (USB4C02835)
Boxcar Smoothing: 0 (USB4C02835)
Correct for Electrical Dark: No (USB4C02835)
Strobe/Lamp Enabled: No (USB4C02835)
Correct for Detector Non-linearity: No (USB4C02835)
Correct for Stray Light: No (USB4C02835)
Number of Pixels in Processed Spectrum: 3648
>>>>>Begin Processed Spectral Data<<<<<
177.47	2158.56
177.69	2158.56
177.91	2158.56
178.13	2111.46
178.36	2150.37
178.58	2842.58
178.80	2897.88
179.02	2719.70
179.24	2836.44
179.46	2615.26
179.68	2641.88
179.90	2936.79
180.13	3098.58
180.35	2594.78
180.57	2574.30
180.79	3123.15
181.01	2949.08
181.23	2676.70
181.45	2813.91
181.67	3102.67
181.90	3104.72
182.12	2703.32
182.34	2576.34
182.56	3106.77
182.78	3041.23
183.00	2654.17
183.22	2688.98
183.44	2684.89
183.66	3497.93
183.89	2772.95
184.11	2709.46
184.33	3102.67
184.55	3184.59
184.77	2684.89
184.99	2596.82
185.21	2973.65
185.43	3491.79
185.65	2725.85
185.87	2633.69
186.10	3430.35
186.32	3405.77
186.54	2822.10
186.76	2736.09
186.98	3211.22
187.20	2957.27
187.42	2740.18
187.64	2658.26
187.86	2942.93
188.08	3221.45
188.30	2664.41
188.52	2738.13
188.75	3231.69
188.97	3200.98
189.19	2719.70
189.41	2656.22
189.63	3039.19
189.85	2865.11
190.07	2568.15
190.29	2445.27
190.51	3053.52
190.73	2832.34
190.95	2885.59
191.17	2787.29
191.39	2764.76
191.61	3010.51
191.84	2672.60
192.06	2795.48
192.28	2721.75
192.50	3526.60
192.72	2783.19
192.94	2772.95
193.16	3243.98
193.38	3053.52
193.60	2596.82
193.82	2772.95
194.04	3157.97
194.26	2977.75
194.48	2705.37
194.70	2738.13
194.92	2965.46
195.14	3078.10
195.36	2592.73
195.58	2762.71
195.80	2983.89
196.02	2871.25
196.24	2643.93
196.46	2754.52
196.69	2936.79
196.91	3387.34
197.13	2611.16
197.35	2744.28
197.57	3270.61
197.79	3022.80
198.01	2775.00
198.23	2656.22
198.45	3006.42
198.67	2803.67
198.89	2508.76
199.11	2750.42
199.33	2854.87
199.55	2625.50
199.77	2619.35
199.99	2844.63
200.21	2942.93
200.43	3010.51
200.65	2535.39
200.87	2514.91
201.09	3028.95
201.31	3055.57
201.53	2717.65
201.75	2740.18
201.97	3104.72
202.19	3014.61
202.41	2791.38
202.63	2824.15
202.85	3051.47
203.07	2930.64
203.29	2754.52
203.51	2666.46
203.73	2885.59
203.95	3416.01
204.17	2615.26
204.39	2836.44
204.61	2947.03
204.83	2916.31
205.05	2871.25
205.27	2705.37
205.49	3385.29
205.71	2936.79
205.93	2551.77
206.15	2541.53
206.37	2971.60
206.59	2865.11
206.81	2535.39
207.03	2596.82
207.25	2742.23
207.47	3172.30
207.69	2643.93
207.91	2906.07
208.13	3252.17
208.34	2889.68
208.56	2627.54
208.78	2629.59
209.00	2936.79
209.22	2893.78
209.44	2686.94
209.66	2650.07
209.88	3024.85
210.10	2957.27
210.32	2746.33
210.54	2711.51
210.76	2975.70
210.98	3282.89
211.20	2574.30
211.42	2709.46
211.64	3254.22
211.86	3026.90
212.08	2750.42
212.30	2738.13
212.52	2805.72
212.74	3035.09
212.96	2785.24
213.17	2731.99
213.39	3123.15
213.61	3248.08
213.83	2699.22
214.05	2594.78
214.27	3102.67
214.49	2830.29
214.71	2639.83
214.93	2824.15
215.15	3018.71
215.37	3170.26
215.59	2553.82
215.81	2813.91
216.03	3266.51
216.24	2977.75
216.46	2680.79
216.68	2768.85
216.90	3151.82
217.12	3233.74
217.34	2713.56
217.56	2877.40
217.78	3299.28
218.00	3055.57
218.22	2758.61
218.44	2723.80
218.66	3024.85
218.87	3432.40
219.09	2721.75
219.31	2725.85
219.53	3020.75
219.75	2922.45
219.97	2662.36
220.19	2723.80
220.41	2934.74
220.63	3305.42
220.85	2705.37
221.06	2662.36
221.28	3194.83
221.50	3088.34
221.72	2686.94
221.94	2566.10
222.16	3082.19
222.38	3155.92
222.60	2656.22
222.82	2648.02
223.03	3123.15
223.25	2770.90
223.47	2602.97
223.69	2895.83
223.91	3082.19
224.13	2992.08
224.35	2602.97
224.57	2852.82
224.78	3088.34
225.00	2813.91
225.22	2756.57
225.44	2672.60
225.66	3135.44
225.88	2940.88
226.10	2822.10
226.32	2656.22
226.53	3235.79
226.75	2918.36
226.97	2717.65
227.19	2709.46
227.41	2875.35
227.63	2906.07
227.85	2504.67
228.06	2785.24
228.28	2994.13
228.50	3037.14
228.72	2523.10
228.94	2717.65
229.16	2734.04
229.37	2713.56
229.59	2592.73
229.81	2910.16
230.03	2949.08
230.25	2785.24
230.47	2488.28
230.69	2566.10
230.90	3153.87
231.12	2932.69
231.34	2748.37
231.56	2650.07
231.78	2750.42
232.00	2979.79
232.21	2770.90
232.43	2709.46
232.65	2598.87
232.87	3125.20
233.09	2607.06
233.30	2594.78
233.52	3176.40
233.74	2981.84
233.96	2574.30
234.18	2770.90
234.40	2959.31
234.61	3411.92
234.83	2660.31
235.05	2631.64
235.27	3418.06
235.49	3190.74
235.70	2586.58
235.92	2705.37
236.14	3071.95
236.36	3319.76
236.58	2578.39
236.79	2797.53
237.01	2965.46
237.23	2975.70
237.45	2869.20
237.67	2674.65
237.88	3065.81
238.10	3282.89
238.32	2602.97
238.54	2674.65
238.76	2994.13
238.97	2842.58
239.19	2619.35
239.41	2678.74
239.63	3278.80
239.85	2965.46
240.06	2695.13
240.28	2719.70
240.50	3174.35
240.72	3037.14
240.93	2592.73
241.15	2770.90
241.37	3024.85
241.59	3184.59
241.81	2625.50
242.02	2727.89
242.24	3043.28
242.46	3106.77
242.68	2541.53
242.89	2688.98
243.11	3117.01
243.33	3084.24
243.55	2748.37
243.76	2682.84
243.98	2838.48
244.20	2912.21
244.42	2678.74
244.64	2682.84
244.85	2756.57
245.07	2797.53
245.29	2645.98
245.51	2699.22
245.72	3000.27
245.94	3162.06
246.16	2668.50
246.38	2750.42
246.59	2885.59
246.81	2899.92
247.03	2611.16
247.24	2566.10
247.46	2830.29
247.68	3026.90
247.90	2580.44
248.11	2697.17
248.33	3125.20
248.55	2994.13
248.77	2701.27
248.98	2805.72
249.20	3203.02
249.42	3051.47
249.64	2699.22
249.85	2668.50
250.07	2865.11
250.29	3057.62
250.50	2842.58
250.72	2611.16
250.94	3028.95
251.16	3379.15
251.37	2684.89
251.59	2813.91
251.81	3149.78
252.02	3205.07
252.24	2691.03
252.46	2766.81
252.68	2762.71
252.89	2834.39
253.11	2508.76
253.33	2850.77
253.54	3330.00
253.76	2813.91
253.98	2674.65
254.20	2652.12
254.41	2807.77
254.63	3008.47
254.85	2596.82
255.06	2742.23
255.28	3014.61
255.50	3026.90
255.71	2607.06
255.93	2570.20
256.15	2893.78
256.36	2987.99
256.58	2629.59
256.80	2662.36
257.02	2930.64
257.23	2901.97
257.45	2678.74
257.67	2783.19
257.88	2893.78
258.10	3037.14
258.32	2633.69
258.53	2801.62
258.75	3342.28
258.97	2942.93
259.18	2666.46
259.40	2648.02
259.62	3278.80
259.83	3211.22
260.05	2721.75
260.27	3487.69
260.48	3168.21
260.70	2822.10
260.92	2566.10
261.13	2701.27
261.35	2977.75
261.57	3114.96
261.78	2598.87
262.00	2617.30
262.22	3069.91
262.43	2783.19
262.65	2713.56
262.86	2734.04
263.08	3430.35
263.30	2979.79
263.51	2523.10
263.73	2580.44
263.95	3272.65
264.16	2887.64
264.38	2605.02
264.60	2625.50
264.81	2985.94
265.03	3157.97
265.25	2987.99
265.46	2629.59
265.68	3209.17
265.89	3086.29
266.11	2619.35
266.33	2617.30
266.54	3205.07
266.76	3045.33
266.98	2760.66
267.19	2781.14
267.41	3164.11
267.62	2924.50
267.84	2539.48
268.06	2787.29
268.27	3014.61
268.49	3149.78
268.70	2680.79
268.92	2691.03
269.14	2875.35
269.35	2756.57
269.57	2760.66
269.79	2826.20
270.00	2881.49
270.22	3309.52
270.43	2459.61
270.65	2504.67
270.87	3020.75
271.08	3074.00
271.30	2805.72
271.51	2703.32
271.73	3119.06
271.95	3213.26
272.16	2693.08
272.38	2768.85
272.59	2881.49
272.81	3117.01
273.02	2731.99
273.24	2688.98
273.46	3192.78
273.67	2795.48
273.89	2615.26
274.10	2600.92
274.32	3229.65
274.54	2977.75
274.75	2713.56
274.97	2781.14
275.18	3088.34
275.40	3088.34
275.61	2752.47
275.83	2824.15
276.05	2742.23
276.26	2951.12
276.48	2754.52
276.69	2785.24
276.91	2926.55
277.12	3246.03
277.34	2897.88
277.55	2990.03
277.77	3055.57
277.99	2926.55
278.20	2768.85
278.42	2684.89
278.63	2863.06
278.85	2803.67
279.06	2815.96
279.28	2865.11
279.49	3117.01
279.71	3082.19
279.93	2861.01
280.14	2824.15
280.36	2826.20
280.57	3215.31
280.79	2863.06
281.00	2697.17
281.22	2930.64
281.43	3241.93
281.65	2621.40
281.86	2686.94
282.08	3094.48
282.29	3301.33
282.51	2648.02
282.73	2658.26
282.94	2740.18
283.16	3129.30
283.37	2897.88
283.59	2858.96
283.80	3139.54
284.02	2992.08
284.23	2815.96
284.45	2838.48
284.66	2838.48
284.88	2883.54
285.09	2758.61
285.31	2869.20
285.52	2963.41
285.74	2701.27
285.95	2940.88
286.17	2840.53
286.38	3225.55
286.60	2856.92
286.81	2729.94
287.03	2764.76
287.24	2926.55
287.46	3043.28
287.67	2914.26
287.89	3030.99
288.10	2973.65
288.32	2951.12
288.53	2973.65
288.75	2865.11
288.96	3082.19
289.18	2949.08
289.39	2807.77
289.61	2854.87
289.82	3348.43
290.04	3276.75
290.25	2670.55
290.47	2787.29
290.68	2977.75
290.90	3215.31
291.11	2602.97
291.33	2932.69
291.54	2912.21
291.76	2877.40
291.97	2854.87
292.18	2893.78
292.40	2865.11
292.61	2836.44
292.83	3049.43
293.04	2901.97
293.26	2994.13
293.47	2914.26
293.69	2709.46
293.90	2695.13
294.12	3149.78
294.33	2979.79
294.55	2785.24
294.76	2992.08
294.97	3276.75
295.19	3395.53
295.40	2725.85
295.62	2938.84
295.83	3127.25
296.05	2836.44
296.26	2944.98
296.48	2791.38
296.69	2942.93
296.90	3010.51
297.12	2901.97
297.33	2920.40
297.55	3000.27
297.76	3137.49
297.98	2885.59
298.19	2969.55
298.41	2934.74
298.62	2838.48
298.83	2949.08
299.05	2850.77
299.26	2914.26
299.48	2803.67
299.69	2889.68
299.90	2803.67
300.12	2895.83
300.33	3041.23
300.55	2906.07
300.76	2883.54
300.98	2791.38
301.19	3084.24
301.40	2820.05
301.62	2799.57
301.83	3090.38
302.05	3010.51
302.26	2848.72
302.47	2891.73
302.69	2828.24
302.90	2953.17
303.12	2598.87
303.33	2920.40
303.54	3327.95
303.76	2848.72
303.97	2783.19
304.19	3071.95
304.40	2795.48
304.61	3112.91
304.83	2959.31
305.04	2928.60
305.26	3108.82
305.47	2815.96
305.68	2813.91
305.90	2723.80
306.11	3172.30
306.33	2942.93
306.54	2717.65
306.75	2731.99
306.97	2756.57
307.18	2875.35
307.39	2758.61
307.61	2793.43
307.82	2926.55
308.04	3065.81
308.25	2736.09
308.46	3000.27
308.68	2973.65
308.89	2967.51
309.10	2922.45
309.32	2783.19
309.53	3035.09
309.74	2998.23
309.96	2744.28
310.17	2922.45
310.39	2926.55
310.60	3139.54
310.81	2811.86
311.03	2701.27
311.24	3168.21
311.45	2940.88
311.67	3014.61
311.88	2838.48
312.09	2832.34
312.31	2869.20
312.52	2750.42
312.73	2834.39
312.95	2750.42
313.16	2815.96
313.37	3022.80
313.59	2906.07
313.80	3151.82
314.01	3233.74
314.23	2838.48
314.44	2731.99
314.65	2789.33
314.87	2901.97
315.08	2754.52
315.29	2762.71
315.51	2844.63
315.72	2697.17
315.93	2869.20
316.15	2809.81
316.36	2899.92
316.57	2973.65
316.79	2852.82
317.00	2766.81
317.21	3076.05
317.43	2863.06
317.64	2852.82
317.85	2734.04
318.07	2858.96
318.28	2904.02
318.49	2990.03
318.70	3024.85
318.92	3053.52
319.13	3033.04
319.34	2957.27
319.56	2772.95
319.77	3045.33
319.98	3147.73
320.20	3067.86
320.41	2973.65
320.62	3008.47
320.83	2850.77
321.05	3002.32
321.26	2887.64
321.47	3016.66
321.69	3246.03
321.90	2691.03
322.11	2781.14
322.32	2975.70
322.54	3297.23
322.75	2828.24
322.96	3520.46
323.18	2746.33
323.39	2717.65
323.60	2701.27
323.81	2793.43
324.03	2858.96
324.24	3014.61
324.45	2881.49
324.66	2760.66
324.88	3190.74
325.09	3217.36
325.30	2762.71
325.52	2791.38
325.73	3022.80
325.94	2879.44
326.15	2713.56
326.37	2705.37
326.58	3096.53
326.79	3397.58
327.00	2791.38
327.22	2856.92
327.43	2944.98
327.64	2752.47
327.85	2873.30
328.07	2805.72
328.28	3289.04
328.49	2871.25
328.70	2768.85
328.92	2836.44
329.13	2938.84
329.34	3088.34
329.55	3016.66
329.76	2910.16
329.98	2914.26
330.19	3149.78
330.40	2883.54
330.61	2822.10
330.83	3133.39
331.04	2824.15
331.25	2867.16
331.46	2811.86
331.68	2772.95
331.89	3133.39
332.10	2807.77
332.31	2660.31
332.52	3069.91
332.74	3223.50
332.95	2641.88
333.16	2809.81
333.37	3190.74
333.58	2899.92
333.80	2820.05
334.01	2600.92
334.22	3006.42
334.43	2807.77
334.64	2766.81
334.86	2734.04
335.07	2801.62
335.28	3246.03
335.49	2736.09
335.70	2906.07
335.92	3198.93
336.13	3350.48
336.34	2834.39
336.55	2795.48
336.76	3061.71
336.98	2627.54
337.19	2842.58
337.40	2912.21
337.61	3434.44
337.82	2957.27
338.04	2914.26
338.25	2590.68
338.46	2959.31
338.67	2922.45
338.88	2697.17
339.09	2707.41
339.31	2920.40
339.52	2803.67
339.73	2721.75
339.94	2901.97
340.15	3041.23
340.36	2854.87
340.58	2889.68
340.79	2707.41
341.00	3028.95
341.21	2789.33
341.42	2990.03
341.63	2824.15
341.85	3086.29
342.06	2985.94
342.27	2787.29
342.48	2973.65
342.69	2740.18
342.90	3002.32
343.12	3125.20
343.33	2744.28
343.54	3129.30
343.75	3192.78
343.96	2871.25
344.17	2617.30
344.38	2889.68
344.60	2813.91
344.81	2719.70
345.02	2770.90
345.23	3178.45
345.44	3311.57
345.65	2893.78
345.86	2852.82
346.07	2949.08
346.29	2772.95
346.50	2955.22
346.71	2854.87
346.92	3229.65
347.13	3452.88
347.34	2811.86
347.55	2680.79
347.76	3114.96
347.98	2736.09
348.19	2840.53
348.40	2944.98
348.61	2889.68
348.82	3235.79
349.03	2910.16
349.24	2787.29
349.45	3305.42
349.66	2688.98
349.88	2797.53
350.09	2684.89
350.30	3174.35
350.51	3248.08
350.72	2897.88
350.93	2822.10
351.14	2891.73
351.35	3006.42
351.56	2844.63
351.77	2785.24
351.99	3117.01
352.20	3262.41
352.41	2906.07
352.62	2627.54
352.83	2973.65
353.04	2959.31
353.25	2746.33
353.46	2871.25
353.67	3209.17
353.88	2674.65
354.09	2738.13
354.30	2795.48
354.52	3143.63
354.73	2951.12
354.94	2752.47
355.15	2861.01
355.36	3370.96
355.57	2877.40
355.78	2842.58
355.99	2787.29
356.20	2887.64
356.41	3211.22
356.62	2842.58
356.83	2807.77
357.04	3260.37
357.25	2684.89
357.46	2863.06
357.68	2619.35
357.89	2777.05
358.10	2959.31
358.31	2766.81
358.52	2830.29
358.73	2824.15
358.94	2742.23
359.15	2754.52
359.36	2861.01
359.57	2912.21
359.78	2955.22
359.99	2971.60
360.20	2691.03
360.41	2959.31
360.62	3088.34
360.83	2879.44
361.04	2840.53
361.25	3076.05
361.46	3344.33
361.67	2930.64
361.88	2850.77
362.09	3209.17
362.30	3002.32
362.51	2711.51
362.72	2904.02
362.93	3133.39
363.14	3033.04
363.35	2881.49
363.56	2703.32
363.78	3137.49
363.99	3119.06
364.20	2758.61
364.41	2893.78
364.62	3327.95
364.83	3014.61
365.04	2852.82
365.25	2873.30
365.46	3252.17
365.67	2873.30
365.88	2891.73
366.09	2824.15
366.30	2924.50
366.51	2957.27
366.72	2762.71
366.93	2787.29
367.14	2951.12
367.35	3198.93
367.56	2779.09
367.77	2852.82
367.98	2926.55
368.18	3045.33
368.39	2875.35
368.60	2770.90
368.81	3039.19
369.02	3076.05
369.23	2850.77
369.44	2713.56
369.65	2844.63
369.86	3082.19
370.07	2934.74
370.28	2697.17
370.49	3119.06
370.70	3018.71
370.91	2717.65
371.12	2674.65
371.33	3194.83
371.54	2883.54
371.75	2949.08
371.96	2596.82
372.17	3053.52
372.38	2963.41
372.59	2803.67
372.80	2799.57
373.01	2932.69
373.22	3055.57
373.43	2744.28
373.64	2672.60
373.85	3213.26
374.06	3293.13
374.26	2990.03
374.47	2973.65
374.68	3280.85
374.89	3051.47
375.10	2828.24
375.31	2975.70
375.52	2957.27
375.73	2955.22
375.94	2662.36
376.15	2932.69
376.36	2822.10
376.57	2863.06
376.78	2787.29
376.99	2811.86
377.20	3246.03
377.40	2901.97
377.61	3074.00
377.82	2801.62
378.03	3243.98
378.24	3102.67
378.45	2901.97
378.66	2889.68
378.87	2758.61
379.08	2801.62
379.29	2858.96
379.50	3045.33
379.71	2883.54
379.91	3092.43
380.12	2756.57
380.33	2828.24
380.54	3018.71
380.75	3016.66
380.96	2797.53
381.17	2852.82
381.38	2990.03
381.59	2979.79
381.80	2811.86
382.00	3008.47
382.21	3090.38
382.42	3327.95
382.63	3164.11
382.84	2926.55
383.05	3059.67
383.26	3176.40
383.47	2873.30
383.68	2818.00
383.88	3100.62
384.09	3022.80
384.30	3051.47
384.51	2916.31
384.72	2885.59
384.93	2750.42
385.14	2885.59
385.35	3010.51
385.55	2725.85
385.76	3162.06
385.97	2805.72
386.18	2654.17
386.39	2723.80
386.60	2951.12
386.81	2809.81
387.02	2709.46
387.22	2744.28
387.43	3106.77
387.64	2861.01
387.85	3067.86
388.06	3074.00
388.27	3968.96
388.48	7307.15
388.68	10921.82
388.89	13420.34
389.10	14616.35
389.31	14229.29
389.52	11325.27
389.73	9680.75
389.93	8830.84
390.14	8171.40
390.35	7356.30
390.56	6789.02
390.77	5642.15
390.98	4206.53
391.18	3592.14
391.39	3336.14
391.60	3006.42
391.81	3039.19
392.02	2885.59
392.23	3389.39
392.43	3035.09
392.64	2930.64
392.85	2916.31
393.06	3301.33
393.27	2977.75
393.47	2801.62
393.68	2840.53
393.89	2932.69
394.10	3168.21
394.31	2754.52
394.52	2703.32
394.72	2885.59
394.93	3170.26
395.14	2715.61
395.35	2893.78
395.56	2840.53
395.76	2922.45
395.97	2858.96
396.18	2942.93
396.39	2992.08
396.60	3581.90
396.80	3162.06
397.01	2985.94
397.22	3078.10
397.43	3211.22
397.64	2854.87
397.84	2867.16
398.05	3264.46
398.26	2928.60
398.47	2901.97
398.67	3012.56
398.88	2901.97
399.09	3119.06
399.30	2756.57
399.51	2996.18
399.71	2885.59
399.92	2856.92
400.13	2856.92
400.34	2824.15
400.54	2992.08
400.75	3301.33
400.96	3016.66
401.17	3112.91
401.37	3078.10
401.58	2973.65
401.79	2775.00
402.00	2879.44
402.21	3530.70
402.41	3172.30
402.62	3127.25
402.83	3233.74
403.04	3438.54
403.24	3637.19
403.45	2916.31
403.66	3117.01
403.87	3266.51
404.07	3223.50
404.28	3082.19
404.49	3157.97
404.70	3135.44
404.90	3045.33
405.11	2848.72
405.32	2938.84
405.52	2906.07
405.73	2844.63
405.94	2750.42
406.15	2813.91
406.35	3139.54
406.56	3053.52
406.77	2979.79
406.98	2818.00
407.18	2818.00
407.39	3225.55
407.60	2893.78
407.80	2992.08
408.01	2928.60
408.22	3106.77
408.43	2648.02
408.63	2961.36
408.84	3139.54
409.05	3186.64
409.25	2797.53
409.46	2865.11
409.67	2916.31
409.88	2934.74
410.08	2858.96
410.29	2811.86
410.50	3086.29
410.70	3024.85
410.91	2695.13
411.12	2908.12
411.32	3043.28
411.53	2842.58
411.74	2875.35
411.95	2910.16
412.15	3063.76
412.36	3096.53
412.57	3059.67
412.77	3002.32
412.98	2971.60
413.19	2957.27
413.39	2934.74
413.60	2904.02
413.81	3213.26
414.01	2815.96
414.22	2748.37
414.43	3006.42
414.63	2928.60
414.84	3196.88
415.05	2928.60
415.25	2707.41
415.46	3164.11
415.67	2820.05
415.87	2826.20
416.08	2818.00
416.29	2940.88
416.49	3043.28
416.70	2756.57
416.91	2861.01
417.11	2828.24
417.32	3149.78
417.53	2940.88
417.73	2934.74
417.94	2959.31
418.15	3028.95
418.35	2961.36
418.56	2846.68
418.77	3418.06
418.97	3049.43
419.18	2910.16
419.38	2527.19
419.59	3012.56
419.80	3235.79
420.00	2832.34
420.21	2775.00
420.42	3221.45
420.62	3082.19
420.83	2850.77
421.04	2901.97
421.24	3014.61
421.45	3026.90
421.65	2883.54
421.86	2813.91
422.07	3147.73
422.27	3022.80
422.48	2830.29
422.69	2633.69
422.89	2975.70
423.10	2912.21
423.30	2691.03
423.51	2852.82
423.72	3092.43
423.92	3096.53
424.13	2719.70
424.33	2932.69
424.54	3123.15
424.75	3008.47
424.95	3053.52
425.16	2803.67
425.36	2893.78
425.57	3153.87
425.78	2918.36
425.98	2918.36
426.19	2906.07
426.39	2836.44
426.60	2928.60
426.81	2998.23
427.01	3014.61
427.22	2832.34
427.42	2576.34
427.63	2717.65
427.83	3080.14
428.04	3284.94
428.25	2854.87
428.45	3030.99
428.66	3106.77
428.86	2955.22
429.07	2881.49
429.28	2832.34
429.48	2944.98
429.69	2826.20
429.89	2916.31
430.10	2772.95
430.30	3076.05
430.51	3237.84
430.71	2779.09
430.92	2914.26
431.13	2944.98
431.33	3184.59
431.54	2906.07
431.74	3100.62
431.95	3368.91
432.15	2832.34
432.36	2906.07
432.56	2910.16
432.77	3309.52
432.98	3258.32
433.18	2961.36
433.39	2721.75
433.59	2957.27
433.80	3342.28
434.00	3039.19
434.21	2871.25
434.41	2805.72
434.62	3405.77
434.82	2772.95
435.03	2748.37
435.23	3123.15
435.44	2758.61
435.64	2779.09
435.85	2959.31
436.06	3065.81
436.26	3065.81
436.47	2895.83
436.67	2822.10
436.88	2977.75
437.08	3074.00
437.29	2992.08
437.49	3004.37
437.70	3067.86
437.90	2981.84
438.11	3000.27
438.31	2883.54
438.52	3268.56
438.72	3112.91
438.93	3143.63
439.13	2926.55
439.34	3137.49
439.54	2951.12
439.75	2967.51
439.95	2906.07
440.16	2875.35
440.36	2932.69
440.57	2856.92
440.77	2856.92
440.98	2930.64
441.18	3055.57
441.39	2803.67
441.59	2717.65
441.80	3383.24
442.00	3018.71
442.21	2893.78
442.41	2652.12
442.62	3121.10
442.82	2865.11
443.02	2783.19
443.23	2842.58
443.43	2957.27
443.64	3160.02
443.84	2752.47
444.05	2951.12
444.25	2949.08
444.46	2852.82
444.66	2838.48
444.87	3061.71
445.07	2650.07
445.28	2969.55
445.48	3014.61
445.69	2944.98
445.89	3467.21
446.09	2852.82
446.30	3166.16
446.50	3274.70
446.71	4728.76
446.91	5738.41
447.12	6559.64
447.32	6940.57
447.53	6868.89
447.73	5707.69
447.93	5115.83
448.14	4745.14
448.34	4800.44
448.55	4085.70
448.75	4128.70
448.96	3776.45
449.16	3612.62
449.36	3596.23
449.57	3026.90
449.77	2811.86
449.98	2887.64
450.18	3057.62
450.39	2830.29
450.59	3065.81
450.79	2916.31
451.00	2926.55
451.20	2963.41
451.41	2746.33
451.61	3059.67
451.81	3100.62
452.02	2752.47
452.22	2869.20
452.43	2904.02
452.63	2852.82
