SpectraSuite Data File
++++++++++++++++++++++++++++++++++++
Date: Thu May 05 21:10:57 CEST 2016
User: root
Dark Spectrum Present: No
Reference Spectrum Present: No
Number of Sampled Component Spectra: 1
Spectrometers: USB4C02835
Integration Time (usec): 100000 (USB4C02835)
Spectra Averaged: 1 (USB4C02835)
Boxcar Smoothing: 0 (USB4C02835)
Correct for Electrical Dark: No (USB4C02835)
Strobe/Lamp Enabled: No (USB4C02835)
Correct for Detector Non-linearity: No (USB4C02835)
Correct for Stray Light: No (USB4C02835)
Number of Pixels in Processed Spectrum: 3648
>>>>>Begin Processed Spectral Data<<<<<
177.47	2086.88
177.69	2086.88
177.91	2086.88
178.13	2125.79
178.36	2086.88
178.58	2762.71
178.80	2938.84
179.02	2789.33
179.24	2801.62
179.46	2596.82
179.68	2680.79
179.90	2963.41
180.13	2979.79
180.35	2514.91
180.57	2645.98
180.79	3059.67
181.01	3016.66
181.23	2729.94
181.45	2822.10
181.67	3129.30
181.90	3082.19
182.12	2758.61
182.34	2559.96
182.56	3112.91
182.78	3026.90
183.00	2641.88
183.22	2758.61
183.44	2684.89
183.66	3411.92
183.89	2936.79
184.11	2631.64
184.33	3078.10
184.55	3139.54
184.77	2611.16
184.99	2672.60
185.21	2904.02
185.43	3444.68
185.65	2684.89
185.87	2650.07
186.10	3387.34
186.32	3379.15
186.54	2809.81
186.76	2770.90
186.98	3145.68
187.20	2971.60
187.42	2703.32
187.64	2637.78
187.86	3076.05
188.08	3049.43
188.30	2607.06
188.52	2719.70
188.75	3213.26
188.97	3157.97
189.19	2668.50
189.41	2660.31
189.63	3117.01
189.85	2916.31
190.07	2562.01
190.29	2496.47
190.51	3192.78
190.73	2805.72
190.95	2850.77
191.17	2721.75
191.39	2754.52
191.61	2983.89
191.84	2615.26
192.06	2867.16
192.28	2746.33
192.50	3622.86
192.72	2830.29
192.94	2770.90
193.16	3147.73
193.38	3096.53
193.60	2619.35
193.82	2813.91
194.04	3188.69
194.26	3088.34
194.48	2711.51
194.70	2758.61
194.92	3000.27
195.14	3114.96
195.36	2662.36
195.58	2779.09
195.80	2985.94
196.02	2873.30
196.24	2639.83
196.46	2775.00
196.69	2861.01
196.91	3321.81
197.13	2676.70
197.35	2738.13
197.57	3248.08
197.79	3114.96
198.01	2715.61
198.23	2682.84
198.45	3086.29
198.67	2828.24
198.89	2480.09
199.11	2801.62
199.33	2861.01
199.55	2602.97
199.77	2668.50
199.99	2838.48
200.21	2820.05
200.43	3043.28
200.65	2570.20
200.87	2514.91
201.09	2879.44
201.31	2883.54
201.53	2740.18
201.75	2674.65
201.97	3010.51
202.19	2979.79
202.41	2713.56
202.63	2826.20
202.85	3106.77
203.07	3131.34
203.29	2777.05
203.51	2703.32
203.73	2840.53
203.95	3395.53
204.17	2613.21
204.39	2803.67
204.61	3002.32
204.83	2885.59
205.05	2793.43
205.27	2695.13
205.49	3311.57
205.71	2934.74
205.93	2553.82
206.15	2617.30
206.37	2924.50
206.59	3016.66
206.81	2541.53
207.03	2641.88
207.25	2881.49
207.47	3143.63
207.69	2697.17
207.91	2861.01
208.13	3282.89
208.34	2856.92
208.56	2596.82
208.78	2695.13
209.00	2883.54
209.22	2883.54
209.44	2703.32
209.66	2674.65
209.88	3014.61
210.10	2910.16
210.32	2617.30
210.54	2834.39
210.76	2961.36
210.98	3160.02
211.20	2543.58
211.42	2826.20
211.64	3231.69
211.86	2985.94
212.08	2705.37
212.30	2744.28
212.52	2947.03
212.74	3094.48
212.96	2734.04
213.17	2746.33
213.39	3119.06
213.61	3309.52
213.83	2648.02
214.05	2596.82
214.27	3155.92
214.49	2820.05
214.71	2625.50
214.93	2861.01
215.15	3002.32
215.37	3110.86
215.59	2578.39
215.81	2705.37
216.03	3178.45
216.24	3014.61
216.46	2670.55
216.68	2787.29
216.90	3125.20
217.12	3172.30
217.34	2645.98
217.56	2813.91
217.78	3205.07
218.00	3067.86
218.22	2725.85
218.44	2850.77
218.66	3035.09
218.87	3366.86
219.09	2641.88
219.31	2678.74
219.53	2985.94
219.75	2885.59
219.97	2760.66
220.19	2723.80
220.41	2936.79
220.63	3241.93
220.85	2725.85
221.06	2713.56
221.28	3252.17
221.50	3082.19
221.72	2693.08
221.94	2631.64
222.16	3037.14
222.38	3194.83
222.60	2684.89
222.82	2742.23
223.03	3180.50
223.25	2781.14
223.47	2656.22
223.69	2885.59
223.91	3178.45
224.13	3041.23
224.35	2541.53
224.57	2867.16
224.78	3166.16
225.00	2877.40
225.22	2791.38
225.44	2553.82
225.66	3082.19
225.88	2879.44
226.10	2836.44
226.32	2682.84
226.53	3264.46
226.75	2959.31
226.97	2764.76
227.19	2719.70
227.41	2875.35
227.63	2949.08
227.85	2492.38
228.06	2731.99
228.28	3016.66
228.50	3231.69
228.72	2590.68
228.94	2635.74
229.16	2678.74
229.37	2793.43
229.59	2578.39
229.81	2959.31
230.03	3000.27
230.25	2754.52
230.47	2543.58
230.69	2637.78
230.90	3143.63
231.12	2861.01
231.34	2801.62
231.56	2770.90
231.78	2783.19
232.00	3076.05
232.21	2746.33
232.43	2764.76
232.65	2645.98
232.87	3096.53
233.09	2602.97
233.30	2676.70
233.52	3141.58
233.74	2969.55
233.96	2660.31
234.18	2836.44
234.40	3006.42
234.61	3438.54
234.83	2611.16
235.05	2617.30
235.27	3358.67
235.49	3272.65
235.70	2617.30
235.92	2717.65
236.14	3129.30
236.36	3465.16
236.58	2516.95
236.79	2807.77
237.01	2981.84
237.23	2881.49
237.45	2920.40
237.67	2746.33
237.88	3114.96
238.10	3282.89
238.32	2615.26
238.54	2756.57
238.76	2955.22
238.97	2942.93
239.19	2609.11
239.41	2758.61
239.63	3274.70
239.85	2883.54
240.06	2676.70
240.28	2674.65
240.50	3160.02
240.72	3016.66
240.93	2586.58
241.15	2750.42
241.37	3055.57
241.59	3215.31
241.81	2656.22
242.02	2738.13
242.24	3030.99
242.46	3174.35
242.68	2578.39
242.89	2693.08
243.11	3069.91
243.33	2985.94
243.55	2621.40
243.76	2684.89
243.98	2805.72
244.20	2985.94
244.42	2639.83
244.64	2705.37
244.85	2789.33
245.07	2779.09
245.29	2723.80
245.51	2772.95
245.72	3055.57
245.94	3145.68
246.16	2688.98
246.38	2715.61
246.59	2879.44
246.81	2889.68
247.03	2580.44
247.24	2576.34
247.46	2947.03
247.68	2994.13
247.90	2596.82
248.11	2695.13
248.33	3106.77
248.55	2996.18
248.77	2758.61
248.98	2731.99
249.20	3272.65
249.42	3037.14
249.64	2693.08
249.85	2658.26
250.07	3014.61
250.29	3082.19
250.50	2830.29
250.72	2566.10
250.94	3125.20
251.16	3352.52
251.37	2627.54
251.59	2789.33
251.81	3055.57
252.02	3215.31
252.24	2598.87
252.46	2783.19
252.68	2858.96
252.89	2944.98
253.11	2508.76
253.33	2846.68
253.54	3229.65
253.76	2822.10
253.98	2680.79
254.20	2650.07
254.41	2799.57
254.63	3012.56
254.85	2592.73
255.06	2830.29
255.28	3108.82
255.50	2918.36
255.71	2623.45
255.93	2617.30
256.15	2947.03
256.36	3069.91
256.58	2582.49
256.80	2615.26
257.02	2957.27
257.23	2924.50
257.45	2650.07
257.67	2756.57
257.88	2881.49
258.10	3098.58
258.32	2666.46
258.53	2779.09
258.75	3268.56
258.97	2809.81
259.18	2691.03
259.40	2525.15
259.62	3276.75
259.83	3260.37
260.05	2736.09
260.27	3510.22
260.48	3080.14
260.70	2830.29
260.92	2537.43
261.13	2688.98
261.35	3043.28
261.57	3188.69
261.78	2588.63
262.00	2574.30
262.22	3090.38
262.43	2828.24
262.65	2795.48
262.86	2605.02
263.08	3481.55
263.30	3000.27
263.51	2527.19
263.73	2629.59
263.95	3188.69
264.16	2805.72
264.38	2641.88
264.60	2598.87
264.81	3041.23
265.03	3131.34
265.25	2969.55
265.46	2658.26
265.68	3106.77
265.89	3147.73
266.11	2582.49
266.33	2701.27
266.54	3209.17
266.76	3074.00
266.98	2695.13
267.19	2801.62
267.41	3147.73
267.62	2959.31
267.84	2516.95
268.06	2807.77
268.27	2983.89
268.49	3176.40
268.70	2713.56
268.92	2736.09
269.14	2762.71
269.35	2680.79
269.57	2742.23
269.79	2723.80
270.00	2865.11
270.22	3295.18
270.43	2596.82
270.65	2547.67
270.87	2998.23
271.08	3053.52
271.30	2805.72
271.51	2664.41
271.73	3063.76
271.95	3248.08
272.16	2656.22
272.38	2779.09
272.59	2926.55
272.81	2990.03
273.02	2650.07
273.24	2719.70
273.46	3209.17
273.67	2834.39
273.89	2617.30
274.10	2664.41
274.32	3213.26
274.54	2951.12
274.75	2760.66
274.97	2727.89
275.18	3119.06
275.40	3061.71
275.61	2742.23
275.83	2875.35
276.05	2865.11
276.26	2963.41
276.48	2793.43
276.69	2803.67
276.91	2844.63
277.12	3291.09
277.34	2865.11
277.55	2928.60
277.77	2996.18
277.99	3028.95
278.20	2779.09
278.42	2719.70
278.63	2858.96
278.85	2752.47
279.06	2723.80
279.28	2842.58
279.49	3110.86
279.71	3129.30
279.93	2910.16
280.14	2844.63
280.36	2811.86
280.57	3049.43
280.79	2934.74
281.00	2748.37
281.22	2908.12
281.43	3203.02
281.65	2586.58
281.86	2701.27
282.08	3035.09
282.29	3354.57
282.51	2656.22
282.73	2693.08
282.94	2772.95
283.16	3145.68
283.37	2881.49
283.59	2789.33
283.80	3090.38
284.02	2932.69
284.23	2881.49
284.45	2723.80
284.66	2809.81
284.88	2777.05
285.09	2721.75
285.31	2967.51
285.52	3071.95
285.74	2746.33
285.95	3022.80
286.17	2861.01
286.38	3162.06
286.60	2887.64
286.81	2795.48
287.03	2787.29
287.24	3000.27
287.46	3043.28
287.67	2918.36
287.89	3028.95
288.10	2895.83
288.32	2940.88
288.53	2889.68
288.75	2766.81
288.96	3188.69
289.18	2867.16
289.39	2725.85
289.61	2834.39
289.82	3411.92
290.04	3313.61
290.25	2631.64
290.47	2883.54
290.68	2947.03
290.90	3188.69
291.11	2633.69
291.33	2899.92
291.54	2811.86
291.76	2908.12
291.97	2910.16
292.18	2867.16
292.40	2867.16
292.61	2879.44
292.83	3141.58
293.04	2877.40
293.26	2949.08
293.47	2969.55
293.69	2785.24
293.90	2701.27
294.12	3145.68
294.33	3004.37
294.55	2875.35
294.76	2908.12
294.97	3188.69
295.19	3317.71
295.40	2775.00
295.62	2912.21
295.83	3160.02
296.05	2811.86
296.26	2951.12
296.48	2863.06
296.69	2975.70
296.90	2953.17
297.12	2893.78
297.33	2983.89
297.55	2940.88
297.76	2963.41
297.98	2871.25
298.19	2850.77
298.41	2959.31
298.62	2832.34
298.83	2953.17
299.05	2887.64
299.26	2918.36
299.48	2811.86
299.69	2830.29
299.90	2795.48
300.12	2848.72
300.33	3084.24
300.55	2820.05
300.76	2891.73
300.98	2750.42
301.19	3092.43
301.40	2779.09
301.62	2750.42
301.83	3035.09
302.05	3014.61
302.26	2805.72
302.47	2924.50
302.69	2830.29
302.90	2987.99
303.12	2650.07
303.33	2820.05
303.54	3293.13
303.76	2996.18
303.97	2791.38
304.19	2944.98
304.40	2834.39
304.61	3086.29
304.83	2889.68
305.04	2840.53
305.26	3123.15
305.47	2863.06
305.68	2838.48
305.90	2723.80
306.11	3227.60
306.33	2901.97
306.54	2664.41
306.75	2672.60
306.97	2670.55
307.18	2852.82
307.39	2795.48
307.61	2861.01
307.82	2981.84
308.04	3100.62
308.25	2641.88
308.46	2832.34
308.68	3030.99
308.89	2969.55
309.10	2877.40
309.32	2856.92
309.53	3059.67
309.74	3127.25
309.96	2795.48
310.17	2871.25
310.39	2879.44
310.60	3147.73
310.81	2795.48
311.03	2779.09
311.24	3160.02
311.45	2885.59
311.67	3059.67
311.88	2824.15
312.09	2883.54
312.31	2934.74
312.52	2799.57
312.73	2815.96
312.95	2754.52
313.16	2789.33
313.37	2928.60
313.59	2869.20
313.80	3100.62
314.01	3295.18
314.23	2850.77
314.44	2731.99
314.65	2836.44
314.87	2871.25
315.08	2699.22
315.29	2830.29
315.51	2865.11
315.72	2709.46
315.93	2912.21
316.15	2885.59
316.36	2873.30
316.57	3098.58
316.79	2815.96
317.00	2740.18
317.21	3121.10
317.43	2916.31
317.64	2879.44
317.85	2699.22
318.07	2869.20
318.28	2881.49
318.49	3004.37
318.70	3010.51
318.92	3026.90
319.13	3094.48
319.34	2908.12
319.56	2852.82
319.77	3098.58
319.98	3141.58
320.20	3053.52
320.41	2846.68
320.62	3127.25
320.83	2861.01
321.05	3018.71
321.26	2858.96
321.47	2979.79
321.69	3155.92
321.90	2707.41
322.11	2746.33
322.32	3043.28
322.54	3297.23
322.75	2801.62
322.96	3618.76
323.18	2815.96
323.39	2617.30
323.60	2697.17
323.81	2836.44
324.03	2848.72
324.24	2947.03
324.45	2863.06
324.66	2766.81
324.88	3088.34
325.09	3221.45
325.30	2838.48
325.52	2725.85
325.73	3082.19
325.94	2781.14
326.15	2717.65
326.37	2703.32
326.58	3137.49
326.79	3325.90
327.00	2684.89
327.22	2836.44
327.43	2971.60
327.64	2789.33
327.85	2922.45
328.07	2899.92
328.28	3299.28
328.49	2926.55
328.70	2805.72
328.92	2807.77
329.13	2926.55
329.34	3084.24
329.55	2963.41
329.76	2969.55
329.98	2932.69
330.19	3174.35
330.40	2840.53
330.61	2854.87
330.83	3065.81
331.04	2879.44
331.25	2879.44
331.46	2772.95
331.68	2701.27
331.89	3094.48
332.10	2861.01
332.31	2625.50
332.52	2981.84
332.74	3227.60
332.95	2645.98
333.16	2799.57
333.37	3069.91
333.58	2901.97
333.80	2830.29
334.01	2629.59
334.22	2955.22
334.43	2828.24
334.64	2793.43
334.86	2688.98
335.07	2834.39
335.28	3274.70
335.49	2721.75
335.70	2805.72
335.92	3284.94
336.13	3336.14
336.34	2820.05
336.55	2832.34
336.76	3141.58
336.98	2648.02
337.19	2871.25
337.40	2904.02
337.61	3467.21
337.82	2895.83
338.04	2908.12
338.25	2660.31
338.46	2940.88
338.67	2942.93
338.88	2713.56
339.09	2785.24
339.31	3008.47
339.52	2779.09
339.73	2766.81
339.94	2846.68
340.15	3129.30
340.36	2891.73
340.58	2916.31
340.79	2721.75
341.00	3061.71
341.21	2873.30
341.42	2965.46
341.63	2820.05
341.85	3131.34
342.06	3047.38
342.27	2830.29
342.48	2947.03
342.69	2783.19
342.90	2992.08
343.12	3039.19
343.33	2729.94
343.54	3211.22
343.75	3209.17
343.96	2910.16
344.17	2709.46
344.38	2971.60
344.60	2826.20
344.81	2717.65
345.02	2775.00
345.23	3172.30
345.44	3487.69
345.65	2777.05
345.86	2863.06
346.07	3082.19
346.29	2844.63
346.50	2967.51
346.71	2889.68
346.92	3252.17
347.13	3327.95
347.34	2764.76
347.55	2699.22
347.76	3008.47
347.98	2699.22
348.19	2811.86
348.40	2953.17
348.61	2899.92
348.82	3241.93
349.03	2908.12
349.24	2643.93
349.45	3270.61
349.66	2598.87
349.88	2826.20
350.09	2656.22
350.30	3284.94
350.51	3176.40
350.72	2936.79
350.93	2791.38
351.14	2983.89
351.35	3170.26
351.56	2779.09
351.77	2914.26
351.99	3080.14
352.20	3270.61
352.41	2893.78
352.62	2639.83
352.83	2992.08
353.04	2936.79
353.25	2818.00
353.46	2795.48
353.67	3170.26
353.88	2674.65
354.09	2766.81
354.30	2887.64
354.52	3051.47
354.73	2985.94
354.94	2750.42
355.15	2811.86
355.36	3391.44
355.57	2822.10
355.78	2789.33
355.99	2772.95
356.20	2940.88
356.41	3213.26
356.62	2871.25
356.83	2881.49
357.04	3209.17
357.25	2688.98
357.46	2865.11
357.68	2627.54
357.89	2777.05
358.10	2955.22
358.31	2830.29
358.52	2793.43
358.73	2793.43
358.94	2893.78
359.15	2748.37
359.36	2869.20
359.57	2973.65
359.78	2992.08
359.99	2973.65
360.20	2652.12
360.41	2990.03
360.62	3045.33
360.83	2865.11
361.04	2811.86
361.25	3047.38
361.46	3241.93
361.67	2881.49
361.88	2760.66
362.09	3131.34
362.30	3035.09
362.51	2777.05
362.72	2875.35
362.93	3108.82
363.14	3100.62
363.35	2824.15
363.56	2662.36
363.78	3143.63
363.99	3155.92
364.20	2736.09
364.41	2787.29
364.62	3303.37
364.83	2992.08
365.04	2805.72
365.25	2848.72
365.46	3239.89
365.67	2873.30
365.88	2885.59
366.09	2772.95
366.30	2887.64
366.51	3002.32
366.72	2738.13
366.93	2756.57
367.14	3047.38
367.35	3205.07
367.56	2748.37
367.77	2951.12
367.98	3002.32
368.18	3084.24
368.39	3039.19
368.60	2754.52
368.81	3135.44
369.02	3045.33
369.23	2889.68
369.44	2664.41
369.65	2869.20
369.86	3051.47
370.07	2918.36
370.28	2746.33
370.49	2994.13
370.70	3067.86
370.91	2703.32
371.12	2752.47
371.33	3153.87
371.54	2832.34
371.75	2936.79
371.96	2568.15
372.17	3008.47
372.38	2994.13
372.59	2869.20
372.80	2748.37
373.01	2928.60
373.22	2975.70
373.43	2807.77
373.64	2695.13
373.85	3211.22
374.06	3266.51
374.26	2994.13
374.47	2936.79
374.68	3241.93
374.89	2934.74
375.10	2758.61
375.31	2904.02
375.52	3012.56
375.73	3035.09
375.94	2676.70
376.15	2881.49
376.36	2844.63
376.57	2815.96
376.78	2832.34
376.99	2887.64
377.20	3223.50
377.40	2938.84
377.61	3026.90
377.82	2731.99
378.03	3198.93
378.24	3022.80
378.45	2861.01
378.66	2910.16
378.87	2731.99
379.08	2746.33
379.29	2918.36
379.50	3006.42
379.71	2965.46
379.91	3047.38
380.12	2809.81
380.33	2936.79
380.54	2936.79
380.75	2936.79
380.96	2801.62
381.17	2873.30
381.38	3016.66
381.59	2932.69
381.80	2867.16
382.00	2963.41
382.21	3047.38
382.42	3241.93
382.63	3180.50
382.84	2836.44
383.05	3139.54
383.26	3186.64
383.47	2922.45
383.68	2830.29
383.88	3037.14
384.09	2990.03
384.30	3030.99
384.51	2906.07
384.72	2926.55
384.93	2828.24
385.14	2932.69
385.35	2973.65
385.55	2697.17
385.76	3172.30
385.97	2807.77
386.18	2723.80
386.39	2791.38
386.60	2885.59
386.81	2805.72
387.02	2746.33
387.22	2848.72
387.43	3137.49
387.64	2899.92
387.85	3026.90
388.06	3078.10
388.27	3981.25
388.48	7188.37
388.68	10823.51
388.89	13578.03
389.10	14372.64
389.31	14036.78
389.52	11061.08
389.73	9549.68
389.93	8898.42
390.14	8015.75
390.35	7387.02
390.56	6565.79
390.77	5570.48
390.98	4313.02
391.18	3710.92
391.39	3385.29
391.60	2942.93
391.81	3082.19
392.02	2797.53
392.23	3368.91
392.43	3002.32
392.64	2930.64
392.85	2856.92
393.06	3301.33
393.27	2961.36
393.47	2787.29
393.68	2891.73
393.89	2891.73
394.10	3200.98
394.31	2844.63
394.52	2740.18
394.72	2832.34
394.93	3194.83
395.14	2729.94
395.35	2865.11
395.56	2940.88
395.76	2883.54
395.97	2850.77
396.18	2934.74
396.39	3063.76
396.60	3481.55
396.80	3166.16
397.01	2981.84
397.22	3094.48
397.43	3176.40
397.64	2830.29
397.84	2983.89
398.05	3338.19
398.26	3049.43
398.47	2985.94
398.67	3012.56
398.88	3022.80
399.09	3114.96
399.30	2828.24
399.51	2877.40
399.71	2953.17
399.92	2926.55
400.13	2918.36
400.34	2787.29
400.54	3024.85
400.75	3301.33
400.96	3004.37
401.17	3172.30
401.37	3049.43
401.58	2920.40
401.79	2766.81
402.00	2975.70
402.21	3442.64
402.41	3098.58
402.62	3035.09
402.83	3266.51
403.04	3323.85
403.24	3686.34
403.45	2914.26
403.66	3112.91
403.87	3123.15
404.07	3223.50
404.28	3047.38
404.49	3084.24
404.70	3121.10
404.90	3145.68
405.11	2832.34
405.32	2955.22
405.52	2852.82
405.73	2904.02
405.94	2764.76
406.15	2910.16
406.35	3102.67
406.56	3076.05
406.77	2885.59
406.98	2850.77
407.18	2932.69
407.39	3264.46
407.60	2867.16
407.80	2904.02
408.01	2889.68
408.22	3041.23
408.43	2686.94
408.63	2924.50
408.84	3188.69
409.05	3160.02
409.25	2748.37
409.46	2799.57
409.67	2910.16
409.88	2875.35
410.08	2867.16
410.29	2738.13
410.50	3131.34
410.70	3133.39
410.91	2740.18
411.12	2899.92
411.32	2983.89
411.53	2850.77
411.74	2828.24
411.95	2979.79
412.15	2908.12
412.36	3000.27
412.57	2985.94
412.77	2979.79
412.98	2928.60
413.19	2934.74
413.39	2889.68
413.60	2828.24
413.81	3229.65
414.01	2787.29
414.22	2832.34
414.43	3145.68
414.63	2955.22
414.84	3186.64
415.05	2815.96
415.25	2680.79
415.46	3057.62
415.67	2920.40
415.87	2813.91
416.08	2856.92
416.29	2873.30
416.49	3117.01
416.70	2846.68
416.91	2852.82
417.11	2936.79
417.32	3155.92
417.53	2961.36
417.73	2922.45
417.94	3014.61
418.15	3104.72
418.35	2936.79
418.56	2854.87
418.77	3467.21
418.97	3051.47
419.18	2918.36
419.38	2514.91
419.59	2947.03
419.80	3217.36
420.00	2861.01
420.21	2811.86
420.42	3149.78
420.62	3043.28
420.83	2824.15
421.04	2869.20
421.24	2944.98
421.45	3170.26
421.65	2801.62
421.86	2793.43
422.07	3133.39
422.27	3069.91
422.48	2779.09
422.69	2713.56
422.89	3074.00
423.10	2936.79
423.30	2740.18
423.51	2934.74
423.72	3106.77
423.92	3061.71
424.13	2729.94
424.33	2901.97
424.54	3141.58
424.75	3002.32
424.95	3117.01
425.16	2752.47
425.36	2996.18
425.57	3203.02
425.78	3012.56
425.98	2951.12
426.19	2979.79
426.39	2832.34
426.60	2901.97
426.81	3010.51
427.01	3041.23
427.22	2869.20
427.42	2627.54
427.63	2729.94
427.83	3080.14
428.04	3221.45
428.25	2955.22
428.45	2979.79
428.66	3182.54
428.86	3016.66
429.07	2881.49
429.28	2918.36
429.48	3045.33
429.69	2854.87
429.89	2885.59
430.10	2756.57
430.30	3139.54
430.51	3133.39
430.71	2832.34
430.92	2883.54
431.13	2904.02
431.33	3098.58
431.54	2955.22
431.74	3071.95
431.95	3364.81
432.15	2793.43
432.36	2854.87
432.56	2887.64
432.77	3286.99
432.98	3248.08
433.18	2879.44
433.39	2738.13
433.59	2971.60
433.80	3420.11
434.00	3078.10
434.21	2846.68
434.41	2775.00
434.62	3467.21
434.82	2699.22
435.03	2637.78
435.23	3045.33
435.44	2746.33
435.64	2811.86
435.85	2865.11
436.06	3092.43
436.26	3153.87
436.47	2844.63
436.67	2787.29
436.88	2914.26
437.08	3098.58
437.29	2932.69
437.49	2897.88
437.70	3235.79
437.90	2973.65
438.11	3065.81
438.31	2926.55
438.52	3276.75
438.72	3141.58
438.93	3121.10
439.13	2901.97
439.34	3272.65
439.54	2920.40
439.75	2975.70
439.95	2904.02
440.16	2791.38
440.36	3028.95
440.57	2901.97
440.77	2852.82
440.98	2959.31
441.18	3049.43
441.39	2850.77
441.59	2721.75
441.80	3413.96
442.00	2951.12
442.21	2955.22
442.41	2650.07
442.62	3170.26
442.82	2942.93
443.02	2895.83
443.23	2910.16
443.43	2912.21
443.64	3147.73
443.84	2760.66
444.05	2912.21
444.25	3084.24
444.46	2922.45
444.66	2815.96
444.87	3055.57
445.07	2719.70
445.28	3008.47
445.48	3086.29
445.69	2904.02
445.89	3403.72
446.09	2916.31
446.30	3164.11
446.50	3319.76
446.71	4648.89
446.91	5795.75
447.12	6588.32
447.32	6905.75
447.53	6891.41
447.73	5660.59
447.93	4999.09
448.14	4794.29
448.34	4775.86
448.55	3936.20
448.75	4034.50
448.96	3702.73
449.16	3698.63
449.36	3547.08
449.57	3102.67
449.77	2877.40
449.98	2971.60
450.18	3010.51
450.39	2770.90
450.59	3026.90
450.79	3074.00
451.00	2795.48
451.20	3024.85
451.41	2781.14
451.61	3016.66
451.81	2940.88
452.02	2848.72
452.22	2842.58
452.43	2824.15
452.63	2836.44
