SpectraSuite Data File
++++++++++++++++++++++++++++++++++++
Date: Thu May 05 21:10:56 CEST 2016
User: root
Dark Spectrum Present: No
Reference Spectrum Present: No
Number of Sampled Component Spectra: 1
Spectrometers: USB4C02835
Integration Time (usec): 100000 (USB4C02835)
Spectra Averaged: 1 (USB4C02835)
Boxcar Smoothing: 0 (USB4C02835)
Correct for Electrical Dark: No (USB4C02835)
Strobe/Lamp Enabled: No (USB4C02835)
Correct for Detector Non-linearity: No (USB4C02835)
Correct for Stray Light: No (USB4C02835)
Number of Pixels in Processed Spectrum: 3648
>>>>>Begin Processed Spectral Data<<<<<
177.47	2107.36
177.69	2107.36
177.91	2107.36
178.13	2142.18
178.36	2197.47
178.58	2789.33
178.80	2856.92
179.02	2734.04
179.24	2832.34
179.46	2596.82
179.68	2619.35
179.90	2922.45
180.13	3012.56
180.35	2611.16
180.57	2625.50
180.79	3114.96
181.01	2940.88
181.23	2701.27
181.45	2799.57
181.67	3090.38
181.90	3100.62
182.12	2697.17
182.34	2574.30
182.56	3106.77
182.78	3104.72
183.00	2637.78
183.22	2668.50
183.44	2613.21
183.66	3499.98
183.89	2801.62
184.11	2688.98
184.33	3033.04
184.55	3276.75
184.77	2668.50
184.99	2740.18
185.21	2977.75
185.43	3418.06
185.65	2699.22
185.87	2590.68
186.10	3450.83
186.32	3385.29
186.54	2885.59
186.76	2830.29
186.98	3178.45
187.20	2881.49
187.42	2736.09
187.64	2656.22
187.86	2961.36
188.08	3129.30
188.30	2688.98
188.52	2775.00
188.75	3229.65
188.97	3303.37
189.19	2684.89
189.41	2709.46
189.63	3063.76
189.85	2916.31
190.07	2613.21
190.29	2547.67
190.51	3071.95
190.73	2686.94
190.95	2879.44
191.17	2766.81
191.39	2705.37
191.61	3018.71
191.84	2660.31
192.06	2834.39
192.28	2727.89
192.50	3452.88
192.72	2795.48
192.94	2721.75
193.16	3297.23
193.38	2994.13
193.60	2613.21
193.82	2783.19
194.04	3117.01
194.26	3024.85
194.48	2648.02
194.70	2717.65
194.92	2940.88
195.14	3119.06
195.36	2660.31
195.58	2738.13
195.80	2979.79
196.02	2844.63
196.24	2615.26
196.46	2832.34
196.69	2861.01
196.91	3409.87
197.13	2711.51
197.35	2641.88
197.57	3211.22
197.79	3071.95
198.01	2684.89
198.23	2680.79
198.45	3080.14
198.67	2734.04
198.89	2572.25
199.11	2758.61
199.33	2846.68
199.55	2666.46
199.77	2617.30
199.99	2762.71
200.21	2879.44
200.43	3067.86
200.65	2590.68
200.87	2510.81
201.09	2877.40
201.31	2940.88
201.53	2703.32
201.75	2705.37
201.97	2947.03
202.19	2957.27
202.41	2807.77
202.63	2777.05
202.85	3043.28
203.07	3012.56
203.29	2703.32
203.51	2570.20
203.73	2877.40
203.95	3516.36
204.17	2641.88
204.39	2824.15
204.61	2934.74
204.83	2932.69
205.05	2875.35
205.27	2676.70
205.49	3338.19
205.71	2926.55
205.93	2615.26
206.15	2586.58
206.37	3018.71
206.59	2992.08
206.81	2590.68
207.03	2566.10
207.25	2836.44
207.47	3088.34
207.69	2613.21
207.91	2893.78
208.13	3237.84
208.34	2922.45
208.56	2578.39
208.78	2670.55
209.00	2897.88
209.22	2936.79
209.44	2643.93
209.66	2738.13
209.88	2918.36
210.10	2891.73
210.32	2662.36
210.54	2787.29
210.76	2951.12
210.98	3106.77
211.20	2551.77
211.42	2742.23
211.64	3215.31
211.86	3026.90
212.08	2777.05
212.30	2688.98
212.52	2957.27
212.74	3053.52
212.96	2809.81
213.17	2824.15
213.39	3198.93
213.61	3338.19
213.83	2576.34
214.05	2598.87
214.27	3213.26
214.49	2803.67
214.71	2635.74
214.93	2772.95
215.15	3076.05
215.37	3162.06
215.59	2607.06
215.81	2805.72
216.03	3182.54
216.24	3010.51
216.46	2762.71
216.68	2723.80
216.90	3123.15
217.12	3157.97
217.34	2652.12
217.56	2842.58
217.78	3246.03
218.00	3063.76
218.22	2801.62
218.44	2731.99
218.66	2899.92
218.87	3499.98
219.09	2688.98
219.31	2699.22
219.53	3008.47
219.75	2889.68
219.97	2711.51
220.19	2791.38
220.41	2971.60
220.63	3233.74
220.85	2697.17
221.06	2742.23
221.28	3237.84
221.50	3219.41
221.72	2723.80
221.94	2688.98
222.16	3024.85
222.38	3063.76
222.60	2672.60
222.82	2746.33
223.03	3139.54
223.25	2815.96
223.47	2668.50
223.69	2885.59
223.91	3125.20
224.13	3098.58
224.35	2613.21
224.57	2869.20
224.78	3057.62
225.00	2766.81
225.22	2793.43
225.44	2664.41
225.66	3129.30
225.88	2899.92
226.10	2768.85
226.32	2654.17
226.53	3209.17
226.75	2967.51
226.97	2791.38
227.19	2772.95
227.41	2889.68
227.63	2959.31
227.85	2541.53
228.06	2725.85
228.28	2990.03
228.50	3143.63
228.72	2543.58
228.94	2693.08
229.16	2691.03
229.37	2832.34
229.59	2611.16
229.81	2957.27
230.03	2932.69
230.25	2834.39
230.47	2519.00
230.69	2664.41
230.90	3274.70
231.12	2861.01
231.34	2785.24
231.56	2801.62
231.78	2818.00
232.00	3033.04
232.21	2768.85
232.43	2691.03
232.65	2619.35
232.87	3016.66
233.09	2586.58
233.30	2609.11
233.52	3194.83
233.74	2961.36
233.96	2615.26
234.18	2795.48
234.40	2994.13
234.61	3459.02
234.83	2578.39
235.05	2676.70
235.27	3383.24
235.49	3317.71
235.70	2572.25
235.92	2791.38
236.14	3020.75
236.36	3401.68
236.58	2588.63
236.79	2715.61
237.01	3004.37
237.23	3080.14
237.45	2955.22
237.67	2672.60
237.88	3078.10
238.10	3286.99
238.32	2680.79
238.54	2693.08
238.76	3010.51
238.97	2828.24
239.19	2596.82
239.41	2717.65
239.63	3137.49
239.85	2932.69
240.06	2680.79
240.28	2645.98
240.50	3129.30
240.72	2967.51
240.93	2602.97
241.15	2713.56
241.37	3039.19
241.59	3239.89
241.81	2734.04
242.02	2758.61
242.24	3010.51
242.46	3127.25
242.68	2549.72
242.89	2613.21
243.11	3166.16
243.33	2893.78
243.55	2711.51
243.76	2691.03
243.98	2770.90
244.20	3039.19
244.42	2678.74
244.64	2654.17
244.85	2752.47
245.07	2869.20
245.29	2684.89
245.51	2670.55
245.72	3104.72
245.94	3246.03
246.16	2666.46
246.38	2736.09
246.59	2910.16
246.81	2897.88
247.03	2619.35
247.24	2508.76
247.46	2889.68
247.68	3059.67
247.90	2619.35
248.11	2672.60
248.33	3209.17
248.55	2985.94
248.77	2711.51
248.98	2787.29
249.20	3254.22
249.42	3065.81
249.64	2666.46
249.85	2586.58
250.07	2863.06
250.29	3143.63
250.50	2764.76
250.72	2633.69
250.94	2994.13
251.16	3370.96
251.37	2701.27
251.59	2768.85
251.81	3121.10
252.02	3217.36
252.24	2576.34
252.46	2836.44
252.68	2875.35
252.89	2789.33
253.11	2506.71
253.33	2799.57
253.54	3274.70
253.76	2830.29
253.98	2744.28
254.20	2715.61
254.41	2787.29
254.63	2922.45
254.85	2533.34
255.06	2740.18
255.28	3088.34
255.50	2951.12
255.71	2686.94
255.93	2475.99
256.15	3008.47
256.36	3078.10
256.58	2607.06
256.80	2666.46
257.02	2951.12
257.23	2981.84
257.45	2660.31
257.67	2734.04
257.88	2942.93
258.10	3090.38
258.32	2668.50
258.53	2797.53
258.75	3274.70
258.97	2863.06
259.18	2545.63
259.40	2660.31
259.62	3356.62
259.83	3145.68
260.05	2682.84
260.27	3489.74
260.48	3139.54
260.70	2815.96
260.92	2590.68
261.13	2680.79
261.35	2979.79
261.57	3121.10
261.78	2629.59
262.00	2586.58
262.22	3080.14
262.43	2836.44
262.65	2711.51
262.86	2707.41
263.08	3442.64
263.30	3000.27
263.51	2521.05
263.73	2664.41
263.95	3260.37
264.16	2869.20
264.38	2566.10
264.60	2717.65
264.81	2969.55
265.03	3164.11
265.25	2998.23
265.46	2648.02
265.68	3149.78
265.89	3102.67
266.11	2510.81
266.33	2623.45
266.54	3170.26
266.76	3082.19
266.98	2852.82
267.19	2889.68
267.41	3203.02
267.62	2951.12
267.84	2578.39
268.06	2779.09
268.27	3035.09
268.49	3262.41
268.70	2668.50
268.92	2688.98
269.14	2875.35
269.35	2832.34
269.57	2807.77
269.79	2758.61
270.00	2826.20
270.22	3250.13
270.43	2588.63
270.65	2512.86
270.87	3100.62
271.08	3051.47
271.30	2783.19
271.51	2762.71
271.73	3170.26
271.95	3254.22
272.16	2670.55
272.38	2723.80
272.59	2938.84
272.81	3063.76
273.02	2643.93
273.24	2729.94
273.46	3250.13
273.67	2754.52
273.89	2635.74
274.10	2711.51
274.32	3190.74
274.54	2983.89
274.75	2822.10
274.97	2684.89
275.18	3094.48
275.40	3063.76
275.61	2725.85
275.83	2787.29
276.05	2826.20
276.26	2932.69
276.48	2742.23
276.69	2828.24
276.91	2916.31
277.12	3241.93
277.34	2820.05
277.55	2899.92
277.77	3002.32
277.99	2957.27
278.20	2795.48
278.42	2715.61
278.63	2885.59
278.85	2822.10
279.06	2797.53
279.28	2916.31
279.49	3256.27
279.71	3110.86
279.93	2879.44
280.14	2844.63
280.36	2908.12
280.57	3088.34
280.79	2840.53
281.00	2713.56
281.22	2926.55
281.43	3200.98
281.65	2566.10
281.86	2729.94
282.08	3024.85
282.29	3303.37
282.51	2744.28
282.73	2748.37
282.94	2766.81
283.16	3133.39
283.37	2961.36
283.59	2768.85
283.80	3039.19
284.02	3098.58
284.23	2901.97
284.45	2822.10
284.66	2867.16
284.88	2852.82
285.09	2731.99
285.31	2842.58
285.52	2996.18
285.74	2662.36
285.95	3047.38
286.17	2791.38
286.38	3170.26
286.60	2856.92
286.81	2750.42
287.03	2748.37
287.24	3010.51
287.46	3012.56
287.67	2867.16
287.89	3043.28
288.10	2985.94
288.32	2951.12
288.53	2985.94
288.75	2908.12
288.96	3006.42
289.18	2957.27
289.39	2738.13
289.61	2871.25
289.82	3393.48
290.04	3340.24
290.25	2693.08
290.47	2891.73
290.68	2953.17
290.90	3207.12
291.11	2619.35
291.33	2969.55
291.54	2861.01
291.76	2889.68
291.97	2828.24
292.18	2813.91
292.40	2824.15
292.61	2926.55
292.83	3155.92
293.04	2861.01
293.26	3020.75
293.47	2940.88
293.69	2645.98
293.90	2721.75
294.12	3112.91
294.33	3004.37
294.55	2832.34
294.76	2883.54
294.97	3178.45
295.19	3467.21
295.40	2824.15
295.62	2910.16
295.83	3133.39
296.05	2815.96
296.26	2977.75
296.48	2856.92
296.69	3012.56
296.90	2981.84
297.12	2932.69
297.33	2891.73
297.55	2987.99
297.76	3051.47
297.98	2883.54
298.19	2928.60
298.41	2910.16
298.62	2852.82
298.83	2944.98
299.05	2912.21
299.26	2930.64
299.48	2844.63
299.69	2891.73
299.90	2772.95
300.12	2881.49
300.33	3084.24
300.55	2916.31
300.76	2879.44
300.98	2822.10
301.19	3057.62
301.40	2869.20
301.62	2740.18
301.83	3049.43
302.05	2975.70
302.26	2813.91
302.47	2893.78
302.69	2805.72
302.90	2965.46
303.12	2580.44
303.33	2879.44
303.54	3231.69
303.76	2922.45
303.97	2822.10
304.19	2996.18
304.40	2842.58
304.61	3100.62
304.83	2932.69
305.04	2879.44
305.26	3129.30
305.47	2877.40
305.68	2865.11
305.90	2725.85
306.11	3200.98
306.33	2983.89
306.54	2594.78
306.75	2762.71
306.97	2742.23
307.18	2842.58
307.39	2752.47
307.61	2920.40
307.82	2895.83
308.04	3090.38
308.25	2688.98
308.46	2918.36
308.68	2955.22
308.89	2981.84
309.10	2934.74
309.32	2861.01
309.53	3059.67
309.74	3090.38
309.96	2709.46
310.17	2910.16
310.39	2899.92
310.60	3094.48
310.81	2848.72
311.03	2758.61
311.24	3114.96
311.45	2942.93
311.67	3043.28
311.88	2940.88
312.09	2885.59
312.31	2858.96
312.52	2791.38
312.73	2779.09
312.95	2775.00
313.16	2818.00
313.37	2897.88
313.59	3008.47
313.80	3141.58
314.01	3284.94
314.23	2856.92
314.44	2748.37
314.65	2742.23
314.87	2832.34
315.08	2760.66
315.29	2693.08
315.51	2820.05
315.72	2748.37
315.93	2875.35
316.15	2879.44
316.36	2861.01
316.57	3012.56
316.79	2797.53
317.00	2744.28
317.21	3147.73
317.43	2840.53
317.64	2889.68
317.85	2705.37
318.07	2858.96
318.28	2885.59
318.49	2828.24
318.70	3020.75
318.92	2957.27
319.13	3035.09
319.34	3012.56
319.56	2826.20
319.77	3102.67
319.98	3071.95
320.20	2938.84
320.41	2867.16
320.62	3114.96
320.83	2807.77
321.05	3033.04
321.26	2834.39
321.47	2996.18
321.69	3155.92
321.90	2738.13
322.11	2783.19
322.32	3041.23
322.54	3237.84
322.75	2805.72
322.96	3575.75
323.18	2742.23
323.39	2686.94
323.60	2660.31
323.81	2934.74
324.03	2871.25
324.24	3041.23
324.45	2918.36
324.66	2754.52
324.88	3194.83
325.09	3182.54
325.30	2785.24
325.52	2740.18
325.73	3078.10
325.94	2906.07
326.15	2695.13
326.37	2654.17
326.58	3112.91
326.79	3266.51
327.00	2828.24
327.22	2805.72
327.43	2930.64
327.64	2768.85
327.85	2932.69
328.07	2799.57
328.28	3391.44
328.49	2930.64
328.70	2854.87
328.92	2818.00
329.13	2949.08
329.34	3074.00
329.55	3037.14
329.76	2942.93
329.98	2873.30
330.19	3205.07
330.40	2830.29
330.61	2854.87
330.83	3141.58
331.04	2818.00
331.25	2856.92
331.46	2738.13
331.68	2709.46
331.89	3160.02
332.10	2842.58
332.31	2641.88
332.52	2953.17
332.74	3117.01
332.95	2611.16
333.16	2752.47
333.37	3119.06
333.58	2762.71
333.80	2738.13
334.01	2592.73
334.22	2883.54
334.43	2985.94
334.64	2873.30
334.86	2729.94
335.07	2754.52
335.28	3174.35
335.49	2754.52
335.70	2813.91
335.92	3272.65
336.13	3413.96
336.34	2885.59
336.55	2805.72
336.76	3024.85
336.98	2721.75
337.19	2785.24
337.40	2889.68
337.61	3504.07
337.82	2813.91
338.04	2877.40
338.25	2631.64
338.46	2985.94
338.67	2965.46
338.88	2758.61
339.09	2598.87
339.31	2856.92
339.52	2777.05
339.73	2748.37
339.94	2838.48
340.15	3125.20
340.36	2836.44
340.58	2840.53
340.79	2742.23
341.00	3061.71
341.21	2775.00
341.42	3092.43
341.63	2742.23
341.85	3104.72
342.06	3041.23
342.27	2752.47
342.48	2893.78
342.69	2756.57
342.90	3063.76
343.12	3172.30
343.33	2691.03
343.54	3147.73
343.75	3270.61
343.96	2863.06
344.17	2729.94
344.38	2879.44
344.60	2818.00
344.81	2742.23
345.02	2844.63
345.23	3127.25
345.44	3588.04
345.65	2869.20
345.86	2887.64
346.07	2906.07
346.29	2895.83
346.50	2906.07
346.71	2897.88
346.92	3231.69
347.13	3444.68
347.34	2881.49
347.55	2668.50
347.76	3078.10
347.98	2803.67
348.19	2822.10
348.40	2957.27
348.61	2861.01
348.82	3205.07
349.03	2920.40
349.24	2723.80
349.45	3409.87
349.66	2652.12
349.88	2772.95
350.09	2705.37
350.30	3188.69
350.51	3237.84
350.72	2979.79
350.93	2820.05
351.14	2836.44
351.35	3008.47
351.56	2789.33
351.77	2805.72
351.99	3078.10
352.20	3262.41
352.41	2893.78
352.62	2691.03
352.83	3006.42
353.04	3000.27
353.25	2809.81
353.46	2795.48
353.67	3102.67
353.88	2711.51
354.09	2701.27
354.30	2834.39
354.52	3080.14
354.73	3002.32
354.94	2861.01
355.15	2869.20
355.36	3334.09
355.57	2908.12
355.78	2787.29
355.99	2754.52
356.20	2942.93
356.41	3213.26
356.62	2936.79
356.83	2727.89
357.04	3233.74
357.25	2557.91
357.46	2717.65
357.68	2682.84
357.89	2828.24
358.10	2938.84
358.31	2760.66
358.52	2836.44
358.73	2852.82
358.94	2772.95
359.15	2779.09
359.36	2811.86
359.57	3018.71
359.78	2891.73
359.99	3061.71
360.20	2660.31
360.41	2914.26
360.62	3084.24
360.83	2926.55
361.04	2815.96
361.25	3057.62
361.46	3213.26
361.67	2906.07
361.88	2791.38
362.09	3209.17
362.30	3008.47
362.51	2754.52
362.72	2828.24
362.93	3114.96
363.14	3080.14
363.35	2861.01
363.56	2693.08
363.78	3143.63
363.99	3133.39
364.20	2775.00
364.41	2852.82
364.62	3321.81
364.83	3053.52
365.04	2846.68
365.25	2938.84
365.46	3334.09
365.67	2895.83
365.88	2891.73
366.09	2750.42
366.30	2928.60
366.51	3006.42
366.72	2725.85
366.93	2785.24
367.14	3051.47
367.35	3239.89
367.56	2783.19
367.77	3035.09
367.98	3030.99
368.18	3016.66
368.39	2924.50
368.60	2801.62
368.81	3061.71
369.02	3047.38
369.23	2770.90
369.44	2688.98
369.65	2930.64
369.86	3147.73
370.07	2940.88
370.28	2713.56
370.49	3030.99
370.70	3018.71
370.91	2686.94
371.12	2738.13
371.33	3190.74
371.54	2826.20
371.75	2934.74
371.96	2559.96
372.17	3043.28
372.38	2994.13
372.59	2832.34
372.80	2811.86
373.01	2926.55
373.22	3012.56
373.43	2867.16
373.64	2686.94
373.85	3303.37
374.06	3258.32
374.26	2940.88
374.47	2949.08
374.68	3209.17
374.89	3059.67
375.10	2777.05
375.31	2840.53
375.52	3012.56
375.73	2938.84
375.94	2656.22
376.15	2928.60
376.36	2891.73
376.57	2871.25
376.78	2768.85
376.99	2824.15
377.20	3205.07
377.40	2889.68
377.61	3055.57
377.82	2785.24
378.03	3264.46
378.24	3078.10
378.45	2820.05
378.66	2910.16
378.87	2729.94
379.08	2756.57
379.29	2879.44
379.50	2889.68
379.71	3030.99
379.91	3063.76
380.12	2801.62
380.33	2846.68
380.54	2965.46
380.75	3071.95
380.96	2738.13
381.17	2844.63
381.38	3084.24
381.59	3035.09
381.80	2879.44
382.00	2975.70
382.21	3090.38
382.42	3321.81
382.63	3153.87
382.84	2846.68
383.05	3164.11
383.26	3346.38
383.47	2947.03
383.68	2795.48
383.88	3043.28
384.09	3125.20
384.30	3049.43
384.51	2967.51
384.72	2918.36
384.93	2811.86
385.14	2869.20
385.35	3057.62
385.55	2717.65
385.76	3155.92
385.97	2807.77
386.18	2736.09
386.39	2818.00
386.60	2916.31
386.81	2729.94
387.02	2766.81
387.22	2742.23
387.43	3092.43
387.64	2947.03
387.85	3084.24
388.06	2963.41
388.27	3954.63
388.48	7284.62
388.68	10768.22
388.89	13326.13
389.10	14632.74
389.31	13926.19
389.52	11247.44
389.73	9762.67
389.93	9056.12
390.14	7985.03
390.35	7296.91
390.56	6762.39
390.77	5703.59
390.98	4274.11
391.18	3657.67
391.39	3370.96
391.60	2998.23
391.81	3074.00
392.02	2838.48
392.23	3387.34
392.43	3090.38
392.64	3051.47
392.85	2854.87
393.06	3223.50
393.27	2951.12
393.47	2797.53
393.68	2920.40
393.89	2901.97
394.10	3213.26
394.31	2807.77
394.52	2756.57
394.72	2996.18
394.93	3176.40
395.14	2670.55
395.35	2961.36
395.56	2861.01
395.76	2994.13
395.97	2807.77
396.18	2881.49
396.39	2959.31
396.60	3629.00
396.80	3200.98
397.01	2926.55
397.22	3114.96
397.43	3180.50
397.64	2779.09
397.84	2926.55
398.05	3375.05
398.26	2994.13
398.47	2926.55
398.67	2971.60
398.88	3063.76
399.09	3006.42
399.30	2832.34
399.51	2887.64
399.71	2830.29
399.92	2985.94
400.13	2977.75
400.34	2811.86
400.54	2971.60
400.75	3178.45
400.96	2949.08
401.17	3131.34
401.37	3127.25
401.58	2951.12
401.79	2895.83
402.00	3002.32
402.21	3387.34
402.41	3117.01
402.62	3147.73
402.83	3229.65
403.04	3338.19
403.24	3653.58
403.45	3041.23
403.66	3094.48
403.87	3205.07
404.07	3250.13
404.28	3076.05
404.49	3131.34
404.70	3098.58
404.90	3137.49
405.11	2891.73
405.32	3045.33
405.52	2889.68
405.73	2879.44
405.94	2742.23
406.15	2865.11
406.35	3069.91
406.56	3153.87
406.77	2926.55
406.98	2908.12
407.18	2854.87
407.39	3303.37
407.60	2824.15
407.80	2887.64
408.01	2961.36
408.22	3037.14
408.43	2789.33
408.63	2897.88
408.84	3037.14
409.05	3151.82
409.25	2719.70
409.46	2764.76
409.67	2846.68
409.88	2824.15
410.08	2920.40
410.29	2721.75
410.50	3117.01
410.70	3002.32
410.91	2809.81
411.12	2852.82
411.32	3026.90
411.53	2840.53
411.74	2844.63
411.95	2916.31
412.15	3016.66
412.36	3125.20
412.57	3020.75
412.77	3008.47
412.98	3000.27
413.19	2940.88
413.39	2922.45
413.60	2899.92
413.81	3205.07
414.01	2789.33
414.22	2881.49
414.43	3006.42
414.63	2953.17
414.84	3049.43
415.05	2908.12
415.25	2637.78
415.46	3082.19
415.67	2883.54
415.87	2877.40
416.08	2844.63
416.29	3014.61
416.49	3112.91
416.70	2799.57
416.91	2908.12
417.11	2992.08
417.32	3157.97
417.53	2914.26
417.73	2856.92
417.94	2975.70
418.15	3057.62
418.35	2877.40
418.56	2916.31
418.77	3399.63
418.97	2963.41
419.18	2885.59
419.38	2488.28
419.59	2947.03
419.80	3246.03
420.00	2850.77
420.21	2826.20
420.42	3221.45
420.62	3065.81
420.83	2836.44
421.04	2844.63
421.24	3020.75
421.45	3086.29
421.65	2838.48
421.86	2824.15
422.07	3172.30
422.27	3084.24
422.48	2844.63
422.69	2711.51
422.89	2992.08
423.10	2930.64
423.30	2754.52
423.51	2867.16
423.72	3080.14
423.92	3168.21
424.13	2686.94
424.33	2916.31
424.54	3065.81
424.75	3069.91
424.95	3106.77
425.16	2768.85
425.36	2940.88
425.57	3151.82
425.78	3000.27
425.98	2992.08
426.19	2924.50
426.39	2838.48
426.60	2899.92
426.81	2953.17
427.01	2959.31
427.22	2861.01
427.42	2656.22
427.63	2770.90
427.83	3076.05
428.04	3252.17
428.25	2942.93
428.45	2942.93
428.66	3227.60
428.86	2975.70
429.07	2910.16
429.28	2838.48
429.48	2928.60
429.69	2766.81
429.89	3039.19
430.10	2729.94
430.30	3026.90
430.51	3221.45
430.71	2742.23
430.92	2889.68
431.13	2918.36
431.33	3080.14
431.54	2959.31
431.74	3112.91
431.95	3282.89
432.15	2811.86
432.36	2867.16
432.56	2838.48
432.77	3344.33
432.98	3293.13
433.18	2899.92
433.39	2748.37
433.59	3000.27
433.80	3252.17
434.00	3043.28
434.21	2856.92
434.41	2885.59
434.62	3295.18
434.82	2777.05
435.03	2818.00
435.23	3049.43
435.44	2670.55
435.64	2797.53
435.85	2824.15
436.06	3145.68
436.26	3192.78
436.47	2799.57
436.67	2756.57
436.88	2949.08
437.08	3100.62
437.29	2949.08
437.49	2963.41
437.70	3131.34
437.90	3045.33
438.11	3022.80
438.31	2906.07
438.52	3254.22
438.72	3207.12
438.93	3133.39
439.13	2940.88
439.34	3090.38
439.54	2953.17
439.75	2934.74
439.95	2961.36
440.16	2834.39
440.36	2922.45
440.57	2824.15
440.77	2846.68
440.98	3028.95
441.18	3114.96
441.39	2842.58
441.59	2707.41
441.80	3430.35
442.00	2897.88
442.21	2949.08
442.41	2699.22
442.62	3166.16
442.82	2912.21
443.02	2723.80
443.23	2875.35
443.43	2873.30
443.64	3235.79
443.84	2779.09
444.05	2918.36
444.25	3018.71
444.46	2996.18
444.66	2768.85
444.87	3084.24
445.07	2670.55
445.28	2924.50
445.48	3026.90
445.69	2971.60
445.89	3409.87
446.09	2969.55
446.30	3168.21
446.50	3225.55
446.71	4796.34
446.91	5726.12
447.12	6594.46
447.32	6975.38
447.53	6983.57
447.73	5777.32
447.93	4978.61
448.14	4816.82
448.34	4775.86
448.55	4032.45
448.75	4014.02
448.96	3913.67
449.16	3676.10
449.36	3520.46
449.57	3014.61
449.77	2916.31
449.98	2899.92
450.18	3086.29
450.39	2791.38
450.59	2996.18
450.79	3030.99
451.00	2897.88
451.20	2992.08
451.41	2838.48
451.61	3121.10
451.81	3006.42
452.02	2803.67
452.22	2852.82
452.43	2910.16
452.63	2918.36
