SpectraSuite Data File
++++++++++++++++++++++++++++++++++++
Date: Thu May 05 21:10:50 CEST 2016
User: root
Dark Spectrum Present: No
Reference Spectrum Present: No
Number of Sampled Component Spectra: 1
Spectrometers: USB4C02835
Integration Time (usec): 100000 (USB4C02835)
Spectra Averaged: 1 (USB4C02835)
Boxcar Smoothing: 0 (USB4C02835)
Correct for Electrical Dark: No (USB4C02835)
Strobe/Lamp Enabled: No (USB4C02835)
Correct for Detector Non-linearity: No (USB4C02835)
Correct for Stray Light: No (USB4C02835)
Number of Pixels in Processed Spectrum: 3648
>>>>>Begin Processed Spectral Data<<<<<
177.47	2066.40
177.69	2066.40
177.91	2066.40
178.13	2185.18
178.36	2191.33
178.58	2731.99
178.80	2893.78
179.02	2623.45
179.24	2832.34
179.46	2617.30
179.68	2674.65
179.90	2936.79
180.13	2918.36
180.35	2502.62
180.57	2602.97
180.79	3084.24
181.01	2883.54
181.23	2772.95
181.45	2885.59
181.67	3071.95
181.90	3137.49
182.12	2676.70
182.34	2508.76
182.56	3078.10
182.78	3004.37
183.00	2676.70
183.22	2684.89
183.44	2672.60
183.66	3497.93
183.89	2832.34
184.11	2711.51
184.33	3141.58
184.55	3182.54
184.77	2684.89
184.99	2731.99
185.21	2881.49
185.43	3352.52
185.65	2645.98
185.87	2691.03
186.10	3379.15
186.32	3389.39
186.54	2754.52
186.76	2723.80
186.98	3084.24
187.20	2951.12
187.42	2676.70
187.64	2652.12
187.86	3086.29
188.08	3190.74
188.30	2666.46
188.52	2693.08
188.75	3160.02
188.97	3186.64
189.19	2619.35
189.41	2691.03
189.63	3067.86
189.85	2889.68
190.07	2582.49
190.29	2582.49
190.51	3037.14
190.73	2723.80
190.95	2820.05
191.17	2680.79
191.39	2643.93
191.61	2883.54
191.84	2725.85
192.06	2758.61
192.28	2820.05
192.50	3549.13
192.72	2867.16
192.94	2775.00
193.16	3188.69
193.38	3112.91
193.60	2600.92
193.82	2813.91
194.04	3125.20
194.26	3057.62
194.48	2717.65
194.70	2682.84
194.92	2875.35
195.14	3114.96
195.36	2678.74
195.58	2777.05
195.80	2951.12
196.02	2838.48
196.24	2721.75
196.46	2711.51
196.69	2942.93
196.91	3399.63
197.13	2684.89
197.35	2719.70
197.57	3243.98
197.79	3086.29
198.01	2783.19
198.23	2703.32
198.45	3086.29
198.67	2787.29
198.89	2605.02
199.11	2740.18
199.33	2901.97
199.55	2572.25
199.77	2658.26
199.99	2842.58
200.21	2891.73
200.43	3051.47
200.65	2607.06
200.87	2504.67
201.09	2963.41
201.31	2920.40
201.53	2729.94
201.75	2693.08
201.97	3024.85
202.19	2934.74
202.41	2717.65
202.63	2779.09
202.85	3098.58
203.07	3012.56
203.29	2746.33
203.51	2611.16
203.73	2830.29
203.95	3502.03
204.17	2709.46
204.39	2791.38
204.61	3026.90
204.83	2854.87
205.05	2828.24
205.27	2680.79
205.49	3387.34
205.71	2969.55
205.93	2574.30
206.15	2619.35
206.37	3057.62
206.59	2961.36
206.81	2521.05
207.03	2510.81
207.25	2838.48
207.47	3104.72
207.69	2736.09
207.91	2971.60
208.13	3223.50
208.34	2793.43
208.56	2734.04
208.78	2666.46
209.00	2893.78
209.22	2951.12
209.44	2672.60
209.66	2631.64
209.88	3030.99
210.10	2910.16
210.32	2676.70
210.54	2791.38
210.76	2981.84
210.98	3106.77
211.20	2605.02
211.42	2760.66
211.64	3200.98
211.86	2926.55
212.08	2695.13
212.30	2713.56
212.52	2969.55
212.74	3051.47
212.96	2811.86
213.17	2809.81
213.39	3106.77
213.61	3194.83
213.83	2658.26
214.05	2598.87
214.27	3166.16
214.49	2746.33
214.71	2574.30
214.93	2762.71
215.15	2955.22
215.37	3164.11
215.59	2539.48
215.81	2721.75
216.03	3194.83
216.24	2987.99
216.46	2645.98
216.68	2639.83
216.90	3106.77
217.12	3086.29
217.34	2631.64
217.56	2850.77
217.78	3217.36
218.00	3084.24
218.22	2756.57
218.44	2756.57
218.66	3076.05
218.87	3407.82
219.09	2693.08
219.31	2656.22
219.53	3010.51
219.75	2889.68
219.97	2713.56
220.19	2639.83
220.41	3008.47
220.63	3264.46
220.85	2652.12
221.06	2815.96
221.28	3200.98
221.50	3178.45
221.72	2717.65
221.94	2559.96
222.16	3024.85
222.38	3180.50
222.60	2701.27
222.82	2707.41
223.03	3139.54
223.25	2803.67
223.47	2717.65
223.69	2899.92
223.91	3121.10
224.13	3067.86
224.35	2562.01
224.57	2881.49
224.78	3108.82
225.00	2811.86
225.22	2740.18
225.44	2605.02
225.66	3153.87
225.88	2928.60
226.10	2879.44
226.32	2682.84
226.53	3243.98
226.75	2895.83
226.97	2750.42
227.19	2770.90
227.41	2772.95
227.63	2914.26
227.85	2547.67
228.06	2693.08
228.28	3008.47
228.50	3149.78
228.72	2576.34
228.94	2572.25
229.16	2731.99
229.37	2828.24
229.59	2551.77
229.81	2906.07
230.03	2990.03
230.25	2791.38
230.47	2512.86
230.69	2615.26
230.90	3157.97
231.12	2863.06
231.34	2754.52
231.56	2793.43
231.78	2699.22
232.00	3045.33
232.21	2752.47
232.43	2723.80
232.65	2643.93
232.87	3035.09
233.09	2547.67
233.30	2625.50
233.52	3172.30
233.74	3108.82
233.96	2678.74
234.18	2838.48
234.40	2940.88
234.61	3510.22
234.83	2576.34
235.05	2715.61
235.27	3461.07
235.49	3266.51
235.70	2578.39
235.92	2691.03
236.14	3076.05
236.36	3483.59
236.58	2633.69
236.79	2795.48
237.01	2951.12
237.23	3004.37
237.45	2969.55
237.67	2623.45
237.88	2973.65
238.10	3321.81
238.32	2574.30
238.54	2662.36
238.76	3024.85
238.97	2885.59
239.19	2629.59
239.41	2723.80
239.63	3266.51
239.85	2930.64
240.06	2740.18
240.28	2775.00
240.50	3180.50
240.72	2918.36
240.93	2586.58
241.15	2838.48
241.37	3033.04
241.59	3248.08
241.81	2703.32
242.02	2715.61
242.24	3033.04
242.46	3137.49
242.68	2441.18
242.89	2654.17
243.11	3164.11
243.33	2940.88
243.55	2701.27
243.76	2648.02
243.98	2971.60
244.20	2977.75
244.42	2662.36
244.64	2645.98
244.85	2738.13
245.07	2856.92
245.29	2719.70
245.51	2752.47
245.72	3049.43
245.94	3151.82
246.16	2723.80
246.38	2736.09
246.59	2766.81
246.81	2783.19
247.03	2641.88
247.24	2572.25
247.46	2895.83
247.68	2916.31
247.90	2539.48
248.11	2684.89
248.33	3184.59
248.55	2926.55
248.77	2742.23
248.98	2740.18
249.20	3284.94
249.42	2971.60
249.64	2658.26
249.85	2666.46
250.07	2854.87
250.29	3041.23
250.50	2688.98
250.72	2568.15
250.94	3041.23
251.16	3344.33
251.37	2670.55
251.59	2799.57
251.81	3045.33
252.02	3205.07
252.24	2648.02
252.46	2895.83
252.68	2809.81
252.89	2846.68
253.11	2516.95
253.33	2770.90
253.54	3186.64
253.76	2770.90
253.98	2676.70
254.20	2656.22
254.41	2717.65
254.63	2934.74
254.85	2605.02
255.06	2693.08
255.28	3080.14
255.50	2908.12
255.71	2627.54
255.93	2596.82
256.15	2877.40
256.36	3092.43
256.58	2621.40
256.80	2627.54
257.02	2985.94
257.23	2881.49
257.45	2754.52
257.67	2824.15
257.88	2885.59
258.10	3014.61
258.32	2678.74
258.53	2752.47
258.75	3268.56
258.97	2914.26
259.18	2617.30
259.40	2621.40
259.62	3373.00
259.83	3186.64
260.05	2750.42
260.27	3446.73
260.48	3188.69
260.70	2789.33
260.92	2590.68
261.13	2770.90
261.35	2998.23
261.57	3059.67
261.78	2549.72
262.00	2578.39
262.22	3151.82
262.43	2807.77
262.65	2731.99
262.86	2736.09
263.08	3454.92
263.30	3041.23
263.51	2562.01
263.73	2688.98
263.95	3305.42
264.16	2842.58
264.38	2623.45
264.60	2648.02
264.81	2953.17
265.03	3180.50
265.25	2998.23
265.46	2623.45
265.68	3223.50
265.89	3049.43
266.11	2582.49
266.33	2670.55
266.54	3264.46
266.76	3076.05
266.98	2791.38
267.19	2869.20
267.41	3178.45
267.62	2918.36
267.84	2502.62
268.06	2779.09
268.27	3004.37
268.49	3186.64
268.70	2668.50
268.92	2719.70
269.14	2846.68
269.35	2674.65
269.57	2775.00
269.79	2791.38
270.00	2865.11
270.22	3217.36
270.43	2557.91
270.65	2600.92
270.87	3098.58
271.08	3143.63
271.30	2764.76
271.51	2736.09
271.73	3112.91
271.95	3168.21
272.16	2703.32
272.38	2885.59
272.59	2922.45
272.81	3022.80
273.02	2631.64
273.24	2754.52
273.46	3182.54
273.67	2850.77
273.89	2578.39
274.10	2672.60
274.32	3160.02
274.54	2994.13
274.75	2824.15
274.97	2791.38
275.18	3125.20
275.40	3092.43
275.61	2709.46
275.83	2850.77
276.05	2881.49
276.26	2983.89
276.48	2768.85
276.69	2805.72
276.91	2959.31
277.12	3194.83
277.34	2766.81
277.55	2979.79
277.77	2953.17
277.99	2848.72
278.20	2811.86
278.42	2676.70
278.63	2858.96
278.85	2813.91
279.06	2729.94
279.28	2953.17
279.49	3114.96
279.71	3127.25
279.93	2856.92
280.14	2789.33
280.36	2936.79
280.57	3010.51
280.79	2861.01
281.00	2666.46
281.22	2813.91
281.43	3092.43
281.65	2629.59
281.86	2787.29
282.08	3080.14
282.29	3385.29
282.51	2633.69
282.73	2727.89
282.94	2682.84
283.16	3149.78
283.37	2867.16
283.59	2811.86
283.80	2951.12
284.02	2930.64
284.23	2811.86
284.45	2828.24
284.66	2869.20
284.88	2863.06
285.09	2707.41
285.31	2881.49
285.52	3055.57
285.74	2746.33
285.95	2979.79
286.17	2904.02
286.38	3270.61
286.60	2957.27
286.81	2697.17
287.03	2779.09
287.24	3008.47
287.46	3063.76
287.67	2934.74
287.89	3008.47
288.10	2967.51
288.32	3016.66
288.53	2979.79
288.75	2891.73
288.96	3102.67
289.18	2912.21
289.39	2725.85
289.61	2824.15
289.82	3319.76
290.04	3252.17
290.25	2682.84
290.47	2854.87
290.68	2949.08
290.90	3262.41
291.11	2703.32
291.33	2998.23
291.54	2777.05
291.76	2846.68
291.97	2914.26
292.18	2861.01
292.40	2932.69
292.61	2799.57
292.83	3071.95
293.04	2832.34
293.26	3030.99
293.47	2969.55
293.69	2682.84
293.90	2793.43
294.12	3237.84
294.33	3020.75
294.55	2826.20
294.76	3033.04
294.97	3229.65
295.19	3321.81
295.40	2754.52
295.62	2889.68
295.83	3149.78
296.05	2895.83
296.26	3035.09
296.48	2772.95
296.69	2979.79
296.90	2992.08
297.12	2928.60
297.33	2957.27
297.55	3076.05
297.76	3043.28
297.98	2906.07
298.19	2947.03
298.41	2987.99
298.62	2897.88
298.83	2959.31
299.05	2908.12
299.26	2949.08
299.48	2822.10
299.69	2861.01
299.90	2772.95
300.12	2822.10
300.33	3086.29
300.55	2826.20
300.76	2811.86
300.98	2729.94
301.19	3104.72
301.40	2826.20
301.62	2781.14
301.83	3125.20
302.05	2994.13
302.26	2799.57
302.47	2838.48
302.69	2820.05
302.90	2932.69
303.12	2605.02
303.33	2850.77
303.54	3246.03
303.76	2944.98
303.97	2848.72
304.19	3053.52
304.40	2834.39
304.61	3018.71
304.83	2942.93
305.04	2920.40
305.26	3110.86
305.47	2852.82
305.68	2744.28
305.90	2664.41
306.11	3110.86
306.33	2951.12
306.54	2662.36
306.75	2742.23
306.97	2705.37
307.18	2891.73
307.39	2754.52
307.61	2901.97
307.82	2951.12
308.04	3035.09
308.25	2686.94
308.46	2856.92
308.68	3061.71
308.89	2979.79
309.10	2791.38
309.32	2852.82
309.53	2957.27
309.74	3127.25
309.96	2770.90
310.17	2930.64
310.39	2881.49
310.60	3086.29
310.81	2840.53
311.03	2674.65
311.24	3051.47
311.45	2998.23
311.67	3053.52
311.88	2873.30
312.09	2885.59
312.31	2877.40
312.52	2777.05
312.73	2770.90
312.95	2813.91
313.16	2822.10
313.37	2977.75
313.59	2977.75
313.80	3094.48
314.01	3223.50
314.23	2854.87
314.44	2703.32
314.65	2779.09
314.87	2820.05
315.08	2797.53
315.29	2811.86
315.51	2809.81
315.72	2742.23
315.93	2768.85
316.15	2895.83
316.36	2869.20
316.57	3006.42
316.79	2797.53
317.00	2777.05
317.21	3102.67
317.43	2824.15
317.64	2852.82
317.85	2738.13
318.07	2985.94
318.28	2914.26
318.49	2865.11
318.70	2990.03
318.92	3039.19
319.13	3026.90
319.34	3071.95
319.56	2805.72
319.77	3006.42
319.98	3041.23
320.20	2992.08
320.41	2963.41
320.62	3014.61
320.83	2883.54
321.05	3020.75
321.26	2791.38
321.47	2975.70
321.69	3182.54
321.90	2723.80
322.11	2758.61
322.32	3076.05
322.54	3250.13
322.75	2719.70
322.96	3663.82
323.18	2701.27
323.39	2729.94
323.60	2746.33
323.81	2906.07
324.03	2901.97
324.24	2942.93
324.45	2877.40
324.66	2772.95
324.88	3162.06
325.09	3151.82
325.30	2772.95
325.52	2693.08
325.73	3090.38
325.94	2854.87
326.15	2670.55
326.37	2707.41
326.58	3065.81
326.79	3250.13
327.00	2693.08
327.22	2809.81
327.43	2910.16
327.64	2797.53
327.85	2897.88
328.07	2766.81
328.28	3330.00
328.49	2852.82
328.70	2775.00
328.92	2766.81
329.13	2975.70
329.34	3037.14
329.55	2949.08
329.76	2906.07
329.98	2904.02
330.19	3186.64
330.40	2832.34
330.61	2938.84
330.83	3121.10
331.04	2936.79
331.25	2852.82
331.46	2797.53
331.68	2748.37
331.89	3112.91
332.10	2815.96
332.31	2682.84
332.52	2951.12
332.74	3129.30
332.95	2598.87
333.16	2721.75
333.37	3108.82
333.58	3002.32
333.80	2863.06
334.01	2697.17
334.22	2983.89
334.43	2824.15
334.64	2729.94
334.86	2725.85
335.07	2783.19
335.28	3211.22
335.49	2686.94
335.70	2877.40
335.92	3186.64
336.13	3289.04
336.34	2869.20
336.55	2789.33
336.76	3000.27
336.98	2648.02
337.19	2856.92
337.40	2840.53
337.61	3475.40
337.82	2895.83
338.04	2856.92
338.25	2648.02
338.46	2832.34
338.67	2942.93
338.88	2648.02
339.09	2686.94
339.31	2906.07
339.52	2688.98
339.73	2695.13
339.94	2844.63
340.15	3149.78
340.36	2865.11
340.58	2822.10
340.79	2723.80
341.00	3039.19
341.21	2787.29
341.42	3024.85
341.63	2785.24
341.85	3094.48
342.06	3012.56
342.27	2775.00
342.48	2940.88
342.69	2709.46
342.90	2985.94
343.12	3141.58
343.33	2750.42
343.54	3155.92
343.75	3231.69
343.96	2897.88
344.17	2701.27
344.38	2901.97
344.60	2869.20
344.81	2760.66
345.02	2803.67
345.23	3149.78
345.44	3387.34
345.65	2873.30
345.86	2834.39
346.07	3026.90
346.29	2918.36
346.50	2871.25
346.71	2893.78
346.92	3121.10
347.13	3319.76
347.34	2867.16
347.55	2711.51
347.76	3030.99
347.98	2713.56
348.19	2865.11
348.40	3008.47
348.61	2879.44
348.82	3172.30
349.03	2842.58
349.24	2775.00
349.45	3299.28
349.66	2572.25
349.88	2772.95
350.09	2680.79
350.30	3274.70
350.51	3237.84
350.72	2981.84
350.93	2820.05
351.14	2889.68
351.35	3100.62
351.56	2791.38
351.77	2865.11
351.99	3039.19
352.20	3321.81
352.41	2893.78
352.62	2656.22
352.83	3041.23
353.04	2936.79
353.25	2818.00
353.46	2801.62
353.67	3176.40
353.88	2682.84
354.09	2781.14
354.30	2932.69
354.52	3078.10
354.73	2932.69
354.94	2783.19
355.15	2869.20
355.36	3311.57
355.57	2781.14
355.78	2828.24
355.99	2752.47
356.20	2942.93
356.41	3119.06
356.62	2881.49
356.83	2848.72
357.04	3260.37
357.25	2688.98
357.46	2836.44
357.68	2572.25
357.89	2811.86
358.10	2893.78
358.31	2762.71
358.52	2752.47
358.73	2807.77
358.94	2824.15
359.15	2815.96
359.36	2850.77
359.57	2916.31
359.78	2949.08
359.99	3004.37
360.20	2701.27
360.41	2987.99
360.62	2992.08
360.83	2836.44
361.04	2818.00
361.25	3000.27
361.46	3246.03
361.67	2920.40
361.88	2836.44
362.09	3248.08
362.30	2996.18
362.51	2795.48
362.72	2873.30
362.93	3106.77
363.14	3086.29
363.35	2856.92
363.56	2746.33
363.78	3209.17
363.99	3182.54
364.20	2820.05
364.41	2969.55
364.62	3272.65
364.83	3065.81
365.04	2856.92
365.25	2785.24
365.46	3303.37
365.67	2889.68
365.88	2934.74
366.09	2748.37
366.30	2895.83
366.51	3035.09
366.72	2691.03
366.93	2801.62
367.14	2987.99
367.35	3215.31
367.56	2736.09
367.77	2897.88
367.98	3012.56
368.18	2983.89
368.39	2846.68
368.60	2715.61
368.81	3030.99
369.02	3067.86
369.23	2799.57
369.44	2717.65
369.65	2854.87
369.86	3020.75
370.07	3004.37
370.28	2754.52
370.49	3053.52
370.70	3049.43
370.91	2723.80
371.12	2684.89
371.33	3137.49
371.54	2832.34
371.75	2977.75
371.96	2621.40
372.17	2969.55
372.38	2912.21
372.59	2848.72
372.80	2789.33
373.01	2981.84
373.22	2953.17
373.43	2789.33
373.64	2617.30
373.85	3162.06
374.06	3254.22
374.26	2975.70
374.47	2881.49
374.68	3264.46
374.89	3010.51
375.10	2701.27
375.31	2897.88
375.52	2992.08
375.73	3020.75
375.94	2760.66
376.15	2877.40
376.36	2871.25
376.57	2881.49
376.78	2807.77
376.99	2861.01
377.20	3231.69
377.40	2906.07
377.61	3053.52
377.82	2772.95
378.03	3264.46
378.24	3147.73
378.45	2863.06
378.66	2850.77
378.87	2740.18
379.08	2707.41
379.29	2811.86
379.50	2922.45
379.71	2928.60
379.91	3172.30
380.12	2801.62
380.33	2828.24
380.54	2963.41
380.75	2990.03
380.96	2822.10
381.17	2891.73
381.38	2944.98
381.59	3028.95
381.80	2842.58
382.00	2947.03
382.21	3045.33
382.42	3178.45
382.63	3205.07
382.84	2865.11
383.05	3129.30
383.26	3217.36
383.47	2975.70
383.68	2809.81
383.88	3125.20
384.09	3030.99
384.30	3024.85
384.51	2967.51
384.72	2879.44
384.93	2729.94
385.14	2867.16
385.35	3043.28
385.55	2777.05
385.76	3260.37
385.97	2834.39
386.18	2701.27
386.39	2834.39
386.60	2918.36
386.81	2742.23
387.02	2762.71
387.22	2693.08
387.43	3074.00
387.64	2867.16
387.85	3119.06
388.06	3043.28
388.27	4077.51
388.48	7329.68
388.68	10678.11
388.89	13387.57
389.10	14442.28
389.31	13973.29
389.52	11269.97
389.73	9832.30
389.93	8652.67
390.14	8093.57
390.35	7245.71
390.56	6635.42
390.77	5515.18
390.98	4304.83
391.18	3612.62
391.39	3385.29
391.60	3030.99
391.81	3133.39
392.02	2846.68
392.23	3438.54
392.43	3049.43
392.64	3010.51
392.85	2813.91
393.06	3346.38
393.27	2990.03
393.47	2818.00
393.68	2922.45
393.89	2904.02
394.10	3182.54
394.31	2740.18
394.52	2783.19
394.72	2904.02
394.93	3188.69
395.14	2688.98
395.35	2850.77
395.56	2914.26
395.76	3016.66
395.97	2867.16
396.18	2969.55
396.39	3047.38
396.60	3559.37
396.80	3211.22
397.01	2998.23
397.22	3065.81
397.43	3217.36
397.64	2756.57
397.84	2895.83
398.05	3373.00
398.26	2971.60
398.47	2904.02
398.67	3000.27
398.88	3035.09
399.09	3162.06
399.30	2764.76
399.51	2963.41
399.71	2813.91
399.92	2940.88
400.13	2910.16
400.34	2854.87
400.54	3049.43
400.75	3256.27
400.96	3004.37
401.17	3098.58
401.37	3067.86
401.58	2904.02
401.79	2836.44
402.00	2867.16
402.21	3346.38
402.41	3188.69
402.62	3069.91
402.83	3143.63
403.04	3332.05
403.24	3674.06
403.45	3035.09
403.66	3123.15
403.87	3153.87
404.07	3313.61
404.28	3061.71
404.49	3180.50
404.70	3084.24
404.90	3135.44
405.11	2883.54
405.32	2961.36
405.52	2914.26
405.73	2916.31
405.94	2713.56
406.15	2824.15
406.35	3143.63
406.56	3131.34
406.77	2871.25
406.98	2846.68
407.18	2772.95
407.39	3217.36
407.60	2777.05
407.80	2858.96
408.01	2922.45
408.22	3059.67
408.43	2719.70
408.63	2883.54
408.84	3174.35
409.05	3160.02
409.25	2826.20
409.46	2807.77
409.67	2805.72
409.88	2826.20
410.08	2920.40
410.29	2803.67
410.50	3155.92
410.70	3076.05
410.91	2711.51
411.12	2930.64
411.32	3002.32
411.53	2873.30
411.74	2783.19
411.95	2922.45
412.15	3024.85
412.36	3018.71
412.57	2912.21
412.77	3002.32
412.98	2998.23
413.19	2914.26
413.39	2867.16
413.60	2877.40
413.81	3217.36
414.01	2826.20
414.22	2895.83
414.43	2953.17
414.63	2977.75
414.84	3203.02
415.05	2856.92
415.25	2758.61
415.46	3078.10
415.67	2854.87
415.87	2881.49
416.08	2850.77
416.29	2981.84
416.49	3022.80
416.70	2885.59
416.91	2791.38
417.11	3006.42
417.32	3106.77
417.53	2983.89
417.73	3014.61
417.94	2969.55
418.15	3102.67
418.35	2910.16
418.56	2895.83
418.77	3420.11
418.97	2981.84
419.18	2910.16
419.38	2617.30
419.59	2893.78
419.80	3243.98
420.00	2727.89
420.21	2863.06
420.42	3241.93
420.62	2992.08
420.83	2813.91
421.04	2873.30
421.24	2963.41
421.45	3176.40
421.65	2826.20
421.86	2795.48
422.07	3108.82
422.27	3086.29
422.48	2787.29
422.69	2756.57
422.89	2990.03
423.10	2906.07
423.30	2717.65
423.51	2867.16
423.72	3024.85
423.92	3106.77
424.13	2766.81
424.33	2926.55
424.54	3047.38
424.75	2992.08
424.95	3074.00
425.16	2834.39
425.36	2949.08
425.57	3080.14
425.78	3000.27
425.98	2987.99
426.19	2979.79
426.39	2869.20
426.60	2844.63
426.81	2938.84
427.01	3057.62
427.22	2852.82
427.42	2701.27
427.63	2725.85
427.83	3108.82
428.04	3297.23
428.25	2928.60
428.45	2944.98
428.66	3192.78
428.86	3006.42
429.07	2861.01
429.28	2883.54
429.48	2957.27
429.69	2863.06
429.89	2932.69
430.10	2752.47
430.30	3153.87
430.51	3137.49
430.71	2750.42
430.92	2828.24
431.13	2875.35
431.33	3088.34
431.54	2861.01
431.74	3076.05
431.95	3401.68
432.15	2897.88
432.36	2836.44
432.56	2897.88
432.77	3268.56
432.98	3385.29
433.18	2906.07
433.39	2846.68
433.59	2934.74
433.80	3282.89
434.00	3002.32
434.21	2914.26
434.41	2975.70
434.62	3411.92
434.82	2783.19
435.03	2723.80
435.23	3020.75
435.44	2766.81
435.64	2834.39
435.85	2865.11
436.06	3078.10
436.26	3133.39
436.47	2858.96
436.67	2799.57
436.88	3022.80
437.08	3108.82
437.29	2967.51
437.49	2967.51
437.70	3141.58
437.90	2994.13
438.11	3069.91
438.31	2869.20
438.52	3266.51
438.72	3092.43
438.93	3162.06
439.13	2934.74
439.34	3196.88
439.54	2879.44
439.75	2893.78
439.95	2869.20
440.16	2830.29
440.36	2908.12
440.57	2805.72
440.77	2873.30
440.98	2977.75
441.18	3024.85
441.39	2789.33
441.59	2738.13
441.80	3289.04
442.00	2969.55
442.21	2957.27
442.41	2697.17
442.62	3147.73
442.82	2836.44
443.02	2834.39
443.23	2844.63
443.43	2877.40
443.64	3231.69
443.84	2715.61
444.05	2920.40
444.25	2959.31
444.46	2940.88
444.66	2885.59
444.87	3026.90
445.07	2809.81
445.28	2949.08
445.48	2987.99
445.69	2846.68
445.89	3426.25
446.09	2990.03
446.30	3121.10
446.50	3215.31
446.71	4616.12
446.91	5767.08
447.12	6518.68
447.32	7065.49
447.53	6940.57
447.73	5783.46
447.93	5091.25
448.14	4759.48
448.34	4818.87
448.55	4112.32
448.75	4050.88
448.96	3805.13
449.16	3588.04
449.36	3581.90
449.57	3114.96
449.77	2996.18
449.98	2963.41
450.18	3119.06
450.39	2791.38
450.59	3002.32
450.79	3043.28
451.00	2877.40
451.20	3000.27
451.41	2795.48
451.61	3059.67
451.81	2928.60
452.02	2811.86
452.22	2953.17
452.43	2848.72
452.63	2846.68
