SpectraSuite Data File
++++++++++++++++++++++++++++++++++++
Date: Thu May 05 21:10:52 CEST 2016
User: root
Dark Spectrum Present: No
Reference Spectrum Present: No
Number of Sampled Component Spectra: 1
Spectrometers: USB4C02835
Integration Time (usec): 100000 (USB4C02835)
Spectra Averaged: 1 (USB4C02835)
Boxcar Smoothing: 0 (USB4C02835)
Correct for Electrical Dark: No (USB4C02835)
Strobe/Lamp Enabled: No (USB4C02835)
Correct for Detector Non-linearity: No (USB4C02835)
Correct for Stray Light: No (USB4C02835)
Number of Pixels in Processed Spectrum: 3648
>>>>>Begin Processed Spectral Data<<<<<
177.47	2123.74
177.69	2123.74
177.91	2123.74
178.13	2154.46
178.36	2209.76
178.58	2838.48
178.80	2973.65
179.02	2682.84
179.24	2783.19
179.46	2607.06
179.68	2621.40
179.90	2918.36
180.13	2887.64
180.35	2478.04
180.57	2590.68
180.79	3166.16
181.01	2942.93
181.23	2721.75
181.45	2799.57
181.67	3207.12
181.90	3114.96
182.12	2734.04
182.34	2557.91
182.56	3090.38
182.78	3037.14
183.00	2709.46
183.22	2643.93
183.44	2654.17
183.66	3475.40
183.89	2791.38
184.11	2699.22
184.33	3090.38
184.55	3155.92
184.77	2631.64
184.99	2688.98
185.21	2897.88
185.43	3422.16
185.65	2662.36
185.87	2654.17
186.10	3399.63
186.32	3319.76
186.54	2785.24
186.76	2801.62
186.98	3172.30
187.20	2951.12
187.42	2625.50
187.64	2654.17
187.86	3028.95
188.08	3209.17
188.30	2553.82
188.52	2713.56
188.75	3266.51
188.97	3137.49
189.19	2652.12
189.41	2648.02
189.63	3063.76
189.85	2901.97
190.07	2504.67
190.29	2553.82
190.51	3053.52
190.73	2766.81
190.95	2852.82
191.17	2740.18
191.39	2766.81
191.61	3020.75
191.84	2717.65
192.06	2754.52
192.28	2777.05
192.50	3547.08
192.72	2801.62
192.94	2811.86
193.16	3188.69
193.38	3100.62
193.60	2611.16
193.82	2764.76
194.04	3207.12
194.26	2975.70
194.48	2674.65
194.70	2693.08
194.92	2910.16
195.14	3207.12
195.36	2709.46
195.58	2734.04
195.80	3108.82
196.02	2897.88
196.24	2574.30
196.46	2766.81
196.69	2858.96
196.91	3493.83
197.13	2750.42
197.35	2717.65
197.57	3248.08
197.79	3024.85
198.01	2815.96
198.23	2631.64
198.45	3080.14
198.67	2736.09
198.89	2533.34
199.11	2762.71
199.33	2803.67
199.55	2652.12
199.77	2598.87
199.99	2803.67
200.21	2785.24
200.43	3055.57
200.65	2559.96
200.87	2547.67
201.09	2957.27
201.31	2858.96
201.53	2766.81
201.75	2713.56
201.97	3063.76
202.19	2992.08
202.41	2783.19
202.63	2758.61
202.85	3129.30
203.07	2987.99
203.29	2750.42
203.51	2549.72
203.73	2863.06
203.95	3405.77
204.17	2629.59
204.39	2754.52
204.61	2965.46
204.83	2914.26
205.05	2840.53
205.27	2713.56
205.49	3387.34
205.71	3006.42
205.93	2588.63
206.15	2441.18
206.37	3039.19
206.59	2953.17
206.81	2529.24
207.03	2619.35
207.25	2809.81
207.47	3082.19
207.69	2686.94
207.91	2916.31
208.13	3340.24
208.34	2848.72
208.56	2676.70
208.78	2641.88
209.00	2949.08
209.22	2869.20
209.44	2670.55
209.66	2625.50
209.88	2955.22
210.10	3057.62
210.32	2625.50
210.54	2731.99
210.76	2846.68
210.98	3160.02
211.20	2588.63
211.42	2764.76
211.64	3219.41
211.86	3100.62
212.08	2760.66
212.30	2707.41
212.52	2901.97
212.74	3035.09
212.96	2766.81
213.17	2795.48
213.39	3100.62
213.61	3268.56
213.83	2697.17
214.05	2531.29
214.27	3108.82
214.49	2781.14
214.71	2670.55
214.93	2746.33
215.15	3030.99
215.37	3188.69
215.59	2545.63
215.81	2748.37
216.03	3162.06
216.24	2928.60
216.46	2621.40
216.68	2650.07
216.90	3045.33
217.12	3180.50
217.34	2635.74
217.56	2867.16
217.78	3207.12
218.00	3039.19
218.22	2736.09
218.44	2680.79
218.66	3033.04
218.87	3362.76
219.09	2699.22
219.31	2641.88
219.53	3041.23
219.75	2920.40
219.97	2797.53
220.19	2772.95
220.41	2912.21
220.63	3190.74
220.85	2740.18
221.06	2674.65
221.28	3143.63
221.50	3243.98
221.72	2680.79
221.94	2648.02
222.16	3049.43
222.38	3188.69
222.60	2656.22
222.82	2619.35
223.03	3223.50
223.25	2697.17
223.47	2678.74
223.69	2928.60
223.91	3164.11
224.13	3049.43
224.35	2578.39
224.57	2830.29
224.78	3127.25
225.00	2828.24
225.22	2760.66
225.44	2688.98
225.66	3157.97
225.88	2861.01
226.10	2820.05
226.32	2701.27
226.53	3278.80
226.75	2944.98
226.97	2764.76
227.19	2693.08
227.41	2824.15
227.63	2899.92
227.85	2494.43
228.06	2740.18
228.28	2996.18
228.50	3186.64
228.72	2473.95
228.94	2705.37
229.16	2664.41
229.37	2711.51
229.59	2607.06
229.81	2844.63
230.03	2840.53
230.25	2852.82
230.47	2570.20
230.69	2658.26
230.90	3123.15
231.12	2863.06
231.34	2809.81
231.56	2777.05
231.78	2772.95
232.00	2971.60
232.21	2754.52
232.43	2754.52
232.65	2621.40
232.87	3092.43
233.09	2566.10
233.30	2645.98
233.52	3188.69
233.74	3026.90
233.96	2584.54
234.18	2906.07
234.40	2938.84
234.61	3352.52
234.83	2553.82
235.05	2731.99
235.27	3407.82
235.49	3254.22
235.70	2555.86
235.92	2727.89
236.14	3035.09
236.36	3399.63
236.58	2598.87
236.79	2781.14
237.01	2934.74
237.23	2975.70
237.45	2957.27
237.67	2750.42
237.88	3049.43
238.10	3344.33
238.32	2566.10
238.54	2605.02
238.76	2975.70
238.97	2793.43
239.19	2545.63
239.41	2729.94
239.63	3157.97
239.85	2897.88
240.06	2693.08
240.28	2650.07
240.50	3166.16
240.72	3076.05
240.93	2602.97
241.15	2781.14
241.37	2975.70
241.59	3239.89
241.81	2682.84
242.02	2760.66
242.24	3090.38
242.46	3157.97
242.68	2611.16
242.89	2672.60
243.11	3114.96
243.33	3004.37
243.55	2772.95
243.76	2740.18
243.98	2805.72
244.20	2942.93
244.42	2666.46
244.64	2666.46
244.85	2711.51
245.07	2791.38
245.29	2803.67
245.51	2672.60
245.72	3084.24
245.94	3141.58
246.16	2711.51
246.38	2830.29
246.59	2818.00
246.81	2873.30
247.03	2631.64
247.24	2557.91
247.46	2942.93
247.68	3002.32
247.90	2594.78
248.11	2707.41
248.33	3145.68
248.55	3000.27
248.77	2680.79
248.98	2746.33
249.20	3227.60
249.42	3006.42
249.64	2662.36
249.85	2635.74
250.07	2879.44
250.29	3194.83
250.50	2820.05
250.72	2639.83
250.94	3039.19
251.16	3364.81
251.37	2670.55
251.59	2768.85
251.81	3057.62
252.02	3262.41
252.24	2602.97
252.46	2799.57
252.68	2869.20
252.89	2789.33
253.11	2455.51
253.33	2701.27
253.54	3235.79
253.76	2762.71
253.98	2641.88
254.20	2736.09
254.41	2848.72
254.63	2942.93
254.85	2582.49
255.06	2756.57
255.28	2967.51
255.50	2897.88
255.71	2602.97
255.93	2582.49
256.15	2938.84
256.36	3071.95
256.58	2596.82
256.80	2650.07
257.02	2918.36
257.23	2918.36
257.45	2701.27
257.67	2783.19
257.88	2787.29
258.10	3076.05
258.32	2670.55
258.53	2684.89
258.75	3262.41
258.97	2885.59
259.18	2598.87
259.40	2631.64
259.62	3258.32
259.83	3260.37
260.05	2746.33
260.27	3549.13
260.48	3178.45
260.70	2934.74
260.92	2648.02
261.13	2738.13
261.35	2973.65
261.57	3014.61
261.78	2623.45
262.00	2582.49
262.22	3055.57
262.43	2783.19
262.65	2678.74
262.86	2662.36
263.08	3432.40
263.30	3024.85
263.51	2568.15
263.73	2734.04
263.95	3237.84
264.16	2883.54
264.38	2611.16
264.60	2607.06
264.81	3002.32
265.03	3235.79
265.25	3049.43
265.46	2631.64
265.68	3104.72
265.89	3102.67
266.11	2500.57
266.33	2709.46
266.54	3168.21
266.76	2973.65
266.98	2787.29
267.19	2811.86
267.41	3155.92
267.62	2944.98
267.84	2559.96
268.06	2795.48
268.27	3035.09
268.49	3180.50
268.70	2691.03
268.92	2674.65
269.14	2729.94
269.35	2791.38
269.57	2807.77
269.79	2742.23
270.00	2840.53
270.22	3311.57
270.43	2578.39
270.65	2506.71
270.87	3076.05
271.08	3162.06
271.30	2801.62
271.51	2609.11
271.73	3055.57
271.95	3227.60
272.16	2666.46
272.38	2877.40
272.59	2942.93
272.81	3026.90
273.02	2668.50
273.24	2746.33
273.46	3219.41
273.67	2746.33
273.89	2586.58
274.10	2670.55
274.32	3143.63
274.54	3053.52
274.75	2740.18
274.97	2727.89
275.18	3155.92
275.40	3078.10
275.61	2701.27
275.83	2871.25
276.05	2742.23
276.26	2973.65
276.48	2838.48
276.69	2815.96
276.91	2869.20
277.12	3190.74
277.34	2895.83
277.55	2924.50
277.77	2992.08
277.99	2869.20
278.20	2793.43
278.42	2693.08
278.63	2869.20
278.85	2811.86
279.06	2729.94
279.28	2828.24
279.49	3110.86
279.71	3166.16
279.93	2777.05
280.14	2838.48
280.36	2867.16
280.57	3160.02
280.79	2944.98
281.00	2768.85
281.22	2850.77
281.43	3190.74
281.65	2547.67
281.86	2775.00
282.08	3084.24
282.29	3278.80
282.51	2699.22
282.73	2643.93
282.94	2756.57
283.16	3039.19
283.37	2922.45
283.59	2813.91
283.80	3061.71
284.02	2930.64
284.23	2850.77
284.45	2844.63
284.66	2852.82
284.88	2863.06
285.09	2764.76
285.31	2836.44
285.52	3110.86
285.74	2723.80
285.95	2979.79
286.17	2785.24
286.38	3121.10
286.60	2969.55
286.81	2795.48
287.03	2746.33
287.24	2973.65
287.46	3086.29
287.67	2873.30
287.89	3047.38
288.10	2959.31
288.32	2971.60
288.53	2904.02
288.75	2824.15
288.96	3135.44
289.18	2873.30
289.39	2729.94
289.61	2856.92
289.82	3297.23
290.04	3229.65
290.25	2676.70
290.47	2822.10
290.68	2852.82
290.90	3133.39
291.11	2623.45
291.33	2936.79
291.54	2815.96
291.76	2846.68
291.97	2922.45
292.18	2822.10
292.40	2895.83
292.61	2840.53
292.83	3020.75
293.04	2772.95
293.26	3022.80
293.47	3000.27
293.69	2707.41
293.90	2721.75
294.12	3219.41
294.33	2977.75
294.55	2883.54
294.76	2990.03
294.97	3205.07
295.19	3416.01
295.40	2777.05
295.62	2799.57
295.83	3137.49
296.05	2899.92
296.26	2918.36
296.48	2785.24
296.69	2965.46
296.90	2897.88
297.12	2879.44
297.33	3004.37
297.55	3041.23
297.76	3076.05
297.98	2885.59
298.19	2922.45
298.41	3039.19
298.62	2799.57
298.83	3090.38
299.05	2885.59
299.26	2899.92
299.48	2801.62
299.69	2904.02
299.90	2758.61
300.12	2822.10
300.33	3110.86
300.55	2883.54
300.76	2854.87
300.98	2752.47
301.19	3074.00
301.40	2789.33
301.62	2795.48
301.83	3125.20
302.05	2955.22
302.26	2748.37
302.47	2785.24
302.69	2801.62
302.90	2944.98
303.12	2572.25
303.33	2889.68
303.54	3364.81
303.76	2875.35
303.97	2797.53
304.19	2987.99
304.40	2822.10
304.61	3008.47
304.83	2869.20
305.04	2840.53
305.26	3090.38
305.47	2904.02
305.68	2809.81
305.90	2697.17
306.11	3137.49
306.33	2947.03
306.54	2590.68
306.75	2734.04
306.97	2744.28
307.18	2781.14
307.39	2865.11
307.61	2926.55
307.82	2983.89
308.04	3035.09
308.25	2709.46
308.46	2981.84
308.68	2934.74
308.89	2965.46
309.10	2869.20
309.32	2856.92
309.53	3024.85
309.74	3100.62
309.96	2789.33
310.17	2969.55
310.39	2906.07
310.60	3082.19
310.81	2813.91
311.03	2715.61
311.24	3061.71
311.45	2983.89
311.67	3084.24
311.88	2873.30
312.09	2848.72
312.31	2861.01
312.52	2725.85
312.73	2742.23
312.95	2785.24
313.16	2731.99
313.37	2979.79
313.59	2969.55
313.80	3209.17
314.01	3258.32
314.23	2881.49
314.44	2770.90
314.65	2811.86
314.87	2813.91
315.08	2787.29
315.29	2789.33
315.51	2787.29
315.72	2756.57
315.93	2893.78
316.15	2822.10
316.36	2942.93
316.57	3000.27
316.79	2799.57
317.00	2764.76
317.21	3106.77
317.43	2852.82
317.64	2875.35
317.85	2705.37
318.07	2768.85
318.28	2951.12
318.49	2891.73
318.70	3061.71
318.92	2992.08
319.13	3002.32
319.34	2938.84
319.56	2709.46
319.77	3067.86
319.98	3061.71
320.20	2987.99
320.41	2856.92
320.62	3000.27
320.83	2738.13
321.05	3033.04
321.26	2818.00
321.47	3045.33
321.69	3176.40
321.90	2686.94
322.11	2742.23
322.32	3000.27
322.54	3250.13
322.75	2768.85
322.96	3495.88
323.18	2639.83
323.39	2727.89
323.60	2668.50
323.81	2848.72
324.03	2818.00
324.24	2906.07
324.45	2885.59
324.66	2750.42
324.88	3166.16
325.09	3225.55
325.30	2715.61
325.52	2736.09
325.73	3043.28
325.94	2777.05
326.15	2668.50
326.37	2656.22
326.58	3123.15
326.79	3233.74
327.00	2709.46
327.22	2783.19
327.43	2969.55
327.64	2781.14
327.85	2881.49
328.07	2809.81
328.28	3297.23
328.49	2879.44
328.70	2854.87
328.92	2801.62
329.13	2936.79
329.34	3086.29
329.55	3045.33
329.76	3016.66
329.98	2928.60
330.19	3205.07
330.40	2865.11
330.61	2916.31
330.83	3143.63
331.04	2920.40
331.25	2813.91
331.46	2854.87
331.68	2777.05
331.89	3215.31
332.10	2815.96
332.31	2701.27
332.52	2992.08
332.74	3160.02
332.95	2664.41
333.16	2723.80
333.37	3131.34
333.58	2838.48
333.80	2856.92
334.01	2621.40
334.22	2871.25
334.43	2887.64
334.64	2758.61
334.86	2637.78
335.07	2885.59
335.28	3311.57
335.49	2779.09
335.70	2850.77
335.92	3227.60
336.13	3475.40
336.34	2908.12
336.55	2846.68
336.76	2957.27
336.98	2639.83
337.19	2731.99
337.40	2861.01
337.61	3416.01
337.82	2897.88
338.04	2840.53
338.25	2666.46
338.46	2932.69
338.67	2920.40
338.88	2731.99
339.09	2734.04
339.31	2873.30
339.52	2772.95
339.73	2697.17
339.94	2871.25
340.15	3151.82
340.36	2932.69
340.58	2861.01
340.79	2709.46
341.00	3149.78
341.21	2828.24
341.42	3024.85
341.63	2815.96
341.85	3080.14
342.06	2906.07
342.27	2744.28
342.48	2887.64
342.69	2828.24
342.90	3049.43
343.12	3198.93
343.33	2766.81
343.54	3182.54
343.75	3205.07
343.96	2834.39
344.17	2813.91
344.38	2953.17
344.60	2785.24
344.81	2848.72
345.02	2756.57
345.23	3211.22
345.44	3446.73
345.65	2828.24
345.86	2838.48
346.07	3108.82
346.29	2865.11
346.50	2908.12
346.71	2867.16
346.92	3174.35
347.13	3344.33
347.34	2852.82
347.55	2637.78
347.76	3076.05
347.98	2682.84
348.19	2832.34
348.40	2928.60
348.61	2963.41
348.82	3235.79
349.03	2861.01
349.24	2758.61
349.45	3403.72
349.66	2625.50
349.88	2748.37
350.09	2670.55
350.30	3127.25
350.51	3139.54
350.72	2918.36
350.93	2797.53
351.14	2955.22
351.35	2961.36
351.56	2869.20
351.77	2865.11
351.99	3080.14
352.20	3256.27
352.41	2959.31
352.62	2688.98
352.83	2971.60
353.04	2987.99
353.25	2865.11
353.46	2832.34
353.67	3168.21
353.88	2721.75
354.09	2748.37
354.30	2877.40
354.52	3022.80
354.73	2934.74
354.94	2766.81
355.15	2803.67
355.36	3254.22
355.57	2942.93
355.78	2793.43
355.99	2772.95
356.20	2932.69
356.41	3157.97
356.62	2895.83
356.83	2822.10
357.04	3278.80
357.25	2750.42
357.46	2758.61
357.68	2656.22
357.89	2764.76
358.10	2983.89
358.31	2725.85
358.52	2846.68
358.73	2746.33
358.94	2850.77
359.15	2775.00
359.36	2836.44
359.57	2967.51
359.78	2963.41
359.99	2969.55
360.20	2697.17
360.41	2973.65
360.62	3033.04
360.83	2881.49
361.04	2820.05
361.25	2961.36
361.46	3297.23
361.67	2926.55
361.88	2811.86
362.09	3157.97
362.30	3096.53
362.51	2789.33
362.72	2807.77
362.93	3168.21
363.14	3037.14
363.35	2961.36
363.56	2701.27
363.78	3225.55
363.99	3094.48
364.20	2758.61
364.41	2879.44
364.62	3233.74
364.83	3086.29
365.04	2824.15
365.25	2803.67
365.46	3305.42
365.67	2756.57
365.88	2912.21
366.09	2787.29
366.30	2875.35
366.51	2992.08
366.72	2682.84
366.93	2746.33
367.14	2947.03
367.35	3299.28
367.56	2772.95
367.77	2885.59
367.98	2852.82
368.18	3041.23
368.39	2897.88
368.60	2719.70
368.81	3059.67
369.02	3045.33
369.23	2809.81
369.44	2594.78
369.65	2961.36
369.86	3098.58
370.07	2881.49
370.28	2721.75
370.49	3022.80
370.70	3057.62
370.91	2783.19
371.12	2670.55
371.33	3219.41
371.54	2887.64
371.75	2973.65
371.96	2551.77
372.17	2947.03
372.38	2883.54
372.59	2920.40
372.80	2828.24
373.01	2918.36
373.22	3004.37
373.43	2766.81
373.64	2734.04
373.85	3235.79
374.06	3307.47
374.26	2975.70
374.47	2877.40
374.68	3211.22
374.89	2944.98
375.10	2797.53
375.31	2856.92
375.52	3037.14
375.73	2953.17
375.94	2617.30
376.15	2953.17
376.36	2840.53
376.57	2891.73
376.78	2809.81
376.99	2897.88
377.20	3188.69
377.40	2951.12
377.61	3098.58
377.82	2789.33
378.03	3274.70
378.24	3125.20
378.45	2879.44
378.66	2906.07
378.87	2684.89
379.08	2670.55
379.29	2807.77
379.50	2912.21
379.71	2992.08
379.91	3182.54
380.12	2805.72
380.33	2865.11
380.54	2940.88
380.75	2973.65
380.96	2750.42
381.17	2881.49
381.38	2926.55
381.59	3094.48
381.80	2811.86
382.00	3035.09
382.21	2961.36
382.42	3282.89
382.63	3182.54
382.84	2901.97
383.05	3102.67
383.26	3215.31
383.47	2963.41
383.68	2736.09
383.88	3059.67
384.09	2983.89
384.30	3039.19
384.51	2942.93
384.72	2889.68
384.93	2686.94
385.14	2781.14
385.35	2994.13
385.55	2695.13
385.76	3184.59
385.97	2893.78
386.18	2738.13
386.39	2779.09
386.60	2887.64
386.81	2873.30
387.02	2746.33
387.22	2787.29
387.43	3157.97
387.64	2940.88
387.85	3057.62
388.06	3026.90
388.27	4089.79
388.48	7270.29
388.68	10784.60
388.89	13383.48
389.10	14489.38
389.31	14053.16
389.52	11159.38
389.73	9711.47
389.93	8873.85
390.14	8079.24
390.35	7247.76
390.56	6846.36
390.77	5511.08
390.98	4399.04
391.18	3647.43
391.39	3473.36
391.60	2973.65
391.81	3037.14
392.02	2758.61
392.23	3420.11
392.43	3014.61
392.64	2926.55
392.85	2869.20
393.06	3270.61
393.27	2996.18
393.47	2869.20
393.68	2865.11
393.89	2887.64
394.10	3162.06
394.31	2834.39
394.52	2781.14
394.72	2856.92
394.93	3196.88
395.14	2727.89
395.35	2953.17
395.56	2908.12
395.76	2973.65
395.97	2811.86
396.18	2930.64
396.39	3002.32
396.60	3581.90
396.80	3160.02
397.01	3090.38
397.22	3041.23
397.43	3227.60
397.64	2764.76
397.84	2904.02
398.05	3393.48
398.26	2967.51
398.47	2922.45
398.67	3006.42
398.88	2965.46
399.09	3135.44
399.30	2824.15
399.51	2910.16
399.71	2824.15
399.92	2947.03
400.13	2987.99
400.34	2813.91
400.54	3059.67
400.75	3162.06
400.96	3008.47
401.17	3127.25
401.37	3102.67
401.58	2992.08
401.79	2852.82
402.00	2844.63
402.21	3461.07
402.41	3092.43
402.62	3065.81
402.83	3229.65
403.04	3471.31
403.24	3606.47
403.45	2824.15
403.66	3125.20
403.87	3162.06
404.07	3225.55
404.28	3088.34
404.49	3055.57
404.70	3069.91
404.90	3117.01
405.11	2766.81
405.32	2973.65
405.52	2963.41
405.73	2985.94
405.94	2758.61
406.15	2875.35
406.35	3153.87
406.56	3121.10
406.77	2920.40
406.98	2826.20
407.18	2897.88
407.39	3213.26
407.60	2834.39
407.80	2889.68
408.01	2863.06
408.22	3041.23
408.43	2770.90
408.63	2996.18
408.84	3127.25
409.05	3067.86
409.25	2766.81
409.46	2789.33
409.67	2906.07
409.88	2891.73
410.08	2842.58
410.29	2893.78
410.50	3180.50
410.70	3135.44
410.91	2723.80
411.12	2916.31
411.32	3006.42
411.53	2840.53
411.74	2883.54
411.95	2951.12
412.15	2963.41
412.36	3102.67
412.57	2969.55
412.77	3057.62
412.98	2881.49
413.19	2936.79
413.39	2916.31
413.60	2887.64
413.81	3213.26
414.01	2861.01
414.22	2861.01
414.43	2990.03
414.63	2928.60
414.84	3153.87
415.05	2840.53
415.25	2637.78
415.46	3076.05
415.67	2801.62
415.87	2836.44
416.08	2818.00
416.29	3028.95
416.49	3067.86
416.70	2809.81
416.91	2867.16
417.11	2906.07
417.32	3123.15
417.53	2920.40
417.73	3016.66
417.94	2994.13
418.15	3166.16
418.35	2942.93
418.56	2869.20
418.77	3430.35
418.97	2994.13
419.18	2893.78
419.38	2564.06
419.59	2961.36
419.80	3291.09
420.00	2770.90
420.21	2912.21
420.42	3178.45
420.62	3018.71
420.83	2772.95
421.04	2861.01
421.24	2901.97
421.45	3117.01
421.65	2873.30
421.86	2801.62
422.07	3174.35
422.27	3059.67
422.48	2754.52
422.69	2734.04
422.89	2959.31
423.10	2920.40
423.30	2750.42
423.51	2959.31
423.72	3057.62
423.92	3147.73
424.13	2750.42
424.33	2916.31
424.54	3110.86
424.75	3012.56
424.95	3084.24
425.16	2828.24
425.36	2990.03
425.57	3145.68
425.78	3022.80
425.98	2987.99
426.19	2949.08
426.39	2856.92
426.60	2869.20
426.81	2932.69
427.01	3078.10
427.22	2883.54
427.42	2678.74
427.63	2779.09
427.83	3162.06
428.04	3198.93
428.25	2893.78
428.45	2940.88
428.66	3200.98
428.86	3008.47
429.07	2897.88
429.28	2930.64
429.48	2994.13
429.69	2848.72
429.89	2875.35
430.10	2723.80
430.30	3131.34
430.51	3151.82
430.71	2799.57
430.92	3000.27
431.13	2885.59
431.33	3004.37
431.54	2975.70
431.74	3014.61
431.95	3389.39
432.15	2768.85
432.36	2840.53
432.56	2861.01
432.77	3342.28
432.98	3256.27
433.18	2912.21
433.39	2752.47
433.59	2979.79
433.80	3346.38
434.00	3041.23
434.21	2949.08
434.41	2828.24
434.62	3405.77
434.82	2791.38
435.03	2750.42
435.23	3088.34
435.44	2750.42
435.64	2838.48
435.85	2897.88
436.06	3119.06
436.26	3256.27
436.47	2820.05
436.67	2820.05
436.88	2910.16
437.08	3164.11
437.29	2949.08
437.49	2965.46
437.70	3108.82
437.90	2975.70
438.11	2949.08
438.31	2922.45
438.52	3264.46
438.72	3155.92
438.93	3180.50
439.13	2924.50
439.34	3141.58
439.54	2934.74
439.75	2949.08
439.95	2881.49
440.16	2901.97
440.36	2912.21
440.57	2803.67
440.77	2865.11
440.98	2969.55
441.18	3119.06
441.39	2775.00
441.59	2713.56
441.80	3409.87
442.00	3035.09
442.21	2922.45
442.41	2674.65
442.62	3248.08
442.82	2879.44
443.02	2793.43
443.23	2910.16
443.43	2961.36
443.64	3213.26
443.84	2729.94
444.05	2985.94
444.25	3028.95
444.46	2992.08
444.66	2828.24
444.87	3047.38
445.07	2797.53
445.28	2920.40
445.48	3059.67
445.69	2910.16
445.89	3411.92
446.09	2854.87
446.30	3164.11
446.50	3215.31
446.71	4745.14
446.91	5881.77
447.12	6547.36
447.32	7079.83
447.53	6797.21
447.73	5658.54
447.93	4972.47
448.14	4736.95
448.34	4886.45
448.55	4106.18
448.75	4052.93
448.96	3790.79
449.16	3747.78
449.36	3495.88
449.57	3084.24
449.77	2987.99
449.98	2957.27
450.18	3051.47
450.39	2887.64
450.59	2983.89
450.79	2901.97
451.00	2861.01
451.20	2957.27
451.41	2889.68
451.61	3049.43
451.81	2926.55
452.02	2799.57
452.22	2787.29
452.43	2856.92
452.63	2887.64
