SpectraSuite Data File
++++++++++++++++++++++++++++++++++++
Date: Thu May 05 21:10:49 CEST 2016
User: root
Dark Spectrum Present: No
Reference Spectrum Present: No
Number of Sampled Component Spectra: 1
Spectrometers: USB4C02835
Integration Time (usec): 100000 (USB4C02835)
Spectra Averaged: 1 (USB4C02835)
Boxcar Smoothing: 0 (USB4C02835)
Correct for Electrical Dark: No (USB4C02835)
Strobe/Lamp Enabled: No (USB4C02835)
Correct for Detector Non-linearity: No (USB4C02835)
Correct for Stray Light: No (USB4C02835)
Number of Pixels in Processed Spectrum: 3648
>>>>>Begin Processed Spectral Data<<<<<
177.47	2148.32
177.69	2148.32
177.91	2148.32
178.13	2095.07
178.36	2187.23
178.58	2795.48
178.80	2920.40
179.02	2725.85
179.24	2832.34
179.46	2676.70
179.68	2686.94
179.90	2979.79
180.13	2936.79
180.35	2590.68
180.57	2596.82
180.79	3106.77
181.01	2959.31
181.23	2680.79
181.45	2818.00
181.67	2979.79
181.90	3213.26
182.12	2725.85
182.34	2609.11
182.56	3084.24
182.78	2944.98
183.00	2654.17
183.22	2770.90
183.44	2727.89
183.66	3534.79
183.89	2846.68
184.11	2639.83
184.33	3096.53
184.55	3141.58
184.77	2691.03
184.99	2676.70
185.21	2883.54
185.43	3469.26
185.65	2703.32
185.87	2639.83
186.10	3422.16
186.32	3368.91
186.54	2748.37
186.76	2772.95
186.98	3176.40
187.20	2938.84
187.42	2729.94
187.64	2688.98
187.86	2990.03
188.08	3153.87
188.30	2596.82
188.52	2746.33
188.75	3149.78
188.97	3262.41
189.19	2656.22
189.41	2639.83
189.63	3225.55
189.85	2858.96
190.07	2547.67
190.29	2514.91
190.51	3088.34
190.73	2731.99
190.95	2777.05
191.17	2770.90
191.39	2705.37
191.61	2951.12
191.84	2715.61
192.06	2760.66
192.28	2639.83
192.50	3481.55
192.72	2813.91
192.94	2738.13
193.16	3172.30
193.38	3065.81
193.60	2609.11
193.82	2772.95
194.04	3168.21
194.26	3028.95
194.48	2697.17
194.70	2734.04
194.92	2895.83
195.14	3100.62
195.36	2652.12
195.58	2744.28
195.80	2967.51
196.02	2840.53
196.24	2656.22
196.46	2764.76
196.69	2934.74
196.91	3399.63
197.13	2779.09
197.35	2748.37
197.57	3182.54
197.79	3041.23
198.01	2781.14
198.23	2791.38
198.45	3084.24
198.67	2803.67
198.89	2535.39
199.11	2766.81
199.33	2811.86
199.55	2582.49
199.77	2703.32
199.99	2901.97
200.21	2879.44
200.43	2992.08
200.65	2545.63
200.87	2576.34
201.09	2998.23
201.31	2883.54
201.53	2719.70
201.75	2734.04
201.97	2979.79
202.19	2928.60
202.41	2766.81
202.63	2797.53
202.85	3135.44
203.07	3043.28
203.29	2717.65
203.51	2594.78
203.73	2844.63
203.95	3520.46
204.17	2666.46
204.39	2746.33
204.61	2955.22
204.83	2942.93
205.05	2830.29
205.27	2762.71
205.49	3411.92
205.71	3016.66
205.93	2586.58
206.15	2596.82
206.37	3063.76
206.59	2990.03
206.81	2535.39
207.03	2537.43
207.25	2820.05
207.47	3080.14
207.69	2662.36
207.91	2930.64
208.13	3303.37
208.34	2953.17
208.56	2623.45
208.78	2731.99
209.00	2944.98
209.22	2901.97
209.44	2719.70
209.66	2600.92
209.88	2981.84
210.10	2893.78
210.32	2740.18
210.54	2756.57
210.76	2906.07
210.98	3174.35
211.20	2555.86
211.42	2832.34
211.64	3233.74
211.86	3076.05
212.08	2809.81
212.30	2705.37
212.52	2916.31
212.74	2996.18
212.96	2754.52
213.17	2688.98
213.39	3147.73
213.61	3270.61
213.83	2658.26
214.05	2492.38
214.27	3198.93
214.49	2850.77
214.71	2670.55
214.93	2768.85
215.15	2990.03
215.37	3176.40
215.59	2557.91
215.81	2762.71
216.03	3172.30
216.24	2961.36
216.46	2709.46
216.68	2703.32
216.90	3205.07
217.12	3194.83
217.34	2680.79
217.56	2838.48
217.78	3243.98
218.00	3074.00
218.22	2736.09
218.44	2807.77
218.66	3108.82
218.87	3383.24
219.09	2670.55
219.31	2637.78
219.53	3006.42
219.75	2848.72
219.97	2699.22
220.19	2768.85
220.41	2977.75
220.63	3235.79
220.85	2703.32
221.06	2684.89
221.28	3209.17
221.50	3143.63
221.72	2645.98
221.94	2539.48
222.16	3033.04
222.38	3059.67
222.60	2588.63
222.82	2713.56
223.03	3182.54
223.25	2828.24
223.47	2596.82
223.69	2871.25
223.91	3057.62
224.13	3033.04
224.35	2582.49
224.57	2863.06
224.78	3084.24
225.00	2785.24
225.22	2750.42
225.44	2553.82
225.66	3139.54
225.88	2852.82
226.10	2738.13
226.32	2695.13
226.53	3219.41
226.75	2967.51
226.97	2766.81
227.19	2631.64
227.41	2852.82
227.63	2832.34
227.85	2459.61
228.06	2746.33
228.28	3045.33
228.50	3117.01
228.72	2580.44
228.94	2656.22
229.16	2641.88
229.37	2840.53
229.59	2609.11
229.81	2844.63
230.03	2926.55
230.25	2731.99
230.47	2617.30
230.69	2639.83
230.90	3155.92
231.12	2811.86
231.34	2836.44
231.56	2795.48
231.78	2795.48
232.00	3043.28
232.21	2672.60
232.43	2721.75
232.65	2596.82
232.87	3076.05
233.09	2543.58
233.30	2645.98
233.52	3184.59
233.74	3041.23
233.96	2682.84
234.18	2807.77
234.40	2944.98
234.61	3389.39
234.83	2648.02
235.05	2680.79
235.27	3434.44
235.49	3184.59
235.70	2635.74
235.92	2738.13
236.14	3151.82
236.36	3395.53
236.58	2533.34
236.79	2805.72
237.01	3014.61
237.23	3033.04
237.45	2873.30
237.67	2680.79
237.88	2965.46
238.10	3321.81
238.32	2596.82
238.54	2652.12
238.76	2934.74
238.97	2922.45
239.19	2627.54
239.41	2688.98
239.63	3139.54
239.85	2922.45
240.06	2721.75
240.28	2670.55
240.50	3211.22
240.72	2975.70
240.93	2615.26
241.15	2801.62
241.37	2922.45
241.59	3237.84
241.81	2611.16
242.02	2754.52
242.24	3051.47
242.46	3100.62
242.68	2559.96
242.89	2643.93
243.11	3160.02
243.33	2998.23
243.55	2676.70
243.76	2715.61
243.98	2885.59
244.20	2971.60
244.42	2672.60
244.64	2672.60
244.85	2789.33
245.07	2863.06
245.29	2703.32
245.51	2650.07
245.72	3084.24
245.94	3168.21
246.16	2713.56
246.38	2750.42
246.59	2955.22
246.81	2899.92
247.03	2557.91
247.24	2465.75
247.46	2897.88
247.68	3020.75
247.90	2701.27
248.11	2719.70
248.33	3157.97
248.55	3055.57
248.77	2779.09
248.98	2797.53
249.20	3299.28
249.42	3024.85
249.64	2734.04
249.85	2682.84
250.07	2877.40
250.29	3086.29
250.50	2775.00
250.72	2598.87
250.94	3018.71
251.16	3297.23
251.37	2680.79
251.59	2775.00
251.81	3078.10
252.02	3237.84
252.24	2543.58
252.46	2779.09
252.68	2885.59
252.89	2891.73
253.11	2471.90
253.33	2813.91
253.54	3215.31
253.76	2793.43
253.98	2676.70
254.20	2600.92
254.41	2779.09
254.63	2981.84
254.85	2527.19
255.06	2830.29
255.28	3047.38
255.50	2947.03
255.71	2656.22
255.93	2533.34
256.15	2910.16
256.36	3123.15
256.58	2621.40
256.80	2645.98
257.02	2994.13
257.23	2850.77
257.45	2772.95
257.67	2815.96
257.88	2899.92
258.10	3033.04
258.32	2670.55
258.53	2799.57
258.75	3227.60
258.97	2922.45
259.18	2648.02
259.40	2660.31
259.62	3221.45
259.83	3213.26
260.05	2764.76
260.27	3571.66
260.48	3119.06
260.70	2727.89
260.92	2592.73
261.13	2709.46
261.35	3026.90
261.57	3071.95
261.78	2602.97
262.00	2643.93
262.22	3133.39
262.43	2879.44
262.65	2756.57
262.86	2717.65
263.08	3432.40
263.30	3026.90
263.51	2533.34
263.73	2674.65
263.95	3162.06
264.16	2811.86
264.38	2674.65
264.60	2619.35
264.81	2953.17
265.03	3141.58
265.25	3110.86
265.46	2658.26
265.68	3246.03
265.89	3119.06
266.11	2584.54
266.33	2654.17
266.54	3182.54
266.76	3131.34
266.98	2762.71
267.19	2818.00
267.41	3235.79
267.62	2912.21
267.84	2490.33
268.06	2781.14
268.27	3080.14
268.49	3188.69
268.70	2750.42
268.92	2648.02
269.14	2777.05
269.35	2764.76
269.57	2830.29
269.79	2775.00
270.00	2928.60
270.22	3323.85
270.43	2590.68
270.65	2535.39
270.87	3106.77
271.08	3137.49
271.30	2764.76
271.51	2639.83
271.73	3192.78
271.95	3274.70
272.16	2600.92
272.38	2783.19
272.59	2914.26
272.81	3084.24
273.02	2643.93
273.24	2738.13
273.46	3231.69
273.67	2824.15
273.89	2586.58
274.10	2658.26
274.32	3221.45
274.54	3000.27
274.75	2846.68
274.97	2844.63
275.18	3143.63
275.40	3139.54
275.61	2770.90
275.83	2893.78
276.05	2815.96
276.26	2889.68
276.48	2695.13
276.69	2867.16
276.91	2846.68
277.12	3131.34
277.34	2865.11
277.55	2858.96
277.77	3006.42
277.99	2895.83
278.20	2725.85
278.42	2686.94
278.63	2871.25
278.85	2818.00
279.06	2762.71
279.28	2865.11
279.49	3110.86
279.71	3074.00
279.93	2822.10
280.14	2762.71
280.36	2895.83
280.57	3096.53
280.79	2875.35
281.00	2691.03
281.22	2924.50
281.43	3162.06
281.65	2627.54
281.86	2758.61
282.08	3049.43
282.29	3332.05
282.51	2705.37
282.73	2705.37
282.94	2693.08
283.16	3084.24
283.37	2895.83
283.59	2834.39
283.80	3114.96
284.02	3020.75
284.23	2832.34
284.45	2850.77
284.66	2770.90
284.88	2885.59
285.09	2826.20
285.31	2895.83
285.52	2955.22
285.74	2709.46
285.95	2926.55
286.17	2799.57
286.38	3196.88
286.60	2918.36
286.81	2775.00
287.03	2775.00
287.24	2949.08
287.46	3119.06
287.67	2936.79
287.89	3020.75
288.10	2949.08
288.32	2942.93
288.53	2910.16
288.75	2893.78
288.96	3004.37
289.18	2887.64
289.39	2637.78
289.61	2824.15
289.82	3375.05
290.04	3227.60
290.25	2688.98
290.47	2865.11
290.68	2985.94
290.90	3252.17
291.11	2584.54
291.33	2887.64
291.54	2879.44
291.76	2867.16
291.97	2910.16
292.18	2889.68
292.40	2871.25
292.61	2830.29
292.83	3074.00
293.04	2750.42
293.26	3074.00
293.47	2969.55
293.69	2770.90
293.90	2719.70
294.12	3217.36
294.33	2965.46
294.55	2777.05
294.76	2920.40
294.97	3254.22
295.19	3334.09
295.40	2818.00
295.62	2854.87
295.83	3196.88
296.05	2875.35
296.26	2926.55
296.48	2779.09
296.69	2895.83
296.90	2965.46
297.12	2981.84
297.33	2955.22
297.55	2873.30
297.76	3076.05
297.98	2873.30
298.19	2875.35
298.41	3045.33
298.62	2709.46
298.83	3006.42
299.05	2912.21
299.26	2912.21
299.48	2807.77
299.69	2901.97
299.90	2834.39
300.12	2836.44
300.33	3074.00
300.55	2854.87
300.76	2889.68
300.98	2850.77
301.19	3057.62
301.40	2791.38
301.62	2760.66
301.83	3051.47
302.05	3008.47
302.26	2744.28
302.47	2901.97
302.69	2834.39
302.90	3018.71
303.12	2639.83
303.33	2944.98
303.54	3319.76
303.76	2951.12
303.97	2742.23
304.19	2975.70
304.40	2840.53
304.61	3012.56
304.83	2953.17
305.04	2959.31
305.26	3080.14
305.47	2818.00
305.68	2779.09
305.90	2648.02
306.11	3203.02
306.33	2996.18
306.54	2697.17
306.75	2746.33
306.97	2682.84
307.18	2818.00
307.39	2791.38
307.61	2889.68
307.82	2908.12
308.04	3030.99
308.25	2738.13
308.46	2928.60
308.68	3000.27
308.89	2881.49
309.10	2938.84
309.32	2824.15
309.53	3006.42
309.74	3145.68
309.96	2725.85
310.17	2889.68
310.39	2918.36
310.60	3100.62
310.81	2777.05
311.03	2717.65
311.24	3141.58
311.45	3043.28
311.67	3037.14
311.88	2887.64
312.09	2979.79
312.31	2869.20
312.52	2875.35
312.73	2762.71
312.95	2721.75
313.16	2834.39
313.37	2922.45
313.59	2926.55
313.80	3149.78
314.01	3248.08
314.23	2818.00
314.44	2742.23
314.65	2695.13
314.87	2840.53
315.08	2764.76
315.29	2813.91
315.51	2785.24
315.72	2820.05
315.93	2947.03
316.15	2779.09
316.36	2871.25
316.57	3018.71
316.79	2760.66
317.00	2674.65
317.21	3037.14
317.43	2799.57
317.64	2918.36
317.85	2684.89
318.07	2981.84
318.28	2901.97
318.49	2893.78
318.70	2977.75
318.92	3147.73
319.13	3043.28
319.34	2985.94
319.56	2807.77
319.77	3045.33
319.98	3067.86
320.20	3006.42
320.41	2922.45
320.62	3037.14
320.83	2805.72
321.05	3057.62
321.26	2832.34
321.47	2969.55
321.69	3164.11
321.90	2715.61
322.11	2777.05
322.32	3108.82
322.54	3235.79
322.75	2832.34
322.96	3545.03
323.18	2709.46
323.39	2648.02
323.60	2656.22
323.81	2897.88
324.03	2879.44
324.24	2936.79
324.45	2901.97
324.66	2701.27
324.88	3241.93
325.09	3125.20
325.30	2840.53
325.52	2729.94
325.73	2975.70
325.94	2748.37
326.15	2643.93
326.37	2637.78
326.58	3170.26
326.79	3293.13
327.00	2695.13
327.22	2836.44
327.43	2871.25
327.64	2795.48
327.85	2850.77
328.07	2869.20
328.28	3323.85
328.49	2881.49
328.70	2856.92
328.92	2764.76
329.13	2979.79
329.34	3041.23
329.55	2998.23
329.76	2940.88
329.98	2887.64
330.19	3262.41
330.40	2822.10
330.61	2842.58
330.83	3149.78
331.04	2779.09
331.25	2863.06
331.46	2873.30
331.68	2768.85
331.89	3260.37
332.10	2928.60
332.31	2711.51
332.52	2979.79
332.74	3141.58
332.95	2686.94
333.16	2803.67
333.37	3098.58
333.58	2889.68
333.80	2820.05
334.01	2541.53
334.22	2998.23
334.43	2867.16
334.64	2721.75
334.86	2693.08
335.07	2772.95
335.28	3301.33
335.49	2764.76
335.70	2861.01
335.92	3282.89
336.13	3448.78
336.34	2879.44
336.55	2818.00
336.76	3026.90
336.98	2699.22
337.19	2805.72
337.40	2920.40
337.61	3395.53
337.82	2842.58
338.04	2881.49
338.25	2637.78
338.46	2951.12
338.67	2985.94
338.88	2736.09
339.09	2713.56
339.31	2869.20
339.52	2852.82
339.73	2705.37
339.94	2863.06
340.15	2996.18
340.36	2861.01
340.58	2914.26
340.79	2703.32
341.00	3086.29
341.21	2777.05
341.42	3084.24
341.63	2758.61
341.85	3129.30
342.06	3059.67
342.27	2754.52
342.48	2955.22
342.69	2789.33
342.90	3063.76
343.12	3135.44
343.33	2717.65
343.54	3119.06
343.75	3278.80
343.96	2883.54
344.17	2748.37
344.38	3004.37
344.60	2813.91
344.81	2750.42
345.02	2809.81
345.23	3078.10
345.44	3403.72
345.65	2877.40
345.86	2928.60
346.07	3135.44
346.29	2906.07
346.50	2881.49
346.71	2877.40
346.92	3157.97
347.13	3360.72
347.34	2811.86
347.55	2748.37
347.76	3037.14
347.98	2668.50
348.19	2789.33
348.40	2883.54
348.61	2877.40
348.82	3209.17
349.03	2879.44
349.24	2736.09
349.45	3325.90
349.66	2625.50
349.88	2736.09
350.09	2740.18
350.30	3254.22
350.51	3141.58
350.72	2926.55
350.93	2787.29
351.14	2897.88
351.35	3112.91
351.56	2846.68
351.77	2785.24
351.99	3014.61
352.20	3307.47
352.41	3002.32
352.62	2656.22
352.83	2947.03
353.04	2981.84
353.25	2811.86
353.46	2844.63
353.67	3215.31
353.88	2617.30
354.09	2797.53
354.30	2824.15
354.52	3098.58
354.73	2963.41
354.94	2768.85
355.15	2793.43
355.36	3368.91
355.57	2912.21
355.78	2709.46
355.99	2791.38
356.20	2985.94
356.41	3246.03
356.62	2828.24
356.83	2832.34
357.04	3237.84
357.25	2664.41
357.46	2799.57
357.68	2691.03
357.89	2754.52
358.10	2965.46
358.31	2805.72
358.52	2797.53
358.73	2852.82
358.94	2746.33
359.15	2797.53
359.36	2818.00
359.57	2949.08
359.78	2951.12
359.99	2992.08
360.20	2777.05
360.41	3008.47
360.62	3106.77
360.83	2824.15
361.04	2809.81
361.25	2998.23
361.46	3272.65
361.67	2883.54
361.88	2844.63
362.09	3200.98
362.30	3026.90
362.51	2701.27
362.72	2858.96
362.93	3112.91
363.14	3022.80
363.35	2844.63
363.56	2717.65
363.78	3133.39
363.99	3106.77
364.20	2746.33
364.41	2924.50
364.62	3325.90
364.83	3020.75
365.04	2818.00
365.25	2779.09
365.46	3280.85
365.67	2918.36
365.88	2936.79
366.09	2775.00
366.30	2914.26
366.51	2973.65
366.72	2725.85
366.93	2797.53
367.14	3039.19
367.35	3209.17
367.56	2770.90
367.77	2973.65
367.98	2973.65
368.18	3180.50
368.39	2967.51
368.60	2721.75
368.81	3104.72
369.02	3047.38
369.23	2793.43
369.44	2629.59
369.65	2854.87
369.86	2951.12
370.07	2934.74
370.28	2760.66
370.49	3112.91
370.70	3106.77
370.91	2783.19
371.12	2635.74
371.33	3200.98
371.54	2840.53
371.75	2912.21
371.96	2519.00
372.17	3004.37
372.38	2955.22
372.59	2830.29
372.80	2779.09
373.01	2985.94
373.22	2975.70
373.43	2818.00
373.64	2672.60
373.85	3178.45
374.06	3254.22
374.26	3010.51
374.47	2961.36
374.68	3293.13
374.89	2959.31
375.10	2785.24
375.31	2934.74
375.52	2944.98
375.73	2969.55
375.94	2695.13
376.15	2928.60
376.36	2797.53
376.57	2858.96
376.78	2856.92
376.99	2871.25
377.20	3184.59
377.40	2914.26
377.61	3078.10
377.82	2789.33
378.03	3203.02
378.24	3080.14
378.45	2926.55
378.66	2856.92
378.87	2613.21
379.08	2748.37
379.29	2787.29
379.50	2951.12
379.71	2953.17
379.91	3182.54
380.12	2848.72
380.33	2846.68
380.54	2979.79
380.75	2936.79
380.96	2836.44
381.17	2881.49
381.38	2961.36
381.59	3024.85
381.80	2768.85
382.00	3002.32
382.21	3035.09
382.42	3264.46
382.63	3149.78
382.84	2901.97
383.05	3196.88
383.26	3272.65
383.47	2938.84
383.68	2727.89
383.88	3065.81
384.09	3096.53
384.30	3055.57
384.51	2869.20
384.72	2936.79
384.93	2740.18
385.14	2910.16
385.35	3080.14
385.55	2822.10
385.76	3180.50
385.97	2770.90
386.18	2680.79
386.39	2852.82
386.60	2969.55
386.81	2746.33
387.02	2746.33
387.22	2793.43
387.43	3209.17
387.64	2936.79
387.85	3045.33
388.06	3067.86
388.27	4067.27
388.48	7276.43
388.68	10635.10
388.89	13389.62
389.10	14595.87
389.31	14104.36
389.52	11298.64
389.73	9604.97
389.93	8865.66
390.14	8079.24
390.35	7307.15
390.56	6713.24
390.77	5584.81
390.98	4272.06
391.18	3594.19
391.39	3416.01
391.60	2987.99
391.81	2977.75
392.02	2863.06
392.23	3448.78
392.43	3045.33
392.64	3045.33
392.85	2861.01
393.06	3305.42
393.27	3018.71
393.47	2738.13
393.68	2908.12
393.89	2889.68
394.10	3114.96
394.31	2785.24
394.52	2740.18
394.72	2838.48
394.93	3254.22
395.14	2705.37
395.35	2873.30
395.56	2901.97
395.76	3002.32
395.97	2832.34
396.18	2963.41
396.39	2957.27
396.60	3598.28
396.80	3135.44
397.01	3000.27
397.22	3172.30
397.43	3098.58
397.64	2811.86
397.84	2854.87
398.05	3278.80
398.26	3018.71
398.47	3035.09
398.67	2967.51
398.88	2936.79
399.09	3061.71
399.30	2729.94
399.51	2922.45
399.71	2875.35
399.92	3018.71
400.13	2947.03
400.34	2787.29
400.54	2973.65
400.75	3219.41
400.96	2928.60
401.17	3131.34
401.37	3112.91
401.58	2932.69
401.79	2789.33
402.00	2891.73
402.21	3411.92
402.41	3155.92
402.62	3059.67
402.83	3192.78
403.04	3373.00
403.24	3715.02
403.45	2998.23
403.66	3119.06
403.87	3223.50
404.07	3297.23
404.28	3041.23
404.49	3145.68
404.70	3092.43
404.90	3076.05
405.11	2818.00
405.32	2912.21
405.52	2848.72
405.73	2930.64
405.94	2643.93
406.15	2926.55
406.35	3092.43
406.56	3096.53
406.77	2873.30
406.98	2838.48
407.18	2848.72
407.39	3311.57
407.60	2893.78
407.80	2856.92
408.01	2914.26
408.22	3045.33
408.43	2686.94
408.63	2951.12
408.84	3086.29
409.05	3147.73
409.25	2807.77
409.46	2805.72
409.67	2928.60
409.88	3071.95
410.08	2869.20
410.29	2836.44
410.50	3078.10
410.70	3033.04
410.91	2783.19
411.12	2877.40
411.32	3014.61
411.53	2826.20
411.74	2844.63
411.95	2852.82
412.15	3006.42
412.36	3129.30
412.57	2977.75
412.77	2942.93
412.98	2916.31
413.19	2869.20
413.39	2936.79
413.60	2854.87
413.81	3229.65
414.01	2758.61
414.22	2875.35
414.43	3022.80
414.63	2934.74
414.84	3151.82
415.05	2883.54
415.25	2766.81
415.46	3106.77
415.67	2906.07
415.87	2883.54
416.08	2809.81
416.29	2889.68
416.49	3094.48
416.70	2869.20
416.91	2873.30
417.11	2873.30
417.32	3205.07
417.53	2942.93
417.73	2889.68
417.94	3012.56
418.15	3086.29
418.35	2965.46
418.56	2815.96
418.77	3352.52
418.97	3065.81
419.18	2891.73
419.38	2549.72
419.59	2977.75
419.80	3219.41
420.00	2766.81
420.21	2918.36
420.42	3162.06
420.62	3053.52
420.83	2770.90
421.04	2805.72
421.24	2998.23
421.45	3114.96
421.65	2910.16
421.86	2805.72
422.07	3160.02
422.27	2979.79
422.48	2881.49
422.69	2666.46
422.89	3018.71
423.10	2996.18
423.30	2754.52
423.51	2861.01
423.72	3063.76
423.92	3094.48
424.13	2752.47
424.33	2838.48
424.54	3112.91
424.75	3020.75
424.95	2987.99
425.16	2797.53
425.36	3012.56
425.57	3100.62
425.78	2893.78
425.98	2934.74
426.19	2977.75
426.39	2875.35
426.60	2994.13
426.81	3024.85
427.01	2981.84
427.22	2762.71
427.42	2705.37
427.63	2684.89
427.83	3102.67
428.04	3315.66
428.25	2879.44
428.45	3000.27
428.66	3190.74
428.86	2996.18
429.07	2879.44
429.28	2809.81
429.48	2916.31
429.69	2850.77
429.89	2852.82
430.10	2701.27
430.30	3045.33
430.51	3145.68
430.71	2748.37
430.92	2858.96
431.13	2832.34
431.33	3024.85
431.54	2969.55
431.74	3000.27
431.95	3413.96
432.15	2848.72
432.36	2918.36
432.56	2895.83
432.77	3342.28
432.98	3270.61
433.18	2873.30
433.39	2785.24
433.59	2990.03
433.80	3274.70
434.00	3057.62
434.21	2854.87
434.41	2820.05
434.62	3477.45
434.82	2766.81
435.03	2764.76
435.23	3020.75
435.44	2746.33
435.64	2772.95
435.85	2875.35
436.06	3112.91
436.26	3178.45
436.47	2863.06
436.67	2856.92
436.88	2920.40
437.08	3133.39
437.29	3039.19
437.49	3000.27
437.70	3256.27
437.90	2985.94
438.11	3100.62
438.31	2918.36
438.52	3153.87
438.72	3104.72
438.93	3205.07
439.13	2918.36
439.34	3231.69
439.54	2932.69
439.75	2975.70
439.95	2930.64
440.16	2869.20
440.36	2985.94
440.57	2828.24
440.77	2885.59
440.98	2891.73
441.18	3143.63
441.39	2678.74
441.59	2727.89
441.80	3446.73
442.00	2940.88
442.21	2967.51
442.41	2641.88
442.62	3098.58
442.82	2824.15
443.02	2904.02
443.23	2828.24
443.43	2922.45
443.64	3227.60
443.84	2789.33
444.05	2953.17
444.25	3051.47
444.46	2897.88
444.66	2908.12
444.87	3080.14
445.07	2795.48
445.28	2920.40
445.48	3121.10
445.69	2887.64
445.89	3452.88
446.09	2951.12
446.30	3098.58
446.50	3198.93
446.71	4753.34
446.91	5810.09
447.12	6426.53
447.32	6868.89
447.53	6889.37
447.73	5871.53
447.93	5023.67
448.14	4853.69
448.34	4863.93
448.55	4071.36
448.75	4065.22
448.96	3895.24
449.16	3772.36
449.36	3542.99
449.57	3104.72
449.77	2940.88
449.98	2908.12
450.18	3092.43
450.39	2799.57
450.59	3143.63
450.79	3020.75
451.00	2824.15
451.20	2996.18
451.41	2775.00
451.61	3059.67
451.81	2877.40
452.02	2815.96
452.22	2836.44
452.43	2910.16
452.63	2875.35
