SpectraSuite Data File
++++++++++++++++++++++++++++++++++++
Date: Thu May 05 21:11:03 CEST 2016
User: root
Dark Spectrum Present: No
Reference Spectrum Present: No
Number of Sampled Component Spectra: 1
Spectrometers: USB4C02835
Integration Time (usec): 100000 (USB4C02835)
Spectra Averaged: 1 (USB4C02835)
Boxcar Smoothing: 0 (USB4C02835)
Correct for Electrical Dark: No (USB4C02835)
Strobe/Lamp Enabled: No (USB4C02835)
Correct for Detector Non-linearity: No (USB4C02835)
Correct for Stray Light: No (USB4C02835)
Number of Pixels in Processed Spectrum: 3648
>>>>>Begin Processed Spectral Data<<<<<
177.47	2236.38
177.69	2236.38
177.91	2236.38
178.13	2146.27
178.36	2181.09
178.58	2725.85
178.80	2967.51
179.02	2727.89
179.24	2861.01
179.46	2564.06
179.68	2686.94
179.90	2955.22
180.13	3026.90
180.35	2531.29
180.57	2648.02
180.79	3094.48
181.01	2983.89
181.23	2740.18
181.45	2766.81
181.67	3067.86
181.90	2996.18
182.12	2707.41
182.34	2553.82
182.56	3188.69
182.78	3098.58
183.00	2713.56
183.22	2719.70
183.44	2707.41
183.66	3504.07
183.89	2791.38
184.11	2705.37
184.33	3082.19
184.55	3196.88
184.77	2758.61
184.99	2736.09
185.21	2824.15
185.43	3422.16
185.65	2643.93
185.87	2648.02
186.10	3364.81
186.32	3366.86
186.54	2801.62
186.76	2713.56
186.98	3168.21
187.20	2936.79
187.42	2691.03
187.64	2643.93
187.86	3037.14
188.08	3147.73
188.30	2631.64
188.52	2762.71
188.75	3170.26
188.97	3174.35
189.19	2607.06
189.41	2686.94
189.63	3045.33
189.85	2926.55
190.07	2602.97
190.29	2611.16
190.51	3094.48
190.73	2766.81
190.95	2858.96
191.17	2742.23
191.39	2754.52
191.61	3033.04
191.84	2727.89
192.06	2828.24
192.28	2691.03
192.50	3557.32
192.72	2811.86
192.94	2762.71
193.16	3217.36
193.38	3037.14
193.60	2574.30
193.82	2820.05
194.04	3094.48
194.26	3059.67
194.48	2742.23
194.70	2598.87
194.92	2914.26
195.14	3153.87
195.36	2680.79
195.58	2744.28
195.80	2992.08
196.02	2826.20
196.24	2639.83
196.46	2791.38
196.69	2963.41
196.91	3385.29
197.13	2605.02
197.35	2729.94
197.57	3274.70
197.79	3084.24
198.01	2703.32
198.23	2723.80
198.45	3125.20
198.67	2715.61
198.89	2598.87
199.11	2777.05
199.33	2846.68
199.55	2639.83
199.77	2699.22
199.99	2785.24
200.21	2838.48
200.43	3076.05
200.65	2516.95
200.87	2572.25
201.09	3059.67
201.31	2869.20
201.53	2748.37
201.75	2752.47
201.97	3051.47
202.19	3014.61
202.41	2781.14
202.63	2807.77
202.85	3061.71
203.07	3035.09
203.29	2779.09
203.51	2549.72
203.73	2824.15
203.95	3391.44
204.17	2678.74
204.39	2787.29
204.61	2977.75
204.83	2856.92
205.05	2877.40
205.27	2731.99
205.49	3379.15
205.71	2897.88
205.93	2607.06
206.15	2602.97
206.37	2969.55
206.59	2930.64
206.81	2514.91
207.03	2562.01
207.25	2869.20
207.47	3018.71
207.69	2660.31
207.91	2885.59
208.13	3194.83
208.34	2885.59
208.56	2656.22
208.78	2668.50
209.00	2908.12
209.22	2869.20
209.44	2652.12
209.66	2652.12
209.88	3026.90
210.10	2830.29
210.32	2613.21
210.54	2783.19
210.76	2971.60
210.98	3153.87
211.20	2498.52
211.42	2746.33
211.64	3225.55
211.86	3096.53
212.08	2809.81
212.30	2713.56
212.52	2938.84
212.74	3045.33
212.96	2758.61
213.17	2701.27
213.39	3129.30
213.61	3325.90
213.83	2645.98
214.05	2623.45
214.27	3162.06
214.49	2871.25
214.71	2639.83
214.93	2838.48
215.15	2967.51
215.37	3198.93
215.59	2527.19
215.81	2707.41
216.03	3176.40
216.24	2975.70
216.46	2688.98
216.68	2752.47
216.90	3086.29
217.12	3192.78
217.34	2664.41
217.56	2826.20
217.78	3166.16
218.00	3143.63
218.22	2783.19
218.44	2838.48
218.66	2977.75
218.87	3364.81
219.09	2731.99
219.31	2750.42
219.53	3063.76
219.75	2785.24
219.97	2707.41
220.19	2740.18
220.41	2926.55
220.63	3207.12
220.85	2713.56
221.06	2695.13
221.28	3188.69
221.50	3166.16
221.72	2721.75
221.94	2586.58
222.16	3033.04
222.38	3082.19
222.60	2648.02
222.82	2709.46
223.03	3076.05
223.25	2836.44
223.47	2623.45
223.69	2944.98
223.91	3092.43
224.13	3049.43
224.35	2621.40
224.57	2799.57
224.78	3125.20
225.00	2729.94
225.22	2691.03
225.44	2641.88
225.66	3092.43
225.88	2891.73
226.10	2826.20
226.32	2713.56
226.53	3231.69
226.75	2836.44
226.97	2781.14
227.19	2723.80
227.41	2895.83
227.63	2867.16
227.85	2525.15
228.06	2691.03
228.28	3020.75
228.50	3119.06
228.72	2621.40
228.94	2672.60
229.16	2660.31
229.37	2789.33
229.59	2631.64
229.81	2957.27
230.03	2983.89
230.25	2734.04
230.47	2580.44
230.69	2598.87
230.90	3180.50
231.12	2826.20
231.34	2764.76
231.56	2781.14
231.78	2746.33
232.00	2955.22
232.21	2658.26
232.43	2691.03
232.65	2637.78
232.87	3078.10
233.09	2564.06
233.30	2658.26
233.52	3221.45
233.74	2803.67
233.96	2586.58
234.18	2840.53
234.40	2856.92
234.61	3416.01
234.83	2580.44
235.05	2688.98
235.27	3499.98
235.49	3198.93
235.70	2523.10
235.92	2736.09
236.14	3147.73
236.36	3471.31
236.58	2582.49
236.79	2822.10
237.01	3045.33
237.23	2994.13
237.45	2885.59
237.67	2736.09
237.88	3084.24
238.10	3332.05
238.32	2602.97
238.54	2648.02
238.76	2901.97
238.97	2832.34
239.19	2557.91
239.41	2713.56
239.63	3188.69
239.85	2924.50
240.06	2744.28
240.28	2645.98
240.50	3198.93
240.72	2850.77
240.93	2648.02
241.15	2721.75
241.37	3020.75
241.59	3272.65
241.81	2656.22
242.02	2695.13
242.24	3096.53
242.46	3094.48
242.68	2498.52
242.89	2682.84
243.11	3180.50
243.33	3051.47
243.55	2738.13
243.76	2736.09
243.98	2893.78
244.20	3053.52
244.42	2711.51
244.64	2643.93
244.85	2818.00
245.07	2789.33
245.29	2639.83
245.51	2729.94
245.72	3035.09
245.94	3229.65
246.16	2648.02
246.38	2709.46
246.59	2912.21
246.81	2842.58
247.03	2623.45
247.24	2568.15
247.46	2895.83
247.68	3084.24
247.90	2658.26
248.11	2699.22
248.33	3141.58
248.55	3004.37
248.77	2656.22
248.98	2818.00
249.20	3215.31
249.42	3002.32
249.64	2654.17
249.85	2738.13
250.07	2844.63
250.29	3153.87
250.50	2729.94
250.72	2502.62
250.94	3018.71
251.16	3387.34
251.37	2656.22
251.59	2752.47
251.81	3055.57
252.02	3186.64
252.24	2662.36
252.46	2820.05
252.68	2863.06
252.89	2928.60
253.11	2594.78
253.33	2797.53
253.54	3221.45
253.76	2856.92
253.98	2729.94
254.20	2639.83
254.41	2781.14
254.63	3033.04
254.85	2559.96
255.06	2781.14
255.28	3078.10
255.50	2947.03
255.71	2586.58
255.93	2504.67
256.15	2848.72
256.36	3061.71
256.58	2582.49
256.80	2627.54
257.02	2951.12
257.23	2875.35
257.45	2736.09
257.67	2783.19
257.88	2813.91
258.10	3035.09
258.32	2738.13
258.53	2693.08
258.75	3196.88
258.97	2942.93
259.18	2564.06
259.40	2584.54
259.62	3256.27
259.83	3239.89
260.05	2766.81
260.27	3493.83
260.48	3168.21
260.70	2799.57
260.92	2611.16
261.13	2695.13
261.35	2983.89
261.57	3131.34
261.78	2652.12
262.00	2654.17
262.22	3108.82
262.43	2762.71
262.65	2781.14
262.86	2738.13
263.08	3475.40
263.30	2947.03
263.51	2465.75
263.73	2652.12
263.95	3215.31
264.16	2940.88
264.38	2535.39
264.60	2629.59
264.81	2965.46
265.03	3196.88
265.25	2965.46
265.46	2643.93
265.68	3149.78
265.89	3022.80
266.11	2562.01
266.33	2729.94
266.54	3252.17
266.76	3024.85
266.98	2818.00
267.19	2836.44
267.41	3192.78
267.62	3028.95
267.84	2488.28
268.06	2852.82
268.27	3045.33
268.49	3149.78
268.70	2701.27
268.92	2699.22
269.14	2895.83
269.35	2789.33
269.57	2731.99
269.79	2682.84
270.00	2895.83
270.22	3260.37
270.43	2580.44
270.65	2512.86
270.87	2992.08
271.08	3125.20
271.30	2815.96
271.51	2686.94
271.73	3098.58
271.95	3186.64
272.16	2670.55
272.38	2854.87
272.59	2947.03
272.81	3121.10
273.02	2623.45
273.24	2666.46
273.46	3157.97
273.67	2713.56
273.89	2539.48
274.10	2721.75
274.32	3127.25
274.54	3006.42
274.75	2746.33
274.97	2820.05
275.18	3112.91
275.40	3088.34
275.61	2764.76
275.83	2879.44
276.05	2813.91
276.26	2959.31
276.48	2801.62
276.69	2803.67
276.91	2801.62
277.12	3194.83
277.34	2820.05
277.55	2887.64
277.77	2983.89
277.99	2865.11
278.20	2805.72
278.42	2717.65
278.63	2881.49
278.85	2871.25
279.06	2750.42
279.28	2934.74
279.49	3192.78
279.71	3106.77
279.93	2842.58
280.14	2830.29
280.36	2832.34
280.57	3133.39
280.79	2926.55
281.00	2717.65
281.22	2858.96
281.43	3237.84
281.65	2586.58
281.86	2686.94
282.08	2990.03
282.29	3360.72
282.51	2680.79
282.73	2586.58
282.94	2783.19
283.16	3086.29
283.37	2891.73
283.59	2826.20
283.80	3082.19
284.02	3024.85
284.23	2910.16
284.45	2848.72
284.66	2854.87
284.88	2885.59
285.09	2801.62
285.31	2930.64
285.52	3059.67
285.74	2744.28
285.95	2940.88
286.17	2838.48
286.38	3192.78
286.60	2910.16
286.81	2820.05
287.03	2734.04
287.24	3010.51
287.46	3123.15
287.67	2861.01
287.89	3061.71
288.10	2938.84
288.32	2967.51
288.53	2979.79
288.75	2852.82
288.96	3174.35
289.18	2846.68
289.39	2789.33
289.61	2820.05
289.82	3387.34
290.04	3368.91
290.25	2725.85
290.47	2787.29
290.68	2936.79
290.90	3184.59
291.11	2615.26
291.33	2936.79
291.54	2764.76
291.76	2840.53
291.97	2975.70
292.18	2897.88
292.40	2914.26
292.61	2848.72
292.83	3016.66
293.04	2848.72
293.26	3041.23
293.47	3012.56
293.69	2717.65
293.90	2656.22
294.12	3246.03
294.33	3057.62
294.55	2910.16
294.76	2971.60
294.97	3135.44
295.19	3399.63
295.40	2752.47
295.62	2906.07
295.83	3166.16
296.05	2852.82
296.26	3010.51
296.48	2772.95
296.69	2918.36
296.90	2938.84
297.12	2940.88
297.33	2998.23
297.55	3000.27
297.76	3024.85
297.98	2885.59
298.19	2955.22
298.41	3055.57
298.62	2797.53
298.83	3002.32
299.05	2910.16
299.26	2949.08
299.48	2863.06
299.69	2871.25
299.90	2828.24
300.12	2854.87
300.33	3112.91
300.55	2775.00
300.76	2844.63
300.98	2795.48
301.19	3123.15
301.40	2828.24
301.62	2836.44
301.83	3065.81
302.05	2938.84
302.26	2781.14
302.47	2944.98
302.69	2756.57
302.90	2959.31
303.12	2602.97
303.33	2879.44
303.54	3405.77
303.76	2951.12
303.97	2777.05
304.19	2983.89
304.40	2865.11
304.61	3043.28
304.83	2938.84
305.04	2887.64
305.26	3117.01
305.47	2918.36
305.68	2793.43
305.90	2650.07
306.11	3135.44
306.33	2947.03
306.54	2648.02
306.75	2754.52
306.97	2705.37
307.18	2815.96
307.39	2783.19
307.61	2893.78
307.82	3012.56
308.04	3147.73
308.25	2695.13
308.46	2955.22
308.68	3014.61
308.89	3008.47
309.10	2949.08
309.32	2850.77
309.53	3035.09
309.74	3082.19
309.96	2781.14
310.17	2924.50
310.39	2916.31
310.60	3090.38
310.81	2918.36
311.03	2721.75
311.24	3174.35
311.45	2938.84
311.67	3094.48
311.88	2920.40
312.09	2883.54
312.31	2930.64
312.52	2752.47
312.73	2727.89
312.95	2719.70
313.16	2891.73
313.37	2938.84
313.59	2881.49
313.80	3069.91
314.01	3262.41
314.23	2756.57
314.44	2731.99
314.65	2719.70
314.87	2777.05
315.08	2852.82
315.29	2906.07
315.51	2828.24
315.72	2748.37
315.93	2906.07
316.15	2885.59
316.36	2914.26
316.57	2944.98
316.79	2781.14
317.00	2793.43
317.21	3117.01
317.43	2768.85
317.64	2867.16
317.85	2691.03
318.07	2791.38
318.28	2996.18
318.49	2856.92
318.70	2889.68
318.92	3100.62
319.13	3082.19
319.34	2957.27
319.56	2717.65
319.77	3069.91
319.98	3160.02
320.20	3000.27
320.41	2934.74
320.62	3114.96
320.83	2844.63
321.05	3020.75
321.26	2861.01
321.47	2983.89
321.69	3151.82
321.90	2697.17
322.11	2717.65
322.32	3108.82
322.54	3291.09
322.75	2801.62
322.96	3604.42
323.18	2709.46
323.39	2684.89
323.60	2703.32
323.81	2971.60
324.03	2961.36
324.24	3014.61
324.45	2879.44
324.66	2752.47
324.88	3186.64
325.09	3147.73
325.30	2906.07
325.52	2723.80
325.73	3016.66
325.94	2793.43
326.15	2600.92
326.37	2701.27
326.58	3168.21
326.79	3327.95
327.00	2750.42
327.22	2754.52
327.43	2914.26
327.64	2813.91
327.85	2947.03
328.07	2805.72
328.28	3274.70
328.49	2887.64
328.70	2738.13
328.92	2826.20
329.13	2961.36
329.34	3129.30
329.55	2985.94
329.76	3004.37
329.98	2828.24
330.19	3102.67
330.40	2805.72
330.61	2947.03
330.83	3069.91
331.04	2729.94
331.25	2961.36
331.46	2822.10
331.68	2811.86
331.89	3143.63
332.10	2881.49
332.31	2602.97
332.52	2996.18
332.74	3149.78
332.95	2656.22
333.16	2824.15
333.37	3133.39
333.58	2877.40
333.80	2852.82
334.01	2617.30
334.22	2846.68
334.43	2912.21
334.64	2742.23
334.86	2715.61
335.07	2838.48
335.28	3213.26
335.49	2731.99
335.70	2957.27
335.92	3176.40
336.13	3274.70
336.34	2873.30
336.55	2877.40
336.76	3043.28
336.98	2625.50
337.19	2830.29
337.40	2914.26
337.61	3475.40
337.82	2926.55
338.04	2955.22
338.25	2693.08
338.46	2922.45
338.67	3092.43
338.88	2699.22
339.09	2660.31
339.31	2938.84
339.52	2824.15
339.73	2746.33
339.94	2809.81
340.15	3084.24
340.36	2879.44
340.58	2861.01
340.79	2715.61
341.00	3153.87
341.21	2863.06
341.42	2940.88
341.63	2797.53
341.85	3030.99
342.06	3016.66
342.27	2746.33
342.48	3035.09
342.69	2779.09
342.90	2969.55
343.12	3082.19
343.33	2723.80
343.54	3168.21
343.75	3166.16
343.96	2856.92
344.17	2686.94
344.38	2971.60
344.60	2840.53
344.81	2768.85
345.02	2815.96
345.23	3213.26
345.44	3459.02
345.65	2865.11
345.86	2826.20
346.07	3090.38
346.29	2897.88
346.50	2979.79
346.71	2918.36
346.92	3178.45
347.13	3389.39
347.34	2863.06
347.55	2764.76
347.76	3086.29
347.98	2754.52
348.19	2787.29
348.40	2977.75
348.61	2944.98
348.82	3235.79
349.03	2828.24
349.24	2650.07
349.45	3389.39
349.66	2705.37
349.88	2764.76
350.09	2699.22
350.30	3264.46
350.51	3252.17
350.72	2928.60
350.93	2752.47
351.14	2906.07
351.35	3018.71
351.56	2846.68
351.77	2850.77
351.99	3067.86
352.20	3203.02
352.41	2977.75
352.62	2639.83
352.83	2858.96
353.04	2875.35
353.25	2754.52
353.46	2899.92
353.67	3172.30
353.88	2789.33
354.09	2799.57
354.30	2850.77
354.52	3112.91
354.73	2889.68
354.94	2805.72
355.15	2856.92
355.36	3299.28
355.57	2861.01
355.78	2787.29
355.99	2772.95
356.20	2971.60
356.41	3172.30
356.62	2856.92
356.83	2787.29
357.04	3211.22
357.25	2738.13
357.46	2801.62
357.68	2688.98
357.89	2854.87
358.10	2961.36
358.31	2738.13
358.52	2881.49
358.73	2717.65
358.94	2856.92
359.15	2781.14
359.36	2873.30
359.57	2994.13
359.78	2959.31
359.99	2996.18
360.20	2711.51
360.41	2928.60
360.62	2985.94
360.83	2861.01
361.04	2869.20
361.25	3000.27
361.46	3256.27
361.67	2899.92
361.88	2826.20
362.09	3143.63
362.30	3049.43
362.51	2783.19
362.72	2848.72
362.93	3176.40
363.14	3026.90
363.35	2869.20
363.56	2748.37
363.78	3127.25
363.99	3137.49
364.20	2824.15
364.41	2971.60
364.62	3323.85
364.83	3055.57
365.04	2791.38
365.25	2783.19
365.46	3364.81
365.67	2775.00
365.88	2858.96
366.09	2779.09
366.30	2873.30
366.51	2965.46
366.72	2766.81
366.93	2762.71
367.14	3026.90
367.35	3131.34
367.56	2746.33
367.77	2910.16
367.98	3010.51
368.18	3065.81
368.39	2922.45
368.60	2691.03
368.81	3151.82
369.02	3061.71
369.23	2801.62
369.44	2576.34
369.65	2873.30
369.86	2992.08
370.07	2975.70
370.28	2803.67
370.49	3045.33
370.70	3012.56
370.91	2717.65
371.12	2566.10
371.33	3174.35
371.54	2910.16
371.75	2985.94
371.96	2568.15
372.17	3004.37
372.38	2928.60
372.59	2840.53
372.80	2744.28
373.01	2959.31
373.22	3010.51
373.43	2803.67
373.64	2697.17
373.85	3164.11
374.06	3291.09
374.26	3061.71
374.47	2955.22
374.68	3266.51
374.89	3026.90
375.10	2727.89
375.31	2830.29
375.52	3043.28
375.73	2955.22
375.94	2680.79
376.15	2963.41
376.36	2867.16
376.57	2885.59
376.78	2865.11
376.99	2787.29
377.20	3217.36
377.40	2955.22
377.61	3024.85
377.82	2762.71
378.03	3239.89
378.24	3098.58
378.45	2858.96
378.66	2891.73
378.87	2754.52
379.08	2779.09
379.29	2795.48
379.50	2967.51
379.71	2893.78
379.91	3166.16
380.12	2775.00
380.33	2910.16
380.54	2994.13
380.75	2949.08
380.96	2787.29
381.17	2887.64
381.38	2973.65
381.59	2967.51
381.80	2844.63
382.00	2930.64
382.21	3059.67
382.42	3272.65
382.63	3086.29
382.84	2926.55
383.05	3203.02
383.26	3221.45
383.47	2877.40
383.68	2830.29
383.88	3090.38
384.09	3084.24
384.30	3026.90
384.51	2897.88
384.72	2899.92
384.93	2758.61
385.14	2871.25
385.35	3063.76
385.55	2807.77
385.76	3184.59
385.97	2856.92
386.18	2672.60
386.39	2858.96
386.60	2879.44
386.81	2818.00
387.02	2701.27
387.22	2742.23
387.43	3145.68
387.64	2914.26
387.85	3051.47
388.06	2971.60
388.27	4140.99
388.48	7196.56
388.68	10753.88
388.89	13473.59
389.10	14556.96
389.31	13903.66
389.52	11155.29
389.73	9744.24
389.93	8949.62
390.14	8015.75
390.35	7231.38
390.56	6748.06
390.77	5580.71
390.98	4396.99
391.18	3708.87
391.39	3405.77
391.60	3000.27
391.81	3117.01
392.02	2838.48
392.23	3416.01
392.43	3080.14
392.64	2992.08
392.85	2809.81
393.06	3252.17
393.27	2967.51
393.47	2875.35
393.68	2811.86
393.89	2977.75
394.10	3215.31
394.31	2725.85
394.52	2875.35
394.72	2840.53
394.93	3221.45
395.14	2703.32
395.35	2916.31
395.56	2842.58
395.76	2983.89
395.97	2793.43
396.18	2957.27
396.39	3014.61
396.60	3592.14
396.80	3182.54
397.01	2940.88
397.22	3241.93
397.43	3246.03
397.64	2824.15
397.84	2918.36
398.05	3344.33
398.26	2959.31
398.47	2938.84
398.67	3024.85
398.88	3069.91
399.09	3164.11
399.30	2783.19
399.51	2930.64
399.71	2836.44
399.92	2969.55
400.13	2967.51
400.34	2818.00
400.54	2928.60
400.75	3231.69
400.96	3002.32
401.17	3082.19
401.37	3065.81
401.58	2973.65
401.79	2842.58
402.00	2961.36
402.21	3479.50
402.41	3117.01
402.62	3086.29
402.83	3133.39
403.04	3373.00
403.24	3614.66
403.45	2926.55
403.66	3231.69
403.87	3196.88
404.07	3246.03
404.28	3098.58
404.49	3035.09
404.70	3104.72
404.90	3084.24
405.11	2865.11
405.32	2942.93
405.52	2983.89
405.73	2809.81
405.94	2729.94
406.15	2883.54
406.35	3172.30
406.56	3088.34
406.77	2922.45
406.98	2881.49
407.18	2881.49
407.39	3319.76
407.60	2897.88
407.80	2912.21
408.01	2875.35
408.22	3039.19
408.43	2752.47
408.63	2912.21
408.84	3114.96
409.05	3106.77
409.25	2762.71
409.46	2807.77
409.67	2881.49
409.88	2764.76
410.08	2873.30
410.29	2803.67
410.50	3168.21
410.70	3008.47
410.91	2674.65
411.12	2910.16
411.32	3014.61
411.53	2852.82
411.74	2850.77
411.95	2985.94
412.15	3045.33
412.36	3100.62
412.57	2985.94
412.77	3086.29
412.98	2940.88
413.19	2893.78
413.39	2852.82
413.60	2828.24
413.81	3176.40
414.01	2877.40
414.22	2899.92
414.43	3039.19
414.63	2938.84
414.84	3239.89
415.05	2834.39
415.25	2701.27
415.46	3110.86
415.67	2920.40
415.87	2895.83
416.08	2789.33
416.29	2918.36
416.49	3053.52
416.70	2895.83
416.91	2875.35
417.11	2957.27
417.32	3114.96
417.53	2949.08
417.73	2987.99
417.94	2981.84
418.15	3067.86
418.35	2920.40
418.56	2912.21
418.77	3434.44
418.97	3000.27
419.18	2983.89
419.38	2521.05
419.59	2963.41
419.80	3190.74
420.00	2807.77
420.21	2818.00
420.42	3200.98
420.62	3061.71
420.83	2820.05
421.04	2910.16
421.24	2951.12
421.45	3084.24
421.65	2842.58
421.86	2885.59
422.07	3102.67
422.27	3057.62
422.48	2758.61
422.69	2707.41
422.89	2961.36
423.10	2914.26
423.30	2783.19
423.51	2856.92
423.72	3069.91
423.92	3178.45
424.13	2699.22
424.33	2828.24
424.54	3104.72
424.75	2987.99
424.95	2985.94
425.16	2758.61
425.36	2942.93
425.57	3229.65
425.78	2942.93
425.98	2883.54
426.19	2971.60
426.39	2873.30
426.60	2926.55
426.81	3006.42
427.01	3080.14
427.22	2805.72
427.42	2670.55
427.63	2693.08
427.83	3127.25
428.04	3327.95
428.25	2873.30
428.45	2977.75
428.66	3200.98
428.86	2969.55
429.07	2897.88
429.28	2879.44
429.48	2955.22
429.69	2914.26
429.89	2930.64
430.10	2715.61
430.30	3119.06
430.51	3221.45
430.71	2781.14
430.92	2842.58
431.13	2865.11
431.33	3188.69
431.54	2973.65
431.74	3065.81
431.95	3319.76
432.15	2877.40
432.36	2848.72
432.56	2885.59
432.77	3264.46
432.98	3260.37
433.18	2848.72
433.39	2764.76
433.59	3012.56
433.80	3311.57
434.00	3069.91
434.21	2826.20
434.41	2838.48
434.62	3413.96
434.82	2787.29
435.03	2811.86
435.23	3094.48
435.44	2760.66
435.64	2852.82
435.85	2928.60
436.06	3172.30
436.26	3170.26
436.47	2844.63
436.67	2789.33
436.88	2930.64
437.08	3215.31
437.29	2973.65
437.49	2873.30
437.70	3282.89
437.90	2967.51
438.11	3010.51
438.31	2914.26
438.52	3192.78
438.72	3174.35
438.93	3137.49
439.13	2934.74
439.34	3137.49
439.54	2949.08
439.75	2949.08
439.95	2881.49
440.16	2928.60
440.36	2985.94
440.57	2848.72
440.77	2779.09
440.98	2949.08
441.18	3053.52
441.39	2729.94
441.59	2754.52
441.80	3293.13
442.00	2973.65
442.21	2938.84
442.41	2746.33
442.62	3147.73
442.82	2787.29
443.02	2854.87
443.23	2854.87
443.43	2992.08
443.64	3137.49
443.84	2748.37
444.05	2926.55
444.25	3012.56
444.46	2908.12
444.66	2781.14
444.87	3016.66
445.07	2785.24
445.28	2944.98
445.48	2994.13
445.69	2897.88
445.89	3381.20
446.09	2959.31
446.30	3123.15
446.50	3198.93
446.71	4655.03
446.91	5711.78
447.12	6549.40
447.32	6983.57
447.53	6807.45
447.73	5683.11
447.93	4982.71
448.14	4755.38
448.34	4892.60
448.55	4044.74
448.75	4016.07
448.96	3698.63
449.16	3571.66
449.36	3573.71
449.57	3108.82
449.77	2916.31
449.98	2822.10
450.18	2987.99
450.39	2811.86
450.59	3004.37
450.79	2901.97
451.00	2854.87
451.20	3012.56
451.41	2736.09
451.61	3102.67
451.81	2985.94
452.02	2746.33
452.22	2879.44
452.43	2850.77
452.63	2922.45
