SpectraSuite Data File
++++++++++++++++++++++++++++++++++++
Date: Thu May 05 21:11:04 CEST 2016
User: root
Dark Spectrum Present: No
Reference Spectrum Present: No
Number of Sampled Component Spectra: 1
Spectrometers: USB4C02835
Integration Time (usec): 100000 (USB4C02835)
Spectra Averaged: 1 (USB4C02835)
Boxcar Smoothing: 0 (USB4C02835)
Correct for Electrical Dark: No (USB4C02835)
Strobe/Lamp Enabled: No (USB4C02835)
Correct for Detector Non-linearity: No (USB4C02835)
Correct for Stray Light: No (USB4C02835)
Number of Pixels in Processed Spectrum: 3648
>>>>>Begin Processed Spectral Data<<<<<
177.47	2154.46
177.69	2154.46
177.91	2154.46
178.13	2144.22
178.36	2093.02
178.58	2764.76
178.80	2910.16
179.02	2701.27
179.24	2824.15
179.46	2580.44
179.68	2621.40
179.90	2924.50
180.13	2961.36
180.35	2541.53
180.57	2557.91
180.79	3145.68
181.01	2975.70
181.23	2734.04
181.45	2777.05
181.67	3117.01
181.90	3155.92
182.12	2754.52
182.34	2576.34
182.56	3088.34
182.78	3098.58
183.00	2598.87
183.22	2684.89
183.44	2662.36
183.66	3395.53
183.89	2756.57
184.11	2711.51
184.33	3162.06
184.55	3160.02
184.77	2625.50
184.99	2619.35
185.21	2944.98
185.43	3389.39
185.65	2705.37
185.87	2605.02
186.10	3346.38
186.32	3325.90
186.54	2789.33
186.76	2746.33
186.98	3164.11
187.20	2938.84
187.42	2785.24
187.64	2717.65
187.86	3127.25
188.08	3119.06
188.30	2586.58
188.52	2723.80
188.75	3213.26
188.97	3252.17
189.19	2594.78
189.41	2744.28
189.63	3053.52
189.85	2895.83
190.07	2590.68
190.29	2553.82
190.51	3104.72
190.73	2701.27
190.95	2918.36
191.17	2662.36
191.39	2754.52
191.61	2936.79
191.84	2688.98
192.06	2752.47
192.28	2666.46
192.50	3506.12
192.72	2820.05
192.94	2768.85
193.16	3170.26
193.38	3131.34
193.60	2666.46
193.82	2787.29
194.04	3106.77
194.26	3074.00
194.48	2664.41
194.70	2721.75
194.92	2934.74
195.14	3125.20
195.36	2592.73
195.58	2731.99
195.80	2928.60
196.02	2912.21
196.24	2586.58
196.46	2758.61
196.69	2885.59
196.91	3405.77
197.13	2652.12
197.35	2748.37
197.57	3323.85
197.79	3176.40
198.01	2768.85
198.23	2654.17
198.45	3086.29
198.67	2830.29
198.89	2529.24
199.11	2695.13
199.33	2807.77
199.55	2605.02
199.77	2635.74
199.99	2836.44
200.21	2895.83
200.43	2975.70
200.65	2557.91
200.87	2586.58
201.09	2969.55
201.31	2928.60
201.53	2734.04
201.75	2727.89
201.97	3088.34
202.19	2940.88
202.41	2736.09
202.63	2799.57
202.85	3045.33
203.07	3035.09
203.29	2748.37
203.51	2600.92
203.73	2885.59
203.95	3413.96
204.17	2691.03
204.39	2764.76
204.61	2979.79
204.83	2897.88
205.05	2844.63
205.27	2648.02
205.49	3323.85
205.71	2969.55
205.93	2643.93
206.15	2519.00
206.37	3039.19
206.59	3004.37
206.81	2543.58
207.03	2584.54
207.25	2826.20
207.47	3069.91
207.69	2701.27
207.91	2967.51
208.13	3229.65
208.34	2785.24
208.56	2605.02
208.78	2684.89
209.00	2934.74
209.22	2947.03
209.44	2623.45
209.66	2672.60
209.88	2934.74
210.10	2897.88
210.32	2635.74
210.54	2785.24
210.76	2996.18
210.98	3108.82
211.20	2600.92
211.42	2822.10
211.64	3264.46
211.86	3090.38
212.08	2693.08
212.30	2754.52
212.52	2990.03
212.74	3094.48
212.96	2766.81
213.17	2715.61
213.39	3020.75
213.61	3246.03
213.83	2645.98
214.05	2609.11
214.27	3145.68
214.49	2764.76
214.71	2660.31
214.93	2830.29
215.15	2987.99
215.37	3086.29
215.59	2572.25
215.81	2705.37
216.03	3205.07
216.24	2906.07
216.46	2637.78
216.68	2738.13
216.90	3176.40
217.12	3090.38
217.34	2658.26
217.56	2824.15
217.78	3196.88
218.00	3049.43
218.22	2703.32
218.44	2738.13
218.66	3008.47
218.87	3354.57
219.09	2729.94
219.31	2752.47
219.53	3045.33
219.75	2932.69
219.97	2717.65
220.19	2789.33
220.41	2981.84
220.63	3241.93
220.85	2672.60
221.06	2764.76
221.28	3213.26
221.50	3055.57
221.72	2729.94
221.94	2682.84
222.16	2901.97
222.38	3110.86
222.60	2682.84
222.82	2729.94
223.03	3209.17
223.25	2826.20
223.47	2688.98
223.69	2922.45
223.91	3205.07
224.13	3045.33
224.35	2510.81
224.57	2908.12
224.78	3026.90
225.00	2795.48
225.22	2760.66
225.44	2654.17
225.66	3147.73
225.88	2920.40
226.10	2695.13
226.32	2699.22
226.53	3280.85
226.75	2832.34
226.97	2758.61
227.19	2725.85
227.41	2840.53
227.63	2856.92
227.85	2430.94
228.06	2664.41
228.28	3061.71
228.50	3114.96
228.72	2541.53
228.94	2613.21
229.16	2715.61
229.37	2781.14
229.59	2650.07
229.81	2899.92
230.03	2973.65
230.25	2822.10
230.47	2529.24
230.69	2680.79
230.90	3147.73
231.12	2832.34
231.34	2760.66
231.56	2711.51
231.78	2785.24
232.00	3035.09
232.21	2705.37
232.43	2711.51
232.65	2748.37
232.87	3039.19
233.09	2551.77
233.30	2598.87
233.52	3123.15
233.74	2930.64
233.96	2648.02
234.18	2820.05
234.40	2889.68
234.61	3395.53
234.83	2562.01
235.05	2633.69
235.27	3440.59
235.49	3221.45
235.70	2635.74
235.92	2748.37
236.14	3076.05
236.36	3401.68
236.58	2592.73
236.79	2805.72
237.01	2914.26
237.23	2985.94
237.45	2897.88
237.67	2727.89
237.88	3100.62
238.10	3336.14
238.32	2582.49
238.54	2623.45
238.76	2992.08
238.97	2820.05
239.19	2600.92
239.41	2746.33
239.63	3227.60
239.85	2822.10
240.06	2805.72
240.28	2637.78
240.50	3200.98
240.72	2932.69
240.93	2580.44
241.15	2779.09
241.37	2973.65
241.59	3209.17
241.81	2695.13
242.02	2727.89
242.24	3055.57
242.46	3078.10
242.68	2598.87
242.89	2650.07
243.11	3168.21
243.33	2916.31
243.55	2672.60
243.76	2697.17
243.98	2947.03
244.20	3014.61
244.42	2662.36
244.64	2684.89
244.85	2824.15
245.07	2844.63
245.29	2688.98
245.51	2742.23
245.72	2957.27
245.94	3147.73
246.16	2713.56
246.38	2752.47
246.59	2885.59
246.81	2873.30
247.03	2641.88
247.24	2521.05
247.46	2863.06
247.68	3039.19
247.90	2625.50
248.11	2744.28
248.33	3096.53
248.55	2975.70
248.77	2797.53
248.98	2789.33
249.20	3293.13
249.42	3012.56
249.64	2648.02
249.85	2686.94
250.07	2973.65
250.29	3121.10
250.50	2783.19
250.72	2662.36
250.94	3131.34
251.16	3280.85
251.37	2688.98
251.59	2744.28
251.81	3112.91
252.02	3215.31
252.24	2586.58
252.46	2813.91
252.68	2928.60
252.89	2822.10
253.11	2629.59
253.33	2854.87
253.54	3166.16
253.76	2750.42
253.98	2695.13
254.20	2650.07
254.41	2768.85
254.63	2877.40
254.85	2549.72
255.06	2787.29
255.28	3151.82
255.50	2920.40
255.71	2674.65
255.93	2482.14
256.15	2934.74
256.36	3133.39
256.58	2519.00
256.80	2639.83
257.02	2932.69
257.23	2863.06
257.45	2682.84
257.67	2832.34
257.88	2807.77
258.10	2987.99
258.32	2658.26
258.53	2779.09
258.75	3266.51
258.97	2936.79
259.18	2574.30
259.40	2635.74
259.62	3246.03
259.83	3205.07
260.05	2691.03
260.27	3499.98
260.48	3129.30
260.70	2811.86
260.92	2648.02
261.13	2787.29
261.35	2953.17
261.57	3053.52
261.78	2566.10
262.00	2652.12
262.22	3100.62
262.43	2877.40
262.65	2736.09
262.86	2711.51
263.08	3422.16
263.30	3039.19
263.51	2496.47
263.73	2631.64
263.95	3221.45
264.16	2832.34
264.38	2658.26
264.60	2613.21
264.81	2936.79
265.03	3188.69
265.25	3014.61
265.46	2570.20
265.68	3190.74
265.89	3112.91
266.11	2559.96
266.33	2576.34
266.54	3217.36
266.76	3033.04
266.98	2701.27
267.19	2830.29
267.41	3229.65
267.62	2897.88
267.84	2488.28
268.06	2772.95
268.27	2975.70
268.49	3153.87
268.70	2703.32
268.92	2680.79
269.14	2901.97
269.35	2764.76
269.57	2781.14
269.79	2766.81
270.00	2934.74
270.22	3284.94
270.43	2525.15
270.65	2574.30
270.87	3043.28
271.08	3035.09
271.30	2775.00
271.51	2652.12
271.73	3018.71
271.95	3213.26
272.16	2617.30
272.38	2760.66
272.59	2983.89
272.81	3045.33
273.02	2629.59
273.24	2725.85
273.46	3211.22
273.67	2754.52
273.89	2525.15
274.10	2633.69
274.32	3078.10
274.54	3065.81
274.75	2815.96
274.97	2740.18
275.18	3180.50
275.40	3106.77
275.61	2742.23
275.83	2879.44
276.05	2867.16
276.26	2985.94
276.48	2766.81
276.69	2891.73
276.91	2924.50
277.12	3196.88
277.34	2899.92
277.55	2899.92
277.77	3008.47
277.99	2998.23
278.20	2777.05
278.42	2695.13
278.63	2822.10
278.85	2797.53
279.06	2719.70
279.28	2809.81
279.49	3112.91
279.71	3076.05
279.93	2832.34
280.14	2813.91
280.36	2828.24
280.57	3063.76
280.79	2820.05
281.00	2736.09
281.22	2994.13
281.43	3231.69
281.65	2551.77
281.86	2731.99
282.08	3065.81
282.29	3282.89
282.51	2643.93
282.73	2660.31
282.94	2738.13
283.16	3084.24
283.37	2916.31
283.59	2801.62
283.80	3074.00
284.02	2904.02
284.23	2918.36
284.45	2815.96
284.66	2826.20
284.88	2807.77
285.09	2772.95
285.31	2904.02
285.52	3061.71
285.74	2658.26
285.95	3008.47
286.17	2815.96
286.38	3309.52
286.60	2848.72
286.81	2686.94
287.03	2719.70
287.24	3030.99
287.46	3147.73
287.67	2883.54
287.89	3006.42
288.10	2897.88
288.32	2983.89
288.53	2983.89
288.75	2861.01
288.96	3069.91
289.18	2904.02
289.39	2779.09
289.61	2869.20
289.82	3342.28
290.04	3377.10
290.25	2670.55
290.47	2869.20
290.68	2963.41
290.90	3114.96
291.11	2654.17
291.33	2975.70
291.54	2865.11
291.76	2846.68
291.97	2912.21
292.18	2848.72
292.40	2934.74
292.61	2865.11
292.83	3090.38
293.04	2852.82
293.26	2969.55
293.47	2994.13
293.69	2766.81
293.90	2742.23
294.12	3211.22
294.33	2981.84
294.55	2803.67
294.76	2983.89
294.97	3227.60
295.19	3352.52
295.40	2824.15
295.62	2930.64
295.83	3086.29
296.05	2824.15
296.26	2985.94
296.48	2805.72
296.69	3020.75
296.90	2910.16
297.12	2895.83
297.33	2979.79
297.55	2961.36
297.76	3133.39
297.98	2893.78
298.19	2920.40
298.41	3008.47
298.62	2852.82
298.83	3049.43
299.05	2811.86
299.26	2912.21
299.48	2820.05
299.69	2934.74
299.90	2842.58
300.12	2826.20
300.33	3076.05
300.55	2768.85
300.76	2852.82
300.98	2797.53
301.19	3057.62
301.40	2738.13
301.62	2713.56
301.83	3078.10
302.05	2985.94
302.26	2818.00
302.47	2850.77
302.69	2881.49
302.90	2996.18
303.12	2596.82
303.33	2908.12
303.54	3327.95
303.76	2844.63
303.97	2764.76
304.19	2987.99
304.40	2787.29
304.61	3049.43
304.83	2897.88
305.04	2901.97
305.26	3053.52
305.47	2893.78
305.68	2840.53
305.90	2709.46
306.11	3209.17
306.33	2912.21
306.54	2731.99
306.75	2801.62
306.97	2723.80
307.18	2789.33
307.39	2811.86
307.61	2914.26
307.82	2936.79
308.04	3041.23
308.25	2727.89
308.46	2904.02
308.68	2938.84
308.89	3008.47
309.10	2953.17
309.32	2871.25
309.53	2957.27
309.74	3127.25
309.96	2703.32
310.17	3041.23
310.39	2965.46
310.60	3114.96
310.81	2736.09
311.03	2754.52
311.24	3127.25
311.45	2951.12
311.67	3016.66
311.88	2815.96
312.09	2899.92
312.31	2775.00
312.52	2805.72
312.73	2762.71
312.95	2764.76
313.16	2830.29
313.37	2969.55
313.59	2904.02
313.80	3094.48
314.01	3268.56
314.23	2775.00
314.44	2742.23
314.65	2754.52
314.87	2856.92
315.08	2766.81
315.29	2869.20
315.51	2891.73
315.72	2809.81
315.93	2850.77
316.15	2908.12
316.36	2826.20
316.57	2983.89
316.79	2824.15
317.00	2697.17
317.21	3061.71
317.43	2801.62
317.64	2856.92
317.85	2725.85
318.07	2918.36
318.28	2985.94
318.49	2916.31
318.70	3018.71
318.92	3074.00
319.13	3047.38
319.34	2934.74
319.56	2809.81
319.77	3123.15
319.98	3041.23
320.20	2949.08
320.41	2973.65
320.62	3112.91
320.83	2793.43
321.05	3033.04
321.26	2906.07
321.47	3008.47
321.69	3186.64
321.90	2684.89
322.11	2803.67
322.32	2985.94
322.54	3254.22
322.75	2838.48
322.96	3526.60
323.18	2766.81
323.39	2754.52
323.60	2680.79
323.81	2801.62
324.03	2940.88
324.24	2942.93
324.45	2848.72
324.66	2803.67
324.88	3147.73
325.09	3205.07
325.30	2863.06
325.52	2721.75
325.73	3014.61
325.94	2867.16
326.15	2658.26
326.37	2740.18
326.58	3147.73
326.79	3286.99
327.00	2721.75
327.22	2789.33
327.43	2928.60
327.64	2818.00
327.85	2854.87
328.07	2832.34
328.28	3256.27
328.49	2840.53
328.70	2803.67
328.92	2779.09
329.13	2934.74
329.34	3092.43
329.55	3016.66
329.76	2955.22
329.98	2936.79
330.19	3102.67
330.40	2815.96
330.61	2914.26
330.83	3133.39
331.04	2844.63
331.25	2920.40
331.46	2830.29
331.68	2824.15
331.89	3250.13
332.10	2832.34
332.31	2637.78
332.52	2973.65
332.74	3231.69
332.95	2666.46
333.16	2799.57
333.37	3076.05
333.58	2861.01
333.80	2895.83
334.01	2629.59
334.22	2901.97
334.43	2871.25
334.64	2787.29
334.86	2688.98
335.07	2854.87
335.28	3243.98
335.49	2717.65
335.70	2858.96
335.92	3250.13
336.13	3340.24
336.34	2895.83
336.55	2809.81
336.76	3065.81
336.98	2686.94
337.19	2805.72
337.40	2930.64
337.61	3502.03
337.82	2942.93
338.04	2967.51
338.25	2699.22
338.46	2904.02
338.67	2942.93
338.88	2721.75
339.09	2699.22
339.31	2901.97
339.52	2772.95
339.73	2615.26
339.94	2838.48
340.15	3125.20
340.36	2875.35
340.58	2877.40
340.79	2805.72
341.00	3022.80
341.21	2811.86
341.42	3119.06
341.63	2756.57
341.85	3162.06
342.06	2936.79
342.27	2699.22
342.48	2914.26
342.69	2742.23
342.90	3012.56
343.12	3080.14
343.33	2725.85
343.54	3108.82
343.75	3200.98
343.96	2852.82
344.17	2670.55
344.38	2979.79
344.60	2789.33
344.81	2729.94
345.02	2828.24
345.23	3133.39
345.44	3377.10
345.65	2848.72
345.86	2879.44
346.07	3024.85
346.29	2863.06
346.50	2936.79
346.71	2861.01
346.92	3248.08
347.13	3332.05
347.34	2832.34
347.55	2656.22
347.76	3051.47
347.98	2824.15
348.19	2809.81
348.40	2985.94
348.61	2924.50
348.82	3268.56
349.03	2881.49
349.24	2707.41
349.45	3295.18
349.66	2648.02
349.88	2793.43
350.09	2729.94
350.30	3358.67
350.51	3145.68
350.72	2979.79
350.93	2922.45
351.14	2983.89
351.35	3039.19
351.56	2848.72
351.77	2856.92
351.99	3088.34
352.20	3368.91
352.41	2906.07
352.62	2627.54
352.83	2904.02
353.04	3006.42
353.25	2826.20
353.46	2795.48
353.67	3082.19
353.88	2598.87
354.09	2725.85
354.30	2895.83
354.52	3074.00
354.73	3035.09
354.94	2781.14
355.15	2906.07
355.36	3252.17
355.57	2854.87
355.78	2746.33
355.99	2781.14
356.20	2885.59
356.41	3215.31
356.62	2887.64
356.83	2865.11
357.04	3176.40
357.25	2762.71
357.46	2824.15
357.68	2668.50
357.89	2754.52
358.10	2932.69
358.31	2791.38
358.52	2842.58
358.73	2805.72
358.94	2809.81
359.15	2721.75
359.36	2914.26
359.57	3012.56
359.78	2955.22
359.99	2959.31
360.20	2678.74
360.41	2947.03
360.62	3190.74
360.83	2854.87
361.04	2836.44
361.25	3057.62
361.46	3313.61
361.67	2944.98
361.88	2828.24
362.09	3200.98
362.30	3033.04
362.51	2695.13
362.72	2883.54
362.93	3155.92
363.14	3117.01
363.35	2826.20
363.56	2772.95
363.78	3157.97
363.99	3117.01
364.20	2795.48
364.41	2838.48
364.62	3354.57
364.83	3098.58
365.04	2871.25
365.25	2770.90
365.46	3401.68
365.67	2811.86
365.88	2951.12
366.09	2787.29
366.30	2912.21
366.51	3039.19
366.72	2691.03
366.93	2744.28
367.14	2971.60
367.35	3164.11
367.56	2758.61
367.77	2924.50
367.98	2981.84
368.18	3010.51
368.39	2922.45
368.60	2797.53
368.81	3108.82
369.02	3082.19
369.23	2848.72
369.44	2641.88
369.65	2924.50
369.86	3061.71
370.07	3002.32
370.28	2725.85
370.49	3020.75
370.70	3108.82
370.91	2734.04
371.12	2693.08
371.33	3180.50
371.54	2922.45
371.75	2922.45
371.96	2531.29
372.17	3022.80
372.38	2891.73
372.59	2881.49
372.80	2744.28
373.01	3018.71
373.22	2971.60
373.43	2871.25
373.64	2631.64
373.85	3248.08
374.06	3215.31
374.26	2891.73
374.47	2934.74
374.68	3221.45
374.89	3037.14
375.10	2742.23
375.31	2861.01
375.52	3016.66
375.73	2912.21
375.94	2670.55
376.15	2979.79
376.36	2826.20
376.57	2955.22
376.78	2854.87
376.99	2848.72
377.20	3297.23
377.40	2955.22
377.61	3074.00
377.82	2840.53
378.03	3233.74
378.24	3114.96
378.45	2824.15
378.66	2863.06
378.87	2738.13
379.08	2856.92
379.29	2801.62
379.50	2971.60
379.71	2992.08
379.91	3196.88
380.12	2709.46
380.33	2869.20
380.54	2926.55
380.75	3049.43
380.96	2746.33
381.17	2926.55
381.38	2994.13
381.59	3057.62
381.80	2801.62
382.00	3020.75
382.21	3002.32
382.42	3239.89
382.63	3106.77
382.84	2881.49
383.05	3100.62
383.26	3166.16
383.47	2940.88
383.68	2838.48
383.88	3123.15
384.09	3043.28
384.30	3112.91
384.51	2912.21
384.72	2934.74
384.93	2736.09
385.14	2901.97
385.35	3061.71
385.55	2783.19
385.76	3151.82
385.97	2897.88
386.18	2713.56
386.39	2871.25
386.60	2858.96
386.81	2772.95
387.02	2699.22
387.22	2791.38
387.43	3221.45
387.64	2944.98
387.85	3061.71
388.06	3055.57
388.27	3991.49
388.48	7194.51
388.68	10585.95
388.89	13137.72
389.10	14217.00
389.31	13965.10
389.52	11040.60
389.73	9697.13
389.93	8802.17
390.14	7962.50
390.35	7278.48
390.56	6639.51
390.77	5705.64
390.98	4251.58
391.18	3604.42
391.39	3385.29
391.60	3024.85
391.81	3033.04
392.02	2842.58
392.23	3370.96
392.43	3012.56
392.64	2961.36
392.85	2881.49
393.06	3338.19
393.27	2940.88
393.47	2822.10
393.68	2922.45
393.89	2965.46
394.10	3188.69
394.31	2828.24
394.52	2791.38
394.72	2916.31
394.93	3276.75
395.14	2731.99
395.35	2938.84
395.56	2871.25
395.76	2940.88
395.97	2822.10
396.18	3033.04
396.39	3012.56
396.60	3581.90
396.80	3143.63
397.01	3051.47
397.22	3151.82
397.43	3131.34
397.64	2762.71
397.84	2858.96
398.05	3254.22
398.26	3008.47
398.47	2965.46
398.67	3033.04
398.88	3018.71
399.09	3205.07
399.30	2889.68
399.51	2924.50
399.71	2904.02
399.92	2942.93
400.13	2942.93
400.34	2863.06
400.54	3043.28
400.75	3188.69
400.96	3016.66
401.17	3157.97
401.37	3018.71
401.58	2987.99
401.79	2832.34
402.00	2942.93
402.21	3416.01
402.41	3127.25
402.62	3065.81
402.83	3160.02
403.04	3250.13
403.24	3772.36
403.45	2975.70
403.66	3145.68
403.87	3233.74
404.07	3332.05
404.28	3145.68
404.49	3104.72
404.70	3082.19
404.90	3071.95
405.11	2858.96
405.32	2963.41
405.52	2930.64
405.73	2887.64
405.94	2789.33
406.15	2842.58
406.35	3131.34
406.56	3117.01
406.77	2891.73
406.98	2834.39
407.18	2783.19
407.39	3248.08
407.60	2803.67
407.80	2904.02
408.01	2932.69
408.22	3094.48
408.43	2850.77
408.63	2922.45
408.84	3088.34
409.05	3184.59
409.25	2787.29
409.46	2844.63
409.67	2955.22
409.88	2844.63
410.08	2949.08
410.29	2858.96
410.50	3143.63
410.70	3149.78
410.91	2766.81
411.12	2889.68
411.32	2959.31
411.53	2820.05
411.74	2871.25
411.95	2957.27
412.15	2957.27
412.36	3147.73
412.57	2930.64
412.77	3008.47
412.98	3026.90
413.19	2883.54
413.39	2873.30
413.60	2811.86
413.81	3180.50
414.01	2760.66
414.22	2844.63
414.43	3008.47
414.63	2938.84
414.84	3221.45
415.05	2834.39
415.25	2672.60
415.46	3045.33
415.67	2879.44
415.87	2918.36
416.08	2783.19
416.29	2981.84
416.49	3043.28
416.70	2893.78
416.91	2799.57
417.11	3020.75
417.32	3139.54
417.53	2904.02
417.73	2881.49
417.94	2920.40
418.15	3033.04
418.35	2910.16
418.56	2789.33
418.77	3399.63
418.97	2967.51
419.18	2955.22
419.38	2596.82
419.59	3041.23
419.80	3250.13
420.00	2740.18
420.21	2883.54
420.42	3217.36
420.62	3004.37
420.83	2791.38
421.04	2828.24
421.24	2953.17
421.45	3127.25
421.65	2824.15
421.86	2822.10
422.07	3139.54
422.27	3026.90
422.48	2844.63
422.69	2703.32
422.89	2920.40
423.10	2893.78
423.30	2740.18
423.51	2944.98
423.72	3078.10
423.92	3170.26
424.13	2750.42
424.33	2873.30
424.54	3067.86
424.75	2959.31
424.95	3037.14
425.16	2807.77
425.36	2967.51
425.57	3117.01
425.78	2897.88
425.98	2955.22
426.19	2975.70
426.39	2834.39
426.60	2922.45
426.81	3049.43
427.01	3047.38
427.22	2779.09
427.42	2713.56
427.63	2746.33
427.83	3162.06
428.04	3313.61
428.25	2918.36
428.45	2971.60
428.66	3110.86
428.86	2928.60
429.07	2820.05
429.28	2904.02
429.48	2936.79
429.69	2926.55
429.89	2861.01
430.10	2781.14
430.30	3088.34
430.51	3137.49
430.71	2803.67
430.92	2828.24
431.13	2893.78
431.33	3098.58
431.54	2904.02
431.74	3108.82
431.95	3461.07
432.15	2750.42
432.36	2815.96
432.56	2959.31
432.77	3438.54
432.98	3280.85
433.18	2856.92
433.39	2748.37
433.59	2936.79
433.80	3321.81
434.00	3088.34
434.21	2838.48
434.41	2869.20
434.62	3321.81
434.82	2697.17
435.03	2760.66
435.23	3039.19
435.44	2756.57
435.64	2869.20
435.85	2854.87
436.06	3082.19
436.26	3235.79
436.47	2850.77
436.67	2789.33
436.88	2963.41
437.08	3162.06
437.29	3030.99
437.49	2863.06
437.70	3149.78
437.90	3004.37
438.11	3094.48
438.31	3024.85
438.52	3233.74
438.72	3209.17
438.93	3200.98
439.13	2953.17
439.34	3188.69
439.54	2897.88
439.75	2926.55
439.95	2926.55
440.16	2867.16
440.36	2955.22
440.57	2949.08
440.77	2844.63
440.98	2990.03
441.18	3024.85
441.39	2797.53
441.59	2723.80
441.80	3381.20
442.00	3026.90
442.21	3008.47
442.41	2688.98
442.62	3133.39
442.82	2799.57
443.02	2789.33
443.23	2889.68
443.43	2924.50
443.64	3182.54
443.84	2688.98
444.05	2977.75
444.25	3039.19
444.46	2899.92
444.66	2838.48
444.87	3123.15
445.07	2760.66
445.28	2947.03
445.48	3049.43
445.69	2996.18
445.89	3432.40
446.09	2934.74
446.30	3196.88
446.50	3186.64
446.71	4618.17
446.91	5728.17
447.12	6457.25
447.32	6944.66
447.53	6821.78
447.73	5638.06
447.93	4884.41
448.14	4661.18
448.34	4865.97
448.55	4016.07
448.75	3960.77
448.96	3784.65
449.16	3704.78
449.36	3581.90
449.57	3053.52
449.77	2863.06
449.98	2983.89
450.18	3024.85
450.39	2820.05
450.59	2979.79
450.79	2975.70
451.00	2897.88
451.20	3047.38
451.41	2803.67
451.61	3110.86
451.81	2844.63
452.02	2838.48
452.22	2850.77
452.43	2916.31
452.63	2811.86
