SpectraSuite Data File
++++++++++++++++++++++++++++++++++++
Date: Thu May 05 21:11:06 CEST 2016
User: root
Dark Spectrum Present: No
Reference Spectrum Present: No
Number of Sampled Component Spectra: 1
Spectrometers: USB4C02835
Integration Time (usec): 100000 (USB4C02835)
Spectra Averaged: 1 (USB4C02835)
Boxcar Smoothing: 0 (USB4C02835)
Correct for Electrical Dark: No (USB4C02835)
Strobe/Lamp Enabled: No (USB4C02835)
Correct for Detector Non-linearity: No (USB4C02835)
Correct for Stray Light: No (USB4C02835)
Number of Pixels in Processed Spectrum: 3648
>>>>>Begin Processed Spectral Data<<<<<
177.47	2162.66
177.69	2162.66
177.91	2162.66
178.13	2113.50
178.36	2156.51
178.58	2768.85
178.80	2879.44
179.02	2709.46
179.24	2760.66
179.46	2607.06
179.68	2676.70
179.90	2992.08
180.13	2996.18
180.35	2564.06
180.57	2676.70
180.79	3080.14
181.01	2961.36
181.23	2731.99
181.45	2756.57
181.67	3100.62
181.90	3145.68
182.12	2766.81
182.34	2471.90
182.56	3114.96
182.78	2998.23
183.00	2717.65
183.22	2705.37
183.44	2652.12
183.66	3495.88
183.89	2846.68
184.11	2703.32
184.33	3047.38
184.55	3166.16
184.77	2652.12
184.99	2678.74
185.21	2930.64
185.43	3397.58
185.65	2652.12
185.87	2650.07
186.10	3375.05
186.32	3377.10
186.54	2846.68
186.76	2787.29
186.98	3176.40
187.20	2947.03
187.42	2674.65
187.64	2566.10
187.86	3018.71
188.08	3153.87
188.30	2629.59
188.52	2748.37
188.75	3184.59
188.97	3151.82
189.19	2627.54
189.41	2617.30
189.63	3035.09
189.85	2947.03
190.07	2574.30
190.29	2570.20
190.51	3045.33
190.73	2729.94
190.95	2895.83
191.17	2705.37
191.39	2762.71
191.61	2885.59
191.84	2691.03
192.06	2772.95
192.28	2762.71
192.50	3475.40
192.72	2766.81
192.94	2766.81
193.16	3117.01
193.38	3018.71
193.60	2641.88
193.82	2826.20
194.04	3137.49
194.26	3117.01
194.48	2686.94
194.70	2713.56
194.92	2846.68
195.14	3055.57
195.36	2648.02
195.58	2731.99
195.80	2930.64
196.02	2936.79
196.24	2705.37
196.46	2779.09
196.69	2881.49
196.91	3405.77
197.13	2715.61
197.35	2756.57
197.57	3145.68
197.79	3117.01
198.01	2742.23
198.23	2748.37
198.45	3143.63
198.67	2846.68
198.89	2596.82
199.11	2813.91
199.33	2760.66
199.55	2600.92
199.77	2693.08
199.99	2805.72
200.21	2916.31
200.43	3074.00
200.65	2633.69
200.87	2508.76
201.09	2985.94
201.31	2944.98
201.53	2711.51
201.75	2807.77
201.97	3018.71
202.19	3084.24
202.41	2815.96
202.63	2893.78
202.85	3114.96
203.07	3018.71
203.29	2779.09
203.51	2625.50
203.73	2815.96
203.95	3483.59
204.17	2643.93
204.39	2830.29
204.61	2912.21
204.83	2901.97
205.05	2809.81
205.27	2746.33
205.49	3387.34
205.71	3002.32
205.93	2570.20
206.15	2615.26
206.37	3043.28
206.59	2891.73
206.81	2611.16
207.03	2529.24
207.25	2787.29
207.47	2985.94
207.69	2639.83
207.91	3002.32
208.13	3274.70
208.34	2936.79
208.56	2639.83
208.78	2705.37
209.00	2910.16
209.22	2861.01
209.44	2623.45
209.66	2693.08
209.88	3010.51
210.10	2944.98
210.32	2670.55
210.54	2781.14
210.76	2963.41
210.98	3207.12
211.20	2541.53
211.42	2836.44
211.64	3172.30
211.86	3053.52
212.08	2748.37
212.30	2752.47
212.52	2885.59
212.74	3092.43
212.96	2752.47
213.17	2785.24
213.39	3051.47
213.61	3227.60
213.83	2584.54
214.05	2551.77
214.27	3108.82
214.49	2772.95
214.71	2674.65
214.93	2740.18
215.15	2944.98
215.37	3114.96
215.59	2519.00
215.81	2684.89
216.03	3215.31
216.24	2990.03
216.46	2648.02
216.68	2670.55
216.90	3104.72
217.12	3141.58
217.34	2656.22
217.56	2822.10
217.78	3270.61
218.00	3035.09
218.22	2795.48
218.44	2742.23
218.66	2990.03
218.87	3344.33
219.09	2684.89
219.31	2723.80
219.53	3014.61
219.75	2934.74
219.97	2752.47
220.19	2641.88
220.41	3059.67
220.63	3256.27
220.85	2697.17
221.06	2729.94
221.28	3254.22
221.50	3090.38
221.72	2740.18
221.94	2664.41
222.16	2947.03
222.38	3205.07
222.60	2609.11
222.82	2772.95
223.03	3108.82
223.25	2746.33
223.47	2629.59
223.69	2934.74
223.91	3162.06
224.13	3065.81
224.35	2582.49
224.57	2856.92
224.78	3028.95
225.00	2858.96
225.22	2799.57
225.44	2656.22
225.66	3074.00
225.88	2901.97
226.10	2791.38
226.32	2752.47
226.53	3254.22
226.75	2906.07
226.97	2684.89
227.19	2723.80
227.41	2873.30
227.63	2875.35
227.85	2551.77
228.06	2707.41
228.28	2973.65
228.50	3166.16
228.72	2568.15
228.94	2582.49
229.16	2717.65
229.37	2842.58
229.59	2613.21
229.81	2922.45
230.03	2957.27
230.25	2711.51
230.47	2580.44
230.69	2654.17
230.90	3133.39
231.12	2795.48
231.34	2738.13
231.56	2781.14
231.78	2756.57
232.00	3037.14
232.21	2719.70
232.43	2789.33
232.65	2617.30
232.87	2934.74
233.09	2596.82
233.30	2629.59
233.52	3143.63
233.74	2916.31
233.96	2633.69
234.18	2883.54
234.40	3033.04
234.61	3379.15
234.83	2566.10
235.05	2643.93
235.27	3444.68
235.49	3239.89
235.70	2594.78
235.92	2783.19
236.14	3045.33
236.36	3389.39
236.58	2648.02
236.79	2744.28
237.01	3078.10
237.23	3004.37
237.45	2924.50
237.67	2770.90
237.88	3100.62
238.10	3334.09
238.32	2582.49
238.54	2580.44
238.76	2875.35
238.97	2809.81
239.19	2543.58
239.41	2797.53
239.63	3209.17
239.85	2906.07
240.06	2629.59
240.28	2674.65
240.50	3196.88
240.72	2922.45
240.93	2645.98
241.15	2852.82
241.37	3012.56
241.59	3188.69
241.81	2592.73
242.02	2775.00
242.24	3026.90
242.46	3098.58
242.68	2531.29
242.89	2652.12
243.11	3098.58
243.33	2947.03
243.55	2703.32
243.76	2660.31
243.98	2809.81
244.20	3037.14
244.42	2680.79
244.64	2680.79
244.85	2742.23
245.07	2889.68
245.29	2750.42
245.51	2713.56
245.72	3020.75
245.94	3225.55
246.16	2715.61
246.38	2721.75
246.59	2899.92
246.81	2865.11
247.03	2619.35
247.24	2582.49
247.46	2893.78
247.68	3065.81
247.90	2615.26
248.11	2631.64
248.33	3082.19
248.55	2994.13
248.77	2717.65
248.98	2760.66
249.20	3358.67
249.42	2998.23
249.64	2672.60
249.85	2621.40
250.07	2912.21
250.29	3141.58
250.50	2797.53
250.72	2570.20
250.94	3078.10
251.16	3286.99
251.37	2721.75
251.59	2756.57
251.81	3121.10
252.02	3192.78
252.24	2576.34
252.46	2762.71
252.68	2881.49
252.89	2787.29
253.11	2539.48
253.33	2879.44
253.54	3268.56
253.76	2740.18
253.98	2662.36
254.20	2650.07
254.41	2793.43
254.63	2973.65
254.85	2600.92
255.06	2807.77
255.28	3018.71
255.50	2959.31
255.71	2645.98
255.93	2553.82
256.15	2916.31
256.36	3055.57
256.58	2516.95
256.80	2645.98
257.02	2965.46
257.23	3000.27
257.45	2695.13
257.67	2844.63
257.88	2883.54
258.10	3059.67
258.32	2598.87
258.53	2809.81
258.75	3200.98
258.97	2848.72
259.18	2602.97
259.40	2664.41
259.62	3264.46
259.83	3260.37
260.05	2727.89
260.27	3426.25
260.48	3182.54
260.70	2858.96
260.92	2637.78
261.13	2674.65
261.35	3053.52
261.57	3053.52
261.78	2570.20
262.00	2609.11
262.22	3074.00
262.43	2842.58
262.65	2758.61
262.86	2742.23
263.08	3520.46
263.30	3006.42
263.51	2496.47
263.73	2594.78
263.95	3315.66
264.16	2889.68
264.38	2580.44
264.60	2590.68
264.81	2883.54
265.03	3190.74
265.25	3014.61
265.46	2617.30
265.68	3280.85
265.89	3096.53
266.11	2562.01
266.33	2623.45
266.54	3231.69
266.76	3094.48
266.98	2781.14
267.19	2856.92
267.41	3217.36
267.62	2897.88
267.84	2562.01
268.06	2725.85
268.27	3065.81
268.49	3155.92
268.70	2680.79
268.92	2723.80
269.14	2836.44
269.35	2752.47
269.57	2752.47
269.79	2721.75
270.00	2930.64
270.22	3350.48
270.43	2605.02
270.65	2543.58
270.87	3074.00
271.08	3110.86
271.30	2848.72
271.51	2721.75
271.73	3133.39
271.95	3313.61
272.16	2615.26
272.38	2766.81
272.59	2881.49
272.81	3076.05
273.02	2623.45
273.24	2717.65
273.46	3162.06
273.67	2820.05
273.89	2588.63
274.10	2615.26
274.32	3205.07
274.54	3035.09
274.75	2834.39
274.97	2770.90
275.18	3133.39
275.40	3041.23
275.61	2760.66
275.83	2893.78
276.05	2713.56
276.26	2961.36
276.48	2828.24
276.69	2789.33
276.91	2852.82
277.12	3217.36
277.34	2996.18
277.55	2996.18
277.77	2987.99
277.99	2883.54
278.20	2813.91
278.42	2645.98
278.63	2959.31
278.85	2805.72
279.06	2709.46
279.28	2887.64
279.49	3182.54
279.71	3157.97
279.93	2803.67
280.14	2891.73
280.36	2846.68
280.57	3112.91
280.79	2863.06
281.00	2734.04
281.22	2951.12
281.43	3176.40
281.65	2631.64
281.86	2740.18
282.08	3102.67
282.29	3381.20
282.51	2682.84
282.73	2650.07
282.94	2785.24
283.16	3119.06
283.37	2918.36
283.59	2705.37
283.80	3082.19
284.02	3016.66
284.23	2828.24
284.45	2797.53
284.66	2848.72
284.88	2807.77
285.09	2805.72
285.31	2836.44
285.52	3139.54
285.74	2670.55
285.95	2885.59
286.17	2858.96
286.38	3237.84
286.60	2807.77
286.81	2688.98
287.03	2805.72
287.24	2994.13
287.46	3004.37
287.67	2846.68
287.89	3045.33
288.10	2953.17
288.32	2963.41
288.53	2947.03
288.75	2850.77
288.96	3147.73
289.18	2850.77
289.39	2684.89
289.61	2879.44
289.82	3352.52
290.04	3336.14
290.25	2686.94
290.47	2869.20
290.68	2994.13
290.90	3131.34
291.11	2607.06
291.33	2897.88
291.54	2889.68
291.76	2854.87
291.97	2912.21
292.18	2904.02
292.40	2828.24
292.61	2877.40
292.83	3086.29
293.04	2768.85
293.26	3055.57
293.47	2949.08
293.69	2668.50
293.90	2697.17
294.12	3205.07
294.33	2942.93
294.55	2842.58
294.76	2934.74
294.97	3168.21
295.19	3395.53
295.40	2734.04
295.62	2891.73
295.83	3151.82
296.05	2901.97
296.26	2942.93
296.48	2799.57
296.69	2936.79
296.90	2994.13
297.12	2963.41
297.33	3006.42
297.55	2959.31
297.76	3069.91
297.98	2912.21
298.19	2928.60
298.41	2965.46
298.62	2760.66
298.83	3028.95
299.05	2949.08
299.26	2914.26
299.48	2822.10
299.69	2918.36
299.90	2875.35
300.12	2861.01
300.33	3100.62
300.55	2844.63
300.76	2854.87
300.98	2836.44
301.19	3086.29
301.40	2856.92
301.62	2809.81
301.83	3045.33
302.05	2957.27
302.26	2809.81
302.47	2959.31
302.69	2779.09
302.90	2951.12
303.12	2547.67
303.33	2844.63
303.54	3270.61
303.76	2856.92
303.97	2772.95
304.19	3043.28
304.40	2856.92
304.61	3053.52
304.83	2912.21
305.04	2869.20
305.26	3129.30
305.47	2875.35
305.68	2815.96
305.90	2699.22
306.11	3209.17
306.33	2961.36
306.54	2643.93
306.75	2738.13
306.97	2727.89
307.18	2912.21
307.39	2760.66
307.61	2852.82
307.82	2906.07
308.04	3026.90
308.25	2617.30
308.46	2932.69
308.68	3020.75
308.89	2983.89
309.10	2891.73
309.32	2838.48
309.53	2992.08
309.74	3035.09
309.96	2760.66
310.17	2990.03
310.39	2867.16
310.60	3008.47
310.81	2770.90
311.03	2678.74
311.24	3106.77
311.45	2901.97
311.67	3022.80
311.88	2928.60
312.09	2916.31
312.31	2854.87
312.52	2731.99
312.73	2748.37
312.95	2695.13
313.16	2820.05
313.37	2990.03
313.59	2981.84
313.80	3211.22
314.01	3184.59
314.23	2811.86
314.44	2715.61
314.65	2752.47
314.87	2875.35
315.08	2789.33
315.29	2791.38
315.51	2861.01
315.72	2777.05
315.93	2897.88
316.15	2770.90
316.36	2932.69
316.57	2942.93
316.79	2705.37
317.00	2772.95
317.21	3076.05
317.43	2897.88
317.64	2842.58
317.85	2768.85
318.07	2881.49
318.28	2936.79
318.49	2926.55
318.70	2973.65
318.92	2969.55
319.13	3012.56
319.34	2951.12
319.56	2861.01
319.77	3045.33
319.98	3112.91
320.20	3049.43
320.41	2879.44
320.62	3160.02
320.83	2760.66
321.05	3018.71
321.26	2813.91
321.47	2922.45
321.69	3196.88
321.90	2779.09
322.11	2645.98
322.32	2981.84
322.54	3297.23
322.75	2875.35
322.96	3565.51
323.18	2764.76
323.39	2676.70
323.60	2738.13
323.81	2904.02
324.03	2873.30
324.24	2910.16
324.45	2910.16
324.66	2791.38
324.88	3131.34
325.09	3211.22
325.30	2764.76
325.52	2688.98
325.73	3053.52
325.94	2883.54
326.15	2736.09
326.37	2680.79
326.58	3166.16
326.79	3311.57
327.00	2648.02
327.22	2754.52
327.43	2938.84
327.64	2834.39
327.85	2914.26
328.07	2699.22
328.28	3217.36
328.49	2916.31
328.70	2785.24
328.92	2828.24
329.13	2889.68
329.34	3131.34
329.55	3119.06
329.76	2901.97
329.98	2963.41
330.19	3207.12
330.40	2850.77
330.61	2867.16
330.83	3117.01
331.04	2772.95
331.25	2854.87
331.46	2850.77
331.68	2811.86
331.89	3221.45
332.10	2863.06
332.31	2713.56
332.52	2899.92
332.74	3207.12
332.95	2615.26
333.16	2797.53
333.37	3114.96
333.58	2861.01
333.80	2883.54
334.01	2664.41
334.22	2863.06
334.43	2906.07
334.64	2707.41
334.86	2738.13
335.07	2795.48
335.28	3243.98
335.49	2742.23
335.70	2924.50
335.92	3319.76
336.13	3407.82
336.34	2881.49
336.55	2721.75
336.76	2998.23
336.98	2688.98
337.19	2848.72
337.40	2916.31
337.61	3495.88
337.82	2914.26
338.04	2887.64
338.25	2615.26
338.46	2867.16
338.67	2887.64
338.88	2725.85
339.09	2738.13
339.31	2922.45
339.52	2844.63
339.73	2775.00
339.94	2807.77
340.15	3182.54
340.36	2910.16
340.58	2826.20
340.79	2717.65
341.00	3090.38
341.21	2707.41
341.42	3045.33
341.63	2877.40
341.85	3141.58
342.06	3020.75
342.27	2701.27
342.48	2926.55
342.69	2787.29
342.90	3016.66
343.12	3076.05
343.33	2731.99
343.54	3145.68
343.75	3133.39
343.96	2869.20
344.17	2795.48
344.38	3022.80
344.60	2846.68
344.81	2734.04
345.02	2809.81
345.23	3254.22
345.44	3344.33
345.65	2858.96
345.86	2838.48
346.07	2973.65
346.29	2889.68
346.50	2985.94
346.71	2865.11
346.92	3229.65
347.13	3393.48
347.34	2987.99
347.55	2721.75
347.76	3112.91
347.98	2744.28
348.19	2858.96
348.40	2944.98
348.61	2934.74
348.82	3157.97
349.03	2908.12
349.24	2705.37
349.45	3286.99
349.66	2648.02
349.88	2734.04
350.09	2738.13
350.30	3168.21
350.51	3221.45
350.72	2987.99
350.93	2764.76
351.14	2922.45
351.35	2955.22
351.56	2861.01
351.77	2889.68
351.99	3143.63
352.20	3235.79
352.41	2940.88
352.62	2674.65
352.83	2936.79
353.04	3016.66
353.25	2856.92
353.46	2879.44
353.67	3194.83
353.88	2645.98
354.09	2799.57
354.30	2926.55
354.52	3094.48
354.73	2985.94
354.94	2789.33
355.15	2889.68
355.36	3348.43
355.57	2912.21
355.78	2738.13
355.99	2707.41
356.20	3020.75
356.41	3258.32
356.62	2854.87
356.83	2803.67
357.04	3276.75
357.25	2756.57
357.46	2762.71
357.68	2746.33
357.89	2795.48
358.10	3026.90
358.31	2783.19
358.52	2779.09
358.73	2850.77
358.94	2846.68
359.15	2768.85
359.36	2824.15
359.57	2930.64
359.78	3008.47
359.99	2987.99
360.20	2695.13
360.41	2856.92
360.62	3094.48
360.83	2830.29
361.04	2840.53
361.25	3074.00
361.46	3256.27
361.67	2838.48
361.88	2777.05
362.09	3121.10
362.30	2949.08
362.51	2809.81
362.72	2883.54
362.93	3213.26
363.14	3012.56
363.35	2871.25
363.56	2656.22
363.78	3143.63
363.99	3106.77
364.20	2783.19
364.41	2805.72
364.62	3307.47
364.83	3002.32
365.04	2770.90
365.25	2848.72
365.46	3446.73
365.67	2836.44
365.88	2822.10
366.09	2781.14
366.30	2867.16
366.51	3014.61
366.72	2672.60
366.93	2793.43
367.14	3059.67
367.35	3164.11
367.56	2799.57
367.77	3018.71
367.98	3004.37
368.18	3065.81
368.39	2885.59
368.60	2731.99
368.81	3088.34
369.02	2961.36
369.23	2815.96
369.44	2580.44
369.65	2938.84
369.86	3012.56
370.07	2838.48
370.28	2713.56
370.49	3000.27
370.70	3012.56
370.91	2660.31
371.12	2709.46
371.33	3246.03
371.54	2867.16
371.75	2924.50
371.96	2594.78
372.17	3026.90
372.38	2973.65
372.59	2822.10
372.80	2756.57
373.01	2893.78
373.22	2969.55
373.43	2762.71
373.64	2645.98
373.85	3266.51
374.06	3219.41
374.26	2994.13
374.47	2807.77
374.68	3229.65
374.89	3039.19
375.10	2783.19
375.31	2865.11
375.52	2955.22
375.73	3014.61
375.94	2701.27
376.15	2865.11
376.36	2863.06
376.57	2844.63
376.78	2856.92
376.99	2848.72
377.20	3157.97
377.40	3012.56
377.61	3004.37
377.82	2785.24
378.03	3276.75
378.24	3155.92
378.45	2891.73
378.66	2820.05
378.87	2629.59
379.08	2807.77
379.29	2701.27
379.50	2947.03
379.71	3059.67
379.91	3166.16
380.12	2828.24
380.33	2869.20
380.54	2959.31
380.75	2996.18
380.96	2801.62
381.17	2901.97
381.38	2938.84
381.59	3035.09
381.80	2873.30
382.00	3030.99
382.21	3008.47
382.42	3282.89
382.63	3106.77
382.84	2977.75
383.05	3223.50
383.26	3233.74
383.47	2885.59
383.68	2818.00
383.88	3082.19
384.09	3026.90
384.30	3080.14
384.51	2858.96
384.72	2850.77
384.93	2781.14
385.14	2908.12
385.35	3020.75
385.55	2758.61
385.76	3209.17
385.97	2826.20
386.18	2654.17
386.39	2863.06
386.60	2977.75
386.81	2795.48
387.02	2768.85
387.22	2766.81
387.43	3160.02
387.64	2848.72
387.85	3049.43
388.06	2979.79
388.27	4018.11
388.48	7309.20
388.68	10645.34
388.89	13412.15
389.10	14434.08
389.31	13924.14
389.52	11491.15
389.73	9844.59
389.93	8802.17
390.14	7948.17
390.35	7262.10
390.56	6764.44
390.77	5572.52
390.98	4333.50
391.18	3606.47
391.39	3456.97
391.60	2973.65
391.81	3078.10
392.02	2803.67
392.23	3405.77
392.43	2955.22
392.64	2918.36
392.85	2953.17
393.06	3295.18
393.27	2987.99
393.47	2783.19
393.68	2887.64
393.89	2932.69
394.10	3196.88
394.31	2762.71
394.52	2775.00
394.72	2848.72
394.93	3168.21
395.14	2691.03
395.35	2910.16
395.56	2887.64
395.76	3033.04
395.97	2904.02
396.18	2977.75
396.39	2977.75
396.60	3569.61
396.80	3096.53
397.01	2975.70
397.22	3145.68
397.43	3076.05
397.64	2779.09
397.84	2916.31
398.05	3301.33
398.26	2947.03
398.47	2930.64
398.67	3067.86
398.88	2901.97
399.09	3119.06
399.30	2740.18
399.51	2930.64
399.71	2914.26
399.92	2957.27
400.13	2928.60
400.34	2871.25
400.54	3014.61
400.75	3325.90
400.96	2961.36
401.17	3139.54
401.37	3006.42
401.58	2981.84
401.79	2754.52
402.00	2971.60
402.21	3489.74
402.41	3233.74
402.62	3061.71
402.83	3162.06
403.04	3450.83
403.24	3762.12
403.45	2846.68
403.66	3080.14
403.87	3182.54
404.07	3344.33
404.28	3030.99
404.49	3117.01
404.70	3039.19
404.90	3018.71
405.11	2824.15
405.32	2932.69
405.52	2828.24
405.73	2885.59
405.94	2758.61
406.15	2901.97
406.35	3119.06
406.56	3149.78
406.77	2885.59
406.98	2828.24
407.18	2826.20
407.39	3192.78
407.60	2836.44
407.80	2938.84
408.01	2887.64
408.22	2979.79
408.43	2719.70
408.63	2828.24
408.84	3080.14
409.05	3110.86
409.25	2842.58
409.46	2887.64
409.67	2942.93
409.88	2920.40
410.08	2867.16
410.29	2805.72
410.50	3114.96
410.70	3045.33
410.91	2748.37
411.12	2916.31
411.32	2971.60
411.53	2818.00
411.74	2877.40
411.95	2928.60
412.15	3004.37
412.36	3065.81
412.57	2961.36
412.77	3057.62
412.98	2987.99
413.19	2889.68
413.39	2865.11
413.60	2875.35
413.81	3291.09
414.01	2838.48
414.22	2799.57
414.43	2998.23
414.63	2901.97
414.84	3067.86
415.05	2865.11
415.25	2715.61
415.46	3102.67
415.67	2858.96
415.87	2901.97
416.08	2836.44
416.29	2975.70
416.49	2969.55
416.70	2938.84
416.91	2809.81
417.11	2893.78
417.32	3182.54
417.53	2893.78
417.73	2938.84
417.94	3002.32
418.15	3055.57
418.35	2942.93
418.56	2799.57
418.77	3461.07
418.97	3063.76
419.18	2856.92
419.38	2576.34
419.59	2912.21
419.80	3119.06
420.00	2752.47
420.21	2867.16
420.42	3194.83
420.62	3092.43
420.83	2854.87
421.04	2811.86
421.24	2990.03
421.45	3112.91
421.65	2764.76
421.86	2820.05
422.07	3127.25
422.27	3051.47
422.48	2865.11
422.69	2703.32
422.89	2922.45
423.10	2873.30
423.30	2818.00
423.51	2944.98
423.72	3049.43
423.92	3131.34
424.13	2709.46
424.33	2865.11
424.54	3147.73
424.75	2944.98
424.95	3100.62
425.16	2805.72
425.36	2928.60
425.57	3123.15
425.78	2957.27
425.98	3010.51
426.19	2932.69
426.39	2861.01
426.60	2844.63
426.81	2994.13
427.01	3041.23
427.22	2852.82
427.42	2670.55
427.63	2795.48
427.83	3162.06
428.04	3260.37
428.25	2971.60
428.45	2940.88
428.66	3219.41
428.86	2934.74
429.07	2944.98
429.28	2861.01
429.48	3035.09
429.69	2852.82
429.89	2854.87
430.10	2748.37
430.30	3102.67
430.51	3176.40
430.71	2740.18
430.92	2861.01
431.13	2973.65
431.33	3059.67
431.54	2852.82
431.74	3033.04
431.95	3348.43
432.15	2762.71
432.36	2928.60
432.56	2930.64
432.77	3272.65
432.98	3323.85
433.18	2883.54
433.39	2754.52
433.59	2926.55
433.80	3295.18
434.00	2990.03
434.21	2904.02
434.41	2883.54
434.62	3389.39
434.82	2738.13
435.03	2707.41
435.23	3035.09
435.44	2736.09
435.64	2844.63
435.85	2844.63
436.06	3088.34
436.26	3129.30
436.47	2891.73
436.67	2795.48
436.88	2916.31
437.08	3219.41
437.29	2996.18
437.49	2887.64
437.70	3172.30
437.90	2887.64
438.11	2977.75
438.31	2856.92
438.52	3170.26
438.72	3299.28
438.93	3160.02
439.13	2912.21
439.34	3237.84
439.54	2840.53
439.75	2938.84
439.95	2899.92
440.16	2822.10
440.36	2957.27
440.57	2910.16
440.77	2803.67
440.98	3008.47
441.18	3088.34
441.39	2740.18
441.59	2731.99
441.80	3295.18
442.00	3086.29
442.21	2934.74
442.41	2680.79
442.62	3112.91
442.82	2942.93
443.02	2797.53
443.23	2889.68
443.43	2934.74
443.64	3182.54
443.84	2772.95
444.05	2877.40
444.25	3008.47
444.46	2973.65
444.66	2820.05
444.87	3057.62
445.07	2693.08
445.28	3000.27
445.48	2983.89
445.69	2906.07
445.89	3487.69
446.09	2987.99
446.30	3198.93
446.50	3307.47
446.71	4685.75
446.91	5685.16
447.12	6399.90
447.32	6967.19
447.53	6823.83
447.73	5689.26
447.93	4997.04
448.14	4745.14
448.34	4761.53
448.55	4108.23
448.75	3889.09
448.96	3749.83
449.16	3672.01
449.36	3592.14
449.57	3082.19
449.77	2940.88
449.98	2908.12
450.18	3084.24
450.39	2858.96
450.59	3059.67
450.79	3008.47
451.00	2842.58
451.20	3012.56
451.41	2840.53
451.61	3014.61
451.81	2959.31
452.02	2791.38
452.22	2877.40
452.43	2910.16
452.63	2881.49
