SpectraSuite Data File
++++++++++++++++++++++++++++++++++++
Date: Thu May 05 21:11:00 CEST 2016
User: root
Dark Spectrum Present: No
Reference Spectrum Present: No
Number of Sampled Component Spectra: 1
Spectrometers: USB4C02835
Integration Time (usec): 100000 (USB4C02835)
Spectra Averaged: 1 (USB4C02835)
Boxcar Smoothing: 0 (USB4C02835)
Correct for Electrical Dark: No (USB4C02835)
Strobe/Lamp Enabled: No (USB4C02835)
Correct for Detector Non-linearity: No (USB4C02835)
Correct for Stray Light: No (USB4C02835)
Number of Pixels in Processed Spectrum: 3648
>>>>>Begin Processed Spectral Data<<<<<
177.47	2193.37
177.69	2193.37
177.91	2193.37
178.13	2131.94
178.36	2133.98
178.58	2676.70
178.80	2944.98
179.02	2832.34
179.24	2815.96
179.46	2635.74
179.68	2752.47
179.90	2979.79
180.13	2944.98
180.35	2422.75
180.57	2629.59
180.79	3051.47
181.01	2979.79
181.23	2734.04
181.45	2813.91
181.67	3030.99
181.90	3117.01
182.12	2729.94
182.34	2551.77
182.56	3127.25
182.78	3026.90
183.00	2637.78
183.22	2748.37
183.44	2668.50
183.66	3479.50
183.89	2811.86
184.11	2701.27
184.33	3016.66
184.55	3215.31
184.77	2719.70
184.99	2672.60
185.21	2889.68
185.43	3553.23
185.65	2705.37
185.87	2635.74
186.10	3393.48
186.32	3336.14
186.54	2797.53
186.76	2818.00
186.98	3164.11
187.20	2951.12
187.42	2772.95
187.64	2652.12
187.86	3065.81
188.08	3123.15
188.30	2557.91
188.52	2695.13
188.75	3237.84
188.97	3260.37
189.19	2592.73
189.41	2676.70
189.63	3110.86
189.85	2881.49
190.07	2590.68
190.29	2486.23
190.51	3063.76
190.73	2740.18
190.95	2893.78
191.17	2723.80
191.39	2715.61
191.61	2928.60
191.84	2656.22
192.06	2785.24
192.28	2768.85
192.50	3481.55
192.72	2781.14
192.94	2785.24
193.16	3223.50
193.38	3059.67
193.60	2619.35
193.82	2836.44
194.04	3114.96
194.26	3024.85
194.48	2658.26
194.70	2711.51
194.92	2975.70
195.14	3192.78
195.36	2639.83
195.58	2791.38
195.80	2910.16
196.02	2887.64
196.24	2559.96
196.46	2731.99
196.69	2922.45
196.91	3467.21
197.13	2752.47
197.35	2693.08
197.57	3213.26
197.79	3110.86
198.01	2818.00
198.23	2654.17
198.45	3133.39
198.67	2785.24
198.89	2547.67
199.11	2766.81
199.33	2848.72
199.55	2652.12
199.77	2637.78
199.99	2734.04
200.21	2858.96
200.43	3061.71
200.65	2645.98
200.87	2545.63
201.09	2975.70
201.31	2906.07
201.53	2650.07
201.75	2840.53
201.97	3092.43
202.19	3047.38
202.41	2807.77
202.63	2838.48
202.85	3100.62
203.07	3053.52
203.29	2791.38
203.51	2596.82
203.73	2809.81
203.95	3526.60
204.17	2705.37
204.39	2766.81
204.61	2908.12
204.83	2826.20
205.05	2848.72
205.27	2656.22
205.49	3397.58
205.71	2932.69
205.93	2602.97
206.15	2582.49
206.37	2975.70
206.59	2955.22
206.81	2541.53
207.03	2527.19
207.25	2844.63
207.47	3174.35
207.69	2676.70
207.91	2861.01
208.13	3231.69
208.34	2883.54
208.56	2631.64
208.78	2721.75
209.00	2979.79
209.22	2926.55
209.44	2758.61
209.66	2602.97
209.88	3071.95
210.10	2930.64
210.32	2664.41
210.54	2830.29
210.76	3049.43
210.98	3196.88
211.20	2531.29
211.42	2697.17
211.64	3262.41
211.86	3084.24
212.08	2768.85
212.30	2678.74
212.52	2867.16
212.74	3039.19
212.96	2840.53
213.17	2783.19
213.39	3155.92
213.61	3264.46
213.83	2674.65
214.05	2592.73
214.27	3286.99
214.49	2779.09
214.71	2543.58
214.93	2760.66
215.15	2981.84
215.37	3147.73
215.59	2582.49
215.81	2770.90
216.03	3260.37
216.24	2990.03
216.46	2719.70
216.68	2707.41
216.90	3020.75
217.12	3166.16
217.34	2658.26
217.56	2822.10
217.78	3207.12
218.00	3053.52
218.22	2764.76
218.44	2748.37
218.66	2944.98
218.87	3330.00
219.09	2779.09
219.31	2701.27
219.53	3061.71
219.75	2930.64
219.97	2727.89
220.19	2719.70
220.41	2977.75
220.63	3340.24
220.85	2670.55
221.06	2645.98
221.28	3164.11
221.50	3033.04
221.72	2654.17
221.94	2641.88
222.16	3049.43
222.38	3094.48
222.60	2715.61
222.82	2705.37
223.03	3162.06
223.25	2820.05
223.47	2688.98
223.69	2828.24
223.91	3196.88
224.13	3041.23
224.35	2613.21
224.57	2844.63
224.78	3157.97
225.00	2871.25
225.22	2811.86
225.44	2623.45
225.66	3121.10
225.88	2897.88
226.10	2770.90
226.32	2715.61
226.53	3243.98
226.75	2889.68
226.97	2684.89
227.19	2682.84
227.41	2797.53
227.63	2947.03
227.85	2508.76
228.06	2705.37
228.28	3102.67
228.50	3170.26
228.72	2588.63
228.94	2676.70
229.16	2676.70
229.37	2787.29
229.59	2678.74
229.81	2885.59
230.03	2942.93
230.25	2754.52
230.47	2590.68
230.69	2592.73
230.90	3063.76
231.12	2863.06
231.34	2777.05
231.56	2793.43
231.78	2824.15
232.00	3004.37
232.21	2693.08
232.43	2727.89
232.65	2609.11
232.87	3067.86
233.09	2525.15
233.30	2617.30
233.52	3196.88
233.74	3022.80
233.96	2717.65
234.18	2850.77
234.40	3018.71
234.61	3338.19
234.83	2623.45
235.05	2648.02
235.27	3430.35
235.49	3174.35
235.70	2576.34
235.92	2688.98
236.14	3055.57
236.36	3446.73
236.58	2627.54
236.79	2822.10
237.01	3000.27
237.23	3022.80
237.45	2861.01
237.67	2691.03
237.88	3069.91
238.10	3319.76
238.32	2574.30
238.54	2590.68
238.76	2947.03
238.97	2809.81
239.19	2631.64
239.41	2727.89
239.63	3141.58
239.85	2891.73
240.06	2721.75
240.28	2648.02
240.50	3151.82
240.72	2971.60
240.93	2559.96
241.15	2848.72
241.37	2996.18
241.59	3186.64
241.81	2697.17
242.02	2766.81
242.24	3074.00
242.46	3213.26
242.68	2582.49
242.89	2643.93
243.11	3106.77
243.33	2961.36
243.55	2731.99
243.76	2695.13
243.98	2869.20
244.20	3076.05
244.42	2594.78
244.64	2680.79
244.85	2762.71
245.07	2742.23
245.29	2703.32
245.51	2750.42
245.72	3063.76
245.94	3231.69
246.16	2629.59
246.38	2772.95
246.59	2899.92
246.81	2932.69
247.03	2574.30
247.24	2568.15
247.46	2850.77
247.68	3049.43
247.90	2652.12
248.11	2676.70
248.33	3076.05
248.55	2965.46
248.77	2641.88
248.98	2764.76
249.20	3184.59
249.42	3043.28
249.64	2666.46
249.85	2688.98
250.07	2836.44
250.29	3194.83
250.50	2791.38
250.72	2617.30
250.94	3080.14
251.16	3381.20
251.37	2629.59
251.59	2719.70
251.81	3055.57
252.02	3274.70
252.24	2596.82
252.46	2904.02
252.68	2852.82
252.89	2803.67
253.11	2562.01
253.33	2822.10
253.54	3282.89
253.76	2781.14
253.98	2734.04
254.20	2633.69
254.41	2779.09
254.63	2975.70
254.85	2529.24
255.06	2815.96
255.28	3065.81
255.50	2861.01
255.71	2688.98
255.93	2557.91
256.15	2985.94
256.36	3080.14
256.58	2531.29
256.80	2727.89
257.02	2944.98
257.23	2885.59
257.45	2645.98
257.67	2844.63
257.88	2985.94
258.10	3059.67
258.32	2695.13
258.53	2744.28
258.75	3213.26
258.97	2889.68
259.18	2635.74
259.40	2635.74
259.62	3307.47
259.83	3246.03
260.05	2719.70
260.27	3506.12
260.48	3086.29
260.70	2779.09
260.92	2500.57
261.13	2781.14
261.35	3082.19
261.57	3117.01
261.78	2537.43
262.00	2637.78
262.22	3082.19
262.43	2824.15
262.65	2729.94
262.86	2756.57
263.08	3422.16
263.30	3022.80
263.51	2576.34
263.73	2633.69
263.95	3162.06
264.16	2865.11
264.38	2621.40
264.60	2629.59
264.81	2920.40
265.03	3131.34
265.25	3057.62
265.46	2629.59
265.68	3170.26
265.89	2990.03
266.11	2635.74
266.33	2660.31
266.54	3108.82
266.76	3051.47
266.98	2770.90
267.19	2834.39
267.41	3186.64
267.62	3014.61
267.84	2504.67
268.06	2805.72
268.27	2904.02
268.49	3211.22
268.70	2801.62
268.92	2697.17
269.14	2846.68
269.35	2695.13
269.57	2787.29
269.79	2691.03
270.00	2832.34
270.22	3200.98
270.43	2465.75
270.65	2598.87
270.87	3059.67
271.08	3104.72
271.30	2748.37
271.51	2744.28
271.73	3125.20
271.95	3168.21
272.16	2588.63
272.38	2764.76
272.59	2967.51
272.81	3069.91
273.02	2617.30
273.24	2768.85
273.46	3196.88
273.67	2789.33
273.89	2592.73
274.10	2588.63
274.32	3117.01
274.54	3090.38
274.75	2758.61
274.97	2746.33
275.18	3100.62
275.40	3125.20
275.61	2748.37
275.83	2858.96
276.05	2789.33
276.26	2994.13
276.48	2705.37
276.69	2791.38
276.91	2840.53
277.12	3233.74
277.34	2863.06
277.55	2881.49
277.77	3039.19
277.99	2828.24
278.20	2760.66
278.42	2611.16
278.63	2815.96
278.85	2887.64
279.06	2742.23
279.28	2887.64
279.49	3131.34
279.71	3151.82
279.93	2799.57
280.14	2873.30
280.36	2897.88
280.57	3114.96
280.79	2846.68
281.00	2754.52
281.22	2871.25
281.43	3170.26
281.65	2594.78
281.86	2777.05
282.08	3104.72
282.29	3303.37
282.51	2643.93
282.73	2731.99
282.94	2678.74
283.16	3117.01
283.37	2949.08
283.59	2846.68
283.80	3129.30
284.02	2975.70
284.23	2822.10
284.45	2797.53
284.66	2818.00
284.88	2830.29
285.09	2805.72
285.31	2863.06
285.52	3047.38
285.74	2721.75
285.95	2887.64
286.17	2752.47
286.38	3196.88
286.60	2885.59
286.81	2723.80
287.03	2789.33
287.24	2916.31
287.46	3088.34
287.67	2928.60
287.89	3002.32
288.10	2953.17
288.32	2998.23
288.53	2987.99
288.75	2861.01
288.96	3129.30
289.18	2875.35
289.39	2768.85
289.61	2901.97
289.82	3352.52
290.04	3377.10
290.25	2691.03
290.47	2830.29
290.68	2926.55
290.90	3141.58
291.11	2652.12
291.33	2963.41
291.54	2815.96
291.76	2922.45
291.97	2955.22
292.18	2934.74
292.40	2951.12
292.61	2953.17
292.83	2998.23
293.04	2836.44
293.26	3090.38
293.47	3035.09
293.69	2809.81
293.90	2697.17
294.12	3221.45
294.33	2938.84
294.55	2832.34
294.76	2916.31
294.97	3260.37
295.19	3270.61
295.40	2742.23
295.62	2873.30
295.83	3143.63
296.05	2844.63
296.26	2924.50
296.48	2826.20
296.69	2897.88
296.90	2973.65
297.12	2893.78
297.33	2973.65
297.55	2971.60
297.76	3086.29
297.98	2867.16
298.19	2838.48
298.41	3002.32
298.62	2830.29
298.83	2963.41
299.05	2795.48
299.26	2930.64
299.48	2867.16
299.69	2901.97
299.90	2727.89
300.12	2861.01
300.33	3104.72
300.55	2883.54
300.76	2922.45
300.98	2770.90
301.19	3082.19
301.40	2721.75
301.62	2766.81
301.83	3069.91
302.05	2965.46
302.26	2799.57
302.47	2887.64
302.69	2867.16
302.90	3071.95
303.12	2670.55
303.33	2932.69
303.54	3205.07
303.76	3000.27
303.97	2799.57
304.19	3002.32
304.40	2840.53
304.61	3024.85
304.83	2926.55
305.04	2944.98
305.26	3160.02
305.47	2889.68
305.68	2842.58
305.90	2660.31
306.11	3166.16
306.33	2873.30
306.54	2707.41
306.75	2744.28
306.97	2693.08
307.18	2768.85
307.39	2822.10
307.61	2863.06
307.82	2977.75
308.04	3129.30
308.25	2662.36
308.46	2879.44
308.68	3000.27
308.89	2987.99
309.10	2906.07
309.32	2944.98
309.53	2973.65
309.74	3061.71
309.96	2760.66
310.17	2916.31
310.39	2867.16
310.60	3114.96
310.81	2826.20
311.03	2637.78
311.24	3129.30
311.45	2928.60
311.67	3008.47
311.88	2871.25
312.09	2908.12
312.31	2904.02
312.52	2693.08
312.73	2764.76
312.95	2717.65
313.16	2838.48
313.37	2977.75
313.59	2959.31
313.80	3192.78
314.01	3209.17
314.23	2807.77
314.44	2781.14
314.65	2758.61
314.87	2844.63
315.08	2793.43
315.29	2850.77
315.51	2824.15
315.72	2701.27
315.93	2840.53
316.15	2910.16
316.36	2895.83
316.57	3000.27
316.79	2834.39
317.00	2709.46
317.21	3168.21
317.43	2930.64
317.64	2912.21
317.85	2713.56
318.07	2854.87
318.28	2832.34
318.49	2869.20
318.70	2992.08
318.92	3061.71
319.13	3016.66
319.34	2934.74
319.56	2863.06
319.77	3067.86
319.98	3125.20
320.20	3024.85
320.41	2940.88
320.62	3090.38
320.83	2783.19
321.05	3057.62
321.26	2834.39
321.47	2985.94
321.69	3131.34
321.90	2656.22
322.11	2744.28
322.32	3055.57
322.54	3221.45
322.75	2760.66
322.96	3545.03
323.18	2789.33
323.39	2645.98
323.60	2656.22
323.81	2848.72
324.03	2815.96
324.24	2998.23
324.45	2924.50
324.66	2729.94
324.88	3248.08
325.09	3198.93
325.30	2850.77
325.52	2725.85
325.73	3092.43
325.94	2838.48
326.15	2645.98
326.37	2639.83
326.58	3141.58
326.79	3176.40
327.00	2660.31
327.22	2777.05
327.43	2949.08
327.64	2729.94
327.85	2940.88
328.07	2844.63
328.28	3334.09
328.49	2877.40
328.70	2807.77
328.92	2840.53
329.13	2936.79
329.34	2998.23
329.55	3121.10
329.76	2928.60
329.98	2944.98
330.19	3174.35
330.40	2914.26
330.61	2854.87
330.83	3117.01
331.04	2926.55
331.25	2936.79
331.46	2887.64
331.68	2785.24
331.89	3131.34
332.10	2828.24
332.31	2668.50
332.52	3043.28
332.74	3143.63
332.95	2697.17
333.16	2824.15
333.37	2955.22
333.58	2803.67
333.80	2797.53
334.01	2637.78
334.22	3035.09
334.43	2867.16
334.64	2746.33
334.86	2705.37
335.07	2809.81
335.28	3260.37
335.49	2740.18
335.70	2895.83
335.92	3239.89
336.13	3407.82
336.34	2904.02
336.55	2848.72
336.76	3037.14
336.98	2639.83
337.19	2807.77
337.40	2938.84
337.61	3522.51
337.82	2949.08
338.04	2928.60
338.25	2621.40
338.46	2918.36
338.67	2942.93
338.88	2699.22
339.09	2670.55
339.31	2840.53
339.52	2703.32
339.73	2750.42
339.94	2830.29
340.15	3123.15
340.36	2920.40
340.58	2822.10
340.79	2766.81
341.00	3037.14
341.21	2764.76
341.42	2977.75
341.63	2861.01
341.85	3143.63
342.06	2918.36
342.27	2777.05
342.48	3033.04
342.69	2838.48
342.90	3035.09
343.12	3053.52
343.33	2731.99
343.54	3219.41
343.75	3203.02
343.96	2938.84
344.17	2705.37
344.38	2981.84
344.60	2836.44
344.81	2715.61
345.02	2797.53
345.23	3080.14
345.44	3373.00
345.65	2863.06
345.86	2877.40
346.07	3057.62
346.29	2914.26
346.50	2912.21
346.71	2895.83
346.92	3264.46
347.13	3330.00
347.34	2832.34
347.55	2717.65
347.76	3012.56
347.98	2850.77
348.19	2904.02
348.40	2953.17
348.61	2928.60
348.82	3188.69
349.03	2852.82
349.24	2697.17
349.45	3334.09
349.66	2658.26
349.88	2861.01
350.09	2762.71
350.30	3180.50
350.51	3200.98
350.72	2916.31
350.93	2805.72
351.14	3000.27
351.35	3084.24
351.56	2807.77
351.77	2885.59
351.99	3082.19
352.20	3147.73
352.41	2928.60
352.62	2598.87
352.83	2955.22
353.04	2967.51
353.25	2791.38
353.46	2803.67
353.67	3178.45
353.88	2654.17
354.09	2736.09
354.30	2844.63
354.52	3155.92
354.73	2963.41
354.94	2760.66
355.15	2918.36
355.36	3303.37
355.57	2867.16
355.78	2838.48
355.99	2815.96
356.20	3022.80
356.41	3258.32
356.62	2938.84
356.83	2918.36
357.04	3205.07
357.25	2660.31
357.46	2803.67
357.68	2664.41
357.89	2803.67
358.10	2961.36
358.31	2815.96
358.52	2793.43
358.73	2799.57
358.94	2836.44
359.15	2779.09
359.36	2901.97
359.57	2926.55
359.78	2901.97
359.99	3026.90
360.20	2680.79
360.41	2971.60
360.62	3049.43
360.83	2879.44
361.04	2885.59
361.25	3053.52
361.46	3174.35
361.67	2895.83
361.88	2877.40
362.09	3246.03
362.30	3045.33
362.51	2785.24
362.72	2781.14
362.93	3162.06
363.14	2959.31
363.35	2936.79
363.56	2711.51
363.78	3162.06
363.99	3182.54
364.20	2731.99
364.41	2811.86
364.62	3235.79
364.83	3057.62
365.04	2754.52
365.25	2858.96
365.46	3360.72
365.67	2815.96
365.88	2887.64
366.09	2815.96
366.30	2953.17
366.51	2930.64
366.72	2662.36
366.93	2766.81
367.14	3012.56
367.35	3225.55
367.56	2807.77
367.77	2969.55
367.98	2979.79
368.18	3069.91
368.39	2963.41
368.60	2758.61
368.81	3129.30
369.02	3020.75
369.23	2813.91
369.44	2607.06
369.65	2949.08
369.86	3057.62
370.07	2944.98
370.28	2715.61
370.49	3000.27
370.70	3076.05
370.91	2770.90
371.12	2717.65
371.33	3211.22
371.54	2838.48
371.75	2934.74
371.96	2592.73
372.17	3010.51
372.38	2973.65
372.59	2828.24
372.80	2729.94
373.01	2953.17
373.22	2975.70
373.43	2826.20
373.64	2717.65
373.85	3270.61
374.06	3299.28
374.26	2973.65
374.47	2951.12
374.68	3241.93
374.89	3035.09
375.10	2815.96
375.31	2824.15
375.52	3002.32
375.73	2971.60
375.94	2629.59
376.15	2844.63
376.36	2793.43
376.57	2869.20
376.78	2801.62
376.99	2850.77
377.20	3137.49
377.40	2934.74
377.61	3112.91
377.82	2791.38
378.03	3188.69
378.24	3110.86
378.45	2858.96
378.66	2865.11
378.87	2721.75
379.08	2852.82
379.29	2711.51
379.50	2926.55
379.71	2910.16
379.91	3086.29
380.12	2797.53
380.33	2877.40
380.54	3033.04
380.75	2947.03
380.96	2826.20
381.17	2863.06
381.38	2934.74
381.59	2979.79
381.80	2811.86
382.00	3041.23
382.21	3053.52
382.42	3266.51
382.63	3194.83
382.84	2936.79
383.05	3094.48
383.26	3256.27
383.47	2879.44
383.68	2777.05
383.88	3059.67
384.09	3074.00
384.30	3049.43
384.51	2914.26
384.72	2953.17
384.93	2815.96
385.14	2869.20
385.35	3008.47
385.55	2717.65
385.76	3176.40
385.97	2756.57
386.18	2613.21
386.39	2758.61
386.60	2920.40
386.81	2799.57
387.02	2697.17
387.22	2815.96
387.43	3006.42
387.64	2912.21
387.85	2891.73
388.06	2961.36
388.27	3971.01
388.48	7235.47
388.68	10876.76
388.89	13381.43
389.10	14569.25
389.31	14063.40
389.52	11306.84
389.73	9799.53
389.93	8701.82
390.14	8007.56
390.35	7272.34
390.56	6731.67
390.77	5425.07
390.98	4349.89
391.18	3657.67
391.39	3450.83
391.60	3051.47
391.81	2967.51
392.02	2838.48
392.23	3385.29
392.43	3076.05
392.64	2959.31
392.85	2963.41
393.06	3248.08
393.27	2969.55
393.47	2752.47
393.68	2885.59
393.89	2863.06
394.10	3172.30
394.31	2811.86
394.52	2721.75
394.72	2848.72
394.93	3278.80
395.14	2695.13
395.35	2940.88
395.56	2854.87
395.76	2934.74
395.97	2791.38
396.18	2969.55
396.39	2983.89
396.60	3567.56
396.80	3207.12
397.01	2994.13
397.22	3067.86
397.43	3141.58
397.64	2766.81
397.84	2852.82
398.05	3332.05
398.26	2914.26
398.47	2912.21
398.67	3016.66
398.88	3030.99
399.09	3112.91
399.30	2717.65
399.51	2922.45
399.71	2975.70
399.92	3039.19
400.13	2971.60
400.34	2789.33
400.54	2990.03
400.75	3278.80
400.96	2926.55
401.17	3065.81
401.37	3074.00
401.58	2979.79
401.79	2861.01
402.00	3047.38
402.21	3493.83
402.41	3135.44
402.62	3141.58
402.83	3180.50
403.04	3336.14
403.24	3612.62
403.45	2918.36
403.66	3211.22
403.87	3166.16
404.07	3194.83
404.28	3096.53
404.49	3151.82
404.70	3051.47
404.90	3119.06
405.11	2842.58
405.32	2951.12
405.52	2877.40
405.73	2947.03
405.94	2783.19
406.15	2877.40
406.35	3055.57
406.56	3121.10
406.77	2873.30
406.98	2918.36
407.18	2848.72
407.39	3260.37
407.60	2858.96
407.80	2926.55
408.01	2881.49
408.22	3012.56
408.43	2805.72
408.63	2865.11
408.84	3176.40
409.05	3094.48
409.25	2703.32
409.46	2846.68
409.67	3016.66
409.88	2885.59
410.08	2910.16
410.29	2824.15
410.50	3020.75
410.70	3024.85
410.91	2838.48
411.12	2930.64
411.32	3039.19
411.53	2746.33
411.74	2904.02
411.95	2947.03
412.15	3037.14
412.36	3184.59
412.57	2926.55
412.77	3035.09
412.98	2961.36
413.19	2990.03
413.39	2942.93
413.60	2912.21
413.81	3203.02
414.01	2772.95
414.22	2877.40
414.43	2961.36
414.63	2889.68
414.84	3092.43
415.05	2828.24
415.25	2682.84
415.46	3086.29
415.67	2869.20
415.87	2985.94
416.08	2822.10
416.29	2959.31
416.49	3102.67
416.70	2881.49
416.91	2762.71
417.11	2908.12
417.32	3131.34
417.53	2965.46
417.73	2924.50
417.94	2973.65
418.15	3053.52
418.35	2914.26
418.56	2820.05
418.77	3370.96
418.97	3004.37
419.18	2953.17
419.38	2535.39
419.59	2938.84
419.80	3321.81
420.00	2731.99
420.21	2785.24
420.42	3213.26
420.62	2987.99
420.83	2803.67
421.04	2867.16
421.24	2953.17
421.45	3155.92
421.65	2910.16
421.86	2852.82
422.07	3018.71
422.27	3041.23
422.48	2846.68
422.69	2772.95
422.89	3030.99
423.10	2949.08
423.30	2731.99
423.51	2861.01
423.72	2992.08
423.92	3135.44
424.13	2686.94
424.33	2947.03
424.54	3127.25
424.75	2965.46
424.95	3041.23
425.16	2815.96
425.36	2961.36
425.57	3157.97
425.78	2967.51
425.98	3018.71
426.19	2942.93
426.39	2815.96
426.60	2918.36
426.81	3033.04
427.01	3137.49
427.22	2818.00
427.42	2699.22
427.63	2797.53
427.83	3186.64
428.04	3336.14
428.25	2901.97
428.45	2994.13
428.66	3071.95
428.86	2979.79
429.07	2809.81
429.28	2879.44
429.48	3014.61
429.69	2787.29
429.89	2897.88
430.10	2699.22
430.30	3094.48
430.51	3157.97
430.71	2760.66
430.92	2840.53
431.13	2975.70
431.33	3119.06
431.54	2987.99
431.74	3108.82
431.95	3407.82
432.15	2781.14
432.36	2826.20
432.56	2928.60
432.77	3362.76
432.98	3248.08
433.18	2901.97
433.39	2768.85
433.59	2910.16
433.80	3239.89
434.00	2987.99
434.21	2873.30
434.41	2908.12
434.62	3260.37
434.82	2676.70
435.03	2787.29
435.23	3047.38
435.44	2664.41
435.64	2742.23
435.85	2879.44
436.06	3196.88
436.26	3149.78
436.47	2830.29
436.67	2760.66
436.88	2969.55
437.08	3106.77
437.29	2959.31
437.49	3002.32
437.70	3139.54
437.90	2969.55
438.11	3028.95
438.31	2965.46
438.52	3284.94
438.72	3166.16
438.93	3094.48
439.13	2887.64
439.34	3198.93
439.54	2887.64
439.75	2922.45
439.95	2969.55
440.16	2881.49
440.36	3000.27
440.57	2844.63
440.77	2834.39
440.98	2955.22
441.18	3096.53
441.39	2758.61
441.59	2764.76
441.80	3366.86
442.00	2990.03
442.21	2981.84
442.41	2746.33
442.62	3178.45
442.82	2858.96
443.02	2840.53
443.23	2887.64
443.43	2897.88
443.64	3237.84
443.84	2738.13
444.05	2934.74
444.25	2977.75
444.46	2975.70
444.66	2779.09
444.87	3037.14
445.07	2832.34
445.28	2926.55
445.48	3088.34
445.69	2959.31
445.89	3375.05
446.09	2942.93
446.30	3114.96
446.50	3164.11
446.71	4720.57
446.91	5752.74
447.12	6526.88
447.32	7036.82
447.53	6719.39
447.73	5857.19
447.93	4986.80
448.14	4739.00
448.34	4669.37
448.55	4048.83
448.75	4007.87
448.96	3794.89
449.16	3596.23
449.36	3493.83
449.57	3080.14
449.77	2897.88
449.98	2942.93
450.18	3012.56
450.39	2920.40
450.59	3026.90
450.79	2977.75
451.00	2996.18
451.20	3000.27
451.41	2820.05
451.61	3045.33
451.81	3047.38
452.02	2781.14
452.22	2906.07
452.43	2883.54
452.63	2846.68
