SpectraSuite Data File
++++++++++++++++++++++++++++++++++++
Date: Thu May 05 21:11:02 CEST 2016
User: root
Dark Spectrum Present: No
Reference Spectrum Present: No
Number of Sampled Component Spectra: 1
Spectrometers: USB4C02835
Integration Time (usec): 100000 (USB4C02835)
Spectra Averaged: 1 (USB4C02835)
Boxcar Smoothing: 0 (USB4C02835)
Correct for Electrical Dark: No (USB4C02835)
Strobe/Lamp Enabled: No (USB4C02835)
Correct for Detector Non-linearity: No (USB4C02835)
Correct for Stray Light: No (USB4C02835)
Number of Pixels in Processed Spectrum: 3648
>>>>>Begin Processed Spectral Data<<<<<
177.47	2111.46
177.69	2111.46
177.91	2111.46
178.13	2146.27
178.36	2168.80
178.58	2742.23
178.80	2906.07
179.02	2674.65
179.24	2850.77
179.46	2619.35
179.68	2705.37
179.90	2990.03
180.13	2994.13
180.35	2523.10
180.57	2648.02
180.79	3063.76
181.01	2959.31
181.23	2701.27
181.45	2891.73
181.67	3004.37
181.90	3108.82
182.12	2711.51
182.34	2523.10
182.56	3131.34
182.78	3067.86
183.00	2672.60
183.22	2688.98
183.44	2695.13
183.66	3469.26
183.89	2836.44
184.11	2656.22
184.33	3084.24
184.55	3131.34
184.77	2680.79
184.99	2691.03
185.21	2918.36
185.43	3403.72
185.65	2633.69
185.87	2639.83
186.10	3487.69
186.32	3450.83
186.54	2762.71
186.76	2734.04
186.98	3256.27
187.20	2895.83
187.42	2666.46
187.64	2641.88
187.86	3088.34
188.08	3196.88
188.30	2574.30
188.52	2787.29
188.75	3248.08
188.97	3237.84
189.19	2713.56
189.41	2693.08
189.63	2987.99
189.85	2930.64
190.07	2547.67
190.29	2576.34
190.51	3069.91
190.73	2746.33
190.95	2795.48
191.17	2674.65
191.39	2752.47
191.61	2934.74
191.84	2607.06
192.06	2797.53
192.28	2791.38
192.50	3573.71
192.72	2793.43
192.94	2758.61
193.16	3178.45
193.38	3024.85
193.60	2619.35
193.82	2846.68
194.04	3131.34
194.26	3008.47
194.48	2713.56
194.70	2602.97
194.92	3004.37
195.14	3100.62
195.36	2656.22
195.58	2756.57
195.80	2914.26
196.02	2863.06
196.24	2668.50
196.46	2764.76
196.69	2885.59
196.91	3405.77
197.13	2715.61
197.35	2723.80
197.57	3174.35
197.79	3053.52
198.01	2723.80
198.23	2676.70
198.45	3071.95
198.67	2699.22
198.89	2500.57
199.11	2770.90
199.33	2832.34
199.55	2541.53
199.77	2666.46
199.99	2787.29
200.21	2973.65
200.43	3008.47
200.65	2531.29
200.87	2455.51
201.09	3045.33
201.31	3000.27
201.53	2725.85
201.75	2752.47
201.97	3043.28
202.19	2961.36
202.41	2779.09
202.63	2734.04
202.85	3106.77
203.07	3010.51
203.29	2758.61
203.51	2549.72
203.73	2877.40
203.95	3536.84
204.17	2680.79
204.39	2850.77
204.61	2957.27
204.83	2953.17
205.05	2748.37
205.27	2697.17
205.49	3354.57
205.71	3002.32
205.93	2574.30
206.15	2580.44
206.37	2889.68
206.59	2953.17
206.81	2539.48
207.03	2578.39
207.25	2852.82
207.47	3022.80
207.69	2666.46
207.91	2934.74
208.13	3274.70
208.34	2844.63
208.56	2652.12
208.78	2721.75
209.00	2983.89
209.22	2940.88
209.44	2723.80
209.66	2676.70
209.88	2977.75
210.10	2957.27
210.32	2703.32
210.54	2791.38
210.76	2983.89
210.98	3147.73
211.20	2580.44
211.42	2779.09
211.64	3219.41
211.86	3000.27
212.08	2770.90
212.30	2750.42
212.52	2920.40
212.74	3137.49
212.96	2746.33
213.17	2752.47
213.39	3145.68
213.61	3262.41
213.83	2734.04
214.05	2621.40
214.27	3233.74
214.49	2811.86
214.71	2680.79
214.93	2760.66
215.15	2959.31
215.37	3211.22
215.59	2519.00
215.81	2756.57
216.03	3192.78
216.24	2953.17
216.46	2744.28
216.68	2766.81
216.90	3063.76
217.12	3176.40
217.34	2695.13
217.56	2723.80
217.78	3119.06
218.00	3135.44
218.22	2766.81
218.44	2797.53
218.66	3055.57
218.87	3342.28
219.09	2701.27
219.31	2701.27
219.53	2981.84
219.75	2863.06
219.97	2736.09
220.19	2697.17
220.41	2904.02
220.63	3321.81
220.85	2682.84
221.06	2688.98
221.28	3301.33
221.50	3096.53
221.72	2709.46
221.94	2539.48
222.16	3020.75
222.38	3098.58
222.60	2695.13
222.82	2740.18
223.03	3014.61
223.25	2848.72
223.47	2648.02
223.69	2942.93
223.91	3168.21
224.13	3018.71
224.35	2541.53
224.57	2822.10
224.78	3069.91
225.00	2842.58
225.22	2772.95
225.44	2680.79
225.66	3059.67
225.88	2955.22
226.10	2795.48
226.32	2697.17
226.53	3293.13
226.75	2983.89
226.97	2725.85
227.19	2666.46
227.41	2871.25
227.63	2920.40
227.85	2512.86
228.06	2629.59
228.28	3014.61
228.50	3160.02
228.72	2525.15
228.94	2719.70
229.16	2635.74
229.37	2811.86
229.59	2564.06
229.81	2889.68
230.03	2901.97
230.25	2760.66
230.47	2555.86
230.69	2633.69
230.90	3170.26
231.12	2891.73
231.34	2695.13
231.56	2738.13
231.78	2815.96
232.00	2973.65
232.21	2766.81
232.43	2738.13
232.65	2545.63
232.87	3094.48
233.09	2611.16
233.30	2598.87
233.52	3184.59
233.74	2936.79
233.96	2648.02
234.18	2836.44
234.40	2994.13
234.61	3428.30
234.83	2623.45
235.05	2596.82
235.27	3375.05
235.49	3188.69
235.70	2680.79
235.92	2727.89
236.14	3063.76
236.36	3426.25
236.58	2564.06
236.79	2779.09
237.01	2979.79
237.23	3010.51
237.45	2992.08
237.67	2731.99
237.88	3053.52
238.10	3381.20
238.32	2519.00
238.54	2654.17
238.76	2971.60
238.97	2856.92
239.19	2613.21
239.41	2738.13
239.63	3131.34
239.85	2820.05
240.06	2822.10
240.28	2650.07
240.50	3207.12
240.72	2957.27
240.93	2621.40
241.15	2815.96
241.37	2998.23
241.59	3209.17
241.81	2691.03
242.02	2756.57
242.24	3047.38
242.46	3166.16
242.68	2568.15
242.89	2623.45
243.11	3241.93
243.33	2957.27
243.55	2709.46
243.76	2748.37
243.98	2926.55
244.20	2889.68
244.42	2613.21
244.64	2674.65
244.85	2826.20
245.07	2873.30
245.29	2691.03
245.51	2668.50
245.72	2973.65
245.94	3180.50
246.16	2631.64
246.38	2791.38
246.59	2889.68
246.81	2811.86
247.03	2584.54
247.24	2586.58
247.46	2875.35
247.68	2953.17
247.90	2602.97
248.11	2752.47
248.33	3145.68
248.55	2977.75
248.77	2727.89
248.98	2840.53
249.20	3307.47
249.42	3014.61
249.64	2621.40
249.85	2650.07
250.07	2889.68
250.29	3112.91
250.50	2727.89
250.72	2559.96
250.94	3071.95
251.16	3405.77
251.37	2568.15
251.59	2832.34
251.81	3080.14
252.02	3246.03
252.24	2691.03
252.46	2842.58
252.68	2883.54
252.89	2908.12
253.11	2475.99
253.33	2910.16
253.54	3180.50
253.76	2772.95
253.98	2643.93
254.20	2611.16
254.41	2764.76
254.63	2990.03
254.85	2547.67
255.06	2838.48
255.28	3051.47
255.50	2944.98
255.71	2660.31
255.93	2564.06
256.15	2844.63
256.36	3082.19
256.58	2572.25
256.80	2654.17
257.02	3006.42
257.23	2904.02
257.45	2709.46
257.67	2809.81
257.88	2947.03
258.10	3041.23
258.32	2678.74
258.53	2717.65
258.75	3258.32
258.97	2881.49
259.18	2639.83
259.40	2600.92
259.62	3172.30
259.83	3239.89
260.05	2637.78
260.27	3469.26
260.48	3129.30
260.70	2803.67
260.92	2576.34
261.13	2711.51
261.35	3012.56
261.57	3030.99
261.78	2629.59
262.00	2648.02
262.22	3164.11
262.43	2861.01
262.65	2684.89
262.86	2723.80
263.08	3405.77
263.30	2959.31
263.51	2504.67
263.73	2684.89
263.95	3303.37
264.16	2824.15
264.38	2656.22
264.60	2658.26
264.81	2953.17
265.03	3182.54
265.25	3055.57
265.46	2719.70
265.68	3166.16
265.89	3102.67
266.11	2572.25
266.33	2674.65
266.54	3344.33
266.76	3055.57
266.98	2734.04
267.19	2852.82
267.41	3207.12
267.62	2885.59
267.84	2535.39
268.06	2787.29
268.27	3035.09
268.49	3180.50
268.70	2731.99
268.92	2752.47
269.14	2832.34
269.35	2721.75
269.57	2752.47
269.79	2678.74
270.00	2838.48
270.22	3346.38
270.43	2541.53
270.65	2537.43
270.87	3045.33
271.08	3024.85
271.30	2793.43
271.51	2658.26
271.73	3110.86
271.95	3313.61
272.16	2631.64
272.38	2762.71
272.59	2918.36
272.81	3104.72
273.02	2639.83
273.24	2746.33
273.46	3151.82
273.67	2756.57
273.89	2488.28
274.10	2621.40
274.32	3215.31
274.54	3028.95
274.75	2830.29
274.97	2752.47
275.18	3117.01
275.40	3063.76
275.61	2734.04
275.83	2850.77
276.05	2807.77
276.26	2908.12
276.48	2758.61
276.69	2850.77
276.91	2832.34
277.12	3219.41
277.34	2844.63
277.55	2938.84
277.77	3002.32
277.99	2977.75
278.20	2762.71
278.42	2703.32
278.63	2930.64
278.85	2736.09
279.06	2727.89
279.28	2969.55
279.49	3180.50
279.71	3172.30
279.93	2873.30
280.14	2803.67
280.36	2879.44
280.57	3114.96
280.79	2852.82
281.00	2752.47
281.22	2899.92
281.43	3141.58
281.65	2584.54
281.86	2746.33
282.08	3119.06
282.29	3297.23
282.51	2693.08
282.73	2693.08
282.94	2770.90
283.16	3172.30
283.37	2891.73
283.59	2713.56
283.80	3123.15
284.02	3006.42
284.23	2793.43
284.45	2869.20
284.66	2871.25
284.88	2834.39
285.09	2754.52
285.31	2875.35
285.52	3090.38
285.74	2713.56
285.95	2918.36
286.17	2875.35
286.38	3153.87
286.60	2875.35
286.81	2750.42
287.03	2781.14
287.24	2947.03
287.46	3096.53
287.67	2840.53
287.89	3074.00
288.10	2975.70
288.32	2908.12
288.53	2936.79
288.75	2856.92
288.96	3157.97
289.18	2910.16
289.39	2752.47
289.61	2914.26
289.82	3325.90
290.04	3291.09
290.25	2709.46
290.47	2842.58
290.68	3049.43
290.90	3090.38
291.11	2564.06
291.33	2959.31
291.54	2893.78
291.76	2869.20
291.97	2869.20
292.18	2873.30
292.40	2996.18
292.61	2867.16
292.83	3067.86
293.04	2813.91
293.26	2977.75
293.47	2901.97
293.69	2752.47
293.90	2758.61
294.12	3172.30
294.33	2916.31
294.55	2762.71
294.76	2916.31
294.97	3219.41
295.19	3438.54
295.40	2736.09
295.62	2830.29
295.83	3219.41
296.05	2883.54
296.26	3000.27
296.48	2781.14
296.69	3018.71
296.90	2930.64
297.12	2965.46
297.33	2926.55
297.55	2985.94
297.76	3059.67
297.98	2924.50
298.19	2887.64
298.41	3045.33
298.62	2781.14
298.83	3006.42
299.05	2979.79
299.26	2924.50
299.48	2818.00
299.69	2953.17
299.90	2752.47
300.12	2881.49
300.33	3053.52
300.55	2818.00
300.76	2850.77
300.98	2822.10
301.19	3080.14
301.40	2811.86
301.62	2801.62
301.83	3108.82
302.05	3022.80
302.26	2760.66
302.47	2856.92
302.69	2727.89
302.90	3004.37
303.12	2598.87
303.33	2938.84
303.54	3338.19
303.76	2879.44
303.97	2795.48
304.19	2992.08
304.40	2830.29
304.61	3026.90
304.83	2930.64
305.04	2944.98
305.26	3121.10
305.47	2901.97
305.68	2840.53
305.90	2686.94
306.11	3162.06
306.33	2932.69
306.54	2688.98
306.75	2658.26
306.97	2723.80
307.18	2881.49
307.39	2781.14
307.61	2834.39
307.82	2912.21
308.04	3053.52
308.25	2699.22
308.46	2840.53
308.68	2955.22
308.89	2932.69
309.10	2969.55
309.32	2830.29
309.53	2885.59
309.74	3065.81
309.96	2754.52
310.17	2858.96
310.39	2877.40
310.60	3160.02
310.81	2906.07
311.03	2705.37
311.24	3149.78
311.45	3039.19
311.67	3008.47
311.88	2977.75
312.09	2899.92
312.31	2850.77
312.52	2717.65
312.73	2709.46
312.95	2809.81
313.16	2871.25
313.37	2869.20
313.59	2977.75
313.80	3129.30
314.01	3280.85
314.23	2805.72
314.44	2795.48
314.65	2754.52
314.87	2807.77
315.08	2791.38
315.29	2758.61
315.51	2869.20
315.72	2772.95
315.93	2891.73
316.15	2856.92
316.36	2899.92
316.57	2957.27
316.79	2922.45
317.00	2787.29
317.21	3155.92
317.43	2883.54
317.64	2971.60
317.85	2748.37
318.07	2828.24
318.28	2881.49
318.49	2934.74
318.70	3033.04
318.92	3018.71
319.13	2938.84
319.34	2979.79
319.56	2820.05
319.77	3104.72
319.98	3033.04
320.20	3033.04
320.41	2885.59
320.62	3053.52
320.83	2803.67
321.05	3039.19
321.26	2846.68
321.47	2998.23
321.69	3176.40
321.90	2736.09
322.11	2779.09
322.32	3030.99
322.54	3215.31
322.75	2787.29
322.96	3651.53
323.18	2822.10
323.39	2682.84
323.60	2707.41
323.81	2899.92
324.03	2879.44
324.24	2926.55
324.45	2854.87
324.66	2707.41
324.88	3205.07
325.09	3254.22
325.30	2770.90
325.52	2688.98
325.73	2987.99
325.94	2863.06
326.15	2695.13
326.37	2772.95
326.58	3076.05
326.79	3229.65
327.00	2766.81
327.22	2783.19
327.43	2973.65
327.64	2766.81
327.85	2893.78
328.07	2818.00
328.28	3213.26
328.49	2867.16
328.70	2856.92
328.92	2807.77
329.13	2893.78
329.34	3133.39
329.55	2981.84
329.76	2928.60
329.98	2957.27
330.19	3203.02
330.40	2883.54
330.61	2936.79
330.83	3155.92
331.04	2836.44
331.25	2922.45
331.46	2795.48
331.68	2828.24
331.89	3237.84
332.10	2951.12
332.31	2707.41
332.52	2979.79
332.74	3219.41
332.95	2672.60
333.16	2752.47
333.37	3002.32
333.58	2895.83
333.80	2750.42
334.01	2615.26
334.22	2969.55
334.43	2844.63
334.64	2762.71
334.86	2660.31
335.07	2795.48
335.28	3225.55
335.49	2684.89
335.70	2826.20
335.92	3178.45
336.13	3309.52
336.34	2910.16
336.55	2858.96
336.76	3061.71
336.98	2629.59
337.19	2760.66
337.40	2897.88
337.61	3385.29
337.82	2940.88
338.04	2852.82
338.25	2609.11
338.46	3047.38
338.67	2940.88
338.88	2654.17
339.09	2719.70
339.31	2938.84
339.52	2791.38
339.73	2742.23
339.94	2834.39
340.15	3114.96
340.36	2836.44
340.58	2899.92
340.79	2736.09
341.00	3112.91
341.21	2803.67
341.42	3012.56
341.63	2801.62
341.85	3121.10
342.06	2953.17
342.27	2731.99
342.48	2926.55
342.69	2762.71
342.90	3061.71
343.12	3069.91
343.33	2697.17
343.54	3160.02
343.75	3233.74
343.96	2885.59
344.17	2801.62
344.38	2957.27
344.60	2820.05
344.81	2701.27
345.02	2729.94
345.23	3209.17
345.44	3401.68
345.65	2842.58
345.86	2877.40
346.07	3018.71
346.29	2922.45
346.50	2918.36
346.71	2910.16
346.92	3211.22
347.13	3336.14
347.34	2897.88
347.55	2738.13
347.76	3012.56
347.98	2723.80
348.19	2783.19
348.40	3024.85
348.61	2942.93
348.82	3286.99
349.03	2824.15
349.24	2670.55
349.45	3364.81
349.66	2668.50
349.88	2764.76
350.09	2832.34
350.30	3203.02
350.51	3139.54
350.72	2895.83
350.93	2701.27
351.14	2930.64
351.35	3114.96
351.56	2813.91
351.77	2858.96
351.99	3067.86
352.20	3223.50
352.41	2953.17
352.62	2648.02
352.83	2961.36
353.04	2940.88
353.25	2736.09
353.46	2738.13
353.67	3237.84
353.88	2650.07
354.09	2807.77
354.30	2858.96
354.52	3088.34
354.73	2983.89
354.94	2731.99
355.15	2820.05
355.36	3246.03
355.57	2889.68
355.78	2740.18
355.99	2811.86
356.20	2959.31
356.41	3168.21
356.62	2856.92
356.83	2856.92
357.04	3264.46
357.25	2731.99
357.46	2772.95
357.68	2686.94
357.89	2861.01
358.10	3014.61
358.31	2826.20
358.52	2844.63
358.73	2836.44
358.94	2803.67
359.15	2775.00
359.36	2846.68
359.57	3002.32
359.78	2973.65
359.99	2897.88
360.20	2688.98
360.41	2942.93
360.62	3090.38
360.83	2934.74
361.04	2867.16
361.25	3014.61
361.46	3198.93
361.67	2899.92
361.88	2840.53
362.09	3112.91
362.30	3010.51
362.51	2717.65
362.72	2807.77
362.93	3141.58
363.14	3088.34
363.35	2861.01
363.56	2697.17
363.78	3203.02
363.99	3184.59
364.20	2764.76
364.41	2885.59
364.62	3282.89
364.83	3030.99
365.04	2828.24
365.25	2885.59
365.46	3274.70
365.67	2869.20
365.88	2965.46
366.09	2801.62
366.30	2863.06
366.51	2992.08
366.72	2748.37
366.93	2822.10
367.14	2953.17
367.35	3223.50
367.56	2756.57
367.77	2901.97
367.98	2899.92
368.18	3106.77
368.39	2897.88
368.60	2781.14
368.81	2985.94
369.02	3090.38
369.23	2795.48
369.44	2717.65
369.65	2955.22
369.86	3016.66
370.07	3002.32
370.28	2738.13
370.49	3106.77
370.70	3106.77
370.91	2699.22
371.12	2641.88
371.33	3145.68
371.54	2834.39
371.75	2908.12
371.96	2582.49
372.17	2992.08
372.38	2865.11
372.59	2914.26
372.80	2750.42
373.01	2996.18
373.22	3006.42
373.43	2834.39
373.64	2734.04
373.85	3211.22
374.06	3295.18
374.26	2918.36
374.47	2912.21
374.68	3272.65
374.89	2996.18
375.10	2766.81
375.31	2854.87
375.52	2965.46
375.73	2975.70
375.94	2633.69
376.15	2881.49
376.36	2856.92
376.57	2815.96
376.78	2844.63
376.99	2873.30
377.20	3168.21
377.40	2961.36
377.61	3090.38
377.82	2738.13
378.03	3188.69
378.24	3051.47
378.45	2912.21
378.66	2883.54
378.87	2707.41
379.08	2789.33
379.29	2832.34
379.50	2973.65
379.71	2904.02
379.91	3024.85
380.12	2875.35
380.33	2818.00
380.54	3047.38
380.75	2951.12
380.96	2756.57
381.17	2797.53
381.38	2959.31
381.59	3002.32
381.80	2826.20
382.00	2953.17
382.21	2985.94
382.42	3264.46
382.63	3215.31
382.84	2969.55
383.05	3016.66
383.26	3188.69
383.47	2955.22
383.68	2803.67
383.88	3057.62
384.09	3000.27
384.30	3028.95
384.51	2963.41
384.72	2924.50
384.93	2840.53
385.14	2867.16
385.35	3024.85
385.55	2725.85
385.76	3194.83
385.97	2783.19
386.18	2664.41
386.39	2846.68
386.60	2869.20
386.81	2775.00
387.02	2738.13
387.22	2824.15
387.43	3098.58
387.64	2928.60
387.85	2975.70
388.06	2949.08
388.27	4052.93
388.48	7378.83
388.68	10913.63
388.89	13395.76
389.10	14645.02
389.31	14067.50
389.52	11355.99
389.73	9799.53
389.93	9043.83
390.14	8124.29
390.35	7524.24
390.56	6784.92
390.77	5687.21
390.98	4280.25
391.18	3698.63
391.39	3416.01
391.60	2930.64
391.81	3055.57
392.02	2877.40
392.23	3346.38
392.43	3043.28
392.64	2930.64
392.85	2885.59
393.06	3315.66
393.27	3057.62
393.47	2828.24
393.68	2901.97
393.89	2924.50
394.10	3219.41
394.31	2834.39
394.52	2791.38
394.72	2836.44
394.93	3241.93
395.14	2758.61
395.35	2920.40
395.56	2852.82
395.76	3024.85
395.97	2818.00
396.18	3006.42
396.39	2936.79
396.60	3532.75
396.80	3203.02
397.01	3080.14
397.22	3155.92
397.43	3170.26
397.64	2805.72
397.84	2957.27
398.05	3407.82
398.26	2912.21
398.47	2981.84
398.67	3028.95
398.88	3024.85
399.09	3172.30
399.30	2805.72
399.51	2854.87
399.71	2789.33
399.92	2932.69
400.13	2901.97
400.34	2815.96
400.54	3006.42
400.75	3102.67
400.96	3014.61
401.17	3067.86
401.37	3153.87
401.58	2924.50
401.79	2834.39
402.00	2922.45
402.21	3448.78
402.41	3153.87
402.62	3049.43
402.83	3106.77
403.04	3370.96
403.24	3659.72
403.45	2996.18
403.66	3176.40
403.87	3168.21
404.07	3268.56
404.28	3157.97
404.49	3069.91
404.70	3121.10
404.90	3157.97
405.11	2879.44
405.32	3030.99
405.52	2908.12
405.73	2897.88
405.94	2779.09
406.15	2955.22
406.35	3162.06
406.56	3117.01
406.77	2961.36
406.98	2854.87
407.18	2779.09
407.39	3282.89
407.60	2920.40
407.80	2940.88
408.01	2897.88
408.22	3041.23
408.43	2768.85
408.63	3047.38
408.84	3143.63
409.05	3110.86
409.25	2795.48
409.46	2871.25
409.67	3004.37
409.88	2969.55
410.08	2871.25
410.29	2803.67
410.50	3172.30
410.70	3076.05
410.91	2781.14
411.12	2912.21
411.32	3045.33
411.53	2826.20
411.74	2875.35
411.95	2932.69
412.15	3022.80
412.36	3043.28
412.57	3016.66
412.77	3006.42
412.98	2906.07
413.19	2873.30
413.39	2881.49
413.60	2832.34
413.81	3166.16
414.01	2830.29
414.22	2891.73
414.43	2979.79
414.63	2879.44
414.84	3160.02
415.05	2928.60
415.25	2688.98
415.46	3053.52
415.67	2881.49
415.87	2861.01
416.08	2826.20
416.29	2985.94
416.49	3030.99
416.70	2897.88
416.91	2891.73
417.11	2996.18
417.32	3157.97
417.53	3022.80
417.73	2924.50
417.94	2910.16
418.15	2969.55
418.35	2891.73
418.56	2820.05
418.77	3356.62
418.97	3010.51
419.18	2869.20
419.38	2574.30
419.59	2957.27
419.80	3180.50
420.00	2785.24
420.21	2797.53
420.42	3233.74
420.62	3076.05
420.83	2842.58
421.04	2789.33
421.24	2893.78
421.45	3149.78
421.65	2893.78
421.86	2944.98
422.07	3078.10
422.27	3104.72
422.48	2801.62
422.69	2734.04
422.89	2883.54
423.10	2983.89
423.30	2818.00
423.51	2910.16
423.72	3033.04
423.92	3174.35
424.13	2729.94
424.33	2949.08
424.54	3127.25
424.75	2985.94
424.95	3067.86
425.16	2879.44
425.36	2940.88
425.57	3160.02
425.78	2934.74
425.98	2967.51
426.19	2932.69
426.39	2861.01
426.60	2869.20
426.81	2959.31
427.01	3069.91
427.22	2828.24
427.42	2672.60
427.63	2750.42
427.83	3080.14
428.04	3301.33
428.25	2928.60
428.45	2949.08
428.66	3174.35
428.86	2906.07
429.07	2865.11
429.28	2826.20
429.48	3024.85
429.69	2852.82
429.89	2983.89
430.10	2762.71
430.30	3088.34
430.51	3141.58
430.71	2875.35
430.92	2897.88
431.13	2912.21
431.33	3018.71
431.54	2992.08
431.74	3094.48
431.95	3270.61
432.15	2824.15
432.36	2895.83
432.56	2912.21
432.77	3401.68
432.98	3291.09
433.18	2881.49
433.39	2781.14
433.59	2906.07
433.80	3370.96
434.00	3102.67
434.21	2809.81
434.41	2879.44
434.62	3467.21
434.82	2797.53
435.03	2842.58
435.23	3104.72
435.44	2723.80
435.64	2834.39
435.85	2850.77
436.06	3071.95
436.26	3170.26
436.47	2789.33
436.67	2787.29
436.88	2926.55
437.08	3184.59
437.29	2951.12
437.49	2885.59
437.70	3198.93
437.90	3024.85
438.11	3076.05
438.31	2957.27
438.52	3190.74
438.72	3203.02
438.93	3114.96
439.13	2910.16
439.34	3190.74
439.54	2879.44
439.75	2975.70
439.95	2990.03
440.16	2809.81
440.36	2963.41
440.57	2885.59
440.77	2815.96
440.98	3006.42
441.18	3076.05
441.39	2729.94
441.59	2822.10
441.80	3358.67
442.00	3006.42
442.21	2959.31
442.41	2781.14
442.62	3178.45
442.82	2828.24
443.02	2834.39
443.23	2861.01
443.43	2887.64
443.64	3215.31
443.84	2715.61
444.05	2936.79
444.25	2926.55
444.46	2918.36
444.66	2820.05
444.87	3076.05
445.07	2723.80
445.28	2953.17
445.48	3010.51
445.69	2926.55
445.89	3399.63
446.09	2930.64
446.30	3127.25
446.50	3274.70
446.71	4755.38
446.91	5724.07
447.12	6604.70
447.32	7030.68
447.53	7006.10
447.73	5691.31
447.93	4945.84
448.14	4728.76
448.34	4808.63
448.55	4054.98
448.75	4034.50
448.96	3930.05
449.16	3749.83
449.36	3538.89
449.57	3106.77
449.77	2842.58
449.98	2916.31
450.18	3176.40
450.39	2850.77
450.59	2979.79
450.79	2967.51
451.00	2875.35
451.20	2967.51
451.41	2869.20
451.61	3069.91
451.81	3010.51
452.02	2869.20
452.22	2897.88
452.43	2887.64
452.63	2922.45
