SpectraSuite Data File
++++++++++++++++++++++++++++++++++++
Date: Thu May 05 21:10:59 CEST 2016
User: root
Dark Spectrum Present: No
Reference Spectrum Present: No
Number of Sampled Component Spectra: 1
Spectrometers: USB4C02835
Integration Time (usec): 100000 (USB4C02835)
Spectra Averaged: 1 (USB4C02835)
Boxcar Smoothing: 0 (USB4C02835)
Correct for Electrical Dark: No (USB4C02835)
Strobe/Lamp Enabled: No (USB4C02835)
Correct for Detector Non-linearity: No (USB4C02835)
Correct for Stray Light: No (USB4C02835)
Number of Pixels in Processed Spectrum: 3648
>>>>>Begin Processed Spectral Data<<<<<
177.47	2111.46
177.69	2111.46
177.91	2111.46
178.13	2107.36
178.36	2203.61
178.58	2840.53
178.80	2920.40
179.02	2686.94
179.24	2764.76
179.46	2609.11
179.68	2736.09
179.90	2998.23
180.13	2994.13
180.35	2443.23
180.57	2619.35
180.79	3100.62
181.01	3035.09
181.23	2611.16
181.45	2842.58
181.67	3217.36
181.90	3145.68
182.12	2785.24
182.34	2475.99
182.56	3076.05
182.78	2926.55
183.00	2674.65
183.22	2734.04
183.44	2727.89
183.66	3520.46
183.89	2865.11
184.11	2715.61
184.33	3022.80
184.55	3205.07
184.77	2635.74
184.99	2641.88
185.21	2871.25
185.43	3422.16
185.65	2695.13
185.87	2613.21
186.10	3420.11
186.32	3399.63
186.54	2822.10
186.76	2744.28
186.98	3192.78
187.20	2936.79
187.42	2676.70
187.64	2674.65
187.86	3110.86
188.08	3174.35
188.30	2596.82
188.52	2725.85
188.75	3276.75
188.97	3104.72
189.19	2723.80
189.41	2672.60
189.63	3059.67
189.85	2879.44
190.07	2555.86
190.29	2484.19
190.51	3053.52
190.73	2731.99
190.95	2815.96
191.17	2738.13
191.39	2682.84
191.61	2996.18
191.84	2668.50
192.06	2789.33
192.28	2619.35
192.50	3514.31
192.72	2760.66
192.94	2717.65
193.16	3233.74
193.38	3016.66
193.60	2519.00
193.82	2811.86
194.04	3196.88
194.26	2971.60
194.48	2725.85
194.70	2713.56
194.92	2955.22
195.14	3102.67
195.36	2678.74
195.58	2777.05
195.80	2926.55
196.02	2844.63
196.24	2574.30
196.46	2738.13
196.69	2924.50
196.91	3403.72
197.13	2668.50
197.35	2674.65
197.57	3270.61
197.79	3125.20
198.01	2693.08
198.23	2736.09
198.45	3061.71
198.67	2738.13
198.89	2582.49
199.11	2705.37
199.33	2875.35
199.55	2582.49
199.77	2686.94
199.99	2846.68
200.21	2879.44
200.43	2959.31
200.65	2621.40
200.87	2564.06
201.09	3002.32
201.31	3010.51
201.53	2674.65
201.75	2760.66
201.97	3082.19
202.19	3008.47
202.41	2783.19
202.63	2869.20
202.85	3129.30
203.07	3065.81
203.29	2600.92
203.51	2641.88
203.73	2871.25
203.95	3332.05
204.17	2688.98
204.39	2869.20
204.61	3047.38
204.83	2918.36
205.05	2826.20
205.27	2791.38
205.49	3446.73
205.71	3045.33
205.93	2580.44
206.15	2611.16
206.37	3022.80
206.59	2893.78
206.81	2535.39
207.03	2615.26
207.25	2805.72
207.47	3086.29
207.69	2699.22
207.91	2983.89
208.13	3258.32
208.34	2879.44
208.56	2611.16
208.78	2688.98
209.00	2891.73
209.22	2973.65
209.44	2705.37
209.66	2686.94
209.88	3045.33
210.10	2922.45
210.32	2699.22
210.54	2721.75
210.76	2910.16
210.98	3151.82
211.20	2568.15
211.42	2848.72
211.64	3223.50
211.86	3088.34
212.08	2795.48
212.30	2738.13
212.52	2879.44
212.74	3028.95
212.96	2799.57
213.17	2813.91
213.39	3100.62
213.61	3327.95
213.83	2742.23
214.05	2600.92
214.27	3184.59
214.49	2750.42
214.71	2664.41
214.93	2809.81
215.15	3053.52
215.37	3178.45
215.59	2568.15
215.81	2750.42
216.03	3276.75
216.24	2959.31
216.46	2758.61
216.68	2777.05
216.90	3094.48
217.12	3143.63
217.34	2641.88
217.56	2803.67
217.78	3225.55
218.00	3074.00
218.22	2736.09
218.44	2746.33
218.66	2957.27
218.87	3424.20
219.09	2664.41
219.31	2713.56
219.53	3112.91
219.75	2885.59
219.97	2750.42
220.19	2756.57
220.41	2934.74
220.63	3289.04
220.85	2725.85
221.06	2654.17
221.28	3239.89
221.50	3086.29
221.72	2703.32
221.94	2559.96
222.16	3018.71
222.38	3149.78
222.60	2719.70
222.82	2731.99
223.03	3127.25
223.25	2803.67
223.47	2725.85
223.69	2885.59
223.91	3053.52
224.13	3012.56
224.35	2592.73
224.57	2830.29
224.78	3114.96
225.00	2803.67
225.22	2746.33
225.44	2682.84
225.66	3104.72
225.88	2918.36
226.10	2822.10
226.32	2676.70
226.53	3182.54
226.75	2873.30
226.97	2760.66
227.19	2754.52
227.41	2897.88
227.63	2891.73
227.85	2553.82
228.06	2717.65
228.28	3057.62
228.50	3112.91
228.72	2533.34
228.94	2639.83
229.16	2588.63
229.37	2828.24
229.59	2691.03
229.81	2861.01
230.03	2942.93
230.25	2758.61
230.47	2566.10
230.69	2650.07
230.90	3092.43
231.12	2863.06
231.34	2723.80
231.56	2752.47
231.78	2797.53
232.00	3002.32
232.21	2695.13
232.43	2654.17
232.65	2598.87
232.87	3024.85
233.09	2555.86
233.30	2588.63
233.52	3170.26
233.74	2932.69
233.96	2559.96
234.18	2838.48
234.40	2983.89
234.61	3395.53
234.83	2656.22
235.05	2641.88
235.27	3395.53
235.49	3282.89
235.70	2600.92
235.92	2705.37
236.14	3104.72
236.36	3340.24
236.58	2584.54
236.79	2768.85
237.01	2971.60
237.23	2926.55
237.45	2861.01
237.67	2684.89
237.88	3057.62
238.10	3362.76
238.32	2609.11
238.54	2670.55
238.76	3016.66
238.97	2815.96
239.19	2592.73
239.41	2752.47
239.63	3190.74
239.85	2916.31
240.06	2699.22
240.28	2729.94
240.50	3166.16
240.72	2985.94
240.93	2594.78
241.15	2832.34
241.37	3069.91
241.59	3248.08
241.81	2713.56
242.02	2760.66
242.24	3006.42
242.46	3145.68
242.68	2596.82
242.89	2660.31
243.11	3129.30
243.33	2967.51
243.55	2750.42
243.76	2744.28
243.98	2856.92
244.20	2955.22
244.42	2717.65
244.64	2711.51
244.85	2772.95
245.07	2828.24
245.29	2734.04
245.51	2752.47
245.72	3065.81
245.94	3143.63
246.16	2713.56
246.38	2645.98
246.59	2924.50
246.81	2809.81
247.03	2580.44
247.24	2559.96
247.46	2879.44
247.68	3006.42
247.90	2594.78
248.11	2693.08
248.33	3227.60
248.55	2963.41
248.77	2725.85
248.98	2777.05
249.20	3231.69
249.42	3092.43
249.64	2670.55
249.85	2670.55
250.07	2883.54
250.29	3153.87
250.50	2777.05
250.72	2621.40
250.94	3076.05
251.16	3352.52
251.37	2680.79
251.59	2756.57
251.81	3045.33
252.02	3149.78
252.24	2656.22
252.46	2795.48
252.68	2893.78
252.89	2779.09
253.11	2465.75
253.33	2834.39
253.54	3276.75
253.76	2777.05
253.98	2654.17
254.20	2656.22
254.41	2826.20
254.63	2971.60
254.85	2592.73
255.06	2750.42
255.28	3051.47
255.50	2947.03
255.71	2643.93
255.93	2572.25
256.15	3000.27
256.36	3108.82
256.58	2578.39
256.80	2691.03
257.02	2992.08
257.23	2908.12
257.45	2717.65
257.67	2775.00
257.88	2850.77
258.10	2987.99
258.32	2684.89
258.53	2699.22
258.75	3317.71
258.97	2871.25
259.18	2574.30
259.40	2613.21
259.62	3262.41
259.83	3268.56
260.05	2660.31
260.27	3303.37
260.48	3133.39
260.70	2861.01
260.92	2576.34
261.13	2656.22
261.35	3086.29
261.57	3112.91
261.78	2611.16
262.00	2670.55
262.22	3135.44
262.43	2824.15
262.65	2738.13
262.86	2717.65
263.08	3416.01
263.30	2922.45
263.51	2529.24
263.73	2668.50
263.95	3248.08
264.16	2826.20
264.38	2551.77
264.60	2637.78
264.81	3008.47
265.03	3178.45
265.25	2985.94
265.46	2662.36
265.68	3248.08
265.89	3153.87
266.11	2551.77
266.33	2619.35
266.54	3162.06
266.76	3010.51
266.98	2779.09
267.19	2858.96
267.41	3147.73
267.62	2947.03
267.84	2600.92
268.06	2770.90
268.27	3041.23
268.49	3100.62
268.70	2781.14
268.92	2676.70
269.14	2885.59
269.35	2768.85
269.57	2822.10
269.79	2766.81
270.00	2918.36
270.22	3213.26
270.43	2650.07
270.65	2559.96
270.87	2930.64
271.08	3088.34
271.30	2781.14
271.51	2684.89
271.73	3129.30
271.95	3194.83
272.16	2705.37
272.38	2746.33
272.59	2992.08
272.81	3045.33
273.02	2559.96
273.24	2738.13
273.46	3135.44
273.67	2742.23
273.89	2578.39
274.10	2621.40
274.32	3219.41
274.54	3108.82
274.75	2772.95
274.97	2824.15
275.18	3104.72
275.40	3112.91
275.61	2731.99
275.83	2772.95
276.05	2799.57
276.26	2998.23
276.48	2731.99
276.69	2770.90
276.91	2815.96
277.12	3252.17
277.34	2901.97
277.55	2852.82
277.77	3037.14
277.99	2973.65
278.20	2752.47
278.42	2801.62
278.63	2791.38
278.85	2813.91
279.06	2744.28
279.28	2916.31
279.49	3157.97
279.71	3110.86
279.93	2754.52
280.14	2734.04
280.36	2832.34
280.57	3145.68
280.79	2809.81
281.00	2680.79
281.22	2858.96
281.43	3117.01
281.65	2537.43
281.86	2705.37
282.08	3051.47
282.29	3321.81
282.51	2680.79
282.73	2680.79
282.94	2713.56
283.16	3221.45
283.37	2914.26
283.59	2871.25
283.80	3112.91
284.02	3010.51
284.23	2822.10
284.45	2779.09
284.66	2820.05
284.88	2858.96
285.09	2672.60
285.31	2906.07
285.52	3094.48
285.74	2766.81
285.95	2961.36
286.17	2875.35
286.38	3174.35
286.60	2824.15
286.81	2736.09
287.03	2707.41
287.24	2942.93
287.46	3043.28
287.67	2930.64
287.89	2998.23
288.10	2961.36
288.32	2985.94
288.53	2914.26
288.75	2838.48
288.96	3069.91
289.18	2885.59
289.39	2740.18
289.61	2793.43
289.82	3352.52
290.04	3291.09
290.25	2693.08
290.47	2899.92
290.68	2963.41
290.90	3149.78
291.11	2691.03
291.33	2850.77
291.54	2906.07
291.76	2883.54
291.97	2887.64
292.18	2916.31
292.40	2889.68
292.61	2873.30
292.83	3069.91
293.04	2766.81
293.26	3045.33
293.47	2994.13
293.69	2736.09
293.90	2744.28
294.12	3160.02
294.33	2998.23
294.55	2768.85
294.76	2979.79
294.97	3203.02
295.19	3362.76
295.40	2721.75
295.62	2930.64
295.83	3127.25
296.05	2729.94
296.26	2920.40
296.48	2803.67
296.69	2985.94
296.90	2918.36
297.12	2957.27
297.33	2975.70
297.55	3094.48
297.76	3033.04
297.98	2895.83
298.19	2965.46
298.41	2852.82
298.62	2801.62
298.83	2983.89
299.05	2840.53
299.26	2971.60
299.48	2803.67
299.69	2899.92
299.90	2824.15
300.12	2869.20
300.33	3035.09
300.55	2899.92
300.76	2838.48
300.98	2840.53
301.19	3074.00
301.40	2856.92
301.62	2748.37
301.83	3074.00
302.05	2969.55
302.26	2815.96
302.47	2951.12
302.69	2865.11
302.90	2961.36
303.12	2729.94
303.33	2897.88
303.54	3327.95
303.76	2865.11
303.97	2787.29
304.19	2936.79
304.40	2828.24
304.61	3061.71
304.83	2908.12
305.04	2914.26
305.26	3114.96
305.47	2873.30
305.68	2844.63
305.90	2674.65
306.11	3164.11
306.33	2932.69
306.54	2668.50
306.75	2766.81
306.97	2717.65
307.18	2746.33
307.39	2766.81
307.61	2961.36
307.82	2985.94
308.04	3045.33
308.25	2713.56
308.46	2910.16
308.68	3012.56
308.89	2949.08
309.10	2891.73
309.32	2772.95
309.53	3039.19
309.74	3106.77
309.96	2709.46
310.17	2865.11
310.39	2885.59
310.60	3084.24
310.81	2797.53
311.03	2729.94
311.24	3137.49
311.45	2965.46
311.67	3014.61
311.88	2920.40
312.09	2801.62
312.31	2875.35
312.52	2764.76
312.73	2760.66
312.95	2697.17
313.16	2850.77
313.37	2901.97
313.59	2924.50
313.80	3059.67
314.01	3274.70
314.23	2795.48
314.44	2740.18
314.65	2756.57
314.87	2815.96
315.08	2783.19
315.29	2740.18
315.51	2758.61
315.72	2734.04
315.93	2865.11
316.15	2807.77
316.36	2865.11
316.57	3088.34
316.79	2717.65
317.00	2768.85
317.21	3164.11
317.43	2881.49
317.64	2836.44
317.85	2709.46
318.07	2848.72
318.28	2914.26
318.49	2858.96
318.70	3049.43
318.92	3045.33
319.13	3127.25
319.34	2985.94
319.56	2787.29
319.77	3088.34
319.98	3114.96
320.20	2985.94
320.41	2953.17
320.62	2990.03
320.83	2805.72
321.05	2967.51
321.26	2850.77
321.47	3006.42
321.69	3119.06
321.90	2674.65
322.11	2760.66
322.32	3016.66
322.54	3325.90
322.75	2838.48
322.96	3497.93
323.18	2799.57
323.39	2686.94
323.60	2697.17
323.81	2953.17
324.03	2858.96
324.24	2987.99
324.45	2928.60
324.66	2768.85
324.88	3059.67
325.09	3190.74
325.30	2779.09
325.52	2709.46
325.73	3041.23
325.94	2848.72
326.15	2695.13
326.37	2672.60
326.58	3186.64
326.79	3225.55
327.00	2797.53
327.22	2795.48
327.43	2985.94
327.64	2754.52
327.85	2928.60
328.07	2912.21
328.28	3434.44
328.49	2901.97
328.70	2828.24
328.92	2836.44
329.13	2863.06
329.34	3020.75
329.55	3051.47
329.76	2897.88
329.98	2899.92
330.19	3243.98
330.40	2875.35
330.61	2922.45
330.83	3084.24
331.04	2840.53
331.25	2885.59
331.46	2787.29
331.68	2826.20
331.89	3178.45
332.10	2858.96
332.31	2613.21
332.52	3022.80
332.74	3192.78
332.95	2621.40
333.16	2781.14
333.37	3114.96
333.58	2914.26
333.80	2848.72
334.01	2594.78
334.22	2957.27
334.43	2940.88
334.64	2787.29
334.86	2713.56
335.07	2836.44
335.28	3178.45
335.49	2643.93
335.70	2840.53
335.92	3145.68
336.13	3356.62
336.34	2883.54
336.55	2840.53
336.76	3092.43
336.98	2721.75
337.19	2840.53
337.40	2934.74
337.61	3497.93
337.82	2977.75
338.04	2920.40
338.25	2711.51
338.46	2914.26
338.67	2928.60
338.88	2742.23
339.09	2670.55
339.31	2901.97
339.52	2740.18
339.73	2715.61
339.94	2832.34
340.15	3041.23
340.36	2928.60
340.58	2891.73
340.79	2789.33
341.00	3004.37
341.21	2795.48
341.42	3045.33
341.63	2768.85
341.85	3135.44
342.06	3028.95
342.27	2754.52
342.48	2877.40
342.69	2734.04
342.90	3074.00
343.12	3180.50
343.33	2748.37
343.54	3164.11
343.75	3164.11
343.96	2887.64
344.17	2650.07
344.38	2938.84
344.60	2781.14
344.81	2764.76
345.02	2830.29
345.23	3110.86
345.44	3403.72
345.65	2963.41
345.86	2828.24
346.07	2990.03
346.29	2906.07
346.50	2938.84
346.71	2908.12
346.92	3176.40
347.13	3362.76
347.34	2908.12
347.55	2705.37
347.76	3182.54
347.98	2666.46
348.19	2795.48
348.40	2912.21
348.61	2885.59
348.82	3190.74
349.03	2879.44
349.24	2768.85
349.45	3313.61
349.66	2662.36
349.88	2766.81
350.09	2791.38
350.30	3231.69
350.51	3215.31
350.72	2973.65
350.93	2760.66
351.14	2949.08
351.35	3069.91
351.56	2879.44
351.77	2877.40
351.99	3037.14
352.20	3219.41
352.41	2924.50
352.62	2641.88
352.83	3026.90
353.04	3059.67
353.25	2807.77
353.46	2789.33
353.67	3168.21
353.88	2576.34
354.09	2768.85
354.30	2836.44
354.52	3155.92
354.73	2942.93
354.94	2748.37
355.15	2867.16
355.36	3243.98
355.57	2877.40
355.78	2805.72
355.99	2746.33
356.20	2959.31
356.41	3217.36
356.62	2863.06
356.83	2861.01
357.04	3225.55
357.25	2688.98
357.46	2797.53
357.68	2621.40
357.89	2762.71
358.10	2987.99
358.31	2813.91
358.52	2881.49
358.73	2822.10
358.94	2854.87
359.15	2781.14
359.36	2852.82
359.57	3024.85
359.78	2871.25
359.99	2965.46
360.20	2713.56
360.41	3000.27
360.62	3100.62
360.83	2875.35
361.04	2895.83
361.25	3018.71
361.46	3291.09
361.67	2940.88
361.88	2801.62
362.09	3151.82
362.30	3049.43
362.51	2740.18
362.72	2854.87
362.93	3082.19
363.14	3063.76
363.35	2924.50
363.56	2701.27
363.78	3133.39
363.99	3172.30
364.20	2852.82
364.41	2879.44
364.62	3319.76
364.83	3086.29
365.04	2781.14
365.25	2844.63
365.46	3336.14
365.67	2781.14
365.88	2973.65
366.09	2752.47
366.30	2934.74
366.51	3043.28
366.72	2764.76
366.93	2746.33
367.14	3026.90
367.35	3221.45
367.56	2770.90
367.77	2965.46
367.98	2932.69
368.18	3110.86
368.39	2877.40
368.60	2775.00
368.81	3123.15
369.02	3069.91
369.23	2852.82
369.44	2633.69
369.65	2828.24
369.86	3096.53
370.07	2924.50
370.28	2736.09
370.49	3024.85
370.70	3024.85
370.91	2744.28
371.12	2695.13
371.33	3096.53
371.54	2901.97
371.75	2869.20
371.96	2549.72
372.17	3055.57
372.38	2979.79
372.59	2889.68
372.80	2723.80
373.01	2947.03
373.22	2971.60
373.43	2891.73
373.64	2734.04
373.85	3182.54
374.06	3319.76
374.26	2977.75
374.47	2914.26
374.68	3184.59
374.89	3024.85
375.10	2762.71
375.31	2875.35
375.52	3106.77
375.73	3041.23
375.94	2625.50
376.15	2957.27
376.36	2807.77
376.57	2918.36
376.78	2838.48
376.99	2772.95
377.20	3186.64
377.40	2932.69
377.61	3051.47
377.82	2740.18
378.03	3270.61
378.24	3043.28
378.45	2832.34
378.66	2826.20
378.87	2748.37
379.08	2758.61
379.29	2832.34
379.50	3033.04
379.71	2947.03
379.91	3143.63
380.12	2828.24
380.33	2899.92
380.54	2877.40
380.75	2934.74
380.96	2818.00
381.17	2807.77
381.38	2955.22
381.59	2953.17
381.80	2922.45
382.00	3000.27
382.21	3028.95
382.42	3270.61
382.63	3112.91
382.84	2928.60
383.05	3069.91
383.26	3270.61
383.47	2924.50
383.68	2805.72
383.88	3123.15
384.09	3112.91
384.30	3000.27
384.51	2901.97
384.72	2865.11
384.93	2822.10
385.14	2891.73
385.35	3033.04
385.55	2678.74
385.76	3155.92
385.97	2869.20
386.18	2707.41
386.39	2799.57
386.60	2897.88
386.81	2742.23
387.02	2688.98
387.22	2762.71
387.43	3065.81
387.64	2930.64
387.85	3112.91
388.06	3028.95
388.27	4116.42
388.48	7176.08
388.68	10725.21
388.89	13481.78
389.10	14464.80
389.31	14106.41
389.52	11186.01
389.73	9666.41
389.93	8798.07
390.14	7960.45
390.35	7352.21
390.56	6518.68
390.77	5496.75
390.98	4325.31
391.18	3674.06
391.39	3448.78
391.60	3033.04
391.81	3022.80
392.02	2904.02
392.23	3336.14
392.43	3065.81
392.64	2975.70
392.85	2838.48
393.06	3330.00
393.27	2987.99
393.47	2830.29
393.68	2885.59
393.89	2940.88
394.10	3243.98
394.31	2770.90
394.52	2725.85
394.72	2899.92
394.93	3243.98
395.14	2697.17
395.35	2979.79
395.56	2865.11
395.76	2983.89
395.97	2844.63
396.18	2983.89
396.39	3033.04
396.60	3471.31
396.80	3145.68
397.01	3047.38
397.22	3082.19
397.43	3123.15
397.64	2811.86
397.84	2811.86
398.05	3375.05
398.26	2922.45
398.47	3008.47
398.67	2979.79
398.88	2969.55
399.09	3190.74
399.30	2820.05
399.51	2922.45
399.71	2840.53
399.92	3053.52
400.13	2906.07
400.34	2867.16
400.54	2992.08
400.75	3268.56
400.96	3024.85
401.17	3088.34
401.37	3133.39
401.58	2940.88
401.79	2838.48
402.00	2936.79
402.21	3416.01
402.41	3166.16
402.62	3074.00
402.83	3178.45
403.04	3327.95
403.24	3631.05
403.45	2967.51
403.66	3035.09
403.87	3153.87
404.07	3276.75
404.28	2975.70
404.49	3106.77
404.70	3053.52
404.90	3078.10
405.11	2789.33
405.32	3000.27
405.52	2863.06
405.73	2867.16
405.94	2715.61
406.15	2926.55
406.35	3160.02
406.56	3065.81
406.77	2887.64
406.98	2811.86
407.18	2924.50
407.39	3239.89
407.60	2830.29
407.80	2949.08
408.01	2916.31
408.22	3022.80
408.43	2772.95
408.63	2938.84
408.84	3043.28
409.05	3110.86
409.25	2795.48
409.46	2805.72
409.67	2875.35
409.88	2912.21
410.08	2899.92
410.29	2781.14
410.50	3131.34
410.70	3071.95
410.91	2731.99
411.12	2940.88
411.32	3016.66
411.53	2803.67
411.74	2863.06
411.95	2949.08
412.15	3006.42
412.36	3100.62
412.57	2996.18
412.77	2971.60
412.98	2944.98
413.19	2977.75
413.39	2850.77
413.60	2891.73
413.81	3239.89
414.01	2711.51
414.22	2865.11
414.43	3010.51
414.63	2944.98
414.84	3102.67
415.05	2856.92
415.25	2676.70
415.46	3080.14
415.67	2916.31
415.87	2883.54
416.08	2848.72
416.29	3006.42
416.49	3049.43
416.70	2822.10
416.91	2801.62
417.11	2940.88
417.32	3213.26
417.53	2908.12
417.73	2942.93
417.94	2971.60
418.15	2977.75
418.35	2807.77
418.56	2861.01
418.77	3381.20
418.97	3008.47
419.18	2883.54
419.38	2572.25
419.59	2938.84
419.80	3192.78
420.00	2818.00
420.21	2871.25
420.42	3186.64
420.62	2985.94
420.83	2871.25
421.04	2750.42
421.24	2938.84
421.45	3127.25
421.65	2899.92
421.86	2877.40
422.07	3061.71
422.27	3133.39
422.48	2799.57
422.69	2672.60
422.89	2987.99
423.10	2957.27
423.30	2713.56
423.51	2924.50
423.72	3053.52
423.92	3037.14
424.13	2742.23
424.33	2936.79
424.54	3104.72
424.75	3028.95
424.95	3078.10
425.16	2811.86
425.36	2942.93
425.57	3194.83
425.78	3004.37
425.98	2901.97
426.19	2944.98
426.39	2822.10
426.60	2955.22
426.81	2969.55
427.01	3004.37
427.22	2930.64
427.42	2668.50
427.63	2785.24
427.83	3200.98
428.04	3350.48
428.25	2985.94
428.45	3065.81
428.66	3184.59
428.86	2998.23
429.07	2854.87
429.28	2899.92
429.48	2973.65
429.69	2809.81
429.89	2944.98
430.10	2695.13
430.30	3098.58
430.51	3209.17
430.71	2836.44
430.92	2883.54
431.13	2944.98
431.33	3022.80
431.54	2922.45
431.74	3084.24
431.95	3395.53
432.15	2805.72
432.36	2854.87
432.56	2865.11
432.77	3315.66
432.98	3307.47
433.18	2934.74
433.39	2697.17
433.59	2916.31
433.80	3315.66
434.00	3014.61
434.21	2920.40
434.41	2891.73
434.62	3456.97
434.82	2836.44
435.03	2803.67
435.23	3004.37
435.44	2691.03
435.64	2809.81
435.85	2834.39
436.06	3090.38
436.26	3184.59
436.47	2813.91
436.67	2762.71
436.88	3076.05
437.08	3256.27
437.29	3045.33
437.49	2977.75
437.70	3256.27
437.90	2940.88
438.11	3033.04
438.31	3012.56
438.52	3248.08
438.72	3129.30
438.93	3170.26
439.13	2914.26
439.34	3039.19
439.54	2944.98
439.75	2922.45
439.95	2979.79
440.16	2856.92
440.36	2977.75
440.57	2955.22
440.77	2895.83
440.98	3028.95
441.18	3067.86
441.39	2748.37
441.59	2818.00
441.80	3395.53
442.00	3049.43
442.21	2985.94
442.41	2709.46
442.62	3166.16
442.82	2951.12
443.02	2848.72
443.23	2824.15
443.43	2981.84
443.64	3274.70
443.84	2740.18
444.05	2947.03
444.25	3016.66
444.46	2932.69
444.66	2777.05
444.87	3088.34
445.07	2727.89
445.28	2846.68
445.48	3010.51
445.69	2947.03
445.89	3510.22
446.09	2910.16
446.30	3200.98
446.50	3323.85
446.71	4757.43
446.91	5877.67
447.12	6635.42
447.32	6987.67
447.53	6868.89
447.73	5781.42
447.93	5035.96
448.14	4695.99
448.34	4810.68
448.55	4001.73
448.75	4130.75
448.96	3870.66
449.16	3690.44
449.36	3475.40
449.57	3153.87
449.77	2891.73
449.98	2871.25
450.18	3037.14
450.39	2856.92
450.59	2975.70
450.79	3008.47
451.00	2869.20
451.20	3008.47
451.41	2770.90
451.61	3162.06
451.81	3014.61
452.02	2850.77
452.22	2871.25
452.43	2877.40
452.63	2936.79
