SpectraSuite Data File
++++++++++++++++++++++++++++++++++++
Date: Thu May 05 21:10:58 CEST 2016
User: root
Dark Spectrum Present: No
Reference Spectrum Present: No
Number of Sampled Component Spectra: 1
Spectrometers: USB4C02835
Integration Time (usec): 100000 (USB4C02835)
Spectra Averaged: 1 (USB4C02835)
Boxcar Smoothing: 0 (USB4C02835)
Correct for Electrical Dark: No (USB4C02835)
Strobe/Lamp Enabled: No (USB4C02835)
Correct for Detector Non-linearity: No (USB4C02835)
Correct for Stray Light: No (USB4C02835)
Number of Pixels in Processed Spectrum: 3648
>>>>>Begin Processed Spectral Data<<<<<
177.47	2129.89
177.69	2129.89
177.91	2129.89
178.13	2150.37
178.36	2140.13
178.58	2709.46
178.80	2906.07
179.02	2760.66
179.24	2801.62
179.46	2713.56
179.68	2762.71
179.90	3016.66
180.13	2928.60
180.35	2541.53
180.57	2656.22
180.79	3143.63
181.01	3004.37
181.23	2717.65
181.45	2797.53
181.67	3209.17
181.90	3200.98
182.12	2699.22
182.34	2539.48
182.56	2957.27
182.78	3094.48
183.00	2758.61
183.22	2762.71
183.44	2717.65
183.66	3444.68
183.89	2797.53
184.11	2768.85
184.33	3121.10
184.55	3190.74
184.77	2658.26
184.99	2703.32
185.21	2930.64
185.43	3483.59
185.65	2686.94
185.87	2684.89
186.10	3416.01
186.32	3391.44
186.54	2813.91
186.76	2836.44
186.98	3137.49
187.20	2936.79
187.42	2701.27
187.64	2598.87
187.86	3123.15
188.08	3143.63
188.30	2625.50
188.52	2684.89
188.75	3211.22
188.97	3198.93
189.19	2654.17
189.41	2699.22
189.63	3106.77
189.85	2867.16
190.07	2582.49
190.29	2566.10
190.51	3057.62
190.73	2848.72
190.95	2871.25
191.17	2734.04
191.39	2787.29
191.61	2912.21
191.84	2697.17
192.06	2838.48
192.28	2707.41
192.50	3450.83
192.72	2877.40
192.94	2736.09
193.16	3166.16
193.38	2992.08
193.60	2654.17
193.82	2742.23
194.04	3166.16
194.26	3057.62
194.48	2731.99
194.70	2725.85
194.92	2949.08
195.14	3166.16
195.36	2676.70
195.58	2772.95
195.80	3018.71
196.02	2836.44
196.24	2557.91
196.46	2805.72
196.69	2889.68
196.91	3510.22
197.13	2693.08
197.35	2678.74
197.57	3217.36
197.79	3160.02
198.01	2715.61
198.23	2725.85
198.45	3123.15
198.67	2824.15
198.89	2539.48
199.11	2762.71
199.33	2848.72
199.55	2625.50
199.77	2672.60
199.99	2891.73
200.21	2852.82
200.43	3057.62
200.65	2580.44
200.87	2516.95
201.09	2975.70
201.31	2969.55
201.53	2746.33
201.75	2680.79
201.97	3045.33
202.19	2951.12
202.41	2797.53
202.63	2879.44
202.85	3102.67
203.07	3000.27
203.29	2729.94
203.51	2691.03
203.73	2834.39
203.95	3506.12
204.17	2639.83
204.39	2797.53
204.61	2914.26
204.83	2944.98
205.05	2844.63
205.27	2783.19
205.49	3442.64
205.71	2994.13
205.93	2545.63
206.15	2633.69
206.37	3016.66
206.59	2947.03
206.81	2580.44
207.03	2602.97
207.25	2756.57
207.47	3174.35
207.69	2676.70
207.91	2904.02
208.13	3313.61
208.34	2910.16
208.56	2594.78
208.78	2772.95
209.00	2979.79
209.22	2942.93
209.44	2701.27
209.66	2639.83
209.88	3043.28
210.10	2920.40
210.32	2611.16
210.54	2789.33
210.76	3037.14
210.98	3114.96
211.20	2533.34
211.42	2805.72
211.64	3172.30
211.86	3065.81
212.08	2729.94
212.30	2772.95
212.52	2852.82
212.74	3078.10
212.96	2723.80
213.17	2822.10
213.39	3174.35
213.61	3258.32
213.83	2672.60
214.05	2623.45
214.27	3176.40
214.49	2836.44
214.71	2633.69
214.93	2873.30
215.15	3024.85
215.37	3188.69
215.59	2555.86
215.81	2703.32
216.03	3241.93
216.24	2940.88
216.46	2727.89
216.68	2770.90
216.90	3086.29
217.12	3127.25
217.34	2592.73
217.56	2832.34
217.78	3231.69
218.00	3082.19
218.22	2772.95
218.44	2772.95
218.66	3028.95
218.87	3426.25
219.09	2731.99
219.31	2740.18
219.53	3045.33
219.75	2975.70
219.97	2738.13
220.19	2641.88
220.41	2996.18
220.63	3239.89
220.85	2684.89
221.06	2691.03
221.28	3196.88
221.50	3112.91
221.72	2621.40
221.94	2609.11
222.16	3080.14
222.38	3119.06
222.60	2666.46
222.82	2822.10
223.03	3123.15
223.25	2789.33
223.47	2639.83
223.69	3004.37
223.91	3170.26
224.13	3045.33
224.35	2537.43
224.57	2871.25
224.78	3127.25
225.00	2846.68
225.22	2799.57
225.44	2631.64
225.66	3108.82
225.88	2944.98
226.10	2764.76
226.32	2703.32
226.53	3168.21
226.75	2920.40
226.97	2668.50
227.19	2703.32
227.41	2873.30
227.63	2846.68
227.85	2537.43
228.06	2715.61
228.28	3026.90
228.50	3084.24
228.72	2576.34
228.94	2680.79
229.16	2658.26
229.37	2748.37
229.59	2541.53
229.81	2906.07
230.03	2957.27
230.25	2766.81
230.47	2596.82
230.69	2697.17
230.90	3133.39
231.12	2877.40
231.34	2762.71
231.56	2740.18
231.78	2783.19
232.00	2975.70
232.21	2719.70
232.43	2680.79
232.65	2656.22
232.87	3010.51
233.09	2586.58
233.30	2662.36
233.52	3184.59
233.74	2971.60
233.96	2645.98
234.18	2830.29
234.40	2969.55
234.61	3362.76
234.83	2580.44
235.05	2635.74
235.27	3416.01
235.49	3282.89
235.70	2580.44
235.92	2688.98
236.14	3059.67
236.36	3405.77
236.58	2562.01
236.79	2738.13
237.01	2983.89
237.23	2947.03
237.45	2944.98
237.67	2676.70
237.88	3035.09
238.10	3282.89
238.32	2658.26
238.54	2695.13
238.76	2893.78
238.97	2799.57
239.19	2562.01
239.41	2695.13
239.63	3137.49
239.85	2895.83
240.06	2668.50
240.28	2670.55
240.50	3203.02
240.72	2947.03
240.93	2580.44
241.15	2848.72
241.37	2979.79
241.59	3153.87
241.81	2682.84
242.02	2697.17
242.24	3086.29
242.46	3059.67
242.68	2521.05
242.89	2639.83
243.11	3145.68
243.33	2856.92
243.55	2619.35
243.76	2693.08
243.98	2818.00
244.20	2994.13
244.42	2664.41
244.64	2639.83
244.85	2787.29
245.07	2832.34
245.29	2576.34
245.51	2654.17
245.72	3049.43
245.94	3147.73
246.16	2652.12
246.38	2699.22
246.59	2828.24
246.81	2846.68
247.03	2605.02
247.24	2559.96
247.46	2932.69
247.68	3104.72
247.90	2648.02
248.11	2693.08
248.33	3090.38
248.55	2949.08
248.77	2680.79
248.98	2734.04
249.20	3286.99
249.42	3033.04
249.64	2717.65
249.85	2643.93
250.07	2871.25
250.29	3119.06
250.50	2713.56
250.72	2576.34
250.94	3024.85
251.16	3348.43
251.37	2697.17
251.59	2748.37
251.81	3008.47
252.02	3246.03
252.24	2586.58
252.46	2803.67
252.68	2801.62
252.89	2863.06
253.11	2543.58
253.33	2822.10
253.54	3276.75
253.76	2840.53
253.98	2680.79
254.20	2705.37
254.41	2768.85
254.63	2926.55
254.85	2570.20
255.06	2746.33
255.28	3026.90
255.50	2877.40
255.71	2688.98
255.93	2500.57
256.15	2947.03
256.36	3090.38
256.58	2611.16
256.80	2660.31
257.02	3010.51
257.23	2947.03
257.45	2680.79
257.67	2791.38
257.88	2856.92
258.10	3028.95
258.32	2678.74
258.53	2746.33
258.75	3303.37
258.97	2834.39
259.18	2619.35
259.40	2639.83
259.62	3364.81
259.83	3262.41
260.05	2684.89
260.27	3473.36
260.48	3094.48
260.70	2783.19
260.92	2592.73
261.13	2721.75
261.35	3000.27
261.57	3033.04
261.78	2572.25
262.00	2686.94
262.22	3092.43
262.43	2842.58
262.65	2734.04
262.86	2717.65
263.08	3416.01
263.30	3035.09
263.51	2523.10
263.73	2672.60
263.95	3303.37
264.16	2777.05
264.38	2576.34
264.60	2602.97
264.81	2934.74
265.03	3184.59
265.25	3002.32
265.46	2719.70
265.68	3203.02
265.89	3074.00
266.11	2564.06
266.33	2703.32
266.54	3162.06
266.76	3106.77
266.98	2721.75
267.19	2832.34
267.41	3088.34
267.62	2893.78
267.84	2484.19
268.06	2867.16
268.27	2971.60
268.49	3190.74
268.70	2791.38
268.92	2746.33
269.14	2858.96
269.35	2807.77
269.57	2693.08
269.79	2770.90
270.00	2887.64
270.22	3346.38
270.43	2605.02
270.65	2543.58
270.87	3026.90
271.08	3143.63
271.30	2826.20
271.51	2656.22
271.73	3071.95
271.95	3307.47
272.16	2709.46
272.38	2818.00
272.59	2928.60
272.81	3063.76
273.02	2682.84
273.24	2768.85
273.46	3176.40
273.67	2717.65
273.89	2574.30
274.10	2701.27
274.32	3172.30
274.54	2971.60
274.75	2723.80
274.97	2799.57
275.18	3078.10
275.40	3055.57
275.61	2697.17
275.83	2840.53
276.05	2856.92
276.26	2963.41
276.48	2762.71
276.69	2783.19
276.91	2934.74
277.12	3299.28
277.34	2834.39
277.55	2926.55
277.77	2979.79
277.99	2977.75
278.20	2791.38
278.42	2658.26
278.63	2815.96
278.85	2826.20
279.06	2727.89
279.28	2826.20
279.49	3162.06
279.71	3225.55
279.93	2885.59
280.14	2844.63
280.36	2914.26
280.57	3123.15
280.79	2957.27
281.00	2727.89
281.22	2863.06
281.43	3149.78
281.65	2617.30
281.86	2686.94
282.08	3121.10
282.29	3192.78
282.51	2637.78
282.73	2672.60
282.94	2740.18
283.16	3119.06
283.37	2856.92
283.59	2846.68
283.80	3057.62
284.02	2967.51
284.23	2803.67
284.45	2797.53
284.66	2885.59
284.88	2775.00
285.09	2750.42
285.31	2920.40
285.52	3053.52
285.74	2680.79
285.95	3002.32
286.17	2865.11
286.38	3219.41
286.60	2899.92
286.81	2787.29
287.03	2762.71
287.24	3033.04
287.46	3061.71
287.67	2901.97
287.89	3008.47
288.10	3002.32
288.32	2977.75
288.53	2971.60
288.75	2877.40
288.96	3123.15
289.18	2881.49
289.39	2805.72
289.61	2932.69
289.82	3356.62
290.04	3334.09
290.25	2607.06
290.47	2873.30
290.68	2908.12
290.90	3196.88
291.11	2625.50
291.33	2934.74
291.54	2863.06
291.76	2818.00
291.97	2846.68
292.18	2858.96
292.40	2947.03
292.61	2871.25
292.83	3088.34
293.04	2742.23
293.26	2981.84
293.47	2992.08
293.69	2740.18
293.90	2783.19
294.12	3121.10
294.33	2987.99
294.55	2803.67
294.76	3018.71
294.97	3250.13
295.19	3440.59
295.40	2799.57
295.62	2828.24
295.83	3137.49
296.05	2848.72
296.26	3049.43
296.48	2813.91
296.69	3004.37
296.90	3016.66
297.12	2985.94
297.33	2867.16
297.55	3018.71
297.76	2963.41
297.98	2922.45
298.19	2932.69
298.41	2963.41
298.62	2863.06
298.83	2992.08
299.05	2938.84
299.26	2975.70
299.48	2910.16
299.69	2858.96
299.90	2785.24
300.12	2832.34
300.33	3067.86
300.55	2834.39
300.76	2906.07
300.98	2813.91
301.19	3092.43
301.40	2799.57
301.62	2777.05
301.83	3088.34
302.05	2967.51
302.26	2854.87
302.47	2924.50
302.69	2842.58
302.90	2928.60
303.12	2602.97
303.33	2895.83
303.54	3213.26
303.76	2922.45
303.97	2783.19
304.19	2994.13
304.40	2795.48
304.61	3078.10
304.83	2932.69
305.04	2867.16
305.26	3141.58
305.47	2830.29
305.68	2762.71
305.90	2572.25
306.11	3104.72
306.33	2955.22
306.54	2699.22
306.75	2758.61
306.97	2740.18
307.18	2830.29
307.39	2785.24
307.61	2930.64
307.82	2963.41
308.04	3098.58
308.25	2731.99
308.46	2881.49
308.68	3004.37
308.89	2916.31
309.10	2889.68
309.32	2848.72
309.53	3028.95
309.74	3088.34
309.96	2760.66
310.17	2865.11
310.39	2861.01
310.60	3078.10
310.81	2858.96
311.03	2770.90
311.24	3117.01
311.45	2994.13
311.67	3018.71
311.88	2869.20
312.09	2926.55
312.31	2899.92
312.52	2768.85
312.73	2731.99
312.95	2791.38
313.16	2842.58
313.37	3004.37
313.59	2969.55
313.80	3082.19
314.01	3315.66
314.23	2793.43
314.44	2637.78
314.65	2760.66
314.87	2836.44
315.08	2797.53
315.29	2777.05
315.51	2822.10
315.72	2691.03
315.93	2873.30
316.15	2764.76
316.36	2883.54
316.57	2936.79
316.79	2799.57
317.00	2779.09
317.21	3084.24
317.43	2820.05
317.64	2901.97
317.85	2723.80
318.07	2848.72
318.28	2963.41
318.49	2836.44
318.70	3092.43
318.92	3047.38
319.13	3045.33
319.34	2981.84
319.56	2865.11
319.77	3051.47
319.98	3129.30
320.20	2981.84
320.41	2985.94
320.62	2985.94
320.83	2848.72
321.05	3022.80
321.26	2807.77
321.47	2987.99
321.69	3133.39
321.90	2756.57
322.11	2744.28
322.32	2971.60
322.54	3223.50
322.75	2830.29
322.96	3510.22
323.18	2813.91
323.39	2686.94
323.60	2734.04
323.81	2867.16
324.03	2875.35
324.24	2914.26
324.45	2848.72
324.66	2697.17
324.88	3180.50
325.09	3160.02
325.30	2768.85
325.52	2701.27
325.73	3053.52
325.94	2846.68
326.15	2648.02
326.37	2715.61
326.58	3112.91
326.79	3180.50
327.00	2707.41
327.22	2758.61
327.43	2947.03
327.64	2709.46
327.85	2994.13
328.07	2820.05
328.28	3348.43
328.49	2914.26
328.70	2729.94
328.92	2801.62
329.13	2887.64
329.34	3004.37
329.55	2990.03
329.76	2951.12
329.98	2949.08
330.19	3186.64
330.40	2926.55
330.61	2856.92
330.83	3114.96
331.04	2867.16
331.25	2906.07
331.46	2828.24
331.68	2805.72
331.89	3217.36
332.10	2797.53
332.31	2693.08
332.52	3053.52
332.74	3205.07
332.95	2635.74
333.16	2852.82
333.37	3061.71
333.58	2856.92
333.80	2793.43
334.01	2629.59
334.22	2967.51
334.43	2875.35
334.64	2703.32
334.86	2768.85
335.07	2803.67
335.28	3286.99
335.49	2699.22
335.70	2858.96
335.92	3221.45
336.13	3448.78
336.34	2820.05
336.55	2801.62
336.76	3106.77
336.98	2670.55
337.19	2940.88
337.40	2934.74
337.61	3473.36
337.82	2832.34
338.04	2906.07
338.25	2756.57
338.46	2967.51
338.67	2977.75
338.88	2672.60
339.09	2680.79
339.31	2893.78
339.52	2836.44
339.73	2750.42
339.94	2901.97
340.15	3164.11
340.36	2926.55
340.58	2832.34
340.79	2748.37
341.00	3076.05
341.21	2861.01
341.42	3045.33
341.63	2828.24
341.85	3110.86
342.06	3069.91
342.27	2686.94
342.48	2916.31
342.69	2746.33
342.90	3024.85
343.12	3043.28
343.33	2752.47
343.54	3147.73
343.75	3260.37
343.96	2846.68
344.17	2648.02
344.38	2990.03
344.60	2842.58
344.81	2754.52
345.02	2836.44
345.23	3139.54
345.44	3436.49
345.65	2867.16
345.86	2879.44
346.07	2998.23
346.29	2836.44
346.50	2891.73
346.71	2820.05
346.92	3198.93
347.13	3366.86
347.34	2910.16
347.55	2750.42
347.76	3026.90
347.98	2781.14
348.19	2846.68
348.40	2904.02
348.61	2965.46
348.82	3196.88
349.03	2885.59
349.24	2678.74
349.45	3293.13
349.66	2568.15
349.88	2832.34
350.09	2713.56
350.30	3274.70
350.51	3176.40
350.72	2926.55
350.93	2854.87
351.14	2979.79
351.35	2961.36
351.56	2848.72
351.77	2908.12
351.99	2975.70
352.20	3180.50
352.41	2981.84
352.62	2607.06
352.83	2936.79
353.04	2916.31
353.25	2785.24
353.46	2877.40
353.67	3241.93
353.88	2623.45
354.09	2736.09
354.30	2850.77
354.52	3104.72
354.73	2967.51
354.94	2709.46
355.15	2858.96
355.36	3317.71
355.57	2877.40
355.78	2754.52
355.99	2777.05
356.20	2977.75
356.41	3133.39
356.62	2910.16
356.83	2852.82
357.04	3256.27
357.25	2760.66
357.46	2740.18
357.68	2672.60
357.89	2893.78
358.10	2934.74
358.31	2828.24
358.52	2787.29
358.73	2889.68
358.94	2797.53
359.15	2779.09
359.36	2854.87
359.57	2940.88
359.78	2881.49
359.99	2994.13
360.20	2781.14
360.41	3030.99
360.62	3026.90
360.83	2895.83
361.04	2719.70
361.25	2944.98
361.46	3266.51
361.67	2883.54
361.88	2787.29
362.09	3192.78
362.30	2947.03
362.51	2785.24
362.72	2815.96
362.93	3092.43
363.14	3006.42
363.35	2863.06
363.56	2744.28
363.78	3184.59
363.99	3190.74
364.20	2805.72
364.41	2871.25
364.62	3309.52
364.83	3010.51
365.04	2742.23
365.25	2922.45
365.46	3264.46
365.67	2906.07
365.88	2965.46
366.09	2723.80
366.30	2926.55
366.51	2908.12
366.72	2713.56
366.93	2803.67
367.14	3080.14
367.35	3254.22
367.56	2678.74
367.77	2906.07
367.98	2906.07
368.18	3078.10
368.39	2963.41
368.60	2748.37
368.81	3123.15
369.02	3102.67
369.23	2770.90
369.44	2674.65
369.65	2879.44
369.86	3028.95
370.07	2916.31
370.28	2713.56
370.49	2942.93
370.70	3137.49
370.91	2727.89
371.12	2680.79
371.33	3141.58
371.54	2881.49
371.75	2901.97
371.96	2523.10
372.17	2930.64
372.38	2953.17
372.59	2836.44
372.80	2803.67
373.01	2934.74
373.22	3014.61
373.43	2770.90
373.64	2738.13
373.85	3211.22
374.06	3291.09
374.26	3059.67
374.47	2883.54
374.68	3297.23
374.89	3049.43
375.10	2695.13
375.31	2926.55
375.52	2940.88
375.73	2961.36
375.94	2611.16
376.15	2922.45
376.36	2869.20
376.57	2899.92
376.78	2818.00
376.99	2893.78
377.20	3200.98
377.40	2979.79
377.61	3010.51
377.82	2795.48
378.03	3170.26
378.24	3012.56
378.45	2850.77
378.66	2897.88
378.87	2715.61
379.08	2766.81
379.29	2758.61
379.50	3033.04
379.71	2981.84
379.91	3090.38
380.12	2758.61
380.33	2944.98
380.54	2963.41
380.75	2918.36
380.96	2801.62
381.17	2916.31
381.38	2975.70
381.59	3039.19
381.80	2891.73
382.00	2969.55
382.21	3104.72
382.42	3194.83
382.63	3125.20
382.84	2920.40
383.05	3092.43
383.26	3264.46
383.47	2924.50
383.68	2852.82
383.88	3057.62
384.09	2979.79
384.30	3057.62
384.51	2873.30
384.72	2930.64
384.93	2791.38
385.14	2889.68
385.35	3092.43
385.55	2736.09
385.76	3071.95
385.97	2850.77
386.18	2605.02
386.39	2840.53
386.60	2924.50
386.81	2820.05
387.02	2691.03
387.22	2811.86
387.43	3100.62
387.64	2893.78
387.85	3076.05
388.06	3012.56
388.27	4044.74
388.48	7311.25
388.68	10835.80
388.89	13584.18
389.10	14522.15
389.31	14206.76
389.52	11544.40
389.73	9844.59
389.93	8898.42
390.14	8101.76
390.35	7368.59
390.56	6737.82
390.77	5693.35
390.98	4290.49
391.18	3651.53
391.39	3471.31
391.60	3051.47
391.81	3059.67
392.02	2883.54
392.23	3391.44
392.43	2975.70
392.64	3006.42
392.85	2838.48
393.06	3243.98
393.27	2969.55
393.47	2772.95
393.68	2879.44
393.89	2924.50
394.10	3235.79
394.31	2815.96
394.52	2795.48
394.72	2879.44
394.93	3246.03
395.14	2750.42
395.35	2924.50
395.56	2856.92
395.76	3024.85
395.97	2846.68
396.18	2951.12
396.39	3037.14
396.60	3559.37
396.80	3209.17
397.01	3067.86
397.22	3135.44
397.43	3143.63
397.64	2828.24
397.84	2914.26
398.05	3362.76
398.26	2959.31
398.47	2889.68
398.67	3010.51
398.88	3065.81
399.09	3155.92
399.30	2781.14
399.51	2918.36
399.71	2893.78
399.92	2987.99
400.13	2938.84
400.34	2811.86
400.54	2965.46
400.75	3198.93
400.96	2985.94
401.17	3051.47
401.37	3059.67
401.58	2934.74
401.79	2772.95
402.00	2987.99
402.21	3428.30
402.41	3155.92
402.62	3071.95
402.83	3151.82
403.04	3364.81
403.24	3669.96
403.45	2973.65
403.66	3018.71
403.87	3237.84
404.07	3270.61
404.28	3033.04
404.49	3143.63
404.70	3071.95
404.90	3114.96
405.11	2840.53
405.32	2863.06
405.52	2953.17
405.73	2914.26
405.94	2797.53
406.15	2961.36
406.35	3108.82
406.56	3135.44
406.77	2965.46
406.98	2850.77
407.18	2885.59
407.39	3217.36
407.60	2879.44
407.80	2908.12
408.01	2805.72
408.22	3084.24
408.43	2756.57
408.63	2891.73
408.84	3112.91
409.05	3151.82
409.25	2852.82
409.46	2840.53
409.67	2844.63
409.88	2920.40
410.08	2850.77
410.29	2787.29
410.50	3172.30
410.70	3176.40
410.91	2707.41
411.12	2932.69
411.32	2961.36
411.53	2838.48
411.74	2820.05
411.95	2820.05
412.15	3037.14
412.36	3147.73
412.57	2963.41
412.77	3043.28
412.98	2965.46
413.19	2842.58
413.39	2920.40
413.60	2936.79
413.81	3235.79
414.01	2656.22
414.22	2910.16
414.43	2963.41
414.63	2910.16
414.84	3176.40
415.05	2873.30
415.25	2639.83
415.46	3035.09
415.67	2865.11
415.87	2920.40
416.08	2828.24
416.29	2854.87
416.49	3053.52
416.70	2848.72
416.91	2775.00
417.11	2985.94
417.32	3147.73
417.53	2971.60
417.73	2975.70
417.94	2934.74
418.15	3082.19
418.35	2861.01
418.56	2938.84
418.77	3403.72
418.97	3057.62
419.18	2865.11
419.38	2574.30
419.59	2940.88
419.80	3246.03
420.00	2815.96
420.21	2910.16
420.42	3211.22
420.62	3071.95
420.83	2850.77
421.04	2850.77
421.24	2922.45
421.45	3092.43
421.65	2912.21
421.86	2893.78
422.07	3153.87
422.27	3112.91
422.48	2801.62
422.69	2688.98
422.89	2969.55
423.10	2979.79
423.30	2766.81
423.51	2932.69
423.72	3168.21
423.92	3178.45
424.13	2680.79
424.33	2944.98
424.54	3082.19
424.75	2994.13
424.95	3018.71
425.16	2820.05
425.36	2934.74
425.57	3213.26
425.78	2996.18
425.98	2930.64
426.19	2924.50
426.39	2863.06
426.60	3024.85
426.81	2934.74
427.01	3020.75
427.22	2797.53
427.42	2600.92
427.63	2711.51
427.83	3168.21
428.04	3211.22
428.25	2979.79
428.45	2971.60
428.66	3182.54
428.86	2908.12
429.07	2871.25
429.28	2861.01
429.48	2967.51
429.69	2867.16
429.89	2918.36
430.10	2799.57
430.30	3121.10
430.51	3166.16
430.71	2688.98
430.92	2949.08
431.13	2861.01
431.33	3078.10
431.54	2914.26
431.74	3108.82
431.95	3399.63
432.15	2793.43
432.36	2832.34
432.56	2947.03
432.77	3344.33
432.98	3211.22
433.18	2987.99
433.39	2742.23
433.59	3016.66
433.80	3379.15
434.00	3012.56
434.21	2908.12
434.41	2830.29
434.62	3375.05
434.82	2701.27
435.03	2871.25
435.23	3035.09
435.44	2746.33
435.64	2828.24
435.85	2889.68
436.06	3137.49
436.26	3200.98
436.47	2865.11
436.67	2832.34
436.88	2963.41
437.08	3176.40
437.29	2959.31
437.49	3059.67
437.70	3125.20
437.90	2934.74
438.11	3084.24
438.31	2930.64
438.52	3196.88
438.72	3225.55
438.93	3112.91
439.13	2934.74
439.34	3174.35
439.54	2998.23
439.75	2955.22
439.95	2897.88
440.16	2897.88
440.36	2961.36
440.57	2869.20
440.77	2910.16
440.98	2975.70
441.18	3028.95
441.39	2844.63
441.59	2731.99
441.80	3364.81
442.00	2990.03
442.21	2953.17
442.41	2668.50
442.62	3174.35
442.82	2904.02
443.02	2871.25
443.23	2908.12
443.43	2891.73
443.64	3225.55
443.84	2738.13
444.05	3035.09
444.25	2967.51
444.46	2926.55
444.66	2879.44
444.87	3086.29
445.07	2777.05
445.28	2871.25
445.48	3059.67
445.69	2930.64
445.89	3422.16
446.09	2977.75
446.30	3219.41
446.50	3284.94
446.71	4706.23
446.91	5793.70
447.12	6635.42
447.32	6760.34
447.53	6956.95
447.73	5693.35
447.93	5035.96
448.14	4888.50
448.34	4855.73
448.55	3966.92
448.75	4124.61
448.96	3784.65
449.16	3676.10
449.36	3485.64
449.57	3096.53
449.77	2871.25
449.98	2959.31
450.18	3026.90
450.39	2815.96
450.59	3002.32
450.79	2985.94
451.00	2822.10
451.20	3002.32
451.41	2822.10
451.61	3082.19
451.81	3002.32
452.02	2777.05
452.22	2775.00
452.43	2910.16
452.63	2852.82
