SpectraSuite Data File
++++++++++++++++++++++++++++++++++++
Date: Thu May 05 21:11:07 CEST 2016
User: root
Dark Spectrum Present: No
Reference Spectrum Present: No
Number of Sampled Component Spectra: 1
Spectrometers: USB4C02835
Integration Time (usec): 100000 (USB4C02835)
Spectra Averaged: 1 (USB4C02835)
Boxcar Smoothing: 0 (USB4C02835)
Correct for Electrical Dark: No (USB4C02835)
Strobe/Lamp Enabled: No (USB4C02835)
Correct for Detector Non-linearity: No (USB4C02835)
Correct for Stray Light: No (USB4C02835)
Number of Pixels in Processed Spectrum: 3648
>>>>>Begin Processed Spectral Data<<<<<
177.47	2156.51
177.69	2156.51
177.91	2156.51
178.13	2197.47
178.36	2170.85
178.58	2752.47
178.80	2955.22
179.02	2639.83
179.24	2797.53
179.46	2568.15
179.68	2650.07
179.90	2975.70
180.13	3063.76
180.35	2529.24
180.57	2617.30
180.79	3153.87
181.01	2994.13
181.23	2652.12
181.45	2836.44
181.67	3106.77
181.90	3100.62
182.12	2811.86
182.34	2549.72
182.56	3098.58
182.78	3092.43
183.00	2660.31
183.22	2736.09
183.44	2631.64
183.66	3461.07
183.89	2756.57
184.11	2736.09
184.33	3102.67
184.55	3194.83
184.77	2684.89
184.99	2623.45
185.21	2932.69
185.43	3454.92
185.65	2641.88
185.87	2607.06
186.10	3360.72
186.32	3321.81
186.54	2828.24
186.76	2783.19
186.98	3221.45
187.20	2981.84
187.42	2719.70
187.64	2723.80
187.86	3047.38
188.08	3184.59
188.30	2617.30
188.52	2738.13
188.75	3207.12
188.97	3192.78
189.19	2691.03
189.41	2658.26
189.63	3063.76
189.85	2965.46
190.07	2586.58
190.29	2521.05
190.51	3123.15
190.73	2707.41
190.95	2836.44
191.17	2754.52
191.39	2719.70
191.61	3016.66
191.84	2680.79
192.06	2758.61
192.28	2717.65
192.50	3483.59
192.72	2838.48
192.94	2799.57
193.16	3211.22
193.38	3026.90
193.60	2598.87
193.82	2871.25
194.04	3108.82
194.26	2996.18
194.48	2617.30
194.70	2639.83
194.92	2887.64
195.14	3139.54
195.36	2658.26
195.58	2738.13
195.80	2924.50
196.02	2809.81
196.24	2582.49
196.46	2752.47
196.69	2918.36
196.91	3377.10
197.13	2758.61
197.35	2738.13
197.57	3241.93
197.79	3129.30
198.01	2736.09
198.23	2742.23
198.45	3035.09
198.67	2815.96
198.89	2531.29
199.11	2734.04
199.33	2889.68
199.55	2639.83
199.77	2703.32
199.99	2834.39
200.21	2901.97
200.43	2996.18
200.65	2615.26
200.87	2482.14
201.09	3063.76
201.31	2977.75
201.53	2775.00
201.75	2789.33
201.97	3055.57
202.19	2983.89
202.41	2717.65
202.63	2842.58
202.85	3102.67
203.07	2971.60
203.29	2693.08
203.51	2535.39
203.73	2748.37
203.95	3403.72
204.17	2631.64
204.39	2772.95
204.61	2985.94
204.83	2916.31
205.05	2842.58
205.27	2725.85
205.49	3368.91
205.71	2934.74
205.93	2643.93
206.15	2564.06
206.37	2987.99
206.59	2951.12
206.81	2523.10
207.03	2590.68
207.25	2785.24
207.47	3172.30
207.69	2713.56
207.91	2936.79
208.13	3254.22
208.34	2887.64
208.56	2705.37
208.78	2772.95
209.00	2904.02
209.22	2928.60
209.44	2664.41
209.66	2717.65
209.88	2924.50
210.10	2928.60
210.32	2572.25
210.54	2725.85
210.76	2981.84
210.98	3131.34
211.20	2523.10
211.42	2799.57
211.64	3219.41
211.86	3108.82
212.08	2725.85
212.30	2701.27
212.52	2957.27
212.74	3092.43
212.96	2734.04
213.17	2826.20
213.39	3059.67
213.61	3237.84
213.83	2684.89
214.05	2516.95
214.27	3180.50
214.49	2838.48
214.71	2627.54
214.93	2752.47
215.15	3047.38
215.37	3188.69
215.59	2570.20
215.81	2709.46
216.03	3241.93
216.24	2992.08
216.46	2701.27
216.68	2748.37
216.90	3067.86
217.12	3121.10
217.34	2637.78
217.56	2820.05
217.78	3248.08
218.00	3102.67
218.22	2754.52
218.44	2787.29
218.66	3018.71
218.87	3477.45
219.09	2746.33
219.31	2656.22
219.53	3055.57
219.75	2873.30
219.97	2725.85
220.19	2717.65
220.41	2977.75
220.63	3370.96
220.85	2676.70
221.06	2770.90
221.28	3266.51
221.50	3141.58
221.72	2645.98
221.94	2549.72
222.16	3022.80
222.38	3129.30
222.60	2715.61
222.82	2697.17
223.03	3182.54
223.25	2838.48
223.47	2656.22
223.69	2936.79
223.91	3110.86
224.13	2998.23
224.35	2619.35
224.57	2852.82
224.78	3131.34
225.00	2799.57
225.22	2785.24
225.44	2551.77
225.66	3102.67
225.88	2947.03
226.10	2828.24
226.32	2664.41
226.53	3258.32
226.75	2947.03
226.97	2709.46
227.19	2746.33
227.41	2901.97
227.63	2920.40
227.85	2498.52
228.06	2684.89
228.28	3057.62
228.50	3090.38
228.72	2590.68
228.94	2621.40
229.16	2697.17
229.37	2803.67
229.59	2643.93
229.81	2899.92
230.03	2971.60
230.25	2719.70
230.47	2467.80
230.69	2596.82
230.90	3184.59
231.12	2899.92
231.34	2824.15
231.56	2854.87
231.78	2770.90
232.00	2959.31
232.21	2727.89
232.43	2713.56
232.65	2660.31
232.87	3043.28
233.09	2545.63
233.30	2582.49
233.52	3225.55
233.74	2979.79
233.96	2590.68
234.18	2760.66
234.40	2981.84
234.61	3370.96
234.83	2592.73
235.05	2582.49
235.27	3530.70
235.49	3203.02
235.70	2578.39
235.92	2762.71
236.14	3123.15
236.36	3346.38
236.58	2600.92
236.79	2838.48
237.01	2895.83
237.23	2994.13
237.45	2873.30
237.67	2654.17
237.88	3127.25
238.10	3370.96
238.32	2662.36
238.54	2654.17
238.76	2916.31
238.97	2834.39
239.19	2574.30
239.41	2766.81
239.63	3086.29
239.85	2824.15
240.06	2752.47
240.28	2682.84
240.50	3112.91
240.72	2967.51
240.93	2596.82
241.15	2740.18
241.37	2967.51
241.59	3200.98
241.81	2672.60
242.02	2756.57
242.24	3033.04
242.46	3045.33
242.68	2531.29
242.89	2686.94
243.11	3155.92
243.33	2963.41
243.55	2658.26
243.76	2688.98
243.98	2871.25
244.20	3086.29
244.42	2656.22
244.64	2713.56
244.85	2686.94
245.07	2799.57
245.29	2656.22
245.51	2680.79
245.72	2994.13
245.94	3211.22
246.16	2691.03
246.38	2770.90
246.59	2799.57
246.81	2795.48
247.03	2637.78
247.24	2574.30
247.46	2940.88
247.68	2987.99
247.90	2631.64
248.11	2627.54
248.33	3196.88
248.55	2998.23
248.77	2762.71
248.98	2797.53
249.20	3305.42
249.42	3028.95
249.64	2688.98
249.85	2656.22
250.07	2891.73
250.29	3170.26
250.50	2795.48
250.72	2670.55
250.94	3063.76
251.16	3407.82
251.37	2629.59
251.59	2721.75
251.81	3037.14
252.02	3272.65
252.24	2621.40
252.46	2803.67
252.68	2760.66
252.89	2861.01
253.11	2551.77
253.33	2852.82
253.54	3129.30
253.76	2729.94
253.98	2654.17
254.20	2547.67
254.41	2809.81
254.63	3069.91
254.85	2590.68
255.06	2850.77
255.28	3026.90
255.50	2889.68
255.71	2594.78
255.93	2543.58
256.15	2985.94
256.36	3098.58
256.58	2543.58
256.80	2605.02
257.02	2949.08
257.23	2891.73
257.45	2684.89
257.67	2746.33
257.88	2838.48
258.10	3028.95
258.32	2699.22
258.53	2760.66
258.75	3264.46
258.97	2824.15
259.18	2598.87
259.40	2586.58
259.62	3327.95
259.83	3225.55
260.05	2688.98
260.27	3524.55
260.48	3121.10
260.70	2832.34
260.92	2660.31
261.13	2734.04
261.35	3061.71
261.57	3209.17
261.78	2525.15
262.00	2660.31
262.22	3084.24
262.43	2865.11
262.65	2719.70
262.86	2705.37
263.08	3465.16
263.30	3000.27
263.51	2510.81
263.73	2623.45
263.95	3229.65
264.16	2828.24
264.38	2537.43
264.60	2635.74
264.81	3014.61
265.03	3205.07
265.25	3049.43
265.46	2547.67
265.68	3131.34
265.89	3135.44
266.11	2519.00
266.33	2674.65
266.54	3184.59
266.76	3114.96
266.98	2731.99
267.19	2781.14
267.41	3133.39
267.62	2906.07
267.84	2496.47
268.06	2768.85
268.27	3000.27
268.49	3110.86
268.70	2750.42
268.92	2654.17
269.14	2865.11
269.35	2803.67
269.57	2789.33
269.79	2824.15
270.00	2994.13
270.22	3346.38
270.43	2557.91
270.65	2559.96
270.87	3039.19
271.08	3030.99
271.30	2834.39
271.51	2693.08
271.73	3014.61
271.95	3196.88
272.16	2617.30
272.38	2797.53
272.59	2863.06
272.81	3055.57
273.02	2586.58
273.24	2795.48
273.46	3125.20
273.67	2756.57
273.89	2539.48
274.10	2729.94
274.32	3192.78
274.54	3065.81
274.75	2758.61
274.97	2842.58
275.18	3145.68
275.40	3119.06
275.61	2711.51
275.83	2856.92
276.05	2830.29
276.26	3000.27
276.48	2764.76
276.69	2852.82
276.91	2918.36
277.12	3299.28
277.34	2916.31
277.55	2910.16
277.77	2996.18
277.99	3041.23
278.20	2801.62
278.42	2719.70
278.63	2891.73
278.85	2813.91
279.06	2635.74
279.28	2910.16
279.49	3131.34
279.71	3129.30
279.93	2836.44
280.14	2826.20
280.36	2848.72
280.57	3108.82
280.79	2854.87
281.00	2750.42
281.22	2930.64
281.43	3110.86
281.65	2619.35
281.86	2676.70
282.08	2969.55
282.29	3301.33
282.51	2645.98
282.73	2760.66
282.94	2760.66
283.16	3080.14
283.37	2922.45
283.59	2840.53
283.80	3108.82
284.02	3000.27
284.23	2918.36
284.45	2811.86
284.66	2867.16
284.88	2883.54
285.09	2777.05
285.31	2861.01
285.52	3067.86
285.74	2783.19
285.95	2981.84
286.17	2850.77
286.38	3117.01
286.60	2889.68
286.81	2754.52
287.03	2772.95
287.24	2987.99
287.46	3123.15
287.67	2967.51
287.89	3102.67
288.10	2899.92
288.32	2934.74
288.53	2967.51
288.75	2850.77
288.96	3127.25
289.18	2906.07
289.39	2777.05
289.61	2832.34
289.82	3385.29
290.04	3272.65
290.25	2717.65
290.47	2893.78
290.68	3002.32
290.90	3184.59
291.11	2619.35
291.33	2912.21
291.54	2887.64
291.76	2809.81
291.97	2930.64
292.18	2852.82
292.40	2910.16
292.61	2867.16
292.83	3004.37
293.04	2795.48
293.26	3000.27
293.47	2912.21
293.69	2719.70
293.90	2672.60
294.12	3215.31
294.33	2979.79
294.55	2813.91
294.76	3024.85
294.97	3217.36
295.19	3360.72
295.40	2795.48
295.62	2879.44
295.83	3147.73
296.05	2863.06
296.26	2942.93
296.48	2772.95
296.69	2965.46
296.90	2971.60
297.12	2959.31
297.33	2981.84
297.55	3026.90
297.76	3045.33
297.98	2818.00
298.19	3008.47
298.41	2895.83
298.62	2820.05
298.83	2940.88
299.05	2887.64
299.26	2897.88
299.48	2830.29
299.69	2861.01
299.90	2779.09
300.12	2877.40
300.33	3133.39
300.55	2828.24
300.76	2811.86
300.98	2758.61
301.19	3129.30
301.40	2844.63
301.62	2842.58
301.83	3037.14
302.05	3065.81
302.26	2750.42
302.47	2832.34
302.69	2746.33
302.90	3010.51
303.12	2570.20
303.33	2879.44
303.54	3260.37
303.76	2840.53
303.97	2803.67
304.19	2936.79
304.40	2850.77
304.61	3035.09
304.83	2777.05
305.04	2897.88
305.26	3129.30
305.47	2883.54
305.68	2875.35
305.90	2707.41
306.11	3108.82
306.33	2906.07
306.54	2729.94
306.75	2748.37
306.97	2705.37
307.18	2830.29
307.39	2846.68
307.61	2895.83
307.82	2879.44
308.04	3084.24
308.25	2725.85
308.46	2879.44
308.68	2996.18
308.89	2936.79
309.10	2916.31
309.32	2867.16
309.53	2975.70
309.74	3022.80
309.96	2787.29
310.17	2971.60
310.39	2883.54
310.60	3123.15
310.81	2760.66
311.03	2738.13
311.24	3026.90
311.45	2977.75
311.67	2932.69
311.88	2906.07
312.09	2887.64
312.31	2904.02
312.52	2752.47
312.73	2828.24
312.95	2754.52
313.16	2793.43
313.37	2963.41
313.59	2928.60
313.80	3168.21
314.01	3233.74
314.23	2820.05
314.44	2717.65
314.65	2858.96
314.87	2879.44
315.08	2764.76
315.29	2875.35
315.51	2858.96
315.72	2742.23
315.93	2932.69
316.15	2815.96
316.36	2895.83
316.57	2979.79
316.79	2807.77
317.00	2760.66
317.21	3051.47
317.43	2850.77
317.64	2836.44
317.85	2764.76
318.07	2844.63
318.28	2897.88
318.49	2887.64
318.70	3076.05
318.92	3059.67
319.13	2949.08
319.34	2990.03
319.56	2758.61
319.77	3123.15
319.98	3106.77
320.20	3049.43
320.41	2977.75
320.62	3043.28
320.83	2824.15
321.05	2975.70
321.26	2836.44
321.47	2947.03
321.69	3106.77
321.90	2713.56
322.11	2822.10
322.32	3022.80
322.54	3274.70
322.75	2803.67
322.96	3545.03
323.18	2772.95
323.39	2678.74
323.60	2746.33
323.81	2850.77
324.03	2885.59
324.24	2955.22
324.45	2885.59
324.66	2693.08
324.88	3215.31
325.09	3209.17
325.30	2779.09
325.52	2809.81
325.73	3067.86
325.94	2820.05
326.15	2676.70
326.37	2650.07
326.58	3100.62
326.79	3299.28
327.00	2680.79
327.22	2836.44
327.43	2959.31
327.64	2793.43
327.85	2922.45
328.07	2795.48
328.28	3325.90
328.49	2908.12
328.70	2789.33
328.92	2750.42
329.13	2916.31
329.34	3164.11
329.55	2944.98
329.76	2928.60
329.98	2940.88
330.19	3123.15
330.40	2889.68
330.61	2865.11
330.83	3164.11
331.04	2906.07
331.25	2906.07
331.46	2852.82
331.68	2803.67
331.89	3200.98
332.10	2842.58
332.31	2742.23
332.52	2969.55
332.74	3190.74
332.95	2629.59
333.16	2764.76
333.37	3065.81
333.58	2832.34
333.80	2875.35
334.01	2572.25
334.22	2969.55
334.43	2928.60
334.64	2723.80
334.86	2672.60
335.07	2861.01
335.28	3268.56
335.49	2625.50
335.70	2897.88
335.92	3258.32
336.13	3366.86
336.34	2828.24
336.55	2861.01
336.76	3028.95
336.98	2615.26
337.19	2793.43
337.40	2947.03
337.61	3551.18
337.82	2967.51
338.04	2805.72
338.25	2660.31
338.46	2971.60
338.67	2875.35
338.88	2768.85
339.09	2746.33
339.31	2940.88
339.52	2750.42
339.73	2772.95
339.94	2856.92
340.15	3022.80
340.36	2977.75
340.58	2877.40
340.79	2699.22
341.00	3035.09
341.21	2676.70
341.42	2998.23
341.63	2795.48
341.85	3117.01
342.06	3028.95
342.27	2811.86
342.48	3045.33
342.69	2742.23
342.90	3039.19
343.12	3131.34
343.33	2760.66
343.54	3160.02
343.75	3196.88
343.96	2854.87
344.17	2664.41
344.38	3033.04
344.60	2848.72
344.81	2715.61
345.02	2725.85
345.23	3112.91
345.44	3463.12
345.65	2863.06
345.86	2848.72
346.07	3016.66
346.29	2877.40
346.50	2975.70
346.71	2875.35
346.92	3227.60
347.13	3313.61
347.34	2928.60
347.55	2703.32
347.76	2977.75
347.98	2721.75
348.19	2758.61
348.40	2967.51
348.61	2965.46
348.82	3241.93
349.03	2811.86
349.24	2699.22
349.45	3280.85
349.66	2678.74
349.88	2746.33
350.09	2807.77
350.30	3209.17
350.51	3114.96
350.72	2955.22
350.93	2736.09
351.14	2871.25
351.35	3059.67
351.56	2840.53
351.77	2836.44
351.99	3012.56
352.20	3217.36
352.41	2957.27
352.62	2607.06
352.83	3016.66
353.04	2983.89
353.25	2834.39
353.46	2762.71
353.67	3098.58
353.88	2674.65
354.09	2740.18
354.30	2818.00
354.52	3080.14
354.73	2934.74
354.94	2795.48
355.15	2848.72
355.36	3385.29
355.57	2924.50
355.78	2764.76
355.99	2744.28
356.20	2926.55
356.41	3243.98
356.62	2869.20
356.83	2916.31
357.04	3207.12
357.25	2697.17
357.46	2861.01
357.68	2625.50
357.89	2805.72
358.10	3016.66
358.31	2811.86
358.52	2809.81
358.73	2850.77
358.94	2848.72
359.15	2828.24
359.36	2881.49
359.57	2926.55
359.78	2877.40
359.99	2961.36
360.20	2723.80
360.41	2957.27
360.62	3100.62
360.83	2906.07
361.04	2875.35
361.25	2994.13
361.46	3215.31
361.67	2873.30
361.88	2834.39
362.09	3203.02
362.30	3129.30
362.51	2707.41
362.72	2789.33
362.93	3102.67
363.14	3047.38
363.35	2906.07
363.56	2744.28
363.78	3225.55
363.99	3133.39
364.20	2760.66
364.41	2910.16
364.62	3327.95
364.83	3100.62
365.04	2748.37
365.25	2832.34
365.46	3362.76
365.67	2803.67
365.88	2934.74
366.09	2783.19
366.30	2912.21
366.51	2965.46
366.72	2725.85
366.93	2844.63
367.14	2971.60
367.35	3254.22
367.56	2770.90
367.77	2992.08
367.98	3022.80
368.18	3000.27
368.39	2936.79
368.60	2756.57
368.81	3067.86
369.02	3004.37
369.23	2854.87
369.44	2705.37
369.65	2906.07
369.86	3063.76
370.07	2910.16
370.28	2711.51
370.49	3039.19
370.70	3035.09
370.91	2766.81
371.12	2639.83
371.33	3106.77
371.54	2932.69
371.75	2944.98
371.96	2590.68
372.17	3063.76
372.38	2940.88
372.59	2877.40
372.80	2770.90
373.01	2949.08
373.22	3069.91
373.43	2715.61
373.64	2688.98
373.85	3211.22
374.06	3317.71
374.26	3035.09
374.47	2918.36
374.68	3239.89
374.89	3028.95
375.10	2787.29
375.31	2861.01
375.52	3024.85
375.73	2934.74
375.94	2586.58
376.15	2908.12
376.36	2830.29
376.57	2969.55
376.78	2805.72
376.99	2875.35
377.20	3172.30
377.40	2865.11
377.61	3078.10
377.82	2705.37
378.03	3155.92
378.24	3110.86
378.45	2852.82
378.66	2801.62
378.87	2678.74
379.08	2783.19
379.29	2779.09
379.50	2934.74
379.71	2928.60
379.91	3129.30
380.12	2832.34
380.33	2897.88
380.54	2940.88
380.75	2969.55
380.96	2797.53
381.17	2844.63
381.38	2926.55
381.59	2996.18
381.80	2832.34
382.00	2916.31
382.21	3020.75
382.42	3239.89
382.63	3145.68
382.84	2922.45
383.05	3100.62
383.26	3162.06
383.47	2922.45
383.68	2785.24
383.88	3053.52
384.09	3065.81
384.30	3057.62
384.51	2863.06
384.72	2899.92
384.93	2725.85
385.14	2871.25
385.35	3035.09
385.55	2768.85
385.76	3219.41
385.97	2893.78
386.18	2652.12
386.39	2828.24
386.60	2877.40
386.81	2748.37
387.02	2707.41
387.22	2811.86
387.43	3069.91
387.64	2889.68
387.85	2975.70
388.06	3028.95
388.27	4153.28
388.48	7288.72
388.68	10794.84
388.89	13553.46
389.10	14794.53
389.31	14241.57
389.52	11257.68
389.73	9742.19
389.93	8849.27
390.14	8150.92
390.35	7430.03
390.56	6647.71
390.77	5593.00
390.98	4210.62
391.18	3665.86
391.39	3434.44
391.60	3000.27
391.81	3125.20
392.02	2910.16
392.23	3399.63
392.43	3039.19
392.64	2992.08
392.85	2850.77
393.06	3291.09
393.27	2944.98
393.47	2783.19
393.68	2885.59
393.89	2942.93
394.10	3198.93
394.31	2815.96
394.52	2805.72
394.72	2877.40
394.93	3239.89
395.14	2785.24
395.35	2854.87
395.56	2891.73
395.76	2961.36
395.97	2807.77
396.18	3016.66
396.39	2961.36
396.60	3553.23
396.80	3233.74
397.01	3041.23
397.22	3053.52
397.43	3157.97
397.64	2748.37
397.84	2893.78
398.05	3327.95
398.26	2910.16
398.47	2873.30
398.67	3041.23
398.88	2914.26
399.09	3104.72
399.30	2799.57
399.51	2881.49
399.71	2844.63
399.92	2979.79
400.13	2871.25
400.34	2869.20
400.54	3000.27
400.75	3342.28
400.96	3016.66
401.17	3102.67
401.37	3047.38
401.58	2957.27
401.79	2873.30
402.00	2938.84
402.21	3436.49
402.41	3170.26
402.62	3063.76
402.83	3274.70
403.04	3344.33
403.24	3588.04
403.45	3037.14
403.66	3071.95
403.87	3246.03
404.07	3252.17
404.28	3100.62
404.49	3184.59
404.70	3041.23
404.90	3094.48
405.11	2809.81
405.32	2957.27
405.52	2834.39
405.73	2879.44
405.94	2807.77
406.15	2803.67
406.35	3090.38
406.56	3198.93
406.77	2914.26
406.98	2838.48
407.18	2928.60
407.39	3227.60
407.60	2883.54
407.80	2926.55
408.01	2906.07
408.22	3055.57
408.43	2734.04
408.63	2930.64
408.84	3135.44
409.05	3117.01
409.25	2797.53
409.46	2772.95
409.67	2883.54
409.88	2818.00
410.08	2850.77
410.29	2758.61
410.50	3180.50
410.70	3096.53
410.91	2766.81
411.12	2930.64
411.32	3039.19
411.53	2865.11
411.74	2889.68
411.95	2930.64
412.15	3055.57
412.36	3057.62
412.57	2971.60
412.77	3090.38
412.98	2955.22
413.19	2875.35
413.39	2932.69
413.60	2924.50
413.81	3231.69
414.01	2783.19
414.22	2906.07
414.43	2987.99
414.63	2820.05
414.84	3172.30
415.05	2813.91
415.25	2709.46
415.46	3121.10
415.67	2850.77
415.87	2932.69
416.08	2811.86
416.29	2854.87
416.49	3074.00
416.70	2793.43
416.91	2861.01
417.11	2985.94
417.32	3080.14
417.53	2920.40
417.73	2926.55
417.94	2965.46
418.15	3057.62
418.35	2901.97
418.56	2795.48
418.77	3434.44
418.97	3010.51
419.18	2901.97
419.38	2568.15
419.59	2979.79
419.80	3235.79
420.00	2777.05
420.21	2775.00
420.42	3223.50
420.62	3012.56
420.83	2834.39
421.04	2787.29
421.24	2918.36
421.45	3196.88
421.65	2944.98
421.86	2779.09
422.07	3186.64
422.27	3092.43
422.48	2815.96
422.69	2713.56
422.89	3026.90
423.10	2897.88
423.30	2813.91
423.51	2963.41
423.72	3106.77
423.92	3114.96
424.13	2779.09
424.33	2842.58
424.54	3160.02
424.75	3067.86
424.95	3024.85
425.16	2766.81
425.36	3026.90
425.57	3198.93
425.78	2938.84
425.98	2928.60
426.19	3018.71
426.39	2850.77
426.60	2912.21
426.81	2998.23
427.01	3063.76
427.22	2885.59
427.42	2645.98
427.63	2766.81
427.83	3078.10
428.04	3276.75
428.25	2885.59
428.45	2924.50
428.66	3147.73
428.86	2961.36
429.07	2877.40
429.28	2783.19
429.48	3012.56
429.69	2869.20
429.89	2883.54
430.10	2738.13
430.30	3119.06
430.51	3211.22
430.71	2746.33
430.92	2797.53
431.13	2856.92
431.33	3084.24
431.54	2895.83
431.74	2975.70
431.95	3385.29
432.15	2842.58
432.36	2883.54
432.56	2875.35
432.77	3338.19
432.98	3319.76
433.18	2865.11
433.39	2746.33
433.59	2934.74
433.80	3366.86
434.00	3047.38
434.21	2891.73
434.41	2914.26
434.62	3434.44
434.82	2752.47
435.03	2699.22
435.23	3020.75
435.44	2676.70
435.64	2815.96
435.85	2904.02
436.06	3149.78
436.26	3180.50
436.47	2836.44
436.67	2844.63
436.88	2957.27
437.08	3200.98
437.29	3037.14
437.49	2914.26
437.70	3172.30
437.90	2953.17
438.11	3082.19
438.31	2906.07
438.52	3313.61
438.72	3248.08
438.93	3270.61
439.13	2883.54
439.34	3149.78
439.54	2957.27
439.75	3067.86
439.95	2967.51
440.16	2760.66
440.36	3018.71
440.57	2893.78
440.77	2762.71
440.98	2965.46
441.18	3063.76
441.39	2781.14
441.59	2688.98
441.80	3381.20
442.00	3016.66
442.21	3006.42
442.41	2756.57
442.62	3180.50
442.82	2854.87
443.02	2818.00
443.23	2791.38
443.43	2834.39
443.64	3182.54
443.84	2744.28
444.05	2863.06
444.25	2977.75
444.46	2863.06
444.66	2803.67
444.87	3125.20
445.07	2693.08
445.28	3014.61
445.48	3014.61
445.69	2893.78
445.89	3389.39
446.09	2928.60
446.30	3114.96
446.50	3248.08
446.71	4745.14
446.91	5902.25
447.12	6555.55
447.32	6922.13
447.53	6946.71
447.73	5832.62
447.93	4995.00
448.14	4816.82
448.34	4843.45
448.55	4106.18
448.75	4001.73
448.96	3895.24
449.16	3600.33
449.36	3538.89
449.57	3178.45
449.77	2934.74
449.98	2949.08
450.18	3160.02
450.39	2836.44
450.59	3033.04
450.79	2928.60
451.00	2904.02
451.20	3004.37
451.41	2824.15
451.61	3117.01
451.81	2971.60
452.02	2787.29
452.22	2922.45
452.43	2897.88
452.63	2846.68
