SpectraSuite Data File
++++++++++++++++++++++++++++++++++++
Date: Thu May 05 21:11:16 CEST 2016
User: root
Dark Spectrum Present: No
Reference Spectrum Present: No
Number of Sampled Component Spectra: 1
Spectrometers: USB4C02835
Integration Time (usec): 100000 (USB4C02835)
Spectra Averaged: 1 (USB4C02835)
Boxcar Smoothing: 0 (USB4C02835)
Correct for Electrical Dark: No (USB4C02835)
Strobe/Lamp Enabled: No (USB4C02835)
Correct for Detector Non-linearity: No (USB4C02835)
Correct for Stray Light: No (USB4C02835)
Number of Pixels in Processed Spectrum: 3648
>>>>>Begin Processed Spectral Data<<<<<
177.47	2144.22
177.69	2144.22
177.91	2144.22
178.13	2136.03
178.36	2158.56
178.58	2768.85
178.80	2957.27
179.02	2787.29
179.24	2793.43
179.46	2594.78
179.68	2688.98
179.90	2885.59
180.13	2947.03
180.35	2529.24
180.57	2654.17
180.79	3035.09
181.01	2901.97
181.23	2662.36
181.45	2828.24
181.67	3143.63
181.90	3098.58
182.12	2738.13
182.34	2527.19
182.56	3088.34
182.78	3041.23
183.00	2648.02
183.22	2721.75
183.44	2635.74
183.66	3493.83
183.89	2863.06
184.11	2686.94
184.33	3071.95
184.55	3239.89
184.77	2676.70
184.99	2750.42
185.21	2887.64
185.43	3422.16
185.65	2635.74
185.87	2648.02
186.10	3426.25
186.32	3405.77
186.54	2766.81
186.76	2740.18
186.98	3145.68
187.20	3018.71
187.42	2680.79
187.64	2660.31
187.86	3010.51
188.08	3162.06
188.30	2600.92
188.52	2785.24
188.75	3221.45
188.97	3334.09
189.19	2723.80
189.41	2635.74
189.63	3016.66
189.85	2887.64
190.07	2580.44
190.29	2623.45
190.51	3041.23
190.73	2750.42
190.95	2762.71
191.17	2723.80
191.39	2740.18
191.61	3004.37
191.84	2668.50
192.06	2789.33
192.28	2727.89
192.50	3510.22
192.72	2768.85
192.94	2832.34
193.16	3143.63
193.38	3053.52
193.60	2643.93
193.82	2781.14
194.04	3147.73
194.26	3090.38
194.48	2693.08
194.70	2654.17
194.92	2869.20
195.14	3137.49
195.36	2627.54
195.58	2791.38
195.80	2885.59
196.02	2875.35
196.24	2650.07
196.46	2723.80
196.69	2873.30
196.91	3391.44
197.13	2670.55
197.35	2682.84
197.57	3227.60
197.79	3135.44
198.01	2815.96
198.23	2729.94
198.45	3022.80
198.67	2762.71
198.89	2529.24
199.11	2760.66
199.33	2889.68
199.55	2631.64
199.77	2688.98
199.99	2856.92
200.21	2885.59
200.43	3051.47
200.65	2492.38
200.87	2529.24
201.09	3022.80
201.31	2893.78
201.53	2795.48
201.75	2664.41
201.97	3053.52
202.19	3000.27
202.41	2801.62
202.63	2766.81
202.85	3176.40
203.07	3035.09
203.29	2697.17
203.51	2541.53
203.73	2916.31
203.95	3383.24
204.17	2668.50
204.39	2756.57
204.61	2981.84
204.83	2883.54
205.05	2813.91
205.27	2713.56
205.49	3418.06
205.71	3020.75
205.93	2639.83
206.15	2680.79
206.37	3002.32
206.59	3016.66
206.81	2480.09
207.03	2564.06
207.25	2787.29
207.47	3106.77
207.69	2760.66
207.91	2914.26
208.13	3276.75
208.34	2944.98
208.56	2594.78
208.78	2738.13
209.00	2881.49
209.22	2942.93
209.44	2664.41
209.66	2607.06
209.88	3000.27
210.10	2996.18
210.32	2631.64
210.54	2781.14
210.76	3018.71
210.98	3237.84
211.20	2514.91
211.42	2815.96
211.64	3172.30
211.86	3053.52
212.08	2746.33
212.30	2680.79
212.52	2895.83
212.74	3080.14
212.96	2826.20
213.17	2772.95
213.39	3071.95
213.61	3260.37
213.83	2666.46
214.05	2559.96
214.27	3246.03
214.49	2775.00
214.71	2660.31
214.93	2738.13
215.15	2955.22
215.37	3055.57
215.59	2588.63
215.81	2727.89
216.03	3229.65
216.24	2979.79
216.46	2656.22
216.68	2738.13
216.90	3117.01
217.12	3155.92
217.34	2650.07
217.56	2840.53
217.78	3180.50
218.00	3063.76
218.22	2777.05
218.44	2807.77
218.66	3006.42
218.87	3389.39
219.09	2707.41
219.31	2631.64
219.53	2994.13
219.75	2977.75
219.97	2736.09
220.19	2666.46
220.41	3033.04
220.63	3207.12
220.85	2705.37
221.06	2664.41
221.28	3227.60
221.50	3057.62
221.72	2713.56
221.94	2602.97
222.16	3004.37
222.38	3106.77
222.60	2736.09
222.82	2652.12
223.03	3121.10
223.25	2775.00
223.47	2602.97
223.69	2881.49
223.91	3176.40
224.13	2985.94
224.35	2600.92
224.57	2852.82
224.78	3166.16
225.00	2762.71
225.22	2795.48
225.44	2654.17
225.66	3057.62
225.88	2922.45
226.10	2830.29
226.32	2680.79
226.53	3246.03
226.75	2854.87
226.97	2779.09
227.19	2725.85
227.41	2828.24
227.63	2922.45
227.85	2502.62
228.06	2748.37
228.28	2979.79
228.50	3162.06
228.72	2523.10
228.94	2656.22
229.16	2699.22
229.37	2842.58
229.59	2519.00
229.81	2924.50
230.03	2959.31
230.25	2760.66
230.47	2590.68
230.69	2645.98
230.90	3114.96
231.12	2906.07
231.34	2744.28
231.56	2807.77
231.78	2856.92
232.00	2975.70
232.21	2684.89
232.43	2715.61
232.65	2695.13
232.87	3074.00
233.09	2631.64
233.30	2625.50
233.52	3186.64
233.74	3035.09
233.96	2652.12
234.18	2856.92
234.40	3012.56
234.61	3373.00
234.83	2596.82
235.05	2648.02
235.27	3463.12
235.49	3086.29
235.70	2496.47
235.92	2742.23
236.14	3117.01
236.36	3434.44
236.58	2641.88
236.79	2768.85
237.01	2969.55
237.23	2977.75
237.45	2838.48
237.67	2723.80
237.88	3098.58
238.10	3340.24
238.32	2586.58
238.54	2617.30
238.76	3022.80
238.97	2912.21
239.19	2596.82
239.41	2779.09
239.63	3149.78
239.85	2828.24
240.06	2695.13
240.28	2652.12
240.50	3184.59
240.72	3000.27
240.93	2570.20
241.15	2844.63
241.37	3028.95
241.59	3284.94
241.81	2723.80
242.02	2727.89
242.24	3035.09
242.46	3028.95
242.68	2633.69
242.89	2660.31
243.11	3139.54
243.33	2963.41
243.55	2701.27
243.76	2752.47
243.98	2924.50
244.20	2924.50
244.42	2707.41
244.64	2656.22
244.85	2688.98
245.07	2881.49
245.29	2711.51
245.51	2691.03
245.72	3157.97
245.94	3110.86
246.16	2666.46
246.38	2801.62
246.59	2899.92
246.81	2854.87
247.03	2607.06
247.24	2590.68
247.46	2940.88
247.68	3065.81
247.90	2648.02
248.11	2725.85
248.33	3094.48
248.55	2916.31
248.77	2699.22
248.98	2779.09
249.20	3311.57
249.42	3018.71
249.64	2678.74
249.85	2645.98
250.07	2873.30
250.29	3149.78
250.50	2785.24
250.72	2545.63
250.94	3022.80
251.16	3426.25
251.37	2709.46
251.59	2824.15
251.81	3110.86
252.02	3252.17
252.24	2594.78
252.46	2805.72
252.68	2914.26
252.89	2965.46
253.11	2602.97
253.33	2779.09
253.54	3200.98
253.76	2811.86
253.98	2678.74
254.20	2656.22
254.41	2807.77
254.63	2963.41
254.85	2596.82
255.06	2731.99
255.28	3119.06
255.50	2879.44
255.71	2707.41
255.93	2559.96
256.15	2965.46
256.36	3094.48
256.58	2527.19
256.80	2602.97
257.02	2955.22
257.23	2940.88
257.45	2744.28
257.67	2832.34
257.88	2869.20
258.10	3074.00
258.32	2680.79
258.53	2775.00
258.75	3373.00
258.97	2873.30
259.18	2664.41
259.40	2660.31
259.62	3319.76
259.83	3229.65
260.05	2746.33
260.27	3385.29
260.48	3176.40
260.70	2861.01
260.92	2615.26
261.13	2742.23
261.35	3024.85
261.57	3096.53
261.78	2615.26
262.00	2684.89
262.22	3078.10
262.43	2865.11
262.65	2715.61
262.86	2656.22
263.08	3393.48
263.30	3020.75
263.51	2584.54
263.73	2631.64
263.95	3241.93
264.16	2836.44
264.38	2574.30
264.60	2594.78
264.81	2953.17
265.03	3106.77
265.25	3006.42
265.46	2600.92
265.68	3213.26
265.89	3129.30
266.11	2527.19
266.33	2660.31
266.54	3170.26
266.76	3076.05
266.98	2688.98
267.19	2838.48
267.41	3160.02
267.62	2922.45
267.84	2455.51
268.06	2746.33
268.27	2967.51
268.49	3192.78
268.70	2744.28
268.92	2727.89
269.14	2846.68
269.35	2762.71
269.57	2781.14
269.79	2674.65
270.00	2881.49
270.22	3311.57
270.43	2523.10
270.65	2531.29
270.87	3102.67
271.08	3092.43
271.30	2785.24
271.51	2674.65
271.73	3020.75
271.95	3278.80
272.16	2555.86
272.38	2928.60
272.59	2965.46
272.81	3030.99
273.02	2654.17
273.24	2709.46
273.46	3190.74
273.67	2783.19
273.89	2562.01
274.10	2600.92
274.32	3112.91
274.54	2901.97
274.75	2848.72
274.97	2760.66
275.18	3067.86
275.40	3055.57
275.61	2750.42
275.83	2807.77
276.05	2781.14
276.26	3067.86
276.48	2799.57
276.69	2914.26
276.91	2871.25
277.12	3221.45
277.34	2887.64
277.55	2987.99
277.77	2953.17
277.99	2971.60
278.20	2719.70
278.42	2684.89
278.63	2879.44
278.85	2883.54
279.06	2723.80
279.28	2963.41
279.49	3172.30
279.71	3205.07
279.93	2809.81
280.14	2914.26
280.36	2867.16
280.57	3100.62
280.79	2809.81
281.00	2734.04
281.22	2791.38
281.43	3205.07
281.65	2590.68
281.86	2766.81
282.08	3016.66
282.29	3278.80
282.51	2697.17
282.73	2650.07
282.94	2711.51
283.16	3186.64
283.37	2949.08
283.59	2721.75
283.80	3000.27
284.02	3010.51
284.23	2781.14
284.45	2781.14
284.66	2850.77
284.88	2893.78
285.09	2748.37
285.31	2852.82
285.52	3049.43
285.74	2705.37
285.95	2955.22
286.17	2858.96
286.38	3215.31
286.60	2885.59
286.81	2727.89
287.03	2777.05
287.24	3010.51
287.46	3037.14
287.67	2904.02
287.89	3053.52
288.10	2944.98
288.32	3028.95
288.53	2942.93
288.75	2764.76
288.96	3110.86
289.18	2879.44
289.39	2658.26
289.61	2914.26
289.82	3330.00
290.04	3299.28
290.25	2662.36
290.47	2818.00
290.68	2981.84
290.90	3176.40
291.11	2545.63
291.33	2949.08
291.54	2834.39
291.76	3006.42
291.97	2891.73
292.18	2953.17
292.40	2914.26
292.61	2865.11
292.83	3110.86
293.04	2787.29
293.26	3010.51
293.47	2938.84
293.69	2654.17
293.90	2717.65
294.12	3166.16
294.33	3035.09
294.55	2797.53
294.76	2967.51
294.97	3203.02
295.19	3297.23
295.40	2797.53
295.62	2858.96
295.83	3164.11
296.05	2797.53
296.26	3041.23
296.48	2744.28
296.69	2934.74
296.90	2947.03
297.12	2998.23
297.33	2971.60
297.55	3061.71
297.76	3004.37
297.98	2811.86
298.19	2961.36
298.41	2877.40
298.62	2850.77
298.83	3006.42
299.05	2887.64
299.26	2877.40
299.48	2807.77
299.69	2822.10
299.90	2854.87
300.12	2822.10
300.33	3090.38
300.55	2883.54
300.76	2877.40
300.98	2865.11
301.19	3057.62
301.40	2697.17
301.62	2766.81
301.83	3121.10
302.05	2942.93
302.26	2725.85
302.47	2938.84
302.69	2824.15
302.90	2992.08
303.12	2605.02
303.33	2889.68
303.54	3293.13
303.76	3004.37
303.97	2799.57
304.19	2992.08
304.40	2797.53
304.61	3074.00
304.83	2990.03
305.04	2920.40
305.26	3112.91
305.47	2873.30
305.68	2721.75
305.90	2688.98
306.11	3155.92
306.33	2965.46
306.54	2707.41
306.75	2754.52
306.97	2748.37
307.18	2807.77
307.39	2768.85
307.61	2904.02
307.82	2906.07
308.04	3063.76
308.25	2631.64
308.46	2916.31
308.68	3014.61
308.89	2944.98
309.10	2891.73
309.32	2873.30
309.53	3022.80
309.74	3049.43
309.96	2791.38
310.17	2987.99
310.39	2885.59
310.60	3078.10
310.81	2840.53
311.03	2785.24
311.24	3020.75
311.45	2967.51
311.67	2951.12
311.88	2832.34
312.09	2981.84
312.31	2879.44
312.52	2746.33
312.73	2779.09
312.95	2758.61
313.16	2795.48
313.37	2961.36
313.59	2906.07
313.80	3196.88
314.01	3188.69
314.23	2754.52
314.44	2680.79
314.65	2783.19
314.87	2830.29
315.08	2664.41
315.29	2801.62
315.51	2785.24
315.72	2688.98
315.93	2897.88
316.15	2764.76
316.36	2910.16
316.57	2983.89
316.79	2879.44
317.00	2824.15
317.21	3102.67
317.43	2879.44
317.64	2797.53
317.85	2686.94
318.07	2881.49
318.28	2932.69
318.49	2957.27
318.70	3045.33
318.92	3000.27
319.13	3055.57
319.34	2957.27
319.56	2740.18
319.77	3059.67
319.98	3012.56
320.20	2969.55
320.41	2901.97
320.62	3067.86
320.83	2789.33
321.05	2914.26
321.26	2770.90
321.47	2957.27
321.69	3121.10
321.90	2660.31
322.11	2705.37
322.32	2912.21
322.54	3315.66
322.75	2824.15
322.96	3499.98
323.18	2688.98
323.39	2578.39
323.60	2672.60
323.81	2901.97
324.03	2893.78
324.24	2971.60
324.45	2848.72
324.66	2803.67
324.88	3143.63
325.09	3149.78
325.30	2838.48
325.52	2666.46
325.73	3018.71
325.94	2863.06
326.15	2684.89
326.37	2697.17
326.58	3147.73
326.79	3313.61
327.00	2742.23
327.22	2781.14
327.43	3012.56
327.64	2891.73
327.85	2877.40
328.07	2815.96
328.28	3301.33
328.49	2893.78
328.70	2791.38
328.92	2779.09
329.13	2918.36
329.34	3092.43
329.55	3033.04
329.76	2957.27
329.98	2973.65
330.19	3200.98
330.40	2932.69
330.61	2936.79
330.83	3110.86
331.04	2832.34
331.25	2916.31
331.46	2846.68
331.68	2815.96
331.89	3160.02
332.10	2910.16
332.31	2641.88
332.52	2959.31
332.74	3237.84
332.95	2635.74
333.16	2785.24
333.37	3090.38
333.58	2961.36
333.80	2828.24
334.01	2674.65
334.22	2879.44
334.43	2867.16
334.64	2731.99
334.86	2711.51
335.07	2861.01
335.28	3243.98
335.49	2686.94
335.70	2926.55
335.92	3129.30
336.13	3432.40
336.34	2891.73
336.55	2815.96
336.76	3135.44
336.98	2609.11
337.19	2826.20
337.40	2891.73
337.61	3487.69
337.82	2881.49
338.04	2914.26
338.25	2588.63
338.46	2924.50
338.67	2916.31
338.88	2734.04
339.09	2744.28
339.31	2918.36
339.52	2775.00
339.73	2742.23
339.94	2854.87
340.15	3139.54
340.36	2885.59
340.58	2844.63
340.79	2672.60
341.00	3028.95
341.21	2869.20
341.42	3076.05
341.63	2811.86
341.85	3153.87
342.06	2987.99
342.27	2752.47
342.48	2975.70
342.69	2760.66
342.90	3071.95
343.12	3127.25
343.33	2772.95
343.54	3139.54
343.75	3145.68
343.96	2856.92
344.17	2791.38
344.38	2949.08
344.60	2867.16
344.81	2770.90
345.02	2783.19
345.23	3147.73
345.44	3366.86
345.65	2922.45
345.86	2826.20
346.07	3117.01
346.29	2887.64
346.50	2895.83
346.71	2867.16
346.92	3276.75
347.13	3336.14
347.34	2848.72
347.55	2691.03
347.76	3190.74
347.98	2715.61
348.19	2811.86
348.40	2947.03
348.61	2895.83
348.82	3207.12
349.03	2916.31
349.24	2664.41
349.45	3295.18
349.66	2666.46
349.88	2752.47
350.09	2779.09
350.30	3135.44
350.51	3176.40
350.72	2994.13
350.93	2709.46
351.14	2879.44
351.35	3057.62
351.56	2801.62
351.77	2797.53
351.99	3078.10
352.20	3205.07
352.41	2906.07
352.62	2664.41
352.83	2969.55
353.04	2985.94
353.25	2756.57
353.46	2877.40
353.67	3168.21
353.88	2645.98
354.09	2744.28
354.30	2865.11
354.52	3092.43
354.73	2967.51
354.94	2809.81
355.15	2838.48
355.36	3299.28
355.57	2828.24
355.78	2758.61
355.99	2850.77
356.20	2998.23
356.41	3184.59
356.62	2848.72
356.83	2828.24
357.04	3157.97
357.25	2725.85
357.46	2777.05
357.68	2695.13
357.89	2846.68
358.10	2955.22
358.31	2795.48
358.52	2852.82
358.73	2772.95
358.94	2818.00
359.15	2754.52
359.36	2940.88
359.57	3004.37
359.78	2953.17
359.99	2979.79
360.20	2711.51
360.41	2967.51
360.62	3164.11
360.83	2871.25
361.04	2893.78
361.25	2977.75
361.46	3319.76
361.67	2844.63
361.88	2824.15
362.09	3241.93
362.30	3024.85
362.51	2680.79
362.72	2856.92
362.93	3123.15
363.14	3076.05
363.35	2940.88
363.56	2760.66
363.78	3184.59
363.99	3125.20
364.20	2740.18
364.41	2922.45
364.62	3348.43
364.83	3069.91
365.04	2791.38
365.25	2746.33
365.46	3254.22
365.67	2836.44
365.88	2877.40
366.09	2738.13
366.30	2922.45
366.51	3033.04
366.72	2770.90
366.93	2760.66
367.14	2957.27
367.35	3131.34
367.56	2799.57
367.77	2940.88
367.98	2965.46
368.18	3121.10
368.39	2889.68
368.60	2738.13
368.81	3151.82
369.02	3045.33
369.23	2856.92
369.44	2570.20
369.65	2881.49
369.86	2967.51
370.07	2955.22
370.28	2715.61
370.49	3041.23
370.70	3059.67
370.91	2684.89
371.12	2711.51
371.33	3274.70
371.54	2944.98
371.75	2910.16
371.96	2543.58
372.17	2994.13
372.38	2951.12
372.59	2963.41
372.80	2813.91
373.01	2932.69
373.22	3071.95
373.43	2863.06
373.64	2623.45
373.85	3180.50
374.06	3215.31
374.26	2983.89
374.47	2963.41
374.68	3336.14
374.89	3053.52
375.10	2756.57
375.31	2842.58
375.52	2963.41
375.73	3041.23
375.94	2633.69
376.15	2936.79
376.36	2797.53
376.57	2908.12
376.78	2785.24
376.99	2873.30
377.20	3221.45
377.40	2934.74
377.61	3020.75
377.82	2740.18
378.03	3194.83
378.24	3166.16
378.45	2889.68
378.66	2887.64
378.87	2736.09
379.08	2596.82
379.29	2770.90
379.50	3039.19
379.71	2992.08
379.91	3164.11
380.12	2803.67
380.33	2899.92
380.54	3026.90
380.75	2967.51
380.96	2805.72
381.17	2861.01
381.38	2910.16
381.59	2848.72
381.80	2842.58
382.00	3041.23
382.21	3022.80
382.42	3215.31
382.63	3135.44
382.84	2885.59
383.05	3153.87
383.26	3200.98
383.47	2879.44
383.68	2795.48
383.88	3153.87
384.09	3053.52
384.30	3030.99
384.51	2918.36
384.72	2955.22
384.93	2760.66
385.14	2848.72
385.35	3080.14
385.55	2764.76
385.76	3280.85
385.97	2867.16
386.18	2672.60
386.39	2869.20
386.60	2850.77
386.81	2715.61
387.02	2781.14
387.22	2838.48
387.43	3108.82
387.64	2883.54
387.85	3035.09
388.06	3047.38
388.27	3960.77
388.48	7219.09
388.68	10760.03
388.89	13352.76
389.10	14227.24
389.31	13915.95
389.52	11237.20
389.73	9699.18
389.93	8906.62
390.14	8007.56
390.35	7325.58
390.56	6625.18
390.77	5582.76
390.98	4237.25
391.18	3745.73
391.39	3442.64
391.60	2990.03
391.81	3035.09
392.02	2848.72
392.23	3418.06
392.43	3033.04
392.64	2977.75
392.85	2914.26
393.06	3215.31
393.27	2930.64
393.47	2799.57
393.68	2863.06
393.89	2944.98
394.10	3215.31
394.31	2752.47
394.52	2766.81
394.72	2815.96
394.93	3203.02
395.14	2686.94
395.35	2871.25
395.56	3008.47
395.76	2908.12
395.97	2807.77
396.18	2979.79
396.39	3067.86
396.60	3624.90
396.80	3125.20
397.01	3004.37
397.22	3041.23
397.43	3172.30
397.64	2748.37
397.84	2942.93
398.05	3370.96
398.26	2854.87
398.47	2965.46
398.67	2969.55
398.88	3096.53
399.09	3069.91
399.30	2805.72
399.51	2869.20
399.71	2940.88
399.92	2959.31
400.13	2987.99
400.34	2789.33
400.54	2975.70
400.75	3200.98
400.96	2955.22
401.17	3205.07
401.37	3155.92
401.58	2961.36
401.79	2875.35
402.00	2922.45
402.21	3405.77
402.41	3100.62
402.62	3127.25
402.83	3108.82
403.04	3325.90
403.24	3653.58
403.45	3008.47
403.66	3168.21
403.87	3086.29
404.07	3272.65
404.28	3168.21
404.49	3094.48
404.70	3012.56
404.90	3172.30
405.11	2766.81
405.32	2947.03
405.52	2969.55
405.73	2920.40
405.94	2748.37
406.15	2828.24
406.35	2994.13
406.56	3100.62
406.77	2936.79
406.98	2861.01
407.18	2848.72
407.39	3213.26
407.60	2916.31
407.80	2904.02
408.01	2899.92
408.22	3094.48
408.43	2686.94
408.63	2987.99
408.84	3133.39
409.05	3192.78
409.25	2740.18
409.46	2846.68
409.67	2959.31
409.88	2881.49
410.08	2863.06
410.29	2766.81
410.50	3133.39
410.70	3047.38
410.91	2734.04
411.12	2920.40
411.32	3020.75
411.53	2830.29
411.74	2861.01
411.95	2910.16
412.15	2957.27
412.36	3071.95
412.57	2908.12
412.77	2967.51
412.98	2949.08
413.19	2908.12
413.39	2861.01
413.60	2934.74
413.81	3262.41
414.01	2760.66
414.22	2846.68
414.43	2969.55
414.63	2875.35
414.84	3180.50
415.05	2875.35
415.25	2697.17
415.46	3155.92
415.67	2965.46
415.87	2904.02
416.08	2887.64
416.29	2949.08
416.49	3106.77
416.70	2899.92
416.91	2836.44
417.11	2990.03
417.32	3178.45
417.53	2967.51
417.73	2893.78
417.94	2951.12
418.15	2985.94
418.35	2879.44
418.56	2885.59
418.77	3397.58
418.97	2996.18
419.18	2861.01
419.38	2586.58
419.59	2953.17
419.80	3225.55
420.00	2820.05
420.21	2879.44
420.42	3157.97
420.62	3045.33
420.83	2791.38
421.04	2793.43
421.24	2928.60
421.45	3231.69
421.65	2844.63
421.86	2893.78
422.07	3123.15
422.27	3127.25
422.48	2813.91
422.69	2674.65
422.89	2947.03
423.10	2893.78
423.30	2787.29
423.51	2852.82
423.72	3049.43
423.92	3067.86
424.13	2695.13
424.33	2901.97
424.54	3225.55
424.75	2928.60
424.95	3016.66
425.16	2820.05
425.36	2969.55
425.57	3086.29
425.78	2998.23
425.98	2965.46
426.19	2885.59
426.39	2844.63
426.60	2990.03
426.81	2961.36
427.01	3067.86
427.22	2820.05
427.42	2713.56
427.63	2725.85
427.83	3127.25
428.04	3235.79
428.25	2977.75
428.45	2977.75
428.66	3217.36
428.86	2867.16
429.07	2863.06
429.28	2844.63
429.48	2953.17
429.69	2867.16
429.89	2932.69
430.10	2768.85
430.30	3053.52
430.51	3180.50
430.71	2750.42
430.92	2940.88
431.13	2871.25
431.33	3010.51
431.54	2871.25
431.74	3100.62
431.95	3413.96
432.15	2840.53
432.36	2752.47
432.56	2973.65
432.77	3323.85
432.98	3286.99
433.18	2879.44
433.39	2770.90
433.59	2936.79
433.80	3315.66
434.00	3090.38
434.21	2836.44
434.41	2912.21
434.62	3409.87
434.82	2766.81
435.03	2744.28
435.23	2981.84
435.44	2703.32
435.64	2815.96
435.85	2979.79
436.06	3166.16
436.26	3123.15
436.47	2885.59
436.67	2754.52
436.88	2971.60
437.08	3127.25
437.29	3012.56
437.49	2957.27
437.70	3207.12
437.90	2969.55
438.11	3033.04
438.31	2932.69
438.52	3217.36
438.72	3127.25
438.93	3225.55
439.13	2928.60
439.34	3180.50
439.54	2881.49
439.75	2961.36
439.95	2977.75
440.16	2772.95
440.36	3008.47
440.57	2797.53
440.77	2805.72
440.98	2987.99
441.18	2983.89
441.39	2822.10
441.59	2699.22
441.80	3413.96
442.00	2994.13
442.21	2926.55
442.41	2631.64
442.62	3186.64
442.82	2811.86
443.02	2893.78
443.23	2848.72
443.43	2875.35
443.64	3237.84
443.84	2654.17
444.05	2940.88
444.25	2916.31
444.46	2908.12
444.66	2879.44
444.87	3074.00
445.07	2725.85
445.28	2910.16
445.48	2973.65
445.69	2928.60
445.89	3463.12
446.09	2910.16
446.30	3157.97
446.50	3229.65
446.71	4775.86
446.91	5797.80
447.12	6438.81
447.32	6768.54
447.53	6838.17
447.73	5707.69
447.93	5113.78
448.14	4722.62
448.34	4755.38
448.55	4134.85
448.75	4097.99
448.96	3821.51
449.16	3741.64
449.36	3532.75
449.57	3055.57
449.77	2936.79
449.98	2963.41
450.18	3151.82
450.39	2863.06
450.59	2975.70
450.79	2967.51
451.00	2920.40
451.20	2934.74
451.41	2793.43
451.61	3102.67
451.81	2953.17
452.02	2883.54
452.22	2815.96
452.43	2920.40
452.63	2850.77
