SpectraSuite Data File
++++++++++++++++++++++++++++++++++++
Date: Thu May 05 21:11:14 CEST 2016
User: root
Dark Spectrum Present: No
Reference Spectrum Present: No
Number of Sampled Component Spectra: 1
Spectrometers: USB4C02835
Integration Time (usec): 100000 (USB4C02835)
Spectra Averaged: 1 (USB4C02835)
Boxcar Smoothing: 0 (USB4C02835)
Correct for Electrical Dark: No (USB4C02835)
Strobe/Lamp Enabled: No (USB4C02835)
Correct for Detector Non-linearity: No (USB4C02835)
Correct for Stray Light: No (USB4C02835)
Number of Pixels in Processed Spectrum: 3648
>>>>>Begin Processed Spectral Data<<<<<
177.47	2146.27
177.69	2146.27
177.91	2146.27
178.13	2119.65
178.36	2207.71
178.58	2797.53
178.80	2936.79
179.02	2731.99
179.24	2815.96
179.46	2605.02
179.68	2668.50
179.90	2904.02
180.13	3037.14
180.35	2519.00
180.57	2484.19
180.79	3043.28
181.01	2967.51
181.23	2674.65
181.45	2795.48
181.67	3028.95
181.90	3084.24
182.12	2756.57
182.34	2531.29
182.56	3012.56
182.78	3112.91
183.00	2592.73
183.22	2697.17
183.44	2627.54
183.66	3524.55
183.89	2785.24
184.11	2654.17
184.33	3078.10
184.55	3205.07
184.77	2643.93
184.99	2611.16
185.21	2932.69
185.43	3477.45
185.65	2664.41
185.87	2627.54
186.10	3334.09
186.32	3282.89
186.54	2787.29
186.76	2775.00
186.98	3164.11
187.20	2918.36
187.42	2705.37
187.64	2582.49
187.86	3030.99
188.08	3194.83
188.30	2609.11
188.52	2803.67
188.75	3223.50
188.97	3233.74
189.19	2666.46
189.41	2715.61
189.63	3123.15
189.85	2961.36
190.07	2523.10
190.29	2529.24
190.51	3084.24
190.73	2799.57
190.95	2852.82
191.17	2719.70
191.39	2650.07
191.61	2865.11
191.84	2613.21
192.06	2713.56
192.28	2703.32
192.50	3579.85
192.72	2828.24
192.94	2842.58
193.16	3192.78
193.38	3082.19
193.60	2572.25
193.82	2758.61
194.04	3155.92
194.26	3010.51
194.48	2719.70
194.70	2717.65
194.92	2963.41
195.14	3139.54
195.36	2660.31
195.58	2731.99
195.80	2990.03
196.02	2840.53
196.24	2680.79
196.46	2740.18
196.69	2906.07
196.91	3463.12
197.13	2686.94
197.35	2766.81
197.57	3246.03
197.79	3114.96
198.01	2697.17
198.23	2731.99
198.45	3131.34
198.67	2779.09
198.89	2576.34
199.11	2785.24
199.33	2818.00
199.55	2631.64
199.77	2598.87
199.99	2826.20
200.21	2967.51
200.43	3104.72
200.65	2539.48
200.87	2590.68
201.09	3014.61
201.31	2867.16
201.53	2711.51
201.75	2791.38
201.97	2979.79
202.19	2873.30
202.41	2760.66
202.63	2783.19
202.85	3096.53
203.07	3006.42
203.29	2639.83
203.51	2580.44
203.73	2914.26
203.95	3477.45
204.17	2660.31
204.39	2791.38
204.61	2994.13
204.83	2877.40
205.05	2893.78
205.27	2756.57
205.49	3356.62
205.71	2957.27
205.93	2551.77
206.15	2635.74
206.37	3030.99
206.59	2959.31
206.81	2531.29
207.03	2541.53
207.25	2787.29
207.47	3207.12
207.69	2680.79
207.91	2914.26
208.13	3198.93
208.34	2893.78
208.56	2615.26
208.78	2705.37
209.00	2938.84
209.22	2914.26
209.44	2697.17
209.66	2645.98
209.88	3026.90
210.10	2994.13
210.32	2719.70
210.54	2807.77
210.76	2951.12
210.98	3102.67
211.20	2500.57
211.42	2768.85
211.64	3225.55
211.86	3035.09
212.08	2795.48
212.30	2615.26
212.52	2949.08
212.74	2996.18
212.96	2789.33
213.17	2703.32
213.39	3086.29
213.61	3323.85
213.83	2666.46
214.05	2580.44
214.27	3180.50
214.49	2818.00
214.71	2613.21
214.93	2754.52
215.15	3002.32
215.37	3235.79
215.59	2508.76
215.81	2740.18
216.03	3213.26
216.24	2922.45
216.46	2729.94
216.68	2768.85
216.90	3178.45
217.12	3178.45
217.34	2660.31
217.56	2836.44
217.78	3237.84
218.00	3069.91
218.22	2734.04
218.44	2818.00
218.66	2979.79
218.87	3325.90
219.09	2635.74
219.31	2617.30
219.53	2922.45
219.75	2990.03
219.97	2666.46
220.19	2705.37
220.41	2996.18
220.63	3309.52
220.85	2705.37
221.06	2795.48
221.28	3235.79
221.50	3114.96
221.72	2697.17
221.94	2568.15
222.16	3028.95
222.38	3164.11
222.60	2629.59
222.82	2699.22
223.03	3151.82
223.25	2746.33
223.47	2707.41
223.69	2942.93
223.91	3213.26
224.13	3035.09
224.35	2551.77
224.57	2861.01
224.78	3096.53
225.00	2803.67
225.22	2729.94
225.44	2697.17
225.66	3203.02
225.88	2897.88
226.10	2809.81
226.32	2688.98
226.53	3268.56
226.75	2838.48
226.97	2725.85
227.19	2746.33
227.41	2756.57
227.63	2912.21
227.85	2602.97
228.06	2680.79
228.28	3024.85
228.50	3145.68
228.72	2551.77
228.94	2658.26
229.16	2697.17
229.37	2781.14
229.59	2643.93
229.81	2854.87
230.03	2865.11
230.25	2779.09
230.47	2582.49
230.69	2662.36
230.90	3133.39
231.12	2930.64
231.34	2734.04
231.56	2762.71
231.78	2729.94
232.00	3059.67
232.21	2693.08
232.43	2721.75
232.65	2611.16
232.87	3067.86
233.09	2607.06
233.30	2566.10
233.52	3198.93
233.74	2959.31
233.96	2740.18
234.18	2846.68
234.40	2920.40
234.61	3373.00
234.83	2607.06
235.05	2605.02
235.27	3393.48
235.49	3176.40
235.70	2592.73
235.92	2805.72
236.14	3084.24
236.36	3389.39
236.58	2617.30
236.79	2691.03
237.01	2994.13
237.23	3000.27
237.45	2891.73
237.67	2691.03
237.88	3088.34
238.10	3346.38
238.32	2600.92
238.54	2605.02
238.76	2926.55
238.97	2799.57
239.19	2637.78
239.41	2707.41
239.63	3123.15
239.85	2856.92
240.06	2658.26
240.28	2609.11
240.50	3149.78
240.72	2977.75
240.93	2555.86
241.15	2815.96
241.37	3037.14
241.59	3196.88
241.81	2742.23
242.02	2648.02
242.24	3057.62
242.46	3164.11
242.68	2551.77
242.89	2584.54
243.11	3235.79
243.33	3002.32
243.55	2678.74
243.76	2707.41
243.98	2781.14
244.20	2979.79
244.42	2684.89
244.64	2695.13
244.85	2752.47
245.07	2787.29
245.29	2652.12
245.51	2731.99
245.72	3092.43
245.94	3172.30
246.16	2611.16
246.38	2660.31
246.59	2865.11
246.81	2818.00
247.03	2633.69
247.24	2559.96
247.46	2881.49
247.68	3037.14
247.90	2648.02
248.11	2648.02
248.33	3084.24
248.55	2969.55
248.77	2719.70
248.98	2748.37
249.20	3250.13
249.42	3035.09
249.64	2666.46
249.85	2736.09
250.07	2856.92
250.29	3131.34
250.50	2709.46
250.72	2699.22
250.94	3045.33
251.16	3483.59
251.37	2654.17
251.59	2731.99
251.81	3059.67
252.02	3190.74
252.24	2682.84
252.46	2832.34
252.68	2867.16
252.89	2901.97
253.11	2566.10
253.33	2852.82
253.54	3260.37
253.76	2779.09
253.98	2717.65
254.20	2596.82
254.41	2770.90
254.63	2848.72
254.85	2545.63
255.06	2748.37
255.28	3082.19
255.50	2967.51
255.71	2611.16
255.93	2529.24
256.15	2990.03
256.36	3117.01
256.58	2555.86
256.80	2648.02
257.02	3008.47
257.23	2891.73
257.45	2785.24
257.67	2820.05
257.88	2881.49
258.10	3061.71
258.32	2682.84
258.53	2738.13
258.75	3360.72
258.97	2889.68
259.18	2611.16
259.40	2682.84
259.62	3237.84
259.83	3332.05
260.05	2652.12
260.27	3461.07
260.48	3110.86
260.70	2789.33
260.92	2586.58
261.13	2678.74
261.35	2992.08
261.57	3110.86
261.78	2555.86
262.00	2586.58
262.22	3086.29
262.43	2842.58
262.65	2721.75
262.86	2697.17
263.08	3340.24
263.30	3037.14
263.51	2555.86
263.73	2652.12
263.95	3194.83
264.16	2844.63
264.38	2547.67
264.60	2688.98
264.81	2971.60
265.03	3155.92
265.25	3170.26
265.46	2609.11
265.68	3194.83
265.89	3123.15
266.11	2545.63
266.33	2703.32
266.54	3241.93
266.76	3121.10
266.98	2848.72
267.19	2858.96
267.41	3143.63
267.62	2971.60
267.84	2551.77
268.06	2799.57
268.27	3041.23
268.49	3223.50
268.70	2686.94
268.92	2639.83
269.14	2830.29
269.35	2746.33
269.57	2699.22
269.79	2791.38
270.00	3020.75
270.22	3286.99
270.43	2562.01
270.65	2508.76
270.87	2981.84
271.08	3053.52
271.30	2772.95
271.51	2707.41
271.73	3088.34
271.95	3153.87
272.16	2645.98
272.38	2799.57
272.59	2912.21
272.81	3131.34
273.02	2629.59
273.24	2734.04
273.46	3153.87
273.67	2744.28
273.89	2506.71
274.10	2668.50
274.32	3227.60
274.54	3041.23
274.75	2777.05
274.97	2803.67
275.18	3049.43
275.40	3125.20
275.61	2752.47
275.83	2811.86
276.05	2820.05
276.26	3041.23
276.48	2791.38
276.69	2772.95
276.91	2879.44
277.12	3215.31
277.34	2828.24
277.55	2938.84
277.77	2944.98
277.99	2885.59
278.20	2742.23
278.42	2719.70
278.63	2826.20
278.85	2820.05
279.06	2688.98
279.28	2852.82
279.49	3131.34
279.71	3055.57
279.93	2748.37
280.14	2775.00
280.36	2938.84
280.57	3145.68
280.79	2928.60
281.00	2691.03
281.22	2922.45
281.43	3186.64
281.65	2586.58
281.86	2682.84
282.08	3098.58
282.29	3416.01
282.51	2684.89
282.73	2758.61
282.94	2729.94
283.16	3110.86
283.37	2824.15
283.59	2801.62
283.80	3112.91
284.02	3020.75
284.23	2920.40
284.45	2852.82
284.66	2811.86
284.88	2934.74
285.09	2701.27
285.31	2885.59
285.52	3090.38
285.74	2701.27
285.95	3000.27
286.17	2883.54
286.38	3264.46
286.60	2840.53
286.81	2783.19
287.03	2832.34
287.24	3074.00
287.46	3096.53
287.67	2820.05
287.89	2981.84
288.10	2957.27
288.32	3035.09
288.53	3012.56
288.75	2867.16
288.96	3102.67
289.18	2940.88
289.39	2756.57
289.61	2822.10
289.82	3370.96
290.04	3325.90
290.25	2600.92
290.47	2881.49
290.68	2922.45
290.90	3114.96
291.11	2596.82
291.33	2920.40
291.54	2793.43
291.76	2863.06
291.97	2957.27
292.18	2867.16
292.40	2891.73
292.61	2881.49
292.83	3184.59
293.04	2815.96
293.26	3080.14
293.47	2922.45
293.69	2717.65
293.90	2703.32
294.12	3135.44
294.33	2951.12
294.55	2777.05
294.76	3024.85
294.97	3313.61
295.19	3340.24
295.40	2781.14
295.62	2873.30
295.83	3131.34
296.05	2877.40
296.26	3010.51
296.48	2822.10
296.69	2934.74
296.90	2994.13
297.12	2852.82
297.33	2957.27
297.55	3065.81
297.76	3076.05
297.98	3010.51
298.19	2869.20
298.41	2953.17
298.62	2789.33
298.83	3024.85
299.05	2906.07
299.26	2936.79
299.48	2805.72
299.69	2867.16
299.90	2830.29
300.12	2885.59
300.33	3127.25
300.55	2818.00
300.76	2824.15
300.98	2785.24
301.19	3141.58
301.40	2801.62
301.62	2768.85
301.83	3071.95
302.05	3043.28
302.26	2756.57
302.47	2846.68
302.69	2791.38
302.90	3010.51
303.12	2617.30
303.33	2920.40
303.54	3375.05
303.76	2883.54
303.97	2756.57
304.19	2977.75
304.40	2785.24
304.61	3094.48
304.83	2916.31
305.04	2861.01
305.26	3008.47
305.47	2904.02
305.68	2824.15
305.90	2736.09
306.11	3147.73
306.33	2959.31
306.54	2688.98
306.75	2731.99
306.97	2740.18
307.18	2820.05
307.39	2822.10
307.61	2934.74
307.82	2990.03
308.04	3104.72
308.25	2594.78
308.46	2932.69
308.68	2940.88
308.89	2990.03
309.10	2955.22
309.32	2803.67
309.53	2965.46
309.74	3055.57
309.96	2727.89
310.17	2883.54
310.39	2930.64
310.60	3059.67
310.81	2824.15
311.03	2695.13
311.24	3065.81
311.45	3028.95
311.67	3090.38
311.88	2863.06
312.09	2922.45
312.31	2922.45
312.52	2781.14
312.73	2832.34
312.95	2768.85
313.16	2824.15
313.37	2987.99
313.59	2936.79
313.80	3164.11
314.01	3182.54
314.23	2764.76
314.44	2787.29
314.65	2824.15
314.87	2863.06
315.08	2793.43
315.29	2836.44
315.51	2791.38
315.72	2754.52
315.93	2926.55
316.15	2811.86
316.36	2949.08
316.57	2975.70
316.79	2805.72
317.00	2734.04
317.21	3180.50
317.43	2852.82
317.64	2748.37
317.85	2705.37
318.07	2803.67
318.28	2885.59
318.49	2799.57
318.70	2996.18
318.92	2977.75
319.13	3012.56
319.34	2932.69
319.56	2805.72
319.77	3061.71
319.98	3139.54
320.20	3047.38
320.41	2957.27
320.62	3080.14
320.83	2820.05
321.05	2961.36
321.26	2901.97
321.47	3053.52
321.69	3135.44
321.90	2625.50
322.11	2754.52
322.32	3012.56
322.54	3311.57
322.75	2895.83
322.96	3590.09
323.18	2826.20
323.39	2705.37
323.60	2705.37
323.81	2908.12
324.03	2826.20
324.24	2969.55
324.45	2904.02
324.66	2818.00
324.88	3129.30
325.09	3225.55
325.30	2797.53
325.52	2688.98
325.73	3012.56
325.94	2748.37
326.15	2688.98
326.37	2664.41
326.58	3114.96
326.79	3360.72
327.00	2752.47
327.22	2731.99
327.43	2967.51
327.64	2783.19
327.85	2883.54
328.07	2775.00
328.28	3252.17
328.49	2885.59
328.70	2883.54
328.92	2813.91
329.13	2969.55
329.34	3069.91
329.55	3057.62
329.76	2938.84
329.98	2861.01
330.19	3286.99
330.40	2861.01
330.61	2912.21
330.83	3028.95
331.04	2844.63
331.25	2858.96
331.46	2777.05
331.68	2834.39
331.89	3170.26
332.10	2797.53
332.31	2641.88
332.52	3008.47
332.74	3272.65
332.95	2586.58
333.16	2832.34
333.37	3088.34
333.58	2842.58
333.80	2797.53
334.01	2635.74
334.22	2906.07
334.43	2856.92
334.64	2826.20
334.86	2686.94
335.07	2869.20
335.28	3215.31
335.49	2750.42
335.70	2877.40
335.92	3205.07
336.13	3334.09
336.34	2904.02
336.55	2834.39
336.76	3098.58
336.98	2719.70
337.19	2756.57
337.40	2959.31
337.61	3456.97
337.82	2947.03
338.04	2916.31
338.25	2658.26
338.46	2930.64
338.67	2934.74
338.88	2731.99
339.09	2723.80
339.31	2846.68
339.52	2846.68
339.73	2729.94
339.94	2836.44
340.15	3049.43
340.36	2873.30
340.58	2869.20
340.79	2658.26
341.00	3164.11
341.21	2840.53
341.42	3010.51
341.63	2789.33
341.85	3074.00
342.06	3057.62
342.27	2789.33
342.48	2994.13
342.69	2787.29
342.90	3000.27
343.12	3137.49
343.33	2717.65
343.54	3184.59
343.75	3180.50
343.96	2942.93
344.17	2768.85
344.38	2930.64
344.60	2822.10
344.81	2762.71
345.02	2762.71
345.23	3114.96
345.44	3393.48
345.65	2863.06
345.86	2865.11
346.07	3020.75
346.29	2813.91
346.50	2936.79
346.71	2858.96
346.92	3315.66
347.13	3321.81
347.34	2836.44
347.55	2627.54
347.76	2990.03
347.98	2772.95
348.19	2852.82
348.40	2897.88
348.61	2936.79
348.82	3221.45
349.03	2854.87
349.24	2721.75
349.45	3280.85
349.66	2676.70
349.88	2772.95
350.09	2680.79
350.30	3231.69
350.51	3162.06
350.72	2887.64
350.93	2740.18
351.14	2848.72
351.35	3061.71
351.56	2815.96
351.77	2750.42
351.99	3143.63
352.20	3278.80
352.41	2924.50
352.62	2654.17
352.83	3018.71
353.04	3028.95
353.25	2793.43
353.46	2799.57
353.67	3153.87
353.88	2703.32
354.09	2703.32
354.30	2869.20
354.52	3151.82
354.73	2899.92
354.94	2830.29
355.15	2934.74
355.36	3313.61
355.57	2861.01
355.78	2770.90
355.99	2750.42
356.20	2983.89
356.41	3176.40
356.62	2928.60
356.83	2858.96
357.04	3241.93
357.25	2703.32
357.46	2727.89
357.68	2617.30
357.89	2746.33
358.10	2955.22
358.31	2797.53
358.52	2793.43
358.73	2815.96
358.94	2789.33
359.15	2826.20
359.36	2936.79
359.57	2985.94
359.78	2942.93
359.99	3022.80
360.20	2713.56
360.41	2930.64
360.62	3057.62
360.83	2883.54
361.04	2746.33
361.25	3047.38
361.46	3262.41
361.67	2975.70
361.88	2842.58
362.09	3145.68
362.30	3100.62
362.51	2723.80
362.72	2772.95
362.93	3198.93
363.14	3090.38
363.35	2897.88
363.56	2705.37
363.78	3168.21
363.99	3110.86
364.20	2723.80
364.41	2863.06
364.62	3330.00
364.83	3121.10
365.04	2820.05
365.25	2885.59
365.46	3278.80
365.67	2832.34
365.88	2877.40
366.09	2828.24
366.30	2906.07
366.51	2985.94
366.72	2693.08
366.93	2850.77
367.14	2918.36
367.35	3178.45
367.56	2783.19
367.77	2971.60
367.98	2975.70
368.18	3024.85
368.39	2858.96
368.60	2701.27
368.81	3172.30
369.02	3014.61
369.23	2805.72
369.44	2666.46
369.65	2836.44
369.86	3157.97
370.07	2994.13
370.28	2748.37
370.49	3086.29
370.70	2990.03
370.91	2766.81
371.12	2656.22
371.33	3174.35
371.54	2873.30
371.75	2914.26
371.96	2627.54
372.17	2955.22
372.38	2889.68
372.59	2779.09
372.80	2734.04
373.01	2947.03
373.22	2973.65
373.43	2838.48
373.64	2680.79
373.85	3186.64
374.06	3248.08
374.26	2990.03
374.47	2846.68
374.68	3233.74
374.89	3137.49
375.10	2791.38
375.31	2877.40
375.52	3022.80
375.73	3061.71
375.94	2676.70
376.15	2934.74
376.36	2879.44
376.57	2922.45
376.78	2787.29
376.99	2836.44
377.20	3200.98
377.40	2971.60
377.61	2983.89
377.82	2750.42
378.03	3262.41
378.24	3110.86
378.45	2854.87
378.66	2852.82
378.87	2731.99
379.08	2727.89
379.29	2787.29
379.50	2885.59
379.71	2973.65
379.91	3065.81
380.12	2875.35
380.33	2801.62
380.54	2928.60
380.75	2981.84
380.96	2867.16
381.17	2803.67
381.38	3000.27
381.59	2994.13
381.80	2877.40
382.00	3008.47
382.21	2965.46
382.42	3270.61
382.63	3094.48
382.84	3043.28
383.05	3082.19
383.26	3278.80
383.47	2813.91
383.68	2779.09
383.88	3135.44
384.09	3049.43
384.30	3022.80
384.51	2899.92
384.72	2947.03
384.93	2801.62
385.14	2854.87
385.35	2959.31
385.55	2766.81
385.76	3176.40
385.97	2801.62
386.18	2721.75
386.39	2873.30
386.60	2807.77
386.81	2770.90
387.02	2695.13
387.22	2770.90
387.43	3014.61
387.64	2856.92
387.85	3059.67
388.06	3000.27
388.27	3966.92
388.48	7110.55
388.68	10796.89
388.89	13156.15
389.10	14217.00
389.31	13985.58
389.52	11233.11
389.73	9574.25
389.93	8716.16
390.14	8021.89
390.35	7286.67
390.56	6610.84
390.77	5537.71
390.98	4302.78
391.18	3708.87
391.39	3459.02
391.60	2924.50
391.81	3045.33
392.02	2877.40
392.23	3340.24
392.43	2979.79
392.64	2922.45
392.85	2871.25
393.06	3256.27
393.27	3008.47
393.47	2754.52
393.68	2875.35
393.89	2842.58
394.10	3213.26
394.31	2799.57
394.52	2768.85
394.72	2881.49
394.93	3282.89
395.14	2676.70
395.35	2940.88
395.56	2881.49
395.76	2977.75
395.97	2940.88
396.18	3057.62
396.39	2996.18
396.60	3575.75
396.80	3145.68
397.01	3010.51
397.22	3131.34
397.43	3188.69
397.64	2727.89
397.84	2893.78
398.05	3356.62
398.26	2977.75
398.47	2977.75
398.67	3008.47
398.88	2971.60
399.09	3117.01
399.30	2838.48
399.51	2899.92
399.71	2807.77
399.92	3006.42
400.13	2932.69
400.34	2840.53
400.54	2994.13
400.75	3266.51
400.96	3000.27
401.17	3133.39
401.37	3074.00
401.58	2965.46
401.79	2840.53
402.00	2971.60
402.21	3506.12
402.41	3133.39
402.62	3106.77
402.83	3268.56
403.04	3327.95
403.24	3717.06
403.45	2951.12
403.66	3207.12
403.87	3123.15
404.07	3293.13
404.28	3088.34
404.49	3180.50
404.70	3053.52
404.90	3067.86
405.11	2852.82
405.32	2930.64
405.52	2887.64
405.73	2961.36
405.94	2783.19
406.15	2877.40
406.35	3063.76
406.56	3117.01
406.77	2832.34
406.98	2852.82
407.18	2877.40
407.39	3295.18
407.60	2799.57
407.80	2895.83
408.01	2893.78
408.22	3041.23
408.43	2770.90
408.63	2887.64
408.84	3188.69
409.05	3010.51
409.25	2805.72
409.46	2838.48
409.67	2912.21
409.88	2885.59
410.08	2877.40
410.29	2899.92
410.50	3114.96
410.70	2963.41
410.91	2760.66
411.12	2934.74
411.32	3010.51
411.53	2891.73
411.74	2875.35
411.95	2959.31
412.15	3004.37
412.36	3164.11
412.57	3080.14
412.77	3018.71
412.98	2938.84
413.19	2920.40
413.39	3035.09
413.60	2846.68
413.81	3227.60
414.01	2787.29
414.22	2832.34
414.43	3049.43
414.63	2895.83
414.84	3200.98
415.05	2820.05
415.25	2633.69
415.46	3186.64
415.67	2877.40
415.87	2897.88
416.08	2748.37
416.29	2985.94
416.49	2994.13
416.70	2867.16
416.91	2772.95
417.11	2897.88
417.32	3219.41
417.53	2906.07
417.73	2881.49
417.94	2996.18
418.15	3043.28
418.35	2895.83
418.56	2848.72
418.77	3391.44
418.97	3080.14
419.18	2891.73
419.38	2600.92
419.59	3000.27
419.80	3200.98
420.00	2762.71
420.21	2869.20
420.42	3223.50
420.62	3047.38
420.83	2779.09
421.04	2772.95
421.24	3033.04
421.45	3117.01
421.65	2848.72
421.86	2879.44
422.07	3069.91
422.27	3010.51
422.48	2836.44
422.69	2734.04
422.89	2944.98
423.10	2901.97
423.30	2789.33
423.51	2875.35
423.72	3092.43
423.92	3037.14
424.13	2754.52
424.33	2955.22
424.54	3125.20
424.75	2967.51
424.95	3071.95
425.16	2873.30
425.36	2928.60
425.57	3135.44
425.78	3006.42
425.98	2979.79
426.19	2854.87
426.39	2848.72
426.60	2938.84
426.81	2981.84
427.01	3076.05
427.22	2869.20
427.42	2680.79
427.63	2723.80
427.83	3133.39
428.04	3307.47
428.25	2916.31
428.45	2930.64
428.66	3209.17
428.86	2920.40
429.07	2916.31
429.28	2897.88
429.48	2947.03
429.69	2871.25
429.89	2883.54
430.10	2738.13
430.30	3078.10
430.51	3147.73
430.71	2723.80
430.92	2924.50
431.13	2877.40
431.33	3112.91
431.54	2818.00
431.74	3117.01
431.95	3321.81
432.15	2877.40
432.36	2887.64
432.56	2869.20
432.77	3323.85
432.98	3323.85
433.18	2883.54
433.39	2756.57
433.59	2926.55
433.80	3311.57
434.00	2985.94
434.21	2820.05
434.41	2897.88
434.62	3413.96
434.82	2717.65
435.03	2793.43
435.23	3108.82
435.44	2746.33
435.64	2830.29
435.85	2897.88
436.06	3151.82
436.26	3190.74
436.47	2856.92
436.67	2797.53
436.88	2938.84
437.08	3260.37
437.29	2977.75
437.49	2961.36
437.70	3110.86
437.90	3006.42
438.11	3051.47
438.31	2922.45
438.52	3246.03
438.72	3061.71
438.93	3094.48
439.13	2901.97
439.34	3149.78
439.54	2885.59
439.75	2895.83
439.95	2936.79
440.16	2850.77
440.36	2955.22
440.57	2924.50
440.77	2928.60
440.98	2957.27
441.18	3037.14
441.39	2850.77
441.59	2713.56
441.80	3327.95
442.00	2981.84
442.21	2949.08
442.41	2664.41
442.62	3112.91
442.82	2883.54
443.02	2811.86
443.23	2904.02
443.43	2867.16
443.64	3162.06
443.84	2678.74
444.05	2963.41
444.25	2992.08
444.46	2940.88
444.66	2779.09
444.87	3123.15
445.07	2688.98
445.28	2959.31
445.48	3004.37
445.69	2930.64
445.89	3393.48
446.09	2836.44
446.30	3139.54
446.50	3262.41
446.71	4679.61
446.91	5617.58
447.12	6580.12
447.32	6842.26
447.53	6815.64
447.73	5703.59
447.93	4958.13
448.14	4722.62
448.34	4716.47
448.55	4093.89
448.75	4011.97
448.96	3905.48
449.16	3606.47
449.36	3526.60
449.57	3055.57
449.77	2912.21
449.98	2901.97
450.18	3041.23
450.39	2865.11
450.59	2955.22
450.79	2979.79
451.00	2803.67
451.20	2981.84
451.41	2893.78
451.61	3076.05
451.81	2895.83
452.02	2832.34
452.22	2805.72
452.43	2908.12
452.63	2891.73
