SpectraSuite Data File
++++++++++++++++++++++++++++++++++++
Date: Thu May 05 21:11:15 CEST 2016
User: root
Dark Spectrum Present: No
Reference Spectrum Present: No
Number of Sampled Component Spectra: 1
Spectrometers: USB4C02835
Integration Time (usec): 100000 (USB4C02835)
Spectra Averaged: 1 (USB4C02835)
Boxcar Smoothing: 0 (USB4C02835)
Correct for Electrical Dark: No (USB4C02835)
Strobe/Lamp Enabled: No (USB4C02835)
Correct for Detector Non-linearity: No (USB4C02835)
Correct for Stray Light: No (USB4C02835)
Number of Pixels in Processed Spectrum: 3648
>>>>>Begin Processed Spectral Data<<<<<
177.47	2150.37
177.69	2150.37
177.91	2150.37
178.13	2115.55
178.36	2150.37
178.58	2750.42
178.80	2920.40
179.02	2762.71
179.24	2861.01
179.46	2613.21
179.68	2684.89
179.90	2906.07
180.13	2918.36
180.35	2535.39
180.57	2658.26
180.79	3182.54
181.01	3061.71
181.23	2631.64
181.45	2799.57
181.67	3108.82
181.90	3039.19
182.12	2729.94
182.34	2543.58
182.56	3088.34
182.78	3094.48
183.00	2623.45
183.22	2703.32
183.44	2680.79
183.66	3561.42
183.89	2836.44
184.11	2662.36
184.33	3069.91
184.55	3286.99
184.77	2600.92
184.99	2744.28
185.21	2867.16
185.43	3307.47
185.65	2635.74
185.87	2617.30
186.10	3344.33
186.32	3489.74
186.54	2852.82
186.76	2801.62
186.98	3151.82
187.20	2940.88
187.42	2662.36
187.64	2650.07
187.86	3092.43
188.08	3151.82
188.30	2658.26
188.52	2682.84
188.75	3190.74
188.97	3274.70
189.19	2680.79
189.41	2713.56
189.63	3114.96
189.85	2938.84
190.07	2562.01
190.29	2566.10
190.51	3020.75
190.73	2709.46
190.95	2858.96
191.17	2772.95
191.39	2826.20
191.61	2942.93
191.84	2688.98
192.06	2793.43
192.28	2744.28
192.50	3514.31
192.72	2803.67
192.94	2725.85
193.16	3217.36
193.38	3049.43
193.60	2621.40
193.82	2858.96
194.04	3184.59
194.26	3043.28
194.48	2641.88
194.70	2660.31
194.92	2826.20
195.14	3139.54
195.36	2744.28
195.58	2738.13
195.80	2998.23
196.02	2861.01
196.24	2635.74
196.46	2721.75
196.69	2824.15
196.91	3370.96
197.13	2768.85
197.35	2695.13
197.57	3291.09
197.79	3137.49
198.01	2756.57
198.23	2691.03
198.45	3082.19
198.67	2811.86
198.89	2510.81
199.11	2756.57
199.33	2918.36
199.55	2701.27
199.77	2568.15
199.99	2805.72
200.21	2932.69
200.43	3000.27
200.65	2592.73
200.87	2555.86
201.09	3000.27
201.31	2965.46
201.53	2678.74
201.75	2711.51
201.97	3074.00
202.19	2934.74
202.41	2777.05
202.63	2852.82
202.85	3030.99
203.07	3065.81
203.29	2797.53
203.51	2652.12
203.73	2799.57
203.95	3467.21
204.17	2703.32
204.39	2801.62
204.61	2930.64
204.83	2871.25
205.05	2830.29
205.27	2701.27
205.49	3360.72
205.71	3033.04
205.93	2592.73
206.15	2648.02
206.37	2973.65
206.59	2942.93
206.81	2521.05
207.03	2533.34
207.25	2824.15
207.47	3063.76
207.69	2717.65
207.91	2869.20
208.13	3297.23
208.34	2832.34
208.56	2658.26
208.78	2731.99
209.00	2922.45
209.22	2770.90
209.44	2748.37
209.66	2654.17
209.88	2934.74
210.10	2998.23
210.32	2682.84
210.54	2746.33
210.76	2955.22
210.98	3090.38
211.20	2529.24
211.42	2738.13
211.64	3221.45
211.86	2990.03
212.08	2758.61
212.30	2723.80
212.52	2938.84
212.74	3049.43
212.96	2756.57
213.17	2697.17
213.39	3100.62
213.61	3272.65
213.83	2602.97
214.05	2637.78
214.27	3252.17
214.49	2861.01
214.71	2699.22
214.93	2805.72
215.15	3016.66
215.37	3164.11
215.59	2615.26
215.81	2820.05
216.03	3221.45
216.24	3080.14
216.46	2721.75
216.68	2746.33
216.90	3139.54
217.12	3090.38
217.34	2658.26
217.56	2832.34
217.78	3243.98
218.00	3139.54
218.22	2672.60
218.44	2775.00
218.66	3092.43
218.87	3413.96
219.09	2740.18
219.31	2664.41
219.53	3098.58
219.75	2920.40
219.97	2740.18
220.19	2807.77
220.41	2887.64
220.63	3360.72
220.85	2652.12
221.06	2699.22
221.28	3151.82
221.50	3049.43
221.72	2744.28
221.94	2613.21
222.16	3055.57
222.38	3166.16
222.60	2701.27
222.82	2639.83
223.03	3200.98
223.25	2840.53
223.47	2688.98
223.69	2846.68
223.91	3082.19
224.13	3055.57
224.35	2596.82
224.57	2889.68
224.78	3147.73
225.00	2848.72
225.22	2756.57
225.44	2650.07
225.66	3155.92
225.88	2914.26
226.10	2775.00
226.32	2701.27
226.53	3223.50
226.75	2869.20
226.97	2768.85
227.19	2713.56
227.41	2848.72
227.63	2863.06
227.85	2578.39
228.06	2648.02
228.28	3041.23
228.50	3090.38
228.72	2586.58
228.94	2613.21
229.16	2666.46
229.37	2748.37
229.59	2627.54
229.81	2844.63
230.03	2887.64
230.25	2682.84
230.47	2576.34
230.69	2654.17
230.90	3117.01
231.12	2875.35
231.34	2789.33
231.56	2834.39
231.78	2818.00
232.00	3004.37
232.21	2666.46
232.43	2682.84
232.65	2627.54
232.87	3100.62
233.09	2598.87
233.30	2598.87
233.52	3180.50
233.74	3041.23
233.96	2688.98
234.18	2850.77
234.40	2918.36
234.61	3510.22
234.83	2627.54
235.05	2643.93
235.27	3444.68
235.49	3203.02
235.70	2586.58
235.92	2668.50
236.14	3094.48
236.36	3364.81
236.58	2553.82
236.79	2713.56
237.01	2955.22
237.23	2920.40
237.45	2914.26
237.67	2688.98
237.88	3098.58
238.10	3358.67
238.32	2590.68
238.54	2641.88
238.76	2949.08
238.97	2873.30
239.19	2598.87
239.41	2818.00
239.63	3239.89
239.85	2920.40
240.06	2738.13
240.28	2652.12
240.50	3117.01
240.72	3016.66
240.93	2580.44
241.15	2779.09
241.37	2953.17
241.59	3229.65
241.81	2695.13
242.02	2717.65
242.24	3106.77
242.46	3104.72
242.68	2475.99
242.89	2576.34
243.11	3051.47
243.33	3045.33
243.55	2672.60
243.76	2658.26
243.98	2867.16
244.20	3000.27
244.42	2666.46
244.64	2697.17
244.85	2824.15
245.07	2775.00
245.29	2693.08
245.51	2734.04
245.72	3080.14
245.94	3209.17
246.16	2672.60
246.38	2738.13
246.59	2910.16
246.81	2811.86
247.03	2549.72
247.24	2602.97
247.46	2865.11
247.68	3014.61
247.90	2598.87
248.11	2672.60
248.33	3114.96
248.55	2947.03
248.77	2746.33
248.98	2818.00
249.20	3231.69
249.42	2987.99
249.64	2734.04
249.85	2674.65
250.07	2846.68
250.29	3078.10
250.50	2750.42
250.72	2598.87
250.94	3059.67
251.16	3311.57
251.37	2678.74
251.59	2805.72
251.81	3043.28
252.02	3297.23
252.24	2633.69
252.46	2883.54
252.68	2836.44
252.89	2912.21
253.11	2512.86
253.33	2836.44
253.54	3301.33
253.76	2764.76
253.98	2701.27
254.20	2676.70
254.41	2729.94
254.63	2932.69
254.85	2523.10
255.06	2729.94
255.28	3078.10
255.50	2883.54
255.71	2635.74
255.93	2611.16
256.15	2973.65
256.36	2959.31
256.58	2543.58
256.80	2752.47
257.02	3102.67
257.23	2942.93
257.45	2699.22
257.67	2740.18
257.88	2842.58
258.10	3074.00
258.32	2656.22
258.53	2785.24
258.75	3241.93
258.97	2895.83
259.18	2615.26
259.40	2607.06
259.62	3250.13
259.83	3207.12
260.05	2717.65
260.27	3497.93
260.48	3127.25
260.70	2756.57
260.92	2584.54
261.13	2662.36
261.35	2953.17
261.57	2969.55
261.78	2578.39
262.00	2629.59
262.22	3074.00
262.43	2848.72
262.65	2672.60
262.86	2670.55
263.08	3389.39
263.30	2998.23
263.51	2586.58
263.73	2631.64
263.95	3155.92
264.16	2809.81
264.38	2496.47
264.60	2584.54
264.81	3071.95
265.03	3184.59
265.25	2975.70
265.46	2672.60
265.68	3182.54
265.89	3153.87
266.11	2590.68
266.33	2568.15
266.54	3170.26
266.76	3069.91
266.98	2793.43
267.19	2789.33
267.41	3215.31
267.62	2985.94
267.84	2478.04
268.06	2740.18
268.27	2998.23
268.49	3172.30
268.70	2719.70
268.92	2713.56
269.14	2858.96
269.35	2746.33
269.57	2775.00
269.79	2820.05
270.00	2926.55
270.22	3250.13
270.43	2627.54
270.65	2533.34
270.87	3008.47
271.08	3106.77
271.30	2754.52
271.51	2711.51
271.73	3078.10
271.95	3211.22
272.16	2592.73
272.38	2856.92
272.59	2967.51
272.81	3102.67
273.02	2607.06
273.24	2766.81
273.46	3180.50
273.67	2746.33
273.89	2586.58
274.10	2656.22
274.32	3184.59
274.54	3137.49
274.75	2766.81
274.97	2797.53
275.18	3033.04
275.40	3078.10
275.61	2752.47
275.83	2891.73
276.05	2848.72
276.26	3014.61
276.48	2807.77
276.69	2775.00
276.91	2815.96
277.12	3182.54
277.34	2883.54
277.55	2981.84
277.77	2985.94
277.99	3012.56
278.20	2715.61
278.42	2719.70
278.63	2815.96
278.85	2949.08
279.06	2711.51
279.28	2865.11
279.49	3229.65
279.71	3129.30
279.93	2826.20
280.14	2901.97
280.36	2873.30
280.57	3213.26
280.79	2926.55
281.00	2715.61
281.22	2926.55
281.43	3162.06
281.65	2580.44
281.86	2697.17
282.08	3100.62
282.29	3356.62
282.51	2652.12
282.73	2678.74
282.94	2684.89
283.16	3121.10
283.37	2951.12
283.59	2818.00
283.80	3121.10
284.02	2951.12
284.23	2856.92
284.45	2797.53
284.66	2762.71
284.88	2824.15
285.09	2734.04
285.31	2899.92
285.52	2992.08
285.74	2772.95
285.95	2936.79
286.17	2924.50
286.38	3215.31
286.60	2871.25
286.81	2834.39
287.03	2766.81
287.24	2947.03
287.46	3051.47
287.67	2928.60
287.89	3002.32
288.10	2914.26
288.32	3010.51
288.53	3049.43
288.75	2858.96
288.96	3192.78
289.18	2871.25
289.39	2787.29
289.61	2820.05
289.82	3422.16
290.04	3289.04
290.25	2707.41
290.47	2854.87
290.68	2971.60
290.90	3155.92
291.11	2584.54
291.33	2942.93
291.54	2830.29
291.76	2836.44
291.97	2922.45
292.18	2867.16
292.40	2969.55
292.61	2914.26
292.83	3069.91
293.04	2842.58
293.26	3086.29
293.47	2953.17
293.69	2729.94
293.90	2766.81
294.12	3235.79
294.33	3028.95
294.55	2799.57
294.76	2965.46
294.97	3151.82
295.19	3428.30
295.40	2797.53
295.62	2887.64
295.83	3110.86
296.05	2863.06
296.26	3008.47
296.48	2801.62
296.69	2959.31
296.90	2912.21
297.12	2932.69
297.33	3020.75
297.55	3026.90
297.76	3074.00
297.98	2934.74
298.19	2912.21
298.41	2996.18
298.62	2863.06
298.83	3026.90
299.05	2906.07
299.26	2895.83
299.48	2770.90
299.69	2897.88
299.90	2746.33
300.12	2850.77
300.33	3164.11
300.55	2840.53
300.76	2781.14
300.98	2815.96
301.19	3149.78
301.40	2852.82
301.62	2811.86
301.83	3080.14
302.05	3018.71
302.26	2766.81
302.47	2805.72
302.69	2795.48
302.90	3004.37
303.12	2537.43
303.33	2981.84
303.54	3295.18
303.76	2922.45
303.97	2799.57
304.19	2973.65
304.40	2840.53
304.61	2987.99
304.83	2899.92
305.04	2871.25
305.26	3114.96
305.47	2797.53
305.68	2801.62
305.90	2762.71
306.11	3174.35
306.33	2979.79
306.54	2697.17
306.75	2740.18
306.97	2756.57
307.18	2885.59
307.39	2770.90
307.61	2881.49
307.82	2926.55
308.04	3026.90
308.25	2676.70
308.46	2867.16
308.68	3049.43
308.89	2914.26
309.10	2936.79
309.32	2897.88
309.53	2983.89
309.74	3016.66
309.96	2787.29
310.17	2875.35
310.39	2887.64
310.60	3076.05
310.81	2727.89
311.03	2772.95
311.24	3200.98
311.45	3016.66
311.67	3078.10
311.88	2916.31
312.09	2934.74
312.31	2891.73
312.52	2791.38
312.73	2818.00
312.95	2707.41
313.16	2838.48
313.37	2932.69
313.59	2953.17
313.80	3127.25
314.01	3323.85
314.23	2756.57
314.44	2703.32
314.65	2758.61
314.87	2834.39
315.08	2813.91
315.29	2762.71
315.51	2895.83
315.72	2725.85
315.93	2889.68
316.15	2836.44
316.36	2955.22
316.57	3000.27
316.79	2779.09
317.00	2734.04
317.21	3000.27
317.43	2844.63
317.64	2840.53
317.85	2633.69
318.07	2840.53
318.28	2879.44
318.49	2916.31
318.70	2981.84
318.92	2990.03
319.13	3071.95
319.34	2936.79
319.56	2803.67
319.77	3117.01
319.98	3074.00
320.20	2987.99
320.41	2971.60
320.62	3018.71
320.83	2852.82
321.05	2979.79
321.26	2785.24
321.47	3008.47
321.69	3123.15
321.90	2719.70
322.11	2738.13
322.32	3041.23
322.54	3248.08
322.75	2777.05
322.96	3477.45
323.18	2758.61
323.39	2695.13
323.60	2664.41
323.81	2920.40
324.03	2877.40
324.24	2985.94
324.45	2906.07
324.66	2815.96
324.88	3162.06
325.09	3272.65
325.30	2734.04
325.52	2709.46
325.73	3045.33
325.94	2811.86
326.15	2729.94
326.37	2693.08
326.58	3108.82
326.79	3254.22
327.00	2664.41
327.22	2875.35
327.43	2947.03
327.64	2770.90
327.85	2936.79
328.07	2897.88
328.28	3239.89
328.49	2844.63
328.70	2844.63
328.92	2781.14
329.13	2922.45
329.34	3092.43
329.55	3026.90
329.76	2973.65
329.98	2918.36
330.19	3166.16
330.40	2873.30
330.61	2918.36
330.83	3143.63
331.04	2858.96
331.25	2916.31
331.46	2867.16
331.68	2803.67
331.89	3157.97
332.10	2811.86
332.31	2707.41
332.52	2979.79
332.74	3176.40
332.95	2643.93
333.16	2781.14
333.37	3168.21
333.58	2889.68
333.80	2885.59
334.01	2627.54
334.22	2908.12
334.43	2922.45
334.64	2754.52
334.86	2789.33
335.07	2848.72
335.28	3299.28
335.49	2701.27
335.70	2885.59
335.92	3198.93
336.13	3334.09
336.34	2906.07
336.55	2842.58
336.76	3006.42
336.98	2645.98
337.19	2881.49
337.40	2867.16
337.61	3479.50
337.82	2975.70
338.04	2910.16
338.25	2623.45
338.46	2824.15
338.67	2953.17
338.88	2766.81
339.09	2666.46
339.31	2942.93
339.52	2777.05
339.73	2703.32
339.94	2883.54
340.15	3037.14
340.36	2906.07
340.58	2779.09
340.79	2705.37
341.00	2996.18
341.21	2783.19
341.42	3088.34
341.63	2770.90
341.85	3131.34
342.06	3028.95
342.27	2758.61
342.48	2992.08
342.69	2725.85
342.90	3053.52
343.12	3094.48
343.33	2725.85
343.54	3088.34
343.75	3313.61
343.96	2863.06
344.17	2705.37
344.38	2959.31
344.60	2738.13
344.81	2738.13
345.02	2791.38
345.23	3237.84
345.44	3463.12
345.65	2881.49
345.86	2910.16
346.07	3094.48
346.29	2926.55
346.50	2940.88
346.71	2871.25
346.92	3237.84
347.13	3352.52
347.34	2867.16
347.55	2709.46
347.76	3035.09
347.98	2766.81
348.19	2899.92
348.40	3043.28
348.61	2942.93
348.82	3227.60
349.03	2848.72
349.24	2779.09
349.45	3278.80
349.66	2623.45
349.88	2766.81
350.09	2768.85
350.30	3248.08
350.51	3217.36
350.72	2985.94
350.93	2781.14
351.14	2918.36
351.35	3039.19
351.56	2770.90
351.77	2838.48
351.99	3047.38
352.20	3227.60
352.41	2922.45
352.62	2609.11
352.83	2881.49
353.04	2973.65
353.25	2830.29
353.46	2904.02
353.67	3098.58
353.88	2697.17
354.09	2684.89
354.30	2795.48
354.52	3174.35
354.73	2916.31
354.94	2834.39
355.15	2899.92
355.36	3325.90
355.57	2928.60
355.78	2740.18
355.99	2758.61
356.20	2932.69
356.41	3174.35
356.62	2979.79
356.83	2844.63
357.04	3229.65
357.25	2723.80
357.46	2815.96
357.68	2688.98
357.89	2803.67
358.10	2887.64
358.31	2842.58
358.52	2869.20
358.73	2785.24
358.94	2863.06
359.15	2789.33
359.36	2803.67
359.57	3008.47
359.78	2887.64
359.99	2967.51
360.20	2654.17
360.41	3012.56
360.62	3135.44
360.83	2826.20
361.04	2848.72
361.25	2959.31
361.46	3268.56
361.67	2906.07
361.88	2858.96
362.09	3174.35
362.30	3088.34
362.51	2731.99
362.72	2842.58
362.93	3090.38
363.14	3030.99
363.35	2879.44
363.56	2678.74
363.78	3164.11
363.99	3133.39
364.20	2789.33
364.41	2891.73
364.62	3342.28
364.83	3037.14
365.04	2820.05
365.25	2830.29
365.46	3262.41
365.67	2885.59
365.88	2922.45
366.09	2772.95
366.30	2957.27
366.51	2951.12
366.72	2779.09
366.93	2736.09
367.14	3014.61
367.35	3219.41
367.56	2801.62
367.77	2975.70
367.98	2987.99
368.18	3078.10
368.39	2910.16
368.60	2701.27
368.81	3119.06
369.02	3067.86
369.23	2850.77
369.44	2693.08
369.65	2922.45
369.86	3018.71
370.07	2899.92
370.28	2748.37
370.49	3088.34
370.70	3043.28
370.91	2701.27
371.12	2656.22
371.33	3160.02
371.54	2873.30
371.75	2938.84
371.96	2539.48
372.17	3043.28
372.38	2922.45
372.59	2801.62
372.80	2756.57
373.01	2965.46
373.22	3020.75
373.43	2820.05
373.64	2748.37
373.85	3323.85
374.06	3239.89
374.26	2992.08
374.47	2930.64
374.68	3200.98
374.89	2992.08
375.10	2752.47
375.31	2885.59
375.52	2965.46
375.73	2975.70
375.94	2693.08
376.15	2926.55
376.36	2938.84
376.57	2885.59
376.78	2760.66
376.99	2867.16
377.20	3164.11
377.40	2848.72
377.61	3135.44
377.82	2668.50
378.03	3203.02
378.24	3145.68
378.45	2928.60
378.66	2893.78
378.87	2723.80
379.08	2760.66
379.29	2846.68
379.50	2953.17
379.71	2938.84
379.91	3057.62
380.12	2801.62
380.33	2901.97
380.54	2940.88
380.75	2994.13
380.96	2783.19
381.17	2852.82
381.38	2883.54
381.59	2987.99
381.80	2887.64
382.00	3004.37
382.21	3035.09
382.42	3366.86
382.63	3037.14
382.84	2961.36
383.05	3045.33
383.26	3272.65
383.47	2953.17
383.68	2787.29
383.88	3133.39
384.09	2990.03
384.30	3067.86
384.51	2899.92
384.72	2949.08
384.93	2770.90
385.14	2856.92
385.35	3016.66
385.55	2703.32
385.76	3205.07
385.97	2820.05
386.18	2701.27
386.39	2787.29
386.60	2891.73
386.81	2834.39
387.02	2779.09
387.22	2754.52
387.43	3125.20
387.64	2861.01
387.85	3067.86
388.06	2977.75
388.27	3958.72
388.48	7350.16
388.68	10823.51
388.89	13367.09
389.10	14456.61
389.31	14087.98
389.52	11372.37
389.73	9762.67
389.93	8722.30
390.14	8198.02
390.35	7253.91
390.56	6711.19
390.77	5615.53
390.98	4429.76
391.18	3686.34
391.39	3428.30
391.60	2965.46
391.81	3022.80
392.02	2904.02
392.23	3379.15
392.43	3002.32
392.64	2918.36
392.85	2889.68
393.06	3246.03
393.27	2967.51
393.47	2795.48
393.68	2916.31
393.89	2895.83
394.10	3143.63
394.31	2799.57
394.52	2725.85
394.72	2852.82
394.93	3280.85
395.14	2676.70
395.35	2889.68
395.56	2856.92
395.76	2994.13
395.97	2799.57
396.18	2951.12
396.39	2981.84
396.60	3516.36
396.80	3149.78
397.01	3076.05
397.22	3110.86
397.43	3141.58
397.64	2811.86
397.84	2944.98
398.05	3350.48
398.26	2963.41
398.47	3002.32
398.67	3033.04
398.88	3127.25
399.09	3153.87
399.30	2742.23
399.51	2922.45
399.71	2891.73
399.92	3030.99
400.13	2904.02
400.34	2828.24
400.54	2934.74
400.75	3231.69
400.96	2924.50
401.17	3104.72
401.37	3098.58
401.58	3000.27
401.79	2770.90
402.00	2942.93
402.21	3563.47
402.41	3117.01
402.62	3131.34
402.83	3223.50
403.04	3403.72
403.24	3735.50
403.45	2975.70
403.66	3084.24
403.87	3155.92
404.07	3315.66
404.28	3045.33
404.49	3033.04
404.70	3030.99
404.90	3155.92
405.11	2865.11
405.32	2947.03
405.52	3030.99
405.73	2926.55
405.94	2799.57
406.15	2914.26
406.35	3063.76
406.56	3123.15
406.77	2879.44
406.98	2824.15
407.18	2832.34
407.39	3246.03
407.60	2844.63
407.80	2953.17
408.01	2832.34
408.22	2994.13
408.43	2789.33
408.63	2904.02
408.84	3108.82
409.05	3145.68
409.25	2775.00
409.46	2803.67
409.67	2920.40
409.88	2852.82
410.08	2846.68
410.29	2869.20
410.50	3098.58
410.70	3063.76
410.91	2777.05
411.12	2912.21
411.32	2983.89
411.53	2861.01
411.74	2926.55
411.95	2922.45
412.15	2987.99
412.36	3123.15
412.57	2955.22
412.77	3049.43
412.98	2965.46
413.19	2897.88
413.39	2918.36
413.60	2895.83
413.81	3188.69
414.01	2775.00
414.22	2885.59
414.43	2938.84
414.63	2861.01
414.84	3133.39
415.05	2881.49
415.25	2772.95
415.46	3162.06
415.67	2926.55
415.87	2908.12
416.08	2846.68
416.29	2899.92
416.49	3026.90
416.70	2924.50
416.91	2838.48
417.11	2955.22
417.32	3071.95
417.53	2979.79
417.73	2918.36
417.94	2983.89
418.15	3071.95
418.35	2889.68
418.56	2881.49
418.77	3387.34
418.97	2889.68
419.18	2850.77
419.38	2555.86
419.59	2889.68
419.80	3227.60
420.00	2787.29
420.21	2848.72
420.42	3260.37
420.62	3057.62
420.83	2828.24
421.04	2834.39
421.24	2977.75
421.45	3117.01
421.65	2914.26
421.86	2897.88
422.07	3129.30
422.27	3026.90
422.48	2756.57
422.69	2709.46
422.89	3030.99
423.10	2992.08
423.30	2772.95
423.51	2846.68
423.72	2992.08
423.92	3157.97
424.13	2676.70
424.33	2893.78
424.54	3108.82
424.75	3004.37
424.95	3028.95
425.16	2832.34
425.36	2979.79
425.57	3043.28
425.78	3039.19
425.98	2928.60
426.19	2973.65
426.39	2797.53
426.60	2901.97
426.81	2938.84
427.01	3026.90
427.22	2838.48
427.42	2688.98
427.63	2820.05
427.83	3098.58
428.04	3264.46
428.25	2897.88
428.45	2920.40
428.66	3192.78
428.86	2996.18
429.07	2803.67
429.28	2762.71
429.48	2922.45
429.69	2842.58
429.89	2955.22
430.10	2725.85
430.30	3137.49
430.51	3237.84
430.71	2832.34
430.92	2836.44
431.13	2883.54
431.33	2983.89
431.54	2895.83
431.74	3082.19
431.95	3424.20
432.15	2820.05
432.36	2883.54
432.56	2891.73
432.77	3323.85
432.98	3356.62
433.18	2928.60
433.39	2770.90
433.59	2944.98
433.80	3330.00
434.00	3114.96
434.21	2928.60
434.41	2891.73
434.62	3393.48
434.82	2701.27
435.03	2736.09
435.23	3078.10
435.44	2797.53
435.64	2815.96
435.85	2947.03
436.06	3164.11
436.26	3147.73
436.47	2879.44
436.67	2822.10
436.88	2936.79
437.08	3147.73
437.29	2953.17
437.49	2994.13
437.70	3243.98
437.90	2940.88
438.11	3076.05
438.31	2969.55
438.52	3131.34
438.72	3192.78
438.93	3127.25
439.13	2965.46
439.34	3162.06
439.54	2936.79
439.75	2936.79
439.95	2992.08
440.16	2803.67
440.36	3033.04
440.57	2863.06
440.77	2891.73
440.98	3092.43
441.18	2987.99
441.39	2723.80
441.59	2680.79
441.80	3352.52
442.00	2969.55
442.21	2926.55
442.41	2756.57
442.62	3137.49
442.82	2914.26
443.02	2781.14
443.23	2848.72
443.43	2889.68
443.64	3266.51
443.84	2770.90
444.05	2942.93
444.25	3004.37
444.46	2947.03
444.66	2850.77
444.87	3065.81
445.07	2815.96
445.28	2805.72
445.48	2979.79
445.69	2930.64
445.89	3401.68
446.09	2832.34
446.30	3209.17
446.50	3250.13
446.71	4751.29
446.91	5738.41
447.12	6555.55
447.32	6942.61
447.53	6829.98
447.73	5744.55
447.93	5072.82
448.14	4837.30
448.34	4812.73
448.55	4048.83
448.75	4032.45
448.96	3782.60
449.16	3751.88
449.36	3485.64
449.57	2963.41
449.77	2871.25
449.98	2906.07
450.18	3008.47
450.39	2861.01
450.59	3039.19
450.79	2910.16
451.00	2887.64
451.20	3061.71
451.41	2764.76
451.61	3039.19
451.81	2969.55
452.02	2863.06
452.22	2877.40
452.43	2906.07
452.63	2897.88
