SpectraSuite Data File
++++++++++++++++++++++++++++++++++++
Date: Thu May 05 21:11:08 CEST 2016
User: root
Dark Spectrum Present: No
Reference Spectrum Present: No
Number of Sampled Component Spectra: 1
Spectrometers: USB4C02835
Integration Time (usec): 100000 (USB4C02835)
Spectra Averaged: 1 (USB4C02835)
Boxcar Smoothing: 0 (USB4C02835)
Correct for Electrical Dark: No (USB4C02835)
Strobe/Lamp Enabled: No (USB4C02835)
Correct for Detector Non-linearity: No (USB4C02835)
Correct for Stray Light: No (USB4C02835)
Number of Pixels in Processed Spectrum: 3648
>>>>>Begin Processed Spectral Data<<<<<
177.47	2078.69
177.69	2078.69
177.91	2078.69
178.13	2133.98
178.36	2095.07
178.58	2770.90
178.80	2940.88
179.02	2709.46
179.24	2854.87
179.46	2574.30
179.68	2582.49
179.90	2928.60
180.13	3067.86
180.35	2504.67
180.57	2656.22
180.79	3078.10
181.01	2998.23
181.23	2719.70
181.45	2805.72
181.67	3157.97
181.90	3174.35
182.12	2723.80
182.34	2525.15
182.56	3143.63
182.78	3045.33
183.00	2641.88
183.22	2703.32
183.44	2654.17
183.66	3508.17
183.89	2787.29
184.11	2695.13
184.33	3090.38
184.55	3200.98
184.77	2684.89
184.99	2645.98
185.21	2932.69
185.43	3499.98
185.65	2666.46
185.87	2607.06
186.10	3401.68
186.32	3399.63
186.54	2840.53
186.76	2826.20
186.98	3133.39
187.20	2983.89
187.42	2693.08
187.64	2666.46
187.86	3071.95
188.08	3155.92
188.30	2600.92
188.52	2656.22
188.75	3160.02
188.97	3233.74
189.19	2625.50
189.41	2607.06
189.63	3028.95
189.85	2893.78
190.07	2588.63
190.29	2461.66
190.51	3061.71
190.73	2809.81
190.95	2867.16
191.17	2688.98
191.39	2678.74
191.61	2955.22
191.84	2680.79
192.06	2785.24
192.28	2662.36
192.50	3499.98
192.72	2832.34
192.94	2777.05
193.16	3192.78
193.38	3024.85
193.60	2684.89
193.82	2779.09
194.04	3188.69
194.26	3096.53
194.48	2783.19
194.70	2709.46
194.92	2883.54
195.14	3164.11
195.36	2625.50
195.58	2777.05
195.80	2914.26
196.02	2852.82
196.24	2682.84
196.46	2873.30
196.69	2916.31
196.91	3424.20
197.13	2602.97
197.35	2746.33
197.57	3248.08
197.79	3108.82
198.01	2711.51
198.23	2678.74
198.45	3041.23
198.67	2760.66
198.89	2572.25
199.11	2768.85
199.33	2828.24
199.55	2664.41
199.77	2625.50
199.99	2861.01
200.21	2906.07
200.43	2944.98
200.65	2578.39
200.87	2533.34
201.09	3080.14
201.31	2906.07
201.53	2699.22
201.75	2742.23
201.97	3028.95
202.19	3024.85
202.41	2701.27
202.63	2799.57
202.85	3043.28
203.07	3082.19
203.29	2731.99
203.51	2537.43
203.73	2899.92
203.95	3465.16
204.17	2744.28
204.39	2834.39
204.61	2916.31
204.83	2953.17
205.05	2901.97
205.27	2697.17
205.49	3313.61
205.71	3008.47
205.93	2570.20
206.15	2611.16
206.37	3051.47
206.59	3002.32
206.81	2570.20
207.03	2422.75
207.25	2789.33
207.47	3121.10
207.69	2668.50
207.91	2920.40
208.13	3243.98
208.34	2938.84
208.56	2611.16
208.78	2736.09
209.00	2873.30
209.22	2947.03
209.44	2777.05
209.66	2674.65
209.88	2981.84
210.10	2936.79
210.32	2709.46
210.54	2760.66
210.76	2936.79
210.98	3221.45
211.20	2609.11
211.42	2807.77
211.64	3192.78
211.86	3028.95
212.08	2729.94
212.30	2715.61
212.52	2934.74
212.74	3037.14
212.96	2719.70
213.17	2744.28
213.39	3051.47
213.61	3389.39
213.83	2660.31
214.05	2584.54
214.27	3170.26
214.49	2863.06
214.71	2719.70
214.93	2752.47
215.15	3045.33
215.37	3069.91
215.59	2566.10
215.81	2746.33
216.03	3157.97
216.24	3010.51
216.46	2668.50
216.68	2760.66
216.90	3207.12
217.12	3157.97
217.34	2598.87
217.56	2838.48
217.78	3321.81
218.00	3067.86
218.22	2764.76
218.44	2695.13
218.66	3045.33
218.87	3373.00
219.09	2695.13
219.31	2678.74
219.53	3088.34
219.75	2879.44
219.97	2705.37
220.19	2684.89
220.41	2996.18
220.63	3241.93
220.85	2686.94
221.06	2742.23
221.28	3192.78
221.50	3137.49
221.72	2805.72
221.94	2682.84
222.16	3000.27
222.38	3174.35
222.60	2686.94
222.82	2721.75
223.03	3231.69
223.25	2766.81
223.47	2693.08
223.69	2856.92
223.91	3205.07
224.13	3049.43
224.35	2615.26
224.57	2914.26
224.78	3121.10
225.00	2820.05
225.22	2764.76
225.44	2668.50
225.66	3094.48
225.88	2912.21
226.10	2834.39
226.32	2740.18
226.53	3180.50
226.75	2926.55
226.97	2813.91
227.19	2621.40
227.41	2889.68
227.63	2914.26
227.85	2510.81
228.06	2752.47
228.28	3067.86
228.50	3123.15
228.72	2623.45
228.94	2713.56
229.16	2740.18
229.37	2834.39
229.59	2664.41
229.81	2881.49
230.03	2955.22
230.25	2727.89
230.47	2574.30
230.69	2637.78
230.90	3086.29
231.12	2801.62
231.34	2799.57
231.56	2756.57
231.78	2901.97
232.00	2987.99
232.21	2658.26
232.43	2668.50
232.65	2697.17
232.87	3030.99
233.09	2527.19
233.30	2662.36
233.52	3080.14
233.74	2965.46
233.96	2650.07
234.18	2861.01
234.40	3000.27
234.61	3393.48
234.83	2609.11
235.05	2693.08
235.27	3383.24
235.49	3221.45
235.70	2600.92
235.92	2725.85
236.14	3119.06
236.36	3420.11
236.58	2586.58
236.79	2719.70
237.01	2967.51
237.23	2926.55
237.45	2867.16
237.67	2762.71
237.88	3129.30
238.10	3295.18
238.32	2519.00
238.54	2658.26
238.76	2971.60
238.97	2842.58
239.19	2559.96
239.41	2738.13
239.63	3229.65
239.85	2926.55
240.06	2668.50
240.28	2652.12
240.50	3160.02
240.72	2983.89
240.93	2641.88
241.15	2738.13
241.37	2975.70
241.59	3172.30
241.81	2666.46
242.02	2684.89
242.24	3125.20
242.46	3059.67
242.68	2475.99
242.89	2674.65
243.11	3176.40
243.33	2910.16
243.55	2615.26
243.76	2703.32
243.98	2893.78
244.20	2920.40
244.42	2670.55
244.64	2602.97
244.85	2729.94
245.07	2899.92
245.29	2670.55
245.51	2729.94
245.72	3022.80
245.94	3178.45
246.16	2695.13
246.38	2709.46
246.59	2840.53
246.81	2828.24
247.03	2594.78
247.24	2613.21
247.46	2922.45
247.68	3043.28
247.90	2627.54
248.11	2719.70
248.33	3215.31
248.55	3055.57
248.77	2719.70
248.98	2734.04
249.20	3182.54
249.42	3033.04
249.64	2727.89
249.85	2637.78
250.07	2836.44
250.29	3127.25
250.50	2768.85
250.72	2592.73
250.94	2957.27
251.16	3387.34
251.37	2652.12
251.59	2691.03
251.81	3088.34
252.02	3262.41
252.24	2590.68
252.46	2783.19
252.68	2871.25
252.89	2856.92
253.11	2465.75
253.33	2795.48
253.54	3164.11
253.76	2803.67
253.98	2695.13
254.20	2658.26
254.41	2818.00
254.63	2922.45
254.85	2572.25
255.06	2746.33
255.28	3067.86
255.50	2951.12
255.71	2670.55
255.93	2516.95
256.15	2918.36
256.36	3102.67
256.58	2564.06
256.80	2709.46
257.02	2938.84
257.23	2932.69
257.45	2678.74
257.67	2824.15
257.88	2856.92
258.10	3076.05
258.32	2660.31
258.53	2744.28
258.75	3186.64
258.97	2867.16
259.18	2654.17
259.40	2598.87
259.62	3250.13
259.83	3221.45
260.05	2703.32
260.27	3463.12
260.48	3137.49
260.70	2772.95
260.92	2564.06
261.13	2717.65
261.35	3000.27
261.57	3080.14
261.78	2543.58
262.00	2639.83
262.22	3078.10
262.43	2717.65
262.65	2723.80
262.86	2699.22
263.08	3469.26
263.30	3006.42
263.51	2545.63
263.73	2559.96
263.95	3348.43
264.16	2813.91
264.38	2533.34
264.60	2693.08
264.81	2951.12
265.03	3157.97
265.25	3014.61
265.46	2607.06
265.68	3084.24
265.89	3135.44
266.11	2566.10
266.33	2643.93
266.54	3280.85
266.76	3022.80
266.98	2758.61
267.19	2869.20
267.41	3133.39
267.62	3020.75
267.84	2488.28
268.06	2797.53
268.27	3008.47
268.49	3182.54
268.70	2719.70
268.92	2672.60
269.14	2865.11
269.35	2820.05
269.57	2797.53
269.79	2727.89
270.00	2793.43
270.22	3280.85
270.43	2514.91
270.65	2537.43
270.87	3067.86
271.08	3080.14
271.30	2815.96
271.51	2703.32
271.73	3170.26
271.95	3227.60
272.16	2652.12
272.38	2838.48
272.59	2914.26
272.81	3030.99
273.02	2686.94
273.24	2695.13
273.46	3129.30
273.67	2693.08
273.89	2605.02
274.10	2678.74
274.32	3219.41
274.54	3106.77
274.75	2799.57
274.97	2770.90
275.18	3186.64
275.40	3065.81
275.61	2666.46
275.83	2856.92
276.05	2811.86
276.26	2975.70
276.48	2805.72
276.69	2914.26
276.91	2873.30
277.12	3149.78
277.34	2854.87
277.55	2914.26
277.77	2981.84
277.99	2930.64
278.20	2793.43
278.42	2764.76
278.63	2832.34
278.85	2785.24
279.06	2731.99
279.28	2914.26
279.49	3110.86
279.71	3104.72
279.93	2891.73
280.14	2709.46
280.36	2772.95
280.57	3129.30
280.79	2922.45
281.00	2721.75
281.22	2846.68
281.43	3160.02
281.65	2580.44
281.86	2660.31
282.08	3037.14
282.29	3338.19
282.51	2764.76
282.73	2641.88
282.94	2756.57
283.16	3135.44
283.37	2899.92
283.59	2838.48
283.80	3008.47
284.02	2879.44
284.23	2787.29
284.45	2820.05
284.66	2889.68
284.88	2836.44
285.09	2717.65
285.31	2895.83
285.52	3043.28
285.74	2740.18
285.95	2965.46
286.17	2908.12
286.38	3151.82
286.60	2832.34
286.81	2756.57
287.03	2768.85
287.24	3008.47
287.46	3035.09
287.67	2891.73
287.89	2971.60
288.10	2987.99
288.32	2938.84
288.53	3039.19
288.75	2809.81
288.96	3182.54
289.18	2883.54
289.39	2731.99
289.61	2852.82
289.82	3377.10
290.04	3260.37
290.25	2719.70
290.47	2881.49
290.68	2955.22
290.90	3186.64
291.11	2645.98
291.33	2942.93
291.54	2811.86
291.76	2895.83
291.97	2830.29
292.18	2932.69
292.40	2953.17
292.61	2863.06
292.83	3071.95
293.04	2842.58
293.26	3047.38
293.47	3008.47
293.69	2703.32
293.90	2719.70
294.12	3190.74
294.33	3022.80
294.55	2914.26
294.76	2883.54
294.97	3178.45
295.19	3336.14
295.40	2797.53
295.62	2928.60
295.83	3162.06
296.05	2858.96
296.26	2973.65
296.48	2779.09
296.69	2996.18
296.90	2971.60
297.12	2920.40
297.33	2944.98
297.55	3000.27
297.76	2983.89
297.98	2889.68
298.19	2957.27
298.41	2850.77
298.62	2818.00
298.83	2973.65
299.05	2910.16
299.26	2875.35
299.48	2877.40
299.69	2865.11
299.90	2840.53
300.12	2793.43
300.33	3104.72
300.55	2889.68
300.76	2854.87
300.98	2836.44
301.19	3121.10
301.40	2824.15
301.62	2809.81
301.83	3033.04
302.05	3024.85
302.26	2789.33
302.47	2848.72
302.69	2791.38
302.90	3008.47
303.12	2645.98
303.33	2852.82
303.54	3317.71
303.76	2959.31
303.97	2775.00
304.19	3012.56
304.40	2861.01
304.61	3012.56
304.83	2940.88
305.04	2836.44
305.26	3139.54
305.47	2940.88
305.68	2799.57
305.90	2688.98
306.11	3215.31
306.33	2979.79
306.54	2705.37
306.75	2648.02
306.97	2815.96
307.18	2881.49
307.39	2715.61
307.61	2824.15
307.82	2985.94
308.04	3024.85
308.25	2572.25
308.46	2932.69
308.68	3039.19
308.89	3035.09
309.10	2934.74
309.32	2922.45
309.53	3010.51
309.74	3106.77
309.96	2805.72
310.17	2881.49
310.39	2895.83
310.60	3131.34
310.81	2811.86
311.03	2711.51
311.24	3028.95
311.45	2992.08
311.67	3010.51
311.88	2967.51
312.09	2949.08
312.31	2936.79
312.52	2746.33
312.73	2772.95
312.95	2762.71
313.16	2908.12
313.37	2977.75
313.59	2981.84
313.80	3149.78
314.01	3321.81
314.23	2811.86
314.44	2754.52
314.65	2787.29
314.87	2926.55
315.08	2791.38
315.29	2789.33
315.51	2899.92
315.72	2791.38
315.93	2834.39
316.15	2916.31
316.36	2899.92
316.57	3090.38
316.79	2848.72
317.00	2713.56
317.21	3123.15
317.43	2842.58
317.64	2824.15
317.85	2725.85
318.07	2895.83
318.28	2871.25
318.49	2899.92
318.70	3018.71
318.92	2975.70
319.13	3092.43
319.34	2942.93
319.56	2764.76
319.77	3059.67
319.98	3092.43
320.20	2908.12
320.41	2897.88
320.62	3069.91
320.83	2752.47
321.05	2998.23
321.26	2801.62
321.47	2963.41
321.69	3143.63
321.90	2674.65
322.11	2760.66
322.32	3033.04
322.54	3164.11
322.75	2725.85
322.96	3520.46
323.18	2811.86
323.39	2701.27
323.60	2674.65
323.81	2922.45
324.03	2838.48
324.24	3047.38
324.45	2877.40
324.66	2738.13
324.88	3209.17
325.09	3121.10
325.30	2881.49
325.52	2736.09
325.73	3010.51
325.94	2830.29
326.15	2660.31
326.37	2680.79
326.58	3174.35
326.79	3250.13
327.00	2787.29
327.22	2781.14
327.43	2936.79
327.64	2766.81
327.85	2973.65
328.07	2914.26
328.28	3221.45
328.49	2916.31
328.70	2793.43
328.92	2729.94
329.13	2893.78
329.34	3024.85
329.55	3037.14
329.76	2873.30
329.98	2916.31
330.19	3231.69
330.40	2799.57
330.61	2928.60
330.83	3143.63
331.04	2795.48
331.25	2891.73
331.46	2770.90
331.68	2760.66
331.89	3182.54
332.10	2818.00
332.31	2719.70
332.52	3022.80
332.74	3221.45
332.95	2635.74
333.16	2738.13
333.37	3084.24
333.58	2920.40
333.80	2813.91
334.01	2609.11
334.22	2906.07
334.43	2867.16
334.64	2748.37
334.86	2844.63
335.07	2799.57
335.28	3227.60
335.49	2729.94
335.70	2893.78
335.92	3180.50
336.13	3420.11
336.34	2922.45
336.55	2828.24
336.76	3088.34
336.98	2635.74
337.19	2865.11
337.40	2951.12
337.61	3465.16
337.82	2893.78
338.04	2879.44
338.25	2668.50
338.46	2949.08
338.67	2949.08
338.88	2680.79
339.09	2738.13
339.31	2873.30
339.52	2738.13
339.73	2619.35
339.94	2811.86
340.15	3086.29
340.36	2861.01
340.58	2881.49
340.79	2709.46
341.00	3067.86
341.21	2721.75
341.42	3002.32
341.63	2858.96
341.85	3106.77
342.06	2975.70
342.27	2768.85
342.48	2951.12
342.69	2686.94
342.90	3022.80
343.12	3028.95
343.33	2662.36
343.54	3198.93
343.75	3192.78
343.96	2910.16
344.17	2693.08
344.38	2953.17
344.60	2815.96
344.81	2748.37
345.02	2795.48
345.23	3215.31
345.44	3418.06
345.65	2838.48
345.86	2963.41
346.07	2940.88
346.29	2887.64
346.50	2963.41
346.71	2863.06
346.92	3243.98
347.13	3385.29
347.34	2844.63
347.55	2682.84
347.76	3076.05
347.98	2654.17
348.19	2899.92
348.40	3037.14
348.61	2961.36
348.82	3264.46
349.03	2906.07
349.24	2756.57
349.45	3346.38
349.66	2709.46
349.88	2777.05
350.09	2756.57
350.30	3184.59
350.51	3168.21
350.72	2975.70
350.93	2770.90
351.14	2916.31
351.35	3041.23
351.56	2865.11
351.77	2852.82
351.99	3030.99
352.20	3192.78
352.41	2901.97
352.62	2623.45
352.83	2899.92
353.04	2904.02
353.25	2809.81
353.46	2861.01
353.67	3065.81
353.88	2656.22
354.09	2717.65
354.30	2820.05
354.52	3166.16
354.73	2983.89
354.94	2820.05
355.15	2848.72
355.36	3336.14
355.57	2942.93
355.78	2764.76
355.99	2750.42
356.20	3006.42
356.41	3106.77
356.62	2867.16
356.83	2820.05
357.04	3235.79
357.25	2713.56
357.46	2748.37
357.68	2682.84
357.89	2846.68
358.10	2961.36
358.31	2858.96
358.52	2801.62
358.73	2850.77
358.94	2787.29
359.15	2801.62
359.36	2772.95
359.57	2979.79
359.78	2934.74
359.99	3008.47
360.20	2707.41
360.41	3065.81
360.62	3153.87
360.83	2848.72
361.04	2881.49
361.25	3012.56
361.46	3225.55
361.67	2873.30
361.88	2856.92
362.09	3108.82
362.30	2983.89
362.51	2756.57
362.72	2844.63
362.93	3164.11
363.14	3012.56
363.35	2922.45
363.56	2766.81
363.78	3203.02
363.99	3098.58
364.20	2822.10
364.41	2758.61
364.62	3330.00
364.83	3016.66
365.04	2818.00
365.25	2797.53
365.46	3487.69
365.67	2910.16
365.88	2846.68
366.09	2768.85
366.30	2883.54
366.51	2897.88
366.72	2621.40
366.93	2779.09
367.14	3043.28
367.35	3303.37
367.56	2768.85
367.77	2936.79
367.98	2965.46
368.18	3026.90
368.39	2930.64
368.60	2760.66
368.81	3192.78
369.02	3065.81
369.23	2838.48
369.44	2727.89
369.65	2881.49
369.86	3024.85
370.07	2922.45
370.28	2721.75
370.49	2961.36
370.70	3061.71
370.91	2756.57
371.12	2664.41
371.33	3137.49
371.54	2815.96
371.75	2947.03
371.96	2598.87
372.17	3069.91
372.38	2936.79
372.59	2899.92
372.80	2783.19
373.01	2955.22
373.22	3088.34
373.43	2785.24
373.64	2768.85
373.85	3241.93
374.06	3243.98
374.26	2967.51
374.47	2854.87
374.68	3176.40
374.89	2990.03
375.10	2750.42
375.31	2822.10
375.52	3041.23
375.73	2981.84
375.94	2635.74
376.15	2912.21
376.36	2809.81
376.57	2977.75
376.78	2865.11
376.99	2897.88
377.20	3213.26
377.40	2916.31
377.61	3065.81
377.82	2764.76
378.03	3323.85
378.24	3098.58
378.45	2809.81
378.66	2871.25
378.87	2746.33
379.08	2705.37
379.29	2801.62
379.50	3022.80
379.71	2977.75
379.91	3104.72
380.12	2813.91
380.33	2949.08
380.54	2918.36
380.75	2969.55
380.96	2736.09
381.17	2885.59
381.38	2932.69
381.59	2994.13
381.80	2871.25
382.00	2961.36
382.21	2926.55
382.42	3248.08
382.63	3213.26
382.84	2912.21
383.05	3094.48
383.26	3203.02
383.47	2873.30
383.68	2772.95
383.88	3045.33
384.09	2897.88
384.30	3071.95
384.51	2840.53
384.72	2895.83
384.93	2779.09
385.14	2965.46
385.35	2975.70
385.55	2807.77
385.76	3178.45
385.97	2758.61
386.18	2705.37
386.39	2807.77
386.60	2899.92
386.81	2813.91
387.02	2723.80
387.22	2760.66
387.43	3061.71
387.64	2922.45
387.85	3135.44
388.06	3078.10
388.27	3985.35
388.48	7153.55
388.68	10874.71
388.89	13205.30
389.10	14303.01
389.31	14010.15
389.52	11136.85
389.73	9656.17
389.93	8865.66
390.14	8132.48
390.35	7210.90
390.56	6762.39
390.77	5572.52
390.98	4292.54
391.18	3698.63
391.39	3459.02
391.60	2971.60
391.81	3018.71
392.02	2828.24
392.23	3373.00
392.43	3033.04
392.64	2959.31
392.85	2871.25
393.06	3286.99
393.27	2955.22
393.47	2824.15
393.68	2873.30
393.89	2856.92
394.10	3176.40
394.31	2877.40
394.52	2856.92
394.72	2899.92
394.93	3239.89
395.14	2707.41
395.35	2871.25
395.56	2854.87
395.76	2992.08
395.97	2777.05
396.18	3022.80
396.39	3012.56
396.60	3536.84
396.80	3135.44
397.01	3002.32
397.22	3096.53
397.43	3205.07
397.64	2777.05
397.84	2877.40
398.05	3360.72
398.26	3041.23
398.47	2906.07
398.67	2996.18
398.88	3061.71
399.09	3053.52
399.30	2832.34
399.51	2979.79
399.71	2850.77
399.92	3039.19
400.13	2889.68
400.34	2824.15
400.54	2987.99
400.75	3264.46
400.96	2959.31
401.17	3119.06
401.37	3049.43
401.58	2906.07
401.79	2858.96
402.00	2971.60
402.21	3450.83
402.41	3170.26
402.62	3147.73
402.83	3289.04
403.04	3297.23
403.24	3633.10
403.45	2953.17
403.66	3057.62
403.87	3155.92
404.07	3227.60
404.28	3063.76
404.49	3033.04
404.70	3086.29
404.90	3129.30
405.11	2877.40
405.32	3043.28
405.52	2871.25
405.73	2912.21
405.94	2781.14
406.15	2848.72
406.35	3137.49
406.56	3127.25
406.77	2912.21
406.98	2863.06
407.18	2885.59
407.39	3243.98
407.60	2863.06
407.80	2936.79
408.01	2871.25
408.22	3067.86
408.43	2801.62
408.63	2908.12
408.84	3176.40
409.05	3084.24
409.25	2830.29
409.46	2781.14
409.67	2949.08
409.88	2844.63
410.08	2844.63
410.29	2740.18
410.50	3108.82
410.70	3016.66
410.91	2719.70
411.12	2873.30
411.32	3002.32
411.53	2846.68
411.74	2891.73
411.95	2901.97
412.15	3080.14
412.36	3080.14
412.57	2887.64
412.77	3047.38
412.98	2977.75
413.19	2934.74
413.39	2863.06
413.60	2873.30
413.81	3176.40
414.01	2809.81
414.22	2826.20
414.43	2932.69
414.63	2912.21
414.84	3098.58
415.05	2928.60
415.25	2725.85
415.46	2969.55
415.67	2885.59
415.87	2893.78
416.08	2826.20
416.29	2938.84
416.49	3041.23
416.70	2893.78
416.91	2799.57
417.11	2949.08
417.32	3205.07
417.53	2987.99
417.73	2961.36
417.94	2998.23
418.15	2981.84
418.35	2777.05
418.56	2899.92
418.77	3411.92
418.97	2985.94
419.18	2942.93
419.38	2533.34
419.59	2914.26
419.80	3303.37
420.00	2756.57
420.21	2910.16
420.42	3280.85
420.62	3074.00
420.83	2818.00
421.04	2928.60
421.24	2957.27
421.45	3121.10
421.65	2863.06
421.86	2852.82
422.07	3162.06
422.27	3129.30
422.48	2746.33
422.69	2666.46
422.89	3030.99
423.10	2920.40
423.30	2793.43
423.51	2912.21
423.72	3094.48
423.92	3071.95
424.13	2668.50
424.33	2906.07
424.54	3110.86
424.75	3024.85
424.95	3076.05
425.16	2770.90
425.36	2936.79
425.57	3137.49
425.78	2979.79
425.98	2983.89
426.19	2897.88
426.39	2844.63
426.60	2897.88
426.81	2987.99
427.01	3071.95
427.22	2869.20
427.42	2682.84
427.63	2795.48
427.83	3096.53
428.04	3301.33
428.25	2934.74
428.45	3012.56
428.66	3258.32
428.86	2910.16
429.07	2889.68
429.28	2824.15
429.48	3010.51
429.69	2901.97
429.89	2883.54
430.10	2701.27
430.30	3047.38
430.51	3178.45
430.71	2846.68
430.92	2918.36
431.13	2867.16
431.33	3049.43
431.54	2895.83
431.74	3035.09
431.95	3448.78
432.15	2844.63
432.36	2873.30
432.56	2918.36
432.77	3315.66
432.98	3260.37
433.18	2873.30
433.39	2731.99
433.59	2936.79
433.80	3293.13
434.00	3037.14
434.21	2846.68
434.41	2842.58
434.62	3395.53
434.82	2756.57
435.03	2805.72
435.23	3047.38
435.44	2785.24
435.64	2787.29
435.85	2873.30
436.06	3213.26
436.26	3172.30
436.47	2875.35
436.67	2809.81
436.88	2891.73
437.08	3160.02
437.29	3016.66
437.49	3008.47
437.70	3213.26
437.90	2983.89
438.11	2990.03
438.31	2934.74
438.52	3284.94
438.72	3180.50
438.93	3080.14
439.13	2897.88
439.34	3157.97
439.54	2928.60
439.75	2949.08
439.95	2893.78
440.16	2869.20
440.36	3018.71
440.57	2867.16
440.77	2928.60
440.98	3016.66
441.18	3086.29
441.39	2809.81
441.59	2740.18
441.80	3389.39
442.00	2963.41
442.21	2887.64
442.41	2668.50
442.62	3186.64
442.82	2854.87
443.02	2815.96
443.23	2830.29
443.43	2912.21
443.64	3209.17
443.84	2785.24
444.05	3039.19
444.25	3006.42
444.46	2813.91
444.66	2842.58
444.87	3039.19
445.07	2672.60
445.28	2965.46
445.48	3030.99
445.69	2949.08
445.89	3459.02
446.09	2922.45
446.30	3198.93
446.50	3223.50
446.71	4644.79
446.91	5656.49
447.12	6608.80
447.32	6848.41
447.53	6776.73
447.73	5781.42
447.93	5015.48
448.14	4706.23
448.34	4773.82
448.55	4028.35
448.75	4057.03
448.96	3839.94
449.16	3608.52
449.36	3436.49
449.57	3121.10
449.77	2893.78
449.98	2987.99
450.18	3055.57
450.39	2830.29
450.59	2998.23
450.79	2987.99
451.00	2885.59
451.20	3004.37
451.41	2824.15
451.61	3051.47
451.81	2992.08
452.02	2856.92
452.22	2938.84
452.43	2838.48
452.63	2852.82
