SpectraSuite Data File
++++++++++++++++++++++++++++++++++++
Date: Thu May 05 21:11:11 CEST 2016
User: root
Dark Spectrum Present: No
Reference Spectrum Present: No
Number of Sampled Component Spectra: 1
Spectrometers: USB4C02835
Integration Time (usec): 100000 (USB4C02835)
Spectra Averaged: 1 (USB4C02835)
Boxcar Smoothing: 0 (USB4C02835)
Correct for Electrical Dark: No (USB4C02835)
Strobe/Lamp Enabled: No (USB4C02835)
Correct for Detector Non-linearity: No (USB4C02835)
Correct for Stray Light: No (USB4C02835)
Number of Pixels in Processed Spectrum: 3648
>>>>>Begin Processed Spectral Data<<<<<
177.47	2158.56
177.69	2158.56
177.91	2158.56
178.13	2129.89
178.36	2123.74
178.58	2815.96
178.80	2904.02
179.02	2785.24
179.24	2764.76
179.46	2570.20
179.68	2672.60
179.90	2947.03
180.13	2920.40
180.35	2504.67
180.57	2656.22
180.79	3076.05
181.01	3020.75
181.23	2697.17
181.45	2781.14
181.67	3094.48
181.90	3170.26
182.12	2684.89
182.34	2574.30
182.56	3063.76
182.78	3080.14
183.00	2713.56
183.22	2695.13
183.44	2713.56
183.66	3456.97
183.89	2916.31
184.11	2684.89
184.33	3086.29
184.55	3172.30
184.77	2680.79
184.99	2756.57
185.21	2920.40
185.43	3342.28
185.65	2686.94
185.87	2623.45
186.10	3321.81
186.32	3397.58
186.54	2779.09
186.76	2779.09
186.98	3180.50
187.20	2987.99
187.42	2678.74
187.64	2664.41
187.86	3039.19
188.08	3180.50
188.30	2578.39
188.52	2699.22
188.75	3188.69
188.97	3243.98
189.19	2662.36
189.41	2635.74
189.63	3045.33
189.85	2906.07
190.07	2547.67
190.29	2533.34
190.51	3063.76
190.73	2752.47
190.95	2865.11
191.17	2701.27
191.39	2688.98
191.61	2969.55
191.84	2674.65
192.06	2795.48
192.28	2729.94
192.50	3506.12
192.72	2815.96
192.94	2664.41
193.16	3176.40
193.38	3188.69
193.60	2588.63
193.82	2932.69
194.04	3182.54
194.26	3035.09
194.48	2656.22
194.70	2674.65
194.92	2944.98
195.14	3084.24
195.36	2605.02
195.58	2752.47
195.80	2973.65
196.02	2877.40
196.24	2637.78
196.46	2809.81
196.69	2858.96
196.91	3346.38
197.13	2721.75
197.35	2699.22
197.57	3258.32
197.79	3059.67
198.01	2809.81
198.23	2680.79
198.45	3008.47
198.67	2777.05
198.89	2555.86
199.11	2799.57
199.33	2914.26
199.55	2652.12
199.77	2648.02
199.99	2770.90
200.21	2955.22
200.43	3055.57
200.65	2576.34
200.87	2512.86
201.09	2961.36
201.31	2897.88
201.53	2705.37
201.75	2736.09
201.97	3022.80
202.19	3030.99
202.41	2719.70
202.63	2846.68
202.85	3149.78
203.07	2965.46
203.29	2838.48
203.51	2598.87
203.73	2897.88
203.95	3459.02
204.17	2658.26
204.39	2912.21
204.61	2983.89
204.83	2901.97
205.05	2815.96
205.27	2713.56
205.49	3411.92
205.71	2975.70
205.93	2574.30
206.15	2668.50
206.37	3028.95
206.59	2963.41
206.81	2594.78
207.03	2551.77
207.25	2824.15
207.47	3117.01
207.69	2670.55
207.91	2910.16
208.13	3260.37
208.34	2854.87
208.56	2631.64
208.78	2691.03
209.00	2949.08
209.22	2877.40
209.44	2656.22
209.66	2664.41
209.88	3000.27
210.10	2906.07
210.32	2680.79
210.54	2820.05
210.76	3024.85
210.98	3149.78
211.20	2535.39
211.42	2807.77
211.64	3223.50
211.86	3098.58
212.08	2785.24
212.30	2713.56
212.52	2928.60
212.74	3086.29
212.96	2799.57
213.17	2781.14
213.39	3178.45
213.61	3172.30
213.83	2662.36
214.05	2516.95
214.27	3104.72
214.49	2828.24
214.71	2674.65
214.93	2795.48
215.15	2961.36
215.37	3104.72
215.59	2543.58
215.81	2760.66
216.03	3194.83
216.24	2969.55
216.46	2684.89
216.68	2805.72
216.90	3100.62
217.12	3215.31
217.34	2656.22
217.56	2805.72
217.78	3243.98
218.00	3028.95
218.22	2695.13
218.44	2756.57
218.66	3035.09
218.87	3356.62
219.09	2709.46
219.31	2703.32
219.53	3104.72
219.75	2926.55
219.97	2750.42
220.19	2668.50
220.41	2975.70
220.63	3217.36
220.85	2668.50
221.06	2727.89
221.28	3229.65
221.50	3090.38
221.72	2721.75
221.94	2645.98
222.16	2977.75
222.38	3141.58
222.60	2699.22
222.82	2680.79
223.03	3133.39
223.25	2772.95
223.47	2594.78
223.69	2910.16
223.91	3069.91
224.13	3037.14
224.35	2613.21
224.57	2822.10
224.78	3100.62
225.00	2818.00
225.22	2744.28
225.44	2691.03
225.66	3125.20
225.88	2893.78
226.10	2815.96
226.32	2693.08
226.53	3207.12
226.75	2957.27
226.97	2762.71
227.19	2701.27
227.41	2895.83
227.63	2920.40
227.85	2486.23
228.06	2697.17
228.28	3043.28
228.50	3182.54
228.72	2582.49
228.94	2691.03
229.16	2709.46
229.37	2795.48
229.59	2684.89
229.81	2926.55
230.03	2924.50
230.25	2699.22
230.47	2580.44
230.69	2621.40
230.90	3139.54
231.12	2869.20
231.34	2783.19
231.56	2811.86
231.78	2740.18
232.00	3014.61
232.21	2707.41
232.43	2680.79
232.65	2670.55
232.87	2953.17
233.09	2498.52
233.30	2686.94
233.52	3205.07
233.74	2996.18
233.96	2600.92
234.18	2820.05
234.40	2959.31
234.61	3491.79
234.83	2531.29
235.05	2748.37
235.27	3463.12
235.49	3178.45
235.70	2545.63
235.92	2715.61
236.14	3086.29
236.36	3323.85
236.58	2582.49
236.79	2756.57
237.01	3012.56
237.23	3014.61
237.45	2785.24
237.67	2699.22
237.88	3114.96
238.10	3297.23
238.32	2559.96
238.54	2639.83
238.76	2994.13
238.97	2861.01
239.19	2629.59
239.41	2777.05
239.63	3149.78
239.85	2897.88
240.06	2727.89
240.28	2629.59
240.50	3078.10
240.72	2998.23
240.93	2619.35
241.15	2787.29
241.37	2994.13
241.59	3131.34
241.81	2680.79
242.02	2723.80
242.24	3053.52
242.46	3049.43
242.68	2549.72
242.89	2600.92
243.11	3119.06
243.33	2967.51
243.55	2693.08
243.76	2648.02
243.98	2924.50
244.20	2944.98
244.42	2650.07
244.64	2715.61
244.85	2789.33
245.07	2852.82
245.29	2645.98
245.51	2744.28
245.72	2998.23
245.94	3203.02
246.16	2621.40
246.38	2676.70
246.59	2916.31
246.81	2852.82
247.03	2633.69
247.24	2586.58
247.46	2897.88
247.68	3041.23
247.90	2592.73
248.11	2721.75
248.33	3143.63
248.55	2912.21
248.77	2711.51
248.98	2750.42
249.20	3278.80
249.42	3000.27
249.64	2682.84
249.85	2697.17
250.07	2908.12
250.29	3086.29
250.50	2727.89
250.72	2607.06
250.94	3114.96
251.16	3317.71
251.37	2705.37
251.59	2738.13
251.81	3018.71
252.02	3268.56
252.24	2600.92
252.46	2852.82
252.68	2910.16
252.89	2901.97
253.11	2549.72
253.33	2805.72
253.54	3252.17
253.76	2705.37
253.98	2717.65
254.20	2668.50
254.41	2795.48
254.63	2914.26
254.85	2566.10
255.06	2758.61
255.28	3016.66
255.50	2899.92
255.71	2670.55
255.93	2555.86
256.15	2908.12
256.36	2979.79
256.58	2576.34
256.80	2676.70
257.02	3020.75
257.23	2951.12
257.45	2787.29
257.67	2822.10
257.88	2940.88
258.10	3112.91
258.32	2697.17
258.53	2754.52
258.75	3268.56
258.97	2951.12
259.18	2629.59
259.40	2602.97
259.62	3282.89
259.83	3221.45
260.05	2688.98
260.27	3551.18
260.48	3139.54
260.70	2777.05
260.92	2541.53
261.13	2680.79
261.35	2987.99
261.57	3057.62
261.78	2621.40
262.00	2611.16
262.22	3014.61
262.43	2834.39
262.65	2701.27
262.86	2715.61
263.08	3426.25
263.30	3037.14
263.51	2545.63
263.73	2645.98
263.95	3264.46
264.16	2871.25
264.38	2586.58
264.60	2572.25
264.81	2973.65
265.03	3166.16
265.25	3139.54
265.46	2672.60
265.68	3166.16
265.89	3053.52
266.11	2541.53
266.33	2676.70
266.54	3162.06
266.76	3041.23
266.98	2688.98
267.19	2891.73
267.41	3127.25
267.62	2897.88
267.84	2537.43
268.06	2752.47
268.27	3002.32
268.49	3182.54
268.70	2717.65
268.92	2674.65
269.14	2760.66
269.35	2703.32
269.57	2764.76
269.79	2682.84
270.00	2867.16
270.22	3336.14
270.43	2578.39
270.65	2514.91
270.87	3074.00
271.08	3096.53
271.30	2850.77
271.51	2605.02
271.73	3094.48
271.95	3178.45
272.16	2666.46
272.38	2772.95
272.59	2901.97
272.81	3074.00
273.02	2701.27
273.24	2727.89
273.46	3194.83
273.67	2811.86
273.89	2516.95
274.10	2555.86
274.32	3182.54
274.54	2994.13
274.75	2754.52
274.97	2723.80
275.18	3092.43
275.40	3071.95
275.61	2768.85
275.83	2875.35
276.05	2801.62
276.26	2944.98
276.48	2791.38
276.69	2764.76
276.91	3028.95
277.12	3176.40
277.34	2883.54
277.55	2877.40
277.77	2971.60
277.99	2977.75
278.20	2760.66
278.42	2697.17
278.63	2877.40
278.85	2811.86
279.06	2750.42
279.28	2916.31
279.49	3147.73
279.71	3184.59
279.93	2865.11
280.14	2867.16
280.36	2852.82
280.57	3074.00
280.79	2803.67
281.00	2715.61
281.22	2856.92
281.43	3153.87
281.65	2598.87
281.86	2703.32
282.08	3055.57
282.29	3327.95
282.51	2670.55
282.73	2693.08
282.94	2672.60
283.16	3057.62
283.37	2901.97
283.59	2848.72
283.80	3164.11
284.02	2949.08
284.23	2840.53
284.45	2783.19
284.66	2824.15
284.88	2858.96
285.09	2754.52
285.31	2959.31
285.52	2949.08
285.74	2787.29
285.95	3002.32
286.17	2852.82
286.38	3127.25
286.60	2881.49
286.81	2768.85
287.03	2781.14
287.24	2965.46
287.46	3104.72
287.67	2830.29
287.89	3035.09
288.10	3088.34
288.32	3035.09
288.53	2938.84
288.75	2858.96
288.96	3149.78
289.18	2881.49
289.39	2715.61
289.61	2791.38
289.82	3307.47
290.04	3334.09
290.25	2674.65
290.47	2861.01
290.68	2955.22
290.90	3104.72
291.11	2672.60
291.33	2885.59
291.54	2840.53
291.76	2818.00
291.97	2807.77
292.18	2895.83
292.40	2875.35
292.61	2940.88
292.83	3004.37
293.04	2813.91
293.26	3076.05
293.47	2940.88
293.69	2654.17
293.90	2695.13
294.12	3176.40
294.33	2975.70
294.55	2834.39
294.76	2969.55
294.97	3141.58
295.19	3405.77
295.40	2760.66
295.62	2953.17
295.83	3125.20
296.05	2912.21
296.26	2957.27
296.48	2832.34
296.69	2951.12
296.90	2904.02
297.12	2994.13
297.33	2942.93
297.55	3026.90
297.76	3153.87
297.98	2830.29
298.19	2852.82
298.41	2904.02
298.62	2822.10
298.83	3092.43
299.05	2865.11
299.26	2922.45
299.48	2699.22
299.69	2766.81
299.90	2811.86
300.12	2803.67
300.33	3131.34
300.55	2840.53
300.76	2873.30
300.98	2797.53
301.19	3166.16
301.40	2768.85
301.62	2830.29
301.83	3063.76
302.05	2934.74
302.26	2775.00
302.47	2934.74
302.69	2797.53
302.90	2981.84
303.12	2623.45
303.33	2897.88
303.54	3295.18
303.76	2846.68
303.97	2807.77
304.19	3045.33
304.40	2852.82
304.61	3098.58
304.83	2977.75
305.04	2897.88
305.26	3094.48
305.47	2826.20
305.68	2789.33
305.90	2695.13
306.11	3157.97
306.33	2920.40
306.54	2688.98
306.75	2717.65
306.97	2795.48
307.18	2856.92
307.39	2813.91
307.61	2916.31
307.82	2887.64
308.04	3108.82
308.25	2754.52
308.46	2957.27
308.68	2969.55
308.89	2971.60
309.10	2924.50
309.32	2764.76
309.53	3030.99
309.74	3098.58
309.96	2809.81
310.17	2926.55
310.39	2856.92
310.60	3067.86
310.81	2787.29
311.03	2744.28
311.24	3164.11
311.45	3000.27
311.67	3014.61
311.88	2877.40
312.09	2885.59
312.31	2826.20
312.52	2779.09
312.73	2740.18
312.95	2766.81
313.16	2871.25
313.37	2949.08
313.59	2967.51
313.80	3043.28
314.01	3205.07
314.23	2830.29
314.44	2754.52
314.65	2822.10
314.87	2811.86
315.08	2818.00
315.29	2799.57
315.51	2775.00
315.72	2760.66
315.93	2830.29
316.15	2865.11
316.36	2885.59
316.57	3035.09
316.79	2813.91
317.00	2721.75
317.21	3096.53
317.43	2912.21
317.64	2807.77
317.85	2762.71
318.07	2865.11
318.28	2963.41
318.49	2875.35
318.70	3012.56
318.92	3033.04
319.13	3155.92
319.34	3059.67
319.56	2832.34
319.77	3123.15
319.98	3117.01
320.20	2971.60
320.41	2910.16
320.62	2998.23
320.83	2840.53
321.05	3074.00
321.26	2877.40
321.47	2942.93
321.69	3225.55
321.90	2676.70
322.11	2707.41
322.32	3010.51
322.54	3313.61
322.75	2877.40
322.96	3551.18
323.18	2752.47
323.39	2637.78
323.60	2727.89
323.81	2867.16
324.03	2822.10
324.24	2967.51
324.45	2863.06
324.66	2826.20
324.88	3162.06
325.09	3151.82
325.30	2744.28
325.52	2713.56
325.73	3092.43
325.94	2772.95
326.15	2707.41
326.37	2658.26
326.58	3094.48
326.79	3188.69
327.00	2670.55
327.22	2772.95
327.43	2936.79
327.64	2863.06
327.85	2936.79
328.07	2881.49
328.28	3336.14
328.49	2901.97
328.70	2785.24
328.92	2781.14
329.13	2942.93
329.34	3094.48
329.55	2971.60
329.76	2981.84
329.98	2883.54
330.19	3135.44
330.40	2850.77
330.61	2955.22
330.83	3096.53
331.04	2871.25
331.25	2875.35
331.46	2885.59
331.68	2779.09
331.89	3178.45
332.10	2754.52
332.31	2627.54
332.52	2979.79
332.74	3211.22
332.95	2619.35
333.16	2725.85
333.37	3102.67
333.58	2932.69
333.80	2844.63
334.01	2729.94
334.22	2971.60
334.43	2904.02
334.64	2746.33
334.86	2731.99
335.07	2832.34
335.28	3233.74
335.49	2721.75
335.70	2877.40
335.92	3160.02
336.13	3381.20
336.34	2852.82
336.55	2832.34
336.76	3110.86
336.98	2670.55
337.19	2832.34
337.40	2967.51
337.61	3516.36
337.82	2957.27
338.04	2908.12
338.25	2592.73
338.46	2967.51
338.67	2889.68
338.88	2680.79
339.09	2693.08
339.31	2942.93
339.52	2758.61
339.73	2785.24
339.94	2809.81
340.15	3065.81
340.36	2826.20
340.58	2924.50
340.79	2740.18
341.00	3039.19
341.21	2813.91
341.42	3010.51
341.63	2838.48
341.85	3080.14
342.06	3010.51
342.27	2824.15
342.48	2928.60
342.69	2746.33
342.90	3012.56
343.12	3059.67
343.33	2736.09
343.54	3211.22
343.75	3180.50
343.96	2809.81
344.17	2701.27
344.38	2928.60
344.60	2826.20
344.81	2736.09
345.02	2754.52
345.23	3209.17
345.44	3452.88
345.65	2912.21
345.86	2779.09
346.07	3057.62
346.29	2908.12
346.50	2887.64
346.71	2897.88
346.92	3194.83
347.13	3391.44
347.34	2869.20
347.55	2719.70
347.76	3033.04
347.98	2707.41
348.19	2799.57
348.40	3067.86
348.61	2869.20
348.82	3237.84
349.03	2836.44
349.24	2799.57
349.45	3280.85
349.66	2625.50
349.88	2840.53
350.09	2693.08
350.30	3215.31
350.51	3246.03
350.72	2893.78
350.93	2807.77
351.14	2885.59
351.35	3047.38
351.56	2818.00
351.77	2861.01
351.99	2998.23
352.20	3209.17
352.41	2953.17
352.62	2633.69
352.83	2926.55
353.04	3078.10
353.25	2744.28
353.46	2791.38
353.67	3229.65
353.88	2660.31
354.09	2781.14
354.30	2811.86
354.52	3080.14
354.73	2969.55
354.94	2779.09
355.15	2871.25
355.36	3327.95
355.57	2918.36
355.78	2770.90
355.99	2772.95
356.20	2930.64
356.41	3241.93
356.62	2904.02
356.83	2813.91
357.04	3235.79
357.25	2688.98
357.46	2775.00
357.68	2639.83
357.89	2775.00
358.10	2938.84
358.31	2766.81
358.52	2912.21
358.73	2760.66
358.94	2768.85
359.15	2791.38
359.36	2758.61
359.57	3018.71
359.78	2979.79
359.99	2987.99
360.20	2717.65
360.41	3006.42
360.62	3137.49
360.83	2926.55
361.04	2801.62
361.25	3045.33
361.46	3223.50
361.67	2934.74
361.88	2854.87
362.09	3180.50
362.30	3026.90
362.51	2746.33
362.72	2838.48
362.93	3102.67
363.14	3114.96
363.35	2938.84
363.56	2684.89
363.78	3170.26
363.99	3102.67
364.20	2926.55
364.41	2899.92
364.62	3338.19
364.83	3065.81
365.04	2811.86
365.25	2838.48
365.46	3317.71
365.67	2795.48
365.88	2934.74
366.09	2766.81
366.30	2910.16
366.51	3008.47
366.72	2688.98
366.93	2746.33
367.14	2985.94
367.35	3180.50
367.56	2820.05
367.77	2850.77
367.98	2863.06
368.18	3076.05
368.39	2951.12
368.60	2789.33
368.81	3098.58
369.02	3074.00
369.23	2785.24
369.44	2674.65
369.65	2832.34
369.86	3074.00
370.07	2971.60
370.28	2723.80
370.49	3016.66
370.70	3074.00
370.91	2703.32
371.12	2678.74
371.33	3190.74
371.54	2865.11
371.75	2861.01
371.96	2568.15
372.17	3033.04
372.38	2908.12
372.59	2858.96
372.80	2787.29
373.01	2951.12
373.22	3047.38
373.43	2740.18
373.64	2652.12
373.85	3133.39
374.06	3272.65
374.26	2852.82
374.47	2932.69
374.68	3162.06
374.89	3030.99
375.10	2764.76
375.31	2893.78
375.52	3057.62
375.73	3059.67
375.94	2635.74
376.15	2928.60
376.36	2844.63
376.57	2926.55
376.78	2848.72
376.99	2830.29
377.20	3219.41
377.40	2922.45
377.61	3045.33
377.82	2760.66
378.03	3235.79
378.24	3057.62
378.45	2910.16
378.66	2869.20
378.87	2709.46
379.08	2770.90
379.29	2844.63
379.50	2990.03
379.71	2957.27
379.91	3090.38
380.12	2856.92
380.33	2901.97
380.54	2975.70
380.75	2910.16
380.96	2901.97
381.17	2959.31
381.38	2922.45
381.59	2918.36
381.80	2809.81
382.00	2959.31
382.21	3004.37
382.42	3303.37
382.63	3153.87
382.84	2932.69
383.05	3178.45
383.26	3231.69
383.47	2963.41
383.68	2832.34
383.88	3059.67
384.09	2994.13
384.30	3055.57
384.51	2889.68
384.72	2936.79
384.93	2736.09
385.14	2891.73
385.35	3108.82
385.55	2781.14
385.76	3211.22
385.97	2848.72
386.18	2748.37
386.39	2871.25
386.60	2891.73
386.81	2836.44
387.02	2752.47
387.22	2711.51
387.43	3049.43
387.64	2944.98
387.85	3112.91
388.06	3026.90
388.27	3977.16
388.48	7260.05
388.68	11028.31
388.89	13565.74
389.10	14622.50
389.31	14411.56
389.52	11458.39
389.73	9795.43
389.93	8914.81
390.14	8152.96
390.35	7370.64
390.56	6737.82
390.77	5570.48
390.98	4306.88
391.18	3637.19
391.39	3477.45
391.60	3063.76
391.81	3018.71
392.02	2822.10
392.23	3403.72
392.43	3035.09
392.64	3004.37
392.85	2959.31
393.06	3289.04
393.27	2959.31
393.47	2805.72
393.68	2811.86
393.89	2930.64
394.10	3274.70
394.31	2789.33
394.52	2809.81
394.72	2838.48
394.93	3207.12
395.14	2691.03
395.35	2906.07
395.56	2920.40
395.76	2965.46
395.97	2867.16
396.18	2965.46
396.39	2992.08
396.60	3581.90
396.80	3143.63
397.01	3059.67
397.22	3119.06
397.43	3045.33
397.64	2785.24
397.84	2891.73
398.05	3352.52
398.26	2971.60
398.47	2908.12
398.67	3018.71
398.88	3022.80
399.09	3078.10
399.30	2828.24
399.51	2885.59
399.71	2934.74
399.92	2883.54
400.13	2889.68
400.34	2840.53
400.54	2967.51
400.75	3151.82
400.96	2953.17
401.17	3188.69
401.37	3114.96
401.58	3002.32
401.79	2793.43
402.00	2932.69
402.21	3459.02
402.41	3076.05
402.62	3102.67
402.83	3213.26
403.04	3407.82
403.24	3633.10
403.45	2963.41
403.66	3074.00
403.87	3209.17
404.07	3434.44
404.28	3047.38
404.49	3180.50
404.70	3018.71
404.90	3067.86
405.11	2932.69
405.32	2990.03
405.52	2861.01
405.73	2908.12
405.94	2760.66
406.15	2930.64
406.35	3121.10
406.56	3164.11
406.77	2916.31
406.98	2873.30
407.18	2824.15
407.39	3297.23
407.60	2871.25
407.80	2918.36
408.01	2912.21
408.22	3061.71
408.43	2801.62
408.63	2910.16
408.84	3104.72
409.05	3145.68
409.25	2848.72
409.46	2863.06
409.67	2928.60
409.88	2893.78
410.08	2916.31
410.29	2785.24
410.50	3252.17
410.70	3100.62
410.91	2803.67
411.12	2881.49
411.32	2981.84
411.53	2891.73
411.74	2895.83
411.95	2951.12
412.15	3024.85
412.36	3160.02
412.57	2930.64
412.77	2998.23
412.98	2994.13
413.19	2875.35
413.39	2895.83
413.60	2815.96
413.81	3237.84
414.01	2803.67
414.22	2803.67
414.43	3045.33
414.63	2887.64
414.84	3258.32
415.05	2904.02
415.25	2637.78
415.46	3117.01
415.67	2938.84
415.87	2940.88
416.08	2830.29
416.29	2940.88
416.49	3000.27
416.70	2791.38
416.91	2869.20
417.11	2883.54
417.32	3145.68
417.53	2928.60
417.73	2873.30
417.94	2918.36
418.15	3051.47
418.35	2840.53
418.56	2877.40
418.77	3360.72
418.97	3016.66
419.18	2938.84
419.38	2588.63
419.59	2920.40
419.80	3241.93
420.00	2740.18
420.21	2789.33
420.42	3205.07
420.62	3086.29
420.83	2772.95
421.04	2885.59
421.24	2949.08
421.45	3223.50
421.65	2901.97
421.86	2828.24
422.07	3127.25
422.27	3129.30
422.48	2775.00
422.69	2768.85
422.89	3002.32
423.10	2938.84
423.30	2746.33
423.51	2893.78
423.72	3129.30
423.92	3127.25
424.13	2752.47
424.33	2901.97
424.54	3170.26
424.75	3041.23
424.95	3039.19
425.16	2834.39
425.36	2928.60
425.57	3209.17
425.78	3020.75
425.98	3018.71
426.19	3057.62
426.39	2813.91
426.60	2957.27
426.81	2985.94
427.01	3065.81
427.22	2893.78
427.42	2621.40
427.63	2748.37
427.83	3151.82
428.04	3297.23
428.25	2881.49
428.45	2930.64
428.66	3149.78
428.86	2965.46
429.07	2942.93
429.28	2901.97
429.48	2908.12
429.69	2795.48
429.89	2852.82
430.10	2789.33
430.30	3186.64
430.51	3131.34
430.71	2791.38
430.92	2856.92
431.13	2889.68
431.33	3039.19
431.54	2944.98
431.74	2994.13
431.95	3344.33
432.15	2815.96
432.36	2865.11
432.56	2973.65
432.77	3248.08
432.98	3334.09
433.18	2875.35
433.39	2799.57
433.59	2928.60
433.80	3264.46
434.00	3088.34
434.21	2875.35
434.41	2844.63
434.62	3352.52
434.82	2688.98
435.03	2740.18
435.23	3035.09
435.44	2721.75
435.64	2838.48
435.85	2836.44
436.06	3157.97
436.26	3149.78
436.47	2768.85
436.67	2930.64
436.88	2944.98
437.08	3104.72
437.29	2965.46
437.49	2938.84
437.70	3121.10
437.90	2942.93
438.11	3012.56
438.31	2924.50
438.52	3168.21
438.72	3168.21
438.93	3160.02
439.13	2942.93
439.34	3141.58
439.54	2912.21
439.75	2992.08
439.95	2906.07
440.16	2822.10
440.36	2922.45
440.57	2820.05
440.77	2920.40
440.98	3018.71
441.18	3014.61
441.39	2813.91
441.59	2744.28
441.80	3323.85
442.00	3037.14
442.21	2895.83
442.41	2686.94
442.62	3096.53
442.82	2916.31
443.02	2789.33
443.23	2904.02
443.43	2940.88
443.64	3184.59
443.84	2715.61
444.05	2928.60
444.25	3039.19
444.46	2873.30
444.66	2803.67
444.87	3057.62
445.07	2682.84
445.28	2975.70
445.48	2955.22
445.69	2944.98
445.89	3360.72
446.09	2985.94
446.30	3145.68
446.50	3141.58
446.71	4736.95
446.91	5849.00
447.12	6508.44
447.32	7059.35
447.53	6895.51
447.73	5631.91
447.93	5167.03
448.14	4714.42
448.34	4937.65
448.55	4114.37
448.75	4118.47
448.96	3870.66
449.16	3551.18
449.36	3522.51
449.57	3039.19
449.77	2865.11
449.98	2963.41
450.18	3098.58
450.39	2723.80
450.59	3000.27
450.79	2981.84
451.00	2824.15
451.20	3041.23
451.41	2789.33
451.61	3104.72
451.81	2942.93
452.02	2795.48
452.22	2797.53
452.43	2858.96
452.63	2830.29
