SpectraSuite Data File
++++++++++++++++++++++++++++++++++++
Date: Thu May 05 21:11:12 CEST 2016
User: root
Dark Spectrum Present: No
Reference Spectrum Present: No
Number of Sampled Component Spectra: 1
Spectrometers: USB4C02835
Integration Time (usec): 100000 (USB4C02835)
Spectra Averaged: 1 (USB4C02835)
Boxcar Smoothing: 0 (USB4C02835)
Correct for Electrical Dark: No (USB4C02835)
Strobe/Lamp Enabled: No (USB4C02835)
Correct for Detector Non-linearity: No (USB4C02835)
Correct for Stray Light: No (USB4C02835)
Number of Pixels in Processed Spectrum: 3648
>>>>>Begin Processed Spectral Data<<<<<
177.47	2179.04
177.69	2179.04
177.91	2179.04
178.13	2107.36
178.36	2138.08
178.58	2854.87
178.80	2955.22
179.02	2783.19
179.24	2850.77
179.46	2574.30
179.68	2600.92
179.90	2942.93
180.13	2977.75
180.35	2490.33
180.57	2580.44
180.79	3063.76
181.01	2953.17
181.23	2699.22
181.45	2889.68
181.67	3057.62
181.90	3137.49
182.12	2709.46
182.34	2576.34
182.56	3010.51
182.78	3010.51
183.00	2664.41
183.22	2750.42
183.44	2705.37
183.66	3565.51
183.89	2856.92
184.11	2633.69
184.33	3071.95
184.55	3151.82
184.77	2678.74
184.99	2699.22
185.21	2953.17
185.43	3444.68
185.65	2654.17
185.87	2641.88
186.10	3352.52
186.32	3282.89
186.54	2842.58
186.76	2779.09
186.98	3198.93
187.20	2994.13
187.42	2680.79
187.64	2666.46
187.86	3157.97
188.08	3174.35
188.30	2613.21
188.52	2725.85
188.75	3223.50
188.97	3196.88
189.19	2615.26
189.41	2645.98
189.63	3129.30
189.85	2901.97
190.07	2631.64
190.29	2527.19
190.51	3074.00
190.73	2850.77
190.95	2850.77
191.17	2697.17
191.39	2641.88
191.61	2918.36
191.84	2668.50
192.06	2740.18
192.28	2650.07
192.50	3542.99
192.72	2852.82
192.94	2727.89
193.16	3174.35
193.38	3092.43
193.60	2512.86
193.82	2861.01
194.04	3153.87
194.26	3090.38
194.48	2709.46
194.70	2660.31
194.92	2944.98
195.14	3112.91
195.36	2600.92
195.58	2740.18
195.80	2951.12
196.02	2901.97
196.24	2648.02
196.46	2723.80
196.69	2965.46
196.91	3373.00
197.13	2748.37
197.35	2711.51
197.57	3303.37
197.79	3114.96
198.01	2709.46
198.23	2666.46
198.45	3078.10
198.67	2799.57
198.89	2531.29
199.11	2766.81
199.33	2912.21
199.55	2648.02
199.77	2645.98
199.99	2811.86
200.21	2961.36
200.43	3084.24
200.65	2621.40
200.87	2582.49
201.09	2901.97
201.31	2957.27
201.53	2715.61
201.75	2707.41
201.97	2994.13
202.19	2992.08
202.41	2701.27
202.63	2801.62
202.85	3049.43
203.07	3008.47
203.29	2783.19
203.51	2570.20
203.73	2797.53
203.95	3356.62
204.17	2676.70
204.39	2703.32
204.61	2996.18
204.83	2824.15
205.05	2840.53
205.27	2758.61
205.49	3280.85
205.71	2963.41
205.93	2564.06
206.15	2547.67
206.37	2971.60
206.59	2930.64
206.81	2521.05
207.03	2541.53
207.25	2775.00
207.47	3108.82
207.69	2715.61
207.91	2924.50
208.13	3258.32
208.34	2969.55
208.56	2631.64
208.78	2707.41
209.00	2985.94
209.22	2906.07
209.44	2664.41
209.66	2658.26
209.88	2944.98
210.10	2916.31
210.32	2684.89
210.54	2768.85
210.76	2947.03
210.98	3127.25
211.20	2539.48
211.42	2858.96
211.64	3241.93
211.86	3067.86
212.08	2721.75
212.30	2641.88
212.52	2910.16
212.74	3055.57
212.96	2787.29
213.17	2731.99
213.39	3155.92
213.61	3233.74
213.83	2727.89
214.05	2555.86
214.27	3162.06
214.49	2793.43
214.71	2643.93
214.93	2805.72
215.15	3033.04
215.37	3174.35
215.59	2551.77
215.81	2719.70
216.03	3303.37
216.24	3059.67
216.46	2699.22
216.68	2738.13
216.90	3086.29
217.12	3243.98
217.34	2652.12
217.56	2846.68
217.78	3297.23
218.00	3065.81
218.22	2752.47
218.44	2801.62
218.66	3037.14
218.87	3289.04
219.09	2631.64
219.31	2650.07
219.53	3080.14
219.75	2936.79
219.97	2676.70
220.19	2779.09
220.41	2940.88
220.63	3246.03
220.85	2756.57
221.06	2734.04
221.28	3262.41
221.50	3153.87
221.72	2717.65
221.94	2623.45
222.16	3006.42
222.38	3172.30
222.60	2740.18
222.82	2764.76
223.03	3209.17
223.25	2793.43
223.47	2643.93
223.69	2916.31
223.91	3137.49
224.13	2975.70
224.35	2594.78
224.57	2875.35
224.78	3117.01
225.00	2877.40
225.22	2826.20
225.44	2658.26
225.66	3092.43
225.88	2932.69
226.10	2762.71
226.32	2664.41
226.53	3235.79
226.75	2904.02
226.97	2856.92
227.19	2705.37
227.41	2924.50
227.63	3006.42
227.85	2439.13
228.06	2701.27
228.28	3084.24
228.50	3162.06
228.72	2551.77
228.94	2633.69
229.16	2721.75
229.37	2785.24
229.59	2613.21
229.81	2979.79
230.03	2852.82
230.25	2754.52
230.47	2467.80
230.69	2611.16
230.90	3149.78
231.12	2881.49
231.34	2787.29
231.56	2766.81
231.78	2738.13
232.00	2959.31
232.21	2686.94
232.43	2693.08
232.65	2664.41
232.87	3028.95
233.09	2623.45
233.30	2580.44
233.52	3131.34
233.74	3102.67
233.96	2668.50
234.18	2805.72
234.40	2990.03
234.61	3444.68
234.83	2539.48
235.05	2715.61
235.27	3385.29
235.49	3160.02
235.70	2611.16
235.92	2738.13
236.14	3012.56
236.36	3403.72
236.58	2629.59
236.79	2746.33
237.01	2959.31
237.23	2979.79
237.45	2891.73
237.67	2820.05
237.88	3096.53
238.10	3385.29
238.32	2588.63
238.54	2676.70
238.76	2877.40
238.97	2867.16
239.19	2584.54
239.41	2742.23
239.63	3155.92
239.85	2930.64
240.06	2727.89
240.28	2705.37
240.50	3184.59
240.72	3071.95
240.93	2617.30
241.15	2772.95
241.37	2992.08
241.59	3231.69
241.81	2639.83
242.02	2758.61
242.24	3069.91
242.46	3090.38
242.68	2602.97
242.89	2666.46
243.11	3102.67
243.33	2940.88
243.55	2623.45
243.76	2754.52
243.98	2852.82
244.20	2994.13
244.42	2617.30
244.64	2598.87
244.85	2789.33
245.07	2820.05
245.29	2727.89
245.51	2680.79
245.72	3016.66
245.94	3170.26
246.16	2619.35
246.38	2850.77
246.59	2936.79
246.81	2893.78
247.03	2678.74
247.24	2510.81
247.46	2901.97
247.68	3022.80
247.90	2629.59
248.11	2686.94
248.33	3106.77
248.55	2955.22
248.77	2719.70
248.98	2709.46
249.20	3291.09
249.42	3022.80
249.64	2670.55
249.85	2691.03
250.07	2912.21
250.29	3098.58
250.50	2781.14
250.72	2562.01
250.94	3026.90
251.16	3428.30
251.37	2703.32
251.59	2758.61
251.81	2992.08
252.02	3217.36
252.24	2602.97
252.46	2799.57
252.68	2832.34
252.89	2805.72
253.11	2602.97
253.33	2834.39
253.54	3280.85
253.76	2832.34
253.98	2652.12
254.20	2738.13
254.41	2783.19
254.63	3006.42
254.85	2535.39
255.06	2799.57
255.28	3065.81
255.50	2861.01
255.71	2682.84
255.93	2566.10
256.15	2904.02
256.36	3039.19
256.58	2592.73
256.80	2752.47
257.02	2906.07
257.23	2953.17
257.45	2762.71
257.67	2764.76
257.88	2924.50
258.10	2996.18
258.32	2666.46
258.53	2740.18
258.75	3360.72
258.97	2910.16
259.18	2609.11
259.40	2664.41
259.62	3352.52
259.83	3239.89
260.05	2643.93
260.27	3475.40
260.48	3123.15
260.70	2775.00
260.92	2576.34
261.13	2717.65
261.35	3004.37
261.57	3131.34
261.78	2600.92
262.00	2568.15
262.22	3153.87
262.43	2832.34
262.65	2736.09
262.86	2729.94
263.08	3454.92
263.30	3000.27
263.51	2568.15
263.73	2586.58
263.95	3280.85
264.16	2881.49
264.38	2602.97
264.60	2578.39
264.81	3000.27
265.03	3071.95
265.25	3016.66
265.46	2639.83
265.68	3235.79
265.89	3117.01
266.11	2568.15
266.33	2592.73
266.54	3235.79
266.76	3047.38
266.98	2813.91
267.19	2791.38
267.41	3211.22
267.62	2897.88
267.84	2494.43
268.06	2830.29
268.27	3030.99
268.49	3180.50
268.70	2809.81
268.92	2707.41
269.14	2838.48
269.35	2779.09
269.57	2758.61
269.79	2781.14
270.00	2975.70
270.22	3262.41
270.43	2568.15
270.65	2531.29
270.87	3000.27
271.08	3153.87
271.30	2783.19
271.51	2815.96
271.73	3088.34
271.95	3221.45
272.16	2582.49
272.38	2787.29
272.59	2836.44
272.81	3125.20
273.02	2662.36
273.24	2746.33
273.46	3186.64
273.67	2734.04
273.89	2590.68
274.10	2682.84
274.32	3155.92
274.54	3010.51
274.75	2807.77
274.97	2785.24
275.18	3096.53
275.40	3065.81
275.61	2764.76
275.83	2813.91
276.05	2787.29
276.26	2906.07
276.48	2772.95
276.69	2764.76
276.91	2840.53
277.12	3233.74
277.34	2828.24
277.55	2979.79
277.77	2983.89
277.99	2967.51
278.20	2736.09
278.42	2713.56
278.63	2883.54
278.85	2842.58
279.06	2785.24
279.28	2889.68
279.49	3188.69
279.71	3176.40
279.93	2824.15
280.14	2846.68
280.36	2805.72
280.57	3114.96
280.79	2856.92
281.00	2648.02
281.22	2836.44
281.43	3235.79
281.65	2551.77
281.86	2631.64
282.08	3104.72
282.29	3373.00
282.51	2746.33
282.73	2684.89
282.94	2750.42
283.16	3129.30
283.37	2928.60
283.59	2760.66
283.80	3059.67
284.02	3024.85
284.23	2826.20
284.45	2834.39
284.66	2811.86
284.88	2840.53
285.09	2756.57
285.31	2979.79
285.52	3006.42
285.74	2801.62
285.95	3004.37
286.17	2867.16
286.38	3145.68
286.60	2887.64
286.81	2703.32
287.03	2832.34
287.24	2977.75
287.46	3074.00
287.67	2861.01
287.89	3096.53
288.10	2981.84
288.32	3078.10
288.53	2971.60
288.75	2828.24
288.96	3059.67
289.18	2852.82
289.39	2734.04
289.61	2842.58
289.82	3340.24
290.04	3256.27
290.25	2699.22
290.47	2867.16
290.68	2914.26
290.90	3112.91
291.11	2639.83
291.33	2990.03
291.54	2854.87
291.76	2906.07
291.97	2891.73
292.18	2856.92
292.40	2897.88
292.61	2975.70
292.83	3059.67
293.04	2813.91
293.26	3035.09
293.47	2949.08
293.69	2758.61
293.90	2678.74
294.12	3149.78
294.33	2985.94
294.55	2904.02
294.76	2940.88
294.97	3239.89
295.19	3434.44
295.40	2705.37
295.62	2920.40
295.83	3076.05
296.05	2912.21
296.26	2901.97
296.48	2811.86
296.69	2959.31
296.90	2901.97
297.12	2910.16
297.33	2951.12
297.55	2990.03
297.76	3074.00
297.98	2936.79
298.19	2881.49
298.41	3006.42
298.62	2813.91
298.83	2979.79
299.05	2928.60
299.26	2992.08
299.48	2793.43
299.69	2861.01
299.90	2758.61
300.12	2893.78
300.33	3084.24
300.55	2826.20
300.76	2848.72
300.98	2834.39
301.19	3131.34
301.40	2803.67
301.62	2770.90
301.83	3102.67
302.05	3002.32
302.26	2818.00
302.47	2891.73
302.69	2836.44
302.90	3094.48
303.12	2619.35
303.33	2869.20
303.54	3325.90
303.76	2871.25
303.97	2736.09
304.19	2951.12
304.40	2842.58
304.61	3143.63
304.83	2850.77
305.04	2899.92
305.26	3026.90
305.47	2871.25
305.68	2826.20
305.90	2637.78
306.11	3127.25
306.33	2963.41
306.54	2748.37
306.75	2705.37
306.97	2813.91
307.18	2752.47
307.39	2768.85
307.61	2926.55
307.82	2963.41
308.04	3012.56
308.25	2748.37
308.46	2951.12
308.68	2901.97
308.89	2971.60
309.10	2908.12
309.32	2836.44
309.53	2994.13
309.74	3024.85
309.96	2709.46
310.17	2908.12
310.39	2932.69
310.60	3084.24
310.81	2742.23
311.03	2680.79
311.24	3235.79
311.45	3020.75
311.67	3000.27
311.88	2910.16
312.09	2889.68
312.31	2920.40
312.52	2725.85
312.73	2803.67
312.95	2734.04
313.16	2813.91
313.37	3028.95
313.59	2910.16
313.80	3106.77
314.01	3327.95
314.23	2834.39
314.44	2707.41
314.65	2738.13
314.87	2846.68
315.08	2729.94
315.29	2858.96
315.51	2883.54
315.72	2746.33
315.93	2875.35
316.15	2879.44
316.36	2922.45
316.57	2920.40
316.79	2820.05
317.00	2729.94
317.21	3207.12
317.43	2858.96
317.64	2818.00
317.85	2668.50
318.07	2953.17
318.28	2889.68
318.49	2873.30
318.70	3069.91
318.92	2942.93
319.13	3041.23
319.34	2973.65
319.56	2809.81
319.77	3067.86
319.98	3100.62
320.20	2987.99
320.41	2906.07
320.62	3002.32
320.83	2805.72
321.05	2987.99
321.26	2813.91
321.47	3037.14
321.69	3215.31
321.90	2609.11
322.11	2775.00
322.32	2979.79
322.54	3205.07
322.75	2746.33
322.96	3604.42
323.18	2754.52
323.39	2709.46
323.60	2680.79
323.81	2953.17
324.03	2922.45
324.24	3018.71
324.45	2934.74
324.66	2770.90
324.88	3145.68
325.09	3188.69
325.30	2822.10
325.52	2809.81
325.73	3129.30
325.94	2836.44
326.15	2701.27
326.37	2721.75
326.58	3143.63
326.79	3254.22
327.00	2734.04
327.22	2813.91
327.43	2918.36
327.64	2901.97
327.85	2895.83
328.07	2856.92
328.28	3352.52
328.49	2934.74
328.70	2797.53
328.92	2842.58
329.13	2899.92
329.34	3065.81
329.55	3071.95
329.76	2940.88
329.98	2944.98
330.19	3221.45
330.40	2875.35
330.61	2881.49
330.83	3114.96
331.04	2852.82
331.25	2885.59
331.46	2828.24
331.68	2791.38
331.89	3188.69
332.10	2781.14
332.31	2662.36
332.52	2944.98
332.74	3162.06
332.95	2686.94
333.16	2815.96
333.37	3078.10
333.58	2875.35
333.80	2785.24
334.01	2666.46
334.22	2965.46
334.43	2852.82
334.64	2791.38
334.86	2803.67
335.07	2822.10
335.28	3221.45
335.49	2723.80
335.70	2893.78
335.92	3200.98
336.13	3346.38
336.34	2842.58
336.55	2815.96
336.76	3094.48
336.98	2594.78
337.19	2813.91
337.40	2899.92
337.61	3321.81
337.82	3016.66
338.04	2852.82
338.25	2664.41
338.46	2863.06
338.67	2981.84
338.88	2680.79
339.09	2740.18
339.31	2944.98
339.52	2775.00
339.73	2789.33
339.94	2916.31
340.15	3110.86
340.36	2906.07
340.58	2836.44
340.79	2746.33
341.00	3028.95
341.21	2785.24
341.42	3033.04
341.63	2770.90
341.85	3192.78
342.06	2963.41
342.27	2688.98
342.48	2875.35
342.69	2719.70
342.90	3100.62
343.12	3051.47
343.33	2711.51
343.54	3088.34
343.75	3215.31
343.96	2969.55
344.17	2691.03
344.38	2883.54
344.60	2836.44
344.81	2744.28
345.02	2785.24
345.23	3133.39
345.44	3454.92
345.65	2914.26
345.86	2916.31
346.07	3024.85
346.29	2846.68
346.50	3039.19
346.71	2897.88
346.92	3166.16
347.13	3274.70
347.34	2940.88
347.55	2715.61
347.76	3030.99
347.98	2844.63
348.19	2815.96
348.40	2951.12
348.61	2926.55
348.82	3295.18
349.03	2885.59
349.24	2785.24
349.45	3336.14
349.66	2678.74
349.88	2783.19
350.09	2672.60
350.30	3184.59
350.51	3268.56
350.72	2883.54
350.93	2869.20
351.14	2869.20
351.35	3088.34
351.56	2766.81
351.77	2877.40
351.99	3045.33
352.20	3227.60
352.41	2844.63
352.62	2703.32
352.83	3018.71
353.04	2973.65
353.25	2830.29
353.46	2834.39
353.67	3129.30
353.88	2676.70
354.09	2783.19
354.30	2865.11
354.52	3071.95
354.73	2949.08
354.94	2744.28
355.15	2881.49
355.36	3286.99
355.57	2889.68
355.78	2768.85
355.99	2818.00
356.20	2883.54
356.41	3192.78
356.62	2850.77
356.83	2781.14
357.04	3311.57
357.25	2731.99
357.46	2813.91
357.68	2615.26
357.89	2799.57
358.10	2963.41
358.31	2828.24
358.52	2861.01
358.73	2795.48
358.94	2805.72
359.15	2760.66
359.36	2850.77
359.57	2979.79
359.78	2985.94
359.99	3006.42
360.20	2672.60
360.41	2965.46
360.62	3153.87
360.83	2871.25
361.04	2856.92
361.25	3030.99
361.46	3239.89
361.67	2869.20
361.88	2818.00
362.09	3127.25
362.30	2987.99
362.51	2705.37
362.72	2875.35
362.93	3160.02
363.14	3084.24
363.35	2920.40
363.56	2691.03
363.78	3164.11
363.99	3129.30
364.20	2787.29
364.41	2834.39
364.62	3321.81
364.83	3000.27
365.04	2856.92
365.25	2709.46
365.46	3319.76
365.67	2865.11
365.88	2922.45
366.09	2803.67
366.30	2875.35
366.51	2981.84
366.72	2768.85
366.93	2787.29
367.14	3022.80
367.35	3205.07
367.56	2709.46
367.77	2887.64
367.98	2940.88
368.18	3149.78
368.39	2871.25
368.60	2809.81
368.81	3049.43
369.02	3051.47
369.23	2750.42
369.44	2639.83
369.65	2863.06
369.86	3166.16
370.07	2910.16
370.28	2639.83
370.49	3024.85
370.70	3065.81
370.91	2703.32
371.12	2652.12
371.33	3168.21
371.54	2901.97
371.75	2922.45
371.96	2598.87
372.17	3018.71
372.38	2983.89
372.59	2844.63
372.80	2785.24
373.01	2996.18
373.22	3057.62
373.43	2795.48
373.64	2678.74
373.85	3209.17
374.06	3233.74
374.26	2955.22
374.47	2813.91
374.68	3299.28
374.89	2973.65
375.10	2748.37
375.31	2899.92
375.52	3041.23
375.73	2942.93
375.94	2680.79
376.15	2924.50
376.36	2848.72
376.57	2904.02
376.78	2729.94
376.99	2852.82
377.20	3203.02
377.40	2992.08
377.61	3080.14
377.82	2703.32
378.03	3207.12
378.24	2998.23
378.45	2928.60
378.66	2803.67
378.87	2711.51
379.08	2738.13
379.29	2848.72
379.50	2983.89
379.71	2992.08
379.91	3096.53
380.12	2795.48
380.33	2879.44
380.54	2916.31
380.75	2940.88
380.96	2785.24
381.17	2889.68
381.38	2971.60
381.59	3014.61
381.80	2863.06
382.00	2998.23
382.21	3004.37
382.42	3178.45
382.63	3178.45
382.84	2963.41
383.05	3104.72
383.26	3174.35
383.47	2947.03
383.68	2813.91
383.88	3069.91
384.09	3030.99
384.30	3067.86
384.51	2897.88
384.72	2889.68
384.93	2754.52
385.14	2863.06
385.35	3000.27
385.55	2744.28
385.76	3112.91
385.97	2828.24
386.18	2629.59
386.39	2895.83
386.60	2861.01
386.81	2822.10
387.02	2699.22
387.22	2758.61
387.43	3096.53
387.64	2959.31
387.85	3096.53
388.06	3041.23
388.27	3966.92
388.48	7249.81
388.68	10784.60
388.89	13496.11
389.10	14612.26
389.31	14040.87
389.52	11253.59
389.73	9938.79
389.93	8871.80
390.14	7960.45
390.35	7493.52
390.56	6834.07
390.77	5638.06
390.98	4374.46
391.18	3743.69
391.39	3346.38
391.60	3002.32
391.81	3059.67
392.02	2871.25
392.23	3368.91
392.43	2990.03
392.64	3008.47
392.85	2830.29
393.06	3293.13
393.27	2979.79
393.47	2799.57
393.68	2916.31
393.89	2842.58
394.10	3241.93
394.31	2795.48
394.52	2815.96
394.72	2818.00
394.93	3311.57
395.14	2691.03
395.35	2924.50
395.56	2803.67
395.76	2996.18
395.97	2826.20
396.18	2940.88
396.39	2953.17
396.60	3588.04
396.80	3139.54
397.01	3020.75
397.22	3180.50
397.43	3237.84
397.64	2828.24
397.84	2967.51
398.05	3444.68
398.26	2895.83
398.47	2975.70
398.67	2977.75
398.88	3020.75
399.09	3108.82
399.30	2865.11
399.51	2914.26
399.71	2879.44
399.92	2965.46
400.13	2924.50
400.34	2885.59
400.54	3041.23
400.75	3164.11
400.96	2887.64
401.17	3155.92
401.37	3076.05
401.58	2983.89
401.79	2775.00
402.00	2936.79
402.21	3518.41
402.41	3155.92
402.62	3125.20
402.83	3243.98
403.04	3307.47
403.24	3618.76
403.45	2940.88
403.66	3151.82
403.87	3160.02
404.07	3272.65
404.28	3084.24
404.49	3160.02
404.70	3016.66
404.90	3135.44
405.11	2932.69
405.32	2897.88
405.52	2928.60
405.73	2867.16
405.94	2711.51
406.15	2957.27
406.35	3153.87
406.56	3164.11
406.77	2883.54
406.98	2887.64
407.18	2885.59
407.39	3250.13
407.60	2887.64
407.80	2865.11
408.01	2934.74
408.22	3172.30
408.43	2697.17
408.63	3000.27
408.84	3272.65
409.05	3114.96
409.25	2760.66
409.46	2828.24
409.67	2869.20
409.88	2801.62
410.08	2807.77
410.29	2824.15
410.50	3123.15
410.70	3022.80
410.91	2662.36
411.12	2922.45
411.32	3020.75
411.53	2813.91
411.74	2901.97
411.95	3022.80
412.15	2987.99
412.36	3090.38
412.57	2959.31
412.77	3008.47
412.98	3000.27
413.19	2887.64
413.39	2873.30
413.60	2846.68
413.81	3221.45
414.01	2842.58
414.22	2848.72
414.43	2942.93
414.63	2965.46
414.84	3086.29
415.05	2840.53
415.25	2734.04
415.46	3129.30
415.67	2865.11
415.87	2869.20
416.08	2918.36
416.29	2918.36
416.49	3078.10
416.70	2856.92
416.91	2828.24
417.11	2938.84
417.32	3108.82
417.53	2942.93
417.73	2877.40
417.94	3067.86
418.15	3030.99
418.35	2852.82
418.56	2850.77
418.77	3424.20
418.97	2975.70
419.18	2828.24
419.38	2512.86
419.59	3041.23
419.80	3268.56
420.00	2799.57
420.21	2897.88
420.42	3196.88
420.62	2967.51
420.83	2850.77
421.04	2785.24
421.24	2940.88
421.45	3080.14
421.65	2842.58
421.86	2799.57
422.07	3164.11
422.27	3141.58
422.48	2787.29
422.69	2729.94
422.89	3067.86
423.10	2944.98
423.30	2772.95
423.51	2820.05
423.72	3026.90
423.92	3153.87
424.13	2752.47
424.33	2885.59
424.54	3096.53
424.75	2969.55
424.95	2992.08
425.16	2844.63
425.36	2922.45
425.57	3123.15
425.78	2949.08
425.98	3035.09
426.19	2947.03
426.39	2801.62
426.60	2930.64
426.81	2965.46
427.01	3057.62
427.22	2832.34
427.42	2676.70
427.63	2760.66
427.83	3057.62
428.04	3274.70
428.25	2990.03
428.45	2914.26
428.66	3143.63
428.86	2998.23
429.07	2910.16
429.28	2879.44
429.48	2920.40
429.69	2842.58
429.89	2947.03
430.10	2731.99
430.30	3053.52
430.51	3119.06
430.71	2746.33
430.92	2899.92
431.13	2889.68
431.33	3026.90
431.54	2924.50
431.74	3108.82
431.95	3393.48
432.15	2865.11
432.36	2873.30
432.56	2850.77
432.77	3307.47
432.98	3282.89
433.18	2930.64
433.39	2738.13
433.59	2947.03
433.80	3352.52
434.00	3067.86
434.21	2873.30
434.41	2836.44
434.62	3350.48
434.82	2789.33
435.03	2754.52
435.23	3020.75
435.44	2703.32
435.64	2826.20
435.85	2965.46
436.06	3096.53
436.26	3131.34
436.47	2863.06
436.67	2846.68
436.88	2918.36
437.08	3198.93
437.29	2971.60
437.49	3006.42
437.70	3203.02
437.90	2981.84
438.11	3004.37
438.31	2910.16
438.52	3266.51
438.72	3192.78
438.93	3170.26
439.13	2940.88
439.34	3127.25
439.54	2944.98
439.75	3006.42
439.95	2871.25
440.16	2908.12
440.36	2891.73
440.57	2877.40
440.77	2863.06
440.98	2912.21
441.18	3076.05
441.39	2779.09
441.59	2742.23
441.80	3330.00
442.00	3047.38
442.21	2969.55
442.41	2658.26
442.62	3180.50
442.82	2899.92
443.02	2858.96
443.23	2936.79
443.43	2947.03
443.64	3176.40
443.84	2766.81
444.05	2897.88
444.25	3067.86
444.46	2930.64
444.66	2834.39
444.87	3051.47
445.07	2705.37
445.28	2965.46
445.48	3033.04
445.69	2885.59
445.89	3360.72
446.09	2955.22
446.30	3149.78
446.50	3270.61
446.71	4652.98
446.91	5820.33
447.12	6559.64
447.32	7102.36
447.53	6623.13
447.73	5791.66
447.93	5062.58
448.14	4804.53
448.34	4870.07
448.55	4026.31
448.75	4093.89
448.96	3876.80
449.16	3571.66
449.36	3508.17
449.57	3098.58
449.77	2920.40
449.98	2916.31
450.18	3127.25
450.39	2795.48
450.59	3125.20
450.79	2994.13
451.00	2836.44
451.20	3063.76
451.41	2852.82
451.61	3024.85
451.81	2928.60
452.02	2791.38
452.22	2848.72
452.43	2947.03
452.63	2815.96
