SpectraSuite Data File
++++++++++++++++++++++++++++++++++++
Date: Thu May 05 21:11:24 CEST 2016
User: root
Dark Spectrum Present: No
Reference Spectrum Present: No
Number of Sampled Component Spectra: 1
Spectrometers: USB4C02835
Integration Time (usec): 100000 (USB4C02835)
Spectra Averaged: 1 (USB4C02835)
Boxcar Smoothing: 0 (USB4C02835)
Correct for Electrical Dark: No (USB4C02835)
Strobe/Lamp Enabled: No (USB4C02835)
Correct for Detector Non-linearity: No (USB4C02835)
Correct for Stray Light: No (USB4C02835)
Number of Pixels in Processed Spectrum: 3648
>>>>>Begin Processed Spectral Data<<<<<
177.47	2193.37
177.69	2193.37
177.91	2193.37
178.13	2142.18
178.36	2148.32
178.58	2775.00
178.80	2885.59
179.02	2734.04
179.24	2848.72
179.46	2619.35
179.68	2637.78
179.90	2942.93
180.13	2975.70
180.35	2586.58
180.57	2635.74
180.79	3114.96
181.01	2949.08
181.23	2705.37
181.45	2795.48
181.67	3123.15
181.90	3164.11
182.12	2670.55
182.34	2535.39
182.56	3043.28
182.78	2936.79
183.00	2613.21
183.22	2674.65
183.44	2688.98
183.66	3516.36
183.89	2850.77
184.11	2670.55
184.33	3088.34
184.55	3231.69
184.77	2793.43
184.99	2711.51
185.21	2842.58
185.43	3436.49
185.65	2650.07
185.87	2678.74
186.10	3432.40
186.32	3327.95
186.54	2746.33
186.76	2756.57
186.98	3084.24
187.20	2985.94
187.42	2752.47
187.64	2680.79
187.86	3045.33
188.08	3129.30
188.30	2619.35
188.52	2768.85
188.75	3225.55
188.97	3237.84
189.19	2658.26
189.41	2650.07
189.63	3026.90
189.85	2944.98
190.07	2580.44
190.29	2547.67
190.51	3110.86
190.73	2844.63
190.95	2865.11
191.17	2748.37
191.39	2705.37
191.61	2944.98
191.84	2609.11
192.06	2758.61
192.28	2736.09
192.50	3448.78
192.72	2828.24
192.94	2703.32
193.16	3192.78
193.38	3096.53
193.60	2600.92
193.82	2838.48
194.04	3098.58
194.26	3047.38
194.48	2775.00
194.70	2682.84
194.92	2879.44
195.14	3114.96
195.36	2648.02
195.58	2799.57
195.80	2985.94
196.02	2869.20
196.24	2682.84
196.46	2818.00
196.69	2813.91
196.91	3461.07
197.13	2719.70
197.35	2824.15
197.57	3278.80
197.79	3135.44
198.01	2754.52
198.23	2715.61
198.45	3012.56
198.67	2801.62
198.89	2512.86
199.11	2740.18
199.33	2869.20
199.55	2664.41
199.77	2615.26
199.99	2826.20
200.21	2875.35
200.43	3010.51
200.65	2545.63
200.87	2521.05
201.09	2922.45
201.31	2953.17
201.53	2672.60
201.75	2650.07
201.97	3080.14
202.19	3037.14
202.41	2768.85
202.63	2768.85
202.85	3033.04
203.07	3080.14
203.29	2709.46
203.51	2600.92
203.73	2912.21
203.95	3463.12
204.17	2676.70
204.39	2791.38
204.61	2883.54
204.83	3039.19
205.05	2805.72
205.27	2703.32
205.49	3340.24
205.71	2942.93
205.93	2555.86
206.15	2578.39
206.37	2942.93
206.59	2883.54
206.81	2545.63
207.03	2633.69
207.25	2797.53
207.47	3141.58
207.69	2715.61
207.91	2904.02
208.13	3274.70
208.34	2865.11
208.56	2693.08
208.78	2705.37
209.00	2963.41
209.22	2922.45
209.44	2721.75
209.66	2584.54
209.88	2963.41
210.10	2936.79
210.32	2656.22
210.54	2777.05
210.76	2947.03
210.98	3139.54
211.20	2559.96
211.42	2836.44
211.64	3217.36
211.86	3135.44
212.08	2723.80
212.30	2707.41
212.52	2906.07
212.74	3160.02
212.96	2779.09
213.17	2756.57
213.39	3119.06
213.61	3241.93
213.83	2635.74
214.05	2492.38
214.27	3135.44
214.49	2861.01
214.71	2707.41
214.93	2797.53
215.15	2912.21
215.37	3131.34
215.59	2588.63
215.81	2760.66
216.03	3205.07
216.24	2975.70
216.46	2668.50
216.68	2713.56
216.90	3174.35
217.12	3231.69
217.34	2648.02
217.56	2809.81
217.78	3241.93
218.00	3102.67
218.22	2760.66
218.44	2805.72
218.66	2998.23
218.87	3364.81
219.09	2707.41
219.31	2684.89
219.53	3024.85
219.75	2840.53
219.97	2734.04
220.19	2729.94
220.41	2924.50
220.63	3332.05
220.85	2748.37
221.06	2789.33
221.28	3227.60
221.50	3053.52
221.72	2693.08
221.94	2549.72
222.16	2977.75
222.38	3086.29
222.60	2633.69
222.82	2740.18
223.03	3166.16
223.25	2809.81
223.47	2641.88
223.69	2883.54
223.91	3143.63
224.13	2977.75
224.35	2557.91
224.57	2826.20
224.78	3080.14
225.00	2877.40
225.22	2684.89
225.44	2611.16
225.66	3172.30
225.88	2922.45
226.10	2836.44
226.32	2686.94
226.53	3293.13
226.75	2899.92
226.97	2721.75
227.19	2709.46
227.41	2897.88
227.63	2940.88
227.85	2547.67
228.06	2697.17
228.28	3045.33
228.50	3184.59
228.72	2514.91
228.94	2613.21
229.16	2678.74
229.37	2820.05
229.59	2645.98
229.81	2922.45
230.03	2838.48
230.25	2721.75
230.47	2564.06
230.69	2602.97
230.90	3186.64
231.12	2871.25
231.34	2832.34
231.56	2770.90
231.78	2793.43
232.00	2969.55
232.21	2678.74
232.43	2691.03
232.65	2658.26
232.87	3076.05
233.09	2578.39
233.30	2631.64
233.52	3147.73
233.74	2938.84
233.96	2629.59
234.18	2848.72
234.40	3006.42
234.61	3413.96
234.83	2633.69
235.05	2703.32
235.27	3413.96
235.49	3246.03
235.70	2545.63
235.92	2766.81
236.14	3082.19
236.36	3407.82
236.58	2559.96
236.79	2760.66
237.01	3000.27
237.23	2965.46
237.45	2897.88
237.67	2781.14
237.88	3018.71
238.10	3305.42
238.32	2564.06
238.54	2674.65
238.76	2951.12
238.97	2795.48
239.19	2586.58
239.41	2783.19
239.63	3151.82
239.85	2879.44
240.06	2674.65
240.28	2639.83
240.50	3164.11
240.72	2961.36
240.93	2594.78
241.15	2797.53
241.37	2899.92
241.59	3205.07
241.81	2672.60
242.02	2723.80
242.24	3037.14
242.46	3182.54
242.68	2594.78
242.89	2611.16
243.11	3209.17
243.33	2969.55
243.55	2691.03
243.76	2746.33
243.98	2901.97
244.20	2942.93
244.42	2625.50
244.64	2680.79
244.85	2744.28
245.07	2801.62
245.29	2676.70
245.51	2684.89
245.72	2985.94
245.94	3182.54
246.16	2725.85
246.38	2664.41
246.59	2947.03
246.81	2879.44
247.03	2670.55
247.24	2590.68
247.46	2955.22
247.68	2936.79
247.90	2564.06
248.11	2680.79
248.33	3100.62
248.55	2967.51
248.77	2705.37
248.98	2822.10
249.20	3336.14
249.42	3059.67
249.64	2723.80
249.85	2637.78
250.07	2906.07
250.29	3112.91
250.50	2715.61
250.72	2592.73
250.94	3057.62
251.16	3377.10
251.37	2662.36
251.59	2684.89
251.81	3092.43
252.02	3190.74
252.24	2652.12
252.46	2738.13
252.68	2838.48
252.89	2887.64
253.11	2541.53
253.33	2805.72
253.54	3229.65
253.76	2748.37
253.98	2654.17
254.20	2639.83
254.41	2725.85
254.63	2951.12
254.85	2480.09
255.06	2766.81
255.28	3078.10
255.50	2975.70
255.71	2621.40
255.93	2582.49
256.15	2920.40
256.36	3094.48
256.58	2602.97
256.80	2584.54
257.02	2932.69
257.23	2942.93
257.45	2688.98
257.67	2826.20
257.88	2865.11
258.10	3106.77
258.32	2713.56
258.53	2772.95
258.75	3254.22
258.97	2901.97
259.18	2602.97
259.40	2559.96
259.62	3192.78
259.83	3297.23
260.05	2742.23
260.27	3461.07
260.48	3080.14
260.70	2832.34
260.92	2623.45
261.13	2791.38
261.35	3016.66
261.57	3018.71
261.78	2600.92
262.00	2617.30
262.22	3104.72
262.43	2822.10
262.65	2645.98
262.86	2754.52
263.08	3413.96
263.30	2953.17
263.51	2570.20
263.73	2678.74
263.95	3219.41
264.16	2871.25
264.38	2516.95
264.60	2578.39
264.81	3033.04
265.03	3168.21
265.25	2942.93
265.46	2658.26
265.68	3225.55
265.89	3121.10
266.11	2562.01
266.33	2709.46
266.54	3168.21
266.76	3157.97
266.98	2762.71
267.19	2863.06
267.41	3180.50
267.62	2926.55
267.84	2496.47
268.06	2818.00
268.27	3012.56
268.49	3209.17
268.70	2752.47
268.92	2648.02
269.14	2779.09
269.35	2699.22
269.57	2748.37
269.79	2820.05
270.00	2760.66
270.22	3233.74
270.43	2547.67
270.65	2576.34
270.87	3067.86
271.08	3117.01
271.30	2789.33
271.51	2709.46
271.73	3092.43
271.95	3327.95
272.16	2594.78
272.38	2895.83
272.59	2908.12
272.81	3012.56
273.02	2590.68
273.24	2809.81
273.46	3164.11
273.67	2762.71
273.89	2584.54
274.10	2701.27
274.32	3147.73
274.54	3004.37
274.75	2781.14
274.97	2797.53
275.18	3096.53
275.40	3096.53
275.61	2705.37
275.83	2820.05
276.05	2809.81
276.26	2949.08
276.48	2768.85
276.69	2873.30
276.91	2809.81
277.12	3188.69
277.34	2940.88
277.55	2906.07
277.77	3045.33
277.99	2944.98
278.20	2742.23
278.42	2693.08
278.63	2924.50
278.85	2799.57
279.06	2736.09
279.28	2832.34
279.49	3084.24
279.71	3069.91
279.93	2822.10
280.14	2789.33
280.36	2863.06
280.57	3160.02
280.79	2985.94
281.00	2703.32
281.22	2944.98
281.43	3225.55
281.65	2523.10
281.86	2656.22
282.08	3008.47
282.29	3373.00
282.51	2598.87
282.73	2639.83
282.94	2760.66
283.16	3092.43
283.37	2912.21
283.59	2887.64
283.80	3049.43
284.02	3024.85
284.23	2846.68
284.45	2820.05
284.66	2871.25
284.88	2895.83
285.09	2807.77
285.31	2832.34
285.52	3057.62
285.74	2793.43
285.95	2918.36
286.17	2848.72
286.38	3129.30
286.60	2899.92
286.81	2725.85
287.03	2799.57
287.24	2889.68
287.46	3037.14
287.67	2828.24
287.89	3039.19
288.10	2973.65
288.32	3049.43
288.53	2908.12
288.75	2901.97
288.96	3172.30
289.18	2924.50
289.39	2725.85
289.61	2936.79
289.82	3377.10
290.04	3274.70
290.25	2729.94
290.47	2861.01
290.68	3014.61
290.90	3162.06
291.11	2635.74
291.33	2924.50
291.54	2840.53
291.76	2856.92
291.97	2990.03
292.18	2901.97
292.40	2953.17
292.61	2852.82
292.83	3096.53
293.04	2815.96
293.26	2955.22
293.47	2936.79
293.69	2717.65
293.90	2725.85
294.12	3217.36
294.33	2926.55
294.55	2803.67
294.76	2973.65
294.97	3284.94
295.19	3368.91
295.40	2801.62
295.62	2871.25
295.83	3080.14
296.05	2826.20
296.26	2987.99
296.48	2838.48
296.69	2990.03
296.90	2996.18
297.12	2949.08
297.33	2881.49
297.55	2949.08
297.76	3065.81
297.98	2842.58
298.19	2944.98
298.41	2994.13
298.62	2844.63
298.83	2981.84
299.05	2873.30
299.26	2875.35
299.48	2791.38
299.69	2895.83
299.90	2840.53
300.12	2883.54
300.33	3135.44
300.55	2832.34
300.76	2867.16
300.98	2818.00
301.19	3127.25
301.40	2768.85
301.62	2781.14
301.83	3082.19
302.05	2965.46
302.26	2748.37
302.47	2869.20
302.69	2762.71
302.90	3022.80
303.12	2613.21
303.33	2932.69
303.54	3282.89
303.76	2918.36
303.97	2727.89
304.19	3047.38
304.40	2848.72
304.61	3084.24
304.83	2838.48
305.04	2940.88
305.26	3078.10
305.47	2871.25
305.68	2822.10
305.90	2623.45
306.11	3196.88
306.33	2926.55
306.54	2682.84
306.75	2713.56
306.97	2795.48
307.18	2832.34
307.39	2865.11
307.61	2869.20
307.82	2922.45
308.04	3061.71
308.25	2658.26
308.46	2885.59
308.68	2959.31
308.89	2924.50
309.10	2879.44
309.32	2772.95
309.53	2992.08
309.74	3041.23
309.96	2781.14
310.17	2926.55
310.39	2949.08
310.60	3094.48
310.81	2797.53
311.03	2740.18
311.24	3131.34
311.45	2998.23
311.67	3051.47
311.88	2901.97
312.09	2842.58
312.31	2901.97
312.52	2719.70
312.73	2801.62
312.95	2760.66
313.16	2750.42
313.37	2951.12
313.59	2949.08
313.80	3143.63
314.01	3315.66
314.23	2803.67
314.44	2648.02
314.65	2801.62
314.87	2781.14
315.08	2752.47
315.29	2779.09
315.51	2795.48
315.72	2789.33
315.93	2850.77
316.15	2852.82
316.36	2987.99
316.57	2983.89
316.79	2789.33
317.00	2684.89
317.21	3096.53
317.43	2885.59
317.64	2828.24
317.85	2731.99
318.07	2846.68
318.28	2936.79
318.49	2854.87
318.70	3035.09
318.92	2975.70
319.13	2979.79
319.34	2926.55
319.56	2791.38
319.77	3086.29
319.98	3096.53
320.20	3024.85
320.41	2904.02
320.62	3065.81
320.83	2768.85
321.05	2973.65
321.26	2805.72
321.47	3020.75
321.69	3252.17
321.90	2705.37
322.11	2775.00
322.32	2957.27
322.54	3246.03
322.75	2832.34
322.96	3485.64
323.18	2770.90
323.39	2686.94
323.60	2756.57
323.81	2942.93
324.03	2897.88
324.24	2942.93
324.45	2852.82
324.66	2766.81
324.88	3188.69
325.09	3278.80
325.30	2717.65
325.52	2729.94
325.73	3039.19
325.94	2820.05
326.15	2672.60
326.37	2783.19
326.58	3147.73
326.79	3295.18
327.00	2709.46
327.22	2760.66
327.43	2912.21
327.64	2703.32
327.85	2918.36
328.07	2783.19
328.28	3278.80
328.49	2920.40
328.70	2873.30
328.92	2770.90
329.13	2899.92
329.34	3059.67
329.55	3020.75
329.76	2934.74
329.98	2953.17
330.19	3117.01
330.40	2801.62
330.61	2879.44
330.83	3114.96
331.04	2842.58
331.25	2904.02
331.46	2836.44
331.68	2764.76
331.89	3141.58
332.10	2908.12
332.31	2619.35
332.52	2936.79
332.74	3135.44
332.95	2670.55
333.16	2861.01
333.37	3106.77
333.58	2930.64
333.80	2920.40
334.01	2664.41
334.22	2897.88
334.43	2838.48
334.64	2750.42
334.86	2707.41
335.07	2824.15
335.28	3153.87
335.49	2711.51
335.70	2822.10
335.92	3229.65
336.13	3366.86
336.34	2895.83
336.55	2834.39
336.76	3016.66
336.98	2625.50
337.19	2809.81
337.40	2922.45
337.61	3430.35
337.82	2912.21
338.04	2895.83
338.25	2588.63
338.46	2949.08
338.67	2901.97
338.88	2746.33
339.09	2754.52
339.31	2910.16
339.52	2762.71
339.73	2731.99
339.94	2785.24
340.15	3094.48
340.36	2838.48
340.58	2901.97
340.79	2738.13
341.00	3141.58
341.21	2758.61
341.42	3004.37
341.63	2793.43
341.85	3196.88
342.06	3022.80
342.27	2744.28
342.48	2942.93
342.69	2715.61
342.90	3074.00
343.12	3045.33
343.33	2799.57
343.54	3110.86
343.75	3256.27
343.96	2858.96
344.17	2781.14
344.38	3004.37
344.60	2879.44
344.81	2744.28
345.02	2731.99
345.23	3241.93
345.44	3411.92
345.65	2828.24
345.86	2848.72
346.07	3053.52
346.29	2861.01
346.50	2957.27
346.71	2942.93
346.92	3215.31
347.13	3397.58
347.34	2955.22
347.55	2670.55
347.76	3045.33
347.98	2695.13
348.19	2807.77
348.40	2967.51
348.61	2899.92
348.82	3215.31
349.03	2908.12
349.24	2727.89
349.45	3321.81
349.66	2668.50
349.88	2824.15
350.09	2738.13
350.30	3164.11
350.51	3131.34
350.72	2904.02
350.93	2867.16
351.14	2992.08
351.35	3119.06
351.56	2793.43
351.77	2912.21
351.99	3024.85
352.20	3270.61
352.41	2926.55
352.62	2576.34
352.83	2897.88
353.04	2969.55
353.25	2717.65
353.46	2858.96
353.67	3166.16
353.88	2584.54
354.09	2785.24
354.30	2844.63
354.52	3121.10
354.73	2957.27
354.94	2787.29
355.15	2813.91
355.36	3319.76
355.57	2873.30
355.78	2811.86
355.99	2770.90
356.20	2973.65
356.41	3198.93
356.62	2844.63
356.83	2901.97
357.04	3239.89
357.25	2703.32
357.46	2815.96
357.68	2707.41
357.89	2754.52
358.10	3002.32
358.31	2770.90
358.52	2813.91
358.73	2768.85
358.94	2826.20
359.15	2846.68
359.36	2815.96
359.57	2955.22
359.78	2965.46
359.99	2901.97
360.20	2748.37
360.41	3035.09
360.62	3127.25
360.83	2924.50
361.04	2850.77
361.25	3084.24
361.46	3254.22
361.67	2883.54
361.88	2889.68
362.09	3180.50
362.30	3100.62
362.51	2748.37
362.72	2861.01
362.93	3194.83
363.14	3045.33
363.35	2963.41
363.56	2762.71
363.78	3182.54
363.99	3135.44
364.20	2836.44
364.41	2865.11
364.62	3293.13
364.83	3074.00
365.04	2838.48
365.25	2805.72
365.46	3243.98
365.67	2893.78
365.88	2936.79
366.09	2775.00
366.30	2969.55
366.51	2906.07
366.72	2717.65
366.93	2844.63
367.14	3016.66
367.35	3270.61
367.56	2691.03
367.77	2912.21
367.98	3014.61
368.18	3055.57
368.39	2875.35
368.60	2772.95
368.81	3139.54
369.02	2996.18
369.23	2830.29
369.44	2666.46
369.65	2924.50
369.86	3012.56
370.07	2932.69
370.28	2670.55
370.49	3057.62
370.70	2977.75
370.91	2731.99
371.12	2650.07
371.33	3221.45
371.54	2904.02
371.75	2914.26
371.96	2555.86
372.17	3063.76
372.38	2959.31
372.59	2805.72
372.80	2772.95
373.01	2879.44
373.22	3012.56
373.43	2807.77
373.64	2662.36
373.85	3170.26
374.06	3155.92
374.26	2916.31
374.47	2926.55
374.68	3211.22
374.89	3041.23
375.10	2705.37
375.31	3004.37
375.52	2992.08
375.73	2936.79
375.94	2670.55
376.15	2938.84
376.36	2856.92
376.57	2879.44
376.78	2799.57
376.99	2818.00
377.20	3295.18
377.40	2983.89
377.61	3061.71
377.82	2820.05
378.03	3166.16
378.24	3084.24
378.45	2963.41
378.66	2871.25
378.87	2772.95
379.08	2740.18
379.29	2809.81
379.50	3020.75
379.71	2957.27
379.91	3098.58
380.12	2719.70
380.33	2916.31
380.54	2918.36
380.75	2957.27
380.96	2791.38
381.17	2873.30
381.38	3006.42
381.59	2959.31
381.80	2746.33
382.00	3008.47
382.21	2985.94
382.42	3280.85
382.63	3147.73
382.84	2951.12
383.05	3114.96
383.26	3233.74
383.47	2983.89
383.68	2795.48
383.88	2992.08
384.09	2955.22
384.30	3016.66
384.51	2867.16
384.72	2887.64
384.93	2824.15
385.14	2904.02
385.35	3074.00
385.55	2729.94
385.76	3182.54
385.97	2813.91
386.18	2678.74
386.39	2850.77
386.60	2854.87
386.81	2758.61
387.02	2697.17
387.22	2801.62
387.43	3043.28
387.64	2918.36
387.85	2987.99
388.06	3067.86
388.27	4007.87
388.48	7151.51
388.68	11093.85
388.89	13322.04
389.10	14589.73
389.31	14153.51
389.52	11145.05
389.73	9682.80
389.93	8925.05
390.14	8009.61
390.35	7321.49
390.56	6739.87
390.77	5679.02
390.98	4251.58
391.18	3608.52
391.39	3340.24
391.60	2947.03
391.81	3110.86
392.02	2912.21
392.23	3340.24
392.43	3041.23
392.64	2883.54
392.85	2885.59
393.06	3272.65
393.27	2920.40
393.47	2766.81
393.68	2848.72
393.89	2856.92
394.10	3129.30
394.31	2822.10
394.52	2731.99
394.72	2934.74
394.93	3194.83
395.14	2762.71
395.35	2961.36
395.56	2881.49
395.76	2975.70
395.97	2848.72
396.18	2992.08
396.39	3026.90
396.60	3585.99
396.80	3194.83
397.01	3063.76
397.22	3076.05
397.43	3205.07
397.64	2844.63
397.84	3014.61
398.05	3289.04
398.26	3006.42
398.47	2938.84
398.67	3030.99
398.88	3008.47
399.09	3133.39
399.30	2811.86
399.51	2936.79
399.71	2883.54
399.92	2983.89
400.13	2858.96
400.34	2797.53
400.54	2998.23
400.75	3219.41
400.96	2891.73
401.17	3137.49
401.37	3080.14
401.58	2869.20
401.79	2832.34
402.00	2985.94
402.21	3477.45
402.41	3121.10
402.62	3074.00
402.83	3246.03
403.04	3424.20
403.24	3626.95
403.45	3028.95
403.66	3094.48
403.87	3239.89
404.07	3188.69
404.28	3024.85
404.49	3172.30
404.70	3074.00
404.90	3030.99
405.11	2770.90
405.32	2926.55
405.52	2934.74
405.73	2854.87
405.94	2801.62
406.15	2850.77
406.35	3127.25
406.56	3098.58
406.77	2947.03
406.98	2858.96
407.18	2820.05
407.39	3336.14
407.60	2852.82
407.80	2944.98
408.01	2881.49
408.22	2994.13
408.43	2779.09
408.63	2908.12
408.84	3174.35
409.05	3162.06
409.25	2725.85
409.46	2891.73
409.67	2930.64
409.88	2846.68
410.08	2883.54
410.29	2801.62
410.50	3160.02
410.70	3133.39
410.91	2775.00
411.12	2795.48
411.32	2994.13
411.53	2807.77
411.74	2944.98
411.95	2875.35
412.15	3014.61
412.36	3096.53
412.57	2938.84
412.77	2938.84
412.98	2928.60
413.19	2885.59
413.39	2840.53
413.60	2897.88
413.81	3235.79
414.01	2818.00
414.22	2826.20
414.43	3047.38
414.63	2883.54
414.84	3137.49
415.05	2893.78
415.25	2682.84
415.46	3145.68
415.67	2910.16
415.87	2840.53
416.08	2781.14
416.29	2897.88
416.49	2992.08
416.70	2914.26
416.91	2811.86
417.11	2932.69
417.32	3074.00
417.53	2918.36
417.73	2875.35
417.94	2971.60
418.15	3057.62
418.35	2824.15
418.56	2791.38
418.77	3440.59
418.97	2996.18
419.18	2998.23
419.38	2555.86
419.59	2922.45
419.80	3250.13
420.00	2830.29
420.21	2869.20
420.42	3188.69
420.62	3104.72
420.83	2871.25
421.04	2793.43
421.24	2928.60
421.45	3067.86
421.65	2832.34
421.86	2904.02
422.07	3157.97
422.27	3098.58
422.48	2750.42
422.69	2664.41
422.89	2965.46
423.10	2985.94
423.30	2797.53
423.51	2885.59
423.72	3071.95
423.92	3160.02
424.13	2705.37
424.33	2875.35
424.54	3129.30
424.75	3018.71
424.95	3063.76
425.16	2834.39
425.36	2879.44
425.57	3209.17
425.78	2961.36
425.98	2955.22
426.19	3010.51
426.39	2869.20
426.60	3006.42
426.81	2983.89
427.01	3078.10
427.22	2865.11
427.42	2707.41
427.63	2717.65
427.83	3170.26
428.04	3305.42
428.25	2867.16
428.45	2942.93
428.66	3112.91
428.86	2965.46
429.07	2873.30
429.28	2955.22
429.48	2959.31
429.69	2883.54
429.89	2912.21
430.10	2785.24
430.30	3162.06
430.51	3239.89
430.71	2742.23
430.92	2818.00
431.13	2856.92
431.33	3084.24
431.54	2893.78
431.74	3100.62
431.95	3307.47
432.15	2820.05
432.36	2871.25
432.56	2897.88
432.77	3401.68
432.98	3354.57
433.18	2883.54
433.39	2688.98
433.59	2920.40
433.80	3207.12
434.00	2998.23
434.21	2811.86
434.41	2914.26
434.62	3411.92
434.82	2740.18
435.03	2746.33
435.23	3016.66
435.44	2660.31
435.64	2852.82
435.85	2934.74
436.06	3143.63
436.26	3049.43
436.47	2815.96
436.67	2742.23
436.88	2904.02
437.08	3071.95
437.29	2979.79
437.49	2971.60
437.70	3190.74
437.90	2910.16
438.11	3121.10
438.31	2867.16
438.52	3137.49
438.72	3256.27
438.93	3157.97
439.13	3006.42
439.34	3084.24
439.54	2987.99
439.75	2959.31
439.95	2922.45
440.16	2781.14
440.36	3033.04
440.57	2852.82
440.77	2906.07
440.98	3063.76
441.18	3080.14
441.39	2738.13
441.59	2775.00
441.80	3362.76
442.00	2940.88
442.21	2959.31
442.41	2754.52
442.62	3121.10
442.82	2904.02
443.02	2869.20
443.23	2811.86
443.43	2963.41
443.64	3186.64
443.84	2775.00
444.05	3016.66
444.25	3000.27
444.46	2916.31
444.66	2885.59
444.87	3020.75
445.07	2715.61
445.28	2947.03
445.48	3043.28
445.69	2893.78
445.89	3481.55
446.09	2932.69
446.30	3198.93
446.50	3151.82
446.71	4804.53
446.91	5719.98
447.12	6567.84
447.32	6965.14
447.53	6887.32
447.73	5670.83
447.93	4960.18
448.14	4763.58
448.34	4835.25
448.55	4214.72
448.75	3975.11
448.96	3934.15
449.16	3643.34
449.36	3516.36
449.57	3059.67
449.77	2879.44
449.98	2885.59
450.18	3092.43
450.39	2881.49
450.59	2998.23
450.79	3037.14
451.00	2953.17
451.20	3076.05
451.41	2799.57
451.61	3131.34
451.81	2971.60
452.02	2770.90
452.22	2873.30
452.43	2885.59
452.63	2908.12
