SpectraSuite Data File
++++++++++++++++++++++++++++++++++++
Date: Thu May 05 21:11:20 CEST 2016
User: root
Dark Spectrum Present: No
Reference Spectrum Present: No
Number of Sampled Component Spectra: 1
Spectrometers: USB4C02835
Integration Time (usec): 100000 (USB4C02835)
Spectra Averaged: 1 (USB4C02835)
Boxcar Smoothing: 0 (USB4C02835)
Correct for Electrical Dark: No (USB4C02835)
Strobe/Lamp Enabled: No (USB4C02835)
Correct for Detector Non-linearity: No (USB4C02835)
Correct for Stray Light: No (USB4C02835)
Number of Pixels in Processed Spectrum: 3648
>>>>>Begin Processed Spectral Data<<<<<
177.47	2144.22
177.69	2144.22
177.91	2144.22
178.13	2121.70
178.36	2084.83
178.58	2791.38
178.80	2985.94
179.02	2811.86
179.24	2822.10
179.46	2625.50
179.68	2725.85
179.90	2877.40
180.13	3041.23
180.35	2533.34
180.57	2613.21
180.79	3143.63
181.01	2920.40
181.23	2709.46
181.45	2846.68
181.67	3162.06
181.90	3063.76
182.12	2758.61
182.34	2504.67
182.56	3076.05
182.78	3117.01
183.00	2686.94
183.22	2750.42
183.44	2725.85
183.66	3540.94
183.89	2822.10
184.11	2705.37
184.33	3149.78
184.55	3262.41
184.77	2693.08
184.99	2674.65
185.21	2932.69
185.43	3330.00
185.65	2637.78
185.87	2648.02
186.10	3370.96
186.32	3471.31
186.54	2797.53
186.76	2772.95
186.98	3157.97
187.20	2928.60
187.42	2723.80
187.64	2709.46
187.86	3110.86
188.08	3141.58
188.30	2584.54
188.52	2721.75
188.75	3233.74
188.97	3196.88
189.19	2676.70
189.41	2586.58
189.63	3125.20
189.85	2904.02
190.07	2576.34
190.29	2523.10
190.51	3043.28
190.73	2770.90
190.95	2830.29
191.17	2691.03
191.39	2744.28
191.61	2957.27
191.84	2686.94
192.06	2717.65
192.28	2736.09
192.50	3528.65
192.72	2766.81
192.94	2756.57
193.16	3229.65
193.38	3088.34
193.60	2553.82
193.82	2826.20
194.04	3119.06
194.26	3033.04
194.48	2715.61
194.70	2658.26
194.92	2877.40
195.14	3174.35
195.36	2650.07
195.58	2695.13
195.80	2922.45
196.02	2830.29
196.24	2670.55
196.46	2760.66
196.69	2787.29
196.91	3346.38
197.13	2740.18
197.35	2818.00
197.57	3272.65
197.79	3037.14
198.01	2750.42
198.23	2693.08
198.45	3037.14
198.67	2783.19
198.89	2471.90
199.11	2801.62
199.33	2861.01
199.55	2631.64
199.77	2652.12
199.99	2789.33
200.21	2901.97
200.43	3096.53
200.65	2572.25
200.87	2537.43
201.09	2895.83
201.31	2947.03
201.53	2752.47
201.75	2779.09
201.97	2975.70
202.19	3053.52
202.41	2664.41
202.63	2865.11
202.85	3106.77
203.07	3084.24
203.29	2684.89
203.51	2637.78
203.73	2850.77
203.95	3434.44
204.17	2682.84
204.39	2789.33
204.61	2963.41
204.83	2844.63
205.05	2830.29
205.27	2748.37
205.49	3395.53
205.71	2879.44
205.93	2619.35
206.15	2574.30
206.37	3030.99
206.59	2957.27
206.81	2619.35
207.03	2594.78
207.25	2834.39
207.47	3098.58
207.69	2731.99
207.91	2914.26
208.13	3286.99
208.34	2842.58
208.56	2582.49
208.78	2760.66
209.00	2877.40
209.22	2926.55
209.44	2736.09
209.66	2652.12
209.88	3059.67
210.10	2893.78
210.32	2596.82
210.54	2785.24
210.76	2930.64
210.98	3137.49
211.20	2547.67
211.42	2684.89
211.64	3121.10
211.86	3065.81
212.08	2854.87
212.30	2652.12
212.52	2887.64
212.74	3065.81
212.96	2711.51
213.17	2736.09
213.39	3135.44
213.61	3231.69
213.83	2676.70
214.05	2545.63
214.27	3188.69
214.49	2799.57
214.71	2672.60
214.93	2791.38
215.15	2924.50
215.37	3168.21
215.59	2533.34
215.81	2789.33
216.03	3260.37
216.24	2944.98
216.46	2617.30
216.68	2731.99
216.90	3188.69
217.12	3131.34
217.34	2605.02
217.56	2840.53
217.78	3299.28
218.00	3051.47
218.22	2801.62
218.44	2775.00
218.66	3026.90
218.87	3313.61
219.09	2727.89
219.31	2688.98
219.53	3049.43
219.75	2975.70
219.97	2656.22
220.19	2715.61
220.41	2957.27
220.63	3381.20
220.85	2713.56
221.06	2648.02
221.28	3319.76
221.50	3041.23
221.72	2621.40
221.94	2627.54
222.16	2981.84
222.38	3100.62
222.60	2637.78
222.82	2727.89
223.03	3133.39
223.25	2828.24
223.47	2713.56
223.69	2942.93
223.91	3127.25
224.13	3057.62
224.35	2627.54
224.57	2887.64
224.78	3149.78
225.00	2904.02
225.22	2734.04
225.44	2592.73
225.66	3080.14
225.88	2889.68
226.10	2797.53
226.32	2682.84
226.53	3196.88
226.75	2942.93
226.97	2787.29
227.19	2770.90
227.41	2867.16
227.63	2963.41
227.85	2441.18
228.06	2727.89
228.28	3028.95
228.50	3117.01
228.72	2582.49
228.94	2584.54
229.16	2705.37
229.37	2848.72
229.59	2625.50
229.81	2844.63
230.03	2938.84
230.25	2791.38
230.47	2562.01
230.69	2654.17
230.90	3157.97
231.12	2879.44
231.34	2756.57
231.56	2813.91
231.78	2770.90
232.00	2992.08
232.21	2727.89
232.43	2723.80
232.65	2711.51
232.87	3041.23
233.09	2545.63
233.30	2654.17
233.52	3209.17
233.74	2932.69
233.96	2643.93
234.18	2848.72
234.40	2965.46
234.61	3405.77
234.83	2535.39
235.05	2617.30
235.27	3362.76
235.49	3149.78
235.70	2584.54
235.92	2768.85
236.14	3125.20
236.36	3403.72
236.58	2500.57
236.79	2754.52
237.01	2926.55
237.23	2949.08
237.45	2942.93
237.67	2707.41
237.88	3020.75
238.10	3291.09
238.32	2590.68
238.54	2684.89
238.76	2951.12
238.97	2807.77
239.19	2586.58
239.41	2762.71
239.63	3217.36
239.85	2906.07
240.06	2658.26
240.28	2596.82
240.50	3233.74
240.72	3012.56
240.93	2535.39
241.15	2838.48
241.37	2963.41
241.59	3278.80
241.81	2703.32
242.02	2754.52
242.24	3098.58
242.46	3114.96
242.68	2471.90
242.89	2703.32
243.11	3047.38
243.33	2910.16
243.55	2748.37
243.76	2697.17
243.98	2850.77
244.20	2914.26
244.42	2715.61
244.64	2691.03
244.85	2828.24
245.07	2844.63
245.29	2676.70
245.51	2707.41
245.72	3049.43
245.94	3098.58
246.16	2664.41
246.38	2727.89
246.59	2856.92
246.81	2842.58
247.03	2580.44
247.24	2471.90
247.46	2889.68
247.68	3002.32
247.90	2557.91
248.11	2729.94
248.33	3006.42
248.55	2969.55
248.77	2766.81
248.98	2820.05
249.20	3299.28
249.42	3053.52
249.64	2727.89
249.85	2709.46
250.07	2924.50
250.29	3092.43
250.50	2697.17
250.72	2570.20
250.94	2990.03
251.16	3450.83
251.37	2711.51
251.59	2729.94
251.81	3045.33
252.02	3313.61
252.24	2596.82
252.46	2838.48
252.68	2891.73
252.89	2883.54
253.11	2572.25
253.33	2824.15
253.54	3309.52
253.76	2775.00
253.98	2721.75
254.20	2703.32
254.41	2762.71
254.63	3016.66
254.85	2557.91
255.06	2772.95
255.28	3039.19
255.50	2953.17
255.71	2648.02
255.93	2549.72
256.15	2865.11
256.36	3137.49
256.58	2662.36
256.80	2605.02
257.02	2985.94
257.23	2844.63
257.45	2750.42
257.67	2805.72
257.88	2895.83
258.10	3039.19
258.32	2682.84
258.53	2799.57
258.75	3225.55
258.97	2795.48
259.18	2621.40
259.40	2662.36
259.62	3311.57
259.83	3153.87
260.05	2625.50
260.27	3540.94
260.48	3039.19
260.70	2758.61
260.92	2623.45
261.13	2686.94
261.35	3049.43
261.57	3053.52
261.78	2639.83
262.00	2566.10
262.22	3043.28
262.43	2863.06
262.65	2719.70
262.86	2641.88
263.08	3368.91
263.30	3043.28
263.51	2617.30
263.73	2639.83
263.95	3217.36
264.16	2858.96
264.38	2607.06
264.60	2615.26
264.81	2979.79
265.03	3190.74
265.25	3022.80
265.46	2666.46
265.68	3241.93
265.89	3022.80
266.11	2512.86
266.33	2746.33
266.54	3192.78
266.76	2977.75
266.98	2781.14
267.19	2854.87
267.41	3162.06
267.62	2949.08
267.84	2531.29
268.06	2719.70
268.27	3049.43
268.49	3186.64
268.70	2660.31
268.92	2629.59
269.14	2838.48
269.35	2721.75
269.57	2727.89
269.79	2707.41
270.00	2834.39
270.22	3342.28
270.43	2625.50
270.65	2467.80
270.87	3000.27
271.08	3121.10
271.30	2760.66
271.51	2707.41
271.73	3071.95
271.95	3246.03
272.16	2619.35
272.38	2818.00
272.59	2961.36
272.81	3049.43
273.02	2635.74
273.24	2682.84
273.46	3114.96
273.67	2719.70
273.89	2562.01
274.10	2639.83
274.32	3180.50
274.54	3018.71
274.75	2766.81
274.97	2731.99
275.18	3108.82
275.40	3057.62
275.61	2762.71
275.83	2779.09
276.05	2775.00
276.26	2951.12
276.48	2801.62
276.69	2854.87
276.91	2826.20
277.12	3231.69
277.34	2883.54
277.55	2906.07
277.77	3096.53
277.99	3000.27
278.20	2738.13
278.42	2734.04
278.63	2867.16
278.85	2805.72
279.06	2715.61
279.28	2912.21
279.49	3229.65
279.71	3082.19
279.93	2854.87
280.14	2822.10
280.36	2848.72
280.57	3102.67
280.79	2889.68
281.00	2734.04
281.22	2783.19
281.43	3192.78
281.65	2625.50
281.86	2697.17
282.08	3063.76
282.29	3344.33
282.51	2725.85
282.73	2697.17
282.94	2711.51
283.16	3088.34
283.37	2930.64
283.59	2836.44
283.80	3016.66
284.02	3076.05
284.23	2875.35
284.45	2764.76
284.66	2836.44
284.88	2850.77
285.09	2723.80
285.31	2895.83
285.52	3127.25
285.74	2746.33
285.95	2930.64
286.17	2813.91
286.38	3180.50
286.60	2895.83
286.81	2762.71
287.03	2856.92
287.24	2996.18
287.46	3014.61
287.67	2895.83
287.89	3041.23
288.10	2977.75
288.32	3010.51
288.53	3002.32
288.75	2838.48
288.96	3102.67
289.18	2883.54
289.39	2762.71
289.61	2922.45
289.82	3428.30
290.04	3270.61
290.25	2705.37
290.47	2861.01
290.68	2977.75
290.90	3102.67
291.11	2703.32
291.33	2963.41
291.54	2918.36
291.76	2844.63
291.97	2936.79
292.18	2828.24
292.40	2918.36
292.61	2965.46
292.83	3033.04
293.04	2838.48
293.26	3096.53
293.47	3043.28
293.69	2695.13
293.90	2680.79
294.12	3303.37
294.33	2992.08
294.55	2887.64
294.76	2938.84
294.97	3219.41
295.19	3366.86
295.40	2842.58
295.62	2832.34
295.83	3063.76
296.05	2844.63
296.26	3006.42
296.48	2779.09
296.69	2975.70
296.90	2998.23
297.12	2920.40
297.33	2940.88
297.55	3059.67
297.76	3063.76
297.98	2904.02
298.19	2906.07
298.41	3024.85
298.62	2836.44
298.83	2992.08
299.05	2899.92
299.26	2867.16
299.48	2781.14
299.69	2904.02
299.90	2820.05
300.12	2742.23
300.33	3082.19
300.55	2815.96
300.76	2850.77
300.98	2822.10
301.19	3153.87
301.40	2861.01
301.62	2766.81
301.83	3057.62
302.05	2987.99
302.26	2717.65
302.47	2883.54
302.69	2822.10
302.90	3094.48
303.12	2547.67
303.33	2914.26
303.54	3250.13
303.76	2967.51
303.97	2705.37
304.19	3008.47
304.40	2869.20
304.61	2975.70
304.83	2887.64
305.04	2922.45
305.26	3071.95
305.47	2887.64
305.68	2783.19
305.90	2748.37
306.11	3102.67
306.33	2908.12
306.54	2688.98
306.75	2795.48
306.97	2762.71
307.18	2904.02
307.39	2744.28
307.61	2918.36
307.82	2897.88
308.04	2975.70
308.25	2674.65
308.46	2895.83
308.68	3022.80
308.89	2987.99
309.10	2973.65
309.32	2901.97
309.53	2932.69
309.74	3076.05
309.96	2744.28
310.17	2944.98
310.39	2895.83
310.60	3084.24
310.81	2832.34
311.03	2736.09
311.24	3080.14
311.45	3018.71
311.67	3041.23
311.88	2885.59
312.09	2920.40
312.31	2875.35
312.52	2729.94
312.73	2789.33
312.95	2820.05
313.16	2721.75
313.37	3022.80
313.59	2998.23
313.80	3059.67
314.01	3254.22
314.23	2740.18
314.44	2705.37
314.65	2803.67
314.87	2832.34
315.08	2834.39
315.29	2803.67
315.51	2850.77
315.72	2803.67
315.93	2914.26
316.15	2815.96
316.36	2906.07
316.57	2957.27
316.79	2889.68
317.00	2772.95
317.21	3119.06
317.43	2854.87
317.64	2852.82
317.85	2703.32
318.07	2861.01
318.28	2904.02
318.49	2926.55
318.70	3010.51
318.92	3045.33
319.13	3043.28
319.34	3006.42
319.56	2791.38
319.77	3080.14
319.98	3125.20
320.20	3047.38
320.41	2938.84
320.62	2979.79
320.83	2834.39
321.05	3035.09
321.26	2754.52
321.47	3061.71
321.69	3157.97
321.90	2725.85
322.11	2740.18
322.32	2985.94
322.54	3164.11
322.75	2787.29
322.96	3524.55
323.18	2680.79
323.39	2742.23
323.60	2660.31
323.81	2938.84
324.03	2936.79
324.24	2992.08
324.45	2906.07
324.66	2807.77
324.88	3317.71
325.09	3174.35
325.30	2777.05
325.52	2793.43
325.73	3157.97
325.94	2789.33
326.15	2750.42
326.37	2654.17
326.58	3117.01
326.79	3223.50
327.00	2709.46
327.22	2754.52
327.43	2940.88
327.64	2772.95
327.85	2983.89
328.07	2854.87
328.28	3297.23
328.49	2867.16
328.70	2797.53
328.92	2846.68
329.13	2861.01
329.34	3051.47
329.55	2928.60
329.76	2955.22
329.98	2908.12
330.19	3211.22
330.40	2883.54
330.61	2928.60
330.83	3069.91
331.04	2865.11
331.25	2887.64
331.46	2852.82
331.68	2799.57
331.89	3198.93
332.10	2885.59
332.31	2713.56
332.52	2893.78
332.74	3254.22
332.95	2611.16
333.16	2775.00
333.37	3176.40
333.58	2967.51
333.80	2832.34
334.01	2658.26
334.22	2922.45
334.43	2826.20
334.64	2748.37
334.86	2713.56
335.07	2856.92
335.28	3215.31
335.49	2682.84
335.70	2840.53
335.92	3166.16
336.13	3387.34
336.34	2904.02
336.55	2854.87
336.76	3098.58
336.98	2693.08
337.19	2875.35
337.40	2875.35
337.61	3456.97
337.82	2963.41
338.04	2910.16
338.25	2664.41
338.46	3022.80
338.67	2930.64
338.88	2709.46
339.09	2754.52
339.31	2959.31
339.52	2758.61
339.73	2703.32
339.94	2822.10
340.15	3059.67
340.36	2942.93
340.58	2865.11
340.79	2789.33
341.00	3106.77
341.21	2727.89
341.42	3078.10
341.63	2869.20
341.85	3094.48
342.06	2998.23
342.27	2797.53
342.48	2981.84
342.69	2721.75
342.90	3030.99
343.12	3088.34
343.33	2721.75
343.54	3125.20
343.75	3268.56
343.96	2807.77
344.17	2701.27
344.38	3004.37
344.60	2842.58
344.81	2768.85
345.02	2731.99
345.23	3196.88
345.44	3405.77
345.65	2889.68
345.86	2893.78
346.07	2975.70
346.29	2910.16
346.50	2949.08
346.71	2873.30
346.92	3248.08
347.13	3319.76
347.34	2838.48
347.55	2602.97
347.76	2957.27
347.98	2674.65
348.19	2861.01
348.40	2930.64
348.61	2899.92
348.82	3225.55
349.03	2871.25
349.24	2731.99
349.45	3264.46
349.66	2717.65
349.88	2797.53
350.09	2772.95
350.30	3176.40
350.51	3186.64
350.72	2951.12
350.93	2772.95
351.14	2942.93
351.35	3061.71
351.56	2818.00
351.77	2813.91
351.99	3106.77
352.20	3250.13
352.41	2955.22
352.62	2615.26
352.83	2961.36
353.04	2936.79
353.25	2820.05
353.46	2781.14
353.67	3219.41
353.88	2750.42
354.09	2676.70
354.30	2840.53
354.52	3047.38
354.73	2975.70
354.94	2754.52
355.15	2887.64
355.36	3229.65
355.57	2891.73
355.78	2744.28
355.99	2748.37
356.20	2889.68
356.41	3184.59
356.62	2854.87
356.83	2889.68
357.04	3143.63
357.25	2676.70
357.46	2770.90
357.68	2668.50
357.89	2787.29
358.10	2947.03
358.31	2750.42
358.52	2678.74
358.73	2736.09
358.94	2807.77
359.15	2723.80
359.36	2867.16
359.57	2906.07
359.78	2926.55
359.99	2983.89
360.20	2715.61
360.41	2987.99
360.62	3055.57
360.83	2850.77
361.04	2871.25
361.25	3030.99
361.46	3239.89
361.67	2926.55
361.88	2754.52
362.09	3102.67
362.30	3041.23
362.51	2744.28
362.72	2871.25
362.93	3086.29
363.14	3098.58
363.35	2834.39
363.56	2691.03
363.78	3149.78
363.99	3117.01
364.20	2686.94
364.41	2901.97
364.62	3262.41
364.83	3061.71
365.04	2826.20
365.25	2775.00
365.46	3356.62
365.67	2856.92
365.88	2922.45
366.09	2748.37
366.30	2922.45
366.51	2951.12
366.72	2715.61
366.93	2895.83
367.14	3086.29
367.35	3280.85
367.56	2742.23
367.77	2899.92
367.98	2981.84
368.18	3088.34
368.39	2959.31
368.60	2719.70
368.81	3080.14
369.02	3008.47
369.23	2815.96
369.44	2662.36
369.65	2912.21
369.86	3102.67
370.07	2940.88
370.28	2705.37
370.49	3043.28
370.70	3074.00
370.91	2684.89
371.12	2684.89
371.33	3221.45
371.54	2879.44
371.75	2912.21
371.96	2592.73
372.17	2940.88
372.38	2875.35
372.59	2830.29
372.80	2727.89
373.01	2920.40
373.22	3035.09
373.43	2813.91
373.64	2676.70
373.85	3280.85
374.06	3176.40
374.26	2977.75
374.47	2920.40
374.68	3186.64
374.89	3033.04
375.10	2770.90
375.31	2934.74
375.52	3022.80
375.73	3067.86
375.94	2643.93
376.15	2987.99
376.36	2879.44
376.57	2863.06
376.78	2848.72
376.99	2818.00
377.20	3205.07
377.40	2916.31
377.61	3055.57
377.82	2791.38
378.03	3233.74
378.24	3196.88
378.45	2910.16
378.66	2904.02
378.87	2742.23
379.08	2688.98
379.29	2758.61
379.50	2940.88
379.71	2940.88
379.91	3080.14
380.12	2871.25
380.33	2871.25
380.54	3012.56
380.75	2936.79
380.96	2752.47
381.17	2826.20
381.38	3010.51
381.59	2985.94
381.80	2879.44
382.00	3000.27
382.21	3041.23
382.42	3268.56
382.63	3114.96
382.84	2885.59
383.05	3041.23
383.26	3274.70
383.47	2971.60
383.68	2783.19
383.88	3092.43
384.09	3035.09
384.30	3074.00
384.51	2883.54
384.72	2867.16
384.93	2738.13
385.14	2891.73
385.35	3067.86
385.55	2752.47
385.76	3157.97
385.97	2824.15
386.18	2662.36
386.39	2887.64
386.60	2920.40
386.81	2760.66
387.02	2762.71
387.22	2744.28
387.43	3041.23
387.64	2926.55
387.85	3045.33
388.06	3067.86
388.27	4061.12
388.48	7272.34
388.68	10800.99
388.89	13125.43
389.10	14495.52
389.31	13815.60
389.52	11050.84
389.73	9645.93
389.93	8898.42
390.14	8028.04
390.35	7399.31
390.56	6791.06
390.77	5609.39
390.98	4364.22
391.18	3633.10
391.39	3479.50
391.60	2963.41
391.81	3035.09
392.02	2861.01
392.23	3405.77
392.43	3063.76
392.64	2940.88
392.85	2863.06
393.06	3258.32
393.27	3020.75
393.47	2777.05
393.68	2936.79
393.89	2914.26
394.10	3147.73
394.31	2822.10
394.52	2822.10
394.72	2920.40
394.93	3260.37
395.14	2717.65
395.35	2951.12
395.56	2826.20
395.76	2895.83
395.97	2793.43
396.18	2914.26
396.39	3014.61
396.60	3551.18
396.80	3143.63
397.01	3033.04
397.22	3104.72
397.43	3221.45
397.64	2830.29
397.84	2897.88
398.05	3334.09
398.26	2992.08
398.47	2936.79
398.67	2977.75
398.88	2973.65
399.09	3129.30
399.30	2885.59
399.51	2924.50
399.71	2856.92
399.92	3008.47
400.13	2922.45
400.34	2848.72
400.54	3016.66
400.75	3387.34
400.96	2940.88
401.17	3102.67
401.37	3127.25
401.58	3028.95
401.79	2863.06
402.00	2912.21
402.21	3307.47
402.41	3090.38
402.62	3080.14
402.83	3215.31
403.04	3407.82
403.24	3678.15
403.45	2885.59
403.66	3160.02
403.87	3178.45
404.07	3327.95
404.28	3037.14
404.49	3096.53
404.70	3002.32
404.90	3028.95
405.11	2840.53
405.32	2881.49
405.52	2897.88
405.73	2879.44
405.94	2797.53
406.15	2858.96
406.35	3143.63
406.56	3110.86
406.77	2871.25
406.98	2881.49
407.18	2881.49
407.39	3297.23
407.60	2885.59
407.80	2869.20
408.01	2916.31
408.22	2971.60
408.43	2772.95
408.63	2957.27
408.84	3112.91
409.05	3123.15
409.25	2781.14
409.46	2854.87
409.67	2934.74
409.88	2901.97
410.08	2922.45
410.29	2861.01
410.50	3149.78
410.70	3049.43
410.91	2754.52
411.12	2869.20
411.32	3033.04
411.53	2764.76
411.74	2889.68
411.95	2885.59
412.15	3012.56
412.36	3102.67
412.57	3004.37
412.77	2955.22
412.98	2938.84
413.19	2922.45
413.39	2932.69
413.60	2850.77
413.81	3129.30
414.01	2815.96
414.22	2822.10
414.43	2983.89
414.63	2938.84
414.84	3125.20
415.05	2844.63
415.25	2656.22
415.46	3194.83
415.67	2858.96
415.87	2858.96
416.08	2815.96
416.29	2897.88
416.49	3137.49
416.70	2871.25
416.91	2856.92
417.11	2895.83
417.32	3194.83
417.53	2951.12
417.73	3026.90
417.94	2904.02
418.15	2994.13
418.35	2899.92
418.56	2858.96
418.77	3401.68
418.97	3110.86
419.18	2893.78
419.38	2496.47
419.59	2985.94
419.80	3203.02
420.00	2838.48
420.21	2865.11
420.42	3229.65
420.62	3016.66
420.83	2813.91
421.04	2865.11
421.24	2873.30
421.45	3147.73
421.65	2942.93
421.86	2850.77
422.07	3110.86
422.27	3076.05
422.48	2758.61
422.69	2678.74
422.89	2959.31
423.10	2985.94
423.30	2760.66
423.51	2852.82
423.72	3049.43
423.92	3117.01
424.13	2746.33
424.33	2887.64
424.54	3028.95
424.75	3012.56
424.95	3067.86
425.16	2777.05
425.36	2938.84
425.57	3123.15
425.78	2934.74
425.98	2885.59
426.19	2940.88
426.39	2750.42
426.60	2869.20
426.81	3045.33
427.01	3049.43
427.22	2822.10
427.42	2713.56
427.63	2760.66
427.83	3243.98
428.04	3176.40
428.25	2848.72
428.45	2965.46
428.66	3194.83
428.86	2969.55
429.07	2858.96
429.28	2875.35
429.48	3049.43
429.69	2811.86
429.89	2883.54
430.10	2674.65
430.30	3180.50
430.51	3135.44
430.71	2762.71
430.92	2928.60
431.13	2881.49
431.33	3088.34
431.54	2908.12
431.74	3086.29
431.95	3413.96
432.15	2914.26
432.36	2942.93
432.56	2951.12
432.77	3397.58
432.98	3280.85
433.18	2914.26
433.39	2748.37
433.59	2936.79
433.80	3401.68
434.00	3039.19
434.21	2867.16
434.41	2793.43
434.62	3391.44
434.82	2691.03
435.03	2746.33
435.23	3067.86
435.44	2760.66
435.64	2768.85
435.85	2856.92
436.06	3176.40
436.26	3203.02
436.47	2947.03
436.67	2850.77
436.88	2934.74
437.08	3229.65
437.29	2959.31
437.49	2836.44
437.70	3180.50
437.90	2951.12
438.11	3069.91
438.31	2930.64
438.52	3194.83
438.72	3196.88
438.93	3170.26
439.13	2899.92
439.34	3139.54
439.54	2877.40
439.75	2975.70
439.95	2899.92
440.16	2824.15
440.36	2971.60
440.57	2793.43
440.77	2852.82
440.98	2979.79
441.18	3004.37
441.39	2801.62
441.59	2731.99
441.80	3364.81
442.00	2955.22
442.21	2904.02
442.41	2742.23
442.62	3207.12
442.82	2838.48
443.02	2752.47
443.23	2805.72
443.43	2908.12
443.64	3176.40
443.84	2725.85
444.05	2934.74
444.25	2961.36
444.46	2996.18
444.66	2912.21
444.87	3090.38
445.07	2758.61
445.28	2912.21
445.48	2979.79
445.69	2920.40
445.89	3342.28
446.09	2951.12
446.30	3131.34
446.50	3211.22
446.71	4739.00
446.91	5656.49
447.12	6457.25
447.32	6891.41
447.53	6825.88
447.73	5636.01
447.93	4945.84
448.14	4704.18
448.34	4784.06
448.55	3999.68
448.75	3950.53
448.96	3796.93
449.16	3635.14
449.36	3506.12
449.57	3086.29
449.77	2979.79
449.98	2957.27
450.18	3117.01
450.39	2836.44
450.59	2963.41
450.79	3090.38
451.00	2865.11
451.20	2969.55
451.41	2791.38
451.61	3096.53
451.81	3028.95
452.02	2836.44
452.22	2885.59
452.43	2938.84
452.63	2891.73
