SpectraSuite Data File
++++++++++++++++++++++++++++++++++++
Date: Thu May 05 21:11:26 CEST 2016
User: root
Dark Spectrum Present: No
Reference Spectrum Present: No
Number of Sampled Component Spectra: 1
Spectrometers: USB4C02835
Integration Time (usec): 100000 (USB4C02835)
Spectra Averaged: 1 (USB4C02835)
Boxcar Smoothing: 0 (USB4C02835)
Correct for Electrical Dark: No (USB4C02835)
Strobe/Lamp Enabled: No (USB4C02835)
Correct for Detector Non-linearity: No (USB4C02835)
Correct for Stray Light: No (USB4C02835)
Number of Pixels in Processed Spectrum: 3648
>>>>>Begin Processed Spectral Data<<<<<
177.47	2234.33
177.69	2234.33
177.91	2234.33
178.13	2123.74
178.36	2187.23
178.58	2809.81
178.80	2854.87
179.02	2752.47
179.24	2791.38
179.46	2676.70
179.68	2729.94
179.90	3037.14
180.13	2936.79
180.35	2488.28
180.57	2658.26
180.79	3121.10
181.01	2893.78
181.23	2766.81
181.45	2815.96
181.67	3123.15
181.90	3147.73
182.12	2764.76
182.34	2502.62
182.56	3151.82
182.78	3092.43
183.00	2670.55
183.22	2713.56
183.44	2752.47
183.66	3450.83
183.89	2813.91
184.11	2721.75
184.33	3121.10
184.55	3119.06
184.77	2611.16
184.99	2746.33
185.21	2912.21
185.43	3524.55
185.65	2639.83
185.87	2588.63
186.10	3375.05
186.32	3364.81
186.54	2756.57
186.76	2803.67
186.98	3211.22
187.20	2916.31
187.42	2754.52
187.64	2635.74
187.86	3063.76
188.08	3117.01
188.30	2627.54
188.52	2815.96
188.75	3155.92
188.97	3190.74
189.19	2660.31
189.41	2664.41
189.63	3041.23
189.85	2916.31
190.07	2578.39
190.29	2512.86
190.51	3076.05
190.73	2715.61
190.95	2836.44
191.17	2738.13
191.39	2742.23
191.61	2998.23
191.84	2672.60
192.06	2805.72
192.28	2846.68
192.50	3567.56
192.72	2838.48
192.94	2777.05
193.16	3092.43
193.38	3065.81
193.60	2598.87
193.82	2824.15
194.04	3239.89
194.26	2994.13
194.48	2648.02
194.70	2691.03
194.92	2867.16
195.14	3104.72
195.36	2674.65
195.58	2746.33
195.80	3020.75
196.02	2793.43
196.24	2664.41
196.46	2764.76
196.69	2977.75
196.91	3401.68
197.13	2775.00
197.35	2762.71
197.57	3307.47
197.79	3129.30
198.01	2781.14
198.23	2775.00
198.45	3033.04
198.67	2824.15
198.89	2498.52
199.11	2801.62
199.33	2914.26
199.55	2654.17
199.77	2635.74
199.99	2807.77
200.21	2877.40
200.43	3086.29
200.65	2523.10
200.87	2617.30
201.09	2990.03
201.31	2916.31
201.53	2703.32
201.75	2781.14
201.97	3030.99
202.19	3016.66
202.41	2766.81
202.63	2738.13
202.85	3037.14
203.07	3076.05
203.29	2766.81
203.51	2617.30
203.73	2830.29
203.95	3518.41
204.17	2662.36
204.39	2861.01
204.61	2932.69
204.83	2944.98
205.05	2840.53
205.27	2740.18
205.49	3405.77
205.71	2983.89
205.93	2562.01
206.15	2625.50
206.37	3016.66
206.59	2992.08
206.81	2525.15
207.03	2566.10
207.25	2789.33
207.47	3069.91
207.69	2697.17
207.91	2967.51
208.13	3178.45
208.34	2881.49
208.56	2590.68
208.78	2641.88
209.00	2863.06
209.22	2967.51
209.44	2658.26
209.66	2686.94
209.88	2947.03
210.10	2899.92
210.32	2699.22
210.54	2820.05
210.76	2928.60
210.98	3135.44
211.20	2596.82
211.42	2772.95
211.64	3229.65
211.86	3108.82
212.08	2746.33
212.30	2691.03
212.52	2975.70
212.74	3133.39
212.96	2668.50
213.17	2770.90
213.39	3127.25
213.61	3325.90
213.83	2684.89
214.05	2617.30
214.27	3131.34
214.49	2842.58
214.71	2621.40
214.93	2762.71
215.15	3010.51
215.37	3141.58
215.59	2553.82
215.81	2734.04
216.03	3182.54
216.24	3033.04
216.46	2701.27
216.68	2750.42
216.90	3112.91
217.12	3131.34
217.34	2598.87
217.56	2887.64
217.78	3223.50
218.00	3098.58
218.22	2734.04
218.44	2752.47
218.66	3102.67
218.87	3405.77
219.09	2738.13
219.31	2752.47
219.53	3059.67
219.75	2885.59
219.97	2707.41
220.19	2707.41
220.41	3010.51
220.63	3291.09
220.85	2715.61
221.06	2717.65
221.28	3192.78
221.50	3106.77
221.72	2666.46
221.94	2678.74
222.16	3004.37
222.38	3145.68
222.60	2762.71
222.82	2750.42
223.03	3143.63
223.25	2840.53
223.47	2684.89
223.69	2930.64
223.91	3125.20
224.13	2992.08
224.35	2615.26
224.57	2928.60
224.78	3176.40
225.00	2793.43
225.22	2799.57
225.44	2631.64
225.66	3074.00
225.88	2957.27
226.10	2787.29
226.32	2680.79
226.53	3256.27
226.75	2920.40
226.97	2799.57
227.19	2674.65
227.41	2826.20
227.63	2811.86
227.85	2549.72
228.06	2715.61
228.28	3082.19
228.50	3143.63
228.72	2592.73
228.94	2652.12
229.16	2695.13
229.37	2707.41
229.59	2650.07
229.81	2899.92
230.03	2944.98
230.25	2766.81
230.47	2557.91
230.69	2707.41
230.90	3248.08
231.12	2887.64
231.34	2764.76
231.56	2764.76
231.78	2822.10
232.00	3102.67
232.21	2609.11
232.43	2754.52
232.65	2672.60
232.87	3094.48
233.09	2568.15
233.30	2568.15
233.52	3190.74
233.74	2969.55
233.96	2666.46
234.18	2815.96
234.40	2949.08
234.61	3344.33
234.83	2666.46
235.05	2572.25
235.27	3428.30
235.49	3164.11
235.70	2576.34
235.92	2717.65
236.14	3123.15
236.36	3422.16
236.58	2539.48
236.79	2854.87
237.01	3074.00
237.23	2953.17
237.45	2906.07
237.67	2715.61
237.88	3119.06
238.10	3307.47
238.32	2648.02
238.54	2660.31
238.76	2953.17
238.97	2818.00
239.19	2594.78
239.41	2830.29
239.63	3176.40
239.85	2899.92
240.06	2684.89
240.28	2725.85
240.50	3184.59
240.72	3020.75
240.93	2602.97
241.15	2799.57
241.37	2936.79
241.59	3168.21
241.81	2668.50
242.02	2801.62
242.24	3010.51
242.46	3119.06
242.68	2568.15
242.89	2631.64
243.11	3219.41
243.33	2992.08
243.55	2666.46
243.76	2754.52
243.98	2910.16
244.20	2979.79
244.42	2709.46
244.64	2678.74
244.85	2715.61
245.07	2770.90
245.29	2750.42
245.51	2701.27
245.72	3016.66
245.94	3074.00
246.16	2645.98
246.38	2770.90
246.59	2828.24
246.81	2881.49
247.03	2660.31
247.24	2582.49
247.46	2865.11
247.68	3074.00
247.90	2652.12
248.11	2758.61
248.33	3037.14
248.55	2983.89
248.77	2721.75
248.98	2709.46
249.20	3180.50
249.42	3028.95
249.64	2631.64
249.85	2658.26
250.07	2820.05
250.29	3135.44
250.50	2818.00
250.72	2600.92
250.94	3053.52
251.16	3385.29
251.37	2584.54
251.59	2799.57
251.81	3039.19
252.02	3213.26
252.24	2691.03
252.46	2754.52
252.68	2836.44
252.89	2908.12
253.11	2555.86
253.33	2850.77
253.54	3274.70
253.76	2809.81
253.98	2752.47
254.20	2701.27
254.41	2752.47
254.63	3033.04
254.85	2547.67
255.06	2848.72
255.28	3074.00
255.50	2858.96
255.71	2627.54
255.93	2549.72
256.15	2930.64
256.36	3098.58
256.58	2557.91
256.80	2631.64
257.02	2994.13
257.23	2914.26
257.45	2693.08
257.67	2772.95
257.88	2895.83
258.10	3045.33
258.32	2705.37
258.53	2727.89
258.75	3317.71
258.97	2826.20
259.18	2592.73
259.40	2676.70
259.62	3254.22
259.83	3282.89
260.05	2678.74
260.27	3471.31
260.48	3155.92
260.70	2875.35
260.92	2576.34
261.13	2705.37
261.35	3012.56
261.57	3037.14
261.78	2633.69
262.00	2650.07
262.22	3063.76
262.43	2867.16
262.65	2734.04
262.86	2793.43
263.08	3405.77
263.30	3063.76
263.51	2541.53
263.73	2754.52
263.95	3246.03
264.16	2772.95
264.38	2576.34
264.60	2660.31
264.81	2916.31
265.03	3112.91
265.25	3014.61
265.46	2619.35
265.68	3219.41
265.89	3024.85
266.11	2568.15
266.33	2668.50
266.54	3117.01
266.76	3098.58
266.98	2760.66
267.19	2834.39
267.41	3213.26
267.62	2953.17
267.84	2494.43
268.06	2777.05
268.27	3078.10
268.49	3233.74
268.70	2660.31
268.92	2656.22
269.14	2832.34
269.35	2729.94
269.57	2768.85
269.79	2744.28
270.00	2887.64
270.22	3291.09
270.43	2590.68
270.65	2562.01
270.87	3055.57
271.08	3063.76
271.30	2885.59
271.51	2699.22
271.73	3035.09
271.95	3211.22
272.16	2711.51
272.38	2875.35
272.59	2897.88
272.81	3080.14
273.02	2686.94
273.24	2775.00
273.46	3084.24
273.67	2863.06
273.89	2588.63
274.10	2664.41
274.32	3110.86
274.54	2981.84
274.75	2729.94
274.97	2756.57
275.18	3082.19
275.40	3069.91
275.61	2725.85
275.83	2910.16
276.05	2766.81
276.26	2828.24
276.48	2748.37
276.69	2838.48
276.91	2877.40
277.12	3248.08
277.34	2826.20
277.55	3020.75
277.77	3074.00
277.99	2992.08
278.20	2783.19
278.42	2678.74
278.63	2957.27
278.85	2787.29
279.06	2717.65
279.28	2934.74
279.49	3143.63
279.71	3090.38
279.93	2861.01
280.14	2793.43
280.36	2832.34
280.57	3114.96
280.79	2836.44
281.00	2682.84
281.22	2881.49
281.43	3164.11
281.65	2576.34
281.86	2717.65
282.08	3164.11
282.29	3385.29
282.51	2639.83
282.73	2723.80
282.94	2770.90
283.16	3106.77
283.37	2834.39
283.59	2799.57
283.80	3088.34
284.02	3088.34
284.23	2840.53
284.45	2873.30
284.66	2856.92
284.88	2885.59
285.09	2801.62
285.31	2881.49
285.52	3030.99
285.74	2666.46
285.95	2977.75
286.17	2858.96
286.38	3145.68
286.60	2932.69
286.81	2777.05
287.03	2758.61
287.24	2910.16
287.46	3129.30
287.67	2918.36
287.89	3037.14
288.10	3039.19
288.32	3020.75
288.53	3014.61
288.75	2820.05
288.96	3141.58
289.18	2889.68
289.39	2672.60
289.61	2856.92
289.82	3315.66
290.04	3399.63
290.25	2598.87
290.47	2826.20
290.68	2940.88
290.90	3117.01
291.11	2631.64
291.33	3010.51
291.54	2807.77
291.76	2891.73
291.97	2844.63
292.18	2918.36
292.40	2981.84
292.61	2820.05
292.83	3053.52
293.04	2850.77
293.26	3074.00
293.47	2879.44
293.69	2734.04
293.90	2717.65
294.12	3209.17
294.33	2969.55
294.55	2783.19
294.76	3028.95
294.97	3252.17
295.19	3389.39
295.40	2777.05
295.62	2807.77
295.83	3139.54
296.05	2877.40
296.26	2965.46
296.48	2752.47
296.69	2932.69
296.90	2936.79
297.12	2883.54
297.33	3041.23
297.55	2942.93
297.76	3061.71
297.98	2871.25
298.19	2930.64
298.41	2908.12
298.62	2846.68
298.83	2975.70
299.05	2916.31
299.26	2901.97
299.48	2799.57
299.69	2838.48
299.90	2848.72
300.12	2836.44
300.33	3114.96
300.55	2865.11
300.76	2895.83
300.98	2818.00
301.19	3076.05
301.40	2779.09
301.62	2787.29
301.83	3063.76
302.05	3080.14
302.26	2844.63
302.47	2846.68
302.69	2856.92
302.90	2996.18
303.12	2627.54
303.33	2963.41
303.54	3319.76
303.76	2854.87
303.97	2838.48
304.19	2994.13
304.40	2895.83
304.61	3198.93
304.83	2944.98
305.04	2865.11
305.26	3035.09
305.47	3004.37
305.68	2807.77
305.90	2682.84
306.11	3229.65
306.33	2977.75
306.54	2652.12
306.75	2789.33
306.97	2799.57
307.18	2867.16
307.39	2807.77
307.61	2922.45
307.82	2906.07
308.04	2992.08
308.25	2660.31
308.46	2893.78
308.68	2959.31
308.89	2936.79
309.10	2942.93
309.32	2893.78
309.53	2936.79
309.74	3043.28
309.96	2717.65
310.17	2932.69
310.39	2924.50
310.60	3155.92
310.81	2844.63
311.03	2682.84
311.24	3125.20
311.45	2979.79
311.67	3092.43
311.88	2879.44
312.09	2897.88
312.31	2879.44
312.52	2775.00
312.73	2795.48
312.95	2736.09
313.16	2813.91
313.37	3012.56
313.59	2926.55
313.80	3114.96
314.01	3305.42
314.23	2791.38
314.44	2752.47
314.65	2758.61
314.87	2842.58
315.08	2680.79
315.29	2795.48
315.51	2861.01
315.72	2711.51
315.93	2947.03
316.15	2875.35
316.36	2822.10
316.57	3035.09
316.79	2877.40
317.00	2848.72
317.21	3022.80
317.43	2805.72
317.64	2854.87
317.85	2746.33
318.07	2901.97
318.28	2920.40
318.49	2891.73
318.70	2969.55
318.92	3086.29
319.13	3071.95
319.34	2998.23
319.56	2766.81
319.77	3143.63
319.98	3112.91
320.20	3057.62
320.41	2910.16
320.62	3061.71
320.83	2758.61
321.05	3069.91
321.26	2887.64
321.47	2973.65
321.69	3192.78
321.90	2725.85
322.11	2731.99
322.32	2949.08
322.54	3198.93
322.75	2758.61
322.96	3596.23
323.18	2713.56
323.39	2729.94
323.60	2775.00
323.81	2883.54
324.03	2822.10
324.24	2990.03
324.45	2914.26
324.66	2701.27
324.88	3264.46
325.09	3227.60
325.30	2815.96
325.52	2799.57
325.73	2981.84
325.94	2818.00
326.15	2623.45
326.37	2691.03
326.58	3104.72
326.79	3215.31
327.00	2715.61
327.22	2828.24
327.43	2944.98
327.64	2813.91
327.85	2904.02
328.07	2856.92
328.28	3342.28
328.49	2906.07
328.70	2793.43
328.92	2781.14
329.13	2924.50
329.34	3123.15
329.55	3069.91
329.76	2942.93
329.98	2885.59
330.19	3174.35
330.40	2772.95
330.61	2983.89
330.83	3096.53
331.04	2877.40
331.25	2852.82
331.46	2775.00
331.68	2768.85
331.89	3182.54
332.10	2826.20
332.31	2729.94
332.52	2967.51
332.74	3219.41
332.95	2695.13
333.16	2762.71
333.37	3141.58
333.58	2926.55
333.80	2803.67
334.01	2641.88
334.22	2963.41
334.43	2832.34
334.64	2762.71
334.86	2639.83
335.07	2768.85
335.28	3282.89
335.49	2699.22
335.70	2869.20
335.92	3178.45
336.13	3356.62
336.34	2918.36
336.55	2734.04
336.76	3198.93
336.98	2656.22
337.19	2852.82
337.40	2944.98
337.61	3483.59
337.82	2936.79
338.04	2873.30
338.25	2627.54
338.46	2979.79
338.67	2992.08
338.88	2764.76
339.09	2760.66
339.31	2889.68
339.52	2758.61
339.73	2705.37
339.94	2799.57
340.15	3117.01
340.36	2901.97
340.58	2865.11
340.79	2740.18
341.00	3129.30
341.21	2838.48
341.42	3074.00
341.63	2688.98
341.85	3084.24
342.06	3117.01
342.27	2809.81
342.48	2916.31
342.69	2799.57
342.90	3092.43
343.12	3143.63
343.33	2768.85
343.54	3139.54
343.75	3223.50
343.96	2834.39
344.17	2686.94
344.38	2992.08
344.60	2854.87
344.81	2662.36
345.02	2795.48
345.23	3151.82
345.44	3413.96
345.65	2865.11
345.86	2871.25
346.07	2957.27
346.29	2932.69
346.50	2959.31
346.71	2924.50
346.92	3248.08
347.13	3381.20
347.34	2856.92
347.55	2740.18
347.76	3059.67
347.98	2783.19
348.19	2832.34
348.40	2969.55
348.61	2865.11
348.82	3241.93
349.03	2861.01
349.24	2707.41
349.45	3368.91
349.66	2619.35
349.88	2779.09
350.09	2725.85
350.30	3289.04
350.51	3276.75
350.72	2957.27
350.93	2783.19
351.14	2971.60
351.35	3022.80
351.56	2830.29
351.77	2830.29
351.99	3164.11
352.20	3260.37
352.41	2967.51
352.62	2627.54
352.83	2895.83
353.04	2953.17
353.25	2762.71
353.46	2885.59
353.67	3145.68
353.88	2641.88
354.09	2719.70
354.30	2842.58
354.52	3168.21
354.73	2983.89
354.94	2787.29
355.15	2883.54
355.36	3293.13
355.57	2854.87
355.78	2760.66
355.99	2752.47
356.20	2955.22
356.41	3145.68
356.62	2836.44
356.83	2832.34
357.04	3280.85
357.25	2754.52
357.46	2877.40
357.68	2615.26
357.89	2887.64
358.10	3028.95
358.31	2842.58
358.52	2846.68
358.73	2762.71
358.94	2822.10
359.15	2764.76
359.36	2875.35
359.57	3026.90
359.78	2959.31
359.99	3022.80
360.20	2680.79
360.41	3008.47
360.62	3100.62
360.83	2885.59
361.04	2904.02
361.25	3030.99
361.46	3205.07
361.67	2891.73
361.88	2848.72
362.09	3176.40
362.30	3010.51
362.51	2672.60
362.72	2832.34
362.93	3135.44
363.14	3069.91
363.35	2850.77
363.56	2742.23
363.78	3133.39
363.99	3149.78
364.20	2772.95
364.41	2822.10
364.62	3336.14
364.83	3012.56
365.04	2842.58
365.25	2906.07
365.46	3344.33
365.67	2873.30
365.88	2881.49
366.09	2834.39
366.30	3012.56
366.51	3028.95
366.72	2744.28
366.93	2809.81
367.14	3047.38
367.35	3289.04
367.56	2746.33
367.77	2973.65
367.98	2985.94
368.18	3037.14
368.39	2947.03
368.60	2793.43
368.81	3104.72
369.02	3100.62
369.23	2852.82
369.44	2693.08
369.65	2895.83
369.86	3051.47
370.07	2916.31
370.28	2721.75
370.49	3055.57
370.70	3061.71
370.91	2711.51
371.12	2684.89
371.33	3211.22
371.54	2852.82
371.75	2932.69
371.96	2521.05
372.17	3002.32
372.38	2858.96
372.59	2840.53
372.80	2799.57
373.01	2967.51
373.22	2992.08
373.43	2801.62
373.64	2680.79
373.85	3250.13
374.06	3278.80
374.26	2987.99
374.47	2951.12
374.68	3239.89
374.89	3043.28
375.10	2717.65
375.31	2940.88
375.52	3000.27
375.73	3055.57
375.94	2617.30
376.15	2893.78
376.36	2865.11
376.57	2867.16
376.78	2842.58
376.99	2863.06
377.20	3112.91
377.40	2957.27
377.61	3000.27
377.82	2699.22
378.03	3164.11
378.24	3078.10
378.45	2854.87
378.66	2908.12
378.87	2715.61
379.08	2811.86
379.29	2818.00
379.50	2977.75
379.71	2983.89
379.91	3123.15
380.12	2811.86
380.33	2809.81
380.54	2985.94
380.75	2949.08
380.96	2750.42
381.17	2885.59
381.38	3002.32
381.59	2904.02
381.80	2858.96
382.00	3051.47
382.21	3010.51
382.42	3178.45
382.63	3215.31
382.84	2885.59
383.05	3110.86
383.26	3256.27
383.47	2897.88
383.68	2791.38
383.88	3125.20
384.09	3008.47
384.30	3053.52
384.51	3004.37
384.72	2918.36
384.93	2758.61
385.14	2918.36
385.35	3084.24
385.55	2762.71
385.76	3143.63
385.97	2848.72
386.18	2656.22
386.39	2828.24
386.60	2869.20
386.81	2738.13
387.02	2707.41
387.22	2734.04
387.43	3104.72
387.64	2920.40
387.85	3024.85
388.06	3121.10
388.27	4032.45
388.48	7331.73
388.68	10934.11
388.89	13455.15
389.10	14745.38
389.31	14028.59
389.52	11267.92
389.73	9664.36
389.93	8890.23
390.14	8105.86
390.35	7384.98
390.56	6741.91
390.77	5697.45
390.98	4364.22
391.18	3676.10
391.39	3321.81
391.60	2977.75
391.81	3012.56
392.02	2858.96
392.23	3375.05
392.43	3004.37
392.64	2926.55
392.85	2904.02
393.06	3254.22
393.27	2983.89
393.47	2760.66
393.68	2897.88
393.89	2912.21
394.10	3149.78
394.31	2871.25
394.52	2768.85
394.72	2801.62
394.93	3250.13
395.14	2723.80
395.35	2963.41
395.56	2861.01
395.76	3008.47
395.97	2787.29
396.18	3004.37
396.39	3084.24
396.60	3538.89
396.80	3110.86
397.01	3039.19
397.22	3145.68
397.43	3215.31
397.64	2801.62
397.84	2873.30
398.05	3325.90
398.26	2940.88
398.47	2973.65
398.67	3065.81
398.88	3035.09
399.09	3055.57
399.30	2750.42
399.51	2920.40
399.71	2840.53
399.92	2955.22
400.13	2932.69
400.34	2844.63
400.54	3090.38
400.75	3241.93
400.96	2969.55
401.17	3055.57
401.37	3108.82
401.58	2910.16
401.79	2801.62
402.00	2987.99
402.21	3366.86
402.41	3131.34
402.62	2971.60
402.83	3215.31
403.04	3399.63
403.24	3604.42
403.45	3022.80
403.66	3137.49
403.87	3166.16
404.07	3260.37
404.28	3117.01
404.49	3082.19
404.70	3076.05
404.90	3047.38
405.11	2811.86
405.32	2910.16
405.52	2885.59
405.73	2836.44
405.94	2777.05
406.15	2979.79
406.35	3086.29
406.56	3239.89
406.77	2830.29
406.98	2852.82
407.18	2875.35
407.39	3186.64
407.60	2748.37
407.80	2979.79
408.01	2959.31
408.22	3002.32
408.43	2688.98
408.63	2992.08
408.84	3133.39
409.05	3170.26
409.25	2758.61
409.46	2904.02
409.67	2916.31
409.88	2936.79
410.08	2879.44
410.29	2809.81
410.50	3215.31
410.70	3088.34
410.91	2697.17
411.12	2861.01
411.32	2975.70
411.53	2797.53
411.74	2793.43
411.95	2942.93
412.15	2936.79
412.36	3135.44
412.57	3012.56
412.77	3002.32
412.98	2971.60
413.19	2850.77
413.39	2858.96
413.60	2910.16
413.81	3305.42
414.01	2895.83
414.22	2875.35
414.43	2926.55
414.63	2906.07
414.84	3149.78
415.05	2852.82
415.25	2766.81
415.46	3137.49
415.67	2897.88
415.87	2836.44
416.08	2858.96
416.29	2981.84
416.49	3160.02
416.70	2846.68
416.91	2893.78
417.11	2961.36
417.32	3117.01
417.53	2994.13
417.73	2983.89
417.94	3010.51
418.15	3102.67
418.35	2899.92
418.56	2912.21
418.77	3467.21
418.97	2985.94
419.18	2973.65
419.38	2543.58
419.59	2951.12
419.80	3190.74
420.00	2758.61
420.21	2904.02
420.42	3151.82
420.62	3112.91
420.83	2779.09
421.04	2850.77
421.24	2936.79
421.45	3061.71
421.65	2938.84
421.86	2861.01
422.07	3145.68
422.27	3071.95
422.48	2828.24
422.69	2731.99
422.89	2955.22
423.10	2959.31
423.30	2797.53
423.51	2883.54
423.72	3100.62
423.92	3100.62
424.13	2721.75
424.33	2957.27
424.54	3170.26
424.75	2983.89
424.95	3035.09
425.16	2785.24
425.36	2949.08
425.57	3117.01
425.78	2990.03
425.98	2922.45
426.19	2947.03
426.39	2770.90
426.60	2916.31
426.81	3022.80
427.01	3004.37
427.22	2883.54
427.42	2717.65
427.63	2772.95
427.83	3147.73
428.04	3246.03
428.25	2906.07
428.45	2932.69
428.66	3143.63
428.86	2940.88
429.07	2826.20
429.28	2858.96
429.48	2965.46
429.69	2889.68
429.89	2840.53
430.10	2709.46
430.30	3155.92
430.51	3176.40
430.71	2789.33
430.92	2957.27
431.13	2869.20
431.33	3067.86
431.54	2899.92
431.74	3024.85
431.95	3366.86
432.15	2713.56
432.36	2873.30
432.56	2879.44
432.77	3336.14
432.98	3284.94
433.18	2832.34
433.39	2725.85
433.59	2967.51
433.80	3243.98
434.00	3100.62
434.21	2822.10
434.41	2877.40
434.62	3407.82
434.82	2754.52
435.03	2752.47
435.23	3018.71
435.44	2713.56
435.64	2793.43
435.85	2889.68
436.06	3162.06
436.26	3137.49
436.47	2848.72
436.67	2746.33
436.88	2910.16
437.08	3143.63
437.29	2971.60
437.49	2977.75
437.70	3200.98
437.90	2977.75
438.11	3086.29
438.31	2912.21
438.52	3153.87
438.72	3065.81
438.93	3162.06
439.13	2912.21
439.34	3209.17
439.54	2871.25
439.75	2955.22
439.95	2916.31
440.16	2877.40
440.36	3018.71
440.57	2852.82
440.77	2893.78
440.98	2977.75
441.18	3037.14
441.39	2818.00
441.59	2746.33
441.80	3370.96
442.00	2942.93
442.21	2947.03
442.41	2693.08
442.62	3182.54
442.82	2801.62
443.02	2815.96
443.23	2848.72
443.43	2961.36
443.64	3200.98
443.84	2766.81
444.05	2920.40
444.25	3016.66
444.46	2865.11
444.66	2842.58
444.87	2987.99
445.07	2758.61
445.28	2955.22
445.48	3061.71
445.69	2918.36
445.89	3440.59
446.09	2959.31
446.30	3104.72
446.50	3264.46
446.71	4685.75
446.91	5834.66
447.12	6561.69
447.32	7088.02
447.53	6809.50
447.73	5808.04
447.93	4960.18
448.14	4851.64
448.34	4749.24
448.55	4093.89
448.75	4069.31
448.96	3893.19
449.16	3626.95
449.36	3522.51
449.57	3035.09
449.77	2951.12
449.98	2881.49
450.18	3114.96
450.39	2865.11
450.59	3030.99
450.79	2992.08
451.00	2801.62
451.20	2940.88
451.41	2766.81
451.61	3092.43
451.81	2985.94
452.02	2828.24
452.22	2789.33
452.43	2912.21
452.63	2867.16
