SpectraSuite Data File
++++++++++++++++++++++++++++++++++++
Date: Thu May 05 21:11:35 CEST 2016
User: root
Dark Spectrum Present: No
Reference Spectrum Present: No
Number of Sampled Component Spectra: 1
Spectrometers: USB4C02835
Integration Time (usec): 100000 (USB4C02835)
Spectra Averaged: 1 (USB4C02835)
Boxcar Smoothing: 0 (USB4C02835)
Correct for Electrical Dark: No (USB4C02835)
Strobe/Lamp Enabled: No (USB4C02835)
Correct for Detector Non-linearity: No (USB4C02835)
Correct for Stray Light: No (USB4C02835)
Number of Pixels in Processed Spectrum: 3648
>>>>>Begin Processed Spectral Data<<<<<
177.47	2183.13
177.69	2183.13
177.91	2183.13
178.13	2168.80
178.36	2121.70
178.58	2764.76
178.80	2912.21
179.02	2783.19
179.24	2777.05
179.46	2611.16
179.68	2695.13
179.90	2979.79
180.13	2938.84
180.35	2531.29
180.57	2572.25
180.79	3127.25
181.01	2977.75
181.23	2703.32
181.45	2854.87
181.67	3117.01
181.90	3084.24
182.12	2752.47
182.34	2574.30
182.56	3149.78
182.78	3076.05
183.00	2674.65
183.22	2682.84
183.44	2701.27
183.66	3493.83
183.89	2801.62
184.11	2723.80
184.33	3082.19
184.55	3096.53
184.77	2666.46
184.99	2756.57
185.21	2912.21
185.43	3459.02
185.65	2619.35
185.87	2613.21
186.10	3295.18
186.32	3309.52
186.54	2830.29
186.76	2809.81
186.98	3098.58
187.20	2947.03
187.42	2750.42
187.64	2742.23
187.86	3100.62
188.08	3164.11
188.30	2625.50
188.52	2787.29
188.75	3276.75
188.97	3127.25
189.19	2602.97
189.41	2719.70
189.63	3121.10
189.85	2861.01
190.07	2625.50
190.29	2516.95
190.51	3016.66
190.73	2738.13
190.95	2850.77
191.17	2707.41
191.39	2750.42
191.61	3020.75
191.84	2621.40
192.06	2787.29
192.28	2674.65
192.50	3602.38
192.72	2805.72
192.94	2684.89
193.16	3221.45
193.38	3035.09
193.60	2574.30
193.82	2799.57
194.04	3080.14
194.26	3043.28
194.48	2662.36
194.70	2627.54
194.92	2883.54
195.14	3063.76
195.36	2688.98
195.58	2813.91
195.80	2967.51
196.02	2969.55
196.24	2625.50
196.46	2803.67
196.69	2854.87
196.91	3461.07
197.13	2713.56
197.35	2725.85
197.57	3241.93
197.79	3043.28
198.01	2705.37
198.23	2664.41
198.45	3067.86
198.67	2803.67
198.89	2623.45
199.11	2736.09
199.33	2910.16
199.55	2588.63
199.77	2643.93
199.99	2793.43
200.21	2904.02
200.43	3067.86
200.65	2615.26
200.87	2584.54
201.09	2942.93
201.31	2916.31
201.53	2699.22
201.75	2768.85
201.97	2983.89
202.19	3000.27
202.41	2738.13
202.63	2807.77
202.85	3088.34
203.07	3096.53
203.29	2830.29
203.51	2592.73
203.73	2877.40
203.95	3409.87
204.17	2658.26
204.39	2818.00
204.61	3033.04
204.83	2889.68
205.05	2834.39
205.27	2744.28
205.49	3373.00
205.71	2985.94
205.93	2564.06
206.15	2674.65
206.37	2994.13
206.59	2895.83
206.81	2537.43
207.03	2590.68
207.25	2736.09
207.47	3098.58
207.69	2748.37
207.91	2926.55
208.13	3233.74
208.34	2881.49
208.56	2656.22
208.78	2707.41
209.00	2938.84
209.22	2928.60
209.44	2664.41
209.66	2709.46
209.88	3012.56
210.10	2889.68
210.32	2668.50
210.54	2815.96
210.76	3045.33
210.98	3112.91
211.20	2590.68
211.42	2721.75
211.64	3252.17
211.86	3020.75
212.08	2768.85
212.30	2668.50
212.52	2961.36
212.74	3067.86
212.96	2770.90
213.17	2838.48
213.39	3108.82
213.61	3258.32
213.83	2684.89
214.05	2574.30
214.27	3157.97
214.49	2832.34
214.71	2588.63
214.93	2867.16
215.15	3102.67
215.37	3153.87
215.59	2572.25
215.81	2775.00
216.03	3231.69
216.24	2977.75
216.46	2684.89
216.68	2746.33
216.90	3155.92
217.12	3203.02
217.34	2654.17
217.56	2877.40
217.78	3315.66
218.00	3026.90
218.22	2766.81
218.44	2801.62
218.66	3084.24
218.87	3336.14
219.09	2650.07
219.31	2695.13
219.53	3074.00
219.75	2908.12
219.97	2693.08
220.19	2699.22
220.41	2901.97
220.63	3266.51
220.85	2693.08
221.06	2654.17
221.28	3114.96
221.50	3117.01
221.72	2674.65
221.94	2621.40
222.16	3092.43
222.38	3139.54
222.60	2584.54
222.82	2785.24
223.03	3151.82
223.25	2861.01
223.47	2693.08
223.69	2930.64
223.91	3170.26
224.13	3051.47
224.35	2586.58
224.57	2809.81
224.78	3065.81
225.00	2861.01
225.22	2738.13
225.44	2676.70
225.66	3110.86
225.88	2922.45
226.10	2772.95
226.32	2711.51
226.53	3260.37
226.75	2906.07
226.97	2797.53
227.19	2717.65
227.41	2901.97
227.63	2899.92
227.85	2525.15
228.06	2742.23
228.28	3012.56
228.50	3117.01
228.72	2531.29
228.94	2684.89
229.16	2723.80
229.37	2783.19
229.59	2607.06
229.81	2893.78
230.03	2867.16
230.25	2748.37
230.47	2549.72
230.69	2645.98
230.90	3151.82
231.12	2848.72
231.34	2711.51
231.56	2762.71
231.78	2828.24
232.00	3006.42
232.21	2682.84
232.43	2701.27
232.65	2605.02
232.87	3082.19
233.09	2639.83
233.30	2691.03
233.52	3180.50
233.74	2844.63
233.96	2721.75
234.18	2797.53
234.40	2969.55
234.61	3502.03
234.83	2574.30
235.05	2701.27
235.27	3479.50
235.49	3272.65
235.70	2549.72
235.92	2721.75
236.14	3104.72
236.36	3352.52
236.58	2564.06
236.79	2721.75
237.01	2934.74
237.23	2969.55
237.45	2920.40
237.67	2674.65
237.88	3063.76
238.10	3319.76
238.32	2617.30
238.54	2572.25
238.76	2992.08
238.97	2809.81
239.19	2643.93
239.41	2756.57
239.63	3176.40
239.85	2844.63
240.06	2729.94
240.28	2641.88
240.50	3155.92
240.72	3018.71
240.93	2588.63
241.15	2775.00
241.37	2994.13
241.59	3274.70
241.81	2678.74
242.02	2775.00
242.24	3004.37
242.46	3086.29
242.68	2500.57
242.89	2670.55
243.11	3231.69
243.33	2977.75
243.55	2623.45
243.76	2660.31
243.98	2875.35
244.20	2992.08
244.42	2713.56
244.64	2699.22
244.85	2750.42
245.07	2834.39
245.29	2709.46
245.51	2762.71
245.72	3057.62
245.94	3182.54
246.16	2680.79
246.38	2641.88
246.59	2871.25
246.81	2873.30
247.03	2590.68
247.24	2572.25
247.46	2924.50
247.68	2969.55
247.90	2664.41
248.11	2697.17
248.33	3061.71
248.55	2934.74
248.77	2717.65
248.98	2727.89
249.20	3248.08
249.42	2957.27
249.64	2701.27
249.85	2652.12
250.07	2920.40
250.29	3147.73
250.50	2688.98
250.72	2523.10
250.94	3006.42
251.16	3350.48
251.37	2676.70
251.59	2744.28
251.81	3020.75
252.02	3266.51
252.24	2600.92
252.46	2734.04
252.68	2826.20
252.89	2830.29
253.11	2490.33
253.33	2791.38
253.54	3194.83
253.76	2824.15
253.98	2693.08
254.20	2668.50
254.41	2674.65
254.63	2936.79
254.85	2531.29
255.06	2805.72
255.28	3022.80
255.50	2920.40
255.71	2635.74
255.93	2535.39
256.15	3010.51
256.36	3088.34
256.58	2549.72
256.80	2670.55
257.02	2975.70
257.23	2944.98
257.45	2762.71
257.67	2660.31
257.88	2912.21
258.10	3102.67
258.32	2736.09
258.53	2684.89
258.75	3317.71
258.97	2813.91
259.18	2564.06
259.40	2607.06
259.62	3301.33
259.83	3266.51
260.05	2705.37
260.27	3393.48
260.48	3147.73
260.70	2815.96
260.92	2545.63
261.13	2686.94
261.35	3086.29
261.57	3059.67
261.78	2557.91
262.00	2652.12
262.22	3074.00
262.43	2861.01
262.65	2744.28
262.86	2723.80
263.08	3495.88
263.30	3047.38
263.51	2480.09
263.73	2582.49
263.95	3211.22
264.16	2840.53
264.38	2609.11
264.60	2635.74
264.81	2975.70
265.03	3149.78
265.25	2975.70
265.46	2639.83
265.68	3106.77
265.89	3063.76
266.11	2621.40
266.33	2691.03
266.54	3258.32
266.76	3096.53
266.98	2768.85
267.19	2875.35
267.41	3233.74
267.62	3004.37
267.84	2543.58
268.06	2850.77
268.27	3043.28
268.49	3176.40
268.70	2799.57
268.92	2713.56
269.14	2832.34
269.35	2715.61
269.57	2760.66
269.79	2838.48
270.00	2852.82
270.22	3291.09
270.43	2562.01
270.65	2596.82
270.87	3043.28
271.08	3151.82
271.30	2803.67
271.51	2740.18
271.73	3074.00
271.95	3291.09
272.16	2600.92
272.38	2752.47
272.59	2987.99
272.81	2975.70
273.02	2574.30
273.24	2766.81
273.46	3186.64
273.67	2820.05
273.89	2574.30
274.10	2682.84
274.32	3194.83
274.54	3057.62
274.75	2830.29
274.97	2799.57
275.18	3108.82
275.40	3157.97
275.61	2815.96
275.83	2772.95
276.05	2725.85
276.26	3020.75
276.48	2799.57
276.69	2770.90
276.91	2893.78
277.12	3233.74
277.34	2885.59
277.55	2832.34
277.77	2955.22
277.99	2967.51
278.20	2783.19
278.42	2645.98
278.63	2840.53
278.85	2832.34
279.06	2731.99
279.28	2883.54
279.49	3129.30
279.71	3147.73
279.93	2901.97
280.14	2772.95
280.36	2811.86
280.57	3098.58
280.79	2873.30
281.00	2699.22
281.22	2936.79
281.43	3239.89
281.65	2574.30
281.86	2775.00
282.08	3100.62
282.29	3358.67
282.51	2738.13
282.73	2697.17
282.94	2705.37
283.16	3123.15
283.37	2881.49
283.59	2807.77
283.80	3041.23
284.02	3020.75
284.23	2830.29
284.45	2783.19
284.66	2885.59
284.88	2840.53
285.09	2760.66
285.31	2912.21
285.52	2979.79
285.74	2691.03
285.95	3047.38
286.17	2826.20
286.38	3092.43
286.60	2869.20
286.81	2705.37
287.03	2746.33
287.24	2963.41
287.46	3069.91
287.67	2883.54
287.89	3016.66
288.10	2992.08
288.32	3039.19
288.53	2944.98
288.75	2852.82
288.96	3153.87
289.18	2883.54
289.39	2727.89
289.61	2832.34
289.82	3282.89
290.04	3383.24
290.25	2688.98
290.47	2879.44
290.68	2969.55
290.90	3188.69
291.11	2598.87
291.33	2879.44
291.54	2805.72
291.76	2924.50
291.97	2901.97
292.18	2918.36
292.40	2901.97
292.61	2889.68
292.83	3155.92
293.04	2838.48
293.26	3041.23
293.47	2920.40
293.69	2711.51
293.90	2752.47
294.12	3192.78
294.33	2908.12
294.55	2867.16
294.76	2973.65
294.97	3223.50
295.19	3348.43
295.40	2742.23
295.62	2832.34
295.83	3121.10
296.05	2891.73
296.26	3035.09
296.48	2832.34
296.69	2955.22
296.90	2981.84
297.12	2930.64
297.33	2992.08
297.55	3022.80
297.76	3125.20
297.98	2873.30
298.19	3008.47
298.41	2944.98
298.62	2793.43
298.83	3067.86
299.05	2901.97
299.26	2883.54
299.48	2795.48
299.69	2844.63
299.90	2820.05
300.12	2842.58
300.33	3133.39
300.55	2811.86
300.76	2936.79
300.98	2811.86
301.19	3104.72
301.40	2750.42
301.62	2797.53
301.83	3002.32
302.05	3016.66
302.26	2783.19
302.47	2840.53
302.69	2779.09
302.90	3074.00
303.12	2617.30
303.33	2858.96
303.54	3280.85
303.76	2922.45
303.97	2793.43
304.19	2990.03
304.40	2865.11
304.61	3041.23
304.83	2936.79
305.04	2893.78
305.26	3074.00
305.47	2856.92
305.68	2795.48
305.90	2701.27
306.11	3143.63
306.33	3004.37
306.54	2670.55
306.75	2746.33
306.97	2828.24
307.18	2844.63
307.39	2826.20
307.61	2869.20
307.82	2940.88
308.04	3076.05
308.25	2725.85
308.46	2891.73
308.68	2957.27
308.89	2922.45
309.10	2914.26
309.32	2815.96
309.53	3024.85
309.74	3082.19
309.96	2787.29
310.17	2965.46
310.39	2912.21
310.60	3047.38
310.81	2848.72
311.03	2695.13
311.24	3076.05
311.45	2924.50
311.67	2973.65
311.88	2916.31
312.09	2949.08
312.31	2928.60
312.52	2783.19
312.73	2787.29
312.95	2799.57
313.16	2875.35
313.37	2930.64
313.59	2938.84
313.80	3133.39
314.01	3227.60
314.23	2832.34
314.44	2709.46
314.65	2707.41
314.87	2795.48
315.08	2875.35
315.29	2805.72
315.51	2787.29
315.72	2813.91
315.93	2889.68
316.15	2873.30
316.36	2850.77
316.57	3018.71
316.79	2793.43
317.00	2727.89
317.21	3127.25
317.43	2766.81
317.64	2838.48
317.85	2676.70
318.07	2883.54
318.28	2879.44
318.49	2920.40
318.70	2990.03
318.92	3018.71
319.13	3035.09
319.34	2990.03
319.56	2842.58
319.77	3106.77
319.98	3110.86
320.20	2924.50
320.41	2994.13
320.62	3098.58
320.83	2838.48
321.05	3010.51
321.26	2858.96
321.47	2940.88
321.69	3151.82
321.90	2707.41
322.11	2770.90
322.32	2951.12
322.54	3194.83
322.75	2787.29
322.96	3518.41
323.18	2674.65
323.39	2662.36
323.60	2731.99
323.81	2971.60
324.03	2865.11
324.24	2969.55
324.45	2897.88
324.66	2791.38
324.88	3100.62
325.09	3149.78
325.30	2795.48
325.52	2838.48
325.73	3055.57
325.94	2877.40
326.15	2615.26
326.37	2682.84
326.58	3086.29
326.79	3215.31
327.00	2777.05
327.22	2828.24
327.43	2975.70
327.64	2834.39
327.85	2885.59
328.07	2850.77
328.28	3311.57
328.49	2875.35
328.70	2826.20
328.92	2811.86
329.13	2924.50
329.34	3112.91
329.55	3033.04
329.76	2904.02
329.98	2934.74
330.19	3182.54
330.40	2861.01
330.61	2930.64
330.83	3080.14
331.04	2844.63
331.25	2856.92
331.46	2838.48
331.68	2826.20
331.89	3229.65
332.10	2801.62
332.31	2666.46
332.52	2971.60
332.74	3198.93
332.95	2668.50
333.16	2748.37
333.37	3092.43
333.58	2861.01
333.80	2910.16
334.01	2598.87
334.22	2914.26
334.43	2916.31
334.64	2830.29
334.86	2750.42
335.07	2805.72
335.28	3239.89
335.49	2607.06
335.70	2887.64
335.92	3200.98
336.13	3373.00
336.34	2875.35
336.55	2873.30
336.76	3045.33
336.98	2713.56
337.19	2787.29
337.40	2969.55
337.61	3467.21
337.82	3024.85
338.04	2887.64
338.25	2672.60
338.46	2942.93
338.67	2992.08
338.88	2713.56
339.09	2705.37
339.31	2969.55
339.52	2803.67
339.73	2682.84
339.94	2926.55
340.15	3092.43
340.36	2940.88
340.58	2895.83
340.79	2789.33
341.00	3145.68
341.21	2826.20
341.42	2947.03
341.63	2832.34
341.85	3084.24
342.06	2947.03
342.27	2803.67
342.48	2965.46
342.69	2744.28
342.90	3049.43
343.12	3090.38
343.33	2643.93
343.54	3170.26
343.75	3198.93
343.96	2887.64
344.17	2703.32
344.38	2963.41
344.60	2834.39
344.81	2856.92
345.02	2779.09
345.23	3172.30
345.44	3381.20
345.65	2770.90
345.86	2813.91
346.07	3020.75
346.29	2928.60
346.50	2967.51
346.71	2875.35
346.92	3207.12
347.13	3413.96
347.34	2861.01
347.55	2678.74
347.76	2996.18
347.98	2711.51
348.19	2742.23
348.40	2983.89
348.61	2916.31
348.82	3254.22
349.03	2899.92
349.24	2719.70
349.45	3301.33
349.66	2582.49
349.88	2736.09
350.09	2764.76
350.30	3229.65
350.51	3141.58
350.72	2897.88
350.93	2758.61
351.14	2899.92
351.35	3139.54
351.56	2854.87
351.77	2811.86
351.99	3065.81
352.20	3203.02
352.41	2815.96
352.62	2566.10
352.83	2957.27
353.04	3037.14
353.25	2791.38
353.46	2811.86
353.67	3172.30
353.88	2656.22
354.09	2738.13
354.30	2815.96
354.52	3069.91
354.73	2942.93
354.94	2707.41
355.15	2793.43
355.36	3411.92
355.57	2893.78
355.78	2875.35
355.99	2811.86
356.20	2883.54
356.41	3203.02
356.62	2869.20
356.83	2783.19
357.04	3180.50
357.25	2691.03
357.46	2719.70
357.68	2541.53
357.89	2873.30
358.10	3006.42
358.31	2752.47
358.52	2813.91
358.73	2807.77
358.94	2844.63
359.15	2729.94
359.36	2889.68
359.57	2938.84
359.78	2953.17
359.99	3033.04
360.20	2723.80
360.41	2973.65
360.62	3110.86
360.83	2920.40
361.04	2822.10
361.25	2959.31
361.46	3203.02
361.67	2977.75
361.88	2873.30
362.09	3190.74
362.30	3004.37
362.51	2688.98
362.72	2885.59
362.93	3145.68
363.14	3074.00
363.35	2854.87
363.56	2684.89
363.78	3213.26
363.99	3196.88
364.20	2852.82
364.41	2897.88
364.62	3291.09
364.83	3002.32
365.04	2809.81
365.25	2871.25
365.46	3258.32
365.67	2942.93
365.88	2918.36
366.09	2756.57
366.30	2936.79
366.51	2998.23
366.72	2678.74
366.93	2775.00
367.14	3047.38
367.35	3262.41
367.56	2752.47
367.77	2930.64
367.98	3002.32
368.18	3037.14
368.39	2928.60
368.60	2707.41
368.81	3098.58
369.02	3037.14
369.23	2813.91
369.44	2621.40
369.65	2883.54
369.86	3133.39
370.07	2934.74
370.28	2707.41
370.49	3076.05
370.70	3014.61
370.91	2670.55
371.12	2607.06
371.33	3184.59
371.54	2871.25
371.75	2912.21
371.96	2568.15
372.17	3022.80
372.38	2842.58
372.59	2887.64
372.80	2777.05
373.01	2916.31
373.22	2955.22
373.43	2822.10
373.64	2650.07
373.85	3235.79
374.06	3239.89
374.26	2951.12
374.47	2912.21
374.68	3198.93
374.89	2977.75
375.10	2758.61
375.31	2920.40
375.52	3012.56
375.73	3030.99
375.94	2654.17
376.15	2930.64
376.36	2871.25
376.57	2832.34
376.78	2818.00
376.99	2885.59
377.20	3149.78
377.40	2947.03
377.61	3000.27
377.82	2721.75
378.03	3286.99
378.24	3067.86
378.45	2916.31
378.66	2908.12
378.87	2727.89
379.08	2705.37
379.29	2832.34
379.50	2916.31
379.71	3004.37
379.91	3059.67
380.12	2779.09
380.33	2881.49
380.54	3018.71
380.75	2981.84
380.96	2815.96
381.17	2865.11
381.38	2969.55
381.59	3000.27
381.80	2879.44
382.00	2994.13
382.21	2987.99
382.42	3278.80
382.63	3248.08
382.84	2942.93
383.05	3145.68
383.26	3248.08
383.47	2889.68
383.68	2840.53
383.88	3014.61
384.09	2985.94
384.30	3043.28
384.51	2922.45
384.72	2918.36
384.93	2758.61
385.14	2818.00
385.35	3110.86
385.55	2682.84
385.76	3194.83
385.97	2858.96
386.18	2736.09
386.39	2807.77
386.60	2906.07
386.81	2729.94
387.02	2676.70
387.22	2750.42
387.43	3098.58
387.64	2854.87
387.85	3000.27
388.06	3082.19
388.27	3964.87
388.48	7378.83
388.68	10979.16
388.89	13698.86
389.10	14538.53
389.31	14325.54
389.52	11229.01
389.73	9846.63
389.93	9027.45
390.14	8099.72
390.35	7499.66
390.56	6786.97
390.77	5603.24
390.98	4366.27
391.18	3696.58
391.39	3461.07
391.60	3020.75
391.81	3028.95
392.02	2818.00
392.23	3373.00
392.43	2965.46
392.64	2904.02
392.85	2852.82
393.06	3270.61
393.27	2961.36
393.47	2752.47
393.68	2852.82
393.89	2981.84
394.10	3272.65
394.31	2768.85
394.52	2668.50
394.72	2869.20
394.93	3252.17
395.14	2725.85
395.35	2914.26
395.56	2846.68
395.76	2977.75
395.97	2865.11
396.18	2936.79
396.39	2971.60
396.60	3585.99
396.80	3174.35
397.01	2983.89
397.22	3200.98
397.43	3151.82
397.64	2768.85
397.84	2848.72
398.05	3327.95
398.26	2996.18
398.47	2881.49
398.67	2977.75
398.88	2961.36
399.09	3096.53
399.30	2775.00
399.51	2920.40
399.71	2889.68
399.92	2973.65
400.13	2889.68
400.34	2809.81
400.54	2985.94
400.75	3321.81
400.96	2955.22
401.17	3086.29
401.37	3139.54
401.58	2918.36
401.79	2830.29
402.00	2936.79
402.21	3452.88
402.41	3188.69
402.62	3014.61
402.83	3241.93
403.04	3227.60
403.24	3672.01
403.45	2957.27
403.66	3071.95
403.87	3184.59
404.07	3241.93
404.28	3080.14
404.49	3090.38
404.70	3071.95
404.90	3041.23
405.11	2832.34
405.32	2940.88
405.52	2881.49
405.73	2910.16
405.94	2781.14
406.15	2865.11
406.35	3147.73
406.56	3141.58
406.77	2867.16
406.98	2815.96
407.18	2848.72
407.39	3293.13
407.60	2846.68
407.80	2936.79
408.01	2914.26
408.22	3037.14
408.43	2791.38
408.63	2944.98
408.84	3141.58
409.05	3151.82
409.25	2840.53
409.46	2871.25
409.67	2944.98
409.88	2918.36
410.08	2869.20
410.29	2809.81
410.50	3100.62
410.70	3069.91
410.91	2703.32
411.12	2906.07
411.32	2957.27
411.53	2856.92
411.74	2879.44
411.95	2897.88
412.15	3030.99
412.36	3106.77
412.57	2914.26
412.77	2981.84
412.98	2971.60
413.19	2906.07
413.39	2912.21
413.60	2901.97
413.81	3157.97
414.01	2840.53
414.22	2926.55
414.43	2979.79
414.63	2856.92
414.84	3192.78
415.05	2852.82
415.25	2643.93
415.46	3078.10
415.67	2891.73
415.87	2883.54
416.08	2848.72
416.29	2930.64
416.49	2971.60
416.70	2848.72
416.91	2875.35
417.11	2967.51
417.32	3207.12
417.53	2904.02
417.73	2971.60
417.94	2981.84
418.15	3057.62
418.35	2838.48
418.56	2779.09
418.77	3356.62
418.97	3000.27
419.18	2824.15
419.38	2545.63
419.59	2959.31
419.80	3180.50
420.00	2824.15
420.21	2858.96
420.42	3243.98
420.62	2998.23
420.83	2793.43
421.04	2871.25
421.24	2914.26
421.45	3129.30
421.65	2895.83
421.86	2852.82
422.07	3096.53
422.27	3047.38
422.48	2813.91
422.69	2592.73
422.89	2981.84
423.10	2840.53
423.30	2742.23
423.51	2887.64
423.72	3012.56
423.92	3100.62
424.13	2744.28
424.33	2901.97
424.54	3123.15
424.75	3125.20
424.95	3108.82
425.16	2789.33
425.36	2944.98
425.57	3127.25
425.78	2850.77
425.98	2949.08
426.19	2983.89
426.39	2863.06
426.60	2920.40
426.81	2979.79
427.01	3086.29
427.22	2895.83
427.42	2656.22
427.63	2742.23
427.83	3080.14
428.04	3305.42
428.25	2854.87
428.45	2920.40
428.66	3198.93
428.86	2975.70
429.07	2838.48
429.28	2801.62
429.48	3008.47
429.69	2877.40
429.89	2904.02
430.10	2738.13
430.30	3121.10
430.51	3127.25
430.71	2785.24
430.92	2893.78
431.13	2879.44
431.33	3022.80
431.54	2881.49
431.74	3012.56
431.95	3282.89
432.15	2750.42
432.36	2852.82
432.56	2877.40
432.77	3276.75
432.98	3323.85
433.18	2881.49
433.39	2766.81
433.59	2899.92
433.80	3327.95
434.00	3035.09
434.21	2830.29
434.41	2940.88
434.62	3395.53
434.82	2717.65
435.03	2830.29
435.23	2987.99
435.44	2723.80
435.64	2818.00
435.85	2908.12
436.06	3162.06
436.26	3108.82
436.47	2764.76
436.67	2809.81
436.88	2959.31
437.08	3182.54
437.29	2961.36
437.49	2914.26
437.70	3192.78
437.90	3024.85
438.11	3041.23
438.31	2965.46
438.52	3182.54
438.72	3196.88
438.93	3178.45
439.13	2996.18
439.34	3080.14
439.54	2973.65
439.75	2953.17
439.95	2910.16
440.16	2848.72
440.36	3002.32
440.57	2871.25
440.77	2832.34
440.98	3039.19
441.18	3067.86
441.39	2844.63
441.59	2764.76
441.80	3399.63
442.00	2887.64
442.21	2926.55
442.41	2746.33
442.62	3196.88
442.82	2922.45
443.02	2834.39
443.23	2897.88
443.43	2928.60
443.64	3166.16
443.84	2734.04
444.05	2930.64
444.25	2895.83
444.46	2936.79
444.66	2834.39
444.87	3053.52
445.07	2740.18
445.28	2938.84
445.48	3012.56
445.69	2912.21
445.89	3420.11
446.09	2969.55
446.30	3123.15
446.50	3205.07
446.71	4702.14
446.91	5793.70
447.12	6571.93
447.32	7032.72
447.53	6977.43
447.73	5859.24
447.93	4855.73
448.14	4816.82
448.34	4827.06
448.55	4102.08
448.75	3999.68
448.96	3885.00
449.16	3737.54
449.36	3454.92
449.57	3114.96
449.77	2883.54
449.98	2877.40
450.18	3076.05
450.39	2805.72
450.59	3000.27
450.79	2987.99
451.00	2871.25
451.20	3071.95
451.41	2789.33
451.61	3084.24
451.81	2990.03
452.02	2861.01
452.22	2854.87
452.43	2877.40
452.63	2811.86
