SpectraSuite Data File
++++++++++++++++++++++++++++++++++++
Date: Thu May 05 21:11:28 CEST 2016
User: root
Dark Spectrum Present: No
Reference Spectrum Present: No
Number of Sampled Component Spectra: 1
Spectrometers: USB4C02835
Integration Time (usec): 100000 (USB4C02835)
Spectra Averaged: 1 (USB4C02835)
Boxcar Smoothing: 0 (USB4C02835)
Correct for Electrical Dark: No (USB4C02835)
Strobe/Lamp Enabled: No (USB4C02835)
Correct for Detector Non-linearity: No (USB4C02835)
Correct for Stray Light: No (USB4C02835)
Number of Pixels in Processed Spectrum: 3648
>>>>>Begin Processed Spectral Data<<<<<
177.47	2123.74
177.69	2123.74
177.91	2123.74
178.13	2140.13
178.36	2193.37
178.58	2750.42
178.80	2910.16
179.02	2752.47
179.24	2836.44
179.46	2602.97
179.68	2680.79
179.90	2891.73
180.13	2981.84
180.35	2551.77
180.57	2584.54
180.79	3055.57
181.01	2957.27
181.23	2680.79
181.45	2844.63
181.67	3160.02
181.90	3102.67
182.12	2711.51
182.34	2506.71
182.56	3117.01
182.78	3059.67
183.00	2623.45
183.22	2709.46
183.44	2723.80
183.66	3518.41
183.89	2813.91
184.11	2686.94
184.33	3053.52
184.55	3147.73
184.77	2672.60
184.99	2686.94
185.21	2895.83
185.43	3426.25
185.65	2707.41
185.87	2627.54
186.10	3395.53
186.32	3407.82
186.54	2779.09
186.76	2764.76
186.98	3160.02
187.20	2922.45
187.42	2695.13
187.64	2684.89
187.86	3000.27
188.08	3200.98
188.30	2648.02
188.52	2789.33
188.75	3196.88
188.97	3237.84
189.19	2678.74
189.41	2691.03
189.63	3037.14
189.85	3008.47
190.07	2537.43
190.29	2535.39
190.51	3086.29
190.73	2832.34
190.95	2834.39
191.17	2711.51
191.39	2754.52
191.61	3004.37
191.84	2672.60
192.06	2762.71
192.28	2699.22
192.50	3557.32
192.72	2815.96
192.94	2707.41
193.16	3229.65
193.38	3086.29
193.60	2619.35
193.82	2799.57
194.04	3125.20
194.26	3059.67
194.48	2652.12
194.70	2625.50
194.92	2938.84
195.14	3110.86
195.36	2635.74
195.58	2717.65
195.80	2879.44
196.02	2865.11
196.24	2688.98
196.46	2758.61
196.69	2832.34
196.91	3274.70
197.13	2795.48
197.35	2643.93
197.57	3246.03
197.79	3125.20
198.01	2750.42
198.23	2709.46
198.45	3100.62
198.67	2797.53
198.89	2570.20
199.11	2766.81
199.33	2881.49
199.55	2615.26
199.77	2652.12
199.99	2811.86
200.21	2885.59
200.43	3024.85
200.65	2525.15
200.87	2529.24
201.09	2963.41
201.31	2965.46
201.53	2660.31
201.75	2742.23
201.97	3002.32
202.19	3039.19
202.41	2731.99
202.63	2889.68
202.85	3121.10
203.07	3102.67
203.29	2775.00
203.51	2658.26
203.73	2889.68
203.95	3403.72
204.17	2660.31
204.39	2865.11
204.61	2977.75
204.83	2965.46
205.05	2881.49
205.27	2723.80
205.49	3276.75
205.71	2996.18
205.93	2514.91
206.15	2621.40
206.37	3026.90
206.59	2981.84
206.81	2525.15
207.03	2594.78
207.25	2815.96
207.47	3114.96
207.69	2666.46
207.91	2967.51
208.13	3315.66
208.34	2865.11
208.56	2631.64
208.78	2815.96
209.00	2957.27
209.22	2889.68
209.44	2729.94
209.66	2680.79
209.88	3028.95
210.10	2979.79
210.32	2621.40
210.54	2852.82
210.76	2912.21
210.98	3117.01
211.20	2484.19
211.42	2895.83
211.64	3270.61
211.86	3094.48
212.08	2719.70
212.30	2670.55
212.52	2934.74
212.74	3108.82
212.96	2734.04
213.17	2777.05
213.39	3221.45
213.61	3221.45
213.83	2627.54
214.05	2582.49
214.27	3219.41
214.49	2738.13
214.71	2623.45
214.93	2775.00
215.15	3045.33
215.37	3227.60
215.59	2512.86
215.81	2746.33
216.03	3315.66
216.24	3008.47
216.46	2680.79
216.68	2705.37
216.90	3180.50
217.12	3135.44
217.34	2658.26
217.56	2944.98
217.78	3233.74
218.00	3155.92
218.22	2760.66
218.44	2797.53
218.66	3061.71
218.87	3411.92
219.09	2688.98
219.31	2742.23
219.53	3012.56
219.75	2852.82
219.97	2731.99
220.19	2705.37
220.41	2930.64
220.63	3303.37
220.85	2719.70
221.06	2678.74
221.28	3145.68
221.50	3155.92
221.72	2621.40
221.94	2631.64
222.16	3094.48
222.38	3211.22
222.60	2670.55
222.82	2811.86
223.03	3114.96
223.25	2740.18
223.47	2619.35
223.69	2979.79
223.91	3151.82
224.13	3047.38
224.35	2574.30
224.57	2936.79
224.78	3153.87
225.00	2848.72
225.22	2768.85
225.44	2611.16
225.66	3133.39
225.88	2799.57
226.10	2820.05
226.32	2715.61
226.53	3297.23
226.75	2850.77
226.97	2764.76
227.19	2660.31
227.41	2850.77
227.63	2863.06
227.85	2574.30
228.06	2699.22
228.28	3045.33
228.50	3129.30
228.72	2549.72
228.94	2625.50
229.16	2680.79
229.37	2723.80
229.59	2498.52
229.81	2901.97
230.03	3022.80
230.25	2768.85
230.47	2531.29
230.69	2731.99
230.90	3219.41
231.12	2850.77
231.34	2764.76
231.56	2822.10
231.78	2781.14
232.00	3012.56
232.21	2740.18
232.43	2729.94
232.65	2629.59
232.87	3041.23
233.09	2512.86
233.30	2584.54
233.52	3198.93
233.74	2881.49
233.96	2678.74
234.18	2861.01
234.40	2924.50
234.61	3356.62
234.83	2600.92
235.05	2609.11
235.27	3444.68
235.49	3184.59
235.70	2588.63
235.92	2766.81
236.14	3022.80
236.36	3368.91
236.58	2584.54
236.79	2772.95
237.01	2906.07
237.23	2992.08
237.45	2867.16
237.67	2568.15
237.88	3035.09
238.10	3354.57
238.32	2664.41
238.54	2627.54
238.76	3041.23
238.97	2906.07
239.19	2594.78
239.41	2742.23
239.63	3149.78
239.85	2916.31
240.06	2709.46
240.28	2639.83
240.50	3168.21
240.72	2969.55
240.93	2623.45
241.15	2820.05
241.37	3047.38
241.59	3229.65
241.81	2740.18
242.02	2703.32
242.24	2983.89
242.46	3137.49
242.68	2545.63
242.89	2516.95
243.11	3147.73
243.33	2981.84
243.55	2727.89
243.76	2705.37
243.98	2850.77
244.20	2942.93
244.42	2688.98
244.64	2701.27
244.85	2815.96
245.07	2799.57
245.29	2697.17
245.51	2709.46
245.72	3074.00
245.94	3133.39
246.16	2672.60
246.38	2775.00
246.59	2906.07
246.81	2889.68
247.03	2578.39
247.24	2547.67
247.46	2910.16
247.68	2959.31
247.90	2635.74
248.11	2715.61
248.33	3041.23
248.55	2850.77
248.77	2674.65
248.98	2854.87
249.20	3291.09
249.42	3090.38
249.64	2641.88
249.85	2686.94
250.07	2842.58
250.29	3164.11
250.50	2748.37
250.72	2492.38
250.94	3014.61
251.16	3350.48
251.37	2600.92
251.59	2756.57
251.81	2975.70
252.02	3209.17
252.24	2598.87
252.46	2779.09
252.68	2883.54
252.89	2861.01
253.11	2549.72
253.33	2818.00
253.54	3194.83
253.76	2799.57
253.98	2686.94
254.20	2707.41
254.41	2783.19
254.63	2949.08
254.85	2451.42
255.06	2770.90
255.28	3086.29
255.50	2947.03
255.71	2660.31
255.93	2557.91
256.15	2983.89
256.36	3014.61
256.58	2543.58
256.80	2641.88
257.02	2992.08
257.23	2879.44
257.45	2709.46
257.67	2744.28
257.88	2920.40
258.10	3012.56
258.32	2723.80
258.53	2711.51
258.75	3270.61
258.97	2891.73
259.18	2557.91
259.40	2648.02
259.62	3233.74
259.83	3239.89
260.05	2742.23
260.27	3454.92
260.48	3157.97
260.70	2768.85
260.92	2598.87
261.13	2746.33
261.35	2994.13
261.57	3061.71
261.78	2557.91
262.00	2625.50
262.22	3176.40
262.43	2914.26
262.65	2729.94
262.86	2684.89
263.08	3428.30
263.30	3016.66
263.51	2598.87
263.73	2592.73
263.95	3211.22
264.16	2846.68
264.38	2617.30
264.60	2535.39
264.81	2967.51
265.03	3184.59
265.25	3018.71
265.46	2664.41
265.68	3151.82
265.89	3110.86
266.11	2590.68
266.33	2658.26
266.54	3207.12
266.76	3086.29
266.98	2793.43
267.19	2871.25
267.41	3237.84
267.62	3024.85
267.84	2551.77
268.06	2805.72
268.27	2992.08
268.49	3117.01
268.70	2711.51
268.92	2688.98
269.14	2762.71
269.35	2738.13
269.57	2719.70
269.79	2721.75
270.00	2904.02
270.22	3262.41
270.43	2473.95
270.65	2574.30
270.87	2887.64
271.08	3082.19
271.30	2756.57
271.51	2740.18
271.73	3059.67
271.95	3223.50
272.16	2643.93
272.38	2840.53
272.59	2893.78
272.81	2967.51
273.02	2600.92
273.24	2742.23
273.46	3096.53
273.67	2707.41
273.89	2478.04
274.10	2707.41
274.32	3174.35
274.54	3051.47
274.75	2736.09
274.97	2777.05
275.18	3123.15
275.40	2996.18
275.61	2750.42
275.83	2936.79
276.05	2830.29
276.26	2957.27
276.48	2779.09
276.69	2805.72
276.91	2891.73
277.12	3178.45
277.34	2877.40
277.55	2881.49
277.77	3012.56
277.99	2924.50
278.20	2764.76
278.42	2703.32
278.63	2781.14
278.85	2852.82
279.06	2717.65
279.28	2891.73
279.49	3229.65
279.71	3145.68
279.93	2863.06
280.14	2912.21
280.36	2883.54
280.57	3145.68
280.79	2885.59
281.00	2656.22
281.22	2852.82
281.43	3166.16
281.65	2508.76
281.86	2762.71
282.08	3020.75
282.29	3272.65
282.51	2652.12
282.73	2717.65
282.94	2674.65
283.16	3145.68
283.37	2883.54
283.59	2807.77
283.80	2967.51
284.02	2975.70
284.23	2848.72
284.45	2727.89
284.66	2766.81
284.88	2912.21
285.09	2762.71
285.31	2904.02
285.52	3061.71
285.74	2811.86
285.95	2936.79
286.17	2787.29
286.38	3172.30
286.60	2891.73
286.81	2762.71
287.03	2764.76
287.24	2951.12
287.46	3012.56
287.67	2947.03
287.89	3024.85
288.10	2942.93
288.32	2969.55
288.53	2932.69
288.75	2834.39
288.96	3125.20
289.18	2885.59
289.39	2670.55
289.61	2897.88
289.82	3280.85
290.04	3358.67
290.25	2725.85
290.47	2873.30
290.68	2918.36
290.90	3106.77
291.11	2537.43
291.33	2916.31
291.54	2893.78
291.76	2828.24
291.97	2938.84
292.18	2811.86
292.40	2951.12
292.61	2924.50
292.83	3084.24
293.04	2934.74
293.26	3063.76
293.47	2969.55
293.69	2705.37
293.90	2760.66
294.12	3196.88
294.33	3002.32
294.55	2811.86
294.76	2934.74
294.97	3252.17
295.19	3438.54
295.40	2801.62
295.62	2865.11
295.83	3133.39
296.05	2830.29
296.26	2985.94
296.48	2742.23
296.69	2934.74
296.90	2981.84
297.12	2938.84
297.33	2875.35
297.55	2987.99
297.76	3000.27
297.98	2840.53
298.19	2871.25
298.41	2947.03
298.62	2836.44
298.83	2934.74
299.05	2889.68
299.26	2914.26
299.48	2854.87
299.69	2895.83
299.90	2746.33
300.12	2885.59
300.33	3196.88
300.55	2861.01
300.76	2928.60
300.98	2795.48
301.19	3104.72
301.40	2721.75
301.62	2762.71
301.83	3092.43
302.05	3059.67
302.26	2758.61
302.47	2822.10
302.69	2811.86
302.90	3059.67
303.12	2684.89
303.33	2971.60
303.54	3342.28
303.76	2867.16
303.97	2752.47
304.19	2981.84
304.40	2770.90
304.61	3174.35
304.83	2897.88
305.04	2834.39
305.26	3112.91
305.47	2893.78
305.68	2709.46
305.90	2613.21
306.11	3215.31
306.33	2885.59
306.54	2709.46
306.75	2719.70
306.97	2787.29
307.18	2842.58
307.39	2770.90
307.61	2844.63
307.82	2918.36
308.04	3090.38
308.25	2654.17
308.46	2938.84
308.68	3020.75
308.89	2850.77
309.10	2971.60
309.32	2867.16
309.53	2977.75
309.74	3080.14
309.96	2725.85
310.17	2858.96
310.39	2899.92
310.60	3020.75
310.81	2818.00
311.03	2678.74
311.24	3053.52
311.45	2861.01
311.67	3053.52
311.88	2805.72
312.09	2897.88
312.31	2869.20
312.52	2756.57
312.73	2785.24
312.95	2766.81
313.16	2840.53
313.37	2965.46
313.59	2897.88
313.80	3164.11
314.01	3305.42
314.23	2807.77
314.44	2752.47
314.65	2797.53
314.87	2887.64
315.08	2721.75
315.29	2828.24
315.51	2820.05
315.72	2738.13
315.93	2885.59
316.15	2893.78
316.36	3020.75
316.57	3016.66
316.79	2830.29
317.00	2750.42
317.21	3088.34
317.43	2914.26
317.64	2844.63
317.85	2754.52
318.07	2852.82
318.28	2916.31
318.49	2936.79
318.70	3018.71
318.92	2998.23
319.13	3069.91
319.34	3006.42
319.56	2762.71
319.77	3028.95
319.98	3119.06
320.20	3030.99
320.41	2912.21
320.62	3121.10
320.83	2854.87
321.05	3014.61
321.26	2842.58
321.47	2942.93
321.69	3221.45
321.90	2777.05
322.11	2775.00
322.32	3049.43
322.54	3340.24
322.75	2852.82
322.96	3493.83
323.18	2807.77
323.39	2725.85
323.60	2768.85
323.81	2949.08
324.03	2856.92
324.24	2969.55
324.45	2889.68
324.66	2756.57
324.88	3139.54
325.09	3147.73
325.30	2797.53
325.52	2811.86
325.73	3047.38
325.94	2789.33
326.15	2660.31
326.37	2676.70
326.58	3074.00
326.79	3246.03
327.00	2822.10
327.22	2729.94
327.43	3016.66
327.64	2865.11
327.85	2959.31
328.07	2828.24
328.28	3342.28
328.49	2930.64
328.70	2856.92
328.92	2764.76
329.13	2916.31
329.34	3074.00
329.55	3139.54
329.76	2928.60
329.98	2852.82
330.19	3174.35
330.40	2969.55
330.61	2865.11
330.83	3098.58
331.04	2820.05
331.25	2942.93
331.46	2772.95
331.68	2742.23
331.89	3151.82
332.10	2844.63
332.31	2697.17
332.52	2975.70
332.74	3160.02
332.95	2613.21
333.16	2797.53
333.37	3076.05
333.58	2891.73
333.80	2901.97
334.01	2629.59
334.22	2883.54
334.43	2877.40
334.64	2721.75
334.86	2752.47
335.07	2891.73
335.28	3301.33
335.49	2723.80
335.70	2895.83
335.92	3133.39
336.13	3401.68
336.34	2858.96
336.55	2871.25
336.76	3096.53
336.98	2629.59
337.19	2844.63
337.40	2928.60
337.61	3434.44
337.82	2959.31
338.04	2820.05
338.25	2648.02
338.46	2949.08
338.67	2973.65
338.88	2691.03
339.09	2654.17
339.31	2766.81
339.52	2865.11
339.73	2715.61
339.94	2744.28
340.15	3057.62
340.36	2861.01
340.58	2854.87
340.79	2699.22
341.00	3147.73
341.21	2813.91
341.42	2971.60
341.63	2783.19
341.85	3190.74
342.06	2994.13
342.27	2750.42
342.48	2975.70
342.69	2801.62
342.90	3082.19
343.12	3102.67
343.33	2748.37
343.54	3231.69
343.75	3231.69
343.96	2840.53
344.17	2746.33
344.38	2914.26
344.60	2820.05
344.81	2727.89
345.02	2822.10
345.23	3268.56
345.44	3499.98
345.65	2783.19
345.86	2877.40
346.07	3016.66
346.29	2793.43
346.50	2904.02
346.71	2871.25
346.92	3256.27
347.13	3416.01
347.34	2889.68
347.55	2729.94
347.76	2951.12
347.98	2686.94
348.19	2805.72
348.40	2994.13
348.61	2856.92
348.82	3252.17
349.03	2879.44
349.24	2717.65
349.45	3358.67
349.66	2691.03
349.88	2852.82
350.09	2734.04
350.30	3227.60
350.51	3174.35
350.72	2928.60
350.93	2805.72
351.14	2957.27
351.35	3004.37
351.56	2858.96
351.77	2838.48
351.99	3069.91
352.20	3327.95
352.41	2928.60
352.62	2570.20
352.83	2977.75
353.04	2985.94
353.25	2756.57
353.46	2942.93
353.67	3129.30
353.88	2709.46
354.09	2721.75
354.30	2795.48
354.52	3149.78
354.73	3030.99
354.94	2842.58
355.15	2809.81
355.36	3243.98
355.57	2912.21
355.78	2736.09
355.99	2764.76
356.20	2922.45
356.41	3198.93
356.62	2916.31
356.83	2822.10
357.04	3157.97
357.25	2701.27
357.46	2793.43
357.68	2680.79
357.89	2881.49
358.10	3024.85
358.31	2869.20
358.52	2844.63
358.73	2785.24
358.94	2828.24
359.15	2795.48
359.36	2848.72
359.57	3080.14
359.78	2910.16
359.99	3024.85
360.20	2611.16
360.41	2994.13
360.62	3063.76
360.83	2951.12
361.04	2832.34
361.25	3162.06
361.46	3211.22
361.67	2879.44
361.88	2803.67
362.09	3170.26
362.30	3049.43
362.51	2748.37
362.72	2832.34
362.93	3147.73
363.14	3127.25
363.35	2973.65
363.56	2668.50
363.78	3131.34
363.99	3133.39
364.20	2725.85
364.41	2861.01
364.62	3262.41
364.83	2990.03
365.04	2838.48
365.25	2883.54
365.46	3270.61
365.67	2906.07
365.88	2871.25
366.09	2744.28
366.30	2906.07
366.51	2914.26
366.72	2734.04
366.93	2770.90
367.14	3074.00
367.35	3252.17
367.56	2748.37
367.77	2930.64
367.98	2934.74
368.18	3014.61
368.39	2924.50
368.60	2705.37
368.81	3123.15
369.02	3000.27
369.23	2795.48
369.44	2648.02
369.65	2901.97
369.86	3049.43
370.07	2936.79
370.28	2781.14
370.49	3049.43
370.70	3051.47
370.91	2725.85
371.12	2635.74
371.33	3252.17
371.54	2910.16
371.75	2875.35
371.96	2562.01
372.17	2938.84
372.38	2967.51
372.59	2822.10
372.80	2781.14
373.01	2938.84
373.22	2975.70
373.43	2791.38
373.64	2672.60
373.85	3176.40
374.06	3270.61
374.26	2990.03
374.47	2846.68
374.68	3270.61
374.89	3096.53
375.10	2781.14
375.31	2928.60
375.52	3041.23
375.73	3030.99
375.94	2676.70
376.15	2934.74
376.36	2818.00
376.57	2891.73
376.78	2811.86
376.99	2895.83
377.20	3182.54
377.40	3010.51
377.61	3096.53
377.82	2775.00
378.03	3248.08
378.24	3041.23
378.45	2863.06
378.66	2875.35
378.87	2678.74
379.08	2693.08
379.29	2832.34
379.50	2965.46
379.71	2969.55
379.91	3055.57
380.12	2840.53
380.33	2877.40
380.54	3043.28
380.75	3014.61
380.96	2777.05
381.17	2824.15
381.38	2940.88
381.59	3125.20
381.80	2820.05
382.00	3008.47
382.21	2992.08
382.42	3364.81
382.63	3178.45
382.84	2836.44
383.05	3106.77
383.26	3162.06
383.47	2854.87
383.68	2779.09
383.88	3098.58
384.09	2965.46
384.30	3012.56
384.51	2926.55
384.72	2863.06
384.93	2848.72
385.14	2906.07
385.35	3082.19
385.55	2785.24
385.76	3200.98
385.97	2830.29
386.18	2723.80
386.39	2873.30
386.60	2883.54
386.81	2750.42
387.02	2727.89
387.22	2777.05
387.43	2987.99
387.64	2918.36
387.85	3086.29
388.06	2979.79
388.27	4108.23
388.48	7401.36
388.68	10678.11
388.89	13334.32
389.10	14640.93
389.31	14280.49
389.52	11312.98
389.73	9656.17
389.93	9070.45
390.14	8210.31
390.35	7251.86
390.56	6727.58
390.77	5574.57
390.98	4302.78
391.18	3723.21
391.39	3405.77
391.60	2996.18
391.81	3071.95
392.02	2920.40
392.23	3397.58
392.43	3026.90
392.64	2947.03
392.85	2842.58
393.06	3225.55
393.27	2985.94
393.47	2785.24
393.68	2906.07
393.89	2924.50
394.10	3174.35
394.31	2799.57
394.52	2672.60
394.72	2910.16
394.93	3280.85
395.14	2691.03
395.35	2922.45
395.56	2899.92
395.76	2959.31
395.97	2822.10
396.18	2846.68
396.39	2975.70
396.60	3536.84
396.80	3123.15
397.01	2953.17
397.22	3047.38
397.43	3123.15
397.64	2750.42
397.84	2940.88
398.05	3219.41
398.26	3106.77
398.47	2881.49
398.67	2994.13
398.88	3051.47
399.09	3147.73
399.30	2824.15
399.51	2834.39
399.71	2844.63
399.92	2959.31
400.13	2881.49
400.34	2791.38
400.54	2967.51
400.75	3278.80
400.96	3041.23
401.17	3092.43
401.37	3057.62
401.58	2928.60
401.79	2744.28
402.00	2951.12
402.21	3405.77
402.41	3125.20
402.62	3143.63
402.83	3205.07
403.04	3282.89
403.24	3645.38
403.45	2971.60
403.66	3157.97
403.87	3153.87
404.07	3225.55
404.28	3098.58
404.49	3041.23
404.70	3076.05
404.90	3051.47
405.11	2922.45
405.32	3004.37
405.52	2881.49
405.73	2883.54
405.94	2682.84
406.15	2891.73
406.35	3141.58
406.56	3131.34
406.77	2924.50
406.98	2838.48
407.18	2840.53
407.39	3327.95
407.60	2883.54
407.80	2803.67
408.01	2885.59
408.22	3063.76
408.43	2717.65
408.63	2969.55
408.84	3039.19
409.05	3157.97
409.25	2838.48
409.46	2793.43
409.67	2910.16
409.88	2901.97
410.08	2842.58
410.29	2797.53
410.50	3131.34
410.70	3035.09
410.91	2801.62
411.12	2897.88
411.32	2990.03
411.53	2912.21
411.74	2924.50
411.95	2922.45
412.15	3016.66
412.36	3080.14
412.57	3014.61
412.77	2992.08
412.98	2979.79
413.19	2910.16
413.39	2940.88
413.60	2971.60
413.81	3168.21
414.01	2754.52
414.22	2959.31
414.43	3037.14
414.63	2889.68
414.84	3119.06
415.05	2811.86
415.25	2731.99
415.46	3078.10
415.67	2861.01
415.87	2916.31
416.08	2846.68
416.29	2828.24
416.49	3110.86
416.70	2793.43
416.91	2850.77
417.11	2922.45
417.32	3094.48
417.53	2889.68
417.73	2850.77
417.94	3004.37
418.15	3028.95
418.35	2865.11
418.56	2818.00
418.77	3366.86
418.97	3026.90
419.18	2883.54
419.38	2607.06
419.59	2916.31
419.80	3266.51
420.00	2760.66
420.21	2881.49
420.42	3276.75
420.62	2994.13
420.83	2772.95
421.04	2854.87
421.24	2916.31
421.45	3145.68
421.65	2908.12
421.86	2785.24
422.07	3110.86
422.27	3067.86
422.48	2770.90
422.69	2713.56
422.89	3030.99
423.10	2996.18
423.30	2777.05
423.51	2877.40
423.72	3028.95
423.92	3049.43
424.13	2711.51
424.33	2897.88
424.54	3137.49
424.75	3026.90
424.95	3063.76
425.16	2832.34
425.36	2990.03
425.57	3119.06
425.78	2973.65
425.98	3016.66
426.19	2977.75
426.39	2777.05
426.60	2918.36
426.81	3012.56
427.01	3135.44
427.22	2856.92
427.42	2664.41
427.63	2684.89
427.83	3104.72
428.04	3258.32
428.25	2936.79
428.45	2998.23
428.66	3215.31
428.86	3012.56
429.07	2861.01
429.28	2850.77
429.48	3006.42
429.69	2865.11
429.89	2871.25
430.10	2740.18
430.30	3129.30
430.51	3223.50
430.71	2875.35
430.92	2883.54
431.13	2914.26
431.33	3084.24
431.54	2951.12
431.74	3074.00
431.95	3397.58
432.15	2832.34
432.36	2912.21
432.56	2875.35
432.77	3325.90
432.98	3330.00
433.18	2914.26
433.39	2738.13
433.59	3033.04
433.80	3340.24
434.00	3129.30
434.21	2885.59
434.41	2850.77
434.62	3385.29
434.82	2744.28
435.03	2748.37
435.23	2992.08
435.44	2783.19
435.64	2801.62
435.85	2854.87
436.06	3121.10
436.26	3166.16
436.47	2891.73
436.67	2844.63
436.88	2930.64
437.08	3157.97
437.29	3010.51
437.49	2959.31
437.70	3219.41
437.90	2983.89
438.11	3082.19
438.31	2934.74
438.52	3119.06
438.72	3180.50
438.93	3131.34
439.13	2918.36
439.34	3213.26
439.54	2920.40
439.75	2942.93
439.95	2932.69
440.16	2836.44
440.36	3024.85
440.57	2904.02
440.77	2828.24
440.98	3024.85
441.18	3082.19
441.39	2789.33
441.59	2772.95
441.80	3305.42
442.00	3000.27
442.21	2895.83
442.41	2697.17
442.62	3182.54
442.82	2811.86
443.02	2822.10
443.23	2815.96
443.43	2805.72
443.64	3145.68
443.84	2772.95
444.05	2879.44
444.25	2961.36
444.46	2873.30
444.66	2850.77
444.87	3071.95
445.07	2731.99
445.28	2934.74
445.48	2947.03
445.69	2887.64
445.89	3465.16
446.09	2934.74
446.30	3153.87
446.50	3125.20
446.71	4601.79
446.91	5861.29
447.12	6498.20
447.32	7012.24
447.53	6813.59
447.73	5799.85
447.93	5003.19
448.14	4773.82
448.34	4792.25
448.55	4184.00
448.75	4057.03
448.96	3811.27
449.16	3590.09
449.36	3504.07
449.57	3098.58
449.77	2899.92
449.98	2910.16
450.18	3035.09
450.39	2785.24
450.59	3024.85
450.79	2942.93
451.00	2852.82
451.20	2975.70
451.41	2828.24
451.61	3102.67
451.81	2949.08
452.02	2766.81
452.22	2861.01
452.43	2887.64
452.63	2813.91
