SpectraSuite Data File
++++++++++++++++++++++++++++++++++++
Date: Tue May 03 12:55:07 CEST 2016
User: root
Dark Spectrum Present: No
Reference Spectrum Present: No
Number of Sampled Component Spectra: 1
Spectrometers: USB4C02835
Integration Time (usec): 100000 (USB4C02835)
Spectra Averaged: 1 (USB4C02835)
Boxcar Smoothing: 0 (USB4C02835)
Correct for Electrical Dark: No (USB4C02835)
Strobe/Lamp Enabled: No (USB4C02835)
Correct for Detector Non-linearity: No (USB4C02835)
Correct for Stray Light: No (USB4C02835)
Number of Pixels in Processed Spectrum: 3648
>>>>>Begin Processed Spectral Data<<<<<
177.47	1351.66
177.69	1351.66
177.91	1351.66
178.13	1349.61
178.36	1359.85
178.58	1546.22
178.80	1558.50
179.02	1458.15
179.24	1523.69
179.46	1523.69
179.68	1591.27
179.90	1458.15
180.13	1589.22
180.35	1486.83
180.57	1558.50
180.79	1585.13
181.01	1515.50
181.23	1540.07
181.45	1599.46
181.67	1578.98
181.90	1507.30
182.12	1439.72
182.34	1517.54
182.56	1605.61
182.78	1544.17
183.00	1611.75
183.22	1535.98
183.44	1423.34
183.66	1624.04
183.89	1576.94
184.11	1591.27
184.33	1535.98
184.55	1599.46
184.77	1642.47
184.99	1521.64
185.21	1488.87
185.43	1648.61
185.65	1566.70
185.87	1568.74
186.10	1576.94
186.32	1597.42
186.54	1599.46
186.76	1568.74
186.98	1638.38
187.20	1509.35
187.42	1533.93
187.64	1542.12
187.86	1507.30
188.08	1566.70
188.30	1523.69
188.52	1478.63
188.75	1634.28
188.97	1591.27
189.19	1486.83
189.41	1499.11
189.63	1482.73
189.85	1454.06
190.07	1515.50
190.29	1470.44
190.51	1525.74
190.73	1509.35
190.95	1560.55
191.17	1484.78
191.39	1484.78
191.61	1476.59
191.84	1593.32
192.06	1564.65
192.28	1540.07
192.50	1632.23
192.72	1585.13
192.94	1503.21
193.16	1576.94
193.38	1466.35
193.60	1554.41
193.82	1558.50
194.04	1587.18
194.26	1495.02
194.48	1613.80
194.70	1447.91
194.92	1501.16
195.14	1560.55
195.36	1484.78
195.58	1558.50
195.80	1488.87
196.02	1497.07
196.24	1427.43
196.46	1538.02
196.69	1515.50
196.91	1638.38
197.13	1499.11
197.35	1550.31
197.57	1556.46
197.79	1570.79
198.01	1576.94
198.23	1621.99
198.45	1542.12
198.67	1431.53
198.89	1552.36
199.11	1464.30
199.33	1511.40
199.55	1409.00
199.77	1533.93
199.99	1552.36
200.21	1486.83
200.43	1560.55
200.65	1505.26
200.87	1396.71
201.09	1558.50
201.31	1495.02
201.53	1540.07
201.75	1587.18
201.97	1513.45
202.19	1566.70
202.41	1540.07
202.63	1687.53
202.85	1531.88
203.07	1572.84
203.29	1486.83
203.51	1466.35
203.73	1509.35
203.95	1716.20
204.17	1615.85
204.39	1519.59
204.61	1503.21
204.83	1505.26
205.05	1529.83
205.27	1603.56
205.49	1560.55
205.71	1517.54
205.93	1445.87
206.15	1449.96
206.37	1576.94
206.59	1529.83
206.81	1562.60
207.03	1501.16
207.25	1417.19
207.47	1591.27
207.69	1443.82
207.91	1636.33
208.13	1562.60
208.34	1474.54
208.56	1521.64
208.78	1613.80
209.00	1474.54
209.22	1437.67
209.44	1525.74
209.66	1495.02
209.88	1474.54
210.10	1535.98
210.32	1542.12
210.54	1607.66
210.76	1515.50
210.98	1599.46
211.20	1480.68
211.42	1599.46
211.64	1624.04
211.86	1591.27
212.08	1572.84
212.30	1587.18
212.52	1507.30
212.74	1482.73
212.96	1558.50
213.17	1519.59
213.39	1585.13
213.61	1611.75
213.83	1535.98
214.05	1503.21
214.27	1581.03
214.49	1466.35
214.71	1517.54
214.93	1607.66
215.15	1458.15
215.37	1630.18
215.59	1462.25
215.81	1554.41
216.03	1554.41
216.24	1511.40
216.46	1521.64
216.68	1499.11
216.90	1628.14
217.12	1583.08
217.34	1581.03
217.56	1546.22
217.78	1540.07
218.00	1478.63
218.22	1531.88
218.44	1626.09
218.66	1517.54
218.87	1591.27
219.09	1562.60
219.31	1576.94
219.53	1488.87
219.75	1515.50
219.97	1558.50
220.19	1566.70
220.41	1474.54
220.63	1546.22
220.85	1558.50
221.06	1521.64
221.28	1548.26
221.50	1535.98
221.72	1605.61
221.94	1548.26
222.16	1574.89
222.38	1527.78
222.60	1548.26
222.82	1464.30
223.03	1621.99
223.25	1462.25
223.47	1581.03
223.69	1562.60
223.91	1570.79
224.13	1550.31
224.35	1472.49
224.57	1564.65
224.78	1544.17
225.00	1501.16
225.22	1490.92
225.44	1554.41
225.66	1503.21
225.88	1550.31
226.10	1589.22
226.32	1538.02
226.53	1603.56
226.75	1505.26
226.97	1542.12
227.19	1476.59
227.41	1538.02
227.63	1452.01
227.85	1462.25
228.06	1501.16
228.28	1597.42
228.50	1585.13
228.72	1558.50
228.94	1511.40
229.16	1515.50
229.37	1470.44
229.59	1501.16
229.81	1609.70
230.03	1531.88
230.25	1462.25
230.47	1478.63
230.69	1488.87
230.90	1560.55
231.12	1546.22
231.34	1568.74
231.56	1609.70
231.78	1468.39
232.00	1550.31
232.21	1552.36
232.43	1599.46
232.65	1437.67
232.87	1570.79
233.09	1513.45
233.30	1462.25
233.52	1523.69
233.74	1574.89
233.96	1505.26
234.18	1548.26
234.40	1538.02
234.61	1581.03
234.83	1441.77
235.05	1507.30
235.27	1603.56
235.49	1568.74
235.70	1542.12
235.92	1554.41
236.14	1560.55
236.36	1581.03
236.58	1515.50
236.79	1523.69
237.01	1556.46
237.23	1486.83
237.45	1636.33
237.67	1427.43
237.88	1521.64
238.10	1634.28
238.32	1466.35
238.54	1456.11
238.76	1533.93
238.97	1517.54
239.19	1556.46
239.41	1613.80
239.63	1619.94
239.85	1566.70
240.06	1535.98
240.28	1533.93
240.50	1533.93
240.72	1497.07
240.93	1560.55
241.15	1531.88
241.37	1601.51
241.59	1609.70
241.81	1560.55
242.02	1538.02
242.24	1468.39
242.46	1587.18
242.68	1466.35
242.89	1554.41
243.11	1605.61
243.33	1509.35
243.55	1490.92
243.76	1576.94
243.98	1484.78
244.20	1519.59
244.42	1509.35
244.64	1560.55
244.85	1441.77
245.07	1535.98
245.29	1568.74
245.51	1544.17
245.72	1495.02
245.94	1548.26
246.16	1503.21
246.38	1576.94
246.59	1492.97
246.81	1591.27
247.03	1484.78
247.24	1460.20
247.46	1482.73
247.68	1628.14
247.90	1556.46
248.11	1538.02
248.33	1619.94
248.55	1511.40
248.77	1509.35
248.98	1593.32
249.20	1542.12
249.42	1544.17
249.64	1513.45
249.85	1499.11
250.07	1482.73
250.29	1546.22
250.50	1574.89
250.72	1462.25
250.94	1564.65
251.16	1665.00
251.37	1587.18
251.59	1501.16
251.81	1591.27
252.02	1638.38
252.24	1509.35
252.46	1640.42
252.68	1535.98
252.89	1578.98
253.11	1495.02
253.33	1673.19
253.54	1617.90
253.76	1423.34
253.98	1558.50
254.20	1560.55
254.41	1447.91
254.63	1527.78
254.85	1521.64
255.06	1572.84
255.28	1607.66
255.50	1445.87
255.71	1472.49
255.93	1429.48
256.15	1443.82
256.36	1552.36
256.58	1544.17
256.80	1558.50
257.02	1511.40
257.23	1501.16
257.45	1525.74
257.67	1603.56
257.88	1515.50
258.10	1533.93
258.32	1501.16
258.53	1425.39
258.75	1636.33
258.97	1501.16
259.18	1501.16
259.40	1556.46
259.62	1603.56
259.83	1562.60
260.05	1619.94
260.27	1746.92
260.48	1482.73
260.70	1435.63
260.92	1478.63
261.13	1601.51
261.35	1501.16
261.57	1527.78
261.78	1449.96
262.00	1505.26
262.22	1574.89
262.43	1538.02
262.65	1480.68
262.86	1517.54
263.08	1660.90
263.30	1603.56
263.51	1476.59
263.73	1460.20
263.95	1605.61
264.16	1460.20
264.38	1581.03
264.60	1585.13
264.81	1517.54
265.03	1636.33
265.25	1630.18
265.46	1554.41
265.68	1626.09
265.89	1554.41
266.11	1521.64
266.33	1601.51
266.54	1556.46
266.76	1507.30
266.98	1599.46
267.19	1548.26
267.41	1462.25
267.62	1535.98
267.84	1449.96
268.06	1535.98
268.27	1488.87
268.49	1556.46
268.70	1556.46
268.92	1550.31
269.14	1509.35
269.35	1464.30
269.57	1492.97
269.79	1581.03
270.00	1572.84
270.22	1607.66
270.43	1529.83
270.65	1492.97
270.87	1517.54
271.08	1574.89
271.30	1644.52
271.51	1642.47
271.73	1568.74
271.95	1636.33
272.16	1578.98
272.38	1568.74
272.59	1550.31
272.81	1585.13
273.02	1515.50
273.24	1578.98
273.46	1495.02
273.67	1519.59
273.89	1460.20
274.10	1570.79
274.32	1589.22
274.54	1511.40
274.75	1542.12
274.97	1470.44
275.18	1628.14
275.40	1554.41
275.61	1484.78
275.83	1525.74
276.05	1470.44
276.26	1523.69
276.48	1603.56
276.69	1601.51
276.91	1454.06
277.12	1599.46
277.34	1513.45
277.55	1546.22
277.77	1490.92
277.99	1521.64
278.20	1513.45
278.42	1501.16
278.63	1519.59
278.85	1499.11
279.06	1435.63
279.28	1576.94
279.49	1544.17
279.71	1562.60
279.93	1595.37
280.14	1499.11
280.36	1488.87
280.57	1591.27
280.79	1554.41
281.00	1515.50
281.22	1488.87
281.43	1550.31
281.65	1404.91
281.86	1583.08
282.08	1570.79
282.29	1658.85
282.51	1443.82
282.73	1509.35
282.94	1527.78
283.16	1583.08
283.37	1595.37
283.59	1492.97
283.80	1476.59
284.02	1576.94
284.23	1482.73
284.45	1480.68
284.66	1533.93
284.88	1460.20
285.09	1636.33
285.31	1601.51
285.52	1564.65
285.74	1472.49
285.95	1570.79
286.17	1538.02
286.38	1597.42
286.60	1503.21
286.81	1529.83
287.03	1486.83
287.24	1492.97
287.46	1554.41
287.67	1611.75
287.89	1607.66
288.10	1589.22
288.32	1525.74
288.53	1630.18
288.75	1523.69
288.96	1542.12
289.18	1535.98
289.39	1501.16
289.61	1550.31
289.82	1607.66
290.04	1595.37
290.25	1499.11
290.47	1523.69
290.68	1423.34
290.90	1656.81
291.11	1484.78
291.33	1572.84
291.54	1443.82
291.76	1527.78
291.97	1503.21
292.18	1556.46
292.40	1603.56
292.61	1509.35
292.83	1640.42
293.04	1521.64
293.26	1552.36
293.47	1581.03
293.69	1490.92
293.90	1482.73
294.12	1648.61
294.33	1576.94
294.55	1564.65
294.76	1638.38
294.97	1529.83
295.19	1583.08
295.40	1521.64
295.62	1527.78
295.83	1480.68
296.05	1478.63
296.26	1490.92
296.48	1546.22
296.69	1503.21
296.90	1472.49
297.12	1591.27
297.33	1568.74
297.55	1546.22
297.76	1538.02
297.98	1578.98
298.19	1464.30
298.41	1583.08
298.62	1462.25
298.83	1542.12
299.05	1525.74
299.26	1484.78
299.48	1507.30
299.69	1593.32
299.90	1525.74
300.12	1538.02
300.33	1601.51
300.55	1529.83
300.76	1591.27
300.98	1546.22
301.19	1499.11
301.40	1521.64
301.62	1515.50
301.83	1531.88
302.05	1519.59
302.26	1548.26
302.47	1523.69
302.69	1521.64
302.90	1527.78
303.12	1390.57
303.33	1581.03
303.54	1646.57
303.76	1505.26
303.97	1554.41
304.19	1665.00
304.40	1484.78
304.61	1589.22
304.83	1626.09
305.04	1578.98
305.26	1501.16
305.47	1476.59
305.68	1554.41
305.90	1474.54
306.11	1572.84
306.33	1507.30
306.54	1542.12
306.75	1523.69
306.97	1509.35
307.18	1511.40
307.39	1466.35
307.61	1617.90
307.82	1513.45
308.04	1634.28
308.25	1523.69
308.46	1501.16
308.68	1548.26
308.89	1527.78
309.10	1566.70
309.32	1566.70
309.53	1556.46
309.74	1574.89
309.96	1564.65
310.17	1636.33
310.39	1525.74
310.60	1533.93
310.81	1509.35
311.03	1499.11
311.24	1595.37
311.45	1513.45
311.67	1644.52
311.88	1533.93
312.09	1464.30
312.31	1542.12
312.52	1574.89
312.73	1499.11
312.95	1558.50
313.16	1443.82
313.37	1595.37
313.59	1617.90
313.80	1495.02
314.01	1621.99
314.23	1595.37
314.44	1529.83
314.65	1472.49
314.87	1480.68
315.08	1558.50
315.29	1490.92
315.51	1468.39
315.72	1511.40
315.93	1619.94
316.15	1632.23
316.36	1538.02
316.57	1558.50
316.79	1533.93
317.00	1607.66
317.21	1521.64
317.43	1519.59
317.64	1560.55
317.85	1478.63
318.07	1499.11
318.28	1564.65
318.49	1695.72
318.70	1724.39
318.92	1705.96
319.13	1634.28
319.34	1738.73
319.56	1615.85
319.77	1574.89
319.98	1656.81
320.20	1556.46
320.41	1611.75
320.62	1595.37
320.83	1583.08
321.05	1626.09
321.26	1550.31
321.47	1562.60
321.69	1531.88
321.90	1474.54
322.11	1492.97
322.32	1542.12
322.54	1624.04
322.75	1519.59
322.96	1583.08
323.18	1511.40
323.39	1449.96
323.60	1611.75
323.81	1574.89
324.03	1572.84
324.24	1509.35
324.45	1568.74
324.66	1527.78
324.88	1634.28
325.09	1581.03
325.30	1486.83
325.52	1566.70
325.73	1576.94
325.94	1505.26
326.15	1429.48
326.37	1497.07
326.58	1558.50
326.79	1613.80
327.00	1511.40
327.22	1497.07
327.43	1525.74
327.64	1431.53
327.85	1611.75
328.07	1566.70
328.28	1521.64
328.49	1513.45
328.70	1538.02
328.92	1538.02
329.13	1499.11
329.34	1591.27
329.55	1499.11
329.76	1562.60
329.98	1484.78
330.19	1609.70
330.40	1558.50
330.61	1605.61
330.83	1513.45
331.04	1568.74
331.25	1492.97
331.46	1503.21
331.68	1433.58
331.89	1578.98
332.10	1472.49
332.31	1435.63
332.52	1533.93
332.74	1554.41
332.95	1499.11
333.16	1552.36
333.37	1529.83
333.58	1587.18
333.80	1589.22
334.01	1486.83
334.22	1523.69
334.43	1495.02
334.64	1499.11
334.86	1431.53
335.07	1488.87
335.28	1595.37
335.49	1513.45
335.70	1572.84
335.92	1591.27
336.13	1693.67
336.34	1538.02
336.55	1511.40
336.76	1521.64
336.98	1492.97
337.19	1523.69
337.40	1589.22
337.61	1595.37
337.82	1527.78
338.04	1572.84
338.25	1486.83
338.46	1550.31
338.67	1495.02
338.88	1445.87
339.09	1542.12
339.31	1490.92
339.52	1509.35
339.73	1484.78
339.94	1527.78
340.15	1595.37
340.36	1550.31
340.58	1423.34
340.79	1566.70
341.00	1601.51
341.21	1374.19
341.42	1587.18
341.63	1585.13
341.85	1533.93
342.06	1476.59
342.27	1513.45
342.48	1519.59
342.69	1404.91
342.90	1519.59
343.12	1578.98
343.33	1513.45
343.54	1572.84
343.75	1572.84
343.96	1585.13
344.17	1437.67
344.38	1566.70
344.60	1531.88
344.81	1423.34
345.02	1535.98
345.23	1466.35
345.44	1615.85
345.65	1617.90
345.86	1581.03
346.07	1550.31
346.29	1501.16
346.50	1501.16
346.71	1615.85
346.92	1574.89
347.13	1634.28
347.34	1572.84
347.55	1482.73
347.76	1519.59
347.98	1478.63
348.19	1495.02
348.40	1636.33
348.61	1505.26
348.82	1607.66
349.03	1589.22
349.24	1572.84
349.45	1632.23
349.66	1466.35
349.88	1507.30
350.09	1525.74
350.30	1615.85
350.51	1613.80
350.72	1570.79
350.93	1517.54
351.14	1505.26
351.35	1599.46
351.56	1591.27
351.77	1585.13
351.99	1574.89
352.20	1576.94
352.41	1576.94
352.62	1497.07
352.83	1576.94
353.04	1460.20
353.25	1519.59
353.46	1570.79
353.67	1556.46
353.88	1394.67
354.09	1574.89
354.30	1583.08
354.52	1505.26
354.73	1538.02
354.94	1511.40
355.15	1552.36
355.36	1636.33
355.57	1505.26
355.78	1568.74
355.99	1540.07
356.20	1540.07
356.41	1509.35
356.62	1550.31
356.83	1511.40
357.04	1585.13
357.25	1501.16
357.46	1562.60
357.68	1447.91
357.89	1490.92
358.10	1470.44
358.31	1656.81
358.52	1437.67
358.73	1460.20
358.94	1456.11
359.15	1560.55
359.36	1556.46
359.57	1511.40
359.78	1509.35
359.99	1566.70
360.20	1474.54
360.41	1597.42
360.62	1587.18
360.83	1621.99
361.04	1552.36
361.25	1490.92
361.46	1619.94
361.67	1613.80
361.88	1591.27
362.09	1576.94
362.30	1562.60
362.51	1550.31
362.72	1505.26
362.93	1560.55
363.14	1503.21
363.35	1576.94
363.56	1443.82
363.78	1566.70
363.99	1552.36
364.20	1462.25
364.41	1544.17
364.62	1574.89
364.83	1560.55
365.04	1558.50
365.25	1566.70
365.46	1671.14
365.67	1513.45
365.88	1542.12
366.09	1521.64
366.30	1505.26
366.51	1624.04
366.72	1527.78
366.93	1511.40
367.14	1460.20
367.35	1583.08
367.56	1517.54
367.77	1546.22
367.98	1486.83
368.18	1535.98
368.39	1556.46
368.60	1470.44
368.81	1558.50
369.02	1400.81
369.23	1576.94
369.44	1476.59
369.65	1519.59
369.86	1552.36
370.07	1568.74
370.28	1554.41
370.49	1583.08
370.70	1576.94
370.91	1501.16
371.12	1517.54
371.33	1591.27
371.54	1474.54
371.75	1626.09
371.96	1402.86
372.17	1552.36
372.38	1572.84
372.59	1519.59
372.80	1492.97
373.01	1544.17
373.22	1525.74
373.43	1583.08
373.64	1501.16
373.85	1591.27
374.06	1607.66
374.26	1601.51
374.47	1593.32
374.68	1624.04
374.89	1478.63
375.10	1486.83
375.31	1538.02
375.52	1513.45
375.73	1519.59
375.94	1521.64
376.15	1650.66
376.36	1427.43
376.57	1443.82
376.78	1542.12
376.99	1533.93
377.20	1605.61
377.40	1546.22
377.61	1591.27
377.82	1554.41
378.03	1675.24
378.24	1621.99
378.45	1503.21
378.66	1509.35
378.87	1525.74
379.08	1460.20
379.29	1482.73
379.50	1562.60
379.71	1527.78
379.91	1527.78
380.12	1556.46
380.33	1585.13
380.54	1585.13
380.75	1495.02
380.96	1556.46
381.17	1531.88
381.38	1595.37
381.59	1660.90
381.80	1599.46
382.00	1691.62
382.21	1552.36
382.42	1675.24
382.63	1712.10
382.84	1585.13
383.05	1538.02
383.26	1599.46
383.47	1632.23
383.68	1607.66
383.88	1566.70
384.09	1574.89
384.30	1595.37
384.51	1589.22
384.72	1597.42
384.93	1456.11
385.14	1554.41
385.35	1560.55
385.55	1460.20
385.76	1540.07
385.97	1507.30
386.18	1505.26
386.39	1513.45
386.60	1560.55
386.81	1560.55
387.02	1558.50
387.22	1445.87
387.43	1691.62
387.64	1636.33
387.85	1806.31
388.06	3147.73
388.27	7364.50
388.48	10757.98
388.68	12275.52
388.89	13891.37
389.10	12719.93
389.31	10002.28
389.52	8701.82
389.73	7747.47
389.93	7210.90
390.14	6698.91
390.35	6307.74
390.56	5443.50
390.77	4591.55
390.98	3651.53
391.18	2877.40
391.39	2074.59
391.60	1837.03
391.81	1669.09
392.02	1554.41
392.23	1705.96
392.43	1578.98
392.64	1667.05
392.85	1632.23
393.06	1617.90
393.27	1558.50
393.47	1511.40
393.68	1568.74
393.89	1556.46
394.10	1574.89
394.31	1554.41
394.52	1480.68
394.72	1509.35
394.93	1636.33
395.14	1499.11
395.35	1587.18
395.56	1542.12
395.76	1624.04
395.97	1751.01
396.18	1695.72
396.39	1839.08
396.60	1929.19
396.80	1701.86
397.01	1654.76
397.22	1712.10
397.43	1681.38
397.64	1619.94
397.84	1554.41
398.05	1681.38
398.26	1583.08
398.47	1548.26
398.67	1646.57
398.88	1607.66
399.09	1544.17
399.30	1538.02
399.51	1511.40
399.71	1437.67
399.92	1452.01
400.13	1597.42
400.34	1552.36
400.54	1495.02
400.75	1599.46
400.96	1525.74
401.17	1617.90
401.37	1574.89
401.58	1554.41
401.79	1572.84
402.00	1837.03
402.21	1894.37
402.41	1918.95
402.62	1939.43
402.83	1904.61
403.04	1877.99
403.24	1957.86
403.45	1689.57
403.66	1767.40
403.87	1697.77
404.07	1683.43
404.28	1699.81
404.49	1697.77
404.70	1615.85
404.90	1673.19
405.11	1558.50
405.32	1581.03
405.52	1507.30
405.73	1507.30
405.94	1476.59
406.15	1552.36
406.35	1562.60
406.56	1542.12
406.77	1501.16
406.98	1574.89
407.18	1462.25
407.39	1683.43
407.60	1525.74
407.80	1601.51
408.01	1611.75
408.22	1509.35
408.43	1439.72
408.63	1566.70
408.84	1542.12
409.05	1597.42
409.25	1527.78
409.46	1486.83
409.67	1466.35
409.88	1558.50
410.08	1538.02
410.29	1495.02
410.50	1609.70
410.70	1583.08
410.91	1517.54
411.12	1523.69
411.32	1593.32
411.53	1540.07
411.74	1595.37
411.95	1591.27
412.15	1570.79
412.36	1658.85
412.57	1546.22
412.77	1597.42
412.98	1560.55
413.19	1497.07
413.39	1597.42
413.60	1578.98
413.81	1671.14
414.01	1591.27
414.22	1556.46
414.43	1605.61
414.63	1603.56
414.84	1665.00
415.05	1568.74
415.25	1456.11
415.46	1593.32
415.67	1527.78
415.87	1611.75
416.08	1599.46
416.29	1527.78
416.49	1621.99
416.70	1574.89
416.91	1525.74
417.11	1488.87
417.32	1538.02
417.53	1509.35
417.73	1568.74
417.94	1509.35
418.15	1578.98
418.35	1525.74
418.56	1488.87
418.77	1634.28
418.97	1626.09
419.18	1535.98
419.38	1447.91
419.59	1513.45
419.80	1638.38
420.00	1531.88
420.21	1503.21
420.42	1615.85
420.62	1589.22
420.83	1435.63
421.04	1503.21
421.24	1593.32
421.45	1570.79
421.65	1581.03
421.86	1583.08
422.07	1570.79
422.27	1587.18
422.48	1517.54
422.69	1533.93
422.89	1495.02
423.10	1519.59
423.30	1435.63
423.51	1589.22
423.72	1566.70
423.92	1535.98
424.13	1445.87
424.33	1570.79
424.54	1544.17
424.75	1525.74
424.95	1644.52
425.16	1601.51
425.36	1548.26
425.57	1574.89
425.78	1562.60
425.98	1619.94
426.19	1542.12
426.39	1449.96
426.60	1544.17
426.81	1574.89
427.01	1495.02
427.22	1517.54
427.42	1544.17
427.63	1435.63
427.83	1570.79
428.04	1576.94
428.25	1595.37
428.45	1499.11
428.66	1548.26
428.86	1540.07
429.07	1505.26
429.28	1513.45
429.48	1529.83
429.69	1486.83
429.89	1499.11
430.10	1474.54
430.30	1591.27
430.51	1626.09
430.71	1527.78
430.92	1464.30
431.13	1533.93
431.33	1587.18
431.54	1552.36
431.74	1611.75
431.95	1576.94
432.15	1476.59
432.36	1525.74
432.56	1531.88
432.77	1656.81
432.98	1617.90
433.18	1519.59
433.39	1507.30
433.59	1507.30
433.80	1624.04
434.00	1593.32
434.21	1597.42
434.41	1531.88
434.62	1673.19
434.82	1578.98
435.03	1564.65
435.23	1488.87
435.44	1492.97
435.64	1617.90
435.85	1562.60
436.06	1589.22
436.26	1605.61
436.47	1529.83
436.67	1478.63
436.88	1531.88
437.08	1521.64
437.29	1607.66
437.49	1589.22
437.70	1613.80
437.90	1607.66
438.11	1677.29
438.31	1646.57
438.52	1642.47
438.72	1703.91
438.93	1736.68
439.13	1724.39
439.34	1648.61
439.54	1595.37
439.75	1626.09
439.95	1658.85
440.16	1552.36
440.36	1605.61
440.57	1550.31
440.77	1632.23
440.98	1597.42
441.18	1566.70
441.39	1535.98
441.59	1527.78
441.80	1591.27
442.00	1505.26
442.21	1570.79
442.41	1421.29
442.62	1599.46
442.82	1525.74
443.02	1544.17
443.23	1533.93
443.43	1566.70
443.64	1562.60
443.84	1447.91
444.05	1509.35
444.25	1636.33
444.46	1513.45
444.66	1544.17
444.87	1589.22
445.07	1499.11
445.28	1609.70
445.48	1599.46
445.69	1538.02
445.89	1691.62
446.09	1624.04
446.30	2045.92
446.50	3172.30
446.71	4411.32
446.91	5289.90
447.12	5689.26
447.32	5541.80
447.53	4650.94
447.73	4018.11
447.93	3731.40
448.14	3332.05
448.34	3256.27
448.55	2850.77
448.75	2947.03
448.96	2684.89
449.16	2492.38
449.36	2338.78
449.57	1996.77
449.77	1798.12
449.98	1621.99
450.18	1644.52
450.39	1581.03
450.59	1570.79
450.79	1542.12
451.00	1515.50
451.20	1574.89
451.41	1546.22
451.61	1568.74
451.81	1505.26
452.02	1617.90
452.22	1509.35
452.43	1548.26
452.63	1464.30
