SpectraSuite Data File
++++++++++++++++++++++++++++++++++++
Date: Tue May 03 12:55:05 CEST 2016
User: root
Dark Spectrum Present: No
Reference Spectrum Present: No
Number of Sampled Component Spectra: 1
Spectrometers: USB4C02835
Integration Time (usec): 100000 (USB4C02835)
Spectra Averaged: 1 (USB4C02835)
Boxcar Smoothing: 0 (USB4C02835)
Correct for Electrical Dark: No (USB4C02835)
Strobe/Lamp Enabled: No (USB4C02835)
Correct for Detector Non-linearity: No (USB4C02835)
Correct for Stray Light: No (USB4C02835)
Number of Pixels in Processed Spectrum: 3648
>>>>>Begin Processed Spectral Data<<<<<
177.47	1329.13
177.69	1329.13
177.91	1329.13
178.13	1376.24
178.36	1380.33
178.58	1503.21
178.80	1593.32
179.02	1429.48
179.24	1535.98
179.46	1613.80
179.68	1564.65
179.90	1484.78
180.13	1517.54
180.35	1552.36
180.57	1552.36
180.79	1531.88
181.01	1538.02
181.23	1667.05
181.45	1671.14
181.67	1538.02
181.90	1564.65
182.12	1538.02
182.34	1517.54
182.56	1593.32
182.78	1574.89
183.00	1495.02
183.22	1544.17
183.44	1538.02
183.66	1642.47
183.89	1599.46
184.11	1556.46
184.33	1525.74
184.55	1599.46
184.77	1521.64
184.99	1527.78
185.21	1468.39
185.43	1716.20
185.65	1476.59
185.87	1525.74
186.10	1583.08
186.32	1648.61
186.54	1593.32
186.76	1535.98
186.98	1525.74
187.20	1495.02
187.42	1454.06
187.64	1548.26
187.86	1550.31
188.08	1492.97
188.30	1589.22
188.52	1564.65
188.75	1591.27
188.97	1509.35
189.19	1464.30
189.41	1578.98
189.63	1484.78
189.85	1509.35
190.07	1492.97
190.29	1423.34
190.51	1576.94
190.73	1492.97
190.95	1581.03
191.17	1591.27
191.39	1519.59
191.61	1533.93
191.84	1482.73
192.06	1519.59
192.28	1468.39
192.50	1673.19
192.72	1542.12
192.94	1535.98
193.16	1583.08
193.38	1533.93
193.60	1501.16
193.82	1558.50
194.04	1609.70
194.26	1546.22
194.48	1509.35
194.70	1460.20
194.92	1519.59
195.14	1656.81
195.36	1513.45
195.58	1576.94
195.80	1484.78
196.02	1454.06
196.24	1589.22
196.46	1542.12
196.69	1492.97
196.91	1583.08
197.13	1515.50
197.35	1521.64
197.57	1640.42
197.79	1523.69
198.01	1558.50
198.23	1607.66
198.45	1576.94
198.67	1507.30
198.89	1511.40
199.11	1535.98
199.33	1521.64
199.55	1427.43
199.77	1531.88
199.99	1535.98
200.21	1466.35
200.43	1558.50
200.65	1525.74
200.87	1501.16
201.09	1540.07
201.31	1490.92
201.53	1619.94
201.75	1542.12
201.97	1581.03
202.19	1523.69
202.41	1542.12
202.63	1609.70
202.85	1517.54
203.07	1519.59
203.29	1519.59
203.51	1515.50
203.73	1476.59
203.95	1697.77
204.17	1501.16
204.39	1593.32
204.61	1533.93
204.83	1566.70
205.05	1626.09
205.27	1611.75
205.49	1558.50
205.71	1454.06
205.93	1456.11
206.15	1501.16
206.37	1544.17
206.59	1470.44
206.81	1456.11
207.03	1507.30
207.25	1394.67
207.47	1599.46
207.69	1507.30
207.91	1540.07
208.13	1564.65
208.34	1443.82
208.56	1452.01
208.78	1505.26
209.00	1521.64
209.22	1419.24
209.44	1509.35
209.66	1509.35
209.88	1521.64
210.10	1472.49
210.32	1472.49
210.54	1654.76
210.76	1490.92
210.98	1558.50
211.20	1482.73
211.42	1525.74
211.64	1546.22
211.86	1503.21
212.08	1517.54
212.30	1581.03
212.52	1499.11
212.74	1492.97
212.96	1587.18
213.17	1546.22
213.39	1464.30
213.61	1581.03
213.83	1599.46
214.05	1517.54
214.27	1511.40
214.49	1456.11
214.71	1486.83
214.93	1540.07
215.15	1495.02
215.37	1568.74
215.59	1495.02
215.81	1556.46
216.03	1564.65
216.24	1521.64
216.46	1574.89
216.68	1591.27
216.90	1570.79
217.12	1599.46
217.34	1597.42
217.56	1445.87
217.78	1591.27
218.00	1554.41
218.22	1462.25
218.44	1527.78
218.66	1533.93
218.87	1566.70
219.09	1519.59
219.31	1529.83
219.53	1501.16
219.75	1525.74
219.97	1570.79
220.19	1513.45
220.41	1521.64
220.63	1650.66
220.85	1527.78
221.06	1478.63
221.28	1570.79
221.50	1550.31
221.72	1454.06
221.94	1535.98
222.16	1497.07
222.38	1599.46
222.60	1591.27
222.82	1531.88
223.03	1529.83
223.25	1490.92
223.47	1574.89
223.69	1677.29
223.91	1548.26
224.13	1558.50
224.35	1630.18
224.57	1605.61
224.78	1445.87
225.00	1501.16
225.22	1538.02
225.44	1533.93
225.66	1554.41
225.88	1521.64
226.10	1583.08
226.32	1535.98
226.53	1529.83
226.75	1507.30
226.97	1566.70
227.19	1509.35
227.41	1468.39
227.63	1523.69
227.85	1523.69
228.06	1525.74
228.28	1521.64
228.50	1550.31
228.72	1429.48
228.94	1546.22
229.16	1495.02
229.37	1484.78
229.59	1503.21
229.81	1568.74
230.03	1521.64
230.25	1497.07
230.47	1548.26
230.69	1484.78
230.90	1585.13
231.12	1423.34
231.34	1507.30
231.56	1607.66
231.78	1554.41
232.00	1570.79
232.21	1564.65
232.43	1482.73
232.65	1449.96
232.87	1554.41
233.09	1515.50
233.30	1535.98
233.52	1527.78
233.74	1527.78
233.96	1538.02
234.18	1499.11
234.40	1564.65
234.61	1619.94
234.83	1499.11
235.05	1470.44
235.27	1669.09
235.49	1585.13
235.70	1621.99
235.92	1576.94
236.14	1523.69
236.36	1609.70
236.58	1435.63
236.79	1628.14
237.01	1523.69
237.23	1505.26
237.45	1640.42
237.67	1544.17
237.88	1507.30
238.10	1589.22
238.32	1515.50
238.54	1492.97
238.76	1497.07
238.97	1517.54
239.19	1505.26
239.41	1648.61
239.63	1544.17
239.85	1540.07
240.06	1505.26
240.28	1566.70
240.50	1593.32
240.72	1605.61
240.93	1495.02
241.15	1603.56
241.37	1613.80
241.59	1550.31
241.81	1630.18
242.02	1531.88
242.24	1535.98
242.46	1607.66
242.68	1533.93
242.89	1605.61
243.11	1509.35
243.33	1509.35
243.55	1470.44
243.76	1531.88
243.98	1476.59
244.20	1501.16
244.42	1488.87
244.64	1560.55
244.85	1474.54
245.07	1515.50
245.29	1603.56
245.51	1540.07
245.72	1589.22
245.94	1572.84
246.16	1578.98
246.38	1570.79
246.59	1480.68
246.81	1466.35
247.03	1599.46
247.24	1535.98
247.46	1478.63
247.68	1554.41
247.90	1460.20
248.11	1486.83
248.33	1605.61
248.55	1505.26
248.77	1515.50
248.98	1613.80
249.20	1544.17
249.42	1513.45
249.64	1552.36
249.85	1560.55
250.07	1535.98
250.29	1578.98
250.50	1576.94
250.72	1441.77
250.94	1517.54
251.16	1603.56
251.37	1638.38
251.59	1501.16
251.81	1531.88
252.02	1607.66
252.24	1492.97
252.46	1527.78
252.68	1478.63
252.89	1535.98
253.11	1476.59
253.33	1542.12
253.54	1521.64
253.76	1480.68
253.98	1523.69
254.20	1554.41
254.41	1447.91
254.63	1591.27
254.85	1499.11
255.06	1554.41
255.28	1564.65
255.50	1519.59
255.71	1527.78
255.93	1497.07
256.15	1554.41
256.36	1533.93
256.58	1523.69
256.80	1634.28
257.02	1486.83
257.23	1484.78
257.45	1589.22
257.67	1589.22
257.88	1486.83
258.10	1558.50
258.32	1497.07
258.53	1558.50
258.75	1705.96
258.97	1480.68
259.18	1542.12
259.40	1538.02
259.62	1578.98
259.83	1574.89
260.05	1533.93
260.27	1701.86
260.48	1542.12
260.70	1484.78
260.92	1535.98
261.13	1519.59
261.35	1562.60
261.57	1570.79
261.78	1456.11
262.00	1509.35
262.22	1529.83
262.43	1478.63
262.65	1574.89
262.86	1535.98
263.08	1732.58
263.30	1544.17
263.51	1466.35
263.73	1443.82
263.95	1638.38
264.16	1507.30
264.38	1576.94
264.60	1513.45
264.81	1560.55
265.03	1538.02
265.25	1621.99
265.46	1572.84
265.68	1533.93
265.89	1558.50
266.11	1478.63
266.33	1564.65
266.54	1535.98
266.76	1505.26
266.98	1488.87
267.19	1488.87
267.41	1605.61
267.62	1531.88
267.84	1472.49
268.06	1550.31
268.27	1578.98
268.49	1628.14
268.70	1570.79
268.92	1568.74
269.14	1486.83
269.35	1439.72
269.57	1486.83
269.79	1599.46
270.00	1441.77
270.22	1681.38
270.43	1513.45
270.65	1417.19
270.87	1529.83
271.08	1529.83
271.30	1562.60
271.51	1595.37
271.73	1572.84
271.95	1619.94
272.16	1531.88
272.38	1542.12
272.59	1495.02
272.81	1550.31
273.02	1499.11
273.24	1550.31
273.46	1648.61
273.67	1509.35
273.89	1574.89
274.10	1509.35
274.32	1570.79
274.54	1517.54
274.75	1570.79
274.97	1505.26
275.18	1548.26
275.40	1521.64
275.61	1484.78
275.83	1544.17
276.05	1470.44
276.26	1492.97
276.48	1568.74
276.69	1517.54
276.91	1591.27
277.12	1650.66
277.34	1499.11
277.55	1576.94
277.77	1538.02
277.99	1484.78
278.20	1433.58
278.42	1558.50
278.63	1548.26
278.85	1509.35
279.06	1409.00
279.28	1538.02
279.49	1542.12
279.71	1587.18
279.93	1478.63
280.14	1523.69
280.36	1421.29
280.57	1636.33
280.79	1595.37
281.00	1513.45
281.22	1566.70
281.43	1648.61
281.65	1396.71
281.86	1470.44
282.08	1566.70
282.29	1585.13
282.51	1501.16
282.73	1529.83
282.94	1482.73
283.16	1671.14
283.37	1644.52
283.59	1525.74
283.80	1570.79
284.02	1617.90
284.23	1505.26
284.45	1462.25
284.66	1462.25
284.88	1478.63
285.09	1529.83
285.31	1554.41
285.52	1540.07
285.74	1482.73
285.95	1583.08
286.17	1558.50
286.38	1529.83
286.60	1460.20
286.81	1548.26
287.03	1540.07
287.24	1495.02
287.46	1667.05
287.67	1556.46
287.89	1599.46
288.10	1540.07
288.32	1568.74
288.53	1617.90
288.75	1517.54
288.96	1568.74
289.18	1447.91
289.39	1513.45
289.61	1570.79
289.82	1595.37
290.04	1497.07
290.25	1429.48
290.47	1509.35
290.68	1529.83
290.90	1511.40
291.11	1495.02
291.33	1624.04
291.54	1583.08
291.76	1501.16
291.97	1572.84
292.18	1556.46
292.40	1542.12
292.61	1513.45
292.83	1640.42
293.04	1570.79
293.26	1538.02
293.47	1566.70
293.69	1490.92
293.90	1566.70
294.12	1652.71
294.33	1599.46
294.55	1509.35
294.76	1599.46
294.97	1636.33
295.19	1644.52
295.40	1482.73
295.62	1576.94
295.83	1587.18
296.05	1458.15
296.26	1613.80
296.48	1533.93
296.69	1527.78
296.90	1568.74
297.12	1603.56
297.33	1673.19
297.55	1529.83
297.76	1591.27
297.98	1558.50
298.19	1501.16
298.41	1458.15
298.62	1529.83
298.83	1656.81
299.05	1558.50
299.26	1529.83
299.48	1488.87
299.69	1576.94
299.90	1484.78
300.12	1458.15
300.33	1593.32
300.55	1517.54
300.76	1617.90
300.98	1482.73
301.19	1642.47
301.40	1570.79
301.62	1517.54
301.83	1570.79
302.05	1517.54
302.26	1515.50
302.47	1505.26
302.69	1550.31
302.90	1474.54
303.12	1474.54
303.33	1558.50
303.54	1638.38
303.76	1470.44
303.97	1599.46
304.19	1656.81
304.40	1486.83
304.61	1591.27
304.83	1628.14
305.04	1531.88
305.26	1591.27
305.47	1523.69
305.68	1511.40
305.90	1507.30
306.11	1556.46
306.33	1492.97
306.54	1515.50
306.75	1427.43
306.97	1490.92
307.18	1484.78
307.39	1421.29
307.61	1581.03
307.82	1525.74
308.04	1566.70
308.25	1488.87
308.46	1566.70
308.68	1527.78
308.89	1501.16
309.10	1626.09
309.32	1511.40
309.53	1521.64
309.74	1540.07
309.96	1570.79
310.17	1632.23
310.39	1581.03
310.60	1595.37
310.81	1609.70
311.03	1505.26
311.24	1454.06
311.45	1558.50
311.67	1583.08
311.88	1562.60
312.09	1533.93
312.31	1501.16
312.52	1511.40
312.73	1574.89
312.95	1497.07
313.16	1499.11
313.37	1560.55
313.59	1572.84
313.80	1552.36
314.01	1599.46
314.23	1558.50
314.44	1480.68
314.65	1470.44
314.87	1456.11
315.08	1527.78
315.29	1497.07
315.51	1464.30
315.72	1419.24
315.93	1640.42
316.15	1665.00
316.36	1492.97
316.57	1519.59
316.79	1495.02
317.00	1492.97
317.21	1617.90
317.43	1486.83
317.64	1511.40
317.85	1478.63
318.07	1511.40
318.28	1650.66
318.49	1710.05
318.70	1763.30
318.92	1732.58
319.13	1656.81
319.34	1624.04
319.56	1675.24
319.77	1644.52
319.98	1656.81
320.20	1636.33
320.41	1628.14
320.62	1495.02
320.83	1472.49
321.05	1632.23
321.26	1640.42
321.47	1519.59
321.69	1583.08
321.90	1456.11
322.11	1501.16
322.32	1576.94
322.54	1576.94
322.75	1509.35
322.96	1589.22
323.18	1513.45
323.39	1509.35
323.60	1572.84
323.81	1568.74
324.03	1566.70
324.24	1593.32
324.45	1574.89
324.66	1484.78
324.88	1658.85
325.09	1540.07
325.30	1581.03
325.52	1554.41
325.73	1486.83
325.94	1476.59
326.15	1513.45
326.37	1503.21
326.58	1570.79
326.79	1566.70
327.00	1542.12
327.22	1566.70
327.43	1525.74
327.64	1527.78
327.85	1544.17
328.07	1468.39
328.28	1621.99
328.49	1503.21
328.70	1560.55
328.92	1521.64
329.13	1468.39
329.34	1574.89
329.55	1587.18
329.76	1572.84
329.98	1492.97
330.19	1574.89
330.40	1673.19
330.61	1447.91
330.83	1601.51
331.04	1587.18
331.25	1511.40
331.46	1560.55
331.68	1480.68
331.89	1566.70
332.10	1509.35
332.31	1456.11
332.52	1564.65
332.74	1578.98
332.95	1456.11
333.16	1581.03
333.37	1581.03
333.58	1486.83
333.80	1566.70
334.01	1484.78
334.22	1529.83
334.43	1488.87
334.64	1505.26
334.86	1492.97
335.07	1501.16
335.28	1611.75
335.49	1472.49
335.70	1517.54
335.92	1445.87
336.13	1603.56
336.34	1642.47
336.55	1605.61
336.76	1523.69
336.98	1454.06
337.19	1546.22
337.40	1566.70
337.61	1675.24
337.82	1505.26
338.04	1601.51
338.25	1378.28
338.46	1517.54
338.67	1509.35
338.88	1515.50
339.09	1535.98
339.31	1443.82
339.52	1492.97
339.73	1501.16
339.94	1476.59
340.15	1560.55
340.36	1497.07
340.58	1607.66
340.79	1503.21
341.00	1560.55
341.21	1488.87
341.42	1617.90
341.63	1538.02
341.85	1540.07
342.06	1546.22
342.27	1480.68
342.48	1591.27
342.69	1449.96
342.90	1556.46
343.12	1595.37
343.33	1452.01
343.54	1513.45
343.75	1615.85
343.96	1484.78
344.17	1476.59
344.38	1615.85
344.60	1462.25
344.81	1462.25
345.02	1548.26
345.23	1624.04
345.44	1611.75
345.65	1603.56
345.86	1564.65
346.07	1443.82
346.29	1499.11
346.50	1538.02
346.71	1583.08
346.92	1591.27
347.13	1619.94
347.34	1521.64
347.55	1587.18
347.76	1554.41
347.98	1421.29
348.19	1507.30
348.40	1558.50
348.61	1462.25
348.82	1593.32
349.03	1578.98
349.24	1554.41
349.45	1570.79
349.66	1542.12
349.88	1501.16
350.09	1482.73
350.30	1621.99
350.51	1538.02
350.72	1452.01
350.93	1542.12
351.14	1468.39
351.35	1544.17
351.56	1492.97
351.77	1550.31
351.99	1626.09
352.20	1640.42
352.41	1609.70
352.62	1372.14
352.83	1507.30
353.04	1544.17
353.25	1521.64
353.46	1533.93
353.67	1581.03
353.88	1462.25
354.09	1521.64
354.30	1470.44
354.52	1533.93
354.73	1521.64
354.94	1568.74
355.15	1478.63
355.36	1562.60
355.57	1437.67
355.78	1562.60
355.99	1531.88
356.20	1523.69
356.41	1632.23
356.62	1527.78
356.83	1533.93
357.04	1583.08
357.25	1495.02
357.46	1497.07
357.68	1482.73
357.89	1519.59
358.10	1480.68
358.31	1509.35
358.52	1515.50
358.73	1482.73
358.94	1476.59
359.15	1542.12
359.36	1597.42
359.57	1515.50
359.78	1478.63
359.99	1486.83
360.20	1495.02
360.41	1490.92
360.62	1576.94
360.83	1554.41
361.04	1538.02
361.25	1529.83
361.46	1591.27
361.67	1597.42
361.88	1533.93
362.09	1484.78
362.30	1562.60
362.51	1501.16
362.72	1517.54
362.93	1589.22
363.14	1519.59
363.35	1607.66
363.56	1466.35
363.78	1654.76
363.99	1593.32
364.20	1517.54
364.41	1495.02
364.62	1542.12
364.83	1550.31
365.04	1478.63
365.25	1482.73
365.46	1617.90
365.67	1503.21
365.88	1558.50
366.09	1462.25
366.30	1529.83
366.51	1525.74
366.72	1540.07
366.93	1468.39
367.14	1503.21
367.35	1519.59
367.56	1533.93
367.77	1621.99
367.98	1550.31
368.18	1566.70
368.39	1554.41
368.60	1558.50
368.81	1523.69
369.02	1538.02
369.23	1550.31
369.44	1497.07
369.65	1564.65
369.86	1552.36
370.07	1601.51
370.28	1474.54
370.49	1552.36
370.70	1581.03
370.91	1482.73
371.12	1554.41
371.33	1574.89
371.54	1478.63
371.75	1638.38
371.96	1443.82
372.17	1581.03
372.38	1525.74
372.59	1540.07
372.80	1490.92
373.01	1552.36
373.22	1533.93
373.43	1585.13
373.64	1462.25
373.85	1585.13
374.06	1566.70
374.26	1689.57
374.47	1581.03
374.68	1624.04
374.89	1581.03
375.10	1490.92
375.31	1591.27
375.52	1538.02
375.73	1564.65
375.94	1456.11
376.15	1615.85
376.36	1540.07
376.57	1550.31
376.78	1562.60
376.99	1521.64
377.20	1587.18
377.40	1576.94
377.61	1654.76
377.82	1542.12
378.03	1595.37
378.24	1548.26
378.45	1566.70
378.66	1515.50
378.87	1470.44
379.08	1472.49
379.29	1437.67
379.50	1558.50
379.71	1480.68
379.91	1540.07
380.12	1482.73
380.33	1548.26
380.54	1548.26
380.75	1583.08
380.96	1535.98
381.17	1646.57
381.38	1550.31
381.59	1566.70
381.80	1636.33
382.00	1712.10
382.21	1507.30
382.42	1591.27
382.63	1689.57
382.84	1585.13
383.05	1626.09
383.26	1667.05
383.47	1519.59
383.68	1638.38
383.88	1589.22
384.09	1519.59
384.30	1636.33
384.51	1574.89
384.72	1552.36
384.93	1495.02
385.14	1554.41
385.35	1646.57
385.55	1429.48
385.76	1552.36
385.97	1578.98
386.18	1562.60
386.39	1540.07
386.60	1593.32
386.81	1578.98
387.02	1540.07
387.22	1521.64
387.43	1652.71
387.64	1691.62
387.85	1914.85
388.06	3164.11
388.27	7270.29
388.48	10717.02
388.68	12646.21
388.89	14006.06
389.10	12758.85
389.31	10245.99
389.52	8968.06
389.73	7745.42
389.93	7165.84
390.14	6891.41
390.35	6113.19
390.56	5586.86
390.77	4718.52
390.98	3585.99
391.18	2777.05
391.39	2131.94
391.60	1812.45
391.81	1673.19
392.02	1601.51
392.23	1611.75
392.43	1583.08
392.64	1613.80
392.85	1591.27
393.06	1583.08
393.27	1548.26
393.47	1521.64
393.68	1523.69
393.89	1495.02
394.10	1593.32
394.31	1468.39
394.52	1519.59
394.72	1583.08
394.93	1665.00
395.14	1509.35
395.35	1593.32
395.56	1482.73
395.76	1578.98
395.97	1662.95
396.18	1806.31
396.39	1787.88
396.60	1888.23
396.80	1818.60
397.01	1605.61
397.22	1734.63
397.43	1628.14
397.64	1554.41
397.84	1665.00
398.05	1740.77
398.26	1497.07
398.47	1683.43
398.67	1527.78
398.88	1650.66
399.09	1560.55
399.30	1513.45
399.51	1615.85
399.71	1497.07
399.92	1507.30
400.13	1529.83
400.34	1509.35
400.54	1515.50
400.75	1574.89
400.96	1546.22
401.17	1550.31
401.37	1556.46
401.58	1466.35
401.79	1611.75
402.00	1818.60
402.21	1904.61
402.41	1867.75
402.62	1904.61
402.83	1970.15
403.04	1806.31
403.24	1916.90
403.45	1695.72
403.66	1804.26
403.87	1751.01
404.07	1738.73
404.28	1744.87
404.49	1710.05
404.70	1662.95
404.90	1591.27
405.11	1597.42
405.32	1509.35
405.52	1562.60
405.73	1523.69
405.94	1460.20
406.15	1535.98
406.35	1558.50
406.56	1613.80
406.77	1644.52
406.98	1552.36
407.18	1538.02
407.39	1605.61
407.60	1552.36
407.80	1615.85
408.01	1507.30
408.22	1581.03
408.43	1456.11
408.63	1578.98
408.84	1554.41
409.05	1591.27
409.25	1544.17
409.46	1495.02
409.67	1519.59
409.88	1568.74
410.08	1546.22
410.29	1572.84
410.50	1585.13
410.70	1556.46
410.91	1517.54
411.12	1533.93
411.32	1523.69
411.53	1538.02
411.74	1644.52
411.95	1650.66
412.15	1652.71
412.36	1609.70
412.57	1542.12
412.77	1624.04
412.98	1603.56
413.19	1558.50
413.39	1517.54
413.60	1632.23
413.81	1687.53
414.01	1517.54
414.22	1546.22
414.43	1601.51
414.63	1540.07
414.84	1538.02
415.05	1421.29
415.25	1519.59
415.46	1556.46
415.67	1552.36
415.87	1581.03
416.08	1599.46
416.29	1585.13
416.49	1552.36
416.70	1531.88
416.91	1437.67
417.11	1533.93
417.32	1529.83
417.53	1538.02
417.73	1593.32
417.94	1566.70
418.15	1509.35
418.35	1558.50
418.56	1533.93
418.77	1642.47
418.97	1578.98
419.18	1509.35
419.38	1372.14
419.59	1538.02
419.80	1609.70
420.00	1474.54
420.21	1613.80
420.42	1583.08
420.62	1578.98
420.83	1535.98
421.04	1550.31
421.24	1519.59
421.45	1581.03
421.65	1595.37
421.86	1507.30
422.07	1535.98
422.27	1564.65
422.48	1556.46
422.69	1533.93
422.89	1517.54
423.10	1599.46
423.30	1478.63
423.51	1550.31
423.72	1550.31
423.92	1533.93
424.13	1535.98
424.33	1527.78
424.54	1558.50
424.75	1572.84
424.95	1621.99
425.16	1552.36
425.36	1554.41
425.57	1644.52
425.78	1593.32
425.98	1570.79
426.19	1431.53
426.39	1488.87
426.60	1556.46
426.81	1607.66
427.01	1525.74
427.22	1513.45
427.42	1488.87
427.63	1501.16
427.83	1574.89
428.04	1578.98
428.25	1638.38
428.45	1583.08
428.66	1513.45
428.86	1454.06
429.07	1484.78
429.28	1587.18
429.48	1589.22
429.69	1445.87
429.89	1578.98
430.10	1531.88
430.30	1552.36
430.51	1589.22
430.71	1538.02
430.92	1476.59
431.13	1503.21
431.33	1507.30
431.54	1572.84
431.74	1617.90
431.95	1634.28
432.15	1468.39
432.36	1538.02
432.56	1587.18
432.77	1652.71
432.98	1560.55
433.18	1546.22
433.39	1503.21
433.59	1517.54
433.80	1607.66
434.00	1601.51
434.21	1517.54
434.41	1513.45
434.62	1634.28
434.82	1490.92
435.03	1552.36
435.23	1544.17
435.44	1466.35
435.64	1507.30
435.85	1548.26
436.06	1585.13
436.26	1531.88
436.47	1578.98
436.67	1449.96
436.88	1544.17
437.08	1677.29
437.29	1595.37
437.49	1591.27
437.70	1595.37
437.90	1576.94
438.11	1726.44
438.31	1640.42
438.52	1740.77
438.72	1656.81
438.93	1753.06
439.13	1660.90
439.34	1644.52
439.54	1576.94
439.75	1576.94
439.95	1578.98
440.16	1576.94
440.36	1568.74
440.57	1597.42
440.77	1572.84
440.98	1578.98
441.18	1619.94
441.39	1495.02
441.59	1529.83
441.80	1546.22
442.00	1609.70
442.21	1617.90
442.41	1464.30
442.62	1640.42
442.82	1544.17
443.02	1583.08
443.23	1617.90
443.43	1529.83
443.64	1685.48
443.84	1525.74
444.05	1648.61
444.25	1556.46
444.46	1560.55
444.66	1593.32
444.87	1613.80
445.07	1509.35
445.28	1533.93
445.48	1626.09
445.69	1615.85
445.89	1658.85
446.09	1626.09
446.30	2058.21
446.50	3164.11
446.71	4560.83
446.91	5285.81
447.12	5785.51
447.32	5521.32
447.53	4667.32
447.73	4028.35
447.93	3704.78
448.14	3461.07
448.34	3246.03
448.55	2893.78
448.75	2908.12
448.96	2682.84
449.16	2488.28
449.36	2217.95
449.57	1986.53
449.77	1699.81
449.98	1613.80
450.18	1689.57
450.39	1640.42
450.59	1562.60
450.79	1501.16
451.00	1521.64
451.20	1517.54
451.41	1468.39
451.61	1650.66
451.81	1591.27
452.02	1476.59
452.22	1558.50
452.43	1519.59
452.63	1523.69
