SpectraSuite Data File
++++++++++++++++++++++++++++++++++++
Date: Tue May 03 12:55:06 CEST 2016
User: root
Dark Spectrum Present: No
Reference Spectrum Present: No
Number of Sampled Component Spectra: 1
Spectrometers: USB4C02835
Integration Time (usec): 100000 (USB4C02835)
Spectra Averaged: 1 (USB4C02835)
Boxcar Smoothing: 0 (USB4C02835)
Correct for Electrical Dark: No (USB4C02835)
Strobe/Lamp Enabled: No (USB4C02835)
Correct for Detector Non-linearity: No (USB4C02835)
Correct for Stray Light: No (USB4C02835)
Number of Pixels in Processed Spectrum: 3648
>>>>>Begin Processed Spectral Data<<<<<
177.47	1380.33
177.69	1380.33
177.91	1380.33
178.13	1312.75
178.36	1370.09
178.58	1535.98
178.80	1544.17
179.02	1488.87
179.24	1476.59
179.46	1513.45
179.68	1660.90
179.90	1513.45
180.13	1578.98
180.35	1476.59
180.57	1492.97
180.79	1531.88
181.01	1492.97
181.23	1552.36
181.45	1546.22
181.67	1576.94
181.90	1554.41
182.12	1468.39
182.34	1415.15
182.56	1568.74
182.78	1521.64
183.00	1484.78
183.22	1566.70
183.44	1503.21
183.66	1574.89
183.89	1611.75
184.11	1482.73
184.33	1558.50
184.55	1550.31
184.77	1570.79
184.99	1605.61
185.21	1458.15
185.43	1636.33
185.65	1558.50
185.87	1509.35
186.10	1660.90
186.32	1601.51
186.54	1564.65
186.76	1499.11
186.98	1458.15
187.20	1505.26
187.42	1538.02
187.64	1591.27
187.86	1542.12
188.08	1558.50
188.30	1513.45
188.52	1544.17
188.75	1527.78
188.97	1576.94
189.19	1521.64
189.41	1511.40
189.63	1566.70
189.85	1499.11
190.07	1525.74
190.29	1521.64
190.51	1609.70
190.73	1466.35
190.95	1597.42
191.17	1535.98
191.39	1501.16
191.61	1472.49
191.84	1468.39
192.06	1576.94
192.28	1441.77
192.50	1671.14
192.72	1566.70
192.94	1521.64
193.16	1609.70
193.38	1521.64
193.60	1464.30
193.82	1523.69
194.04	1548.26
194.26	1644.52
194.48	1462.25
194.70	1429.48
194.92	1593.32
195.14	1495.02
195.36	1499.11
195.58	1486.83
195.80	1556.46
196.02	1513.45
196.24	1560.55
196.46	1544.17
196.69	1511.40
196.91	1652.71
197.13	1574.89
197.35	1501.16
197.57	1611.75
197.79	1495.02
198.01	1538.02
198.23	1560.55
198.45	1538.02
198.67	1495.02
198.89	1499.11
199.11	1550.31
199.33	1480.68
199.55	1419.24
199.77	1517.54
199.99	1585.13
200.21	1486.83
200.43	1550.31
200.65	1433.58
200.87	1490.92
201.09	1570.79
201.31	1589.22
201.53	1550.31
201.75	1540.07
201.97	1605.61
202.19	1503.21
202.41	1513.45
202.63	1558.50
202.85	1597.42
203.07	1527.78
203.29	1542.12
203.51	1458.15
203.73	1480.68
203.95	1669.09
204.17	1560.55
204.39	1523.69
204.61	1552.36
204.83	1501.16
205.05	1548.26
205.27	1566.70
205.49	1699.81
205.71	1507.30
205.93	1488.87
206.15	1521.64
206.37	1511.40
206.59	1521.64
206.81	1470.44
207.03	1495.02
207.25	1464.30
207.47	1605.61
207.69	1566.70
207.91	1503.21
208.13	1583.08
208.34	1472.49
208.56	1495.02
208.78	1513.45
209.00	1505.26
209.22	1488.87
209.44	1562.60
209.66	1538.02
209.88	1439.72
210.10	1478.63
210.32	1511.40
210.54	1611.75
210.76	1503.21
210.98	1589.22
211.20	1482.73
211.42	1574.89
211.64	1527.78
211.86	1556.46
212.08	1578.98
212.30	1640.42
212.52	1540.07
212.74	1566.70
212.96	1564.65
213.17	1681.38
213.39	1538.02
213.61	1585.13
213.83	1572.84
214.05	1490.92
214.27	1548.26
214.49	1488.87
214.71	1484.78
214.93	1621.99
215.15	1533.93
215.37	1542.12
215.59	1462.25
215.81	1591.27
216.03	1562.60
216.24	1540.07
216.46	1531.88
216.68	1636.33
216.90	1501.16
217.12	1642.47
217.34	1576.94
217.56	1488.87
217.78	1652.71
218.00	1535.98
218.22	1484.78
218.44	1583.08
218.66	1525.74
218.87	1550.31
219.09	1538.02
219.31	1593.32
219.53	1634.28
219.75	1535.98
219.97	1525.74
220.19	1550.31
220.41	1497.07
220.63	1658.85
220.85	1495.02
221.06	1535.98
221.28	1624.04
221.50	1581.03
221.72	1521.64
221.94	1583.08
222.16	1497.07
222.38	1521.64
222.60	1617.90
222.82	1599.46
223.03	1560.55
223.25	1540.07
223.47	1621.99
223.69	1710.05
223.91	1527.78
224.13	1554.41
224.35	1445.87
224.57	1593.32
224.78	1529.83
225.00	1492.97
225.22	1525.74
225.44	1566.70
225.66	1550.31
225.88	1550.31
226.10	1572.84
226.32	1554.41
226.53	1566.70
226.75	1523.69
226.97	1554.41
227.19	1591.27
227.41	1458.15
227.63	1583.08
227.85	1462.25
228.06	1548.26
228.28	1640.42
228.50	1624.04
228.72	1542.12
228.94	1466.35
229.16	1439.72
229.37	1513.45
229.59	1476.59
229.81	1568.74
230.03	1468.39
230.25	1462.25
230.47	1456.11
230.69	1447.91
230.90	1535.98
231.12	1464.30
231.34	1574.89
231.56	1527.78
231.78	1435.63
232.00	1488.87
232.21	1570.79
232.43	1501.16
232.65	1380.33
232.87	1597.42
233.09	1576.94
233.30	1535.98
233.52	1632.23
233.74	1570.79
233.96	1443.82
234.18	1542.12
234.40	1562.60
234.61	1658.85
234.83	1484.78
235.05	1589.22
235.27	1632.23
235.49	1562.60
235.70	1564.65
235.92	1562.60
236.14	1472.49
236.36	1634.28
236.58	1562.60
236.79	1621.99
237.01	1560.55
237.23	1554.41
237.45	1570.79
237.67	1546.22
237.88	1574.89
238.10	1593.32
238.32	1441.77
238.54	1568.74
238.76	1519.59
238.97	1490.92
239.19	1511.40
239.41	1550.31
239.63	1550.31
239.85	1607.66
240.06	1492.97
240.28	1533.93
240.50	1593.32
240.72	1441.77
240.93	1462.25
241.15	1546.22
241.37	1468.39
241.59	1533.93
241.81	1574.89
242.02	1523.69
242.24	1550.31
242.46	1558.50
242.68	1497.07
242.89	1583.08
243.11	1538.02
243.33	1523.69
243.55	1521.64
243.76	1495.02
243.98	1482.73
244.20	1570.79
244.42	1544.17
244.64	1626.09
244.85	1484.78
245.07	1519.59
245.29	1562.60
245.51	1472.49
245.72	1535.98
245.94	1605.61
246.16	1585.13
246.38	1578.98
246.59	1552.36
246.81	1527.78
247.03	1560.55
247.24	1462.25
247.46	1519.59
247.68	1574.89
247.90	1490.92
248.11	1574.89
248.33	1564.65
248.55	1624.04
248.77	1564.65
248.98	1572.84
249.20	1634.28
249.42	1597.42
249.64	1542.12
249.85	1589.22
250.07	1480.68
250.29	1607.66
250.50	1552.36
250.72	1570.79
250.94	1505.26
251.16	1689.57
251.37	1605.61
251.59	1574.89
251.81	1540.07
252.02	1533.93
252.24	1583.08
252.46	1550.31
252.68	1490.92
252.89	1587.18
253.11	1449.96
253.33	1605.61
253.54	1525.74
253.76	1460.20
253.98	1492.97
254.20	1581.03
254.41	1486.83
254.63	1511.40
254.85	1501.16
255.06	1546.22
255.28	1550.31
255.50	1544.17
255.71	1513.45
255.93	1431.53
256.15	1517.54
256.36	1640.42
256.58	1583.08
256.80	1574.89
257.02	1497.07
257.23	1540.07
257.45	1591.27
257.67	1531.88
257.88	1525.74
258.10	1574.89
258.32	1527.78
258.53	1509.35
258.75	1589.22
258.97	1531.88
259.18	1558.50
259.40	1521.64
259.62	1562.60
259.83	1558.50
260.05	1621.99
260.27	1701.86
260.48	1517.54
260.70	1472.49
260.92	1548.26
261.13	1480.68
261.35	1576.94
261.57	1525.74
261.78	1552.36
262.00	1556.46
262.22	1529.83
262.43	1513.45
262.65	1583.08
262.86	1599.46
263.08	1613.80
263.30	1523.69
263.51	1490.92
263.73	1544.17
263.95	1619.94
264.16	1406.95
264.38	1480.68
264.60	1535.98
264.81	1503.21
265.03	1599.46
265.25	1564.65
265.46	1466.35
265.68	1605.61
265.89	1521.64
266.11	1447.91
266.33	1593.32
266.54	1583.08
266.76	1552.36
266.98	1523.69
267.19	1650.66
267.41	1540.07
267.62	1495.02
267.84	1447.91
268.06	1542.12
268.27	1581.03
268.49	1601.51
268.70	1560.55
268.92	1581.03
269.14	1492.97
269.35	1509.35
269.57	1566.70
269.79	1609.70
270.00	1490.92
270.22	1619.94
270.43	1458.15
270.65	1404.91
270.87	1562.60
271.08	1509.35
271.30	1525.74
271.51	1540.07
271.73	1572.84
271.95	1603.56
272.16	1558.50
272.38	1427.43
272.59	1499.11
272.81	1574.89
273.02	1517.54
273.24	1519.59
273.46	1581.03
273.67	1495.02
273.89	1499.11
274.10	1458.15
274.32	1558.50
274.54	1589.22
274.75	1587.18
274.97	1517.54
275.18	1605.61
275.40	1566.70
275.61	1505.26
275.83	1556.46
276.05	1419.24
276.26	1517.54
276.48	1546.22
276.69	1462.25
276.91	1497.07
277.12	1644.52
277.34	1570.79
277.55	1615.85
277.77	1515.50
277.99	1484.78
278.20	1486.83
278.42	1527.78
278.63	1505.26
278.85	1476.59
279.06	1519.59
279.28	1542.12
279.49	1599.46
279.71	1515.50
279.93	1492.97
280.14	1583.08
280.36	1456.11
280.57	1560.55
280.79	1550.31
281.00	1523.69
281.22	1488.87
281.43	1533.93
281.65	1378.28
281.86	1574.89
282.08	1527.78
282.29	1601.51
282.51	1482.73
282.73	1540.07
282.94	1501.16
283.16	1499.11
283.37	1665.00
283.59	1525.74
283.80	1562.60
284.02	1529.83
284.23	1566.70
284.45	1517.54
284.66	1531.88
284.88	1486.83
285.09	1630.18
285.31	1650.66
285.52	1599.46
285.74	1435.63
285.95	1591.27
286.17	1509.35
286.38	1503.21
286.60	1486.83
286.81	1499.11
287.03	1441.77
287.24	1525.74
287.46	1521.64
287.67	1533.93
287.89	1669.09
288.10	1478.63
288.32	1632.23
288.53	1650.66
288.75	1542.12
288.96	1591.27
289.18	1554.41
289.39	1562.60
289.61	1552.36
289.82	1591.27
290.04	1619.94
290.25	1484.78
290.47	1484.78
290.68	1509.35
290.90	1615.85
291.11	1466.35
291.33	1597.42
291.54	1533.93
291.76	1585.13
291.97	1533.93
292.18	1509.35
292.40	1507.30
292.61	1513.45
292.83	1613.80
293.04	1507.30
293.26	1595.37
293.47	1548.26
293.69	1564.65
293.90	1480.68
294.12	1486.83
294.33	1509.35
294.55	1505.26
294.76	1572.84
294.97	1538.02
295.19	1607.66
295.40	1548.26
295.62	1564.65
295.83	1593.32
296.05	1509.35
296.26	1597.42
296.48	1466.35
296.69	1525.74
296.90	1472.49
297.12	1542.12
297.33	1652.71
297.55	1529.83
297.76	1527.78
297.98	1548.26
298.19	1556.46
298.41	1570.79
298.62	1566.70
298.83	1585.13
299.05	1542.12
299.26	1548.26
299.48	1413.10
299.69	1484.78
299.90	1488.87
300.12	1472.49
300.33	1593.32
300.55	1484.78
300.76	1605.61
300.98	1497.07
301.19	1603.56
301.40	1472.49
301.62	1578.98
301.83	1517.54
302.05	1552.36
302.26	1544.17
302.47	1535.98
302.69	1581.03
302.90	1581.03
303.12	1433.58
303.33	1597.42
303.54	1669.09
303.76	1492.97
303.97	1515.50
304.19	1615.85
304.40	1562.60
304.61	1611.75
304.83	1558.50
305.04	1542.12
305.26	1589.22
305.47	1515.50
305.68	1519.59
305.90	1484.78
306.11	1576.94
306.33	1529.83
306.54	1558.50
306.75	1531.88
306.97	1441.77
307.18	1490.92
307.39	1501.16
307.61	1517.54
307.82	1527.78
308.04	1548.26
308.25	1490.92
308.46	1517.54
308.68	1538.02
308.89	1552.36
309.10	1546.22
309.32	1521.64
309.53	1507.30
309.74	1490.92
309.96	1550.31
310.17	1521.64
310.39	1505.26
310.60	1529.83
310.81	1581.03
311.03	1480.68
311.24	1511.40
311.45	1497.07
311.67	1640.42
311.88	1523.69
312.09	1533.93
312.31	1474.54
312.52	1525.74
312.73	1566.70
312.95	1409.00
313.16	1474.54
313.37	1542.12
313.59	1529.83
313.80	1529.83
314.01	1634.28
314.23	1507.30
314.44	1476.59
314.65	1486.83
314.87	1497.07
315.08	1595.37
315.29	1572.84
315.51	1472.49
315.72	1470.44
315.93	1574.89
316.15	1554.41
316.36	1478.63
316.57	1564.65
316.79	1570.79
317.00	1517.54
317.21	1449.96
317.43	1511.40
317.64	1540.07
317.85	1472.49
318.07	1556.46
318.28	1654.76
318.49	1683.43
318.70	1828.84
318.92	1705.96
319.13	1677.29
319.34	1773.54
319.56	1624.04
319.77	1697.77
319.98	1640.42
320.20	1634.28
320.41	1644.52
320.62	1570.79
320.83	1486.83
321.05	1599.46
321.26	1609.70
321.47	1540.07
321.69	1587.18
321.90	1484.78
322.11	1576.94
322.32	1521.64
322.54	1732.58
322.75	1533.93
322.96	1636.33
323.18	1480.68
323.39	1425.39
323.60	1454.06
323.81	1585.13
324.03	1480.68
324.24	1544.17
324.45	1482.73
324.66	1478.63
324.88	1578.98
325.09	1607.66
325.30	1519.59
325.52	1515.50
325.73	1523.69
325.94	1515.50
326.15	1486.83
326.37	1558.50
326.58	1552.36
326.79	1507.30
327.00	1499.11
327.22	1517.54
327.43	1531.88
327.64	1521.64
327.85	1619.94
328.07	1540.07
328.28	1642.47
328.49	1515.50
328.70	1581.03
328.92	1531.88
329.13	1509.35
329.34	1533.93
329.55	1615.85
329.76	1681.38
329.98	1552.36
330.19	1607.66
330.40	1480.68
330.61	1558.50
330.83	1531.88
331.04	1492.97
331.25	1544.17
331.46	1519.59
331.68	1423.34
331.89	1560.55
332.10	1581.03
332.31	1517.54
332.52	1511.40
332.74	1583.08
332.95	1429.48
333.16	1542.12
333.37	1593.32
333.58	1460.20
333.80	1523.69
334.01	1433.58
334.22	1527.78
334.43	1509.35
334.64	1556.46
334.86	1525.74
335.07	1492.97
335.28	1519.59
335.49	1523.69
335.70	1603.56
335.92	1621.99
336.13	1562.60
336.34	1574.89
336.55	1511.40
336.76	1542.12
336.98	1449.96
337.19	1484.78
337.40	1617.90
337.61	1671.14
337.82	1437.67
338.04	1624.04
338.25	1484.78
338.46	1535.98
338.67	1492.97
338.88	1462.25
339.09	1458.15
339.31	1501.16
339.52	1482.73
339.73	1488.87
339.94	1480.68
340.15	1599.46
340.36	1513.45
340.58	1470.44
340.79	1445.87
341.00	1535.98
341.21	1527.78
341.42	1585.13
341.63	1505.26
341.85	1583.08
342.06	1509.35
342.27	1527.78
342.48	1519.59
342.69	1521.64
342.90	1509.35
343.12	1576.94
343.33	1591.27
343.54	1572.84
343.75	1581.03
343.96	1521.64
344.17	1466.35
344.38	1513.45
344.60	1427.43
344.81	1521.64
345.02	1521.64
345.23	1517.54
345.44	1609.70
345.65	1531.88
345.86	1484.78
346.07	1574.89
346.29	1454.06
346.50	1552.36
346.71	1634.28
346.92	1542.12
347.13	1544.17
347.34	1576.94
347.55	1560.55
347.76	1515.50
347.98	1419.24
348.19	1511.40
348.40	1599.46
348.61	1558.50
348.82	1560.55
349.03	1605.61
349.24	1488.87
349.45	1617.90
349.66	1460.20
349.88	1513.45
350.09	1488.87
350.30	1574.89
350.51	1621.99
350.72	1593.32
350.93	1517.54
351.14	1482.73
351.35	1435.63
351.56	1523.69
351.77	1558.50
351.99	1570.79
352.20	1583.08
352.41	1624.04
352.62	1513.45
352.83	1474.54
353.04	1572.84
353.25	1476.59
353.46	1509.35
353.67	1589.22
353.88	1490.92
354.09	1583.08
354.30	1591.27
354.52	1501.16
354.73	1515.50
354.94	1486.83
355.15	1576.94
355.36	1662.95
355.57	1497.07
355.78	1538.02
355.99	1521.64
356.20	1593.32
356.41	1560.55
356.62	1578.98
356.83	1525.74
357.04	1660.90
357.25	1396.71
357.46	1505.26
357.68	1511.40
357.89	1486.83
358.10	1517.54
358.31	1538.02
358.52	1515.50
358.73	1490.92
358.94	1511.40
359.15	1495.02
359.36	1572.84
359.57	1486.83
359.78	1511.40
359.99	1464.30
360.20	1566.70
360.41	1517.54
360.62	1607.66
360.83	1527.78
361.04	1521.64
361.25	1550.31
361.46	1578.98
361.67	1578.98
361.88	1581.03
362.09	1558.50
362.30	1533.93
362.51	1546.22
362.72	1601.51
362.93	1521.64
363.14	1470.44
363.35	1499.11
363.56	1568.74
363.78	1578.98
363.99	1527.78
364.20	1511.40
364.41	1535.98
364.62	1591.27
364.83	1570.79
365.04	1578.98
365.25	1568.74
365.46	1638.38
365.67	1476.59
365.88	1550.31
366.09	1566.70
366.30	1492.97
366.51	1462.25
366.72	1468.39
366.93	1597.42
367.14	1529.83
367.35	1632.23
367.56	1523.69
367.77	1675.24
367.98	1576.94
368.18	1480.68
368.39	1574.89
368.60	1454.06
368.81	1624.04
369.02	1552.36
369.23	1505.26
369.44	1570.79
369.65	1544.17
369.86	1562.60
370.07	1546.22
370.28	1607.66
370.49	1538.02
370.70	1599.46
370.91	1560.55
371.12	1566.70
371.33	1630.18
371.54	1525.74
371.75	1648.61
371.96	1390.57
372.17	1466.35
372.38	1560.55
372.59	1517.54
372.80	1513.45
373.01	1566.70
373.22	1564.65
373.43	1533.93
373.64	1505.26
373.85	1570.79
374.06	1646.57
374.26	1640.42
374.47	1495.02
374.68	1609.70
374.89	1490.92
375.10	1525.74
375.31	1621.99
375.52	1558.50
375.73	1503.21
375.94	1548.26
376.15	1605.61
376.36	1505.26
376.57	1505.26
376.78	1593.32
376.99	1515.50
377.20	1619.94
377.40	1535.98
377.61	1615.85
377.82	1490.92
378.03	1615.85
378.24	1517.54
378.45	1535.98
378.66	1544.17
378.87	1507.30
379.08	1447.91
379.29	1474.54
379.50	1568.74
379.71	1523.69
379.91	1583.08
380.12	1556.46
380.33	1495.02
380.54	1601.51
380.75	1454.06
380.96	1527.78
381.17	1572.84
381.38	1540.07
381.59	1613.80
381.80	1624.04
382.00	1656.81
382.21	1544.17
382.42	1716.20
382.63	1652.71
382.84	1486.83
383.05	1509.35
383.26	1662.95
383.47	1560.55
383.68	1548.26
383.88	1570.79
384.09	1552.36
384.30	1609.70
384.51	1574.89
384.72	1517.54
384.93	1464.30
385.14	1533.93
385.35	1517.54
385.55	1482.73
385.76	1613.80
385.97	1572.84
386.18	1480.68
386.39	1447.91
386.60	1558.50
386.81	1497.07
387.02	1554.41
387.22	1464.30
387.43	1648.61
387.64	1624.04
387.85	1861.60
388.06	3104.72
388.27	7139.22
388.48	10647.39
388.68	12226.37
388.89	13840.17
389.10	12695.36
389.31	10026.86
389.52	8791.93
389.73	7942.02
389.93	7153.55
390.14	6832.02
390.35	6231.97
390.56	5595.05
390.77	4661.18
390.98	3622.86
391.18	2828.24
391.39	2205.66
391.60	1773.54
391.81	1716.20
392.02	1611.75
392.23	1660.90
392.43	1519.59
392.64	1583.08
392.85	1595.37
393.06	1570.79
393.27	1511.40
393.47	1529.83
393.68	1548.26
393.89	1517.54
394.10	1650.66
394.31	1507.30
394.52	1501.16
394.72	1466.35
394.93	1564.65
395.14	1443.82
395.35	1560.55
395.56	1564.65
395.76	1660.90
395.97	1734.63
396.18	1787.88
396.39	1761.25
396.60	1875.94
396.80	1783.78
397.01	1681.38
397.22	1679.33
397.43	1617.90
397.64	1552.36
397.84	1624.04
398.05	1722.34
398.26	1597.42
398.47	1660.90
398.67	1560.55
398.88	1507.30
399.09	1560.55
399.30	1605.61
399.51	1544.17
399.71	1505.26
399.92	1486.83
400.13	1540.07
400.34	1593.32
400.54	1511.40
400.75	1654.76
400.96	1589.22
401.17	1611.75
401.37	1585.13
401.58	1495.02
401.79	1609.70
402.00	1751.01
402.21	1959.91
402.41	1961.95
402.62	1959.91
402.83	1945.57
403.04	1765.35
403.24	1972.19
403.45	1783.78
403.66	1771.49
403.87	1705.96
404.07	1832.93
404.28	1710.05
404.49	1753.06
404.70	1628.14
404.90	1566.70
405.11	1597.42
405.32	1535.98
405.52	1544.17
405.73	1460.20
405.94	1480.68
406.15	1540.07
406.35	1542.12
406.56	1570.79
406.77	1544.17
406.98	1517.54
407.18	1515.50
407.39	1646.57
407.60	1550.31
407.80	1525.74
408.01	1540.07
408.22	1552.36
408.43	1497.07
408.63	1505.26
408.84	1546.22
409.05	1605.61
409.25	1509.35
409.46	1523.69
409.67	1548.26
409.88	1486.83
410.08	1544.17
410.29	1480.68
410.50	1632.23
410.70	1568.74
410.91	1462.25
411.12	1540.07
411.32	1578.98
411.53	1593.32
411.74	1716.20
411.95	1654.76
412.15	1609.70
412.36	1613.80
412.57	1611.75
412.77	1599.46
412.98	1583.08
413.19	1587.18
413.39	1607.66
413.60	1578.98
413.81	1585.13
414.01	1562.60
414.22	1560.55
414.43	1587.18
414.63	1507.30
414.84	1593.32
415.05	1642.47
415.25	1488.87
415.46	1562.60
415.67	1437.67
415.87	1558.50
416.08	1529.83
416.29	1507.30
416.49	1495.02
416.70	1548.26
416.91	1544.17
417.11	1486.83
417.32	1546.22
417.53	1560.55
417.73	1568.74
417.94	1540.07
418.15	1542.12
418.35	1519.59
418.56	1542.12
418.77	1544.17
418.97	1517.54
419.18	1574.89
419.38	1525.74
419.59	1550.31
419.80	1597.42
420.00	1497.07
420.21	1523.69
420.42	1611.75
420.62	1568.74
420.83	1488.87
421.04	1609.70
421.24	1531.88
421.45	1544.17
421.65	1574.89
421.86	1542.12
422.07	1550.31
422.27	1517.54
422.48	1572.84
422.69	1499.11
422.89	1488.87
423.10	1560.55
423.30	1456.11
423.51	1523.69
423.72	1550.31
423.92	1583.08
424.13	1472.49
424.33	1560.55
424.54	1570.79
424.75	1542.12
424.95	1648.61
425.16	1492.97
425.36	1525.74
425.57	1542.12
425.78	1544.17
425.98	1624.04
426.19	1560.55
426.39	1495.02
426.60	1499.11
426.81	1669.09
427.01	1556.46
427.22	1490.92
427.42	1427.43
427.63	1558.50
427.83	1626.09
428.04	1626.09
428.25	1558.50
428.45	1542.12
428.66	1513.45
428.86	1533.93
429.07	1556.46
429.28	1566.70
429.48	1488.87
429.69	1470.44
429.89	1533.93
430.10	1499.11
430.30	1527.78
430.51	1572.84
430.71	1474.54
430.92	1568.74
431.13	1495.02
431.33	1601.51
431.54	1552.36
431.74	1583.08
431.95	1615.85
432.15	1425.39
432.36	1470.44
432.56	1585.13
432.77	1599.46
432.98	1691.62
433.18	1540.07
433.39	1558.50
433.59	1540.07
433.80	1671.14
434.00	1718.25
434.21	1525.74
434.41	1499.11
434.62	1611.75
434.82	1480.68
435.03	1570.79
435.23	1585.13
435.44	1437.67
435.64	1497.07
435.85	1624.04
436.06	1570.79
436.26	1550.31
436.47	1568.74
436.67	1478.63
436.88	1550.31
437.08	1576.94
437.29	1589.22
437.49	1529.83
437.70	1646.57
437.90	1521.64
438.11	1638.38
438.31	1615.85
438.52	1693.67
438.72	1732.58
438.93	1742.82
439.13	1658.85
439.34	1648.61
439.54	1603.56
439.75	1740.77
439.95	1550.31
440.16	1601.51
440.36	1546.22
440.57	1556.46
440.77	1576.94
440.98	1554.41
441.18	1581.03
441.39	1488.87
441.59	1525.74
441.80	1619.94
442.00	1572.84
442.21	1593.32
442.41	1507.30
442.62	1550.31
442.82	1505.26
443.02	1517.54
443.23	1564.65
443.43	1560.55
443.64	1675.24
443.84	1509.35
444.05	1650.66
444.25	1490.92
444.46	1540.07
444.66	1482.73
444.87	1595.37
445.07	1468.39
445.28	1529.83
445.48	1593.32
445.69	1665.00
445.89	1601.51
446.09	1710.05
446.30	2082.78
446.50	3045.33
446.71	4401.08
446.91	5232.56
447.12	5736.36
447.32	5470.12
447.53	4687.80
447.73	4057.03
447.93	3606.47
448.14	3362.76
448.34	3176.40
448.55	2871.25
448.75	2873.30
448.96	2772.95
449.16	2529.24
449.36	2295.77
449.57	2070.50
449.77	1775.59
449.98	1654.76
450.18	1628.14
450.39	1615.85
450.59	1615.85
450.79	1540.07
451.00	1525.74
451.20	1583.08
451.41	1601.51
451.61	1546.22
451.81	1576.94
452.02	1472.49
452.22	1527.78
452.43	1538.02
452.63	1566.70
