SpectraSuite Data File
++++++++++++++++++++++++++++++++++++
Date: Tue May 03 12:55:11 CEST 2016
User: root
Dark Spectrum Present: No
Reference Spectrum Present: No
Number of Sampled Component Spectra: 1
Spectrometers: USB4C02835
Integration Time (usec): 100000 (USB4C02835)
Spectra Averaged: 1 (USB4C02835)
Boxcar Smoothing: 0 (USB4C02835)
Correct for Electrical Dark: No (USB4C02835)
Strobe/Lamp Enabled: No (USB4C02835)
Correct for Detector Non-linearity: No (USB4C02835)
Correct for Stray Light: No (USB4C02835)
Number of Pixels in Processed Spectrum: 3648
>>>>>Begin Processed Spectral Data<<<<<
177.47	1337.32
177.69	1337.32
177.91	1337.32
178.13	1390.57
178.36	1339.37
178.58	1462.25
178.80	1578.98
179.02	1425.39
179.24	1484.78
179.46	1591.27
179.68	1544.17
179.90	1523.69
180.13	1468.39
180.35	1556.46
180.57	1490.92
180.79	1527.78
181.01	1523.69
181.23	1564.65
181.45	1587.18
181.67	1464.30
181.90	1538.02
182.12	1462.25
182.34	1513.45
182.56	1593.32
182.78	1517.54
183.00	1552.36
183.22	1568.74
183.44	1515.50
183.66	1603.56
183.89	1632.23
184.11	1560.55
184.33	1533.93
184.55	1556.46
184.77	1564.65
184.99	1611.75
185.21	1558.50
185.43	1642.47
185.65	1495.02
185.87	1509.35
186.10	1626.09
186.32	1605.61
186.54	1570.79
186.76	1513.45
186.98	1568.74
187.20	1513.45
187.42	1509.35
187.64	1562.60
187.86	1495.02
188.08	1589.22
188.30	1513.45
188.52	1480.68
188.75	1562.60
188.97	1683.43
189.19	1445.87
189.41	1519.59
189.63	1560.55
189.85	1472.49
190.07	1474.54
190.29	1449.96
190.51	1621.99
190.73	1523.69
190.95	1570.79
191.17	1513.45
191.39	1409.00
191.61	1482.73
191.84	1472.49
192.06	1554.41
192.28	1460.20
192.50	1615.85
192.72	1597.42
192.94	1566.70
193.16	1564.65
193.38	1511.40
193.60	1492.97
193.82	1519.59
194.04	1599.46
194.26	1552.36
194.48	1531.88
194.70	1499.11
194.92	1519.59
195.14	1548.26
195.36	1546.22
195.58	1572.84
195.80	1484.78
196.02	1492.97
196.24	1548.26
196.46	1525.74
196.69	1505.26
196.91	1665.00
197.13	1527.78
197.35	1482.73
197.57	1609.70
197.79	1478.63
198.01	1603.56
198.23	1476.59
198.45	1585.13
198.67	1480.68
198.89	1550.31
199.11	1515.50
199.33	1535.98
199.55	1523.69
199.77	1556.46
199.99	1615.85
200.21	1454.06
200.43	1615.85
200.65	1519.59
200.87	1380.33
201.09	1570.79
201.31	1591.27
201.53	1513.45
201.75	1490.92
201.97	1572.84
202.19	1433.58
202.41	1568.74
202.63	1681.38
202.85	1517.54
203.07	1585.13
203.29	1581.03
203.51	1443.82
203.73	1482.73
203.95	1699.81
204.17	1527.78
204.39	1556.46
204.61	1540.07
204.83	1548.26
205.05	1517.54
205.27	1521.64
205.49	1601.51
205.71	1482.73
205.93	1488.87
206.15	1507.30
206.37	1513.45
206.59	1554.41
206.81	1529.83
207.03	1546.22
207.25	1466.35
207.47	1523.69
207.69	1564.65
207.91	1626.09
208.13	1566.70
208.34	1509.35
208.56	1492.97
208.78	1595.37
209.00	1497.07
209.22	1517.54
209.44	1509.35
209.66	1517.54
209.88	1443.82
210.10	1574.89
210.32	1533.93
210.54	1708.01
210.76	1521.64
210.98	1548.26
211.20	1435.63
211.42	1515.50
211.64	1525.74
211.86	1554.41
212.08	1490.92
212.30	1511.40
212.52	1523.69
212.74	1578.98
212.96	1570.79
213.17	1535.98
213.39	1540.07
213.61	1595.37
213.83	1708.01
214.05	1492.97
214.27	1558.50
214.49	1468.39
214.71	1466.35
214.93	1538.02
215.15	1583.08
215.37	1527.78
215.59	1435.63
215.81	1560.55
216.03	1615.85
216.24	1544.17
216.46	1574.89
216.68	1574.89
216.90	1548.26
217.12	1601.51
217.34	1497.07
217.56	1570.79
217.78	1574.89
218.00	1540.07
218.22	1533.93
218.44	1525.74
218.66	1583.08
218.87	1669.09
219.09	1574.89
219.31	1576.94
219.53	1554.41
219.75	1492.97
219.97	1470.44
220.19	1542.12
220.41	1566.70
220.63	1595.37
220.85	1611.75
221.06	1527.78
221.28	1568.74
221.50	1495.02
221.72	1585.13
221.94	1560.55
222.16	1523.69
222.38	1533.93
222.60	1550.31
222.82	1480.68
223.03	1535.98
223.25	1492.97
223.47	1509.35
223.69	1585.13
223.91	1632.23
224.13	1519.59
224.35	1542.12
224.57	1609.70
224.78	1566.70
225.00	1464.30
225.22	1482.73
225.44	1535.98
225.66	1527.78
225.88	1503.21
226.10	1640.42
226.32	1601.51
226.53	1581.03
226.75	1525.74
226.97	1574.89
227.19	1546.22
227.41	1490.92
227.63	1585.13
227.85	1517.54
228.06	1583.08
228.28	1501.16
228.50	1542.12
228.72	1581.03
228.94	1482.73
229.16	1515.50
229.37	1460.20
229.59	1542.12
229.81	1667.05
230.03	1568.74
230.25	1464.30
230.47	1492.97
230.69	1499.11
230.90	1570.79
231.12	1509.35
231.34	1570.79
231.56	1642.47
231.78	1460.20
232.00	1560.55
232.21	1513.45
232.43	1503.21
232.65	1443.82
232.87	1521.64
233.09	1544.17
233.30	1544.17
233.52	1642.47
233.74	1480.68
233.96	1581.03
234.18	1429.48
234.40	1525.74
234.61	1591.27
234.83	1443.82
235.05	1486.83
235.27	1650.66
235.49	1599.46
235.70	1540.07
235.92	1617.90
236.14	1564.65
236.36	1626.09
236.58	1476.59
236.79	1632.23
237.01	1566.70
237.23	1443.82
237.45	1576.94
237.67	1456.11
237.88	1558.50
238.10	1634.28
238.32	1521.64
238.54	1495.02
238.76	1538.02
238.97	1484.78
239.19	1480.68
239.41	1540.07
239.63	1521.64
239.85	1449.96
240.06	1544.17
240.28	1517.54
240.50	1583.08
240.72	1568.74
240.93	1587.18
241.15	1587.18
241.37	1480.68
241.59	1591.27
241.81	1538.02
242.02	1521.64
242.24	1517.54
242.46	1517.54
242.68	1529.83
242.89	1501.16
243.11	1611.75
243.33	1542.12
243.55	1519.59
243.76	1544.17
243.98	1449.96
244.20	1503.21
244.42	1585.13
244.64	1599.46
244.85	1447.91
245.07	1458.15
245.29	1607.66
245.51	1540.07
245.72	1523.69
245.94	1511.40
246.16	1550.31
246.38	1552.36
246.59	1484.78
246.81	1503.21
247.03	1560.55
247.24	1531.88
247.46	1458.15
247.68	1548.26
247.90	1527.78
248.11	1566.70
248.33	1560.55
248.55	1511.40
248.77	1546.22
248.98	1570.79
249.20	1636.33
249.42	1568.74
249.64	1527.78
249.85	1507.30
250.07	1531.88
250.29	1527.78
250.50	1417.19
250.72	1398.76
250.94	1570.79
251.16	1648.61
251.37	1603.56
251.59	1521.64
251.81	1576.94
252.02	1501.16
252.24	1464.30
252.46	1599.46
252.68	1527.78
252.89	1437.67
253.11	1535.98
253.33	1693.67
253.54	1597.42
253.76	1490.92
253.98	1544.17
254.20	1499.11
254.41	1501.16
254.63	1484.78
254.85	1562.60
255.06	1503.21
255.28	1572.84
255.50	1593.32
255.71	1566.70
255.93	1560.55
256.15	1527.78
256.36	1581.03
256.58	1472.49
256.80	1574.89
257.02	1482.73
257.23	1464.30
257.45	1488.87
257.67	1597.42
257.88	1472.49
258.10	1558.50
258.32	1525.74
258.53	1490.92
258.75	1607.66
258.97	1456.11
259.18	1548.26
259.40	1499.11
259.62	1591.27
259.83	1558.50
260.05	1587.18
260.27	1714.15
260.48	1544.17
260.70	1466.35
260.92	1507.30
261.13	1562.60
261.35	1492.97
261.57	1576.94
261.78	1472.49
262.00	1566.70
262.22	1529.83
262.43	1521.64
262.65	1519.59
262.86	1542.12
263.08	1628.14
263.30	1560.55
263.51	1456.11
263.73	1454.06
263.95	1603.56
264.16	1503.21
264.38	1566.70
264.60	1581.03
264.81	1511.40
265.03	1566.70
265.25	1601.51
265.46	1509.35
265.68	1595.37
265.89	1519.59
266.11	1525.74
266.33	1570.79
266.54	1607.66
266.76	1570.79
266.98	1538.02
267.19	1560.55
267.41	1538.02
267.62	1587.18
267.84	1476.59
268.06	1605.61
268.27	1589.22
268.49	1546.22
268.70	1548.26
268.92	1523.69
269.14	1480.68
269.35	1478.63
269.57	1540.07
269.79	1529.83
270.00	1578.98
270.22	1603.56
270.43	1470.44
270.65	1482.73
270.87	1460.20
271.08	1538.02
271.30	1640.42
271.51	1495.02
271.73	1570.79
271.95	1615.85
272.16	1574.89
272.38	1540.07
272.59	1484.78
272.81	1607.66
273.02	1538.02
273.24	1525.74
273.46	1603.56
273.67	1550.31
273.89	1468.39
274.10	1499.11
274.32	1593.32
274.54	1503.21
274.75	1572.84
274.97	1533.93
275.18	1517.54
275.40	1542.12
275.61	1589.22
275.83	1523.69
276.05	1562.60
276.26	1523.69
276.48	1611.75
276.69	1488.87
276.91	1464.30
277.12	1576.94
277.34	1585.13
277.55	1574.89
277.77	1578.98
277.99	1595.37
278.20	1527.78
278.42	1548.26
278.63	1519.59
278.85	1433.58
279.06	1472.49
279.28	1566.70
279.49	1527.78
279.71	1552.36
279.93	1548.26
280.14	1578.98
280.36	1431.53
280.57	1572.84
280.79	1621.99
281.00	1544.17
281.22	1456.11
281.43	1544.17
281.65	1468.39
281.86	1495.02
282.08	1486.83
282.29	1595.37
282.51	1533.93
282.73	1511.40
282.94	1409.00
283.16	1581.03
283.37	1585.13
283.59	1531.88
283.80	1449.96
284.02	1521.64
284.23	1570.79
284.45	1499.11
284.66	1542.12
284.88	1501.16
285.09	1544.17
285.31	1578.98
285.52	1570.79
285.74	1433.58
285.95	1566.70
286.17	1535.98
286.38	1585.13
286.60	1566.70
286.81	1480.68
287.03	1468.39
287.24	1581.03
287.46	1521.64
287.67	1560.55
287.89	1665.00
288.10	1513.45
288.32	1572.84
288.53	1570.79
288.75	1587.18
288.96	1632.23
289.18	1484.78
289.39	1566.70
289.61	1550.31
289.82	1705.96
290.04	1560.55
290.25	1370.09
290.47	1599.46
290.68	1462.25
290.90	1578.98
291.11	1429.48
291.33	1607.66
291.54	1472.49
291.76	1527.78
291.97	1456.11
292.18	1578.98
292.40	1525.74
292.61	1474.54
292.83	1636.33
293.04	1562.60
293.26	1529.83
293.47	1521.64
293.69	1501.16
293.90	1517.54
294.12	1617.90
294.33	1519.59
294.55	1540.07
294.76	1558.50
294.97	1589.22
295.19	1603.56
295.40	1468.39
295.62	1546.22
295.83	1591.27
296.05	1527.78
296.26	1583.08
296.48	1578.98
296.69	1554.41
296.90	1593.32
297.12	1480.68
297.33	1552.36
297.55	1462.25
297.76	1525.74
297.98	1585.13
298.19	1501.16
298.41	1607.66
298.62	1517.54
298.83	1574.89
299.05	1570.79
299.26	1497.07
299.48	1523.69
299.69	1583.08
299.90	1513.45
300.12	1490.92
300.33	1587.18
300.55	1621.99
300.76	1619.94
300.98	1495.02
301.19	1642.47
301.40	1488.87
301.62	1478.63
301.83	1482.73
302.05	1570.79
302.26	1441.77
302.47	1529.83
302.69	1570.79
302.90	1574.89
303.12	1435.63
303.33	1681.38
303.54	1650.66
303.76	1492.97
303.97	1599.46
304.19	1628.14
304.40	1554.41
304.61	1480.68
304.83	1646.57
305.04	1607.66
305.26	1515.50
305.47	1495.02
305.68	1568.74
305.90	1447.91
306.11	1583.08
306.33	1445.87
306.54	1542.12
306.75	1603.56
306.97	1478.63
307.18	1458.15
307.39	1560.55
307.61	1595.37
307.82	1484.78
308.04	1570.79
308.25	1445.87
308.46	1554.41
308.68	1540.07
308.89	1449.96
309.10	1609.70
309.32	1527.78
309.53	1511.40
309.74	1550.31
309.96	1562.60
310.17	1595.37
310.39	1552.36
310.60	1550.31
310.81	1583.08
311.03	1464.30
311.24	1550.31
311.45	1574.89
311.67	1605.61
311.88	1544.17
312.09	1529.83
312.31	1513.45
312.52	1509.35
312.73	1437.67
312.95	1452.01
313.16	1544.17
313.37	1662.95
313.59	1576.94
313.80	1621.99
314.01	1656.81
314.23	1492.97
314.44	1527.78
314.65	1439.72
314.87	1443.82
315.08	1464.30
315.29	1478.63
315.51	1466.35
315.72	1525.74
315.93	1683.43
316.15	1626.09
316.36	1482.73
316.57	1462.25
316.79	1564.65
317.00	1603.56
317.21	1529.83
317.43	1497.07
317.64	1560.55
317.85	1490.92
318.07	1611.75
318.28	1695.72
318.49	1734.63
318.70	1765.35
318.92	1841.12
319.13	1703.91
319.34	1691.62
319.56	1624.04
319.77	1626.09
319.98	1587.18
320.20	1578.98
320.41	1599.46
320.62	1589.22
320.83	1439.72
321.05	1644.52
321.26	1595.37
321.47	1507.30
321.69	1572.84
321.90	1472.49
322.11	1542.12
322.32	1544.17
322.54	1482.73
322.75	1507.30
322.96	1568.74
323.18	1470.44
323.39	1419.24
323.60	1523.69
323.81	1583.08
324.03	1429.48
324.24	1525.74
324.45	1581.03
324.66	1486.83
324.88	1609.70
325.09	1591.27
325.30	1564.65
325.52	1583.08
325.73	1558.50
325.94	1484.78
326.15	1439.72
326.37	1533.93
326.58	1568.74
326.79	1542.12
327.00	1462.25
327.22	1558.50
327.43	1433.58
327.64	1445.87
327.85	1597.42
328.07	1597.42
328.28	1607.66
328.49	1476.59
328.70	1490.92
328.92	1542.12
329.13	1505.26
329.34	1540.07
329.55	1597.42
329.76	1603.56
329.98	1550.31
330.19	1630.18
330.40	1501.16
330.61	1554.41
330.83	1542.12
331.04	1497.07
331.25	1562.60
331.46	1558.50
331.68	1511.40
331.89	1568.74
332.10	1507.30
332.31	1544.17
332.52	1499.11
332.74	1535.98
332.95	1423.34
333.16	1501.16
333.37	1511.40
333.58	1499.11
333.80	1554.41
334.01	1404.91
334.22	1486.83
334.43	1501.16
334.64	1415.15
334.86	1421.29
335.07	1484.78
335.28	1550.31
335.49	1456.11
335.70	1560.55
335.92	1632.23
336.13	1728.49
336.34	1665.00
336.55	1525.74
336.76	1599.46
336.98	1544.17
337.19	1533.93
337.40	1566.70
337.61	1654.76
337.82	1533.93
338.04	1597.42
338.25	1452.01
338.46	1583.08
338.67	1511.40
338.88	1497.07
339.09	1509.35
339.31	1578.98
339.52	1525.74
339.73	1427.43
339.94	1511.40
340.15	1624.04
340.36	1550.31
340.58	1542.12
340.79	1429.48
341.00	1538.02
341.21	1488.87
341.42	1660.90
341.63	1572.84
341.85	1587.18
342.06	1535.98
342.27	1505.26
342.48	1665.00
342.69	1523.69
342.90	1511.40
343.12	1572.84
343.33	1603.56
343.54	1603.56
343.75	1613.80
343.96	1595.37
344.17	1443.82
344.38	1552.36
344.60	1495.02
344.81	1513.45
345.02	1441.77
345.23	1519.59
345.44	1646.57
345.65	1486.83
345.86	1529.83
346.07	1667.05
346.29	1503.21
346.50	1617.90
346.71	1626.09
346.92	1621.99
347.13	1613.80
347.34	1576.94
347.55	1533.93
347.76	1501.16
347.98	1517.54
348.19	1507.30
348.40	1644.52
348.61	1456.11
348.82	1574.89
349.03	1585.13
349.24	1470.44
349.45	1517.54
349.66	1357.80
349.88	1517.54
350.09	1540.07
350.30	1568.74
350.51	1542.12
350.72	1576.94
350.93	1552.36
351.14	1531.88
351.35	1564.65
351.56	1492.97
351.77	1480.68
351.99	1570.79
352.20	1607.66
352.41	1525.74
352.62	1521.64
352.83	1495.02
353.04	1546.22
353.25	1482.73
353.46	1529.83
353.67	1611.75
353.88	1470.44
354.09	1548.26
354.30	1626.09
354.52	1538.02
354.73	1607.66
354.94	1492.97
355.15	1484.78
355.36	1525.74
355.57	1554.41
355.78	1578.98
355.99	1523.69
356.20	1517.54
356.41	1546.22
356.62	1523.69
356.83	1517.54
357.04	1638.38
357.25	1527.78
357.46	1540.07
357.68	1478.63
357.89	1486.83
358.10	1550.31
358.31	1513.45
358.52	1476.59
358.73	1429.48
358.94	1490.92
359.15	1480.68
359.36	1519.59
359.57	1519.59
359.78	1515.50
359.99	1591.27
360.20	1437.67
360.41	1460.20
360.62	1603.56
360.83	1550.31
361.04	1581.03
361.25	1519.59
361.46	1538.02
361.67	1513.45
361.88	1548.26
362.09	1556.46
362.30	1601.51
362.51	1470.44
362.72	1519.59
362.93	1548.26
363.14	1558.50
363.35	1562.60
363.56	1476.59
363.78	1671.14
363.99	1574.89
364.20	1509.35
364.41	1533.93
364.62	1642.47
364.83	1482.73
365.04	1554.41
365.25	1542.12
365.46	1585.13
365.67	1495.02
365.88	1538.02
366.09	1509.35
366.30	1546.22
366.51	1515.50
366.72	1513.45
366.93	1540.07
367.14	1525.74
367.35	1591.27
367.56	1482.73
367.77	1595.37
367.98	1468.39
368.18	1519.59
368.39	1540.07
368.60	1513.45
368.81	1505.26
369.02	1648.61
369.23	1568.74
369.44	1476.59
369.65	1515.50
369.86	1599.46
370.07	1583.08
370.28	1601.51
370.49	1615.85
370.70	1513.45
370.91	1495.02
371.12	1501.16
371.33	1609.70
371.54	1501.16
371.75	1634.28
371.96	1488.87
372.17	1517.54
372.38	1603.56
372.59	1646.57
372.80	1507.30
373.01	1527.78
373.22	1542.12
373.43	1497.07
373.64	1484.78
373.85	1669.09
374.06	1564.65
374.26	1525.74
374.47	1570.79
374.68	1550.31
374.89	1513.45
375.10	1570.79
375.31	1558.50
375.52	1525.74
375.73	1544.17
375.94	1523.69
376.15	1636.33
376.36	1542.12
376.57	1585.13
376.78	1366.00
376.99	1441.77
377.20	1589.22
377.40	1497.07
377.61	1601.51
377.82	1466.35
378.03	1628.14
378.24	1538.02
378.45	1538.02
378.66	1587.18
378.87	1421.29
379.08	1431.53
379.29	1472.49
379.50	1611.75
379.71	1576.94
379.91	1501.16
380.12	1527.78
380.33	1568.74
380.54	1509.35
380.75	1501.16
380.96	1576.94
381.17	1574.89
381.38	1583.08
381.59	1595.37
381.80	1558.50
382.00	1667.05
382.21	1609.70
382.42	1669.09
382.63	1726.44
382.84	1609.70
383.05	1652.71
383.26	1638.38
383.47	1636.33
383.68	1619.94
383.88	1597.42
384.09	1517.54
384.30	1646.57
384.51	1568.74
384.72	1441.77
384.93	1468.39
385.14	1581.03
385.35	1593.32
385.55	1501.16
385.76	1640.42
385.97	1486.83
386.18	1497.07
386.39	1529.83
386.60	1583.08
386.81	1542.12
387.02	1447.91
387.22	1556.46
387.43	1665.00
387.64	1681.38
387.85	1832.93
388.06	3286.99
388.27	7202.71
388.48	10655.58
388.68	12431.17
388.89	13979.43
389.10	12875.58
389.31	10217.32
389.52	8818.55
389.73	7769.99
389.93	7208.85
390.14	6690.71
390.35	6377.37
390.56	5535.66
390.77	4665.27
390.98	3762.12
391.18	2787.29
391.39	2160.61
391.60	1781.73
391.81	1775.59
392.02	1597.42
392.23	1712.10
392.43	1591.27
392.64	1624.04
392.85	1574.89
393.06	1636.33
393.27	1574.89
393.47	1476.59
393.68	1560.55
393.89	1529.83
394.10	1613.80
394.31	1507.30
394.52	1576.94
394.72	1505.26
394.93	1703.91
395.14	1578.98
395.35	1683.43
395.56	1533.93
395.76	1531.88
395.97	1769.44
396.18	1787.88
396.39	1736.68
396.60	1984.48
396.80	1755.11
397.01	1673.19
397.22	1640.42
397.43	1660.90
397.64	1587.18
397.84	1603.56
398.05	1742.82
398.26	1611.75
398.47	1615.85
398.67	1587.18
398.88	1640.42
399.09	1566.70
399.30	1503.21
399.51	1568.74
399.71	1548.26
399.92	1531.88
400.13	1603.56
400.34	1476.59
400.54	1562.60
400.75	1572.84
400.96	1662.95
401.17	1597.42
401.37	1501.16
401.58	1585.13
401.79	1605.61
402.00	1769.44
402.21	1910.75
402.41	1861.60
402.62	2064.35
402.83	1949.67
403.04	1783.78
403.24	1892.32
403.45	1746.92
403.66	1746.92
403.87	1701.86
404.07	1730.53
404.28	1791.97
404.49	1726.44
404.70	1605.61
404.90	1578.98
405.11	1601.51
405.32	1574.89
405.52	1533.93
405.73	1517.54
405.94	1505.26
406.15	1535.98
406.35	1497.07
406.56	1509.35
406.77	1533.93
406.98	1599.46
407.18	1505.26
407.39	1572.84
407.60	1484.78
407.80	1542.12
408.01	1552.36
408.22	1509.35
408.43	1544.17
408.63	1544.17
408.84	1601.51
409.05	1574.89
409.25	1509.35
409.46	1570.79
409.67	1597.42
409.88	1486.83
410.08	1587.18
410.29	1542.12
410.50	1556.46
410.70	1640.42
410.91	1443.82
411.12	1593.32
411.32	1609.70
411.53	1572.84
411.74	1650.66
411.95	1619.94
412.15	1624.04
412.36	1576.94
412.57	1583.08
412.77	1626.09
412.98	1521.64
413.19	1525.74
413.39	1546.22
413.60	1531.88
413.81	1632.23
414.01	1456.11
414.22	1597.42
414.43	1601.51
414.63	1570.79
414.84	1472.49
415.05	1527.78
415.25	1468.39
415.46	1560.55
415.67	1521.64
415.87	1552.36
416.08	1597.42
416.29	1554.41
416.49	1591.27
416.70	1478.63
416.91	1542.12
417.11	1593.32
417.32	1611.75
417.53	1599.46
417.73	1572.84
417.94	1546.22
418.15	1578.98
418.35	1538.02
418.56	1523.69
418.77	1662.95
418.97	1525.74
419.18	1492.97
419.38	1482.73
419.59	1544.17
419.80	1630.18
420.00	1531.88
420.21	1583.08
420.42	1660.90
420.62	1591.27
420.83	1558.50
421.04	1595.37
421.24	1507.30
421.45	1593.32
421.65	1613.80
421.86	1529.83
422.07	1531.88
422.27	1531.88
422.48	1624.04
422.69	1519.59
422.89	1505.26
423.10	1497.07
423.30	1482.73
423.51	1531.88
423.72	1585.13
423.92	1529.83
424.13	1468.39
424.33	1527.78
424.54	1564.65
424.75	1513.45
424.95	1619.94
425.16	1550.31
425.36	1511.40
425.57	1609.70
425.78	1589.22
425.98	1607.66
426.19	1542.12
426.39	1507.30
426.60	1578.98
426.81	1554.41
427.01	1538.02
427.22	1572.84
427.42	1495.02
427.63	1531.88
427.83	1529.83
428.04	1558.50
428.25	1652.71
428.45	1585.13
428.66	1511.40
428.86	1587.18
429.07	1466.35
429.28	1560.55
429.48	1468.39
429.69	1583.08
429.89	1568.74
430.10	1558.50
430.30	1572.84
430.51	1560.55
430.71	1525.74
430.92	1529.83
431.13	1476.59
431.33	1619.94
431.54	1609.70
431.74	1613.80
431.95	1566.70
432.15	1527.78
432.36	1558.50
432.56	1611.75
432.77	1646.57
432.98	1660.90
433.18	1636.33
433.39	1615.85
433.59	1503.21
433.80	1589.22
434.00	1665.00
434.21	1593.32
434.41	1492.97
434.62	1718.25
434.82	1488.87
435.03	1447.91
435.23	1488.87
435.44	1460.20
435.64	1538.02
435.85	1535.98
436.06	1578.98
436.26	1597.42
436.47	1578.98
436.67	1591.27
436.88	1552.36
437.08	1535.98
437.29	1585.13
437.49	1515.50
437.70	1607.66
437.90	1566.70
438.11	1691.62
438.31	1624.04
438.52	1648.61
438.72	1724.39
438.93	1652.71
439.13	1601.51
439.34	1662.95
439.54	1503.21
439.75	1716.20
439.95	1626.09
440.16	1583.08
440.36	1619.94
440.57	1607.66
440.77	1576.94
440.98	1574.89
441.18	1497.07
441.39	1576.94
441.59	1449.96
441.80	1734.63
442.00	1525.74
442.21	1576.94
442.41	1511.40
442.62	1630.18
442.82	1538.02
443.02	1560.55
443.23	1679.33
443.43	1402.86
443.64	1560.55
443.84	1576.94
444.05	1660.90
444.25	1542.12
444.46	1601.51
444.66	1482.73
444.87	1687.53
445.07	1492.97
445.28	1468.39
445.48	1591.27
445.69	1572.84
445.89	1671.14
446.09	1646.57
446.30	2105.31
446.50	3180.50
446.71	4446.14
446.91	5312.43
447.12	5799.85
447.32	5527.47
447.53	4573.11
447.73	4065.22
447.93	3596.23
448.14	3428.30
448.34	3153.87
448.55	2881.49
448.75	2893.78
448.96	2693.08
449.16	2510.81
449.36	2260.96
449.57	1920.99
449.77	1851.36
449.98	1722.34
450.18	1677.29
450.39	1624.04
450.59	1652.71
450.79	1570.79
451.00	1529.83
451.20	1542.12
451.41	1550.31
451.61	1644.52
451.81	1576.94
452.02	1544.17
452.22	1527.78
452.43	1552.36
452.63	1548.26
