SpectraSuite Data File
++++++++++++++++++++++++++++++++++++
Date: Tue May 03 12:55:02 CEST 2016
User: root
Dark Spectrum Present: No
Reference Spectrum Present: No
Number of Sampled Component Spectra: 1
Spectrometers: USB4C02835
Integration Time (usec): 100000 (USB4C02835)
Spectra Averaged: 1 (USB4C02835)
Boxcar Smoothing: 0 (USB4C02835)
Correct for Electrical Dark: No (USB4C02835)
Strobe/Lamp Enabled: No (USB4C02835)
Correct for Detector Non-linearity: No (USB4C02835)
Correct for Stray Light: No (USB4C02835)
Number of Pixels in Processed Spectrum: 3648
>>>>>Begin Processed Spectral Data<<<<<
177.47	1345.52
177.69	1345.52
177.91	1345.52
178.13	1359.85
178.36	1322.99
178.58	1517.54
178.80	1529.83
179.02	1544.17
179.24	1495.02
179.46	1581.03
179.68	1533.93
179.90	1560.55
180.13	1578.98
180.35	1488.87
180.57	1460.20
180.79	1521.64
181.01	1578.98
181.23	1611.75
181.45	1644.52
181.67	1476.59
181.90	1564.65
182.12	1515.50
182.34	1501.16
182.56	1558.50
182.78	1566.70
183.00	1578.98
183.22	1583.08
183.44	1435.63
183.66	1619.94
183.89	1597.42
184.11	1507.30
184.33	1521.64
184.55	1654.76
184.77	1523.69
184.99	1529.83
185.21	1517.54
185.43	1583.08
185.65	1497.07
185.87	1533.93
186.10	1642.47
186.32	1640.42
186.54	1546.22
186.76	1552.36
186.98	1624.04
187.20	1552.36
187.42	1505.26
187.64	1527.78
187.86	1597.42
188.08	1523.69
188.30	1517.54
188.52	1478.63
188.75	1597.42
188.97	1581.03
189.19	1548.26
189.41	1509.35
189.63	1540.07
189.85	1509.35
190.07	1443.82
190.29	1462.25
190.51	1576.94
190.73	1484.78
190.95	1613.80
191.17	1499.11
191.39	1513.45
191.61	1499.11
191.84	1546.22
192.06	1501.16
192.28	1421.29
192.50	1748.97
192.72	1529.83
192.94	1593.32
193.16	1558.50
193.38	1488.87
193.60	1505.26
193.82	1445.87
194.04	1570.79
194.26	1552.36
194.48	1617.90
194.70	1476.59
194.92	1462.25
195.14	1517.54
195.36	1464.30
195.58	1556.46
195.80	1619.94
196.02	1499.11
196.24	1570.79
196.46	1525.74
196.69	1546.22
196.91	1632.23
197.13	1548.26
197.35	1435.63
197.57	1599.46
197.79	1574.89
198.01	1576.94
198.23	1542.12
198.45	1527.78
198.67	1443.82
198.89	1525.74
199.11	1552.36
199.33	1468.39
199.55	1470.44
199.77	1558.50
199.99	1560.55
200.21	1484.78
200.43	1556.46
200.65	1538.02
200.87	1452.01
201.09	1499.11
201.31	1501.16
201.53	1578.98
201.75	1564.65
201.97	1548.26
202.19	1535.98
202.41	1570.79
202.63	1595.37
202.85	1558.50
203.07	1511.40
203.29	1474.54
203.51	1460.20
203.73	1456.11
203.95	1644.52
204.17	1634.28
204.39	1495.02
204.61	1490.92
204.83	1554.41
205.05	1583.08
205.27	1583.08
205.49	1624.04
205.71	1478.63
205.93	1513.45
206.15	1546.22
206.37	1529.83
206.59	1523.69
206.81	1474.54
207.03	1521.64
207.25	1417.19
207.47	1550.31
207.69	1521.64
207.91	1576.94
208.13	1597.42
208.34	1480.68
208.56	1452.01
208.78	1554.41
209.00	1527.78
209.22	1492.97
209.44	1529.83
209.66	1568.74
209.88	1511.40
210.10	1550.31
210.32	1511.40
210.54	1542.12
210.76	1505.26
210.98	1556.46
211.20	1427.43
211.42	1558.50
211.64	1574.89
211.86	1581.03
212.08	1564.65
212.30	1554.41
212.52	1492.97
212.74	1581.03
212.96	1513.45
213.17	1591.27
213.39	1499.11
213.61	1630.18
213.83	1509.35
214.05	1486.83
214.27	1583.08
214.49	1515.50
214.71	1517.54
214.93	1531.88
215.15	1550.31
215.37	1503.21
215.59	1429.48
215.81	1480.68
216.03	1558.50
216.24	1511.40
216.46	1538.02
216.68	1533.93
216.90	1480.68
217.12	1497.07
217.34	1603.56
217.56	1581.03
217.78	1583.08
218.00	1578.98
218.22	1562.60
218.44	1519.59
218.66	1511.40
218.87	1554.41
219.09	1515.50
219.31	1611.75
219.53	1546.22
219.75	1527.78
219.97	1501.16
220.19	1527.78
220.41	1492.97
220.63	1585.13
220.85	1609.70
221.06	1472.49
221.28	1583.08
221.50	1572.84
221.72	1533.93
221.94	1511.40
222.16	1581.03
222.38	1535.98
222.60	1556.46
222.82	1535.98
223.03	1576.94
223.25	1554.41
223.47	1626.09
223.69	1648.61
223.91	1617.90
224.13	1593.32
224.35	1501.16
224.57	1544.17
224.78	1529.83
225.00	1552.36
225.22	1495.02
225.44	1523.69
225.66	1578.98
225.88	1460.20
226.10	1603.56
226.32	1558.50
226.53	1619.94
226.75	1486.83
226.97	1574.89
227.19	1564.65
227.41	1519.59
227.63	1466.35
227.85	1509.35
228.06	1490.92
228.28	1540.07
228.50	1525.74
228.72	1521.64
228.94	1499.11
229.16	1447.91
229.37	1576.94
229.59	1517.54
229.81	1589.22
230.03	1505.26
230.25	1490.92
230.47	1468.39
230.69	1462.25
230.90	1544.17
231.12	1562.60
231.34	1511.40
231.56	1613.80
231.78	1472.49
232.00	1583.08
232.21	1495.02
232.43	1464.30
232.65	1445.87
232.87	1564.65
233.09	1558.50
233.30	1531.88
233.52	1611.75
233.74	1529.83
233.96	1480.68
234.18	1560.55
234.40	1523.69
234.61	1628.14
234.83	1474.54
235.05	1466.35
235.27	1621.99
235.49	1644.52
235.70	1585.13
235.92	1630.18
236.14	1585.13
236.36	1728.49
236.58	1509.35
236.79	1621.99
237.01	1529.83
237.23	1517.54
237.45	1693.67
237.67	1501.16
237.88	1513.45
238.10	1634.28
238.32	1548.26
238.54	1521.64
238.76	1511.40
238.97	1564.65
239.19	1417.19
239.41	1644.52
239.63	1583.08
239.85	1529.83
240.06	1544.17
240.28	1560.55
240.50	1615.85
240.72	1517.54
240.93	1474.54
241.15	1560.55
241.37	1519.59
241.59	1595.37
241.81	1515.50
242.02	1519.59
242.24	1583.08
242.46	1556.46
242.68	1521.64
242.89	1533.93
243.11	1595.37
243.33	1484.78
243.55	1548.26
243.76	1609.70
243.98	1495.02
244.20	1544.17
244.42	1531.88
244.64	1601.51
244.85	1540.07
245.07	1558.50
245.29	1648.61
245.51	1501.16
245.72	1568.74
245.94	1613.80
246.16	1591.27
246.38	1540.07
246.59	1533.93
246.81	1517.54
247.03	1480.68
247.24	1470.44
247.46	1509.35
247.68	1583.08
247.90	1495.02
248.11	1542.12
248.33	1562.60
248.55	1452.01
248.77	1497.07
248.98	1538.02
249.20	1624.04
249.42	1519.59
249.64	1533.93
249.85	1492.97
250.07	1572.84
250.29	1525.74
250.50	1595.37
250.72	1509.35
250.94	1531.88
251.16	1589.22
251.37	1605.61
251.59	1478.63
251.81	1574.89
252.02	1560.55
252.24	1562.60
252.46	1562.60
252.68	1441.77
252.89	1474.54
253.11	1445.87
253.33	1615.85
253.54	1609.70
253.76	1570.79
253.98	1558.50
254.20	1515.50
254.41	1484.78
254.63	1490.92
254.85	1470.44
255.06	1548.26
255.28	1437.67
255.50	1515.50
255.71	1535.98
255.93	1486.83
256.15	1454.06
256.36	1517.54
256.58	1531.88
256.80	1550.31
257.02	1472.49
257.23	1482.73
257.45	1513.45
257.67	1531.88
257.88	1517.54
258.10	1529.83
258.32	1511.40
258.53	1529.83
258.75	1529.83
258.97	1480.68
259.18	1589.22
259.40	1511.40
259.62	1570.79
259.83	1593.32
260.05	1517.54
260.27	1757.16
260.48	1495.02
260.70	1505.26
260.92	1452.01
261.13	1517.54
261.35	1511.40
261.57	1587.18
261.78	1452.01
262.00	1488.87
262.22	1531.88
262.43	1501.16
262.65	1505.26
262.86	1533.93
263.08	1636.33
263.30	1513.45
263.51	1454.06
263.73	1542.12
263.95	1607.66
264.16	1527.78
264.38	1497.07
264.60	1583.08
264.81	1550.31
265.03	1587.18
265.25	1519.59
265.46	1519.59
265.68	1564.65
265.89	1533.93
266.11	1548.26
266.33	1576.94
266.54	1527.78
266.76	1562.60
266.98	1529.83
267.19	1542.12
267.41	1527.78
267.62	1542.12
267.84	1468.39
268.06	1574.89
268.27	1538.02
268.49	1554.41
268.70	1529.83
268.92	1562.60
269.14	1482.73
269.35	1503.21
269.57	1548.26
269.79	1546.22
270.00	1503.21
270.22	1611.75
270.43	1480.68
270.65	1478.63
270.87	1540.07
271.08	1624.04
271.30	1603.56
271.51	1546.22
271.73	1615.85
271.95	1589.22
272.16	1556.46
272.38	1574.89
272.59	1480.68
272.81	1568.74
273.02	1636.33
273.24	1523.69
273.46	1595.37
273.67	1490.92
273.89	1525.74
274.10	1519.59
274.32	1583.08
274.54	1550.31
274.75	1468.39
274.97	1519.59
275.18	1533.93
275.40	1558.50
275.61	1538.02
275.83	1554.41
276.05	1525.74
276.26	1572.84
276.48	1587.18
276.69	1517.54
276.91	1525.74
277.12	1667.05
277.34	1568.74
277.55	1519.59
277.77	1544.17
277.99	1443.82
278.20	1462.25
278.42	1456.11
278.63	1525.74
278.85	1456.11
279.06	1452.01
279.28	1595.37
279.49	1578.98
279.71	1591.27
279.93	1560.55
280.14	1568.74
280.36	1501.16
280.57	1603.56
280.79	1533.93
281.00	1497.07
281.22	1552.36
281.43	1540.07
281.65	1411.05
281.86	1443.82
282.08	1644.52
282.29	1624.04
282.51	1511.40
282.73	1492.97
282.94	1486.83
283.16	1558.50
283.37	1662.95
283.59	1519.59
283.80	1552.36
284.02	1578.98
284.23	1570.79
284.45	1513.45
284.66	1495.02
284.88	1533.93
285.09	1523.69
285.31	1531.88
285.52	1472.49
285.74	1527.78
285.95	1578.98
286.17	1513.45
286.38	1529.83
286.60	1505.26
286.81	1406.95
287.03	1531.88
287.24	1574.89
287.46	1535.98
287.67	1507.30
287.89	1570.79
288.10	1511.40
288.32	1574.89
288.53	1656.81
288.75	1474.54
288.96	1558.50
289.18	1529.83
289.39	1658.85
289.61	1605.61
289.82	1566.70
290.04	1689.57
290.25	1552.36
290.47	1437.67
290.68	1484.78
290.90	1667.05
291.11	1507.30
291.33	1601.51
291.54	1497.07
291.76	1523.69
291.97	1548.26
292.18	1574.89
292.40	1480.68
292.61	1515.50
292.83	1654.76
293.04	1546.22
293.26	1574.89
293.47	1568.74
293.69	1495.02
293.90	1628.14
294.12	1597.42
294.33	1535.98
294.55	1456.11
294.76	1540.07
294.97	1548.26
295.19	1609.70
295.40	1507.30
295.62	1552.36
295.83	1533.93
296.05	1505.26
296.26	1476.59
296.48	1464.30
296.69	1560.55
296.90	1521.64
297.12	1591.27
297.33	1599.46
297.55	1566.70
297.76	1556.46
297.98	1638.38
298.19	1546.22
298.41	1562.60
298.62	1452.01
298.83	1628.14
299.05	1501.16
299.26	1501.16
299.48	1548.26
299.69	1554.41
299.90	1538.02
300.12	1488.87
300.33	1587.18
300.55	1570.79
300.76	1505.26
300.98	1505.26
301.19	1552.36
301.40	1511.40
301.62	1474.54
301.83	1523.69
302.05	1480.68
302.26	1509.35
302.47	1533.93
302.69	1540.07
302.90	1552.36
303.12	1478.63
303.33	1576.94
303.54	1648.61
303.76	1492.97
303.97	1482.73
304.19	1568.74
304.40	1476.59
304.61	1566.70
304.83	1642.47
305.04	1544.17
305.26	1525.74
305.47	1548.26
305.68	1509.35
305.90	1517.54
306.11	1562.60
306.33	1507.30
306.54	1566.70
306.75	1484.78
306.97	1490.92
307.18	1468.39
307.39	1501.16
307.61	1535.98
307.82	1558.50
308.04	1533.93
308.25	1533.93
308.46	1554.41
308.68	1595.37
308.89	1566.70
309.10	1564.65
309.32	1556.46
309.53	1566.70
309.74	1525.74
309.96	1558.50
310.17	1607.66
310.39	1509.35
310.60	1626.09
310.81	1480.68
311.03	1564.65
311.24	1578.98
311.45	1550.31
311.67	1665.00
311.88	1562.60
312.09	1521.64
312.31	1570.79
312.52	1527.78
312.73	1533.93
312.95	1492.97
313.16	1550.31
313.37	1523.69
313.59	1550.31
313.80	1595.37
314.01	1634.28
314.23	1544.17
314.44	1527.78
314.65	1538.02
314.87	1437.67
315.08	1503.21
315.29	1495.02
315.51	1550.31
315.72	1540.07
315.93	1646.57
316.15	1531.88
316.36	1538.02
316.57	1511.40
316.79	1572.84
317.00	1513.45
317.21	1533.93
317.43	1415.15
317.64	1558.50
317.85	1535.98
318.07	1554.41
318.28	1675.24
318.49	1697.77
318.70	1794.02
318.92	1734.63
319.13	1759.21
319.34	1609.70
319.56	1611.75
319.77	1701.86
319.98	1710.05
320.20	1574.89
320.41	1548.26
320.62	1503.21
320.83	1474.54
321.05	1691.62
321.26	1511.40
321.47	1509.35
321.69	1556.46
321.90	1525.74
322.11	1486.83
322.32	1476.59
322.54	1605.61
322.75	1538.02
322.96	1634.28
323.18	1558.50
323.39	1441.77
323.60	1411.05
323.81	1550.31
324.03	1480.68
324.24	1497.07
324.45	1515.50
324.66	1511.40
324.88	1574.89
325.09	1578.98
325.30	1535.98
325.52	1525.74
325.73	1556.46
325.94	1488.87
326.15	1411.05
326.37	1507.30
326.58	1658.85
326.79	1607.66
327.00	1609.70
327.22	1552.36
327.43	1480.68
327.64	1495.02
327.85	1546.22
328.07	1593.32
328.28	1681.38
328.49	1519.59
328.70	1478.63
328.92	1566.70
329.13	1523.69
329.34	1585.13
329.55	1656.81
329.76	1558.50
329.98	1546.22
330.19	1529.83
330.40	1572.84
330.61	1552.36
330.83	1511.40
331.04	1558.50
331.25	1587.18
331.46	1585.13
331.68	1478.63
331.89	1578.98
332.10	1437.67
332.31	1492.97
332.52	1495.02
332.74	1484.78
332.95	1396.71
333.16	1484.78
333.37	1490.92
333.58	1513.45
333.80	1558.50
334.01	1470.44
334.22	1544.17
334.43	1478.63
334.64	1560.55
334.86	1482.73
335.07	1478.63
335.28	1611.75
335.49	1456.11
335.70	1550.31
335.92	1660.90
336.13	1646.57
336.34	1515.50
336.55	1525.74
336.76	1492.97
336.98	1497.07
337.19	1527.78
337.40	1619.94
337.61	1599.46
337.82	1499.11
338.04	1550.31
338.25	1452.01
338.46	1542.12
338.67	1535.98
338.88	1517.54
339.09	1478.63
339.31	1464.30
339.52	1482.73
339.73	1468.39
339.94	1484.78
340.15	1599.46
340.36	1548.26
340.58	1466.35
340.79	1503.21
341.00	1533.93
341.21	1538.02
341.42	1572.84
341.63	1570.79
341.85	1509.35
342.06	1525.74
342.27	1443.82
342.48	1587.18
342.69	1462.25
342.90	1531.88
343.12	1595.37
343.33	1464.30
343.54	1511.40
343.75	1597.42
343.96	1558.50
344.17	1454.06
344.38	1554.41
344.60	1507.30
344.81	1531.88
345.02	1562.60
345.23	1529.83
345.44	1685.48
345.65	1576.94
345.86	1503.21
346.07	1490.92
346.29	1509.35
346.50	1609.70
346.71	1542.12
346.92	1585.13
347.13	1632.23
347.34	1517.54
347.55	1511.40
347.76	1566.70
347.98	1495.02
348.19	1468.39
348.40	1570.79
348.61	1546.22
348.82	1531.88
349.03	1583.08
349.24	1519.59
349.45	1626.09
349.66	1495.02
349.88	1523.69
350.09	1583.08
350.30	1599.46
350.51	1546.22
350.72	1595.37
350.93	1501.16
351.14	1509.35
351.35	1576.94
351.56	1570.79
351.77	1503.21
351.99	1574.89
352.20	1521.64
352.41	1587.18
352.62	1490.92
352.83	1476.59
353.04	1535.98
353.25	1441.77
353.46	1583.08
353.67	1566.70
353.88	1478.63
354.09	1470.44
354.30	1566.70
354.52	1566.70
354.73	1527.78
354.94	1517.54
355.15	1601.51
355.36	1601.51
355.57	1503.21
355.78	1593.32
355.99	1454.06
356.20	1486.83
356.41	1613.80
356.62	1558.50
356.83	1587.18
357.04	1603.56
357.25	1454.06
357.46	1509.35
357.68	1497.07
357.89	1492.97
358.10	1540.07
358.31	1517.54
358.52	1550.31
358.73	1519.59
358.94	1513.45
359.15	1501.16
359.36	1638.38
359.57	1521.64
359.78	1509.35
359.99	1505.26
360.20	1550.31
360.41	1595.37
360.62	1562.60
360.83	1574.89
361.04	1517.54
361.25	1628.14
361.46	1562.60
361.67	1544.17
361.88	1519.59
362.09	1615.85
362.30	1554.41
362.51	1460.20
362.72	1472.49
362.93	1550.31
363.14	1570.79
363.35	1556.46
363.56	1535.98
363.78	1652.71
363.99	1607.66
364.20	1542.12
364.41	1574.89
364.62	1570.79
364.83	1603.56
365.04	1628.14
365.25	1544.17
365.46	1626.09
365.67	1542.12
365.88	1564.65
366.09	1443.82
366.30	1646.57
366.51	1552.36
366.72	1441.77
366.93	1548.26
367.14	1511.40
367.35	1624.04
367.56	1576.94
367.77	1597.42
367.98	1593.32
368.18	1558.50
368.39	1628.14
368.60	1443.82
368.81	1595.37
369.02	1564.65
369.23	1476.59
369.44	1509.35
369.65	1546.22
369.86	1648.61
370.07	1570.79
370.28	1521.64
370.49	1517.54
370.70	1533.93
370.91	1521.64
371.12	1468.39
371.33	1581.03
371.54	1607.66
371.75	1636.33
371.96	1474.54
372.17	1503.21
372.38	1497.07
372.59	1589.22
372.80	1456.11
373.01	1495.02
373.22	1511.40
373.43	1560.55
373.64	1464.30
373.85	1646.57
374.06	1527.78
374.26	1576.94
374.47	1619.94
374.68	1593.32
374.89	1484.78
375.10	1562.60
375.31	1533.93
375.52	1552.36
375.73	1505.26
375.94	1480.68
376.15	1566.70
376.36	1548.26
376.57	1445.87
376.78	1529.83
376.99	1552.36
377.20	1607.66
377.40	1568.74
377.61	1574.89
377.82	1470.44
378.03	1611.75
378.24	1525.74
378.45	1421.29
378.66	1562.60
378.87	1513.45
379.08	1505.26
379.29	1472.49
379.50	1624.04
379.71	1505.26
379.91	1558.50
380.12	1525.74
380.33	1574.89
380.54	1519.59
380.75	1490.92
380.96	1480.68
381.17	1552.36
381.38	1552.36
381.59	1648.61
381.80	1568.74
382.00	1726.44
382.21	1662.95
382.42	1658.85
382.63	1710.05
382.84	1628.14
383.05	1548.26
383.26	1640.42
383.47	1540.07
383.68	1599.46
383.88	1603.56
384.09	1533.93
384.30	1652.71
384.51	1593.32
384.72	1495.02
384.93	1478.63
385.14	1519.59
385.35	1589.22
385.55	1503.21
385.76	1607.66
385.97	1675.24
386.18	1513.45
386.39	1466.35
386.60	1591.27
386.81	1576.94
387.02	1503.21
387.22	1523.69
387.43	1624.04
387.64	1607.66
387.85	1845.22
388.06	3153.87
388.27	7262.10
388.48	10567.52
388.68	12416.83
388.89	13676.34
389.10	12881.72
389.31	9994.09
389.52	8929.14
389.73	7729.03
389.93	7219.09
390.14	6809.50
390.35	6145.95
390.56	5642.15
390.77	4782.01
390.98	3694.54
391.18	2746.33
391.39	2076.64
391.60	1789.92
391.81	1771.49
392.02	1499.11
392.23	1732.58
392.43	1591.27
392.64	1583.08
392.85	1578.98
393.06	1626.09
393.27	1568.74
393.47	1456.11
393.68	1617.90
393.89	1538.02
394.10	1619.94
394.31	1505.26
394.52	1564.65
394.72	1560.55
394.93	1546.22
395.14	1503.21
395.35	1515.50
395.56	1511.40
395.76	1587.18
395.97	1667.05
396.18	1722.34
396.39	1714.15
396.60	1972.19
396.80	1730.53
397.01	1753.06
397.22	1652.71
397.43	1712.10
397.64	1548.26
397.84	1673.19
398.05	1677.29
398.26	1624.04
398.47	1619.94
398.67	1570.79
398.88	1642.47
399.09	1546.22
399.30	1480.68
399.51	1566.70
399.71	1529.83
399.92	1642.47
400.13	1550.31
400.34	1542.12
400.54	1546.22
400.75	1648.61
400.96	1464.30
401.17	1593.32
401.37	1589.22
401.58	1509.35
401.79	1538.02
402.00	1755.11
402.21	1906.66
402.41	1902.56
402.62	1966.05
402.83	2004.96
403.04	1800.16
403.24	1861.60
403.45	1699.81
403.66	1742.82
403.87	1783.78
404.07	1810.40
404.28	1734.63
404.49	1662.95
404.70	1667.05
404.90	1644.52
405.11	1607.66
405.32	1568.74
405.52	1462.25
405.73	1495.02
405.94	1511.40
406.15	1495.02
406.35	1572.84
406.56	1517.54
406.77	1499.11
406.98	1538.02
407.18	1470.44
407.39	1628.14
407.60	1511.40
407.80	1544.17
408.01	1540.07
408.22	1570.79
408.43	1552.36
408.63	1531.88
408.84	1548.26
409.05	1636.33
409.25	1548.26
409.46	1552.36
409.67	1529.83
409.88	1490.92
410.08	1599.46
410.29	1546.22
410.50	1519.59
410.70	1593.32
410.91	1533.93
411.12	1556.46
411.32	1597.42
411.53	1538.02
411.74	1599.46
411.95	1638.38
412.15	1601.51
412.36	1685.48
412.57	1654.76
412.77	1685.48
412.98	1538.02
413.19	1568.74
413.39	1601.51
413.60	1605.61
413.81	1617.90
414.01	1523.69
414.22	1621.99
414.43	1562.60
414.63	1460.20
414.84	1574.89
415.05	1468.39
415.25	1492.97
415.46	1542.12
415.67	1449.96
415.87	1533.93
416.08	1478.63
416.29	1540.07
416.49	1640.42
416.70	1486.83
416.91	1562.60
417.11	1507.30
417.32	1581.03
417.53	1564.65
417.73	1509.35
417.94	1542.12
418.15	1562.60
418.35	1546.22
418.56	1535.98
418.77	1644.52
418.97	1521.64
419.18	1546.22
419.38	1488.87
419.59	1552.36
419.80	1552.36
420.00	1560.55
420.21	1488.87
420.42	1574.89
420.62	1570.79
420.83	1449.96
421.04	1425.39
421.24	1535.98
421.45	1556.46
421.65	1593.32
421.86	1497.07
422.07	1546.22
422.27	1511.40
422.48	1566.70
422.69	1464.30
422.89	1595.37
423.10	1523.69
423.30	1476.59
423.51	1529.83
423.72	1538.02
423.92	1556.46
424.13	1437.67
424.33	1540.07
424.54	1595.37
424.75	1437.67
424.95	1642.47
425.16	1599.46
425.36	1572.84
425.57	1656.81
425.78	1591.27
425.98	1581.03
426.19	1556.46
426.39	1476.59
426.60	1542.12
426.81	1662.95
427.01	1550.31
427.22	1492.97
427.42	1495.02
427.63	1591.27
427.83	1591.27
428.04	1642.47
428.25	1576.94
428.45	1621.99
428.66	1550.31
428.86	1578.98
429.07	1607.66
429.28	1507.30
429.48	1554.41
429.69	1527.78
429.89	1583.08
430.10	1411.05
430.30	1566.70
430.51	1574.89
430.71	1554.41
430.92	1578.98
431.13	1495.02
431.33	1478.63
431.54	1564.65
431.74	1669.09
431.95	1626.09
432.15	1499.11
432.36	1511.40
432.56	1632.23
432.77	1603.56
432.98	1595.37
433.18	1656.81
433.39	1550.31
433.59	1460.20
433.80	1648.61
434.00	1603.56
434.21	1554.41
434.41	1445.87
434.62	1665.00
434.82	1472.49
435.03	1482.73
435.23	1560.55
435.44	1472.49
435.64	1525.74
435.85	1556.46
436.06	1609.70
436.26	1568.74
436.47	1542.12
436.67	1509.35
436.88	1576.94
437.08	1591.27
437.29	1603.56
437.49	1511.40
437.70	1587.18
437.90	1495.02
438.11	1681.38
438.31	1581.03
438.52	1660.90
438.72	1738.73
438.93	1716.20
439.13	1640.42
439.34	1595.37
439.54	1533.93
439.75	1591.27
439.95	1595.37
440.16	1599.46
440.36	1636.33
440.57	1527.78
440.77	1677.29
440.98	1511.40
441.18	1603.56
441.39	1544.17
441.59	1552.36
441.80	1578.98
442.00	1527.78
442.21	1609.70
442.41	1490.92
442.62	1566.70
442.82	1591.27
443.02	1507.30
443.23	1578.98
443.43	1513.45
443.64	1531.88
443.84	1499.11
444.05	1589.22
444.25	1517.54
444.46	1497.07
444.66	1560.55
444.87	1632.23
445.07	1492.97
445.28	1533.93
445.48	1548.26
445.69	1531.88
445.89	1693.67
446.09	1615.85
446.30	2056.16
446.50	3119.06
446.71	4321.21
446.91	5263.28
447.12	5654.44
447.32	5560.24
447.53	4558.78
447.73	4153.28
447.93	3620.81
448.14	3448.78
448.34	3174.35
448.55	2848.72
448.75	2914.26
448.96	2734.04
449.16	2457.56
449.36	2256.86
449.57	1964.00
449.77	1773.54
449.98	1691.62
450.18	1671.14
450.39	1593.32
450.59	1562.60
450.79	1546.22
451.00	1511.40
451.20	1597.42
451.41	1566.70
451.61	1609.70
451.81	1564.65
452.02	1523.69
452.22	1488.87
452.43	1505.26
452.63	1570.79
