SpectraSuite Data File
++++++++++++++++++++++++++++++++++++
Date: Tue May 03 12:55:10 CEST 2016
User: root
Dark Spectrum Present: No
Reference Spectrum Present: No
Number of Sampled Component Spectra: 1
Spectrometers: USB4C02835
Integration Time (usec): 100000 (USB4C02835)
Spectra Averaged: 1 (USB4C02835)
Boxcar Smoothing: 0 (USB4C02835)
Correct for Electrical Dark: No (USB4C02835)
Strobe/Lamp Enabled: No (USB4C02835)
Correct for Detector Non-linearity: No (USB4C02835)
Correct for Stray Light: No (USB4C02835)
Number of Pixels in Processed Spectrum: 3648
>>>>>Begin Processed Spectral Data<<<<<
177.47	1411.05
177.69	1411.05
177.91	1411.05
178.13	1353.71
178.36	1269.74
178.58	1452.01
178.80	1626.09
179.02	1513.45
179.24	1486.83
179.46	1486.83
179.68	1691.62
179.90	1562.60
180.13	1576.94
180.35	1581.03
180.57	1484.78
180.79	1605.61
181.01	1458.15
181.23	1603.56
181.45	1550.31
181.67	1492.97
181.90	1574.89
182.12	1443.82
182.34	1404.91
182.56	1568.74
182.78	1501.16
183.00	1599.46
183.22	1521.64
183.44	1470.44
183.66	1681.38
183.89	1628.14
184.11	1521.64
184.33	1662.95
184.55	1517.54
184.77	1552.36
184.99	1578.98
185.21	1484.78
185.43	1548.26
185.65	1488.87
185.87	1578.98
186.10	1656.81
186.32	1689.57
186.54	1507.30
186.76	1564.65
186.98	1560.55
187.20	1507.30
187.42	1527.78
187.64	1482.73
187.86	1511.40
188.08	1501.16
188.30	1597.42
188.52	1521.64
188.75	1568.74
188.97	1568.74
189.19	1533.93
189.41	1554.41
189.63	1566.70
189.85	1458.15
190.07	1495.02
190.29	1443.82
190.51	1507.30
190.73	1527.78
190.95	1554.41
191.17	1554.41
191.39	1458.15
191.61	1458.15
191.84	1572.84
192.06	1517.54
192.28	1519.59
192.50	1677.29
192.72	1554.41
192.94	1486.83
193.16	1609.70
193.38	1542.12
193.60	1499.11
193.82	1599.46
194.04	1550.31
194.26	1566.70
194.48	1589.22
194.70	1523.69
194.92	1527.78
195.14	1529.83
195.36	1435.63
195.58	1611.75
195.80	1527.78
196.02	1533.93
196.24	1538.02
196.46	1558.50
196.69	1546.22
196.91	1687.53
197.13	1503.21
197.35	1484.78
197.57	1621.99
197.79	1501.16
198.01	1603.56
198.23	1544.17
198.45	1509.35
198.67	1503.21
198.89	1523.69
199.11	1609.70
199.33	1509.35
199.55	1490.92
199.77	1529.83
199.99	1609.70
200.21	1574.89
200.43	1636.33
200.65	1419.24
200.87	1433.58
201.09	1527.78
201.31	1601.51
201.53	1605.61
201.75	1546.22
201.97	1566.70
202.19	1521.64
202.41	1509.35
202.63	1619.94
202.85	1570.79
203.07	1505.26
203.29	1462.25
203.51	1527.78
203.73	1452.01
203.95	1658.85
204.17	1599.46
204.39	1533.93
204.61	1574.89
204.83	1544.17
205.05	1501.16
205.27	1617.90
205.49	1724.39
205.71	1574.89
205.93	1484.78
206.15	1533.93
206.37	1439.72
206.59	1550.31
206.81	1515.50
207.03	1441.77
207.25	1466.35
207.47	1488.87
207.69	1570.79
207.91	1615.85
208.13	1589.22
208.34	1523.69
208.56	1523.69
208.78	1470.44
209.00	1417.19
209.22	1452.01
209.44	1486.83
209.66	1523.69
209.88	1529.83
210.10	1486.83
210.32	1535.98
210.54	1515.50
210.76	1513.45
210.98	1593.32
211.20	1427.43
211.42	1546.22
211.64	1558.50
211.86	1574.89
212.08	1640.42
212.30	1527.78
212.52	1511.40
212.74	1535.98
212.96	1535.98
213.17	1527.78
213.39	1632.23
213.61	1525.74
213.83	1519.59
214.05	1513.45
214.27	1576.94
214.49	1531.88
214.71	1429.48
214.93	1583.08
215.15	1566.70
215.37	1533.93
215.59	1513.45
215.81	1511.40
216.03	1558.50
216.24	1589.22
216.46	1495.02
216.68	1501.16
216.90	1505.26
217.12	1527.78
217.34	1462.25
217.56	1601.51
217.78	1636.33
218.00	1548.26
218.22	1503.21
218.44	1542.12
218.66	1568.74
218.87	1636.33
219.09	1523.69
219.31	1648.61
219.53	1515.50
219.75	1499.11
219.97	1558.50
220.19	1535.98
220.41	1478.63
220.63	1603.56
220.85	1550.31
221.06	1548.26
221.28	1595.37
221.50	1558.50
221.72	1517.54
221.94	1544.17
222.16	1566.70
222.38	1552.36
222.60	1576.94
222.82	1488.87
223.03	1533.93
223.25	1538.02
223.47	1591.27
223.69	1632.23
223.91	1597.42
224.13	1544.17
224.35	1533.93
224.57	1593.32
224.78	1519.59
225.00	1484.78
225.22	1519.59
225.44	1601.51
225.66	1574.89
225.88	1482.73
226.10	1566.70
226.32	1607.66
226.53	1568.74
226.75	1562.60
226.97	1587.18
227.19	1560.55
227.41	1497.07
227.63	1558.50
227.85	1382.38
228.06	1593.32
228.28	1437.67
228.50	1589.22
228.72	1509.35
228.94	1548.26
229.16	1449.96
229.37	1458.15
229.59	1484.78
229.81	1589.22
230.03	1484.78
230.25	1470.44
230.47	1513.45
230.69	1509.35
230.90	1597.42
231.12	1581.03
231.34	1515.50
231.56	1574.89
231.78	1552.36
232.00	1542.12
232.21	1521.64
232.43	1501.16
232.65	1458.15
232.87	1492.97
233.09	1460.20
233.30	1517.54
233.52	1568.74
233.74	1542.12
233.96	1499.11
234.18	1482.73
234.40	1560.55
234.61	1566.70
234.83	1521.64
235.05	1503.21
235.27	1644.52
235.49	1581.03
235.70	1552.36
235.92	1644.52
236.14	1544.17
236.36	1712.10
236.58	1503.21
236.79	1486.83
237.01	1519.59
237.23	1570.79
237.45	1626.09
237.67	1509.35
237.88	1558.50
238.10	1531.88
238.32	1499.11
238.54	1484.78
238.76	1484.78
238.97	1480.68
239.19	1554.41
239.41	1527.78
239.63	1560.55
239.85	1503.21
240.06	1507.30
240.28	1558.50
240.50	1556.46
240.72	1433.58
240.93	1503.21
241.15	1603.56
241.37	1538.02
241.59	1628.14
241.81	1591.27
242.02	1626.09
242.24	1511.40
242.46	1562.60
242.68	1560.55
242.89	1574.89
243.11	1554.41
243.33	1478.63
243.55	1572.84
243.76	1538.02
243.98	1544.17
244.20	1513.45
244.42	1519.59
244.64	1593.32
244.85	1531.88
245.07	1533.93
245.29	1570.79
245.51	1560.55
245.72	1462.25
245.94	1681.38
246.16	1533.93
246.38	1564.65
246.59	1523.69
246.81	1474.54
247.03	1521.64
247.24	1443.82
247.46	1513.45
247.68	1554.41
247.90	1589.22
248.11	1511.40
248.33	1603.56
248.55	1468.39
248.77	1591.27
248.98	1593.32
249.20	1603.56
249.42	1591.27
249.64	1550.31
249.85	1548.26
250.07	1456.11
250.29	1585.13
250.50	1601.51
250.72	1431.53
250.94	1503.21
251.16	1583.08
251.37	1542.12
251.59	1548.26
251.81	1605.61
252.02	1546.22
252.24	1519.59
252.46	1609.70
252.68	1607.66
252.89	1525.74
253.11	1519.59
253.33	1578.98
253.54	1665.00
253.76	1568.74
253.98	1570.79
254.20	1554.41
254.41	1468.39
254.63	1488.87
254.85	1523.69
255.06	1630.18
255.28	1634.28
255.50	1470.44
255.71	1490.92
255.93	1492.97
256.15	1394.67
256.36	1531.88
256.58	1488.87
256.80	1548.26
257.02	1523.69
257.23	1525.74
257.45	1497.07
257.67	1572.84
257.88	1466.35
258.10	1626.09
258.32	1574.89
258.53	1492.97
258.75	1591.27
258.97	1503.21
259.18	1554.41
259.40	1538.02
259.62	1611.75
259.83	1605.61
260.05	1550.31
260.27	1732.58
260.48	1570.79
260.70	1478.63
260.92	1576.94
261.13	1607.66
261.35	1495.02
261.57	1558.50
261.78	1560.55
262.00	1548.26
262.22	1531.88
262.43	1486.83
262.65	1519.59
262.86	1490.92
263.08	1591.27
263.30	1519.59
263.51	1484.78
263.73	1476.59
263.95	1652.71
264.16	1535.98
264.38	1570.79
264.60	1540.07
264.81	1497.07
265.03	1525.74
265.25	1556.46
265.46	1542.12
265.68	1542.12
265.89	1550.31
266.11	1454.06
266.33	1634.28
266.54	1495.02
266.76	1574.89
266.98	1605.61
267.19	1544.17
267.41	1556.46
267.62	1452.01
267.84	1466.35
268.06	1634.28
268.27	1595.37
268.49	1503.21
268.70	1533.93
268.92	1488.87
269.14	1456.11
269.35	1456.11
269.57	1558.50
269.79	1578.98
270.00	1427.43
270.22	1626.09
270.43	1544.17
270.65	1472.49
270.87	1601.51
271.08	1609.70
271.30	1591.27
271.51	1533.93
271.73	1507.30
271.95	1562.60
272.16	1576.94
272.38	1529.83
272.59	1464.30
272.81	1566.70
273.02	1447.91
273.24	1519.59
273.46	1560.55
273.67	1445.87
273.89	1507.30
274.10	1521.64
274.32	1548.26
274.54	1556.46
274.75	1558.50
274.97	1447.91
275.18	1529.83
275.40	1515.50
275.61	1554.41
275.83	1593.32
276.05	1454.06
276.26	1509.35
276.48	1595.37
276.69	1429.48
276.91	1474.54
277.12	1525.74
277.34	1548.26
277.55	1619.94
277.77	1546.22
277.99	1550.31
278.20	1474.54
278.42	1486.83
278.63	1517.54
278.85	1476.59
279.06	1470.44
279.28	1566.70
279.49	1515.50
279.71	1558.50
279.93	1550.31
280.14	1509.35
280.36	1519.59
280.57	1665.00
280.79	1552.36
281.00	1527.78
281.22	1468.39
281.43	1613.80
281.65	1445.87
281.86	1519.59
282.08	1605.61
282.29	1560.55
282.51	1492.97
282.73	1521.64
282.94	1447.91
283.16	1490.92
283.37	1558.50
283.59	1484.78
283.80	1574.89
284.02	1533.93
284.23	1558.50
284.45	1503.21
284.66	1492.97
284.88	1533.93
285.09	1566.70
285.31	1568.74
285.52	1535.98
285.74	1523.69
285.95	1556.46
286.17	1529.83
286.38	1587.18
286.60	1476.59
286.81	1515.50
287.03	1517.54
287.24	1492.97
287.46	1521.64
287.67	1501.16
287.89	1638.38
288.10	1538.02
288.32	1626.09
288.53	1617.90
288.75	1478.63
288.96	1540.07
289.18	1464.30
289.39	1535.98
289.61	1560.55
289.82	1630.18
290.04	1626.09
290.25	1501.16
290.47	1507.30
290.68	1531.88
290.90	1517.54
291.11	1499.11
291.33	1527.78
291.54	1447.91
291.76	1484.78
291.97	1507.30
292.18	1564.65
292.40	1519.59
292.61	1511.40
292.83	1628.14
293.04	1583.08
293.26	1552.36
293.47	1574.89
293.69	1476.59
293.90	1521.64
294.12	1603.56
294.33	1568.74
294.55	1535.98
294.76	1605.61
294.97	1599.46
295.19	1640.42
295.40	1529.83
295.62	1589.22
295.83	1535.98
296.05	1472.49
296.26	1515.50
296.48	1542.12
296.69	1621.99
296.90	1480.68
297.12	1587.18
297.33	1576.94
297.55	1515.50
297.76	1581.03
297.98	1552.36
298.19	1576.94
298.41	1525.74
298.62	1552.36
298.83	1525.74
299.05	1546.22
299.26	1566.70
299.48	1478.63
299.69	1538.02
299.90	1552.36
300.12	1521.64
300.33	1525.74
300.55	1538.02
300.76	1626.09
300.98	1501.16
301.19	1499.11
301.40	1490.92
301.62	1511.40
301.83	1554.41
302.05	1513.45
302.26	1525.74
302.47	1497.07
302.69	1497.07
302.90	1505.26
303.12	1406.95
303.33	1550.31
303.54	1624.04
303.76	1492.97
303.97	1572.84
304.19	1568.74
304.40	1478.63
304.61	1492.97
304.83	1595.37
305.04	1566.70
305.26	1624.04
305.47	1564.65
305.68	1515.50
305.90	1492.97
306.11	1570.79
306.33	1519.59
306.54	1525.74
306.75	1495.02
306.97	1538.02
307.18	1525.74
307.39	1509.35
307.61	1554.41
307.82	1564.65
308.04	1640.42
308.25	1531.88
308.46	1521.64
308.68	1554.41
308.89	1581.03
309.10	1611.75
309.32	1576.94
309.53	1554.41
309.74	1535.98
309.96	1529.83
310.17	1521.64
310.39	1566.70
310.60	1566.70
310.81	1574.89
311.03	1478.63
311.24	1517.54
311.45	1462.25
311.67	1628.14
311.88	1531.88
312.09	1560.55
312.31	1495.02
312.52	1554.41
312.73	1458.15
312.95	1505.26
313.16	1482.73
313.37	1552.36
313.59	1546.22
313.80	1578.98
314.01	1587.18
314.23	1507.30
314.44	1490.92
314.65	1531.88
314.87	1531.88
315.08	1517.54
315.29	1486.83
315.51	1552.36
315.72	1456.11
315.93	1548.26
316.15	1570.79
316.36	1458.15
316.57	1550.31
316.79	1531.88
317.00	1480.68
317.21	1574.89
317.43	1490.92
317.64	1548.26
317.85	1554.41
318.07	1513.45
318.28	1654.76
318.49	1683.43
318.70	1755.11
318.92	1746.92
319.13	1607.66
319.34	1718.25
319.56	1660.90
319.77	1753.06
319.98	1634.28
320.20	1665.00
320.41	1572.84
320.62	1572.84
320.83	1464.30
321.05	1646.57
321.26	1529.83
321.47	1542.12
321.69	1523.69
321.90	1513.45
322.11	1497.07
322.32	1525.74
322.54	1585.13
322.75	1501.16
322.96	1550.31
323.18	1468.39
323.39	1480.68
323.60	1515.50
323.81	1517.54
324.03	1560.55
324.24	1486.83
324.45	1529.83
324.66	1517.54
324.88	1595.37
325.09	1564.65
325.30	1527.78
325.52	1515.50
325.73	1529.83
325.94	1470.44
326.15	1466.35
326.37	1484.78
326.58	1589.22
326.79	1562.60
327.00	1511.40
327.22	1519.59
327.43	1540.07
327.64	1476.59
327.85	1611.75
328.07	1560.55
328.28	1581.03
328.49	1458.15
328.70	1509.35
328.92	1560.55
329.13	1474.54
329.34	1576.94
329.55	1593.32
329.76	1646.57
329.98	1556.46
330.19	1607.66
330.40	1656.81
330.61	1523.69
330.83	1570.79
331.04	1492.97
331.25	1513.45
331.46	1519.59
331.68	1501.16
331.89	1611.75
332.10	1560.55
332.31	1488.87
332.52	1501.16
332.74	1601.51
332.95	1490.92
333.16	1564.65
333.37	1593.32
333.58	1464.30
333.80	1572.84
334.01	1433.58
334.22	1533.93
334.43	1490.92
334.64	1527.78
334.86	1413.10
335.07	1495.02
335.28	1505.26
335.49	1478.63
335.70	1595.37
335.92	1538.02
336.13	1615.85
336.34	1581.03
336.55	1519.59
336.76	1589.22
336.98	1427.43
337.19	1562.60
337.40	1605.61
337.61	1671.14
337.82	1529.83
338.04	1628.14
338.25	1474.54
338.46	1486.83
338.67	1515.50
338.88	1482.73
339.09	1486.83
339.31	1558.50
339.52	1511.40
339.73	1447.91
339.94	1486.83
340.15	1585.13
340.36	1503.21
340.58	1501.16
340.79	1540.07
341.00	1615.85
341.21	1460.20
341.42	1669.09
341.63	1619.94
341.85	1548.26
342.06	1542.12
342.27	1458.15
342.48	1574.89
342.69	1417.19
342.90	1535.98
343.12	1587.18
343.33	1525.74
343.54	1628.14
343.75	1591.27
343.96	1492.97
344.17	1433.58
344.38	1589.22
344.60	1439.72
344.81	1449.96
345.02	1581.03
345.23	1486.83
345.44	1630.18
345.65	1542.12
345.86	1632.23
346.07	1613.80
346.29	1564.65
346.50	1589.22
346.71	1603.56
346.92	1574.89
347.13	1658.85
347.34	1552.36
347.55	1505.26
347.76	1568.74
347.98	1472.49
348.19	1523.69
348.40	1527.78
348.61	1486.83
348.82	1628.14
349.03	1519.59
349.24	1482.73
349.45	1640.42
349.66	1566.70
349.88	1511.40
350.09	1443.82
350.30	1566.70
350.51	1523.69
350.72	1521.64
350.93	1542.12
351.14	1478.63
351.35	1538.02
351.56	1632.23
351.77	1587.18
351.99	1548.26
352.20	1605.61
352.41	1570.79
352.62	1503.21
352.83	1486.83
353.04	1562.60
353.25	1517.54
353.46	1683.43
353.67	1595.37
353.88	1527.78
354.09	1560.55
354.30	1560.55
354.52	1572.84
354.73	1535.98
354.94	1544.17
355.15	1505.26
355.36	1488.87
355.57	1564.65
355.78	1509.35
355.99	1513.45
356.20	1488.87
356.41	1589.22
356.62	1589.22
356.83	1529.83
357.04	1552.36
357.25	1505.26
357.46	1531.88
357.68	1501.16
357.89	1511.40
358.10	1535.98
358.31	1519.59
358.52	1527.78
358.73	1492.97
358.94	1570.79
359.15	1583.08
359.36	1542.12
359.57	1513.45
359.78	1531.88
359.99	1601.51
360.20	1507.30
360.41	1509.35
360.62	1492.97
360.83	1617.90
361.04	1535.98
361.25	1568.74
361.46	1603.56
361.67	1572.84
361.88	1638.38
362.09	1570.79
362.30	1511.40
362.51	1570.79
362.72	1611.75
362.93	1601.51
363.14	1544.17
363.35	1621.99
363.56	1503.21
363.78	1556.46
363.99	1570.79
364.20	1458.15
364.41	1562.60
364.62	1568.74
364.83	1492.97
365.04	1595.37
365.25	1599.46
365.46	1652.71
365.67	1486.83
365.88	1492.97
366.09	1511.40
366.30	1501.16
366.51	1535.98
366.72	1544.17
366.93	1515.50
367.14	1495.02
367.35	1525.74
367.56	1482.73
367.77	1677.29
367.98	1560.55
368.18	1560.55
368.39	1662.95
368.60	1535.98
368.81	1501.16
369.02	1525.74
369.23	1529.83
369.44	1441.77
369.65	1505.26
369.86	1562.60
370.07	1507.30
370.28	1462.25
370.49	1693.67
370.70	1683.43
370.91	1515.50
371.12	1497.07
371.33	1574.89
371.54	1505.26
371.75	1681.38
371.96	1523.69
372.17	1441.77
372.38	1531.88
372.59	1538.02
372.80	1538.02
373.01	1525.74
373.22	1527.78
373.43	1578.98
373.64	1419.24
373.85	1570.79
374.06	1619.94
374.26	1519.59
374.47	1578.98
374.68	1607.66
374.89	1581.03
375.10	1542.12
375.31	1626.09
375.52	1552.36
375.73	1535.98
375.94	1474.54
376.15	1587.18
376.36	1490.92
376.57	1472.49
376.78	1552.36
376.99	1468.39
377.20	1595.37
377.40	1456.11
377.61	1591.27
377.82	1550.31
378.03	1621.99
378.24	1572.84
378.45	1550.31
378.66	1542.12
378.87	1476.59
379.08	1484.78
379.29	1558.50
379.50	1578.98
379.71	1554.41
379.91	1562.60
380.12	1566.70
380.33	1540.07
380.54	1538.02
380.75	1568.74
380.96	1560.55
381.17	1538.02
381.38	1538.02
381.59	1587.18
381.80	1574.89
382.00	1705.96
382.21	1593.32
382.42	1669.09
382.63	1632.23
382.84	1603.56
383.05	1511.40
383.26	1628.14
383.47	1564.65
383.68	1574.89
383.88	1542.12
384.09	1589.22
384.30	1535.98
384.51	1568.74
384.72	1460.20
384.93	1509.35
385.14	1513.45
385.35	1587.18
385.55	1591.27
385.76	1652.71
385.97	1550.31
386.18	1452.01
386.39	1505.26
386.60	1513.45
386.81	1527.78
387.02	1501.16
387.22	1521.64
387.43	1673.19
387.64	1658.85
387.85	1845.22
388.06	3065.81
388.27	7276.43
388.48	10518.37
388.68	12506.95
388.89	14004.01
389.10	12879.68
389.31	10100.58
389.52	8912.76
389.73	7874.44
389.93	7378.83
390.14	6879.13
390.35	6246.30
390.56	5621.67
390.77	4624.31
390.98	3616.71
391.18	2813.91
391.39	2189.28
391.60	1794.02
391.81	1658.85
392.02	1634.28
392.23	1656.81
392.43	1568.74
392.64	1630.18
392.85	1540.07
393.06	1589.22
393.27	1531.88
393.47	1527.78
393.68	1550.31
393.89	1511.40
394.10	1601.51
394.31	1511.40
394.52	1501.16
394.72	1535.98
394.93	1626.09
395.14	1462.25
395.35	1591.27
395.56	1595.37
395.76	1660.90
395.97	1632.23
396.18	1665.00
396.39	1812.45
396.60	1908.71
396.80	1794.02
397.01	1687.53
397.22	1699.81
397.43	1568.74
397.64	1538.02
397.84	1581.03
398.05	1738.73
398.26	1554.41
398.47	1603.56
398.67	1554.41
398.88	1568.74
399.09	1621.99
399.30	1605.61
399.51	1574.89
399.71	1517.54
399.92	1591.27
400.13	1554.41
400.34	1583.08
400.54	1509.35
400.75	1605.61
400.96	1593.32
401.17	1568.74
401.37	1572.84
401.58	1484.78
401.79	1562.60
402.00	1839.08
402.21	1914.85
402.41	1869.80
402.62	1943.52
402.83	1863.65
403.04	1890.28
403.24	1886.18
403.45	1697.77
403.66	1716.20
403.87	1822.69
404.07	1748.97
404.28	1740.77
404.49	1751.01
404.70	1615.85
404.90	1591.27
405.11	1574.89
405.32	1619.94
405.52	1488.87
405.73	1454.06
405.94	1449.96
406.15	1525.74
406.35	1619.94
406.56	1562.60
406.77	1611.75
406.98	1634.28
407.18	1499.11
407.39	1599.46
407.60	1527.78
407.80	1595.37
408.01	1507.30
408.22	1515.50
408.43	1546.22
408.63	1601.51
408.84	1542.12
409.05	1507.30
409.25	1411.05
409.46	1542.12
409.67	1499.11
409.88	1478.63
410.08	1540.07
410.29	1484.78
410.50	1578.98
410.70	1558.50
410.91	1525.74
411.12	1566.70
411.32	1578.98
411.53	1521.64
411.74	1646.57
411.95	1660.90
412.15	1611.75
412.36	1644.52
412.57	1566.70
412.77	1658.85
412.98	1509.35
413.19	1601.51
413.39	1578.98
413.60	1599.46
413.81	1583.08
414.01	1572.84
414.22	1595.37
414.43	1595.37
414.63	1564.65
414.84	1570.79
415.05	1497.07
415.25	1417.19
415.46	1632.23
415.67	1488.87
415.87	1533.93
416.08	1581.03
416.29	1574.89
416.49	1634.28
416.70	1495.02
416.91	1519.59
417.11	1566.70
417.32	1527.78
417.53	1556.46
417.73	1544.17
417.94	1546.22
418.15	1581.03
418.35	1576.94
418.56	1540.07
418.77	1654.76
418.97	1452.01
419.18	1495.02
419.38	1513.45
419.59	1574.89
419.80	1597.42
420.00	1550.31
420.21	1550.31
420.42	1578.98
420.62	1624.04
420.83	1495.02
421.04	1533.93
421.24	1542.12
421.45	1583.08
421.65	1503.21
421.86	1552.36
422.07	1595.37
422.27	1495.02
422.48	1499.11
422.69	1478.63
422.89	1544.17
423.10	1490.92
423.30	1501.16
423.51	1558.50
423.72	1519.59
423.92	1560.55
424.13	1470.44
424.33	1521.64
424.54	1529.83
424.75	1566.70
424.95	1705.96
425.16	1540.07
425.36	1527.78
425.57	1572.84
425.78	1525.74
425.98	1589.22
426.19	1562.60
426.39	1431.53
426.60	1490.92
426.81	1660.90
427.01	1509.35
427.22	1515.50
427.42	1472.49
427.63	1499.11
427.83	1568.74
428.04	1603.56
428.25	1527.78
428.45	1634.28
428.66	1566.70
428.86	1490.92
429.07	1556.46
429.28	1554.41
429.48	1552.36
429.69	1556.46
429.89	1511.40
430.10	1544.17
430.30	1583.08
430.51	1583.08
430.71	1452.01
430.92	1544.17
431.13	1542.12
431.33	1517.54
431.54	1636.33
431.74	1679.33
431.95	1662.95
432.15	1519.59
432.36	1568.74
432.56	1527.78
432.77	1611.75
432.98	1572.84
433.18	1589.22
433.39	1521.64
433.59	1533.93
433.80	1640.42
434.00	1652.71
434.21	1591.27
434.41	1468.39
434.62	1665.00
434.82	1581.03
435.03	1535.98
435.23	1570.79
435.44	1445.87
435.64	1499.11
435.85	1538.02
436.06	1527.78
436.26	1572.84
436.47	1562.60
436.67	1527.78
436.88	1593.32
437.08	1503.21
437.29	1546.22
437.49	1492.97
437.70	1597.42
437.90	1615.85
438.11	1720.29
438.31	1703.91
438.52	1656.81
438.72	1722.34
438.93	1771.49
439.13	1615.85
439.34	1683.43
439.54	1552.36
439.75	1568.74
439.95	1679.33
440.16	1544.17
440.36	1583.08
440.57	1638.38
440.77	1533.93
440.98	1529.83
441.18	1560.55
441.39	1609.70
441.59	1486.83
441.80	1628.14
442.00	1535.98
442.21	1650.66
442.41	1488.87
442.62	1562.60
442.82	1515.50
443.02	1605.61
443.23	1574.89
443.43	1472.49
443.64	1656.81
443.84	1513.45
444.05	1601.51
444.25	1550.31
444.46	1476.59
444.66	1558.50
444.87	1613.80
445.07	1452.01
445.28	1566.70
445.48	1624.04
445.69	1619.94
445.89	1693.67
446.09	1636.33
446.30	1968.10
446.50	3127.25
446.71	4433.85
446.91	5410.73
447.12	5777.32
447.32	5468.08
447.53	4638.65
447.73	3987.40
447.93	3747.78
448.14	3422.16
448.34	3172.30
448.55	2959.31
448.75	2922.45
448.96	2791.38
449.16	2432.99
449.36	2267.10
449.57	2054.11
449.77	1834.98
449.98	1712.10
450.18	1587.18
450.39	1591.27
450.59	1587.18
450.79	1542.12
451.00	1468.39
451.20	1548.26
451.41	1568.74
451.61	1601.51
451.81	1558.50
452.02	1511.40
452.22	1550.31
452.43	1509.35
452.63	1533.93
