SpectraSuite Data File
++++++++++++++++++++++++++++++++++++
Date: Tue May 03 12:55:08 CEST 2016
User: root
Dark Spectrum Present: No
Reference Spectrum Present: No
Number of Sampled Component Spectra: 1
Spectrometers: USB4C02835
Integration Time (usec): 100000 (USB4C02835)
Spectra Averaged: 1 (USB4C02835)
Boxcar Smoothing: 0 (USB4C02835)
Correct for Electrical Dark: No (USB4C02835)
Strobe/Lamp Enabled: No (USB4C02835)
Correct for Detector Non-linearity: No (USB4C02835)
Correct for Stray Light: No (USB4C02835)
Number of Pixels in Processed Spectrum: 3648
>>>>>Begin Processed Spectral Data<<<<<
177.47	1359.85
177.69	1359.85
177.91	1359.85
178.13	1282.03
178.36	1345.52
178.58	1515.50
178.80	1566.70
179.02	1468.39
179.24	1509.35
179.46	1533.93
179.68	1558.50
179.90	1515.50
180.13	1603.56
180.35	1499.11
180.57	1527.78
180.79	1507.30
181.01	1529.83
181.23	1554.41
181.45	1535.98
181.67	1521.64
181.90	1572.84
182.12	1533.93
182.34	1431.53
182.56	1396.71
182.78	1531.88
183.00	1521.64
183.22	1529.83
183.44	1449.96
183.66	1578.98
183.89	1613.80
184.11	1544.17
184.33	1460.20
184.55	1564.65
184.77	1566.70
184.99	1654.76
185.21	1542.12
185.43	1597.42
185.65	1581.03
185.87	1585.13
186.10	1646.57
186.32	1634.28
186.54	1595.37
186.76	1568.74
186.98	1535.98
187.20	1505.26
187.42	1550.31
187.64	1572.84
187.86	1480.68
188.08	1497.07
188.30	1576.94
188.52	1495.02
188.75	1585.13
188.97	1576.94
189.19	1503.21
189.41	1558.50
189.63	1572.84
189.85	1556.46
190.07	1538.02
190.29	1601.51
190.51	1560.55
190.73	1478.63
190.95	1572.84
191.17	1531.88
191.39	1460.20
191.61	1454.06
191.84	1517.54
192.06	1587.18
192.28	1460.20
192.50	1630.18
192.72	1556.46
192.94	1533.93
193.16	1605.61
193.38	1583.08
193.60	1492.97
193.82	1578.98
194.04	1558.50
194.26	1525.74
194.48	1527.78
194.70	1495.02
194.92	1587.18
195.14	1607.66
195.36	1525.74
195.58	1568.74
195.80	1505.26
196.02	1482.73
196.24	1529.83
196.46	1583.08
196.69	1464.30
196.91	1636.33
197.13	1570.79
197.35	1533.93
197.57	1574.89
197.79	1607.66
198.01	1523.69
198.23	1587.18
198.45	1576.94
198.67	1564.65
198.89	1578.98
199.11	1495.02
199.33	1443.82
199.55	1513.45
199.77	1509.35
199.99	1601.51
200.21	1439.72
200.43	1501.16
200.65	1488.87
200.87	1468.39
201.09	1562.60
201.31	1535.98
201.53	1527.78
201.75	1517.54
201.97	1507.30
202.19	1507.30
202.41	1630.18
202.63	1632.23
202.85	1511.40
203.07	1566.70
203.29	1472.49
203.51	1517.54
203.73	1499.11
203.95	1671.14
204.17	1554.41
204.39	1529.83
204.61	1605.61
204.83	1525.74
205.05	1644.52
205.27	1595.37
205.49	1634.28
205.71	1490.92
205.93	1417.19
206.15	1529.83
206.37	1486.83
206.59	1484.78
206.81	1546.22
207.03	1466.35
207.25	1366.00
207.47	1560.55
207.69	1535.98
207.91	1638.38
208.13	1568.74
208.34	1552.36
208.56	1456.11
208.78	1560.55
209.00	1509.35
209.22	1542.12
209.44	1525.74
209.66	1443.82
209.88	1497.07
210.10	1566.70
210.32	1470.44
210.54	1665.00
210.76	1552.36
210.98	1525.74
211.20	1462.25
211.42	1560.55
211.64	1591.27
211.86	1570.79
212.08	1533.93
212.30	1560.55
212.52	1550.31
212.74	1505.26
212.96	1576.94
213.17	1650.66
213.39	1550.31
213.61	1595.37
213.83	1525.74
214.05	1466.35
214.27	1585.13
214.49	1517.54
214.71	1492.97
214.93	1648.61
215.15	1478.63
215.37	1552.36
215.59	1513.45
215.81	1595.37
216.03	1576.94
216.24	1562.60
216.46	1554.41
216.68	1529.83
216.90	1560.55
217.12	1665.00
217.34	1591.27
217.56	1501.16
217.78	1578.98
218.00	1509.35
218.22	1511.40
218.44	1581.03
218.66	1552.36
218.87	1581.03
219.09	1511.40
219.31	1599.46
219.53	1609.70
219.75	1521.64
219.97	1499.11
220.19	1521.64
220.41	1603.56
220.63	1626.09
220.85	1603.56
221.06	1568.74
221.28	1548.26
221.50	1517.54
221.72	1562.60
221.94	1615.85
222.16	1503.21
222.38	1554.41
222.60	1562.60
222.82	1478.63
223.03	1550.31
223.25	1474.54
223.47	1609.70
223.69	1671.14
223.91	1546.22
224.13	1550.31
224.35	1554.41
224.57	1542.12
224.78	1523.69
225.00	1380.33
225.22	1492.97
225.44	1552.36
225.66	1556.46
225.88	1519.59
226.10	1595.37
226.32	1554.41
226.53	1603.56
226.75	1468.39
226.97	1525.74
227.19	1533.93
227.41	1478.63
227.63	1464.30
227.85	1501.16
228.06	1505.26
228.28	1533.93
228.50	1515.50
228.72	1542.12
228.94	1478.63
229.16	1480.68
229.37	1474.54
229.59	1476.59
229.81	1607.66
230.03	1517.54
230.25	1449.96
230.47	1478.63
230.69	1472.49
230.90	1550.31
231.12	1529.83
231.34	1548.26
231.56	1525.74
231.78	1511.40
232.00	1515.50
232.21	1560.55
232.43	1525.74
232.65	1470.44
232.87	1492.97
233.09	1535.98
233.30	1523.69
233.52	1607.66
233.74	1511.40
233.96	1497.07
234.18	1550.31
234.40	1497.07
234.61	1642.47
234.83	1546.22
235.05	1433.58
235.27	1640.42
235.49	1611.75
235.70	1613.80
235.92	1595.37
236.14	1593.32
236.36	1667.05
236.58	1482.73
236.79	1583.08
237.01	1589.22
237.23	1552.36
237.45	1626.09
237.67	1488.87
237.88	1644.52
238.10	1648.61
238.32	1497.07
238.54	1533.93
238.76	1488.87
238.97	1517.54
239.19	1497.07
239.41	1505.26
239.63	1544.17
239.85	1486.83
240.06	1554.41
240.28	1515.50
240.50	1556.46
240.72	1609.70
240.93	1574.89
241.15	1613.80
241.37	1560.55
241.59	1624.04
241.81	1546.22
242.02	1492.97
242.24	1621.99
242.46	1564.65
242.68	1507.30
242.89	1593.32
243.11	1593.32
243.33	1503.21
243.55	1544.17
243.76	1585.13
243.98	1509.35
244.20	1472.49
244.42	1538.02
244.64	1589.22
244.85	1519.59
245.07	1472.49
245.29	1560.55
245.51	1542.12
245.72	1517.54
245.94	1538.02
246.16	1562.60
246.38	1558.50
246.59	1542.12
246.81	1533.93
247.03	1480.68
247.24	1437.67
247.46	1509.35
247.68	1531.88
247.90	1462.25
248.11	1523.69
248.33	1503.21
248.55	1615.85
248.77	1499.11
248.98	1527.78
249.20	1632.23
249.42	1554.41
249.64	1542.12
249.85	1437.67
250.07	1513.45
250.29	1527.78
250.50	1626.09
250.72	1404.91
250.94	1509.35
251.16	1624.04
251.37	1607.66
251.59	1468.39
251.81	1474.54
252.02	1564.65
252.24	1558.50
252.46	1607.66
252.68	1480.68
252.89	1525.74
253.11	1470.44
253.33	1601.51
253.54	1581.03
253.76	1439.72
253.98	1529.83
254.20	1505.26
254.41	1490.92
254.63	1570.79
254.85	1486.83
255.06	1529.83
255.28	1556.46
255.50	1525.74
255.71	1519.59
255.93	1490.92
256.15	1527.78
256.36	1452.01
256.58	1488.87
256.80	1492.97
257.02	1540.07
257.23	1495.02
257.45	1515.50
257.67	1546.22
257.88	1519.59
258.10	1503.21
258.32	1609.70
258.53	1515.50
258.75	1638.38
258.97	1566.70
259.18	1642.47
259.40	1540.07
259.62	1619.94
259.83	1562.60
260.05	1550.31
260.27	1726.44
260.48	1570.79
260.70	1544.17
260.92	1552.36
261.13	1556.46
261.35	1486.83
261.57	1587.18
261.78	1501.16
262.00	1478.63
262.22	1562.60
262.43	1370.09
262.65	1525.74
262.86	1601.51
263.08	1572.84
263.30	1583.08
263.51	1564.65
263.73	1544.17
263.95	1585.13
264.16	1523.69
264.38	1527.78
264.60	1529.83
264.81	1554.41
265.03	1585.13
265.25	1572.84
265.46	1542.12
265.68	1617.90
265.89	1490.92
266.11	1353.71
266.33	1566.70
266.54	1591.27
266.76	1517.54
266.98	1611.75
267.19	1497.07
267.41	1527.78
267.62	1548.26
267.84	1501.16
268.06	1466.35
268.27	1642.47
268.49	1546.22
268.70	1509.35
268.92	1560.55
269.14	1503.21
269.35	1533.93
269.57	1505.26
269.79	1558.50
270.00	1495.02
270.22	1540.07
270.43	1519.59
270.65	1495.02
270.87	1509.35
271.08	1521.64
271.30	1540.07
271.51	1562.60
271.73	1576.94
271.95	1576.94
272.16	1595.37
272.38	1533.93
272.59	1583.08
272.81	1558.50
273.02	1574.89
273.24	1570.79
273.46	1533.93
273.67	1525.74
273.89	1544.17
274.10	1452.01
274.32	1505.26
274.54	1540.07
274.75	1509.35
274.97	1488.87
275.18	1572.84
275.40	1507.30
275.61	1447.91
275.83	1578.98
276.05	1482.73
276.26	1546.22
276.48	1552.36
276.69	1509.35
276.91	1421.29
277.12	1599.46
277.34	1585.13
277.55	1562.60
277.77	1464.30
277.99	1574.89
278.20	1501.16
278.42	1474.54
278.63	1492.97
278.85	1472.49
279.06	1550.31
279.28	1554.41
279.49	1511.40
279.71	1609.70
279.93	1599.46
280.14	1566.70
280.36	1527.78
280.57	1597.42
280.79	1615.85
281.00	1499.11
281.22	1531.88
281.43	1546.22
281.65	1409.00
281.86	1490.92
282.08	1599.46
282.29	1581.03
282.51	1509.35
282.73	1478.63
282.94	1480.68
283.16	1585.13
283.37	1656.81
283.59	1495.02
283.80	1486.83
284.02	1478.63
284.23	1578.98
284.45	1591.27
284.66	1482.73
284.88	1480.68
285.09	1677.29
285.31	1574.89
285.52	1595.37
285.74	1368.04
285.95	1507.30
286.17	1452.01
286.38	1646.57
286.60	1480.68
286.81	1511.40
287.03	1515.50
287.24	1478.63
287.46	1576.94
287.67	1497.07
287.89	1634.28
288.10	1564.65
288.32	1589.22
288.53	1572.84
288.75	1527.78
288.96	1595.37
289.18	1521.64
289.39	1548.26
289.61	1617.90
289.82	1607.66
290.04	1574.89
290.25	1462.25
290.47	1540.07
290.68	1519.59
290.90	1544.17
291.11	1476.59
291.33	1591.27
291.54	1523.69
291.76	1521.64
291.97	1556.46
292.18	1601.51
292.40	1531.88
292.61	1484.78
292.83	1724.39
293.04	1554.41
293.26	1521.64
293.47	1566.70
293.69	1521.64
293.90	1474.54
294.12	1583.08
294.33	1542.12
294.55	1511.40
294.76	1525.74
294.97	1585.13
295.19	1734.63
295.40	1519.59
295.62	1505.26
295.83	1560.55
296.05	1468.39
296.26	1566.70
296.48	1492.97
296.69	1529.83
296.90	1495.02
297.12	1599.46
297.33	1564.65
297.55	1529.83
297.76	1519.59
297.98	1574.89
298.19	1521.64
298.41	1521.64
298.62	1511.40
298.83	1589.22
299.05	1523.69
299.26	1517.54
299.48	1505.26
299.69	1513.45
299.90	1554.41
300.12	1478.63
300.33	1576.94
300.55	1546.22
300.76	1599.46
300.98	1462.25
301.19	1583.08
301.40	1552.36
301.62	1519.59
301.83	1548.26
302.05	1558.50
302.26	1535.98
302.47	1492.97
302.69	1525.74
302.90	1525.74
303.12	1474.54
303.33	1521.64
303.54	1513.45
303.76	1486.83
303.97	1497.07
304.19	1621.99
304.40	1552.36
304.61	1587.18
304.83	1595.37
305.04	1636.33
305.26	1591.27
305.47	1548.26
305.68	1495.02
305.90	1431.53
306.11	1566.70
306.33	1587.18
306.54	1509.35
306.75	1529.83
306.97	1478.63
307.18	1558.50
307.39	1529.83
307.61	1583.08
307.82	1542.12
308.04	1601.51
308.25	1499.11
308.46	1636.33
308.68	1576.94
308.89	1492.97
309.10	1632.23
309.32	1556.46
309.53	1449.96
309.74	1472.49
309.96	1562.60
310.17	1574.89
310.39	1468.39
310.60	1538.02
310.81	1599.46
311.03	1525.74
311.24	1587.18
311.45	1562.60
311.67	1576.94
311.88	1576.94
312.09	1439.72
312.31	1515.50
312.52	1562.60
312.73	1495.02
312.95	1482.73
313.16	1550.31
313.37	1591.27
313.59	1642.47
313.80	1542.12
314.01	1574.89
314.23	1470.44
314.44	1531.88
314.65	1556.46
314.87	1499.11
315.08	1607.66
315.29	1503.21
315.51	1499.11
315.72	1470.44
315.93	1587.18
316.15	1572.84
316.36	1484.78
316.57	1495.02
316.79	1560.55
317.00	1497.07
317.21	1601.51
317.43	1521.64
317.64	1523.69
317.85	1544.17
318.07	1585.13
318.28	1601.51
318.49	1718.25
318.70	1822.69
318.92	1636.33
319.13	1822.69
319.34	1671.14
319.56	1662.95
319.77	1662.95
319.98	1636.33
320.20	1652.71
320.41	1648.61
320.62	1591.27
320.83	1505.26
321.05	1621.99
321.26	1486.83
321.47	1560.55
321.69	1583.08
321.90	1447.91
322.11	1515.50
322.32	1591.27
322.54	1634.28
322.75	1581.03
322.96	1601.51
323.18	1529.83
323.39	1456.11
323.60	1517.54
323.81	1619.94
324.03	1513.45
324.24	1501.16
324.45	1509.35
324.66	1558.50
324.88	1560.55
325.09	1624.04
325.30	1488.87
325.52	1515.50
325.73	1554.41
325.94	1523.69
326.15	1458.15
326.37	1554.41
326.58	1538.02
326.79	1550.31
327.00	1507.30
327.22	1525.74
327.43	1468.39
327.64	1460.20
327.85	1550.31
328.07	1513.45
328.28	1601.51
328.49	1581.03
328.70	1519.59
328.92	1589.22
329.13	1562.60
329.34	1619.94
329.55	1644.52
329.76	1624.04
329.98	1583.08
330.19	1548.26
330.40	1609.70
330.61	1558.50
330.83	1585.13
331.04	1460.20
331.25	1517.54
331.46	1538.02
331.68	1454.06
331.89	1648.61
332.10	1505.26
332.31	1474.54
332.52	1603.56
332.74	1550.31
332.95	1449.96
333.16	1574.89
333.37	1617.90
333.58	1462.25
333.80	1511.40
334.01	1464.30
334.22	1538.02
334.43	1605.61
334.64	1495.02
334.86	1495.02
335.07	1525.74
335.28	1538.02
335.49	1497.07
335.70	1576.94
335.92	1603.56
336.13	1632.23
336.34	1566.70
336.55	1517.54
336.76	1595.37
336.98	1456.11
337.19	1572.84
337.40	1638.38
337.61	1683.43
337.82	1560.55
338.04	1525.74
338.25	1505.26
338.46	1484.78
338.67	1517.54
338.88	1462.25
339.09	1490.92
339.31	1531.88
339.52	1517.54
339.73	1505.26
339.94	1503.21
340.15	1505.26
340.36	1517.54
340.58	1497.07
340.79	1556.46
341.00	1529.83
341.21	1548.26
341.42	1548.26
341.63	1464.30
341.85	1589.22
342.06	1585.13
342.27	1462.25
342.48	1556.46
342.69	1509.35
342.90	1556.46
343.12	1542.12
343.33	1540.07
343.54	1544.17
343.75	1533.93
343.96	1605.61
344.17	1466.35
344.38	1583.08
344.60	1523.69
344.81	1523.69
345.02	1464.30
345.23	1550.31
345.44	1636.33
345.65	1527.78
345.86	1607.66
346.07	1583.08
346.29	1552.36
346.50	1533.93
346.71	1581.03
346.92	1552.36
347.13	1621.99
347.34	1544.17
347.55	1513.45
347.76	1552.36
347.98	1509.35
348.19	1513.45
348.40	1585.13
348.61	1464.30
348.82	1552.36
349.03	1488.87
349.24	1540.07
349.45	1634.28
349.66	1474.54
349.88	1517.54
350.09	1492.97
350.30	1642.47
350.51	1630.18
350.72	1503.21
350.93	1470.44
351.14	1521.64
351.35	1531.88
351.56	1542.12
351.77	1562.60
351.99	1595.37
352.20	1652.71
352.41	1578.98
352.62	1484.78
352.83	1501.16
353.04	1484.78
353.25	1556.46
353.46	1615.85
353.67	1591.27
353.88	1460.20
354.09	1570.79
354.30	1529.83
354.52	1597.42
354.73	1558.50
354.94	1484.78
355.15	1540.07
355.36	1599.46
355.57	1558.50
355.78	1572.84
355.99	1490.92
356.20	1501.16
356.41	1550.31
356.62	1552.36
356.83	1576.94
357.04	1570.79
357.25	1462.25
357.46	1501.16
357.68	1531.88
357.89	1529.83
358.10	1585.13
358.31	1587.18
358.52	1507.30
358.73	1521.64
358.94	1480.68
359.15	1458.15
359.36	1607.66
359.57	1595.37
359.78	1558.50
359.99	1599.46
360.20	1478.63
360.41	1552.36
360.62	1519.59
360.83	1558.50
361.04	1578.98
361.25	1525.74
361.46	1621.99
361.67	1562.60
361.88	1562.60
362.09	1529.83
362.30	1476.59
362.51	1554.41
362.72	1566.70
362.93	1529.83
363.14	1560.55
363.35	1527.78
363.56	1486.83
363.78	1519.59
363.99	1581.03
364.20	1501.16
364.41	1509.35
364.62	1656.81
364.83	1564.65
365.04	1523.69
365.25	1544.17
365.46	1658.85
365.67	1488.87
365.88	1574.89
366.09	1570.79
366.30	1503.21
366.51	1515.50
366.72	1527.78
366.93	1535.98
367.14	1533.93
367.35	1533.93
367.56	1488.87
367.77	1546.22
367.98	1564.65
368.18	1566.70
368.39	1638.38
368.60	1421.29
368.81	1615.85
369.02	1509.35
369.23	1546.22
369.44	1488.87
369.65	1548.26
369.86	1568.74
370.07	1556.46
370.28	1466.35
370.49	1556.46
370.70	1552.36
370.91	1443.82
371.12	1472.49
371.33	1581.03
371.54	1535.98
371.75	1599.46
371.96	1402.86
372.17	1492.97
372.38	1556.46
372.59	1587.18
372.80	1562.60
373.01	1542.12
373.22	1505.26
373.43	1521.64
373.64	1519.59
373.85	1576.94
374.06	1550.31
374.26	1558.50
374.47	1554.41
374.68	1648.61
374.89	1519.59
375.10	1462.25
375.31	1517.54
375.52	1560.55
375.73	1581.03
375.94	1497.07
376.15	1624.04
376.36	1556.46
376.57	1462.25
376.78	1554.41
376.99	1560.55
377.20	1609.70
377.40	1521.64
377.61	1570.79
377.82	1519.59
378.03	1574.89
378.24	1525.74
378.45	1540.07
378.66	1486.83
378.87	1527.78
379.08	1447.91
379.29	1523.69
379.50	1599.46
379.71	1531.88
379.91	1599.46
380.12	1505.26
380.33	1554.41
380.54	1607.66
380.75	1511.40
380.96	1542.12
381.17	1548.26
381.38	1601.51
381.59	1632.23
381.80	1570.79
382.00	1685.48
382.21	1562.60
382.42	1646.57
382.63	1603.56
382.84	1568.74
383.05	1601.51
383.26	1576.94
383.47	1544.17
383.68	1587.18
383.88	1615.85
384.09	1509.35
384.30	1699.81
384.51	1607.66
384.72	1517.54
384.93	1495.02
385.14	1523.69
385.35	1611.75
385.55	1482.73
385.76	1683.43
385.97	1513.45
386.18	1540.07
386.39	1544.17
386.60	1542.12
386.81	1564.65
387.02	1511.40
387.22	1558.50
387.43	1566.70
387.64	1621.99
387.85	1841.12
388.06	3153.87
388.27	7235.47
388.48	10557.28
388.68	12541.76
388.89	13995.82
389.10	12844.86
389.31	10186.60
389.52	8998.77
389.73	7878.54
389.93	7436.17
390.14	6795.16
390.35	6344.61
390.56	5590.95
390.77	4669.37
390.98	3569.61
391.18	2867.16
391.39	2273.25
391.60	1732.58
391.81	1689.57
392.02	1574.89
392.23	1724.39
392.43	1548.26
392.64	1615.85
392.85	1484.78
393.06	1662.95
393.27	1484.78
393.47	1478.63
393.68	1609.70
393.89	1554.41
394.10	1628.14
394.31	1554.41
394.52	1556.46
394.72	1488.87
394.93	1492.97
395.14	1497.07
395.35	1544.17
395.56	1546.22
395.76	1605.61
395.97	1751.01
396.18	1695.72
396.39	1781.73
396.60	1896.42
396.80	1734.63
397.01	1654.76
397.22	1646.57
397.43	1615.85
397.64	1640.42
397.84	1734.63
398.05	1726.44
398.26	1581.03
398.47	1665.00
398.67	1605.61
398.88	1591.27
399.09	1599.46
399.30	1570.79
399.51	1572.84
399.71	1495.02
399.92	1501.16
400.13	1521.64
400.34	1576.94
400.54	1581.03
400.75	1597.42
400.96	1519.59
401.17	1611.75
401.37	1474.54
401.58	1548.26
401.79	1570.79
402.00	1804.26
402.21	1984.48
402.41	1937.38
402.62	1937.38
402.83	1978.34
403.04	1933.28
403.24	1898.47
403.45	1697.77
403.66	1783.78
403.87	1748.97
404.07	1800.16
404.28	1804.26
404.49	1701.86
404.70	1636.33
404.90	1630.18
405.11	1644.52
405.32	1628.14
405.52	1548.26
405.73	1497.07
405.94	1462.25
406.15	1560.55
406.35	1531.88
406.56	1538.02
406.77	1550.31
406.98	1601.51
407.18	1542.12
407.39	1609.70
407.60	1542.12
407.80	1570.79
408.01	1554.41
408.22	1636.33
408.43	1538.02
408.63	1560.55
408.84	1562.60
409.05	1591.27
409.25	1523.69
409.46	1515.50
409.67	1478.63
409.88	1542.12
410.08	1611.75
410.29	1515.50
410.50	1499.11
410.70	1548.26
410.91	1507.30
411.12	1488.87
411.32	1599.46
411.53	1611.75
411.74	1492.97
411.95	1585.13
412.15	1621.99
412.36	1693.67
412.57	1566.70
412.77	1562.60
412.98	1570.79
413.19	1538.02
413.39	1492.97
413.60	1640.42
413.81	1638.38
414.01	1495.02
414.22	1665.00
414.43	1538.02
414.63	1480.68
414.84	1574.89
415.05	1570.79
415.25	1492.97
415.46	1544.17
415.67	1480.68
415.87	1570.79
416.08	1495.02
416.29	1538.02
416.49	1609.70
416.70	1597.42
416.91	1511.40
417.11	1595.37
417.32	1568.74
417.53	1560.55
417.73	1667.05
417.94	1574.89
418.15	1540.07
418.35	1548.26
418.56	1533.93
418.77	1708.01
418.97	1611.75
419.18	1480.68
419.38	1445.87
419.59	1476.59
419.80	1597.42
420.00	1488.87
420.21	1552.36
420.42	1583.08
420.62	1566.70
420.83	1527.78
421.04	1462.25
421.24	1476.59
421.45	1484.78
421.65	1595.37
421.86	1648.61
422.07	1564.65
422.27	1554.41
422.48	1472.49
422.69	1513.45
422.89	1499.11
423.10	1529.83
423.30	1486.83
423.51	1525.74
423.72	1562.60
423.92	1521.64
424.13	1476.59
424.33	1550.31
424.54	1495.02
424.75	1546.22
424.95	1587.18
425.16	1507.30
425.36	1501.16
425.57	1583.08
425.78	1535.98
425.98	1673.19
426.19	1474.54
426.39	1540.07
426.60	1538.02
426.81	1660.90
427.01	1615.85
427.22	1503.21
427.42	1507.30
427.63	1499.11
427.83	1495.02
428.04	1632.23
428.25	1650.66
428.45	1607.66
428.66	1548.26
428.86	1505.26
429.07	1484.78
429.28	1601.51
429.48	1581.03
429.69	1509.35
429.89	1597.42
430.10	1402.86
430.30	1595.37
430.51	1599.46
430.71	1458.15
430.92	1542.12
431.13	1642.47
431.33	1566.70
431.54	1587.18
431.74	1624.04
431.95	1671.14
432.15	1482.73
432.36	1566.70
432.56	1548.26
432.77	1656.81
432.98	1581.03
433.18	1583.08
433.39	1505.26
433.59	1486.83
433.80	1656.81
434.00	1744.87
434.21	1521.64
434.41	1460.20
434.62	1615.85
434.82	1525.74
435.03	1478.63
435.23	1511.40
435.44	1476.59
435.64	1484.78
435.85	1533.93
436.06	1599.46
436.26	1576.94
436.47	1480.68
436.67	1486.83
436.88	1591.27
437.08	1619.94
437.29	1648.61
437.49	1525.74
437.70	1603.56
437.90	1581.03
438.11	1740.77
438.31	1603.56
438.52	1656.81
438.72	1697.77
438.93	1755.11
439.13	1605.61
439.34	1613.80
439.54	1593.32
439.75	1681.38
439.95	1642.47
440.16	1548.26
440.36	1593.32
440.57	1560.55
440.77	1558.50
440.98	1599.46
441.18	1613.80
441.39	1429.48
441.59	1544.17
441.80	1656.81
442.00	1576.94
442.21	1497.07
442.41	1458.15
442.62	1581.03
442.82	1554.41
443.02	1585.13
443.23	1499.11
443.43	1513.45
443.64	1660.90
443.84	1476.59
444.05	1630.18
444.25	1587.18
444.46	1554.41
444.66	1540.07
444.87	1656.81
445.07	1486.83
445.28	1511.40
445.48	1601.51
445.69	1572.84
445.89	1673.19
446.09	1587.18
446.30	2037.73
446.50	3278.80
446.71	4437.95
446.91	5375.92
447.12	5830.57
447.32	5595.05
447.53	4657.08
447.73	4022.21
447.93	3622.86
448.14	3321.81
448.34	3254.22
448.55	2969.55
448.75	2895.83
448.96	2799.57
449.16	2494.43
449.36	2226.14
449.57	1964.00
449.77	1834.98
449.98	1632.23
450.18	1552.36
450.39	1607.66
450.59	1642.47
450.79	1523.69
451.00	1523.69
451.20	1519.59
451.41	1488.87
451.61	1570.79
451.81	1587.18
452.02	1460.20
452.22	1484.78
452.43	1558.50
452.63	1495.02
