SpectraSuite Data File
++++++++++++++++++++++++++++++++++++
Date: Tue May 03 12:55:20 CEST 2016
User: root
Dark Spectrum Present: No
Reference Spectrum Present: No
Number of Sampled Component Spectra: 1
Spectrometers: USB4C02835
Integration Time (usec): 100000 (USB4C02835)
Spectra Averaged: 1 (USB4C02835)
Boxcar Smoothing: 0 (USB4C02835)
Correct for Electrical Dark: No (USB4C02835)
Strobe/Lamp Enabled: No (USB4C02835)
Correct for Detector Non-linearity: No (USB4C02835)
Correct for Stray Light: No (USB4C02835)
Number of Pixels in Processed Spectrum: 3648
>>>>>Begin Processed Spectral Data<<<<<
177.47	1386.47
177.69	1386.47
177.91	1386.47
178.13	1335.28
178.36	1417.19
178.58	1449.96
178.80	1578.98
179.02	1452.01
179.24	1495.02
179.46	1447.91
179.68	1552.36
179.90	1519.59
180.13	1490.92
180.35	1538.02
180.57	1525.74
180.79	1599.46
181.01	1542.12
181.23	1589.22
181.45	1558.50
181.67	1581.03
181.90	1558.50
182.12	1517.54
182.34	1472.49
182.56	1548.26
182.78	1538.02
183.00	1515.50
183.22	1519.59
183.44	1460.20
183.66	1599.46
183.89	1574.89
184.11	1490.92
184.33	1529.83
184.55	1566.70
184.77	1591.27
184.99	1628.14
185.21	1556.46
185.43	1656.81
185.65	1464.30
185.87	1552.36
186.10	1632.23
186.32	1660.90
186.54	1603.56
186.76	1636.33
186.98	1638.38
187.20	1495.02
187.42	1525.74
187.64	1525.74
187.86	1564.65
188.08	1646.57
188.30	1480.68
188.52	1517.54
188.75	1501.16
188.97	1615.85
189.19	1505.26
189.41	1519.59
189.63	1540.07
189.85	1574.89
190.07	1468.39
190.29	1515.50
190.51	1529.83
190.73	1529.83
190.95	1587.18
191.17	1585.13
191.39	1558.50
191.61	1505.26
191.84	1583.08
192.06	1599.46
192.28	1443.82
192.50	1705.96
192.72	1554.41
192.94	1409.00
193.16	1552.36
193.38	1597.42
193.60	1517.54
193.82	1517.54
194.04	1691.62
194.26	1568.74
194.48	1546.22
194.70	1581.03
194.92	1505.26
195.14	1527.78
195.36	1535.98
195.58	1566.70
195.80	1531.88
196.02	1591.27
196.24	1492.97
196.46	1560.55
196.69	1572.84
196.91	1609.70
197.13	1503.21
197.35	1511.40
197.57	1617.90
197.79	1583.08
198.01	1533.93
198.23	1576.94
198.45	1499.11
198.67	1441.77
198.89	1538.02
199.11	1445.87
199.33	1542.12
199.55	1492.97
199.77	1550.31
199.99	1542.12
200.21	1507.30
200.43	1552.36
200.65	1441.77
200.87	1413.10
201.09	1562.60
201.31	1548.26
201.53	1595.37
201.75	1568.74
201.97	1558.50
202.19	1499.11
202.41	1564.65
202.63	1636.33
202.85	1548.26
203.07	1597.42
203.29	1511.40
203.51	1540.07
203.73	1472.49
203.95	1693.67
204.17	1533.93
204.39	1533.93
204.61	1507.30
204.83	1503.21
205.05	1546.22
205.27	1591.27
205.49	1585.13
205.71	1507.30
205.93	1507.30
206.15	1507.30
206.37	1527.78
206.59	1550.31
206.81	1490.92
207.03	1501.16
207.25	1484.78
207.47	1607.66
207.69	1511.40
207.91	1572.84
208.13	1599.46
208.34	1523.69
208.56	1443.82
208.78	1562.60
209.00	1515.50
209.22	1550.31
209.44	1574.89
209.66	1464.30
209.88	1566.70
210.10	1490.92
210.32	1538.02
210.54	1591.27
210.76	1505.26
210.98	1611.75
211.20	1486.83
211.42	1535.98
211.64	1564.65
211.86	1535.98
212.08	1570.79
212.30	1535.98
212.52	1499.11
212.74	1552.36
212.96	1538.02
213.17	1628.14
213.39	1554.41
213.61	1621.99
213.83	1652.71
214.05	1511.40
214.27	1501.16
214.49	1476.59
214.71	1454.06
214.93	1611.75
215.15	1599.46
215.37	1552.36
215.59	1517.54
215.81	1552.36
216.03	1576.94
216.24	1499.11
216.46	1503.21
216.68	1523.69
216.90	1648.61
217.12	1595.37
217.34	1621.99
217.56	1570.79
217.78	1560.55
218.00	1556.46
218.22	1546.22
218.44	1550.31
218.66	1587.18
218.87	1564.65
219.09	1511.40
219.31	1533.93
219.53	1583.08
219.75	1478.63
219.97	1511.40
220.19	1564.65
220.41	1540.07
220.63	1605.61
220.85	1558.50
221.06	1566.70
221.28	1488.87
221.50	1570.79
221.72	1517.54
221.94	1578.98
222.16	1495.02
222.38	1519.59
222.60	1593.32
222.82	1572.84
223.03	1574.89
223.25	1486.83
223.47	1632.23
223.69	1675.24
223.91	1613.80
224.13	1509.35
224.35	1535.98
224.57	1558.50
224.78	1523.69
225.00	1501.16
225.22	1497.07
225.44	1533.93
225.66	1564.65
225.88	1505.26
226.10	1585.13
226.32	1583.08
226.53	1581.03
226.75	1531.88
226.97	1558.50
227.19	1589.22
227.41	1449.96
227.63	1576.94
227.85	1484.78
228.06	1554.41
228.28	1535.98
228.50	1560.55
228.72	1531.88
228.94	1509.35
229.16	1417.19
229.37	1497.07
229.59	1601.51
229.81	1619.94
230.03	1546.22
230.25	1492.97
230.47	1570.79
230.69	1517.54
230.90	1636.33
231.12	1587.18
231.34	1570.79
231.56	1576.94
231.78	1464.30
232.00	1566.70
232.21	1619.94
232.43	1533.93
232.65	1452.01
232.87	1497.07
233.09	1392.62
233.30	1492.97
233.52	1546.22
233.74	1490.92
233.96	1517.54
234.18	1587.18
234.40	1497.07
234.61	1615.85
234.83	1542.12
235.05	1452.01
235.27	1701.86
235.49	1562.60
235.70	1593.32
235.92	1609.70
236.14	1490.92
236.36	1632.23
236.58	1505.26
236.79	1507.30
237.01	1503.21
237.23	1538.02
237.45	1599.46
237.67	1552.36
237.88	1468.39
238.10	1681.38
238.32	1462.25
238.54	1562.60
238.76	1482.73
238.97	1499.11
239.19	1437.67
239.41	1554.41
239.63	1540.07
239.85	1509.35
240.06	1550.31
240.28	1578.98
240.50	1548.26
240.72	1521.64
240.93	1525.74
241.15	1556.46
241.37	1521.64
241.59	1583.08
241.81	1458.15
242.02	1503.21
242.24	1540.07
242.46	1581.03
242.68	1550.31
242.89	1564.65
243.11	1626.09
243.33	1499.11
243.55	1595.37
243.76	1601.51
243.98	1554.41
244.20	1523.69
244.42	1513.45
244.64	1583.08
244.85	1486.83
245.07	1447.91
245.29	1535.98
245.51	1585.13
245.72	1591.27
245.94	1570.79
246.16	1507.30
246.38	1578.98
246.59	1574.89
246.81	1464.30
247.03	1515.50
247.24	1480.68
247.46	1574.89
247.68	1517.54
247.90	1570.79
248.11	1535.98
248.33	1587.18
248.55	1460.20
248.77	1607.66
248.98	1550.31
249.20	1482.73
249.42	1507.30
249.64	1538.02
249.85	1556.46
250.07	1513.45
250.29	1607.66
250.50	1566.70
250.72	1480.68
250.94	1576.94
251.16	1679.33
251.37	1566.70
251.59	1525.74
251.81	1521.64
252.02	1615.85
252.24	1505.26
252.46	1544.17
252.68	1417.19
252.89	1472.49
253.11	1415.15
253.33	1665.00
253.54	1593.32
253.76	1490.92
253.98	1482.73
254.20	1509.35
254.41	1417.19
254.63	1552.36
254.85	1509.35
255.06	1535.98
255.28	1570.79
255.50	1538.02
255.71	1585.13
255.93	1517.54
256.15	1535.98
256.36	1576.94
256.58	1527.78
256.80	1501.16
257.02	1521.64
257.23	1488.87
257.45	1540.07
257.67	1621.99
257.88	1454.06
258.10	1585.13
258.32	1568.74
258.53	1550.31
258.75	1603.56
258.97	1529.83
259.18	1519.59
259.40	1476.59
259.62	1609.70
259.83	1511.40
260.05	1615.85
260.27	1777.64
260.48	1581.03
260.70	1492.97
260.92	1531.88
261.13	1533.93
261.35	1507.30
261.57	1613.80
261.78	1398.76
262.00	1460.20
262.22	1591.27
262.43	1509.35
262.65	1509.35
262.86	1550.31
263.08	1621.99
263.30	1544.17
263.51	1462.25
263.73	1585.13
263.95	1624.04
264.16	1515.50
264.38	1507.30
264.60	1626.09
264.81	1509.35
265.03	1591.27
265.25	1617.90
265.46	1544.17
265.68	1558.50
265.89	1570.79
266.11	1445.87
266.33	1550.31
266.54	1607.66
266.76	1605.61
266.98	1527.78
267.19	1601.51
267.41	1538.02
267.62	1505.26
267.84	1445.87
268.06	1550.31
268.27	1507.30
268.49	1597.42
268.70	1638.38
268.92	1550.31
269.14	1478.63
269.35	1503.21
269.57	1499.11
269.79	1583.08
270.00	1523.69
270.22	1648.61
270.43	1546.22
270.65	1476.59
270.87	1519.59
271.08	1517.54
271.30	1648.61
271.51	1529.83
271.73	1546.22
271.95	1572.84
272.16	1609.70
272.38	1456.11
272.59	1523.69
272.81	1517.54
273.02	1607.66
273.24	1576.94
273.46	1576.94
273.67	1527.78
273.89	1445.87
274.10	1574.89
274.32	1499.11
274.54	1523.69
274.75	1581.03
274.97	1560.55
275.18	1495.02
275.40	1572.84
275.61	1511.40
275.83	1568.74
276.05	1411.05
276.26	1521.64
276.48	1535.98
276.69	1507.30
276.91	1515.50
277.12	1581.03
277.34	1599.46
277.55	1581.03
277.77	1542.12
277.99	1538.02
278.20	1519.59
278.42	1533.93
278.63	1503.21
278.85	1558.50
279.06	1454.06
279.28	1564.65
279.49	1497.07
279.71	1556.46
279.93	1556.46
280.14	1484.78
280.36	1523.69
280.57	1511.40
280.79	1587.18
281.00	1533.93
281.22	1558.50
281.43	1658.85
281.65	1486.83
281.86	1517.54
282.08	1576.94
282.29	1595.37
282.51	1478.63
282.73	1452.01
282.94	1495.02
283.16	1531.88
283.37	1535.98
283.59	1488.87
283.80	1607.66
284.02	1503.21
284.23	1540.07
284.45	1503.21
284.66	1511.40
284.88	1521.64
285.09	1601.51
285.31	1574.89
285.52	1564.65
285.74	1466.35
285.95	1581.03
286.17	1521.64
286.38	1681.38
286.60	1562.60
286.81	1476.59
287.03	1538.02
287.24	1570.79
287.46	1558.50
287.67	1619.94
287.89	1583.08
288.10	1542.12
288.32	1568.74
288.53	1533.93
288.75	1554.41
288.96	1535.98
289.18	1527.78
289.39	1447.91
289.61	1566.70
289.82	1630.18
290.04	1603.56
290.25	1421.29
290.47	1554.41
290.68	1511.40
290.90	1470.44
291.11	1454.06
291.33	1562.60
291.54	1484.78
291.76	1556.46
291.97	1507.30
292.18	1564.65
292.40	1462.25
292.61	1511.40
292.83	1689.57
293.04	1564.65
293.26	1581.03
293.47	1660.90
293.69	1521.64
293.90	1568.74
294.12	1564.65
294.33	1562.60
294.55	1542.12
294.76	1538.02
294.97	1564.65
295.19	1591.27
295.40	1542.12
295.62	1529.83
295.83	1599.46
296.05	1546.22
296.26	1601.51
296.48	1476.59
296.69	1556.46
296.90	1578.98
297.12	1566.70
297.33	1519.59
297.55	1578.98
297.76	1585.13
297.98	1535.98
298.19	1591.27
298.41	1595.37
298.62	1529.83
298.83	1642.47
299.05	1558.50
299.26	1472.49
299.48	1495.02
299.69	1583.08
299.90	1558.50
300.12	1515.50
300.33	1554.41
300.55	1560.55
300.76	1556.46
300.98	1513.45
301.19	1542.12
301.40	1515.50
301.62	1525.74
301.83	1540.07
302.05	1544.17
302.26	1570.79
302.47	1574.89
302.69	1505.26
302.90	1544.17
303.12	1458.15
303.33	1630.18
303.54	1652.71
303.76	1515.50
303.97	1505.26
304.19	1619.94
304.40	1472.49
304.61	1613.80
304.83	1650.66
305.04	1597.42
305.26	1574.89
305.47	1462.25
305.68	1609.70
305.90	1490.92
306.11	1570.79
306.33	1626.09
306.54	1509.35
306.75	1548.26
306.97	1505.26
307.18	1564.65
307.39	1546.22
307.61	1603.56
307.82	1497.07
308.04	1443.82
308.25	1513.45
308.46	1511.40
308.68	1538.02
308.89	1527.78
309.10	1538.02
309.32	1501.16
309.53	1562.60
309.74	1550.31
309.96	1517.54
310.17	1538.02
310.39	1488.87
310.60	1507.30
310.81	1574.89
311.03	1585.13
311.24	1542.12
311.45	1517.54
311.67	1624.04
311.88	1538.02
312.09	1484.78
312.31	1484.78
312.52	1544.17
312.73	1503.21
312.95	1513.45
313.16	1525.74
313.37	1589.22
313.59	1574.89
313.80	1509.35
314.01	1638.38
314.23	1507.30
314.44	1519.59
314.65	1490.92
314.87	1550.31
315.08	1525.74
315.29	1488.87
315.51	1497.07
315.72	1435.63
315.93	1648.61
316.15	1546.22
316.36	1533.93
316.57	1538.02
316.79	1585.13
317.00	1560.55
317.21	1552.36
317.43	1603.56
317.64	1546.22
317.85	1458.15
318.07	1544.17
318.28	1687.53
318.49	1755.11
318.70	1798.12
318.92	1740.77
319.13	1732.58
319.34	1710.05
319.56	1583.08
319.77	1607.66
319.98	1701.86
320.20	1636.33
320.41	1671.14
320.62	1558.50
320.83	1495.02
321.05	1642.47
321.26	1556.46
321.47	1509.35
321.69	1556.46
321.90	1519.59
322.11	1521.64
322.32	1492.97
322.54	1542.12
322.75	1495.02
322.96	1585.13
323.18	1454.06
323.39	1497.07
323.60	1445.87
323.81	1611.75
324.03	1492.97
324.24	1542.12
324.45	1562.60
324.66	1527.78
324.88	1497.07
325.09	1587.18
325.30	1550.31
325.52	1517.54
325.73	1535.98
325.94	1495.02
326.15	1472.49
326.37	1495.02
326.58	1544.17
326.79	1591.27
327.00	1466.35
327.22	1572.84
327.43	1478.63
327.64	1421.29
327.85	1501.16
328.07	1533.93
328.28	1574.89
328.49	1566.70
328.70	1515.50
328.92	1511.40
329.13	1552.36
329.34	1478.63
329.55	1679.33
329.76	1556.46
329.98	1531.88
330.19	1628.14
330.40	1597.42
330.61	1574.89
330.83	1630.18
331.04	1452.01
331.25	1521.64
331.46	1517.54
331.68	1501.16
331.89	1523.69
332.10	1544.17
332.31	1533.93
332.52	1501.16
332.74	1599.46
332.95	1468.39
333.16	1535.98
333.37	1527.78
333.58	1515.50
333.80	1501.16
334.01	1486.83
334.22	1468.39
334.43	1560.55
334.64	1599.46
334.86	1503.21
335.07	1531.88
335.28	1597.42
335.49	1513.45
335.70	1544.17
335.92	1560.55
336.13	1556.46
336.34	1513.45
336.55	1515.50
336.76	1597.42
336.98	1497.07
337.19	1499.11
337.40	1636.33
337.61	1675.24
337.82	1507.30
338.04	1609.70
338.25	1480.68
338.46	1456.11
338.67	1474.54
338.88	1542.12
339.09	1501.16
339.31	1556.46
339.52	1474.54
339.73	1419.24
339.94	1486.83
340.15	1591.27
340.36	1454.06
340.58	1542.12
340.79	1452.01
341.00	1550.31
341.21	1529.83
341.42	1587.18
341.63	1464.30
341.85	1615.85
342.06	1447.91
342.27	1492.97
342.48	1597.42
342.69	1452.01
342.90	1527.78
343.12	1595.37
343.33	1484.78
343.54	1542.12
343.75	1638.38
343.96	1527.78
344.17	1552.36
344.38	1490.92
344.60	1470.44
344.81	1529.83
345.02	1566.70
345.23	1613.80
345.44	1619.94
345.65	1617.90
345.86	1607.66
346.07	1538.02
346.29	1460.20
346.50	1570.79
346.71	1624.04
346.92	1560.55
347.13	1593.32
347.34	1507.30
347.55	1558.50
347.76	1519.59
347.98	1447.91
348.19	1527.78
348.40	1619.94
348.61	1513.45
348.82	1689.57
349.03	1679.33
349.24	1435.63
349.45	1621.99
349.66	1497.07
349.88	1509.35
350.09	1509.35
350.30	1605.61
350.51	1597.42
350.72	1533.93
350.93	1535.98
351.14	1449.96
351.35	1535.98
351.56	1578.98
351.77	1568.74
351.99	1550.31
352.20	1613.80
352.41	1593.32
352.62	1445.87
352.83	1503.21
353.04	1521.64
353.25	1480.68
353.46	1501.16
353.67	1605.61
353.88	1454.06
354.09	1533.93
354.30	1564.65
354.52	1615.85
354.73	1548.26
354.94	1576.94
355.15	1499.11
355.36	1619.94
355.57	1480.68
355.78	1558.50
355.99	1525.74
356.20	1482.73
356.41	1548.26
356.62	1517.54
356.83	1535.98
357.04	1595.37
357.25	1527.78
357.46	1538.02
357.68	1423.34
357.89	1476.59
358.10	1548.26
358.31	1478.63
358.52	1546.22
358.73	1556.46
358.94	1486.83
359.15	1443.82
359.36	1519.59
359.57	1521.64
359.78	1484.78
359.99	1570.79
360.20	1560.55
360.41	1546.22
360.62	1601.51
360.83	1550.31
361.04	1595.37
361.25	1544.17
361.46	1568.74
361.67	1550.31
361.88	1540.07
362.09	1562.60
362.30	1533.93
362.51	1449.96
362.72	1445.87
362.93	1572.84
363.14	1578.98
363.35	1576.94
363.56	1552.36
363.78	1624.04
363.99	1568.74
364.20	1519.59
364.41	1550.31
364.62	1646.57
364.83	1599.46
365.04	1535.98
365.25	1597.42
365.46	1648.61
365.67	1452.01
365.88	1462.25
366.09	1607.66
366.30	1544.17
366.51	1525.74
366.72	1546.22
366.93	1556.46
367.14	1570.79
367.35	1652.71
367.56	1529.83
367.77	1628.14
367.98	1540.07
368.18	1578.98
368.39	1595.37
368.60	1525.74
368.81	1556.46
369.02	1550.31
369.23	1566.70
369.44	1509.35
369.65	1523.69
369.86	1533.93
370.07	1593.32
370.28	1544.17
370.49	1529.83
370.70	1570.79
370.91	1533.93
371.12	1503.21
371.33	1621.99
371.54	1507.30
371.75	1624.04
371.96	1437.67
372.17	1513.45
372.38	1558.50
372.59	1599.46
372.80	1540.07
373.01	1601.51
373.22	1568.74
373.43	1544.17
373.64	1513.45
373.85	1619.94
374.06	1591.27
374.26	1578.98
374.47	1587.18
374.68	1654.76
374.89	1517.54
375.10	1511.40
375.31	1542.12
375.52	1552.36
375.73	1521.64
375.94	1468.39
376.15	1650.66
376.36	1527.78
376.57	1601.51
376.78	1630.18
376.99	1556.46
377.20	1589.22
377.40	1517.54
377.61	1632.23
377.82	1447.91
378.03	1624.04
378.24	1542.12
378.45	1533.93
378.66	1505.26
378.87	1495.02
379.08	1525.74
379.29	1511.40
379.50	1597.42
379.71	1560.55
379.91	1525.74
380.12	1525.74
380.33	1527.78
380.54	1570.79
380.75	1482.73
380.96	1581.03
381.17	1585.13
381.38	1634.28
381.59	1624.04
381.80	1595.37
382.00	1687.53
382.21	1525.74
382.42	1654.76
382.63	1705.96
382.84	1576.94
383.05	1570.79
383.26	1613.80
383.47	1544.17
383.68	1560.55
383.88	1538.02
384.09	1538.02
384.30	1638.38
384.51	1617.90
384.72	1550.31
384.93	1456.11
385.14	1533.93
385.35	1599.46
385.55	1480.68
385.76	1621.99
385.97	1535.98
386.18	1484.78
386.39	1548.26
386.60	1501.16
386.81	1615.85
387.02	1550.31
387.22	1509.35
387.43	1607.66
387.64	1677.29
387.85	1820.64
388.06	3157.97
388.27	7249.81
388.48	10618.72
388.68	12529.47
388.89	13905.71
389.10	13045.56
389.31	10139.49
389.52	8892.28
389.73	7853.96
389.93	7128.98
390.14	6813.59
390.35	6211.49
390.56	5556.14
390.77	4599.74
390.98	3663.82
391.18	2766.81
391.39	2217.95
391.60	1853.41
391.81	1705.96
392.02	1538.02
392.23	1640.42
392.43	1533.93
392.64	1593.32
392.85	1503.21
393.06	1593.32
393.27	1472.49
393.47	1519.59
393.68	1603.56
393.89	1566.70
394.10	1581.03
394.31	1470.44
394.52	1529.83
394.72	1425.39
394.93	1624.04
395.14	1429.48
395.35	1490.92
395.56	1527.78
395.76	1638.38
395.97	1667.05
396.18	1759.21
396.39	1857.51
396.60	1779.68
396.80	1791.97
397.01	1626.09
397.22	1712.10
397.43	1681.38
397.64	1650.66
397.84	1667.05
398.05	1652.71
398.26	1589.22
398.47	1603.56
398.67	1599.46
398.88	1630.18
399.09	1542.12
399.30	1538.02
399.51	1521.64
399.71	1478.63
399.92	1540.07
400.13	1570.79
400.34	1527.78
400.54	1529.83
400.75	1603.56
400.96	1517.54
401.17	1626.09
401.37	1605.61
401.58	1589.22
401.79	1624.04
402.00	1791.97
402.21	1947.62
402.41	1904.61
402.62	1947.62
402.83	1916.90
403.04	1865.70
403.24	1888.23
403.45	1720.29
403.66	1757.16
403.87	1789.92
404.07	1796.07
404.28	1843.17
404.49	1748.97
404.70	1626.09
404.90	1656.81
405.11	1630.18
405.32	1556.46
405.52	1523.69
405.73	1507.30
405.94	1499.11
406.15	1558.50
406.35	1587.18
406.56	1511.40
406.77	1552.36
406.98	1593.32
407.18	1478.63
407.39	1624.04
407.60	1495.02
407.80	1535.98
408.01	1574.89
408.22	1542.12
408.43	1517.54
408.63	1632.23
408.84	1591.27
409.05	1656.81
409.25	1503.21
409.46	1490.92
409.67	1529.83
409.88	1583.08
410.08	1495.02
410.29	1599.46
410.50	1603.56
410.70	1478.63
410.91	1548.26
411.12	1511.40
411.32	1511.40
411.53	1591.27
411.74	1695.72
411.95	1662.95
412.15	1632.23
412.36	1644.52
412.57	1634.28
412.77	1601.51
412.98	1603.56
413.19	1554.41
413.39	1621.99
413.60	1558.50
413.81	1697.77
414.01	1546.22
414.22	1681.38
414.43	1626.09
414.63	1525.74
414.84	1693.67
415.05	1560.55
415.25	1517.54
415.46	1544.17
415.67	1533.93
415.87	1601.51
416.08	1538.02
416.29	1533.93
416.49	1533.93
416.70	1574.89
416.91	1562.60
417.11	1544.17
417.32	1525.74
417.53	1595.37
417.73	1566.70
417.94	1476.59
418.15	1615.85
418.35	1583.08
418.56	1558.50
418.77	1615.85
418.97	1511.40
419.18	1501.16
419.38	1404.91
419.59	1505.26
419.80	1585.13
420.00	1478.63
420.21	1562.60
420.42	1617.90
420.62	1527.78
420.83	1525.74
421.04	1560.55
421.24	1554.41
421.45	1544.17
421.65	1578.98
421.86	1533.93
422.07	1585.13
422.27	1572.84
422.48	1509.35
422.69	1521.64
422.89	1533.93
423.10	1505.26
423.30	1462.25
423.51	1552.36
423.72	1544.17
423.92	1525.74
424.13	1544.17
424.33	1507.30
424.54	1556.46
424.75	1591.27
424.95	1607.66
425.16	1585.13
425.36	1626.09
425.57	1589.22
425.78	1576.94
425.98	1589.22
426.19	1509.35
426.39	1521.64
426.60	1556.46
426.81	1691.62
427.01	1521.64
427.22	1521.64
427.42	1509.35
427.63	1447.91
427.83	1568.74
428.04	1685.48
428.25	1611.75
428.45	1548.26
428.66	1548.26
428.86	1566.70
429.07	1564.65
429.28	1583.08
429.48	1517.54
429.69	1472.49
429.89	1529.83
430.10	1456.11
430.30	1605.61
430.51	1568.74
430.71	1478.63
430.92	1497.07
431.13	1509.35
431.33	1636.33
431.54	1521.64
431.74	1626.09
431.95	1658.85
432.15	1478.63
432.36	1550.31
432.56	1546.22
432.77	1644.52
432.98	1564.65
433.18	1554.41
433.39	1540.07
433.59	1546.22
433.80	1693.67
434.00	1648.61
434.21	1452.01
434.41	1507.30
434.62	1640.42
434.82	1562.60
435.03	1533.93
435.23	1501.16
435.44	1490.92
435.64	1599.46
435.85	1570.79
436.06	1560.55
436.26	1611.75
436.47	1521.64
436.67	1515.50
436.88	1552.36
437.08	1574.89
437.29	1624.04
437.49	1574.89
437.70	1611.75
437.90	1572.84
438.11	1626.09
438.31	1718.25
438.52	1710.05
438.72	1675.24
438.93	1757.16
439.13	1644.52
439.34	1591.27
439.54	1615.85
439.75	1585.13
439.95	1583.08
440.16	1587.18
440.36	1619.94
440.57	1634.28
440.77	1603.56
440.98	1583.08
441.18	1560.55
441.39	1480.68
441.59	1411.05
441.80	1669.09
442.00	1488.87
442.21	1693.67
442.41	1497.07
442.62	1558.50
442.82	1501.16
443.02	1484.78
443.23	1576.94
443.43	1544.17
443.64	1658.85
443.84	1570.79
444.05	1587.18
444.25	1527.78
444.46	1503.21
444.66	1548.26
444.87	1642.47
445.07	1566.70
445.28	1572.84
445.48	1566.70
445.69	1677.29
445.89	1679.33
446.09	1570.79
446.30	2033.63
446.50	3209.17
446.71	4515.77
446.91	5314.48
447.12	5871.53
447.32	5711.78
447.53	4577.21
447.73	4181.95
447.93	3583.95
448.14	3330.00
448.34	3254.22
448.55	2891.73
448.75	2942.93
448.96	2764.76
449.16	2502.62
449.36	2256.86
449.57	1976.29
449.77	1691.62
449.98	1632.23
450.18	1650.66
450.39	1669.09
450.59	1574.89
450.79	1538.02
451.00	1574.89
451.20	1568.74
451.41	1488.87
451.61	1570.79
451.81	1560.55
452.02	1445.87
452.22	1568.74
452.43	1564.65
452.63	1564.65
