SpectraSuite Data File
++++++++++++++++++++++++++++++++++++
Date: Tue May 03 12:55:16 CEST 2016
User: root
Dark Spectrum Present: No
Reference Spectrum Present: No
Number of Sampled Component Spectra: 1
Spectrometers: USB4C02835
Integration Time (usec): 100000 (USB4C02835)
Spectra Averaged: 1 (USB4C02835)
Boxcar Smoothing: 0 (USB4C02835)
Correct for Electrical Dark: No (USB4C02835)
Strobe/Lamp Enabled: No (USB4C02835)
Correct for Detector Non-linearity: No (USB4C02835)
Correct for Stray Light: No (USB4C02835)
Number of Pixels in Processed Spectrum: 3648
>>>>>Begin Processed Spectral Data<<<<<
177.47	1349.61
177.69	1349.61
177.91	1349.61
178.13	1329.13
178.36	1327.08
178.58	1454.06
178.80	1572.84
179.02	1546.22
179.24	1527.78
179.46	1482.73
179.68	1531.88
179.90	1540.07
180.13	1542.12
180.35	1540.07
180.57	1542.12
180.79	1581.03
181.01	1564.65
181.23	1642.47
181.45	1499.11
181.67	1550.31
181.90	1558.50
182.12	1458.15
182.34	1513.45
182.56	1585.13
182.78	1513.45
183.00	1611.75
183.22	1560.55
183.44	1425.39
183.66	1566.70
183.89	1531.88
184.11	1521.64
184.33	1597.42
184.55	1660.90
184.77	1546.22
184.99	1495.02
185.21	1433.58
185.43	1636.33
185.65	1523.69
185.87	1570.79
186.10	1658.85
186.32	1648.61
186.54	1521.64
186.76	1509.35
186.98	1583.08
187.20	1517.54
187.42	1505.26
187.64	1470.44
187.86	1538.02
188.08	1601.51
188.30	1511.40
188.52	1544.17
188.75	1642.47
188.97	1576.94
189.19	1511.40
189.41	1529.83
189.63	1484.78
189.85	1497.07
190.07	1464.30
190.29	1538.02
190.51	1548.26
190.73	1529.83
190.95	1548.26
191.17	1490.92
191.39	1443.82
191.61	1495.02
191.84	1560.55
192.06	1497.07
192.28	1409.00
192.50	1673.19
192.72	1605.61
192.94	1544.17
193.16	1554.41
193.38	1558.50
193.60	1437.67
193.82	1519.59
194.04	1552.36
194.26	1593.32
194.48	1542.12
194.70	1591.27
194.92	1495.02
195.14	1583.08
195.36	1552.36
195.58	1615.85
195.80	1482.73
196.02	1509.35
196.24	1521.64
196.46	1552.36
196.69	1531.88
196.91	1648.61
197.13	1423.34
197.35	1464.30
197.57	1626.09
197.79	1601.51
198.01	1603.56
198.23	1478.63
198.45	1562.60
198.67	1427.43
198.89	1593.32
199.11	1507.30
199.33	1503.21
199.55	1417.19
199.77	1470.44
199.99	1605.61
200.21	1439.72
200.43	1495.02
200.65	1488.87
200.87	1437.67
201.09	1505.26
201.31	1525.74
201.53	1533.93
201.75	1572.84
201.97	1591.27
202.19	1533.93
202.41	1581.03
202.63	1619.94
202.85	1650.66
203.07	1583.08
203.29	1486.83
203.51	1525.74
203.73	1470.44
203.95	1705.96
204.17	1576.94
204.39	1552.36
204.61	1578.98
204.83	1472.49
205.05	1605.61
205.27	1621.99
205.49	1632.23
205.71	1552.36
205.93	1490.92
206.15	1503.21
206.37	1480.68
206.59	1546.22
206.81	1527.78
207.03	1443.82
207.25	1546.22
207.47	1538.02
207.69	1523.69
207.91	1603.56
208.13	1578.98
208.34	1517.54
208.56	1499.11
208.78	1544.17
209.00	1554.41
209.22	1429.48
209.44	1497.07
209.66	1449.96
209.88	1574.89
210.10	1503.21
210.32	1509.35
210.54	1599.46
210.76	1533.93
210.98	1578.98
211.20	1470.44
211.42	1538.02
211.64	1585.13
211.86	1560.55
212.08	1624.04
212.30	1578.98
212.52	1523.69
212.74	1578.98
212.96	1501.16
213.17	1544.17
213.39	1480.68
213.61	1581.03
213.83	1603.56
214.05	1454.06
214.27	1540.07
214.49	1476.59
214.71	1542.12
214.93	1585.13
215.15	1490.92
215.37	1517.54
215.59	1462.25
215.81	1599.46
216.03	1564.65
216.24	1554.41
216.46	1515.50
216.68	1562.60
216.90	1566.70
217.12	1576.94
217.34	1560.55
217.56	1597.42
217.78	1499.11
218.00	1478.63
218.22	1603.56
218.44	1501.16
218.66	1560.55
218.87	1605.61
219.09	1472.49
219.31	1599.46
219.53	1572.84
219.75	1499.11
219.97	1529.83
220.19	1601.51
220.41	1523.69
220.63	1626.09
220.85	1601.51
221.06	1447.91
221.28	1562.60
221.50	1562.60
221.72	1607.66
221.94	1480.68
222.16	1544.17
222.38	1515.50
222.60	1566.70
222.82	1540.07
223.03	1531.88
223.25	1472.49
223.47	1615.85
223.69	1599.46
223.91	1497.07
224.13	1501.16
224.35	1556.46
224.57	1615.85
224.78	1540.07
225.00	1517.54
225.22	1466.35
225.44	1587.18
225.66	1581.03
225.88	1548.26
226.10	1644.52
226.32	1599.46
226.53	1552.36
226.75	1490.92
226.97	1566.70
227.19	1517.54
227.41	1521.64
227.63	1495.02
227.85	1462.25
228.06	1570.79
228.28	1550.31
228.50	1578.98
228.72	1478.63
228.94	1527.78
229.16	1433.58
229.37	1535.98
229.59	1480.68
229.81	1546.22
230.03	1533.93
230.25	1519.59
230.47	1527.78
230.69	1404.91
230.90	1605.61
231.12	1556.46
231.34	1560.55
231.56	1609.70
231.78	1470.44
232.00	1560.55
232.21	1562.60
232.43	1581.03
232.65	1437.67
232.87	1519.59
233.09	1490.92
233.30	1499.11
233.52	1523.69
233.74	1505.26
233.96	1585.13
234.18	1566.70
234.40	1578.98
234.61	1607.66
234.83	1495.02
235.05	1535.98
235.27	1566.70
235.49	1617.90
235.70	1523.69
235.92	1607.66
236.14	1495.02
236.36	1597.42
236.58	1492.97
236.79	1523.69
237.01	1472.49
237.23	1572.84
237.45	1656.81
237.67	1535.98
237.88	1546.22
238.10	1517.54
238.32	1495.02
238.54	1542.12
238.76	1570.79
238.97	1517.54
239.19	1525.74
239.41	1632.23
239.63	1497.07
239.85	1517.54
240.06	1492.97
240.28	1529.83
240.50	1535.98
240.72	1562.60
240.93	1505.26
241.15	1591.27
241.37	1480.68
241.59	1566.70
241.81	1490.92
242.02	1488.87
242.24	1542.12
242.46	1568.74
242.68	1517.54
242.89	1568.74
243.11	1572.84
243.33	1527.78
243.55	1507.30
243.76	1558.50
243.98	1474.54
244.20	1583.08
244.42	1554.41
244.64	1568.74
244.85	1419.24
245.07	1501.16
245.29	1546.22
245.51	1499.11
245.72	1611.75
245.94	1538.02
246.16	1589.22
246.38	1595.37
246.59	1505.26
246.81	1581.03
247.03	1445.87
247.24	1474.54
247.46	1474.54
247.68	1558.50
247.90	1581.03
248.11	1546.22
248.33	1570.79
248.55	1558.50
248.77	1544.17
248.98	1613.80
249.20	1560.55
249.42	1538.02
249.64	1583.08
249.85	1523.69
250.07	1523.69
250.29	1589.22
250.50	1589.22
250.72	1521.64
250.94	1533.93
251.16	1607.66
251.37	1621.99
251.59	1562.60
251.81	1593.32
252.02	1566.70
252.24	1501.16
252.46	1554.41
252.68	1550.31
252.89	1490.92
253.11	1478.63
253.33	1665.00
253.54	1540.07
253.76	1443.82
253.98	1535.98
254.20	1437.67
254.41	1359.85
254.63	1517.54
254.85	1464.30
255.06	1503.21
255.28	1595.37
255.50	1503.21
255.71	1556.46
255.93	1484.78
256.15	1546.22
256.36	1513.45
256.58	1533.93
256.80	1603.56
257.02	1599.46
257.23	1511.40
257.45	1568.74
257.67	1542.12
257.88	1513.45
258.10	1503.21
258.32	1525.74
258.53	1515.50
258.75	1589.22
258.97	1478.63
259.18	1538.02
259.40	1611.75
259.62	1538.02
259.83	1630.18
260.05	1681.38
260.27	1751.01
260.48	1527.78
260.70	1495.02
260.92	1542.12
261.13	1656.81
261.35	1533.93
261.57	1585.13
261.78	1421.29
262.00	1445.87
262.22	1515.50
262.43	1554.41
262.65	1513.45
262.86	1570.79
263.08	1615.85
263.30	1574.89
263.51	1443.82
263.73	1538.02
263.95	1671.14
264.16	1484.78
264.38	1513.45
264.60	1568.74
264.81	1576.94
265.03	1476.59
265.25	1599.46
265.46	1597.42
265.68	1603.56
265.89	1525.74
266.11	1464.30
266.33	1521.64
266.54	1574.89
266.76	1585.13
266.98	1538.02
267.19	1558.50
267.41	1535.98
267.62	1503.21
267.84	1507.30
268.06	1568.74
268.27	1447.91
268.49	1626.09
268.70	1624.04
268.92	1538.02
269.14	1456.11
269.35	1533.93
269.57	1562.60
269.79	1540.07
270.00	1517.54
270.22	1638.38
270.43	1474.54
270.65	1431.53
270.87	1570.79
271.08	1583.08
271.30	1585.13
271.51	1538.02
271.73	1585.13
271.95	1558.50
272.16	1548.26
272.38	1636.33
272.59	1523.69
272.81	1531.88
273.02	1540.07
273.24	1562.60
273.46	1585.13
273.67	1413.10
273.89	1443.82
274.10	1517.54
274.32	1578.98
274.54	1472.49
274.75	1542.12
274.97	1470.44
275.18	1517.54
275.40	1574.89
275.61	1495.02
275.83	1556.46
276.05	1439.72
276.26	1478.63
276.48	1538.02
276.69	1548.26
276.91	1437.67
277.12	1525.74
277.34	1548.26
277.55	1626.09
277.77	1535.98
277.99	1492.97
278.20	1409.00
278.42	1462.25
278.63	1456.11
278.85	1527.78
279.06	1482.73
279.28	1507.30
279.49	1603.56
279.71	1597.42
279.93	1617.90
280.14	1462.25
280.36	1533.93
280.57	1578.98
280.79	1576.94
281.00	1521.64
281.22	1548.26
281.43	1583.08
281.65	1458.15
281.86	1503.21
282.08	1613.80
282.29	1570.79
282.51	1439.72
282.73	1533.93
282.94	1511.40
283.16	1538.02
283.37	1597.42
283.59	1456.11
283.80	1519.59
284.02	1574.89
284.23	1621.99
284.45	1511.40
284.66	1523.69
284.88	1499.11
285.09	1587.18
285.31	1519.59
285.52	1503.21
285.74	1472.49
285.95	1652.71
286.17	1572.84
286.38	1583.08
286.60	1441.77
286.81	1546.22
287.03	1519.59
287.24	1480.68
287.46	1570.79
287.67	1578.98
287.89	1630.18
288.10	1488.87
288.32	1568.74
288.53	1593.32
288.75	1576.94
288.96	1558.50
289.18	1474.54
289.39	1603.56
289.61	1619.94
289.82	1687.53
290.04	1611.75
290.25	1499.11
290.47	1521.64
290.68	1574.89
290.90	1548.26
291.11	1462.25
291.33	1568.74
291.54	1495.02
291.76	1515.50
291.97	1615.85
292.18	1589.22
292.40	1478.63
292.61	1441.77
292.83	1609.70
293.04	1546.22
293.26	1585.13
293.47	1589.22
293.69	1568.74
293.90	1574.89
294.12	1593.32
294.33	1527.78
294.55	1503.21
294.76	1568.74
294.97	1525.74
295.19	1603.56
295.40	1583.08
295.62	1538.02
295.83	1630.18
296.05	1566.70
296.26	1646.57
296.48	1443.82
296.69	1535.98
296.90	1478.63
297.12	1615.85
297.33	1597.42
297.55	1576.94
297.76	1544.17
297.98	1607.66
298.19	1542.12
298.41	1533.93
298.62	1492.97
298.83	1654.76
299.05	1542.12
299.26	1540.07
299.48	1486.83
299.69	1560.55
299.90	1572.84
300.12	1558.50
300.33	1630.18
300.55	1560.55
300.76	1607.66
300.98	1533.93
301.19	1624.04
301.40	1431.53
301.62	1525.74
301.83	1492.97
302.05	1544.17
302.26	1472.49
302.47	1624.04
302.69	1533.93
302.90	1558.50
303.12	1427.43
303.33	1533.93
303.54	1607.66
303.76	1554.41
303.97	1560.55
304.19	1578.98
304.40	1523.69
304.61	1550.31
304.83	1630.18
305.04	1581.03
305.26	1492.97
305.47	1495.02
305.68	1546.22
305.90	1480.68
306.11	1568.74
306.33	1585.13
306.54	1464.30
306.75	1462.25
306.97	1429.48
307.18	1419.24
307.39	1509.35
307.61	1554.41
307.82	1464.30
308.04	1486.83
308.25	1423.34
308.46	1529.83
308.68	1501.16
308.89	1509.35
309.10	1587.18
309.32	1583.08
309.53	1476.59
309.74	1531.88
309.96	1548.26
310.17	1533.93
310.39	1511.40
310.60	1499.11
310.81	1585.13
311.03	1488.87
311.24	1628.14
311.45	1568.74
311.67	1646.57
311.88	1531.88
312.09	1576.94
312.31	1484.78
312.52	1460.20
312.73	1570.79
312.95	1521.64
313.16	1513.45
313.37	1570.79
313.59	1652.71
313.80	1488.87
314.01	1619.94
314.23	1540.07
314.44	1542.12
314.65	1529.83
314.87	1523.69
315.08	1509.35
315.29	1556.46
315.51	1499.11
315.72	1476.59
315.93	1611.75
316.15	1597.42
316.36	1540.07
316.57	1509.35
316.79	1501.16
317.00	1542.12
317.21	1513.45
317.43	1583.08
317.64	1525.74
317.85	1445.87
318.07	1556.46
318.28	1697.77
318.49	1734.63
318.70	1763.30
318.92	1699.81
319.13	1669.09
319.34	1703.91
319.56	1714.15
319.77	1613.80
319.98	1603.56
320.20	1667.05
320.41	1568.74
320.62	1560.55
320.83	1552.36
321.05	1683.43
321.26	1527.78
321.47	1560.55
321.69	1560.55
321.90	1466.35
322.11	1525.74
322.32	1593.32
322.54	1562.60
322.75	1497.07
322.96	1603.56
323.18	1480.68
323.39	1421.29
323.60	1517.54
323.81	1595.37
324.03	1554.41
324.24	1531.88
324.45	1591.27
324.66	1468.39
324.88	1560.55
325.09	1570.79
325.30	1437.67
325.52	1581.03
325.73	1535.98
325.94	1427.43
326.15	1431.53
326.37	1550.31
326.58	1509.35
326.79	1642.47
327.00	1449.96
327.22	1515.50
327.43	1507.30
327.64	1466.35
327.85	1492.97
328.07	1511.40
328.28	1570.79
328.49	1478.63
328.70	1468.39
328.92	1583.08
329.13	1511.40
329.34	1552.36
329.55	1605.61
329.76	1554.41
329.98	1552.36
330.19	1572.84
330.40	1578.98
330.61	1581.03
330.83	1595.37
331.04	1460.20
331.25	1581.03
331.46	1495.02
331.68	1472.49
331.89	1634.28
332.10	1490.92
332.31	1464.30
332.52	1562.60
332.74	1632.23
332.95	1472.49
333.16	1517.54
333.37	1566.70
333.58	1550.31
333.80	1607.66
334.01	1492.97
334.22	1527.78
334.43	1480.68
334.64	1572.84
334.86	1445.87
335.07	1519.59
335.28	1603.56
335.49	1439.72
335.70	1605.61
335.92	1658.85
336.13	1607.66
336.34	1562.60
336.55	1562.60
336.76	1542.12
336.98	1472.49
337.19	1503.21
337.40	1658.85
337.61	1628.14
337.82	1548.26
338.04	1517.54
338.25	1527.78
338.46	1474.54
338.67	1568.74
338.88	1478.63
339.09	1495.02
339.31	1474.54
339.52	1454.06
339.73	1540.07
339.94	1484.78
340.15	1568.74
340.36	1462.25
340.58	1554.41
340.79	1454.06
341.00	1583.08
341.21	1452.01
341.42	1556.46
341.63	1525.74
341.85	1591.27
342.06	1548.26
342.27	1556.46
342.48	1640.42
342.69	1429.48
342.90	1554.41
343.12	1525.74
343.33	1558.50
343.54	1527.78
343.75	1572.84
343.96	1533.93
344.17	1490.92
344.38	1576.94
344.60	1497.07
344.81	1497.07
345.02	1601.51
345.23	1535.98
345.44	1636.33
345.65	1642.47
345.86	1570.79
346.07	1527.78
346.29	1540.07
346.50	1509.35
346.71	1556.46
346.92	1570.79
347.13	1667.05
347.34	1529.83
347.55	1454.06
347.76	1495.02
347.98	1435.63
348.19	1607.66
348.40	1607.66
348.61	1533.93
348.82	1576.94
349.03	1605.61
349.24	1452.01
349.45	1593.32
349.66	1513.45
349.88	1519.59
350.09	1497.07
350.30	1585.13
350.51	1548.26
350.72	1568.74
350.93	1501.16
351.14	1464.30
351.35	1525.74
351.56	1454.06
351.77	1542.12
351.99	1609.70
352.20	1615.85
352.41	1638.38
352.62	1460.20
352.83	1552.36
353.04	1554.41
353.25	1570.79
353.46	1679.33
353.67	1558.50
353.88	1452.01
354.09	1626.09
354.30	1503.21
354.52	1552.36
354.73	1583.08
354.94	1509.35
355.15	1546.22
355.36	1540.07
355.57	1554.41
355.78	1548.26
355.99	1488.87
356.20	1511.40
356.41	1601.51
356.62	1607.66
356.83	1517.54
357.04	1603.56
357.25	1415.15
357.46	1466.35
357.68	1437.67
357.89	1527.78
358.10	1486.83
358.31	1447.91
358.52	1576.94
358.73	1505.26
358.94	1495.02
359.15	1529.83
359.36	1511.40
359.57	1490.92
359.78	1560.55
359.99	1605.61
360.20	1552.36
360.41	1503.21
360.62	1564.65
360.83	1638.38
361.04	1554.41
361.25	1511.40
361.46	1683.43
361.67	1497.07
361.88	1578.98
362.09	1568.74
362.30	1556.46
362.51	1546.22
362.72	1564.65
362.93	1564.65
363.14	1556.46
363.35	1535.98
363.56	1456.11
363.78	1613.80
363.99	1601.51
364.20	1466.35
364.41	1589.22
364.62	1583.08
364.83	1597.42
365.04	1589.22
365.25	1470.44
365.46	1624.04
365.67	1517.54
365.88	1550.31
366.09	1593.32
366.30	1486.83
366.51	1529.83
366.72	1488.87
366.93	1595.37
367.14	1538.02
367.35	1642.47
367.56	1574.89
367.77	1611.75
367.98	1525.74
368.18	1531.88
368.39	1568.74
368.60	1492.97
368.81	1671.14
369.02	1474.54
369.23	1591.27
369.44	1476.59
369.65	1460.20
369.86	1574.89
370.07	1546.22
370.28	1509.35
370.49	1562.60
370.70	1544.17
370.91	1472.49
371.12	1468.39
371.33	1599.46
371.54	1538.02
371.75	1589.22
371.96	1437.67
372.17	1523.69
372.38	1476.59
372.59	1595.37
372.80	1560.55
373.01	1505.26
373.22	1605.61
373.43	1519.59
373.64	1476.59
373.85	1599.46
374.06	1583.08
374.26	1548.26
374.47	1544.17
374.68	1609.70
374.89	1626.09
375.10	1452.01
375.31	1576.94
375.52	1507.30
375.73	1505.26
375.94	1474.54
376.15	1609.70
376.36	1552.36
376.57	1511.40
376.78	1601.51
376.99	1482.73
377.20	1556.46
377.40	1492.97
377.61	1568.74
377.82	1478.63
378.03	1593.32
378.24	1578.98
378.45	1593.32
378.66	1558.50
378.87	1415.15
379.08	1445.87
379.29	1538.02
379.50	1619.94
379.71	1490.92
379.91	1568.74
380.12	1538.02
380.33	1566.70
380.54	1554.41
380.75	1505.26
380.96	1509.35
381.17	1615.85
381.38	1558.50
381.59	1521.64
381.80	1544.17
382.00	1724.39
382.21	1593.32
382.42	1685.48
382.63	1744.87
382.84	1624.04
383.05	1628.14
383.26	1632.23
383.47	1566.70
383.68	1589.22
383.88	1581.03
384.09	1531.88
384.30	1669.09
384.51	1544.17
384.72	1492.97
384.93	1501.16
385.14	1552.36
385.35	1609.70
385.55	1396.71
385.76	1658.85
385.97	1589.22
386.18	1593.32
386.39	1460.20
386.60	1621.99
386.81	1570.79
387.02	1515.50
387.22	1529.83
387.43	1566.70
387.64	1730.53
387.85	1824.74
388.06	3135.44
388.27	7309.20
388.48	10626.91
388.68	12808.00
388.89	14135.08
389.10	13100.86
389.31	10141.54
389.52	9121.65
389.73	7694.22
389.93	7307.15
390.14	6893.46
390.35	6195.11
390.56	5732.26
390.77	4562.87
390.98	3680.20
391.18	2791.38
391.39	2240.48
391.60	1806.31
391.81	1683.43
392.02	1544.17
392.23	1703.91
392.43	1591.27
392.64	1662.95
392.85	1544.17
393.06	1628.14
393.27	1583.08
393.47	1413.10
393.68	1585.13
393.89	1519.59
394.10	1599.46
394.31	1509.35
394.52	1533.93
394.72	1572.84
394.93	1583.08
395.14	1495.02
395.35	1562.60
395.56	1578.98
395.76	1677.29
395.97	1687.53
396.18	1755.11
396.39	1746.92
396.60	1935.33
396.80	1734.63
397.01	1730.53
397.22	1634.28
397.43	1685.48
397.64	1611.75
397.84	1626.09
398.05	1710.05
398.26	1603.56
398.47	1605.61
398.67	1703.91
398.88	1501.16
399.09	1546.22
399.30	1558.50
399.51	1626.09
399.71	1478.63
399.92	1570.79
400.13	1544.17
400.34	1509.35
400.54	1509.35
400.75	1611.75
400.96	1607.66
401.17	1667.05
401.37	1589.22
401.58	1513.45
401.79	1642.47
402.00	1757.16
402.21	1959.91
402.41	1910.75
402.62	1931.23
402.83	2004.96
403.04	1802.21
403.24	1834.98
403.45	1777.64
403.66	1703.91
403.87	1761.25
404.07	1687.53
404.28	1687.53
404.49	1761.25
404.70	1624.04
404.90	1564.65
405.11	1578.98
405.32	1570.79
405.52	1554.41
405.73	1505.26
405.94	1486.83
406.15	1554.41
406.35	1591.27
406.56	1619.94
406.77	1615.85
406.98	1558.50
407.18	1478.63
407.39	1591.27
407.60	1468.39
407.80	1574.89
408.01	1562.60
408.22	1591.27
408.43	1538.02
408.63	1540.07
408.84	1576.94
409.05	1542.12
409.25	1552.36
409.46	1437.67
409.67	1546.22
409.88	1492.97
410.08	1544.17
410.29	1525.74
410.50	1566.70
410.70	1558.50
410.91	1515.50
411.12	1527.78
411.32	1495.02
411.53	1558.50
411.74	1581.03
411.95	1585.13
412.15	1662.95
412.36	1581.03
412.57	1617.90
412.77	1656.81
412.98	1564.65
413.19	1572.84
413.39	1609.70
413.60	1611.75
413.81	1589.22
414.01	1589.22
414.22	1605.61
414.43	1615.85
414.63	1478.63
414.84	1656.81
415.05	1554.41
415.25	1495.02
415.46	1548.26
415.67	1552.36
415.87	1439.72
416.08	1564.65
416.29	1462.25
416.49	1513.45
416.70	1548.26
416.91	1546.22
417.11	1527.78
417.32	1525.74
417.53	1499.11
417.73	1617.90
417.94	1558.50
418.15	1525.74
418.35	1595.37
418.56	1570.79
418.77	1681.38
418.97	1509.35
419.18	1583.08
419.38	1456.11
419.59	1552.36
419.80	1611.75
420.00	1578.98
420.21	1488.87
420.42	1611.75
420.62	1531.88
420.83	1517.54
421.04	1490.92
421.24	1511.40
421.45	1560.55
421.65	1529.83
421.86	1478.63
422.07	1533.93
422.27	1628.14
422.48	1581.03
422.69	1460.20
422.89	1542.12
423.10	1499.11
423.30	1515.50
423.51	1499.11
423.72	1615.85
423.92	1558.50
424.13	1470.44
424.33	1572.84
424.54	1572.84
424.75	1554.41
424.95	1710.05
425.16	1482.73
425.36	1570.79
425.57	1556.46
425.78	1572.84
425.98	1699.81
426.19	1558.50
426.39	1499.11
426.60	1587.18
426.81	1644.52
427.01	1521.64
427.22	1507.30
427.42	1474.54
427.63	1535.98
427.83	1531.88
428.04	1632.23
428.25	1531.88
428.45	1566.70
428.66	1597.42
428.86	1464.30
429.07	1535.98
429.28	1550.31
429.48	1540.07
429.69	1441.77
429.89	1556.46
430.10	1550.31
430.30	1609.70
430.51	1558.50
430.71	1488.87
430.92	1486.83
431.13	1576.94
431.33	1599.46
431.54	1540.07
431.74	1642.47
431.95	1595.37
432.15	1492.97
432.36	1554.41
432.56	1587.18
432.77	1605.61
432.98	1572.84
433.18	1562.60
433.39	1583.08
433.59	1599.46
433.80	1599.46
434.00	1667.05
434.21	1535.98
434.41	1472.49
434.62	1652.71
434.82	1460.20
435.03	1552.36
435.23	1523.69
435.44	1452.01
435.64	1570.79
435.85	1607.66
436.06	1531.88
436.26	1535.98
436.47	1554.41
436.67	1523.69
436.88	1531.88
437.08	1611.75
437.29	1572.84
437.49	1523.69
437.70	1562.60
437.90	1544.17
438.11	1669.09
438.31	1697.77
438.52	1708.01
438.72	1775.59
438.93	1841.12
439.13	1626.09
439.34	1632.23
439.54	1603.56
439.75	1638.38
439.95	1599.46
440.16	1560.55
440.36	1517.54
440.57	1556.46
440.77	1540.07
440.98	1474.54
441.18	1519.59
441.39	1570.79
441.59	1525.74
441.80	1660.90
442.00	1560.55
442.21	1593.32
442.41	1527.78
442.62	1589.22
442.82	1546.22
443.02	1578.98
443.23	1585.13
443.43	1501.16
443.64	1593.32
443.84	1546.22
444.05	1609.70
444.25	1576.94
444.46	1533.93
444.66	1550.31
444.87	1597.42
445.07	1439.72
445.28	1525.74
445.48	1603.56
445.69	1576.94
445.89	1703.91
446.09	1652.71
446.30	2045.92
446.50	3192.78
446.71	4540.35
446.91	5330.86
447.12	5717.93
447.32	5646.25
447.53	4720.57
447.73	4057.03
447.93	3762.12
448.14	3467.21
448.34	3149.78
448.55	2906.07
448.75	2947.03
448.96	2822.10
449.16	2463.71
449.36	2275.29
449.57	1953.76
449.77	1853.41
449.98	1646.57
450.18	1560.55
450.39	1531.88
450.59	1535.98
450.79	1533.93
451.00	1484.78
451.20	1636.33
451.41	1566.70
451.61	1583.08
451.81	1554.41
452.02	1527.78
452.22	1546.22
452.43	1548.26
452.63	1601.51
