SpectraSuite Data File
++++++++++++++++++++++++++++++++++++
Date: Tue May 03 12:55:19 CEST 2016
User: root
Dark Spectrum Present: No
Reference Spectrum Present: No
Number of Sampled Component Spectra: 1
Spectrometers: USB4C02835
Integration Time (usec): 100000 (USB4C02835)
Spectra Averaged: 1 (USB4C02835)
Boxcar Smoothing: 0 (USB4C02835)
Correct for Electrical Dark: No (USB4C02835)
Strobe/Lamp Enabled: No (USB4C02835)
Correct for Detector Non-linearity: No (USB4C02835)
Correct for Stray Light: No (USB4C02835)
Number of Pixels in Processed Spectrum: 3648
>>>>>Begin Processed Spectral Data<<<<<
177.47	1384.43
177.69	1384.43
177.91	1384.43
178.13	1259.50
178.36	1290.22
178.58	1507.30
178.80	1533.93
179.02	1466.35
179.24	1519.59
179.46	1529.83
179.68	1544.17
179.90	1499.11
180.13	1511.40
180.35	1529.83
180.57	1527.78
180.79	1591.27
181.01	1554.41
181.23	1619.94
181.45	1566.70
181.67	1617.90
181.90	1558.50
182.12	1554.41
182.34	1417.19
182.56	1578.98
182.78	1478.63
183.00	1474.54
183.22	1550.31
183.44	1462.25
183.66	1734.63
183.89	1595.37
184.11	1513.45
184.33	1533.93
184.55	1564.65
184.77	1591.27
184.99	1599.46
185.21	1501.16
185.43	1540.07
185.65	1538.02
185.87	1540.07
186.10	1710.05
186.32	1677.29
186.54	1613.80
186.76	1550.31
186.98	1605.61
187.20	1501.16
187.42	1476.59
187.64	1492.97
187.86	1443.82
188.08	1638.38
188.30	1607.66
188.52	1552.36
188.75	1570.79
188.97	1648.61
189.19	1556.46
189.41	1535.98
189.63	1517.54
189.85	1429.48
190.07	1439.72
190.29	1499.11
190.51	1509.35
190.73	1419.24
190.95	1581.03
191.17	1538.02
191.39	1452.01
191.61	1503.21
191.84	1566.70
192.06	1499.11
192.28	1505.26
192.50	1658.85
192.72	1554.41
192.94	1468.39
193.16	1617.90
193.38	1492.97
193.60	1505.26
193.82	1548.26
194.04	1478.63
194.26	1476.59
194.48	1535.98
194.70	1576.94
194.92	1497.07
195.14	1552.36
195.36	1433.58
195.58	1603.56
195.80	1511.40
196.02	1574.89
196.24	1531.88
196.46	1513.45
196.69	1466.35
196.91	1634.28
197.13	1509.35
197.35	1462.25
197.57	1624.04
197.79	1568.74
198.01	1597.42
198.23	1540.07
198.45	1566.70
198.67	1497.07
198.89	1558.50
199.11	1609.70
199.33	1523.69
199.55	1468.39
199.77	1552.36
199.99	1540.07
200.21	1529.83
200.43	1501.16
200.65	1523.69
200.87	1441.77
201.09	1531.88
201.31	1550.31
201.53	1501.16
201.75	1566.70
201.97	1501.16
202.19	1570.79
202.41	1574.89
202.63	1677.29
202.85	1529.83
203.07	1542.12
203.29	1564.65
203.51	1533.93
203.73	1562.60
203.95	1695.72
204.17	1507.30
204.39	1550.31
204.61	1503.21
204.83	1554.41
205.05	1572.84
205.27	1636.33
205.49	1613.80
205.71	1544.17
205.93	1544.17
206.15	1544.17
206.37	1525.74
206.59	1576.94
206.81	1503.21
207.03	1466.35
207.25	1556.46
207.47	1603.56
207.69	1576.94
207.91	1599.46
208.13	1605.61
208.34	1570.79
208.56	1535.98
208.78	1535.98
209.00	1527.78
209.22	1480.68
209.44	1527.78
209.66	1550.31
209.88	1535.98
210.10	1488.87
210.32	1533.93
210.54	1611.75
210.76	1546.22
210.98	1589.22
211.20	1406.95
211.42	1591.27
211.64	1632.23
211.86	1484.78
212.08	1581.03
212.30	1578.98
212.52	1484.78
212.74	1490.92
212.96	1568.74
213.17	1660.90
213.39	1562.60
213.61	1570.79
213.83	1540.07
214.05	1552.36
214.27	1511.40
214.49	1454.06
214.71	1505.26
214.93	1560.55
215.15	1529.83
215.37	1558.50
215.59	1492.97
215.81	1533.93
216.03	1515.50
216.24	1552.36
216.46	1527.78
216.68	1488.87
216.90	1613.80
217.12	1550.31
217.34	1529.83
217.56	1595.37
217.78	1566.70
218.00	1601.51
218.22	1558.50
218.44	1527.78
218.66	1548.26
218.87	1632.23
219.09	1488.87
219.31	1621.99
219.53	1597.42
219.75	1515.50
219.97	1478.63
220.19	1525.74
220.41	1540.07
220.63	1621.99
220.85	1593.32
221.06	1478.63
221.28	1576.94
221.50	1574.89
221.72	1562.60
221.94	1558.50
222.16	1540.07
222.38	1611.75
222.60	1495.02
222.82	1488.87
223.03	1519.59
223.25	1521.64
223.47	1601.51
223.69	1646.57
223.91	1562.60
224.13	1476.59
224.35	1509.35
224.57	1628.14
224.78	1550.31
225.00	1488.87
225.22	1548.26
225.44	1492.97
225.66	1566.70
225.88	1511.40
226.10	1546.22
226.32	1591.27
226.53	1546.22
226.75	1478.63
226.97	1587.18
227.19	1478.63
227.41	1507.30
227.63	1517.54
227.85	1486.83
228.06	1558.50
228.28	1552.36
228.50	1574.89
228.72	1540.07
228.94	1482.73
229.16	1505.26
229.37	1478.63
229.59	1460.20
229.81	1538.02
230.03	1517.54
230.25	1509.35
230.47	1558.50
230.69	1490.92
230.90	1529.83
231.12	1488.87
231.34	1517.54
231.56	1529.83
231.78	1505.26
232.00	1535.98
232.21	1538.02
232.43	1511.40
232.65	1402.86
232.87	1519.59
233.09	1535.98
233.30	1476.59
233.52	1552.36
233.74	1564.65
233.96	1589.22
234.18	1542.12
234.40	1437.67
234.61	1632.23
234.83	1437.67
235.05	1476.59
235.27	1689.57
235.49	1601.51
235.70	1540.07
235.92	1511.40
236.14	1568.74
236.36	1570.79
236.58	1464.30
236.79	1554.41
237.01	1574.89
237.23	1538.02
237.45	1638.38
237.67	1505.26
237.88	1540.07
238.10	1675.24
238.32	1568.74
238.54	1521.64
238.76	1529.83
238.97	1476.59
239.19	1488.87
239.41	1589.22
239.63	1601.51
239.85	1529.83
240.06	1431.53
240.28	1497.07
240.50	1626.09
240.72	1511.40
240.93	1564.65
241.15	1697.77
241.37	1546.22
241.59	1562.60
241.81	1505.26
242.02	1486.83
242.24	1605.61
242.46	1497.07
242.68	1527.78
242.89	1474.54
243.11	1628.14
243.33	1552.36
243.55	1521.64
243.76	1568.74
243.98	1488.87
244.20	1529.83
244.42	1599.46
244.64	1538.02
244.85	1499.11
245.07	1501.16
245.29	1529.83
245.51	1556.46
245.72	1538.02
245.94	1574.89
246.16	1550.31
246.38	1472.49
246.59	1511.40
246.81	1484.78
247.03	1572.84
247.24	1542.12
247.46	1486.83
247.68	1525.74
247.90	1574.89
248.11	1540.07
248.33	1587.18
248.55	1535.98
248.77	1554.41
248.98	1634.28
249.20	1583.08
249.42	1474.54
249.64	1605.61
249.85	1501.16
250.07	1517.54
250.29	1546.22
250.50	1607.66
250.72	1447.91
250.94	1558.50
251.16	1681.38
251.37	1564.65
251.59	1585.13
251.81	1486.83
252.02	1632.23
252.24	1538.02
252.46	1581.03
252.68	1558.50
252.89	1460.20
253.11	1470.44
253.33	1607.66
253.54	1570.79
253.76	1501.16
253.98	1460.20
254.20	1515.50
254.41	1505.26
254.63	1523.69
254.85	1443.82
255.06	1548.26
255.28	1574.89
255.50	1497.07
255.71	1550.31
255.93	1472.49
256.15	1486.83
256.36	1562.60
256.58	1597.42
256.80	1501.16
257.02	1515.50
257.23	1490.92
257.45	1552.36
257.67	1570.79
257.88	1583.08
258.10	1568.74
258.32	1554.41
258.53	1583.08
258.75	1613.80
258.97	1499.11
259.18	1587.18
259.40	1595.37
259.62	1548.26
259.83	1548.26
260.05	1564.65
260.27	1796.07
260.48	1519.59
260.70	1466.35
260.92	1505.26
261.13	1519.59
261.35	1560.55
261.57	1621.99
261.78	1464.30
262.00	1562.60
262.22	1585.13
262.43	1464.30
262.65	1433.58
262.86	1507.30
263.08	1601.51
263.30	1585.13
263.51	1505.26
263.73	1558.50
263.95	1624.04
264.16	1519.59
264.38	1513.45
264.60	1531.88
264.81	1490.92
265.03	1609.70
265.25	1556.46
265.46	1628.14
265.68	1570.79
265.89	1554.41
266.11	1425.39
266.33	1558.50
266.54	1576.94
266.76	1558.50
266.98	1628.14
267.19	1677.29
267.41	1585.13
267.62	1578.98
267.84	1511.40
268.06	1542.12
268.27	1527.78
268.49	1613.80
268.70	1638.38
268.92	1550.31
269.14	1521.64
269.35	1509.35
269.57	1533.93
269.79	1583.08
270.00	1503.21
270.22	1654.76
270.43	1548.26
270.65	1439.72
270.87	1564.65
271.08	1560.55
271.30	1488.87
271.51	1562.60
271.73	1595.37
271.95	1601.51
272.16	1490.92
272.38	1513.45
272.59	1501.16
272.81	1558.50
273.02	1568.74
273.24	1568.74
273.46	1574.89
273.67	1525.74
273.89	1464.30
274.10	1492.97
274.32	1576.94
274.54	1525.74
274.75	1538.02
274.97	1535.98
275.18	1572.84
275.40	1538.02
275.61	1560.55
275.83	1601.51
276.05	1454.06
276.26	1474.54
276.48	1613.80
276.69	1513.45
276.91	1531.88
277.12	1589.22
277.34	1441.77
277.55	1585.13
277.77	1585.13
277.99	1538.02
278.20	1505.26
278.42	1501.16
278.63	1437.67
278.85	1458.15
279.06	1460.20
279.28	1574.89
279.49	1566.70
279.71	1611.75
279.93	1488.87
280.14	1552.36
280.36	1527.78
280.57	1591.27
280.79	1583.08
281.00	1509.35
281.22	1433.58
281.43	1578.98
281.65	1497.07
281.86	1546.22
282.08	1550.31
282.29	1626.09
282.51	1544.17
282.73	1503.21
282.94	1542.12
283.16	1595.37
283.37	1660.90
283.59	1562.60
283.80	1564.65
284.02	1566.70
284.23	1566.70
284.45	1560.55
284.66	1484.78
284.88	1568.74
285.09	1581.03
285.31	1517.54
285.52	1507.30
285.74	1511.40
285.95	1621.99
286.17	1523.69
286.38	1507.30
286.60	1544.17
286.81	1562.60
287.03	1519.59
287.24	1525.74
287.46	1550.31
287.67	1552.36
287.89	1550.31
288.10	1568.74
288.32	1566.70
288.53	1615.85
288.75	1531.88
288.96	1564.65
289.18	1564.65
289.39	1495.02
289.61	1507.30
289.82	1595.37
290.04	1578.98
290.25	1464.30
290.47	1472.49
290.68	1464.30
290.90	1570.79
291.11	1476.59
291.33	1587.18
291.54	1431.53
291.76	1486.83
291.97	1454.06
292.18	1603.56
292.40	1429.48
292.61	1527.78
292.83	1591.27
293.04	1546.22
293.26	1511.40
293.47	1550.31
293.69	1445.87
293.90	1540.07
294.12	1617.90
294.33	1460.20
294.55	1464.30
294.76	1650.66
294.97	1660.90
295.19	1677.29
295.40	1452.01
295.62	1544.17
295.83	1601.51
296.05	1546.22
296.26	1609.70
296.48	1454.06
296.69	1630.18
296.90	1490.92
297.12	1550.31
297.33	1615.85
297.55	1519.59
297.76	1585.13
297.98	1564.65
298.19	1486.83
298.41	1511.40
298.62	1468.39
298.83	1552.36
299.05	1576.94
299.26	1482.73
299.48	1476.59
299.69	1624.04
299.90	1554.41
300.12	1472.49
300.33	1521.64
300.55	1617.90
300.76	1511.40
300.98	1578.98
301.19	1585.13
301.40	1523.69
301.62	1515.50
301.83	1628.14
302.05	1550.31
302.26	1474.54
302.47	1613.80
302.69	1533.93
302.90	1587.18
303.12	1447.91
303.33	1507.30
303.54	1658.85
303.76	1558.50
303.97	1558.50
304.19	1619.94
304.40	1542.12
304.61	1507.30
304.83	1597.42
305.04	1556.46
305.26	1574.89
305.47	1519.59
305.68	1546.22
305.90	1458.15
306.11	1560.55
306.33	1540.07
306.54	1511.40
306.75	1505.26
306.97	1478.63
307.18	1495.02
307.39	1480.68
307.61	1599.46
307.82	1460.20
308.04	1523.69
308.25	1515.50
308.46	1556.46
308.68	1515.50
308.89	1548.26
309.10	1624.04
309.32	1476.59
309.53	1540.07
309.74	1581.03
309.96	1562.60
310.17	1570.79
310.39	1472.49
310.60	1525.74
310.81	1562.60
311.03	1490.92
311.24	1535.98
311.45	1515.50
311.67	1683.43
311.88	1519.59
312.09	1499.11
312.31	1538.02
312.52	1449.96
312.73	1546.22
312.95	1437.67
313.16	1525.74
313.37	1578.98
313.59	1513.45
313.80	1548.26
314.01	1656.81
314.23	1546.22
314.44	1531.88
314.65	1419.24
314.87	1531.88
315.08	1492.97
315.29	1429.48
315.51	1456.11
315.72	1476.59
315.93	1607.66
316.15	1583.08
316.36	1445.87
316.57	1535.98
316.79	1533.93
317.00	1476.59
317.21	1564.65
317.43	1562.60
317.64	1605.61
317.85	1519.59
318.07	1587.18
318.28	1617.90
318.49	1730.53
318.70	1822.69
318.92	1712.10
319.13	1693.67
319.34	1726.44
319.56	1650.66
319.77	1673.19
319.98	1646.57
320.20	1564.65
320.41	1619.94
320.62	1564.65
320.83	1515.50
321.05	1636.33
321.26	1552.36
321.47	1599.46
321.69	1626.09
321.90	1456.11
322.11	1462.25
322.32	1574.89
322.54	1503.21
322.75	1513.45
322.96	1570.79
323.18	1400.81
323.39	1511.40
323.60	1501.16
323.81	1626.09
324.03	1505.26
324.24	1544.17
324.45	1521.64
324.66	1533.93
324.88	1550.31
325.09	1603.56
325.30	1585.13
325.52	1525.74
325.73	1556.46
325.94	1454.06
326.15	1513.45
326.37	1542.12
326.58	1587.18
326.79	1515.50
327.00	1517.54
327.22	1525.74
327.43	1570.79
327.64	1544.17
327.85	1517.54
328.07	1517.54
328.28	1572.84
328.49	1523.69
328.70	1529.83
328.92	1544.17
329.13	1513.45
329.34	1533.93
329.55	1521.64
329.76	1609.70
329.98	1558.50
330.19	1593.32
330.40	1554.41
330.61	1511.40
330.83	1621.99
331.04	1476.59
331.25	1535.98
331.46	1554.41
331.68	1490.92
331.89	1617.90
332.10	1495.02
332.31	1443.82
332.52	1517.54
332.74	1601.51
332.95	1544.17
333.16	1531.88
333.37	1546.22
333.58	1574.89
333.80	1529.83
334.01	1478.63
334.22	1478.63
334.43	1464.30
334.64	1554.41
334.86	1435.63
335.07	1454.06
335.28	1587.18
335.49	1548.26
335.70	1476.59
335.92	1558.50
336.13	1683.43
336.34	1548.26
336.55	1527.78
336.76	1533.93
336.98	1462.25
337.19	1556.46
337.40	1578.98
337.61	1595.37
337.82	1593.32
338.04	1591.27
338.25	1470.44
338.46	1452.01
338.67	1474.54
338.88	1427.43
339.09	1538.02
339.31	1542.12
339.52	1513.45
339.73	1542.12
339.94	1542.12
340.15	1554.41
340.36	1527.78
340.58	1531.88
340.79	1492.97
341.00	1548.26
341.21	1525.74
341.42	1585.13
341.63	1544.17
341.85	1656.81
342.06	1636.33
342.27	1542.12
342.48	1597.42
342.69	1492.97
342.90	1576.94
343.12	1515.50
343.33	1503.21
343.54	1574.89
343.75	1544.17
343.96	1507.30
344.17	1470.44
344.38	1517.54
344.60	1523.69
344.81	1558.50
345.02	1509.35
345.23	1630.18
345.44	1714.15
345.65	1656.81
345.86	1583.08
346.07	1533.93
346.29	1445.87
346.50	1529.83
346.71	1587.18
346.92	1626.09
347.13	1732.58
347.34	1568.74
347.55	1523.69
347.76	1552.36
347.98	1470.44
348.19	1507.30
348.40	1601.51
348.61	1540.07
348.82	1601.51
349.03	1550.31
349.24	1507.30
349.45	1652.71
349.66	1515.50
349.88	1562.60
350.09	1566.70
350.30	1599.46
350.51	1593.32
350.72	1556.46
350.93	1538.02
351.14	1501.16
351.35	1556.46
351.56	1560.55
351.77	1550.31
351.99	1564.65
352.20	1576.94
352.41	1587.18
352.62	1476.59
352.83	1482.73
353.04	1478.63
353.25	1511.40
353.46	1603.56
353.67	1544.17
353.88	1486.83
354.09	1519.59
354.30	1503.21
354.52	1527.78
354.73	1617.90
354.94	1470.44
355.15	1535.98
355.36	1599.46
355.57	1558.50
355.78	1572.84
355.99	1529.83
356.20	1488.87
356.41	1556.46
356.62	1505.26
356.83	1585.13
357.04	1615.85
357.25	1404.91
357.46	1529.83
357.68	1419.24
357.89	1488.87
358.10	1540.07
358.31	1572.84
358.52	1511.40
358.73	1501.16
358.94	1456.11
359.15	1552.36
359.36	1546.22
359.57	1513.45
359.78	1476.59
359.99	1583.08
360.20	1523.69
360.41	1482.73
360.62	1652.71
360.83	1517.54
361.04	1566.70
361.25	1619.94
361.46	1646.57
361.67	1570.79
361.88	1587.18
362.09	1599.46
362.30	1576.94
362.51	1552.36
362.72	1589.22
362.93	1576.94
363.14	1546.22
363.35	1566.70
363.56	1482.73
363.78	1525.74
363.99	1617.90
364.20	1535.98
364.41	1554.41
364.62	1660.90
364.83	1601.51
365.04	1564.65
365.25	1525.74
365.46	1595.37
365.67	1472.49
365.88	1466.35
366.09	1445.87
366.30	1513.45
366.51	1509.35
366.72	1452.01
366.93	1581.03
367.14	1581.03
367.35	1552.36
367.56	1523.69
367.77	1587.18
367.98	1531.88
368.18	1578.98
368.39	1621.99
368.60	1486.83
368.81	1548.26
369.02	1507.30
369.23	1527.78
369.44	1480.68
369.65	1505.26
369.86	1593.32
370.07	1626.09
370.28	1482.73
370.49	1613.80
370.70	1585.13
370.91	1431.53
371.12	1505.26
371.33	1589.22
371.54	1439.72
371.75	1671.14
371.96	1423.34
372.17	1574.89
372.38	1587.18
372.59	1550.31
372.80	1570.79
373.01	1601.51
373.22	1509.35
373.43	1550.31
373.64	1421.29
373.85	1656.81
374.06	1607.66
374.26	1505.26
374.47	1513.45
374.68	1656.81
374.89	1497.07
375.10	1509.35
375.31	1585.13
375.52	1468.39
375.73	1585.13
375.94	1492.97
376.15	1615.85
376.36	1566.70
376.57	1456.11
376.78	1542.12
376.99	1535.98
377.20	1593.32
377.40	1544.17
377.61	1570.79
377.82	1486.83
378.03	1656.81
378.24	1591.27
378.45	1568.74
378.66	1570.79
378.87	1501.16
379.08	1521.64
379.29	1488.87
379.50	1550.31
379.71	1525.74
379.91	1619.94
380.12	1476.59
380.33	1566.70
380.54	1523.69
380.75	1527.78
380.96	1581.03
381.17	1564.65
381.38	1605.61
381.59	1609.70
381.80	1574.89
382.00	1642.47
382.21	1591.27
382.42	1667.05
382.63	1708.01
382.84	1560.55
383.05	1613.80
383.26	1599.46
383.47	1550.31
383.68	1609.70
383.88	1540.07
384.09	1554.41
384.30	1619.94
384.51	1558.50
384.72	1478.63
384.93	1449.96
385.14	1546.22
385.35	1599.46
385.55	1513.45
385.76	1617.90
385.97	1535.98
386.18	1488.87
386.39	1511.40
386.60	1525.74
386.81	1542.12
387.02	1540.07
387.22	1615.85
387.43	1560.55
387.64	1665.00
387.85	1877.99
388.06	3137.49
388.27	7288.72
388.48	10588.00
388.68	12500.80
388.89	13647.66
389.10	12699.45
389.31	10131.30
389.52	8765.31
389.73	7731.08
389.93	7190.42
390.14	6770.58
390.35	6141.86
390.56	5437.36
390.77	4589.50
390.98	3684.30
391.18	2881.49
391.39	2133.98
391.60	1800.16
391.81	1703.91
392.02	1652.71
392.23	1689.57
392.43	1574.89
392.64	1605.61
392.85	1486.83
393.06	1597.42
393.27	1611.75
393.47	1517.54
393.68	1583.08
393.89	1513.45
394.10	1607.66
394.31	1517.54
394.52	1458.15
394.72	1554.41
394.93	1617.90
395.14	1486.83
395.35	1523.69
395.56	1529.83
395.76	1591.27
395.97	1621.99
396.18	1779.68
396.39	1822.69
396.60	1959.91
396.80	1826.79
397.01	1697.77
397.22	1621.99
397.43	1671.14
397.64	1529.83
397.84	1617.90
398.05	1691.62
398.26	1556.46
398.47	1660.90
398.67	1632.23
398.88	1556.46
399.09	1576.94
399.30	1535.98
399.51	1570.79
399.71	1527.78
399.92	1523.69
400.13	1535.98
400.34	1542.12
400.54	1544.17
400.75	1621.99
400.96	1529.83
401.17	1748.97
401.37	1564.65
401.58	1558.50
401.79	1609.70
402.00	1775.59
402.21	1886.18
402.41	1908.71
402.62	2017.25
402.83	1976.29
403.04	1906.66
403.24	1927.14
403.45	1683.43
403.66	1685.48
403.87	1712.10
404.07	1679.33
404.28	1736.68
404.49	1740.77
404.70	1638.38
404.90	1578.98
405.11	1650.66
405.32	1624.04
405.52	1497.07
405.73	1550.31
405.94	1441.77
406.15	1538.02
406.35	1527.78
406.56	1525.74
406.77	1558.50
406.98	1574.89
407.18	1509.35
407.39	1603.56
407.60	1538.02
407.80	1576.94
408.01	1519.59
408.22	1587.18
408.43	1509.35
408.63	1560.55
408.84	1599.46
409.05	1560.55
409.25	1509.35
409.46	1509.35
409.67	1480.68
409.88	1517.54
410.08	1628.14
410.29	1535.98
410.50	1519.59
410.70	1619.94
410.91	1490.92
411.12	1591.27
411.32	1548.26
411.53	1560.55
411.74	1634.28
411.95	1673.19
412.15	1654.76
412.36	1644.52
412.57	1570.79
412.77	1556.46
412.98	1525.74
413.19	1548.26
413.39	1552.36
413.60	1619.94
413.81	1576.94
414.01	1560.55
414.22	1595.37
414.43	1665.00
414.63	1495.02
414.84	1603.56
415.05	1533.93
415.25	1497.07
415.46	1556.46
415.67	1495.02
415.87	1464.30
416.08	1578.98
416.29	1538.02
416.49	1591.27
416.70	1492.97
416.91	1476.59
417.11	1533.93
417.32	1576.94
417.53	1523.69
417.73	1488.87
417.94	1495.02
418.15	1574.89
418.35	1484.78
418.56	1503.21
418.77	1640.42
418.97	1570.79
419.18	1542.12
419.38	1425.39
419.59	1615.85
419.80	1587.18
420.00	1497.07
420.21	1550.31
420.42	1613.80
420.62	1585.13
420.83	1486.83
421.04	1499.11
421.24	1509.35
421.45	1550.31
421.65	1511.40
421.86	1581.03
422.07	1540.07
422.27	1478.63
422.48	1535.98
422.69	1507.30
422.89	1562.60
423.10	1615.85
423.30	1513.45
423.51	1462.25
423.72	1544.17
423.92	1560.55
424.13	1509.35
424.33	1517.54
424.54	1527.78
424.75	1566.70
424.95	1591.27
425.16	1515.50
425.36	1538.02
425.57	1621.99
425.78	1538.02
425.98	1634.28
426.19	1521.64
426.39	1474.54
426.60	1576.94
426.81	1673.19
427.01	1617.90
427.22	1523.69
427.42	1439.72
427.63	1497.07
427.83	1626.09
428.04	1550.31
428.25	1566.70
428.45	1605.61
428.66	1621.99
428.86	1552.36
429.07	1497.07
429.28	1552.36
429.48	1593.32
429.69	1527.78
429.89	1585.13
430.10	1482.73
430.30	1562.60
430.51	1609.70
430.71	1495.02
430.92	1492.97
431.13	1490.92
431.33	1568.74
431.54	1572.84
431.74	1544.17
431.95	1548.26
432.15	1476.59
432.36	1480.68
432.56	1601.51
432.77	1636.33
432.98	1568.74
433.18	1480.68
433.39	1566.70
433.59	1488.87
433.80	1605.61
434.00	1613.80
434.21	1533.93
434.41	1535.98
434.62	1624.04
434.82	1462.25
435.03	1595.37
435.23	1581.03
435.44	1402.86
435.64	1513.45
435.85	1597.42
436.06	1535.98
436.26	1599.46
436.47	1578.98
436.67	1566.70
436.88	1578.98
437.08	1593.32
437.29	1595.37
437.49	1560.55
437.70	1535.98
437.90	1611.75
438.11	1660.90
438.31	1593.32
438.52	1734.63
438.72	1728.49
438.93	1697.77
439.13	1669.09
439.34	1611.75
439.54	1597.42
439.75	1632.23
439.95	1599.46
440.16	1509.35
440.36	1617.90
440.57	1593.32
440.77	1605.61
440.98	1544.17
441.18	1497.07
441.39	1501.16
441.59	1406.95
441.80	1621.99
442.00	1468.39
442.21	1619.94
442.41	1484.78
442.62	1576.94
442.82	1566.70
443.02	1517.54
443.23	1603.56
443.43	1652.71
443.64	1652.71
443.84	1513.45
444.05	1554.41
444.25	1566.70
444.46	1492.97
444.66	1574.89
444.87	1660.90
445.07	1560.55
445.28	1552.36
445.48	1603.56
445.69	1554.41
445.89	1714.15
446.09	1621.99
446.30	1968.10
446.50	3145.68
446.71	4503.48
446.91	5265.33
447.12	5801.90
447.32	5552.04
447.53	4548.54
447.73	4046.79
447.93	3643.34
448.14	3418.06
448.34	3178.45
448.55	2904.02
448.75	2949.08
448.96	2820.05
449.16	2545.63
449.36	2258.91
449.57	1927.14
449.77	1875.94
449.98	1578.98
450.18	1685.48
450.39	1642.47
450.59	1593.32
450.79	1456.11
451.00	1503.21
451.20	1599.46
451.41	1472.49
451.61	1603.56
451.81	1460.20
452.02	1511.40
452.22	1581.03
452.43	1501.16
452.63	1492.97
