SpectraSuite Data File
++++++++++++++++++++++++++++++++++++
Date: Tue May 03 12:55:18 CEST 2016
User: root
Dark Spectrum Present: No
Reference Spectrum Present: No
Number of Sampled Component Spectra: 1
Spectrometers: USB4C02835
Integration Time (usec): 100000 (USB4C02835)
Spectra Averaged: 1 (USB4C02835)
Boxcar Smoothing: 0 (USB4C02835)
Correct for Electrical Dark: No (USB4C02835)
Strobe/Lamp Enabled: No (USB4C02835)
Correct for Detector Non-linearity: No (USB4C02835)
Correct for Stray Light: No (USB4C02835)
Number of Pixels in Processed Spectrum: 3648
>>>>>Begin Processed Spectral Data<<<<<
177.47	1372.14
177.69	1372.14
177.91	1372.14
178.13	1316.84
178.36	1331.18
178.58	1462.25
178.80	1570.79
179.02	1574.89
179.24	1517.54
179.46	1605.61
179.68	1621.99
179.90	1474.54
180.13	1535.98
180.35	1468.39
180.57	1552.36
180.79	1615.85
181.01	1527.78
181.23	1576.94
181.45	1589.22
181.67	1535.98
181.90	1576.94
182.12	1458.15
182.34	1398.76
182.56	1538.02
182.78	1556.46
183.00	1558.50
183.22	1558.50
183.44	1460.20
183.66	1628.14
183.89	1613.80
184.11	1544.17
184.33	1595.37
184.55	1562.60
184.77	1564.65
184.99	1531.88
185.21	1529.83
185.43	1673.19
185.65	1509.35
185.87	1626.09
186.10	1611.75
186.32	1695.72
186.54	1560.55
186.76	1488.87
186.98	1665.00
187.20	1462.25
187.42	1466.35
187.64	1486.83
187.86	1585.13
188.08	1570.79
188.30	1517.54
188.52	1624.04
188.75	1558.50
188.97	1566.70
189.19	1445.87
189.41	1492.97
189.63	1576.94
189.85	1505.26
190.07	1499.11
190.29	1445.87
190.51	1566.70
190.73	1490.92
190.95	1548.26
191.17	1517.54
191.39	1476.59
191.61	1533.93
191.84	1501.16
192.06	1597.42
192.28	1507.30
192.50	1675.24
192.72	1486.83
192.94	1519.59
193.16	1517.54
193.38	1527.78
193.60	1552.36
193.82	1527.78
194.04	1550.31
194.26	1542.12
194.48	1558.50
194.70	1447.91
194.92	1554.41
195.14	1593.32
195.36	1484.78
195.58	1568.74
195.80	1542.12
196.02	1449.96
196.24	1490.92
196.46	1578.98
196.69	1474.54
196.91	1613.80
197.13	1492.97
197.35	1587.18
197.57	1570.79
197.79	1599.46
198.01	1570.79
198.23	1591.27
198.45	1556.46
198.67	1480.68
198.89	1503.21
199.11	1599.46
199.33	1490.92
199.55	1456.11
199.77	1505.26
199.99	1552.36
200.21	1458.15
200.43	1470.44
200.65	1511.40
200.87	1415.15
201.09	1560.55
201.31	1525.74
201.53	1509.35
201.75	1554.41
201.97	1544.17
202.19	1595.37
202.41	1501.16
202.63	1683.43
202.85	1515.50
203.07	1503.21
203.29	1523.69
203.51	1400.81
203.73	1497.07
203.95	1665.00
204.17	1521.64
204.39	1511.40
204.61	1527.78
204.83	1548.26
205.05	1607.66
205.27	1546.22
205.49	1566.70
205.71	1572.84
205.93	1497.07
206.15	1480.68
206.37	1535.98
206.59	1509.35
206.81	1476.59
207.03	1492.97
207.25	1458.15
207.47	1632.23
207.69	1533.93
207.91	1638.38
208.13	1605.61
208.34	1517.54
208.56	1499.11
208.78	1624.04
209.00	1509.35
209.22	1462.25
209.44	1585.13
209.66	1501.16
209.88	1589.22
210.10	1525.74
210.32	1515.50
210.54	1601.51
210.76	1533.93
210.98	1535.98
211.20	1402.86
211.42	1550.31
211.64	1576.94
211.86	1585.13
212.08	1568.74
212.30	1570.79
212.52	1449.96
212.74	1480.68
212.96	1505.26
213.17	1560.55
213.39	1583.08
213.61	1593.32
213.83	1605.61
214.05	1460.20
214.27	1648.61
214.49	1523.69
214.71	1486.83
214.93	1552.36
215.15	1529.83
215.37	1550.31
215.59	1482.73
215.81	1513.45
216.03	1548.26
216.24	1529.83
216.46	1529.83
216.68	1544.17
216.90	1540.07
217.12	1652.71
217.34	1601.51
217.56	1482.73
217.78	1564.65
218.00	1505.26
218.22	1540.07
218.44	1523.69
218.66	1544.17
218.87	1558.50
219.09	1564.65
219.31	1538.02
219.53	1478.63
219.75	1558.50
219.97	1595.37
220.19	1470.44
220.41	1501.16
220.63	1548.26
220.85	1515.50
221.06	1544.17
221.28	1503.21
221.50	1562.60
221.72	1476.59
221.94	1542.12
222.16	1456.11
222.38	1628.14
222.60	1628.14
222.82	1523.69
223.03	1576.94
223.25	1507.30
223.47	1630.18
223.69	1617.90
223.91	1599.46
224.13	1525.74
224.35	1548.26
224.57	1609.70
224.78	1546.22
225.00	1490.92
225.22	1605.61
225.44	1638.38
225.66	1560.55
225.88	1560.55
226.10	1593.32
226.32	1587.18
226.53	1589.22
226.75	1488.87
226.97	1529.83
227.19	1589.22
227.41	1480.68
227.63	1462.25
227.85	1484.78
228.06	1540.07
228.28	1636.33
228.50	1523.69
228.72	1560.55
228.94	1556.46
229.16	1492.97
229.37	1531.88
229.59	1509.35
229.81	1615.85
230.03	1492.97
230.25	1548.26
230.47	1513.45
230.69	1456.11
230.90	1574.89
231.12	1538.02
231.34	1503.21
231.56	1624.04
231.78	1497.07
232.00	1583.08
232.21	1490.92
232.43	1531.88
232.65	1425.39
232.87	1519.59
233.09	1509.35
233.30	1548.26
233.52	1591.27
233.74	1556.46
233.96	1540.07
234.18	1472.49
234.40	1560.55
234.61	1669.09
234.83	1507.30
235.05	1486.83
235.27	1607.66
235.49	1597.42
235.70	1544.17
235.92	1605.61
236.14	1454.06
236.36	1644.52
236.58	1474.54
236.79	1490.92
237.01	1468.39
237.23	1527.78
237.45	1642.47
237.67	1468.39
237.88	1554.41
238.10	1660.90
238.32	1509.35
238.54	1535.98
238.76	1527.78
238.97	1478.63
239.19	1472.49
239.41	1566.70
239.63	1605.61
239.85	1523.69
240.06	1556.46
240.28	1454.06
240.50	1570.79
240.72	1558.50
240.93	1533.93
241.15	1615.85
241.37	1564.65
241.59	1566.70
241.81	1529.83
242.02	1503.21
242.24	1572.84
242.46	1550.31
242.68	1464.30
242.89	1507.30
243.11	1585.13
243.33	1570.79
243.55	1595.37
243.76	1490.92
243.98	1462.25
244.20	1456.11
244.42	1509.35
244.64	1574.89
244.85	1468.39
245.07	1511.40
245.29	1605.61
245.51	1517.54
245.72	1513.45
245.94	1581.03
246.16	1599.46
246.38	1630.18
246.59	1511.40
246.81	1464.30
247.03	1597.42
247.24	1472.49
247.46	1486.83
247.68	1556.46
247.90	1558.50
248.11	1507.30
248.33	1576.94
248.55	1486.83
248.77	1564.65
248.98	1572.84
249.20	1585.13
249.42	1533.93
249.64	1556.46
249.85	1515.50
250.07	1501.16
250.29	1519.59
250.50	1519.59
250.72	1464.30
250.94	1538.02
251.16	1615.85
251.37	1556.46
251.59	1576.94
251.81	1454.06
252.02	1611.75
252.24	1499.11
252.46	1560.55
252.68	1439.72
252.89	1538.02
253.11	1433.58
253.33	1591.27
253.54	1574.89
253.76	1570.79
253.98	1558.50
254.20	1560.55
254.41	1427.43
254.63	1603.56
254.85	1546.22
255.06	1523.69
255.28	1529.83
255.50	1501.16
255.71	1468.39
255.93	1523.69
256.15	1474.54
256.36	1595.37
256.58	1511.40
256.80	1646.57
257.02	1595.37
257.23	1511.40
257.45	1546.22
257.67	1474.54
257.88	1617.90
258.10	1587.18
258.32	1535.98
258.53	1484.78
258.75	1507.30
258.97	1538.02
259.18	1581.03
259.40	1503.21
259.62	1593.32
259.83	1558.50
260.05	1529.83
260.27	1667.05
260.48	1605.61
260.70	1478.63
260.92	1476.59
261.13	1509.35
261.35	1513.45
261.57	1546.22
261.78	1521.64
262.00	1503.21
262.22	1548.26
262.43	1452.01
262.65	1511.40
262.86	1576.94
263.08	1652.71
263.30	1589.22
263.51	1503.21
263.73	1521.64
263.95	1603.56
264.16	1533.93
264.38	1531.88
264.60	1511.40
264.81	1472.49
265.03	1648.61
265.25	1531.88
265.46	1501.16
265.68	1585.13
265.89	1515.50
266.11	1558.50
266.33	1611.75
266.54	1650.66
266.76	1562.60
266.98	1624.04
267.19	1675.24
267.41	1538.02
267.62	1562.60
267.84	1546.22
268.06	1544.17
268.27	1517.54
268.49	1554.41
268.70	1505.26
268.92	1488.87
269.14	1456.11
269.35	1437.67
269.57	1521.64
269.79	1581.03
270.00	1497.07
270.22	1578.98
270.43	1552.36
270.65	1474.54
270.87	1542.12
271.08	1538.02
271.30	1533.93
271.51	1564.65
271.73	1570.79
271.95	1542.12
272.16	1581.03
272.38	1550.31
272.59	1495.02
272.81	1566.70
273.02	1521.64
273.24	1574.89
273.46	1521.64
273.67	1505.26
273.89	1509.35
274.10	1564.65
274.32	1560.55
274.54	1478.63
274.75	1509.35
274.97	1472.49
275.18	1562.60
275.40	1585.13
275.61	1558.50
275.83	1585.13
276.05	1581.03
276.26	1519.59
276.48	1638.38
276.69	1568.74
276.91	1540.07
277.12	1597.42
277.34	1617.90
277.55	1542.12
277.77	1560.55
277.99	1427.43
278.20	1476.59
278.42	1492.97
278.63	1486.83
278.85	1470.44
279.06	1468.39
279.28	1544.17
279.49	1609.70
279.71	1511.40
279.93	1581.03
280.14	1486.83
280.36	1529.83
280.57	1486.83
280.79	1587.18
281.00	1554.41
281.22	1562.60
281.43	1583.08
281.65	1476.59
281.86	1411.05
282.08	1533.93
282.29	1595.37
282.51	1492.97
282.73	1527.78
282.94	1497.07
283.16	1589.22
283.37	1644.52
283.59	1476.59
283.80	1583.08
284.02	1517.54
284.23	1546.22
284.45	1517.54
284.66	1501.16
284.88	1394.67
285.09	1552.36
285.31	1552.36
285.52	1513.45
285.74	1386.47
285.95	1609.70
286.17	1484.78
286.38	1540.07
286.60	1402.86
286.81	1538.02
287.03	1492.97
287.24	1490.92
287.46	1519.59
287.67	1609.70
287.89	1621.99
288.10	1578.98
288.32	1570.79
288.53	1630.18
288.75	1507.30
288.96	1601.51
289.18	1521.64
289.39	1538.02
289.61	1480.68
289.82	1648.61
290.04	1529.83
290.25	1478.63
290.47	1525.74
290.68	1533.93
290.90	1591.27
291.11	1443.82
291.33	1548.26
291.54	1417.19
291.76	1429.48
291.97	1525.74
292.18	1564.65
292.40	1513.45
292.61	1478.63
292.83	1605.61
293.04	1560.55
293.26	1568.74
293.47	1533.93
293.69	1535.98
293.90	1486.83
294.12	1564.65
294.33	1533.93
294.55	1495.02
294.76	1581.03
294.97	1492.97
295.19	1646.57
295.40	1550.31
295.62	1613.80
295.83	1511.40
296.05	1495.02
296.26	1523.69
296.48	1542.12
296.69	1521.64
296.90	1533.93
297.12	1556.46
297.33	1587.18
297.55	1525.74
297.76	1556.46
297.98	1552.36
298.19	1531.88
298.41	1521.64
298.62	1482.73
298.83	1566.70
299.05	1538.02
299.26	1513.45
299.48	1570.79
299.69	1560.55
299.90	1544.17
300.12	1447.91
300.33	1593.32
300.55	1535.98
300.76	1640.42
300.98	1513.45
301.19	1568.74
301.40	1464.30
301.62	1538.02
301.83	1603.56
302.05	1511.40
302.26	1480.68
302.47	1533.93
302.69	1454.06
302.90	1542.12
303.12	1423.34
303.33	1599.46
303.54	1527.78
303.76	1540.07
303.97	1638.38
304.19	1624.04
304.40	1486.83
304.61	1605.61
304.83	1642.47
305.04	1507.30
305.26	1497.07
305.47	1558.50
305.68	1538.02
305.90	1499.11
306.11	1583.08
306.33	1578.98
306.54	1497.07
306.75	1568.74
306.97	1478.63
307.18	1544.17
307.39	1527.78
307.61	1527.78
307.82	1503.21
308.04	1542.12
308.25	1523.69
308.46	1566.70
308.68	1511.40
308.89	1490.92
309.10	1552.36
309.32	1566.70
309.53	1558.50
309.74	1517.54
309.96	1525.74
310.17	1583.08
310.39	1521.64
310.60	1613.80
310.81	1529.83
311.03	1505.26
311.24	1566.70
311.45	1501.16
311.67	1636.33
311.88	1507.30
312.09	1486.83
312.31	1562.60
312.52	1558.50
312.73	1460.20
312.95	1476.59
313.16	1515.50
313.37	1560.55
313.59	1460.20
313.80	1595.37
314.01	1533.93
314.23	1570.79
314.44	1515.50
314.65	1449.96
314.87	1531.88
315.08	1533.93
315.29	1533.93
315.51	1581.03
315.72	1476.59
315.93	1695.72
316.15	1648.61
316.36	1476.59
316.57	1589.22
316.79	1599.46
317.00	1556.46
317.21	1607.66
317.43	1492.97
317.64	1470.44
317.85	1513.45
318.07	1566.70
318.28	1691.62
318.49	1724.39
318.70	1783.78
318.92	1726.44
319.13	1628.14
319.34	1728.49
319.56	1681.38
319.77	1665.00
319.98	1628.14
320.20	1648.61
320.41	1624.04
320.62	1611.75
320.83	1544.17
321.05	1681.38
321.26	1591.27
321.47	1509.35
321.69	1566.70
321.90	1507.30
322.11	1525.74
322.32	1591.27
322.54	1601.51
322.75	1519.59
322.96	1689.57
323.18	1435.63
323.39	1433.58
323.60	1458.15
323.81	1597.42
324.03	1490.92
324.24	1435.63
324.45	1558.50
324.66	1523.69
324.88	1523.69
325.09	1640.42
325.30	1503.21
325.52	1521.64
325.73	1576.94
325.94	1495.02
326.15	1454.06
326.37	1501.16
326.58	1519.59
326.79	1533.93
327.00	1447.91
327.22	1634.28
327.43	1497.07
327.64	1490.92
327.85	1611.75
328.07	1554.41
328.28	1675.24
328.49	1511.40
328.70	1556.46
328.92	1495.02
329.13	1517.54
329.34	1499.11
329.55	1626.09
329.76	1591.27
329.98	1527.78
330.19	1566.70
330.40	1572.84
330.61	1519.59
330.83	1507.30
331.04	1509.35
331.25	1480.68
331.46	1476.59
331.68	1538.02
331.89	1607.66
332.10	1480.68
332.31	1427.43
332.52	1605.61
332.74	1576.94
332.95	1554.41
333.16	1462.25
333.37	1578.98
333.58	1550.31
333.80	1495.02
334.01	1476.59
334.22	1593.32
334.43	1435.63
334.64	1585.13
334.86	1472.49
335.07	1501.16
335.28	1542.12
335.49	1476.59
335.70	1523.69
335.92	1624.04
336.13	1689.57
336.34	1544.17
336.55	1538.02
336.76	1544.17
336.98	1431.53
337.19	1603.56
337.40	1605.61
337.61	1617.90
337.82	1484.78
338.04	1574.89
338.25	1470.44
338.46	1540.07
338.67	1505.26
338.88	1505.26
339.09	1527.78
339.31	1525.74
339.52	1419.24
339.73	1542.12
339.94	1587.18
340.15	1546.22
340.36	1490.92
340.58	1531.88
340.79	1445.87
341.00	1626.09
341.21	1443.82
341.42	1613.80
341.63	1560.55
341.85	1552.36
342.06	1640.42
342.27	1484.78
342.48	1560.55
342.69	1535.98
342.90	1515.50
343.12	1630.18
343.33	1560.55
343.54	1597.42
343.75	1566.70
343.96	1542.12
344.17	1521.64
344.38	1527.78
344.60	1480.68
344.81	1531.88
345.02	1546.22
345.23	1556.46
345.44	1556.46
345.65	1574.89
345.86	1617.90
346.07	1505.26
346.29	1544.17
346.50	1535.98
346.71	1570.79
346.92	1624.04
347.13	1714.15
347.34	1540.07
347.55	1626.09
347.76	1497.07
347.98	1464.30
348.19	1443.82
348.40	1634.28
348.61	1550.31
348.82	1593.32
349.03	1523.69
349.24	1556.46
349.45	1585.13
349.66	1492.97
349.88	1517.54
350.09	1513.45
350.30	1624.04
350.51	1662.95
350.72	1519.59
350.93	1572.84
351.14	1540.07
351.35	1525.74
351.56	1578.98
351.77	1511.40
351.99	1607.66
352.20	1585.13
352.41	1574.89
352.62	1460.20
352.83	1505.26
353.04	1535.98
353.25	1570.79
353.46	1578.98
353.67	1556.46
353.88	1374.19
354.09	1548.26
354.30	1525.74
354.52	1542.12
354.73	1574.89
354.94	1482.73
355.15	1585.13
355.36	1656.81
355.57	1560.55
355.78	1638.38
355.99	1554.41
356.20	1476.59
356.41	1525.74
356.62	1568.74
356.83	1517.54
357.04	1603.56
357.25	1445.87
357.46	1550.31
357.68	1527.78
357.89	1478.63
358.10	1538.02
358.31	1533.93
358.52	1542.12
358.73	1460.20
358.94	1458.15
359.15	1535.98
359.36	1587.18
359.57	1511.40
359.78	1550.31
359.99	1589.22
360.20	1570.79
360.41	1544.17
360.62	1550.31
360.83	1599.46
361.04	1523.69
361.25	1599.46
361.46	1585.13
361.67	1566.70
361.88	1595.37
362.09	1538.02
362.30	1515.50
362.51	1576.94
362.72	1542.12
362.93	1607.66
363.14	1591.27
363.35	1554.41
363.56	1482.73
363.78	1574.89
363.99	1611.75
364.20	1527.78
364.41	1599.46
364.62	1638.38
364.83	1607.66
365.04	1568.74
365.25	1513.45
365.46	1660.90
365.67	1503.21
365.88	1503.21
366.09	1464.30
366.30	1533.93
366.51	1564.65
366.72	1427.43
366.93	1564.65
367.14	1529.83
367.35	1585.13
367.56	1525.74
367.77	1552.36
367.98	1529.83
368.18	1583.08
368.39	1603.56
368.60	1505.26
368.81	1599.46
369.02	1552.36
369.23	1505.26
369.44	1433.58
369.65	1527.78
369.86	1636.33
370.07	1621.99
370.28	1597.42
370.49	1533.93
370.70	1558.50
370.91	1482.73
371.12	1439.72
371.33	1583.08
371.54	1486.83
371.75	1626.09
371.96	1501.16
372.17	1568.74
372.38	1515.50
372.59	1593.32
372.80	1452.01
373.01	1495.02
373.22	1499.11
373.43	1542.12
373.64	1462.25
373.85	1671.14
374.06	1523.69
374.26	1513.45
374.47	1583.08
374.68	1656.81
374.89	1570.79
375.10	1546.22
375.31	1484.78
375.52	1544.17
375.73	1597.42
375.94	1495.02
376.15	1517.54
376.36	1572.84
376.57	1499.11
376.78	1513.45
376.99	1591.27
377.20	1609.70
377.40	1486.83
377.61	1630.18
377.82	1533.93
378.03	1562.60
378.24	1634.28
378.45	1499.11
378.66	1601.51
378.87	1482.73
379.08	1413.10
379.29	1527.78
379.50	1576.94
379.71	1492.97
379.91	1574.89
380.12	1517.54
380.33	1621.99
380.54	1523.69
380.75	1495.02
380.96	1566.70
381.17	1544.17
381.38	1486.83
381.59	1583.08
381.80	1599.46
382.00	1712.10
382.21	1560.55
382.42	1656.81
382.63	1648.61
382.84	1642.47
383.05	1675.24
383.26	1578.98
383.47	1521.64
383.68	1607.66
383.88	1507.30
384.09	1495.02
384.30	1619.94
384.51	1591.27
384.72	1552.36
384.93	1474.54
385.14	1529.83
385.35	1636.33
385.55	1509.35
385.76	1540.07
385.97	1525.74
386.18	1472.49
386.39	1503.21
386.60	1497.07
386.81	1611.75
387.02	1478.63
387.22	1523.69
387.43	1665.00
387.64	1726.44
387.85	1931.23
388.06	3153.87
388.27	7243.67
388.48	10526.56
388.68	12492.61
388.89	13721.39
389.10	12721.98
389.31	10172.26
389.52	8843.13
389.73	7976.84
389.93	7243.67
390.14	6586.27
390.35	6203.30
390.56	5363.63
390.77	4646.84
390.98	3559.37
391.18	2779.09
391.39	2199.52
391.60	1779.68
391.81	1781.73
392.02	1566.70
392.23	1630.18
392.43	1619.94
392.64	1650.66
392.85	1550.31
393.06	1634.28
393.27	1538.02
393.47	1533.93
393.68	1581.03
393.89	1595.37
394.10	1615.85
394.31	1587.18
394.52	1509.35
394.72	1574.89
394.93	1615.85
395.14	1560.55
395.35	1558.50
395.56	1513.45
395.76	1628.14
395.97	1652.71
396.18	1730.53
396.39	1724.39
396.60	1812.45
396.80	1710.05
397.01	1730.53
397.22	1634.28
397.43	1708.01
397.64	1597.42
397.84	1632.23
398.05	1652.71
398.26	1519.59
398.47	1605.61
398.67	1693.67
398.88	1589.22
399.09	1597.42
399.30	1593.32
399.51	1566.70
399.71	1490.92
399.92	1486.83
400.13	1556.46
400.34	1517.54
400.54	1576.94
400.75	1632.23
400.96	1595.37
401.17	1601.51
401.37	1611.75
401.58	1542.12
401.79	1566.70
402.00	1765.35
402.21	1941.47
402.41	1994.72
402.62	1937.38
402.83	2035.68
403.04	1865.70
403.24	1931.23
403.45	1765.35
403.66	1712.10
403.87	1728.49
404.07	1804.26
404.28	1765.35
404.49	1759.21
404.70	1603.56
404.90	1650.66
405.11	1646.57
405.32	1601.51
405.52	1466.35
405.73	1583.08
405.94	1472.49
406.15	1503.21
406.35	1531.88
406.56	1538.02
406.77	1587.18
406.98	1560.55
407.18	1488.87
407.39	1585.13
407.60	1517.54
407.80	1599.46
408.01	1486.83
408.22	1570.79
408.43	1535.98
408.63	1665.00
408.84	1566.70
409.05	1574.89
409.25	1550.31
409.46	1503.21
409.67	1499.11
409.88	1558.50
410.08	1560.55
410.29	1566.70
410.50	1648.61
410.70	1542.12
410.91	1439.72
411.12	1591.27
411.32	1497.07
411.53	1531.88
411.74	1662.95
411.95	1554.41
412.15	1574.89
412.36	1527.78
412.57	1660.90
412.77	1642.47
412.98	1564.65
413.19	1581.03
413.39	1624.04
413.60	1558.50
413.81	1578.98
414.01	1624.04
414.22	1540.07
414.43	1533.93
414.63	1484.78
414.84	1554.41
415.05	1501.16
415.25	1486.83
415.46	1595.37
415.67	1472.49
415.87	1517.54
416.08	1540.07
416.29	1513.45
416.49	1574.89
416.70	1578.98
416.91	1523.69
417.11	1454.06
417.32	1523.69
417.53	1630.18
417.73	1542.12
417.94	1507.30
418.15	1562.60
418.35	1550.31
418.56	1562.60
418.77	1556.46
418.97	1495.02
419.18	1564.65
419.38	1550.31
419.59	1544.17
419.80	1552.36
420.00	1509.35
420.21	1632.23
420.42	1533.93
420.62	1546.22
420.83	1466.35
421.04	1509.35
421.24	1511.40
421.45	1511.40
421.65	1562.60
421.86	1515.50
422.07	1593.32
422.27	1630.18
422.48	1519.59
422.69	1511.40
422.89	1433.58
423.10	1515.50
423.30	1523.69
423.51	1550.31
423.72	1538.02
423.92	1562.60
424.13	1460.20
424.33	1593.32
424.54	1550.31
424.75	1589.22
424.95	1554.41
425.16	1527.78
425.36	1560.55
425.57	1583.08
425.78	1533.93
425.98	1650.66
426.19	1548.26
426.39	1484.78
426.60	1544.17
426.81	1595.37
427.01	1511.40
427.22	1535.98
427.42	1476.59
427.63	1454.06
427.83	1613.80
428.04	1611.75
428.25	1578.98
428.45	1540.07
428.66	1533.93
428.86	1538.02
429.07	1585.13
429.28	1550.31
429.48	1523.69
429.69	1556.46
429.89	1519.59
430.10	1488.87
430.30	1578.98
430.51	1599.46
430.71	1474.54
430.92	1525.74
431.13	1544.17
431.33	1505.26
431.54	1542.12
431.74	1624.04
431.95	1601.51
432.15	1589.22
432.36	1560.55
432.56	1632.23
432.77	1593.32
432.98	1548.26
433.18	1476.59
433.39	1458.15
433.59	1509.35
433.80	1613.80
434.00	1710.05
434.21	1519.59
434.41	1517.54
434.62	1619.94
434.82	1484.78
435.03	1495.02
435.23	1542.12
435.44	1406.95
435.64	1611.75
435.85	1550.31
436.06	1540.07
436.26	1583.08
436.47	1566.70
436.67	1581.03
436.88	1560.55
437.08	1544.17
437.29	1591.27
437.49	1546.22
437.70	1591.27
437.90	1558.50
438.11	1656.81
438.31	1710.05
438.52	1720.29
438.72	1726.44
438.93	1746.92
439.13	1544.17
439.34	1632.23
439.54	1572.84
439.75	1583.08
439.95	1495.02
440.16	1566.70
440.36	1601.51
440.57	1525.74
440.77	1660.90
440.98	1615.85
441.18	1566.70
441.39	1533.93
441.59	1482.73
441.80	1611.75
442.00	1509.35
442.21	1607.66
442.41	1501.16
442.62	1488.87
442.82	1546.22
443.02	1523.69
443.23	1615.85
443.43	1515.50
443.64	1535.98
443.84	1490.92
444.05	1601.51
444.25	1529.83
444.46	1513.45
444.66	1589.22
444.87	1615.85
445.07	1490.92
445.28	1521.64
445.48	1552.36
445.69	1544.17
445.89	1621.99
446.09	1589.22
446.30	2017.25
446.50	3188.69
446.71	4450.24
446.91	5236.66
447.12	5627.82
447.32	5478.32
447.53	4483.00
447.73	4016.07
447.93	3629.00
448.14	3323.85
448.34	3264.46
448.55	2938.84
448.75	2781.14
448.96	2818.00
449.16	2547.67
449.36	2279.39
449.57	1935.33
449.77	1757.16
449.98	1685.48
450.18	1621.99
450.39	1621.99
450.59	1525.74
450.79	1499.11
451.00	1544.17
451.20	1558.50
451.41	1554.41
451.61	1591.27
451.81	1533.93
452.02	1511.40
452.22	1509.35
452.43	1476.59
452.63	1507.30
