SpectraSuite Data File
++++++++++++++++++++++++++++++++++++
Date: Tue May 03 12:55:12 CEST 2016
User: root
Dark Spectrum Present: No
Reference Spectrum Present: No
Number of Sampled Component Spectra: 1
Spectrometers: USB4C02835
Integration Time (usec): 100000 (USB4C02835)
Spectra Averaged: 1 (USB4C02835)
Boxcar Smoothing: 0 (USB4C02835)
Correct for Electrical Dark: No (USB4C02835)
Strobe/Lamp Enabled: No (USB4C02835)
Correct for Detector Non-linearity: No (USB4C02835)
Correct for Stray Light: No (USB4C02835)
Number of Pixels in Processed Spectrum: 3648
>>>>>Begin Processed Spectral Data<<<<<
177.47	1353.71
177.69	1353.71
177.91	1353.71
178.13	1388.52
178.36	1314.80
178.58	1513.45
178.80	1603.56
179.02	1439.72
179.24	1540.07
179.46	1505.26
179.68	1597.42
179.90	1542.12
180.13	1558.50
180.35	1460.20
180.57	1581.03
180.79	1511.40
181.01	1503.21
181.23	1558.50
181.45	1638.38
181.67	1533.93
181.90	1535.98
182.12	1441.77
182.34	1460.20
182.56	1538.02
182.78	1492.97
183.00	1492.97
183.22	1595.37
183.44	1406.95
183.66	1646.57
183.89	1529.83
184.11	1576.94
184.33	1525.74
184.55	1550.31
184.77	1552.36
184.99	1562.60
185.21	1540.07
185.43	1624.04
185.65	1552.36
185.87	1492.97
186.10	1671.14
186.32	1667.05
186.54	1615.85
186.76	1574.89
186.98	1552.36
187.20	1480.68
187.42	1527.78
187.64	1492.97
187.86	1615.85
188.08	1535.98
188.30	1550.31
188.52	1515.50
188.75	1583.08
188.97	1589.22
189.19	1533.93
189.41	1519.59
189.63	1564.65
189.85	1527.78
190.07	1517.54
190.29	1507.30
190.51	1552.36
190.73	1533.93
190.95	1632.23
191.17	1540.07
191.39	1554.41
191.61	1464.30
191.84	1550.31
192.06	1603.56
192.28	1490.92
192.50	1662.95
192.72	1519.59
192.94	1544.17
193.16	1581.03
193.38	1605.61
193.60	1497.07
193.82	1497.07
194.04	1540.07
194.26	1558.50
194.48	1529.83
194.70	1538.02
194.92	1533.93
195.14	1490.92
195.36	1533.93
195.58	1533.93
195.80	1564.65
196.02	1521.64
196.24	1523.69
196.46	1611.75
196.69	1589.22
196.91	1662.95
197.13	1523.69
197.35	1480.68
197.57	1578.98
197.79	1585.13
198.01	1511.40
198.23	1634.28
198.45	1538.02
198.67	1503.21
198.89	1505.26
199.11	1576.94
199.33	1447.91
199.55	1503.21
199.77	1525.74
199.99	1581.03
200.21	1513.45
200.43	1650.66
200.65	1492.97
200.87	1384.43
201.09	1550.31
201.31	1441.77
201.53	1552.36
201.75	1492.97
201.97	1523.69
202.19	1576.94
202.41	1546.22
202.63	1648.61
202.85	1503.21
203.07	1564.65
203.29	1470.44
203.51	1439.72
203.73	1525.74
203.95	1689.57
204.17	1552.36
204.39	1464.30
204.61	1480.68
204.83	1429.48
205.05	1538.02
205.27	1562.60
205.49	1628.14
205.71	1519.59
205.93	1495.02
206.15	1482.73
206.37	1560.55
206.59	1478.63
206.81	1458.15
207.03	1480.68
207.25	1511.40
207.47	1488.87
207.69	1515.50
207.91	1621.99
208.13	1603.56
208.34	1560.55
208.56	1556.46
208.78	1556.46
209.00	1552.36
209.22	1562.60
209.44	1521.64
209.66	1533.93
209.88	1542.12
210.10	1507.30
210.32	1542.12
210.54	1632.23
210.76	1480.68
210.98	1576.94
211.20	1454.06
211.42	1540.07
211.64	1552.36
211.86	1552.36
212.08	1576.94
212.30	1511.40
212.52	1578.98
212.74	1599.46
212.96	1556.46
213.17	1468.39
213.39	1535.98
213.61	1603.56
213.83	1578.98
214.05	1439.72
214.27	1581.03
214.49	1425.39
214.71	1533.93
214.93	1617.90
215.15	1581.03
215.37	1521.64
215.59	1443.82
215.81	1591.27
216.03	1574.89
216.24	1492.97
216.46	1519.59
216.68	1591.27
216.90	1511.40
217.12	1572.84
217.34	1488.87
217.56	1617.90
217.78	1589.22
218.00	1558.50
218.22	1527.78
218.44	1601.51
218.66	1497.07
218.87	1566.70
219.09	1460.20
219.31	1564.65
219.53	1630.18
219.75	1531.88
219.97	1486.83
220.19	1593.32
220.41	1574.89
220.63	1626.09
220.85	1583.08
221.06	1470.44
221.28	1628.14
221.50	1495.02
221.72	1503.21
221.94	1531.88
222.16	1505.26
222.38	1550.31
222.60	1570.79
222.82	1454.06
223.03	1601.51
223.25	1415.15
223.47	1587.18
223.69	1640.42
223.91	1501.16
224.13	1482.73
224.35	1544.17
224.57	1638.38
224.78	1574.89
225.00	1464.30
225.22	1558.50
225.44	1570.79
225.66	1548.26
225.88	1486.83
226.10	1617.90
226.32	1533.93
226.53	1558.50
226.75	1560.55
226.97	1558.50
227.19	1550.31
227.41	1480.68
227.63	1482.73
227.85	1529.83
228.06	1564.65
228.28	1497.07
228.50	1578.98
228.72	1542.12
228.94	1568.74
229.16	1474.54
229.37	1462.25
229.59	1431.53
229.81	1546.22
230.03	1548.26
230.25	1443.82
230.47	1490.92
230.69	1517.54
230.90	1570.79
231.12	1472.49
231.34	1531.88
231.56	1558.50
231.78	1542.12
232.00	1552.36
232.21	1593.32
232.43	1558.50
232.65	1427.43
232.87	1589.22
233.09	1482.73
233.30	1507.30
233.52	1634.28
233.74	1525.74
233.96	1452.01
234.18	1558.50
234.40	1511.40
234.61	1548.26
234.83	1535.98
235.05	1495.02
235.27	1634.28
235.49	1560.55
235.70	1572.84
235.92	1617.90
236.14	1560.55
236.36	1667.05
236.58	1578.98
236.79	1595.37
237.01	1529.83
237.23	1392.62
237.45	1581.03
237.67	1519.59
237.88	1603.56
238.10	1585.13
238.32	1540.07
238.54	1587.18
238.76	1486.83
238.97	1468.39
239.19	1476.59
239.41	1613.80
239.63	1554.41
239.85	1505.26
240.06	1492.97
240.28	1505.26
240.50	1599.46
240.72	1538.02
240.93	1544.17
241.15	1587.18
241.37	1517.54
241.59	1591.27
241.81	1533.93
242.02	1564.65
242.24	1515.50
242.46	1540.07
242.68	1525.74
242.89	1552.36
243.11	1529.83
243.33	1513.45
243.55	1591.27
243.76	1509.35
243.98	1497.07
244.20	1652.71
244.42	1552.36
244.64	1581.03
244.85	1468.39
245.07	1511.40
245.29	1521.64
245.51	1435.63
245.72	1480.68
245.94	1605.61
246.16	1583.08
246.38	1542.12
246.59	1449.96
246.81	1468.39
247.03	1560.55
247.24	1468.39
247.46	1478.63
247.68	1527.78
247.90	1511.40
248.11	1492.97
248.33	1581.03
248.55	1558.50
248.77	1511.40
248.98	1560.55
249.20	1628.14
249.42	1523.69
249.64	1517.54
249.85	1548.26
250.07	1517.54
250.29	1636.33
250.50	1576.94
250.72	1521.64
250.94	1492.97
251.16	1634.28
251.37	1589.22
251.59	1578.98
251.81	1531.88
252.02	1540.07
252.24	1505.26
252.46	1574.89
252.68	1546.22
252.89	1533.93
253.11	1466.35
253.33	1607.66
253.54	1548.26
253.76	1529.83
253.98	1617.90
254.20	1540.07
254.41	1456.11
254.63	1409.00
254.85	1535.98
255.06	1542.12
255.28	1478.63
255.50	1601.51
255.71	1533.93
255.93	1478.63
256.15	1531.88
256.36	1542.12
256.58	1499.11
256.80	1583.08
257.02	1499.11
257.23	1550.31
257.45	1593.32
257.67	1562.60
257.88	1533.93
258.10	1593.32
258.32	1531.88
258.53	1544.17
258.75	1562.60
258.97	1501.16
259.18	1513.45
259.40	1466.35
259.62	1552.36
259.83	1576.94
260.05	1529.83
260.27	1691.62
260.48	1601.51
260.70	1513.45
260.92	1544.17
261.13	1519.59
261.35	1540.07
261.57	1564.65
261.78	1435.63
262.00	1583.08
262.22	1617.90
262.43	1593.32
262.65	1542.12
262.86	1529.83
263.08	1591.27
263.30	1492.97
263.51	1462.25
263.73	1581.03
263.95	1638.38
264.16	1464.30
264.38	1507.30
264.60	1482.73
264.81	1513.45
265.03	1611.75
265.25	1546.22
265.46	1499.11
265.68	1564.65
265.89	1615.85
266.11	1513.45
266.33	1560.55
266.54	1574.89
266.76	1484.78
266.98	1542.12
267.19	1542.12
267.41	1566.70
267.62	1503.21
267.84	1490.92
268.06	1636.33
268.27	1513.45
268.49	1642.47
268.70	1566.70
268.92	1513.45
269.14	1503.21
269.35	1468.39
269.57	1488.87
269.79	1591.27
270.00	1542.12
270.22	1556.46
270.43	1576.94
270.65	1480.68
270.87	1509.35
271.08	1550.31
271.30	1509.35
271.51	1599.46
271.73	1556.46
271.95	1603.56
272.16	1554.41
272.38	1509.35
272.59	1523.69
272.81	1538.02
273.02	1656.81
273.24	1546.22
273.46	1587.18
273.67	1501.16
273.89	1595.37
274.10	1585.13
274.32	1605.61
274.54	1472.49
274.75	1570.79
274.97	1413.10
275.18	1617.90
275.40	1607.66
275.61	1578.98
275.83	1540.07
276.05	1509.35
276.26	1533.93
276.48	1585.13
276.69	1507.30
276.91	1521.64
277.12	1656.81
277.34	1538.02
277.55	1578.98
277.77	1576.94
277.99	1542.12
278.20	1495.02
278.42	1509.35
278.63	1515.50
278.85	1476.59
279.06	1515.50
279.28	1591.27
279.49	1589.22
279.71	1619.94
279.93	1538.02
280.14	1589.22
280.36	1544.17
280.57	1628.14
280.79	1540.07
281.00	1488.87
281.22	1548.26
281.43	1517.54
281.65	1449.96
281.86	1558.50
282.08	1540.07
282.29	1589.22
282.51	1499.11
282.73	1488.87
282.94	1529.83
283.16	1566.70
283.37	1595.37
283.59	1486.83
283.80	1572.84
284.02	1570.79
284.23	1624.04
284.45	1462.25
284.66	1488.87
284.88	1492.97
285.09	1535.98
285.31	1583.08
285.52	1519.59
285.74	1390.57
285.95	1634.28
286.17	1550.31
286.38	1576.94
286.60	1535.98
286.81	1511.40
287.03	1495.02
287.24	1568.74
287.46	1585.13
287.67	1452.01
287.89	1589.22
288.10	1495.02
288.32	1492.97
288.53	1585.13
288.75	1578.98
288.96	1597.42
289.18	1499.11
289.39	1525.74
289.61	1589.22
289.82	1578.98
290.04	1624.04
290.25	1478.63
290.47	1572.84
290.68	1501.16
290.90	1587.18
291.11	1548.26
291.33	1591.27
291.54	1511.40
291.76	1452.01
291.97	1585.13
292.18	1560.55
292.40	1595.37
292.61	1507.30
292.83	1585.13
293.04	1574.89
293.26	1552.36
293.47	1574.89
293.69	1486.83
293.90	1591.27
294.12	1564.65
294.33	1558.50
294.55	1544.17
294.76	1523.69
294.97	1595.37
295.19	1540.07
295.40	1564.65
295.62	1443.82
295.83	1548.26
296.05	1595.37
296.26	1535.98
296.48	1523.69
296.69	1515.50
296.90	1527.78
297.12	1533.93
297.33	1642.47
297.55	1482.73
297.76	1533.93
297.98	1630.18
298.19	1566.70
298.41	1462.25
298.62	1476.59
298.83	1576.94
299.05	1531.88
299.26	1531.88
299.48	1548.26
299.69	1558.50
299.90	1583.08
300.12	1503.21
300.33	1589.22
300.55	1462.25
300.76	1591.27
300.98	1503.21
301.19	1568.74
301.40	1607.66
301.62	1511.40
301.83	1550.31
302.05	1597.42
302.26	1591.27
302.47	1562.60
302.69	1495.02
302.90	1503.21
303.12	1445.87
303.33	1607.66
303.54	1628.14
303.76	1495.02
303.97	1544.17
304.19	1624.04
304.40	1484.78
304.61	1517.54
304.83	1578.98
305.04	1576.94
305.26	1605.61
305.47	1554.41
305.68	1511.40
305.90	1519.59
306.11	1544.17
306.33	1476.59
306.54	1521.64
306.75	1495.02
306.97	1452.01
307.18	1427.43
307.39	1480.68
307.61	1626.09
307.82	1505.26
308.04	1507.30
308.25	1460.20
308.46	1554.41
308.68	1505.26
308.89	1581.03
309.10	1517.54
309.32	1568.74
309.53	1495.02
309.74	1542.12
309.96	1427.43
310.17	1576.94
310.39	1474.54
310.60	1615.85
310.81	1574.89
311.03	1511.40
311.24	1456.11
311.45	1495.02
311.67	1544.17
311.88	1613.80
312.09	1505.26
312.31	1482.73
312.52	1599.46
312.73	1576.94
312.95	1490.92
313.16	1517.54
313.37	1562.60
313.59	1570.79
313.80	1613.80
314.01	1566.70
314.23	1527.78
314.44	1433.58
314.65	1470.44
314.87	1562.60
315.08	1499.11
315.29	1533.93
315.51	1501.16
315.72	1566.70
315.93	1621.99
316.15	1540.07
316.36	1542.12
316.57	1544.17
316.79	1556.46
317.00	1560.55
317.21	1572.84
317.43	1535.98
317.64	1505.26
317.85	1554.41
318.07	1595.37
318.28	1628.14
318.49	1712.10
318.70	1902.56
318.92	1691.62
319.13	1654.76
319.34	1658.85
319.56	1595.37
319.77	1642.47
319.98	1634.28
320.20	1540.07
320.41	1566.70
320.62	1574.89
320.83	1519.59
321.05	1646.57
321.26	1583.08
321.47	1544.17
321.69	1560.55
321.90	1484.78
322.11	1421.29
322.32	1562.60
322.54	1634.28
322.75	1517.54
322.96	1583.08
323.18	1501.16
323.39	1415.15
323.60	1505.26
323.81	1615.85
324.03	1513.45
324.24	1525.74
324.45	1550.31
324.66	1535.98
324.88	1630.18
325.09	1652.71
325.30	1591.27
325.52	1578.98
325.73	1542.12
325.94	1480.68
326.15	1462.25
326.37	1456.11
326.58	1601.51
326.79	1619.94
327.00	1521.64
327.22	1552.36
327.43	1462.25
327.64	1503.21
327.85	1546.22
328.07	1619.94
328.28	1535.98
328.49	1503.21
328.70	1511.40
328.92	1495.02
329.13	1531.88
329.34	1525.74
329.55	1576.94
329.76	1548.26
329.98	1490.92
330.19	1595.37
330.40	1578.98
330.61	1564.65
330.83	1570.79
331.04	1552.36
331.25	1546.22
331.46	1519.59
331.68	1470.44
331.89	1595.37
332.10	1605.61
332.31	1490.92
332.52	1538.02
332.74	1542.12
332.95	1490.92
333.16	1558.50
333.37	1554.41
333.58	1490.92
333.80	1556.46
334.01	1531.88
334.22	1519.59
334.43	1488.87
334.64	1544.17
334.86	1525.74
335.07	1529.83
335.28	1611.75
335.49	1509.35
335.70	1495.02
335.92	1548.26
336.13	1601.51
336.34	1591.27
336.55	1572.84
336.76	1564.65
336.98	1503.21
337.19	1488.87
337.40	1619.94
337.61	1638.38
337.82	1523.69
338.04	1595.37
338.25	1443.82
338.46	1531.88
338.67	1542.12
338.88	1486.83
339.09	1497.07
339.31	1509.35
339.52	1515.50
339.73	1507.30
339.94	1488.87
340.15	1574.89
340.36	1527.78
340.58	1566.70
340.79	1447.91
341.00	1605.61
341.21	1411.05
341.42	1603.56
341.63	1521.64
341.85	1552.36
342.06	1523.69
342.27	1572.84
342.48	1566.70
342.69	1495.02
342.90	1581.03
343.12	1611.75
343.33	1533.93
343.54	1595.37
343.75	1538.02
343.96	1521.64
344.17	1511.40
344.38	1564.65
344.60	1490.92
344.81	1488.87
345.02	1476.59
345.23	1636.33
345.44	1609.70
345.65	1609.70
345.86	1624.04
346.07	1540.07
346.29	1456.11
346.50	1605.61
346.71	1599.46
346.92	1591.27
347.13	1660.90
347.34	1511.40
347.55	1546.22
347.76	1630.18
347.98	1433.58
348.19	1527.78
348.40	1611.75
348.61	1482.73
348.82	1540.07
349.03	1605.61
349.24	1495.02
349.45	1581.03
349.66	1419.24
349.88	1507.30
350.09	1495.02
350.30	1605.61
350.51	1585.13
350.72	1560.55
350.93	1519.59
351.14	1501.16
351.35	1525.74
351.56	1611.75
351.77	1576.94
351.99	1597.42
352.20	1591.27
352.41	1560.55
352.62	1495.02
352.83	1544.17
353.04	1540.07
353.25	1578.98
353.46	1636.33
353.67	1517.54
353.88	1492.97
354.09	1599.46
354.30	1523.69
354.52	1533.93
354.73	1560.55
354.94	1470.44
355.15	1488.87
355.36	1619.94
355.57	1515.50
355.78	1587.18
355.99	1515.50
356.20	1478.63
356.41	1523.69
356.62	1542.12
356.83	1505.26
357.04	1527.78
357.25	1417.19
357.46	1587.18
357.68	1458.15
357.89	1556.46
358.10	1558.50
358.31	1560.55
358.52	1488.87
358.73	1521.64
358.94	1550.31
359.15	1445.87
359.36	1533.93
359.57	1574.89
359.78	1484.78
359.99	1566.70
360.20	1525.74
360.41	1570.79
360.62	1628.14
360.83	1583.08
361.04	1546.22
361.25	1562.60
361.46	1570.79
361.67	1603.56
361.88	1609.70
362.09	1505.26
362.30	1531.88
362.51	1490.92
362.72	1640.42
362.93	1585.13
363.14	1566.70
363.35	1517.54
363.56	1525.74
363.78	1591.27
363.99	1574.89
364.20	1538.02
364.41	1609.70
364.62	1558.50
364.83	1531.88
365.04	1609.70
365.25	1505.26
365.46	1673.19
365.67	1540.07
365.88	1495.02
366.09	1480.68
366.30	1535.98
366.51	1531.88
366.72	1474.54
366.93	1492.97
367.14	1548.26
367.35	1589.22
367.56	1585.13
367.77	1613.80
367.98	1495.02
368.18	1607.66
368.39	1486.83
368.60	1517.54
368.81	1566.70
369.02	1558.50
369.23	1548.26
369.44	1499.11
369.65	1554.41
369.86	1548.26
370.07	1683.43
370.28	1468.39
370.49	1550.31
370.70	1548.26
370.91	1486.83
371.12	1482.73
371.33	1628.14
371.54	1490.92
371.75	1621.99
371.96	1419.24
372.17	1568.74
372.38	1542.12
372.59	1554.41
372.80	1605.61
373.01	1466.35
373.22	1492.97
373.43	1501.16
373.64	1529.83
373.85	1595.37
374.06	1538.02
374.26	1533.93
374.47	1535.98
374.68	1621.99
374.89	1517.54
375.10	1548.26
375.31	1556.46
375.52	1521.64
375.73	1564.65
375.94	1560.55
376.15	1587.18
376.36	1472.49
376.57	1511.40
376.78	1548.26
376.99	1558.50
377.20	1599.46
377.40	1533.93
377.61	1583.08
377.82	1495.02
378.03	1546.22
378.24	1544.17
378.45	1576.94
378.66	1527.78
378.87	1454.06
379.08	1484.78
379.29	1480.68
379.50	1609.70
379.71	1519.59
379.91	1568.74
380.12	1478.63
380.33	1576.94
380.54	1546.22
380.75	1505.26
380.96	1492.97
381.17	1540.07
381.38	1566.70
381.59	1638.38
381.80	1585.13
382.00	1619.94
382.21	1665.00
382.42	1673.19
382.63	1687.53
382.84	1603.56
383.05	1591.27
383.26	1574.89
383.47	1544.17
383.68	1564.65
383.88	1611.75
384.09	1570.79
384.30	1621.99
384.51	1605.61
384.72	1499.11
384.93	1400.81
385.14	1515.50
385.35	1595.37
385.55	1560.55
385.76	1574.89
385.97	1531.88
386.18	1535.98
386.39	1554.41
386.60	1523.69
386.81	1525.74
387.02	1558.50
387.22	1499.11
387.43	1646.57
387.64	1675.24
387.85	1806.31
388.06	3047.38
388.27	7108.50
388.48	10463.07
388.68	12556.10
388.89	13934.38
389.10	12955.45
389.31	10139.49
389.52	8816.51
389.73	7808.90
389.93	7514.00
390.14	6764.44
390.35	6252.45
390.56	5521.32
390.77	4624.31
390.98	3506.12
391.18	2791.38
391.39	2271.20
391.60	1712.10
391.81	1703.91
392.02	1585.13
392.23	1708.01
392.43	1634.28
392.64	1640.42
392.85	1626.09
393.06	1689.57
393.27	1462.25
393.47	1529.83
393.68	1531.88
393.89	1456.11
394.10	1597.42
394.31	1576.94
394.52	1589.22
394.72	1581.03
394.93	1550.31
395.14	1562.60
395.35	1556.46
395.56	1587.18
395.76	1587.18
395.97	1697.77
396.18	1714.15
396.39	1683.43
396.60	1849.32
396.80	1744.87
397.01	1587.18
397.22	1624.04
397.43	1587.18
397.64	1527.78
397.84	1718.25
398.05	1595.37
398.26	1556.46
398.47	1581.03
398.67	1685.48
398.88	1591.27
399.09	1556.46
399.30	1548.26
399.51	1517.54
399.71	1513.45
399.92	1456.11
400.13	1589.22
400.34	1525.74
400.54	1556.46
400.75	1595.37
400.96	1546.22
401.17	1636.33
401.37	1597.42
401.58	1519.59
401.79	1591.27
402.00	1761.25
402.21	1982.43
402.41	1943.52
402.62	1902.56
402.83	1812.45
403.04	1892.32
403.24	1853.41
403.45	1662.95
403.66	1785.83
403.87	1783.78
404.07	1718.25
404.28	1816.55
404.49	1685.48
404.70	1656.81
404.90	1605.61
405.11	1613.80
405.32	1597.42
405.52	1587.18
405.73	1517.54
405.94	1519.59
406.15	1597.42
406.35	1540.07
406.56	1599.46
406.77	1585.13
406.98	1556.46
407.18	1476.59
407.39	1638.38
407.60	1525.74
407.80	1615.85
408.01	1554.41
408.22	1572.84
408.43	1564.65
408.63	1607.66
408.84	1589.22
409.05	1558.50
409.25	1521.64
409.46	1486.83
409.67	1556.46
409.88	1533.93
410.08	1587.18
410.29	1505.26
410.50	1558.50
410.70	1560.55
410.91	1560.55
411.12	1578.98
411.32	1595.37
411.53	1521.64
411.74	1638.38
411.95	1611.75
412.15	1634.28
412.36	1591.27
412.57	1589.22
412.77	1656.81
412.98	1669.09
413.19	1535.98
413.39	1611.75
413.60	1550.31
413.81	1615.85
414.01	1507.30
414.22	1589.22
414.43	1673.19
414.63	1548.26
414.84	1548.26
415.05	1554.41
415.25	1507.30
415.46	1556.46
415.67	1595.37
415.87	1576.94
416.08	1597.42
416.29	1550.31
416.49	1578.98
416.70	1495.02
416.91	1550.31
417.11	1630.18
417.32	1609.70
417.53	1638.38
417.73	1585.13
417.94	1474.54
418.15	1624.04
418.35	1529.83
418.56	1484.78
418.77	1531.88
418.97	1585.13
419.18	1562.60
419.38	1429.48
419.59	1505.26
419.80	1632.23
420.00	1517.54
420.21	1503.21
420.42	1615.85
420.62	1611.75
420.83	1492.97
421.04	1540.07
421.24	1533.93
421.45	1585.13
421.65	1611.75
421.86	1509.35
422.07	1505.26
422.27	1521.64
422.48	1542.12
422.69	1492.97
422.89	1523.69
423.10	1478.63
423.30	1495.02
423.51	1515.50
423.72	1497.07
423.92	1566.70
424.13	1521.64
424.33	1515.50
424.54	1566.70
424.75	1468.39
424.95	1615.85
425.16	1495.02
425.36	1554.41
425.57	1601.51
425.78	1552.36
425.98	1626.09
426.19	1509.35
426.39	1458.15
426.60	1552.36
426.81	1609.70
427.01	1562.60
427.22	1490.92
427.42	1548.26
427.63	1515.50
427.83	1572.84
428.04	1630.18
428.25	1619.94
428.45	1626.09
428.66	1619.94
428.86	1566.70
429.07	1464.30
429.28	1562.60
429.48	1517.54
429.69	1521.64
429.89	1507.30
430.10	1505.26
430.30	1574.89
430.51	1583.08
430.71	1490.92
430.92	1517.54
431.13	1568.74
431.33	1544.17
431.54	1492.97
431.74	1656.81
431.95	1611.75
432.15	1449.96
432.36	1525.74
432.56	1548.26
432.77	1644.52
432.98	1656.81
433.18	1511.40
433.39	1587.18
433.59	1527.78
433.80	1619.94
434.00	1660.90
434.21	1554.41
434.41	1415.15
434.62	1607.66
434.82	1452.01
435.03	1552.36
435.23	1529.83
435.44	1490.92
435.64	1531.88
435.85	1574.89
436.06	1576.94
436.26	1560.55
436.47	1570.79
436.67	1527.78
436.88	1552.36
437.08	1581.03
437.29	1599.46
437.49	1574.89
437.70	1589.22
437.90	1572.84
438.11	1701.86
438.31	1687.53
438.52	1701.86
438.72	1673.19
438.93	1759.21
439.13	1648.61
439.34	1656.81
439.54	1544.17
439.75	1648.61
439.95	1554.41
440.16	1634.28
440.36	1546.22
440.57	1558.50
440.77	1595.37
440.98	1562.60
441.18	1617.90
441.39	1628.14
441.59	1517.54
441.80	1591.27
442.00	1535.98
442.21	1587.18
442.41	1521.64
442.62	1650.66
442.82	1476.59
443.02	1548.26
443.23	1499.11
443.43	1482.73
443.64	1599.46
443.84	1548.26
444.05	1656.81
444.25	1564.65
444.46	1558.50
444.66	1501.16
444.87	1585.13
445.07	1468.39
445.28	1572.84
445.48	1642.47
445.69	1605.61
445.89	1650.66
446.09	1595.37
446.30	1990.63
446.50	3172.30
446.71	4327.36
446.91	5302.19
447.12	5748.65
447.32	5560.24
447.53	4626.36
447.73	4073.41
447.93	3585.99
448.14	3321.81
448.34	3246.03
448.55	2895.83
448.75	2951.12
448.96	2791.38
449.16	2455.51
449.36	2324.44
449.57	2086.88
449.77	1869.80
449.98	1578.98
450.18	1578.98
450.39	1613.80
450.59	1583.08
450.79	1531.88
451.00	1540.07
451.20	1558.50
451.41	1574.89
451.61	1535.98
451.81	1511.40
452.02	1492.97
452.22	1486.83
452.43	1538.02
452.63	1585.13
