SpectraSuite Data File
++++++++++++++++++++++++++++++++++++
Date: Tue May 03 12:55:17 CEST 2016
User: root
Dark Spectrum Present: No
Reference Spectrum Present: No
Number of Sampled Component Spectra: 1
Spectrometers: USB4C02835
Integration Time (usec): 100000 (USB4C02835)
Spectra Averaged: 1 (USB4C02835)
Boxcar Smoothing: 0 (USB4C02835)
Correct for Electrical Dark: No (USB4C02835)
Strobe/Lamp Enabled: No (USB4C02835)
Correct for Detector Non-linearity: No (USB4C02835)
Correct for Stray Light: No (USB4C02835)
Number of Pixels in Processed Spectrum: 3648
>>>>>Begin Processed Spectral Data<<<<<
177.47	1443.82
177.69	1443.82
177.91	1443.82
178.13	1325.04
178.36	1419.24
178.58	1468.39
178.80	1605.61
179.02	1421.29
179.24	1531.88
179.46	1460.20
179.68	1636.33
179.90	1535.98
180.13	1517.54
180.35	1449.96
180.57	1558.50
180.79	1570.79
181.01	1464.30
181.23	1581.03
181.45	1523.69
181.67	1574.89
181.90	1576.94
182.12	1495.02
182.34	1445.87
182.56	1566.70
182.78	1517.54
183.00	1501.16
183.22	1572.84
183.44	1497.07
183.66	1644.52
183.89	1566.70
184.11	1589.22
184.33	1576.94
184.55	1572.84
184.77	1540.07
184.99	1527.78
185.21	1499.11
185.43	1691.62
185.65	1482.73
185.87	1556.46
186.10	1613.80
186.32	1609.70
186.54	1503.21
186.76	1515.50
186.98	1562.60
187.20	1478.63
187.42	1527.78
187.64	1503.21
187.86	1617.90
188.08	1634.28
188.30	1542.12
188.52	1517.54
188.75	1574.89
188.97	1583.08
189.19	1476.59
189.41	1445.87
189.63	1607.66
189.85	1505.26
190.07	1480.68
190.29	1476.59
190.51	1564.65
190.73	1443.82
190.95	1652.71
191.17	1542.12
191.39	1486.83
191.61	1556.46
191.84	1568.74
192.06	1517.54
192.28	1499.11
192.50	1681.38
192.72	1574.89
192.94	1564.65
193.16	1599.46
193.38	1480.68
193.60	1435.63
193.82	1495.02
194.04	1593.32
194.26	1542.12
194.48	1452.01
194.70	1574.89
194.92	1519.59
195.14	1601.51
195.36	1460.20
195.58	1544.17
195.80	1548.26
196.02	1574.89
196.24	1538.02
196.46	1609.70
196.69	1513.45
196.91	1611.75
197.13	1544.17
197.35	1517.54
197.57	1605.61
197.79	1507.30
198.01	1513.45
198.23	1560.55
198.45	1597.42
198.67	1515.50
198.89	1609.70
199.11	1550.31
199.33	1497.07
199.55	1460.20
199.77	1560.55
199.99	1599.46
200.21	1560.55
200.43	1523.69
200.65	1425.39
200.87	1452.01
201.09	1540.07
201.31	1497.07
201.53	1603.56
201.75	1544.17
201.97	1597.42
202.19	1523.69
202.41	1486.83
202.63	1591.27
202.85	1589.22
203.07	1578.98
203.29	1505.26
203.51	1468.39
203.73	1525.74
203.95	1644.52
204.17	1550.31
204.39	1560.55
204.61	1533.93
204.83	1548.26
205.05	1535.98
205.27	1613.80
205.49	1648.61
205.71	1509.35
205.93	1447.91
206.15	1492.97
206.37	1533.93
206.59	1546.22
206.81	1497.07
207.03	1533.93
207.25	1495.02
207.47	1574.89
207.69	1566.70
207.91	1658.85
208.13	1621.99
208.34	1576.94
208.56	1527.78
208.78	1613.80
209.00	1507.30
209.22	1576.94
209.44	1439.72
209.66	1533.93
209.88	1535.98
210.10	1501.16
210.32	1525.74
210.54	1697.77
210.76	1495.02
210.98	1538.02
211.20	1478.63
211.42	1533.93
211.64	1570.79
211.86	1540.07
212.08	1556.46
212.30	1558.50
212.52	1552.36
212.74	1523.69
212.96	1601.51
213.17	1527.78
213.39	1578.98
213.61	1576.94
213.83	1566.70
214.05	1474.54
214.27	1605.61
214.49	1499.11
214.71	1525.74
214.93	1519.59
215.15	1497.07
215.37	1578.98
215.59	1495.02
215.81	1587.18
216.03	1538.02
216.24	1509.35
216.46	1503.21
216.68	1476.59
216.90	1595.37
217.12	1646.57
217.34	1544.17
217.56	1527.78
217.78	1617.90
218.00	1628.14
218.22	1538.02
218.44	1527.78
218.66	1634.28
218.87	1617.90
219.09	1540.07
219.31	1466.35
219.53	1535.98
219.75	1517.54
219.97	1544.17
220.19	1484.78
220.41	1560.55
220.63	1574.89
220.85	1519.59
221.06	1531.88
221.28	1644.52
221.50	1538.02
221.72	1544.17
221.94	1587.18
222.16	1546.22
222.38	1550.31
222.60	1515.50
222.82	1531.88
223.03	1597.42
223.25	1505.26
223.47	1587.18
223.69	1634.28
223.91	1597.42
224.13	1546.22
224.35	1443.82
224.57	1634.28
224.78	1538.02
225.00	1458.15
225.22	1558.50
225.44	1523.69
225.66	1589.22
225.88	1478.63
226.10	1681.38
226.32	1527.78
226.53	1615.85
226.75	1484.78
226.97	1607.66
227.19	1521.64
227.41	1497.07
227.63	1488.87
227.85	1519.59
228.06	1519.59
228.28	1527.78
228.50	1503.21
228.72	1521.64
228.94	1570.79
229.16	1466.35
229.37	1544.17
229.59	1490.92
229.81	1597.42
230.03	1517.54
230.25	1521.64
230.47	1570.79
230.69	1462.25
230.90	1589.22
231.12	1544.17
231.34	1544.17
231.56	1568.74
231.78	1474.54
232.00	1521.64
232.21	1505.26
232.43	1452.01
232.65	1497.07
232.87	1519.59
233.09	1454.06
233.30	1503.21
233.52	1505.26
233.74	1583.08
233.96	1486.83
234.18	1593.32
234.40	1474.54
234.61	1595.37
234.83	1462.25
235.05	1462.25
235.27	1607.66
235.49	1546.22
235.70	1509.35
235.92	1581.03
236.14	1587.18
236.36	1679.33
236.58	1466.35
236.79	1640.42
237.01	1505.26
237.23	1503.21
237.45	1640.42
237.67	1521.64
237.88	1523.69
238.10	1656.81
238.32	1568.74
238.54	1546.22
238.76	1509.35
238.97	1460.20
239.19	1546.22
239.41	1554.41
239.63	1495.02
239.85	1505.26
240.06	1572.84
240.28	1576.94
240.50	1574.89
240.72	1521.64
240.93	1564.65
241.15	1492.97
241.37	1548.26
241.59	1554.41
241.81	1574.89
242.02	1615.85
242.24	1630.18
242.46	1488.87
242.68	1490.92
242.89	1521.64
243.11	1521.64
243.33	1535.98
243.55	1603.56
243.76	1544.17
243.98	1570.79
244.20	1505.26
244.42	1593.32
244.64	1617.90
244.85	1464.30
245.07	1554.41
245.29	1576.94
245.51	1542.12
245.72	1554.41
245.94	1615.85
246.16	1609.70
246.38	1564.65
246.59	1476.59
246.81	1550.31
247.03	1507.30
247.24	1517.54
247.46	1478.63
247.68	1546.22
247.90	1578.98
248.11	1560.55
248.33	1607.66
248.55	1546.22
248.77	1585.13
248.98	1560.55
249.20	1619.94
249.42	1488.87
249.64	1583.08
249.85	1505.26
250.07	1550.31
250.29	1533.93
250.50	1576.94
250.72	1452.01
250.94	1562.60
251.16	1691.62
251.37	1529.83
251.59	1525.74
251.81	1507.30
252.02	1632.23
252.24	1521.64
252.46	1574.89
252.68	1423.34
252.89	1533.93
253.11	1429.48
253.33	1603.56
253.54	1617.90
253.76	1505.26
253.98	1593.32
254.20	1572.84
254.41	1519.59
254.63	1497.07
254.85	1468.39
255.06	1527.78
255.28	1544.17
255.50	1468.39
255.71	1490.92
255.93	1466.35
256.15	1525.74
256.36	1560.55
256.58	1505.26
256.80	1560.55
257.02	1499.11
257.23	1480.68
257.45	1624.04
257.67	1533.93
257.88	1529.83
258.10	1538.02
258.32	1503.21
258.53	1560.55
258.75	1581.03
258.97	1503.21
259.18	1499.11
259.40	1486.83
259.62	1591.27
259.83	1585.13
260.05	1593.32
260.27	1834.98
260.48	1544.17
260.70	1519.59
260.92	1607.66
261.13	1558.50
261.35	1521.64
261.57	1495.02
261.78	1464.30
262.00	1488.87
262.22	1576.94
262.43	1527.78
262.65	1587.18
262.86	1533.93
263.08	1621.99
263.30	1527.78
263.51	1509.35
263.73	1495.02
263.95	1560.55
264.16	1490.92
264.38	1546.22
264.60	1562.60
264.81	1499.11
265.03	1501.16
265.25	1576.94
265.46	1460.20
265.68	1599.46
265.89	1613.80
266.11	1492.97
266.33	1640.42
266.54	1609.70
266.76	1574.89
266.98	1566.70
267.19	1568.74
267.41	1595.37
267.62	1468.39
267.84	1558.50
268.06	1615.85
268.27	1556.46
268.49	1538.02
268.70	1576.94
268.92	1583.08
269.14	1519.59
269.35	1421.29
269.57	1488.87
269.79	1605.61
270.00	1517.54
270.22	1628.14
270.43	1626.09
270.65	1423.34
270.87	1515.50
271.08	1513.45
271.30	1531.88
271.51	1552.36
271.73	1521.64
271.95	1574.89
272.16	1581.03
272.38	1603.56
272.59	1429.48
272.81	1490.92
273.02	1562.60
273.24	1523.69
273.46	1597.42
273.67	1501.16
273.89	1499.11
274.10	1476.59
274.32	1634.28
274.54	1462.25
274.75	1626.09
274.97	1492.97
275.18	1548.26
275.40	1599.46
275.61	1538.02
275.83	1523.69
276.05	1501.16
276.26	1480.68
276.48	1574.89
276.69	1548.26
276.91	1464.30
277.12	1576.94
277.34	1566.70
277.55	1562.60
277.77	1542.12
277.99	1550.31
278.20	1486.83
278.42	1464.30
278.63	1492.97
278.85	1533.93
279.06	1495.02
279.28	1546.22
279.49	1570.79
279.71	1542.12
279.93	1509.35
280.14	1531.88
280.36	1558.50
280.57	1544.17
280.79	1548.26
281.00	1599.46
281.22	1476.59
281.43	1568.74
281.65	1433.58
281.86	1519.59
282.08	1476.59
282.29	1515.50
282.51	1533.93
282.73	1484.78
282.94	1431.53
283.16	1495.02
283.37	1636.33
283.59	1560.55
283.80	1556.46
284.02	1497.07
284.23	1521.64
284.45	1482.73
284.66	1523.69
284.88	1495.02
285.09	1570.79
285.31	1544.17
285.52	1548.26
285.74	1452.01
285.95	1525.74
286.17	1603.56
286.38	1486.83
286.60	1523.69
286.81	1517.54
287.03	1460.20
287.24	1519.59
287.46	1521.64
287.67	1564.65
287.89	1587.18
288.10	1488.87
288.32	1581.03
288.53	1593.32
288.75	1556.46
288.96	1554.41
289.18	1411.05
289.39	1523.69
289.61	1503.21
289.82	1632.23
290.04	1652.71
290.25	1499.11
290.47	1644.52
290.68	1499.11
290.90	1669.09
291.11	1454.06
291.33	1585.13
291.54	1574.89
291.76	1503.21
291.97	1583.08
292.18	1558.50
292.40	1511.40
292.61	1503.21
292.83	1624.04
293.04	1599.46
293.26	1556.46
293.47	1501.16
293.69	1535.98
293.90	1556.46
294.12	1587.18
294.33	1591.27
294.55	1535.98
294.76	1574.89
294.97	1587.18
295.19	1607.66
295.40	1521.64
295.62	1554.41
295.83	1550.31
296.05	1447.91
296.26	1554.41
296.48	1507.30
296.69	1517.54
296.90	1529.83
297.12	1558.50
297.33	1576.94
297.55	1621.99
297.76	1570.79
297.98	1619.94
298.19	1566.70
298.41	1517.54
298.62	1527.78
298.83	1542.12
299.05	1507.30
299.26	1566.70
299.48	1490.92
299.69	1585.13
299.90	1501.16
300.12	1445.87
300.33	1615.85
300.55	1560.55
300.76	1507.30
300.98	1511.40
301.19	1562.60
301.40	1535.98
301.62	1605.61
301.83	1587.18
302.05	1552.36
302.26	1583.08
302.47	1548.26
302.69	1515.50
302.90	1517.54
303.12	1400.81
303.33	1544.17
303.54	1642.47
303.76	1558.50
303.97	1576.94
304.19	1656.81
304.40	1513.45
304.61	1531.88
304.83	1605.61
305.04	1591.27
305.26	1560.55
305.47	1523.69
305.68	1482.73
305.90	1503.21
306.11	1542.12
306.33	1486.83
306.54	1525.74
306.75	1589.22
306.97	1542.12
307.18	1511.40
307.39	1517.54
307.61	1517.54
307.82	1476.59
308.04	1562.60
308.25	1488.87
308.46	1548.26
308.68	1544.17
308.89	1554.41
309.10	1617.90
309.32	1576.94
309.53	1558.50
309.74	1583.08
309.96	1511.40
310.17	1640.42
310.39	1535.98
310.60	1570.79
310.81	1509.35
311.03	1447.91
311.24	1499.11
311.45	1492.97
311.67	1597.42
311.88	1673.19
312.09	1540.07
312.31	1531.88
312.52	1552.36
312.73	1574.89
312.95	1431.53
313.16	1492.97
313.37	1624.04
313.59	1583.08
313.80	1613.80
314.01	1607.66
314.23	1482.73
314.44	1507.30
314.65	1431.53
314.87	1540.07
315.08	1533.93
315.29	1460.20
315.51	1546.22
315.72	1488.87
315.93	1607.66
316.15	1550.31
316.36	1482.73
316.57	1492.97
316.79	1662.95
317.00	1521.64
317.21	1566.70
317.43	1591.27
317.64	1523.69
317.85	1495.02
318.07	1515.50
318.28	1656.81
318.49	1732.58
318.70	1794.02
318.92	1712.10
319.13	1626.09
319.34	1667.05
319.56	1654.76
319.77	1703.91
319.98	1626.09
320.20	1581.03
320.41	1576.94
320.62	1556.46
320.83	1568.74
321.05	1619.94
321.26	1554.41
321.47	1529.83
321.69	1599.46
321.90	1519.59
322.11	1513.45
322.32	1556.46
322.54	1644.52
322.75	1572.84
322.96	1556.46
323.18	1478.63
323.39	1378.28
323.60	1574.89
323.81	1574.89
324.03	1474.54
324.24	1552.36
324.45	1538.02
324.66	1513.45
324.88	1632.23
325.09	1619.94
325.30	1556.46
325.52	1599.46
325.73	1574.89
325.94	1515.50
326.15	1501.16
326.37	1533.93
326.58	1576.94
326.79	1607.66
327.00	1515.50
327.22	1507.30
327.43	1480.68
327.64	1507.30
327.85	1566.70
328.07	1615.85
328.28	1554.41
328.49	1466.35
328.70	1560.55
328.92	1578.98
329.13	1607.66
329.34	1501.16
329.55	1599.46
329.76	1495.02
329.98	1533.93
330.19	1669.09
330.40	1523.69
330.61	1529.83
330.83	1492.97
331.04	1503.21
331.25	1587.18
331.46	1490.92
331.68	1523.69
331.89	1542.12
332.10	1556.46
332.31	1505.26
332.52	1503.21
332.74	1556.46
332.95	1497.07
333.16	1492.97
333.37	1490.92
333.58	1503.21
333.80	1527.78
334.01	1427.43
334.22	1529.83
334.43	1542.12
334.64	1529.83
334.86	1441.77
335.07	1501.16
335.28	1578.98
335.49	1476.59
335.70	1525.74
335.92	1615.85
336.13	1615.85
336.34	1519.59
336.55	1482.73
336.76	1521.64
336.98	1466.35
337.19	1492.97
337.40	1628.14
337.61	1621.99
337.82	1527.78
338.04	1607.66
338.25	1411.05
338.46	1581.03
338.67	1482.73
338.88	1486.83
339.09	1517.54
339.31	1427.43
339.52	1460.20
339.73	1431.53
339.94	1560.55
340.15	1497.07
340.36	1490.92
340.58	1554.41
340.79	1478.63
341.00	1585.13
341.21	1437.67
341.42	1628.14
341.63	1535.98
341.85	1578.98
342.06	1611.75
342.27	1447.91
342.48	1509.35
342.69	1482.73
342.90	1546.22
343.12	1523.69
343.33	1527.78
343.54	1540.07
343.75	1646.57
343.96	1515.50
344.17	1517.54
344.38	1509.35
344.60	1507.30
344.81	1454.06
345.02	1497.07
345.23	1597.42
345.44	1658.85
345.65	1576.94
345.86	1554.41
346.07	1613.80
346.29	1468.39
346.50	1566.70
346.71	1525.74
346.92	1585.13
347.13	1644.52
347.34	1519.59
347.55	1468.39
347.76	1591.27
347.98	1406.95
348.19	1525.74
348.40	1589.22
348.61	1456.11
348.82	1597.42
349.03	1648.61
349.24	1474.54
349.45	1671.14
349.66	1427.43
349.88	1484.78
350.09	1558.50
350.30	1607.66
350.51	1593.32
350.72	1550.31
350.93	1603.56
351.14	1488.87
351.35	1556.46
351.56	1538.02
351.77	1429.48
351.99	1605.61
352.20	1615.85
352.41	1636.33
352.62	1503.21
352.83	1556.46
353.04	1517.54
353.25	1447.91
353.46	1521.64
353.67	1609.70
353.88	1460.20
354.09	1578.98
354.30	1488.87
354.52	1578.98
354.73	1601.51
354.94	1501.16
355.15	1517.54
355.36	1640.42
355.57	1478.63
355.78	1515.50
355.99	1574.89
356.20	1521.64
356.41	1619.94
356.62	1583.08
356.83	1480.68
357.04	1632.23
357.25	1413.10
357.46	1531.88
357.68	1439.72
357.89	1456.11
358.10	1515.50
358.31	1576.94
358.52	1564.65
358.73	1435.63
358.94	1482.73
359.15	1443.82
359.36	1480.68
359.57	1499.11
359.78	1505.26
359.99	1566.70
360.20	1546.22
360.41	1564.65
360.62	1554.41
360.83	1476.59
361.04	1564.65
361.25	1552.36
361.46	1570.79
361.67	1505.26
361.88	1521.64
362.09	1529.83
362.30	1587.18
362.51	1538.02
362.72	1548.26
362.93	1638.38
363.14	1617.90
363.35	1570.79
363.56	1550.31
363.78	1556.46
363.99	1533.93
364.20	1542.12
364.41	1585.13
364.62	1695.72
364.83	1542.12
365.04	1501.16
365.25	1546.22
365.46	1665.00
365.67	1509.35
365.88	1449.96
366.09	1499.11
366.30	1519.59
366.51	1542.12
366.72	1417.19
366.93	1556.46
367.14	1601.51
367.35	1560.55
367.56	1558.50
367.77	1599.46
367.98	1466.35
368.18	1523.69
368.39	1441.77
368.60	1472.49
368.81	1583.08
369.02	1540.07
369.23	1552.36
369.44	1456.11
369.65	1548.26
369.86	1546.22
370.07	1595.37
370.28	1499.11
370.49	1607.66
370.70	1544.17
370.91	1482.73
371.12	1492.97
371.33	1599.46
371.54	1538.02
371.75	1636.33
371.96	1443.82
372.17	1535.98
372.38	1437.67
372.59	1599.46
372.80	1617.90
373.01	1478.63
373.22	1587.18
373.43	1478.63
373.64	1482.73
373.85	1652.71
374.06	1652.71
374.26	1638.38
374.47	1511.40
374.68	1615.85
374.89	1497.07
375.10	1564.65
375.31	1480.68
375.52	1603.56
375.73	1470.44
375.94	1533.93
376.15	1574.89
376.36	1486.83
376.57	1581.03
376.78	1540.07
376.99	1521.64
377.20	1562.60
377.40	1468.39
377.61	1642.47
377.82	1478.63
378.03	1503.21
378.24	1509.35
378.45	1513.45
378.66	1521.64
378.87	1452.01
379.08	1515.50
379.29	1558.50
379.50	1581.03
379.71	1560.55
379.91	1540.07
380.12	1523.69
380.33	1558.50
380.54	1507.30
380.75	1517.54
380.96	1472.49
381.17	1548.26
381.38	1630.18
381.59	1652.71
381.80	1509.35
382.00	1769.44
382.21	1640.42
382.42	1624.04
382.63	1658.85
382.84	1693.67
383.05	1566.70
383.26	1632.23
383.47	1583.08
383.68	1642.47
383.88	1626.09
384.09	1560.55
384.30	1613.80
384.51	1517.54
384.72	1499.11
384.93	1488.87
385.14	1568.74
385.35	1593.32
385.55	1456.11
385.76	1636.33
385.97	1624.04
386.18	1527.78
386.39	1505.26
386.60	1542.12
386.81	1476.59
387.02	1550.31
387.22	1490.92
387.43	1650.66
387.64	1677.29
387.85	1875.94
388.06	3133.39
388.27	7264.15
388.48	10594.14
388.68	12416.83
388.89	13836.08
389.10	12699.45
389.31	10227.56
389.52	8777.59
389.73	7694.22
389.93	7233.43
390.14	6725.53
390.35	6010.79
390.56	5513.13
390.77	4745.14
390.98	3614.66
391.18	2846.68
391.39	2191.33
391.60	1796.07
391.81	1746.92
392.02	1570.79
392.23	1683.43
392.43	1617.90
392.64	1615.85
392.85	1595.37
393.06	1554.41
393.27	1560.55
393.47	1533.93
393.68	1597.42
393.89	1531.88
394.10	1624.04
394.31	1585.13
394.52	1566.70
394.72	1525.74
394.93	1611.75
395.14	1525.74
395.35	1562.60
395.56	1503.21
395.76	1585.13
395.97	1771.49
396.18	1716.20
396.39	1757.16
396.60	1849.32
396.80	1761.25
397.01	1646.57
397.22	1648.61
397.43	1687.53
397.64	1566.70
397.84	1665.00
398.05	1781.73
398.26	1642.47
398.47	1564.65
398.67	1609.70
398.88	1578.98
399.09	1542.12
399.30	1505.26
399.51	1593.32
399.71	1509.35
399.92	1548.26
400.13	1521.64
400.34	1566.70
400.54	1636.33
400.75	1665.00
400.96	1515.50
401.17	1642.47
401.37	1589.22
401.58	1488.87
401.79	1544.17
402.00	1779.68
402.21	1988.58
402.41	1931.23
402.62	2000.87
402.83	1949.67
403.04	1824.74
403.24	1877.99
403.45	1695.72
403.66	1759.21
403.87	1748.97
404.07	1746.92
404.28	1718.25
404.49	1787.88
404.70	1640.42
404.90	1656.81
405.11	1595.37
405.32	1701.86
405.52	1497.07
405.73	1566.70
405.94	1468.39
406.15	1529.83
406.35	1578.98
406.56	1542.12
406.77	1517.54
406.98	1560.55
407.18	1503.21
407.39	1675.24
407.60	1482.73
407.80	1538.02
408.01	1544.17
408.22	1550.31
408.43	1523.69
408.63	1544.17
408.84	1576.94
409.05	1538.02
409.25	1435.63
409.46	1476.59
409.67	1503.21
409.88	1560.55
410.08	1593.32
410.29	1454.06
410.50	1552.36
410.70	1519.59
410.91	1507.30
411.12	1554.41
411.32	1558.50
411.53	1558.50
411.74	1671.14
411.95	1650.66
412.15	1636.33
412.36	1574.89
412.57	1593.32
412.77	1574.89
412.98	1601.51
413.19	1531.88
413.39	1572.84
413.60	1583.08
413.81	1599.46
414.01	1527.78
414.22	1533.93
414.43	1503.21
414.63	1562.60
414.84	1542.12
415.05	1544.17
415.25	1525.74
415.46	1503.21
415.67	1576.94
415.87	1574.89
416.08	1540.07
416.29	1527.78
416.49	1609.70
416.70	1527.78
416.91	1546.22
417.11	1447.91
417.32	1509.35
417.53	1587.18
417.73	1505.26
417.94	1495.02
418.15	1578.98
418.35	1560.55
418.56	1497.07
418.77	1671.14
418.97	1558.50
419.18	1531.88
419.38	1447.91
419.59	1533.93
419.80	1542.12
420.00	1452.01
420.21	1501.16
420.42	1538.02
420.62	1497.07
420.83	1572.84
421.04	1607.66
421.24	1554.41
421.45	1578.98
421.65	1560.55
421.86	1552.36
422.07	1548.26
422.27	1564.65
422.48	1527.78
422.69	1468.39
422.89	1466.35
423.10	1499.11
423.30	1480.68
423.51	1525.74
423.72	1568.74
423.92	1601.51
424.13	1456.11
424.33	1544.17
424.54	1587.18
424.75	1542.12
424.95	1757.16
425.16	1617.90
425.36	1546.22
425.57	1540.07
425.78	1540.07
425.98	1591.27
426.19	1499.11
426.39	1439.72
426.60	1585.13
426.81	1638.38
427.01	1474.54
427.22	1511.40
427.42	1462.25
427.63	1511.40
427.83	1609.70
428.04	1578.98
428.25	1544.17
428.45	1617.90
428.66	1591.27
428.86	1556.46
429.07	1517.54
429.28	1544.17
429.48	1517.54
429.69	1429.48
429.89	1570.79
430.10	1525.74
430.30	1513.45
430.51	1595.37
430.71	1535.98
430.92	1521.64
431.13	1564.65
431.33	1656.81
431.54	1572.84
431.74	1626.09
431.95	1564.65
432.15	1460.20
432.36	1564.65
432.56	1574.89
432.77	1621.99
432.98	1560.55
433.18	1501.16
433.39	1583.08
433.59	1505.26
433.80	1601.51
434.00	1605.61
434.21	1486.83
434.41	1423.34
434.62	1636.33
434.82	1466.35
435.03	1449.96
435.23	1540.07
435.44	1456.11
435.64	1552.36
435.85	1535.98
436.06	1490.92
436.26	1562.60
436.47	1501.16
436.67	1470.44
436.88	1435.63
437.08	1632.23
437.29	1593.32
437.49	1562.60
437.70	1619.94
437.90	1529.83
438.11	1703.91
438.31	1648.61
438.52	1728.49
438.72	1689.57
438.93	1703.91
439.13	1685.48
439.34	1632.23
439.54	1601.51
439.75	1609.70
439.95	1613.80
440.16	1574.89
440.36	1626.09
440.57	1558.50
440.77	1525.74
440.98	1599.46
441.18	1595.37
441.39	1527.78
441.59	1411.05
441.80	1562.60
442.00	1464.30
442.21	1617.90
442.41	1550.31
442.62	1597.42
442.82	1566.70
443.02	1517.54
443.23	1581.03
443.43	1501.16
443.64	1644.52
443.84	1566.70
444.05	1636.33
444.25	1562.60
444.46	1513.45
444.66	1601.51
444.87	1564.65
445.07	1396.71
445.28	1548.26
445.48	1662.95
445.69	1548.26
445.89	1689.57
446.09	1599.46
446.30	2019.30
446.50	3084.24
446.71	4345.79
446.91	5287.86
447.12	5683.11
447.32	5715.88
447.53	4595.64
447.73	3934.15
447.93	3651.53
448.14	3366.86
448.34	3188.69
448.55	2869.20
448.75	3000.27
448.96	2770.90
449.16	2410.46
449.36	2256.86
449.57	2082.78
449.77	1708.01
449.98	1630.18
450.18	1626.09
450.39	1542.12
450.59	1574.89
450.79	1576.94
451.00	1572.84
451.20	1636.33
451.41	1566.70
451.61	1562.60
451.81	1544.17
452.02	1495.02
452.22	1511.40
452.43	1574.89
452.63	1484.78
