SpectraSuite Data File
++++++++++++++++++++++++++++++++++++
Date: Tue May 03 12:55:21 CEST 2016
User: root
Dark Spectrum Present: No
Reference Spectrum Present: No
Number of Sampled Component Spectra: 1
Spectrometers: USB4C02835
Integration Time (usec): 100000 (USB4C02835)
Spectra Averaged: 1 (USB4C02835)
Boxcar Smoothing: 0 (USB4C02835)
Correct for Electrical Dark: No (USB4C02835)
Strobe/Lamp Enabled: No (USB4C02835)
Correct for Detector Non-linearity: No (USB4C02835)
Correct for Stray Light: No (USB4C02835)
Number of Pixels in Processed Spectrum: 3648
>>>>>Begin Processed Spectral Data<<<<<
177.47	1271.79
177.69	1271.79
177.91	1271.79
178.13	1345.52
178.36	1370.09
178.58	1492.97
178.80	1488.87
179.02	1492.97
179.24	1605.61
179.46	1507.30
179.68	1679.33
179.90	1576.94
180.13	1538.02
180.35	1441.77
180.57	1531.88
180.79	1533.93
181.01	1519.59
181.23	1632.23
181.45	1544.17
181.67	1595.37
181.90	1484.78
182.12	1523.69
182.34	1472.49
182.56	1552.36
182.78	1642.47
183.00	1591.27
183.22	1464.30
183.44	1454.06
183.66	1630.18
183.89	1562.60
184.11	1558.50
184.33	1552.36
184.55	1548.26
184.77	1630.18
184.99	1533.93
185.21	1513.45
185.43	1658.85
185.65	1443.82
185.87	1605.61
186.10	1665.00
186.32	1675.24
186.54	1527.78
186.76	1578.98
186.98	1544.17
187.20	1556.46
187.42	1472.49
187.64	1535.98
187.86	1488.87
188.08	1646.57
188.30	1503.21
188.52	1533.93
188.75	1576.94
188.97	1632.23
189.19	1474.54
189.41	1527.78
189.63	1576.94
189.85	1533.93
190.07	1458.15
190.29	1503.21
190.51	1529.83
190.73	1527.78
190.95	1609.70
191.17	1564.65
191.39	1478.63
191.61	1490.92
191.84	1538.02
192.06	1552.36
192.28	1456.11
192.50	1638.38
192.72	1540.07
192.94	1525.74
193.16	1603.56
193.38	1593.32
193.60	1527.78
193.82	1527.78
194.04	1572.84
194.26	1601.51
194.48	1548.26
194.70	1507.30
194.92	1531.88
195.14	1527.78
195.36	1507.30
195.58	1560.55
195.80	1488.87
196.02	1486.83
196.24	1492.97
196.46	1550.31
196.69	1548.26
196.91	1683.43
197.13	1468.39
197.35	1488.87
197.57	1570.79
197.79	1490.92
198.01	1490.92
198.23	1527.78
198.45	1624.04
198.67	1468.39
198.89	1554.41
199.11	1492.97
199.33	1488.87
199.55	1517.54
199.77	1527.78
199.99	1535.98
200.21	1597.42
200.43	1542.12
200.65	1486.83
200.87	1488.87
201.09	1439.72
201.31	1529.83
201.53	1609.70
201.75	1591.27
201.97	1585.13
202.19	1609.70
202.41	1513.45
202.63	1605.61
202.85	1525.74
203.07	1538.02
203.29	1593.32
203.51	1492.97
203.73	1497.07
203.95	1732.58
204.17	1587.18
204.39	1566.70
204.61	1503.21
204.83	1535.98
205.05	1597.42
205.27	1552.36
205.49	1697.77
205.71	1527.78
205.93	1470.44
206.15	1492.97
206.37	1531.88
206.59	1482.73
206.81	1613.80
207.03	1509.35
207.25	1495.02
207.47	1564.65
207.69	1574.89
207.91	1538.02
208.13	1574.89
208.34	1564.65
208.56	1445.87
208.78	1470.44
209.00	1513.45
209.22	1474.54
209.44	1513.45
209.66	1560.55
209.88	1527.78
210.10	1511.40
210.32	1519.59
210.54	1523.69
210.76	1525.74
210.98	1589.22
211.20	1423.34
211.42	1492.97
211.64	1585.13
211.86	1642.47
212.08	1572.84
212.30	1462.25
212.52	1452.01
212.74	1521.64
212.96	1544.17
213.17	1531.88
213.39	1601.51
213.61	1587.18
213.83	1576.94
214.05	1476.59
214.27	1527.78
214.49	1429.48
214.71	1476.59
214.93	1585.13
215.15	1535.98
215.37	1554.41
215.59	1470.44
215.81	1538.02
216.03	1591.27
216.24	1558.50
216.46	1509.35
216.68	1533.93
216.90	1646.57
217.12	1609.70
217.34	1535.98
217.56	1542.12
217.78	1599.46
218.00	1503.21
218.22	1466.35
218.44	1460.20
218.66	1517.54
218.87	1599.46
219.09	1542.12
219.31	1593.32
219.53	1533.93
219.75	1517.54
219.97	1525.74
220.19	1550.31
220.41	1558.50
220.63	1546.22
220.85	1593.32
221.06	1558.50
221.28	1603.56
221.50	1587.18
221.72	1515.50
221.94	1613.80
222.16	1540.07
222.38	1583.08
222.60	1570.79
222.82	1474.54
223.03	1570.79
223.25	1474.54
223.47	1552.36
223.69	1687.53
223.91	1556.46
224.13	1521.64
224.35	1548.26
224.57	1519.59
224.78	1576.94
225.00	1505.26
225.22	1540.07
225.44	1544.17
225.66	1480.68
225.88	1523.69
226.10	1638.38
226.32	1599.46
226.53	1636.33
226.75	1452.01
226.97	1560.55
227.19	1488.87
227.41	1529.83
227.63	1447.91
227.85	1523.69
228.06	1523.69
228.28	1503.21
228.50	1593.32
228.72	1527.78
228.94	1540.07
229.16	1488.87
229.37	1484.78
229.59	1480.68
229.81	1632.23
230.03	1505.26
230.25	1488.87
230.47	1517.54
230.69	1538.02
230.90	1540.07
231.12	1437.67
231.34	1562.60
231.56	1591.27
231.78	1554.41
232.00	1581.03
232.21	1492.97
232.43	1515.50
232.65	1486.83
232.87	1527.78
233.09	1593.32
233.30	1544.17
233.52	1529.83
233.74	1591.27
233.96	1538.02
234.18	1523.69
234.40	1525.74
234.61	1593.32
234.83	1564.65
235.05	1460.20
235.27	1601.51
235.49	1656.81
235.70	1538.02
235.92	1679.33
236.14	1558.50
236.36	1581.03
236.58	1400.81
236.79	1546.22
237.01	1665.00
237.23	1466.35
237.45	1689.57
237.67	1566.70
237.88	1538.02
238.10	1673.19
238.32	1546.22
238.54	1488.87
238.76	1509.35
238.97	1509.35
239.19	1525.74
239.41	1574.89
239.63	1628.14
239.85	1456.11
240.06	1558.50
240.28	1486.83
240.50	1542.12
240.72	1556.46
240.93	1513.45
241.15	1599.46
241.37	1558.50
241.59	1630.18
241.81	1476.59
242.02	1503.21
242.24	1548.26
242.46	1544.17
242.68	1482.73
242.89	1632.23
243.11	1535.98
243.33	1501.16
243.55	1640.42
243.76	1540.07
243.98	1505.26
244.20	1630.18
244.42	1609.70
244.64	1533.93
244.85	1501.16
245.07	1468.39
245.29	1564.65
245.51	1552.36
245.72	1535.98
245.94	1589.22
246.16	1486.83
246.38	1552.36
246.59	1486.83
246.81	1470.44
247.03	1576.94
247.24	1456.11
247.46	1505.26
247.68	1497.07
247.90	1544.17
248.11	1548.26
248.33	1456.11
248.55	1480.68
248.77	1468.39
248.98	1578.98
249.20	1601.51
249.42	1538.02
249.64	1593.32
249.85	1583.08
250.07	1552.36
250.29	1560.55
250.50	1578.98
250.72	1525.74
250.94	1447.91
251.16	1624.04
251.37	1542.12
251.59	1558.50
251.81	1634.28
252.02	1632.23
252.24	1587.18
252.46	1634.28
252.68	1495.02
252.89	1550.31
253.11	1447.91
253.33	1654.76
253.54	1589.22
253.76	1523.69
253.98	1503.21
254.20	1525.74
254.41	1433.58
254.63	1490.92
254.85	1535.98
255.06	1533.93
255.28	1554.41
255.50	1562.60
255.71	1488.87
255.93	1544.17
256.15	1509.35
256.36	1583.08
256.58	1558.50
256.80	1527.78
257.02	1464.30
257.23	1558.50
257.45	1603.56
257.67	1574.89
257.88	1533.93
258.10	1554.41
258.32	1529.83
258.53	1535.98
258.75	1570.79
258.97	1486.83
259.18	1521.64
259.40	1542.12
259.62	1628.14
259.83	1556.46
260.05	1607.66
260.27	1748.97
260.48	1503.21
260.70	1482.73
260.92	1511.40
261.13	1568.74
261.35	1511.40
261.57	1529.83
261.78	1449.96
262.00	1533.93
262.22	1570.79
262.43	1564.65
262.65	1495.02
262.86	1521.64
263.08	1535.98
263.30	1591.27
263.51	1478.63
263.73	1503.21
263.95	1578.98
264.16	1452.01
264.38	1570.79
264.60	1515.50
264.81	1519.59
265.03	1566.70
265.25	1552.36
265.46	1462.25
265.68	1447.91
265.89	1511.40
266.11	1499.11
266.33	1515.50
266.54	1595.37
266.76	1507.30
266.98	1574.89
267.19	1599.46
267.41	1578.98
267.62	1523.69
267.84	1501.16
268.06	1546.22
268.27	1478.63
268.49	1550.31
268.70	1595.37
268.92	1570.79
269.14	1445.87
269.35	1470.44
269.57	1587.18
269.79	1544.17
270.00	1472.49
270.22	1585.13
270.43	1474.54
270.65	1394.67
270.87	1497.07
271.08	1578.98
271.30	1529.83
271.51	1517.54
271.73	1511.40
271.95	1486.83
272.16	1595.37
272.38	1560.55
272.59	1474.54
272.81	1535.98
273.02	1585.13
273.24	1550.31
273.46	1585.13
273.67	1533.93
273.89	1501.16
274.10	1478.63
274.32	1556.46
274.54	1515.50
274.75	1525.74
274.97	1501.16
275.18	1548.26
275.40	1617.90
275.61	1533.93
275.83	1527.78
276.05	1609.70
276.26	1521.64
276.48	1603.56
276.69	1550.31
276.91	1599.46
277.12	1656.81
277.34	1605.61
277.55	1589.22
277.77	1531.88
277.99	1501.16
278.20	1447.91
278.42	1478.63
278.63	1527.78
278.85	1558.50
279.06	1497.07
279.28	1576.94
279.49	1497.07
279.71	1642.47
279.93	1501.16
280.14	1593.32
280.36	1533.93
280.57	1570.79
280.79	1548.26
281.00	1505.26
281.22	1466.35
281.43	1619.94
281.65	1468.39
281.86	1484.78
282.08	1519.59
282.29	1652.71
282.51	1503.21
282.73	1497.07
282.94	1394.67
283.16	1542.12
283.37	1677.29
283.59	1646.57
283.80	1564.65
284.02	1593.32
284.23	1542.12
284.45	1513.45
284.66	1482.73
284.88	1470.44
285.09	1581.03
285.31	1615.85
285.52	1585.13
285.74	1486.83
285.95	1581.03
286.17	1484.78
286.38	1523.69
286.60	1478.63
286.81	1474.54
287.03	1544.17
287.24	1535.98
287.46	1476.59
287.67	1521.64
287.89	1617.90
288.10	1568.74
288.32	1587.18
288.53	1630.18
288.75	1531.88
288.96	1531.88
289.18	1472.49
289.39	1507.30
289.61	1648.61
289.82	1621.99
290.04	1656.81
290.25	1550.31
290.47	1548.26
290.68	1517.54
290.90	1630.18
291.11	1472.49
291.33	1533.93
291.54	1478.63
291.76	1490.92
291.97	1517.54
292.18	1587.18
292.40	1445.87
292.61	1517.54
292.83	1542.12
293.04	1574.89
293.26	1568.74
293.47	1519.59
293.69	1503.21
293.90	1492.97
294.12	1583.08
294.33	1550.31
294.55	1656.81
294.76	1511.40
294.97	1529.83
295.19	1650.66
295.40	1562.60
295.62	1564.65
295.83	1576.94
296.05	1419.24
296.26	1562.60
296.48	1540.07
296.69	1542.12
296.90	1468.39
297.12	1574.89
297.33	1632.23
297.55	1548.26
297.76	1542.12
297.98	1556.46
298.19	1538.02
298.41	1568.74
298.62	1486.83
298.83	1609.70
299.05	1529.83
299.26	1531.88
299.48	1531.88
299.69	1562.60
299.90	1607.66
300.12	1464.30
300.33	1589.22
300.55	1599.46
300.76	1593.32
300.98	1482.73
301.19	1595.37
301.40	1548.26
301.62	1501.16
301.83	1529.83
302.05	1581.03
302.26	1509.35
302.47	1523.69
302.69	1431.53
302.90	1560.55
303.12	1544.17
303.33	1591.27
303.54	1521.64
303.76	1529.83
303.97	1572.84
304.19	1599.46
304.40	1519.59
304.61	1587.18
304.83	1656.81
305.04	1511.40
305.26	1576.94
305.47	1468.39
305.68	1538.02
305.90	1398.76
306.11	1564.65
306.33	1511.40
306.54	1388.52
306.75	1517.54
306.97	1533.93
307.18	1529.83
307.39	1492.97
307.61	1591.27
307.82	1499.11
308.04	1538.02
308.25	1511.40
308.46	1513.45
308.68	1533.93
308.89	1540.07
309.10	1548.26
309.32	1609.70
309.53	1544.17
309.74	1556.46
309.96	1544.17
310.17	1587.18
310.39	1507.30
310.60	1544.17
310.81	1533.93
311.03	1484.78
311.24	1554.41
311.45	1535.98
311.67	1617.90
311.88	1509.35
312.09	1540.07
312.31	1636.33
312.52	1525.74
312.73	1548.26
312.95	1447.91
313.16	1517.54
313.37	1665.00
313.59	1560.55
313.80	1585.13
314.01	1669.09
314.23	1548.26
314.44	1521.64
314.65	1443.82
314.87	1523.69
315.08	1517.54
315.29	1476.59
315.51	1542.12
315.72	1437.67
315.93	1662.95
316.15	1660.90
316.36	1501.16
316.57	1527.78
316.79	1607.66
317.00	1509.35
317.21	1540.07
317.43	1423.34
317.64	1488.87
317.85	1492.97
318.07	1503.21
318.28	1595.37
318.49	1753.06
318.70	1808.36
318.92	1671.14
319.13	1636.33
319.34	1673.19
319.56	1619.94
319.77	1636.33
319.98	1632.23
320.20	1578.98
320.41	1626.09
320.62	1591.27
320.83	1533.93
321.05	1626.09
321.26	1591.27
321.47	1585.13
321.69	1607.66
321.90	1517.54
322.11	1538.02
322.32	1523.69
322.54	1564.65
322.75	1591.27
322.96	1654.76
323.18	1439.72
323.39	1501.16
323.60	1476.59
323.81	1546.22
324.03	1476.59
324.24	1503.21
324.45	1576.94
324.66	1515.50
324.88	1595.37
325.09	1669.09
325.30	1603.56
325.52	1564.65
325.73	1603.56
325.94	1464.30
326.15	1390.57
326.37	1466.35
326.58	1626.09
326.79	1589.22
327.00	1523.69
327.22	1501.16
327.43	1470.44
327.64	1484.78
327.85	1533.93
328.07	1572.84
328.28	1544.17
328.49	1521.64
328.70	1550.31
328.92	1585.13
329.13	1548.26
329.34	1589.22
329.55	1636.33
329.76	1599.46
329.98	1517.54
330.19	1589.22
330.40	1495.02
330.61	1585.13
330.83	1624.04
331.04	1499.11
331.25	1546.22
331.46	1462.25
331.68	1456.11
331.89	1497.07
332.10	1558.50
332.31	1486.83
332.52	1507.30
332.74	1603.56
332.95	1478.63
333.16	1470.44
333.37	1552.36
333.58	1511.40
333.80	1550.31
334.01	1488.87
334.22	1523.69
334.43	1525.74
334.64	1525.74
334.86	1505.26
335.07	1468.39
335.28	1488.87
335.49	1515.50
335.70	1574.89
335.92	1589.22
336.13	1630.18
336.34	1519.59
336.55	1566.70
336.76	1572.84
336.98	1445.87
337.19	1501.16
337.40	1607.66
337.61	1648.61
337.82	1533.93
338.04	1533.93
338.25	1544.17
338.46	1519.59
338.67	1560.55
338.88	1492.97
339.09	1509.35
339.31	1488.87
339.52	1533.93
339.73	1492.97
339.94	1581.03
340.15	1632.23
340.36	1396.71
340.58	1548.26
340.79	1443.82
341.00	1513.45
341.21	1372.14
341.42	1554.41
341.63	1554.41
341.85	1558.50
342.06	1548.26
342.27	1478.63
342.48	1613.80
342.69	1427.43
342.90	1470.44
343.12	1568.74
343.33	1517.54
343.54	1611.75
343.75	1640.42
343.96	1503.21
344.17	1429.48
344.38	1413.10
344.60	1449.96
344.81	1533.93
345.02	1511.40
345.23	1538.02
345.44	1632.23
345.65	1544.17
345.86	1511.40
346.07	1490.92
346.29	1470.44
346.50	1556.46
346.71	1583.08
346.92	1585.13
347.13	1716.20
347.34	1560.55
347.55	1533.93
347.76	1597.42
347.98	1501.16
348.19	1554.41
348.40	1589.22
348.61	1503.21
348.82	1546.22
349.03	1632.23
349.24	1538.02
349.45	1574.89
349.66	1443.82
349.88	1583.08
350.09	1478.63
350.30	1621.99
350.51	1654.76
350.72	1525.74
350.93	1574.89
351.14	1523.69
351.35	1560.55
351.56	1538.02
351.77	1503.21
351.99	1517.54
352.20	1714.15
352.41	1587.18
352.62	1486.83
352.83	1517.54
353.04	1519.59
353.25	1488.87
353.46	1525.74
353.67	1665.00
353.88	1431.53
354.09	1542.12
354.30	1628.14
354.52	1624.04
354.73	1566.70
354.94	1486.83
355.15	1497.07
355.36	1566.70
355.57	1525.74
355.78	1562.60
355.99	1454.06
356.20	1558.50
356.41	1585.13
356.62	1566.70
356.83	1527.78
357.04	1587.18
357.25	1447.91
357.46	1445.87
357.68	1456.11
357.89	1497.07
358.10	1556.46
358.31	1470.44
358.52	1490.92
358.73	1484.78
358.94	1521.64
359.15	1470.44
359.36	1560.55
359.57	1595.37
359.78	1521.64
359.99	1554.41
360.20	1468.39
360.41	1552.36
360.62	1529.83
360.83	1605.61
361.04	1574.89
361.25	1570.79
361.46	1619.94
361.67	1556.46
361.88	1511.40
362.09	1581.03
362.30	1581.03
362.51	1492.97
362.72	1468.39
362.93	1603.56
363.14	1601.51
363.35	1634.28
363.56	1456.11
363.78	1492.97
363.99	1591.27
364.20	1511.40
364.41	1556.46
364.62	1544.17
364.83	1581.03
365.04	1443.82
365.25	1468.39
365.46	1585.13
365.67	1495.02
365.88	1497.07
366.09	1486.83
366.30	1574.89
366.51	1511.40
366.72	1470.44
366.93	1531.88
367.14	1478.63
367.35	1544.17
367.56	1521.64
367.77	1617.90
367.98	1499.11
368.18	1552.36
368.39	1511.40
368.60	1533.93
368.81	1546.22
369.02	1554.41
369.23	1484.78
369.44	1429.48
369.65	1507.30
369.86	1566.70
370.07	1550.31
370.28	1484.78
370.49	1538.02
370.70	1556.46
370.91	1499.11
371.12	1538.02
371.33	1576.94
371.54	1474.54
371.75	1578.98
371.96	1472.49
372.17	1540.07
372.38	1546.22
372.59	1562.60
372.80	1468.39
373.01	1542.12
373.22	1538.02
373.43	1515.50
373.64	1619.94
373.85	1550.31
374.06	1609.70
374.26	1554.41
374.47	1521.64
374.68	1652.71
374.89	1544.17
375.10	1497.07
375.31	1531.88
375.52	1576.94
375.73	1492.97
375.94	1478.63
376.15	1593.32
376.36	1492.97
376.57	1552.36
376.78	1523.69
376.99	1591.27
377.20	1693.67
377.40	1464.30
377.61	1589.22
377.82	1566.70
378.03	1589.22
378.24	1626.09
378.45	1503.21
378.66	1538.02
378.87	1409.00
379.08	1411.05
379.29	1552.36
379.50	1593.32
379.71	1542.12
379.91	1583.08
380.12	1507.30
380.33	1523.69
380.54	1544.17
380.75	1591.27
380.96	1546.22
381.17	1589.22
381.38	1548.26
381.59	1654.76
381.80	1603.56
382.00	1660.90
382.21	1595.37
382.42	1730.53
382.63	1685.48
382.84	1699.81
383.05	1597.42
383.26	1689.57
383.47	1509.35
383.68	1591.27
383.88	1615.85
384.09	1560.55
384.30	1685.48
384.51	1527.78
384.72	1560.55
384.93	1525.74
385.14	1617.90
385.35	1558.50
385.55	1449.96
385.76	1574.89
385.97	1540.07
386.18	1587.18
386.39	1542.12
386.60	1574.89
386.81	1574.89
387.02	1505.26
387.22	1480.68
387.43	1581.03
387.64	1665.00
387.85	1855.46
388.06	3229.65
388.27	7229.33
388.48	10360.67
388.68	12654.40
388.89	13858.60
389.10	12805.95
389.31	10162.02
389.52	8894.33
389.73	7892.87
389.93	7235.47
390.14	6793.11
390.35	6178.72
390.56	5615.53
390.77	4673.46
390.98	3612.62
391.18	2799.57
391.39	2162.66
391.60	1779.68
391.81	1669.09
392.02	1617.90
392.23	1693.67
392.43	1581.03
392.64	1636.33
392.85	1476.59
393.06	1624.04
393.27	1562.60
393.47	1511.40
393.68	1601.51
393.89	1523.69
394.10	1638.38
394.31	1505.26
394.52	1538.02
394.72	1507.30
394.93	1619.94
395.14	1464.30
395.35	1529.83
395.56	1474.54
395.76	1658.85
395.97	1646.57
396.18	1738.73
396.39	1703.91
396.60	1869.80
396.80	1734.63
397.01	1660.90
397.22	1675.24
397.43	1720.29
397.64	1564.65
397.84	1632.23
398.05	1744.87
398.26	1644.52
398.47	1574.89
398.67	1599.46
398.88	1550.31
399.09	1638.38
399.30	1488.87
399.51	1564.65
399.71	1454.06
399.92	1525.74
400.13	1572.84
400.34	1607.66
400.54	1476.59
400.75	1568.74
400.96	1521.64
401.17	1607.66
401.37	1599.46
401.58	1605.61
401.79	1648.61
402.00	1834.98
402.21	1992.67
402.41	1890.28
402.62	1951.71
402.83	1920.99
403.04	1830.88
403.24	1890.28
403.45	1703.91
403.66	1753.06
403.87	1722.34
404.07	1689.57
404.28	1812.45
404.49	1734.63
404.70	1708.01
404.90	1675.24
405.11	1597.42
405.32	1632.23
405.52	1492.97
405.73	1546.22
405.94	1550.31
406.15	1531.88
406.35	1601.51
406.56	1521.64
406.77	1632.23
406.98	1599.46
407.18	1513.45
407.39	1566.70
407.60	1552.36
407.80	1560.55
408.01	1535.98
408.22	1597.42
408.43	1540.07
408.63	1619.94
408.84	1515.50
409.05	1591.27
409.25	1533.93
409.46	1585.13
409.67	1548.26
409.88	1507.30
410.08	1613.80
410.29	1513.45
410.50	1621.99
410.70	1540.07
410.91	1513.45
411.12	1564.65
411.32	1517.54
411.53	1583.08
411.74	1703.91
411.95	1626.09
412.15	1648.61
412.36	1583.08
412.57	1601.51
412.77	1658.85
412.98	1499.11
413.19	1523.69
413.39	1570.79
413.60	1626.09
413.81	1578.98
414.01	1544.17
414.22	1550.31
414.43	1601.51
414.63	1480.68
414.84	1578.98
415.05	1630.18
415.25	1574.89
415.46	1542.12
415.67	1552.36
415.87	1556.46
416.08	1562.60
416.29	1574.89
416.49	1646.57
416.70	1525.74
416.91	1503.21
417.11	1497.07
417.32	1558.50
417.53	1572.84
417.73	1589.22
417.94	1621.99
418.15	1478.63
418.35	1519.59
418.56	1529.83
418.77	1683.43
418.97	1593.32
419.18	1562.60
419.38	1427.43
419.59	1472.49
419.80	1632.23
420.00	1503.21
420.21	1556.46
420.42	1507.30
420.62	1613.80
420.83	1505.26
421.04	1517.54
421.24	1607.66
421.45	1497.07
421.65	1603.56
421.86	1558.50
422.07	1525.74
422.27	1568.74
422.48	1544.17
422.69	1523.69
422.89	1544.17
423.10	1495.02
423.30	1490.92
423.51	1548.26
423.72	1531.88
423.92	1566.70
424.13	1499.11
424.33	1497.07
424.54	1613.80
424.75	1566.70
424.95	1650.66
425.16	1548.26
425.36	1478.63
425.57	1607.66
425.78	1562.60
425.98	1546.22
426.19	1538.02
426.39	1533.93
426.60	1564.65
426.81	1646.57
427.01	1581.03
427.22	1560.55
427.42	1490.92
427.63	1474.54
427.83	1564.65
428.04	1548.26
428.25	1662.95
428.45	1542.12
428.66	1566.70
428.86	1560.55
429.07	1591.27
429.28	1517.54
429.48	1501.16
429.69	1542.12
429.89	1505.26
430.10	1478.63
430.30	1505.26
430.51	1605.61
430.71	1501.16
430.92	1535.98
431.13	1513.45
431.33	1552.36
431.54	1593.32
431.74	1589.22
431.95	1644.52
432.15	1474.54
432.36	1513.45
432.56	1560.55
432.77	1628.14
432.98	1621.99
433.18	1570.79
433.39	1503.21
433.59	1558.50
433.80	1665.00
434.00	1570.79
434.21	1472.49
434.41	1558.50
434.62	1597.42
434.82	1484.78
435.03	1505.26
435.23	1552.36
435.44	1476.59
435.64	1572.84
435.85	1544.17
436.06	1583.08
436.26	1611.75
436.47	1552.36
436.67	1562.60
436.88	1546.22
437.08	1587.18
437.29	1611.75
437.49	1544.17
437.70	1570.79
437.90	1570.79
438.11	1613.80
438.31	1626.09
438.52	1726.44
438.72	1689.57
438.93	1736.68
439.13	1697.77
439.34	1634.28
439.54	1681.38
439.75	1699.81
439.95	1595.37
440.16	1599.46
440.36	1665.00
440.57	1607.66
440.77	1564.65
440.98	1519.59
441.18	1548.26
441.39	1470.44
441.59	1468.39
441.80	1599.46
442.00	1527.78
442.21	1564.65
442.41	1499.11
442.62	1656.81
442.82	1495.02
443.02	1630.18
443.23	1595.37
443.43	1507.30
443.64	1632.23
443.84	1583.08
444.05	1546.22
444.25	1540.07
444.46	1515.50
444.66	1572.84
444.87	1654.76
445.07	1390.57
445.28	1583.08
445.48	1673.19
445.69	1552.36
445.89	1607.66
446.09	1564.65
446.30	2080.74
446.50	3133.39
446.71	4511.68
446.91	5328.81
447.12	5859.24
447.32	5689.26
447.53	4732.86
447.73	4036.55
447.93	3559.37
448.14	3389.39
448.34	3174.35
448.55	2949.08
448.75	2832.34
448.96	2813.91
449.16	2430.94
449.36	2174.94
449.57	2039.78
449.77	1779.68
449.98	1654.76
450.18	1644.52
450.39	1624.04
450.59	1568.74
450.79	1535.98
451.00	1525.74
451.20	1632.23
451.41	1552.36
451.61	1587.18
451.81	1509.35
452.02	1515.50
452.22	1609.70
452.43	1533.93
452.63	1507.30
