SpectraSuite Data File
++++++++++++++++++++++++++++++++++++
Date: Tue May 03 12:55:27 CEST 2016
User: root
Dark Spectrum Present: No
Reference Spectrum Present: No
Number of Sampled Component Spectra: 1
Spectrometers: USB4C02835
Integration Time (usec): 100000 (USB4C02835)
Spectra Averaged: 1 (USB4C02835)
Boxcar Smoothing: 0 (USB4C02835)
Correct for Electrical Dark: No (USB4C02835)
Strobe/Lamp Enabled: No (USB4C02835)
Correct for Detector Non-linearity: No (USB4C02835)
Correct for Stray Light: No (USB4C02835)
Number of Pixels in Processed Spectrum: 3648
>>>>>Begin Processed Spectral Data<<<<<
177.47	1267.69
177.69	1267.69
177.91	1267.69
178.13	1357.80
178.36	1355.76
178.58	1499.11
178.80	1656.81
179.02	1460.20
179.24	1474.54
179.46	1501.16
179.68	1593.32
179.90	1499.11
180.13	1628.14
180.35	1527.78
180.57	1595.37
180.79	1533.93
181.01	1499.11
181.23	1632.23
181.45	1658.85
181.67	1552.36
181.90	1601.51
182.12	1533.93
182.34	1406.95
182.56	1519.59
182.78	1566.70
183.00	1613.80
183.22	1550.31
183.44	1476.59
183.66	1671.14
183.89	1638.38
184.11	1519.59
184.33	1468.39
184.55	1611.75
184.77	1564.65
184.99	1576.94
185.21	1513.45
185.43	1634.28
185.65	1464.30
185.87	1603.56
186.10	1648.61
186.32	1640.42
186.54	1564.65
186.76	1583.08
186.98	1595.37
187.20	1511.40
187.42	1490.92
187.64	1540.07
187.86	1478.63
188.08	1560.55
188.30	1513.45
188.52	1513.45
188.75	1603.56
188.97	1607.66
189.19	1501.16
189.41	1535.98
189.63	1550.31
189.85	1568.74
190.07	1540.07
190.29	1492.97
190.51	1544.17
190.73	1423.34
190.95	1650.66
191.17	1546.22
191.39	1411.05
191.61	1468.39
191.84	1490.92
192.06	1617.90
192.28	1507.30
192.50	1677.29
192.72	1558.50
192.94	1433.58
193.16	1601.51
193.38	1593.32
193.60	1507.30
193.82	1495.02
194.04	1570.79
194.26	1476.59
194.48	1497.07
194.70	1482.73
194.92	1535.98
195.14	1562.60
195.36	1533.93
195.58	1525.74
195.80	1546.22
196.02	1480.68
196.24	1544.17
196.46	1556.46
196.69	1533.93
196.91	1689.57
197.13	1546.22
197.35	1486.83
197.57	1654.76
197.79	1519.59
198.01	1632.23
198.23	1562.60
198.45	1513.45
198.67	1515.50
198.89	1529.83
199.11	1546.22
199.33	1468.39
199.55	1470.44
199.77	1540.07
199.99	1611.75
200.21	1544.17
200.43	1613.80
200.65	1427.43
200.87	1533.93
201.09	1468.39
201.31	1576.94
201.53	1529.83
201.75	1583.08
201.97	1497.07
202.19	1531.88
202.41	1492.97
202.63	1613.80
202.85	1521.64
203.07	1515.50
203.29	1544.17
203.51	1517.54
203.73	1538.02
203.95	1732.58
204.17	1548.26
204.39	1626.09
204.61	1542.12
204.83	1462.25
205.05	1540.07
205.27	1548.26
205.49	1603.56
205.71	1542.12
205.93	1552.36
206.15	1513.45
206.37	1578.98
206.59	1501.16
206.81	1482.73
207.03	1544.17
207.25	1542.12
207.47	1570.79
207.69	1599.46
207.91	1529.83
208.13	1609.70
208.34	1427.43
208.56	1490.92
208.78	1564.65
209.00	1490.92
209.22	1472.49
209.44	1574.89
209.66	1578.98
209.88	1486.83
210.10	1562.60
210.32	1472.49
210.54	1611.75
210.76	1544.17
210.98	1640.42
211.20	1437.67
211.42	1533.93
211.64	1578.98
211.86	1517.54
212.08	1533.93
212.30	1554.41
212.52	1519.59
212.74	1542.12
212.96	1503.21
213.17	1552.36
213.39	1556.46
213.61	1576.94
213.83	1556.46
214.05	1423.34
214.27	1619.94
214.49	1402.86
214.71	1490.92
214.93	1597.42
215.15	1533.93
215.37	1583.08
215.59	1476.59
215.81	1562.60
216.03	1566.70
216.24	1513.45
216.46	1521.64
216.68	1562.60
216.90	1550.31
217.12	1595.37
217.34	1515.50
217.56	1597.42
217.78	1613.80
218.00	1560.55
218.22	1615.85
218.44	1540.07
218.66	1531.88
218.87	1554.41
219.09	1501.16
219.31	1574.89
219.53	1546.22
219.75	1550.31
219.97	1472.49
220.19	1550.31
220.41	1583.08
220.63	1595.37
220.85	1501.16
221.06	1515.50
221.28	1587.18
221.50	1550.31
221.72	1581.03
221.94	1513.45
222.16	1542.12
222.38	1583.08
222.60	1576.94
222.82	1497.07
223.03	1527.78
223.25	1517.54
223.47	1574.89
223.69	1648.61
223.91	1593.32
224.13	1482.73
224.35	1552.36
224.57	1591.27
224.78	1562.60
225.00	1525.74
225.22	1548.26
225.44	1607.66
225.66	1511.40
225.88	1540.07
226.10	1593.32
226.32	1607.66
226.53	1591.27
226.75	1478.63
226.97	1529.83
227.19	1535.98
227.41	1581.03
227.63	1480.68
227.85	1490.92
228.06	1542.12
228.28	1519.59
228.50	1621.99
228.72	1431.53
228.94	1550.31
229.16	1499.11
229.37	1517.54
229.59	1576.94
229.81	1552.36
230.03	1495.02
230.25	1468.39
230.47	1470.44
230.69	1441.77
230.90	1605.61
231.12	1480.68
231.34	1624.04
231.56	1597.42
231.78	1404.91
232.00	1443.82
232.21	1501.16
232.43	1454.06
232.65	1409.00
232.87	1560.55
233.09	1556.46
233.30	1513.45
233.52	1538.02
233.74	1519.59
233.96	1578.98
234.18	1484.78
234.40	1476.59
234.61	1683.43
234.83	1492.97
235.05	1472.49
235.27	1585.13
235.49	1568.74
235.70	1566.70
235.92	1562.60
236.14	1499.11
236.36	1626.09
236.58	1458.15
236.79	1525.74
237.01	1533.93
237.23	1503.21
237.45	1597.42
237.67	1523.69
237.88	1527.78
238.10	1619.94
238.32	1476.59
238.54	1628.14
238.76	1511.40
238.97	1554.41
239.19	1525.74
239.41	1538.02
239.63	1550.31
239.85	1503.21
240.06	1521.64
240.28	1472.49
240.50	1595.37
240.72	1507.30
240.93	1460.20
241.15	1554.41
241.37	1525.74
241.59	1503.21
241.81	1476.59
242.02	1566.70
242.24	1605.61
242.46	1443.82
242.68	1540.07
242.89	1490.92
243.11	1599.46
243.33	1497.07
243.55	1619.94
243.76	1583.08
243.98	1452.01
244.20	1511.40
244.42	1677.29
244.64	1519.59
244.85	1441.77
245.07	1509.35
245.29	1527.78
245.51	1445.87
245.72	1505.26
245.94	1578.98
246.16	1581.03
246.38	1572.84
246.59	1560.55
246.81	1476.59
247.03	1478.63
247.24	1474.54
247.46	1517.54
247.68	1533.93
247.90	1482.73
248.11	1591.27
248.33	1564.65
248.55	1552.36
248.77	1585.13
248.98	1617.90
249.20	1546.22
249.42	1552.36
249.64	1533.93
249.85	1464.30
250.07	1499.11
250.29	1472.49
250.50	1617.90
250.72	1517.54
250.94	1624.04
251.16	1599.46
251.37	1613.80
251.59	1591.27
251.81	1552.36
252.02	1601.51
252.24	1523.69
252.46	1642.47
252.68	1581.03
252.89	1490.92
253.11	1454.06
253.33	1648.61
253.54	1628.14
253.76	1492.97
253.98	1585.13
254.20	1511.40
254.41	1497.07
254.63	1509.35
254.85	1511.40
255.06	1542.12
255.28	1609.70
255.50	1509.35
255.71	1564.65
255.93	1515.50
256.15	1484.78
256.36	1535.98
256.58	1533.93
256.80	1552.36
257.02	1488.87
257.23	1562.60
257.45	1613.80
257.67	1544.17
257.88	1464.30
258.10	1554.41
258.32	1529.83
258.53	1607.66
258.75	1558.50
258.97	1517.54
259.18	1517.54
259.40	1517.54
259.62	1568.74
259.83	1542.12
260.05	1595.37
260.27	1751.01
260.48	1564.65
260.70	1521.64
260.92	1466.35
261.13	1492.97
261.35	1554.41
261.57	1515.50
261.78	1427.43
262.00	1478.63
262.22	1601.51
262.43	1607.66
262.65	1501.16
262.86	1497.07
263.08	1595.37
263.30	1495.02
263.51	1458.15
263.73	1490.92
263.95	1572.84
264.16	1484.78
264.38	1529.83
264.60	1535.98
264.81	1574.89
265.03	1548.26
265.25	1519.59
265.46	1505.26
265.68	1570.79
265.89	1636.33
266.11	1484.78
266.33	1556.46
266.54	1642.47
266.76	1511.40
266.98	1570.79
267.19	1656.81
267.41	1542.12
267.62	1499.11
267.84	1454.06
268.06	1495.02
268.27	1511.40
268.49	1572.84
268.70	1499.11
268.92	1511.40
269.14	1546.22
269.35	1456.11
269.57	1478.63
269.79	1531.88
270.00	1499.11
270.22	1578.98
270.43	1607.66
270.65	1429.48
270.87	1501.16
271.08	1570.79
271.30	1472.49
271.51	1501.16
271.73	1519.59
271.95	1566.70
272.16	1462.25
272.38	1593.32
272.59	1482.73
272.81	1548.26
273.02	1503.21
273.24	1529.83
273.46	1515.50
273.67	1429.48
273.89	1597.42
274.10	1458.15
274.32	1554.41
274.54	1566.70
274.75	1527.78
274.97	1484.78
275.18	1542.12
275.40	1535.98
275.61	1533.93
275.83	1554.41
276.05	1452.01
276.26	1531.88
276.48	1597.42
276.69	1566.70
276.91	1542.12
277.12	1638.38
277.34	1558.50
277.55	1652.71
277.77	1615.85
277.99	1488.87
278.20	1492.97
278.42	1558.50
278.63	1456.11
278.85	1503.21
279.06	1441.77
279.28	1566.70
279.49	1535.98
279.71	1550.31
279.93	1527.78
280.14	1511.40
280.36	1517.54
280.57	1591.27
280.79	1513.45
281.00	1511.40
281.22	1460.20
281.43	1488.87
281.65	1478.63
281.86	1456.11
282.08	1554.41
282.29	1615.85
282.51	1562.60
282.73	1468.39
282.94	1445.87
283.16	1605.61
283.37	1566.70
283.59	1521.64
283.80	1535.98
284.02	1495.02
284.23	1578.98
284.45	1527.78
284.66	1445.87
284.88	1470.44
285.09	1501.16
285.31	1517.54
285.52	1511.40
285.74	1507.30
285.95	1638.38
286.17	1591.27
286.38	1574.89
286.60	1462.25
286.81	1492.97
287.03	1554.41
287.24	1558.50
287.46	1587.18
287.67	1548.26
287.89	1603.56
288.10	1464.30
288.32	1583.08
288.53	1646.57
288.75	1433.58
288.96	1531.88
289.18	1509.35
289.39	1484.78
289.61	1548.26
289.82	1578.98
290.04	1658.85
290.25	1490.92
290.47	1574.89
290.68	1527.78
290.90	1566.70
291.11	1488.87
291.33	1619.94
291.54	1458.15
291.76	1558.50
291.97	1589.22
292.18	1468.39
292.40	1484.78
292.61	1593.32
292.83	1607.66
293.04	1615.85
293.26	1466.35
293.47	1499.11
293.69	1435.63
293.90	1525.74
294.12	1576.94
294.33	1566.70
294.55	1558.50
294.76	1574.89
294.97	1529.83
295.19	1597.42
295.40	1574.89
295.62	1535.98
295.83	1552.36
296.05	1542.12
296.26	1562.60
296.48	1531.88
296.69	1529.83
296.90	1544.17
297.12	1525.74
297.33	1597.42
297.55	1480.68
297.76	1574.89
297.98	1550.31
298.19	1552.36
298.41	1574.89
298.62	1499.11
298.83	1638.38
299.05	1486.83
299.26	1513.45
299.48	1476.59
299.69	1497.07
299.90	1544.17
300.12	1540.07
300.33	1521.64
300.55	1519.59
300.76	1562.60
300.98	1548.26
301.19	1535.98
301.40	1492.97
301.62	1445.87
301.83	1566.70
302.05	1511.40
302.26	1503.21
302.47	1572.84
302.69	1503.21
302.90	1505.26
303.12	1464.30
303.33	1583.08
303.54	1638.38
303.76	1513.45
303.97	1566.70
304.19	1640.42
304.40	1525.74
304.61	1570.79
304.83	1601.51
305.04	1646.57
305.26	1499.11
305.47	1587.18
305.68	1591.27
305.90	1488.87
306.11	1484.78
306.33	1478.63
306.54	1470.44
306.75	1546.22
306.97	1415.15
307.18	1566.70
307.39	1480.68
307.61	1572.84
307.82	1517.54
308.04	1550.31
308.25	1576.94
308.46	1603.56
308.68	1509.35
308.89	1495.02
309.10	1503.21
309.32	1535.98
309.53	1513.45
309.74	1525.74
309.96	1503.21
310.17	1632.23
310.39	1452.01
310.60	1525.74
310.81	1568.74
311.03	1486.83
311.24	1576.94
311.45	1546.22
311.67	1626.09
311.88	1525.74
312.09	1480.68
312.31	1492.97
312.52	1583.08
312.73	1570.79
312.95	1509.35
313.16	1525.74
313.37	1609.70
313.59	1595.37
313.80	1548.26
314.01	1576.94
314.23	1527.78
314.44	1521.64
314.65	1439.72
314.87	1503.21
315.08	1525.74
315.29	1535.98
315.51	1511.40
315.72	1533.93
315.93	1568.74
316.15	1529.83
316.36	1515.50
316.57	1523.69
316.79	1572.84
317.00	1595.37
317.21	1525.74
317.43	1574.89
317.64	1538.02
317.85	1499.11
318.07	1521.64
318.28	1671.14
318.49	1714.15
318.70	1820.64
318.92	1759.21
319.13	1669.09
319.34	1660.90
319.56	1654.76
319.77	1636.33
319.98	1611.75
320.20	1658.85
320.41	1558.50
320.62	1615.85
320.83	1468.39
321.05	1642.47
321.26	1560.55
321.47	1517.54
321.69	1527.78
321.90	1425.39
322.11	1484.78
322.32	1595.37
322.54	1529.83
322.75	1517.54
322.96	1570.79
323.18	1435.63
323.39	1519.59
323.60	1443.82
323.81	1603.56
324.03	1525.74
324.24	1441.77
324.45	1540.07
324.66	1456.11
324.88	1538.02
325.09	1613.80
325.30	1521.64
325.52	1499.11
325.73	1605.61
325.94	1540.07
326.15	1419.24
326.37	1460.20
326.58	1587.18
326.79	1621.99
327.00	1486.83
327.22	1517.54
327.43	1447.91
327.64	1542.12
327.85	1533.93
328.07	1548.26
328.28	1583.08
328.49	1517.54
328.70	1464.30
328.92	1495.02
329.13	1550.31
329.34	1603.56
329.55	1626.09
329.76	1540.07
329.98	1583.08
330.19	1607.66
330.40	1533.93
330.61	1613.80
330.83	1515.50
331.04	1495.02
331.25	1556.46
331.46	1550.31
331.68	1441.77
331.89	1523.69
332.10	1507.30
332.31	1527.78
332.52	1509.35
332.74	1640.42
332.95	1548.26
333.16	1544.17
333.37	1472.49
333.58	1517.54
333.80	1523.69
334.01	1478.63
334.22	1511.40
334.43	1546.22
334.64	1480.68
334.86	1355.76
335.07	1454.06
335.28	1665.00
335.49	1435.63
335.70	1562.60
335.92	1611.75
336.13	1665.00
336.34	1552.36
336.55	1646.57
336.76	1482.73
336.98	1484.78
337.19	1486.83
337.40	1538.02
337.61	1632.23
337.82	1497.07
338.04	1621.99
338.25	1484.78
338.46	1503.21
338.67	1515.50
338.88	1544.17
339.09	1439.72
339.31	1501.16
339.52	1533.93
339.73	1521.64
339.94	1484.78
340.15	1652.71
340.36	1554.41
340.58	1519.59
340.79	1509.35
341.00	1570.79
341.21	1495.02
341.42	1626.09
341.63	1460.20
341.85	1566.70
342.06	1517.54
342.27	1523.69
342.48	1531.88
342.69	1548.26
342.90	1501.16
343.12	1599.46
343.33	1538.02
343.54	1509.35
343.75	1658.85
343.96	1566.70
344.17	1507.30
344.38	1531.88
344.60	1488.87
344.81	1413.10
345.02	1546.22
345.23	1538.02
345.44	1683.43
345.65	1546.22
345.86	1554.41
346.07	1527.78
346.29	1525.74
346.50	1568.74
346.71	1630.18
346.92	1578.98
347.13	1673.19
347.34	1423.34
347.55	1562.60
347.76	1585.13
347.98	1460.20
348.19	1533.93
348.40	1560.55
348.61	1445.87
348.82	1564.65
349.03	1558.50
349.24	1507.30
349.45	1595.37
349.66	1468.39
349.88	1560.55
350.09	1513.45
350.30	1589.22
350.51	1538.02
350.72	1519.59
350.93	1538.02
351.14	1619.94
351.35	1599.46
351.56	1529.83
351.77	1488.87
351.99	1607.66
352.20	1589.22
352.41	1576.94
352.62	1472.49
352.83	1554.41
353.04	1607.66
353.25	1497.07
353.46	1525.74
353.67	1660.90
353.88	1488.87
354.09	1558.50
354.30	1544.17
354.52	1546.22
354.73	1538.02
354.94	1538.02
355.15	1587.18
355.36	1603.56
355.57	1478.63
355.78	1492.97
355.99	1474.54
356.20	1509.35
356.41	1540.07
356.62	1517.54
356.83	1581.03
357.04	1562.60
357.25	1445.87
357.46	1550.31
357.68	1486.83
357.89	1470.44
358.10	1525.74
358.31	1564.65
358.52	1556.46
358.73	1460.20
358.94	1538.02
359.15	1556.46
359.36	1574.89
359.57	1554.41
359.78	1515.50
359.99	1540.07
360.20	1509.35
360.41	1452.01
360.62	1578.98
360.83	1531.88
361.04	1523.69
361.25	1542.12
361.46	1615.85
361.67	1636.33
361.88	1566.70
362.09	1554.41
362.30	1535.98
362.51	1472.49
362.72	1564.65
362.93	1624.04
363.14	1552.36
363.35	1578.98
363.56	1521.64
363.78	1613.80
363.99	1538.02
364.20	1556.46
364.41	1560.55
364.62	1531.88
364.83	1529.83
365.04	1505.26
365.25	1507.30
365.46	1605.61
365.67	1482.73
365.88	1583.08
366.09	1562.60
366.30	1515.50
366.51	1535.98
366.72	1441.77
366.93	1576.94
367.14	1562.60
367.35	1595.37
367.56	1572.84
367.77	1564.65
367.98	1492.97
368.18	1570.79
368.39	1544.17
368.60	1468.39
368.81	1574.89
369.02	1542.12
369.23	1439.72
369.44	1437.67
369.65	1535.98
369.86	1519.59
370.07	1566.70
370.28	1484.78
370.49	1511.40
370.70	1642.47
370.91	1474.54
371.12	1452.01
371.33	1560.55
371.54	1499.11
371.75	1566.70
371.96	1411.05
372.17	1501.16
372.38	1517.54
372.59	1558.50
372.80	1525.74
373.01	1574.89
373.22	1550.31
373.43	1556.46
373.64	1482.73
373.85	1585.13
374.06	1628.14
374.26	1601.51
374.47	1540.07
374.68	1607.66
374.89	1546.22
375.10	1480.68
375.31	1540.07
375.52	1630.18
375.73	1583.08
375.94	1540.07
376.15	1601.51
376.36	1540.07
376.57	1538.02
376.78	1490.92
376.99	1566.70
377.20	1497.07
377.40	1503.21
377.61	1578.98
377.82	1533.93
378.03	1619.94
378.24	1540.07
378.45	1538.02
378.66	1462.25
378.87	1435.63
379.08	1425.39
379.29	1533.93
379.50	1566.70
379.71	1511.40
379.91	1615.85
380.12	1523.69
380.33	1605.61
380.54	1470.44
380.75	1492.97
380.96	1546.22
381.17	1574.89
381.38	1581.03
381.59	1675.24
381.80	1576.94
382.00	1691.62
382.21	1581.03
382.42	1609.70
382.63	1626.09
382.84	1509.35
383.05	1558.50
383.26	1609.70
383.47	1525.74
383.68	1583.08
383.88	1476.59
384.09	1525.74
384.30	1574.89
384.51	1574.89
384.72	1513.45
384.93	1513.45
385.14	1550.31
385.35	1593.32
385.55	1462.25
385.76	1576.94
385.97	1542.12
386.18	1509.35
386.39	1562.60
386.60	1495.02
386.81	1599.46
387.02	1505.26
387.22	1523.69
387.43	1599.46
387.64	1640.42
387.85	1867.75
388.06	3092.43
388.27	7333.78
388.48	10704.73
388.68	12414.79
388.89	13956.91
389.10	12808.00
389.31	10264.42
389.52	8804.22
389.73	7716.75
389.93	7217.04
390.14	6764.44
390.35	6244.26
390.56	5554.09
390.77	4585.40
390.98	3569.61
391.18	2701.27
391.39	2082.78
391.60	1773.54
391.81	1708.01
392.02	1607.66
392.23	1626.09
392.43	1593.32
392.64	1636.33
392.85	1564.65
393.06	1572.84
393.27	1628.14
393.47	1515.50
393.68	1544.17
393.89	1478.63
394.10	1624.04
394.31	1501.16
394.52	1449.96
394.72	1552.36
394.93	1636.33
395.14	1484.78
395.35	1611.75
395.56	1464.30
395.76	1652.71
395.97	1703.91
396.18	1771.49
396.39	1673.19
396.60	1896.42
396.80	1748.97
397.01	1755.11
397.22	1712.10
397.43	1673.19
397.64	1601.51
397.84	1636.33
398.05	1677.29
398.26	1595.37
398.47	1601.51
398.67	1660.90
398.88	1546.22
399.09	1591.27
399.30	1542.12
399.51	1568.74
399.71	1398.76
399.92	1548.26
400.13	1533.93
400.34	1478.63
400.54	1523.69
400.75	1574.89
400.96	1595.37
401.17	1619.94
401.37	1570.79
401.58	1521.64
401.79	1591.27
402.00	1746.92
402.21	1976.29
402.41	1927.14
402.62	1949.67
402.83	1923.04
403.04	1865.70
403.24	1935.33
403.45	1767.40
403.66	1722.34
403.87	1710.05
404.07	1720.29
404.28	1728.49
404.49	1730.53
404.70	1697.77
404.90	1615.85
405.11	1548.26
405.32	1675.24
405.52	1560.55
405.73	1554.41
405.94	1552.36
406.15	1552.36
406.35	1558.50
406.56	1521.64
406.77	1492.97
406.98	1527.78
407.18	1517.54
407.39	1552.36
407.60	1538.02
407.80	1583.08
408.01	1535.98
408.22	1478.63
408.43	1472.49
408.63	1595.37
408.84	1517.54
409.05	1609.70
409.25	1521.64
409.46	1527.78
409.67	1509.35
409.88	1484.78
410.08	1538.02
410.29	1564.65
410.50	1490.92
410.70	1587.18
410.91	1542.12
411.12	1554.41
411.32	1505.26
411.53	1531.88
411.74	1632.23
411.95	1626.09
412.15	1617.90
412.36	1656.81
412.57	1548.26
412.77	1636.33
412.98	1613.80
413.19	1607.66
413.39	1535.98
413.60	1619.94
413.81	1619.94
414.01	1513.45
414.22	1634.28
414.43	1593.32
414.63	1525.74
414.84	1593.32
415.05	1533.93
415.25	1458.15
415.46	1550.31
415.67	1468.39
415.87	1630.18
416.08	1576.94
416.29	1533.93
416.49	1515.50
416.70	1521.64
416.91	1495.02
417.11	1486.83
417.32	1523.69
417.53	1535.98
417.73	1570.79
417.94	1535.98
418.15	1517.54
418.35	1576.94
418.56	1611.75
418.77	1638.38
418.97	1495.02
419.18	1634.28
419.38	1482.73
419.59	1587.18
419.80	1640.42
420.00	1613.80
420.21	1527.78
420.42	1611.75
420.62	1548.26
420.83	1609.70
421.04	1468.39
421.24	1554.41
421.45	1548.26
421.65	1566.70
421.86	1492.97
422.07	1611.75
422.27	1538.02
422.48	1609.70
422.69	1445.87
422.89	1595.37
423.10	1589.22
423.30	1525.74
423.51	1544.17
423.72	1476.59
423.92	1527.78
424.13	1497.07
424.33	1576.94
424.54	1540.07
424.75	1554.41
424.95	1578.98
425.16	1566.70
425.36	1533.93
425.57	1568.74
425.78	1595.37
425.98	1597.42
426.19	1595.37
426.39	1470.44
426.60	1480.68
426.81	1583.08
427.01	1603.56
427.22	1517.54
427.42	1474.54
427.63	1488.87
427.83	1595.37
428.04	1640.42
428.25	1621.99
428.45	1574.89
428.66	1593.32
428.86	1505.26
429.07	1507.30
429.28	1482.73
429.48	1527.78
429.69	1593.32
429.89	1548.26
430.10	1460.20
430.30	1566.70
430.51	1523.69
430.71	1531.88
430.92	1576.94
431.13	1501.16
431.33	1497.07
431.54	1619.94
431.74	1603.56
431.95	1638.38
432.15	1482.73
432.36	1505.26
432.56	1589.22
432.77	1599.46
432.98	1646.57
433.18	1650.66
433.39	1519.59
433.59	1558.50
433.80	1523.69
434.00	1638.38
434.21	1517.54
434.41	1509.35
434.62	1652.71
434.82	1525.74
435.03	1435.63
435.23	1564.65
435.44	1521.64
435.64	1538.02
435.85	1589.22
436.06	1542.12
436.26	1636.33
436.47	1521.64
436.67	1546.22
436.88	1564.65
437.08	1495.02
437.29	1609.70
437.49	1499.11
437.70	1519.59
437.90	1509.35
438.11	1667.05
438.31	1687.53
438.52	1712.10
438.72	1753.06
438.93	1740.77
439.13	1665.00
439.34	1634.28
439.54	1595.37
439.75	1673.19
439.95	1552.36
440.16	1490.92
440.36	1615.85
440.57	1568.74
440.77	1591.27
440.98	1626.09
441.18	1593.32
441.39	1538.02
441.59	1472.49
441.80	1595.37
442.00	1556.46
442.21	1552.36
442.41	1437.67
442.62	1595.37
442.82	1533.93
443.02	1533.93
443.23	1495.02
443.43	1501.16
443.64	1652.71
443.84	1515.50
444.05	1665.00
444.25	1570.79
444.46	1587.18
444.66	1605.61
444.87	1660.90
445.07	1378.28
445.28	1562.60
445.48	1617.90
445.69	1634.28
445.89	1562.60
446.09	1650.66
446.30	1984.48
446.50	3164.11
446.71	4550.59
446.91	5222.32
447.12	5762.98
447.32	5685.16
447.53	4661.18
447.73	4040.64
447.93	3561.42
448.14	3356.62
448.34	3164.11
448.55	2904.02
448.75	2916.31
448.96	2738.13
449.16	2488.28
449.36	2273.25
449.57	2002.91
449.77	1789.92
449.98	1644.52
450.18	1640.42
450.39	1611.75
450.59	1564.65
450.79	1488.87
451.00	1519.59
451.20	1540.07
451.41	1554.41
451.61	1466.35
451.81	1542.12
452.02	1581.03
452.22	1562.60
452.43	1507.30
452.63	1568.74
