SpectraSuite Data File
++++++++++++++++++++++++++++++++++++
Date: Tue May 03 12:55:30 CEST 2016
User: root
Dark Spectrum Present: No
Reference Spectrum Present: No
Number of Sampled Component Spectra: 1
Spectrometers: USB4C02835
Integration Time (usec): 100000 (USB4C02835)
Spectra Averaged: 1 (USB4C02835)
Boxcar Smoothing: 0 (USB4C02835)
Correct for Electrical Dark: No (USB4C02835)
Strobe/Lamp Enabled: No (USB4C02835)
Correct for Detector Non-linearity: No (USB4C02835)
Correct for Stray Light: No (USB4C02835)
Number of Pixels in Processed Spectrum: 3648
>>>>>Begin Processed Spectral Data<<<<<
177.47	1386.47
177.69	1386.47
177.91	1386.47
178.13	1302.51
178.36	1288.17
178.58	1511.40
178.80	1548.26
179.02	1454.06
179.24	1454.06
179.46	1488.87
179.68	1517.54
179.90	1542.12
180.13	1519.59
180.35	1509.35
180.57	1505.26
180.79	1535.98
181.01	1535.98
181.23	1619.94
181.45	1574.89
181.67	1525.74
181.90	1544.17
182.12	1509.35
182.34	1503.21
182.56	1521.64
182.78	1591.27
183.00	1550.31
183.22	1562.60
183.44	1484.78
183.66	1675.24
183.89	1617.90
184.11	1519.59
184.33	1619.94
184.55	1599.46
184.77	1572.84
184.99	1566.70
185.21	1505.26
185.43	1642.47
185.65	1519.59
185.87	1495.02
186.10	1638.38
186.32	1621.99
186.54	1630.18
186.76	1568.74
186.98	1562.60
187.20	1492.97
187.42	1525.74
187.64	1560.55
187.86	1478.63
188.08	1572.84
188.30	1560.55
188.52	1542.12
188.75	1572.84
188.97	1558.50
189.19	1495.02
189.41	1556.46
189.63	1533.93
189.85	1521.64
190.07	1492.97
190.29	1454.06
190.51	1581.03
190.73	1501.16
190.95	1595.37
191.17	1585.13
191.39	1486.83
191.61	1527.78
191.84	1578.98
192.06	1535.98
192.28	1468.39
192.50	1652.71
192.72	1482.73
192.94	1556.46
193.16	1495.02
193.38	1591.27
193.60	1525.74
193.82	1484.78
194.04	1542.12
194.26	1646.57
194.48	1507.30
194.70	1464.30
194.92	1521.64
195.14	1595.37
195.36	1511.40
195.58	1540.07
195.80	1486.83
196.02	1490.92
196.24	1529.83
196.46	1550.31
196.69	1503.21
196.91	1640.42
197.13	1517.54
197.35	1468.39
197.57	1593.32
197.79	1531.88
198.01	1617.90
198.23	1492.97
198.45	1511.40
198.67	1439.72
198.89	1523.69
199.11	1550.31
199.33	1470.44
199.55	1456.11
199.77	1568.74
199.99	1525.74
200.21	1462.25
200.43	1550.31
200.65	1533.93
200.87	1458.15
201.09	1517.54
201.31	1490.92
201.53	1552.36
201.75	1581.03
201.97	1540.07
202.19	1445.87
202.41	1581.03
202.63	1658.85
202.85	1523.69
203.07	1581.03
203.29	1501.16
203.51	1587.18
203.73	1492.97
203.95	1621.99
204.17	1558.50
204.39	1525.74
204.61	1495.02
204.83	1550.31
205.05	1531.88
205.27	1568.74
205.49	1568.74
205.71	1478.63
205.93	1454.06
206.15	1474.54
206.37	1544.17
206.59	1492.97
206.81	1531.88
207.03	1466.35
207.25	1574.89
207.47	1638.38
207.69	1542.12
207.91	1587.18
208.13	1583.08
208.34	1564.65
208.56	1449.96
208.78	1593.32
209.00	1548.26
209.22	1585.13
209.44	1517.54
209.66	1601.51
209.88	1576.94
210.10	1497.07
210.32	1578.98
210.54	1574.89
210.76	1554.41
210.98	1581.03
211.20	1501.16
211.42	1509.35
211.64	1533.93
211.86	1570.79
212.08	1597.42
212.30	1558.50
212.52	1517.54
212.74	1601.51
212.96	1529.83
213.17	1554.41
213.39	1566.70
213.61	1560.55
213.83	1517.54
214.05	1523.69
214.27	1540.07
214.49	1468.39
214.71	1501.16
214.93	1521.64
215.15	1535.98
215.37	1550.31
215.59	1464.30
215.81	1591.27
216.03	1589.22
216.24	1538.02
216.46	1523.69
216.68	1613.80
216.90	1572.84
217.12	1513.45
217.34	1564.65
217.56	1621.99
217.78	1679.33
218.00	1546.22
218.22	1599.46
218.44	1476.59
218.66	1527.78
218.87	1601.51
219.09	1495.02
219.31	1562.60
219.53	1550.31
219.75	1511.40
219.97	1492.97
220.19	1546.22
220.41	1503.21
220.63	1560.55
220.85	1550.31
221.06	1419.24
221.28	1634.28
221.50	1505.26
221.72	1562.60
221.94	1527.78
222.16	1533.93
222.38	1624.04
222.60	1570.79
222.82	1533.93
223.03	1613.80
223.25	1476.59
223.47	1636.33
223.69	1642.47
223.91	1540.07
224.13	1538.02
224.35	1523.69
224.57	1542.12
224.78	1576.94
225.00	1466.35
225.22	1556.46
225.44	1542.12
225.66	1550.31
225.88	1554.41
226.10	1597.42
226.32	1587.18
226.53	1585.13
226.75	1533.93
226.97	1589.22
227.19	1544.17
227.41	1456.11
227.63	1538.02
227.85	1497.07
228.06	1538.02
228.28	1507.30
228.50	1548.26
228.72	1458.15
228.94	1574.89
229.16	1470.44
229.37	1492.97
229.59	1492.97
229.81	1587.18
230.03	1505.26
230.25	1429.48
230.47	1443.82
230.69	1556.46
230.90	1654.76
231.12	1552.36
231.34	1484.78
231.56	1566.70
231.78	1517.54
232.00	1523.69
232.21	1531.88
232.43	1548.26
232.65	1421.29
232.87	1593.32
233.09	1454.06
233.30	1529.83
233.52	1638.38
233.74	1488.87
233.96	1452.01
234.18	1554.41
234.40	1558.50
234.61	1630.18
234.83	1517.54
235.05	1460.20
235.27	1667.05
235.49	1591.27
235.70	1634.28
235.92	1558.50
236.14	1540.07
236.36	1646.57
236.58	1558.50
236.79	1540.07
237.01	1517.54
237.23	1587.18
237.45	1626.09
237.67	1441.77
237.88	1509.35
238.10	1546.22
238.32	1456.11
238.54	1593.32
238.76	1599.46
238.97	1523.69
239.19	1529.83
239.41	1515.50
239.63	1568.74
239.85	1550.31
240.06	1527.78
240.28	1515.50
240.50	1611.75
240.72	1474.54
240.93	1531.88
241.15	1507.30
241.37	1472.49
241.59	1578.98
241.81	1501.16
242.02	1538.02
242.24	1566.70
242.46	1601.51
242.68	1583.08
242.89	1642.47
243.11	1486.83
243.33	1564.65
243.55	1531.88
243.76	1554.41
243.98	1464.30
244.20	1542.12
244.42	1542.12
244.64	1519.59
244.85	1456.11
245.07	1480.68
245.29	1548.26
245.51	1497.07
245.72	1525.74
245.94	1556.46
246.16	1505.26
246.38	1511.40
246.59	1468.39
246.81	1474.54
247.03	1548.26
247.24	1472.49
247.46	1470.44
247.68	1546.22
247.90	1550.31
248.11	1587.18
248.33	1513.45
248.55	1550.31
248.77	1488.87
248.98	1621.99
249.20	1533.93
249.42	1529.83
249.64	1572.84
249.85	1441.77
250.07	1443.82
250.29	1609.70
250.50	1619.94
250.72	1490.92
250.94	1556.46
251.16	1611.75
251.37	1570.79
251.59	1599.46
251.81	1591.27
252.02	1693.67
252.24	1550.31
252.46	1570.79
252.68	1535.98
252.89	1542.12
253.11	1460.20
253.33	1607.66
253.54	1538.02
253.76	1525.74
253.98	1523.69
254.20	1531.88
254.41	1601.51
254.63	1480.68
254.85	1449.96
255.06	1558.50
255.28	1460.20
255.50	1570.79
255.71	1558.50
255.93	1499.11
256.15	1593.32
256.36	1535.98
256.58	1521.64
256.80	1527.78
257.02	1564.65
257.23	1525.74
257.45	1593.32
257.67	1523.69
257.88	1587.18
258.10	1484.78
258.32	1495.02
258.53	1519.59
258.75	1578.98
258.97	1470.44
259.18	1527.78
259.40	1621.99
259.62	1597.42
259.83	1540.07
260.05	1533.93
260.27	1716.20
260.48	1542.12
260.70	1519.59
260.92	1546.22
261.13	1527.78
261.35	1497.07
261.57	1548.26
261.78	1449.96
262.00	1507.30
262.22	1578.98
262.43	1476.59
262.65	1452.01
262.86	1558.50
263.08	1603.56
263.30	1562.60
263.51	1419.24
263.73	1509.35
263.95	1609.70
264.16	1480.68
264.38	1538.02
264.60	1583.08
264.81	1472.49
265.03	1546.22
265.25	1533.93
265.46	1568.74
265.68	1669.09
265.89	1533.93
266.11	1435.63
266.33	1568.74
266.54	1611.75
266.76	1568.74
266.98	1535.98
267.19	1572.84
267.41	1589.22
267.62	1474.54
267.84	1507.30
268.06	1550.31
268.27	1495.02
268.49	1548.26
268.70	1576.94
268.92	1525.74
269.14	1392.62
269.35	1423.34
269.57	1529.83
269.79	1578.98
270.00	1572.84
270.22	1624.04
270.43	1634.28
270.65	1476.59
270.87	1515.50
271.08	1644.52
271.30	1578.98
271.51	1570.79
271.73	1564.65
271.95	1589.22
272.16	1572.84
272.38	1570.79
272.59	1529.83
272.81	1542.12
273.02	1566.70
273.24	1554.41
273.46	1550.31
273.67	1542.12
273.89	1542.12
274.10	1560.55
274.32	1558.50
274.54	1562.60
274.75	1544.17
274.97	1421.29
275.18	1585.13
275.40	1531.88
275.61	1507.30
275.83	1529.83
276.05	1472.49
276.26	1538.02
276.48	1497.07
276.69	1517.54
276.91	1499.11
277.12	1570.79
277.34	1548.26
277.55	1609.70
277.77	1527.78
277.99	1535.98
278.20	1466.35
278.42	1517.54
278.63	1464.30
278.85	1560.55
279.06	1529.83
279.28	1505.26
279.49	1599.46
279.71	1476.59
279.93	1509.35
280.14	1566.70
280.36	1533.93
280.57	1550.31
280.79	1603.56
281.00	1478.63
281.22	1527.78
281.43	1501.16
281.65	1439.72
281.86	1492.97
282.08	1531.88
282.29	1662.95
282.51	1523.69
282.73	1513.45
282.94	1462.25
283.16	1515.50
283.37	1603.56
283.59	1581.03
283.80	1515.50
284.02	1538.02
284.23	1572.84
284.45	1437.67
284.66	1499.11
284.88	1497.07
285.09	1591.27
285.31	1554.41
285.52	1515.50
285.74	1437.67
285.95	1509.35
286.17	1570.79
286.38	1566.70
286.60	1429.48
286.81	1517.54
287.03	1533.93
287.24	1560.55
287.46	1574.89
287.67	1523.69
287.89	1673.19
288.10	1570.79
288.32	1486.83
288.53	1566.70
288.75	1562.60
288.96	1509.35
289.18	1472.49
289.39	1587.18
289.61	1560.55
289.82	1578.98
290.04	1585.13
290.25	1542.12
290.47	1558.50
290.68	1470.44
290.90	1605.61
291.11	1505.26
291.33	1535.98
291.54	1458.15
291.76	1523.69
291.97	1572.84
292.18	1542.12
292.40	1540.07
292.61	1560.55
292.83	1650.66
293.04	1495.02
293.26	1564.65
293.47	1443.82
293.69	1482.73
293.90	1546.22
294.12	1593.32
294.33	1492.97
294.55	1511.40
294.76	1656.81
294.97	1583.08
295.19	1656.81
295.40	1570.79
295.62	1511.40
295.83	1488.87
296.05	1578.98
296.26	1568.74
296.48	1476.59
296.69	1585.13
296.90	1558.50
297.12	1624.04
297.33	1605.61
297.55	1548.26
297.76	1570.79
297.98	1626.09
298.19	1595.37
298.41	1486.83
298.62	1466.35
298.83	1597.42
299.05	1562.60
299.26	1503.21
299.48	1484.78
299.69	1513.45
299.90	1570.79
300.12	1482.73
300.33	1599.46
300.55	1527.78
300.76	1519.59
300.98	1413.10
301.19	1583.08
301.40	1460.20
301.62	1540.07
301.83	1523.69
302.05	1544.17
302.26	1531.88
302.47	1591.27
302.69	1464.30
302.90	1554.41
303.12	1513.45
303.33	1628.14
303.54	1619.94
303.76	1478.63
303.97	1552.36
304.19	1626.09
304.40	1501.16
304.61	1603.56
304.83	1595.37
305.04	1593.32
305.26	1515.50
305.47	1462.25
305.68	1474.54
305.90	1474.54
306.11	1576.94
306.33	1511.40
306.54	1523.69
306.75	1490.92
306.97	1468.39
307.18	1568.74
307.39	1492.97
307.61	1490.92
307.82	1531.88
308.04	1550.31
308.25	1515.50
308.46	1576.94
308.68	1533.93
308.89	1550.31
309.10	1593.32
309.32	1533.93
309.53	1525.74
309.74	1560.55
309.96	1517.54
310.17	1630.18
310.39	1513.45
310.60	1564.65
310.81	1554.41
311.03	1429.48
311.24	1576.94
311.45	1495.02
311.67	1583.08
311.88	1449.96
312.09	1490.92
312.31	1464.30
312.52	1507.30
312.73	1517.54
312.95	1456.11
313.16	1507.30
313.37	1544.17
313.59	1507.30
313.80	1531.88
314.01	1648.61
314.23	1499.11
314.44	1492.97
314.65	1484.78
314.87	1476.59
315.08	1460.20
315.29	1515.50
315.51	1525.74
315.72	1544.17
315.93	1652.71
316.15	1542.12
316.36	1474.54
316.57	1525.74
316.79	1615.85
317.00	1443.82
317.21	1484.78
317.43	1511.40
317.64	1480.68
317.85	1468.39
318.07	1593.32
318.28	1683.43
318.49	1671.14
318.70	1779.68
318.92	1738.73
319.13	1701.86
319.34	1728.49
319.56	1619.94
319.77	1597.42
319.98	1587.18
320.20	1607.66
320.41	1603.56
320.62	1624.04
320.83	1511.40
321.05	1617.90
321.26	1566.70
321.47	1554.41
321.69	1503.21
321.90	1554.41
322.11	1548.26
322.32	1538.02
322.54	1587.18
322.75	1488.87
322.96	1671.14
323.18	1484.78
323.39	1456.11
323.60	1550.31
323.81	1574.89
324.03	1538.02
324.24	1593.32
324.45	1550.31
324.66	1480.68
324.88	1538.02
325.09	1554.41
325.30	1486.83
325.52	1529.83
325.73	1550.31
325.94	1540.07
326.15	1482.73
326.37	1480.68
326.58	1644.52
326.79	1591.27
327.00	1417.19
327.22	1570.79
327.43	1519.59
327.64	1445.87
327.85	1593.32
328.07	1591.27
328.28	1617.90
328.49	1533.93
328.70	1499.11
328.92	1521.64
329.13	1538.02
329.34	1581.03
329.55	1574.89
329.76	1570.79
329.98	1501.16
330.19	1542.12
330.40	1517.54
330.61	1599.46
330.83	1570.79
331.04	1472.49
331.25	1562.60
331.46	1554.41
331.68	1402.86
331.89	1615.85
332.10	1517.54
332.31	1519.59
332.52	1423.34
332.74	1609.70
332.95	1462.25
333.16	1570.79
333.37	1558.50
333.58	1546.22
333.80	1468.39
334.01	1468.39
334.22	1552.36
334.43	1476.59
334.64	1576.94
334.86	1486.83
335.07	1464.30
335.28	1591.27
335.49	1462.25
335.70	1591.27
335.92	1605.61
336.13	1656.81
336.34	1566.70
336.55	1525.74
336.76	1607.66
336.98	1497.07
337.19	1527.78
337.40	1556.46
337.61	1683.43
337.82	1570.79
338.04	1505.26
338.25	1517.54
338.46	1484.78
338.67	1568.74
338.88	1454.06
339.09	1527.78
339.31	1490.92
339.52	1488.87
339.73	1535.98
339.94	1495.02
340.15	1519.59
340.36	1560.55
340.58	1509.35
340.79	1460.20
341.00	1591.27
341.21	1519.59
341.42	1585.13
341.63	1527.78
341.85	1611.75
342.06	1611.75
342.27	1544.17
342.48	1556.46
342.69	1443.82
342.90	1570.79
343.12	1552.36
343.33	1480.68
343.54	1576.94
343.75	1669.09
343.96	1540.07
344.17	1601.51
344.38	1486.83
344.60	1517.54
344.81	1478.63
345.02	1548.26
345.23	1558.50
345.44	1560.55
345.65	1652.71
345.86	1538.02
346.07	1570.79
346.29	1527.78
346.50	1576.94
346.71	1562.60
346.92	1611.75
347.13	1662.95
347.34	1476.59
347.55	1503.21
347.76	1533.93
347.98	1499.11
348.19	1564.65
348.40	1550.31
348.61	1521.64
348.82	1574.89
349.03	1576.94
349.24	1409.00
349.45	1714.15
349.66	1533.93
349.88	1521.64
350.09	1511.40
350.30	1566.70
350.51	1617.90
350.72	1515.50
350.93	1529.83
351.14	1464.30
351.35	1568.74
351.56	1517.54
351.77	1540.07
351.99	1552.36
352.20	1609.70
352.41	1593.32
352.62	1492.97
352.83	1531.88
353.04	1552.36
353.25	1480.68
353.46	1523.69
353.67	1613.80
353.88	1443.82
354.09	1562.60
354.30	1548.26
354.52	1533.93
354.73	1492.97
354.94	1566.70
355.15	1578.98
355.36	1556.46
355.57	1501.16
355.78	1570.79
355.99	1515.50
356.20	1552.36
356.41	1609.70
356.62	1613.80
356.83	1486.83
357.04	1568.74
357.25	1476.59
357.46	1505.26
357.68	1454.06
357.89	1533.93
358.10	1552.36
358.31	1513.45
358.52	1550.31
358.73	1460.20
358.94	1490.92
359.15	1429.48
359.36	1535.98
359.57	1607.66
359.78	1589.22
359.99	1599.46
360.20	1511.40
360.41	1503.21
360.62	1558.50
360.83	1533.93
361.04	1554.41
361.25	1607.66
361.46	1591.27
361.67	1609.70
361.88	1533.93
362.09	1595.37
362.30	1546.22
362.51	1583.08
362.72	1456.11
362.93	1517.54
363.14	1587.18
363.35	1570.79
363.56	1517.54
363.78	1531.88
363.99	1636.33
364.20	1499.11
364.41	1509.35
364.62	1624.04
364.83	1527.78
365.04	1482.73
365.25	1589.22
365.46	1636.33
365.67	1531.88
365.88	1515.50
366.09	1535.98
366.30	1566.70
366.51	1503.21
366.72	1474.54
366.93	1603.56
367.14	1470.44
367.35	1605.61
367.56	1495.02
367.77	1564.65
367.98	1544.17
368.18	1484.78
368.39	1513.45
368.60	1468.39
368.81	1542.12
369.02	1570.79
369.23	1472.49
369.44	1529.83
369.65	1568.74
369.86	1533.93
370.07	1638.38
370.28	1445.87
370.49	1568.74
370.70	1564.65
370.91	1529.83
371.12	1466.35
371.33	1605.61
371.54	1540.07
371.75	1568.74
371.96	1388.52
372.17	1538.02
372.38	1468.39
372.59	1572.84
372.80	1460.20
373.01	1474.54
373.22	1603.56
373.43	1511.40
373.64	1540.07
373.85	1595.37
374.06	1632.23
374.26	1648.61
374.47	1550.31
374.68	1495.02
374.89	1601.51
375.10	1507.30
375.31	1554.41
375.52	1507.30
375.73	1492.97
375.94	1550.31
376.15	1568.74
376.36	1466.35
376.57	1490.92
376.78	1456.11
376.99	1533.93
377.20	1638.38
377.40	1492.97
377.61	1554.41
377.82	1558.50
378.03	1601.51
378.24	1595.37
378.45	1521.64
378.66	1521.64
378.87	1388.52
379.08	1476.59
379.29	1474.54
379.50	1558.50
379.71	1488.87
379.91	1544.17
380.12	1576.94
380.33	1499.11
380.54	1593.32
380.75	1599.46
380.96	1560.55
381.17	1587.18
381.38	1552.36
381.59	1656.81
381.80	1568.74
382.00	1697.77
382.21	1574.89
382.42	1648.61
382.63	1628.14
382.84	1595.37
383.05	1542.12
383.26	1615.85
383.47	1574.89
383.68	1560.55
383.88	1572.84
384.09	1529.83
384.30	1583.08
384.51	1583.08
384.72	1511.40
384.93	1517.54
385.14	1558.50
385.35	1624.04
385.55	1476.59
385.76	1591.27
385.97	1667.05
386.18	1501.16
386.39	1531.88
386.60	1572.84
386.81	1583.08
387.02	1597.42
387.22	1568.74
387.43	1642.47
387.64	1611.75
387.85	1859.56
388.06	3133.39
388.27	7327.63
388.48	10542.94
388.68	12646.21
388.89	13981.48
389.10	13057.85
389.31	10188.64
389.52	9127.80
389.73	7915.40
389.93	7270.29
390.14	6813.59
390.35	6191.01
390.56	5664.68
390.77	4726.71
390.98	3729.35
391.18	2828.24
391.39	2164.70
391.60	1814.50
391.81	1681.38
392.02	1607.66
392.23	1685.48
392.43	1603.56
392.64	1665.00
392.85	1552.36
393.06	1621.99
393.27	1585.13
393.47	1480.68
393.68	1499.11
393.89	1585.13
394.10	1593.32
394.31	1497.07
394.52	1503.21
394.72	1505.26
394.93	1687.53
395.14	1435.63
395.35	1630.18
395.56	1454.06
395.76	1609.70
395.97	1630.18
396.18	1699.81
396.39	1759.21
396.60	1871.84
396.80	1751.01
397.01	1634.28
397.22	1751.01
397.43	1681.38
397.64	1597.42
397.84	1566.70
398.05	1695.72
398.26	1552.36
398.47	1667.05
398.67	1640.42
398.88	1523.69
399.09	1662.95
399.30	1558.50
399.51	1605.61
399.71	1421.29
399.92	1550.31
400.13	1564.65
400.34	1564.65
400.54	1566.70
400.75	1634.28
400.96	1621.99
401.17	1628.14
401.37	1597.42
401.58	1495.02
401.79	1533.93
402.00	1900.52
402.21	1986.53
402.41	1912.80
402.62	1875.94
402.83	1949.67
403.04	1826.79
403.24	1951.71
403.45	1689.57
403.66	1796.07
403.87	1722.34
404.07	1746.92
404.28	1818.60
404.49	1730.53
404.70	1675.24
404.90	1576.94
405.11	1550.31
405.32	1583.08
405.52	1492.97
405.73	1511.40
405.94	1492.97
406.15	1578.98
406.35	1523.69
406.56	1503.21
406.77	1538.02
406.98	1576.94
407.18	1513.45
407.39	1601.51
407.60	1464.30
407.80	1511.40
408.01	1495.02
408.22	1576.94
408.43	1452.01
408.63	1581.03
408.84	1585.13
409.05	1560.55
409.25	1595.37
409.46	1544.17
409.67	1523.69
409.88	1507.30
410.08	1529.83
410.29	1513.45
410.50	1509.35
410.70	1525.74
410.91	1468.39
411.12	1593.32
411.32	1583.08
411.53	1527.78
411.74	1595.37
411.95	1660.90
412.15	1638.38
412.36	1675.24
412.57	1617.90
412.77	1644.52
412.98	1527.78
413.19	1499.11
413.39	1632.23
413.60	1595.37
413.81	1595.37
414.01	1525.74
414.22	1546.22
414.43	1607.66
414.63	1624.04
414.84	1601.51
415.05	1507.30
415.25	1470.44
415.46	1613.80
415.67	1515.50
415.87	1546.22
416.08	1492.97
416.29	1527.78
416.49	1566.70
416.70	1486.83
416.91	1476.59
417.11	1429.48
417.32	1587.18
417.53	1576.94
417.73	1568.74
417.94	1540.07
418.15	1599.46
418.35	1566.70
418.56	1550.31
418.77	1605.61
418.97	1574.89
419.18	1474.54
419.38	1456.11
419.59	1523.69
419.80	1640.42
420.00	1484.78
420.21	1611.75
420.42	1568.74
420.62	1570.79
420.83	1519.59
421.04	1501.16
421.24	1495.02
421.45	1497.07
421.65	1509.35
421.86	1523.69
422.07	1476.59
422.27	1523.69
422.48	1501.16
422.69	1513.45
422.89	1466.35
423.10	1527.78
423.30	1419.24
423.51	1509.35
423.72	1546.22
423.92	1523.69
424.13	1492.97
424.33	1529.83
424.54	1636.33
424.75	1562.60
424.95	1587.18
425.16	1560.55
425.36	1503.21
425.57	1560.55
425.78	1564.65
425.98	1628.14
426.19	1517.54
426.39	1474.54
426.60	1568.74
426.81	1683.43
427.01	1523.69
427.22	1509.35
427.42	1517.54
427.63	1529.83
427.83	1574.89
428.04	1621.99
428.25	1560.55
428.45	1632.23
428.66	1613.80
428.86	1492.97
429.07	1513.45
429.28	1509.35
429.48	1546.22
429.69	1482.73
429.89	1564.65
430.10	1480.68
430.30	1597.42
430.51	1607.66
430.71	1556.46
430.92	1546.22
431.13	1509.35
431.33	1525.74
431.54	1593.32
431.74	1624.04
431.95	1601.51
432.15	1507.30
432.36	1525.74
432.56	1554.41
432.77	1615.85
432.98	1603.56
433.18	1599.46
433.39	1521.64
433.59	1581.03
433.80	1603.56
434.00	1636.33
434.21	1527.78
434.41	1501.16
434.62	1646.57
434.82	1472.49
435.03	1456.11
435.23	1509.35
435.44	1456.11
435.64	1570.79
435.85	1566.70
436.06	1589.22
436.26	1548.26
436.47	1433.58
436.67	1509.35
436.88	1519.59
437.08	1638.38
437.29	1587.18
437.49	1523.69
437.70	1568.74
437.90	1576.94
438.11	1587.18
438.31	1578.98
438.52	1740.77
438.72	1722.34
438.93	1808.36
439.13	1593.32
439.34	1632.23
439.54	1595.37
439.75	1650.66
439.95	1654.76
440.16	1552.36
440.36	1574.89
440.57	1574.89
440.77	1562.60
440.98	1564.65
441.18	1593.32
441.39	1560.55
441.59	1464.30
441.80	1658.85
442.00	1525.74
442.21	1617.90
442.41	1515.50
442.62	1478.63
442.82	1507.30
443.02	1595.37
443.23	1562.60
443.43	1509.35
443.64	1574.89
443.84	1511.40
444.05	1658.85
444.25	1542.12
444.46	1521.64
444.66	1521.64
444.87	1652.71
445.07	1466.35
445.28	1572.84
445.48	1665.00
445.69	1482.73
445.89	1757.16
446.09	1511.40
446.30	1992.67
446.50	3145.68
446.71	4530.11
446.91	5242.80
447.12	5822.38
447.32	5578.67
447.53	4655.03
447.73	3968.96
447.93	3723.21
448.14	3395.53
448.34	3168.21
448.55	3053.52
448.75	2893.78
448.96	2678.74
449.16	2473.95
449.36	2263.01
449.57	1927.14
449.77	1777.64
449.98	1636.33
450.18	1603.56
450.39	1646.57
450.59	1630.18
450.79	1484.78
451.00	1527.78
451.20	1566.70
451.41	1542.12
451.61	1552.36
451.81	1665.00
452.02	1533.93
452.22	1497.07
452.43	1507.30
452.63	1501.16
