SpectraSuite Data File
++++++++++++++++++++++++++++++++++++
Date: Tue May 03 12:55:28 CEST 2016
User: root
Dark Spectrum Present: No
Reference Spectrum Present: No
Number of Sampled Component Spectra: 1
Spectrometers: USB4C02835
Integration Time (usec): 100000 (USB4C02835)
Spectra Averaged: 1 (USB4C02835)
Boxcar Smoothing: 0 (USB4C02835)
Correct for Electrical Dark: No (USB4C02835)
Strobe/Lamp Enabled: No (USB4C02835)
Correct for Detector Non-linearity: No (USB4C02835)
Correct for Stray Light: No (USB4C02835)
Number of Pixels in Processed Spectrum: 3648
>>>>>Begin Processed Spectral Data<<<<<
177.47	1302.51
177.69	1302.51
177.91	1302.51
178.13	1320.94
178.36	1355.76
178.58	1548.26
178.80	1548.26
179.02	1454.06
179.24	1540.07
179.46	1490.92
179.68	1566.70
179.90	1480.68
180.13	1488.87
180.35	1474.54
180.57	1511.40
180.79	1517.54
181.01	1593.32
181.23	1503.21
181.45	1617.90
181.67	1519.59
181.90	1552.36
182.12	1525.74
182.34	1421.29
182.56	1568.74
182.78	1591.27
183.00	1591.27
183.22	1626.09
183.44	1437.67
183.66	1642.47
183.89	1642.47
184.11	1640.42
184.33	1554.41
184.55	1587.18
184.77	1554.41
184.99	1585.13
185.21	1492.97
185.43	1617.90
185.65	1564.65
185.87	1540.07
186.10	1603.56
186.32	1675.24
186.54	1542.12
186.76	1581.03
186.98	1578.98
187.20	1564.65
187.42	1468.39
187.64	1509.35
187.86	1558.50
188.08	1626.09
188.30	1550.31
188.52	1488.87
188.75	1564.65
188.97	1615.85
189.19	1562.60
189.41	1609.70
189.63	1550.31
189.85	1550.31
190.07	1527.78
190.29	1472.49
190.51	1531.88
190.73	1515.50
190.95	1574.89
191.17	1595.37
191.39	1507.30
191.61	1558.50
191.84	1478.63
192.06	1558.50
192.28	1421.29
192.50	1673.19
192.72	1550.31
192.94	1544.17
193.16	1529.83
193.38	1535.98
193.60	1478.63
193.82	1523.69
194.04	1554.41
194.26	1552.36
194.48	1544.17
194.70	1589.22
194.92	1540.07
195.14	1552.36
195.36	1458.15
195.58	1564.65
195.80	1505.26
196.02	1527.78
196.24	1630.18
196.46	1505.26
196.69	1456.11
196.91	1621.99
197.13	1511.40
197.35	1462.25
197.57	1546.22
197.79	1568.74
198.01	1533.93
198.23	1568.74
198.45	1593.32
198.67	1488.87
198.89	1509.35
199.11	1583.08
199.33	1515.50
199.55	1476.59
199.77	1595.37
199.99	1542.12
200.21	1468.39
200.43	1624.04
200.65	1533.93
200.87	1449.96
201.09	1464.30
201.31	1558.50
201.53	1648.61
201.75	1607.66
201.97	1462.25
202.19	1544.17
202.41	1581.03
202.63	1640.42
202.85	1554.41
203.07	1509.35
203.29	1490.92
203.51	1486.83
203.73	1550.31
203.95	1652.71
204.17	1646.57
204.39	1527.78
204.61	1574.89
204.83	1529.83
205.05	1632.23
205.27	1566.70
205.49	1652.71
205.71	1540.07
205.93	1531.88
206.15	1490.92
206.37	1464.30
206.59	1495.02
206.81	1472.49
207.03	1503.21
207.25	1433.58
207.47	1576.94
207.69	1503.21
207.91	1605.61
208.13	1603.56
208.34	1501.16
208.56	1466.35
208.78	1560.55
209.00	1533.93
209.22	1497.07
209.44	1517.54
209.66	1499.11
209.88	1476.59
210.10	1591.27
210.32	1480.68
210.54	1642.47
210.76	1509.35
210.98	1538.02
211.20	1431.53
211.42	1495.02
211.64	1654.76
211.86	1517.54
212.08	1587.18
212.30	1609.70
212.52	1501.16
212.74	1593.32
212.96	1574.89
213.17	1648.61
213.39	1591.27
213.61	1624.04
213.83	1544.17
214.05	1486.83
214.27	1564.65
214.49	1523.69
214.71	1466.35
214.93	1601.51
215.15	1462.25
215.37	1634.28
215.59	1509.35
215.81	1613.80
216.03	1529.83
216.24	1501.16
216.46	1558.50
216.68	1531.88
216.90	1572.84
217.12	1595.37
217.34	1523.69
217.56	1560.55
217.78	1654.76
218.00	1525.74
218.22	1566.70
218.44	1546.22
218.66	1486.83
218.87	1558.50
219.09	1564.65
219.31	1621.99
219.53	1546.22
219.75	1495.02
219.97	1562.60
220.19	1501.16
220.41	1501.16
220.63	1564.65
220.85	1533.93
221.06	1517.54
221.28	1583.08
221.50	1548.26
221.72	1529.83
221.94	1492.97
222.16	1583.08
222.38	1589.22
222.60	1572.84
222.82	1554.41
223.03	1589.22
223.25	1482.73
223.47	1626.09
223.69	1677.29
223.91	1660.90
224.13	1570.79
224.35	1523.69
224.57	1599.46
224.78	1558.50
225.00	1437.67
225.22	1480.68
225.44	1519.59
225.66	1609.70
225.88	1507.30
226.10	1607.66
226.32	1546.22
226.53	1589.22
226.75	1587.18
226.97	1521.64
227.19	1572.84
227.41	1542.12
227.63	1513.45
227.85	1449.96
228.06	1523.69
228.28	1548.26
228.50	1599.46
228.72	1505.26
228.94	1550.31
229.16	1499.11
229.37	1544.17
229.59	1552.36
229.81	1568.74
230.03	1466.35
230.25	1427.43
230.47	1464.30
230.69	1497.07
230.90	1624.04
231.12	1515.50
231.34	1552.36
231.56	1488.87
231.78	1505.26
232.00	1585.13
232.21	1515.50
232.43	1492.97
232.65	1431.53
232.87	1542.12
233.09	1499.11
233.30	1443.82
233.52	1466.35
233.74	1619.94
233.96	1554.41
234.18	1449.96
234.40	1503.21
234.61	1574.89
234.83	1513.45
235.05	1447.91
235.27	1607.66
235.49	1558.50
235.70	1519.59
235.92	1673.19
236.14	1548.26
236.36	1587.18
236.58	1476.59
236.79	1531.88
237.01	1509.35
237.23	1533.93
237.45	1589.22
237.67	1501.16
237.88	1564.65
238.10	1632.23
238.32	1472.49
238.54	1509.35
238.76	1576.94
238.97	1443.82
239.19	1513.45
239.41	1599.46
239.63	1626.09
239.85	1492.97
240.06	1552.36
240.28	1501.16
240.50	1564.65
240.72	1519.59
240.93	1519.59
241.15	1628.14
241.37	1509.35
241.59	1540.07
241.81	1542.12
242.02	1525.74
242.24	1505.26
242.46	1587.18
242.68	1511.40
242.89	1583.08
243.11	1554.41
243.33	1609.70
243.55	1578.98
243.76	1566.70
243.98	1533.93
244.20	1607.66
244.42	1581.03
244.64	1585.13
244.85	1456.11
245.07	1546.22
245.29	1527.78
245.51	1527.78
245.72	1550.31
245.94	1605.61
246.16	1544.17
246.38	1550.31
246.59	1599.46
246.81	1488.87
247.03	1591.27
247.24	1447.91
247.46	1468.39
247.68	1583.08
247.90	1511.40
248.11	1495.02
248.33	1546.22
248.55	1540.07
248.77	1568.74
248.98	1587.18
249.20	1626.09
249.42	1490.92
249.64	1636.33
249.85	1533.93
250.07	1538.02
250.29	1593.32
250.50	1589.22
250.72	1482.73
250.94	1566.70
251.16	1630.18
251.37	1566.70
251.59	1501.16
251.81	1564.65
252.02	1609.70
252.24	1464.30
252.46	1701.86
252.68	1415.15
252.89	1476.59
253.11	1460.20
253.33	1585.13
253.54	1609.70
253.76	1478.63
253.98	1470.44
254.20	1533.93
254.41	1394.67
254.63	1507.30
254.85	1443.82
255.06	1544.17
255.28	1517.54
255.50	1615.85
255.71	1570.79
255.93	1452.01
256.15	1554.41
256.36	1548.26
256.58	1554.41
256.80	1599.46
257.02	1452.01
257.23	1538.02
257.45	1482.73
257.67	1546.22
257.88	1462.25
258.10	1574.89
258.32	1548.26
258.53	1499.11
258.75	1576.94
258.97	1476.59
259.18	1558.50
259.40	1574.89
259.62	1540.07
259.83	1603.56
260.05	1570.79
260.27	1783.78
260.48	1505.26
260.70	1572.84
260.92	1497.07
261.13	1531.88
261.35	1495.02
261.57	1613.80
261.78	1513.45
262.00	1527.78
262.22	1523.69
262.43	1566.70
262.65	1523.69
262.86	1535.98
263.08	1652.71
263.30	1562.60
263.51	1458.15
263.73	1472.49
263.95	1617.90
264.16	1501.16
264.38	1501.16
264.60	1554.41
264.81	1533.93
265.03	1554.41
265.25	1693.67
265.46	1550.31
265.68	1560.55
265.89	1511.40
266.11	1497.07
266.33	1626.09
266.54	1650.66
266.76	1591.27
266.98	1509.35
267.19	1636.33
267.41	1609.70
267.62	1560.55
267.84	1507.30
268.06	1495.02
268.27	1546.22
268.49	1552.36
268.70	1583.08
268.92	1533.93
269.14	1521.64
269.35	1509.35
269.57	1566.70
269.79	1609.70
270.00	1464.30
270.22	1595.37
270.43	1495.02
270.65	1435.63
270.87	1673.19
271.08	1619.94
271.30	1554.41
271.51	1591.27
271.73	1519.59
271.95	1667.05
272.16	1587.18
272.38	1560.55
272.59	1497.07
272.81	1517.54
273.02	1513.45
273.24	1568.74
273.46	1546.22
273.67	1429.48
273.89	1449.96
274.10	1544.17
274.32	1638.38
274.54	1558.50
274.75	1568.74
274.97	1564.65
275.18	1501.16
275.40	1574.89
275.61	1548.26
275.83	1542.12
276.05	1505.26
276.26	1525.74
276.48	1624.04
276.69	1587.18
276.91	1529.83
277.12	1564.65
277.34	1572.84
277.55	1624.04
277.77	1540.07
277.99	1486.83
278.20	1464.30
278.42	1423.34
278.63	1492.97
278.85	1519.59
279.06	1443.82
279.28	1564.65
279.49	1542.12
279.71	1572.84
279.93	1550.31
280.14	1495.02
280.36	1556.46
280.57	1531.88
280.79	1646.57
281.00	1452.01
281.22	1513.45
281.43	1593.32
281.65	1363.95
281.86	1564.65
282.08	1540.07
282.29	1675.24
282.51	1521.64
282.73	1495.02
282.94	1505.26
283.16	1513.45
283.37	1576.94
283.59	1513.45
283.80	1507.30
284.02	1495.02
284.23	1566.70
284.45	1560.55
284.66	1505.26
284.88	1519.59
285.09	1529.83
285.31	1527.78
285.52	1527.78
285.74	1431.53
285.95	1513.45
286.17	1523.69
286.38	1527.78
286.60	1556.46
286.81	1554.41
287.03	1509.35
287.24	1574.89
287.46	1587.18
287.67	1513.45
287.89	1687.53
288.10	1552.36
288.32	1521.64
288.53	1677.29
288.75	1548.26
288.96	1535.98
289.18	1527.78
289.39	1540.07
289.61	1578.98
289.82	1587.18
290.04	1550.31
290.25	1476.59
290.47	1554.41
290.68	1509.35
290.90	1550.31
291.11	1439.72
291.33	1587.18
291.54	1462.25
291.76	1488.87
291.97	1550.31
292.18	1558.50
292.40	1482.73
292.61	1474.54
292.83	1611.75
293.04	1652.71
293.26	1570.79
293.47	1509.35
293.69	1497.07
293.90	1509.35
294.12	1490.92
294.33	1533.93
294.55	1525.74
294.76	1609.70
294.97	1474.54
295.19	1550.31
295.40	1552.36
295.62	1611.75
295.83	1619.94
296.05	1544.17
296.26	1554.41
296.48	1521.64
296.69	1527.78
296.90	1542.12
297.12	1552.36
297.33	1632.23
297.55	1556.46
297.76	1568.74
297.98	1638.38
298.19	1509.35
298.41	1482.73
298.62	1511.40
298.83	1583.08
299.05	1540.07
299.26	1482.73
299.48	1488.87
299.69	1558.50
299.90	1542.12
300.12	1443.82
300.33	1585.13
300.55	1566.70
300.76	1533.93
300.98	1535.98
301.19	1634.28
301.40	1492.97
301.62	1464.30
301.83	1550.31
302.05	1591.27
302.26	1576.94
302.47	1552.36
302.69	1517.54
302.90	1599.46
303.12	1404.91
303.33	1601.51
303.54	1611.75
303.76	1554.41
303.97	1593.32
304.19	1636.33
304.40	1474.54
304.61	1538.02
304.83	1628.14
305.04	1581.03
305.26	1548.26
305.47	1460.20
305.68	1574.89
305.90	1429.48
306.11	1509.35
306.33	1566.70
306.54	1511.40
306.75	1443.82
306.97	1427.43
307.18	1562.60
307.39	1556.46
307.61	1562.60
307.82	1486.83
308.04	1583.08
308.25	1484.78
308.46	1544.17
308.68	1503.21
308.89	1456.11
309.10	1628.14
309.32	1587.18
309.53	1501.16
309.74	1519.59
309.96	1560.55
310.17	1628.14
310.39	1527.78
310.60	1556.46
310.81	1515.50
311.03	1437.67
311.24	1509.35
311.45	1527.78
311.67	1665.00
311.88	1564.65
312.09	1589.22
312.31	1527.78
312.52	1568.74
312.73	1511.40
312.95	1460.20
313.16	1433.58
313.37	1632.23
313.59	1517.54
313.80	1564.65
314.01	1652.71
314.23	1538.02
314.44	1607.66
314.65	1447.91
314.87	1490.92
315.08	1470.44
315.29	1456.11
315.51	1458.15
315.72	1464.30
315.93	1626.09
316.15	1546.22
316.36	1509.35
316.57	1552.36
316.79	1560.55
317.00	1550.31
317.21	1642.47
317.43	1521.64
317.64	1509.35
317.85	1570.79
318.07	1515.50
318.28	1595.37
318.49	1708.01
318.70	1794.02
318.92	1728.49
319.13	1650.66
319.34	1679.33
319.56	1628.14
319.77	1693.67
319.98	1667.05
320.20	1636.33
320.41	1564.65
320.62	1578.98
320.83	1538.02
321.05	1662.95
321.26	1560.55
321.47	1505.26
321.69	1587.18
321.90	1419.24
322.11	1548.26
322.32	1556.46
322.54	1597.42
322.75	1499.11
322.96	1574.89
323.18	1490.92
323.39	1550.31
323.60	1490.92
323.81	1587.18
324.03	1495.02
324.24	1544.17
324.45	1503.21
324.66	1527.78
324.88	1521.64
325.09	1550.31
325.30	1523.69
325.52	1517.54
325.73	1552.36
325.94	1488.87
326.15	1452.01
326.37	1488.87
326.58	1591.27
326.79	1644.52
327.00	1503.21
327.22	1595.37
327.43	1462.25
327.64	1478.63
327.85	1531.88
328.07	1572.84
328.28	1589.22
328.49	1521.64
328.70	1521.64
328.92	1521.64
329.13	1480.68
329.34	1570.79
329.55	1599.46
329.76	1630.18
329.98	1533.93
330.19	1597.42
330.40	1474.54
330.61	1515.50
330.83	1617.90
331.04	1435.63
331.25	1525.74
331.46	1511.40
331.68	1443.82
331.89	1560.55
332.10	1529.83
332.31	1542.12
332.52	1578.98
332.74	1611.75
332.95	1507.30
333.16	1603.56
333.37	1566.70
333.58	1503.21
333.80	1560.55
334.01	1509.35
334.22	1490.92
334.43	1523.69
334.64	1552.36
334.86	1501.16
335.07	1486.83
335.28	1513.45
335.49	1460.20
335.70	1552.36
335.92	1529.83
336.13	1630.18
336.34	1535.98
336.55	1476.59
336.76	1615.85
336.98	1525.74
337.19	1587.18
337.40	1597.42
337.61	1603.56
337.82	1525.74
338.04	1621.99
338.25	1441.77
338.46	1511.40
338.67	1492.97
338.88	1497.07
339.09	1554.41
339.31	1538.02
339.52	1497.07
339.73	1480.68
339.94	1593.32
340.15	1593.32
340.36	1509.35
340.58	1591.27
340.79	1482.73
341.00	1591.27
341.21	1501.16
341.42	1595.37
341.63	1484.78
341.85	1503.21
342.06	1574.89
342.27	1490.92
342.48	1619.94
342.69	1544.17
342.90	1599.46
343.12	1550.31
343.33	1544.17
343.54	1495.02
343.75	1601.51
343.96	1529.83
344.17	1488.87
344.38	1458.15
344.60	1497.07
344.81	1554.41
345.02	1421.29
345.23	1523.69
345.44	1681.38
345.65	1617.90
345.86	1525.74
346.07	1462.25
346.29	1583.08
346.50	1484.78
346.71	1587.18
346.92	1652.71
347.13	1599.46
347.34	1552.36
347.55	1523.69
347.76	1566.70
347.98	1470.44
348.19	1540.07
348.40	1636.33
348.61	1521.64
348.82	1630.18
349.03	1570.79
349.24	1527.78
349.45	1660.90
349.66	1505.26
349.88	1568.74
350.09	1423.34
350.30	1611.75
350.51	1566.70
350.72	1529.83
350.93	1531.88
351.14	1472.49
351.35	1558.50
351.56	1538.02
351.77	1576.94
351.99	1589.22
352.20	1574.89
352.41	1535.98
352.62	1523.69
352.83	1544.17
353.04	1599.46
353.25	1486.83
353.46	1576.94
353.67	1568.74
353.88	1445.87
354.09	1591.27
354.30	1525.74
354.52	1538.02
354.73	1597.42
354.94	1552.36
355.15	1568.74
355.36	1568.74
355.57	1509.35
355.78	1521.64
355.99	1480.68
356.20	1468.39
356.41	1562.60
356.62	1562.60
356.83	1529.83
357.04	1554.41
357.25	1470.44
357.46	1460.20
357.68	1595.37
357.89	1519.59
358.10	1538.02
358.31	1517.54
358.52	1535.98
358.73	1499.11
358.94	1560.55
359.15	1558.50
359.36	1626.09
359.57	1517.54
359.78	1484.78
359.99	1497.07
360.20	1443.82
360.41	1611.75
360.62	1630.18
360.83	1548.26
361.04	1507.30
361.25	1527.78
361.46	1603.56
361.67	1589.22
361.88	1581.03
362.09	1605.61
362.30	1568.74
362.51	1458.15
362.72	1507.30
362.93	1515.50
363.14	1554.41
363.35	1587.18
363.56	1593.32
363.78	1609.70
363.99	1558.50
364.20	1505.26
364.41	1517.54
364.62	1615.85
364.83	1554.41
365.04	1619.94
365.25	1542.12
365.46	1636.33
365.67	1495.02
365.88	1587.18
366.09	1515.50
366.30	1490.92
366.51	1589.22
366.72	1572.84
366.93	1533.93
367.14	1560.55
367.35	1607.66
367.56	1566.70
367.77	1642.47
367.98	1495.02
368.18	1540.07
368.39	1540.07
368.60	1540.07
368.81	1648.61
369.02	1548.26
369.23	1519.59
369.44	1482.73
369.65	1505.26
369.86	1499.11
370.07	1511.40
370.28	1562.60
370.49	1492.97
370.70	1513.45
370.91	1503.21
371.12	1409.00
371.33	1523.69
371.54	1533.93
371.75	1546.22
371.96	1519.59
372.17	1505.26
372.38	1486.83
372.59	1552.36
372.80	1554.41
373.01	1525.74
373.22	1548.26
373.43	1599.46
373.64	1517.54
373.85	1558.50
374.06	1611.75
374.26	1540.07
374.47	1619.94
374.68	1591.27
374.89	1525.74
375.10	1476.59
375.31	1515.50
375.52	1533.93
375.73	1535.98
375.94	1427.43
376.15	1624.04
376.36	1425.39
376.57	1587.18
376.78	1546.22
376.99	1509.35
377.20	1662.95
377.40	1503.21
377.61	1570.79
377.82	1421.29
378.03	1603.56
378.24	1511.40
378.45	1544.17
378.66	1454.06
378.87	1511.40
379.08	1443.82
379.29	1492.97
379.50	1533.93
379.71	1497.07
379.91	1570.79
380.12	1566.70
380.33	1546.22
380.54	1546.22
380.75	1513.45
380.96	1462.25
381.17	1587.18
381.38	1509.35
381.59	1603.56
381.80	1642.47
382.00	1697.77
382.21	1566.70
382.42	1615.85
382.63	1689.57
382.84	1585.13
383.05	1562.60
383.26	1658.85
383.47	1564.65
383.68	1603.56
383.88	1660.90
384.09	1529.83
384.30	1609.70
384.51	1554.41
384.72	1466.35
384.93	1525.74
385.14	1523.69
385.35	1560.55
385.55	1488.87
385.76	1626.09
385.97	1464.30
386.18	1486.83
386.39	1492.97
386.60	1554.41
386.81	1525.74
387.02	1548.26
387.22	1552.36
387.43	1665.00
387.64	1677.29
387.85	1818.60
388.06	3252.17
388.27	7141.27
388.48	10661.73
388.68	12652.35
388.89	13913.90
389.10	13031.23
389.31	10352.48
389.52	8847.22
389.73	7792.52
389.93	7262.10
390.14	6662.04
390.35	6254.50
390.56	5601.19
390.77	4605.88
390.98	3723.21
391.18	2811.86
391.39	2211.81
391.60	1722.34
391.81	1693.67
392.02	1540.07
392.23	1669.09
392.43	1509.35
392.64	1632.23
392.85	1566.70
393.06	1624.04
393.27	1542.12
393.47	1589.22
393.68	1462.25
393.89	1562.60
394.10	1605.61
394.31	1488.87
394.52	1564.65
394.72	1521.64
394.93	1570.79
395.14	1488.87
395.35	1624.04
395.56	1589.22
395.76	1636.33
395.97	1636.33
396.18	1796.07
396.39	1710.05
396.60	1898.47
396.80	1718.25
397.01	1712.10
397.22	1634.28
397.43	1648.61
397.64	1607.66
397.84	1576.94
398.05	1585.13
398.26	1605.61
398.47	1683.43
398.67	1621.99
398.88	1509.35
399.09	1525.74
399.30	1578.98
399.51	1511.40
399.71	1558.50
399.92	1486.83
400.13	1564.65
400.34	1515.50
400.54	1542.12
400.75	1591.27
400.96	1509.35
401.17	1640.42
401.37	1558.50
401.58	1609.70
401.79	1605.61
402.00	1877.99
402.21	1935.33
402.41	1966.05
402.62	1992.67
402.83	1935.33
403.04	1769.44
403.24	1861.60
403.45	1783.78
403.66	1757.16
403.87	1755.11
404.07	1667.05
404.28	1708.01
404.49	1722.34
404.70	1583.08
404.90	1556.46
405.11	1624.04
405.32	1544.17
405.52	1576.94
405.73	1519.59
405.94	1435.63
406.15	1558.50
406.35	1521.64
406.56	1669.09
406.77	1603.56
406.98	1546.22
407.18	1490.92
407.39	1628.14
407.60	1548.26
407.80	1597.42
408.01	1513.45
408.22	1538.02
408.43	1556.46
408.63	1474.54
408.84	1677.29
409.05	1605.61
409.25	1474.54
409.46	1519.59
409.67	1615.85
409.88	1507.30
410.08	1583.08
410.29	1632.23
410.50	1566.70
410.70	1538.02
410.91	1460.20
411.12	1533.93
411.32	1578.98
411.53	1558.50
411.74	1648.61
411.95	1654.76
412.15	1566.70
412.36	1699.81
412.57	1601.51
412.77	1652.71
412.98	1540.07
413.19	1529.83
413.39	1595.37
413.60	1535.98
413.81	1581.03
414.01	1583.08
414.22	1544.17
414.43	1656.81
414.63	1574.89
414.84	1513.45
415.05	1540.07
415.25	1443.82
415.46	1492.97
415.67	1492.97
415.87	1585.13
416.08	1544.17
416.29	1513.45
416.49	1497.07
416.70	1474.54
416.91	1476.59
417.11	1587.18
417.32	1568.74
417.53	1638.38
417.73	1570.79
417.94	1507.30
418.15	1568.74
418.35	1548.26
418.56	1558.50
418.77	1638.38
418.97	1503.21
419.18	1515.50
419.38	1462.25
419.59	1544.17
419.80	1552.36
420.00	1583.08
420.21	1527.78
420.42	1607.66
420.62	1583.08
420.83	1488.87
421.04	1535.98
421.24	1523.69
421.45	1529.83
421.65	1564.65
421.86	1480.68
422.07	1517.54
422.27	1624.04
422.48	1499.11
422.69	1527.78
422.89	1533.93
423.10	1538.02
423.30	1503.21
423.51	1452.01
423.72	1554.41
423.92	1542.12
424.13	1468.39
424.33	1546.22
424.54	1624.04
424.75	1495.02
424.95	1748.97
425.16	1564.65
425.36	1505.26
425.57	1585.13
425.78	1574.89
425.98	1585.13
426.19	1540.07
426.39	1552.36
426.60	1546.22
426.81	1587.18
427.01	1521.64
427.22	1542.12
427.42	1484.78
427.63	1554.41
427.83	1634.28
428.04	1615.85
428.25	1669.09
428.45	1587.18
428.66	1562.60
428.86	1535.98
429.07	1495.02
429.28	1517.54
429.48	1525.74
429.69	1525.74
429.89	1556.46
430.10	1490.92
430.30	1624.04
430.51	1562.60
430.71	1478.63
430.92	1533.93
431.13	1552.36
431.33	1540.07
431.54	1554.41
431.74	1652.71
431.95	1619.94
432.15	1501.16
432.36	1538.02
432.56	1548.26
432.77	1607.66
432.98	1640.42
433.18	1529.83
433.39	1525.74
433.59	1574.89
433.80	1574.89
434.00	1660.90
434.21	1501.16
434.41	1546.22
434.62	1617.90
434.82	1437.67
435.03	1535.98
435.23	1574.89
435.44	1470.44
435.64	1613.80
435.85	1535.98
436.06	1617.90
436.26	1531.88
436.47	1517.54
436.67	1566.70
436.88	1550.31
437.08	1560.55
437.29	1595.37
437.49	1564.65
437.70	1587.18
437.90	1558.50
438.11	1693.67
438.31	1626.09
438.52	1724.39
438.72	1755.11
438.93	1814.50
439.13	1564.65
439.34	1652.71
439.54	1574.89
439.75	1652.71
439.95	1660.90
440.16	1550.31
440.36	1642.47
440.57	1609.70
440.77	1583.08
440.98	1609.70
441.18	1517.54
441.39	1517.54
441.59	1509.35
441.80	1568.74
442.00	1531.88
442.21	1611.75
442.41	1550.31
442.62	1527.78
442.82	1554.41
443.02	1564.65
443.23	1570.79
443.43	1525.74
443.64	1638.38
443.84	1507.30
444.05	1558.50
444.25	1552.36
444.46	1599.46
444.66	1525.74
444.87	1705.96
445.07	1492.97
445.28	1480.68
445.48	1552.36
445.69	1509.35
445.89	1640.42
446.09	1628.14
446.30	2047.97
446.50	3211.22
446.71	4495.29
446.91	5302.19
447.12	5947.30
447.32	5619.63
447.53	4644.79
447.73	4003.78
447.93	3653.58
448.14	3418.06
448.34	3184.59
448.55	2918.36
448.75	2938.84
448.96	2766.81
449.16	2486.23
449.36	2293.72
449.57	1937.38
449.77	1753.06
449.98	1689.57
450.18	1703.91
450.39	1636.33
450.59	1533.93
450.79	1605.61
451.00	1482.73
451.20	1515.50
451.41	1540.07
451.61	1628.14
451.81	1490.92
452.02	1527.78
452.22	1492.97
452.43	1511.40
452.63	1523.69
