SpectraSuite Data File
++++++++++++++++++++++++++++++++++++
Date: Tue May 03 12:55:25 CEST 2016
User: root
Dark Spectrum Present: No
Reference Spectrum Present: No
Number of Sampled Component Spectra: 1
Spectrometers: USB4C02835
Integration Time (usec): 100000 (USB4C02835)
Spectra Averaged: 1 (USB4C02835)
Boxcar Smoothing: 0 (USB4C02835)
Correct for Electrical Dark: No (USB4C02835)
Strobe/Lamp Enabled: No (USB4C02835)
Correct for Detector Non-linearity: No (USB4C02835)
Correct for Stray Light: No (USB4C02835)
Number of Pixels in Processed Spectrum: 3648
>>>>>Begin Processed Spectral Data<<<<<
177.47	1361.90
177.69	1361.90
177.91	1361.90
178.13	1249.26
178.36	1372.14
178.58	1439.72
178.80	1542.12
179.02	1466.35
179.24	1525.74
179.46	1523.69
179.68	1607.66
179.90	1566.70
180.13	1550.31
180.35	1538.02
180.57	1542.12
180.79	1576.94
181.01	1560.55
181.23	1587.18
181.45	1527.78
181.67	1523.69
181.90	1648.61
182.12	1421.29
182.34	1566.70
182.56	1587.18
182.78	1544.17
183.00	1484.78
183.22	1470.44
183.44	1511.40
183.66	1597.42
183.89	1525.74
184.11	1533.93
184.33	1546.22
184.55	1640.42
184.77	1601.51
184.99	1576.94
185.21	1519.59
185.43	1605.61
185.65	1515.50
185.87	1476.59
186.10	1654.76
186.32	1644.52
186.54	1591.27
186.76	1607.66
186.98	1517.54
187.20	1517.54
187.42	1464.30
187.64	1542.12
187.86	1601.51
188.08	1560.55
188.30	1564.65
188.52	1591.27
188.75	1583.08
188.97	1605.61
189.19	1544.17
189.41	1505.26
189.63	1523.69
189.85	1464.30
190.07	1482.73
190.29	1499.11
190.51	1519.59
190.73	1501.16
190.95	1574.89
191.17	1509.35
191.39	1441.77
191.61	1492.97
191.84	1503.21
192.06	1566.70
192.28	1525.74
192.50	1648.61
192.72	1513.45
192.94	1507.30
193.16	1615.85
193.38	1480.68
193.60	1552.36
193.82	1488.87
194.04	1595.37
194.26	1519.59
194.48	1576.94
194.70	1568.74
194.92	1552.36
195.14	1564.65
195.36	1398.76
195.58	1619.94
195.80	1476.59
196.02	1421.29
196.24	1548.26
196.46	1568.74
196.69	1431.53
196.91	1724.39
197.13	1509.35
197.35	1521.64
197.57	1603.56
197.79	1548.26
198.01	1589.22
198.23	1601.51
198.45	1619.94
198.67	1468.39
198.89	1544.17
199.11	1562.60
199.33	1521.64
199.55	1490.92
199.77	1564.65
199.99	1648.61
200.21	1531.88
200.43	1578.98
200.65	1435.63
200.87	1482.73
201.09	1546.22
201.31	1466.35
201.53	1638.38
201.75	1482.73
201.97	1554.41
202.19	1591.27
202.41	1511.40
202.63	1632.23
202.85	1501.16
203.07	1531.88
203.29	1464.30
203.51	1509.35
203.73	1505.26
203.95	1665.00
204.17	1546.22
204.39	1513.45
204.61	1495.02
204.83	1488.87
205.05	1554.41
205.27	1597.42
205.49	1693.67
205.71	1595.37
205.93	1486.83
206.15	1525.74
206.37	1591.27
206.59	1542.12
206.81	1529.83
207.03	1486.83
207.25	1535.98
207.47	1476.59
207.69	1519.59
207.91	1599.46
208.13	1609.70
208.34	1562.60
208.56	1437.67
208.78	1558.50
209.00	1593.32
209.22	1445.87
209.44	1511.40
209.66	1492.97
209.88	1509.35
210.10	1574.89
210.32	1478.63
210.54	1611.75
210.76	1521.64
210.98	1650.66
211.20	1474.54
211.42	1552.36
211.64	1607.66
211.86	1576.94
212.08	1599.46
212.30	1562.60
212.52	1509.35
212.74	1589.22
212.96	1505.26
213.17	1519.59
213.39	1599.46
213.61	1601.51
213.83	1685.48
214.05	1511.40
214.27	1593.32
214.49	1462.25
214.71	1517.54
214.93	1464.30
215.15	1533.93
215.37	1634.28
215.59	1409.00
215.81	1609.70
216.03	1529.83
216.24	1513.45
216.46	1583.08
216.68	1505.26
216.90	1517.54
217.12	1603.56
217.34	1540.07
217.56	1556.46
217.78	1609.70
218.00	1593.32
218.22	1648.61
218.44	1509.35
218.66	1591.27
218.87	1660.90
219.09	1574.89
219.31	1609.70
219.53	1562.60
219.75	1492.97
219.97	1501.16
220.19	1617.90
220.41	1480.68
220.63	1617.90
220.85	1548.26
221.06	1431.53
221.28	1574.89
221.50	1509.35
221.72	1527.78
221.94	1517.54
222.16	1538.02
222.38	1535.98
222.60	1503.21
222.82	1484.78
223.03	1564.65
223.25	1550.31
223.47	1613.80
223.69	1675.24
223.91	1595.37
224.13	1517.54
224.35	1589.22
224.57	1597.42
224.78	1630.18
225.00	1560.55
225.22	1499.11
225.44	1533.93
225.66	1538.02
225.88	1470.44
226.10	1564.65
226.32	1468.39
226.53	1619.94
226.75	1497.07
226.97	1466.35
227.19	1538.02
227.41	1560.55
227.63	1468.39
227.85	1464.30
228.06	1501.16
228.28	1505.26
228.50	1554.41
228.72	1619.94
228.94	1550.31
229.16	1460.20
229.37	1525.74
229.59	1560.55
229.81	1556.46
230.03	1533.93
230.25	1458.15
230.47	1501.16
230.69	1468.39
230.90	1581.03
231.12	1482.73
231.34	1601.51
231.56	1615.85
231.78	1488.87
232.00	1566.70
232.21	1550.31
232.43	1464.30
232.65	1417.19
232.87	1552.36
233.09	1468.39
233.30	1449.96
233.52	1591.27
233.74	1527.78
233.96	1527.78
234.18	1501.16
234.40	1562.60
234.61	1644.52
234.83	1533.93
235.05	1521.64
235.27	1667.05
235.49	1640.42
235.70	1511.40
235.92	1583.08
236.14	1589.22
236.36	1701.86
236.58	1531.88
236.79	1523.69
237.01	1505.26
237.23	1484.78
237.45	1675.24
237.67	1517.54
237.88	1542.12
238.10	1595.37
238.32	1462.25
238.54	1509.35
238.76	1501.16
238.97	1462.25
239.19	1525.74
239.41	1562.60
239.63	1587.18
239.85	1505.26
240.06	1535.98
240.28	1421.29
240.50	1535.98
240.72	1597.42
240.93	1574.89
241.15	1595.37
241.37	1548.26
241.59	1593.32
241.81	1552.36
242.02	1454.06
242.24	1589.22
242.46	1562.60
242.68	1492.97
242.89	1476.59
243.11	1597.42
243.33	1548.26
243.55	1564.65
243.76	1525.74
243.98	1585.13
244.20	1601.51
244.42	1515.50
244.64	1529.83
244.85	1464.30
245.07	1503.21
245.29	1531.88
245.51	1548.26
245.72	1517.54
245.94	1646.57
246.16	1601.51
246.38	1535.98
246.59	1542.12
246.81	1449.96
247.03	1542.12
247.24	1492.97
247.46	1445.87
247.68	1540.07
247.90	1507.30
248.11	1497.07
248.33	1595.37
248.55	1484.78
248.77	1509.35
248.98	1585.13
249.20	1671.14
249.42	1548.26
249.64	1515.50
249.85	1466.35
250.07	1468.39
250.29	1599.46
250.50	1630.18
250.72	1503.21
250.94	1550.31
251.16	1619.94
251.37	1628.14
251.59	1488.87
251.81	1548.26
252.02	1587.18
252.24	1554.41
252.46	1576.94
252.68	1566.70
252.89	1447.91
253.11	1460.20
253.33	1671.14
253.54	1540.07
253.76	1484.78
253.98	1552.36
254.20	1507.30
254.41	1490.92
254.63	1511.40
254.85	1497.07
255.06	1558.50
255.28	1552.36
255.50	1540.07
255.71	1517.54
255.93	1462.25
256.15	1550.31
256.36	1538.02
256.58	1599.46
256.80	1593.32
257.02	1488.87
257.23	1527.78
257.45	1566.70
257.67	1578.98
257.88	1482.73
258.10	1550.31
258.32	1482.73
258.53	1546.22
258.75	1546.22
258.97	1482.73
259.18	1544.17
259.40	1599.46
259.62	1617.90
259.83	1560.55
260.05	1484.78
260.27	1740.77
260.48	1546.22
260.70	1548.26
260.92	1550.31
261.13	1535.98
261.35	1583.08
261.57	1540.07
261.78	1462.25
262.00	1486.83
262.22	1570.79
262.43	1566.70
262.65	1486.83
262.86	1546.22
263.08	1535.98
263.30	1527.78
263.51	1447.91
263.73	1515.50
263.95	1558.50
264.16	1525.74
264.38	1605.61
264.60	1601.51
264.81	1511.40
265.03	1558.50
265.25	1515.50
265.46	1505.26
265.68	1599.46
265.89	1521.64
266.11	1482.73
266.33	1552.36
266.54	1640.42
266.76	1593.32
266.98	1574.89
267.19	1525.74
267.41	1581.03
267.62	1527.78
267.84	1503.21
268.06	1558.50
268.27	1548.26
268.49	1630.18
268.70	1685.48
268.92	1533.93
269.14	1492.97
269.35	1495.02
269.57	1560.55
269.79	1556.46
270.00	1517.54
270.22	1613.80
270.43	1519.59
270.65	1495.02
270.87	1523.69
271.08	1521.64
271.30	1519.59
271.51	1482.73
271.73	1521.64
271.95	1499.11
272.16	1572.84
272.38	1521.64
272.59	1583.08
272.81	1556.46
273.02	1560.55
273.24	1566.70
273.46	1585.13
273.67	1472.49
273.89	1527.78
274.10	1495.02
274.32	1531.88
274.54	1484.78
274.75	1576.94
274.97	1492.97
275.18	1538.02
275.40	1570.79
275.61	1521.64
275.83	1611.75
276.05	1488.87
276.26	1443.82
276.48	1497.07
276.69	1591.27
276.91	1509.35
277.12	1533.93
277.34	1599.46
277.55	1636.33
277.77	1546.22
277.99	1464.30
278.20	1486.83
278.42	1470.44
278.63	1515.50
278.85	1505.26
279.06	1589.22
279.28	1552.36
279.49	1552.36
279.71	1593.32
279.93	1585.13
280.14	1538.02
280.36	1538.02
280.57	1570.79
280.79	1548.26
281.00	1460.20
281.22	1478.63
281.43	1566.70
281.65	1445.87
281.86	1462.25
282.08	1574.89
282.29	1597.42
282.51	1486.83
282.73	1538.02
282.94	1488.87
283.16	1564.65
283.37	1595.37
283.59	1478.63
283.80	1542.12
284.02	1576.94
284.23	1624.04
284.45	1515.50
284.66	1492.97
284.88	1507.30
285.09	1568.74
285.31	1499.11
285.52	1550.31
285.74	1468.39
285.95	1560.55
286.17	1576.94
286.38	1689.57
286.60	1480.68
286.81	1503.21
287.03	1552.36
287.24	1443.82
287.46	1525.74
287.67	1558.50
287.89	1591.27
288.10	1562.60
288.32	1519.59
288.53	1601.51
288.75	1540.07
288.96	1574.89
289.18	1480.68
289.39	1505.26
289.61	1548.26
289.82	1597.42
290.04	1597.42
290.25	1492.97
290.47	1484.78
290.68	1574.89
290.90	1517.54
291.11	1458.15
291.33	1621.99
291.54	1488.87
291.76	1482.73
291.97	1568.74
292.18	1509.35
292.40	1525.74
292.61	1490.92
292.83	1636.33
293.04	1650.66
293.26	1613.80
293.47	1476.59
293.69	1449.96
293.90	1488.87
294.12	1681.38
294.33	1615.85
294.55	1486.83
294.76	1556.46
294.97	1556.46
295.19	1626.09
295.40	1542.12
295.62	1533.93
295.83	1603.56
296.05	1578.98
296.26	1603.56
296.48	1617.90
296.69	1495.02
296.90	1576.94
297.12	1542.12
297.33	1607.66
297.55	1574.89
297.76	1554.41
297.98	1599.46
298.19	1609.70
298.41	1556.46
298.62	1540.07
298.83	1550.31
299.05	1519.59
299.26	1552.36
299.48	1429.48
299.69	1601.51
299.90	1585.13
300.12	1519.59
300.33	1550.31
300.55	1544.17
300.76	1503.21
300.98	1474.54
301.19	1591.27
301.40	1466.35
301.62	1474.54
301.83	1519.59
302.05	1611.75
302.26	1542.12
302.47	1550.31
302.69	1535.98
302.90	1538.02
303.12	1472.49
303.33	1503.21
303.54	1638.38
303.76	1437.67
303.97	1603.56
304.19	1652.71
304.40	1492.97
304.61	1572.84
304.83	1593.32
305.04	1525.74
305.26	1560.55
305.47	1492.97
305.68	1501.16
305.90	1480.68
306.11	1562.60
306.33	1595.37
306.54	1538.02
306.75	1441.77
306.97	1525.74
307.18	1544.17
307.39	1535.98
307.61	1525.74
307.82	1499.11
308.04	1558.50
308.25	1566.70
308.46	1552.36
308.68	1529.83
308.89	1535.98
309.10	1558.50
309.32	1523.69
309.53	1525.74
309.74	1568.74
309.96	1525.74
310.17	1560.55
310.39	1396.71
310.60	1662.95
310.81	1585.13
311.03	1525.74
311.24	1525.74
311.45	1513.45
311.67	1634.28
311.88	1460.20
312.09	1552.36
312.31	1517.54
312.52	1554.41
312.73	1503.21
312.95	1474.54
313.16	1484.78
313.37	1621.99
313.59	1570.79
313.80	1581.03
314.01	1558.50
314.23	1546.22
314.44	1523.69
314.65	1490.92
314.87	1476.59
315.08	1554.41
315.29	1566.70
315.51	1519.59
315.72	1517.54
315.93	1667.05
316.15	1583.08
316.36	1476.59
316.57	1492.97
316.79	1521.64
317.00	1540.07
317.21	1556.46
317.43	1542.12
317.64	1492.97
317.85	1503.21
318.07	1470.44
318.28	1630.18
318.49	1656.81
318.70	1832.93
318.92	1736.68
319.13	1714.15
319.34	1720.29
319.56	1660.90
319.77	1648.61
319.98	1665.00
320.20	1636.33
320.41	1603.56
320.62	1538.02
320.83	1525.74
321.05	1665.00
321.26	1578.98
321.47	1556.46
321.69	1601.51
321.90	1425.39
322.11	1546.22
322.32	1601.51
322.54	1576.94
322.75	1449.96
322.96	1636.33
323.18	1472.49
323.39	1447.91
323.60	1595.37
323.81	1589.22
324.03	1564.65
324.24	1560.55
324.45	1597.42
324.66	1533.93
324.88	1572.84
325.09	1589.22
325.30	1484.78
325.52	1595.37
325.73	1570.79
325.94	1546.22
326.15	1472.49
326.37	1497.07
326.58	1560.55
326.79	1607.66
327.00	1538.02
327.22	1482.73
327.43	1546.22
327.64	1525.74
327.85	1525.74
328.07	1572.84
328.28	1572.84
328.49	1578.98
328.70	1456.11
328.92	1552.36
329.13	1556.46
329.34	1599.46
329.55	1546.22
329.76	1558.50
329.98	1542.12
330.19	1603.56
330.40	1585.13
330.61	1499.11
330.83	1529.83
331.04	1509.35
331.25	1605.61
331.46	1562.60
331.68	1415.15
331.89	1566.70
332.10	1525.74
332.31	1531.88
332.52	1486.83
332.74	1488.87
332.95	1495.02
333.16	1501.16
333.37	1566.70
333.58	1525.74
333.80	1552.36
334.01	1480.68
334.22	1511.40
334.43	1533.93
334.64	1576.94
334.86	1427.43
335.07	1378.28
335.28	1572.84
335.49	1517.54
335.70	1488.87
335.92	1521.64
336.13	1595.37
336.34	1607.66
336.55	1609.70
336.76	1607.66
336.98	1476.59
337.19	1601.51
337.40	1617.90
337.61	1669.09
337.82	1513.45
338.04	1423.34
338.25	1445.87
338.46	1503.21
338.67	1628.14
338.88	1476.59
339.09	1441.77
339.31	1511.40
339.52	1452.01
339.73	1538.02
339.94	1509.35
340.15	1570.79
340.36	1548.26
340.58	1495.02
340.79	1486.83
341.00	1523.69
341.21	1423.34
341.42	1648.61
341.63	1556.46
341.85	1574.89
342.06	1488.87
342.27	1499.11
342.48	1550.31
342.69	1441.77
342.90	1542.12
343.12	1583.08
343.33	1540.07
343.54	1499.11
343.75	1566.70
343.96	1525.74
344.17	1503.21
344.38	1490.92
344.60	1517.54
344.81	1447.91
345.02	1515.50
345.23	1556.46
345.44	1619.94
345.65	1615.85
345.86	1599.46
346.07	1495.02
346.29	1568.74
346.50	1523.69
346.71	1566.70
346.92	1568.74
347.13	1603.56
347.34	1572.84
347.55	1490.92
347.76	1476.59
347.98	1552.36
348.19	1554.41
348.40	1576.94
348.61	1515.50
348.82	1640.42
349.03	1492.97
349.24	1503.21
349.45	1685.48
349.66	1511.40
349.88	1560.55
350.09	1574.89
350.30	1638.38
350.51	1566.70
350.72	1558.50
350.93	1652.71
351.14	1564.65
351.35	1591.27
351.56	1587.18
351.77	1507.30
351.99	1574.89
352.20	1591.27
352.41	1597.42
352.62	1480.68
352.83	1550.31
353.04	1529.83
353.25	1511.40
353.46	1624.04
353.67	1605.61
353.88	1478.63
354.09	1572.84
354.30	1550.31
354.52	1538.02
354.73	1478.63
354.94	1466.35
355.15	1497.07
355.36	1638.38
355.57	1460.20
355.78	1460.20
355.99	1429.48
356.20	1562.60
356.41	1599.46
356.62	1558.50
356.83	1525.74
357.04	1529.83
357.25	1486.83
357.46	1538.02
357.68	1495.02
357.89	1480.68
358.10	1509.35
358.31	1538.02
358.52	1535.98
358.73	1533.93
358.94	1525.74
359.15	1495.02
359.36	1611.75
359.57	1531.88
359.78	1525.74
359.99	1595.37
360.20	1484.78
360.41	1556.46
360.62	1581.03
360.83	1556.46
361.04	1564.65
361.25	1564.65
361.46	1558.50
361.67	1570.79
361.88	1492.97
362.09	1558.50
362.30	1609.70
362.51	1468.39
362.72	1505.26
362.93	1529.83
363.14	1558.50
363.35	1521.64
363.56	1531.88
363.78	1599.46
363.99	1535.98
364.20	1560.55
364.41	1554.41
364.62	1681.38
364.83	1566.70
365.04	1560.55
365.25	1488.87
365.46	1636.33
365.67	1548.26
365.88	1501.16
366.09	1538.02
366.30	1560.55
366.51	1570.79
366.72	1437.67
366.93	1515.50
367.14	1550.31
367.35	1583.08
367.56	1511.40
367.77	1544.17
367.98	1591.27
368.18	1609.70
368.39	1572.84
368.60	1484.78
368.81	1540.07
369.02	1595.37
369.23	1558.50
369.44	1478.63
369.65	1511.40
369.86	1601.51
370.07	1519.59
370.28	1556.46
370.49	1515.50
370.70	1558.50
370.91	1507.30
371.12	1492.97
371.33	1544.17
371.54	1554.41
371.75	1513.45
371.96	1433.58
372.17	1556.46
372.38	1533.93
372.59	1593.32
372.80	1527.78
373.01	1525.74
373.22	1437.67
373.43	1531.88
373.64	1423.34
373.85	1636.33
374.06	1570.79
374.26	1568.74
374.47	1552.36
374.68	1550.31
374.89	1550.31
375.10	1490.92
375.31	1603.56
375.52	1587.18
375.73	1564.65
375.94	1449.96
376.15	1642.47
376.36	1583.08
376.57	1572.84
376.78	1583.08
376.99	1552.36
377.20	1624.04
377.40	1523.69
377.61	1611.75
377.82	1437.67
378.03	1599.46
378.24	1556.46
378.45	1495.02
378.66	1574.89
378.87	1402.86
379.08	1533.93
379.29	1507.30
379.50	1626.09
379.71	1562.60
379.91	1607.66
380.12	1533.93
380.33	1535.98
380.54	1540.07
380.75	1527.78
380.96	1519.59
381.17	1497.07
381.38	1595.37
381.59	1646.57
381.80	1505.26
382.00	1740.77
382.21	1591.27
382.42	1681.38
382.63	1703.91
382.84	1576.94
383.05	1540.07
383.26	1591.27
383.47	1570.79
383.68	1597.42
383.88	1562.60
384.09	1527.78
384.30	1605.61
384.51	1599.46
384.72	1560.55
384.93	1525.74
385.14	1595.37
385.35	1599.46
385.55	1460.20
385.76	1648.61
385.97	1542.12
386.18	1443.82
386.39	1521.64
386.60	1542.12
386.81	1617.90
387.02	1558.50
387.22	1488.87
387.43	1615.85
387.64	1712.10
387.85	1839.08
388.06	3096.53
388.27	7184.27
388.48	10588.00
388.68	12425.03
388.89	13823.79
389.10	12889.92
389.31	10104.68
389.52	9103.22
389.73	7905.16
389.93	7317.39
390.14	6844.31
390.35	6309.79
390.56	5408.69
390.77	4589.50
390.98	3624.90
391.18	2842.58
391.39	2254.81
391.60	1771.49
391.81	1718.25
392.02	1564.65
392.23	1781.73
392.43	1544.17
392.64	1578.98
392.85	1570.79
393.06	1603.56
393.27	1509.35
393.47	1527.78
393.68	1515.50
393.89	1564.65
394.10	1632.23
394.31	1554.41
394.52	1482.73
394.72	1552.36
394.93	1621.99
395.14	1523.69
395.35	1593.32
395.56	1492.97
395.76	1605.61
395.97	1648.61
396.18	1761.25
396.39	1740.77
396.60	1855.46
396.80	1814.50
397.01	1660.90
397.22	1638.38
397.43	1685.48
397.64	1544.17
397.84	1595.37
398.05	1675.24
398.26	1570.79
398.47	1613.80
398.67	1607.66
398.88	1531.88
399.09	1648.61
399.30	1574.89
399.51	1619.94
399.71	1439.72
399.92	1533.93
400.13	1497.07
400.34	1507.30
400.54	1574.89
400.75	1568.74
400.96	1556.46
401.17	1558.50
401.37	1499.11
401.58	1574.89
401.79	1593.32
402.00	1744.87
402.21	1951.71
402.41	1898.47
402.62	1966.05
402.83	1976.29
403.04	1744.87
403.24	1959.91
403.45	1685.48
403.66	1736.68
403.87	1734.63
404.07	1738.73
404.28	1828.84
404.49	1722.34
404.70	1626.09
404.90	1552.36
405.11	1576.94
405.32	1591.27
405.52	1574.89
405.73	1529.83
405.94	1517.54
406.15	1517.54
406.35	1562.60
406.56	1587.18
406.77	1525.74
406.98	1507.30
407.18	1515.50
407.39	1673.19
407.60	1515.50
407.80	1581.03
408.01	1472.49
408.22	1540.07
408.43	1501.16
408.63	1466.35
408.84	1558.50
409.05	1640.42
409.25	1439.72
409.46	1466.35
409.67	1492.97
409.88	1517.54
410.08	1603.56
410.29	1435.63
410.50	1574.89
410.70	1615.85
410.91	1470.44
411.12	1570.79
411.32	1529.83
411.53	1486.83
411.74	1642.47
411.95	1521.64
412.15	1624.04
412.36	1599.46
412.57	1634.28
412.77	1572.84
412.98	1576.94
413.19	1613.80
413.39	1556.46
413.60	1607.66
413.81	1642.47
414.01	1511.40
414.22	1650.66
414.43	1638.38
414.63	1529.83
414.84	1595.37
415.05	1542.12
415.25	1531.88
415.46	1576.94
415.67	1525.74
415.87	1495.02
416.08	1566.70
416.29	1513.45
416.49	1644.52
416.70	1511.40
416.91	1538.02
417.11	1542.12
417.32	1626.09
417.53	1574.89
417.73	1495.02
417.94	1583.08
418.15	1523.69
418.35	1490.92
418.56	1560.55
418.77	1632.23
418.97	1542.12
419.18	1533.93
419.38	1458.15
419.59	1576.94
419.80	1560.55
420.00	1550.31
420.21	1482.73
420.42	1529.83
420.62	1632.23
420.83	1445.87
421.04	1583.08
421.24	1490.92
421.45	1560.55
421.65	1513.45
421.86	1523.69
422.07	1566.70
422.27	1527.78
422.48	1601.51
422.69	1468.39
422.89	1552.36
423.10	1486.83
423.30	1480.68
423.51	1488.87
423.72	1568.74
423.92	1568.74
424.13	1437.67
424.33	1531.88
424.54	1572.84
424.75	1574.89
424.95	1505.26
425.16	1599.46
425.36	1476.59
425.57	1607.66
425.78	1574.89
425.98	1601.51
426.19	1507.30
426.39	1468.39
426.60	1515.50
426.81	1562.60
427.01	1484.78
427.22	1513.45
427.42	1423.34
427.63	1595.37
427.83	1566.70
428.04	1585.13
428.25	1644.52
428.45	1636.33
428.66	1650.66
428.86	1503.21
429.07	1513.45
429.28	1542.12
429.48	1552.36
429.69	1490.92
429.89	1544.17
430.10	1411.05
430.30	1499.11
430.51	1613.80
430.71	1515.50
430.92	1550.31
431.13	1564.65
431.33	1495.02
431.54	1527.78
431.74	1658.85
431.95	1564.65
432.15	1550.31
432.36	1525.74
432.56	1636.33
432.77	1619.94
432.98	1568.74
433.18	1529.83
433.39	1443.82
433.59	1535.98
433.80	1648.61
434.00	1578.98
434.21	1525.74
434.41	1525.74
434.62	1640.42
434.82	1505.26
435.03	1478.63
435.23	1497.07
435.44	1556.46
435.64	1462.25
435.85	1560.55
436.06	1552.36
436.26	1568.74
436.47	1550.31
436.67	1488.87
436.88	1566.70
437.08	1585.13
437.29	1595.37
437.49	1527.78
437.70	1583.08
437.90	1513.45
438.11	1673.19
438.31	1689.57
438.52	1673.19
438.72	1773.54
438.93	1720.29
439.13	1642.47
439.34	1634.28
439.54	1542.12
439.75	1593.32
439.95	1660.90
440.16	1581.03
440.36	1509.35
440.57	1599.46
440.77	1615.85
440.98	1548.26
441.18	1554.41
441.39	1503.21
441.59	1542.12
441.80	1566.70
442.00	1552.36
442.21	1636.33
442.41	1476.59
442.62	1628.14
442.82	1554.41
443.02	1544.17
443.23	1554.41
443.43	1507.30
443.64	1589.22
443.84	1460.20
444.05	1640.42
444.25	1615.85
444.46	1482.73
444.66	1554.41
444.87	1619.94
445.07	1468.39
445.28	1556.46
445.48	1613.80
445.69	1691.62
445.89	1642.47
446.09	1658.85
446.30	1961.95
446.50	3180.50
446.71	4505.53
446.91	5240.75
447.12	5918.63
447.32	5638.06
447.53	4687.80
447.73	4038.59
447.93	3717.06
448.14	3268.56
448.34	3231.69
448.55	2973.65
448.75	2875.35
448.96	2697.17
449.16	2422.75
449.36	2252.77
449.57	2031.58
449.77	1785.83
449.98	1708.01
450.18	1634.28
450.39	1642.47
450.59	1609.70
450.79	1544.17
451.00	1470.44
451.20	1593.32
451.41	1583.08
451.61	1531.88
451.81	1568.74
452.02	1525.74
452.22	1521.64
452.43	1531.88
452.63	1601.51
