SpectraSuite Data File
++++++++++++++++++++++++++++++++++++
Date: Tue May 03 12:55:31 CEST 2016
User: root
Dark Spectrum Present: No
Reference Spectrum Present: No
Number of Sampled Component Spectra: 1
Spectrometers: USB4C02835
Integration Time (usec): 100000 (USB4C02835)
Spectra Averaged: 1 (USB4C02835)
Boxcar Smoothing: 0 (USB4C02835)
Correct for Electrical Dark: No (USB4C02835)
Strobe/Lamp Enabled: No (USB4C02835)
Correct for Detector Non-linearity: No (USB4C02835)
Correct for Stray Light: No (USB4C02835)
Number of Pixels in Processed Spectrum: 3648
>>>>>Begin Processed Spectral Data<<<<<
177.47	1355.76
177.69	1355.76
177.91	1355.76
178.13	1363.95
178.36	1361.90
178.58	1525.74
178.80	1533.93
179.02	1519.59
179.24	1495.02
179.46	1513.45
179.68	1538.02
179.90	1503.21
180.13	1544.17
180.35	1585.13
180.57	1574.89
180.79	1619.94
181.01	1589.22
181.23	1665.00
181.45	1615.85
181.67	1515.50
181.90	1550.31
182.12	1474.54
182.34	1468.39
182.56	1562.60
182.78	1593.32
183.00	1531.88
183.22	1572.84
183.44	1507.30
183.66	1751.01
183.89	1671.14
184.11	1511.40
184.33	1578.98
184.55	1572.84
184.77	1632.23
184.99	1576.94
185.21	1490.92
185.43	1718.25
185.65	1529.83
185.87	1576.94
186.10	1613.80
186.32	1570.79
186.54	1628.14
186.76	1542.12
186.98	1566.70
187.20	1505.26
187.42	1533.93
187.64	1458.15
187.86	1587.18
188.08	1621.99
188.30	1503.21
188.52	1542.12
188.75	1581.03
188.97	1603.56
189.19	1533.93
189.41	1505.26
189.63	1560.55
189.85	1490.92
190.07	1490.92
190.29	1482.73
190.51	1554.41
190.73	1419.24
190.95	1634.28
191.17	1476.59
191.39	1474.54
191.61	1570.79
191.84	1509.35
192.06	1595.37
192.28	1492.97
192.50	1689.57
192.72	1511.40
192.94	1507.30
193.16	1591.27
193.38	1478.63
193.60	1570.79
193.82	1542.12
194.04	1581.03
194.26	1599.46
194.48	1495.02
194.70	1490.92
194.92	1529.83
195.14	1533.93
195.36	1515.50
195.58	1607.66
195.80	1482.73
196.02	1525.74
196.24	1511.40
196.46	1511.40
196.69	1454.06
196.91	1658.85
197.13	1550.31
197.35	1495.02
197.57	1570.79
197.79	1550.31
198.01	1535.98
198.23	1533.93
198.45	1542.12
198.67	1470.44
198.89	1558.50
199.11	1593.32
199.33	1527.78
199.55	1427.43
199.77	1628.14
199.99	1587.18
200.21	1576.94
200.43	1556.46
200.65	1464.30
200.87	1435.63
201.09	1540.07
201.31	1521.64
201.53	1546.22
201.75	1476.59
201.97	1531.88
202.19	1519.59
202.41	1544.17
202.63	1632.23
202.85	1542.12
203.07	1513.45
203.29	1558.50
203.51	1587.18
203.73	1484.78
203.95	1671.14
204.17	1544.17
204.39	1535.98
204.61	1513.45
204.83	1540.07
205.05	1564.65
205.27	1566.70
205.49	1554.41
205.71	1593.32
205.93	1519.59
206.15	1597.42
206.37	1542.12
206.59	1597.42
206.81	1503.21
207.03	1560.55
207.25	1472.49
207.47	1599.46
207.69	1560.55
207.91	1609.70
208.13	1544.17
208.34	1476.59
208.56	1572.84
208.78	1589.22
209.00	1501.16
209.22	1499.11
209.44	1540.07
209.66	1517.54
209.88	1439.72
210.10	1513.45
210.32	1462.25
210.54	1681.38
210.76	1525.74
210.98	1554.41
211.20	1470.44
211.42	1546.22
211.64	1542.12
211.86	1519.59
212.08	1560.55
212.30	1601.51
212.52	1495.02
212.74	1513.45
212.96	1474.54
213.17	1587.18
213.39	1581.03
213.61	1583.08
213.83	1542.12
214.05	1499.11
214.27	1574.89
214.49	1492.97
214.71	1517.54
214.93	1654.76
215.15	1462.25
215.37	1615.85
215.59	1505.26
215.81	1531.88
216.03	1636.33
216.24	1507.30
216.46	1538.02
216.68	1632.23
216.90	1585.13
217.12	1548.26
217.34	1521.64
217.56	1505.26
217.78	1595.37
218.00	1632.23
218.22	1599.46
218.44	1568.74
218.66	1533.93
218.87	1679.33
219.09	1591.27
219.31	1595.37
219.53	1546.22
219.75	1505.26
219.97	1517.54
220.19	1511.40
220.41	1486.83
220.63	1615.85
220.85	1523.69
221.06	1466.35
221.28	1583.08
221.50	1628.14
221.72	1501.16
221.94	1546.22
222.16	1492.97
222.38	1572.84
222.60	1548.26
222.82	1443.82
223.03	1595.37
223.25	1456.11
223.47	1621.99
223.69	1574.89
223.91	1548.26
224.13	1550.31
224.35	1558.50
224.57	1568.74
224.78	1574.89
225.00	1538.02
225.22	1470.44
225.44	1574.89
225.66	1560.55
225.88	1464.30
226.10	1621.99
226.32	1574.89
226.53	1560.55
226.75	1449.96
226.97	1480.68
227.19	1538.02
227.41	1509.35
227.63	1535.98
227.85	1447.91
228.06	1488.87
228.28	1558.50
228.50	1585.13
228.72	1517.54
228.94	1591.27
229.16	1478.63
229.37	1583.08
229.59	1484.78
229.81	1605.61
230.03	1558.50
230.25	1488.87
230.47	1445.87
230.69	1470.44
230.90	1511.40
231.12	1521.64
231.34	1503.21
231.56	1525.74
231.78	1503.21
232.00	1538.02
232.21	1533.93
232.43	1499.11
232.65	1421.29
232.87	1574.89
233.09	1482.73
233.30	1552.36
233.52	1503.21
233.74	1439.72
233.96	1499.11
234.18	1525.74
234.40	1517.54
234.61	1570.79
234.83	1505.26
235.05	1449.96
235.27	1609.70
235.49	1570.79
235.70	1570.79
235.92	1480.68
236.14	1597.42
236.36	1644.52
236.58	1511.40
236.79	1548.26
237.01	1476.59
237.23	1476.59
237.45	1611.75
237.67	1499.11
237.88	1521.64
238.10	1648.61
238.32	1521.64
238.54	1503.21
238.76	1497.07
238.97	1509.35
239.19	1531.88
239.41	1566.70
239.63	1583.08
239.85	1529.83
240.06	1531.88
240.28	1484.78
240.50	1591.27
240.72	1513.45
240.93	1509.35
241.15	1615.85
241.37	1558.50
241.59	1587.18
241.81	1458.15
242.02	1570.79
242.24	1517.54
242.46	1599.46
242.68	1562.60
242.89	1562.60
243.11	1593.32
243.33	1560.55
243.55	1570.79
243.76	1468.39
243.98	1464.30
244.20	1568.74
244.42	1574.89
244.64	1513.45
244.85	1531.88
245.07	1517.54
245.29	1585.13
245.51	1538.02
245.72	1535.98
245.94	1538.02
246.16	1538.02
246.38	1521.64
246.59	1480.68
246.81	1566.70
247.03	1564.65
247.24	1556.46
247.46	1605.61
247.68	1556.46
247.90	1497.07
248.11	1611.75
248.33	1572.84
248.55	1544.17
248.77	1538.02
248.98	1568.74
249.20	1576.94
249.42	1480.68
249.64	1564.65
249.85	1460.20
250.07	1472.49
250.29	1583.08
250.50	1671.14
250.72	1466.35
250.94	1560.55
251.16	1581.03
251.37	1562.60
251.59	1587.18
251.81	1540.07
252.02	1619.94
252.24	1574.89
252.46	1583.08
252.68	1564.65
252.89	1468.39
253.11	1470.44
253.33	1611.75
253.54	1628.14
253.76	1511.40
253.98	1554.41
254.20	1519.59
254.41	1507.30
254.63	1560.55
254.85	1497.07
255.06	1550.31
255.28	1589.22
255.50	1568.74
255.71	1531.88
255.93	1466.35
256.15	1566.70
256.36	1515.50
256.58	1570.79
256.80	1507.30
257.02	1507.30
257.23	1511.40
257.45	1501.16
257.67	1525.74
257.88	1492.97
258.10	1519.59
258.32	1578.98
258.53	1607.66
258.75	1605.61
258.97	1550.31
259.18	1554.41
259.40	1560.55
259.62	1609.70
259.83	1556.46
260.05	1572.84
260.27	1757.16
260.48	1542.12
260.70	1468.39
260.92	1607.66
261.13	1574.89
261.35	1540.07
261.57	1468.39
261.78	1492.97
262.00	1533.93
262.22	1574.89
262.43	1513.45
262.65	1523.69
262.86	1544.17
263.08	1605.61
263.30	1554.41
263.51	1468.39
263.73	1538.02
263.95	1585.13
264.16	1519.59
264.38	1486.83
264.60	1583.08
264.81	1556.46
265.03	1566.70
265.25	1564.65
265.46	1597.42
265.68	1550.31
265.89	1574.89
266.11	1366.00
266.33	1603.56
266.54	1540.07
266.76	1540.07
266.98	1603.56
267.19	1611.75
267.41	1636.33
267.62	1460.20
267.84	1439.72
268.06	1595.37
268.27	1576.94
268.49	1595.37
268.70	1550.31
268.92	1535.98
269.14	1423.34
269.35	1507.30
269.57	1542.12
269.79	1505.26
270.00	1540.07
270.22	1619.94
270.43	1464.30
270.65	1411.05
270.87	1468.39
271.08	1519.59
271.30	1652.71
271.51	1548.26
271.73	1525.74
271.95	1564.65
272.16	1550.31
272.38	1552.36
272.59	1566.70
272.81	1591.27
273.02	1550.31
273.24	1554.41
273.46	1525.74
273.67	1501.16
273.89	1513.45
274.10	1558.50
274.32	1613.80
274.54	1533.93
274.75	1558.50
274.97	1564.65
275.18	1503.21
275.40	1558.50
275.61	1581.03
275.83	1587.18
276.05	1548.26
276.26	1552.36
276.48	1484.78
276.69	1521.64
276.91	1476.59
277.12	1595.37
277.34	1583.08
277.55	1572.84
277.77	1460.20
277.99	1478.63
278.20	1439.72
278.42	1570.79
278.63	1581.03
278.85	1486.83
279.06	1470.44
279.28	1558.50
279.49	1589.22
279.71	1585.13
279.93	1517.54
280.14	1607.66
280.36	1513.45
280.57	1640.42
280.79	1554.41
281.00	1576.94
281.22	1480.68
281.43	1624.04
281.65	1411.05
281.86	1538.02
282.08	1660.90
282.29	1638.38
282.51	1445.87
282.73	1404.91
282.94	1478.63
283.16	1556.46
283.37	1581.03
283.59	1538.02
283.80	1601.51
284.02	1486.83
284.23	1529.83
284.45	1523.69
284.66	1462.25
284.88	1564.65
285.09	1601.51
285.31	1562.60
285.52	1562.60
285.74	1458.15
285.95	1478.63
286.17	1566.70
286.38	1624.04
286.60	1492.97
286.81	1540.07
287.03	1452.01
287.24	1556.46
287.46	1607.66
287.67	1484.78
287.89	1587.18
288.10	1564.65
288.32	1585.13
288.53	1597.42
288.75	1568.74
288.96	1603.56
289.18	1576.94
289.39	1646.57
289.61	1517.54
289.82	1632.23
290.04	1589.22
290.25	1478.63
290.47	1517.54
290.68	1482.73
290.90	1535.98
291.11	1517.54
291.33	1591.27
291.54	1476.59
291.76	1488.87
291.97	1548.26
292.18	1501.16
292.40	1478.63
292.61	1521.64
292.83	1689.57
293.04	1576.94
293.26	1486.83
293.47	1599.46
293.69	1437.67
293.90	1597.42
294.12	1583.08
294.33	1558.50
294.55	1492.97
294.76	1613.80
294.97	1544.17
295.19	1619.94
295.40	1542.12
295.62	1607.66
295.83	1529.83
296.05	1564.65
296.26	1617.90
296.48	1433.58
296.69	1550.31
296.90	1513.45
297.12	1570.79
297.33	1576.94
297.55	1548.26
297.76	1576.94
297.98	1556.46
298.19	1527.78
298.41	1517.54
298.62	1464.30
298.83	1578.98
299.05	1576.94
299.26	1527.78
299.48	1456.11
299.69	1572.84
299.90	1517.54
300.12	1505.26
300.33	1564.65
300.55	1503.21
300.76	1566.70
300.98	1525.74
301.19	1511.40
301.40	1578.98
301.62	1531.88
301.83	1560.55
302.05	1607.66
302.26	1497.07
302.47	1544.17
302.69	1427.43
302.90	1511.40
303.12	1490.92
303.33	1564.65
303.54	1621.99
303.76	1435.63
303.97	1562.60
304.19	1626.09
304.40	1462.25
304.61	1509.35
304.83	1617.90
305.04	1511.40
305.26	1556.46
305.47	1429.48
305.68	1527.78
305.90	1515.50
306.11	1527.78
306.33	1552.36
306.54	1476.59
306.75	1431.53
306.97	1429.48
307.18	1464.30
307.39	1542.12
307.61	1540.07
307.82	1517.54
308.04	1572.84
308.25	1525.74
308.46	1544.17
308.68	1474.54
308.89	1533.93
309.10	1535.98
309.32	1597.42
309.53	1441.77
309.74	1562.60
309.96	1484.78
310.17	1656.81
310.39	1585.13
310.60	1515.50
310.81	1501.16
311.03	1468.39
311.24	1562.60
311.45	1488.87
311.67	1595.37
311.88	1542.12
312.09	1558.50
312.31	1558.50
312.52	1585.13
312.73	1558.50
312.95	1462.25
313.16	1535.98
313.37	1597.42
313.59	1574.89
313.80	1560.55
314.01	1574.89
314.23	1550.31
314.44	1501.16
314.65	1482.73
314.87	1482.73
315.08	1570.79
315.29	1503.21
315.51	1462.25
315.72	1495.02
315.93	1628.14
316.15	1519.59
316.36	1433.58
316.57	1533.93
316.79	1505.26
317.00	1503.21
317.21	1521.64
317.43	1490.92
317.64	1482.73
317.85	1464.30
318.07	1517.54
318.28	1640.42
318.49	1683.43
318.70	1755.11
318.92	1722.34
319.13	1574.89
319.34	1681.38
319.56	1667.05
319.77	1601.51
319.98	1673.19
320.20	1599.46
320.41	1535.98
320.62	1656.81
320.83	1488.87
321.05	1646.57
321.26	1552.36
321.47	1507.30
321.69	1632.23
321.90	1437.67
322.11	1497.07
322.32	1581.03
322.54	1578.98
322.75	1490.92
322.96	1669.09
323.18	1476.59
323.39	1411.05
323.60	1421.29
323.81	1595.37
324.03	1482.73
324.24	1509.35
324.45	1538.02
324.66	1556.46
324.88	1525.74
325.09	1585.13
325.30	1458.15
325.52	1599.46
325.73	1591.27
325.94	1492.97
326.15	1421.29
326.37	1486.83
326.58	1560.55
326.79	1589.22
327.00	1435.63
327.22	1585.13
327.43	1486.83
327.64	1468.39
327.85	1558.50
328.07	1535.98
328.28	1593.32
328.49	1548.26
328.70	1566.70
328.92	1521.64
329.13	1566.70
329.34	1585.13
329.55	1636.33
329.76	1621.99
329.98	1497.07
330.19	1642.47
330.40	1509.35
330.61	1492.97
330.83	1509.35
331.04	1552.36
331.25	1554.41
331.46	1509.35
331.68	1439.72
331.89	1558.50
332.10	1515.50
332.31	1505.26
332.52	1544.17
332.74	1626.09
332.95	1454.06
333.16	1511.40
333.37	1581.03
333.58	1519.59
333.80	1624.04
334.01	1478.63
334.22	1554.41
334.43	1507.30
334.64	1439.72
334.86	1476.59
335.07	1521.64
335.28	1597.42
335.49	1538.02
335.70	1562.60
335.92	1562.60
336.13	1658.85
336.34	1572.84
336.55	1511.40
336.76	1519.59
336.98	1445.87
337.19	1562.60
337.40	1552.36
337.61	1613.80
337.82	1607.66
338.04	1556.46
338.25	1495.02
338.46	1519.59
338.67	1507.30
338.88	1505.26
339.09	1486.83
339.31	1542.12
339.52	1523.69
339.73	1486.83
339.94	1492.97
340.15	1640.42
340.36	1505.26
340.58	1519.59
340.79	1546.22
341.00	1560.55
341.21	1456.11
341.42	1574.89
341.63	1558.50
341.85	1626.09
342.06	1527.78
342.27	1454.06
342.48	1544.17
342.69	1529.83
342.90	1507.30
343.12	1542.12
343.33	1501.16
343.54	1589.22
343.75	1654.76
343.96	1478.63
344.17	1482.73
344.38	1552.36
344.60	1501.16
344.81	1490.92
345.02	1519.59
345.23	1529.83
345.44	1636.33
345.65	1548.26
345.86	1503.21
346.07	1517.54
346.29	1482.73
346.50	1533.93
346.71	1628.14
346.92	1542.12
347.13	1578.98
347.34	1542.12
347.55	1566.70
347.76	1501.16
347.98	1435.63
348.19	1521.64
348.40	1601.51
348.61	1464.30
348.82	1581.03
349.03	1562.60
349.24	1501.16
349.45	1689.57
349.66	1435.63
349.88	1587.18
350.09	1492.97
350.30	1644.52
350.51	1679.33
350.72	1540.07
350.93	1548.26
351.14	1540.07
351.35	1525.74
351.56	1595.37
351.77	1517.54
351.99	1511.40
352.20	1593.32
352.41	1632.23
352.62	1460.20
352.83	1540.07
353.04	1558.50
353.25	1552.36
353.46	1568.74
353.67	1576.94
353.88	1437.67
354.09	1558.50
354.30	1482.73
354.52	1507.30
354.73	1560.55
354.94	1486.83
355.15	1507.30
355.36	1605.61
355.57	1533.93
355.78	1589.22
355.99	1480.68
356.20	1466.35
356.41	1441.77
356.62	1544.17
356.83	1568.74
357.04	1609.70
357.25	1427.43
357.46	1509.35
357.68	1538.02
357.89	1472.49
358.10	1480.68
358.31	1535.98
358.52	1556.46
358.73	1499.11
358.94	1470.44
359.15	1521.64
359.36	1558.50
359.57	1570.79
359.78	1484.78
359.99	1548.26
360.20	1490.92
360.41	1511.40
360.62	1544.17
360.83	1542.12
361.04	1560.55
361.25	1546.22
361.46	1595.37
361.67	1601.51
361.88	1552.36
362.09	1501.16
362.30	1503.21
362.51	1538.02
362.72	1648.61
362.93	1578.98
363.14	1572.84
363.35	1560.55
363.56	1554.41
363.78	1617.90
363.99	1574.89
364.20	1548.26
364.41	1519.59
364.62	1675.24
364.83	1566.70
365.04	1562.60
365.25	1462.25
365.46	1669.09
365.67	1558.50
365.88	1507.30
366.09	1476.59
366.30	1535.98
366.51	1527.78
366.72	1513.45
366.93	1544.17
367.14	1495.02
367.35	1632.23
367.56	1509.35
367.77	1607.66
367.98	1554.41
368.18	1581.03
368.39	1640.42
368.60	1550.31
368.81	1535.98
369.02	1556.46
369.23	1517.54
369.44	1552.36
369.65	1640.42
369.86	1556.46
370.07	1562.60
370.28	1478.63
370.49	1576.94
370.70	1570.79
370.91	1503.21
371.12	1517.54
371.33	1570.79
371.54	1441.77
371.75	1710.05
371.96	1433.58
372.17	1507.30
372.38	1531.88
372.59	1533.93
372.80	1542.12
373.01	1519.59
373.22	1427.43
373.43	1564.65
373.64	1509.35
373.85	1587.18
374.06	1572.84
374.26	1560.55
374.47	1548.26
374.68	1570.79
374.89	1615.85
375.10	1490.92
375.31	1574.89
375.52	1507.30
375.73	1527.78
375.94	1476.59
376.15	1665.00
376.36	1499.11
376.57	1560.55
376.78	1488.87
376.99	1554.41
377.20	1546.22
377.40	1519.59
377.61	1568.74
377.82	1560.55
378.03	1605.61
378.24	1560.55
378.45	1548.26
378.66	1576.94
378.87	1509.35
379.08	1392.62
379.29	1550.31
379.50	1589.22
379.71	1527.78
379.91	1488.87
380.12	1482.73
380.33	1591.27
380.54	1566.70
380.75	1478.63
380.96	1546.22
381.17	1570.79
381.38	1583.08
381.59	1581.03
381.80	1638.38
382.00	1615.85
382.21	1603.56
382.42	1683.43
382.63	1695.72
382.84	1599.46
383.05	1558.50
383.26	1599.46
383.47	1562.60
383.68	1558.50
383.88	1589.22
384.09	1513.45
384.30	1589.22
384.51	1566.70
384.72	1486.83
384.93	1445.87
385.14	1574.89
385.35	1644.52
385.55	1460.20
385.76	1632.23
385.97	1535.98
386.18	1462.25
386.39	1550.31
386.60	1546.22
386.81	1497.07
387.02	1531.88
387.22	1556.46
387.43	1671.14
387.64	1699.81
387.85	1816.55
388.06	3123.15
388.27	7157.65
388.48	10614.62
388.68	12453.70
388.89	13965.10
389.10	12857.15
389.31	10133.35
389.52	8875.90
389.73	7843.72
389.93	7241.62
390.14	6733.72
390.35	6131.62
390.56	5425.07
390.77	4573.11
390.98	3588.04
391.18	2740.18
391.39	2136.03
391.60	1861.60
391.81	1718.25
392.02	1581.03
392.23	1587.18
392.43	1558.50
392.64	1603.56
392.85	1667.05
393.06	1675.24
393.27	1505.26
393.47	1517.54
393.68	1587.18
393.89	1511.40
394.10	1697.77
394.31	1492.97
394.52	1435.63
394.72	1556.46
394.93	1603.56
395.14	1492.97
395.35	1632.23
395.56	1503.21
395.76	1634.28
395.97	1734.63
396.18	1687.53
396.39	1697.77
396.60	1920.99
396.80	1791.97
397.01	1667.05
397.22	1644.52
397.43	1648.61
397.64	1531.88
397.84	1705.96
398.05	1728.49
398.26	1626.09
398.47	1568.74
398.67	1599.46
398.88	1458.15
399.09	1599.46
399.30	1456.11
399.51	1523.69
399.71	1511.40
399.92	1501.16
400.13	1525.74
400.34	1615.85
400.54	1552.36
400.75	1589.22
400.96	1560.55
401.17	1603.56
401.37	1585.13
401.58	1507.30
401.79	1578.98
402.00	1841.12
402.21	1923.04
402.41	1875.94
402.62	1964.00
402.83	1976.29
403.04	1847.27
403.24	1947.62
403.45	1687.53
403.66	1724.39
403.87	1785.83
404.07	1675.24
404.28	1722.34
404.49	1701.86
404.70	1585.13
404.90	1638.38
405.11	1484.78
405.32	1581.03
405.52	1519.59
405.73	1511.40
405.94	1507.30
406.15	1574.89
406.35	1572.84
406.56	1576.94
406.77	1568.74
406.98	1552.36
407.18	1505.26
407.39	1669.09
407.60	1458.15
407.80	1492.97
408.01	1460.20
408.22	1560.55
408.43	1546.22
408.63	1599.46
408.84	1583.08
409.05	1558.50
409.25	1474.54
409.46	1505.26
409.67	1540.07
409.88	1517.54
410.08	1589.22
410.29	1544.17
410.50	1591.27
410.70	1564.65
410.91	1458.15
411.12	1509.35
411.32	1546.22
411.53	1529.83
411.74	1662.95
411.95	1648.61
412.15	1613.80
412.36	1644.52
412.57	1548.26
412.77	1644.52
412.98	1554.41
413.19	1550.31
413.39	1624.04
413.60	1599.46
413.81	1650.66
414.01	1480.68
414.22	1628.14
414.43	1638.38
414.63	1535.98
414.84	1667.05
415.05	1611.75
415.25	1589.22
415.46	1611.75
415.67	1468.39
415.87	1548.26
416.08	1591.27
416.29	1495.02
416.49	1585.13
416.70	1523.69
416.91	1521.64
417.11	1581.03
417.32	1587.18
417.53	1560.55
417.73	1607.66
417.94	1507.30
418.15	1558.50
418.35	1568.74
418.56	1535.98
418.77	1613.80
418.97	1525.74
419.18	1538.02
419.38	1411.05
419.59	1544.17
419.80	1660.90
420.00	1505.26
420.21	1615.85
420.42	1538.02
420.62	1572.84
420.83	1607.66
421.04	1542.12
421.24	1486.83
421.45	1587.18
421.65	1540.07
421.86	1533.93
422.07	1556.46
422.27	1544.17
422.48	1562.60
422.69	1566.70
422.89	1437.67
423.10	1511.40
423.30	1466.35
423.51	1523.69
423.72	1597.42
423.92	1578.98
424.13	1517.54
424.33	1538.02
424.54	1570.79
424.75	1478.63
424.95	1591.27
425.16	1515.50
425.36	1538.02
425.57	1570.79
425.78	1552.36
425.98	1566.70
426.19	1499.11
426.39	1443.82
426.60	1521.64
426.81	1527.78
427.01	1538.02
427.22	1554.41
427.42	1472.49
427.63	1548.26
427.83	1630.18
428.04	1615.85
428.25	1619.94
428.45	1576.94
428.66	1527.78
428.86	1574.89
429.07	1570.79
429.28	1538.02
429.48	1548.26
429.69	1472.49
429.89	1595.37
430.10	1517.54
430.30	1492.97
430.51	1583.08
430.71	1484.78
430.92	1538.02
431.13	1490.92
431.33	1501.16
431.54	1597.42
431.74	1638.38
431.95	1583.08
432.15	1501.16
432.36	1558.50
432.56	1593.32
432.77	1628.14
432.98	1583.08
433.18	1646.57
433.39	1593.32
433.59	1554.41
433.80	1628.14
434.00	1687.53
434.21	1478.63
434.41	1505.26
434.62	1638.38
434.82	1478.63
435.03	1495.02
435.23	1507.30
435.44	1460.20
435.64	1601.51
435.85	1568.74
436.06	1587.18
436.26	1525.74
436.47	1488.87
436.67	1521.64
436.88	1546.22
437.08	1560.55
437.29	1656.81
437.49	1607.66
437.70	1572.84
437.90	1591.27
438.11	1691.62
438.31	1652.71
438.52	1705.96
438.72	1740.77
438.93	1722.34
439.13	1609.70
439.34	1665.00
439.54	1587.18
439.75	1583.08
439.95	1640.42
440.16	1566.70
440.36	1607.66
440.57	1568.74
440.77	1587.18
440.98	1589.22
441.18	1568.74
441.39	1501.16
441.59	1462.25
441.80	1624.04
442.00	1515.50
442.21	1560.55
442.41	1437.67
442.62	1599.46
442.82	1521.64
443.02	1595.37
443.23	1607.66
443.43	1587.18
443.64	1695.72
443.84	1474.54
444.05	1615.85
444.25	1574.89
444.46	1568.74
444.66	1443.82
444.87	1613.80
445.07	1501.16
445.28	1574.89
445.48	1589.22
445.69	1615.85
445.89	1667.05
446.09	1646.57
446.30	2033.63
446.50	3018.71
446.71	4462.52
446.91	5316.53
447.12	5732.26
447.32	5566.38
447.53	4626.36
447.73	4100.03
447.93	3608.52
448.14	3362.76
448.34	3301.33
448.55	2936.79
448.75	2856.92
448.96	2836.44
449.16	2459.61
449.36	2209.76
449.57	1914.85
449.77	1865.70
449.98	1591.27
450.18	1685.48
450.39	1658.85
450.59	1568.74
450.79	1566.70
451.00	1552.36
451.20	1488.87
451.41	1558.50
451.61	1542.12
451.81	1519.59
452.02	1525.74
452.22	1486.83
452.43	1554.41
452.63	1535.98
