SpectraSuite Data File
++++++++++++++++++++++++++++++++++++
Date: Tue May 03 12:55:29 CEST 2016
User: root
Dark Spectrum Present: No
Reference Spectrum Present: No
Number of Sampled Component Spectra: 1
Spectrometers: USB4C02835
Integration Time (usec): 100000 (USB4C02835)
Spectra Averaged: 1 (USB4C02835)
Boxcar Smoothing: 0 (USB4C02835)
Correct for Electrical Dark: No (USB4C02835)
Strobe/Lamp Enabled: No (USB4C02835)
Correct for Detector Non-linearity: No (USB4C02835)
Correct for Stray Light: No (USB4C02835)
Number of Pixels in Processed Spectrum: 3648
>>>>>Begin Processed Spectral Data<<<<<
177.47	1357.80
177.69	1357.80
177.91	1357.80
178.13	1361.90
178.36	1339.37
178.58	1437.67
178.80	1591.27
179.02	1488.87
179.24	1523.69
179.46	1552.36
179.68	1599.46
179.90	1587.18
180.13	1511.40
180.35	1478.63
180.57	1554.41
180.79	1552.36
181.01	1529.83
181.23	1560.55
181.45	1552.36
181.67	1554.41
181.90	1515.50
182.12	1492.97
182.34	1456.11
182.56	1578.98
182.78	1521.64
183.00	1509.35
183.22	1492.97
183.44	1452.01
183.66	1669.09
183.89	1601.51
184.11	1548.26
184.33	1554.41
184.55	1566.70
184.77	1617.90
184.99	1562.60
185.21	1572.84
185.43	1654.76
185.65	1533.93
185.87	1527.78
186.10	1593.32
186.32	1529.83
186.54	1570.79
186.76	1544.17
186.98	1572.84
187.20	1435.63
187.42	1482.73
187.64	1544.17
187.86	1509.35
188.08	1650.66
188.30	1544.17
188.52	1449.96
188.75	1540.07
188.97	1599.46
189.19	1490.92
189.41	1497.07
189.63	1562.60
189.85	1503.21
190.07	1484.78
190.29	1484.78
190.51	1570.79
190.73	1470.44
190.95	1601.51
191.17	1495.02
191.39	1495.02
191.61	1544.17
191.84	1556.46
192.06	1560.55
192.28	1411.05
192.50	1681.38
192.72	1638.38
192.94	1574.89
193.16	1650.66
193.38	1613.80
193.60	1538.02
193.82	1507.30
194.04	1589.22
194.26	1554.41
194.48	1562.60
194.70	1595.37
194.92	1492.97
195.14	1560.55
195.36	1488.87
195.58	1556.46
195.80	1576.94
196.02	1519.59
196.24	1626.09
196.46	1509.35
196.69	1542.12
196.91	1609.70
197.13	1488.87
197.35	1497.07
197.57	1576.94
197.79	1535.98
198.01	1546.22
198.23	1533.93
198.45	1531.88
198.67	1486.83
198.89	1538.02
199.11	1601.51
199.33	1472.49
199.55	1433.58
199.77	1546.22
199.99	1613.80
200.21	1513.45
200.43	1570.79
200.65	1447.91
200.87	1452.01
201.09	1578.98
201.31	1517.54
201.53	1523.69
201.75	1556.46
201.97	1548.26
202.19	1609.70
202.41	1564.65
202.63	1624.04
202.85	1613.80
203.07	1544.17
203.29	1523.69
203.51	1517.54
203.73	1531.88
203.95	1624.04
204.17	1533.93
204.39	1595.37
204.61	1503.21
204.83	1558.50
205.05	1583.08
205.27	1554.41
205.49	1626.09
205.71	1554.41
205.93	1431.53
206.15	1470.44
206.37	1523.69
206.59	1452.01
206.81	1519.59
207.03	1462.25
207.25	1535.98
207.47	1589.22
207.69	1570.79
207.91	1607.66
208.13	1595.37
208.34	1503.21
208.56	1583.08
208.78	1574.89
209.00	1558.50
209.22	1482.73
209.44	1525.74
209.66	1550.31
209.88	1499.11
210.10	1523.69
210.32	1495.02
210.54	1607.66
210.76	1495.02
210.98	1619.94
211.20	1490.92
211.42	1544.17
211.64	1634.28
211.86	1535.98
212.08	1560.55
212.30	1558.50
212.52	1503.21
212.74	1533.93
212.96	1624.04
213.17	1638.38
213.39	1558.50
213.61	1585.13
213.83	1652.71
214.05	1589.22
214.27	1572.84
214.49	1447.91
214.71	1513.45
214.93	1591.27
215.15	1550.31
215.37	1554.41
215.59	1454.06
215.81	1556.46
216.03	1574.89
216.24	1523.69
216.46	1550.31
216.68	1552.36
216.90	1535.98
217.12	1624.04
217.34	1509.35
217.56	1464.30
217.78	1603.56
218.00	1589.22
218.22	1560.55
218.44	1544.17
218.66	1570.79
218.87	1656.81
219.09	1503.21
219.31	1546.22
219.53	1497.07
219.75	1533.93
219.97	1550.31
220.19	1542.12
220.41	1523.69
220.63	1550.31
220.85	1613.80
221.06	1501.16
221.28	1564.65
221.50	1517.54
221.72	1576.94
221.94	1574.89
222.16	1552.36
222.38	1556.46
222.60	1566.70
222.82	1509.35
223.03	1576.94
223.25	1449.96
223.47	1535.98
223.69	1617.90
223.91	1583.08
224.13	1615.85
224.35	1548.26
224.57	1517.54
224.78	1550.31
225.00	1540.07
225.22	1507.30
225.44	1495.02
225.66	1538.02
225.88	1531.88
226.10	1566.70
226.32	1560.55
226.53	1630.18
226.75	1552.36
226.97	1574.89
227.19	1570.79
227.41	1474.54
227.63	1495.02
227.85	1431.53
228.06	1478.63
228.28	1464.30
228.50	1497.07
228.72	1523.69
228.94	1499.11
229.16	1429.48
229.37	1503.21
229.59	1529.83
229.81	1591.27
230.03	1554.41
230.25	1497.07
230.47	1501.16
230.69	1509.35
230.90	1548.26
231.12	1474.54
231.34	1556.46
231.56	1654.76
231.78	1431.53
232.00	1519.59
232.21	1531.88
232.43	1509.35
232.65	1490.92
232.87	1538.02
233.09	1454.06
233.30	1492.97
233.52	1576.94
233.74	1574.89
233.96	1490.92
234.18	1519.59
234.40	1535.98
234.61	1605.61
234.83	1554.41
235.05	1517.54
235.27	1609.70
235.49	1574.89
235.70	1581.03
235.92	1599.46
236.14	1527.78
236.36	1595.37
236.58	1533.93
236.79	1558.50
237.01	1558.50
237.23	1533.93
237.45	1660.90
237.67	1476.59
237.88	1560.55
238.10	1595.37
238.32	1556.46
238.54	1576.94
238.76	1601.51
238.97	1542.12
239.19	1499.11
239.41	1550.31
239.63	1570.79
239.85	1568.74
240.06	1458.15
240.28	1472.49
240.50	1621.99
240.72	1515.50
240.93	1509.35
241.15	1599.46
241.37	1460.20
241.59	1531.88
241.81	1476.59
242.02	1497.07
242.24	1554.41
242.46	1535.98
242.68	1542.12
242.89	1605.61
243.11	1535.98
243.33	1527.78
243.55	1542.12
243.76	1574.89
243.98	1462.25
244.20	1513.45
244.42	1523.69
244.64	1593.32
244.85	1466.35
245.07	1511.40
245.29	1560.55
245.51	1583.08
245.72	1578.98
245.94	1605.61
246.16	1533.93
246.38	1578.98
246.59	1562.60
246.81	1525.74
247.03	1542.12
247.24	1454.06
247.46	1566.70
247.68	1513.45
247.90	1540.07
248.11	1558.50
248.33	1593.32
248.55	1503.21
248.77	1552.36
248.98	1609.70
249.20	1595.37
249.42	1443.82
249.64	1548.26
249.85	1576.94
250.07	1435.63
250.29	1554.41
250.50	1488.87
250.72	1490.92
250.94	1617.90
251.16	1581.03
251.37	1585.13
251.59	1560.55
251.81	1523.69
252.02	1626.09
252.24	1511.40
252.46	1662.95
252.68	1519.59
252.89	1554.41
253.11	1474.54
253.33	1646.57
253.54	1679.33
253.76	1476.59
253.98	1505.26
254.20	1472.49
254.41	1464.30
254.63	1611.75
254.85	1470.44
255.06	1525.74
255.28	1531.88
255.50	1581.03
255.71	1511.40
255.93	1478.63
256.15	1490.92
256.36	1671.14
256.58	1540.07
256.80	1474.54
257.02	1501.16
257.23	1576.94
257.45	1472.49
257.67	1560.55
257.88	1454.06
258.10	1482.73
258.32	1474.54
258.53	1607.66
258.75	1615.85
258.97	1578.98
259.18	1513.45
259.40	1558.50
259.62	1628.14
259.83	1568.74
260.05	1531.88
260.27	1806.31
260.48	1556.46
260.70	1533.93
260.92	1562.60
261.13	1511.40
261.35	1509.35
261.57	1591.27
261.78	1452.01
262.00	1505.26
262.22	1533.93
262.43	1513.45
262.65	1452.01
262.86	1578.98
263.08	1585.13
263.30	1593.32
263.51	1464.30
263.73	1542.12
263.95	1591.27
264.16	1478.63
264.38	1507.30
264.60	1583.08
264.81	1443.82
265.03	1519.59
265.25	1460.20
265.46	1544.17
265.68	1535.98
265.89	1611.75
266.11	1472.49
266.33	1581.03
266.54	1564.65
266.76	1572.84
266.98	1581.03
267.19	1607.66
267.41	1595.37
267.62	1548.26
267.84	1435.63
268.06	1568.74
268.27	1503.21
268.49	1544.17
268.70	1566.70
268.92	1568.74
269.14	1509.35
269.35	1509.35
269.57	1523.69
269.79	1527.78
270.00	1480.68
270.22	1564.65
270.43	1513.45
270.65	1449.96
270.87	1574.89
271.08	1607.66
271.30	1634.28
271.51	1562.60
271.73	1519.59
271.95	1570.79
272.16	1581.03
272.38	1523.69
272.59	1488.87
272.81	1556.46
273.02	1550.31
273.24	1585.13
273.46	1589.22
273.67	1458.15
273.89	1550.31
274.10	1540.07
274.32	1521.64
274.54	1595.37
274.75	1546.22
274.97	1470.44
275.18	1591.27
275.40	1538.02
275.61	1546.22
275.83	1574.89
276.05	1370.09
276.26	1587.18
276.48	1595.37
276.69	1495.02
276.91	1474.54
277.12	1497.07
277.34	1574.89
277.55	1550.31
277.77	1497.07
277.99	1454.06
278.20	1517.54
278.42	1490.92
278.63	1533.93
278.85	1464.30
279.06	1521.64
279.28	1531.88
279.49	1591.27
279.71	1611.75
279.93	1550.31
280.14	1572.84
280.36	1556.46
280.57	1705.96
280.79	1644.52
281.00	1595.37
281.22	1519.59
281.43	1607.66
281.65	1478.63
281.86	1458.15
282.08	1482.73
282.29	1566.70
282.51	1421.29
282.73	1511.40
282.94	1466.35
283.16	1566.70
283.37	1662.95
283.59	1529.83
283.80	1591.27
284.02	1609.70
284.23	1546.22
284.45	1519.59
284.66	1476.59
284.88	1523.69
285.09	1499.11
285.31	1603.56
285.52	1568.74
285.74	1478.63
285.95	1593.32
286.17	1535.98
286.38	1583.08
286.60	1468.39
286.81	1515.50
287.03	1507.30
287.24	1497.07
287.46	1624.04
287.67	1523.69
287.89	1603.56
288.10	1521.64
288.32	1507.30
288.53	1644.52
288.75	1560.55
288.96	1568.74
289.18	1503.21
289.39	1505.26
289.61	1669.09
289.82	1621.99
290.04	1603.56
290.25	1509.35
290.47	1480.68
290.68	1513.45
290.90	1601.51
291.11	1484.78
291.33	1568.74
291.54	1535.98
291.76	1486.83
291.97	1558.50
292.18	1568.74
292.40	1513.45
292.61	1488.87
292.83	1613.80
293.04	1550.31
293.26	1583.08
293.47	1546.22
293.69	1443.82
293.90	1509.35
294.12	1581.03
294.33	1550.31
294.55	1599.46
294.76	1550.31
294.97	1570.79
295.19	1611.75
295.40	1531.88
295.62	1583.08
295.83	1531.88
296.05	1499.11
296.26	1542.12
296.48	1486.83
296.69	1501.16
296.90	1576.94
297.12	1585.13
297.33	1673.19
297.55	1546.22
297.76	1501.16
297.98	1533.93
298.19	1574.89
298.41	1466.35
298.62	1462.25
298.83	1640.42
299.05	1552.36
299.26	1470.44
299.48	1449.96
299.69	1560.55
299.90	1595.37
300.12	1466.35
300.33	1593.32
300.55	1578.98
300.76	1599.46
300.98	1554.41
301.19	1544.17
301.40	1566.70
301.62	1574.89
301.83	1499.11
302.05	1535.98
302.26	1503.21
302.47	1564.65
302.69	1447.91
302.90	1632.23
303.12	1452.01
303.33	1562.60
303.54	1554.41
303.76	1495.02
303.97	1595.37
304.19	1527.78
304.40	1507.30
304.61	1583.08
304.83	1615.85
305.04	1570.79
305.26	1515.50
305.47	1546.22
305.68	1486.83
305.90	1509.35
306.11	1632.23
306.33	1517.54
306.54	1488.87
306.75	1523.69
306.97	1437.67
307.18	1474.54
307.39	1511.40
307.61	1591.27
307.82	1550.31
308.04	1525.74
308.25	1519.59
308.46	1515.50
308.68	1452.01
308.89	1476.59
309.10	1603.56
309.32	1558.50
309.53	1550.31
309.74	1589.22
309.96	1540.07
310.17	1554.41
310.39	1466.35
310.60	1636.33
310.81	1542.12
311.03	1464.30
311.24	1535.98
311.45	1480.68
311.67	1564.65
311.88	1486.83
312.09	1583.08
312.31	1515.50
312.52	1429.48
312.73	1613.80
312.95	1486.83
313.16	1544.17
313.37	1619.94
313.59	1619.94
313.80	1644.52
314.01	1601.51
314.23	1550.31
314.44	1449.96
314.65	1437.67
314.87	1466.35
315.08	1517.54
315.29	1443.82
315.51	1472.49
315.72	1492.97
315.93	1630.18
316.15	1589.22
316.36	1513.45
316.57	1601.51
316.79	1615.85
317.00	1533.93
317.21	1470.44
317.43	1476.59
317.64	1488.87
317.85	1462.25
318.07	1636.33
318.28	1652.71
318.49	1671.14
318.70	1759.21
318.92	1718.25
319.13	1730.53
319.34	1650.66
319.56	1673.19
319.77	1656.81
319.98	1554.41
320.20	1689.57
320.41	1574.89
320.62	1568.74
320.83	1595.37
321.05	1634.28
321.26	1568.74
321.47	1527.78
321.69	1554.41
321.90	1341.42
322.11	1542.12
322.32	1556.46
322.54	1626.09
322.75	1578.98
322.96	1552.36
323.18	1513.45
323.39	1488.87
323.60	1482.73
323.81	1578.98
324.03	1568.74
324.24	1527.78
324.45	1544.17
324.66	1548.26
324.88	1605.61
325.09	1591.27
325.30	1527.78
325.52	1513.45
325.73	1619.94
325.94	1490.92
326.15	1415.15
326.37	1525.74
326.58	1595.37
326.79	1619.94
327.00	1505.26
327.22	1601.51
327.43	1538.02
327.64	1540.07
327.85	1554.41
328.07	1513.45
328.28	1656.81
328.49	1505.26
328.70	1523.69
328.92	1542.12
329.13	1429.48
329.34	1544.17
329.55	1634.28
329.76	1605.61
329.98	1484.78
330.19	1538.02
330.40	1540.07
330.61	1480.68
330.83	1630.18
331.04	1470.44
331.25	1587.18
331.46	1452.01
331.68	1558.50
331.89	1576.94
332.10	1517.54
332.31	1435.63
332.52	1529.83
332.74	1566.70
332.95	1454.06
333.16	1546.22
333.37	1607.66
333.58	1482.73
333.80	1497.07
334.01	1460.20
334.22	1505.26
334.43	1515.50
334.64	1572.84
334.86	1603.56
335.07	1527.78
335.28	1615.85
335.49	1429.48
335.70	1552.36
335.92	1601.51
336.13	1648.61
336.34	1564.65
336.55	1515.50
336.76	1585.13
336.98	1497.07
337.19	1515.50
337.40	1640.42
337.61	1626.09
337.82	1554.41
338.04	1454.06
338.25	1441.77
338.46	1490.92
338.67	1529.83
338.88	1538.02
339.09	1564.65
339.31	1499.11
339.52	1533.93
339.73	1482.73
339.94	1538.02
340.15	1613.80
340.36	1472.49
340.58	1497.07
340.79	1525.74
341.00	1558.50
341.21	1517.54
341.42	1636.33
341.63	1468.39
341.85	1644.52
342.06	1550.31
342.27	1495.02
342.48	1605.61
342.69	1499.11
342.90	1546.22
343.12	1560.55
343.33	1486.83
343.54	1515.50
343.75	1603.56
343.96	1589.22
344.17	1521.64
344.38	1517.54
344.60	1505.26
344.81	1452.01
345.02	1554.41
345.23	1556.46
345.44	1593.32
345.65	1517.54
345.86	1568.74
346.07	1538.02
346.29	1497.07
346.50	1556.46
346.71	1523.69
346.92	1615.85
347.13	1675.24
347.34	1587.18
347.55	1556.46
347.76	1587.18
347.98	1538.02
348.19	1509.35
348.40	1568.74
348.61	1564.65
348.82	1566.70
349.03	1542.12
349.24	1478.63
349.45	1636.33
349.66	1474.54
349.88	1560.55
350.09	1482.73
350.30	1576.94
350.51	1609.70
350.72	1538.02
350.93	1558.50
351.14	1558.50
351.35	1576.94
351.56	1507.30
351.77	1570.79
351.99	1535.98
352.20	1595.37
352.41	1568.74
352.62	1462.25
352.83	1495.02
353.04	1486.83
353.25	1568.74
353.46	1525.74
353.67	1562.60
353.88	1486.83
354.09	1486.83
354.30	1558.50
354.52	1587.18
354.73	1574.89
354.94	1499.11
355.15	1642.47
355.36	1583.08
355.57	1624.04
355.78	1570.79
355.99	1480.68
356.20	1458.15
356.41	1597.42
356.62	1525.74
356.83	1597.42
357.04	1529.83
357.25	1497.07
357.46	1492.97
357.68	1470.44
357.89	1519.59
358.10	1511.40
358.31	1546.22
358.52	1525.74
358.73	1456.11
358.94	1546.22
359.15	1421.29
359.36	1576.94
359.57	1566.70
359.78	1515.50
359.99	1501.16
360.20	1552.36
360.41	1542.12
360.62	1550.31
360.83	1564.65
361.04	1566.70
361.25	1636.33
361.46	1599.46
361.67	1601.51
361.88	1613.80
362.09	1593.32
362.30	1607.66
362.51	1482.73
362.72	1572.84
362.93	1578.98
363.14	1560.55
363.35	1556.46
363.56	1507.30
363.78	1558.50
363.99	1603.56
364.20	1490.92
364.41	1560.55
364.62	1632.23
364.83	1554.41
365.04	1542.12
365.25	1478.63
365.46	1556.46
365.67	1484.78
365.88	1513.45
366.09	1601.51
366.30	1505.26
366.51	1597.42
366.72	1425.39
366.93	1540.07
367.14	1499.11
367.35	1585.13
367.56	1554.41
367.77	1603.56
367.98	1595.37
368.18	1585.13
368.39	1540.07
368.60	1501.16
368.81	1578.98
369.02	1525.74
369.23	1497.07
369.44	1517.54
369.65	1511.40
369.86	1560.55
370.07	1505.26
370.28	1417.19
370.49	1529.83
370.70	1492.97
370.91	1437.67
371.12	1495.02
371.33	1570.79
371.54	1480.68
371.75	1624.04
371.96	1511.40
372.17	1595.37
372.38	1552.36
372.59	1607.66
372.80	1544.17
373.01	1468.39
373.22	1562.60
373.43	1554.41
373.64	1439.72
373.85	1519.59
374.06	1591.27
374.26	1521.64
374.47	1578.98
374.68	1597.42
374.89	1535.98
375.10	1511.40
375.31	1585.13
375.52	1538.02
375.73	1533.93
375.94	1509.35
376.15	1626.09
376.36	1497.07
376.57	1533.93
376.78	1533.93
376.99	1566.70
377.20	1492.97
377.40	1546.22
377.61	1619.94
377.82	1474.54
378.03	1589.22
378.24	1529.83
378.45	1560.55
378.66	1558.50
378.87	1505.26
379.08	1462.25
379.29	1529.83
379.50	1611.75
379.71	1554.41
379.91	1562.60
380.12	1566.70
380.33	1585.13
380.54	1556.46
380.75	1548.26
380.96	1511.40
381.17	1591.27
381.38	1531.88
381.59	1581.03
381.80	1574.89
382.00	1679.33
382.21	1593.32
382.42	1728.49
382.63	1746.92
382.84	1583.08
383.05	1593.32
383.26	1697.77
383.47	1529.83
383.68	1648.61
383.88	1591.27
384.09	1558.50
384.30	1660.90
384.51	1607.66
384.72	1478.63
384.93	1476.59
385.14	1595.37
385.35	1585.13
385.55	1423.34
385.76	1632.23
385.97	1546.22
386.18	1404.91
386.39	1511.40
386.60	1490.92
386.81	1492.97
387.02	1472.49
387.22	1599.46
387.43	1593.32
387.64	1740.77
387.85	1945.57
388.06	3190.74
388.27	7274.38
388.48	10602.33
388.68	12451.65
388.89	13956.91
389.10	12900.16
389.31	10276.71
389.52	8890.23
389.73	7792.52
389.93	7280.53
390.14	6791.06
390.35	6303.65
390.56	5574.57
390.77	4685.75
390.98	3551.18
391.18	2766.81
391.39	2222.05
391.60	1820.64
391.81	1716.20
392.02	1601.51
392.23	1722.34
392.43	1632.23
392.64	1593.32
392.85	1540.07
393.06	1611.75
393.27	1558.50
393.47	1519.59
393.68	1544.17
393.89	1507.30
394.10	1585.13
394.31	1593.32
394.52	1527.78
394.72	1548.26
394.93	1570.79
395.14	1472.49
395.35	1597.42
395.56	1531.88
395.76	1648.61
395.97	1699.81
396.18	1763.30
396.39	1771.49
396.60	1943.52
396.80	1753.06
397.01	1808.36
397.22	1642.47
397.43	1679.33
397.64	1611.75
397.84	1703.91
398.05	1730.53
398.26	1619.94
398.47	1693.67
398.67	1605.61
398.88	1499.11
399.09	1535.98
399.30	1441.77
399.51	1574.89
399.71	1531.88
399.92	1535.98
400.13	1550.31
400.34	1478.63
400.54	1585.13
400.75	1632.23
400.96	1601.51
401.17	1656.81
401.37	1562.60
401.58	1556.46
401.79	1599.46
402.00	1755.11
402.21	1865.70
402.41	1839.08
402.62	1978.34
402.83	2021.35
403.04	1843.17
403.24	1947.62
403.45	1697.77
403.66	1701.86
403.87	1720.29
404.07	1746.92
404.28	1812.45
404.49	1765.35
404.70	1589.22
404.90	1599.46
405.11	1634.28
405.32	1583.08
405.52	1492.97
405.73	1558.50
405.94	1433.58
406.15	1531.88
406.35	1523.69
406.56	1636.33
406.77	1607.66
406.98	1597.42
407.18	1495.02
407.39	1583.08
407.60	1509.35
407.80	1593.32
408.01	1535.98
408.22	1568.74
408.43	1566.70
408.63	1540.07
408.84	1578.98
409.05	1556.46
409.25	1417.19
409.46	1535.98
409.67	1505.26
409.88	1505.26
410.08	1548.26
410.29	1517.54
410.50	1589.22
410.70	1527.78
410.91	1540.07
411.12	1548.26
411.32	1478.63
411.53	1564.65
411.74	1693.67
411.95	1640.42
412.15	1648.61
412.36	1595.37
412.57	1589.22
412.77	1609.70
412.98	1525.74
413.19	1486.83
413.39	1599.46
413.60	1527.78
413.81	1648.61
414.01	1533.93
414.22	1599.46
414.43	1662.95
414.63	1603.56
414.84	1595.37
415.05	1546.22
415.25	1497.07
415.46	1566.70
415.67	1535.98
415.87	1554.41
416.08	1581.03
416.29	1583.08
416.49	1531.88
416.70	1566.70
416.91	1554.41
417.11	1499.11
417.32	1583.08
417.53	1564.65
417.73	1521.64
417.94	1538.02
418.15	1683.43
418.35	1505.26
418.56	1509.35
418.77	1585.13
418.97	1523.69
419.18	1540.07
419.38	1513.45
419.59	1447.91
419.80	1617.90
420.00	1544.17
420.21	1515.50
420.42	1570.79
420.62	1605.61
420.83	1503.21
421.04	1513.45
421.24	1466.35
421.45	1652.71
421.65	1603.56
421.86	1480.68
422.07	1617.90
422.27	1525.74
422.48	1595.37
422.69	1474.54
422.89	1542.12
423.10	1531.88
423.30	1460.20
423.51	1464.30
423.72	1546.22
423.92	1546.22
424.13	1517.54
424.33	1535.98
424.54	1599.46
424.75	1560.55
424.95	1609.70
425.16	1562.60
425.36	1454.06
425.57	1533.93
425.78	1521.64
425.98	1611.75
426.19	1546.22
426.39	1445.87
426.60	1574.89
426.81	1591.27
427.01	1499.11
427.22	1576.94
427.42	1454.06
427.63	1566.70
427.83	1505.26
428.04	1574.89
428.25	1609.70
428.45	1656.81
428.66	1654.76
428.86	1501.16
429.07	1578.98
429.28	1601.51
429.48	1548.26
429.69	1484.78
429.89	1566.70
430.10	1490.92
430.30	1554.41
430.51	1550.31
430.71	1480.68
430.92	1542.12
431.13	1527.78
431.33	1550.31
431.54	1548.26
431.74	1591.27
431.95	1583.08
432.15	1564.65
432.36	1519.59
432.56	1609.70
432.77	1632.23
432.98	1615.85
433.18	1488.87
433.39	1548.26
433.59	1599.46
433.80	1607.66
434.00	1716.20
434.21	1564.65
434.41	1488.87
434.62	1533.93
434.82	1452.01
435.03	1492.97
435.23	1497.07
435.44	1460.20
435.64	1574.89
435.85	1521.64
436.06	1503.21
436.26	1550.31
436.47	1617.90
436.67	1509.35
436.88	1564.65
437.08	1550.31
437.29	1591.27
437.49	1527.78
437.70	1634.28
437.90	1578.98
438.11	1685.48
438.31	1628.14
438.52	1710.05
438.72	1724.39
438.93	1777.64
439.13	1624.04
439.34	1656.81
439.54	1630.18
439.75	1652.71
439.95	1628.14
440.16	1613.80
440.36	1609.70
440.57	1615.85
440.77	1576.94
440.98	1529.83
441.18	1638.38
441.39	1490.92
441.59	1509.35
441.80	1638.38
442.00	1519.59
442.21	1669.09
442.41	1484.78
442.62	1628.14
442.82	1509.35
443.02	1548.26
443.23	1509.35
443.43	1576.94
443.64	1615.85
443.84	1505.26
444.05	1628.14
444.25	1533.93
444.46	1529.83
444.66	1587.18
444.87	1609.70
445.07	1478.63
445.28	1566.70
445.48	1585.13
445.69	1632.23
445.89	1595.37
446.09	1587.18
446.30	2025.44
446.50	3145.68
446.71	4540.35
446.91	5447.60
447.12	5818.28
447.32	5527.47
447.53	4589.50
447.73	4108.23
447.93	3567.56
448.14	3358.67
448.34	3229.65
448.55	2904.02
448.75	2914.26
448.96	2781.14
449.16	2574.30
449.36	2312.16
449.57	2060.26
449.77	1808.36
449.98	1574.89
450.18	1613.80
450.39	1583.08
450.59	1585.13
450.79	1576.94
451.00	1503.21
451.20	1574.89
451.41	1476.59
451.61	1624.04
451.81	1544.17
452.02	1552.36
452.22	1456.11
452.43	1511.40
452.63	1505.26
