SpectraSuite Data File
++++++++++++++++++++++++++++++++++++
Date: Tue May 03 12:55:23 CEST 2016
User: root
Dark Spectrum Present: No
Reference Spectrum Present: No
Number of Sampled Component Spectra: 1
Spectrometers: USB4C02835
Integration Time (usec): 100000 (USB4C02835)
Spectra Averaged: 1 (USB4C02835)
Boxcar Smoothing: 0 (USB4C02835)
Correct for Electrical Dark: No (USB4C02835)
Strobe/Lamp Enabled: No (USB4C02835)
Correct for Detector Non-linearity: No (USB4C02835)
Correct for Stray Light: No (USB4C02835)
Number of Pixels in Processed Spectrum: 3648
>>>>>Begin Processed Spectral Data<<<<<
177.47	1357.80
177.69	1357.80
177.91	1357.80
178.13	1415.15
178.36	1333.23
178.58	1531.88
178.80	1460.20
179.02	1527.78
179.24	1454.06
179.46	1540.07
179.68	1583.08
179.90	1486.83
180.13	1501.16
180.35	1482.73
180.57	1591.27
180.79	1558.50
181.01	1546.22
181.23	1597.42
181.45	1556.46
181.67	1535.98
181.90	1558.50
182.12	1488.87
182.34	1521.64
182.56	1599.46
182.78	1591.27
183.00	1521.64
183.22	1529.83
183.44	1497.07
183.66	1593.32
183.89	1568.74
184.11	1599.46
184.33	1566.70
184.55	1513.45
184.77	1607.66
184.99	1640.42
185.21	1542.12
185.43	1660.90
185.65	1466.35
185.87	1572.84
186.10	1611.75
186.32	1712.10
186.54	1574.89
186.76	1501.16
186.98	1572.84
187.20	1578.98
187.42	1527.78
187.64	1527.78
187.86	1544.17
188.08	1576.94
188.30	1587.18
188.52	1587.18
188.75	1544.17
188.97	1589.22
189.19	1544.17
189.41	1572.84
189.63	1554.41
189.85	1488.87
190.07	1515.50
190.29	1462.25
190.51	1556.46
190.73	1505.26
190.95	1531.88
191.17	1535.98
191.39	1417.19
191.61	1564.65
191.84	1527.78
192.06	1576.94
192.28	1470.44
192.50	1675.24
192.72	1515.50
192.94	1495.02
193.16	1617.90
193.38	1443.82
193.60	1578.98
193.82	1540.07
194.04	1542.12
194.26	1576.94
194.48	1521.64
194.70	1521.64
194.92	1462.25
195.14	1540.07
195.36	1529.83
195.58	1531.88
195.80	1550.31
196.02	1593.32
196.24	1566.70
196.46	1619.94
196.69	1505.26
196.91	1701.86
197.13	1474.54
197.35	1505.26
197.57	1548.26
197.79	1517.54
198.01	1542.12
198.23	1648.61
198.45	1583.08
198.67	1480.68
198.89	1583.08
199.11	1566.70
199.33	1490.92
199.55	1443.82
199.77	1525.74
199.99	1521.64
200.21	1499.11
200.43	1546.22
200.65	1425.39
200.87	1480.68
201.09	1478.63
201.31	1486.83
201.53	1566.70
201.75	1542.12
201.97	1552.36
202.19	1513.45
202.41	1476.59
202.63	1619.94
202.85	1501.16
203.07	1597.42
203.29	1552.36
203.51	1509.35
203.73	1472.49
203.95	1679.33
204.17	1507.30
204.39	1593.32
204.61	1538.02
204.83	1495.02
205.05	1492.97
205.27	1576.94
205.49	1490.92
205.71	1554.41
205.93	1486.83
206.15	1531.88
206.37	1548.26
206.59	1546.22
206.81	1447.91
207.03	1435.63
207.25	1523.69
207.47	1583.08
207.69	1521.64
207.91	1566.70
208.13	1638.38
208.34	1492.97
208.56	1482.73
208.78	1609.70
209.00	1476.59
209.22	1540.07
209.44	1495.02
209.66	1560.55
209.88	1544.17
210.10	1546.22
210.32	1476.59
210.54	1562.60
210.76	1583.08
210.98	1603.56
211.20	1433.58
211.42	1492.97
211.64	1585.13
211.86	1556.46
212.08	1593.32
212.30	1662.95
212.52	1515.50
212.74	1513.45
212.96	1529.83
213.17	1576.94
213.39	1486.83
213.61	1687.53
213.83	1581.03
214.05	1519.59
214.27	1605.61
214.49	1511.40
214.71	1517.54
214.93	1585.13
215.15	1519.59
215.37	1568.74
215.59	1470.44
215.81	1558.50
216.03	1650.66
216.24	1538.02
216.46	1554.41
216.68	1548.26
216.90	1548.26
217.12	1544.17
217.34	1515.50
217.56	1531.88
217.78	1597.42
218.00	1560.55
218.22	1517.54
218.44	1576.94
218.66	1574.89
218.87	1521.64
219.09	1521.64
219.31	1566.70
219.53	1578.98
219.75	1452.01
219.97	1570.79
220.19	1558.50
220.41	1607.66
220.63	1621.99
220.85	1562.60
221.06	1533.93
221.28	1615.85
221.50	1550.31
221.72	1566.70
221.94	1572.84
222.16	1556.46
222.38	1619.94
222.60	1564.65
222.82	1515.50
223.03	1677.29
223.25	1538.02
223.47	1597.42
223.69	1628.14
223.91	1554.41
224.13	1566.70
224.35	1525.74
224.57	1601.51
224.78	1525.74
225.00	1472.49
225.22	1535.98
225.44	1525.74
225.66	1578.98
225.88	1466.35
226.10	1552.36
226.32	1621.99
226.53	1597.42
226.75	1548.26
226.97	1538.02
227.19	1521.64
227.41	1478.63
227.63	1560.55
227.85	1402.86
228.06	1519.59
228.28	1572.84
228.50	1581.03
228.72	1452.01
228.94	1478.63
229.16	1419.24
229.37	1486.83
229.59	1495.02
229.81	1531.88
230.03	1476.59
230.25	1488.87
230.47	1476.59
230.69	1486.83
230.90	1540.07
231.12	1497.07
231.34	1535.98
231.56	1597.42
231.78	1554.41
232.00	1581.03
232.21	1505.26
232.43	1499.11
232.65	1445.87
232.87	1601.51
233.09	1533.93
233.30	1511.40
233.52	1574.89
233.74	1558.50
233.96	1519.59
234.18	1501.16
234.40	1525.74
234.61	1597.42
234.83	1503.21
235.05	1517.54
235.27	1609.70
235.49	1615.85
235.70	1642.47
235.92	1538.02
236.14	1540.07
236.36	1662.95
236.58	1490.92
236.79	1581.03
237.01	1492.97
237.23	1509.35
237.45	1570.79
237.67	1476.59
237.88	1562.60
238.10	1695.72
238.32	1540.07
238.54	1527.78
238.76	1488.87
238.97	1495.02
239.19	1548.26
239.41	1576.94
239.63	1527.78
239.85	1523.69
240.06	1470.44
240.28	1556.46
240.50	1617.90
240.72	1476.59
240.93	1538.02
241.15	1591.27
241.37	1626.09
241.59	1538.02
241.81	1427.43
242.02	1589.22
242.24	1632.23
242.46	1550.31
242.68	1501.16
242.89	1572.84
243.11	1572.84
243.33	1576.94
243.55	1634.28
243.76	1630.18
243.98	1509.35
244.20	1540.07
244.42	1546.22
244.64	1552.36
244.85	1503.21
245.07	1497.07
245.29	1492.97
245.51	1572.84
245.72	1550.31
245.94	1587.18
246.16	1476.59
246.38	1570.79
246.59	1505.26
246.81	1517.54
247.03	1521.64
247.24	1513.45
247.46	1462.25
247.68	1519.59
247.90	1488.87
248.11	1460.20
248.33	1601.51
248.55	1525.74
248.77	1540.07
248.98	1646.57
249.20	1609.70
249.42	1505.26
249.64	1495.02
249.85	1558.50
250.07	1517.54
250.29	1581.03
250.50	1525.74
250.72	1378.28
250.94	1501.16
251.16	1648.61
251.37	1605.61
251.59	1570.79
251.81	1574.89
252.02	1515.50
252.24	1484.78
252.46	1617.90
252.68	1531.88
252.89	1523.69
253.11	1505.26
253.33	1609.70
253.54	1638.38
253.76	1484.78
253.98	1398.76
254.20	1535.98
254.41	1466.35
254.63	1517.54
254.85	1499.11
255.06	1566.70
255.28	1593.32
255.50	1533.93
255.71	1458.15
255.93	1413.10
256.15	1513.45
256.36	1468.39
256.58	1529.83
256.80	1523.69
257.02	1542.12
257.23	1505.26
257.45	1486.83
257.67	1566.70
257.88	1488.87
258.10	1548.26
258.32	1615.85
258.53	1480.68
258.75	1656.81
258.97	1570.79
259.18	1542.12
259.40	1511.40
259.62	1568.74
259.83	1533.93
260.05	1572.84
260.27	1714.15
260.48	1550.31
260.70	1527.78
260.92	1535.98
261.13	1611.75
261.35	1615.85
261.57	1564.65
261.78	1499.11
262.00	1513.45
262.22	1540.07
262.43	1466.35
262.65	1521.64
262.86	1472.49
263.08	1615.85
263.30	1566.70
263.51	1613.80
263.73	1460.20
263.95	1628.14
264.16	1519.59
264.38	1521.64
264.60	1574.89
264.81	1556.46
265.03	1509.35
265.25	1523.69
265.46	1591.27
265.68	1562.60
265.89	1521.64
266.11	1458.15
266.33	1562.60
266.54	1581.03
266.76	1511.40
266.98	1497.07
267.19	1599.46
267.41	1533.93
267.62	1449.96
267.84	1433.58
268.06	1566.70
268.27	1640.42
268.49	1601.51
268.70	1624.04
268.92	1527.78
269.14	1550.31
269.35	1495.02
269.57	1517.54
269.79	1568.74
270.00	1486.83
270.22	1669.09
270.43	1527.78
270.65	1507.30
270.87	1568.74
271.08	1589.22
271.30	1626.09
271.51	1595.37
271.73	1513.45
271.95	1581.03
272.16	1542.12
272.38	1576.94
272.59	1603.56
272.81	1544.17
273.02	1566.70
273.24	1497.07
273.46	1642.47
273.67	1484.78
273.89	1540.07
274.10	1501.16
274.32	1517.54
274.54	1529.83
274.75	1585.13
274.97	1552.36
275.18	1560.55
275.40	1535.98
275.61	1535.98
275.83	1525.74
276.05	1513.45
276.26	1599.46
276.48	1560.55
276.69	1550.31
276.91	1492.97
277.12	1568.74
277.34	1568.74
277.55	1691.62
277.77	1511.40
277.99	1484.78
278.20	1470.44
278.42	1558.50
278.63	1484.78
278.85	1572.84
279.06	1523.69
279.28	1535.98
279.49	1517.54
279.71	1568.74
279.93	1486.83
280.14	1581.03
280.36	1542.12
280.57	1687.53
280.79	1542.12
281.00	1464.30
281.22	1505.26
281.43	1605.61
281.65	1486.83
281.86	1568.74
282.08	1626.09
282.29	1566.70
282.51	1466.35
282.73	1460.20
282.94	1542.12
283.16	1535.98
283.37	1605.61
283.59	1568.74
283.80	1492.97
284.02	1562.60
284.23	1548.26
284.45	1515.50
284.66	1425.39
284.88	1462.25
285.09	1593.32
285.31	1585.13
285.52	1533.93
285.74	1488.87
285.95	1587.18
286.17	1570.79
286.38	1507.30
286.60	1452.01
286.81	1458.15
287.03	1542.12
287.24	1484.78
287.46	1515.50
287.67	1482.73
287.89	1583.08
288.10	1495.02
288.32	1515.50
288.53	1644.52
288.75	1605.61
288.96	1535.98
289.18	1576.94
289.39	1581.03
289.61	1554.41
289.82	1654.76
290.04	1593.32
290.25	1544.17
290.47	1480.68
290.68	1544.17
290.90	1599.46
291.11	1427.43
291.33	1574.89
291.54	1449.96
291.76	1576.94
291.97	1525.74
292.18	1568.74
292.40	1497.07
292.61	1570.79
292.83	1611.75
293.04	1552.36
293.26	1576.94
293.47	1624.04
293.69	1511.40
293.90	1482.73
294.12	1587.18
294.33	1560.55
294.55	1538.02
294.76	1517.54
294.97	1566.70
295.19	1542.12
295.40	1509.35
295.62	1576.94
295.83	1574.89
296.05	1464.30
296.26	1578.98
296.48	1492.97
296.69	1495.02
296.90	1568.74
297.12	1583.08
297.33	1609.70
297.55	1611.75
297.76	1611.75
297.98	1581.03
298.19	1574.89
298.41	1576.94
298.62	1533.93
298.83	1613.80
299.05	1558.50
299.26	1495.02
299.48	1447.91
299.69	1611.75
299.90	1554.41
300.12	1486.83
300.33	1648.61
300.55	1478.63
300.76	1538.02
300.98	1570.79
301.19	1550.31
301.40	1519.59
301.62	1538.02
301.83	1560.55
302.05	1599.46
302.26	1529.83
302.47	1527.78
302.69	1415.15
302.90	1497.07
303.12	1456.11
303.33	1599.46
303.54	1722.34
303.76	1429.48
303.97	1550.31
304.19	1597.42
304.40	1505.26
304.61	1470.44
304.83	1636.33
305.04	1591.27
305.26	1525.74
305.47	1478.63
305.68	1513.45
305.90	1484.78
306.11	1570.79
306.33	1544.17
306.54	1570.79
306.75	1492.97
306.97	1460.20
307.18	1531.88
307.39	1497.07
307.61	1497.07
307.82	1521.64
308.04	1570.79
308.25	1517.54
308.46	1519.59
308.68	1519.59
308.89	1443.82
309.10	1566.70
309.32	1470.44
309.53	1523.69
309.74	1542.12
309.96	1513.45
310.17	1480.68
310.39	1578.98
310.60	1531.88
310.81	1492.97
311.03	1486.83
311.24	1576.94
311.45	1601.51
311.67	1656.81
311.88	1540.07
312.09	1564.65
312.31	1470.44
312.52	1568.74
312.73	1542.12
312.95	1509.35
313.16	1503.21
313.37	1529.83
313.59	1595.37
313.80	1585.13
314.01	1585.13
314.23	1546.22
314.44	1513.45
314.65	1521.64
314.87	1556.46
315.08	1519.59
315.29	1513.45
315.51	1519.59
315.72	1468.39
315.93	1611.75
316.15	1613.80
316.36	1509.35
316.57	1560.55
316.79	1564.65
317.00	1505.26
317.21	1533.93
317.43	1587.18
317.64	1509.35
317.85	1495.02
318.07	1550.31
318.28	1679.33
318.49	1669.09
318.70	1812.45
318.92	1771.49
319.13	1765.35
319.34	1708.01
319.56	1742.82
319.77	1720.29
319.98	1589.22
320.20	1572.84
320.41	1599.46
320.62	1603.56
320.83	1492.97
321.05	1646.57
321.26	1568.74
321.47	1552.36
321.69	1671.14
321.90	1507.30
322.11	1535.98
322.32	1521.64
322.54	1630.18
322.75	1523.69
322.96	1673.19
323.18	1517.54
323.39	1460.20
323.60	1538.02
323.81	1546.22
324.03	1433.58
324.24	1542.12
324.45	1497.07
324.66	1636.33
324.88	1540.07
325.09	1603.56
325.30	1529.83
325.52	1492.97
325.73	1591.27
325.94	1431.53
326.15	1406.95
326.37	1552.36
326.58	1585.13
326.79	1609.70
327.00	1484.78
327.22	1591.27
327.43	1519.59
327.64	1443.82
327.85	1564.65
328.07	1570.79
328.28	1591.27
328.49	1576.94
328.70	1615.85
328.92	1531.88
329.13	1484.78
329.34	1507.30
329.55	1513.45
329.76	1554.41
329.98	1517.54
330.19	1640.42
330.40	1624.04
330.61	1531.88
330.83	1611.75
331.04	1476.59
331.25	1490.92
331.46	1509.35
331.68	1492.97
331.89	1638.38
332.10	1546.22
332.31	1417.19
332.52	1501.16
332.74	1593.32
332.95	1523.69
333.16	1601.51
333.37	1492.97
333.58	1531.88
333.80	1445.87
334.01	1501.16
334.22	1538.02
334.43	1495.02
334.64	1478.63
334.86	1511.40
335.07	1513.45
335.28	1566.70
335.49	1492.97
335.70	1615.85
335.92	1624.04
336.13	1665.00
336.34	1513.45
336.55	1564.65
336.76	1538.02
336.98	1431.53
337.19	1509.35
337.40	1601.51
337.61	1601.51
337.82	1525.74
338.04	1642.47
338.25	1486.83
338.46	1492.97
338.67	1550.31
338.88	1486.83
339.09	1458.15
339.31	1509.35
339.52	1382.38
339.73	1499.11
339.94	1515.50
340.15	1628.14
340.36	1484.78
340.58	1566.70
340.79	1519.59
341.00	1601.51
341.21	1478.63
341.42	1621.99
341.63	1576.94
341.85	1531.88
342.06	1521.64
342.27	1509.35
342.48	1546.22
342.69	1513.45
342.90	1495.02
343.12	1515.50
343.33	1525.74
343.54	1507.30
343.75	1572.84
343.96	1556.46
344.17	1519.59
344.38	1513.45
344.60	1538.02
344.81	1533.93
345.02	1472.49
345.23	1585.13
345.44	1669.09
345.65	1572.84
345.86	1603.56
346.07	1523.69
346.29	1509.35
346.50	1599.46
346.71	1599.46
346.92	1644.52
347.13	1572.84
347.34	1554.41
347.55	1585.13
347.76	1607.66
347.98	1396.71
348.19	1521.64
348.40	1574.89
348.61	1527.78
348.82	1665.00
349.03	1544.17
349.24	1554.41
349.45	1591.27
349.66	1449.96
349.88	1513.45
350.09	1419.24
350.30	1642.47
350.51	1587.18
350.72	1591.27
350.93	1529.83
351.14	1519.59
351.35	1576.94
351.56	1564.65
351.77	1554.41
351.99	1564.65
352.20	1652.71
352.41	1488.87
352.62	1503.21
352.83	1484.78
353.04	1587.18
353.25	1452.01
353.46	1593.32
353.67	1544.17
353.88	1478.63
354.09	1542.12
354.30	1511.40
354.52	1619.94
354.73	1490.92
354.94	1460.20
355.15	1525.74
355.36	1638.38
355.57	1535.98
355.78	1544.17
355.99	1439.72
356.20	1540.07
356.41	1617.90
356.62	1546.22
356.83	1497.07
357.04	1570.79
357.25	1419.24
357.46	1546.22
357.68	1482.73
357.89	1409.00
358.10	1503.21
358.31	1576.94
358.52	1480.68
358.73	1533.93
358.94	1413.10
359.15	1558.50
359.36	1642.47
359.57	1492.97
359.78	1535.98
359.99	1574.89
360.20	1501.16
360.41	1509.35
360.62	1583.08
360.83	1621.99
361.04	1566.70
361.25	1509.35
361.46	1564.65
361.67	1570.79
361.88	1558.50
362.09	1585.13
362.30	1503.21
362.51	1624.04
362.72	1499.11
362.93	1583.08
363.14	1607.66
363.35	1519.59
363.56	1554.41
363.78	1490.92
363.99	1552.36
364.20	1564.65
364.41	1515.50
364.62	1583.08
364.83	1538.02
365.04	1490.92
365.25	1568.74
365.46	1617.90
365.67	1511.40
365.88	1527.78
366.09	1509.35
366.30	1492.97
366.51	1548.26
366.72	1490.92
366.93	1607.66
367.14	1609.70
367.35	1632.23
367.56	1546.22
367.77	1607.66
367.98	1544.17
368.18	1589.22
368.39	1564.65
368.60	1449.96
368.81	1542.12
369.02	1513.45
369.23	1564.65
369.44	1560.55
369.65	1511.40
369.86	1587.18
370.07	1591.27
370.28	1546.22
370.49	1540.07
370.70	1599.46
370.91	1552.36
371.12	1503.21
371.33	1574.89
371.54	1574.89
371.75	1656.81
371.96	1505.26
372.17	1564.65
372.38	1517.54
372.59	1521.64
372.80	1570.79
373.01	1568.74
373.22	1589.22
373.43	1558.50
373.64	1470.44
373.85	1568.74
374.06	1644.52
374.26	1589.22
374.47	1511.40
374.68	1544.17
374.89	1560.55
375.10	1513.45
375.31	1693.67
375.52	1521.64
375.73	1611.75
375.94	1513.45
376.15	1529.83
376.36	1460.20
376.57	1456.11
376.78	1523.69
376.99	1562.60
377.20	1652.71
377.40	1533.93
377.61	1572.84
377.82	1419.24
378.03	1609.70
378.24	1601.51
378.45	1556.46
378.66	1558.50
378.87	1531.88
379.08	1462.25
379.29	1550.31
379.50	1572.84
379.71	1529.83
379.91	1572.84
380.12	1605.61
380.33	1503.21
380.54	1527.78
380.75	1554.41
380.96	1525.74
381.17	1542.12
381.38	1544.17
381.59	1597.42
381.80	1587.18
382.00	1697.77
382.21	1687.53
382.42	1648.61
382.63	1679.33
382.84	1576.94
383.05	1619.94
383.26	1544.17
383.47	1546.22
383.68	1607.66
383.88	1581.03
384.09	1470.44
384.30	1630.18
384.51	1478.63
384.72	1529.83
384.93	1513.45
385.14	1585.13
385.35	1593.32
385.55	1454.06
385.76	1607.66
385.97	1599.46
386.18	1558.50
386.39	1462.25
386.60	1593.32
386.81	1578.98
387.02	1501.16
387.22	1576.94
387.43	1677.29
387.64	1673.19
387.85	1830.88
388.06	3139.54
388.27	7372.69
388.48	10862.43
388.68	12642.11
388.89	14036.78
389.10	13057.85
389.31	10127.21
389.52	8955.77
389.73	7917.45
389.93	7448.46
390.14	6811.54
390.35	6209.44
390.56	5713.83
390.77	4806.58
390.98	3762.12
391.18	2803.67
391.39	2205.66
391.60	1775.59
391.81	1722.34
392.02	1560.55
392.23	1691.62
392.43	1587.18
392.64	1665.00
392.85	1531.88
393.06	1677.29
393.27	1609.70
393.47	1572.84
393.68	1511.40
393.89	1550.31
394.10	1599.46
394.31	1482.73
394.52	1490.92
394.72	1505.26
394.93	1587.18
395.14	1533.93
395.35	1560.55
395.56	1546.22
395.76	1585.13
395.97	1718.25
396.18	1665.00
396.39	1761.25
396.60	1933.28
396.80	1671.14
397.01	1691.62
397.22	1679.33
397.43	1722.34
397.64	1595.37
397.84	1662.95
398.05	1669.09
398.26	1519.59
398.47	1587.18
398.67	1581.03
398.88	1562.60
399.09	1621.99
399.30	1556.46
399.51	1581.03
399.71	1445.87
399.92	1527.78
400.13	1626.09
400.34	1562.60
400.54	1499.11
400.75	1605.61
400.96	1546.22
401.17	1617.90
401.37	1603.56
401.58	1609.70
401.79	1591.27
402.00	1816.55
402.21	1900.52
402.41	1877.99
402.62	2035.68
402.83	2000.87
403.04	1941.47
403.24	1851.36
403.45	1695.72
403.66	1701.86
403.87	1714.15
404.07	1777.64
404.28	1742.82
404.49	1718.25
404.70	1673.19
404.90	1609.70
405.11	1558.50
405.32	1578.98
405.52	1519.59
405.73	1492.97
405.94	1499.11
406.15	1499.11
406.35	1597.42
406.56	1535.98
406.77	1544.17
406.98	1542.12
407.18	1527.78
407.39	1511.40
407.60	1566.70
407.80	1572.84
408.01	1486.83
408.22	1603.56
408.43	1443.82
408.63	1554.41
408.84	1517.54
409.05	1621.99
409.25	1468.39
409.46	1511.40
409.67	1581.03
409.88	1538.02
410.08	1548.26
410.29	1495.02
410.50	1544.17
410.70	1542.12
410.91	1531.88
411.12	1587.18
411.32	1652.71
411.53	1492.97
411.74	1652.71
411.95	1603.56
412.15	1695.72
412.36	1572.84
412.57	1550.31
412.77	1595.37
412.98	1533.93
413.19	1505.26
413.39	1538.02
413.60	1558.50
413.81	1564.65
414.01	1572.84
414.22	1564.65
414.43	1626.09
414.63	1527.78
414.84	1574.89
415.05	1570.79
415.25	1505.26
415.46	1570.79
415.67	1552.36
415.87	1544.17
416.08	1544.17
416.29	1482.73
416.49	1554.41
416.70	1529.83
416.91	1531.88
417.11	1472.49
417.32	1505.26
417.53	1548.26
417.73	1525.74
417.94	1562.60
418.15	1486.83
418.35	1568.74
418.56	1521.64
418.77	1595.37
418.97	1517.54
419.18	1538.02
419.38	1462.25
419.59	1554.41
419.80	1658.85
420.00	1499.11
420.21	1587.18
420.42	1621.99
420.62	1499.11
420.83	1452.01
421.04	1486.83
421.24	1490.92
421.45	1576.94
421.65	1552.36
421.86	1515.50
422.07	1548.26
422.27	1507.30
422.48	1542.12
422.69	1531.88
422.89	1556.46
423.10	1517.54
423.30	1353.71
423.51	1587.18
423.72	1507.30
423.92	1607.66
424.13	1554.41
424.33	1501.16
424.54	1595.37
424.75	1632.23
424.95	1587.18
425.16	1593.32
425.36	1529.83
425.57	1550.31
425.78	1581.03
425.98	1597.42
426.19	1542.12
426.39	1550.31
426.60	1505.26
426.81	1634.28
427.01	1568.74
427.22	1492.97
427.42	1452.01
427.63	1578.98
427.83	1535.98
428.04	1736.68
428.25	1658.85
428.45	1570.79
428.66	1533.93
428.86	1556.46
429.07	1609.70
429.28	1531.88
429.48	1501.16
429.69	1517.54
429.89	1484.78
430.10	1513.45
430.30	1574.89
430.51	1603.56
430.71	1507.30
430.92	1533.93
431.13	1482.73
431.33	1578.98
431.54	1660.90
431.74	1640.42
431.95	1593.32
432.15	1462.25
432.36	1562.60
432.56	1585.13
432.77	1550.31
432.98	1667.05
433.18	1556.46
433.39	1578.98
433.59	1533.93
433.80	1558.50
434.00	1605.61
434.21	1515.50
434.41	1507.30
434.62	1619.94
434.82	1454.06
435.03	1486.83
435.23	1597.42
435.44	1460.20
435.64	1521.64
435.85	1578.98
436.06	1558.50
436.26	1585.13
436.47	1562.60
436.67	1617.90
436.88	1503.21
437.08	1581.03
437.29	1626.09
437.49	1621.99
437.70	1570.79
437.90	1542.12
438.11	1671.14
438.31	1679.33
438.52	1732.58
438.72	1771.49
438.93	1755.11
439.13	1576.94
439.34	1675.24
439.54	1560.55
439.75	1648.61
439.95	1644.52
440.16	1540.07
440.36	1560.55
440.57	1603.56
440.77	1554.41
440.98	1583.08
441.18	1552.36
441.39	1529.83
441.59	1554.41
441.80	1644.52
442.00	1636.33
442.21	1589.22
442.41	1521.64
442.62	1533.93
442.82	1503.21
443.02	1644.52
443.23	1447.91
443.43	1609.70
443.64	1634.28
443.84	1523.69
444.05	1634.28
444.25	1505.26
444.46	1556.46
444.66	1570.79
444.87	1665.00
445.07	1492.97
445.28	1542.12
445.48	1566.70
445.69	1597.42
445.89	1597.42
446.09	1667.05
446.30	2021.35
446.50	3227.60
446.71	4505.53
446.91	5310.38
447.12	5742.50
447.32	5724.07
447.53	4515.77
447.73	4007.87
447.93	3753.93
448.14	3391.44
448.34	3215.31
448.55	2971.60
448.75	2789.33
448.96	2822.10
449.16	2494.43
449.36	2340.83
449.57	2062.30
449.77	1818.60
449.98	1701.86
450.18	1701.86
450.39	1638.38
450.59	1675.24
450.79	1476.59
451.00	1558.50
451.20	1644.52
451.41	1599.46
451.61	1507.30
451.81	1505.26
452.02	1509.35
452.22	1548.26
452.43	1550.31
452.63	1507.30
