SpectraSuite Data File
++++++++++++++++++++++++++++++++++++
Date: Tue May 03 12:55:22 CEST 2016
User: root
Dark Spectrum Present: No
Reference Spectrum Present: No
Number of Sampled Component Spectra: 1
Spectrometers: USB4C02835
Integration Time (usec): 100000 (USB4C02835)
Spectra Averaged: 1 (USB4C02835)
Boxcar Smoothing: 0 (USB4C02835)
Correct for Electrical Dark: No (USB4C02835)
Strobe/Lamp Enabled: No (USB4C02835)
Correct for Detector Non-linearity: No (USB4C02835)
Correct for Stray Light: No (USB4C02835)
Number of Pixels in Processed Spectrum: 3648
>>>>>Begin Processed Spectral Data<<<<<
177.47	1361.90
177.69	1361.90
177.91	1361.90
178.13	1374.19
178.36	1335.28
178.58	1439.72
178.80	1523.69
179.02	1495.02
179.24	1488.87
179.46	1564.65
179.68	1531.88
179.90	1480.68
180.13	1517.54
180.35	1474.54
180.57	1507.30
180.79	1617.90
181.01	1511.40
181.23	1511.40
181.45	1591.27
181.67	1560.55
181.90	1495.02
182.12	1515.50
182.34	1476.59
182.56	1480.68
182.78	1501.16
183.00	1595.37
183.22	1593.32
183.44	1480.68
183.66	1679.33
183.89	1601.51
184.11	1550.31
184.33	1562.60
184.55	1591.27
184.77	1601.51
184.99	1597.42
185.21	1472.49
185.43	1708.01
185.65	1495.02
185.87	1492.97
186.10	1652.71
186.32	1699.81
186.54	1519.59
186.76	1546.22
186.98	1646.57
187.20	1488.87
187.42	1542.12
187.64	1499.11
187.86	1550.31
188.08	1560.55
188.30	1542.12
188.52	1558.50
188.75	1546.22
188.97	1607.66
189.19	1497.07
189.41	1576.94
189.63	1572.84
189.85	1546.22
190.07	1452.01
190.29	1466.35
190.51	1587.18
190.73	1499.11
190.95	1517.54
191.17	1548.26
191.39	1501.16
191.61	1484.78
191.84	1509.35
192.06	1572.84
192.28	1447.91
192.50	1665.00
192.72	1581.03
192.94	1527.78
193.16	1570.79
193.38	1511.40
193.60	1480.68
193.82	1544.17
194.04	1525.74
194.26	1564.65
194.48	1560.55
194.70	1542.12
194.92	1505.26
195.14	1644.52
195.36	1544.17
195.58	1544.17
195.80	1488.87
196.02	1495.02
196.24	1566.70
196.46	1554.41
196.69	1519.59
196.91	1660.90
197.13	1449.96
197.35	1546.22
197.57	1495.02
197.79	1578.98
198.01	1576.94
198.23	1548.26
198.45	1509.35
198.67	1464.30
198.89	1538.02
199.11	1591.27
199.33	1540.07
199.55	1388.52
199.77	1523.69
199.99	1595.37
200.21	1484.78
200.43	1480.68
200.65	1505.26
200.87	1406.95
201.09	1570.79
201.31	1535.98
201.53	1540.07
201.75	1509.35
201.97	1566.70
202.19	1568.74
202.41	1574.89
202.63	1578.98
202.85	1515.50
203.07	1591.27
203.29	1445.87
203.51	1525.74
203.73	1476.59
203.95	1705.96
204.17	1497.07
204.39	1581.03
204.61	1593.32
204.83	1515.50
205.05	1595.37
205.27	1560.55
205.49	1587.18
205.71	1583.08
205.93	1468.39
206.15	1517.54
206.37	1546.22
206.59	1501.16
206.81	1460.20
207.03	1495.02
207.25	1574.89
207.47	1509.35
207.69	1544.17
207.91	1583.08
208.13	1617.90
208.34	1497.07
208.56	1468.39
208.78	1601.51
209.00	1529.83
209.22	1568.74
209.44	1509.35
209.66	1511.40
209.88	1611.75
210.10	1509.35
210.32	1460.20
210.54	1617.90
210.76	1511.40
210.98	1581.03
211.20	1458.15
211.42	1576.94
211.64	1548.26
211.86	1601.51
212.08	1566.70
212.30	1546.22
212.52	1490.92
212.74	1527.78
212.96	1503.21
213.17	1597.42
213.39	1562.60
213.61	1611.75
213.83	1593.32
214.05	1558.50
214.27	1540.07
214.49	1507.30
214.71	1480.68
214.93	1542.12
215.15	1492.97
215.37	1503.21
215.59	1447.91
215.81	1535.98
216.03	1566.70
216.24	1556.46
216.46	1523.69
216.68	1550.31
216.90	1542.12
217.12	1589.22
217.34	1562.60
217.56	1507.30
217.78	1578.98
218.00	1546.22
218.22	1540.07
218.44	1583.08
218.66	1478.63
218.87	1611.75
219.09	1550.31
219.31	1562.60
219.53	1595.37
219.75	1578.98
219.97	1589.22
220.19	1558.50
220.41	1507.30
220.63	1652.71
220.85	1511.40
221.06	1562.60
221.28	1619.94
221.50	1550.31
221.72	1546.22
221.94	1607.66
222.16	1495.02
222.38	1599.46
222.60	1558.50
222.82	1443.82
223.03	1583.08
223.25	1474.54
223.47	1521.64
223.69	1583.08
223.91	1572.84
224.13	1517.54
224.35	1527.78
224.57	1560.55
224.78	1609.70
225.00	1527.78
225.22	1570.79
225.44	1535.98
225.66	1552.36
225.88	1535.98
226.10	1621.99
226.32	1492.97
226.53	1593.32
226.75	1497.07
226.97	1570.79
227.19	1544.17
227.41	1501.16
227.63	1517.54
227.85	1499.11
228.06	1482.73
228.28	1535.98
228.50	1501.16
228.72	1523.69
228.94	1501.16
229.16	1462.25
229.37	1513.45
229.59	1472.49
229.81	1675.24
230.03	1517.54
230.25	1449.96
230.47	1478.63
230.69	1456.11
230.90	1544.17
231.12	1521.64
231.34	1576.94
231.56	1615.85
231.78	1591.27
232.00	1542.12
232.21	1558.50
232.43	1560.55
232.65	1431.53
232.87	1566.70
233.09	1503.21
233.30	1558.50
233.52	1611.75
233.74	1544.17
233.96	1560.55
234.18	1525.74
234.40	1523.69
234.61	1662.95
234.83	1497.07
235.05	1462.25
235.27	1658.85
235.49	1578.98
235.70	1601.51
235.92	1626.09
236.14	1533.93
236.36	1751.01
236.58	1458.15
236.79	1589.22
237.01	1484.78
237.23	1488.87
237.45	1591.27
237.67	1533.93
237.88	1546.22
238.10	1658.85
238.32	1476.59
238.54	1476.59
238.76	1538.02
238.97	1511.40
239.19	1544.17
239.41	1550.31
239.63	1648.61
239.85	1492.97
240.06	1615.85
240.28	1497.07
240.50	1538.02
240.72	1538.02
240.93	1538.02
241.15	1589.22
241.37	1558.50
241.59	1591.27
241.81	1505.26
242.02	1492.97
242.24	1558.50
242.46	1609.70
242.68	1488.87
242.89	1544.17
243.11	1624.04
243.33	1486.83
243.55	1546.22
243.76	1484.78
243.98	1560.55
244.20	1544.17
244.42	1576.94
244.64	1607.66
244.85	1382.38
245.07	1544.17
245.29	1527.78
245.51	1531.88
245.72	1505.26
245.94	1587.18
246.16	1517.54
246.38	1601.51
246.59	1462.25
246.81	1480.68
247.03	1499.11
247.24	1404.91
247.46	1470.44
247.68	1548.26
247.90	1517.54
248.11	1552.36
248.33	1544.17
248.55	1490.92
248.77	1517.54
248.98	1603.56
249.20	1562.60
249.42	1578.98
249.64	1574.89
249.85	1488.87
250.07	1454.06
250.29	1585.13
250.50	1509.35
250.72	1513.45
250.94	1497.07
251.16	1576.94
251.37	1636.33
251.59	1550.31
251.81	1572.84
252.02	1570.79
252.24	1460.20
252.46	1587.18
252.68	1513.45
252.89	1529.83
253.11	1472.49
253.33	1603.56
253.54	1632.23
253.76	1435.63
253.98	1574.89
254.20	1513.45
254.41	1511.40
254.63	1445.87
254.85	1525.74
255.06	1538.02
255.28	1527.78
255.50	1583.08
255.71	1548.26
255.93	1478.63
256.15	1550.31
256.36	1544.17
256.58	1566.70
256.80	1599.46
257.02	1476.59
257.23	1435.63
257.45	1544.17
257.67	1648.61
257.88	1552.36
258.10	1529.83
258.32	1570.79
258.53	1538.02
258.75	1564.65
258.97	1517.54
259.18	1527.78
259.40	1566.70
259.62	1589.22
259.83	1609.70
260.05	1548.26
260.27	1763.30
260.48	1564.65
260.70	1548.26
260.92	1574.89
261.13	1603.56
261.35	1509.35
261.57	1544.17
261.78	1462.25
262.00	1488.87
262.22	1566.70
262.43	1449.96
262.65	1470.44
262.86	1495.02
263.08	1578.98
263.30	1574.89
263.51	1443.82
263.73	1583.08
263.95	1550.31
264.16	1443.82
264.38	1486.83
264.60	1585.13
264.81	1540.07
265.03	1597.42
265.25	1554.41
265.46	1521.64
265.68	1685.48
265.89	1603.56
266.11	1484.78
266.33	1566.70
266.54	1615.85
266.76	1490.92
266.98	1576.94
267.19	1568.74
267.41	1533.93
267.62	1515.50
267.84	1552.36
268.06	1554.41
268.27	1552.36
268.49	1570.79
268.70	1589.22
268.92	1490.92
269.14	1482.73
269.35	1556.46
269.57	1460.20
269.79	1527.78
270.00	1587.18
270.22	1595.37
270.43	1480.68
270.65	1449.96
270.87	1517.54
271.08	1601.51
271.30	1589.22
271.51	1533.93
271.73	1527.78
271.95	1601.51
272.16	1560.55
272.38	1542.12
272.59	1560.55
272.81	1476.59
273.02	1587.18
273.24	1538.02
273.46	1593.32
273.67	1533.93
273.89	1486.83
274.10	1488.87
274.32	1550.31
274.54	1568.74
274.75	1548.26
274.97	1501.16
275.18	1585.13
275.40	1535.98
275.61	1507.30
275.83	1546.22
276.05	1515.50
276.26	1525.74
276.48	1499.11
276.69	1533.93
276.91	1564.65
277.12	1603.56
277.34	1605.61
277.55	1568.74
277.77	1509.35
277.99	1550.31
278.20	1390.57
278.42	1476.59
278.63	1495.02
278.85	1492.97
279.06	1454.06
279.28	1576.94
279.49	1570.79
279.71	1570.79
279.93	1513.45
280.14	1495.02
280.36	1509.35
280.57	1562.60
280.79	1568.74
281.00	1527.78
281.22	1632.23
281.43	1605.61
281.65	1507.30
281.86	1449.96
282.08	1548.26
282.29	1599.46
282.51	1509.35
282.73	1556.46
282.94	1476.59
283.16	1599.46
283.37	1568.74
283.59	1456.11
283.80	1542.12
284.02	1542.12
284.23	1544.17
284.45	1495.02
284.66	1456.11
284.88	1542.12
285.09	1550.31
285.31	1640.42
285.52	1574.89
285.74	1468.39
285.95	1611.75
286.17	1558.50
286.38	1578.98
286.60	1415.15
286.81	1462.25
287.03	1523.69
287.24	1525.74
287.46	1593.32
287.67	1495.02
287.89	1738.73
288.10	1509.35
288.32	1587.18
288.53	1578.98
288.75	1521.64
288.96	1564.65
289.18	1527.78
289.39	1535.98
289.61	1499.11
289.82	1558.50
290.04	1613.80
290.25	1486.83
290.47	1466.35
290.68	1523.69
290.90	1570.79
291.11	1392.62
291.33	1581.03
291.54	1415.15
291.76	1509.35
291.97	1556.46
292.18	1566.70
292.40	1499.11
292.61	1550.31
292.83	1621.99
293.04	1542.12
293.26	1544.17
293.47	1546.22
293.69	1445.87
293.90	1531.88
294.12	1533.93
294.33	1540.07
294.55	1525.74
294.76	1566.70
294.97	1525.74
295.19	1642.47
295.40	1488.87
295.62	1554.41
295.83	1560.55
296.05	1501.16
296.26	1535.98
296.48	1513.45
296.69	1568.74
296.90	1478.63
297.12	1552.36
297.33	1581.03
297.55	1548.26
297.76	1599.46
297.98	1554.41
298.19	1521.64
298.41	1427.43
298.62	1443.82
298.83	1587.18
299.05	1513.45
299.26	1511.40
299.48	1476.59
299.69	1578.98
299.90	1624.04
300.12	1484.78
300.33	1540.07
300.55	1492.97
300.76	1544.17
300.98	1476.59
301.19	1527.78
301.40	1568.74
301.62	1499.11
301.83	1519.59
302.05	1525.74
302.26	1480.68
302.47	1581.03
302.69	1484.78
302.90	1558.50
303.12	1492.97
303.33	1587.18
303.54	1597.42
303.76	1468.39
303.97	1552.36
304.19	1613.80
304.40	1505.26
304.61	1511.40
304.83	1632.23
305.04	1578.98
305.26	1542.12
305.47	1554.41
305.68	1562.60
305.90	1482.73
306.11	1615.85
306.33	1593.32
306.54	1566.70
306.75	1517.54
306.97	1484.78
307.18	1515.50
307.39	1492.97
307.61	1525.74
307.82	1585.13
308.04	1574.89
308.25	1538.02
308.46	1546.22
308.68	1550.31
308.89	1542.12
309.10	1585.13
309.32	1626.09
309.53	1505.26
309.74	1554.41
309.96	1568.74
310.17	1517.54
310.39	1501.16
310.60	1550.31
310.81	1617.90
311.03	1425.39
311.24	1523.69
311.45	1478.63
311.67	1572.84
311.88	1595.37
312.09	1517.54
312.31	1544.17
312.52	1517.54
312.73	1472.49
312.95	1411.05
313.16	1499.11
313.37	1691.62
313.59	1626.09
313.80	1611.75
314.01	1638.38
314.23	1472.49
314.44	1542.12
314.65	1456.11
314.87	1574.89
315.08	1574.89
315.29	1570.79
315.51	1486.83
315.72	1509.35
315.93	1652.71
316.15	1566.70
316.36	1513.45
316.57	1505.26
316.79	1558.50
317.00	1470.44
317.21	1542.12
317.43	1552.36
317.64	1499.11
317.85	1556.46
318.07	1619.94
318.28	1697.77
318.49	1650.66
318.70	1730.53
318.92	1808.36
319.13	1701.86
319.34	1734.63
319.56	1601.51
319.77	1632.23
319.98	1581.03
320.20	1583.08
320.41	1601.51
320.62	1617.90
320.83	1511.40
321.05	1638.38
321.26	1581.03
321.47	1566.70
321.69	1533.93
321.90	1492.97
322.11	1550.31
322.32	1533.93
322.54	1665.00
322.75	1482.73
322.96	1646.57
323.18	1445.87
323.39	1488.87
323.60	1480.68
323.81	1542.12
324.03	1505.26
324.24	1492.97
324.45	1535.98
324.66	1511.40
324.88	1603.56
325.09	1554.41
325.30	1519.59
325.52	1595.37
325.73	1517.54
325.94	1478.63
326.15	1454.06
326.37	1574.89
326.58	1550.31
326.79	1609.70
327.00	1495.02
327.22	1552.36
327.43	1486.83
327.64	1482.73
327.85	1570.79
328.07	1527.78
328.28	1636.33
328.49	1533.93
328.70	1511.40
328.92	1546.22
329.13	1484.78
329.34	1574.89
329.55	1644.52
329.76	1628.14
329.98	1505.26
330.19	1585.13
330.40	1546.22
330.61	1615.85
330.83	1521.64
331.04	1546.22
331.25	1533.93
331.46	1572.84
331.68	1515.50
331.89	1607.66
332.10	1552.36
332.31	1531.88
332.52	1513.45
332.74	1654.76
332.95	1419.24
333.16	1517.54
333.37	1603.56
333.58	1540.07
333.80	1556.46
334.01	1460.20
334.22	1497.07
334.43	1538.02
334.64	1460.20
334.86	1503.21
335.07	1527.78
335.28	1566.70
335.49	1423.34
335.70	1585.13
335.92	1564.65
336.13	1632.23
336.34	1572.84
336.55	1509.35
336.76	1585.13
336.98	1435.63
337.19	1523.69
337.40	1564.65
337.61	1605.61
337.82	1574.89
338.04	1624.04
338.25	1439.72
338.46	1548.26
338.67	1497.07
338.88	1492.97
339.09	1523.69
339.31	1546.22
339.52	1546.22
339.73	1476.59
339.94	1568.74
340.15	1556.46
340.36	1548.26
340.58	1529.83
340.79	1505.26
341.00	1544.17
341.21	1474.54
341.42	1658.85
341.63	1509.35
341.85	1544.17
342.06	1501.16
342.27	1486.83
342.48	1566.70
342.69	1480.68
342.90	1525.74
343.12	1529.83
343.33	1484.78
343.54	1591.27
343.75	1578.98
343.96	1452.01
344.17	1517.54
344.38	1472.49
344.60	1499.11
344.81	1513.45
345.02	1566.70
345.23	1603.56
345.44	1617.90
345.65	1546.22
345.86	1495.02
346.07	1535.98
346.29	1540.07
346.50	1468.39
346.71	1519.59
346.92	1615.85
347.13	1656.81
347.34	1468.39
347.55	1488.87
347.76	1574.89
347.98	1484.78
348.19	1570.79
348.40	1617.90
348.61	1480.68
348.82	1605.61
349.03	1572.84
349.24	1464.30
349.45	1632.23
349.66	1507.30
349.88	1521.64
350.09	1468.39
350.30	1593.32
350.51	1621.99
350.72	1566.70
350.93	1599.46
351.14	1454.06
351.35	1546.22
351.56	1533.93
351.77	1554.41
351.99	1513.45
352.20	1570.79
352.41	1585.13
352.62	1468.39
352.83	1495.02
353.04	1542.12
353.25	1447.91
353.46	1607.66
353.67	1638.38
353.88	1443.82
354.09	1546.22
354.30	1544.17
354.52	1576.94
354.73	1562.60
354.94	1556.46
355.15	1501.16
355.36	1576.94
355.57	1509.35
355.78	1583.08
355.99	1478.63
356.20	1578.98
356.41	1599.46
356.62	1566.70
356.83	1517.54
357.04	1621.99
357.25	1423.34
357.46	1501.16
357.68	1433.58
357.89	1544.17
358.10	1497.07
358.31	1574.89
358.52	1585.13
358.73	1486.83
358.94	1449.96
359.15	1564.65
359.36	1501.16
359.57	1507.30
359.78	1437.67
359.99	1552.36
360.20	1468.39
360.41	1466.35
360.62	1546.22
360.83	1570.79
361.04	1540.07
361.25	1564.65
361.46	1705.96
361.67	1507.30
361.88	1542.12
362.09	1605.61
362.30	1587.18
362.51	1531.88
362.72	1556.46
362.93	1558.50
363.14	1648.61
363.35	1503.21
363.56	1544.17
363.78	1538.02
363.99	1640.42
364.20	1570.79
364.41	1566.70
364.62	1566.70
364.83	1648.61
365.04	1535.98
365.25	1503.21
365.46	1665.00
365.67	1490.92
365.88	1478.63
366.09	1576.94
366.30	1517.54
366.51	1458.15
366.72	1492.97
366.93	1501.16
367.14	1529.83
367.35	1570.79
367.56	1503.21
367.77	1603.56
367.98	1552.36
368.18	1503.21
368.39	1597.42
368.60	1507.30
368.81	1679.33
369.02	1574.89
369.23	1484.78
369.44	1441.77
369.65	1501.16
369.86	1564.65
370.07	1542.12
370.28	1499.11
370.49	1611.75
370.70	1599.46
370.91	1454.06
371.12	1456.11
371.33	1513.45
371.54	1521.64
371.75	1568.74
371.96	1452.01
372.17	1538.02
372.38	1548.26
372.59	1542.12
372.80	1480.68
373.01	1529.83
373.22	1507.30
373.43	1544.17
373.64	1476.59
373.85	1583.08
374.06	1607.66
374.26	1519.59
374.47	1632.23
374.68	1564.65
374.89	1556.46
375.10	1535.98
375.31	1632.23
375.52	1472.49
375.73	1556.46
375.94	1484.78
376.15	1589.22
376.36	1523.69
376.57	1542.12
376.78	1468.39
376.99	1546.22
377.20	1605.61
377.40	1609.70
377.61	1632.23
377.82	1546.22
378.03	1595.37
378.24	1554.41
378.45	1617.90
378.66	1564.65
378.87	1482.73
379.08	1542.12
379.29	1476.59
379.50	1587.18
379.71	1572.84
379.91	1589.22
380.12	1503.21
380.33	1585.13
380.54	1468.39
380.75	1511.40
380.96	1611.75
381.17	1484.78
381.38	1603.56
381.59	1593.32
381.80	1531.88
382.00	1613.80
382.21	1607.66
382.42	1685.48
382.63	1693.67
382.84	1601.51
383.05	1568.74
383.26	1658.85
383.47	1621.99
383.68	1601.51
383.88	1505.26
384.09	1533.93
384.30	1660.90
384.51	1595.37
384.72	1589.22
384.93	1488.87
385.14	1566.70
385.35	1632.23
385.55	1445.87
385.76	1595.37
385.97	1560.55
386.18	1501.16
386.39	1529.83
386.60	1540.07
386.81	1482.73
387.02	1519.59
387.22	1550.31
387.43	1671.14
387.64	1650.66
387.85	1898.47
388.06	3094.48
388.27	7122.84
388.48	10708.83
388.68	12461.89
388.89	13713.20
389.10	12846.91
389.31	10252.13
389.52	8841.08
389.73	7825.29
389.93	7210.90
390.14	6799.26
390.35	6076.32
390.56	5490.60
390.77	4704.18
390.98	3588.04
391.18	2772.95
391.39	2197.47
391.60	1726.44
391.81	1691.62
392.02	1538.02
392.23	1695.72
392.43	1574.89
392.64	1601.51
392.85	1542.12
393.06	1648.61
393.27	1484.78
393.47	1480.68
393.68	1595.37
393.89	1554.41
394.10	1624.04
394.31	1546.22
394.52	1519.59
394.72	1511.40
394.93	1495.02
395.14	1560.55
395.35	1533.93
395.56	1507.30
395.76	1609.70
395.97	1689.57
396.18	1804.26
396.39	1716.20
396.60	1857.51
396.80	1753.06
397.01	1683.43
397.22	1708.01
397.43	1669.09
397.64	1593.32
397.84	1624.04
398.05	1658.85
398.26	1599.46
398.47	1732.58
398.67	1660.90
398.88	1570.79
399.09	1599.46
399.30	1535.98
399.51	1558.50
399.71	1519.59
399.92	1593.32
400.13	1572.84
400.34	1521.64
400.54	1474.54
400.75	1525.74
400.96	1583.08
401.17	1603.56
401.37	1554.41
401.58	1521.64
401.79	1597.42
402.00	1771.49
402.21	1877.99
402.41	1890.28
402.62	1951.71
402.83	1966.05
403.04	1908.71
403.24	1892.32
403.45	1673.19
403.66	1826.79
403.87	1677.29
404.07	1748.97
404.28	1753.06
404.49	1708.01
404.70	1628.14
404.90	1523.69
405.11	1675.24
405.32	1591.27
405.52	1542.12
405.73	1548.26
405.94	1476.59
406.15	1476.59
406.35	1556.46
406.56	1544.17
406.77	1578.98
406.98	1630.18
407.18	1505.26
407.39	1615.85
407.60	1482.73
407.80	1511.40
408.01	1509.35
408.22	1597.42
408.43	1439.72
408.63	1517.54
408.84	1607.66
409.05	1542.12
409.25	1591.27
409.46	1495.02
409.67	1474.54
409.88	1525.74
410.08	1560.55
410.29	1429.48
410.50	1556.46
410.70	1595.37
410.91	1505.26
411.12	1576.94
411.32	1527.78
411.53	1632.23
411.74	1632.23
411.95	1667.05
412.15	1609.70
412.36	1652.71
412.57	1521.64
412.77	1636.33
412.98	1583.08
413.19	1484.78
413.39	1675.24
413.60	1578.98
413.81	1605.61
414.01	1488.87
414.22	1603.56
414.43	1624.04
414.63	1583.08
414.84	1605.61
415.05	1591.27
415.25	1474.54
415.46	1531.88
415.67	1566.70
415.87	1570.79
416.08	1583.08
416.29	1458.15
416.49	1587.18
416.70	1515.50
416.91	1529.83
417.11	1578.98
417.32	1568.74
417.53	1599.46
417.73	1511.40
417.94	1497.07
418.15	1550.31
418.35	1568.74
418.56	1517.54
418.77	1685.48
418.97	1499.11
419.18	1533.93
419.38	1447.91
419.59	1474.54
419.80	1566.70
420.00	1517.54
420.21	1535.98
420.42	1665.00
420.62	1566.70
420.83	1488.87
421.04	1435.63
421.24	1523.69
421.45	1503.21
421.65	1626.09
421.86	1519.59
422.07	1533.93
422.27	1574.89
422.48	1538.02
422.69	1535.98
422.89	1546.22
423.10	1552.36
423.30	1501.16
423.51	1544.17
423.72	1513.45
423.92	1560.55
424.13	1476.59
424.33	1529.83
424.54	1566.70
424.75	1570.79
424.95	1607.66
425.16	1587.18
425.36	1525.74
425.57	1546.22
425.78	1464.30
425.98	1585.13
426.19	1585.13
426.39	1427.43
426.60	1558.50
426.81	1626.09
427.01	1535.98
427.22	1478.63
427.42	1490.92
427.63	1525.74
427.83	1556.46
428.04	1628.14
428.25	1542.12
428.45	1609.70
428.66	1613.80
428.86	1581.03
429.07	1595.37
429.28	1452.01
429.48	1552.36
429.69	1554.41
429.89	1566.70
430.10	1474.54
430.30	1671.14
430.51	1564.65
430.71	1505.26
430.92	1505.26
431.13	1517.54
431.33	1531.88
431.54	1589.22
431.74	1660.90
431.95	1681.38
432.15	1476.59
432.36	1478.63
432.56	1628.14
432.77	1581.03
432.98	1566.70
433.18	1523.69
433.39	1558.50
433.59	1486.83
433.80	1624.04
434.00	1673.19
434.21	1482.73
434.41	1454.06
434.62	1619.94
434.82	1521.64
435.03	1505.26
435.23	1552.36
435.44	1503.21
435.64	1519.59
435.85	1523.69
436.06	1515.50
436.26	1544.17
436.47	1564.65
436.67	1478.63
436.88	1492.97
437.08	1595.37
437.29	1572.84
437.49	1621.99
437.70	1662.95
437.90	1527.78
438.11	1722.34
438.31	1710.05
438.52	1673.19
438.72	1738.73
438.93	1710.05
439.13	1656.81
439.34	1603.56
439.54	1535.98
439.75	1583.08
439.95	1574.89
440.16	1515.50
440.36	1587.18
440.57	1599.46
440.77	1669.09
440.98	1511.40
441.18	1624.04
441.39	1542.12
441.59	1513.45
441.80	1632.23
442.00	1566.70
442.21	1540.07
442.41	1544.17
442.62	1550.31
442.82	1540.07
443.02	1626.09
443.23	1566.70
443.43	1527.78
443.64	1574.89
443.84	1521.64
444.05	1654.76
444.25	1578.98
444.46	1474.54
444.66	1499.11
444.87	1632.23
445.07	1490.92
445.28	1503.21
445.48	1615.85
445.69	1574.89
445.89	1681.38
446.09	1591.27
446.30	2068.45
446.50	3033.04
446.71	4442.04
446.91	5181.36
447.12	5627.82
447.32	5488.56
447.53	4595.64
447.73	3993.54
447.93	3672.01
448.14	3315.66
448.34	3237.84
448.55	2893.78
448.75	2895.83
448.96	2762.71
449.16	2500.57
449.36	2269.15
449.57	1964.00
449.77	1732.58
449.98	1675.24
450.18	1687.53
450.39	1681.38
450.59	1603.56
450.79	1574.89
451.00	1503.21
451.20	1447.91
451.41	1562.60
451.61	1628.14
451.81	1501.16
452.02	1525.74
452.22	1531.88
452.43	1458.15
452.63	1495.02
