SpectraSuite Data File
++++++++++++++++++++++++++++++++++++
Date: Tue May 03 12:55:24 CEST 2016
User: root
Dark Spectrum Present: No
Reference Spectrum Present: No
Number of Sampled Component Spectra: 1
Spectrometers: USB4C02835
Integration Time (usec): 100000 (USB4C02835)
Spectra Averaged: 1 (USB4C02835)
Boxcar Smoothing: 0 (USB4C02835)
Correct for Electrical Dark: No (USB4C02835)
Strobe/Lamp Enabled: No (USB4C02835)
Correct for Detector Non-linearity: No (USB4C02835)
Correct for Stray Light: No (USB4C02835)
Number of Pixels in Processed Spectrum: 3648
>>>>>Begin Processed Spectral Data<<<<<
177.47	1363.95
177.69	1363.95
177.91	1363.95
178.13	1308.65
178.36	1370.09
178.58	1488.87
178.80	1544.17
179.02	1497.07
179.24	1535.98
179.46	1566.70
179.68	1587.18
179.90	1529.83
180.13	1564.65
180.35	1513.45
180.57	1546.22
180.79	1499.11
181.01	1486.83
181.23	1605.61
181.45	1558.50
181.67	1603.56
181.90	1560.55
182.12	1523.69
182.34	1523.69
182.56	1609.70
182.78	1574.89
183.00	1499.11
183.22	1640.42
183.44	1492.97
183.66	1529.83
183.89	1669.09
184.11	1497.07
184.33	1621.99
184.55	1605.61
184.77	1578.98
184.99	1662.95
185.21	1538.02
185.43	1599.46
185.65	1492.97
185.87	1503.21
186.10	1562.60
186.32	1583.08
186.54	1542.12
186.76	1558.50
186.98	1564.65
187.20	1490.92
187.42	1478.63
187.64	1513.45
187.86	1578.98
188.08	1562.60
188.30	1478.63
188.52	1546.22
188.75	1599.46
188.97	1593.32
189.19	1509.35
189.41	1492.97
189.63	1613.80
189.85	1501.16
190.07	1499.11
190.29	1452.01
190.51	1517.54
190.73	1501.16
190.95	1574.89
191.17	1544.17
191.39	1419.24
191.61	1542.12
191.84	1556.46
192.06	1544.17
192.28	1462.25
192.50	1710.05
192.72	1542.12
192.94	1472.49
193.16	1513.45
193.38	1509.35
193.60	1513.45
193.82	1492.97
194.04	1581.03
194.26	1542.12
194.48	1513.45
194.70	1474.54
194.92	1581.03
195.14	1519.59
195.36	1558.50
195.58	1523.69
195.80	1550.31
196.02	1521.64
196.24	1495.02
196.46	1554.41
196.69	1566.70
196.91	1615.85
197.13	1538.02
197.35	1556.46
197.57	1638.38
197.79	1562.60
198.01	1521.64
198.23	1621.99
198.45	1462.25
198.67	1517.54
198.89	1566.70
199.11	1566.70
199.33	1466.35
199.55	1460.20
199.77	1556.46
199.99	1544.17
200.21	1587.18
200.43	1507.30
200.65	1474.54
200.87	1490.92
201.09	1550.31
201.31	1452.01
201.53	1574.89
201.75	1593.32
201.97	1546.22
202.19	1482.73
202.41	1499.11
202.63	1667.05
202.85	1615.85
203.07	1558.50
203.29	1568.74
203.51	1527.78
203.73	1470.44
203.95	1685.48
204.17	1660.90
204.39	1550.31
204.61	1490.92
204.83	1574.89
205.05	1613.80
205.27	1564.65
205.49	1583.08
205.71	1531.88
205.93	1486.83
206.15	1540.07
206.37	1529.83
206.59	1499.11
206.81	1507.30
207.03	1437.67
207.25	1464.30
207.47	1605.61
207.69	1484.78
207.91	1574.89
208.13	1589.22
208.34	1478.63
208.56	1515.50
208.78	1538.02
209.00	1495.02
209.22	1556.46
209.44	1583.08
209.66	1574.89
209.88	1533.93
210.10	1533.93
210.32	1433.58
210.54	1601.51
210.76	1538.02
210.98	1568.74
211.20	1423.34
211.42	1515.50
211.64	1505.26
211.86	1529.83
212.08	1546.22
212.30	1544.17
212.52	1517.54
212.74	1525.74
212.96	1542.12
213.17	1550.31
213.39	1535.98
213.61	1650.66
213.83	1550.31
214.05	1538.02
214.27	1595.37
214.49	1435.63
214.71	1464.30
214.93	1613.80
215.15	1564.65
215.37	1587.18
215.59	1519.59
215.81	1562.60
216.03	1570.79
216.24	1499.11
216.46	1570.79
216.68	1585.13
216.90	1552.36
217.12	1538.02
217.34	1550.31
217.56	1529.83
217.78	1615.85
218.00	1566.70
218.22	1507.30
218.44	1513.45
218.66	1564.65
218.87	1632.23
219.09	1503.21
219.31	1581.03
219.53	1550.31
219.75	1495.02
219.97	1472.49
220.19	1515.50
220.41	1566.70
220.63	1617.90
220.85	1550.31
221.06	1538.02
221.28	1574.89
221.50	1495.02
221.72	1443.82
221.94	1468.39
222.16	1562.60
222.38	1587.18
222.60	1572.84
222.82	1574.89
223.03	1572.84
223.25	1503.21
223.47	1554.41
223.69	1609.70
223.91	1538.02
224.13	1562.60
224.35	1523.69
224.57	1632.23
224.78	1509.35
225.00	1490.92
225.22	1521.64
225.44	1566.70
225.66	1525.74
225.88	1505.26
226.10	1507.30
226.32	1599.46
226.53	1593.32
226.75	1458.15
226.97	1507.30
227.19	1519.59
227.41	1470.44
227.63	1542.12
227.85	1445.87
228.06	1550.31
228.28	1529.83
228.50	1538.02
228.72	1538.02
228.94	1533.93
229.16	1458.15
229.37	1519.59
229.59	1464.30
229.81	1640.42
230.03	1501.16
230.25	1521.64
230.47	1486.83
230.69	1486.83
230.90	1564.65
231.12	1521.64
231.34	1533.93
231.56	1581.03
231.78	1509.35
232.00	1533.93
232.21	1558.50
232.43	1488.87
232.65	1476.59
232.87	1546.22
233.09	1505.26
233.30	1501.16
233.52	1499.11
233.74	1576.94
233.96	1480.68
234.18	1576.94
234.40	1570.79
234.61	1693.67
234.83	1464.30
235.05	1456.11
235.27	1662.95
235.49	1626.09
235.70	1495.02
235.92	1572.84
236.14	1585.13
236.36	1650.66
236.58	1529.83
236.79	1595.37
237.01	1517.54
237.23	1499.11
237.45	1576.94
237.67	1411.05
237.88	1587.18
238.10	1615.85
238.32	1482.73
238.54	1484.78
238.76	1533.93
238.97	1515.50
239.19	1501.16
239.41	1583.08
239.63	1464.30
239.85	1497.07
240.06	1558.50
240.28	1574.89
240.50	1576.94
240.72	1470.44
240.93	1560.55
241.15	1572.84
241.37	1593.32
241.59	1609.70
241.81	1521.64
242.02	1581.03
242.24	1544.17
242.46	1615.85
242.68	1519.59
242.89	1548.26
243.11	1587.18
243.33	1587.18
243.55	1595.37
243.76	1578.98
243.98	1511.40
244.20	1525.74
244.42	1548.26
244.64	1609.70
244.85	1478.63
245.07	1521.64
245.29	1546.22
245.51	1499.11
245.72	1548.26
245.94	1619.94
246.16	1527.78
246.38	1570.79
246.59	1540.07
246.81	1513.45
247.03	1603.56
247.24	1470.44
247.46	1558.50
247.68	1495.02
247.90	1546.22
248.11	1538.02
248.33	1564.65
248.55	1601.51
248.77	1542.12
248.98	1517.54
249.20	1554.41
249.42	1503.21
249.64	1507.30
249.85	1556.46
250.07	1527.78
250.29	1552.36
250.50	1626.09
250.72	1468.39
250.94	1609.70
251.16	1646.57
251.37	1535.98
251.59	1595.37
251.81	1570.79
252.02	1587.18
252.24	1548.26
252.46	1583.08
252.68	1497.07
252.89	1552.36
253.11	1402.86
253.33	1607.66
253.54	1591.27
253.76	1445.87
253.98	1556.46
254.20	1519.59
254.41	1464.30
254.63	1521.64
254.85	1490.92
255.06	1546.22
255.28	1626.09
255.50	1513.45
255.71	1505.26
255.93	1470.44
256.15	1527.78
256.36	1501.16
256.58	1599.46
256.80	1548.26
257.02	1554.41
257.23	1544.17
257.45	1533.93
257.67	1554.41
257.88	1482.73
258.10	1476.59
258.32	1488.87
258.53	1546.22
258.75	1652.71
258.97	1583.08
259.18	1492.97
259.40	1521.64
259.62	1583.08
259.83	1601.51
260.05	1632.23
260.27	1753.06
260.48	1595.37
260.70	1460.20
260.92	1566.70
261.13	1476.59
261.35	1501.16
261.57	1542.12
261.78	1503.21
262.00	1535.98
262.22	1550.31
262.43	1466.35
262.65	1560.55
262.86	1490.92
263.08	1607.66
263.30	1621.99
263.51	1427.43
263.73	1505.26
263.95	1636.33
264.16	1435.63
264.38	1595.37
264.60	1581.03
264.81	1480.68
265.03	1535.98
265.25	1591.27
265.46	1556.46
265.68	1609.70
265.89	1556.46
266.11	1478.63
266.33	1523.69
266.54	1648.61
266.76	1558.50
266.98	1587.18
267.19	1558.50
267.41	1560.55
267.62	1548.26
267.84	1464.30
268.06	1576.94
268.27	1570.79
268.49	1605.61
268.70	1613.80
268.92	1495.02
269.14	1476.59
269.35	1492.97
269.57	1517.54
269.79	1527.78
270.00	1513.45
270.22	1519.59
270.43	1585.13
270.65	1476.59
270.87	1626.09
271.08	1603.56
271.30	1589.22
271.51	1484.78
271.73	1628.14
271.95	1626.09
272.16	1587.18
272.38	1597.42
272.59	1476.59
272.81	1572.84
273.02	1568.74
273.24	1576.94
273.46	1507.30
273.67	1550.31
273.89	1474.54
274.10	1509.35
274.32	1679.33
274.54	1507.30
274.75	1529.83
274.97	1556.46
275.18	1572.84
275.40	1595.37
275.61	1544.17
275.83	1468.39
276.05	1449.96
276.26	1474.54
276.48	1621.99
276.69	1525.74
276.91	1576.94
277.12	1511.40
277.34	1576.94
277.55	1587.18
277.77	1544.17
277.99	1468.39
278.20	1501.16
278.42	1523.69
278.63	1413.10
278.85	1503.21
279.06	1527.78
279.28	1626.09
279.49	1560.55
279.71	1552.36
279.93	1515.50
280.14	1495.02
280.36	1464.30
280.57	1591.27
280.79	1568.74
281.00	1558.50
281.22	1447.91
281.43	1669.09
281.65	1505.26
281.86	1490.92
282.08	1607.66
282.29	1675.24
282.51	1515.50
282.73	1511.40
282.94	1574.89
283.16	1626.09
283.37	1665.00
283.59	1509.35
283.80	1544.17
284.02	1513.45
284.23	1634.28
284.45	1462.25
284.66	1417.19
284.88	1435.63
285.09	1574.89
285.31	1505.26
285.52	1562.60
285.74	1529.83
285.95	1624.04
286.17	1519.59
286.38	1587.18
286.60	1552.36
286.81	1523.69
287.03	1591.27
287.24	1527.78
287.46	1550.31
287.67	1527.78
287.89	1626.09
288.10	1589.22
288.32	1554.41
288.53	1597.42
288.75	1538.02
288.96	1587.18
289.18	1476.59
289.39	1456.11
289.61	1613.80
289.82	1640.42
290.04	1593.32
290.25	1476.59
290.47	1558.50
290.68	1542.12
290.90	1501.16
291.11	1495.02
291.33	1572.84
291.54	1507.30
291.76	1443.82
291.97	1513.45
292.18	1550.31
292.40	1585.13
292.61	1488.87
292.83	1642.47
293.04	1497.07
293.26	1507.30
293.47	1523.69
293.69	1507.30
293.90	1566.70
294.12	1572.84
294.33	1445.87
294.55	1525.74
294.76	1521.64
294.97	1542.12
295.19	1665.00
295.40	1490.92
295.62	1581.03
295.83	1542.12
296.05	1505.26
296.26	1601.51
296.48	1476.59
296.69	1585.13
296.90	1540.07
297.12	1507.30
297.33	1607.66
297.55	1527.78
297.76	1581.03
297.98	1601.51
298.19	1519.59
298.41	1546.22
298.62	1517.54
298.83	1566.70
299.05	1511.40
299.26	1497.07
299.48	1562.60
299.69	1533.93
299.90	1517.54
300.12	1495.02
300.33	1636.33
300.55	1574.89
300.76	1648.61
300.98	1499.11
301.19	1552.36
301.40	1591.27
301.62	1552.36
301.83	1603.56
302.05	1497.07
302.26	1519.59
302.47	1521.64
302.69	1474.54
302.90	1531.88
303.12	1449.96
303.33	1554.41
303.54	1626.09
303.76	1572.84
303.97	1476.59
304.19	1574.89
304.40	1456.11
304.61	1558.50
304.83	1673.19
305.04	1593.32
305.26	1583.08
305.47	1476.59
305.68	1535.98
305.90	1460.20
306.11	1615.85
306.33	1628.14
306.54	1583.08
306.75	1490.92
306.97	1490.92
307.18	1505.26
307.39	1472.49
307.61	1617.90
307.82	1533.93
308.04	1544.17
308.25	1562.60
308.46	1562.60
308.68	1523.69
308.89	1560.55
309.10	1482.73
309.32	1548.26
309.53	1533.93
309.74	1497.07
309.96	1525.74
310.17	1595.37
310.39	1486.83
310.60	1552.36
310.81	1511.40
311.03	1521.64
311.24	1538.02
311.45	1540.07
311.67	1687.53
311.88	1505.26
312.09	1550.31
312.31	1515.50
312.52	1554.41
312.73	1583.08
312.95	1503.21
313.16	1527.78
313.37	1523.69
313.59	1505.26
313.80	1615.85
314.01	1570.79
314.23	1507.30
314.44	1472.49
314.65	1495.02
314.87	1546.22
315.08	1544.17
315.29	1544.17
315.51	1540.07
315.72	1460.20
315.93	1597.42
316.15	1587.18
316.36	1501.16
316.57	1540.07
316.79	1556.46
317.00	1583.08
317.21	1578.98
317.43	1501.16
317.64	1556.46
317.85	1523.69
318.07	1484.78
318.28	1652.71
318.49	1714.15
318.70	1816.55
318.92	1685.48
319.13	1626.09
319.34	1740.77
319.56	1613.80
319.77	1701.86
319.98	1544.17
320.20	1615.85
320.41	1566.70
320.62	1609.70
320.83	1495.02
321.05	1716.20
321.26	1605.61
321.47	1480.68
321.69	1603.56
321.90	1464.30
322.11	1554.41
322.32	1609.70
322.54	1578.98
322.75	1486.83
322.96	1656.81
323.18	1486.83
323.39	1423.34
323.60	1525.74
323.81	1626.09
324.03	1550.31
324.24	1480.68
324.45	1589.22
324.66	1452.01
324.88	1630.18
325.09	1589.22
325.30	1550.31
325.52	1566.70
325.73	1554.41
325.94	1476.59
326.15	1433.58
326.37	1552.36
326.58	1535.98
326.79	1632.23
327.00	1511.40
327.22	1558.50
327.43	1578.98
327.64	1501.16
327.85	1550.31
328.07	1535.98
328.28	1638.38
328.49	1497.07
328.70	1517.54
328.92	1529.83
329.13	1456.11
329.34	1554.41
329.55	1552.36
329.76	1624.04
329.98	1576.94
330.19	1644.52
330.40	1517.54
330.61	1480.68
330.83	1544.17
331.04	1535.98
331.25	1517.54
331.46	1533.93
331.68	1478.63
331.89	1556.46
332.10	1554.41
332.31	1501.16
332.52	1583.08
332.74	1595.37
332.95	1605.61
333.16	1525.74
333.37	1558.50
333.58	1542.12
333.80	1607.66
334.01	1542.12
334.22	1503.21
334.43	1488.87
334.64	1492.97
334.86	1486.83
335.07	1492.97
335.28	1542.12
335.49	1441.77
335.70	1560.55
335.92	1568.74
336.13	1634.28
336.34	1513.45
336.55	1560.55
336.76	1558.50
336.98	1347.56
337.19	1576.94
337.40	1552.36
337.61	1708.01
337.82	1495.02
338.04	1581.03
338.25	1480.68
338.46	1552.36
338.67	1466.35
338.88	1519.59
339.09	1474.54
339.31	1511.40
339.52	1531.88
339.73	1495.02
339.94	1554.41
340.15	1558.50
340.36	1540.07
340.58	1454.06
340.79	1511.40
341.00	1564.65
341.21	1470.44
341.42	1597.42
341.63	1482.73
341.85	1564.65
342.06	1617.90
342.27	1470.44
342.48	1617.90
342.69	1486.83
342.90	1540.07
343.12	1591.27
343.33	1480.68
343.54	1513.45
343.75	1566.70
343.96	1591.27
344.17	1495.02
344.38	1517.54
344.60	1505.26
344.81	1466.35
345.02	1470.44
345.23	1499.11
345.44	1654.76
345.65	1535.98
345.86	1564.65
346.07	1533.93
346.29	1583.08
346.50	1554.41
346.71	1515.50
346.92	1609.70
347.13	1589.22
347.34	1531.88
347.55	1556.46
347.76	1511.40
347.98	1427.43
348.19	1527.78
348.40	1667.05
348.61	1492.97
348.82	1609.70
349.03	1632.23
349.24	1486.83
349.45	1613.80
349.66	1499.11
349.88	1484.78
350.09	1492.97
350.30	1581.03
350.51	1576.94
350.72	1581.03
350.93	1560.55
351.14	1490.92
351.35	1548.26
351.56	1519.59
351.77	1621.99
351.99	1550.31
352.20	1628.14
352.41	1550.31
352.62	1486.83
352.83	1535.98
353.04	1554.41
353.25	1574.89
353.46	1535.98
353.67	1511.40
353.88	1507.30
354.09	1556.46
354.30	1529.83
354.52	1566.70
354.73	1484.78
354.94	1501.16
355.15	1521.64
355.36	1646.57
355.57	1476.59
355.78	1546.22
355.99	1517.54
356.20	1517.54
356.41	1581.03
356.62	1548.26
356.83	1531.88
357.04	1552.36
357.25	1486.83
357.46	1427.43
357.68	1411.05
357.89	1509.35
358.10	1605.61
358.31	1488.87
358.52	1527.78
358.73	1511.40
358.94	1511.40
359.15	1486.83
359.36	1593.32
359.57	1624.04
359.78	1560.55
359.99	1607.66
360.20	1501.16
360.41	1550.31
360.62	1615.85
360.83	1570.79
361.04	1564.65
361.25	1552.36
361.46	1615.85
361.67	1550.31
361.88	1560.55
362.09	1523.69
362.30	1531.88
362.51	1509.35
362.72	1576.94
362.93	1585.13
363.14	1564.65
363.35	1495.02
363.56	1484.78
363.78	1568.74
363.99	1566.70
364.20	1507.30
364.41	1554.41
364.62	1605.61
364.83	1558.50
365.04	1538.02
365.25	1581.03
365.46	1538.02
365.67	1462.25
365.88	1533.93
366.09	1484.78
366.30	1503.21
366.51	1503.21
366.72	1458.15
366.93	1605.61
367.14	1523.69
367.35	1595.37
367.56	1484.78
367.77	1560.55
367.98	1533.93
368.18	1492.97
368.39	1535.98
368.60	1495.02
368.81	1566.70
369.02	1525.74
369.23	1548.26
369.44	1517.54
369.65	1538.02
369.86	1495.02
370.07	1583.08
370.28	1464.30
370.49	1591.27
370.70	1583.08
370.91	1488.87
371.12	1452.01
371.33	1634.28
371.54	1581.03
371.75	1581.03
371.96	1429.48
372.17	1449.96
372.38	1552.36
372.59	1519.59
372.80	1554.41
373.01	1525.74
373.22	1542.12
373.43	1468.39
373.64	1415.15
373.85	1638.38
374.06	1581.03
374.26	1581.03
374.47	1578.98
374.68	1605.61
374.89	1480.68
375.10	1486.83
375.31	1615.85
375.52	1581.03
375.73	1570.79
375.94	1581.03
376.15	1617.90
376.36	1535.98
376.57	1495.02
376.78	1490.92
376.99	1572.84
377.20	1556.46
377.40	1525.74
377.61	1630.18
377.82	1495.02
378.03	1484.78
378.24	1517.54
378.45	1519.59
378.66	1458.15
378.87	1423.34
379.08	1454.06
379.29	1507.30
379.50	1601.51
379.71	1523.69
379.91	1599.46
380.12	1550.31
380.33	1587.18
380.54	1523.69
380.75	1597.42
380.96	1513.45
381.17	1609.70
381.38	1593.32
381.59	1644.52
381.80	1617.90
382.00	1646.57
382.21	1652.71
382.42	1599.46
382.63	1642.47
382.84	1603.56
383.05	1607.66
383.26	1652.71
383.47	1585.13
383.68	1542.12
383.88	1523.69
384.09	1519.59
384.30	1632.23
384.51	1486.83
384.72	1538.02
384.93	1441.77
385.14	1490.92
385.35	1609.70
385.55	1447.91
385.76	1601.51
385.97	1564.65
386.18	1478.63
386.39	1556.46
386.60	1624.04
386.81	1519.59
387.02	1449.96
387.22	1527.78
387.43	1570.79
387.64	1685.48
387.85	1902.56
388.06	3024.85
388.27	7268.24
388.48	10506.08
388.68	12406.59
388.89	13989.67
389.10	12857.15
389.31	10231.65
389.52	8863.61
389.73	7798.66
389.93	7235.47
390.14	6786.97
390.35	6326.18
390.56	5527.47
390.77	4630.46
390.98	3479.50
391.18	2738.13
391.39	2127.84
391.60	1746.92
391.81	1753.06
392.02	1535.98
392.23	1687.53
392.43	1607.66
392.64	1548.26
392.85	1548.26
393.06	1495.02
393.27	1544.17
393.47	1544.17
393.68	1544.17
393.89	1523.69
394.10	1603.56
394.31	1466.35
394.52	1511.40
394.72	1505.26
394.93	1681.38
395.14	1462.25
395.35	1574.89
395.56	1535.98
395.76	1566.70
395.97	1669.09
396.18	1751.01
396.39	1773.54
396.60	1910.75
396.80	1812.45
397.01	1695.72
397.22	1613.80
397.43	1710.05
397.64	1640.42
397.84	1601.51
398.05	1712.10
398.26	1607.66
398.47	1634.28
398.67	1603.56
398.88	1568.74
399.09	1529.83
399.30	1556.46
399.51	1581.03
399.71	1488.87
399.92	1478.63
400.13	1521.64
400.34	1523.69
400.54	1556.46
400.75	1599.46
400.96	1581.03
401.17	1603.56
401.37	1554.41
401.58	1538.02
401.79	1648.61
402.00	1746.92
402.21	1882.08
402.41	1931.23
402.62	1912.80
402.83	1984.48
403.04	1832.93
403.24	1839.08
403.45	1734.63
403.66	1765.35
403.87	1789.92
404.07	1738.73
404.28	1742.82
404.49	1710.05
404.70	1665.00
404.90	1603.56
405.11	1558.50
405.32	1650.66
405.52	1583.08
405.73	1476.59
405.94	1578.98
406.15	1634.28
406.35	1558.50
406.56	1554.41
406.77	1454.06
406.98	1546.22
407.18	1484.78
407.39	1687.53
407.60	1515.50
407.80	1578.98
408.01	1509.35
408.22	1544.17
408.43	1550.31
408.63	1601.51
408.84	1546.22
409.05	1552.36
409.25	1499.11
409.46	1470.44
409.67	1507.30
409.88	1603.56
410.08	1607.66
410.29	1492.97
410.50	1560.55
410.70	1595.37
410.91	1497.07
411.12	1507.30
411.32	1609.70
411.53	1574.89
411.74	1632.23
411.95	1581.03
412.15	1607.66
412.36	1619.94
412.57	1648.61
412.77	1648.61
412.98	1554.41
413.19	1558.50
413.39	1583.08
413.60	1540.07
413.81	1564.65
414.01	1550.31
414.22	1626.09
414.43	1570.79
414.63	1597.42
414.84	1656.81
415.05	1544.17
415.25	1550.31
415.46	1597.42
415.67	1540.07
415.87	1560.55
416.08	1542.12
416.29	1564.65
416.49	1583.08
416.70	1490.92
416.91	1574.89
417.11	1552.36
417.32	1591.27
417.53	1583.08
417.73	1560.55
417.94	1499.11
418.15	1525.74
418.35	1525.74
418.56	1560.55
418.77	1552.36
418.97	1511.40
419.18	1484.78
419.38	1486.83
419.59	1521.64
419.80	1558.50
420.00	1578.98
420.21	1562.60
420.42	1621.99
420.62	1466.35
420.83	1548.26
421.04	1533.93
421.24	1499.11
421.45	1499.11
421.65	1591.27
421.86	1542.12
422.07	1689.57
422.27	1544.17
422.48	1525.74
422.69	1507.30
422.89	1445.87
423.10	1544.17
423.30	1447.91
423.51	1509.35
423.72	1544.17
423.92	1576.94
424.13	1417.19
424.33	1583.08
424.54	1562.60
424.75	1552.36
424.95	1544.17
425.16	1644.52
425.36	1574.89
425.57	1538.02
425.78	1578.98
425.98	1540.07
426.19	1538.02
426.39	1478.63
426.60	1576.94
426.81	1650.66
427.01	1529.83
427.22	1435.63
427.42	1507.30
427.63	1521.64
427.83	1583.08
428.04	1583.08
428.25	1615.85
428.45	1624.04
428.66	1564.65
428.86	1546.22
429.07	1482.73
429.28	1523.69
429.48	1538.02
429.69	1468.39
429.89	1507.30
430.10	1464.30
430.30	1591.27
430.51	1615.85
430.71	1454.06
430.92	1558.50
431.13	1558.50
431.33	1572.84
431.54	1556.46
431.74	1646.57
431.95	1638.38
432.15	1480.68
432.36	1454.06
432.56	1548.26
432.77	1669.09
432.98	1599.46
433.18	1556.46
433.39	1488.87
433.59	1560.55
433.80	1642.47
434.00	1660.90
434.21	1525.74
434.41	1449.96
434.62	1685.48
434.82	1576.94
435.03	1472.49
435.23	1484.78
435.44	1529.83
435.64	1570.79
435.85	1550.31
436.06	1640.42
436.26	1593.32
436.47	1562.60
436.67	1542.12
436.88	1589.22
437.08	1527.78
437.29	1658.85
437.49	1554.41
437.70	1607.66
437.90	1495.02
438.11	1615.85
438.31	1611.75
438.52	1632.23
438.72	1699.81
438.93	1769.44
439.13	1685.48
439.34	1695.72
439.54	1609.70
439.75	1607.66
439.95	1603.56
440.16	1554.41
440.36	1566.70
440.57	1648.61
440.77	1550.31
440.98	1546.22
441.18	1597.42
441.39	1507.30
441.59	1501.16
441.80	1681.38
442.00	1507.30
442.21	1619.94
442.41	1513.45
442.62	1587.18
442.82	1476.59
443.02	1550.31
443.23	1632.23
443.43	1583.08
443.64	1585.13
443.84	1548.26
444.05	1644.52
444.25	1570.79
444.46	1521.64
444.66	1519.59
444.87	1660.90
445.07	1538.02
445.28	1619.94
445.48	1720.29
445.69	1611.75
445.89	1660.90
446.09	1650.66
446.30	2123.74
446.50	3196.88
446.71	4585.40
446.91	5203.89
447.12	5869.48
447.32	5609.39
447.53	4710.33
447.73	4106.18
447.93	3702.73
448.14	3344.33
448.34	3217.36
448.55	2942.93
448.75	2787.29
448.96	2740.18
449.16	2461.66
449.36	2197.47
449.57	1988.58
449.77	1802.21
449.98	1591.27
450.18	1603.56
450.39	1585.13
450.59	1591.27
450.79	1480.68
451.00	1564.65
451.20	1595.37
451.41	1497.07
451.61	1597.42
451.81	1585.13
452.02	1501.16
452.22	1521.64
452.43	1576.94
452.63	1492.97
