SpectraSuite Data File
++++++++++++++++++++++++++++++++++++
Date: Tue May 03 12:55:33 CEST 2016
User: root
Dark Spectrum Present: No
Reference Spectrum Present: No
Number of Sampled Component Spectra: 1
Spectrometers: USB4C02835
Integration Time (usec): 100000 (USB4C02835)
Spectra Averaged: 1 (USB4C02835)
Boxcar Smoothing: 0 (USB4C02835)
Correct for Electrical Dark: No (USB4C02835)
Strobe/Lamp Enabled: No (USB4C02835)
Correct for Detector Non-linearity: No (USB4C02835)
Correct for Stray Light: No (USB4C02835)
Number of Pixels in Processed Spectrum: 3648
>>>>>Begin Processed Spectral Data<<<<<
177.47	1370.09
177.69	1370.09
177.91	1370.09
178.13	1361.90
178.36	1337.32
178.58	1519.59
178.80	1646.57
179.02	1519.59
179.24	1513.45
179.46	1523.69
179.68	1548.26
179.90	1552.36
180.13	1564.65
180.35	1482.73
180.57	1519.59
180.79	1486.83
181.01	1527.78
181.23	1568.74
181.45	1607.66
181.67	1533.93
181.90	1538.02
182.12	1476.59
182.34	1492.97
182.56	1611.75
182.78	1593.32
183.00	1564.65
183.22	1540.07
183.44	1501.16
183.66	1677.29
183.89	1708.01
184.11	1574.89
184.33	1542.12
184.55	1615.85
184.77	1583.08
184.99	1517.54
185.21	1529.83
185.43	1603.56
185.65	1490.92
185.87	1626.09
186.10	1542.12
186.32	1644.52
186.54	1558.50
186.76	1593.32
186.98	1644.52
187.20	1540.07
187.42	1544.17
187.64	1589.22
187.86	1507.30
188.08	1597.42
188.30	1583.08
188.52	1589.22
188.75	1656.81
188.97	1615.85
189.19	1568.74
189.41	1544.17
189.63	1607.66
189.85	1519.59
190.07	1533.93
190.29	1433.58
190.51	1566.70
190.73	1511.40
190.95	1638.38
191.17	1550.31
191.39	1460.20
191.61	1581.03
191.84	1523.69
192.06	1538.02
192.28	1400.81
192.50	1611.75
192.72	1581.03
192.94	1482.73
193.16	1564.65
193.38	1538.02
193.60	1519.59
193.82	1560.55
194.04	1558.50
194.26	1533.93
194.48	1509.35
194.70	1486.83
194.92	1574.89
195.14	1572.84
195.36	1411.05
195.58	1544.17
195.80	1513.45
196.02	1472.49
196.24	1476.59
196.46	1578.98
196.69	1472.49
196.91	1662.95
197.13	1492.97
197.35	1527.78
197.57	1570.79
197.79	1548.26
198.01	1517.54
198.23	1632.23
198.45	1546.22
198.67	1495.02
198.89	1511.40
199.11	1540.07
199.33	1486.83
199.55	1439.72
199.77	1535.98
199.99	1564.65
200.21	1478.63
200.43	1492.97
200.65	1468.39
200.87	1503.21
201.09	1538.02
201.31	1527.78
201.53	1552.36
201.75	1503.21
201.97	1478.63
202.19	1515.50
202.41	1605.61
202.63	1683.43
202.85	1568.74
203.07	1511.40
203.29	1533.93
203.51	1441.77
203.73	1476.59
203.95	1665.00
204.17	1591.27
204.39	1548.26
204.61	1544.17
204.83	1521.64
205.05	1562.60
205.27	1601.51
205.49	1646.57
205.71	1468.39
205.93	1495.02
206.15	1486.83
206.37	1525.74
206.59	1538.02
206.81	1480.68
207.03	1449.96
207.25	1515.50
207.47	1546.22
207.69	1558.50
207.91	1572.84
208.13	1570.79
208.34	1558.50
208.56	1531.88
208.78	1556.46
209.00	1480.68
209.22	1443.82
209.44	1615.85
209.66	1503.21
209.88	1492.97
210.10	1484.78
210.32	1585.13
210.54	1544.17
210.76	1576.94
210.98	1550.31
211.20	1497.07
211.42	1497.07
211.64	1509.35
211.86	1583.08
212.08	1544.17
212.30	1535.98
212.52	1564.65
212.74	1642.47
212.96	1576.94
213.17	1540.07
213.39	1533.93
213.61	1560.55
213.83	1587.18
214.05	1492.97
214.27	1632.23
214.49	1527.78
214.71	1552.36
214.93	1570.79
215.15	1572.84
215.37	1507.30
215.59	1585.13
215.81	1540.07
216.03	1544.17
216.24	1617.90
216.46	1556.46
216.68	1601.51
216.90	1650.66
217.12	1490.92
217.34	1538.02
217.56	1593.32
217.78	1566.70
218.00	1652.71
218.22	1570.79
218.44	1587.18
218.66	1531.88
218.87	1650.66
219.09	1509.35
219.31	1652.71
219.53	1570.79
219.75	1470.44
219.97	1548.26
220.19	1619.94
220.41	1572.84
220.63	1585.13
220.85	1601.51
221.06	1558.50
221.28	1677.29
221.50	1525.74
221.72	1533.93
221.94	1552.36
222.16	1540.07
222.38	1578.98
222.60	1560.55
222.82	1550.31
223.03	1503.21
223.25	1581.03
223.47	1560.55
223.69	1587.18
223.91	1576.94
224.13	1566.70
224.35	1613.80
224.57	1607.66
224.78	1564.65
225.00	1476.59
225.22	1505.26
225.44	1540.07
225.66	1595.37
225.88	1499.11
226.10	1568.74
226.32	1564.65
226.53	1511.40
226.75	1570.79
226.97	1562.60
227.19	1548.26
227.41	1499.11
227.63	1488.87
227.85	1527.78
228.06	1517.54
228.28	1507.30
228.50	1632.23
228.72	1490.92
228.94	1472.49
229.16	1400.81
229.37	1439.72
229.59	1509.35
229.81	1540.07
230.03	1531.88
230.25	1517.54
230.47	1409.00
230.69	1497.07
230.90	1548.26
231.12	1447.91
231.34	1628.14
231.56	1601.51
231.78	1484.78
232.00	1529.83
232.21	1544.17
232.43	1466.35
232.65	1468.39
232.87	1521.64
233.09	1466.35
233.30	1554.41
233.52	1507.30
233.74	1517.54
233.96	1581.03
234.18	1478.63
234.40	1521.64
234.61	1624.04
234.83	1460.20
235.05	1484.78
235.27	1589.22
235.49	1597.42
235.70	1527.78
235.92	1636.33
236.14	1533.93
236.36	1587.18
236.58	1427.43
236.79	1519.59
237.01	1531.88
237.23	1533.93
237.45	1642.47
237.67	1490.92
237.88	1509.35
238.10	1601.51
238.32	1507.30
238.54	1517.54
238.76	1558.50
238.97	1427.43
239.19	1499.11
239.41	1593.32
239.63	1615.85
239.85	1470.44
240.06	1533.93
240.28	1472.49
240.50	1572.84
240.72	1607.66
240.93	1562.60
241.15	1597.42
241.37	1527.78
241.59	1589.22
241.81	1531.88
242.02	1511.40
242.24	1517.54
242.46	1513.45
242.68	1452.01
242.89	1597.42
243.11	1538.02
243.33	1517.54
243.55	1597.42
243.76	1546.22
243.98	1484.78
244.20	1513.45
244.42	1525.74
244.64	1544.17
244.85	1519.59
245.07	1447.91
245.29	1585.13
245.51	1578.98
245.72	1542.12
245.94	1595.37
246.16	1552.36
246.38	1550.31
246.59	1499.11
246.81	1464.30
247.03	1476.59
247.24	1421.29
247.46	1497.07
247.68	1589.22
247.90	1572.84
248.11	1472.49
248.33	1495.02
248.55	1499.11
248.77	1589.22
248.98	1560.55
249.20	1615.85
249.42	1578.98
249.64	1560.55
249.85	1503.21
250.07	1486.83
250.29	1509.35
250.50	1617.90
250.72	1490.92
250.94	1558.50
251.16	1585.13
251.37	1538.02
251.59	1624.04
251.81	1689.57
252.02	1603.56
252.24	1511.40
252.46	1591.27
252.68	1488.87
252.89	1497.07
253.11	1523.69
253.33	1644.52
253.54	1626.09
253.76	1546.22
253.98	1482.73
254.20	1542.12
254.41	1515.50
254.63	1456.11
254.85	1511.40
255.06	1542.12
255.28	1587.18
255.50	1460.20
255.71	1538.02
255.93	1472.49
256.15	1527.78
256.36	1538.02
256.58	1503.21
256.80	1636.33
257.02	1540.07
257.23	1478.63
257.45	1574.89
257.67	1593.32
257.88	1517.54
258.10	1552.36
258.32	1560.55
258.53	1585.13
258.75	1646.57
258.97	1497.07
259.18	1552.36
259.40	1542.12
259.62	1597.42
259.83	1601.51
260.05	1531.88
260.27	1656.81
260.48	1538.02
260.70	1550.31
260.92	1505.26
261.13	1427.43
261.35	1548.26
261.57	1603.56
261.78	1476.59
262.00	1558.50
262.22	1562.60
262.43	1458.15
262.65	1515.50
262.86	1538.02
263.08	1613.80
263.30	1544.17
263.51	1492.97
263.73	1570.79
263.95	1585.13
264.16	1445.87
264.38	1511.40
264.60	1527.78
264.81	1533.93
265.03	1630.18
265.25	1597.42
265.46	1529.83
265.68	1574.89
265.89	1583.08
266.11	1492.97
266.33	1638.38
266.54	1581.03
266.76	1572.84
266.98	1560.55
267.19	1587.18
267.41	1529.83
267.62	1513.45
267.84	1435.63
268.06	1564.65
268.27	1617.90
268.49	1568.74
268.70	1654.76
268.92	1552.36
269.14	1509.35
269.35	1480.68
269.57	1593.32
269.79	1581.03
270.00	1499.11
270.22	1572.84
270.43	1435.63
270.65	1470.44
270.87	1562.60
271.08	1531.88
271.30	1581.03
271.51	1495.02
271.73	1562.60
271.95	1640.42
272.16	1574.89
272.38	1535.98
272.59	1558.50
272.81	1505.26
273.02	1572.84
273.24	1601.51
273.46	1599.46
273.67	1523.69
273.89	1449.96
274.10	1445.87
274.32	1589.22
274.54	1511.40
274.75	1593.32
274.97	1439.72
275.18	1546.22
275.40	1486.83
275.61	1452.01
275.83	1601.51
276.05	1544.17
276.26	1482.73
276.48	1626.09
276.69	1542.12
276.91	1560.55
277.12	1560.55
277.34	1552.36
277.55	1581.03
277.77	1572.84
277.99	1554.41
278.20	1513.45
278.42	1492.97
278.63	1515.50
278.85	1497.07
279.06	1445.87
279.28	1550.31
279.49	1564.65
279.71	1581.03
279.93	1566.70
280.14	1513.45
280.36	1447.91
280.57	1495.02
280.79	1521.64
281.00	1525.74
281.22	1509.35
281.43	1574.89
281.65	1482.73
281.86	1542.12
282.08	1550.31
282.29	1595.37
282.51	1460.20
282.73	1466.35
282.94	1472.49
283.16	1546.22
283.37	1535.98
283.59	1605.61
283.80	1535.98
284.02	1591.27
284.23	1552.36
284.45	1472.49
284.66	1540.07
284.88	1513.45
285.09	1544.17
285.31	1585.13
285.52	1578.98
285.74	1509.35
285.95	1558.50
286.17	1601.51
286.38	1505.26
286.60	1486.83
286.81	1488.87
287.03	1488.87
287.24	1480.68
287.46	1583.08
287.67	1560.55
287.89	1634.28
288.10	1511.40
288.32	1480.68
288.53	1568.74
288.75	1540.07
288.96	1544.17
289.18	1495.02
289.39	1452.01
289.61	1570.79
289.82	1609.70
290.04	1544.17
290.25	1462.25
290.47	1511.40
290.68	1497.07
290.90	1638.38
291.11	1501.16
291.33	1558.50
291.54	1478.63
291.76	1488.87
291.97	1535.98
292.18	1511.40
292.40	1454.06
292.61	1490.92
292.83	1595.37
293.04	1638.38
293.26	1615.85
293.47	1497.07
293.69	1478.63
293.90	1521.64
294.12	1454.06
294.33	1525.74
294.55	1566.70
294.76	1566.70
294.97	1558.50
295.19	1628.14
295.40	1511.40
295.62	1529.83
295.83	1576.94
296.05	1470.44
296.26	1611.75
296.48	1484.78
296.69	1527.78
296.90	1482.73
297.12	1550.31
297.33	1550.31
297.55	1484.78
297.76	1529.83
297.98	1591.27
298.19	1560.55
298.41	1531.88
298.62	1519.59
298.83	1556.46
299.05	1556.46
299.26	1478.63
299.48	1456.11
299.69	1529.83
299.90	1480.68
300.12	1515.50
300.33	1570.79
300.55	1492.97
300.76	1593.32
300.98	1495.02
301.19	1501.16
301.40	1460.20
301.62	1544.17
301.83	1544.17
302.05	1585.13
302.26	1585.13
302.47	1468.39
302.69	1521.64
302.90	1611.75
303.12	1472.49
303.33	1595.37
303.54	1658.85
303.76	1509.35
303.97	1538.02
304.19	1630.18
304.40	1468.39
304.61	1574.89
304.83	1640.42
305.04	1630.18
305.26	1570.79
305.47	1542.12
305.68	1540.07
305.90	1560.55
306.11	1533.93
306.33	1540.07
306.54	1572.84
306.75	1462.25
306.97	1443.82
307.18	1443.82
307.39	1486.83
307.61	1507.30
307.82	1529.83
308.04	1488.87
308.25	1554.41
308.46	1570.79
308.68	1492.97
308.89	1566.70
309.10	1550.31
309.32	1574.89
309.53	1486.83
309.74	1525.74
309.96	1556.46
310.17	1572.84
310.39	1552.36
310.60	1558.50
310.81	1474.54
311.03	1525.74
311.24	1505.26
311.45	1548.26
311.67	1591.27
311.88	1576.94
312.09	1519.59
312.31	1468.39
312.52	1533.93
312.73	1492.97
312.95	1472.49
313.16	1599.46
313.37	1533.93
313.59	1544.17
313.80	1638.38
314.01	1650.66
314.23	1456.11
314.44	1552.36
314.65	1495.02
314.87	1531.88
315.08	1497.07
315.29	1492.97
315.51	1468.39
315.72	1437.67
315.93	1605.61
316.15	1525.74
316.36	1546.22
316.57	1566.70
316.79	1601.51
317.00	1452.01
317.21	1503.21
317.43	1497.07
317.64	1452.01
317.85	1574.89
318.07	1568.74
318.28	1671.14
318.49	1716.20
318.70	1847.27
318.92	1691.62
319.13	1744.87
319.34	1763.30
319.56	1591.27
319.77	1636.33
319.98	1624.04
320.20	1595.37
320.41	1646.57
320.62	1581.03
320.83	1568.74
321.05	1648.61
321.26	1572.84
321.47	1552.36
321.69	1587.18
321.90	1466.35
322.11	1511.40
322.32	1548.26
322.54	1632.23
322.75	1519.59
322.96	1673.19
323.18	1535.98
323.39	1503.21
323.60	1507.30
323.81	1605.61
324.03	1519.59
324.24	1560.55
324.45	1497.07
324.66	1503.21
324.88	1642.47
325.09	1581.03
325.30	1495.02
325.52	1449.96
325.73	1499.11
325.94	1454.06
326.15	1484.78
326.37	1488.87
326.58	1587.18
326.79	1640.42
327.00	1501.16
327.22	1609.70
327.43	1490.92
327.64	1501.16
327.85	1560.55
328.07	1556.46
328.28	1585.13
328.49	1441.77
328.70	1478.63
328.92	1589.22
329.13	1583.08
329.34	1517.54
329.55	1572.84
329.76	1611.75
329.98	1548.26
330.19	1624.04
330.40	1574.89
330.61	1531.88
330.83	1566.70
331.04	1470.44
331.25	1533.93
331.46	1519.59
331.68	1474.54
331.89	1658.85
332.10	1556.46
332.31	1525.74
332.52	1548.26
332.74	1644.52
332.95	1413.10
333.16	1521.64
333.37	1452.01
333.58	1495.02
333.80	1550.31
334.01	1527.78
334.22	1552.36
334.43	1515.50
334.64	1542.12
334.86	1499.11
335.07	1439.72
335.28	1501.16
335.49	1468.39
335.70	1587.18
335.92	1538.02
336.13	1605.61
336.34	1630.18
336.55	1542.12
336.76	1558.50
336.98	1495.02
337.19	1517.54
337.40	1667.05
337.61	1683.43
337.82	1525.74
338.04	1609.70
338.25	1472.49
338.46	1568.74
338.67	1552.36
338.88	1515.50
339.09	1480.68
339.31	1529.83
339.52	1509.35
339.73	1452.01
339.94	1538.02
340.15	1525.74
340.36	1552.36
340.58	1533.93
340.79	1447.91
341.00	1550.31
341.21	1486.83
341.42	1607.66
341.63	1511.40
341.85	1621.99
342.06	1519.59
342.27	1464.30
342.48	1611.75
342.69	1482.73
342.90	1550.31
343.12	1581.03
343.33	1488.87
343.54	1611.75
343.75	1578.98
343.96	1521.64
344.17	1466.35
344.38	1531.88
344.60	1443.82
344.81	1490.92
345.02	1505.26
345.23	1593.32
345.44	1689.57
345.65	1611.75
345.86	1566.70
346.07	1585.13
346.29	1499.11
346.50	1509.35
346.71	1617.90
346.92	1546.22
347.13	1531.88
347.34	1499.11
347.55	1527.78
347.76	1531.88
347.98	1517.54
348.19	1501.16
348.40	1576.94
348.61	1517.54
348.82	1529.83
349.03	1546.22
349.24	1564.65
349.45	1669.09
349.66	1490.92
349.88	1466.35
350.09	1529.83
350.30	1677.29
350.51	1607.66
350.72	1550.31
350.93	1621.99
351.14	1544.17
351.35	1589.22
351.56	1550.31
351.77	1523.69
351.99	1540.07
352.20	1642.47
352.41	1585.13
352.62	1456.11
352.83	1576.94
353.04	1533.93
353.25	1521.64
353.46	1640.42
353.67	1574.89
353.88	1515.50
354.09	1542.12
354.30	1556.46
354.52	1550.31
354.73	1521.64
354.94	1503.21
355.15	1550.31
355.36	1570.79
355.57	1525.74
355.78	1544.17
355.99	1501.16
356.20	1484.78
356.41	1585.13
356.62	1578.98
356.83	1511.40
357.04	1527.78
357.25	1394.67
357.46	1585.13
357.68	1478.63
357.89	1447.91
358.10	1497.07
358.31	1548.26
358.52	1572.84
358.73	1484.78
358.94	1478.63
359.15	1523.69
359.36	1480.68
359.57	1562.60
359.78	1517.54
359.99	1570.79
360.20	1495.02
360.41	1632.23
360.62	1599.46
360.83	1576.94
361.04	1499.11
361.25	1554.41
361.46	1599.46
361.67	1517.54
361.88	1542.12
362.09	1566.70
362.30	1521.64
362.51	1501.16
362.72	1517.54
362.93	1564.65
363.14	1554.41
363.35	1521.64
363.56	1540.07
363.78	1544.17
363.99	1564.65
364.20	1513.45
364.41	1593.32
364.62	1576.94
364.83	1591.27
365.04	1595.37
365.25	1587.18
365.46	1581.03
365.67	1474.54
365.88	1566.70
366.09	1540.07
366.30	1503.21
366.51	1540.07
366.72	1490.92
366.93	1519.59
367.14	1574.89
367.35	1519.59
367.56	1585.13
367.77	1558.50
367.98	1581.03
368.18	1574.89
368.39	1624.04
368.60	1585.13
368.81	1476.59
369.02	1523.69
369.23	1519.59
369.44	1523.69
369.65	1554.41
369.86	1566.70
370.07	1646.57
370.28	1495.02
370.49	1552.36
370.70	1558.50
370.91	1501.16
371.12	1495.02
371.33	1607.66
371.54	1478.63
371.75	1564.65
371.96	1529.83
372.17	1521.64
372.38	1552.36
372.59	1560.55
372.80	1603.56
373.01	1452.01
373.22	1527.78
373.43	1533.93
373.64	1470.44
373.85	1574.89
374.06	1650.66
374.26	1566.70
374.47	1538.02
374.68	1607.66
374.89	1482.73
375.10	1566.70
375.31	1515.50
375.52	1552.36
375.73	1550.31
375.94	1476.59
376.15	1613.80
376.36	1554.41
376.57	1564.65
376.78	1480.68
376.99	1558.50
377.20	1558.50
377.40	1509.35
377.61	1609.70
377.82	1492.97
378.03	1574.89
378.24	1497.07
378.45	1554.41
378.66	1613.80
378.87	1460.20
379.08	1527.78
379.29	1495.02
379.50	1634.28
379.71	1542.12
379.91	1566.70
380.12	1540.07
380.33	1605.61
380.54	1601.51
380.75	1519.59
380.96	1513.45
381.17	1574.89
381.38	1615.85
381.59	1619.94
381.80	1626.09
382.00	1689.57
382.21	1558.50
382.42	1671.14
382.63	1679.33
382.84	1626.09
383.05	1683.43
383.26	1650.66
383.47	1609.70
383.68	1662.95
383.88	1533.93
384.09	1605.61
384.30	1646.57
384.51	1533.93
384.72	1585.13
384.93	1470.44
385.14	1548.26
385.35	1640.42
385.55	1509.35
385.76	1554.41
385.97	1550.31
386.18	1484.78
386.39	1558.50
386.60	1544.17
386.81	1636.33
387.02	1574.89
387.22	1554.41
387.43	1581.03
387.64	1644.52
387.85	1880.04
388.06	3147.73
388.27	7104.40
388.48	10610.53
388.68	12435.27
388.89	14075.69
389.10	12826.43
389.31	10217.32
389.52	8941.43
389.73	7909.26
389.93	7120.79
390.14	6778.78
390.35	6166.43
390.56	5472.17
390.77	4644.79
390.98	3594.19
391.18	2805.72
391.39	2168.80
391.60	1777.64
391.81	1742.82
392.02	1558.50
392.23	1660.90
392.43	1615.85
392.64	1624.04
392.85	1519.59
393.06	1660.90
393.27	1542.12
393.47	1462.25
393.68	1533.93
393.89	1492.97
394.10	1591.27
394.31	1542.12
394.52	1525.74
394.72	1462.25
394.93	1689.57
395.14	1535.98
395.35	1599.46
395.56	1601.51
395.76	1624.04
395.97	1642.47
396.18	1775.59
396.39	1736.68
396.60	1828.84
396.80	1740.77
397.01	1675.24
397.22	1765.35
397.43	1765.35
397.64	1548.26
397.84	1642.47
398.05	1658.85
398.26	1615.85
398.47	1673.19
398.67	1671.14
398.88	1533.93
399.09	1615.85
399.30	1550.31
399.51	1525.74
399.71	1503.21
399.92	1533.93
400.13	1538.02
400.34	1581.03
400.54	1531.88
400.75	1687.53
400.96	1572.84
401.17	1615.85
401.37	1556.46
401.58	1554.41
401.79	1564.65
402.00	1773.54
402.21	2027.49
402.41	1951.71
402.62	1933.28
402.83	1972.19
403.04	1796.07
403.24	1882.08
403.45	1740.77
403.66	1755.11
403.87	1746.92
404.07	1763.30
404.28	1759.21
404.49	1693.67
404.70	1660.90
404.90	1605.61
405.11	1611.75
405.32	1658.85
405.52	1521.64
405.73	1492.97
405.94	1525.74
406.15	1503.21
406.35	1566.70
406.56	1568.74
406.77	1558.50
406.98	1558.50
407.18	1492.97
407.39	1640.42
407.60	1601.51
407.80	1611.75
408.01	1574.89
408.22	1605.61
408.43	1529.83
408.63	1544.17
408.84	1599.46
409.05	1552.36
409.25	1550.31
409.46	1478.63
409.67	1456.11
409.88	1570.79
410.08	1595.37
410.29	1578.98
410.50	1533.93
410.70	1564.65
410.91	1511.40
411.12	1550.31
411.32	1511.40
411.53	1474.54
411.74	1658.85
411.95	1705.96
412.15	1654.76
412.36	1685.48
412.57	1615.85
412.77	1677.29
412.98	1562.60
413.19	1531.88
413.39	1615.85
413.60	1599.46
413.81	1615.85
414.01	1492.97
414.22	1656.81
414.43	1634.28
414.63	1521.64
414.84	1556.46
415.05	1552.36
415.25	1497.07
415.46	1531.88
415.67	1525.74
415.87	1544.17
416.08	1550.31
416.29	1585.13
416.49	1658.85
416.70	1527.78
416.91	1505.26
417.11	1519.59
417.32	1544.17
417.53	1505.26
417.73	1558.50
417.94	1593.32
418.15	1521.64
418.35	1613.80
418.56	1538.02
418.77	1662.95
418.97	1462.25
419.18	1482.73
419.38	1449.96
419.59	1499.11
419.80	1626.09
420.00	1570.79
420.21	1484.78
420.42	1609.70
420.62	1533.93
420.83	1556.46
421.04	1521.64
421.24	1505.26
421.45	1560.55
421.65	1587.18
421.86	1560.55
422.07	1560.55
422.27	1550.31
422.48	1535.98
422.69	1523.69
422.89	1570.79
423.10	1495.02
423.30	1507.30
423.51	1591.27
423.72	1542.12
423.92	1554.41
424.13	1478.63
424.33	1523.69
424.54	1587.18
424.75	1521.64
424.95	1640.42
425.16	1603.56
425.36	1503.21
425.57	1609.70
425.78	1554.41
425.98	1572.84
426.19	1535.98
426.39	1488.87
426.60	1554.41
426.81	1615.85
427.01	1570.79
427.22	1554.41
427.42	1443.82
427.63	1578.98
427.83	1675.24
428.04	1642.47
428.25	1611.75
428.45	1509.35
428.66	1568.74
428.86	1544.17
429.07	1560.55
429.28	1542.12
429.48	1519.59
429.69	1533.93
429.89	1572.84
430.10	1470.44
430.30	1578.98
430.51	1634.28
430.71	1509.35
430.92	1519.59
431.13	1544.17
431.33	1560.55
431.54	1529.83
431.74	1646.57
431.95	1611.75
432.15	1562.60
432.36	1544.17
432.56	1517.54
432.77	1628.14
432.98	1615.85
433.18	1583.08
433.39	1507.30
433.59	1593.32
433.80	1609.70
434.00	1605.61
434.21	1480.68
434.41	1460.20
434.62	1630.18
434.82	1519.59
435.03	1484.78
435.23	1591.27
435.44	1427.43
435.64	1495.02
435.85	1605.61
436.06	1583.08
436.26	1486.83
436.47	1624.04
436.67	1533.93
436.88	1490.92
437.08	1591.27
437.29	1617.90
437.49	1546.22
437.70	1519.59
437.90	1554.41
438.11	1591.27
438.31	1658.85
438.52	1751.01
438.72	1708.01
438.93	1744.87
439.13	1673.19
439.34	1646.57
439.54	1585.13
439.75	1654.76
439.95	1742.82
440.16	1560.55
440.36	1587.18
440.57	1558.50
440.77	1587.18
440.98	1517.54
441.18	1554.41
441.39	1499.11
441.59	1546.22
441.80	1632.23
442.00	1515.50
442.21	1509.35
442.41	1488.87
442.62	1654.76
442.82	1521.64
443.02	1605.61
443.23	1533.93
443.43	1662.95
443.64	1611.75
443.84	1468.39
444.05	1519.59
444.25	1529.83
444.46	1470.44
444.66	1523.69
444.87	1576.94
445.07	1511.40
445.28	1546.22
445.48	1634.28
445.69	1572.84
445.89	1652.71
446.09	1613.80
446.30	1912.80
446.50	3125.20
446.71	4421.56
446.91	5326.77
447.12	5719.98
447.32	5476.27
447.53	4718.52
447.73	4126.66
447.93	3655.62
448.14	3375.05
448.34	3166.16
448.55	2901.97
448.75	2869.20
448.96	2775.00
449.16	2465.75
449.36	2226.14
449.57	2074.59
449.77	1798.12
449.98	1632.23
450.18	1609.70
450.39	1703.91
450.59	1636.33
450.79	1529.83
451.00	1519.59
451.20	1560.55
451.41	1589.22
451.61	1609.70
451.81	1595.37
452.02	1564.65
452.22	1527.78
452.43	1529.83
452.63	1474.54
