SpectraSuite Data File
++++++++++++++++++++++++++++++++++++
Date: Tue May 03 12:55:39 CEST 2016
User: root
Dark Spectrum Present: No
Reference Spectrum Present: No
Number of Sampled Component Spectra: 1
Spectrometers: USB4C02835
Integration Time (usec): 100000 (USB4C02835)
Spectra Averaged: 1 (USB4C02835)
Boxcar Smoothing: 0 (USB4C02835)
Correct for Electrical Dark: No (USB4C02835)
Strobe/Lamp Enabled: No (USB4C02835)
Correct for Detector Non-linearity: No (USB4C02835)
Correct for Stray Light: No (USB4C02835)
Number of Pixels in Processed Spectrum: 3648
>>>>>Begin Processed Spectral Data<<<<<
177.47	1345.52
177.69	1345.52
177.91	1345.52
178.13	1368.04
178.36	1304.56
178.58	1456.11
178.80	1535.98
179.02	1521.64
179.24	1529.83
179.46	1497.07
179.68	1603.56
179.90	1478.63
180.13	1525.74
180.35	1503.21
180.57	1570.79
180.79	1546.22
181.01	1507.30
181.23	1581.03
181.45	1656.81
181.67	1564.65
181.90	1599.46
182.12	1511.40
182.34	1509.35
182.56	1587.18
182.78	1578.98
183.00	1513.45
183.22	1636.33
183.44	1492.97
183.66	1615.85
183.89	1591.27
184.11	1515.50
184.33	1531.88
184.55	1554.41
184.77	1517.54
184.99	1535.98
185.21	1478.63
185.43	1705.96
185.65	1447.91
185.87	1587.18
186.10	1576.94
186.32	1705.96
186.54	1523.69
186.76	1527.78
186.98	1572.84
187.20	1535.98
187.42	1460.20
187.64	1619.94
187.86	1515.50
188.08	1591.27
188.30	1554.41
188.52	1591.27
188.75	1562.60
188.97	1599.46
189.19	1509.35
189.41	1495.02
189.63	1544.17
189.85	1501.16
190.07	1515.50
190.29	1462.25
190.51	1558.50
190.73	1484.78
190.95	1542.12
191.17	1560.55
191.39	1513.45
191.61	1505.26
191.84	1544.17
192.06	1576.94
192.28	1501.16
192.50	1695.72
192.72	1589.22
192.94	1574.89
193.16	1599.46
193.38	1578.98
193.60	1474.54
193.82	1454.06
194.04	1552.36
194.26	1533.93
194.48	1591.27
194.70	1546.22
194.92	1538.02
195.14	1591.27
195.36	1552.36
195.58	1484.78
195.80	1527.78
196.02	1456.11
196.24	1574.89
196.46	1576.94
196.69	1513.45
196.91	1660.90
197.13	1529.83
197.35	1544.17
197.57	1591.27
197.79	1546.22
198.01	1609.70
198.23	1642.47
198.45	1472.49
198.67	1445.87
198.89	1523.69
199.11	1548.26
199.33	1509.35
199.55	1480.68
199.77	1499.11
199.99	1560.55
200.21	1454.06
200.43	1546.22
200.65	1400.81
200.87	1376.24
201.09	1488.87
201.31	1495.02
201.53	1572.84
201.75	1525.74
201.97	1562.60
202.19	1513.45
202.41	1488.87
202.63	1640.42
202.85	1566.70
203.07	1556.46
203.29	1492.97
203.51	1449.96
203.73	1544.17
203.95	1634.28
204.17	1599.46
204.39	1603.56
204.61	1527.78
204.83	1572.84
205.05	1609.70
205.27	1540.07
205.49	1587.18
205.71	1533.93
205.93	1445.87
206.15	1509.35
206.37	1546.22
206.59	1595.37
206.81	1464.30
207.03	1466.35
207.25	1458.15
207.47	1572.84
207.69	1490.92
207.91	1652.71
208.13	1566.70
208.34	1583.08
208.56	1460.20
208.78	1630.18
209.00	1542.12
209.22	1513.45
209.44	1517.54
209.66	1439.72
209.88	1488.87
210.10	1568.74
210.32	1523.69
210.54	1671.14
210.76	1542.12
210.98	1630.18
211.20	1462.25
211.42	1642.47
211.64	1607.66
211.86	1558.50
212.08	1589.22
212.30	1511.40
212.52	1486.83
212.74	1531.88
212.96	1589.22
213.17	1554.41
213.39	1488.87
213.61	1593.32
213.83	1591.27
214.05	1499.11
214.27	1630.18
214.49	1533.93
214.71	1542.12
214.93	1550.31
215.15	1628.14
215.37	1531.88
215.59	1441.77
215.81	1566.70
216.03	1568.74
216.24	1544.17
216.46	1521.64
216.68	1529.83
216.90	1599.46
217.12	1554.41
217.34	1478.63
217.56	1521.64
217.78	1597.42
218.00	1624.04
218.22	1515.50
218.44	1482.73
218.66	1449.96
218.87	1615.85
219.09	1515.50
219.31	1585.13
219.53	1501.16
219.75	1525.74
219.97	1556.46
220.19	1488.87
220.41	1476.59
220.63	1564.65
220.85	1558.50
221.06	1529.83
221.28	1578.98
221.50	1538.02
221.72	1544.17
221.94	1484.78
222.16	1558.50
222.38	1568.74
222.60	1603.56
222.82	1546.22
223.03	1605.61
223.25	1480.68
223.47	1601.51
223.69	1665.00
223.91	1599.46
224.13	1554.41
224.35	1533.93
224.57	1568.74
224.78	1568.74
225.00	1538.02
225.22	1550.31
225.44	1546.22
225.66	1570.79
225.88	1519.59
226.10	1636.33
226.32	1558.50
226.53	1554.41
226.75	1574.89
226.97	1523.69
227.19	1574.89
227.41	1554.41
227.63	1474.54
227.85	1503.21
228.06	1660.90
228.28	1564.65
228.50	1535.98
228.72	1445.87
228.94	1497.07
229.16	1476.59
229.37	1501.16
229.59	1460.20
229.81	1603.56
230.03	1445.87
230.25	1501.16
230.47	1495.02
230.69	1441.77
230.90	1548.26
231.12	1505.26
231.34	1540.07
231.56	1542.12
231.78	1470.44
232.00	1544.17
232.21	1576.94
232.43	1466.35
232.65	1443.82
232.87	1531.88
233.09	1552.36
233.30	1423.34
233.52	1511.40
233.74	1585.13
233.96	1480.68
234.18	1533.93
234.40	1492.97
234.61	1574.89
234.83	1474.54
235.05	1478.63
235.27	1589.22
235.49	1581.03
235.70	1583.08
235.92	1673.19
236.14	1578.98
236.36	1679.33
236.58	1513.45
236.79	1509.35
237.01	1464.30
237.23	1470.44
237.45	1685.48
237.67	1511.40
237.88	1648.61
238.10	1665.00
238.32	1513.45
238.54	1529.83
238.76	1476.59
238.97	1535.98
239.19	1505.26
239.41	1585.13
239.63	1554.41
239.85	1527.78
240.06	1552.36
240.28	1540.07
240.50	1570.79
240.72	1519.59
240.93	1603.56
241.15	1634.28
241.37	1589.22
241.59	1499.11
241.81	1462.25
242.02	1585.13
242.24	1562.60
242.46	1576.94
242.68	1503.21
242.89	1517.54
243.11	1621.99
243.33	1492.97
243.55	1548.26
243.76	1587.18
243.98	1499.11
244.20	1456.11
244.42	1535.98
244.64	1521.64
244.85	1452.01
245.07	1460.20
245.29	1511.40
245.51	1560.55
245.72	1525.74
245.94	1595.37
246.16	1570.79
246.38	1544.17
246.59	1519.59
246.81	1609.70
247.03	1472.49
247.24	1447.91
247.46	1521.64
247.68	1583.08
247.90	1556.46
248.11	1497.07
248.33	1566.70
248.55	1570.79
248.77	1445.87
248.98	1550.31
249.20	1619.94
249.42	1499.11
249.64	1583.08
249.85	1583.08
250.07	1517.54
250.29	1503.21
250.50	1601.51
250.72	1458.15
250.94	1611.75
251.16	1617.90
251.37	1679.33
251.59	1576.94
251.81	1484.78
252.02	1550.31
252.24	1507.30
252.46	1578.98
252.68	1466.35
252.89	1521.64
253.11	1503.21
253.33	1595.37
253.54	1570.79
253.76	1468.39
253.98	1538.02
254.20	1488.87
254.41	1454.06
254.63	1523.69
254.85	1472.49
255.06	1587.18
255.28	1505.26
255.50	1544.17
255.71	1478.63
255.93	1574.89
256.15	1492.97
256.36	1538.02
256.58	1509.35
256.80	1642.47
257.02	1503.21
257.23	1568.74
257.45	1515.50
257.67	1667.05
257.88	1554.41
258.10	1505.26
258.32	1556.46
258.53	1568.74
258.75	1589.22
258.97	1468.39
259.18	1527.78
259.40	1617.90
259.62	1638.38
259.83	1621.99
260.05	1601.51
260.27	1656.81
260.48	1566.70
260.70	1513.45
260.92	1482.73
261.13	1538.02
261.35	1546.22
261.57	1593.32
261.78	1488.87
262.00	1470.44
262.22	1538.02
262.43	1480.68
262.65	1542.12
262.86	1527.78
263.08	1632.23
263.30	1513.45
263.51	1501.16
263.73	1560.55
263.95	1621.99
264.16	1460.20
264.38	1568.74
264.60	1558.50
264.81	1476.59
265.03	1619.94
265.25	1585.13
265.46	1482.73
265.68	1542.12
265.89	1558.50
266.11	1525.74
266.33	1570.79
266.54	1636.33
266.76	1540.07
266.98	1607.66
267.19	1566.70
267.41	1609.70
267.62	1478.63
267.84	1519.59
268.06	1552.36
268.27	1574.89
268.49	1562.60
268.70	1578.98
268.92	1583.08
269.14	1486.83
269.35	1509.35
269.57	1556.46
269.79	1560.55
270.00	1525.74
270.22	1617.90
270.43	1488.87
270.65	1443.82
270.87	1519.59
271.08	1583.08
271.30	1613.80
271.51	1511.40
271.73	1505.26
271.95	1548.26
272.16	1568.74
272.38	1564.65
272.59	1603.56
272.81	1521.64
273.02	1552.36
273.24	1599.46
273.46	1507.30
273.67	1476.59
273.89	1542.12
274.10	1486.83
274.32	1595.37
274.54	1609.70
274.75	1609.70
274.97	1558.50
275.18	1621.99
275.40	1511.40
275.61	1495.02
275.83	1525.74
276.05	1527.78
276.26	1529.83
276.48	1613.80
276.69	1501.16
276.91	1529.83
277.12	1613.80
277.34	1615.85
277.55	1576.94
277.77	1509.35
277.99	1472.49
278.20	1540.07
278.42	1486.83
278.63	1501.16
278.85	1503.21
279.06	1558.50
279.28	1603.56
279.49	1585.13
279.71	1544.17
279.93	1572.84
280.14	1554.41
280.36	1544.17
280.57	1548.26
280.79	1568.74
281.00	1599.46
281.22	1472.49
281.43	1521.64
281.65	1503.21
281.86	1456.11
282.08	1495.02
282.29	1562.60
282.51	1503.21
282.73	1511.40
282.94	1433.58
283.16	1525.74
283.37	1535.98
283.59	1495.02
283.80	1490.92
284.02	1525.74
284.23	1538.02
284.45	1456.11
284.66	1519.59
284.88	1517.54
285.09	1540.07
285.31	1535.98
285.52	1562.60
285.74	1527.78
285.95	1562.60
286.17	1570.79
286.38	1613.80
286.60	1447.91
286.81	1597.42
287.03	1523.69
287.24	1517.54
287.46	1601.51
287.67	1476.59
287.89	1656.81
288.10	1558.50
288.32	1423.34
288.53	1640.42
288.75	1585.13
288.96	1619.94
289.18	1476.59
289.39	1517.54
289.61	1560.55
289.82	1652.71
290.04	1662.95
290.25	1542.12
290.47	1533.93
290.68	1554.41
290.90	1628.14
291.11	1466.35
291.33	1550.31
291.54	1445.87
291.76	1509.35
291.97	1552.36
292.18	1515.50
292.40	1540.07
292.61	1540.07
292.83	1667.05
293.04	1556.46
293.26	1529.83
293.47	1603.56
293.69	1458.15
293.90	1495.02
294.12	1583.08
294.33	1554.41
294.55	1529.83
294.76	1533.93
294.97	1542.12
295.19	1578.98
295.40	1511.40
295.62	1535.98
295.83	1492.97
296.05	1484.78
296.26	1611.75
296.48	1505.26
296.69	1513.45
296.90	1509.35
297.12	1566.70
297.33	1621.99
297.55	1535.98
297.76	1513.45
297.98	1593.32
298.19	1505.26
298.41	1542.12
298.62	1529.83
298.83	1527.78
299.05	1501.16
299.26	1552.36
299.48	1478.63
299.69	1509.35
299.90	1531.88
300.12	1499.11
300.33	1478.63
300.55	1460.20
300.76	1566.70
300.98	1501.16
301.19	1517.54
301.40	1538.02
301.62	1540.07
301.83	1548.26
302.05	1560.55
302.26	1505.26
302.47	1552.36
302.69	1542.12
302.90	1578.98
303.12	1419.24
303.33	1533.93
303.54	1617.90
303.76	1509.35
303.97	1615.85
304.19	1599.46
304.40	1531.88
304.61	1531.88
304.83	1607.66
305.04	1611.75
305.26	1523.69
305.47	1484.78
305.68	1589.22
305.90	1484.78
306.11	1634.28
306.33	1478.63
306.54	1519.59
306.75	1570.79
306.97	1417.19
307.18	1484.78
307.39	1503.21
307.61	1589.22
307.82	1497.07
308.04	1501.16
308.25	1492.97
308.46	1542.12
308.68	1560.55
308.89	1509.35
309.10	1576.94
309.32	1564.65
309.53	1519.59
309.74	1568.74
309.96	1538.02
310.17	1601.51
310.39	1505.26
310.60	1501.16
310.81	1585.13
311.03	1468.39
311.24	1693.67
311.45	1490.92
311.67	1552.36
311.88	1562.60
312.09	1447.91
312.31	1490.92
312.52	1519.59
312.73	1515.50
312.95	1515.50
313.16	1427.43
313.37	1560.55
313.59	1564.65
313.80	1462.25
314.01	1548.26
314.23	1501.16
314.44	1558.50
314.65	1435.63
314.87	1490.92
315.08	1595.37
315.29	1495.02
315.51	1507.30
315.72	1466.35
315.93	1640.42
316.15	1540.07
316.36	1527.78
316.57	1519.59
316.79	1540.07
317.00	1492.97
317.21	1566.70
317.43	1533.93
317.64	1554.41
317.85	1540.07
318.07	1585.13
318.28	1705.96
318.49	1710.05
318.70	1771.49
318.92	1677.29
319.13	1638.38
319.34	1675.24
319.56	1640.42
319.77	1615.85
319.98	1626.09
320.20	1624.04
320.41	1591.27
320.62	1609.70
320.83	1527.78
321.05	1683.43
321.26	1511.40
321.47	1503.21
321.69	1593.32
321.90	1519.59
322.11	1521.64
322.32	1572.84
322.54	1585.13
322.75	1538.02
322.96	1597.42
323.18	1519.59
323.39	1452.01
323.60	1511.40
323.81	1671.14
324.03	1535.98
324.24	1529.83
324.45	1466.35
324.66	1523.69
324.88	1601.51
325.09	1605.61
325.30	1492.97
325.52	1568.74
325.73	1591.27
325.94	1484.78
326.15	1535.98
326.37	1533.93
326.58	1662.95
326.79	1513.45
327.00	1390.57
327.22	1542.12
327.43	1511.40
327.64	1505.26
327.85	1597.42
328.07	1531.88
328.28	1550.31
328.49	1443.82
328.70	1550.31
328.92	1570.79
329.13	1527.78
329.34	1566.70
329.55	1701.86
329.76	1548.26
329.98	1554.41
330.19	1630.18
330.40	1570.79
330.61	1589.22
330.83	1607.66
331.04	1519.59
331.25	1529.83
331.46	1499.11
331.68	1431.53
331.89	1581.03
332.10	1525.74
332.31	1570.79
332.52	1531.88
332.74	1523.69
332.95	1560.55
333.16	1566.70
333.37	1615.85
333.58	1501.16
333.80	1529.83
334.01	1509.35
334.22	1523.69
334.43	1488.87
334.64	1511.40
334.86	1443.82
335.07	1495.02
335.28	1624.04
335.49	1449.96
335.70	1517.54
335.92	1548.26
336.13	1626.09
336.34	1544.17
336.55	1601.51
336.76	1535.98
336.98	1435.63
337.19	1527.78
337.40	1591.27
337.61	1624.04
337.82	1566.70
338.04	1531.88
338.25	1497.07
338.46	1490.92
338.67	1533.93
338.88	1501.16
339.09	1488.87
339.31	1486.83
339.52	1533.93
339.73	1435.63
339.94	1497.07
340.15	1574.89
340.36	1535.98
340.58	1515.50
340.79	1525.74
341.00	1525.74
341.21	1468.39
341.42	1624.04
341.63	1572.84
341.85	1507.30
342.06	1570.79
342.27	1525.74
342.48	1570.79
342.69	1492.97
342.90	1593.32
343.12	1556.46
343.33	1603.56
343.54	1574.89
343.75	1669.09
343.96	1607.66
344.17	1521.64
344.38	1550.31
344.60	1527.78
344.81	1460.20
345.02	1488.87
345.23	1597.42
345.44	1621.99
345.65	1595.37
345.86	1605.61
346.07	1538.02
346.29	1452.01
346.50	1503.21
346.71	1624.04
346.92	1581.03
347.13	1609.70
347.34	1423.34
347.55	1544.17
347.76	1576.94
347.98	1468.39
348.19	1447.91
348.40	1578.98
348.61	1544.17
348.82	1540.07
349.03	1560.55
349.24	1542.12
349.45	1605.61
349.66	1529.83
349.88	1558.50
350.09	1566.70
350.30	1556.46
350.51	1591.27
350.72	1570.79
350.93	1585.13
351.14	1509.35
351.35	1560.55
351.56	1574.89
351.77	1578.98
351.99	1587.18
352.20	1540.07
352.41	1638.38
352.62	1497.07
352.83	1531.88
353.04	1497.07
353.25	1589.22
353.46	1609.70
353.67	1480.68
353.88	1429.48
354.09	1595.37
354.30	1515.50
354.52	1572.84
354.73	1609.70
354.94	1488.87
355.15	1527.78
355.36	1636.33
355.57	1509.35
355.78	1538.02
355.99	1501.16
356.20	1505.26
356.41	1581.03
356.62	1499.11
356.83	1476.59
357.04	1624.04
357.25	1441.77
357.46	1546.22
357.68	1523.69
357.89	1492.97
358.10	1466.35
358.31	1560.55
358.52	1595.37
358.73	1503.21
358.94	1501.16
359.15	1523.69
359.36	1613.80
359.57	1523.69
359.78	1556.46
359.99	1478.63
360.20	1515.50
360.41	1499.11
360.62	1570.79
360.83	1535.98
361.04	1540.07
361.25	1591.27
361.46	1724.39
361.67	1542.12
361.88	1505.26
362.09	1572.84
362.30	1476.59
362.51	1533.93
362.72	1626.09
362.93	1591.27
363.14	1595.37
363.35	1581.03
363.56	1452.01
363.78	1560.55
363.99	1585.13
364.20	1515.50
364.41	1511.40
364.62	1574.89
364.83	1583.08
365.04	1511.40
365.25	1538.02
365.46	1621.99
365.67	1503.21
365.88	1581.03
366.09	1503.21
366.30	1546.22
366.51	1517.54
366.72	1497.07
366.93	1576.94
367.14	1581.03
367.35	1605.61
367.56	1509.35
367.77	1630.18
367.98	1488.87
368.18	1546.22
368.39	1593.32
368.60	1525.74
368.81	1615.85
369.02	1554.41
369.23	1540.07
369.44	1576.94
369.65	1470.44
369.86	1605.61
370.07	1566.70
370.28	1488.87
370.49	1570.79
370.70	1628.14
370.91	1527.78
371.12	1511.40
371.33	1574.89
371.54	1568.74
371.75	1720.29
371.96	1523.69
372.17	1558.50
372.38	1566.70
372.59	1626.09
372.80	1511.40
373.01	1566.70
373.22	1554.41
373.43	1589.22
373.64	1515.50
373.85	1583.08
374.06	1679.33
374.26	1572.84
374.47	1578.98
374.68	1548.26
374.89	1583.08
375.10	1560.55
375.31	1601.51
375.52	1589.22
375.73	1503.21
375.94	1550.31
376.15	1634.28
376.36	1533.93
376.57	1550.31
376.78	1552.36
376.99	1632.23
377.20	1611.75
377.40	1464.30
377.61	1564.65
377.82	1513.45
378.03	1538.02
378.24	1562.60
378.45	1566.70
378.66	1523.69
378.87	1431.53
379.08	1439.72
379.29	1462.25
379.50	1611.75
379.71	1484.78
379.91	1552.36
380.12	1568.74
380.33	1531.88
380.54	1560.55
380.75	1529.83
380.96	1515.50
381.17	1609.70
381.38	1646.57
381.59	1562.60
381.80	1538.02
382.00	1667.05
382.21	1597.42
382.42	1746.92
382.63	1665.00
382.84	1636.33
383.05	1576.94
383.26	1593.32
383.47	1533.93
383.68	1632.23
383.88	1634.28
384.09	1550.31
384.30	1624.04
384.51	1556.46
384.72	1513.45
384.93	1509.35
385.14	1581.03
385.35	1574.89
385.55	1458.15
385.76	1540.07
385.97	1583.08
386.18	1460.20
386.39	1507.30
386.60	1632.23
386.81	1540.07
387.02	1572.84
387.22	1542.12
387.43	1630.18
387.64	1691.62
387.85	1759.21
388.06	3080.14
388.27	7061.40
388.48	10520.42
388.68	12496.71
388.89	14024.49
389.10	12937.02
389.31	10409.83
389.52	8920.95
389.73	7931.78
389.93	7303.06
390.14	6797.21
390.35	6205.35
390.56	5535.66
390.77	4765.62
390.98	3626.95
391.18	2822.10
391.39	2181.09
391.60	1763.30
391.81	1681.38
392.02	1560.55
392.23	1658.85
392.43	1574.89
392.64	1644.52
392.85	1603.56
393.06	1578.98
393.27	1554.41
393.47	1449.96
393.68	1589.22
393.89	1497.07
394.10	1638.38
394.31	1546.22
394.52	1605.61
394.72	1628.14
394.93	1558.50
395.14	1525.74
395.35	1558.50
395.56	1574.89
395.76	1576.94
395.97	1759.21
396.18	1785.83
396.39	1691.62
396.60	1890.28
396.80	1712.10
397.01	1628.14
397.22	1691.62
397.43	1751.01
397.64	1519.59
397.84	1650.66
398.05	1642.47
398.26	1572.84
398.47	1605.61
398.67	1576.94
398.88	1574.89
399.09	1527.78
399.30	1562.60
399.51	1583.08
399.71	1581.03
399.92	1574.89
400.13	1578.98
400.34	1460.20
400.54	1507.30
400.75	1591.27
400.96	1665.00
401.17	1652.71
401.37	1585.13
401.58	1599.46
401.79	1550.31
402.00	1712.10
402.21	1845.22
402.41	1939.43
402.62	2000.87
402.83	1972.19
403.04	1861.60
403.24	1834.98
403.45	1755.11
403.66	1767.40
403.87	1712.10
404.07	1765.35
404.28	1691.62
404.49	1742.82
404.70	1677.29
404.90	1638.38
405.11	1615.85
405.32	1603.56
405.52	1505.26
405.73	1527.78
405.94	1484.78
406.15	1562.60
406.35	1566.70
406.56	1511.40
406.77	1538.02
406.98	1609.70
407.18	1492.97
407.39	1630.18
407.60	1605.61
407.80	1505.26
408.01	1519.59
408.22	1511.40
408.43	1538.02
408.63	1521.64
408.84	1525.74
409.05	1540.07
409.25	1472.49
409.46	1447.91
409.67	1531.88
409.88	1470.44
410.08	1595.37
410.29	1423.34
410.50	1515.50
410.70	1558.50
410.91	1511.40
411.12	1529.83
411.32	1562.60
411.53	1615.85
411.74	1679.33
411.95	1546.22
412.15	1521.64
412.36	1658.85
412.57	1564.65
412.77	1570.79
412.98	1554.41
413.19	1527.78
413.39	1576.94
413.60	1558.50
413.81	1658.85
414.01	1581.03
414.22	1597.42
414.43	1638.38
414.63	1595.37
414.84	1562.60
415.05	1572.84
415.25	1552.36
415.46	1542.12
415.67	1544.17
415.87	1566.70
416.08	1583.08
416.29	1531.88
416.49	1576.94
416.70	1501.16
416.91	1554.41
417.11	1578.98
417.32	1527.78
417.53	1603.56
417.73	1556.46
417.94	1513.45
418.15	1548.26
418.35	1503.21
418.56	1495.02
418.77	1640.42
418.97	1525.74
419.18	1540.07
419.38	1468.39
419.59	1538.02
419.80	1542.12
420.00	1560.55
420.21	1507.30
420.42	1538.02
420.62	1640.42
420.83	1439.72
421.04	1486.83
421.24	1507.30
421.45	1542.12
421.65	1558.50
421.86	1480.68
422.07	1570.79
422.27	1562.60
422.48	1503.21
422.69	1431.53
422.89	1556.46
423.10	1519.59
423.30	1503.21
423.51	1572.84
423.72	1540.07
423.92	1531.88
424.13	1460.20
424.33	1578.98
424.54	1583.08
424.75	1550.31
424.95	1605.61
425.16	1517.54
425.36	1495.02
425.57	1570.79
425.78	1583.08
425.98	1619.94
426.19	1490.92
426.39	1462.25
426.60	1550.31
426.81	1576.94
427.01	1619.94
427.22	1490.92
427.42	1468.39
427.63	1519.59
427.83	1630.18
428.04	1609.70
428.25	1570.79
428.45	1609.70
428.66	1632.23
428.86	1611.75
429.07	1533.93
429.28	1630.18
429.48	1562.60
429.69	1527.78
429.89	1601.51
430.10	1503.21
430.30	1609.70
430.51	1613.80
430.71	1556.46
430.92	1497.07
431.13	1505.26
431.33	1601.51
431.54	1574.89
431.74	1535.98
431.95	1691.62
432.15	1468.39
432.36	1605.61
432.56	1566.70
432.77	1607.66
432.98	1609.70
433.18	1585.13
433.39	1441.77
433.59	1525.74
433.80	1595.37
434.00	1656.81
434.21	1468.39
434.41	1449.96
434.62	1644.52
434.82	1456.11
435.03	1472.49
435.23	1482.73
435.44	1466.35
435.64	1570.79
435.85	1599.46
436.06	1538.02
436.26	1613.80
436.47	1542.12
436.67	1544.17
436.88	1460.20
437.08	1578.98
437.29	1599.46
437.49	1538.02
437.70	1519.59
437.90	1599.46
438.11	1681.38
438.31	1603.56
438.52	1712.10
438.72	1716.20
438.93	1658.85
439.13	1697.77
439.34	1677.29
439.54	1531.88
439.75	1574.89
439.95	1691.62
440.16	1550.31
440.36	1513.45
440.57	1634.28
440.77	1544.17
440.98	1585.13
441.18	1630.18
441.39	1501.16
441.59	1503.21
441.80	1574.89
442.00	1576.94
442.21	1603.56
442.41	1509.35
442.62	1572.84
442.82	1554.41
443.02	1531.88
443.23	1544.17
443.43	1515.50
443.64	1574.89
443.84	1484.78
444.05	1556.46
444.25	1540.07
444.46	1527.78
444.66	1603.56
444.87	1611.75
445.07	1466.35
445.28	1613.80
445.48	1593.32
445.69	1603.56
445.89	1675.24
446.09	1624.04
446.30	2062.30
446.50	3039.19
446.71	4585.40
446.91	5339.05
447.12	5767.08
447.32	5658.54
447.53	4683.70
447.73	4018.11
447.93	3606.47
448.14	3401.68
448.34	3215.31
448.55	2944.98
448.75	2920.40
448.96	2787.29
449.16	2547.67
449.36	2283.49
449.57	1994.72
449.77	1771.49
449.98	1734.63
450.18	1632.23
450.39	1619.94
450.59	1570.79
450.79	1585.13
451.00	1460.20
451.20	1621.99
451.41	1519.59
451.61	1521.64
451.81	1607.66
452.02	1511.40
452.22	1546.22
452.43	1511.40
452.63	1527.78
