SpectraSuite Data File
++++++++++++++++++++++++++++++++++++
Date: Tue May 03 12:55:36 CEST 2016
User: root
Dark Spectrum Present: No
Reference Spectrum Present: No
Number of Sampled Component Spectra: 1
Spectrometers: USB4C02835
Integration Time (usec): 100000 (USB4C02835)
Spectra Averaged: 1 (USB4C02835)
Boxcar Smoothing: 0 (USB4C02835)
Correct for Electrical Dark: No (USB4C02835)
Strobe/Lamp Enabled: No (USB4C02835)
Correct for Detector Non-linearity: No (USB4C02835)
Correct for Stray Light: No (USB4C02835)
Number of Pixels in Processed Spectrum: 3648
>>>>>Begin Processed Spectral Data<<<<<
177.47	1357.80
177.69	1357.80
177.91	1357.80
178.13	1437.67
178.36	1331.18
178.58	1497.07
178.80	1597.42
179.02	1486.83
179.24	1486.83
179.46	1462.25
179.68	1640.42
179.90	1503.21
180.13	1529.83
180.35	1501.16
180.57	1562.60
180.79	1621.99
181.01	1466.35
181.23	1607.66
181.45	1564.65
181.67	1542.12
181.90	1562.60
182.12	1507.30
182.34	1495.02
182.56	1613.80
182.78	1503.21
183.00	1505.26
183.22	1501.16
183.44	1380.33
183.66	1681.38
183.89	1583.08
184.11	1564.65
184.33	1595.37
184.55	1558.50
184.77	1509.35
184.99	1552.36
185.21	1527.78
185.43	1718.25
185.65	1521.64
185.87	1566.70
186.10	1640.42
186.32	1601.51
186.54	1540.07
186.76	1570.79
186.98	1613.80
187.20	1509.35
187.42	1533.93
187.64	1574.89
187.86	1458.15
188.08	1585.13
188.30	1535.98
188.52	1611.75
188.75	1609.70
188.97	1632.23
189.19	1419.24
189.41	1507.30
189.63	1511.40
189.85	1492.97
190.07	1409.00
190.29	1460.20
190.51	1595.37
190.73	1460.20
190.95	1611.75
191.17	1535.98
191.39	1454.06
191.61	1556.46
191.84	1525.74
192.06	1566.70
192.28	1550.31
192.50	1699.81
192.72	1538.02
192.94	1515.50
193.16	1544.17
193.38	1503.21
193.60	1548.26
193.82	1476.59
194.04	1535.98
194.26	1492.97
194.48	1495.02
194.70	1409.00
194.92	1406.95
195.14	1525.74
195.36	1517.54
195.58	1552.36
195.80	1474.54
196.02	1556.46
196.24	1521.64
196.46	1560.55
196.69	1554.41
196.91	1638.38
197.13	1626.09
197.35	1411.05
197.57	1560.55
197.79	1535.98
198.01	1576.94
198.23	1558.50
198.45	1603.56
198.67	1521.64
198.89	1533.93
199.11	1601.51
199.33	1511.40
199.55	1443.82
199.77	1587.18
199.99	1548.26
200.21	1570.79
200.43	1562.60
200.65	1517.54
200.87	1411.05
201.09	1634.28
201.31	1552.36
201.53	1585.13
201.75	1484.78
201.97	1486.83
202.19	1538.02
202.41	1511.40
202.63	1634.28
202.85	1525.74
203.07	1595.37
203.29	1476.59
203.51	1478.63
203.73	1509.35
203.95	1640.42
204.17	1519.59
204.39	1515.50
204.61	1546.22
204.83	1587.18
205.05	1525.74
205.27	1552.36
205.49	1638.38
205.71	1542.12
205.93	1531.88
206.15	1533.93
206.37	1517.54
206.59	1509.35
206.81	1505.26
207.03	1458.15
207.25	1429.48
207.47	1529.83
207.69	1527.78
207.91	1595.37
208.13	1634.28
208.34	1509.35
208.56	1490.92
208.78	1533.93
209.00	1535.98
209.22	1523.69
209.44	1558.50
209.66	1454.06
209.88	1490.92
210.10	1513.45
210.32	1525.74
210.54	1605.61
210.76	1546.22
210.98	1552.36
211.20	1427.43
211.42	1497.07
211.64	1613.80
211.86	1513.45
212.08	1583.08
212.30	1533.93
212.52	1523.69
212.74	1585.13
212.96	1490.92
213.17	1566.70
213.39	1546.22
213.61	1570.79
213.83	1538.02
214.05	1519.59
214.27	1484.78
214.49	1458.15
214.71	1511.40
214.93	1558.50
215.15	1585.13
215.37	1542.12
215.59	1468.39
215.81	1550.31
216.03	1595.37
216.24	1542.12
216.46	1562.60
216.68	1560.55
216.90	1566.70
217.12	1593.32
217.34	1533.93
217.56	1544.17
217.78	1552.36
218.00	1509.35
218.22	1572.84
218.44	1531.88
218.66	1515.50
218.87	1630.18
219.09	1552.36
219.31	1552.36
219.53	1593.32
219.75	1603.56
219.97	1488.87
220.19	1593.32
220.41	1535.98
220.63	1624.04
220.85	1460.20
221.06	1564.65
221.28	1566.70
221.50	1492.97
221.72	1480.68
221.94	1560.55
222.16	1529.83
222.38	1509.35
222.60	1613.80
222.82	1517.54
223.03	1591.27
223.25	1519.59
223.47	1621.99
223.69	1634.28
223.91	1632.23
224.13	1585.13
224.35	1497.07
224.57	1554.41
224.78	1544.17
225.00	1505.26
225.22	1558.50
225.44	1527.78
225.66	1535.98
225.88	1447.91
226.10	1640.42
226.32	1566.70
226.53	1570.79
226.75	1542.12
226.97	1517.54
227.19	1519.59
227.41	1552.36
227.63	1501.16
227.85	1495.02
228.06	1519.59
228.28	1515.50
228.50	1566.70
228.72	1509.35
228.94	1527.78
229.16	1486.83
229.37	1449.96
229.59	1499.11
229.81	1531.88
230.03	1585.13
230.25	1452.01
230.47	1482.73
230.69	1460.20
230.90	1675.24
231.12	1486.83
231.34	1497.07
231.56	1538.02
231.78	1503.21
232.00	1535.98
232.21	1554.41
232.43	1480.68
232.65	1441.77
232.87	1570.79
233.09	1492.97
233.30	1533.93
233.52	1574.89
233.74	1517.54
233.96	1593.32
234.18	1507.30
234.40	1509.35
234.61	1570.79
234.83	1495.02
235.05	1419.24
235.27	1665.00
235.49	1525.74
235.70	1538.02
235.92	1665.00
236.14	1507.30
236.36	1779.68
236.58	1482.73
236.79	1513.45
237.01	1552.36
237.23	1578.98
237.45	1669.09
237.67	1443.82
237.88	1572.84
238.10	1671.14
238.32	1488.87
238.54	1527.78
238.76	1583.08
238.97	1468.39
239.19	1419.24
239.41	1587.18
239.63	1523.69
239.85	1511.40
240.06	1482.73
240.28	1556.46
240.50	1583.08
240.72	1546.22
240.93	1538.02
241.15	1552.36
241.37	1593.32
241.59	1560.55
241.81	1593.32
242.02	1525.74
242.24	1519.59
242.46	1509.35
242.68	1558.50
242.89	1581.03
243.11	1581.03
243.33	1468.39
243.55	1548.26
243.76	1556.46
243.98	1574.89
244.20	1501.16
244.42	1503.21
244.64	1505.26
244.85	1554.41
245.07	1517.54
245.29	1626.09
245.51	1480.68
245.72	1517.54
245.94	1554.41
246.16	1593.32
246.38	1542.12
246.59	1548.26
246.81	1550.31
247.03	1581.03
247.24	1517.54
247.46	1474.54
247.68	1550.31
247.90	1447.91
248.11	1515.50
248.33	1568.74
248.55	1593.32
248.77	1523.69
248.98	1587.18
249.20	1628.14
249.42	1554.41
249.64	1533.93
249.85	1564.65
250.07	1503.21
250.29	1548.26
250.50	1544.17
250.72	1513.45
250.94	1603.56
251.16	1611.75
251.37	1564.65
251.59	1601.51
251.81	1560.55
252.02	1652.71
252.24	1472.49
252.46	1591.27
252.68	1521.64
252.89	1445.87
253.11	1384.43
253.33	1603.56
253.54	1630.18
253.76	1476.59
253.98	1509.35
254.20	1566.70
254.41	1535.98
254.63	1468.39
254.85	1472.49
255.06	1533.93
255.28	1511.40
255.50	1433.58
255.71	1548.26
255.93	1521.64
256.15	1517.54
256.36	1552.36
256.58	1542.12
256.80	1587.18
257.02	1515.50
257.23	1542.12
257.45	1583.08
257.67	1527.78
257.88	1521.64
258.10	1599.46
258.32	1599.46
258.53	1517.54
258.75	1601.51
258.97	1523.69
259.18	1509.35
259.40	1556.46
259.62	1564.65
259.83	1599.46
260.05	1595.37
260.27	1708.01
260.48	1533.93
260.70	1501.16
260.92	1562.60
261.13	1578.98
261.35	1527.78
261.57	1542.12
261.78	1462.25
262.00	1513.45
262.22	1562.60
262.43	1460.20
262.65	1515.50
262.86	1527.78
263.08	1638.38
263.30	1585.13
263.51	1433.58
263.73	1439.72
263.95	1574.89
264.16	1431.53
264.38	1521.64
264.60	1556.46
264.81	1509.35
265.03	1550.31
265.25	1626.09
265.46	1437.67
265.68	1574.89
265.89	1552.36
266.11	1476.59
266.33	1605.61
266.54	1601.51
266.76	1517.54
266.98	1578.98
267.19	1665.00
267.41	1570.79
267.62	1523.69
267.84	1497.07
268.06	1529.83
268.27	1574.89
268.49	1599.46
268.70	1535.98
268.92	1538.02
269.14	1531.88
269.35	1460.20
269.57	1556.46
269.79	1615.85
270.00	1529.83
270.22	1540.07
270.43	1533.93
270.65	1499.11
270.87	1652.71
271.08	1535.98
271.30	1503.21
271.51	1597.42
271.73	1621.99
271.95	1619.94
272.16	1578.98
272.38	1599.46
272.59	1523.69
272.81	1587.18
273.02	1583.08
273.24	1581.03
273.46	1556.46
273.67	1501.16
273.89	1521.64
274.10	1474.54
274.32	1591.27
274.54	1525.74
274.75	1597.42
274.97	1562.60
275.18	1554.41
275.40	1562.60
275.61	1527.78
275.83	1550.31
276.05	1482.73
276.26	1581.03
276.48	1576.94
276.69	1529.83
276.91	1519.59
277.12	1613.80
277.34	1535.98
277.55	1640.42
277.77	1501.16
277.99	1562.60
278.20	1464.30
278.42	1517.54
278.63	1468.39
278.85	1513.45
279.06	1511.40
279.28	1566.70
279.49	1552.36
279.71	1572.84
279.93	1540.07
280.14	1546.22
280.36	1517.54
280.57	1533.93
280.79	1550.31
281.00	1484.78
281.22	1470.44
281.43	1587.18
281.65	1456.11
281.86	1474.54
282.08	1529.83
282.29	1599.46
282.51	1503.21
282.73	1495.02
282.94	1511.40
283.16	1681.38
283.37	1574.89
283.59	1599.46
283.80	1529.83
284.02	1495.02
284.23	1585.13
284.45	1544.17
284.66	1456.11
284.88	1533.93
285.09	1572.84
285.31	1599.46
285.52	1548.26
285.74	1499.11
285.95	1531.88
286.17	1548.26
286.38	1597.42
286.60	1525.74
286.81	1454.06
287.03	1527.78
287.24	1527.78
287.46	1492.97
287.67	1482.73
287.89	1675.24
288.10	1478.63
288.32	1531.88
288.53	1601.51
288.75	1492.97
288.96	1509.35
289.18	1492.97
289.39	1550.31
289.61	1673.19
289.82	1648.61
290.04	1613.80
290.25	1511.40
290.47	1566.70
290.68	1505.26
290.90	1538.02
291.11	1507.30
291.33	1556.46
291.54	1509.35
291.76	1484.78
291.97	1566.70
292.18	1615.85
292.40	1503.21
292.61	1523.69
292.83	1605.61
293.04	1554.41
293.26	1544.17
293.47	1505.26
293.69	1427.43
293.90	1550.31
294.12	1634.28
294.33	1509.35
294.55	1554.41
294.76	1591.27
294.97	1607.66
295.19	1656.81
295.40	1472.49
295.62	1552.36
295.83	1566.70
296.05	1476.59
296.26	1527.78
296.48	1552.36
296.69	1562.60
296.90	1513.45
297.12	1619.94
297.33	1527.78
297.55	1505.26
297.76	1476.59
297.98	1566.70
298.19	1515.50
298.41	1486.83
298.62	1509.35
298.83	1656.81
299.05	1548.26
299.26	1529.83
299.48	1480.68
299.69	1546.22
299.90	1550.31
300.12	1464.30
300.33	1515.50
300.55	1589.22
300.76	1531.88
300.98	1495.02
301.19	1535.98
301.40	1525.74
301.62	1492.97
301.83	1585.13
302.05	1484.78
302.26	1540.07
302.47	1546.22
302.69	1452.01
302.90	1503.21
303.12	1433.58
303.33	1527.78
303.54	1562.60
303.76	1505.26
303.97	1558.50
304.19	1601.51
304.40	1470.44
304.61	1568.74
304.83	1628.14
305.04	1597.42
305.26	1548.26
305.47	1495.02
305.68	1458.15
305.90	1597.42
306.11	1603.56
306.33	1404.91
306.54	1501.16
306.75	1499.11
306.97	1458.15
307.18	1531.88
307.39	1503.21
307.61	1503.21
307.82	1488.87
308.04	1570.79
308.25	1525.74
308.46	1519.59
308.68	1519.59
308.89	1503.21
309.10	1589.22
309.32	1533.93
309.53	1576.94
309.74	1552.36
309.96	1486.83
310.17	1636.33
310.39	1533.93
310.60	1535.98
310.81	1509.35
311.03	1484.78
311.24	1566.70
311.45	1576.94
311.67	1548.26
311.88	1570.79
312.09	1476.59
312.31	1552.36
312.52	1574.89
312.73	1517.54
312.95	1452.01
313.16	1552.36
313.37	1558.50
313.59	1531.88
313.80	1509.35
314.01	1593.32
314.23	1464.30
314.44	1554.41
314.65	1441.77
314.87	1456.11
315.08	1509.35
315.29	1509.35
315.51	1486.83
315.72	1478.63
315.93	1669.09
316.15	1583.08
316.36	1480.68
316.57	1540.07
316.79	1587.18
317.00	1550.31
317.21	1578.98
317.43	1593.32
317.64	1533.93
317.85	1581.03
318.07	1519.59
318.28	1732.58
318.49	1710.05
318.70	1808.36
318.92	1777.64
319.13	1597.42
319.34	1691.62
319.56	1585.13
319.77	1574.89
319.98	1609.70
320.20	1591.27
320.41	1658.85
320.62	1480.68
320.83	1484.78
321.05	1648.61
321.26	1507.30
321.47	1523.69
321.69	1566.70
321.90	1538.02
322.11	1566.70
322.32	1546.22
322.54	1626.09
322.75	1476.59
322.96	1548.26
323.18	1529.83
323.39	1527.78
323.60	1570.79
323.81	1572.84
324.03	1591.27
324.24	1599.46
324.45	1640.42
324.66	1533.93
324.88	1621.99
325.09	1599.46
325.30	1566.70
325.52	1605.61
325.73	1595.37
325.94	1523.69
326.15	1425.39
326.37	1458.15
326.58	1591.27
326.79	1636.33
327.00	1523.69
327.22	1495.02
327.43	1529.83
327.64	1562.60
327.85	1542.12
328.07	1501.16
328.28	1665.00
328.49	1531.88
328.70	1531.88
328.92	1558.50
329.13	1540.07
329.34	1521.64
329.55	1587.18
329.76	1562.60
329.98	1554.41
330.19	1656.81
330.40	1560.55
330.61	1495.02
330.83	1607.66
331.04	1535.98
331.25	1570.79
331.46	1542.12
331.68	1548.26
331.89	1593.32
332.10	1540.07
332.31	1460.20
332.52	1523.69
332.74	1587.18
332.95	1515.50
333.16	1525.74
333.37	1576.94
333.58	1490.92
333.80	1529.83
334.01	1478.63
334.22	1456.11
334.43	1466.35
334.64	1517.54
334.86	1443.82
335.07	1533.93
335.28	1609.70
335.49	1454.06
335.70	1587.18
335.92	1562.60
336.13	1660.90
336.34	1562.60
336.55	1597.42
336.76	1548.26
336.98	1519.59
337.19	1560.55
337.40	1583.08
337.61	1636.33
337.82	1533.93
338.04	1591.27
338.25	1445.87
338.46	1556.46
338.67	1546.22
338.88	1535.98
339.09	1452.01
339.31	1511.40
339.52	1402.86
339.73	1462.25
339.94	1499.11
340.15	1617.90
340.36	1521.64
340.58	1548.26
340.79	1505.26
341.00	1527.78
341.21	1443.82
341.42	1556.46
341.63	1576.94
341.85	1640.42
342.06	1529.83
342.27	1507.30
342.48	1546.22
342.69	1509.35
342.90	1603.56
343.12	1529.83
343.33	1521.64
343.54	1558.50
343.75	1535.98
343.96	1636.33
344.17	1497.07
344.38	1529.83
344.60	1443.82
344.81	1501.16
345.02	1476.59
345.23	1554.41
345.44	1675.24
345.65	1552.36
345.86	1609.70
346.07	1542.12
346.29	1556.46
346.50	1609.70
346.71	1548.26
346.92	1562.60
347.13	1607.66
347.34	1570.79
347.55	1566.70
347.76	1554.41
347.98	1533.93
348.19	1472.49
348.40	1578.98
348.61	1445.87
348.82	1468.39
349.03	1550.31
349.24	1449.96
349.45	1585.13
349.66	1460.20
349.88	1462.25
350.09	1490.92
350.30	1628.14
350.51	1632.23
350.72	1576.94
350.93	1511.40
351.14	1628.14
351.35	1609.70
351.56	1515.50
351.77	1568.74
351.99	1578.98
352.20	1574.89
352.41	1601.51
352.62	1445.87
352.83	1525.74
353.04	1544.17
353.25	1492.97
353.46	1544.17
353.67	1507.30
353.88	1452.01
354.09	1542.12
354.30	1544.17
354.52	1550.31
354.73	1503.21
354.94	1540.07
355.15	1458.15
355.36	1660.90
355.57	1499.11
355.78	1550.31
355.99	1437.67
356.20	1511.40
356.41	1566.70
356.62	1552.36
356.83	1548.26
357.04	1662.95
357.25	1452.01
357.46	1439.72
357.68	1511.40
357.89	1574.89
358.10	1540.07
358.31	1439.72
358.52	1521.64
358.73	1527.78
358.94	1531.88
359.15	1415.15
359.36	1544.17
359.57	1523.69
359.78	1511.40
359.99	1554.41
360.20	1492.97
360.41	1476.59
360.62	1560.55
360.83	1552.36
361.04	1558.50
361.25	1548.26
361.46	1609.70
361.67	1581.03
361.88	1544.17
362.09	1617.90
362.30	1558.50
362.51	1507.30
362.72	1581.03
362.93	1603.56
363.14	1505.26
363.35	1554.41
363.56	1501.16
363.78	1560.55
363.99	1585.13
364.20	1507.30
364.41	1607.66
364.62	1619.94
364.83	1609.70
365.04	1531.88
365.25	1546.22
365.46	1564.65
365.67	1497.07
365.88	1593.32
366.09	1523.69
366.30	1550.31
366.51	1609.70
366.72	1476.59
366.93	1509.35
367.14	1525.74
367.35	1630.18
367.56	1503.21
367.77	1570.79
367.98	1495.02
368.18	1589.22
368.39	1552.36
368.60	1548.26
368.81	1611.75
369.02	1533.93
369.23	1552.36
369.44	1474.54
369.65	1527.78
369.86	1595.37
370.07	1595.37
370.28	1556.46
370.49	1548.26
370.70	1615.85
370.91	1501.16
371.12	1578.98
371.33	1525.74
371.54	1476.59
371.75	1583.08
371.96	1538.02
372.17	1462.25
372.38	1550.31
372.59	1521.64
372.80	1517.54
373.01	1556.46
373.22	1591.27
373.43	1574.89
373.64	1456.11
373.85	1558.50
374.06	1562.60
374.26	1591.27
374.47	1562.60
374.68	1611.75
374.89	1533.93
375.10	1425.39
375.31	1554.41
375.52	1533.93
375.73	1511.40
375.94	1478.63
376.15	1650.66
376.36	1597.42
376.57	1509.35
376.78	1603.56
376.99	1540.07
377.20	1576.94
377.40	1464.30
377.61	1576.94
377.82	1501.16
378.03	1621.99
378.24	1578.98
378.45	1593.32
378.66	1533.93
378.87	1523.69
379.08	1495.02
379.29	1538.02
379.50	1642.47
379.71	1525.74
379.91	1613.80
380.12	1531.88
380.33	1558.50
380.54	1529.83
380.75	1550.31
380.96	1513.45
381.17	1615.85
381.38	1619.94
381.59	1605.61
381.80	1527.78
382.00	1611.75
382.21	1570.79
382.42	1660.90
382.63	1724.39
382.84	1665.00
383.05	1591.27
383.26	1583.08
383.47	1531.88
383.68	1556.46
383.88	1578.98
384.09	1603.56
384.30	1564.65
384.51	1591.27
384.72	1517.54
384.93	1472.49
385.14	1603.56
385.35	1671.14
385.55	1554.41
385.76	1566.70
385.97	1509.35
386.18	1513.45
386.39	1593.32
386.60	1492.97
386.81	1570.79
387.02	1525.74
387.22	1548.26
387.43	1626.09
387.64	1644.52
387.85	1861.60
388.06	3094.48
388.27	7298.96
388.48	10606.43
388.68	12412.74
388.89	13842.22
389.10	12840.76
389.31	9971.56
389.52	8843.13
389.73	7880.58
389.93	7245.71
390.14	6797.21
390.35	6231.97
390.56	5517.23
390.77	4646.84
390.98	3624.90
391.18	2731.99
391.39	2189.28
391.60	1802.21
391.81	1716.20
392.02	1585.13
392.23	1691.62
392.43	1556.46
392.64	1667.05
392.85	1562.60
393.06	1593.32
393.27	1505.26
393.47	1529.83
393.68	1544.17
393.89	1507.30
394.10	1619.94
394.31	1523.69
394.52	1490.92
394.72	1566.70
394.93	1624.04
395.14	1542.12
395.35	1568.74
395.56	1576.94
395.76	1615.85
395.97	1693.67
396.18	1740.77
396.39	1703.91
396.60	1904.61
396.80	1720.29
397.01	1671.14
397.22	1703.91
397.43	1615.85
397.64	1597.42
397.84	1685.48
398.05	1650.66
398.26	1607.66
398.47	1587.18
398.67	1667.05
398.88	1589.22
399.09	1642.47
399.30	1499.11
399.51	1638.38
399.71	1511.40
399.92	1501.16
400.13	1503.21
400.34	1501.16
400.54	1562.60
400.75	1683.43
400.96	1552.36
401.17	1574.89
401.37	1533.93
401.58	1458.15
401.79	1626.09
402.00	1794.02
402.21	1998.82
402.41	1920.99
402.62	1970.15
402.83	1968.10
403.04	1912.80
403.24	1966.05
403.45	1634.28
403.66	1738.73
403.87	1685.48
404.07	1730.53
404.28	1810.40
404.49	1714.15
404.70	1538.02
404.90	1576.94
405.11	1570.79
405.32	1644.52
405.52	1490.92
405.73	1517.54
405.94	1499.11
406.15	1665.00
406.35	1533.93
406.56	1552.36
406.77	1589.22
406.98	1476.59
407.18	1484.78
407.39	1648.61
407.60	1456.11
407.80	1544.17
408.01	1517.54
408.22	1548.26
408.43	1484.78
408.63	1492.97
408.84	1576.94
409.05	1548.26
409.25	1443.82
409.46	1550.31
409.67	1478.63
409.88	1554.41
410.08	1507.30
410.29	1435.63
410.50	1552.36
410.70	1609.70
410.91	1540.07
411.12	1529.83
411.32	1525.74
411.53	1572.84
411.74	1665.00
411.95	1601.51
412.15	1628.14
412.36	1644.52
412.57	1495.02
412.77	1644.52
412.98	1527.78
413.19	1503.21
413.39	1535.98
413.60	1597.42
413.81	1587.18
414.01	1509.35
414.22	1595.37
414.43	1675.24
414.63	1509.35
414.84	1505.26
415.05	1636.33
415.25	1441.77
415.46	1656.81
415.67	1595.37
415.87	1525.74
416.08	1552.36
416.29	1581.03
416.49	1554.41
416.70	1646.57
416.91	1517.54
417.11	1480.68
417.32	1609.70
417.53	1626.09
417.73	1495.02
417.94	1492.97
418.15	1544.17
418.35	1499.11
418.56	1591.27
418.77	1695.72
418.97	1564.65
419.18	1554.41
419.38	1437.67
419.59	1482.73
419.80	1601.51
420.00	1533.93
420.21	1495.02
420.42	1638.38
420.62	1599.46
420.83	1441.77
421.04	1445.87
421.24	1513.45
421.45	1556.46
421.65	1546.22
421.86	1523.69
422.07	1495.02
422.27	1607.66
422.48	1542.12
422.69	1564.65
422.89	1613.80
423.10	1529.83
423.30	1492.97
423.51	1570.79
423.72	1531.88
423.92	1595.37
424.13	1511.40
424.33	1576.94
424.54	1570.79
424.75	1554.41
424.95	1603.56
425.16	1576.94
425.36	1495.02
425.57	1538.02
425.78	1529.83
425.98	1550.31
426.19	1529.83
426.39	1484.78
426.60	1554.41
426.81	1576.94
427.01	1529.83
427.22	1525.74
427.42	1431.53
427.63	1488.87
427.83	1556.46
428.04	1640.42
428.25	1548.26
428.45	1558.50
428.66	1552.36
428.86	1554.41
429.07	1593.32
429.28	1562.60
429.48	1572.84
429.69	1474.54
429.89	1531.88
430.10	1529.83
430.30	1566.70
430.51	1558.50
430.71	1550.31
430.92	1566.70
431.13	1538.02
431.33	1499.11
431.54	1546.22
431.74	1599.46
431.95	1673.19
432.15	1546.22
432.36	1540.07
432.56	1523.69
432.77	1589.22
432.98	1601.51
433.18	1634.28
433.39	1531.88
433.59	1560.55
433.80	1544.17
434.00	1736.68
434.21	1501.16
434.41	1482.73
434.62	1615.85
434.82	1501.16
435.03	1499.11
435.23	1546.22
435.44	1507.30
435.64	1601.51
435.85	1462.25
436.06	1542.12
436.26	1589.22
436.47	1554.41
436.67	1511.40
436.88	1560.55
437.08	1613.80
437.29	1572.84
437.49	1560.55
437.70	1605.61
437.90	1609.70
438.11	1675.24
438.31	1650.66
438.52	1722.34
438.72	1689.57
438.93	1775.59
439.13	1665.00
439.34	1654.76
439.54	1556.46
439.75	1648.61
439.95	1673.19
440.16	1529.83
440.36	1609.70
440.57	1605.61
440.77	1585.13
440.98	1550.31
441.18	1599.46
441.39	1472.49
441.59	1435.63
441.80	1589.22
442.00	1552.36
442.21	1652.71
442.41	1519.59
442.62	1578.98
442.82	1535.98
443.02	1429.48
443.23	1566.70
443.43	1578.98
443.64	1621.99
443.84	1497.07
444.05	1619.94
444.25	1566.70
444.46	1486.83
444.66	1634.28
444.87	1615.85
445.07	1433.58
445.28	1509.35
445.48	1554.41
445.69	1656.81
445.89	1675.24
446.09	1587.18
446.30	1970.15
446.50	3057.62
446.71	4384.70
446.91	5253.04
447.12	5687.21
447.32	5560.24
447.53	4509.63
447.73	4046.79
447.93	3565.51
448.14	3325.90
448.34	3225.55
448.55	2889.68
448.75	2955.22
448.96	2701.27
449.16	2519.00
449.36	2394.08
449.57	2009.06
449.77	1810.40
449.98	1619.94
450.18	1671.14
450.39	1578.98
450.59	1576.94
450.79	1529.83
451.00	1484.78
451.20	1613.80
451.41	1521.64
451.61	1538.02
451.81	1607.66
452.02	1552.36
452.22	1599.46
452.43	1507.30
452.63	1533.93
