SpectraSuite Data File
++++++++++++++++++++++++++++++++++++
Date: Tue May 03 12:55:40 CEST 2016
User: root
Dark Spectrum Present: No
Reference Spectrum Present: No
Number of Sampled Component Spectra: 1
Spectrometers: USB4C02835
Integration Time (usec): 100000 (USB4C02835)
Spectra Averaged: 1 (USB4C02835)
Boxcar Smoothing: 0 (USB4C02835)
Correct for Electrical Dark: No (USB4C02835)
Strobe/Lamp Enabled: No (USB4C02835)
Correct for Detector Non-linearity: No (USB4C02835)
Correct for Stray Light: No (USB4C02835)
Number of Pixels in Processed Spectrum: 3648
>>>>>Begin Processed Spectral Data<<<<<
177.47	1310.70
177.69	1310.70
177.91	1310.70
178.13	1384.43
178.36	1345.52
178.58	1468.39
178.80	1560.55
179.02	1460.20
179.24	1521.64
179.46	1585.13
179.68	1615.85
179.90	1572.84
180.13	1542.12
180.35	1501.16
180.57	1515.50
180.79	1646.57
181.01	1468.39
181.23	1609.70
181.45	1542.12
181.67	1578.98
181.90	1658.85
182.12	1445.87
182.34	1456.11
182.56	1548.26
182.78	1468.39
183.00	1525.74
183.22	1527.78
183.44	1507.30
183.66	1665.00
183.89	1613.80
184.11	1472.49
184.33	1529.83
184.55	1566.70
184.77	1611.75
184.99	1497.07
185.21	1486.83
185.43	1677.29
185.65	1599.46
185.87	1538.02
186.10	1640.42
186.32	1615.85
186.54	1560.55
186.76	1607.66
186.98	1601.51
187.20	1519.59
187.42	1570.79
187.64	1509.35
187.86	1576.94
188.08	1568.74
188.30	1484.78
188.52	1538.02
188.75	1589.22
188.97	1529.83
189.19	1478.63
189.41	1503.21
189.63	1585.13
189.85	1460.20
190.07	1429.48
190.29	1550.31
190.51	1501.16
190.73	1566.70
190.95	1476.59
191.17	1525.74
191.39	1503.21
191.61	1484.78
191.84	1525.74
192.06	1505.26
192.28	1462.25
192.50	1578.98
192.72	1570.79
192.94	1525.74
193.16	1566.70
193.38	1542.12
193.60	1460.20
193.82	1472.49
194.04	1599.46
194.26	1497.07
194.48	1550.31
194.70	1484.78
194.92	1458.15
195.14	1538.02
195.36	1486.83
195.58	1587.18
195.80	1570.79
196.02	1509.35
196.24	1570.79
196.46	1564.65
196.69	1523.69
196.91	1601.51
197.13	1497.07
197.35	1470.44
197.57	1597.42
197.79	1558.50
198.01	1568.74
198.23	1576.94
198.45	1523.69
198.67	1429.48
198.89	1538.02
199.11	1593.32
199.33	1462.25
199.55	1400.81
199.77	1535.98
199.99	1591.27
200.21	1490.92
200.43	1617.90
200.65	1525.74
200.87	1411.05
201.09	1482.73
201.31	1445.87
201.53	1531.88
201.75	1650.66
201.97	1509.35
202.19	1548.26
202.41	1523.69
202.63	1695.72
202.85	1548.26
203.07	1583.08
203.29	1544.17
203.51	1458.15
203.73	1503.21
203.95	1669.09
204.17	1572.84
204.39	1576.94
204.61	1542.12
204.83	1458.15
205.05	1675.24
205.27	1595.37
205.49	1732.58
205.71	1595.37
205.93	1523.69
206.15	1529.83
206.37	1550.31
206.59	1480.68
206.81	1542.12
207.03	1486.83
207.25	1462.25
207.47	1564.65
207.69	1542.12
207.91	1566.70
208.13	1593.32
208.34	1544.17
208.56	1517.54
208.78	1548.26
209.00	1523.69
209.22	1538.02
209.44	1529.83
209.66	1519.59
209.88	1578.98
210.10	1462.25
210.32	1507.30
210.54	1595.37
210.76	1558.50
210.98	1486.83
211.20	1484.78
211.42	1519.59
211.64	1607.66
211.86	1556.46
212.08	1544.17
212.30	1640.42
212.52	1529.83
212.74	1556.46
212.96	1544.17
213.17	1583.08
213.39	1626.09
213.61	1591.27
213.83	1613.80
214.05	1517.54
214.27	1550.31
214.49	1427.43
214.71	1599.46
214.93	1585.13
215.15	1617.90
215.37	1566.70
215.59	1509.35
215.81	1615.85
216.03	1564.65
216.24	1587.18
216.46	1482.73
216.68	1578.98
216.90	1507.30
217.12	1599.46
217.34	1538.02
217.56	1517.54
217.78	1507.30
218.00	1591.27
218.22	1517.54
218.44	1538.02
218.66	1501.16
218.87	1589.22
219.09	1538.02
219.31	1640.42
219.53	1595.37
219.75	1550.31
219.97	1585.13
220.19	1607.66
220.41	1497.07
220.63	1562.60
220.85	1523.69
221.06	1535.98
221.28	1554.41
221.50	1589.22
221.72	1554.41
221.94	1583.08
222.16	1560.55
222.38	1552.36
222.60	1681.38
222.82	1517.54
223.03	1550.31
223.25	1454.06
223.47	1535.98
223.69	1687.53
223.91	1581.03
224.13	1505.26
224.35	1443.82
224.57	1595.37
224.78	1550.31
225.00	1521.64
225.22	1497.07
225.44	1484.78
225.66	1611.75
225.88	1515.50
226.10	1589.22
226.32	1482.73
226.53	1603.56
226.75	1449.96
226.97	1587.18
227.19	1589.22
227.41	1505.26
227.63	1513.45
227.85	1468.39
228.06	1499.11
228.28	1587.18
228.50	1619.94
228.72	1552.36
228.94	1560.55
229.16	1503.21
229.37	1474.54
229.59	1499.11
229.81	1583.08
230.03	1560.55
230.25	1445.87
230.47	1470.44
230.69	1427.43
230.90	1634.28
231.12	1507.30
231.34	1542.12
231.56	1599.46
231.78	1476.59
232.00	1535.98
232.21	1607.66
232.43	1505.26
232.65	1445.87
232.87	1519.59
233.09	1566.70
233.30	1538.02
233.52	1540.07
233.74	1433.58
233.96	1515.50
234.18	1492.97
234.40	1470.44
234.61	1613.80
234.83	1447.91
235.05	1525.74
235.27	1632.23
235.49	1585.13
235.70	1544.17
235.92	1591.27
236.14	1572.84
236.36	1583.08
236.58	1466.35
236.79	1562.60
237.01	1546.22
237.23	1511.40
237.45	1628.14
237.67	1505.26
237.88	1533.93
238.10	1648.61
238.32	1474.54
238.54	1507.30
238.76	1492.97
238.97	1564.65
239.19	1527.78
239.41	1615.85
239.63	1533.93
239.85	1529.83
240.06	1560.55
240.28	1540.07
240.50	1505.26
240.72	1587.18
240.93	1576.94
241.15	1626.09
241.37	1507.30
241.59	1544.17
241.81	1507.30
242.02	1566.70
242.24	1488.87
242.46	1632.23
242.68	1525.74
242.89	1470.44
243.11	1550.31
243.33	1519.59
243.55	1525.74
243.76	1535.98
243.98	1490.92
244.20	1509.35
244.42	1548.26
244.64	1550.31
244.85	1439.72
245.07	1519.59
245.29	1556.46
245.51	1503.21
245.72	1609.70
245.94	1603.56
246.16	1507.30
246.38	1578.98
246.59	1460.20
246.81	1550.31
247.03	1460.20
247.24	1476.59
247.46	1560.55
247.68	1599.46
247.90	1552.36
248.11	1515.50
248.33	1578.98
248.55	1525.74
248.77	1486.83
248.98	1546.22
249.20	1544.17
249.42	1511.40
249.64	1597.42
249.85	1511.40
250.07	1525.74
250.29	1587.18
250.50	1568.74
250.72	1533.93
250.94	1589.22
251.16	1564.65
251.37	1632.23
251.59	1556.46
251.81	1531.88
252.02	1535.98
252.24	1497.07
252.46	1638.38
252.68	1507.30
252.89	1521.64
253.11	1505.26
253.33	1613.80
253.54	1597.42
253.76	1484.78
253.98	1556.46
254.20	1533.93
254.41	1495.02
254.63	1581.03
254.85	1490.92
255.06	1554.41
255.28	1656.81
255.50	1525.74
255.71	1529.83
255.93	1513.45
256.15	1488.87
256.36	1525.74
256.58	1550.31
256.80	1529.83
257.02	1507.30
257.23	1601.51
257.45	1472.49
257.67	1621.99
257.88	1529.83
258.10	1499.11
258.32	1535.98
258.53	1542.12
258.75	1566.70
258.97	1460.20
259.18	1505.26
259.40	1556.46
259.62	1617.90
259.83	1546.22
260.05	1560.55
260.27	1734.63
260.48	1603.56
260.70	1501.16
260.92	1517.54
261.13	1480.68
261.35	1540.07
261.57	1595.37
261.78	1425.39
262.00	1497.07
262.22	1544.17
262.43	1560.55
262.65	1572.84
262.86	1544.17
263.08	1544.17
263.30	1626.09
263.51	1503.21
263.73	1517.54
263.95	1619.94
264.16	1519.59
264.38	1550.31
264.60	1599.46
264.81	1529.83
265.03	1540.07
265.25	1630.18
265.46	1529.83
265.68	1591.27
265.89	1615.85
266.11	1466.35
266.33	1542.12
266.54	1554.41
266.76	1519.59
266.98	1611.75
267.19	1621.99
267.41	1603.56
267.62	1507.30
267.84	1394.67
268.06	1550.31
268.27	1544.17
268.49	1595.37
268.70	1548.26
268.92	1603.56
269.14	1474.54
269.35	1458.15
269.57	1533.93
269.79	1540.07
270.00	1538.02
270.22	1691.62
270.43	1495.02
270.65	1452.01
270.87	1527.78
271.08	1544.17
271.30	1566.70
271.51	1533.93
271.73	1552.36
271.95	1554.41
272.16	1505.26
272.38	1529.83
272.59	1503.21
272.81	1535.98
273.02	1521.64
273.24	1566.70
273.46	1578.98
273.67	1462.25
273.89	1490.92
274.10	1535.98
274.32	1470.44
274.54	1460.20
274.75	1570.79
274.97	1605.61
275.18	1587.18
275.40	1574.89
275.61	1560.55
275.83	1607.66
276.05	1503.21
276.26	1517.54
276.48	1546.22
276.69	1515.50
276.91	1476.59
277.12	1519.59
277.34	1628.14
277.55	1560.55
277.77	1552.36
277.99	1509.35
278.20	1443.82
278.42	1501.16
278.63	1542.12
278.85	1535.98
279.06	1495.02
279.28	1583.08
279.49	1574.89
279.71	1533.93
279.93	1462.25
280.14	1564.65
280.36	1585.13
280.57	1576.94
280.79	1603.56
281.00	1492.97
281.22	1501.16
281.43	1550.31
281.65	1449.96
281.86	1458.15
282.08	1599.46
282.29	1669.09
282.51	1488.87
282.73	1529.83
282.94	1452.01
283.16	1521.64
283.37	1593.32
283.59	1599.46
283.80	1609.70
284.02	1521.64
284.23	1583.08
284.45	1521.64
284.66	1503.21
284.88	1564.65
285.09	1529.83
285.31	1615.85
285.52	1550.31
285.74	1472.49
285.95	1546.22
286.17	1593.32
286.38	1515.50
286.60	1490.92
286.81	1519.59
287.03	1505.26
287.24	1550.31
287.46	1511.40
287.67	1562.60
287.89	1665.00
288.10	1535.98
288.32	1507.30
288.53	1513.45
288.75	1484.78
288.96	1550.31
289.18	1552.36
289.39	1570.79
289.61	1638.38
289.82	1652.71
290.04	1558.50
290.25	1529.83
290.47	1533.93
290.68	1511.40
290.90	1589.22
291.11	1519.59
291.33	1513.45
291.54	1415.15
291.76	1591.27
291.97	1554.41
292.18	1507.30
292.40	1525.74
292.61	1466.35
292.83	1632.23
293.04	1517.54
293.26	1554.41
293.47	1544.17
293.69	1513.45
293.90	1570.79
294.12	1632.23
294.33	1525.74
294.55	1535.98
294.76	1558.50
294.97	1574.89
295.19	1554.41
295.40	1525.74
295.62	1556.46
295.83	1566.70
296.05	1564.65
296.26	1640.42
296.48	1468.39
296.69	1535.98
296.90	1501.16
297.12	1558.50
297.33	1540.07
297.55	1513.45
297.76	1527.78
297.98	1581.03
298.19	1492.97
298.41	1492.97
298.62	1478.63
298.83	1609.70
299.05	1554.41
299.26	1490.92
299.48	1484.78
299.69	1638.38
299.90	1521.64
300.12	1495.02
300.33	1581.03
300.55	1519.59
300.76	1564.65
300.98	1509.35
301.19	1587.18
301.40	1568.74
301.62	1501.16
301.83	1589.22
302.05	1499.11
302.26	1499.11
302.47	1564.65
302.69	1456.11
302.90	1548.26
303.12	1433.58
303.33	1583.08
303.54	1628.14
303.76	1509.35
303.97	1552.36
304.19	1619.94
304.40	1525.74
304.61	1464.30
304.83	1660.90
305.04	1583.08
305.26	1488.87
305.47	1503.21
305.68	1484.78
305.90	1411.05
306.11	1503.21
306.33	1472.49
306.54	1583.08
306.75	1492.97
306.97	1437.67
307.18	1452.01
307.39	1507.30
307.61	1597.42
307.82	1542.12
308.04	1540.07
308.25	1511.40
308.46	1585.13
308.68	1531.88
308.89	1464.30
309.10	1642.47
309.32	1503.21
309.53	1525.74
309.74	1599.46
309.96	1521.64
310.17	1492.97
310.39	1538.02
310.60	1597.42
310.81	1646.57
311.03	1488.87
311.24	1505.26
311.45	1572.84
311.67	1595.37
311.88	1599.46
312.09	1492.97
312.31	1527.78
312.52	1585.13
312.73	1566.70
312.95	1488.87
313.16	1548.26
313.37	1523.69
313.59	1568.74
313.80	1554.41
314.01	1632.23
314.23	1562.60
314.44	1535.98
314.65	1529.83
314.87	1558.50
315.08	1509.35
315.29	1499.11
315.51	1505.26
315.72	1476.59
315.93	1611.75
316.15	1572.84
316.36	1576.94
316.57	1497.07
316.79	1568.74
317.00	1632.23
317.21	1513.45
317.43	1468.39
317.64	1515.50
317.85	1519.59
318.07	1503.21
318.28	1646.57
318.49	1662.95
318.70	1740.77
318.92	1781.73
319.13	1634.28
319.34	1660.90
319.56	1624.04
319.77	1640.42
319.98	1613.80
320.20	1644.52
320.41	1652.71
320.62	1644.52
320.83	1558.50
321.05	1591.27
321.26	1570.79
321.47	1540.07
321.69	1640.42
321.90	1488.87
322.11	1587.18
322.32	1550.31
322.54	1591.27
322.75	1576.94
322.96	1624.04
323.18	1464.30
323.39	1476.59
323.60	1505.26
323.81	1607.66
324.03	1576.94
324.24	1564.65
324.45	1554.41
324.66	1503.21
324.88	1617.90
325.09	1609.70
325.30	1556.46
325.52	1535.98
325.73	1558.50
325.94	1468.39
326.15	1490.92
326.37	1501.16
326.58	1556.46
326.79	1578.98
327.00	1478.63
327.22	1533.93
327.43	1482.73
327.64	1503.21
327.85	1597.42
328.07	1558.50
328.28	1595.37
328.49	1488.87
328.70	1574.89
328.92	1460.20
329.13	1603.56
329.34	1488.87
329.55	1585.13
329.76	1546.22
329.98	1519.59
330.19	1609.70
330.40	1630.18
330.61	1593.32
330.83	1583.08
331.04	1429.48
331.25	1568.74
331.46	1607.66
331.68	1476.59
331.89	1552.36
332.10	1486.83
332.31	1431.53
332.52	1497.07
332.74	1562.60
332.95	1482.73
333.16	1507.30
333.37	1576.94
333.58	1529.83
333.80	1589.22
334.01	1437.67
334.22	1529.83
334.43	1521.64
334.64	1531.88
334.86	1439.72
335.07	1507.30
335.28	1566.70
335.49	1531.88
335.70	1472.49
335.92	1560.55
336.13	1621.99
336.34	1560.55
336.55	1470.44
336.76	1564.65
336.98	1513.45
337.19	1540.07
337.40	1583.08
337.61	1658.85
337.82	1413.10
338.04	1593.32
338.25	1417.19
338.46	1535.98
338.67	1497.07
338.88	1464.30
339.09	1574.89
339.31	1482.73
339.52	1533.93
339.73	1513.45
339.94	1523.69
340.15	1636.33
340.36	1552.36
340.58	1523.69
340.79	1492.97
341.00	1570.79
341.21	1492.97
341.42	1640.42
341.63	1505.26
341.85	1550.31
342.06	1589.22
342.27	1466.35
342.48	1630.18
342.69	1523.69
342.90	1564.65
343.12	1572.84
343.33	1552.36
343.54	1542.12
343.75	1564.65
343.96	1511.40
344.17	1554.41
344.38	1558.50
344.60	1509.35
344.81	1476.59
345.02	1554.41
345.23	1560.55
345.44	1617.90
345.65	1507.30
345.86	1552.36
346.07	1527.78
346.29	1521.64
346.50	1519.59
346.71	1476.59
346.92	1581.03
347.13	1652.71
347.34	1509.35
347.55	1507.30
347.76	1482.73
347.98	1546.22
348.19	1517.54
348.40	1556.46
348.61	1517.54
348.82	1621.99
349.03	1576.94
349.24	1538.02
349.45	1644.52
349.66	1521.64
349.88	1495.02
350.09	1452.01
350.30	1531.88
350.51	1513.45
350.72	1499.11
350.93	1624.04
351.14	1505.26
351.35	1542.12
351.56	1517.54
351.77	1554.41
351.99	1587.18
352.20	1669.09
352.41	1595.37
352.62	1531.88
352.83	1452.01
353.04	1615.85
353.25	1531.88
353.46	1521.64
353.67	1587.18
353.88	1456.11
354.09	1550.31
354.30	1531.88
354.52	1482.73
354.73	1665.00
354.94	1546.22
355.15	1540.07
355.36	1599.46
355.57	1542.12
355.78	1562.60
355.99	1517.54
356.20	1486.83
356.41	1558.50
356.62	1501.16
356.83	1505.26
357.04	1593.32
357.25	1540.07
357.46	1484.78
357.68	1513.45
357.89	1562.60
358.10	1527.78
358.31	1527.78
358.52	1560.55
358.73	1427.43
358.94	1538.02
359.15	1495.02
359.36	1589.22
359.57	1576.94
359.78	1466.35
359.99	1574.89
360.20	1570.79
360.41	1540.07
360.62	1513.45
360.83	1589.22
361.04	1544.17
361.25	1542.12
361.46	1624.04
361.67	1515.50
361.88	1595.37
362.09	1505.26
362.30	1574.89
362.51	1490.92
362.72	1581.03
362.93	1527.78
363.14	1667.05
363.35	1591.27
363.56	1484.78
363.78	1583.08
363.99	1558.50
364.20	1521.64
364.41	1578.98
364.62	1638.38
364.83	1501.16
365.04	1501.16
365.25	1570.79
365.46	1578.98
365.67	1472.49
365.88	1472.49
366.09	1533.93
366.30	1452.01
366.51	1556.46
366.72	1509.35
366.93	1578.98
367.14	1525.74
367.35	1597.42
367.56	1523.69
367.77	1650.66
367.98	1548.26
368.18	1527.78
368.39	1570.79
368.60	1521.64
368.81	1615.85
369.02	1578.98
369.23	1587.18
369.44	1456.11
369.65	1501.16
369.86	1574.89
370.07	1581.03
370.28	1482.73
370.49	1613.80
370.70	1533.93
370.91	1521.64
371.12	1484.78
371.33	1601.51
371.54	1478.63
371.75	1615.85
371.96	1454.06
372.17	1568.74
372.38	1548.26
372.59	1609.70
372.80	1609.70
373.01	1546.22
373.22	1525.74
373.43	1519.59
373.64	1578.98
373.85	1533.93
374.06	1626.09
374.26	1570.79
374.47	1527.78
374.68	1671.14
374.89	1480.68
375.10	1497.07
375.31	1484.78
375.52	1538.02
375.73	1554.41
375.94	1544.17
376.15	1605.61
376.36	1454.06
376.57	1576.94
376.78	1574.89
376.99	1535.98
377.20	1607.66
377.40	1425.39
377.61	1597.42
377.82	1533.93
378.03	1578.98
378.24	1587.18
378.45	1531.88
378.66	1554.41
378.87	1400.81
379.08	1527.78
379.29	1535.98
379.50	1656.81
379.71	1556.46
379.91	1560.55
380.12	1544.17
380.33	1572.84
380.54	1499.11
380.75	1521.64
380.96	1523.69
381.17	1607.66
381.38	1597.42
381.59	1626.09
381.80	1560.55
382.00	1648.61
382.21	1578.98
382.42	1701.86
382.63	1638.38
382.84	1521.64
383.05	1581.03
383.26	1599.46
383.47	1581.03
383.68	1574.89
383.88	1646.57
384.09	1576.94
384.30	1669.09
384.51	1581.03
384.72	1552.36
384.93	1495.02
385.14	1574.89
385.35	1652.71
385.55	1472.49
385.76	1648.61
385.97	1535.98
386.18	1558.50
386.39	1478.63
386.60	1578.98
386.81	1566.70
387.02	1552.36
387.22	1480.68
387.43	1677.29
387.64	1767.40
387.85	1767.40
388.06	3117.01
388.27	7253.91
388.48	10479.46
388.68	12121.93
388.89	13893.42
389.10	12803.90
389.31	9983.85
389.52	8769.40
389.73	7741.32
389.93	7337.87
390.14	6750.10
390.35	6115.23
390.56	5400.49
390.77	4564.92
390.98	3647.43
391.18	2746.33
391.39	2166.75
391.60	1734.63
391.81	1660.90
392.02	1591.27
392.23	1691.62
392.43	1535.98
392.64	1581.03
392.85	1538.02
393.06	1634.28
393.27	1595.37
393.47	1535.98
393.68	1581.03
393.89	1517.54
394.10	1607.66
394.31	1456.11
394.52	1583.08
394.72	1576.94
394.93	1615.85
395.14	1482.73
395.35	1556.46
395.56	1505.26
395.76	1570.79
395.97	1650.66
396.18	1685.48
396.39	1767.40
396.60	1964.00
396.80	1728.49
397.01	1632.23
397.22	1685.48
397.43	1617.90
397.64	1544.17
397.84	1654.76
398.05	1730.53
398.26	1585.13
398.47	1585.13
398.67	1697.77
398.88	1540.07
399.09	1576.94
399.30	1593.32
399.51	1634.28
399.71	1488.87
399.92	1581.03
400.13	1519.59
400.34	1509.35
400.54	1585.13
400.75	1665.00
400.96	1587.18
401.17	1613.80
401.37	1562.60
401.58	1511.40
401.79	1665.00
402.00	1822.69
402.21	1898.47
402.41	1941.47
402.62	1943.52
402.83	1988.58
403.04	1931.23
403.24	1914.85
403.45	1691.62
403.66	1834.98
403.87	1681.38
404.07	1665.00
404.28	1751.01
404.49	1714.15
404.70	1591.27
404.90	1628.14
405.11	1548.26
405.32	1591.27
405.52	1507.30
405.73	1554.41
405.94	1519.59
406.15	1566.70
406.35	1509.35
406.56	1470.44
406.77	1548.26
406.98	1570.79
407.18	1490.92
407.39	1585.13
407.60	1546.22
407.80	1603.56
408.01	1544.17
408.22	1589.22
408.43	1415.15
408.63	1546.22
408.84	1511.40
409.05	1578.98
409.25	1517.54
409.46	1476.59
409.67	1519.59
409.88	1509.35
410.08	1615.85
410.29	1488.87
410.50	1566.70
410.70	1529.83
410.91	1484.78
411.12	1546.22
411.32	1568.74
411.53	1576.94
411.74	1654.76
411.95	1632.23
412.15	1593.32
412.36	1644.52
412.57	1570.79
412.77	1638.38
412.98	1636.33
413.19	1519.59
413.39	1562.60
413.60	1527.78
413.81	1642.47
414.01	1484.78
414.22	1578.98
414.43	1556.46
414.63	1525.74
414.84	1527.78
415.05	1513.45
415.25	1480.68
415.46	1603.56
415.67	1523.69
415.87	1538.02
416.08	1665.00
416.29	1472.49
416.49	1566.70
416.70	1511.40
416.91	1556.46
417.11	1550.31
417.32	1601.51
417.53	1550.31
417.73	1499.11
417.94	1583.08
418.15	1560.55
418.35	1576.94
418.56	1611.75
418.77	1601.51
418.97	1558.50
419.18	1499.11
419.38	1419.24
419.59	1560.55
419.80	1613.80
420.00	1515.50
420.21	1552.36
420.42	1558.50
420.62	1560.55
420.83	1423.34
421.04	1535.98
421.24	1540.07
421.45	1576.94
421.65	1583.08
421.86	1525.74
422.07	1492.97
422.27	1515.50
422.48	1548.26
422.69	1505.26
422.89	1560.55
423.10	1499.11
423.30	1488.87
423.51	1517.54
423.72	1564.65
423.92	1523.69
424.13	1449.96
424.33	1558.50
424.54	1638.38
424.75	1529.83
424.95	1576.94
425.16	1503.21
425.36	1525.74
425.57	1556.46
425.78	1531.88
425.98	1546.22
426.19	1513.45
426.39	1454.06
426.60	1548.26
426.81	1638.38
427.01	1480.68
427.22	1495.02
427.42	1509.35
427.63	1531.88
427.83	1503.21
428.04	1632.23
428.25	1656.81
428.45	1593.32
428.66	1535.98
428.86	1601.51
429.07	1507.30
429.28	1562.60
429.48	1472.49
429.69	1503.21
429.89	1560.55
430.10	1492.97
430.30	1558.50
430.51	1636.33
430.71	1484.78
430.92	1552.36
431.13	1495.02
431.33	1656.81
431.54	1533.93
431.74	1589.22
431.95	1619.94
432.15	1542.12
432.36	1572.84
432.56	1527.78
432.77	1628.14
432.98	1578.98
433.18	1550.31
433.39	1550.31
433.59	1531.88
433.80	1669.09
434.00	1714.15
434.21	1529.83
434.41	1509.35
434.62	1691.62
434.82	1456.11
435.03	1533.93
435.23	1486.83
435.44	1462.25
435.64	1538.02
435.85	1630.18
436.06	1589.22
436.26	1521.64
436.47	1591.27
436.67	1501.16
436.88	1535.98
437.08	1568.74
437.29	1617.90
437.49	1583.08
437.70	1603.56
437.90	1560.55
438.11	1685.48
438.31	1699.81
438.52	1753.06
438.72	1726.44
438.93	1771.49
439.13	1648.61
439.34	1554.41
439.54	1548.26
439.75	1687.53
439.95	1673.19
440.16	1517.54
440.36	1624.04
440.57	1593.32
440.77	1587.18
440.98	1652.71
441.18	1607.66
441.39	1552.36
441.59	1497.07
441.80	1597.42
442.00	1535.98
442.21	1589.22
442.41	1449.96
442.62	1591.27
442.82	1542.12
443.02	1597.42
443.23	1566.70
443.43	1558.50
443.64	1667.05
443.84	1529.83
444.05	1603.56
444.25	1607.66
444.46	1521.64
444.66	1523.69
444.87	1626.09
445.07	1546.22
445.28	1624.04
445.48	1679.33
445.69	1544.17
445.89	1599.46
446.09	1640.42
446.30	1964.00
446.50	3117.01
446.71	4347.84
446.91	5312.43
447.12	5689.26
447.32	5468.08
447.53	4601.79
447.73	4126.66
447.93	3647.43
448.14	3364.81
448.34	3276.75
448.55	2869.20
448.75	2908.12
448.96	2617.30
449.16	2445.27
449.36	2263.01
449.57	1974.24
449.77	1775.59
449.98	1640.42
450.18	1566.70
450.39	1621.99
450.59	1542.12
450.79	1523.69
451.00	1609.70
451.20	1615.85
451.41	1511.40
451.61	1495.02
451.81	1519.59
452.02	1501.16
452.22	1540.07
452.43	1495.02
452.63	1552.36
