SpectraSuite Data File
++++++++++++++++++++++++++++++++++++
Date: Tue May 03 12:55:42 CEST 2016
User: root
Dark Spectrum Present: No
Reference Spectrum Present: No
Number of Sampled Component Spectra: 1
Spectrometers: USB4C02835
Integration Time (usec): 100000 (USB4C02835)
Spectra Averaged: 1 (USB4C02835)
Boxcar Smoothing: 0 (USB4C02835)
Correct for Electrical Dark: No (USB4C02835)
Strobe/Lamp Enabled: No (USB4C02835)
Correct for Detector Non-linearity: No (USB4C02835)
Correct for Stray Light: No (USB4C02835)
Number of Pixels in Processed Spectrum: 3648
>>>>>Begin Processed Spectral Data<<<<<
177.47	1366.00
177.69	1366.00
177.91	1366.00
178.13	1363.95
178.36	1327.08
178.58	1474.54
178.80	1621.99
179.02	1558.50
179.24	1525.74
179.46	1554.41
179.68	1607.66
179.90	1501.16
180.13	1519.59
180.35	1443.82
180.57	1540.07
180.79	1583.08
181.01	1470.44
181.23	1538.02
181.45	1562.60
181.67	1513.45
181.90	1566.70
182.12	1464.30
182.34	1566.70
182.56	1562.60
182.78	1574.89
183.00	1435.63
183.22	1497.07
183.44	1441.77
183.66	1689.57
183.89	1548.26
184.11	1499.11
184.33	1507.30
184.55	1581.03
184.77	1603.56
184.99	1572.84
185.21	1478.63
185.43	1546.22
185.65	1548.26
185.87	1529.83
186.10	1652.71
186.32	1638.38
186.54	1630.18
186.76	1638.38
186.98	1581.03
187.20	1505.26
187.42	1662.95
187.64	1517.54
187.86	1533.93
188.08	1564.65
188.30	1542.12
188.52	1525.74
188.75	1566.70
188.97	1589.22
189.19	1452.01
189.41	1503.21
189.63	1499.11
189.85	1505.26
190.07	1452.01
190.29	1519.59
190.51	1560.55
190.73	1462.25
190.95	1626.09
191.17	1519.59
191.39	1556.46
191.61	1587.18
191.84	1427.43
192.06	1513.45
192.28	1521.64
192.50	1656.81
192.72	1521.64
192.94	1527.78
193.16	1554.41
193.38	1533.93
193.60	1517.54
193.82	1533.93
194.04	1599.46
194.26	1585.13
194.48	1523.69
194.70	1492.97
194.92	1501.16
195.14	1548.26
195.36	1478.63
195.58	1585.13
195.80	1531.88
196.02	1495.02
196.24	1558.50
196.46	1624.04
196.69	1527.78
196.91	1650.66
197.13	1634.28
197.35	1531.88
197.57	1593.32
197.79	1603.56
198.01	1568.74
198.23	1519.59
198.45	1476.59
198.67	1538.02
198.89	1595.37
199.11	1519.59
199.33	1511.40
199.55	1476.59
199.77	1533.93
199.99	1603.56
200.21	1552.36
200.43	1570.79
200.65	1488.87
200.87	1417.19
201.09	1544.17
201.31	1474.54
201.53	1576.94
201.75	1593.32
201.97	1566.70
202.19	1515.50
202.41	1585.13
202.63	1677.29
202.85	1576.94
203.07	1535.98
203.29	1562.60
203.51	1482.73
203.73	1527.78
203.95	1683.43
204.17	1568.74
204.39	1605.61
204.61	1468.39
204.83	1601.51
205.05	1595.37
205.27	1533.93
205.49	1609.70
205.71	1585.13
205.93	1503.21
206.15	1554.41
206.37	1570.79
206.59	1574.89
206.81	1445.87
207.03	1535.98
207.25	1437.67
207.47	1632.23
207.69	1509.35
207.91	1574.89
208.13	1578.98
208.34	1447.91
208.56	1486.83
208.78	1566.70
209.00	1525.74
209.22	1513.45
209.44	1538.02
209.66	1515.50
209.88	1570.79
210.10	1519.59
210.32	1505.26
210.54	1593.32
210.76	1517.54
210.98	1603.56
211.20	1509.35
211.42	1540.07
211.64	1581.03
211.86	1525.74
212.08	1548.26
212.30	1525.74
212.52	1529.83
212.74	1544.17
212.96	1562.60
213.17	1613.80
213.39	1593.32
213.61	1619.94
213.83	1589.22
214.05	1472.49
214.27	1570.79
214.49	1404.91
214.71	1535.98
214.93	1589.22
215.15	1546.22
215.37	1611.75
215.59	1462.25
215.81	1505.26
216.03	1581.03
216.24	1505.26
216.46	1538.02
216.68	1542.12
216.90	1548.26
217.12	1554.41
217.34	1568.74
217.56	1531.88
217.78	1554.41
218.00	1603.56
218.22	1513.45
218.44	1476.59
218.66	1576.94
218.87	1634.28
219.09	1550.31
219.31	1535.98
219.53	1560.55
219.75	1505.26
219.97	1607.66
220.19	1576.94
220.41	1572.84
220.63	1648.61
220.85	1533.93
221.06	1531.88
221.28	1572.84
221.50	1564.65
221.72	1550.31
221.94	1650.66
222.16	1525.74
222.38	1646.57
222.60	1589.22
222.82	1513.45
223.03	1554.41
223.25	1464.30
223.47	1587.18
223.69	1658.85
223.91	1519.59
224.13	1484.78
224.35	1445.87
224.57	1593.32
224.78	1527.78
225.00	1486.83
225.22	1511.40
225.44	1617.90
225.66	1611.75
225.88	1497.07
226.10	1531.88
226.32	1560.55
226.53	1603.56
226.75	1538.02
226.97	1560.55
227.19	1544.17
227.41	1583.08
227.63	1570.79
227.85	1441.77
228.06	1531.88
228.28	1404.91
228.50	1660.90
228.72	1501.16
228.94	1554.41
229.16	1456.11
229.37	1511.40
229.59	1538.02
229.81	1593.32
230.03	1562.60
230.25	1505.26
230.47	1509.35
230.69	1445.87
230.90	1566.70
231.12	1488.87
231.34	1533.93
231.56	1576.94
231.78	1521.64
232.00	1589.22
232.21	1492.97
232.43	1495.02
232.65	1427.43
232.87	1560.55
233.09	1556.46
233.30	1462.25
233.52	1511.40
233.74	1548.26
233.96	1560.55
234.18	1617.90
234.40	1621.99
234.61	1642.47
234.83	1538.02
235.05	1488.87
235.27	1671.14
235.49	1591.27
235.70	1656.81
235.92	1662.95
236.14	1548.26
236.36	1644.52
236.58	1529.83
236.79	1613.80
237.01	1560.55
237.23	1560.55
237.45	1640.42
237.67	1501.16
237.88	1519.59
238.10	1558.50
238.32	1517.54
238.54	1478.63
238.76	1447.91
238.97	1544.17
239.19	1538.02
239.41	1628.14
239.63	1624.04
239.85	1521.64
240.06	1503.21
240.28	1527.78
240.50	1603.56
240.72	1572.84
240.93	1484.78
241.15	1607.66
241.37	1519.59
241.59	1640.42
241.81	1576.94
242.02	1540.07
242.24	1501.16
242.46	1570.79
242.68	1550.31
242.89	1607.66
243.11	1667.05
243.33	1484.78
243.55	1593.32
243.76	1576.94
243.98	1533.93
244.20	1533.93
244.42	1558.50
244.64	1486.83
244.85	1515.50
245.07	1478.63
245.29	1550.31
245.51	1538.02
245.72	1544.17
245.94	1488.87
246.16	1476.59
246.38	1564.65
246.59	1525.74
246.81	1509.35
247.03	1488.87
247.24	1425.39
247.46	1574.89
247.68	1497.07
247.90	1542.12
248.11	1503.21
248.33	1566.70
248.55	1544.17
248.77	1540.07
248.98	1548.26
249.20	1673.19
249.42	1517.54
249.64	1587.18
249.85	1533.93
250.07	1499.11
250.29	1548.26
250.50	1558.50
250.72	1449.96
250.94	1535.98
251.16	1576.94
251.37	1636.33
251.59	1484.78
251.81	1517.54
252.02	1607.66
252.24	1560.55
252.46	1591.27
252.68	1495.02
252.89	1533.93
253.11	1447.91
253.33	1564.65
253.54	1617.90
253.76	1406.95
253.98	1556.46
254.20	1587.18
254.41	1456.11
254.63	1533.93
254.85	1507.30
255.06	1505.26
255.28	1574.89
255.50	1476.59
255.71	1521.64
255.93	1507.30
256.15	1576.94
256.36	1617.90
256.58	1562.60
256.80	1603.56
257.02	1531.88
257.23	1605.61
257.45	1517.54
257.67	1533.93
257.88	1531.88
258.10	1624.04
258.32	1529.83
258.53	1517.54
258.75	1591.27
258.97	1517.54
259.18	1515.50
259.40	1558.50
259.62	1587.18
259.83	1546.22
260.05	1691.62
260.27	1763.30
260.48	1538.02
260.70	1490.92
260.92	1562.60
261.13	1585.13
261.35	1607.66
261.57	1548.26
261.78	1468.39
262.00	1523.69
262.22	1513.45
262.43	1439.72
262.65	1548.26
262.86	1558.50
263.08	1583.08
263.30	1525.74
263.51	1474.54
263.73	1523.69
263.95	1570.79
264.16	1544.17
264.38	1535.98
264.60	1535.98
264.81	1540.07
265.03	1519.59
265.25	1509.35
265.46	1568.74
265.68	1605.61
265.89	1499.11
266.11	1527.78
266.33	1566.70
266.54	1570.79
266.76	1576.94
266.98	1540.07
267.19	1570.79
267.41	1564.65
267.62	1486.83
267.84	1468.39
268.06	1583.08
268.27	1474.54
268.49	1583.08
268.70	1546.22
268.92	1503.21
269.14	1515.50
269.35	1431.53
269.57	1505.26
269.79	1542.12
270.00	1517.54
270.22	1609.70
270.43	1449.96
270.65	1458.15
270.87	1478.63
271.08	1554.41
271.30	1550.31
271.51	1576.94
271.73	1538.02
271.95	1646.57
272.16	1527.78
272.38	1523.69
272.59	1554.41
272.81	1521.64
273.02	1476.59
273.24	1611.75
273.46	1609.70
273.67	1505.26
273.89	1472.49
274.10	1466.35
274.32	1499.11
274.54	1570.79
274.75	1552.36
274.97	1458.15
275.18	1570.79
275.40	1566.70
275.61	1554.41
275.83	1599.46
276.05	1499.11
276.26	1562.60
276.48	1624.04
276.69	1576.94
276.91	1497.07
277.12	1626.09
277.34	1535.98
277.55	1576.94
277.77	1560.55
277.99	1419.24
278.20	1576.94
278.42	1464.30
278.63	1531.88
278.85	1556.46
279.06	1472.49
279.28	1509.35
279.49	1603.56
279.71	1611.75
279.93	1566.70
280.14	1578.98
280.36	1501.16
280.57	1617.90
280.79	1603.56
281.00	1480.68
281.22	1564.65
281.43	1521.64
281.65	1439.72
281.86	1478.63
282.08	1488.87
282.29	1591.27
282.51	1540.07
282.73	1488.87
282.94	1476.59
283.16	1558.50
283.37	1540.07
283.59	1521.64
283.80	1544.17
284.02	1517.54
284.23	1611.75
284.45	1484.78
284.66	1454.06
284.88	1439.72
285.09	1578.98
285.31	1583.08
285.52	1476.59
285.74	1497.07
285.95	1576.94
286.17	1560.55
286.38	1595.37
286.60	1517.54
286.81	1554.41
287.03	1507.30
287.24	1507.30
287.46	1607.66
287.67	1488.87
287.89	1585.13
288.10	1570.79
288.32	1488.87
288.53	1597.42
288.75	1583.08
288.96	1648.61
289.18	1456.11
289.39	1523.69
289.61	1538.02
289.82	1624.04
290.04	1662.95
290.25	1558.50
290.47	1550.31
290.68	1550.31
290.90	1640.42
291.11	1460.20
291.33	1548.26
291.54	1540.07
291.76	1521.64
291.97	1495.02
292.18	1540.07
292.40	1515.50
292.61	1468.39
292.83	1595.37
293.04	1552.36
293.26	1546.22
293.47	1544.17
293.69	1435.63
293.90	1578.98
294.12	1550.31
294.33	1568.74
294.55	1552.36
294.76	1621.99
294.97	1597.42
295.19	1693.67
295.40	1607.66
295.62	1521.64
295.83	1560.55
296.05	1525.74
296.26	1562.60
296.48	1525.74
296.69	1566.70
296.90	1558.50
297.12	1548.26
297.33	1597.42
297.55	1488.87
297.76	1583.08
297.98	1566.70
298.19	1535.98
298.41	1538.02
298.62	1452.01
298.83	1558.50
299.05	1585.13
299.26	1511.40
299.48	1431.53
299.69	1525.74
299.90	1556.46
300.12	1513.45
300.33	1589.22
300.55	1529.83
300.76	1531.88
300.98	1449.96
301.19	1597.42
301.40	1501.16
301.62	1519.59
301.83	1574.89
302.05	1572.84
302.26	1527.78
302.47	1503.21
302.69	1486.83
302.90	1523.69
303.12	1454.06
303.33	1593.32
303.54	1689.57
303.76	1515.50
303.97	1535.98
304.19	1521.64
304.40	1515.50
304.61	1591.27
304.83	1591.27
305.04	1593.32
305.26	1587.18
305.47	1476.59
305.68	1509.35
305.90	1421.29
306.11	1574.89
306.33	1564.65
306.54	1574.89
306.75	1454.06
306.97	1466.35
307.18	1404.91
307.39	1452.01
307.61	1554.41
307.82	1513.45
308.04	1562.60
308.25	1464.30
308.46	1527.78
308.68	1515.50
308.89	1529.83
309.10	1538.02
309.32	1535.98
309.53	1492.97
309.74	1505.26
309.96	1548.26
310.17	1564.65
310.39	1538.02
310.60	1591.27
310.81	1505.26
311.03	1507.30
311.24	1613.80
311.45	1492.97
311.67	1621.99
311.88	1503.21
312.09	1517.54
312.31	1540.07
312.52	1599.46
312.73	1568.74
312.95	1492.97
313.16	1495.02
313.37	1544.17
313.59	1509.35
313.80	1587.18
314.01	1568.74
314.23	1531.88
314.44	1468.39
314.65	1456.11
314.87	1456.11
315.08	1583.08
315.29	1507.30
315.51	1464.30
315.72	1509.35
315.93	1599.46
316.15	1593.32
316.36	1546.22
316.57	1497.07
316.79	1525.74
317.00	1468.39
317.21	1576.94
317.43	1548.26
317.64	1562.60
317.85	1499.11
318.07	1544.17
318.28	1609.70
318.49	1703.91
318.70	1816.55
318.92	1683.43
319.13	1734.63
319.34	1757.16
319.56	1705.96
319.77	1703.91
319.98	1675.24
320.20	1656.81
320.41	1576.94
320.62	1548.26
320.83	1556.46
321.05	1597.42
321.26	1560.55
321.47	1529.83
321.69	1613.80
321.90	1439.72
322.11	1540.07
322.32	1552.36
322.54	1619.94
322.75	1433.58
322.96	1615.85
323.18	1509.35
323.39	1380.33
323.60	1527.78
323.81	1677.29
324.03	1433.58
324.24	1519.59
324.45	1564.65
324.66	1523.69
324.88	1583.08
325.09	1603.56
325.30	1533.93
325.52	1593.32
325.73	1601.51
325.94	1486.83
326.15	1572.84
326.37	1535.98
326.58	1650.66
326.79	1581.03
327.00	1515.50
327.22	1517.54
327.43	1581.03
327.64	1443.82
327.85	1572.84
328.07	1646.57
328.28	1593.32
328.49	1503.21
328.70	1527.78
328.92	1535.98
329.13	1560.55
329.34	1611.75
329.55	1632.23
329.76	1591.27
329.98	1437.67
330.19	1603.56
330.40	1581.03
330.61	1550.31
330.83	1621.99
331.04	1454.06
331.25	1576.94
331.46	1507.30
331.68	1398.76
331.89	1595.37
332.10	1531.88
332.31	1517.54
332.52	1574.89
332.74	1599.46
332.95	1507.30
333.16	1552.36
333.37	1572.84
333.58	1538.02
333.80	1564.65
334.01	1476.59
334.22	1474.54
334.43	1501.16
334.64	1533.93
334.86	1488.87
335.07	1492.97
335.28	1533.93
335.49	1492.97
335.70	1513.45
335.92	1576.94
336.13	1671.14
336.34	1554.41
336.55	1562.60
336.76	1548.26
336.98	1511.40
337.19	1513.45
337.40	1619.94
337.61	1574.89
337.82	1576.94
338.04	1531.88
338.25	1449.96
338.46	1505.26
338.67	1578.98
338.88	1552.36
339.09	1478.63
339.31	1624.04
339.52	1544.17
339.73	1437.67
339.94	1646.57
340.15	1519.59
340.36	1564.65
340.58	1523.69
340.79	1535.98
341.00	1562.60
341.21	1568.74
341.42	1578.98
341.63	1501.16
341.85	1523.69
342.06	1542.12
342.27	1503.21
342.48	1550.31
342.69	1478.63
342.90	1589.22
343.12	1599.46
343.33	1523.69
343.54	1591.27
343.75	1570.79
343.96	1550.31
344.17	1462.25
344.38	1550.31
344.60	1554.41
344.81	1458.15
345.02	1468.39
345.23	1570.79
345.44	1656.81
345.65	1437.67
345.86	1558.50
346.07	1503.21
346.29	1556.46
346.50	1585.13
346.71	1509.35
346.92	1603.56
347.13	1650.66
347.34	1492.97
347.55	1542.12
347.76	1497.07
347.98	1548.26
348.19	1525.74
348.40	1609.70
348.61	1519.59
348.82	1654.76
349.03	1572.84
349.24	1544.17
349.45	1652.71
349.66	1476.59
349.88	1548.26
350.09	1505.26
350.30	1566.70
350.51	1533.93
350.72	1628.14
350.93	1566.70
351.14	1509.35
351.35	1581.03
351.56	1591.27
351.77	1554.41
351.99	1527.78
352.20	1589.22
352.41	1617.90
352.62	1497.07
352.83	1583.08
353.04	1566.70
353.25	1507.30
353.46	1546.22
353.67	1554.41
353.88	1460.20
354.09	1589.22
354.30	1503.21
354.52	1609.70
354.73	1505.26
354.94	1490.92
355.15	1591.27
355.36	1656.81
355.57	1581.03
355.78	1548.26
355.99	1515.50
356.20	1517.54
356.41	1538.02
356.62	1538.02
356.83	1519.59
357.04	1542.12
357.25	1460.20
357.46	1562.60
357.68	1509.35
357.89	1478.63
358.10	1490.92
358.31	1593.32
358.52	1515.50
358.73	1470.44
358.94	1421.29
359.15	1511.40
359.36	1646.57
359.57	1548.26
359.78	1452.01
359.99	1566.70
360.20	1443.82
360.41	1548.26
360.62	1578.98
360.83	1527.78
361.04	1564.65
361.25	1591.27
361.46	1613.80
361.67	1599.46
361.88	1615.85
362.09	1589.22
362.30	1486.83
362.51	1552.36
362.72	1587.18
362.93	1556.46
363.14	1562.60
363.35	1601.51
363.56	1439.72
363.78	1538.02
363.99	1630.18
364.20	1460.20
364.41	1548.26
364.62	1583.08
364.83	1546.22
365.04	1511.40
365.25	1505.26
365.46	1724.39
365.67	1478.63
365.88	1456.11
366.09	1521.64
366.30	1474.54
366.51	1517.54
366.72	1488.87
366.93	1531.88
367.14	1531.88
367.35	1568.74
367.56	1544.17
367.77	1566.70
367.98	1538.02
368.18	1527.78
368.39	1609.70
368.60	1443.82
368.81	1599.46
369.02	1476.59
369.23	1515.50
369.44	1486.83
369.65	1562.60
369.86	1550.31
370.07	1660.90
370.28	1449.96
370.49	1572.84
370.70	1566.70
370.91	1503.21
371.12	1527.78
371.33	1548.26
371.54	1533.93
371.75	1656.81
371.96	1400.81
372.17	1519.59
372.38	1517.54
372.59	1599.46
372.80	1505.26
373.01	1441.77
373.22	1523.69
373.43	1640.42
373.64	1415.15
373.85	1595.37
374.06	1560.55
374.26	1605.61
374.47	1533.93
374.68	1601.51
374.89	1570.79
375.10	1523.69
375.31	1605.61
375.52	1562.60
375.73	1572.84
375.94	1486.83
376.15	1576.94
376.36	1468.39
376.57	1484.78
376.78	1497.07
376.99	1509.35
377.20	1685.48
377.40	1486.83
377.61	1599.46
377.82	1515.50
378.03	1560.55
378.24	1556.46
378.45	1486.83
378.66	1564.65
378.87	1484.78
379.08	1519.59
379.29	1564.65
379.50	1624.04
379.71	1544.17
379.91	1591.27
380.12	1476.59
380.33	1535.98
380.54	1597.42
380.75	1538.02
380.96	1505.26
381.17	1564.65
381.38	1533.93
381.59	1517.54
381.80	1597.42
382.00	1640.42
382.21	1558.50
382.42	1628.14
382.63	1738.73
382.84	1576.94
383.05	1581.03
383.26	1570.79
383.47	1576.94
383.68	1585.13
383.88	1552.36
384.09	1501.16
384.30	1650.66
384.51	1566.70
384.72	1460.20
384.93	1558.50
385.14	1531.88
385.35	1671.14
385.55	1495.02
385.76	1566.70
385.97	1515.50
386.18	1531.88
386.39	1501.16
386.60	1511.40
386.81	1523.69
387.02	1497.07
387.22	1548.26
387.43	1587.18
387.64	1634.28
387.85	1877.99
388.06	3098.58
388.27	7212.95
388.48	10547.04
388.68	12640.06
388.89	13889.32
389.10	12916.54
389.31	10209.12
389.52	8980.34
389.73	7901.06
389.93	7128.98
390.14	6719.39
390.35	6115.23
390.56	5588.91
390.77	4622.27
390.98	3624.90
391.18	2756.57
391.39	2228.19
391.60	1822.69
391.81	1652.71
392.02	1529.83
392.23	1669.09
392.43	1574.89
392.64	1669.09
392.85	1542.12
393.06	1568.74
393.27	1542.12
393.47	1515.50
393.68	1542.12
393.89	1599.46
394.10	1511.40
394.31	1544.17
394.52	1488.87
394.72	1583.08
394.93	1599.46
395.14	1515.50
395.35	1552.36
395.56	1562.60
395.76	1615.85
395.97	1679.33
396.18	1679.33
396.39	1759.21
396.60	1933.28
396.80	1738.73
397.01	1718.25
397.22	1687.53
397.43	1665.00
397.64	1585.13
397.84	1621.99
398.05	1648.61
398.26	1624.04
398.47	1648.61
398.67	1617.90
398.88	1574.89
399.09	1566.70
399.30	1533.93
399.51	1607.66
399.71	1519.59
399.92	1525.74
400.13	1533.93
400.34	1540.07
400.54	1505.26
400.75	1613.80
400.96	1531.88
401.17	1587.18
401.37	1591.27
401.58	1525.74
401.79	1662.95
402.00	1818.60
402.21	1994.72
402.41	1875.94
402.62	1869.80
402.83	1951.71
403.04	1802.21
403.24	1902.56
403.45	1691.62
403.66	1734.63
403.87	1734.63
404.07	1701.86
404.28	1783.78
404.49	1695.72
404.70	1677.29
404.90	1650.66
405.11	1650.66
405.32	1519.59
405.52	1597.42
405.73	1511.40
405.94	1495.02
406.15	1550.31
406.35	1531.88
406.56	1693.67
406.77	1535.98
406.98	1538.02
407.18	1507.30
407.39	1531.88
407.60	1476.59
407.80	1517.54
408.01	1523.69
408.22	1552.36
408.43	1490.92
408.63	1585.13
408.84	1585.13
409.05	1607.66
409.25	1495.02
409.46	1443.82
409.67	1480.68
409.88	1548.26
410.08	1591.27
410.29	1513.45
410.50	1570.79
410.70	1497.07
410.91	1527.78
411.12	1533.93
411.32	1621.99
411.53	1550.31
411.74	1710.05
411.95	1640.42
412.15	1621.99
412.36	1593.32
412.57	1533.93
412.77	1652.71
412.98	1548.26
413.19	1662.95
413.39	1546.22
413.60	1527.78
413.81	1644.52
414.01	1525.74
414.22	1603.56
414.43	1576.94
414.63	1540.07
414.84	1626.09
415.05	1521.64
415.25	1464.30
415.46	1581.03
415.67	1470.44
415.87	1603.56
416.08	1558.50
416.29	1480.68
416.49	1644.52
416.70	1472.49
416.91	1533.93
417.11	1564.65
417.32	1652.71
417.53	1552.36
417.73	1587.18
417.94	1654.76
418.15	1578.98
418.35	1578.98
418.56	1540.07
418.77	1640.42
418.97	1550.31
419.18	1540.07
419.38	1390.57
419.59	1560.55
419.80	1650.66
420.00	1452.01
420.21	1583.08
420.42	1574.89
420.62	1527.78
420.83	1474.54
421.04	1472.49
421.24	1562.60
421.45	1619.94
421.65	1535.98
421.86	1548.26
422.07	1566.70
422.27	1552.36
422.48	1564.65
422.69	1476.59
422.89	1581.03
423.10	1535.98
423.30	1529.83
423.51	1521.64
423.72	1556.46
423.92	1593.32
424.13	1558.50
424.33	1460.20
424.54	1581.03
424.75	1617.90
424.95	1605.61
425.16	1523.69
425.36	1468.39
425.57	1593.32
425.78	1576.94
425.98	1599.46
426.19	1460.20
426.39	1517.54
426.60	1558.50
426.81	1566.70
427.01	1548.26
427.22	1525.74
427.42	1462.25
427.63	1566.70
427.83	1595.37
428.04	1560.55
428.25	1636.33
428.45	1562.60
428.66	1576.94
428.86	1484.78
429.07	1533.93
429.28	1574.89
429.48	1482.73
429.69	1515.50
429.89	1445.87
430.10	1431.53
430.30	1540.07
430.51	1615.85
430.71	1484.78
430.92	1519.59
431.13	1472.49
431.33	1546.22
431.54	1572.84
431.74	1572.84
431.95	1566.70
432.15	1566.70
432.36	1538.02
432.56	1601.51
432.77	1578.98
432.98	1628.14
433.18	1595.37
433.39	1484.78
433.59	1574.89
433.80	1656.81
434.00	1621.99
434.21	1540.07
434.41	1517.54
434.62	1699.81
434.82	1519.59
435.03	1501.16
435.23	1548.26
435.44	1478.63
435.64	1581.03
435.85	1497.07
436.06	1570.79
436.26	1572.84
436.47	1568.74
436.67	1560.55
436.88	1624.04
437.08	1634.28
437.29	1570.79
437.49	1566.70
437.70	1509.35
437.90	1585.13
438.11	1626.09
438.31	1597.42
438.52	1746.92
438.72	1726.44
438.93	1738.73
439.13	1574.89
439.34	1712.10
439.54	1544.17
439.75	1632.23
439.95	1535.98
440.16	1505.26
440.36	1576.94
440.57	1591.27
440.77	1654.76
440.98	1626.09
441.18	1603.56
441.39	1482.73
441.59	1482.73
441.80	1599.46
442.00	1634.28
442.21	1617.90
442.41	1517.54
442.62	1581.03
442.82	1525.74
443.02	1488.87
443.23	1525.74
443.43	1525.74
443.64	1587.18
443.84	1501.16
444.05	1624.04
444.25	1578.98
444.46	1562.60
444.66	1570.79
444.87	1630.18
445.07	1474.54
445.28	1533.93
445.48	1624.04
445.69	1636.33
445.89	1638.38
446.09	1556.46
446.30	1996.77
446.50	3108.82
446.71	4513.72
446.91	5164.98
447.12	5746.60
447.32	5429.17
447.53	4655.03
447.73	4057.03
447.93	3598.28
448.14	3291.09
448.34	3215.31
448.55	2926.55
448.75	2908.12
448.96	2736.09
449.16	2492.38
449.36	2322.40
449.57	1984.48
449.77	1740.77
449.98	1656.81
450.18	1654.76
450.39	1572.84
450.59	1578.98
450.79	1533.93
451.00	1509.35
451.20	1619.94
451.41	1529.83
451.61	1630.18
451.81	1525.74
452.02	1495.02
452.22	1474.54
452.43	1556.46
452.63	1488.87
