SpectraSuite Data File
++++++++++++++++++++++++++++++++++++
Date: Tue May 03 12:55:44 CEST 2016
User: root
Dark Spectrum Present: No
Reference Spectrum Present: No
Number of Sampled Component Spectra: 1
Spectrometers: USB4C02835
Integration Time (usec): 100000 (USB4C02835)
Spectra Averaged: 1 (USB4C02835)
Boxcar Smoothing: 0 (USB4C02835)
Correct for Electrical Dark: No (USB4C02835)
Strobe/Lamp Enabled: No (USB4C02835)
Correct for Detector Non-linearity: No (USB4C02835)
Correct for Stray Light: No (USB4C02835)
Number of Pixels in Processed Spectrum: 3648
>>>>>Begin Processed Spectral Data<<<<<
177.47	1265.64
177.69	1265.64
177.91	1265.64
178.13	1345.52
178.36	1325.04
178.58	1519.59
178.80	1507.30
179.02	1484.78
179.24	1474.54
179.46	1480.68
179.68	1562.60
179.90	1505.26
180.13	1562.60
180.35	1535.98
180.57	1544.17
180.79	1519.59
181.01	1505.26
181.23	1624.04
181.45	1523.69
181.67	1556.46
181.90	1568.74
182.12	1533.93
182.34	1433.58
182.56	1581.03
182.78	1581.03
183.00	1472.49
183.22	1517.54
183.44	1472.49
183.66	1574.89
183.89	1599.46
184.11	1550.31
184.33	1591.27
184.55	1581.03
184.77	1564.65
184.99	1544.17
185.21	1513.45
185.43	1640.42
185.65	1497.07
185.87	1495.02
186.10	1570.79
186.32	1652.71
186.54	1488.87
186.76	1538.02
186.98	1615.85
187.20	1533.93
187.42	1486.83
187.64	1615.85
187.86	1597.42
188.08	1605.61
188.30	1523.69
188.52	1533.93
188.75	1538.02
188.97	1511.40
189.19	1533.93
189.41	1611.75
189.63	1609.70
189.85	1521.64
190.07	1443.82
190.29	1503.21
190.51	1533.93
190.73	1427.43
190.95	1578.98
191.17	1558.50
191.39	1505.26
191.61	1495.02
191.84	1431.53
192.06	1597.42
192.28	1464.30
192.50	1689.57
192.72	1525.74
192.94	1519.59
193.16	1531.88
193.38	1587.18
193.60	1488.87
193.82	1497.07
194.04	1599.46
194.26	1544.17
194.48	1503.21
194.70	1509.35
194.92	1550.31
195.14	1581.03
195.36	1515.50
195.58	1535.98
195.80	1513.45
196.02	1511.40
196.24	1466.35
196.46	1581.03
196.69	1570.79
196.91	1687.53
197.13	1572.84
197.35	1525.74
197.57	1535.98
197.79	1454.06
198.01	1546.22
198.23	1566.70
198.45	1665.00
198.67	1533.93
198.89	1583.08
199.11	1576.94
199.33	1462.25
199.55	1466.35
199.77	1478.63
199.99	1566.70
200.21	1593.32
200.43	1535.98
200.65	1441.77
200.87	1497.07
201.09	1503.21
201.31	1468.39
201.53	1597.42
201.75	1458.15
201.97	1570.79
202.19	1576.94
202.41	1613.80
202.63	1574.89
202.85	1554.41
203.07	1552.36
203.29	1490.92
203.51	1497.07
203.73	1456.11
203.95	1734.63
204.17	1525.74
204.39	1603.56
204.61	1413.10
204.83	1480.68
205.05	1607.66
205.27	1533.93
205.49	1601.51
205.71	1546.22
205.93	1482.73
206.15	1474.54
206.37	1521.64
206.59	1531.88
206.81	1542.12
207.03	1509.35
207.25	1482.73
207.47	1570.79
207.69	1495.02
207.91	1533.93
208.13	1441.77
208.34	1449.96
208.56	1515.50
208.78	1599.46
209.00	1470.44
209.22	1531.88
209.44	1515.50
209.66	1531.88
209.88	1529.83
210.10	1460.20
210.32	1439.72
210.54	1593.32
210.76	1566.70
210.98	1607.66
211.20	1447.91
211.42	1548.26
211.64	1548.26
211.86	1540.07
212.08	1650.66
212.30	1624.04
212.52	1583.08
212.74	1550.31
212.96	1566.70
213.17	1597.42
213.39	1464.30
213.61	1525.74
213.83	1568.74
214.05	1490.92
214.27	1599.46
214.49	1488.87
214.71	1509.35
214.93	1517.54
215.15	1585.13
215.37	1568.74
215.59	1431.53
215.81	1503.21
216.03	1652.71
216.24	1615.85
216.46	1497.07
216.68	1529.83
216.90	1531.88
217.12	1583.08
217.34	1523.69
217.56	1486.83
217.78	1613.80
218.00	1542.12
218.22	1515.50
218.44	1595.37
218.66	1490.92
218.87	1621.99
219.09	1435.63
219.31	1533.93
219.53	1626.09
219.75	1562.60
219.97	1488.87
220.19	1587.18
220.41	1476.59
220.63	1572.84
220.85	1480.68
221.06	1468.39
221.28	1595.37
221.50	1533.93
221.72	1603.56
221.94	1558.50
222.16	1593.32
222.38	1603.56
222.60	1634.28
222.82	1519.59
223.03	1583.08
223.25	1556.46
223.47	1538.02
223.69	1642.47
223.91	1521.64
224.13	1632.23
224.35	1546.22
224.57	1568.74
224.78	1585.13
225.00	1406.95
225.22	1544.17
225.44	1505.26
225.66	1544.17
225.88	1527.78
226.10	1478.63
226.32	1626.09
226.53	1613.80
226.75	1515.50
226.97	1507.30
227.19	1523.69
227.41	1476.59
227.63	1507.30
227.85	1480.68
228.06	1624.04
228.28	1517.54
228.50	1636.33
228.72	1484.78
228.94	1437.67
229.16	1456.11
229.37	1488.87
229.59	1466.35
229.81	1601.51
230.03	1503.21
230.25	1505.26
230.47	1501.16
230.69	1464.30
230.90	1527.78
231.12	1497.07
231.34	1542.12
231.56	1576.94
231.78	1505.26
232.00	1521.64
232.21	1495.02
232.43	1472.49
232.65	1386.47
232.87	1550.31
233.09	1521.64
233.30	1546.22
233.52	1544.17
233.74	1542.12
233.96	1568.74
234.18	1542.12
234.40	1505.26
234.61	1632.23
234.83	1425.39
235.05	1511.40
235.27	1652.71
235.49	1611.75
235.70	1495.02
235.92	1619.94
236.14	1501.16
236.36	1589.22
236.58	1519.59
236.79	1566.70
237.01	1519.59
237.23	1515.50
237.45	1535.98
237.67	1538.02
237.88	1515.50
238.10	1648.61
238.32	1503.21
238.54	1499.11
238.76	1542.12
238.97	1550.31
239.19	1513.45
239.41	1566.70
239.63	1576.94
239.85	1462.25
240.06	1521.64
240.28	1566.70
240.50	1693.67
240.72	1562.60
240.93	1515.50
241.15	1609.70
241.37	1593.32
241.59	1597.42
241.81	1585.13
242.02	1458.15
242.24	1558.50
242.46	1665.00
242.68	1472.49
242.89	1527.78
243.11	1587.18
243.33	1523.69
243.55	1533.93
243.76	1566.70
243.98	1449.96
244.20	1511.40
244.42	1507.30
244.64	1566.70
244.85	1454.06
245.07	1576.94
245.29	1576.94
245.51	1495.02
245.72	1558.50
245.94	1603.56
246.16	1497.07
246.38	1621.99
246.59	1507.30
246.81	1517.54
247.03	1497.07
247.24	1409.00
247.46	1593.32
247.68	1490.92
247.90	1521.64
248.11	1556.46
248.33	1556.46
248.55	1507.30
248.77	1519.59
248.98	1632.23
249.20	1636.33
249.42	1564.65
249.64	1540.07
249.85	1576.94
250.07	1480.68
250.29	1527.78
250.50	1595.37
250.72	1495.02
250.94	1523.69
251.16	1679.33
251.37	1619.94
251.59	1556.46
251.81	1535.98
252.02	1589.22
252.24	1568.74
252.46	1636.33
252.68	1454.06
252.89	1460.20
253.11	1525.74
253.33	1601.51
253.54	1562.60
253.76	1437.67
253.98	1499.11
254.20	1529.83
254.41	1476.59
254.63	1480.68
254.85	1507.30
255.06	1523.69
255.28	1550.31
255.50	1480.68
255.71	1480.68
255.93	1443.82
256.15	1529.83
256.36	1576.94
256.58	1568.74
256.80	1583.08
257.02	1552.36
257.23	1542.12
257.45	1517.54
257.67	1583.08
257.88	1511.40
258.10	1525.74
258.32	1552.36
258.53	1593.32
258.75	1583.08
258.97	1554.41
259.18	1587.18
259.40	1644.52
259.62	1552.36
259.83	1597.42
260.05	1644.52
260.27	1789.92
260.48	1546.22
260.70	1492.97
260.92	1495.02
261.13	1499.11
261.35	1593.32
261.57	1568.74
261.78	1435.63
262.00	1505.26
262.22	1558.50
262.43	1558.50
262.65	1476.59
262.86	1499.11
263.08	1533.93
263.30	1445.87
263.51	1458.15
263.73	1478.63
263.95	1583.08
264.16	1513.45
264.38	1484.78
264.60	1484.78
264.81	1472.49
265.03	1529.83
265.25	1593.32
265.46	1587.18
265.68	1628.14
265.89	1509.35
266.11	1517.54
266.33	1601.51
266.54	1595.37
266.76	1513.45
266.98	1552.36
267.19	1564.65
267.41	1495.02
267.62	1544.17
267.84	1503.21
268.06	1552.36
268.27	1599.46
268.49	1568.74
268.70	1607.66
268.92	1525.74
269.14	1523.69
269.35	1513.45
269.57	1519.59
269.79	1542.12
270.00	1435.63
270.22	1593.32
270.43	1548.26
270.65	1390.57
270.87	1533.93
271.08	1587.18
271.30	1533.93
271.51	1542.12
271.73	1540.07
271.95	1640.42
272.16	1621.99
272.38	1564.65
272.59	1572.84
272.81	1525.74
273.02	1511.40
273.24	1517.54
273.46	1626.09
273.67	1568.74
273.89	1435.63
274.10	1521.64
274.32	1570.79
274.54	1505.26
274.75	1593.32
274.97	1535.98
275.18	1556.46
275.40	1554.41
275.61	1552.36
275.83	1540.07
276.05	1503.21
276.26	1492.97
276.48	1607.66
276.69	1546.22
276.91	1447.91
277.12	1601.51
277.34	1589.22
277.55	1576.94
277.77	1515.50
277.99	1501.16
278.20	1558.50
278.42	1462.25
278.63	1499.11
278.85	1556.46
279.06	1517.54
279.28	1609.70
279.49	1550.31
279.71	1630.18
279.93	1564.65
280.14	1542.12
280.36	1406.95
280.57	1593.32
280.79	1560.55
281.00	1576.94
281.22	1540.07
281.43	1585.13
281.65	1482.73
281.86	1501.16
282.08	1542.12
282.29	1597.42
282.51	1509.35
282.73	1454.06
282.94	1456.11
283.16	1499.11
283.37	1587.18
283.59	1529.83
283.80	1632.23
284.02	1556.46
284.23	1513.45
284.45	1474.54
284.66	1456.11
284.88	1454.06
285.09	1658.85
285.31	1626.09
285.52	1560.55
285.74	1404.91
285.95	1544.17
286.17	1546.22
286.38	1564.65
286.60	1511.40
286.81	1503.21
287.03	1456.11
287.24	1562.60
287.46	1583.08
287.67	1523.69
287.89	1597.42
288.10	1507.30
288.32	1492.97
288.53	1605.61
288.75	1474.54
288.96	1570.79
289.18	1570.79
289.39	1556.46
289.61	1611.75
289.82	1701.86
290.04	1652.71
290.25	1478.63
290.47	1556.46
290.68	1566.70
290.90	1589.22
291.11	1431.53
291.33	1642.47
291.54	1456.11
291.76	1495.02
291.97	1566.70
292.18	1535.98
292.40	1576.94
292.61	1583.08
292.83	1570.79
293.04	1558.50
293.26	1497.07
293.47	1550.31
293.69	1535.98
293.90	1554.41
294.12	1591.27
294.33	1519.59
294.55	1535.98
294.76	1644.52
294.97	1564.65
295.19	1611.75
295.40	1447.91
295.62	1538.02
295.83	1542.12
296.05	1476.59
296.26	1542.12
296.48	1497.07
296.69	1529.83
296.90	1490.92
297.12	1556.46
297.33	1560.55
297.55	1558.50
297.76	1519.59
297.98	1619.94
298.19	1525.74
298.41	1550.31
298.62	1519.59
298.83	1644.52
299.05	1462.25
299.26	1605.61
299.48	1499.11
299.69	1535.98
299.90	1499.11
300.12	1486.83
300.33	1607.66
300.55	1562.60
300.76	1570.79
300.98	1499.11
301.19	1587.18
301.40	1476.59
301.62	1472.49
301.83	1560.55
302.05	1507.30
302.26	1497.07
302.47	1540.07
302.69	1480.68
302.90	1445.87
303.12	1443.82
303.33	1601.51
303.54	1593.32
303.76	1509.35
303.97	1517.54
304.19	1617.90
304.40	1525.74
304.61	1599.46
304.83	1593.32
305.04	1558.50
305.26	1593.32
305.47	1423.34
305.68	1503.21
305.90	1509.35
306.11	1632.23
306.33	1560.55
306.54	1544.17
306.75	1533.93
306.97	1456.11
307.18	1515.50
307.39	1570.79
307.61	1566.70
307.82	1572.84
308.04	1574.89
308.25	1460.20
308.46	1525.74
308.68	1513.45
308.89	1484.78
309.10	1601.51
309.32	1576.94
309.53	1482.73
309.74	1673.19
309.96	1495.02
310.17	1513.45
310.39	1548.26
310.60	1472.49
310.81	1507.30
311.03	1499.11
311.24	1570.79
311.45	1519.59
311.67	1564.65
311.88	1560.55
312.09	1538.02
312.31	1538.02
312.52	1619.94
312.73	1507.30
312.95	1429.48
313.16	1495.02
313.37	1632.23
313.59	1509.35
313.80	1509.35
314.01	1572.84
314.23	1454.06
314.44	1439.72
314.65	1519.59
314.87	1480.68
315.08	1568.74
315.29	1435.63
315.51	1499.11
315.72	1462.25
315.93	1511.40
316.15	1630.18
316.36	1437.67
316.57	1556.46
316.79	1554.41
317.00	1503.21
317.21	1499.11
317.43	1531.88
317.64	1550.31
317.85	1492.97
318.07	1613.80
318.28	1656.81
318.49	1728.49
318.70	1837.03
318.92	1765.35
319.13	1753.06
319.34	1677.29
319.56	1658.85
319.77	1734.63
319.98	1583.08
320.20	1646.57
320.41	1581.03
320.62	1568.74
320.83	1490.92
321.05	1648.61
321.26	1505.26
321.47	1546.22
321.69	1593.32
321.90	1458.15
322.11	1492.97
322.32	1513.45
322.54	1542.12
322.75	1507.30
322.96	1535.98
323.18	1437.67
323.39	1452.01
323.60	1507.30
323.81	1601.51
324.03	1511.40
324.24	1535.98
324.45	1505.26
324.66	1515.50
324.88	1503.21
325.09	1597.42
325.30	1517.54
325.52	1583.08
325.73	1591.27
325.94	1470.44
326.15	1449.96
326.37	1517.54
326.58	1576.94
326.79	1576.94
327.00	1435.63
327.22	1521.64
327.43	1480.68
327.64	1558.50
327.85	1501.16
328.07	1449.96
328.28	1587.18
328.49	1468.39
328.70	1482.73
328.92	1568.74
329.13	1482.73
329.34	1550.31
329.55	1654.76
329.76	1597.42
329.98	1554.41
330.19	1540.07
330.40	1546.22
330.61	1497.07
330.83	1505.26
331.04	1513.45
331.25	1529.83
331.46	1486.83
331.68	1544.17
331.89	1644.52
332.10	1533.93
332.31	1515.50
332.52	1562.60
332.74	1568.74
332.95	1421.29
333.16	1617.90
333.37	1589.22
333.58	1513.45
333.80	1472.49
334.01	1468.39
334.22	1558.50
334.43	1570.79
334.64	1546.22
334.86	1503.21
335.07	1527.78
335.28	1607.66
335.49	1484.78
335.70	1619.94
335.92	1640.42
336.13	1658.85
336.34	1603.56
336.55	1519.59
336.76	1587.18
336.98	1470.44
337.19	1505.26
337.40	1601.51
337.61	1667.05
337.82	1552.36
338.04	1587.18
338.25	1492.97
338.46	1482.73
338.67	1433.58
338.88	1550.31
339.09	1558.50
339.31	1554.41
339.52	1497.07
339.73	1476.59
339.94	1484.78
340.15	1533.93
340.36	1531.88
340.58	1488.87
340.79	1415.15
341.00	1574.89
341.21	1454.06
341.42	1617.90
341.63	1507.30
341.85	1562.60
342.06	1519.59
342.27	1548.26
342.48	1619.94
342.69	1415.15
342.90	1548.26
343.12	1542.12
343.33	1554.41
343.54	1527.78
343.75	1558.50
343.96	1554.41
344.17	1531.88
344.38	1583.08
344.60	1492.97
344.81	1478.63
345.02	1603.56
345.23	1591.27
345.44	1525.74
345.65	1601.51
345.86	1529.83
346.07	1540.07
346.29	1462.25
346.50	1607.66
346.71	1632.23
346.92	1630.18
347.13	1648.61
347.34	1599.46
347.55	1488.87
347.76	1513.45
347.98	1435.63
348.19	1599.46
348.40	1667.05
348.61	1542.12
348.82	1634.28
349.03	1552.36
349.24	1505.26
349.45	1611.75
349.66	1447.91
349.88	1562.60
350.09	1519.59
350.30	1558.50
350.51	1581.03
350.72	1564.65
350.93	1517.54
351.14	1460.20
351.35	1583.08
351.56	1472.49
351.77	1478.63
351.99	1562.60
352.20	1574.89
352.41	1480.68
352.62	1552.36
352.83	1538.02
353.04	1517.54
353.25	1527.78
353.46	1648.61
353.67	1583.08
353.88	1402.86
354.09	1601.51
354.30	1535.98
354.52	1531.88
354.73	1443.82
354.94	1499.11
355.15	1595.37
355.36	1656.81
355.57	1578.98
355.78	1501.16
355.99	1478.63
356.20	1513.45
356.41	1613.80
356.62	1556.46
356.83	1517.54
357.04	1613.80
357.25	1499.11
357.46	1439.72
357.68	1535.98
357.89	1497.07
358.10	1566.70
358.31	1519.59
358.52	1603.56
358.73	1472.49
358.94	1454.06
359.15	1507.30
359.36	1538.02
359.57	1527.78
359.78	1587.18
359.99	1589.22
360.20	1470.44
360.41	1505.26
360.62	1495.02
360.83	1560.55
361.04	1609.70
361.25	1572.84
361.46	1562.60
361.67	1595.37
361.88	1566.70
362.09	1480.68
362.30	1548.26
362.51	1466.35
362.72	1603.56
362.93	1546.22
363.14	1630.18
363.35	1603.56
363.56	1519.59
363.78	1560.55
363.99	1535.98
364.20	1540.07
364.41	1501.16
364.62	1656.81
364.83	1558.50
365.04	1601.51
365.25	1435.63
365.46	1628.14
365.67	1511.40
365.88	1550.31
366.09	1593.32
366.30	1550.31
366.51	1523.69
366.72	1439.72
366.93	1554.41
367.14	1564.65
367.35	1511.40
367.56	1515.50
367.77	1601.51
367.98	1535.98
368.18	1601.51
368.39	1642.47
368.60	1495.02
368.81	1552.36
369.02	1507.30
369.23	1542.12
369.44	1474.54
369.65	1535.98
369.86	1550.31
370.07	1562.60
370.28	1531.88
370.49	1587.18
370.70	1519.59
370.91	1454.06
371.12	1527.78
371.33	1540.07
371.54	1527.78
371.75	1587.18
371.96	1361.90
372.17	1578.98
372.38	1529.83
372.59	1515.50
372.80	1511.40
373.01	1431.53
373.22	1566.70
373.43	1542.12
373.64	1484.78
373.85	1581.03
374.06	1570.79
374.26	1599.46
374.47	1556.46
374.68	1535.98
374.89	1525.74
375.10	1519.59
375.31	1615.85
375.52	1581.03
375.73	1521.64
375.94	1593.32
376.15	1578.98
376.36	1495.02
376.57	1550.31
376.78	1429.48
376.99	1542.12
377.20	1599.46
377.40	1564.65
377.61	1603.56
377.82	1495.02
378.03	1662.95
378.24	1564.65
378.45	1509.35
378.66	1570.79
378.87	1452.01
379.08	1470.44
379.29	1544.17
379.50	1544.17
379.71	1505.26
379.91	1585.13
380.12	1552.36
380.33	1501.16
380.54	1517.54
380.75	1492.97
380.96	1521.64
381.17	1626.09
381.38	1648.61
381.59	1484.78
381.80	1591.27
382.00	1697.77
382.21	1587.18
382.42	1613.80
382.63	1638.38
382.84	1589.22
383.05	1605.61
383.26	1671.14
383.47	1542.12
383.68	1601.51
383.88	1603.56
384.09	1585.13
384.30	1658.85
384.51	1609.70
384.72	1492.97
384.93	1460.20
385.14	1574.89
385.35	1611.75
385.55	1542.12
385.76	1593.32
385.97	1497.07
386.18	1501.16
386.39	1599.46
386.60	1495.02
386.81	1550.31
387.02	1484.78
387.22	1542.12
387.43	1568.74
387.64	1650.66
387.85	1853.41
388.06	3114.96
388.27	7223.19
388.48	10563.42
388.68	12470.08
388.89	13791.02
389.10	13018.94
389.31	10043.24
389.52	8859.51
389.73	7896.97
389.93	7210.90
390.14	6801.30
390.35	6287.26
390.56	5654.44
390.77	4695.99
390.98	3592.14
391.18	2805.72
391.39	2172.89
391.60	1810.40
391.81	1691.62
392.02	1558.50
392.23	1714.15
392.43	1574.89
392.64	1597.42
392.85	1515.50
393.06	1615.85
393.27	1636.33
393.47	1482.73
393.68	1624.04
393.89	1466.35
394.10	1523.69
394.31	1488.87
394.52	1495.02
394.72	1542.12
394.93	1624.04
395.14	1505.26
395.35	1585.13
395.56	1566.70
395.76	1681.38
395.97	1601.51
396.18	1732.58
396.39	1767.40
396.60	1886.18
396.80	1613.80
397.01	1740.77
397.22	1591.27
397.43	1701.86
397.64	1538.02
397.84	1660.90
398.05	1658.85
398.26	1611.75
398.47	1673.19
398.67	1630.18
398.88	1550.31
399.09	1531.88
399.30	1552.36
399.51	1542.12
399.71	1458.15
399.92	1605.61
400.13	1640.42
400.34	1529.83
400.54	1558.50
400.75	1632.23
400.96	1578.98
401.17	1599.46
401.37	1599.46
401.58	1615.85
401.79	1513.45
402.00	1755.11
402.21	1871.84
402.41	1986.53
402.62	1894.37
402.83	1980.39
403.04	1828.84
403.24	1914.85
403.45	1691.62
403.66	1748.97
403.87	1671.14
404.07	1671.14
404.28	1757.16
404.49	1732.58
404.70	1640.42
404.90	1621.99
405.11	1621.99
405.32	1591.27
405.52	1554.41
405.73	1533.93
405.94	1535.98
406.15	1505.26
406.35	1564.65
406.56	1490.92
406.77	1538.02
406.98	1562.60
407.18	1535.98
407.39	1640.42
407.60	1503.21
407.80	1499.11
408.01	1488.87
408.22	1538.02
408.43	1460.20
408.63	1568.74
408.84	1542.12
409.05	1564.65
409.25	1495.02
409.46	1538.02
409.67	1464.30
409.88	1523.69
410.08	1535.98
410.29	1505.26
410.50	1519.59
410.70	1523.69
410.91	1484.78
411.12	1492.97
411.32	1632.23
411.53	1601.51
411.74	1603.56
411.95	1593.32
412.15	1636.33
412.36	1626.09
412.57	1578.98
412.77	1566.70
412.98	1509.35
413.19	1497.07
413.39	1632.23
413.60	1605.61
413.81	1613.80
414.01	1554.41
414.22	1605.61
414.43	1607.66
414.63	1583.08
414.84	1576.94
415.05	1566.70
415.25	1505.26
415.46	1636.33
415.67	1468.39
415.87	1642.47
416.08	1566.70
416.29	1482.73
416.49	1566.70
416.70	1470.44
416.91	1548.26
417.11	1542.12
417.32	1615.85
417.53	1521.64
417.73	1513.45
417.94	1501.16
418.15	1562.60
418.35	1564.65
418.56	1535.98
418.77	1576.94
418.97	1535.98
419.18	1581.03
419.38	1404.91
419.59	1509.35
419.80	1533.93
420.00	1538.02
420.21	1603.56
420.42	1638.38
420.62	1538.02
420.83	1538.02
421.04	1535.98
421.24	1576.94
421.45	1583.08
421.65	1593.32
421.86	1552.36
422.07	1544.17
422.27	1585.13
422.48	1511.40
422.69	1515.50
422.89	1548.26
423.10	1472.49
423.30	1529.83
423.51	1460.20
423.72	1597.42
423.92	1566.70
424.13	1538.02
424.33	1490.92
424.54	1570.79
424.75	1488.87
424.95	1658.85
425.16	1628.14
425.36	1437.67
425.57	1632.23
425.78	1591.27
425.98	1632.23
426.19	1607.66
426.39	1535.98
426.60	1603.56
426.81	1615.85
427.01	1540.07
427.22	1535.98
427.42	1472.49
427.63	1449.96
427.83	1533.93
428.04	1601.51
428.25	1538.02
428.45	1572.84
428.66	1566.70
428.86	1566.70
429.07	1550.31
429.28	1531.88
429.48	1505.26
429.69	1462.25
429.89	1519.59
430.10	1452.01
430.30	1632.23
430.51	1550.31
430.71	1505.26
430.92	1578.98
431.13	1531.88
431.33	1517.54
431.54	1568.74
431.74	1634.28
431.95	1597.42
432.15	1501.16
432.36	1603.56
432.56	1562.60
432.77	1638.38
432.98	1632.23
433.18	1535.98
433.39	1554.41
433.59	1525.74
433.80	1570.79
434.00	1781.73
434.21	1472.49
434.41	1452.01
434.62	1675.24
434.82	1480.68
435.03	1501.16
435.23	1611.75
435.44	1456.11
435.64	1556.46
435.85	1578.98
436.06	1593.32
436.26	1621.99
436.47	1550.31
436.67	1474.54
436.88	1542.12
437.08	1595.37
437.29	1595.37
437.49	1550.31
437.70	1587.18
437.90	1558.50
438.11	1636.33
438.31	1665.00
438.52	1708.01
438.72	1746.92
438.93	1705.96
439.13	1638.38
439.34	1689.57
439.54	1646.57
439.75	1644.52
439.95	1585.13
440.16	1597.42
440.36	1615.85
440.57	1535.98
440.77	1609.70
440.98	1562.60
441.18	1542.12
441.39	1511.40
441.59	1525.74
441.80	1583.08
442.00	1499.11
442.21	1615.85
442.41	1535.98
442.62	1619.94
442.82	1484.78
443.02	1562.60
443.23	1558.50
443.43	1492.97
443.64	1548.26
443.84	1525.74
444.05	1546.22
444.25	1601.51
444.46	1523.69
444.66	1560.55
444.87	1574.89
445.07	1488.87
445.28	1525.74
445.48	1626.09
445.69	1628.14
445.89	1687.53
446.09	1574.89
446.30	1916.90
446.50	3235.79
446.71	4300.73
446.91	5154.74
447.12	5904.29
447.32	5537.71
447.53	4720.57
447.73	4007.87
447.93	3712.97
448.14	3264.46
448.34	3168.21
448.55	2899.92
448.75	2772.95
448.96	2760.66
449.16	2467.80
449.36	2256.86
449.57	1970.15
449.77	1796.07
449.98	1685.48
450.18	1591.27
450.39	1642.47
450.59	1634.28
450.79	1519.59
451.00	1531.88
451.20	1599.46
451.41	1636.33
451.61	1513.45
451.81	1513.45
452.02	1546.22
452.22	1558.50
452.43	1484.78
452.63	1472.49
