SpectraSuite Data File
++++++++++++++++++++++++++++++++++++
Date: Tue May 03 12:55:46 CEST 2016
User: root
Dark Spectrum Present: No
Reference Spectrum Present: No
Number of Sampled Component Spectra: 1
Spectrometers: USB4C02835
Integration Time (usec): 100000 (USB4C02835)
Spectra Averaged: 1 (USB4C02835)
Boxcar Smoothing: 0 (USB4C02835)
Correct for Electrical Dark: No (USB4C02835)
Strobe/Lamp Enabled: No (USB4C02835)
Correct for Detector Non-linearity: No (USB4C02835)
Correct for Stray Light: No (USB4C02835)
Number of Pixels in Processed Spectrum: 3648
>>>>>Begin Processed Spectral Data<<<<<
177.47	1339.37
177.69	1339.37
177.91	1339.37
178.13	1404.91
178.36	1320.94
178.58	1464.30
178.80	1576.94
179.02	1472.49
179.24	1564.65
179.46	1542.12
179.68	1560.55
179.90	1562.60
180.13	1611.75
180.35	1480.68
180.57	1513.45
180.79	1527.78
181.01	1521.64
181.23	1605.61
181.45	1624.04
181.67	1626.09
181.90	1621.99
182.12	1482.73
182.34	1521.64
182.56	1538.02
182.78	1501.16
183.00	1566.70
183.22	1566.70
183.44	1476.59
183.66	1574.89
183.89	1546.22
184.11	1556.46
184.33	1562.60
184.55	1570.79
184.77	1603.56
184.99	1554.41
185.21	1511.40
185.43	1589.22
185.65	1497.07
185.87	1572.84
186.10	1628.14
186.32	1660.90
186.54	1552.36
186.76	1535.98
186.98	1640.42
187.20	1548.26
187.42	1513.45
187.64	1593.32
187.86	1478.63
188.08	1654.76
188.30	1472.49
188.52	1546.22
188.75	1587.18
188.97	1601.51
189.19	1413.10
189.41	1492.97
189.63	1499.11
189.85	1533.93
190.07	1445.87
190.29	1531.88
190.51	1562.60
190.73	1476.59
190.95	1615.85
191.17	1509.35
191.39	1499.11
191.61	1507.30
191.84	1476.59
192.06	1607.66
192.28	1447.91
192.50	1718.25
192.72	1529.83
192.94	1572.84
193.16	1644.52
193.38	1560.55
193.60	1427.43
193.82	1488.87
194.04	1546.22
194.26	1503.21
194.48	1542.12
194.70	1429.48
194.92	1495.02
195.14	1589.22
195.36	1540.07
195.58	1515.50
195.80	1529.83
196.02	1517.54
196.24	1564.65
196.46	1525.74
196.69	1515.50
196.91	1552.36
197.13	1535.98
197.35	1511.40
197.57	1624.04
197.79	1585.13
198.01	1497.07
198.23	1595.37
198.45	1611.75
198.67	1482.73
198.89	1607.66
199.11	1452.01
199.33	1513.45
199.55	1513.45
199.77	1619.94
199.99	1525.74
200.21	1564.65
200.43	1492.97
200.65	1443.82
200.87	1484.78
201.09	1519.59
201.31	1527.78
201.53	1554.41
201.75	1593.32
201.97	1566.70
202.19	1511.40
202.41	1519.59
202.63	1697.77
202.85	1578.98
203.07	1515.50
203.29	1472.49
203.51	1462.25
203.73	1509.35
203.95	1662.95
204.17	1542.12
204.39	1591.27
204.61	1515.50
204.83	1603.56
205.05	1564.65
205.27	1505.26
205.49	1601.51
205.71	1509.35
205.93	1462.25
206.15	1523.69
206.37	1515.50
206.59	1564.65
206.81	1495.02
207.03	1554.41
207.25	1421.29
207.47	1603.56
207.69	1501.16
207.91	1525.74
208.13	1595.37
208.34	1585.13
208.56	1470.44
208.78	1581.03
209.00	1513.45
209.22	1576.94
209.44	1478.63
209.66	1480.68
209.88	1574.89
210.10	1497.07
210.32	1572.84
210.54	1583.08
210.76	1511.40
210.98	1591.27
211.20	1505.26
211.42	1628.14
211.64	1558.50
211.86	1595.37
212.08	1564.65
212.30	1511.40
212.52	1576.94
212.74	1585.13
212.96	1452.01
213.17	1501.16
213.39	1540.07
213.61	1591.27
213.83	1558.50
214.05	1433.58
214.27	1615.85
214.49	1404.91
214.71	1511.40
214.93	1583.08
215.15	1501.16
215.37	1630.18
215.59	1439.72
215.81	1566.70
216.03	1591.27
216.24	1499.11
216.46	1570.79
216.68	1642.47
216.90	1515.50
217.12	1546.22
217.34	1517.54
217.56	1566.70
217.78	1597.42
218.00	1566.70
218.22	1632.23
218.44	1597.42
218.66	1509.35
218.87	1581.03
219.09	1482.73
219.31	1578.98
219.53	1558.50
219.75	1572.84
219.97	1585.13
220.19	1511.40
220.41	1490.92
220.63	1540.07
220.85	1603.56
221.06	1509.35
221.28	1597.42
221.50	1511.40
221.72	1583.08
221.94	1617.90
222.16	1507.30
222.38	1581.03
222.60	1513.45
222.82	1542.12
223.03	1564.65
223.25	1464.30
223.47	1617.90
223.69	1619.94
223.91	1470.44
224.13	1556.46
224.35	1445.87
224.57	1554.41
224.78	1597.42
225.00	1468.39
225.22	1492.97
225.44	1581.03
225.66	1581.03
225.88	1484.78
226.10	1550.31
226.32	1527.78
226.53	1552.36
226.75	1509.35
226.97	1558.50
227.19	1593.32
227.41	1529.83
227.63	1503.21
227.85	1480.68
228.06	1554.41
228.28	1552.36
228.50	1529.83
228.72	1535.98
228.94	1452.01
229.16	1464.30
229.37	1462.25
229.59	1515.50
229.81	1621.99
230.03	1458.15
230.25	1517.54
230.47	1560.55
230.69	1495.02
230.90	1464.30
231.12	1476.59
231.34	1525.74
231.56	1558.50
231.78	1531.88
232.00	1552.36
232.21	1564.65
232.43	1576.94
232.65	1464.30
232.87	1638.38
233.09	1476.59
233.30	1476.59
233.52	1628.14
233.74	1501.16
233.96	1472.49
234.18	1599.46
234.40	1542.12
234.61	1648.61
234.83	1533.93
235.05	1454.06
235.27	1601.51
235.49	1511.40
235.70	1540.07
235.92	1585.13
236.14	1550.31
236.36	1615.85
236.58	1419.24
236.79	1599.46
237.01	1564.65
237.23	1542.12
237.45	1615.85
237.67	1585.13
237.88	1570.79
238.10	1595.37
238.32	1445.87
238.54	1484.78
238.76	1540.07
238.97	1486.83
239.19	1546.22
239.41	1564.65
239.63	1535.98
239.85	1529.83
240.06	1507.30
240.28	1556.46
240.50	1572.84
240.72	1544.17
240.93	1535.98
241.15	1558.50
241.37	1533.93
241.59	1587.18
241.81	1521.64
242.02	1568.74
242.24	1599.46
242.46	1550.31
242.68	1591.27
242.89	1587.18
243.11	1550.31
243.33	1552.36
243.55	1558.50
243.76	1587.18
243.98	1552.36
244.20	1495.02
244.42	1552.36
244.64	1501.16
244.85	1495.02
245.07	1482.73
245.29	1538.02
245.51	1523.69
245.72	1533.93
245.94	1624.04
246.16	1505.26
246.38	1599.46
246.59	1431.53
246.81	1470.44
247.03	1552.36
247.24	1454.06
247.46	1525.74
247.68	1558.50
247.90	1472.49
248.11	1509.35
248.33	1607.66
248.55	1554.41
248.77	1601.51
248.98	1558.50
249.20	1544.17
249.42	1535.98
249.64	1589.22
249.85	1497.07
250.07	1472.49
250.29	1478.63
250.50	1564.65
250.72	1492.97
250.94	1531.88
251.16	1605.61
251.37	1636.33
251.59	1583.08
251.81	1589.22
252.02	1531.88
252.24	1531.88
252.46	1566.70
252.68	1478.63
252.89	1433.58
253.11	1503.21
253.33	1585.13
253.54	1587.18
253.76	1540.07
253.98	1466.35
254.20	1542.12
254.41	1456.11
254.63	1501.16
254.85	1476.59
255.06	1583.08
255.28	1589.22
255.50	1544.17
255.71	1527.78
255.93	1466.35
256.15	1472.49
256.36	1552.36
256.58	1624.04
256.80	1589.22
257.02	1460.20
257.23	1576.94
257.45	1521.64
257.67	1617.90
257.88	1509.35
258.10	1529.83
258.32	1646.57
258.53	1509.35
258.75	1554.41
258.97	1421.29
259.18	1574.89
259.40	1595.37
259.62	1654.76
259.83	1593.32
260.05	1505.26
260.27	1822.69
260.48	1529.83
260.70	1497.07
260.92	1535.98
261.13	1531.88
261.35	1566.70
261.57	1583.08
261.78	1386.47
262.00	1501.16
262.22	1540.07
262.43	1452.01
262.65	1486.83
262.86	1548.26
263.08	1640.42
263.30	1507.30
263.51	1466.35
263.73	1509.35
263.95	1632.23
264.16	1501.16
264.38	1503.21
264.60	1552.36
264.81	1546.22
265.03	1646.57
265.25	1595.37
265.46	1497.07
265.68	1566.70
265.89	1591.27
266.11	1443.82
266.33	1562.60
266.54	1615.85
266.76	1578.98
266.98	1585.13
267.19	1564.65
267.41	1581.03
267.62	1581.03
267.84	1447.91
268.06	1570.79
268.27	1544.17
268.49	1566.70
268.70	1615.85
268.92	1538.02
269.14	1466.35
269.35	1456.11
269.57	1546.22
269.79	1531.88
270.00	1529.83
270.22	1601.51
270.43	1511.40
270.65	1419.24
270.87	1464.30
271.08	1540.07
271.30	1566.70
271.51	1562.60
271.73	1499.11
271.95	1540.07
272.16	1560.55
272.38	1488.87
272.59	1468.39
272.81	1650.66
273.02	1626.09
273.24	1570.79
273.46	1632.23
273.67	1486.83
273.89	1462.25
274.10	1499.11
274.32	1613.80
274.54	1566.70
274.75	1515.50
274.97	1529.83
275.18	1603.56
275.40	1601.51
275.61	1488.87
275.83	1566.70
276.05	1552.36
276.26	1550.31
276.48	1613.80
276.69	1480.68
276.91	1495.02
277.12	1517.54
277.34	1613.80
277.55	1574.89
277.77	1521.64
277.99	1533.93
278.20	1462.25
278.42	1452.01
278.63	1497.07
278.85	1513.45
279.06	1392.62
279.28	1513.45
279.49	1619.94
279.71	1662.95
279.93	1636.33
280.14	1511.40
280.36	1505.26
280.57	1521.64
280.79	1593.32
281.00	1527.78
281.22	1507.30
281.43	1560.55
281.65	1480.68
281.86	1464.30
282.08	1656.81
282.29	1589.22
282.51	1462.25
282.73	1566.70
282.94	1542.12
283.16	1599.46
283.37	1527.78
283.59	1566.70
283.80	1519.59
284.02	1587.18
284.23	1591.27
284.45	1470.44
284.66	1470.44
284.88	1570.79
285.09	1484.78
285.31	1546.22
285.52	1597.42
285.74	1562.60
285.95	1558.50
286.17	1566.70
286.38	1624.04
286.60	1492.97
286.81	1478.63
287.03	1558.50
287.24	1503.21
287.46	1642.47
287.67	1542.12
287.89	1607.66
288.10	1476.59
288.32	1562.60
288.53	1615.85
288.75	1495.02
288.96	1566.70
289.18	1501.16
289.39	1546.22
289.61	1581.03
289.82	1630.18
290.04	1570.79
290.25	1490.92
290.47	1574.89
290.68	1466.35
290.90	1533.93
291.11	1466.35
291.33	1521.64
291.54	1499.11
291.76	1427.43
291.97	1552.36
292.18	1558.50
292.40	1509.35
292.61	1560.55
292.83	1634.28
293.04	1587.18
293.26	1503.21
293.47	1501.16
293.69	1574.89
293.90	1560.55
294.12	1626.09
294.33	1499.11
294.55	1624.04
294.76	1621.99
294.97	1634.28
295.19	1611.75
295.40	1576.94
295.62	1542.12
295.83	1574.89
296.05	1517.54
296.26	1531.88
296.48	1486.83
296.69	1488.87
296.90	1495.02
297.12	1535.98
297.33	1593.32
297.55	1599.46
297.76	1576.94
297.98	1603.56
298.19	1441.77
298.41	1533.93
298.62	1511.40
298.83	1601.51
299.05	1540.07
299.26	1599.46
299.48	1531.88
299.69	1607.66
299.90	1529.83
300.12	1472.49
300.33	1585.13
300.55	1554.41
300.76	1546.22
300.98	1476.59
301.19	1568.74
301.40	1533.93
301.62	1511.40
301.83	1525.74
302.05	1525.74
302.26	1550.31
302.47	1544.17
302.69	1513.45
302.90	1527.78
303.12	1572.84
303.33	1611.75
303.54	1658.85
303.76	1560.55
303.97	1533.93
304.19	1626.09
304.40	1517.54
304.61	1499.11
304.83	1609.70
305.04	1609.70
305.26	1595.37
305.47	1452.01
305.68	1583.08
305.90	1437.67
306.11	1636.33
306.33	1511.40
306.54	1519.59
306.75	1503.21
306.97	1501.16
307.18	1558.50
307.39	1552.36
307.61	1574.89
307.82	1550.31
308.04	1581.03
308.25	1527.78
308.46	1480.68
308.68	1611.75
308.89	1517.54
309.10	1570.79
309.32	1521.64
309.53	1474.54
309.74	1597.42
309.96	1550.31
310.17	1626.09
310.39	1517.54
310.60	1568.74
310.81	1546.22
311.03	1398.76
311.24	1513.45
311.45	1425.39
311.67	1589.22
311.88	1619.94
312.09	1454.06
312.31	1529.83
312.52	1495.02
312.73	1462.25
312.95	1447.91
313.16	1478.63
313.37	1595.37
313.59	1583.08
313.80	1583.08
314.01	1597.42
314.23	1513.45
314.44	1464.30
314.65	1538.02
314.87	1464.30
315.08	1642.47
315.29	1484.78
315.51	1585.13
315.72	1429.48
315.93	1583.08
316.15	1546.22
316.36	1423.34
316.57	1513.45
316.79	1501.16
317.00	1535.98
317.21	1595.37
317.43	1499.11
317.64	1511.40
317.85	1595.37
318.07	1550.31
318.28	1677.29
318.49	1736.68
318.70	1757.16
318.92	1671.14
319.13	1699.81
319.34	1716.20
319.56	1640.42
319.77	1654.76
319.98	1687.53
320.20	1669.09
320.41	1587.18
320.62	1581.03
320.83	1527.78
321.05	1656.81
321.26	1531.88
321.47	1525.74
321.69	1574.89
321.90	1497.07
322.11	1482.73
322.32	1560.55
322.54	1585.13
322.75	1519.59
322.96	1615.85
323.18	1452.01
323.39	1460.20
323.60	1523.69
323.81	1587.18
324.03	1527.78
324.24	1484.78
324.45	1535.98
324.66	1495.02
324.88	1529.83
325.09	1609.70
325.30	1540.07
325.52	1542.12
325.73	1501.16
325.94	1505.26
326.15	1439.72
326.37	1470.44
326.58	1591.27
326.79	1640.42
327.00	1503.21
327.22	1617.90
327.43	1527.78
327.64	1484.78
327.85	1519.59
328.07	1562.60
328.28	1603.56
328.49	1519.59
328.70	1478.63
328.92	1517.54
329.13	1517.54
329.34	1538.02
329.55	1599.46
329.76	1601.51
329.98	1550.31
330.19	1611.75
330.40	1486.83
330.61	1554.41
330.83	1533.93
331.04	1558.50
331.25	1484.78
331.46	1503.21
331.68	1462.25
331.89	1527.78
332.10	1462.25
332.31	1499.11
332.52	1486.83
332.74	1515.50
332.95	1578.98
333.16	1636.33
333.37	1595.37
333.58	1519.59
333.80	1581.03
334.01	1435.63
334.22	1531.88
334.43	1454.06
334.64	1529.83
334.86	1538.02
335.07	1531.88
335.28	1609.70
335.49	1404.91
335.70	1558.50
335.92	1597.42
336.13	1607.66
336.34	1566.70
336.55	1521.64
336.76	1486.83
336.98	1445.87
337.19	1535.98
337.40	1593.32
337.61	1570.79
337.82	1443.82
338.04	1617.90
338.25	1466.35
338.46	1554.41
338.67	1511.40
338.88	1427.43
339.09	1486.83
339.31	1566.70
339.52	1535.98
339.73	1380.33
339.94	1593.32
340.15	1595.37
340.36	1464.30
340.58	1499.11
340.79	1495.02
341.00	1484.78
341.21	1466.35
341.42	1628.14
341.63	1554.41
341.85	1542.12
342.06	1527.78
342.27	1490.92
342.48	1501.16
342.69	1472.49
342.90	1568.74
343.12	1578.98
343.33	1574.89
343.54	1576.94
343.75	1585.13
343.96	1466.35
344.17	1474.54
344.38	1529.83
344.60	1449.96
344.81	1468.39
345.02	1585.13
345.23	1560.55
345.44	1648.61
345.65	1599.46
345.86	1535.98
346.07	1531.88
346.29	1505.26
346.50	1597.42
346.71	1550.31
346.92	1589.22
347.13	1636.33
347.34	1482.73
347.55	1566.70
347.76	1603.56
347.98	1411.05
348.19	1576.94
348.40	1531.88
348.61	1552.36
348.82	1636.33
349.03	1628.14
349.24	1495.02
349.45	1550.31
349.66	1443.82
349.88	1503.21
350.09	1492.97
350.30	1568.74
350.51	1529.83
350.72	1546.22
350.93	1556.46
351.14	1533.93
351.35	1535.98
351.56	1566.70
351.77	1507.30
351.99	1542.12
352.20	1564.65
352.41	1656.81
352.62	1409.00
352.83	1556.46
353.04	1523.69
353.25	1505.26
353.46	1621.99
353.67	1646.57
353.88	1462.25
354.09	1564.65
354.30	1533.93
354.52	1495.02
354.73	1566.70
354.94	1460.20
355.15	1585.13
355.36	1630.18
355.57	1460.20
355.78	1505.26
355.99	1478.63
356.20	1435.63
356.41	1609.70
356.62	1552.36
356.83	1499.11
357.04	1585.13
357.25	1433.58
357.46	1548.26
357.68	1462.25
357.89	1411.05
358.10	1492.97
358.31	1538.02
358.52	1495.02
358.73	1419.24
358.94	1505.26
359.15	1515.50
359.36	1552.36
359.57	1472.49
359.78	1490.92
359.99	1566.70
360.20	1480.68
360.41	1533.93
360.62	1628.14
360.83	1544.17
361.04	1581.03
361.25	1523.69
361.46	1578.98
361.67	1560.55
361.88	1566.70
362.09	1632.23
362.30	1535.98
362.51	1478.63
362.72	1527.78
362.93	1470.44
363.14	1548.26
363.35	1529.83
363.56	1507.30
363.78	1556.46
363.99	1560.55
364.20	1474.54
364.41	1546.22
364.62	1619.94
364.83	1587.18
365.04	1535.98
365.25	1531.88
365.46	1624.04
365.67	1447.91
365.88	1501.16
366.09	1554.41
366.30	1419.24
366.51	1589.22
366.72	1548.26
366.93	1544.17
367.14	1556.46
367.35	1601.51
367.56	1474.54
367.77	1589.22
367.98	1585.13
368.18	1533.93
368.39	1525.74
368.60	1501.16
368.81	1568.74
369.02	1531.88
369.23	1476.59
369.44	1468.39
369.65	1576.94
369.86	1574.89
370.07	1595.37
370.28	1447.91
370.49	1552.36
370.70	1507.30
370.91	1556.46
371.12	1466.35
371.33	1513.45
371.54	1540.07
371.75	1558.50
371.96	1421.29
372.17	1599.46
372.38	1560.55
372.59	1572.84
372.80	1488.87
373.01	1548.26
373.22	1511.40
373.43	1525.74
373.64	1503.21
373.85	1599.46
374.06	1632.23
374.26	1509.35
374.47	1472.49
374.68	1576.94
374.89	1634.28
375.10	1509.35
375.31	1601.51
375.52	1581.03
375.73	1480.68
375.94	1478.63
376.15	1693.67
376.36	1531.88
376.57	1452.01
376.78	1449.96
376.99	1587.18
377.20	1605.61
377.40	1556.46
377.61	1587.18
377.82	1454.06
378.03	1611.75
378.24	1507.30
378.45	1533.93
378.66	1535.98
378.87	1495.02
379.08	1509.35
379.29	1533.93
379.50	1589.22
379.71	1499.11
379.91	1495.02
380.12	1476.59
380.33	1529.83
380.54	1550.31
380.75	1490.92
380.96	1617.90
381.17	1527.78
381.38	1583.08
381.59	1587.18
381.80	1544.17
382.00	1744.87
382.21	1568.74
382.42	1685.48
382.63	1687.53
382.84	1646.57
383.05	1642.47
383.26	1652.71
383.47	1597.42
383.68	1560.55
383.88	1603.56
384.09	1605.61
384.30	1632.23
384.51	1550.31
384.72	1509.35
384.93	1517.54
385.14	1581.03
385.35	1517.54
385.55	1449.96
385.76	1548.26
385.97	1562.60
386.18	1523.69
386.39	1519.59
386.60	1507.30
386.81	1552.36
387.02	1464.30
387.22	1501.16
387.43	1626.09
387.64	1689.57
387.85	1837.03
388.06	3162.06
388.27	7180.18
388.48	10501.98
388.68	12277.57
388.89	13899.56
389.10	12672.83
389.31	10073.96
389.52	8857.46
389.73	7731.08
389.93	7327.63
390.14	6678.43
390.35	6137.76
390.56	5410.73
390.77	4585.40
390.98	3631.05
391.18	2777.05
391.39	2205.66
391.60	1771.49
391.81	1773.54
392.02	1583.08
392.23	1656.81
392.43	1646.57
392.64	1640.42
392.85	1548.26
393.06	1667.05
393.27	1535.98
393.47	1558.50
393.68	1540.07
393.89	1546.22
394.10	1591.27
394.31	1511.40
394.52	1501.16
394.72	1499.11
394.93	1626.09
395.14	1554.41
395.35	1583.08
395.56	1531.88
395.76	1591.27
395.97	1669.09
396.18	1722.34
396.39	1734.63
396.60	1978.34
396.80	1746.92
397.01	1800.16
397.22	1665.00
397.43	1675.24
397.64	1619.94
397.84	1665.00
398.05	1705.96
398.26	1595.37
398.47	1652.71
398.67	1613.80
398.88	1595.37
399.09	1540.07
399.30	1546.22
399.51	1597.42
399.71	1527.78
399.92	1538.02
400.13	1576.94
400.34	1511.40
400.54	1568.74
400.75	1589.22
400.96	1599.46
401.17	1644.52
401.37	1538.02
401.58	1544.17
401.79	1603.56
402.00	1857.51
402.21	1906.66
402.41	1951.71
402.62	1892.32
402.83	1974.24
403.04	1845.22
403.24	1871.84
403.45	1748.97
403.66	1744.87
403.87	1724.39
404.07	1630.18
404.28	1730.53
404.49	1697.77
404.70	1574.89
404.90	1626.09
405.11	1662.95
405.32	1607.66
405.52	1476.59
405.73	1499.11
405.94	1527.78
406.15	1521.64
406.35	1591.27
406.56	1484.78
406.77	1521.64
406.98	1529.83
407.18	1505.26
407.39	1609.70
407.60	1480.68
407.80	1570.79
408.01	1585.13
408.22	1574.89
408.43	1529.83
408.63	1568.74
408.84	1578.98
409.05	1658.85
409.25	1454.06
409.46	1462.25
409.67	1497.07
409.88	1538.02
410.08	1507.30
410.29	1470.44
410.50	1535.98
410.70	1542.12
410.91	1519.59
411.12	1564.65
411.32	1636.33
411.53	1517.54
411.74	1665.00
411.95	1667.05
412.15	1636.33
412.36	1615.85
412.57	1617.90
412.77	1533.93
412.98	1628.14
413.19	1554.41
413.39	1572.84
413.60	1607.66
413.81	1662.95
414.01	1454.06
414.22	1640.42
414.43	1605.61
414.63	1476.59
414.84	1540.07
415.05	1513.45
415.25	1486.83
415.46	1542.12
415.67	1495.02
415.87	1544.17
416.08	1550.31
416.29	1427.43
416.49	1570.79
416.70	1535.98
416.91	1472.49
417.11	1578.98
417.32	1552.36
417.53	1562.60
417.73	1574.89
417.94	1507.30
418.15	1576.94
418.35	1527.78
418.56	1552.36
418.77	1662.95
418.97	1552.36
419.18	1535.98
419.38	1480.68
419.59	1546.22
419.80	1587.18
420.00	1482.73
420.21	1535.98
420.42	1593.32
420.62	1581.03
420.83	1533.93
421.04	1505.26
421.24	1566.70
421.45	1605.61
421.65	1550.31
421.86	1562.60
422.07	1552.36
422.27	1480.68
422.48	1523.69
422.69	1531.88
422.89	1513.45
423.10	1519.59
423.30	1562.60
423.51	1535.98
423.72	1554.41
423.92	1548.26
424.13	1486.83
424.33	1558.50
424.54	1634.28
424.75	1495.02
424.95	1585.13
425.16	1529.83
425.36	1470.44
425.57	1581.03
425.78	1660.90
425.98	1632.23
426.19	1503.21
426.39	1476.59
426.60	1591.27
426.81	1595.37
427.01	1574.89
427.22	1464.30
427.42	1468.39
427.63	1486.83
427.83	1525.74
428.04	1642.47
428.25	1595.37
428.45	1546.22
428.66	1538.02
428.86	1523.69
429.07	1527.78
429.28	1490.92
429.48	1525.74
429.69	1558.50
429.89	1529.83
430.10	1501.16
430.30	1572.84
430.51	1603.56
430.71	1540.07
430.92	1548.26
431.13	1560.55
431.33	1599.46
431.54	1636.33
431.74	1562.60
431.95	1591.27
432.15	1439.72
432.36	1562.60
432.56	1597.42
432.77	1554.41
432.98	1640.42
433.18	1581.03
433.39	1511.40
433.59	1578.98
433.80	1583.08
434.00	1677.29
434.21	1595.37
434.41	1519.59
434.62	1601.51
434.82	1513.45
435.03	1566.70
435.23	1568.74
435.44	1445.87
435.64	1585.13
435.85	1535.98
436.06	1597.42
436.26	1581.03
436.47	1492.97
436.67	1480.68
436.88	1542.12
437.08	1619.94
437.29	1615.85
437.49	1495.02
437.70	1554.41
437.90	1447.91
438.11	1636.33
438.31	1599.46
438.52	1710.05
438.72	1675.24
438.93	1753.06
439.13	1611.75
439.34	1572.84
439.54	1574.89
439.75	1689.57
439.95	1632.23
440.16	1581.03
440.36	1535.98
440.57	1609.70
440.77	1658.85
440.98	1576.94
441.18	1638.38
441.39	1501.16
441.59	1495.02
441.80	1632.23
442.00	1609.70
442.21	1605.61
442.41	1570.79
442.62	1638.38
442.82	1562.60
443.02	1460.20
443.23	1574.89
443.43	1554.41
443.64	1591.27
443.84	1566.70
444.05	1757.16
444.25	1535.98
444.46	1617.90
444.66	1578.98
444.87	1607.66
445.07	1452.01
445.28	1544.17
445.48	1583.08
445.69	1558.50
445.89	1593.32
446.09	1564.65
446.30	2037.73
446.50	3155.92
446.71	4476.86
446.91	5427.12
447.12	5826.47
447.32	5568.43
447.53	4638.65
447.73	4071.36
447.93	3641.29
448.14	3352.52
448.34	3178.45
448.55	2910.16
448.75	2840.53
448.96	2781.14
449.16	2510.81
449.36	2168.80
449.57	1966.05
449.77	1822.69
449.98	1626.09
450.18	1697.77
450.39	1583.08
450.59	1607.66
450.79	1656.81
451.00	1480.68
451.20	1535.98
451.41	1546.22
451.61	1533.93
451.81	1519.59
452.02	1507.30
452.22	1478.63
452.43	1462.25
452.63	1564.65
