SpectraSuite Data File
++++++++++++++++++++++++++++++++++++
Date: Tue May 03 12:55:48 CEST 2016
User: root
Dark Spectrum Present: No
Reference Spectrum Present: No
Number of Sampled Component Spectra: 1
Spectrometers: USB4C02835
Integration Time (usec): 100000 (USB4C02835)
Spectra Averaged: 1 (USB4C02835)
Boxcar Smoothing: 0 (USB4C02835)
Correct for Electrical Dark: No (USB4C02835)
Strobe/Lamp Enabled: No (USB4C02835)
Correct for Detector Non-linearity: No (USB4C02835)
Correct for Stray Light: No (USB4C02835)
Number of Pixels in Processed Spectrum: 3648
>>>>>Begin Processed Spectral Data<<<<<
177.47	1384.43
177.69	1384.43
177.91	1384.43
178.13	1368.04
178.36	1347.56
178.58	1439.72
178.80	1564.65
179.02	1472.49
179.24	1486.83
179.46	1533.93
179.68	1595.37
179.90	1546.22
180.13	1525.74
180.35	1525.74
180.57	1544.17
180.79	1568.74
181.01	1546.22
181.23	1529.83
181.45	1578.98
181.67	1538.02
181.90	1535.98
182.12	1519.59
182.34	1462.25
182.56	1656.81
182.78	1527.78
183.00	1533.93
183.22	1607.66
183.44	1509.35
183.66	1753.06
183.89	1609.70
184.11	1533.93
184.33	1566.70
184.55	1632.23
184.77	1587.18
184.99	1519.59
185.21	1513.45
185.43	1591.27
185.65	1583.08
185.87	1542.12
186.10	1574.89
186.32	1544.17
186.54	1566.70
186.76	1560.55
186.98	1523.69
187.20	1540.07
187.42	1499.11
187.64	1615.85
187.86	1546.22
188.08	1564.65
188.30	1492.97
188.52	1542.12
188.75	1587.18
188.97	1564.65
189.19	1521.64
189.41	1507.30
189.63	1521.64
189.85	1525.74
190.07	1492.97
190.29	1452.01
190.51	1564.65
190.73	1509.35
190.95	1556.46
191.17	1495.02
191.39	1509.35
191.61	1492.97
191.84	1552.36
192.06	1515.50
192.28	1462.25
192.50	1671.14
192.72	1609.70
192.94	1474.54
193.16	1589.22
193.38	1564.65
193.60	1507.30
193.82	1535.98
194.04	1599.46
194.26	1558.50
194.48	1570.79
194.70	1560.55
194.92	1515.50
195.14	1583.08
195.36	1560.55
195.58	1556.46
195.80	1550.31
196.02	1583.08
196.24	1515.50
196.46	1515.50
196.69	1570.79
196.91	1667.05
197.13	1517.54
197.35	1449.96
197.57	1634.28
197.79	1654.76
198.01	1521.64
198.23	1560.55
198.45	1511.40
198.67	1511.40
198.89	1554.41
199.11	1576.94
199.33	1464.30
199.55	1501.16
199.77	1550.31
199.99	1558.50
200.21	1548.26
200.43	1562.60
200.65	1470.44
200.87	1505.26
201.09	1566.70
201.31	1542.12
201.53	1564.65
201.75	1523.69
201.97	1538.02
202.19	1550.31
202.41	1578.98
202.63	1611.75
202.85	1556.46
203.07	1615.85
203.29	1583.08
203.51	1474.54
203.73	1513.45
203.95	1624.04
204.17	1595.37
204.39	1490.92
204.61	1505.26
204.83	1540.07
205.05	1542.12
205.27	1568.74
205.49	1589.22
205.71	1533.93
205.93	1470.44
206.15	1511.40
206.37	1572.84
206.59	1468.39
206.81	1505.26
207.03	1482.73
207.25	1460.20
207.47	1456.11
207.69	1505.26
207.91	1613.80
208.13	1556.46
208.34	1476.59
208.56	1511.40
208.78	1615.85
209.00	1490.92
209.22	1521.64
209.44	1546.22
209.66	1507.30
209.88	1515.50
210.10	1511.40
210.32	1511.40
210.54	1632.23
210.76	1501.16
210.98	1601.51
211.20	1540.07
211.42	1540.07
211.64	1533.93
211.86	1574.89
212.08	1591.27
212.30	1542.12
212.52	1468.39
212.74	1599.46
212.96	1556.46
213.17	1542.12
213.39	1527.78
213.61	1626.09
213.83	1560.55
214.05	1515.50
214.27	1624.04
214.49	1501.16
214.71	1535.98
214.93	1587.18
215.15	1507.30
215.37	1576.94
215.59	1488.87
215.81	1583.08
216.03	1652.71
216.24	1482.73
216.46	1544.17
216.68	1527.78
216.90	1544.17
217.12	1601.51
217.34	1533.93
217.56	1546.22
217.78	1654.76
218.00	1601.51
218.22	1550.31
218.44	1523.69
218.66	1611.75
218.87	1591.27
219.09	1576.94
219.31	1595.37
219.53	1603.56
219.75	1501.16
219.97	1585.13
220.19	1560.55
220.41	1525.74
220.63	1562.60
220.85	1599.46
221.06	1535.98
221.28	1630.18
221.50	1535.98
221.72	1531.88
221.94	1597.42
222.16	1525.74
222.38	1542.12
222.60	1654.76
222.82	1544.17
223.03	1546.22
223.25	1454.06
223.47	1583.08
223.69	1624.04
223.91	1574.89
224.13	1501.16
224.35	1525.74
224.57	1558.50
224.78	1576.94
225.00	1517.54
225.22	1574.89
225.44	1583.08
225.66	1538.02
225.88	1527.78
226.10	1615.85
226.32	1562.60
226.53	1599.46
226.75	1517.54
226.97	1523.69
227.19	1601.51
227.41	1482.73
227.63	1482.73
227.85	1511.40
228.06	1587.18
228.28	1538.02
228.50	1609.70
228.72	1468.39
228.94	1507.30
229.16	1460.20
229.37	1513.45
229.59	1550.31
229.81	1587.18
230.03	1497.07
230.25	1470.44
230.47	1495.02
230.69	1546.22
230.90	1621.99
231.12	1521.64
231.34	1484.78
231.56	1642.47
231.78	1484.78
232.00	1509.35
232.21	1548.26
232.43	1605.61
232.65	1413.10
232.87	1568.74
233.09	1495.02
233.30	1499.11
233.52	1540.07
233.74	1478.63
233.96	1554.41
234.18	1550.31
234.40	1535.98
234.61	1654.76
234.83	1476.59
235.05	1452.01
235.27	1703.91
235.49	1517.54
235.70	1583.08
235.92	1560.55
236.14	1503.21
236.36	1578.98
236.58	1490.92
236.79	1529.83
237.01	1546.22
237.23	1519.59
237.45	1646.57
237.67	1472.49
237.88	1599.46
238.10	1605.61
238.32	1513.45
238.54	1529.83
238.76	1495.02
238.97	1464.30
239.19	1458.15
239.41	1566.70
239.63	1595.37
239.85	1486.83
240.06	1490.92
240.28	1495.02
240.50	1550.31
240.72	1574.89
240.93	1548.26
241.15	1617.90
241.37	1527.78
241.59	1603.56
241.81	1603.56
242.02	1519.59
242.24	1554.41
242.46	1527.78
242.68	1484.78
242.89	1521.64
243.11	1576.94
243.33	1544.17
243.55	1511.40
243.76	1556.46
243.98	1595.37
244.20	1574.89
244.42	1550.31
244.64	1540.07
244.85	1413.10
245.07	1458.15
245.29	1646.57
245.51	1568.74
245.72	1576.94
245.94	1556.46
246.16	1519.59
246.38	1562.60
246.59	1484.78
246.81	1503.21
247.03	1478.63
247.24	1488.87
247.46	1497.07
247.68	1472.49
247.90	1581.03
248.11	1570.79
248.33	1556.46
248.55	1497.07
248.77	1544.17
248.98	1615.85
249.20	1603.56
249.42	1538.02
249.64	1523.69
249.85	1593.32
250.07	1501.16
250.29	1601.51
250.50	1671.14
250.72	1509.35
250.94	1587.18
251.16	1570.79
251.37	1607.66
251.59	1558.50
251.81	1644.52
252.02	1519.59
252.24	1533.93
252.46	1599.46
252.68	1486.83
252.89	1497.07
253.11	1495.02
253.33	1652.71
253.54	1607.66
253.76	1449.96
253.98	1443.82
254.20	1576.94
254.41	1542.12
254.63	1619.94
254.85	1458.15
255.06	1576.94
255.28	1533.93
255.50	1527.78
255.71	1521.64
255.93	1548.26
256.15	1519.59
256.36	1576.94
256.58	1632.23
256.80	1509.35
257.02	1599.46
257.23	1495.02
257.45	1488.87
257.67	1626.09
257.88	1529.83
258.10	1521.64
258.32	1542.12
258.53	1525.74
258.75	1552.36
258.97	1482.73
259.18	1538.02
259.40	1560.55
259.62	1605.61
259.83	1617.90
260.05	1644.52
260.27	1689.57
260.48	1554.41
260.70	1478.63
260.92	1531.88
261.13	1521.64
261.35	1589.22
261.57	1578.98
261.78	1484.78
262.00	1525.74
262.22	1507.30
262.43	1462.25
262.65	1513.45
262.86	1497.07
263.08	1576.94
263.30	1562.60
263.51	1454.06
263.73	1525.74
263.95	1554.41
264.16	1462.25
264.38	1529.83
264.60	1509.35
264.81	1576.94
265.03	1544.17
265.25	1599.46
265.46	1611.75
265.68	1587.18
265.89	1632.23
266.11	1409.00
266.33	1648.61
266.54	1538.02
266.76	1595.37
266.98	1601.51
267.19	1662.95
267.41	1607.66
267.62	1521.64
267.84	1458.15
268.06	1521.64
268.27	1556.46
268.49	1558.50
268.70	1570.79
268.92	1533.93
269.14	1533.93
269.35	1482.73
269.57	1597.42
269.79	1544.17
270.00	1472.49
270.22	1583.08
270.43	1513.45
270.65	1419.24
270.87	1509.35
271.08	1503.21
271.30	1519.59
271.51	1486.83
271.73	1566.70
271.95	1611.75
272.16	1486.83
272.38	1626.09
272.59	1544.17
272.81	1517.54
273.02	1564.65
273.24	1566.70
273.46	1578.98
273.67	1435.63
273.89	1456.11
274.10	1503.21
274.32	1568.74
274.54	1550.31
274.75	1535.98
274.97	1531.88
275.18	1628.14
275.40	1505.26
275.61	1554.41
275.83	1587.18
276.05	1505.26
276.26	1492.97
276.48	1568.74
276.69	1529.83
276.91	1507.30
277.12	1595.37
277.34	1605.61
277.55	1675.24
277.77	1490.92
277.99	1521.64
278.20	1492.97
278.42	1540.07
278.63	1562.60
278.85	1599.46
279.06	1542.12
279.28	1564.65
279.49	1540.07
279.71	1587.18
279.93	1593.32
280.14	1517.54
280.36	1550.31
280.57	1658.85
280.79	1531.88
281.00	1509.35
281.22	1538.02
281.43	1640.42
281.65	1443.82
281.86	1525.74
282.08	1628.14
282.29	1621.99
282.51	1525.74
282.73	1556.46
282.94	1400.81
283.16	1591.27
283.37	1705.96
283.59	1521.64
283.80	1558.50
284.02	1605.61
284.23	1574.89
284.45	1472.49
284.66	1548.26
284.88	1505.26
285.09	1509.35
285.31	1583.08
285.52	1544.17
285.74	1478.63
285.95	1568.74
286.17	1599.46
286.38	1603.56
286.60	1540.07
286.81	1484.78
287.03	1511.40
287.24	1556.46
287.46	1515.50
287.67	1544.17
287.89	1607.66
288.10	1562.60
288.32	1544.17
288.53	1628.14
288.75	1492.97
288.96	1527.78
289.18	1611.75
289.39	1525.74
289.61	1660.90
289.82	1607.66
290.04	1595.37
290.25	1480.68
290.47	1521.64
290.68	1527.78
290.90	1624.04
291.11	1464.30
291.33	1566.70
291.54	1517.54
291.76	1521.64
291.97	1595.37
292.18	1595.37
292.40	1456.11
292.61	1509.35
292.83	1554.41
293.04	1591.27
293.26	1523.69
293.47	1542.12
293.69	1478.63
293.90	1509.35
294.12	1605.61
294.33	1533.93
294.55	1476.59
294.76	1533.93
294.97	1533.93
295.19	1712.10
295.40	1509.35
295.62	1560.55
295.83	1603.56
296.05	1482.73
296.26	1574.89
296.48	1478.63
296.69	1509.35
296.90	1488.87
297.12	1568.74
297.33	1601.51
297.55	1529.83
297.76	1531.88
297.98	1492.97
298.19	1572.84
298.41	1544.17
298.62	1515.50
298.83	1628.14
299.05	1540.07
299.26	1531.88
299.48	1523.69
299.69	1552.36
299.90	1583.08
300.12	1474.54
300.33	1501.16
300.55	1538.02
300.76	1593.32
300.98	1503.21
301.19	1503.21
301.40	1554.41
301.62	1529.83
301.83	1562.60
302.05	1574.89
302.26	1519.59
302.47	1511.40
302.69	1486.83
302.90	1509.35
303.12	1433.58
303.33	1581.03
303.54	1572.84
303.76	1574.89
303.97	1490.92
304.19	1624.04
304.40	1452.01
304.61	1556.46
304.83	1628.14
305.04	1583.08
305.26	1603.56
305.47	1492.97
305.68	1556.46
305.90	1507.30
306.11	1558.50
306.33	1521.64
306.54	1515.50
306.75	1458.15
306.97	1404.91
307.18	1478.63
307.39	1636.33
307.61	1583.08
307.82	1566.70
308.04	1550.31
308.25	1484.78
308.46	1544.17
308.68	1544.17
308.89	1542.12
309.10	1525.74
309.32	1585.13
309.53	1507.30
309.74	1535.98
309.96	1495.02
310.17	1607.66
310.39	1468.39
310.60	1570.79
310.81	1593.32
311.03	1462.25
311.24	1589.22
311.45	1484.78
311.67	1607.66
311.88	1568.74
312.09	1546.22
312.31	1472.49
312.52	1501.16
312.73	1529.83
312.95	1458.15
313.16	1511.40
313.37	1585.13
313.59	1538.02
313.80	1587.18
314.01	1521.64
314.23	1552.36
314.44	1517.54
314.65	1474.54
314.87	1519.59
315.08	1488.87
315.29	1587.18
315.51	1478.63
315.72	1456.11
315.93	1578.98
316.15	1529.83
316.36	1544.17
316.57	1533.93
316.79	1501.16
317.00	1509.35
317.21	1556.46
317.43	1484.78
317.64	1441.77
317.85	1523.69
318.07	1544.17
318.28	1701.86
318.49	1800.16
318.70	1796.07
318.92	1757.16
319.13	1648.61
319.34	1759.21
319.56	1636.33
319.77	1603.56
319.98	1626.09
320.20	1619.94
320.41	1609.70
320.62	1599.46
320.83	1535.98
321.05	1660.90
321.26	1554.41
321.47	1519.59
321.69	1589.22
321.90	1505.26
322.11	1562.60
322.32	1480.68
322.54	1593.32
322.75	1568.74
322.96	1609.70
323.18	1488.87
323.39	1445.87
323.60	1521.64
323.81	1517.54
324.03	1513.45
324.24	1527.78
324.45	1548.26
324.66	1529.83
324.88	1519.59
325.09	1636.33
325.30	1583.08
325.52	1552.36
325.73	1531.88
325.94	1523.69
326.15	1458.15
326.37	1593.32
326.58	1560.55
326.79	1615.85
327.00	1486.83
327.22	1632.23
327.43	1523.69
327.64	1447.91
327.85	1601.51
328.07	1583.08
328.28	1564.65
328.49	1509.35
328.70	1576.94
328.92	1617.90
329.13	1486.83
329.34	1550.31
329.55	1585.13
329.76	1533.93
329.98	1525.74
330.19	1619.94
330.40	1591.27
330.61	1525.74
330.83	1484.78
331.04	1492.97
331.25	1503.21
331.46	1542.12
331.68	1468.39
331.89	1544.17
332.10	1521.64
332.31	1488.87
332.52	1533.93
332.74	1554.41
332.95	1445.87
333.16	1585.13
333.37	1568.74
333.58	1425.39
333.80	1554.41
334.01	1521.64
334.22	1540.07
334.43	1529.83
334.64	1501.16
334.86	1538.02
335.07	1550.31
335.28	1589.22
335.49	1525.74
335.70	1581.03
335.92	1591.27
336.13	1601.51
336.34	1523.69
336.55	1605.61
336.76	1566.70
336.98	1437.67
337.19	1540.07
337.40	1521.64
337.61	1675.24
337.82	1589.22
338.04	1591.27
338.25	1474.54
338.46	1554.41
338.67	1562.60
338.88	1449.96
339.09	1578.98
339.31	1492.97
339.52	1503.21
339.73	1527.78
339.94	1423.34
340.15	1626.09
340.36	1505.26
340.58	1538.02
340.79	1542.12
341.00	1562.60
341.21	1468.39
341.42	1669.09
341.63	1488.87
341.85	1658.85
342.06	1568.74
342.27	1470.44
342.48	1619.94
342.69	1452.01
342.90	1628.14
343.12	1607.66
343.33	1595.37
343.54	1509.35
343.75	1570.79
343.96	1607.66
344.17	1464.30
344.38	1650.66
344.60	1533.93
344.81	1462.25
345.02	1484.78
345.23	1654.76
345.44	1615.85
345.65	1578.98
345.86	1568.74
346.07	1572.84
346.29	1525.74
346.50	1564.65
346.71	1517.54
346.92	1558.50
347.13	1636.33
347.34	1619.94
347.55	1509.35
347.76	1601.51
347.98	1531.88
348.19	1529.83
348.40	1542.12
348.61	1544.17
348.82	1556.46
349.03	1597.42
349.24	1466.35
349.45	1632.23
349.66	1452.01
349.88	1572.84
350.09	1562.60
350.30	1658.85
350.51	1578.98
350.72	1607.66
350.93	1517.54
351.14	1476.59
351.35	1550.31
351.56	1533.93
351.77	1484.78
351.99	1607.66
352.20	1697.77
352.41	1578.98
352.62	1400.81
352.83	1509.35
353.04	1492.97
353.25	1468.39
353.46	1558.50
353.67	1593.32
353.88	1513.45
354.09	1558.50
354.30	1644.52
354.52	1576.94
354.73	1488.87
354.94	1525.74
355.15	1476.59
355.36	1566.70
355.57	1495.02
355.78	1603.56
355.99	1533.93
356.20	1501.16
356.41	1576.94
356.62	1581.03
356.83	1513.45
357.04	1509.35
357.25	1495.02
357.46	1562.60
357.68	1476.59
357.89	1445.87
358.10	1605.61
358.31	1558.50
358.52	1484.78
358.73	1511.40
358.94	1495.02
359.15	1519.59
359.36	1603.56
359.57	1572.84
359.78	1478.63
359.99	1605.61
360.20	1503.21
360.41	1558.50
360.62	1503.21
360.83	1632.23
361.04	1505.26
361.25	1544.17
361.46	1677.29
361.67	1603.56
361.88	1642.47
362.09	1593.32
362.30	1607.66
362.51	1513.45
362.72	1476.59
362.93	1617.90
363.14	1638.38
363.35	1531.88
363.56	1525.74
363.78	1560.55
363.99	1626.09
364.20	1523.69
364.41	1533.93
364.62	1605.61
364.83	1425.39
365.04	1538.02
365.25	1566.70
365.46	1697.77
365.67	1531.88
365.88	1511.40
366.09	1558.50
366.30	1550.31
366.51	1548.26
366.72	1427.43
366.93	1556.46
367.14	1525.74
367.35	1656.81
367.56	1581.03
367.77	1617.90
367.98	1576.94
368.18	1501.16
368.39	1529.83
368.60	1425.39
368.81	1564.65
369.02	1505.26
369.23	1581.03
369.44	1427.43
369.65	1509.35
369.86	1574.89
370.07	1585.13
370.28	1507.30
370.49	1533.93
370.70	1642.47
370.91	1517.54
371.12	1429.48
371.33	1548.26
371.54	1462.25
371.75	1595.37
371.96	1509.35
372.17	1478.63
372.38	1472.49
372.59	1564.65
372.80	1511.40
373.01	1525.74
373.22	1466.35
373.43	1570.79
373.64	1495.02
373.85	1589.22
374.06	1570.79
374.26	1531.88
374.47	1611.75
374.68	1544.17
374.89	1632.23
375.10	1550.31
375.31	1609.70
375.52	1521.64
375.73	1511.40
375.94	1472.49
376.15	1624.04
376.36	1533.93
376.57	1470.44
376.78	1542.12
376.99	1548.26
377.20	1527.78
377.40	1490.92
377.61	1652.71
377.82	1562.60
378.03	1558.50
378.24	1503.21
378.45	1593.32
378.66	1583.08
378.87	1531.88
379.08	1492.97
379.29	1564.65
379.50	1593.32
379.71	1499.11
379.91	1484.78
380.12	1509.35
380.33	1515.50
380.54	1509.35
380.75	1513.45
380.96	1503.21
381.17	1578.98
381.38	1560.55
381.59	1583.08
381.80	1617.90
382.00	1660.90
382.21	1552.36
382.42	1656.81
382.63	1718.25
382.84	1585.13
383.05	1597.42
383.26	1654.76
383.47	1558.50
383.68	1640.42
383.88	1540.07
384.09	1525.74
384.30	1656.81
384.51	1624.04
384.72	1497.07
384.93	1509.35
385.14	1613.80
385.35	1560.55
385.55	1480.68
385.76	1550.31
385.97	1527.78
386.18	1495.02
386.39	1519.59
386.60	1548.26
386.81	1509.35
387.02	1517.54
387.22	1566.70
387.43	1642.47
387.64	1685.48
387.85	1796.07
388.06	3028.95
388.27	7120.79
388.48	10528.61
388.68	12590.91
388.89	13782.83
389.10	12889.92
389.31	10108.77
389.52	8916.86
389.73	8019.85
389.93	7352.21
390.14	6840.22
390.35	6274.98
390.56	5488.56
390.77	4761.53
390.98	3616.71
391.18	2807.77
391.39	2234.33
391.60	1740.77
391.81	1771.49
392.02	1693.67
392.23	1669.09
392.43	1556.46
392.64	1642.47
392.85	1583.08
393.06	1617.90
393.27	1593.32
393.47	1466.35
393.68	1525.74
393.89	1503.21
394.10	1587.18
394.31	1515.50
394.52	1554.41
394.72	1511.40
394.93	1550.31
395.14	1517.54
395.35	1535.98
395.56	1472.49
395.76	1585.13
395.97	1640.42
396.18	1769.44
396.39	1746.92
396.60	1935.33
396.80	1732.58
397.01	1705.96
397.22	1691.62
397.43	1675.24
397.64	1624.04
397.84	1699.81
398.05	1656.81
398.26	1628.14
398.47	1624.04
398.67	1613.80
398.88	1509.35
399.09	1646.57
399.30	1556.46
399.51	1560.55
399.71	1527.78
399.92	1624.04
400.13	1527.78
400.34	1499.11
400.54	1546.22
400.75	1601.51
400.96	1511.40
401.17	1636.33
401.37	1570.79
401.58	1544.17
401.79	1587.18
402.00	1765.35
402.21	1961.95
402.41	1916.90
402.62	1990.63
402.83	1920.99
403.04	1828.84
403.24	1947.62
403.45	1677.29
403.66	1712.10
403.87	1724.39
404.07	1716.20
404.28	1742.82
404.49	1820.64
404.70	1607.66
404.90	1624.04
405.11	1603.56
405.32	1564.65
405.52	1511.40
405.73	1591.27
405.94	1443.82
406.15	1499.11
406.35	1605.61
406.56	1552.36
406.77	1572.84
406.98	1589.22
407.18	1472.49
407.39	1574.89
407.60	1548.26
407.80	1626.09
408.01	1554.41
408.22	1624.04
408.43	1560.55
408.63	1576.94
408.84	1613.80
409.05	1581.03
409.25	1550.31
409.46	1495.02
409.67	1509.35
409.88	1456.11
410.08	1562.60
410.29	1548.26
410.50	1566.70
410.70	1548.26
410.91	1474.54
411.12	1562.60
411.32	1597.42
411.53	1531.88
411.74	1593.32
411.95	1648.61
412.15	1615.85
412.36	1667.05
412.57	1665.00
412.77	1599.46
412.98	1583.08
413.19	1564.65
413.39	1587.18
413.60	1566.70
413.81	1574.89
414.01	1556.46
414.22	1587.18
414.43	1648.61
414.63	1609.70
414.84	1587.18
415.05	1544.17
415.25	1452.01
415.46	1552.36
415.67	1562.60
415.87	1544.17
416.08	1511.40
416.29	1478.63
416.49	1492.97
416.70	1462.25
416.91	1519.59
417.11	1482.73
417.32	1593.32
417.53	1538.02
417.73	1591.27
417.94	1644.52
418.15	1605.61
418.35	1529.83
418.56	1566.70
418.77	1671.14
418.97	1552.36
419.18	1538.02
419.38	1472.49
419.59	1527.78
419.80	1626.09
420.00	1527.78
420.21	1554.41
420.42	1527.78
420.62	1591.27
420.83	1466.35
421.04	1529.83
421.24	1482.73
421.45	1488.87
421.65	1535.98
421.86	1570.79
422.07	1568.74
422.27	1535.98
422.48	1585.13
422.69	1503.21
422.89	1544.17
423.10	1558.50
423.30	1517.54
423.51	1552.36
423.72	1578.98
423.92	1585.13
424.13	1529.83
424.33	1525.74
424.54	1531.88
424.75	1550.31
424.95	1601.51
425.16	1568.74
425.36	1523.69
425.57	1513.45
425.78	1603.56
425.98	1609.70
426.19	1503.21
426.39	1552.36
426.60	1505.26
426.81	1517.54
427.01	1488.87
427.22	1497.07
427.42	1456.11
427.63	1540.07
427.83	1558.50
428.04	1652.71
428.25	1570.79
428.45	1581.03
428.66	1556.46
428.86	1550.31
429.07	1417.19
429.28	1517.54
429.48	1474.54
429.69	1492.97
429.89	1525.74
430.10	1447.91
430.30	1523.69
430.51	1517.54
430.71	1554.41
430.92	1562.60
431.13	1519.59
431.33	1572.84
431.54	1578.98
431.74	1667.05
431.95	1607.66
432.15	1497.07
432.36	1515.50
432.56	1544.17
432.77	1591.27
432.98	1712.10
433.18	1574.89
433.39	1531.88
433.59	1521.64
433.80	1644.52
434.00	1644.52
434.21	1538.02
434.41	1517.54
434.62	1675.24
434.82	1513.45
435.03	1583.08
435.23	1521.64
435.44	1464.30
435.64	1505.26
435.85	1544.17
436.06	1544.17
436.26	1425.39
436.47	1476.59
436.67	1540.07
436.88	1460.20
437.08	1617.90
437.29	1603.56
437.49	1591.27
437.70	1576.94
437.90	1564.65
438.11	1593.32
438.31	1615.85
438.52	1771.49
438.72	1677.29
438.93	1710.05
439.13	1570.79
439.34	1726.44
439.54	1603.56
439.75	1591.27
439.95	1591.27
440.16	1550.31
440.36	1515.50
440.57	1603.56
440.77	1564.65
440.98	1566.70
441.18	1656.81
441.39	1521.64
441.59	1533.93
441.80	1656.81
442.00	1492.97
442.21	1585.13
442.41	1529.83
442.62	1570.79
442.82	1509.35
443.02	1529.83
443.23	1548.26
443.43	1597.42
443.64	1617.90
443.84	1460.20
444.05	1574.89
444.25	1562.60
444.46	1615.85
444.66	1628.14
444.87	1626.09
445.07	1492.97
445.28	1564.65
445.48	1619.94
445.69	1621.99
445.89	1646.57
446.09	1607.66
446.30	2004.96
446.50	3065.81
446.71	4489.15
446.91	5375.92
447.12	5984.16
447.32	5605.29
447.53	4628.41
447.73	4163.52
447.93	3690.44
448.14	3358.67
448.34	3137.49
448.55	2850.77
448.75	2973.65
448.96	2779.09
449.16	2508.76
449.36	2324.44
449.57	2080.74
449.77	1724.39
449.98	1703.91
450.18	1658.85
450.39	1638.38
450.59	1632.23
450.79	1568.74
451.00	1558.50
451.20	1558.50
451.41	1576.94
451.61	1576.94
451.81	1599.46
452.02	1540.07
452.22	1509.35
452.43	1570.79
452.63	1478.63
