SpectraSuite Data File
++++++++++++++++++++++++++++++++++++
Date: Tue May 03 12:55:51 CEST 2016
User: root
Dark Spectrum Present: No
Reference Spectrum Present: No
Number of Sampled Component Spectra: 1
Spectrometers: USB4C02835
Integration Time (usec): 100000 (USB4C02835)
Spectra Averaged: 1 (USB4C02835)
Boxcar Smoothing: 0 (USB4C02835)
Correct for Electrical Dark: No (USB4C02835)
Strobe/Lamp Enabled: No (USB4C02835)
Correct for Detector Non-linearity: No (USB4C02835)
Correct for Stray Light: No (USB4C02835)
Number of Pixels in Processed Spectrum: 3648
>>>>>Begin Processed Spectral Data<<<<<
177.47	1404.91
177.69	1404.91
177.91	1404.91
178.13	1368.04
178.36	1411.05
178.58	1492.97
178.80	1492.97
179.02	1460.20
179.24	1470.44
179.46	1509.35
179.68	1648.61
179.90	1511.40
180.13	1527.78
180.35	1476.59
180.57	1556.46
180.79	1492.97
181.01	1503.21
181.23	1581.03
181.45	1566.70
181.67	1529.83
181.90	1578.98
182.12	1449.96
182.34	1519.59
182.56	1513.45
182.78	1495.02
183.00	1515.50
183.22	1601.51
183.44	1478.63
183.66	1665.00
183.89	1619.94
184.11	1566.70
184.33	1495.02
184.55	1517.54
184.77	1621.99
184.99	1613.80
185.21	1456.11
185.43	1640.42
185.65	1486.83
185.87	1617.90
186.10	1595.37
186.32	1621.99
186.54	1570.79
186.76	1581.03
186.98	1486.83
187.20	1521.64
187.42	1472.49
187.64	1486.83
187.86	1601.51
188.08	1507.30
188.30	1519.59
188.52	1509.35
188.75	1652.71
188.97	1595.37
189.19	1585.13
189.41	1593.32
189.63	1568.74
189.85	1439.72
190.07	1523.69
190.29	1583.08
190.51	1521.64
190.73	1437.67
190.95	1609.70
191.17	1517.54
191.39	1503.21
191.61	1501.16
191.84	1568.74
192.06	1492.97
192.28	1517.54
192.50	1656.81
192.72	1585.13
192.94	1585.13
193.16	1572.84
193.38	1572.84
193.60	1441.77
193.82	1486.83
194.04	1544.17
194.26	1495.02
194.48	1533.93
194.70	1533.93
194.92	1462.25
195.14	1609.70
195.36	1406.95
195.58	1566.70
195.80	1492.97
196.02	1558.50
196.24	1568.74
196.46	1556.46
196.69	1490.92
196.91	1634.28
197.13	1533.93
197.35	1470.44
197.57	1476.59
197.79	1615.85
198.01	1443.82
198.23	1626.09
198.45	1533.93
198.67	1495.02
198.89	1583.08
199.11	1499.11
199.33	1521.64
199.55	1433.58
199.77	1507.30
199.99	1503.21
200.21	1542.12
200.43	1544.17
200.65	1454.06
200.87	1466.35
201.09	1492.97
201.31	1517.54
201.53	1497.07
201.75	1578.98
201.97	1568.74
202.19	1564.65
202.41	1542.12
202.63	1591.27
202.85	1550.31
203.07	1525.74
203.29	1480.68
203.51	1454.06
203.73	1476.59
203.95	1703.91
204.17	1544.17
204.39	1593.32
204.61	1542.12
204.83	1488.87
205.05	1665.00
205.27	1617.90
205.49	1589.22
205.71	1497.07
205.93	1521.64
206.15	1525.74
206.37	1564.65
206.59	1605.61
206.81	1476.59
207.03	1447.91
207.25	1439.72
207.47	1560.55
207.69	1548.26
207.91	1642.47
208.13	1624.04
208.34	1515.50
208.56	1540.07
208.78	1511.40
209.00	1462.25
209.22	1482.73
209.44	1554.41
209.66	1492.97
209.88	1486.83
210.10	1419.24
210.32	1484.78
210.54	1609.70
210.76	1523.69
210.98	1527.78
211.20	1423.34
211.42	1578.98
211.64	1499.11
211.86	1626.09
212.08	1578.98
212.30	1607.66
212.52	1538.02
212.74	1525.74
212.96	1468.39
213.17	1656.81
213.39	1621.99
213.61	1697.77
213.83	1595.37
214.05	1548.26
214.27	1585.13
214.49	1488.87
214.71	1462.25
214.93	1599.46
215.15	1560.55
215.37	1560.55
215.59	1480.68
215.81	1560.55
216.03	1605.61
216.24	1509.35
216.46	1470.44
216.68	1562.60
216.90	1572.84
217.12	1538.02
217.34	1566.70
217.56	1572.84
217.78	1568.74
218.00	1581.03
218.22	1527.78
218.44	1535.98
218.66	1505.26
218.87	1624.04
219.09	1454.06
219.31	1617.90
219.53	1546.22
219.75	1540.07
219.97	1505.26
220.19	1546.22
220.41	1560.55
220.63	1650.66
220.85	1544.17
221.06	1560.55
221.28	1570.79
221.50	1517.54
221.72	1538.02
221.94	1527.78
222.16	1566.70
222.38	1587.18
222.60	1595.37
222.82	1542.12
223.03	1531.88
223.25	1517.54
223.47	1519.59
223.69	1701.86
223.91	1562.60
224.13	1476.59
224.35	1519.59
224.57	1533.93
224.78	1572.84
225.00	1439.72
225.22	1550.31
225.44	1591.27
225.66	1599.46
225.88	1501.16
226.10	1626.09
226.32	1640.42
226.53	1538.02
226.75	1497.07
226.97	1638.38
227.19	1527.78
227.41	1529.83
227.63	1533.93
227.85	1497.07
228.06	1566.70
228.28	1542.12
228.50	1535.98
228.72	1478.63
228.94	1515.50
229.16	1431.53
229.37	1517.54
229.59	1513.45
229.81	1640.42
230.03	1509.35
230.25	1505.26
230.47	1544.17
230.69	1495.02
230.90	1611.75
231.12	1447.91
231.34	1578.98
231.56	1630.18
231.78	1417.19
232.00	1556.46
232.21	1499.11
232.43	1546.22
232.65	1449.96
232.87	1548.26
233.09	1517.54
233.30	1578.98
233.52	1542.12
233.74	1499.11
233.96	1468.39
234.18	1540.07
234.40	1486.83
234.61	1621.99
234.83	1546.22
235.05	1492.97
235.27	1667.05
235.49	1540.07
235.70	1568.74
235.92	1576.94
236.14	1556.46
236.36	1685.48
236.58	1519.59
236.79	1603.56
237.01	1515.50
237.23	1574.89
237.45	1609.70
237.67	1501.16
237.88	1552.36
238.10	1591.27
238.32	1472.49
238.54	1529.83
238.76	1535.98
238.97	1556.46
239.19	1540.07
239.41	1558.50
239.63	1673.19
239.85	1550.31
240.06	1529.83
240.28	1550.31
240.50	1548.26
240.72	1585.13
240.93	1576.94
241.15	1560.55
241.37	1562.60
241.59	1560.55
241.81	1521.64
242.02	1525.74
242.24	1648.61
242.46	1525.74
242.68	1499.11
242.89	1523.69
243.11	1581.03
243.33	1564.65
243.55	1570.79
243.76	1597.42
243.98	1538.02
244.20	1525.74
244.42	1564.65
244.64	1548.26
244.85	1488.87
245.07	1519.59
245.29	1607.66
245.51	1578.98
245.72	1615.85
245.94	1574.89
246.16	1529.83
246.38	1615.85
246.59	1562.60
246.81	1488.87
247.03	1566.70
247.24	1427.43
247.46	1593.32
247.68	1490.92
247.90	1480.68
248.11	1501.16
248.33	1560.55
248.55	1472.49
248.77	1517.54
248.98	1566.70
249.20	1613.80
249.42	1533.93
249.64	1531.88
249.85	1511.40
250.07	1497.07
250.29	1650.66
250.50	1583.08
250.72	1490.92
250.94	1519.59
251.16	1634.28
251.37	1587.18
251.59	1552.36
251.81	1566.70
252.02	1691.62
252.24	1533.93
252.46	1613.80
252.68	1484.78
252.89	1560.55
253.11	1409.00
253.33	1566.70
253.54	1599.46
253.76	1505.26
253.98	1566.70
254.20	1515.50
254.41	1460.20
254.63	1535.98
254.85	1556.46
255.06	1517.54
255.28	1523.69
255.50	1576.94
255.71	1525.74
255.93	1429.48
256.15	1519.59
256.36	1468.39
256.58	1499.11
256.80	1505.26
257.02	1486.83
257.23	1591.27
257.45	1474.54
257.67	1499.11
257.88	1470.44
258.10	1503.21
258.32	1581.03
258.53	1542.12
258.75	1603.56
258.97	1505.26
259.18	1578.98
259.40	1576.94
259.62	1638.38
259.83	1597.42
260.05	1589.22
260.27	1781.73
260.48	1607.66
260.70	1490.92
260.92	1552.36
261.13	1495.02
261.35	1535.98
261.57	1591.27
261.78	1429.48
262.00	1478.63
262.22	1570.79
262.43	1462.25
262.65	1449.96
262.86	1468.39
263.08	1687.53
263.30	1570.79
263.51	1521.64
263.73	1521.64
263.95	1574.89
264.16	1554.41
264.38	1554.41
264.60	1509.35
264.81	1472.49
265.03	1617.90
265.25	1558.50
265.46	1538.02
265.68	1538.02
265.89	1609.70
266.11	1519.59
266.33	1566.70
266.54	1572.84
266.76	1554.41
266.98	1540.07
267.19	1603.56
267.41	1593.32
267.62	1576.94
267.84	1533.93
268.06	1583.08
268.27	1566.70
268.49	1480.68
268.70	1591.27
268.92	1482.73
269.14	1554.41
269.35	1513.45
269.57	1542.12
269.79	1581.03
270.00	1585.13
270.22	1662.95
270.43	1548.26
270.65	1445.87
270.87	1546.22
271.08	1619.94
271.30	1546.22
271.51	1449.96
271.73	1523.69
271.95	1581.03
272.16	1546.22
272.38	1535.98
272.59	1519.59
272.81	1488.87
273.02	1615.85
273.24	1581.03
273.46	1562.60
273.67	1470.44
273.89	1478.63
274.10	1464.30
274.32	1576.94
274.54	1576.94
274.75	1558.50
274.97	1519.59
275.18	1552.36
275.40	1578.98
275.61	1501.16
275.83	1548.26
276.05	1417.19
276.26	1574.89
276.48	1497.07
276.69	1511.40
276.91	1492.97
277.12	1636.33
277.34	1595.37
277.55	1583.08
277.77	1515.50
277.99	1503.21
278.20	1472.49
278.42	1464.30
278.63	1454.06
278.85	1535.98
279.06	1505.26
279.28	1560.55
279.49	1515.50
279.71	1517.54
279.93	1550.31
280.14	1511.40
280.36	1433.58
280.57	1593.32
280.79	1535.98
281.00	1413.10
281.22	1482.73
281.43	1566.70
281.65	1499.11
281.86	1480.68
282.08	1593.32
282.29	1648.61
282.51	1521.64
282.73	1441.77
282.94	1427.43
283.16	1538.02
283.37	1613.80
283.59	1568.74
283.80	1538.02
284.02	1421.29
284.23	1538.02
284.45	1488.87
284.66	1495.02
284.88	1472.49
285.09	1542.12
285.31	1603.56
285.52	1525.74
285.74	1533.93
285.95	1480.68
286.17	1505.26
286.38	1572.84
286.60	1517.54
286.81	1525.74
287.03	1513.45
287.24	1538.02
287.46	1550.31
287.67	1513.45
287.89	1595.37
288.10	1554.41
288.32	1548.26
288.53	1554.41
288.75	1540.07
288.96	1552.36
289.18	1488.87
289.39	1615.85
289.61	1556.46
289.82	1572.84
290.04	1564.65
290.25	1464.30
290.47	1521.64
290.68	1511.40
290.90	1566.70
291.11	1478.63
291.33	1591.27
291.54	1576.94
291.76	1558.50
291.97	1515.50
292.18	1513.45
292.40	1531.88
292.61	1466.35
292.83	1681.38
293.04	1513.45
293.26	1525.74
293.47	1564.65
293.69	1521.64
293.90	1503.21
294.12	1578.98
294.33	1499.11
294.55	1527.78
294.76	1615.85
294.97	1638.38
295.19	1603.56
295.40	1529.83
295.62	1468.39
295.83	1558.50
296.05	1478.63
296.26	1550.31
296.48	1568.74
296.69	1531.88
296.90	1515.50
297.12	1589.22
297.33	1554.41
297.55	1570.79
297.76	1533.93
297.98	1576.94
298.19	1687.53
298.41	1564.65
298.62	1470.44
298.83	1626.09
299.05	1535.98
299.26	1398.76
299.48	1497.07
299.69	1589.22
299.90	1576.94
300.12	1482.73
300.33	1572.84
300.55	1552.36
300.76	1599.46
300.98	1587.18
301.19	1558.50
301.40	1509.35
301.62	1519.59
301.83	1544.17
302.05	1529.83
302.26	1632.23
302.47	1538.02
302.69	1490.92
302.90	1550.31
303.12	1486.83
303.33	1470.44
303.54	1624.04
303.76	1427.43
303.97	1570.79
304.19	1636.33
304.40	1513.45
304.61	1601.51
304.83	1597.42
305.04	1568.74
305.26	1574.89
305.47	1533.93
305.68	1525.74
305.90	1460.20
306.11	1533.93
306.33	1548.26
306.54	1423.34
306.75	1566.70
306.97	1458.15
307.18	1499.11
307.39	1486.83
307.61	1495.02
307.82	1484.78
308.04	1601.51
308.25	1468.39
308.46	1546.22
308.68	1556.46
308.89	1560.55
309.10	1587.18
309.32	1576.94
309.53	1488.87
309.74	1626.09
309.96	1538.02
310.17	1587.18
310.39	1458.15
310.60	1621.99
310.81	1519.59
311.03	1419.24
311.24	1490.92
311.45	1599.46
311.67	1550.31
311.88	1556.46
312.09	1468.39
312.31	1488.87
312.52	1443.82
312.73	1554.41
312.95	1454.06
313.16	1538.02
313.37	1687.53
313.59	1581.03
313.80	1576.94
314.01	1589.22
314.23	1484.78
314.44	1503.21
314.65	1474.54
314.87	1492.97
315.08	1552.36
315.29	1456.11
315.51	1517.54
315.72	1474.54
315.93	1581.03
316.15	1703.91
316.36	1492.97
316.57	1454.06
316.79	1595.37
317.00	1546.22
317.21	1533.93
317.43	1521.64
317.64	1535.98
317.85	1486.83
318.07	1554.41
318.28	1673.19
318.49	1783.78
318.70	1837.03
318.92	1648.61
319.13	1699.81
319.34	1677.29
319.56	1640.42
319.77	1634.28
319.98	1603.56
320.20	1523.69
320.41	1662.95
320.62	1611.75
320.83	1597.42
321.05	1597.42
321.26	1523.69
321.47	1492.97
321.69	1578.98
321.90	1486.83
322.11	1585.13
322.32	1497.07
322.54	1548.26
322.75	1554.41
322.96	1591.27
323.18	1435.63
323.39	1447.91
323.60	1511.40
323.81	1546.22
324.03	1550.31
324.24	1535.98
324.45	1484.78
324.66	1535.98
324.88	1591.27
325.09	1572.84
325.30	1511.40
325.52	1533.93
325.73	1521.64
325.94	1460.20
326.15	1490.92
326.37	1550.31
326.58	1617.90
326.79	1591.27
327.00	1454.06
327.22	1572.84
327.43	1470.44
327.64	1503.21
327.85	1630.18
328.07	1591.27
328.28	1597.42
328.49	1511.40
328.70	1574.89
328.92	1576.94
329.13	1499.11
329.34	1544.17
329.55	1681.38
329.76	1636.33
329.98	1452.01
330.19	1527.78
330.40	1550.31
330.61	1591.27
330.83	1615.85
331.04	1501.16
331.25	1517.54
331.46	1456.11
331.68	1476.59
331.89	1613.80
332.10	1574.89
332.31	1490.92
332.52	1550.31
332.74	1603.56
332.95	1535.98
333.16	1484.78
333.37	1564.65
333.58	1515.50
333.80	1593.32
334.01	1482.73
334.22	1550.31
334.43	1458.15
334.64	1521.64
334.86	1456.11
335.07	1501.16
335.28	1632.23
335.49	1462.25
335.70	1542.12
335.92	1613.80
336.13	1679.33
336.34	1486.83
336.55	1578.98
336.76	1476.59
336.98	1480.68
337.19	1568.74
337.40	1630.18
337.61	1556.46
337.82	1540.07
338.04	1560.55
338.25	1505.26
338.46	1542.12
338.67	1460.20
338.88	1492.97
339.09	1558.50
339.31	1554.41
339.52	1501.16
339.73	1497.07
339.94	1517.54
340.15	1572.84
340.36	1513.45
340.58	1505.26
340.79	1523.69
341.00	1560.55
341.21	1529.83
341.42	1611.75
341.63	1548.26
341.85	1591.27
342.06	1529.83
342.27	1505.26
342.48	1556.46
342.69	1439.72
342.90	1601.51
343.12	1538.02
343.33	1523.69
343.54	1564.65
343.75	1535.98
343.96	1548.26
344.17	1535.98
344.38	1587.18
344.60	1552.36
344.81	1585.13
345.02	1492.97
345.23	1628.14
345.44	1673.19
345.65	1595.37
345.86	1564.65
346.07	1599.46
346.29	1458.15
346.50	1525.74
346.71	1544.17
346.92	1732.58
347.13	1669.09
347.34	1513.45
347.55	1519.59
347.76	1593.32
347.98	1470.44
348.19	1593.32
348.40	1556.46
348.61	1458.15
348.82	1546.22
349.03	1544.17
349.24	1454.06
349.45	1585.13
349.66	1390.57
349.88	1519.59
350.09	1460.20
350.30	1542.12
350.51	1554.41
350.72	1589.22
350.93	1574.89
351.14	1527.78
351.35	1509.35
351.56	1617.90
351.77	1468.39
351.99	1548.26
352.20	1660.90
352.41	1591.27
352.62	1435.63
352.83	1515.50
353.04	1556.46
353.25	1476.59
353.46	1640.42
353.67	1624.04
353.88	1458.15
354.09	1550.31
354.30	1482.73
354.52	1574.89
354.73	1523.69
354.94	1576.94
355.15	1581.03
355.36	1578.98
355.57	1464.30
355.78	1585.13
355.99	1538.02
356.20	1587.18
356.41	1576.94
356.62	1583.08
356.83	1566.70
357.04	1591.27
357.25	1466.35
357.46	1550.31
357.68	1501.16
357.89	1519.59
358.10	1521.64
358.31	1519.59
358.52	1550.31
358.73	1525.74
358.94	1501.16
359.15	1511.40
359.36	1609.70
359.57	1525.74
359.78	1570.79
359.99	1607.66
360.20	1538.02
360.41	1544.17
360.62	1556.46
360.83	1509.35
361.04	1558.50
361.25	1574.89
361.46	1634.28
361.67	1607.66
361.88	1607.66
362.09	1566.70
362.30	1523.69
362.51	1572.84
362.72	1544.17
362.93	1642.47
363.14	1601.51
363.35	1525.74
363.56	1517.54
363.78	1587.18
363.99	1533.93
364.20	1509.35
364.41	1552.36
364.62	1611.75
364.83	1538.02
365.04	1515.50
365.25	1542.12
365.46	1667.05
365.67	1497.07
365.88	1521.64
366.09	1480.68
366.30	1488.87
366.51	1544.17
366.72	1488.87
366.93	1533.93
367.14	1570.79
367.35	1583.08
367.56	1583.08
367.77	1656.81
367.98	1554.41
368.18	1605.61
368.39	1538.02
368.60	1507.30
368.81	1593.32
369.02	1591.27
369.23	1431.53
369.44	1558.50
369.65	1466.35
369.86	1599.46
370.07	1609.70
370.28	1521.64
370.49	1540.07
370.70	1574.89
370.91	1490.92
371.12	1476.59
371.33	1540.07
371.54	1527.78
371.75	1560.55
371.96	1388.52
372.17	1570.79
372.38	1513.45
372.59	1585.13
372.80	1464.30
373.01	1542.12
373.22	1583.08
373.43	1527.78
373.64	1495.02
373.85	1515.50
374.06	1599.46
374.26	1495.02
374.47	1587.18
374.68	1554.41
374.89	1533.93
375.10	1564.65
375.31	1578.98
375.52	1548.26
375.73	1495.02
375.94	1486.83
376.15	1603.56
376.36	1490.92
376.57	1552.36
376.78	1509.35
376.99	1603.56
377.20	1574.89
377.40	1531.88
377.61	1648.61
377.82	1550.31
378.03	1640.42
378.24	1572.84
378.45	1503.21
378.66	1558.50
378.87	1531.88
379.08	1550.31
379.29	1472.49
379.50	1607.66
379.71	1572.84
379.91	1589.22
380.12	1583.08
380.33	1550.31
380.54	1560.55
380.75	1523.69
380.96	1488.87
381.17	1591.27
381.38	1564.65
381.59	1632.23
381.80	1597.42
382.00	1687.53
382.21	1587.18
382.42	1644.52
382.63	1636.33
382.84	1617.90
383.05	1603.56
383.26	1644.52
383.47	1581.03
383.68	1632.23
383.88	1527.78
384.09	1640.42
384.30	1570.79
384.51	1507.30
384.72	1456.11
384.93	1443.82
385.14	1574.89
385.35	1644.52
385.55	1488.87
385.76	1572.84
385.97	1507.30
386.18	1497.07
386.39	1492.97
386.60	1544.17
386.81	1617.90
387.02	1484.78
387.22	1558.50
387.43	1621.99
387.64	1638.38
387.85	1837.03
388.06	3125.20
388.27	7171.99
388.48	10491.74
388.68	12531.52
388.89	14042.92
389.10	12914.49
389.31	10090.34
389.52	9078.65
389.73	7882.63
389.93	7317.39
390.14	6725.53
390.35	6109.09
390.56	5558.19
390.77	4566.97
390.98	3626.95
391.18	2807.77
391.39	2101.22
391.60	1826.79
391.81	1705.96
392.02	1583.08
392.23	1595.37
392.43	1542.12
392.64	1697.77
392.85	1554.41
393.06	1628.14
393.27	1533.93
393.47	1570.79
393.68	1552.36
393.89	1613.80
394.10	1576.94
394.31	1509.35
394.52	1591.27
394.72	1554.41
394.93	1656.81
395.14	1595.37
395.35	1544.17
395.56	1538.02
395.76	1585.13
395.97	1697.77
396.18	1759.21
396.39	1832.93
396.60	1902.56
396.80	1765.35
397.01	1742.82
397.22	1681.38
397.43	1630.18
397.64	1626.09
397.84	1677.29
398.05	1644.52
398.26	1601.51
398.47	1632.23
398.67	1574.89
398.88	1429.48
399.09	1609.70
399.30	1538.02
399.51	1615.85
399.71	1599.46
399.92	1470.44
400.13	1523.69
400.34	1484.78
400.54	1529.83
400.75	1560.55
400.96	1550.31
401.17	1665.00
401.37	1624.04
401.58	1480.68
401.79	1644.52
402.00	1808.36
402.21	1949.67
402.41	1845.22
402.62	2119.65
402.83	2021.35
403.04	1880.04
403.24	1923.04
403.45	1748.97
403.66	1755.11
403.87	1701.86
404.07	1738.73
404.28	1822.69
404.49	1714.15
404.70	1617.90
404.90	1570.79
405.11	1515.50
405.32	1605.61
405.52	1535.98
405.73	1517.54
405.94	1558.50
406.15	1538.02
406.35	1499.11
406.56	1542.12
406.77	1542.12
406.98	1468.39
407.18	1437.67
407.39	1599.46
407.60	1558.50
407.80	1574.89
408.01	1466.35
408.22	1546.22
408.43	1529.83
408.63	1462.25
408.84	1583.08
409.05	1570.79
409.25	1470.44
409.46	1509.35
409.67	1501.16
409.88	1527.78
410.08	1529.83
410.29	1447.91
410.50	1521.64
410.70	1515.50
410.91	1449.96
411.12	1548.26
411.32	1515.50
411.53	1601.51
411.74	1636.33
411.95	1679.33
412.15	1546.22
412.36	1572.84
412.57	1562.60
412.77	1685.48
412.98	1570.79
413.19	1558.50
413.39	1572.84
413.60	1634.28
413.81	1540.07
414.01	1554.41
414.22	1533.93
414.43	1626.09
414.63	1472.49
414.84	1656.81
415.05	1583.08
415.25	1548.26
415.46	1617.90
415.67	1542.12
415.87	1548.26
416.08	1542.12
416.29	1492.97
416.49	1552.36
416.70	1597.42
416.91	1521.64
417.11	1552.36
417.32	1564.65
417.53	1542.12
417.73	1599.46
417.94	1466.35
418.15	1589.22
418.35	1548.26
418.56	1597.42
418.77	1570.79
418.97	1533.93
419.18	1593.32
419.38	1476.59
419.59	1595.37
419.80	1642.47
420.00	1495.02
420.21	1511.40
420.42	1587.18
420.62	1533.93
420.83	1535.98
421.04	1560.55
421.24	1546.22
421.45	1554.41
421.65	1578.98
421.86	1464.30
422.07	1552.36
422.27	1595.37
422.48	1619.94
422.69	1570.79
422.89	1544.17
423.10	1578.98
423.30	1482.73
423.51	1568.74
423.72	1593.32
423.92	1695.72
424.13	1484.78
424.33	1583.08
424.54	1558.50
424.75	1527.78
424.95	1552.36
425.16	1589.22
425.36	1480.68
425.57	1593.32
425.78	1576.94
425.98	1550.31
426.19	1548.26
426.39	1523.69
426.60	1544.17
426.81	1595.37
427.01	1560.55
427.22	1548.26
427.42	1492.97
427.63	1509.35
427.83	1581.03
428.04	1632.23
428.25	1583.08
428.45	1521.64
428.66	1642.47
428.86	1601.51
429.07	1519.59
429.28	1562.60
429.48	1538.02
429.69	1484.78
429.89	1535.98
430.10	1462.25
430.30	1501.16
430.51	1581.03
430.71	1544.17
430.92	1527.78
431.13	1476.59
431.33	1531.88
431.54	1581.03
431.74	1521.64
431.95	1570.79
432.15	1484.78
432.36	1517.54
432.56	1488.87
432.77	1566.70
432.98	1619.94
433.18	1492.97
433.39	1548.26
433.59	1527.78
433.80	1535.98
434.00	1671.14
434.21	1515.50
434.41	1558.50
434.62	1652.71
434.82	1501.16
435.03	1570.79
435.23	1570.79
435.44	1468.39
435.64	1556.46
435.85	1546.22
436.06	1621.99
436.26	1632.23
436.47	1560.55
436.67	1542.12
436.88	1529.83
437.08	1636.33
437.29	1640.42
437.49	1548.26
437.70	1648.61
437.90	1535.98
438.11	1767.40
438.31	1669.09
438.52	1634.28
438.72	1710.05
438.93	1685.48
439.13	1658.85
439.34	1685.48
439.54	1662.95
439.75	1601.51
439.95	1597.42
440.16	1593.32
440.36	1558.50
440.57	1591.27
440.77	1517.54
440.98	1566.70
441.18	1619.94
441.39	1535.98
441.59	1519.59
441.80	1636.33
442.00	1531.88
442.21	1675.24
442.41	1513.45
442.62	1599.46
442.82	1511.40
443.02	1576.94
443.23	1568.74
443.43	1564.65
443.64	1597.42
443.84	1501.16
444.05	1728.49
444.25	1482.73
444.46	1476.59
444.66	1501.16
444.87	1542.12
445.07	1550.31
445.28	1591.27
445.48	1609.70
445.69	1634.28
445.89	1689.57
446.09	1576.94
446.30	1908.71
446.50	3231.69
446.71	4392.89
446.91	5267.38
447.12	5717.93
447.32	5646.25
447.53	4691.90
447.73	4122.56
447.93	3631.05
448.14	3348.43
448.34	3196.88
448.55	2963.41
448.75	2854.87
448.96	2768.85
449.16	2590.68
449.36	2250.72
449.57	1951.71
449.77	1843.17
449.98	1667.05
450.18	1583.08
450.39	1587.18
450.59	1640.42
450.79	1578.98
451.00	1525.74
451.20	1658.85
451.41	1521.64
451.61	1617.90
451.81	1439.72
452.02	1558.50
452.22	1531.88
452.43	1527.78
452.63	1511.40
