SpectraSuite Data File
++++++++++++++++++++++++++++++++++++
Date: Tue May 03 12:55:54 CEST 2016
User: root
Dark Spectrum Present: No
Reference Spectrum Present: No
Number of Sampled Component Spectra: 1
Spectrometers: USB4C02835
Integration Time (usec): 100000 (USB4C02835)
Spectra Averaged: 1 (USB4C02835)
Boxcar Smoothing: 0 (USB4C02835)
Correct for Electrical Dark: No (USB4C02835)
Strobe/Lamp Enabled: No (USB4C02835)
Correct for Detector Non-linearity: No (USB4C02835)
Correct for Stray Light: No (USB4C02835)
Number of Pixels in Processed Spectrum: 3648
>>>>>Begin Processed Spectral Data<<<<<
177.47	1388.52
177.69	1388.52
177.91	1388.52
178.13	1368.04
178.36	1288.17
178.58	1501.16
178.80	1560.55
179.02	1460.20
179.24	1499.11
179.46	1503.21
179.68	1515.50
179.90	1513.45
180.13	1583.08
180.35	1525.74
180.57	1503.21
180.79	1574.89
181.01	1521.64
181.23	1544.17
181.45	1626.09
181.67	1540.07
181.90	1538.02
182.12	1517.54
182.34	1492.97
182.56	1552.36
182.78	1519.59
183.00	1517.54
183.22	1546.22
183.44	1443.82
183.66	1660.90
183.89	1636.33
184.11	1558.50
184.33	1568.74
184.55	1578.98
184.77	1589.22
184.99	1511.40
185.21	1482.73
185.43	1533.93
185.65	1490.92
185.87	1497.07
186.10	1621.99
186.32	1638.38
186.54	1574.89
186.76	1568.74
186.98	1636.33
187.20	1517.54
187.42	1531.88
187.64	1570.79
187.86	1527.78
188.08	1576.94
188.30	1519.59
188.52	1511.40
188.75	1578.98
188.97	1570.79
189.19	1501.16
189.41	1513.45
189.63	1531.88
189.85	1474.54
190.07	1521.64
190.29	1533.93
190.51	1531.88
190.73	1505.26
190.95	1699.81
191.17	1525.74
191.39	1574.89
191.61	1513.45
191.84	1507.30
192.06	1560.55
192.28	1447.91
192.50	1744.87
192.72	1550.31
192.94	1544.17
193.16	1597.42
193.38	1548.26
193.60	1521.64
193.82	1564.65
194.04	1607.66
194.26	1568.74
194.48	1490.92
194.70	1562.60
194.92	1495.02
195.14	1578.98
195.36	1468.39
195.58	1441.77
195.80	1535.98
196.02	1497.07
196.24	1554.41
196.46	1521.64
196.69	1505.26
196.91	1626.09
197.13	1538.02
197.35	1503.21
197.57	1560.55
197.79	1499.11
198.01	1497.07
198.23	1603.56
198.45	1617.90
198.67	1521.64
198.89	1525.74
199.11	1519.59
199.33	1452.01
199.55	1501.16
199.77	1484.78
199.99	1574.89
200.21	1509.35
200.43	1587.18
200.65	1519.59
200.87	1472.49
201.09	1542.12
201.31	1495.02
201.53	1558.50
201.75	1501.16
201.97	1558.50
202.19	1544.17
202.41	1585.13
202.63	1583.08
202.85	1607.66
203.07	1527.78
203.29	1591.27
203.51	1497.07
203.73	1552.36
203.95	1621.99
204.17	1558.50
204.39	1550.31
204.61	1429.48
204.83	1521.64
205.05	1554.41
205.27	1566.70
205.49	1667.05
205.71	1527.78
205.93	1466.35
206.15	1525.74
206.37	1529.83
206.59	1464.30
206.81	1456.11
207.03	1515.50
207.25	1513.45
207.47	1640.42
207.69	1544.17
207.91	1572.84
208.13	1558.50
208.34	1544.17
208.56	1552.36
208.78	1585.13
209.00	1538.02
209.22	1505.26
209.44	1568.74
209.66	1488.87
209.88	1546.22
210.10	1503.21
210.32	1558.50
210.54	1599.46
210.76	1472.49
210.98	1603.56
211.20	1437.67
211.42	1497.07
211.64	1564.65
211.86	1501.16
212.08	1548.26
212.30	1538.02
212.52	1564.65
212.74	1558.50
212.96	1538.02
213.17	1558.50
213.39	1538.02
213.61	1644.52
213.83	1585.13
214.05	1482.73
214.27	1597.42
214.49	1529.83
214.71	1482.73
214.93	1644.52
215.15	1593.32
215.37	1533.93
215.59	1505.26
215.81	1552.36
216.03	1562.60
216.24	1519.59
216.46	1554.41
216.68	1601.51
216.90	1552.36
217.12	1589.22
217.34	1529.83
217.56	1583.08
217.78	1601.51
218.00	1525.74
218.22	1558.50
218.44	1538.02
218.66	1517.54
218.87	1652.71
219.09	1480.68
219.31	1558.50
219.53	1501.16
219.75	1519.59
219.97	1574.89
220.19	1470.44
220.41	1533.93
220.63	1538.02
220.85	1613.80
221.06	1538.02
221.28	1619.94
221.50	1556.46
221.72	1484.78
221.94	1576.94
222.16	1587.18
222.38	1513.45
222.60	1499.11
222.82	1576.94
223.03	1574.89
223.25	1501.16
223.47	1601.51
223.69	1605.61
223.91	1523.69
224.13	1497.07
224.35	1462.25
224.57	1525.74
224.78	1595.37
225.00	1468.39
225.22	1527.78
225.44	1462.25
225.66	1583.08
225.88	1517.54
226.10	1609.70
226.32	1574.89
226.53	1564.65
226.75	1531.88
226.97	1521.64
227.19	1529.83
227.41	1523.69
227.63	1468.39
227.85	1538.02
228.06	1566.70
228.28	1585.13
228.50	1550.31
228.72	1449.96
228.94	1433.58
229.16	1478.63
229.37	1511.40
229.59	1406.95
229.81	1677.29
230.03	1548.26
230.25	1507.30
230.47	1460.20
230.69	1415.15
230.90	1605.61
231.12	1505.26
231.34	1609.70
231.56	1656.81
231.78	1525.74
232.00	1486.83
232.21	1556.46
232.43	1556.46
232.65	1454.06
232.87	1499.11
233.09	1419.24
233.30	1503.21
233.52	1603.56
233.74	1568.74
233.96	1564.65
234.18	1576.94
234.40	1527.78
234.61	1607.66
234.83	1548.26
235.05	1505.26
235.27	1621.99
235.49	1517.54
235.70	1568.74
235.92	1615.85
236.14	1548.26
236.36	1591.27
236.58	1474.54
236.79	1673.19
237.01	1517.54
237.23	1585.13
237.45	1578.98
237.67	1495.02
237.88	1519.59
238.10	1615.85
238.32	1466.35
238.54	1603.56
238.76	1490.92
238.97	1519.59
239.19	1542.12
239.41	1599.46
239.63	1603.56
239.85	1501.16
240.06	1535.98
240.28	1558.50
240.50	1599.46
240.72	1595.37
240.93	1509.35
241.15	1544.17
241.37	1511.40
241.59	1605.61
241.81	1544.17
242.02	1503.21
242.24	1550.31
242.46	1538.02
242.68	1583.08
242.89	1540.07
243.11	1583.08
243.33	1503.21
243.55	1523.69
243.76	1576.94
243.98	1515.50
244.20	1535.98
244.42	1515.50
244.64	1576.94
244.85	1437.67
245.07	1523.69
245.29	1644.52
245.51	1505.26
245.72	1535.98
245.94	1552.36
246.16	1501.16
246.38	1581.03
246.59	1464.30
246.81	1554.41
247.03	1517.54
247.24	1480.68
247.46	1576.94
247.68	1462.25
247.90	1578.98
248.11	1511.40
248.33	1523.69
248.55	1521.64
248.77	1570.79
248.98	1535.98
249.20	1624.04
249.42	1503.21
249.64	1531.88
249.85	1505.26
250.07	1513.45
250.29	1613.80
250.50	1624.04
250.72	1503.21
250.94	1531.88
251.16	1652.71
251.37	1644.52
251.59	1587.18
251.81	1601.51
252.02	1499.11
252.24	1560.55
252.46	1611.75
252.68	1447.91
252.89	1531.88
253.11	1474.54
253.33	1587.18
253.54	1542.12
253.76	1472.49
253.98	1535.98
254.20	1552.36
254.41	1468.39
254.63	1538.02
254.85	1513.45
255.06	1556.46
255.28	1529.83
255.50	1525.74
255.71	1546.22
255.93	1454.06
256.15	1576.94
256.36	1546.22
256.58	1546.22
256.80	1570.79
257.02	1499.11
257.23	1490.92
257.45	1607.66
257.67	1570.79
257.88	1568.74
258.10	1615.85
258.32	1560.55
258.53	1554.41
258.75	1648.61
258.97	1531.88
259.18	1495.02
259.40	1535.98
259.62	1595.37
259.83	1603.56
260.05	1587.18
260.27	1730.53
260.48	1617.90
260.70	1525.74
260.92	1538.02
261.13	1505.26
261.35	1542.12
261.57	1560.55
261.78	1460.20
262.00	1484.78
262.22	1544.17
262.43	1460.20
262.65	1542.12
262.86	1476.59
263.08	1601.51
263.30	1542.12
263.51	1513.45
263.73	1527.78
263.95	1597.42
264.16	1517.54
264.38	1499.11
264.60	1556.46
264.81	1472.49
265.03	1576.94
265.25	1558.50
265.46	1601.51
265.68	1591.27
265.89	1542.12
266.11	1449.96
266.33	1558.50
266.54	1589.22
266.76	1535.98
266.98	1611.75
267.19	1632.23
267.41	1552.36
267.62	1548.26
267.84	1521.64
268.06	1492.97
268.27	1550.31
268.49	1634.28
268.70	1531.88
268.92	1564.65
269.14	1517.54
269.35	1478.63
269.57	1439.72
269.79	1583.08
270.00	1503.21
270.22	1632.23
270.43	1478.63
270.65	1417.19
270.87	1603.56
271.08	1617.90
271.30	1566.70
271.51	1484.78
271.73	1556.46
271.95	1599.46
272.16	1560.55
272.38	1542.12
272.59	1499.11
272.81	1607.66
273.02	1572.84
273.24	1495.02
273.46	1517.54
273.67	1492.97
273.89	1531.88
274.10	1476.59
274.32	1544.17
274.54	1525.74
274.75	1552.36
274.97	1445.87
275.18	1603.56
275.40	1628.14
275.61	1562.60
275.83	1578.98
276.05	1523.69
276.26	1507.30
276.48	1570.79
276.69	1505.26
276.91	1558.50
277.12	1535.98
277.34	1521.64
277.55	1558.50
277.77	1517.54
277.99	1511.40
278.20	1452.01
278.42	1456.11
278.63	1531.88
278.85	1511.40
279.06	1529.83
279.28	1613.80
279.49	1564.65
279.71	1583.08
279.93	1599.46
280.14	1540.07
280.36	1531.88
280.57	1601.51
280.79	1658.85
281.00	1511.40
281.22	1525.74
281.43	1597.42
281.65	1458.15
281.86	1484.78
282.08	1521.64
282.29	1679.33
282.51	1540.07
282.73	1501.16
282.94	1456.11
283.16	1585.13
283.37	1564.65
283.59	1568.74
283.80	1568.74
284.02	1585.13
284.23	1574.89
284.45	1554.41
284.66	1497.07
284.88	1468.39
285.09	1591.27
285.31	1599.46
285.52	1542.12
285.74	1431.53
285.95	1562.60
286.17	1523.69
286.38	1624.04
286.60	1470.44
286.81	1542.12
287.03	1492.97
287.24	1599.46
287.46	1517.54
287.67	1507.30
287.89	1638.38
288.10	1499.11
288.32	1554.41
288.53	1560.55
288.75	1552.36
288.96	1550.31
289.18	1527.78
289.39	1519.59
289.61	1585.13
289.82	1662.95
290.04	1683.43
290.25	1507.30
290.47	1468.39
290.68	1583.08
290.90	1574.89
291.11	1492.97
291.33	1583.08
291.54	1525.74
291.76	1490.92
291.97	1449.96
292.18	1566.70
292.40	1511.40
292.61	1544.17
292.83	1624.04
293.04	1589.22
293.26	1540.07
293.47	1509.35
293.69	1449.96
293.90	1540.07
294.12	1529.83
294.33	1591.27
294.55	1505.26
294.76	1538.02
294.97	1665.00
295.19	1656.81
295.40	1556.46
295.62	1589.22
295.83	1542.12
296.05	1507.30
296.26	1533.93
296.48	1492.97
296.69	1523.69
296.90	1535.98
297.12	1550.31
297.33	1583.08
297.55	1540.07
297.76	1529.83
297.98	1574.89
298.19	1490.92
298.41	1529.83
298.62	1548.26
298.83	1568.74
299.05	1574.89
299.26	1470.44
299.48	1421.29
299.69	1542.12
299.90	1628.14
300.12	1476.59
300.33	1558.50
300.55	1605.61
300.76	1605.61
300.98	1472.49
301.19	1581.03
301.40	1501.16
301.62	1550.31
301.83	1566.70
302.05	1548.26
302.26	1556.46
302.47	1593.32
302.69	1476.59
302.90	1554.41
303.12	1474.54
303.33	1626.09
303.54	1636.33
303.76	1468.39
303.97	1511.40
304.19	1585.13
304.40	1538.02
304.61	1527.78
304.83	1673.19
305.04	1554.41
305.26	1492.97
305.47	1568.74
305.68	1509.35
305.90	1560.55
306.11	1531.88
306.33	1447.91
306.54	1546.22
306.75	1525.74
306.97	1488.87
307.18	1439.72
307.39	1497.07
307.61	1527.78
307.82	1462.25
308.04	1538.02
308.25	1560.55
308.46	1535.98
308.68	1484.78
308.89	1509.35
309.10	1533.93
309.32	1609.70
309.53	1570.79
309.74	1503.21
309.96	1466.35
310.17	1589.22
310.39	1523.69
310.60	1562.60
310.81	1538.02
311.03	1445.87
311.24	1568.74
311.45	1576.94
311.67	1646.57
311.88	1546.22
312.09	1517.54
312.31	1476.59
312.52	1556.46
312.73	1452.01
312.95	1492.97
313.16	1458.15
313.37	1533.93
313.59	1554.41
313.80	1619.94
314.01	1667.05
314.23	1535.98
314.44	1507.30
314.65	1533.93
314.87	1570.79
315.08	1519.59
315.29	1476.59
315.51	1509.35
315.72	1474.54
315.93	1574.89
316.15	1585.13
316.36	1507.30
316.57	1578.98
316.79	1621.99
317.00	1574.89
317.21	1611.75
317.43	1488.87
317.64	1550.31
317.85	1509.35
318.07	1652.71
318.28	1634.28
318.49	1701.86
318.70	1789.92
318.92	1732.58
319.13	1642.47
319.34	1687.53
319.56	1701.86
319.77	1687.53
319.98	1673.19
320.20	1574.89
320.41	1640.42
320.62	1650.66
320.83	1535.98
321.05	1603.56
321.26	1515.50
321.47	1527.78
321.69	1548.26
321.90	1472.49
322.11	1511.40
322.32	1576.94
322.54	1550.31
322.75	1507.30
322.96	1705.96
323.18	1460.20
323.39	1513.45
323.60	1460.20
323.81	1611.75
324.03	1464.30
324.24	1509.35
324.45	1517.54
324.66	1525.74
324.88	1595.37
325.09	1574.89
325.30	1492.97
325.52	1535.98
325.73	1581.03
325.94	1544.17
326.15	1480.68
326.37	1521.64
326.58	1548.26
326.79	1581.03
327.00	1523.69
327.22	1615.85
327.43	1509.35
327.64	1478.63
327.85	1578.98
328.07	1535.98
328.28	1603.56
328.49	1511.40
328.70	1581.03
328.92	1517.54
329.13	1546.22
329.34	1529.83
329.55	1552.36
329.76	1587.18
329.98	1540.07
330.19	1576.94
330.40	1574.89
330.61	1513.45
330.83	1578.98
331.04	1486.83
331.25	1589.22
331.46	1484.78
331.68	1423.34
331.89	1544.17
332.10	1521.64
332.31	1484.78
332.52	1460.20
332.74	1626.09
332.95	1525.74
333.16	1509.35
333.37	1564.65
333.58	1478.63
333.80	1529.83
334.01	1464.30
334.22	1503.21
334.43	1452.01
334.64	1513.45
334.86	1558.50
335.07	1503.21
335.28	1603.56
335.49	1452.01
335.70	1535.98
335.92	1570.79
336.13	1619.94
336.34	1550.31
336.55	1556.46
336.76	1611.75
336.98	1452.01
337.19	1505.26
337.40	1566.70
337.61	1634.28
337.82	1529.83
338.04	1578.98
338.25	1499.11
338.46	1564.65
338.67	1454.06
338.88	1554.41
339.09	1462.25
339.31	1439.72
339.52	1554.41
339.73	1468.39
339.94	1513.45
340.15	1533.93
340.36	1511.40
340.58	1550.31
340.79	1488.87
341.00	1640.42
341.21	1509.35
341.42	1648.61
341.63	1560.55
341.85	1603.56
342.06	1597.42
342.27	1511.40
342.48	1589.22
342.69	1466.35
342.90	1542.12
343.12	1576.94
343.33	1535.98
343.54	1644.52
343.75	1621.99
343.96	1497.07
344.17	1452.01
344.38	1515.50
344.60	1550.31
344.81	1515.50
345.02	1542.12
345.23	1656.81
345.44	1640.42
345.65	1578.98
345.86	1603.56
346.07	1550.31
346.29	1443.82
346.50	1583.08
346.71	1533.93
346.92	1548.26
347.13	1667.05
347.34	1495.02
347.55	1525.74
347.76	1564.65
347.98	1398.76
348.19	1566.70
348.40	1617.90
348.61	1548.26
348.82	1595.37
349.03	1527.78
349.24	1466.35
349.45	1626.09
349.66	1480.68
349.88	1576.94
350.09	1449.96
350.30	1619.94
350.51	1601.51
350.72	1554.41
350.93	1570.79
351.14	1505.26
351.35	1566.70
351.56	1583.08
351.77	1529.83
351.99	1519.59
352.20	1572.84
352.41	1609.70
352.62	1404.91
352.83	1525.74
353.04	1554.41
353.25	1558.50
353.46	1646.57
353.67	1574.89
353.88	1517.54
354.09	1550.31
354.30	1585.13
354.52	1519.59
354.73	1566.70
354.94	1540.07
355.15	1576.94
355.36	1695.72
355.57	1523.69
355.78	1597.42
355.99	1574.89
356.20	1525.74
356.41	1505.26
356.62	1564.65
356.83	1593.32
357.04	1648.61
357.25	1527.78
357.46	1533.93
357.68	1462.25
357.89	1431.53
358.10	1501.16
358.31	1482.73
358.52	1544.17
358.73	1495.02
358.94	1456.11
359.15	1505.26
359.36	1535.98
359.57	1570.79
359.78	1550.31
359.99	1662.95
360.20	1452.01
360.41	1507.30
360.62	1495.02
360.83	1527.78
361.04	1613.80
361.25	1562.60
361.46	1632.23
361.67	1470.44
361.88	1505.26
362.09	1566.70
362.30	1587.18
362.51	1482.73
362.72	1556.46
362.93	1554.41
363.14	1560.55
363.35	1705.96
363.56	1478.63
363.78	1550.31
363.99	1570.79
364.20	1476.59
364.41	1529.83
364.62	1640.42
364.83	1501.16
365.04	1540.07
365.25	1521.64
365.46	1548.26
365.67	1574.89
365.88	1591.27
366.09	1554.41
366.30	1558.50
366.51	1574.89
366.72	1490.92
366.93	1552.36
367.14	1550.31
367.35	1605.61
367.56	1572.84
367.77	1640.42
367.98	1527.78
368.18	1523.69
368.39	1667.05
368.60	1443.82
368.81	1499.11
369.02	1525.74
369.23	1531.88
369.44	1472.49
369.65	1564.65
369.86	1470.44
370.07	1585.13
370.28	1527.78
370.49	1517.54
370.70	1488.87
370.91	1523.69
371.12	1511.40
371.33	1574.89
371.54	1546.22
371.75	1613.80
371.96	1484.78
372.17	1499.11
372.38	1533.93
372.59	1546.22
372.80	1542.12
373.01	1523.69
373.22	1554.41
373.43	1540.07
373.64	1474.54
373.85	1617.90
374.06	1562.60
374.26	1576.94
374.47	1542.12
374.68	1679.33
374.89	1609.70
375.10	1533.93
375.31	1640.42
375.52	1552.36
375.73	1556.46
375.94	1497.07
376.15	1583.08
376.36	1505.26
376.57	1529.83
376.78	1540.07
376.99	1466.35
377.20	1574.89
377.40	1513.45
377.61	1644.52
377.82	1468.39
378.03	1624.04
378.24	1585.13
378.45	1521.64
378.66	1568.74
378.87	1525.74
379.08	1445.87
379.29	1468.39
379.50	1558.50
379.71	1556.46
379.91	1630.18
380.12	1556.46
380.33	1470.44
380.54	1554.41
380.75	1572.84
380.96	1531.88
381.17	1599.46
381.38	1609.70
381.59	1613.80
381.80	1538.02
382.00	1736.68
382.21	1644.52
382.42	1695.72
382.63	1736.68
382.84	1568.74
383.05	1562.60
383.26	1650.66
383.47	1576.94
383.68	1560.55
383.88	1558.50
384.09	1562.60
384.30	1675.24
384.51	1609.70
384.72	1552.36
384.93	1550.31
385.14	1488.87
385.35	1587.18
385.55	1431.53
385.76	1640.42
385.97	1581.03
386.18	1538.02
386.39	1562.60
386.60	1601.51
386.81	1597.42
387.02	1554.41
387.22	1490.92
387.43	1722.34
387.64	1613.80
387.85	1845.22
388.06	3119.06
388.27	7124.88
388.48	10489.70
388.68	12535.62
388.89	13965.10
389.10	12801.85
389.31	10278.76
389.52	9074.55
389.73	7853.96
389.93	7231.38
390.14	6741.91
390.35	6160.29
390.56	5568.43
390.77	4667.32
390.98	3717.06
391.18	2787.29
391.39	2179.04
391.60	1787.88
391.81	1779.68
392.02	1572.84
392.23	1640.42
392.43	1595.37
392.64	1685.48
392.85	1490.92
393.06	1671.14
393.27	1488.87
393.47	1478.63
393.68	1617.90
393.89	1507.30
394.10	1624.04
394.31	1462.25
394.52	1521.64
394.72	1484.78
394.93	1572.84
395.14	1472.49
395.35	1519.59
395.56	1560.55
395.76	1593.32
395.97	1689.57
396.18	1687.53
396.39	1718.25
396.60	1912.80
396.80	1740.77
397.01	1714.15
397.22	1626.09
397.43	1736.68
397.64	1570.79
397.84	1675.24
398.05	1703.91
398.26	1613.80
398.47	1603.56
398.67	1679.33
398.88	1486.83
399.09	1538.02
399.30	1511.40
399.51	1538.02
399.71	1482.73
399.92	1570.79
400.13	1507.30
400.34	1531.88
400.54	1593.32
400.75	1699.81
400.96	1576.94
401.17	1665.00
401.37	1587.18
401.58	1527.78
401.79	1578.98
402.00	1720.29
402.21	1920.99
402.41	1955.81
402.62	1920.99
402.83	1953.76
403.04	1849.32
403.24	1845.22
403.45	1736.68
403.66	1755.11
403.87	1722.34
404.07	1689.57
404.28	1767.40
404.49	1751.01
404.70	1578.98
404.90	1648.61
405.11	1636.33
405.32	1648.61
405.52	1562.60
405.73	1574.89
405.94	1505.26
406.15	1517.54
406.35	1556.46
406.56	1495.02
406.77	1576.94
406.98	1449.96
407.18	1578.98
407.39	1554.41
407.60	1548.26
407.80	1605.61
408.01	1525.74
408.22	1558.50
408.43	1482.73
408.63	1589.22
408.84	1632.23
409.05	1566.70
409.25	1535.98
409.46	1521.64
409.67	1515.50
409.88	1562.60
410.08	1495.02
410.29	1554.41
410.50	1578.98
410.70	1613.80
410.91	1476.59
411.12	1544.17
411.32	1572.84
411.53	1593.32
411.74	1683.43
411.95	1665.00
412.15	1611.75
412.36	1601.51
412.57	1521.64
412.77	1640.42
412.98	1595.37
413.19	1587.18
413.39	1501.16
413.60	1587.18
413.81	1648.61
414.01	1538.02
414.22	1564.65
414.43	1535.98
414.63	1535.98
414.84	1591.27
415.05	1517.54
415.25	1497.07
415.46	1570.79
415.67	1552.36
415.87	1615.85
416.08	1550.31
416.29	1564.65
416.49	1509.35
416.70	1497.07
416.91	1589.22
417.11	1538.02
417.32	1540.07
417.53	1538.02
417.73	1593.32
417.94	1556.46
418.15	1591.27
418.35	1488.87
418.56	1597.42
418.77	1701.86
418.97	1515.50
419.18	1533.93
419.38	1392.62
419.59	1558.50
419.80	1607.66
420.00	1591.27
420.21	1548.26
420.42	1634.28
420.62	1615.85
420.83	1456.11
421.04	1540.07
421.24	1490.92
421.45	1628.14
421.65	1540.07
421.86	1507.30
422.07	1589.22
422.27	1548.26
422.48	1538.02
422.69	1478.63
422.89	1515.50
423.10	1527.78
423.30	1421.29
423.51	1540.07
423.72	1566.70
423.92	1613.80
424.13	1519.59
424.33	1605.61
424.54	1525.74
424.75	1527.78
424.95	1607.66
425.16	1505.26
425.36	1503.21
425.57	1583.08
425.78	1556.46
425.98	1546.22
426.19	1599.46
426.39	1419.24
426.60	1515.50
426.81	1613.80
427.01	1591.27
427.22	1492.97
427.42	1521.64
427.63	1474.54
427.83	1562.60
428.04	1609.70
428.25	1593.32
428.45	1542.12
428.66	1550.31
428.86	1527.78
429.07	1542.12
429.28	1591.27
429.48	1554.41
429.69	1417.19
429.89	1632.23
430.10	1470.44
430.30	1548.26
430.51	1546.22
430.71	1484.78
430.92	1499.11
431.13	1517.54
431.33	1585.13
431.54	1509.35
431.74	1611.75
431.95	1609.70
432.15	1490.92
432.36	1525.74
432.56	1570.79
432.77	1716.20
432.98	1613.80
433.18	1548.26
433.39	1492.97
433.59	1482.73
433.80	1603.56
434.00	1667.05
434.21	1544.17
434.41	1507.30
434.62	1767.40
434.82	1538.02
435.03	1445.87
435.23	1515.50
435.44	1443.82
435.64	1589.22
435.85	1560.55
436.06	1603.56
436.26	1511.40
436.47	1529.83
436.67	1556.46
436.88	1452.01
437.08	1548.26
437.29	1644.52
437.49	1593.32
437.70	1585.13
437.90	1605.61
438.11	1634.28
438.31	1691.62
438.52	1691.62
438.72	1708.01
438.93	1791.97
439.13	1611.75
439.34	1673.19
439.54	1665.00
439.75	1628.14
439.95	1662.95
440.16	1535.98
440.36	1576.94
440.57	1646.57
440.77	1626.09
440.98	1531.88
441.18	1544.17
441.39	1599.46
441.59	1558.50
441.80	1621.99
442.00	1554.41
442.21	1603.56
442.41	1511.40
442.62	1480.68
442.82	1503.21
443.02	1509.35
443.23	1519.59
443.43	1533.93
443.64	1656.81
443.84	1556.46
444.05	1667.05
444.25	1585.13
444.46	1632.23
444.66	1542.12
444.87	1619.94
445.07	1466.35
445.28	1527.78
445.48	1621.99
445.69	1650.66
445.89	1648.61
446.09	1599.46
446.30	2002.91
446.50	3196.88
446.71	4581.31
446.91	5404.59
447.12	5791.66
447.32	5539.76
447.53	4648.89
447.73	4009.92
447.93	3633.10
448.14	3344.33
448.34	3237.84
448.55	2979.79
448.75	2871.25
448.96	2758.61
449.16	2527.19
449.36	2330.59
449.57	1998.82
449.77	1794.02
449.98	1640.42
450.18	1720.29
450.39	1535.98
450.59	1470.44
450.79	1523.69
451.00	1484.78
451.20	1642.47
451.41	1609.70
451.61	1562.60
451.81	1495.02
452.02	1544.17
452.22	1560.55
452.43	1527.78
452.63	1566.70
