SpectraSuite Data File
++++++++++++++++++++++++++++++++++++
Date: Tue May 03 12:55:59 CEST 2016
User: root
Dark Spectrum Present: No
Reference Spectrum Present: No
Number of Sampled Component Spectra: 1
Spectrometers: USB4C02835
Integration Time (usec): 100000 (USB4C02835)
Spectra Averaged: 1 (USB4C02835)
Boxcar Smoothing: 0 (USB4C02835)
Correct for Electrical Dark: No (USB4C02835)
Strobe/Lamp Enabled: No (USB4C02835)
Correct for Detector Non-linearity: No (USB4C02835)
Correct for Stray Light: No (USB4C02835)
Number of Pixels in Processed Spectrum: 3648
>>>>>Begin Processed Spectral Data<<<<<
177.47	1339.37
177.69	1339.37
177.91	1339.37
178.13	1366.00
178.36	1363.95
178.58	1523.69
178.80	1554.41
179.02	1501.16
179.24	1558.50
179.46	1466.35
179.68	1603.56
179.90	1593.32
180.13	1525.74
180.35	1474.54
180.57	1521.64
180.79	1607.66
181.01	1462.25
181.23	1601.51
181.45	1570.79
181.67	1576.94
181.90	1560.55
182.12	1529.83
182.34	1535.98
182.56	1521.64
182.78	1587.18
183.00	1576.94
183.22	1513.45
183.44	1499.11
183.66	1681.38
183.89	1591.27
184.11	1490.92
184.33	1589.22
184.55	1609.70
184.77	1562.60
184.99	1568.74
185.21	1535.98
185.43	1656.81
185.65	1501.16
185.87	1519.59
186.10	1640.42
186.32	1603.56
186.54	1511.40
186.76	1581.03
186.98	1605.61
187.20	1552.36
187.42	1548.26
187.64	1509.35
187.86	1540.07
188.08	1525.74
188.30	1497.07
188.52	1531.88
188.75	1615.85
188.97	1542.12
189.19	1583.08
189.41	1517.54
189.63	1542.12
189.85	1529.83
190.07	1521.64
190.29	1572.84
190.51	1626.09
190.73	1462.25
190.95	1578.98
191.17	1517.54
191.39	1574.89
191.61	1525.74
191.84	1593.32
192.06	1550.31
192.28	1478.63
192.50	1599.46
192.72	1562.60
192.94	1593.32
193.16	1572.84
193.38	1505.26
193.60	1452.01
193.82	1503.21
194.04	1675.24
194.26	1550.31
194.48	1529.83
194.70	1476.59
194.92	1542.12
195.14	1535.98
195.36	1513.45
195.58	1529.83
195.80	1542.12
196.02	1552.36
196.24	1581.03
196.46	1591.27
196.69	1527.78
196.91	1708.01
197.13	1533.93
197.35	1527.78
197.57	1581.03
197.79	1621.99
198.01	1544.17
198.23	1484.78
198.45	1564.65
198.67	1464.30
198.89	1556.46
199.11	1472.49
199.33	1581.03
199.55	1452.01
199.77	1499.11
199.99	1574.89
200.21	1509.35
200.43	1593.32
200.65	1449.96
200.87	1439.72
201.09	1550.31
201.31	1472.49
201.53	1511.40
201.75	1478.63
201.97	1585.13
202.19	1464.30
202.41	1495.02
202.63	1705.96
202.85	1552.36
203.07	1542.12
203.29	1503.21
203.51	1554.41
203.73	1486.83
203.95	1761.25
204.17	1650.66
204.39	1574.89
204.61	1544.17
204.83	1431.53
205.05	1574.89
205.27	1658.85
205.49	1607.66
205.71	1535.98
205.93	1425.39
206.15	1550.31
206.37	1480.68
206.59	1552.36
206.81	1529.83
207.03	1529.83
207.25	1474.54
207.47	1560.55
207.69	1529.83
207.91	1558.50
208.13	1583.08
208.34	1499.11
208.56	1400.81
208.78	1490.92
209.00	1527.78
209.22	1564.65
209.44	1560.55
209.66	1607.66
209.88	1572.84
210.10	1554.41
210.32	1554.41
210.54	1574.89
210.76	1513.45
210.98	1636.33
211.20	1490.92
211.42	1544.17
211.64	1570.79
211.86	1544.17
212.08	1550.31
212.30	1509.35
212.52	1505.26
212.74	1576.94
212.96	1499.11
213.17	1585.13
213.39	1583.08
213.61	1671.14
213.83	1550.31
214.05	1476.59
214.27	1495.02
214.49	1533.93
214.71	1499.11
214.93	1656.81
215.15	1540.07
215.37	1533.93
215.59	1519.59
215.81	1591.27
216.03	1605.61
216.24	1552.36
216.46	1566.70
216.68	1615.85
216.90	1648.61
217.12	1527.78
217.34	1597.42
217.56	1599.46
217.78	1572.84
218.00	1566.70
218.22	1538.02
218.44	1542.12
218.66	1593.32
218.87	1603.56
219.09	1574.89
219.31	1540.07
219.53	1464.30
219.75	1519.59
219.97	1452.01
220.19	1527.78
220.41	1587.18
220.63	1574.89
220.85	1542.12
221.06	1529.83
221.28	1617.90
221.50	1554.41
221.72	1529.83
221.94	1562.60
222.16	1550.31
222.38	1511.40
222.60	1603.56
222.82	1546.22
223.03	1527.78
223.25	1456.11
223.47	1607.66
223.69	1648.61
223.91	1570.79
224.13	1501.16
224.35	1527.78
224.57	1624.04
224.78	1556.46
225.00	1482.73
225.22	1531.88
225.44	1550.31
225.66	1548.26
225.88	1533.93
226.10	1585.13
226.32	1624.04
226.53	1615.85
226.75	1585.13
226.97	1519.59
227.19	1542.12
227.41	1490.92
227.63	1515.50
227.85	1513.45
228.06	1538.02
228.28	1478.63
228.50	1486.83
228.72	1460.20
228.94	1458.15
229.16	1419.24
229.37	1462.25
229.59	1552.36
229.81	1552.36
230.03	1480.68
230.25	1482.73
230.47	1492.97
230.69	1478.63
230.90	1593.32
231.12	1488.87
231.34	1519.59
231.56	1595.37
231.78	1492.97
232.00	1490.92
232.21	1476.59
232.43	1478.63
232.65	1435.63
232.87	1566.70
233.09	1529.83
233.30	1560.55
233.52	1578.98
233.74	1554.41
233.96	1589.22
234.18	1601.51
234.40	1634.28
234.61	1654.76
234.83	1470.44
235.05	1488.87
235.27	1626.09
235.49	1599.46
235.70	1542.12
235.92	1581.03
236.14	1560.55
236.36	1566.70
236.58	1562.60
236.79	1583.08
237.01	1576.94
237.23	1595.37
237.45	1605.61
237.67	1486.83
237.88	1568.74
238.10	1581.03
238.32	1480.68
238.54	1527.78
238.76	1501.16
238.97	1507.30
239.19	1509.35
239.41	1550.31
239.63	1624.04
239.85	1529.83
240.06	1552.36
240.28	1517.54
240.50	1624.04
240.72	1509.35
240.93	1552.36
241.15	1562.60
241.37	1523.69
241.59	1578.98
241.81	1509.35
242.02	1527.78
242.24	1482.73
242.46	1533.93
242.68	1523.69
242.89	1554.41
243.11	1648.61
243.33	1511.40
243.55	1523.69
243.76	1570.79
243.98	1445.87
244.20	1497.07
244.42	1550.31
244.64	1581.03
244.85	1413.10
245.07	1517.54
245.29	1597.42
245.51	1558.50
245.72	1519.59
245.94	1578.98
246.16	1595.37
246.38	1519.59
246.59	1599.46
246.81	1464.30
247.03	1558.50
247.24	1427.43
247.46	1529.83
247.68	1593.32
247.90	1521.64
248.11	1538.02
248.33	1540.07
248.55	1517.54
248.77	1505.26
248.98	1538.02
249.20	1538.02
249.42	1572.84
249.64	1605.61
249.85	1492.97
250.07	1505.26
250.29	1601.51
250.50	1650.66
250.72	1525.74
250.94	1550.31
251.16	1607.66
251.37	1558.50
251.59	1583.08
251.81	1550.31
252.02	1640.42
252.24	1566.70
252.46	1652.71
252.68	1527.78
252.89	1497.07
253.11	1464.30
253.33	1591.27
253.54	1615.85
253.76	1509.35
253.98	1497.07
254.20	1556.46
254.41	1423.34
254.63	1503.21
254.85	1529.83
255.06	1535.98
255.28	1525.74
255.50	1535.98
255.71	1466.35
255.93	1462.25
256.15	1538.02
256.36	1576.94
256.58	1466.35
256.80	1599.46
257.02	1611.75
257.23	1517.54
257.45	1574.89
257.67	1597.42
257.88	1595.37
258.10	1486.83
258.32	1488.87
258.53	1554.41
258.75	1689.57
258.97	1501.16
259.18	1503.21
259.40	1525.74
259.62	1732.58
259.83	1576.94
260.05	1542.12
260.27	1689.57
260.48	1535.98
260.70	1523.69
260.92	1521.64
261.13	1523.69
261.35	1505.26
261.57	1519.59
261.78	1525.74
262.00	1529.83
262.22	1581.03
262.43	1488.87
262.65	1546.22
262.86	1554.41
263.08	1607.66
263.30	1454.06
263.51	1484.78
263.73	1538.02
263.95	1525.74
264.16	1591.27
264.38	1476.59
264.60	1503.21
264.81	1470.44
265.03	1583.08
265.25	1554.41
265.46	1540.07
265.68	1630.18
265.89	1560.55
266.11	1449.96
266.33	1583.08
266.54	1515.50
266.76	1552.36
266.98	1525.74
267.19	1609.70
267.41	1558.50
267.62	1499.11
267.84	1429.48
268.06	1554.41
268.27	1476.59
268.49	1578.98
268.70	1648.61
268.92	1492.97
269.14	1603.56
269.35	1488.87
269.57	1445.87
269.79	1697.77
270.00	1482.73
270.22	1671.14
270.43	1515.50
270.65	1470.44
270.87	1535.98
271.08	1634.28
271.30	1540.07
271.51	1535.98
271.73	1585.13
271.95	1599.46
272.16	1626.09
272.38	1529.83
272.59	1462.25
272.81	1595.37
273.02	1511.40
273.24	1507.30
273.46	1611.75
273.67	1478.63
273.89	1546.22
274.10	1558.50
274.32	1511.40
274.54	1550.31
274.75	1529.83
274.97	1542.12
275.18	1630.18
275.40	1488.87
275.61	1562.60
275.83	1484.78
276.05	1550.31
276.26	1566.70
276.48	1607.66
276.69	1505.26
276.91	1476.59
277.12	1603.56
277.34	1626.09
277.55	1621.99
277.77	1501.16
277.99	1511.40
278.20	1460.20
278.42	1517.54
278.63	1490.92
278.85	1470.44
279.06	1505.26
279.28	1564.65
279.49	1562.60
279.71	1570.79
279.93	1566.70
280.14	1533.93
280.36	1499.11
280.57	1558.50
280.79	1597.42
281.00	1478.63
281.22	1495.02
281.43	1591.27
281.65	1435.63
281.86	1468.39
282.08	1552.36
282.29	1697.77
282.51	1470.44
282.73	1476.59
282.94	1439.72
283.16	1601.51
283.37	1611.75
283.59	1533.93
283.80	1576.94
284.02	1540.07
284.23	1628.14
284.45	1507.30
284.66	1501.16
284.88	1460.20
285.09	1581.03
285.31	1566.70
285.52	1556.46
285.74	1527.78
285.95	1583.08
286.17	1595.37
286.38	1566.70
286.60	1497.07
286.81	1480.68
287.03	1509.35
287.24	1511.40
287.46	1495.02
287.67	1615.85
287.89	1654.76
288.10	1591.27
288.32	1570.79
288.53	1599.46
288.75	1505.26
288.96	1615.85
289.18	1460.20
289.39	1527.78
289.61	1605.61
289.82	1595.37
290.04	1689.57
290.25	1554.41
290.47	1552.36
290.68	1411.05
290.90	1595.37
291.11	1470.44
291.33	1548.26
291.54	1421.29
291.76	1488.87
291.97	1507.30
292.18	1525.74
292.40	1552.36
292.61	1435.63
292.83	1597.42
293.04	1609.70
293.26	1544.17
293.47	1527.78
293.69	1482.73
293.90	1501.16
294.12	1572.84
294.33	1492.97
294.55	1566.70
294.76	1560.55
294.97	1552.36
295.19	1638.38
295.40	1542.12
295.62	1501.16
295.83	1556.46
296.05	1538.02
296.26	1617.90
296.48	1513.45
296.69	1472.49
296.90	1456.11
297.12	1597.42
297.33	1640.42
297.55	1615.85
297.76	1509.35
297.98	1546.22
298.19	1570.79
298.41	1474.54
298.62	1484.78
298.83	1548.26
299.05	1550.31
299.26	1533.93
299.48	1449.96
299.69	1523.69
299.90	1613.80
300.12	1501.16
300.33	1597.42
300.55	1538.02
300.76	1558.50
300.98	1585.13
301.19	1587.18
301.40	1513.45
301.62	1576.94
301.83	1497.07
302.05	1595.37
302.26	1505.26
302.47	1472.49
302.69	1503.21
302.90	1550.31
303.12	1464.30
303.33	1503.21
303.54	1636.33
303.76	1505.26
303.97	1525.74
304.19	1587.18
304.40	1417.19
304.61	1617.90
304.83	1597.42
305.04	1609.70
305.26	1566.70
305.47	1513.45
305.68	1560.55
305.90	1527.78
306.11	1566.70
306.33	1495.02
306.54	1595.37
306.75	1576.94
306.97	1435.63
307.18	1490.92
307.39	1497.07
307.61	1576.94
307.82	1464.30
308.04	1583.08
308.25	1511.40
308.46	1531.88
308.68	1550.31
308.89	1572.84
309.10	1755.11
309.32	1630.18
309.53	1566.70
309.74	1613.80
309.96	1495.02
310.17	1613.80
310.39	1480.68
310.60	1574.89
310.81	1509.35
311.03	1495.02
311.24	1603.56
311.45	1581.03
311.67	1656.81
311.88	1472.49
312.09	1525.74
312.31	1492.97
312.52	1505.26
312.73	1519.59
312.95	1476.59
313.16	1423.34
313.37	1568.74
313.59	1593.32
313.80	1533.93
314.01	1558.50
314.23	1437.67
314.44	1589.22
314.65	1394.67
314.87	1523.69
315.08	1472.49
315.29	1587.18
315.51	1548.26
315.72	1468.39
315.93	1624.04
316.15	1535.98
316.36	1562.60
316.57	1519.59
316.79	1558.50
317.00	1540.07
317.21	1529.83
317.43	1503.21
317.64	1589.22
317.85	1466.35
318.07	1540.07
318.28	1591.27
318.49	1697.77
318.70	1730.53
318.92	1789.92
319.13	1609.70
319.34	1734.63
319.56	1642.47
319.77	1538.02
319.98	1683.43
320.20	1646.57
320.41	1591.27
320.62	1585.13
320.83	1564.65
321.05	1660.90
321.26	1556.46
321.47	1492.97
321.69	1601.51
321.90	1505.26
322.11	1472.49
322.32	1585.13
322.54	1507.30
322.75	1531.88
322.96	1597.42
323.18	1511.40
323.39	1501.16
323.60	1464.30
323.81	1554.41
324.03	1548.26
324.24	1609.70
324.45	1517.54
324.66	1501.16
324.88	1501.16
325.09	1601.51
325.30	1568.74
325.52	1585.13
325.73	1552.36
325.94	1509.35
326.15	1566.70
326.37	1468.39
326.58	1630.18
326.79	1665.00
327.00	1513.45
327.22	1527.78
327.43	1556.46
327.64	1443.82
327.85	1560.55
328.07	1544.17
328.28	1597.42
328.49	1499.11
328.70	1572.84
328.92	1519.59
329.13	1533.93
329.34	1523.69
329.55	1574.89
329.76	1554.41
329.98	1535.98
330.19	1566.70
330.40	1505.26
330.61	1552.36
330.83	1517.54
331.04	1501.16
331.25	1533.93
331.46	1515.50
331.68	1495.02
331.89	1544.17
332.10	1560.55
332.31	1445.87
332.52	1515.50
332.74	1597.42
332.95	1560.55
333.16	1529.83
333.37	1464.30
333.58	1476.59
333.80	1533.93
334.01	1449.96
334.22	1517.54
334.43	1470.44
334.64	1574.89
334.86	1404.91
335.07	1519.59
335.28	1636.33
335.49	1456.11
335.70	1572.84
335.92	1554.41
336.13	1617.90
336.34	1587.18
336.55	1601.51
336.76	1583.08
336.98	1462.25
337.19	1560.55
337.40	1601.51
337.61	1662.95
337.82	1556.46
338.04	1576.94
338.25	1578.98
338.46	1595.37
338.67	1562.60
338.88	1515.50
339.09	1560.55
339.31	1476.59
339.52	1443.82
339.73	1484.78
339.94	1492.97
340.15	1548.26
340.36	1554.41
340.58	1503.21
340.79	1456.11
341.00	1560.55
341.21	1464.30
341.42	1630.18
341.63	1535.98
341.85	1529.83
342.06	1546.22
342.27	1497.07
342.48	1554.41
342.69	1470.44
342.90	1515.50
343.12	1621.99
343.33	1492.97
343.54	1527.78
343.75	1581.03
343.96	1564.65
344.17	1540.07
344.38	1525.74
344.60	1548.26
344.81	1482.73
345.02	1511.40
345.23	1492.97
345.44	1585.13
345.65	1562.60
345.86	1484.78
346.07	1597.42
346.29	1497.07
346.50	1552.36
346.71	1574.89
346.92	1624.04
347.13	1654.76
347.34	1538.02
347.55	1525.74
347.76	1552.36
347.98	1452.01
348.19	1509.35
348.40	1566.70
348.61	1560.55
348.82	1554.41
349.03	1560.55
349.24	1456.11
349.45	1583.08
349.66	1466.35
349.88	1556.46
350.09	1525.74
350.30	1644.52
350.51	1593.32
350.72	1533.93
350.93	1560.55
351.14	1556.46
351.35	1589.22
351.56	1525.74
351.77	1550.31
351.99	1546.22
352.20	1642.47
352.41	1558.50
352.62	1533.93
352.83	1533.93
353.04	1501.16
353.25	1521.64
353.46	1562.60
353.67	1578.98
353.88	1437.67
354.09	1513.45
354.30	1519.59
354.52	1546.22
354.73	1525.74
354.94	1435.63
355.15	1570.79
355.36	1634.28
355.57	1476.59
355.78	1578.98
355.99	1497.07
356.20	1535.98
356.41	1632.23
356.62	1581.03
356.83	1505.26
357.04	1603.56
357.25	1484.78
357.46	1525.74
357.68	1507.30
357.89	1497.07
358.10	1607.66
358.31	1535.98
358.52	1562.60
358.73	1499.11
358.94	1464.30
359.15	1505.26
359.36	1558.50
359.57	1566.70
359.78	1554.41
359.99	1515.50
360.20	1533.93
360.41	1513.45
360.62	1533.93
360.83	1558.50
361.04	1533.93
361.25	1538.02
361.46	1648.61
361.67	1572.84
361.88	1523.69
362.09	1544.17
362.30	1601.51
362.51	1484.78
362.72	1492.97
362.93	1542.12
363.14	1583.08
363.35	1515.50
363.56	1517.54
363.78	1607.66
363.99	1566.70
364.20	1533.93
364.41	1515.50
364.62	1605.61
364.83	1525.74
365.04	1538.02
365.25	1578.98
365.46	1593.32
365.67	1464.30
365.88	1544.17
366.09	1593.32
366.30	1535.98
366.51	1521.64
366.72	1499.11
366.93	1558.50
367.14	1515.50
367.35	1681.38
367.56	1470.44
367.77	1619.94
367.98	1540.07
368.18	1601.51
368.39	1544.17
368.60	1474.54
368.81	1576.94
369.02	1540.07
369.23	1525.74
369.44	1484.78
369.65	1535.98
369.86	1605.61
370.07	1603.56
370.28	1521.64
370.49	1597.42
370.70	1560.55
370.91	1482.73
371.12	1443.82
371.33	1578.98
371.54	1480.68
371.75	1556.46
371.96	1472.49
372.17	1646.57
372.38	1540.07
372.59	1552.36
372.80	1556.46
373.01	1521.64
373.22	1566.70
373.43	1576.94
373.64	1519.59
373.85	1548.26
374.06	1542.12
374.26	1599.46
374.47	1558.50
374.68	1560.55
374.89	1601.51
375.10	1509.35
375.31	1550.31
375.52	1578.98
375.73	1591.27
375.94	1499.11
376.15	1605.61
376.36	1535.98
376.57	1552.36
376.78	1511.40
376.99	1478.63
377.20	1587.18
377.40	1558.50
377.61	1644.52
377.82	1558.50
378.03	1517.54
378.24	1566.70
378.45	1550.31
378.66	1607.66
378.87	1527.78
379.08	1429.48
379.29	1445.87
379.50	1591.27
379.71	1558.50
379.91	1527.78
380.12	1544.17
380.33	1583.08
380.54	1527.78
380.75	1464.30
380.96	1607.66
381.17	1527.78
381.38	1548.26
381.59	1566.70
381.80	1601.51
382.00	1673.19
382.21	1544.17
382.42	1667.05
382.63	1714.15
382.84	1519.59
383.05	1533.93
383.26	1613.80
383.47	1544.17
383.68	1535.98
383.88	1566.70
384.09	1462.25
384.30	1669.09
384.51	1542.12
384.72	1458.15
384.93	1519.59
385.14	1548.26
385.35	1599.46
385.55	1431.53
385.76	1576.94
385.97	1550.31
386.18	1497.07
386.39	1523.69
386.60	1574.89
386.81	1503.21
387.02	1525.74
387.22	1542.12
387.43	1599.46
387.64	1632.23
387.85	1859.56
388.06	3131.34
388.27	7141.27
388.48	10616.67
388.68	12171.08
388.89	13967.15
389.10	12902.20
389.31	10108.77
389.52	8966.01
389.73	7835.53
389.93	6924.18
390.14	6805.40
390.35	6186.91
390.56	5556.14
390.77	4581.31
390.98	3655.62
391.18	2797.53
391.39	2203.61
391.60	1714.15
391.81	1742.82
392.02	1568.74
392.23	1648.61
392.43	1560.55
392.64	1652.71
392.85	1542.12
393.06	1578.98
393.27	1603.56
393.47	1492.97
393.68	1527.78
393.89	1538.02
394.10	1566.70
394.31	1583.08
394.52	1490.92
394.72	1464.30
394.93	1583.08
395.14	1550.31
395.35	1607.66
395.56	1513.45
395.76	1593.32
395.97	1699.81
396.18	1767.40
396.39	1732.58
396.60	1804.26
396.80	1765.35
397.01	1712.10
397.22	1705.96
397.43	1662.95
397.64	1560.55
397.84	1578.98
398.05	1783.78
398.26	1617.90
398.47	1603.56
398.67	1642.47
398.88	1525.74
399.09	1617.90
399.30	1550.31
399.51	1605.61
399.71	1486.83
399.92	1550.31
400.13	1611.75
400.34	1552.36
400.54	1460.20
400.75	1576.94
400.96	1566.70
401.17	1556.46
401.37	1525.74
401.58	1529.83
401.79	1581.03
402.00	1738.73
402.21	1873.89
402.41	1943.52
402.62	1886.18
402.83	1968.10
403.04	1845.22
403.24	1916.90
403.45	1703.91
403.66	1712.10
403.87	1656.81
404.07	1751.01
404.28	1775.59
404.49	1757.16
404.70	1648.61
404.90	1591.27
405.11	1517.54
405.32	1552.36
405.52	1566.70
405.73	1513.45
405.94	1435.63
406.15	1523.69
406.35	1515.50
406.56	1521.64
406.77	1562.60
406.98	1540.07
407.18	1474.54
407.39	1609.70
407.60	1542.12
407.80	1568.74
408.01	1503.21
408.22	1564.65
408.43	1511.40
408.63	1609.70
408.84	1556.46
409.05	1585.13
409.25	1513.45
409.46	1492.97
409.67	1560.55
409.88	1513.45
410.08	1591.27
410.29	1533.93
410.50	1529.83
410.70	1544.17
410.91	1466.35
411.12	1615.85
411.32	1429.48
411.53	1556.46
411.74	1558.50
411.95	1697.77
412.15	1640.42
412.36	1654.76
412.57	1656.81
412.77	1595.37
412.98	1558.50
413.19	1558.50
413.39	1566.70
413.60	1511.40
413.81	1583.08
414.01	1527.78
414.22	1630.18
414.43	1601.51
414.63	1474.54
414.84	1595.37
415.05	1535.98
415.25	1484.78
415.46	1611.75
415.67	1509.35
415.87	1574.89
416.08	1581.03
416.29	1544.17
416.49	1546.22
416.70	1578.98
416.91	1544.17
417.11	1538.02
417.32	1552.36
417.53	1546.22
417.73	1591.27
417.94	1538.02
418.15	1593.32
418.35	1550.31
418.56	1607.66
418.77	1699.81
418.97	1611.75
419.18	1564.65
419.38	1452.01
419.59	1548.26
419.80	1570.79
420.00	1517.54
420.21	1495.02
420.42	1626.09
420.62	1501.16
420.83	1482.73
421.04	1495.02
421.24	1509.35
421.45	1560.55
421.65	1523.69
421.86	1527.78
422.07	1660.90
422.27	1492.97
422.48	1593.32
422.69	1476.59
422.89	1517.54
423.10	1540.07
423.30	1517.54
423.51	1505.26
423.72	1527.78
423.92	1603.56
424.13	1437.67
424.33	1521.64
424.54	1601.51
424.75	1554.41
424.95	1628.14
425.16	1562.60
425.36	1492.97
425.57	1609.70
425.78	1505.26
425.98	1566.70
426.19	1492.97
426.39	1507.30
426.60	1548.26
426.81	1638.38
427.01	1533.93
427.22	1478.63
427.42	1474.54
427.63	1515.50
427.83	1593.32
428.04	1527.78
428.25	1589.22
428.45	1648.61
428.66	1523.69
428.86	1609.70
429.07	1435.63
429.28	1542.12
429.48	1605.61
429.69	1511.40
429.89	1544.17
430.10	1478.63
430.30	1515.50
430.51	1570.79
430.71	1495.02
430.92	1529.83
431.13	1523.69
431.33	1564.65
431.54	1535.98
431.74	1587.18
431.95	1587.18
432.15	1527.78
432.36	1470.44
432.56	1529.83
432.77	1609.70
432.98	1665.00
433.18	1513.45
433.39	1486.83
433.59	1529.83
433.80	1595.37
434.00	1568.74
434.21	1540.07
434.41	1470.44
434.62	1648.61
434.82	1464.30
435.03	1566.70
435.23	1542.12
435.44	1482.73
435.64	1513.45
435.85	1527.78
436.06	1576.94
436.26	1624.04
436.47	1538.02
436.67	1507.30
436.88	1507.30
437.08	1564.65
437.29	1533.93
437.49	1550.31
437.70	1572.84
437.90	1558.50
438.11	1699.81
438.31	1671.14
438.52	1675.24
438.72	1703.91
438.93	1705.96
439.13	1708.01
439.34	1646.57
439.54	1556.46
439.75	1669.09
439.95	1581.03
440.16	1617.90
440.36	1564.65
440.57	1605.61
440.77	1558.50
440.98	1550.31
441.18	1544.17
441.39	1552.36
441.59	1576.94
441.80	1617.90
442.00	1572.84
442.21	1665.00
442.41	1447.91
442.62	1556.46
442.82	1509.35
443.02	1605.61
443.23	1529.83
443.43	1529.83
443.64	1548.26
443.84	1468.39
444.05	1605.61
444.25	1603.56
444.46	1509.35
444.66	1546.22
444.87	1599.46
445.07	1458.15
445.28	1597.42
445.48	1593.32
445.69	1538.02
445.89	1738.73
446.09	1628.14
446.30	2107.36
446.50	3166.16
446.71	4462.52
446.91	5230.51
447.12	5773.22
447.32	5636.01
447.53	4562.87
447.73	4030.40
447.93	3602.38
448.14	3373.00
448.34	3157.97
448.55	3010.51
448.75	2930.64
448.96	2834.39
449.16	2420.70
449.36	2174.94
449.57	1964.00
449.77	1816.55
449.98	1621.99
450.18	1671.14
450.39	1624.04
450.59	1607.66
450.79	1495.02
451.00	1501.16
451.20	1552.36
451.41	1540.07
451.61	1490.92
451.81	1548.26
452.02	1550.31
452.22	1503.21
452.43	1476.59
452.63	1531.88
