SpectraSuite Data File
++++++++++++++++++++++++++++++++++++
Date: Tue May 03 12:56:01 CEST 2016
User: root
Dark Spectrum Present: No
Reference Spectrum Present: No
Number of Sampled Component Spectra: 1
Spectrometers: USB4C02835
Integration Time (usec): 100000 (USB4C02835)
Spectra Averaged: 1 (USB4C02835)
Boxcar Smoothing: 0 (USB4C02835)
Correct for Electrical Dark: No (USB4C02835)
Strobe/Lamp Enabled: No (USB4C02835)
Correct for Detector Non-linearity: No (USB4C02835)
Correct for Stray Light: No (USB4C02835)
Number of Pixels in Processed Spectrum: 3648
>>>>>Begin Processed Spectral Data<<<<<
177.47	1370.09
177.69	1370.09
177.91	1370.09
178.13	1339.37
178.36	1279.98
178.58	1443.82
178.80	1595.37
179.02	1472.49
179.24	1484.78
179.46	1482.73
179.68	1552.36
179.90	1470.44
180.13	1509.35
180.35	1492.97
180.57	1566.70
180.79	1591.27
181.01	1492.97
181.23	1609.70
181.45	1562.60
181.67	1525.74
181.90	1560.55
182.12	1511.40
182.34	1554.41
182.56	1525.74
182.78	1564.65
183.00	1503.21
183.22	1533.93
183.44	1482.73
183.66	1697.77
183.89	1587.18
184.11	1535.98
184.33	1656.81
184.55	1572.84
184.77	1468.39
184.99	1607.66
185.21	1583.08
185.43	1646.57
185.65	1603.56
185.87	1525.74
186.10	1624.04
186.32	1652.71
186.54	1601.51
186.76	1542.12
186.98	1599.46
187.20	1560.55
187.42	1562.60
187.64	1550.31
187.86	1591.27
188.08	1634.28
188.30	1529.83
188.52	1540.07
188.75	1542.12
188.97	1576.94
189.19	1517.54
189.41	1482.73
189.63	1540.07
189.85	1609.70
190.07	1517.54
190.29	1423.34
190.51	1488.87
190.73	1527.78
190.95	1611.75
191.17	1552.36
191.39	1480.68
191.61	1538.02
191.84	1552.36
192.06	1529.83
192.28	1511.40
192.50	1648.61
192.72	1585.13
192.94	1576.94
193.16	1566.70
193.38	1538.02
193.60	1548.26
193.82	1566.70
194.04	1605.61
194.26	1617.90
194.48	1576.94
194.70	1470.44
194.92	1441.77
195.14	1607.66
195.36	1595.37
195.58	1566.70
195.80	1560.55
196.02	1517.54
196.24	1583.08
196.46	1540.07
196.69	1507.30
196.91	1621.99
197.13	1511.40
197.35	1533.93
197.57	1566.70
197.79	1527.78
198.01	1556.46
198.23	1683.43
198.45	1595.37
198.67	1497.07
198.89	1544.17
199.11	1533.93
199.33	1470.44
199.55	1445.87
199.77	1552.36
199.99	1619.94
200.21	1499.11
200.43	1583.08
200.65	1495.02
200.87	1505.26
201.09	1497.07
201.31	1476.59
201.53	1540.07
201.75	1476.59
201.97	1589.22
202.19	1585.13
202.41	1497.07
202.63	1607.66
202.85	1550.31
203.07	1468.39
203.29	1570.79
203.51	1538.02
203.73	1482.73
203.95	1689.57
204.17	1560.55
204.39	1554.41
204.61	1621.99
204.83	1511.40
205.05	1615.85
205.27	1593.32
205.49	1660.90
205.71	1540.07
205.93	1529.83
206.15	1503.21
206.37	1492.97
206.59	1513.45
206.81	1394.67
207.03	1413.10
207.25	1499.11
207.47	1550.31
207.69	1509.35
207.91	1626.09
208.13	1599.46
208.34	1462.25
208.56	1529.83
208.78	1601.51
209.00	1435.63
209.22	1509.35
209.44	1513.45
209.66	1464.30
209.88	1501.16
210.10	1456.11
210.32	1535.98
210.54	1511.40
210.76	1497.07
210.98	1566.70
211.20	1460.20
211.42	1511.40
211.64	1619.94
211.86	1578.98
212.08	1441.77
212.30	1509.35
212.52	1523.69
212.74	1621.99
212.96	1574.89
213.17	1634.28
213.39	1621.99
213.61	1568.74
213.83	1601.51
214.05	1484.78
214.27	1558.50
214.49	1513.45
214.71	1564.65
214.93	1538.02
215.15	1503.21
215.37	1562.60
215.59	1421.29
215.81	1556.46
216.03	1601.51
216.24	1499.11
216.46	1478.63
216.68	1576.94
216.90	1587.18
217.12	1578.98
217.34	1556.46
217.56	1603.56
217.78	1564.65
218.00	1527.78
218.22	1478.63
218.44	1574.89
218.66	1595.37
218.87	1595.37
219.09	1509.35
219.31	1599.46
219.53	1570.79
219.75	1513.45
219.97	1613.80
220.19	1548.26
220.41	1503.21
220.63	1546.22
220.85	1533.93
221.06	1552.36
221.28	1564.65
221.50	1503.21
221.72	1591.27
221.94	1550.31
222.16	1542.12
222.38	1542.12
222.60	1617.90
222.82	1585.13
223.03	1587.18
223.25	1468.39
223.47	1687.53
223.69	1583.08
223.91	1593.32
224.13	1509.35
224.35	1568.74
224.57	1669.09
224.78	1562.60
225.00	1447.91
225.22	1460.20
225.44	1556.46
225.66	1533.93
225.88	1525.74
226.10	1648.61
226.32	1480.68
226.53	1646.57
226.75	1492.97
226.97	1613.80
227.19	1576.94
227.41	1523.69
227.63	1484.78
227.85	1413.10
228.06	1525.74
228.28	1630.18
228.50	1593.32
228.72	1484.78
228.94	1552.36
229.16	1484.78
229.37	1474.54
229.59	1439.72
229.81	1574.89
230.03	1544.17
230.25	1466.35
230.47	1478.63
230.69	1486.83
230.90	1503.21
231.12	1454.06
231.34	1583.08
231.56	1581.03
231.78	1525.74
232.00	1611.75
232.21	1570.79
232.43	1574.89
232.65	1427.43
232.87	1566.70
233.09	1548.26
233.30	1538.02
233.52	1564.65
233.74	1497.07
233.96	1523.69
234.18	1490.92
234.40	1511.40
234.61	1667.05
234.83	1454.06
235.05	1531.88
235.27	1671.14
235.49	1615.85
235.70	1638.38
235.92	1603.56
236.14	1572.84
236.36	1701.86
236.58	1495.02
236.79	1542.12
237.01	1501.16
237.23	1572.84
237.45	1628.14
237.67	1503.21
237.88	1533.93
238.10	1624.04
238.32	1507.30
238.54	1511.40
238.76	1525.74
238.97	1468.39
239.19	1509.35
239.41	1621.99
239.63	1552.36
239.85	1603.56
240.06	1533.93
240.28	1540.07
240.50	1552.36
240.72	1521.64
240.93	1490.92
241.15	1617.90
241.37	1505.26
241.59	1554.41
241.81	1595.37
242.02	1523.69
242.24	1578.98
242.46	1578.98
242.68	1484.78
242.89	1460.20
243.11	1550.31
243.33	1548.26
243.55	1535.98
243.76	1583.08
243.98	1533.93
244.20	1529.83
244.42	1490.92
244.64	1550.31
244.85	1499.11
245.07	1466.35
245.29	1591.27
245.51	1550.31
245.72	1593.32
245.94	1599.46
246.16	1607.66
246.38	1632.23
246.59	1521.64
246.81	1509.35
247.03	1503.21
247.24	1406.95
247.46	1540.07
247.68	1599.46
247.90	1531.88
248.11	1517.54
248.33	1527.78
248.55	1548.26
248.77	1517.54
248.98	1624.04
249.20	1560.55
249.42	1548.26
249.64	1609.70
249.85	1527.78
250.07	1439.72
250.29	1548.26
250.50	1552.36
250.72	1497.07
250.94	1548.26
251.16	1648.61
251.37	1599.46
251.59	1527.78
251.81	1546.22
252.02	1548.26
252.24	1507.30
252.46	1597.42
252.68	1568.74
252.89	1478.63
253.11	1429.48
253.33	1632.23
253.54	1619.94
253.76	1472.49
253.98	1540.07
254.20	1495.02
254.41	1513.45
254.63	1593.32
254.85	1482.73
255.06	1484.78
255.28	1546.22
255.50	1478.63
255.71	1505.26
255.93	1478.63
256.15	1474.54
256.36	1605.61
256.58	1478.63
256.80	1583.08
257.02	1533.93
257.23	1492.97
257.45	1495.02
257.67	1550.31
257.88	1492.97
258.10	1527.78
258.32	1667.05
258.53	1550.31
258.75	1517.54
258.97	1544.17
259.18	1527.78
259.40	1566.70
259.62	1566.70
259.83	1609.70
260.05	1613.80
260.27	1761.25
260.48	1562.60
260.70	1472.49
260.92	1511.40
261.13	1519.59
261.35	1509.35
261.57	1656.81
261.78	1501.16
262.00	1505.26
262.22	1587.18
262.43	1542.12
262.65	1521.64
262.86	1495.02
263.08	1628.14
263.30	1576.94
263.51	1486.83
263.73	1466.35
263.95	1570.79
264.16	1454.06
264.38	1425.39
264.60	1468.39
264.81	1490.92
265.03	1529.83
265.25	1578.98
265.46	1550.31
265.68	1540.07
265.89	1574.89
266.11	1466.35
266.33	1546.22
266.54	1599.46
266.76	1593.32
266.98	1566.70
267.19	1636.33
267.41	1550.31
267.62	1513.45
267.84	1439.72
268.06	1533.93
268.27	1531.88
268.49	1630.18
268.70	1542.12
268.92	1468.39
269.14	1484.78
269.35	1460.20
269.57	1533.93
269.79	1601.51
270.00	1535.98
270.22	1615.85
270.43	1587.18
270.65	1435.63
270.87	1529.83
271.08	1609.70
271.30	1554.41
271.51	1484.78
271.73	1595.37
271.95	1572.84
272.16	1554.41
272.38	1611.75
272.59	1531.88
272.81	1587.18
273.02	1525.74
273.24	1572.84
273.46	1648.61
273.67	1492.97
273.89	1462.25
274.10	1542.12
274.32	1605.61
274.54	1476.59
274.75	1556.46
274.97	1521.64
275.18	1624.04
275.40	1601.51
275.61	1583.08
275.83	1556.46
276.05	1488.87
276.26	1402.86
276.48	1525.74
276.69	1585.13
276.91	1495.02
277.12	1578.98
277.34	1564.65
277.55	1583.08
277.77	1535.98
277.99	1527.78
278.20	1509.35
278.42	1505.26
278.63	1464.30
278.85	1490.92
279.06	1480.68
279.28	1538.02
279.49	1542.12
279.71	1560.55
279.93	1503.21
280.14	1521.64
280.36	1517.54
280.57	1566.70
280.79	1626.09
281.00	1492.97
281.22	1550.31
281.43	1523.69
281.65	1517.54
281.86	1492.97
282.08	1581.03
282.29	1601.51
282.51	1482.73
282.73	1495.02
282.94	1505.26
283.16	1578.98
283.37	1585.13
283.59	1593.32
283.80	1591.27
284.02	1525.74
284.23	1572.84
284.45	1517.54
284.66	1480.68
284.88	1540.07
285.09	1585.13
285.31	1574.89
285.52	1460.20
285.74	1515.50
285.95	1636.33
286.17	1531.88
286.38	1560.55
286.60	1515.50
286.81	1472.49
287.03	1507.30
287.24	1476.59
287.46	1542.12
287.67	1552.36
287.89	1531.88
288.10	1554.41
288.32	1566.70
288.53	1519.59
288.75	1619.94
288.96	1593.32
289.18	1480.68
289.39	1533.93
289.61	1581.03
289.82	1636.33
290.04	1671.14
290.25	1556.46
290.47	1568.74
290.68	1535.98
290.90	1613.80
291.11	1505.26
291.33	1568.74
291.54	1439.72
291.76	1499.11
291.97	1480.68
292.18	1572.84
292.40	1540.07
292.61	1484.78
292.83	1708.01
293.04	1570.79
293.26	1556.46
293.47	1535.98
293.69	1523.69
293.90	1542.12
294.12	1533.93
294.33	1490.92
294.55	1499.11
294.76	1519.59
294.97	1593.32
295.19	1652.71
295.40	1529.83
295.62	1566.70
295.83	1558.50
296.05	1525.74
296.26	1609.70
296.48	1546.22
296.69	1527.78
296.90	1501.16
297.12	1587.18
297.33	1591.27
297.55	1558.50
297.76	1601.51
297.98	1654.76
298.19	1597.42
298.41	1523.69
298.62	1511.40
298.83	1581.03
299.05	1562.60
299.26	1466.35
299.48	1490.92
299.69	1560.55
299.90	1521.64
300.12	1490.92
300.33	1585.13
300.55	1603.56
300.76	1581.03
300.98	1519.59
301.19	1562.60
301.40	1585.13
301.62	1558.50
301.83	1595.37
302.05	1519.59
302.26	1581.03
302.47	1585.13
302.69	1478.63
302.90	1560.55
303.12	1474.54
303.33	1525.74
303.54	1601.51
303.76	1499.11
303.97	1619.94
304.19	1607.66
304.40	1415.15
304.61	1533.93
304.83	1581.03
305.04	1546.22
305.26	1544.17
305.47	1470.44
305.68	1533.93
305.90	1482.73
306.11	1568.74
306.33	1529.83
306.54	1519.59
306.75	1480.68
306.97	1533.93
307.18	1521.64
307.39	1525.74
307.61	1527.78
307.82	1431.53
308.04	1560.55
308.25	1505.26
308.46	1564.65
308.68	1538.02
308.89	1587.18
309.10	1564.65
309.32	1564.65
309.53	1560.55
309.74	1583.08
309.96	1556.46
310.17	1578.98
310.39	1578.98
310.60	1509.35
310.81	1488.87
311.03	1538.02
311.24	1593.32
311.45	1562.60
311.67	1638.38
311.88	1521.64
312.09	1462.25
312.31	1568.74
312.52	1480.68
312.73	1519.59
312.95	1515.50
313.16	1486.83
313.37	1613.80
313.59	1591.27
313.80	1665.00
314.01	1605.61
314.23	1546.22
314.44	1585.13
314.65	1460.20
314.87	1521.64
315.08	1527.78
315.29	1525.74
315.51	1488.87
315.72	1513.45
315.93	1708.01
316.15	1632.23
316.36	1523.69
316.57	1542.12
316.79	1611.75
317.00	1462.25
317.21	1574.89
317.43	1533.93
317.64	1482.73
317.85	1554.41
318.07	1544.17
318.28	1652.71
318.49	1634.28
318.70	1775.59
318.92	1732.58
319.13	1640.42
319.34	1738.73
319.56	1640.42
319.77	1712.10
319.98	1683.43
320.20	1636.33
320.41	1650.66
320.62	1646.57
320.83	1456.11
321.05	1589.22
321.26	1638.38
321.47	1566.70
321.69	1597.42
321.90	1472.49
322.11	1540.07
322.32	1511.40
322.54	1587.18
322.75	1511.40
322.96	1615.85
323.18	1490.92
323.39	1466.35
323.60	1411.05
323.81	1550.31
324.03	1458.15
324.24	1531.88
324.45	1525.74
324.66	1507.30
324.88	1624.04
325.09	1599.46
325.30	1529.83
325.52	1562.60
325.73	1568.74
325.94	1517.54
326.15	1501.16
326.37	1419.24
326.58	1585.13
326.79	1472.49
327.00	1431.53
327.22	1576.94
327.43	1538.02
327.64	1486.83
327.85	1525.74
328.07	1648.61
328.28	1669.09
328.49	1529.83
328.70	1476.59
328.92	1527.78
329.13	1560.55
329.34	1640.42
329.55	1638.38
329.76	1570.79
329.98	1546.22
330.19	1587.18
330.40	1587.18
330.61	1615.85
330.83	1578.98
331.04	1497.07
331.25	1511.40
331.46	1511.40
331.68	1507.30
331.89	1562.60
332.10	1523.69
332.31	1480.68
332.52	1464.30
332.74	1601.51
332.95	1452.01
333.16	1529.83
333.37	1578.98
333.58	1511.40
333.80	1544.17
334.01	1503.21
334.22	1497.07
334.43	1509.35
334.64	1568.74
334.86	1443.82
335.07	1566.70
335.28	1533.93
335.49	1429.48
335.70	1503.21
335.92	1601.51
336.13	1576.94
336.34	1505.26
336.55	1556.46
336.76	1560.55
336.98	1419.24
337.19	1527.78
337.40	1628.14
337.61	1603.56
337.82	1523.69
338.04	1589.22
338.25	1484.78
338.46	1548.26
338.67	1550.31
338.88	1503.21
339.09	1484.78
339.31	1574.89
339.52	1488.87
339.73	1437.67
339.94	1548.26
340.15	1548.26
340.36	1460.20
340.58	1505.26
340.79	1458.15
341.00	1583.08
341.21	1456.11
341.42	1644.52
341.63	1572.84
341.85	1581.03
342.06	1503.21
342.27	1435.63
342.48	1599.46
342.69	1492.97
342.90	1482.73
343.12	1521.64
343.33	1535.98
343.54	1533.93
343.75	1644.52
343.96	1546.22
344.17	1550.31
344.38	1581.03
344.60	1560.55
344.81	1509.35
345.02	1554.41
345.23	1544.17
345.44	1642.47
345.65	1607.66
345.86	1548.26
346.07	1538.02
346.29	1660.90
346.50	1503.21
346.71	1607.66
346.92	1632.23
347.13	1667.05
347.34	1554.41
347.55	1562.60
347.76	1562.60
347.98	1462.25
348.19	1507.30
348.40	1634.28
348.61	1468.39
348.82	1677.29
349.03	1578.98
349.24	1509.35
349.45	1603.56
349.66	1550.31
349.88	1515.50
350.09	1509.35
350.30	1599.46
350.51	1589.22
350.72	1538.02
350.93	1538.02
351.14	1501.16
351.35	1601.51
351.56	1521.64
351.77	1480.68
351.99	1585.13
352.20	1669.09
352.41	1599.46
352.62	1382.38
352.83	1542.12
353.04	1523.69
353.25	1546.22
353.46	1544.17
353.67	1593.32
353.88	1484.78
354.09	1529.83
354.30	1581.03
354.52	1507.30
354.73	1521.64
354.94	1454.06
355.15	1587.18
355.36	1613.80
355.57	1476.59
355.78	1562.60
355.99	1540.07
356.20	1462.25
356.41	1578.98
356.62	1546.22
356.83	1609.70
357.04	1591.27
357.25	1462.25
357.46	1538.02
357.68	1503.21
357.89	1492.97
358.10	1558.50
358.31	1538.02
358.52	1460.20
358.73	1476.59
358.94	1599.46
359.15	1572.84
359.36	1587.18
359.57	1564.65
359.78	1562.60
359.99	1572.84
360.20	1486.83
360.41	1497.07
360.62	1529.83
360.83	1550.31
361.04	1529.83
361.25	1574.89
361.46	1636.33
361.67	1531.88
361.88	1544.17
362.09	1597.42
362.30	1538.02
362.51	1550.31
362.72	1560.55
362.93	1578.98
363.14	1542.12
363.35	1570.79
363.56	1431.53
363.78	1542.12
363.99	1509.35
364.20	1499.11
364.41	1662.95
364.62	1525.74
364.83	1490.92
365.04	1601.51
365.25	1558.50
365.46	1751.01
365.67	1466.35
365.88	1486.83
366.09	1513.45
366.30	1501.16
366.51	1540.07
366.72	1456.11
366.93	1523.69
367.14	1572.84
367.35	1527.78
367.56	1581.03
367.77	1615.85
367.98	1521.64
368.18	1517.54
368.39	1511.40
368.60	1488.87
368.81	1562.60
369.02	1535.98
369.23	1495.02
369.44	1566.70
369.65	1587.18
369.86	1564.65
370.07	1695.72
370.28	1468.39
370.49	1591.27
370.70	1607.66
370.91	1396.71
371.12	1439.72
371.33	1570.79
371.54	1535.98
371.75	1656.81
371.96	1406.95
372.17	1597.42
372.38	1554.41
372.59	1533.93
372.80	1495.02
373.01	1554.41
373.22	1529.83
373.43	1476.59
373.64	1484.78
373.85	1572.84
374.06	1638.38
374.26	1630.18
374.47	1509.35
374.68	1552.36
374.89	1486.83
375.10	1486.83
375.31	1503.21
375.52	1503.21
375.73	1554.41
375.94	1535.98
376.15	1632.23
376.36	1503.21
376.57	1552.36
376.78	1538.02
376.99	1513.45
377.20	1501.16
377.40	1621.99
377.61	1648.61
377.82	1439.72
378.03	1576.94
378.24	1525.74
378.45	1546.22
378.66	1574.89
378.87	1478.63
379.08	1474.54
379.29	1515.50
379.50	1554.41
379.71	1523.69
379.91	1533.93
380.12	1546.22
380.33	1574.89
380.54	1511.40
380.75	1499.11
380.96	1535.98
381.17	1591.27
381.38	1560.55
381.59	1628.14
381.80	1593.32
382.00	1632.23
382.21	1662.95
382.42	1658.85
382.63	1607.66
382.84	1660.90
383.05	1552.36
383.26	1574.89
383.47	1527.78
383.68	1609.70
383.88	1607.66
384.09	1593.32
384.30	1621.99
384.51	1589.22
384.72	1486.83
384.93	1531.88
385.14	1566.70
385.35	1646.57
385.55	1411.05
385.76	1628.14
385.97	1552.36
386.18	1527.78
386.39	1546.22
386.60	1548.26
386.81	1570.79
387.02	1587.18
387.22	1568.74
387.43	1665.00
387.64	1689.57
387.85	1847.27
388.06	3196.88
388.27	7012.24
388.48	10391.39
388.68	12277.57
388.89	13827.88
389.10	12789.56
389.31	10049.38
389.52	8828.79
389.73	7952.26
389.93	7186.32
390.14	6758.30
390.35	6168.48
390.56	5441.45
390.77	4640.70
390.98	3649.48
391.18	2715.61
391.39	2170.85
391.60	1708.01
391.81	1720.29
392.02	1611.75
392.23	1624.04
392.43	1601.51
392.64	1601.51
392.85	1624.04
393.06	1591.27
393.27	1570.79
393.47	1515.50
393.68	1566.70
393.89	1415.15
394.10	1574.89
394.31	1480.68
394.52	1550.31
394.72	1515.50
394.93	1626.09
395.14	1513.45
395.35	1572.84
395.56	1554.41
395.76	1581.03
395.97	1638.38
396.18	1740.77
396.39	1697.77
396.60	1853.41
396.80	1759.21
397.01	1710.05
397.22	1701.86
397.43	1738.73
397.64	1564.65
397.84	1673.19
398.05	1751.01
398.26	1570.79
398.47	1595.37
398.67	1593.32
398.88	1599.46
399.09	1650.66
399.30	1562.60
399.51	1566.70
399.71	1484.78
399.92	1605.61
400.13	1613.80
400.34	1486.83
400.54	1466.35
400.75	1628.14
400.96	1517.54
401.17	1626.09
401.37	1591.27
401.58	1619.94
401.79	1550.31
402.00	1714.15
402.21	1931.23
402.41	1865.70
402.62	1980.39
402.83	1920.99
403.04	1929.19
403.24	1886.18
403.45	1736.68
403.66	1732.58
403.87	1716.20
404.07	1763.30
404.28	1681.38
404.49	1652.71
404.70	1613.80
404.90	1609.70
405.11	1542.12
405.32	1544.17
405.52	1527.78
405.73	1538.02
405.94	1470.44
406.15	1550.31
406.35	1552.36
406.56	1529.83
406.77	1538.02
406.98	1595.37
407.18	1513.45
407.39	1589.22
407.60	1533.93
407.80	1574.89
408.01	1497.07
408.22	1566.70
408.43	1525.74
408.63	1613.80
408.84	1597.42
409.05	1554.41
409.25	1542.12
409.46	1572.84
409.67	1474.54
409.88	1437.67
410.08	1560.55
410.29	1578.98
410.50	1523.69
410.70	1585.13
410.91	1437.67
411.12	1619.94
411.32	1556.46
411.53	1501.16
411.74	1730.53
411.95	1511.40
412.15	1601.51
412.36	1687.53
412.57	1658.85
412.77	1540.07
412.98	1605.61
413.19	1652.71
413.39	1619.94
413.60	1564.65
413.81	1669.09
414.01	1521.64
414.22	1511.40
414.43	1523.69
414.63	1585.13
414.84	1601.51
415.05	1560.55
415.25	1503.21
415.46	1507.30
415.67	1505.26
415.87	1550.31
416.08	1538.02
416.29	1515.50
416.49	1486.83
416.70	1535.98
416.91	1517.54
417.11	1558.50
417.32	1560.55
417.53	1540.07
417.73	1517.54
417.94	1462.25
418.15	1523.69
418.35	1562.60
418.56	1505.26
418.77	1601.51
418.97	1578.98
419.18	1511.40
419.38	1402.86
419.59	1574.89
419.80	1603.56
420.00	1574.89
420.21	1609.70
420.42	1613.80
420.62	1519.59
420.83	1499.11
421.04	1578.98
421.24	1525.74
421.45	1681.38
421.65	1605.61
421.86	1556.46
422.07	1574.89
422.27	1542.12
422.48	1624.04
422.69	1480.68
422.89	1552.36
423.10	1511.40
423.30	1503.21
423.51	1464.30
423.72	1554.41
423.92	1632.23
424.13	1482.73
424.33	1552.36
424.54	1581.03
424.75	1560.55
424.95	1548.26
425.16	1558.50
425.36	1535.98
425.57	1656.81
425.78	1597.42
425.98	1542.12
426.19	1515.50
426.39	1368.04
426.60	1560.55
426.81	1619.94
427.01	1595.37
427.22	1478.63
427.42	1449.96
427.63	1519.59
427.83	1593.32
428.04	1626.09
428.25	1591.27
428.45	1642.47
428.66	1550.31
428.86	1601.51
429.07	1486.83
429.28	1515.50
429.48	1587.18
429.69	1540.07
429.89	1538.02
430.10	1492.97
430.30	1638.38
430.51	1566.70
430.71	1523.69
430.92	1583.08
431.13	1564.65
431.33	1517.54
431.54	1578.98
431.74	1628.14
431.95	1630.18
432.15	1490.92
432.36	1609.70
432.56	1564.65
432.77	1673.19
432.98	1621.99
433.18	1495.02
433.39	1540.07
433.59	1546.22
433.80	1667.05
434.00	1624.04
434.21	1550.31
434.41	1503.21
434.62	1712.10
434.82	1589.22
435.03	1501.16
435.23	1572.84
435.44	1560.55
435.64	1548.26
435.85	1529.83
436.06	1519.59
436.26	1542.12
436.47	1538.02
436.67	1486.83
436.88	1542.12
437.08	1587.18
437.29	1601.51
437.49	1591.27
437.70	1589.22
437.90	1552.36
438.11	1675.24
438.31	1619.94
438.52	1710.05
438.72	1646.57
438.93	1794.02
439.13	1710.05
439.34	1652.71
439.54	1562.60
439.75	1626.09
439.95	1587.18
440.16	1574.89
440.36	1591.27
440.57	1535.98
440.77	1599.46
440.98	1546.22
441.18	1583.08
441.39	1525.74
441.59	1468.39
441.80	1669.09
442.00	1566.70
442.21	1613.80
442.41	1503.21
442.62	1632.23
442.82	1458.15
443.02	1525.74
443.23	1603.56
443.43	1566.70
443.64	1587.18
443.84	1521.64
444.05	1585.13
444.25	1558.50
444.46	1548.26
444.66	1572.84
444.87	1718.25
445.07	1480.68
445.28	1495.02
445.48	1617.90
445.69	1599.46
445.89	1617.90
446.09	1611.75
446.30	1992.67
446.50	3139.54
446.71	4442.04
446.91	5326.77
447.12	5742.50
447.32	5603.24
447.53	4695.99
447.73	4130.75
447.93	3602.38
448.14	3356.62
448.34	3223.50
448.55	2920.40
448.75	2928.60
448.96	2830.29
449.16	2402.27
449.36	2111.46
449.57	1976.29
449.77	1816.55
449.98	1581.03
450.18	1615.85
450.39	1626.09
450.59	1595.37
450.79	1609.70
451.00	1490.92
451.20	1636.33
451.41	1544.17
451.61	1529.83
451.81	1554.41
452.02	1503.21
452.22	1519.59
452.43	1458.15
452.63	1443.82
