SpectraSuite Data File
++++++++++++++++++++++++++++++++++++
Date: Tue May 03 12:55:58 CEST 2016
User: root
Dark Spectrum Present: No
Reference Spectrum Present: No
Number of Sampled Component Spectra: 1
Spectrometers: USB4C02835
Integration Time (usec): 100000 (USB4C02835)
Spectra Averaged: 1 (USB4C02835)
Boxcar Smoothing: 0 (USB4C02835)
Correct for Electrical Dark: No (USB4C02835)
Strobe/Lamp Enabled: No (USB4C02835)
Correct for Detector Non-linearity: No (USB4C02835)
Correct for Stray Light: No (USB4C02835)
Number of Pixels in Processed Spectrum: 3648
>>>>>Begin Processed Spectral Data<<<<<
177.47	1402.86
177.69	1402.86
177.91	1402.86
178.13	1390.57
178.36	1394.67
178.58	1542.12
178.80	1576.94
179.02	1535.98
179.24	1490.92
179.46	1540.07
179.68	1576.94
179.90	1531.88
180.13	1554.41
180.35	1456.11
180.57	1554.41
180.79	1519.59
181.01	1562.60
181.23	1574.89
181.45	1619.94
181.67	1521.64
181.90	1632.23
182.12	1521.64
182.34	1478.63
182.56	1570.79
182.78	1556.46
183.00	1552.36
183.22	1548.26
183.44	1388.52
183.66	1632.23
183.89	1646.57
184.11	1564.65
184.33	1540.07
184.55	1529.83
184.77	1570.79
184.99	1533.93
185.21	1519.59
185.43	1626.09
185.65	1527.78
185.87	1638.38
186.10	1595.37
186.32	1593.32
186.54	1527.78
186.76	1531.88
186.98	1513.45
187.20	1462.25
187.42	1556.46
187.64	1548.26
187.86	1576.94
188.08	1632.23
188.30	1562.60
188.52	1624.04
188.75	1552.36
188.97	1535.98
189.19	1538.02
189.41	1492.97
189.63	1556.46
189.85	1499.11
190.07	1406.95
190.29	1437.67
190.51	1605.61
190.73	1462.25
190.95	1646.57
191.17	1466.35
191.39	1452.01
191.61	1529.83
191.84	1480.68
192.06	1552.36
192.28	1527.78
192.50	1634.28
192.72	1540.07
192.94	1562.60
193.16	1605.61
193.38	1525.74
193.60	1488.87
193.82	1613.80
194.04	1581.03
194.26	1566.70
194.48	1529.83
194.70	1572.84
194.92	1529.83
195.14	1660.90
195.36	1531.88
195.58	1519.59
195.80	1476.59
196.02	1499.11
196.24	1554.41
196.46	1550.31
196.69	1521.64
196.91	1677.29
197.13	1554.41
197.35	1550.31
197.57	1572.84
197.79	1525.74
198.01	1435.63
198.23	1495.02
198.45	1585.13
198.67	1445.87
198.89	1562.60
199.11	1601.51
199.33	1492.97
199.55	1394.67
199.77	1511.40
199.99	1619.94
200.21	1503.21
200.43	1587.18
200.65	1449.96
200.87	1437.67
201.09	1538.02
201.31	1517.54
201.53	1558.50
201.75	1550.31
201.97	1533.93
202.19	1568.74
202.41	1585.13
202.63	1626.09
202.85	1576.94
203.07	1595.37
203.29	1550.31
203.51	1533.93
203.73	1521.64
203.95	1601.51
204.17	1507.30
204.39	1566.70
204.61	1519.59
204.83	1554.41
205.05	1552.36
205.27	1632.23
205.49	1638.38
205.71	1531.88
205.93	1521.64
206.15	1505.26
206.37	1505.26
206.59	1597.42
206.81	1427.43
207.03	1466.35
207.25	1552.36
207.47	1533.93
207.69	1452.01
207.91	1658.85
208.13	1538.02
208.34	1509.35
208.56	1597.42
208.78	1554.41
209.00	1540.07
209.22	1478.63
209.44	1505.26
209.66	1525.74
209.88	1492.97
210.10	1454.06
210.32	1458.15
210.54	1595.37
210.76	1488.87
210.98	1607.66
211.20	1476.59
211.42	1488.87
211.64	1564.65
211.86	1626.09
212.08	1634.28
212.30	1581.03
212.52	1488.87
212.74	1609.70
212.96	1503.21
213.17	1574.89
213.39	1644.52
213.61	1591.27
213.83	1650.66
214.05	1478.63
214.27	1552.36
214.49	1513.45
214.71	1456.11
214.93	1626.09
215.15	1413.10
215.37	1509.35
215.59	1445.87
215.81	1531.88
216.03	1603.56
216.24	1509.35
216.46	1587.18
216.68	1591.27
216.90	1521.64
217.12	1550.31
217.34	1558.50
217.56	1480.68
217.78	1568.74
218.00	1511.40
218.22	1638.38
218.44	1535.98
218.66	1484.78
218.87	1599.46
219.09	1546.22
219.31	1581.03
219.53	1611.75
219.75	1542.12
219.97	1546.22
220.19	1511.40
220.41	1445.87
220.63	1591.27
220.85	1593.32
221.06	1509.35
221.28	1552.36
221.50	1603.56
221.72	1607.66
221.94	1529.83
222.16	1529.83
222.38	1550.31
222.60	1601.51
222.82	1544.17
223.03	1656.81
223.25	1466.35
223.47	1517.54
223.69	1646.57
223.91	1550.31
224.13	1548.26
224.35	1449.96
224.57	1644.52
224.78	1593.32
225.00	1495.02
225.22	1591.27
225.44	1587.18
225.66	1552.36
225.88	1540.07
226.10	1517.54
226.32	1554.41
226.53	1587.18
226.75	1501.16
226.97	1527.78
227.19	1511.40
227.41	1447.91
227.63	1476.59
227.85	1431.53
228.06	1480.68
228.28	1607.66
228.50	1589.22
228.72	1552.36
228.94	1501.16
229.16	1495.02
229.37	1540.07
229.59	1501.16
229.81	1681.38
230.03	1499.11
230.25	1533.93
230.47	1497.07
230.69	1548.26
230.90	1542.12
231.12	1574.89
231.34	1570.79
231.56	1613.80
231.78	1503.21
232.00	1548.26
232.21	1521.64
232.43	1542.12
232.65	1449.96
232.87	1531.88
233.09	1486.83
233.30	1515.50
233.52	1566.70
233.74	1480.68
233.96	1576.94
234.18	1562.60
234.40	1527.78
234.61	1619.94
234.83	1527.78
235.05	1490.92
235.27	1642.47
235.49	1624.04
235.70	1542.12
235.92	1581.03
236.14	1554.41
236.36	1640.42
236.58	1445.87
236.79	1550.31
237.01	1548.26
237.23	1546.22
237.45	1591.27
237.67	1535.98
237.88	1515.50
238.10	1656.81
238.32	1454.06
238.54	1486.83
238.76	1497.07
238.97	1511.40
239.19	1503.21
239.41	1628.14
239.63	1628.14
239.85	1490.92
240.06	1505.26
240.28	1437.67
240.50	1576.94
240.72	1488.87
240.93	1587.18
241.15	1587.18
241.37	1535.98
241.59	1642.47
241.81	1519.59
242.02	1515.50
242.24	1550.31
242.46	1521.64
242.68	1507.30
242.89	1523.69
243.11	1660.90
243.33	1501.16
243.55	1538.02
243.76	1570.79
243.98	1517.54
244.20	1538.02
244.42	1544.17
244.64	1572.84
244.85	1388.52
245.07	1535.98
245.29	1609.70
245.51	1587.18
245.72	1472.49
245.94	1585.13
246.16	1574.89
246.38	1517.54
246.59	1476.59
246.81	1509.35
247.03	1523.69
247.24	1447.91
247.46	1433.58
247.68	1576.94
247.90	1447.91
248.11	1556.46
248.33	1624.04
248.55	1466.35
248.77	1546.22
248.98	1591.27
249.20	1644.52
249.42	1562.60
249.64	1552.36
249.85	1454.06
250.07	1472.49
250.29	1531.88
250.50	1578.98
250.72	1488.87
250.94	1474.54
251.16	1560.55
251.37	1583.08
251.59	1572.84
251.81	1628.14
252.02	1556.46
252.24	1505.26
252.46	1613.80
252.68	1511.40
252.89	1499.11
253.11	1488.87
253.33	1578.98
253.54	1587.18
253.76	1476.59
253.98	1624.04
254.20	1501.16
254.41	1470.44
254.63	1581.03
254.85	1429.48
255.06	1527.78
255.28	1462.25
255.50	1554.41
255.71	1525.74
255.93	1499.11
256.15	1458.15
256.36	1546.22
256.58	1540.07
256.80	1540.07
257.02	1505.26
257.23	1511.40
257.45	1535.98
257.67	1578.98
257.88	1525.74
258.10	1570.79
258.32	1474.54
258.53	1632.23
258.75	1599.46
258.97	1478.63
259.18	1517.54
259.40	1540.07
259.62	1589.22
259.83	1519.59
260.05	1423.34
260.27	1765.35
260.48	1599.46
260.70	1486.83
260.92	1505.26
261.13	1560.55
261.35	1574.89
261.57	1523.69
261.78	1478.63
262.00	1474.54
262.22	1507.30
262.43	1486.83
262.65	1531.88
262.86	1533.93
263.08	1617.90
263.30	1609.70
263.51	1452.01
263.73	1484.78
263.95	1560.55
264.16	1505.26
264.38	1535.98
264.60	1540.07
264.81	1523.69
265.03	1562.60
265.25	1519.59
265.46	1476.59
265.68	1593.32
265.89	1535.98
266.11	1507.30
266.33	1544.17
266.54	1552.36
266.76	1554.41
266.98	1556.46
267.19	1624.04
267.41	1570.79
267.62	1470.44
267.84	1515.50
268.06	1527.78
268.27	1515.50
268.49	1544.17
268.70	1593.32
268.92	1488.87
269.14	1468.39
269.35	1472.49
269.57	1509.35
269.79	1669.09
270.00	1519.59
270.22	1619.94
270.43	1513.45
270.65	1445.87
270.87	1548.26
271.08	1619.94
271.30	1546.22
271.51	1609.70
271.73	1562.60
271.95	1566.70
272.16	1544.17
272.38	1683.43
272.59	1423.34
272.81	1550.31
273.02	1585.13
273.24	1552.36
273.46	1576.94
273.67	1535.98
273.89	1556.46
274.10	1509.35
274.32	1544.17
274.54	1540.07
274.75	1540.07
274.97	1540.07
275.18	1554.41
275.40	1554.41
275.61	1576.94
275.83	1617.90
276.05	1490.92
276.26	1501.16
276.48	1558.50
276.69	1535.98
276.91	1525.74
277.12	1535.98
277.34	1634.28
277.55	1535.98
277.77	1568.74
277.99	1574.89
278.20	1492.97
278.42	1482.73
278.63	1484.78
278.85	1501.16
279.06	1533.93
279.28	1578.98
279.49	1515.50
279.71	1640.42
279.93	1478.63
280.14	1554.41
280.36	1495.02
280.57	1660.90
280.79	1581.03
281.00	1517.54
281.22	1488.87
281.43	1568.74
281.65	1454.06
281.86	1478.63
282.08	1583.08
282.29	1603.56
282.51	1511.40
282.73	1544.17
282.94	1462.25
283.16	1566.70
283.37	1589.22
283.59	1568.74
283.80	1497.07
284.02	1470.44
284.23	1501.16
284.45	1484.78
284.66	1499.11
284.88	1503.21
285.09	1578.98
285.31	1615.85
285.52	1548.26
285.74	1433.58
285.95	1552.36
286.17	1576.94
286.38	1621.99
286.60	1509.35
286.81	1437.67
287.03	1544.17
287.24	1523.69
287.46	1544.17
287.67	1492.97
287.89	1665.00
288.10	1472.49
288.32	1560.55
288.53	1634.28
288.75	1476.59
288.96	1576.94
289.18	1515.50
289.39	1501.16
289.61	1568.74
289.82	1570.79
290.04	1613.80
290.25	1552.36
290.47	1495.02
290.68	1507.30
290.90	1607.66
291.11	1433.58
291.33	1517.54
291.54	1531.88
291.76	1470.44
291.97	1542.12
292.18	1519.59
292.40	1597.42
292.61	1519.59
292.83	1619.94
293.04	1603.56
293.26	1550.31
293.47	1495.02
293.69	1490.92
293.90	1564.65
294.12	1585.13
294.33	1546.22
294.55	1572.84
294.76	1595.37
294.97	1568.74
295.19	1597.42
295.40	1478.63
295.62	1585.13
295.83	1591.27
296.05	1417.19
296.26	1542.12
296.48	1495.02
296.69	1535.98
296.90	1546.22
297.12	1538.02
297.33	1595.37
297.55	1574.89
297.76	1634.28
297.98	1556.46
298.19	1556.46
298.41	1486.83
298.62	1495.02
298.83	1683.43
299.05	1523.69
299.26	1550.31
299.48	1486.83
299.69	1581.03
299.90	1601.51
300.12	1540.07
300.33	1581.03
300.55	1548.26
300.76	1576.94
300.98	1519.59
301.19	1548.26
301.40	1523.69
301.62	1597.42
301.83	1517.54
302.05	1570.79
302.26	1519.59
302.47	1583.08
302.69	1409.00
302.90	1433.58
303.12	1400.81
303.33	1585.13
303.54	1634.28
303.76	1529.83
303.97	1554.41
304.19	1568.74
304.40	1495.02
304.61	1529.83
304.83	1546.22
305.04	1527.78
305.26	1525.74
305.47	1415.15
305.68	1511.40
305.90	1501.16
306.11	1601.51
306.33	1544.17
306.54	1544.17
306.75	1499.11
306.97	1492.97
307.18	1538.02
307.39	1488.87
307.61	1544.17
307.82	1558.50
308.04	1495.02
308.25	1495.02
308.46	1538.02
308.68	1501.16
308.89	1533.93
309.10	1619.94
309.32	1519.59
309.53	1538.02
309.74	1515.50
309.96	1527.78
310.17	1531.88
310.39	1509.35
310.60	1560.55
310.81	1542.12
311.03	1499.11
311.24	1540.07
311.45	1550.31
311.67	1589.22
311.88	1585.13
312.09	1523.69
312.31	1527.78
312.52	1554.41
312.73	1527.78
312.95	1472.49
313.16	1484.78
313.37	1638.38
313.59	1619.94
313.80	1578.98
314.01	1617.90
314.23	1552.36
314.44	1501.16
314.65	1466.35
314.87	1546.22
315.08	1593.32
315.29	1470.44
315.51	1556.46
315.72	1501.16
315.93	1632.23
316.15	1544.17
316.36	1515.50
316.57	1527.78
316.79	1581.03
317.00	1447.91
317.21	1519.59
317.43	1503.21
317.64	1578.98
317.85	1468.39
318.07	1552.36
318.28	1601.51
318.49	1716.20
318.70	1906.66
318.92	1677.29
319.13	1681.38
319.34	1722.34
319.56	1732.58
319.77	1572.84
319.98	1697.77
320.20	1650.66
320.41	1628.14
320.62	1591.27
320.83	1521.64
321.05	1665.00
321.26	1560.55
321.47	1574.89
321.69	1628.14
321.90	1560.55
322.11	1519.59
322.32	1527.78
322.54	1589.22
322.75	1533.93
322.96	1636.33
323.18	1486.83
323.39	1439.72
323.60	1458.15
323.81	1552.36
324.03	1523.69
324.24	1540.07
324.45	1556.46
324.66	1525.74
324.88	1552.36
325.09	1552.36
325.30	1538.02
325.52	1570.79
325.73	1574.89
325.94	1468.39
326.15	1388.52
326.37	1513.45
326.58	1615.85
326.79	1585.13
327.00	1486.83
327.22	1509.35
327.43	1478.63
327.64	1488.87
327.85	1529.83
328.07	1552.36
328.28	1630.18
328.49	1521.64
328.70	1495.02
328.92	1499.11
329.13	1495.02
329.34	1538.02
329.55	1634.28
329.76	1583.08
329.98	1544.17
330.19	1599.46
330.40	1609.70
330.61	1548.26
330.83	1556.46
331.04	1503.21
331.25	1578.98
331.46	1458.15
331.68	1429.48
331.89	1605.61
332.10	1503.21
332.31	1468.39
332.52	1538.02
332.74	1650.66
332.95	1476.59
333.16	1562.60
333.37	1560.55
333.58	1413.10
333.80	1523.69
334.01	1470.44
334.22	1533.93
334.43	1486.83
334.64	1554.41
334.86	1466.35
335.07	1394.67
335.28	1679.33
335.49	1511.40
335.70	1535.98
335.92	1519.59
336.13	1736.68
336.34	1564.65
336.55	1552.36
336.76	1585.13
336.98	1478.63
337.19	1550.31
337.40	1662.95
337.61	1619.94
337.82	1576.94
338.04	1568.74
338.25	1509.35
338.46	1556.46
338.67	1511.40
338.88	1519.59
339.09	1509.35
339.31	1513.45
339.52	1595.37
339.73	1464.30
339.94	1558.50
340.15	1531.88
340.36	1538.02
340.58	1521.64
340.79	1531.88
341.00	1550.31
341.21	1511.40
341.42	1509.35
341.63	1540.07
341.85	1613.80
342.06	1484.78
342.27	1503.21
342.48	1578.98
342.69	1460.20
342.90	1640.42
343.12	1564.65
343.33	1492.97
343.54	1646.57
343.75	1611.75
343.96	1505.26
344.17	1568.74
344.38	1492.97
344.60	1535.98
344.81	1474.54
345.02	1548.26
345.23	1548.26
345.44	1638.38
345.65	1570.79
345.86	1650.66
346.07	1578.98
346.29	1484.78
346.50	1558.50
346.71	1486.83
346.92	1615.85
347.13	1593.32
347.34	1556.46
347.55	1542.12
347.76	1656.81
347.98	1417.19
348.19	1499.11
348.40	1556.46
348.61	1490.92
348.82	1554.41
349.03	1621.99
349.24	1605.61
349.45	1564.65
349.66	1427.43
349.88	1480.68
350.09	1544.17
350.30	1566.70
350.51	1613.80
350.72	1560.55
350.93	1554.41
351.14	1529.83
351.35	1570.79
351.56	1505.26
351.77	1525.74
351.99	1511.40
352.20	1538.02
352.41	1513.45
352.62	1462.25
352.83	1572.84
353.04	1538.02
353.25	1484.78
353.46	1560.55
353.67	1617.90
353.88	1452.01
354.09	1519.59
354.30	1597.42
354.52	1570.79
354.73	1593.32
354.94	1474.54
355.15	1509.35
355.36	1546.22
355.57	1533.93
355.78	1566.70
355.99	1531.88
356.20	1517.54
356.41	1619.94
356.62	1519.59
356.83	1523.69
357.04	1611.75
357.25	1468.39
357.46	1531.88
357.68	1560.55
357.89	1540.07
358.10	1509.35
358.31	1523.69
358.52	1544.17
358.73	1433.58
358.94	1495.02
359.15	1546.22
359.36	1568.74
359.57	1484.78
359.78	1624.04
359.99	1566.70
360.20	1531.88
360.41	1478.63
360.62	1523.69
360.83	1564.65
361.04	1505.26
361.25	1525.74
361.46	1697.77
361.67	1570.79
361.88	1546.22
362.09	1554.41
362.30	1587.18
362.51	1611.75
362.72	1587.18
362.93	1552.36
363.14	1611.75
363.35	1478.63
363.56	1533.93
363.78	1560.55
363.99	1611.75
364.20	1599.46
364.41	1490.92
364.62	1624.04
364.83	1525.74
365.04	1515.50
365.25	1566.70
365.46	1624.04
365.67	1527.78
365.88	1523.69
366.09	1488.87
366.30	1558.50
366.51	1576.94
366.72	1509.35
366.93	1615.85
367.14	1607.66
367.35	1495.02
367.56	1550.31
367.77	1626.09
367.98	1550.31
368.18	1603.56
368.39	1525.74
368.60	1480.68
368.81	1509.35
369.02	1554.41
369.23	1548.26
369.44	1511.40
369.65	1468.39
369.86	1517.54
370.07	1648.61
370.28	1449.96
370.49	1591.27
370.70	1595.37
370.91	1501.16
371.12	1509.35
371.33	1634.28
371.54	1574.89
371.75	1626.09
371.96	1411.05
372.17	1638.38
372.38	1533.93
372.59	1587.18
372.80	1505.26
373.01	1468.39
373.22	1611.75
373.43	1572.84
373.64	1488.87
373.85	1566.70
374.06	1648.61
374.26	1503.21
374.47	1456.11
374.68	1574.89
374.89	1609.70
375.10	1513.45
375.31	1683.43
375.52	1591.27
375.73	1529.83
375.94	1544.17
376.15	1558.50
376.36	1466.35
376.57	1560.55
376.78	1482.73
376.99	1603.56
377.20	1583.08
377.40	1525.74
377.61	1615.85
377.82	1425.39
378.03	1595.37
378.24	1578.98
378.45	1482.73
378.66	1581.03
378.87	1468.39
379.08	1495.02
379.29	1513.45
379.50	1572.84
379.71	1554.41
379.91	1646.57
380.12	1505.26
380.33	1568.74
380.54	1595.37
380.75	1544.17
380.96	1490.92
381.17	1585.13
381.38	1589.22
381.59	1617.90
381.80	1572.84
382.00	1642.47
382.21	1554.41
382.42	1685.48
382.63	1636.33
382.84	1595.37
383.05	1617.90
383.26	1617.90
383.47	1554.41
383.68	1585.13
383.88	1630.18
384.09	1654.76
384.30	1660.90
384.51	1601.51
384.72	1548.26
384.93	1464.30
385.14	1568.74
385.35	1607.66
385.55	1478.63
385.76	1630.18
385.97	1535.98
386.18	1476.59
386.39	1495.02
386.60	1564.65
386.81	1556.46
387.02	1521.64
387.22	1517.54
387.43	1609.70
387.64	1712.10
387.85	1806.31
388.06	3037.14
388.27	7247.76
388.48	10717.02
388.68	12318.53
388.89	13991.72
389.10	12687.17
389.31	10239.84
389.52	9009.01
389.73	7790.47
389.93	7219.09
390.14	6707.10
390.35	6119.33
390.56	5527.47
390.77	4558.78
390.98	3590.09
391.18	2740.18
391.39	2230.24
391.60	1800.16
391.81	1703.91
392.02	1535.98
392.23	1677.29
392.43	1578.98
392.64	1689.57
392.85	1542.12
393.06	1570.79
393.27	1619.94
393.47	1527.78
393.68	1529.83
393.89	1523.69
394.10	1531.88
394.31	1572.84
394.52	1540.07
394.72	1554.41
394.93	1619.94
395.14	1470.44
395.35	1576.94
395.56	1527.78
395.76	1587.18
395.97	1693.67
396.18	1761.25
396.39	1697.77
396.60	1875.94
396.80	1738.73
397.01	1755.11
397.22	1654.76
397.43	1730.53
397.64	1611.75
397.84	1601.51
398.05	1613.80
398.26	1607.66
398.47	1621.99
398.67	1576.94
398.88	1677.29
399.09	1552.36
399.30	1497.07
399.51	1609.70
399.71	1585.13
399.92	1542.12
400.13	1619.94
400.34	1509.35
400.54	1478.63
400.75	1611.75
400.96	1609.70
401.17	1611.75
401.37	1634.28
401.58	1562.60
401.79	1560.55
402.00	1851.36
402.21	1972.19
402.41	1912.80
402.62	1972.19
402.83	1961.95
403.04	1918.95
403.24	1865.70
403.45	1611.75
403.66	1767.40
403.87	1660.90
404.07	1742.82
404.28	1701.86
404.49	1683.43
404.70	1683.43
404.90	1552.36
405.11	1574.89
405.32	1617.90
405.52	1482.73
405.73	1517.54
405.94	1497.07
406.15	1519.59
406.35	1550.31
406.56	1523.69
406.77	1599.46
406.98	1597.42
407.18	1495.02
407.39	1572.84
407.60	1585.13
407.80	1558.50
408.01	1544.17
408.22	1540.07
408.43	1519.59
408.63	1552.36
408.84	1603.56
409.05	1587.18
409.25	1497.07
409.46	1476.59
409.67	1517.54
409.88	1466.35
410.08	1470.44
410.29	1585.13
410.50	1519.59
410.70	1599.46
410.91	1509.35
411.12	1548.26
411.32	1560.55
411.53	1552.36
411.74	1681.38
411.95	1615.85
412.15	1574.89
412.36	1628.14
412.57	1646.57
412.77	1677.29
412.98	1531.88
413.19	1574.89
413.39	1538.02
413.60	1576.94
413.81	1677.29
414.01	1519.59
414.22	1576.94
414.43	1601.51
414.63	1617.90
414.84	1652.71
415.05	1554.41
415.25	1454.06
415.46	1554.41
415.67	1572.84
415.87	1576.94
416.08	1552.36
416.29	1533.93
416.49	1535.98
416.70	1572.84
416.91	1529.83
417.11	1548.26
417.32	1585.13
417.53	1529.83
417.73	1525.74
417.94	1560.55
418.15	1583.08
418.35	1476.59
418.56	1576.94
418.77	1638.38
418.97	1564.65
419.18	1513.45
419.38	1462.25
419.59	1556.46
419.80	1605.61
420.00	1488.87
420.21	1542.12
420.42	1597.42
420.62	1535.98
420.83	1554.41
421.04	1501.16
421.24	1576.94
421.45	1607.66
421.65	1574.89
421.86	1583.08
422.07	1542.12
422.27	1546.22
422.48	1517.54
422.69	1519.59
422.89	1515.50
423.10	1564.65
423.30	1519.59
423.51	1525.74
423.72	1531.88
423.92	1626.09
424.13	1439.72
424.33	1503.21
424.54	1554.41
424.75	1486.83
424.95	1593.32
425.16	1525.74
425.36	1591.27
425.57	1572.84
425.78	1540.07
425.98	1558.50
426.19	1480.68
426.39	1501.16
426.60	1533.93
426.81	1669.09
427.01	1578.98
427.22	1533.93
427.42	1433.58
427.63	1529.83
427.83	1538.02
428.04	1636.33
428.25	1615.85
428.45	1542.12
428.66	1574.89
428.86	1560.55
429.07	1470.44
429.28	1544.17
429.48	1544.17
429.69	1411.05
429.89	1515.50
430.10	1511.40
430.30	1552.36
430.51	1593.32
430.71	1540.07
430.92	1615.85
431.13	1533.93
431.33	1585.13
431.54	1621.99
431.74	1708.01
431.95	1599.46
432.15	1462.25
432.36	1515.50
432.56	1538.02
432.77	1554.41
432.98	1644.52
433.18	1501.16
433.39	1566.70
433.59	1560.55
433.80	1593.32
434.00	1617.90
434.21	1570.79
434.41	1576.94
434.62	1628.14
434.82	1552.36
435.03	1527.78
435.23	1587.18
435.44	1419.24
435.64	1495.02
435.85	1554.41
436.06	1546.22
436.26	1515.50
436.47	1556.46
436.67	1472.49
436.88	1607.66
437.08	1546.22
437.29	1656.81
437.49	1578.98
437.70	1607.66
437.90	1593.32
438.11	1652.71
438.31	1628.14
438.52	1638.38
438.72	1771.49
438.93	1751.01
439.13	1665.00
439.34	1636.33
439.54	1677.29
439.75	1730.53
439.95	1599.46
440.16	1548.26
440.36	1507.30
440.57	1599.46
440.77	1562.60
440.98	1615.85
441.18	1531.88
441.39	1507.30
441.59	1558.50
441.80	1654.76
442.00	1538.02
442.21	1572.84
442.41	1507.30
442.62	1576.94
442.82	1490.92
443.02	1613.80
443.23	1497.07
443.43	1509.35
443.64	1626.09
443.84	1605.61
444.05	1591.27
444.25	1552.36
444.46	1574.89
444.66	1533.93
444.87	1624.04
445.07	1486.83
445.28	1472.49
445.48	1570.79
445.69	1613.80
445.89	1716.20
446.09	1531.88
446.30	2000.87
446.50	3221.45
446.71	4519.87
446.91	5191.60
447.12	5842.85
447.32	5539.76
447.53	4571.07
447.73	4065.22
447.93	3647.43
448.14	3303.37
448.34	3241.93
448.55	2916.31
448.75	2867.16
448.96	2783.19
449.16	2336.73
449.36	2279.39
449.57	2039.78
449.77	1773.54
449.98	1687.53
450.18	1728.49
450.39	1583.08
450.59	1613.80
450.79	1517.54
451.00	1566.70
451.20	1603.56
451.41	1513.45
451.61	1607.66
451.81	1611.75
452.02	1540.07
452.22	1511.40
452.43	1517.54
452.63	1480.68
