SpectraSuite Data File
++++++++++++++++++++++++++++++++++++
Date: Tue May 03 12:55:55 CEST 2016
User: root
Dark Spectrum Present: No
Reference Spectrum Present: No
Number of Sampled Component Spectra: 1
Spectrometers: USB4C02835
Integration Time (usec): 100000 (USB4C02835)
Spectra Averaged: 1 (USB4C02835)
Boxcar Smoothing: 0 (USB4C02835)
Correct for Electrical Dark: No (USB4C02835)
Strobe/Lamp Enabled: No (USB4C02835)
Correct for Detector Non-linearity: No (USB4C02835)
Correct for Stray Light: No (USB4C02835)
Number of Pixels in Processed Spectrum: 3648
>>>>>Begin Processed Spectral Data<<<<<
177.47	1318.89
177.69	1318.89
177.91	1318.89
178.13	1331.18
178.36	1308.65
178.58	1527.78
178.80	1535.98
179.02	1492.97
179.24	1533.93
179.46	1546.22
179.68	1552.36
179.90	1492.97
180.13	1560.55
180.35	1499.11
180.57	1587.18
180.79	1576.94
181.01	1472.49
181.23	1556.46
181.45	1632.23
181.67	1566.70
181.90	1624.04
182.12	1523.69
182.34	1503.21
182.56	1538.02
182.78	1570.79
183.00	1556.46
183.22	1519.59
183.44	1519.59
183.66	1632.23
183.89	1677.29
184.11	1501.16
184.33	1499.11
184.55	1599.46
184.77	1523.69
184.99	1583.08
185.21	1464.30
185.43	1640.42
185.65	1476.59
185.87	1591.27
186.10	1595.37
186.32	1689.57
186.54	1548.26
186.76	1546.22
186.98	1589.22
187.20	1589.22
187.42	1589.22
187.64	1527.78
187.86	1535.98
188.08	1574.89
188.30	1503.21
188.52	1548.26
188.75	1589.22
188.97	1542.12
189.19	1521.64
189.41	1535.98
189.63	1550.31
189.85	1513.45
190.07	1546.22
190.29	1460.20
190.51	1593.32
190.73	1542.12
190.95	1646.57
191.17	1560.55
191.39	1439.72
191.61	1609.70
191.84	1538.02
192.06	1535.98
192.28	1492.97
192.50	1652.71
192.72	1525.74
192.94	1538.02
193.16	1544.17
193.38	1495.02
193.60	1476.59
193.82	1544.17
194.04	1566.70
194.26	1542.12
194.48	1568.74
194.70	1535.98
194.92	1507.30
195.14	1552.36
195.36	1509.35
195.58	1540.07
195.80	1540.07
196.02	1468.39
196.24	1470.44
196.46	1550.31
196.69	1535.98
196.91	1662.95
197.13	1544.17
197.35	1519.59
197.57	1619.94
197.79	1554.41
198.01	1552.36
198.23	1503.21
198.45	1550.31
198.67	1525.74
198.89	1570.79
199.11	1501.16
199.33	1478.63
199.55	1472.49
199.77	1583.08
199.99	1585.13
200.21	1492.97
200.43	1503.21
200.65	1458.15
200.87	1431.53
201.09	1505.26
201.31	1529.83
201.53	1542.12
201.75	1587.18
201.97	1509.35
202.19	1533.93
202.41	1505.26
202.63	1660.90
202.85	1628.14
203.07	1562.60
203.29	1458.15
203.51	1507.30
203.73	1447.91
203.95	1681.38
204.17	1564.65
204.39	1511.40
204.61	1552.36
204.83	1525.74
205.05	1578.98
205.27	1609.70
205.49	1701.86
205.71	1564.65
205.93	1517.54
206.15	1492.97
206.37	1564.65
206.59	1484.78
206.81	1472.49
207.03	1558.50
207.25	1409.00
207.47	1583.08
207.69	1589.22
207.91	1591.27
208.13	1603.56
208.34	1542.12
208.56	1454.06
208.78	1599.46
209.00	1574.89
209.22	1503.21
209.44	1550.31
209.66	1505.26
209.88	1478.63
210.10	1550.31
210.32	1574.89
210.54	1533.93
210.76	1540.07
210.98	1568.74
211.20	1480.68
211.42	1517.54
211.64	1607.66
211.86	1566.70
212.08	1581.03
212.30	1478.63
212.52	1538.02
212.74	1495.02
212.96	1564.65
213.17	1517.54
213.39	1490.92
213.61	1652.71
213.83	1642.47
214.05	1511.40
214.27	1527.78
214.49	1497.07
214.71	1476.59
214.93	1634.28
215.15	1544.17
215.37	1615.85
215.59	1515.50
215.81	1601.51
216.03	1595.37
216.24	1599.46
216.46	1521.64
216.68	1570.79
216.90	1552.36
217.12	1556.46
217.34	1509.35
217.56	1544.17
217.78	1492.97
218.00	1611.75
218.22	1542.12
218.44	1519.59
218.66	1542.12
218.87	1646.57
219.09	1492.97
219.31	1568.74
219.53	1484.78
219.75	1495.02
219.97	1558.50
220.19	1605.61
220.41	1599.46
220.63	1669.09
220.85	1548.26
221.06	1554.41
221.28	1636.33
221.50	1574.89
221.72	1511.40
221.94	1519.59
222.16	1533.93
222.38	1540.07
222.60	1566.70
222.82	1513.45
223.03	1533.93
223.25	1486.83
223.47	1546.22
223.69	1583.08
223.91	1527.78
224.13	1605.61
224.35	1523.69
224.57	1474.54
224.78	1601.51
225.00	1505.26
225.22	1546.22
225.44	1576.94
225.66	1558.50
225.88	1535.98
226.10	1578.98
226.32	1515.50
226.53	1650.66
226.75	1509.35
226.97	1535.98
227.19	1572.84
227.41	1554.41
227.63	1552.36
227.85	1427.43
228.06	1525.74
228.28	1525.74
228.50	1503.21
228.72	1456.11
228.94	1517.54
229.16	1499.11
229.37	1505.26
229.59	1531.88
229.81	1546.22
230.03	1587.18
230.25	1499.11
230.47	1423.34
230.69	1484.78
230.90	1603.56
231.12	1548.26
231.34	1505.26
231.56	1574.89
231.78	1511.40
232.00	1540.07
232.21	1544.17
232.43	1542.12
232.65	1429.48
232.87	1593.32
233.09	1486.83
233.30	1521.64
233.52	1538.02
233.74	1492.97
233.96	1527.78
234.18	1558.50
234.40	1576.94
234.61	1603.56
234.83	1460.20
235.05	1462.25
235.27	1671.14
235.49	1505.26
235.70	1542.12
235.92	1607.66
236.14	1529.83
236.36	1626.09
236.58	1521.64
236.79	1574.89
237.01	1544.17
237.23	1531.88
237.45	1632.23
237.67	1583.08
237.88	1511.40
238.10	1566.70
238.32	1521.64
238.54	1533.93
238.76	1564.65
238.97	1538.02
239.19	1501.16
239.41	1572.84
239.63	1570.79
239.85	1531.88
240.06	1527.78
240.28	1570.79
240.50	1572.84
240.72	1513.45
240.93	1568.74
241.15	1560.55
241.37	1552.36
241.59	1570.79
241.81	1525.74
242.02	1544.17
242.24	1488.87
242.46	1523.69
242.68	1556.46
242.89	1615.85
243.11	1556.46
243.33	1517.54
243.55	1615.85
243.76	1540.07
243.98	1564.65
244.20	1535.98
244.42	1556.46
244.64	1578.98
244.85	1439.72
245.07	1476.59
245.29	1531.88
245.51	1560.55
245.72	1441.77
245.94	1605.61
246.16	1597.42
246.38	1525.74
246.59	1562.60
246.81	1484.78
247.03	1535.98
247.24	1468.39
247.46	1431.53
247.68	1517.54
247.90	1497.07
248.11	1443.82
248.33	1595.37
248.55	1548.26
248.77	1542.12
248.98	1605.61
249.20	1601.51
249.42	1517.54
249.64	1634.28
249.85	1538.02
250.07	1566.70
250.29	1562.60
250.50	1511.40
250.72	1445.87
250.94	1552.36
251.16	1691.62
251.37	1550.31
251.59	1564.65
251.81	1558.50
252.02	1634.28
252.24	1611.75
252.46	1570.79
252.68	1550.31
252.89	1486.83
253.11	1452.01
253.33	1634.28
253.54	1572.84
253.76	1535.98
253.98	1529.83
254.20	1513.45
254.41	1488.87
254.63	1517.54
254.85	1499.11
255.06	1581.03
255.28	1644.52
255.50	1562.60
255.71	1466.35
255.93	1458.15
256.15	1503.21
256.36	1529.83
256.58	1513.45
256.80	1525.74
257.02	1513.45
257.23	1564.65
257.45	1503.21
257.67	1585.13
257.88	1556.46
258.10	1595.37
258.32	1552.36
258.53	1556.46
258.75	1599.46
258.97	1445.87
259.18	1587.18
259.40	1570.79
259.62	1572.84
259.83	1593.32
260.05	1587.18
260.27	1730.53
260.48	1621.99
260.70	1462.25
260.92	1533.93
261.13	1599.46
261.35	1525.74
261.57	1587.18
261.78	1509.35
262.00	1492.97
262.22	1581.03
262.43	1587.18
262.65	1464.30
262.86	1583.08
263.08	1699.81
263.30	1513.45
263.51	1435.63
263.73	1576.94
263.95	1593.32
264.16	1505.26
264.38	1486.83
264.60	1540.07
264.81	1535.98
265.03	1603.56
265.25	1505.26
265.46	1464.30
265.68	1591.27
265.89	1558.50
266.11	1400.81
266.33	1593.32
266.54	1548.26
266.76	1578.98
266.98	1591.27
267.19	1564.65
267.41	1630.18
267.62	1472.49
267.84	1484.78
268.06	1560.55
268.27	1511.40
268.49	1542.12
268.70	1665.00
268.92	1560.55
269.14	1527.78
269.35	1460.20
269.57	1542.12
269.79	1562.60
270.00	1535.98
270.22	1603.56
270.43	1564.65
270.65	1546.22
270.87	1556.46
271.08	1501.16
271.30	1492.97
271.51	1533.93
271.73	1544.17
271.95	1667.05
272.16	1548.26
272.38	1425.39
272.59	1550.31
272.81	1544.17
273.02	1562.60
273.24	1521.64
273.46	1570.79
273.67	1503.21
273.89	1527.78
274.10	1591.27
274.32	1624.04
274.54	1535.98
274.75	1556.46
274.97	1501.16
275.18	1513.45
275.40	1597.42
275.61	1581.03
275.83	1501.16
276.05	1544.17
276.26	1564.65
276.48	1499.11
276.69	1513.45
276.91	1472.49
277.12	1624.04
277.34	1560.55
277.55	1603.56
277.77	1531.88
277.99	1552.36
278.20	1505.26
278.42	1486.83
278.63	1462.25
278.85	1507.30
279.06	1533.93
279.28	1488.87
279.49	1576.94
279.71	1542.12
279.93	1540.07
280.14	1476.59
280.36	1462.25
280.57	1613.80
280.79	1605.61
281.00	1509.35
281.22	1497.07
281.43	1529.83
281.65	1538.02
281.86	1478.63
282.08	1632.23
282.29	1552.36
282.51	1492.97
282.73	1492.97
282.94	1419.24
283.16	1552.36
283.37	1626.09
283.59	1554.41
283.80	1554.41
284.02	1413.10
284.23	1523.69
284.45	1540.07
284.66	1527.78
284.88	1523.69
285.09	1540.07
285.31	1552.36
285.52	1456.11
285.74	1476.59
285.95	1556.46
286.17	1560.55
286.38	1482.73
286.60	1484.78
286.81	1517.54
287.03	1562.60
287.24	1585.13
287.46	1513.45
287.67	1499.11
287.89	1613.80
288.10	1517.54
288.32	1572.84
288.53	1644.52
288.75	1546.22
288.96	1583.08
289.18	1462.25
289.39	1566.70
289.61	1656.81
289.82	1601.51
290.04	1566.70
290.25	1517.54
290.47	1564.65
290.68	1505.26
290.90	1603.56
291.11	1437.67
291.33	1533.93
291.54	1486.83
291.76	1525.74
291.97	1542.12
292.18	1607.66
292.40	1476.59
292.61	1540.07
292.83	1642.47
293.04	1560.55
293.26	1546.22
293.47	1511.40
293.69	1556.46
293.90	1476.59
294.12	1593.32
294.33	1425.39
294.55	1519.59
294.76	1613.80
294.97	1601.51
295.19	1691.62
295.40	1521.64
295.62	1501.16
295.83	1609.70
296.05	1513.45
296.26	1632.23
296.48	1452.01
296.69	1488.87
296.90	1488.87
297.12	1566.70
297.33	1603.56
297.55	1519.59
297.76	1525.74
297.98	1607.66
298.19	1585.13
298.41	1505.26
298.62	1380.33
298.83	1550.31
299.05	1474.54
299.26	1556.46
299.48	1523.69
299.69	1540.07
299.90	1560.55
300.12	1535.98
300.33	1626.09
300.55	1556.46
300.76	1574.89
300.98	1497.07
301.19	1591.27
301.40	1495.02
301.62	1492.97
301.83	1550.31
302.05	1468.39
302.26	1486.83
302.47	1501.16
302.69	1513.45
302.90	1503.21
303.12	1484.78
303.33	1495.02
303.54	1576.94
303.76	1497.07
303.97	1572.84
304.19	1640.42
304.40	1447.91
304.61	1542.12
304.83	1652.71
305.04	1640.42
305.26	1617.90
305.47	1507.30
305.68	1472.49
305.90	1460.20
306.11	1529.83
306.33	1521.64
306.54	1578.98
306.75	1452.01
306.97	1505.26
307.18	1509.35
307.39	1578.98
307.61	1554.41
307.82	1558.50
308.04	1558.50
308.25	1474.54
308.46	1548.26
308.68	1626.09
308.89	1585.13
309.10	1669.09
309.32	1564.65
309.53	1538.02
309.74	1576.94
309.96	1511.40
310.17	1630.18
310.39	1517.54
310.60	1554.41
310.81	1523.69
311.03	1404.91
311.24	1550.31
311.45	1574.89
311.67	1605.61
311.88	1507.30
312.09	1478.63
312.31	1460.20
312.52	1499.11
312.73	1593.32
312.95	1431.53
313.16	1558.50
313.37	1609.70
313.59	1540.07
313.80	1599.46
314.01	1587.18
314.23	1556.46
314.44	1525.74
314.65	1517.54
314.87	1550.31
315.08	1476.59
315.29	1435.63
315.51	1515.50
315.72	1439.72
315.93	1630.18
316.15	1619.94
316.36	1603.56
316.57	1505.26
316.79	1599.46
317.00	1550.31
317.21	1488.87
317.43	1445.87
317.64	1525.74
317.85	1552.36
318.07	1619.94
318.28	1648.61
318.49	1648.61
318.70	1738.73
318.92	1757.16
319.13	1728.49
319.34	1615.85
319.56	1644.52
319.77	1644.52
319.98	1564.65
320.20	1636.33
320.41	1556.46
320.62	1480.68
320.83	1521.64
321.05	1753.06
321.26	1624.04
321.47	1505.26
321.69	1562.60
321.90	1554.41
322.11	1474.54
322.32	1492.97
322.54	1619.94
322.75	1548.26
322.96	1640.42
323.18	1466.35
323.39	1513.45
323.60	1435.63
323.81	1558.50
324.03	1562.60
324.24	1576.94
324.45	1492.97
324.66	1550.31
324.88	1599.46
325.09	1603.56
325.30	1445.87
325.52	1566.70
325.73	1581.03
325.94	1509.35
326.15	1482.73
326.37	1548.26
326.58	1591.27
326.79	1589.22
327.00	1531.88
327.22	1595.37
327.43	1499.11
327.64	1593.32
327.85	1621.99
328.07	1484.78
328.28	1595.37
328.49	1538.02
328.70	1550.31
328.92	1521.64
329.13	1540.07
329.34	1576.94
329.55	1644.52
329.76	1529.83
329.98	1538.02
330.19	1638.38
330.40	1585.13
330.61	1511.40
330.83	1609.70
331.04	1456.11
331.25	1538.02
331.46	1515.50
331.68	1447.91
331.89	1613.80
332.10	1587.18
332.31	1519.59
332.52	1554.41
332.74	1556.46
332.95	1452.01
333.16	1529.83
333.37	1615.85
333.58	1511.40
333.80	1535.98
334.01	1480.68
334.22	1560.55
334.43	1497.07
334.64	1480.68
334.86	1480.68
335.07	1425.39
335.28	1628.14
335.49	1464.30
335.70	1570.79
335.92	1611.75
336.13	1576.94
336.34	1603.56
336.55	1509.35
336.76	1529.83
336.98	1378.28
337.19	1505.26
337.40	1593.32
337.61	1603.56
337.82	1497.07
338.04	1562.60
338.25	1452.01
338.46	1452.01
338.67	1531.88
338.88	1554.41
339.09	1427.43
339.31	1513.45
339.52	1468.39
339.73	1531.88
339.94	1589.22
340.15	1529.83
340.36	1474.54
340.58	1550.31
340.79	1507.30
341.00	1576.94
341.21	1478.63
341.42	1507.30
341.63	1515.50
341.85	1548.26
342.06	1525.74
342.27	1499.11
342.48	1542.12
342.69	1519.59
342.90	1581.03
343.12	1605.61
343.33	1507.30
343.54	1566.70
343.75	1597.42
343.96	1527.78
344.17	1542.12
344.38	1558.50
344.60	1490.92
344.81	1529.83
345.02	1454.06
345.23	1519.59
345.44	1589.22
345.65	1558.50
345.86	1566.70
346.07	1501.16
346.29	1540.07
346.50	1624.04
346.71	1574.89
346.92	1591.27
347.13	1646.57
347.34	1615.85
347.55	1550.31
347.76	1589.22
347.98	1548.26
348.19	1560.55
348.40	1546.22
348.61	1607.66
348.82	1515.50
349.03	1531.88
349.24	1478.63
349.45	1611.75
349.66	1429.48
349.88	1560.55
350.09	1472.49
350.30	1593.32
350.51	1558.50
350.72	1583.08
350.93	1495.02
351.14	1482.73
351.35	1568.74
351.56	1513.45
351.77	1503.21
351.99	1578.98
352.20	1597.42
352.41	1605.61
352.62	1456.11
352.83	1517.54
353.04	1478.63
353.25	1585.13
353.46	1572.84
353.67	1597.42
353.88	1507.30
354.09	1509.35
354.30	1464.30
354.52	1603.56
354.73	1529.83
354.94	1513.45
355.15	1531.88
355.36	1621.99
355.57	1492.97
355.78	1628.14
355.99	1511.40
356.20	1550.31
356.41	1636.33
356.62	1548.26
356.83	1576.94
357.04	1665.00
357.25	1466.35
357.46	1505.26
357.68	1478.63
357.89	1517.54
358.10	1525.74
358.31	1591.27
358.52	1566.70
358.73	1454.06
358.94	1529.83
359.15	1449.96
359.36	1605.61
359.57	1564.65
359.78	1566.70
359.99	1583.08
360.20	1535.98
360.41	1538.02
360.62	1486.83
360.83	1574.89
361.04	1511.40
361.25	1546.22
361.46	1632.23
361.67	1587.18
361.88	1566.70
362.09	1531.88
362.30	1601.51
362.51	1560.55
362.72	1550.31
362.93	1593.32
363.14	1613.80
363.35	1499.11
363.56	1441.77
363.78	1572.84
363.99	1548.26
364.20	1578.98
364.41	1521.64
364.62	1644.52
364.83	1570.79
365.04	1535.98
365.25	1525.74
365.46	1603.56
365.67	1505.26
365.88	1560.55
366.09	1552.36
366.30	1476.59
366.51	1589.22
366.72	1507.30
366.93	1566.70
367.14	1546.22
367.35	1552.36
367.56	1548.26
367.77	1640.42
367.98	1572.84
368.18	1626.09
368.39	1599.46
368.60	1509.35
368.81	1538.02
369.02	1482.73
369.23	1589.22
369.44	1560.55
369.65	1470.44
369.86	1570.79
370.07	1640.42
370.28	1538.02
370.49	1638.38
370.70	1597.42
370.91	1492.97
371.12	1492.97
371.33	1607.66
371.54	1495.02
371.75	1550.31
371.96	1529.83
372.17	1486.83
372.38	1589.22
372.59	1556.46
372.80	1511.40
373.01	1519.59
373.22	1570.79
373.43	1492.97
373.64	1492.97
373.85	1583.08
374.06	1656.81
374.26	1544.17
374.47	1503.21
374.68	1552.36
374.89	1542.12
375.10	1523.69
375.31	1544.17
375.52	1538.02
375.73	1603.56
375.94	1462.25
376.15	1667.05
376.36	1507.30
376.57	1437.67
376.78	1492.97
376.99	1480.68
377.20	1640.42
377.40	1460.20
377.61	1638.38
377.82	1486.83
378.03	1578.98
378.24	1525.74
378.45	1521.64
378.66	1601.51
378.87	1527.78
379.08	1421.29
379.29	1509.35
379.50	1642.47
379.71	1476.59
379.91	1589.22
380.12	1542.12
380.33	1488.87
380.54	1531.88
380.75	1429.48
380.96	1540.07
381.17	1589.22
381.38	1615.85
381.59	1615.85
381.80	1517.54
382.00	1677.29
382.21	1603.56
382.42	1652.71
382.63	1648.61
382.84	1699.81
383.05	1613.80
383.26	1656.81
383.47	1624.04
383.68	1546.22
383.88	1587.18
384.09	1564.65
384.30	1654.76
384.51	1564.65
384.72	1449.96
384.93	1544.17
385.14	1535.98
385.35	1648.61
385.55	1474.54
385.76	1554.41
385.97	1529.83
386.18	1470.44
386.39	1480.68
386.60	1552.36
386.81	1525.74
387.02	1593.32
387.22	1525.74
387.43	1654.76
387.64	1642.47
387.85	1871.84
388.06	3200.98
388.27	7139.22
388.48	10633.05
388.68	12576.58
388.89	13899.56
389.10	12771.13
389.31	10313.57
389.52	8882.04
389.73	7978.89
389.93	7239.57
390.14	6866.84
390.35	6238.11
390.56	5556.14
390.77	4605.88
390.98	3723.21
391.18	2648.02
391.39	2215.90
391.60	1755.11
391.81	1722.34
392.02	1589.22
392.23	1634.28
392.43	1560.55
392.64	1656.81
392.85	1644.52
393.06	1683.43
393.27	1568.74
393.47	1576.94
393.68	1605.61
393.89	1521.64
394.10	1560.55
394.31	1437.67
394.52	1429.48
394.72	1538.02
394.93	1599.46
395.14	1456.11
395.35	1552.36
395.56	1574.89
395.76	1634.28
395.97	1726.44
396.18	1718.25
396.39	1742.82
396.60	1802.21
396.80	1687.53
397.01	1691.62
397.22	1685.48
397.43	1757.16
397.64	1578.98
397.84	1599.46
398.05	1644.52
398.26	1581.03
398.47	1624.04
398.67	1595.37
398.88	1624.04
399.09	1542.12
399.30	1492.97
399.51	1611.75
399.71	1517.54
399.92	1525.74
400.13	1581.03
400.34	1564.65
400.54	1544.17
400.75	1566.70
400.96	1570.79
401.17	1599.46
401.37	1509.35
401.58	1617.90
401.79	1578.98
402.00	1716.20
402.21	1865.70
402.41	1859.56
402.62	1931.23
402.83	1900.52
403.04	1798.12
403.24	1927.14
403.45	1724.39
403.66	1714.15
403.87	1675.24
404.07	1730.53
404.28	1761.25
404.49	1751.01
404.70	1554.41
404.90	1556.46
405.11	1554.41
405.32	1603.56
405.52	1474.54
405.73	1495.02
405.94	1458.15
406.15	1527.78
406.35	1603.56
406.56	1519.59
406.77	1574.89
406.98	1578.98
407.18	1490.92
407.39	1638.38
407.60	1564.65
407.80	1669.09
408.01	1558.50
408.22	1552.36
408.43	1513.45
408.63	1546.22
408.84	1544.17
409.05	1552.36
409.25	1515.50
409.46	1466.35
409.67	1587.18
409.88	1542.12
410.08	1548.26
410.29	1509.35
410.50	1593.32
410.70	1523.69
410.91	1458.15
411.12	1535.98
411.32	1550.31
411.53	1609.70
411.74	1599.46
411.95	1630.18
412.15	1578.98
412.36	1591.27
412.57	1650.66
412.77	1554.41
412.98	1581.03
413.19	1546.22
413.39	1525.74
413.60	1591.27
413.81	1617.90
414.01	1449.96
414.22	1548.26
414.43	1609.70
414.63	1574.89
414.84	1609.70
415.05	1642.47
415.25	1540.07
415.46	1665.00
415.67	1433.58
415.87	1540.07
416.08	1538.02
416.29	1482.73
416.49	1611.75
416.70	1513.45
416.91	1523.69
417.11	1468.39
417.32	1566.70
417.53	1593.32
417.73	1601.51
417.94	1509.35
418.15	1595.37
418.35	1478.63
418.56	1642.47
418.77	1681.38
418.97	1538.02
419.18	1538.02
419.38	1445.87
419.59	1591.27
419.80	1562.60
420.00	1548.26
420.21	1513.45
420.42	1685.48
420.62	1556.46
420.83	1517.54
421.04	1495.02
421.24	1583.08
421.45	1652.71
421.65	1634.28
421.86	1529.83
422.07	1535.98
422.27	1550.31
422.48	1499.11
422.69	1452.01
422.89	1521.64
423.10	1495.02
423.30	1415.15
423.51	1538.02
423.72	1572.84
423.92	1597.42
424.13	1470.44
424.33	1527.78
424.54	1550.31
424.75	1445.87
424.95	1603.56
425.16	1576.94
425.36	1460.20
425.57	1638.38
425.78	1574.89
425.98	1613.80
426.19	1441.77
426.39	1476.59
426.60	1527.78
426.81	1654.76
427.01	1617.90
427.22	1505.26
427.42	1546.22
427.63	1613.80
427.83	1611.75
428.04	1599.46
428.25	1646.57
428.45	1624.04
428.66	1595.37
428.86	1603.56
429.07	1527.78
429.28	1593.32
429.48	1564.65
429.69	1521.64
429.89	1611.75
430.10	1495.02
430.30	1638.38
430.51	1630.18
430.71	1476.59
430.92	1542.12
431.13	1540.07
431.33	1583.08
431.54	1533.93
431.74	1636.33
431.95	1636.33
432.15	1538.02
432.36	1552.36
432.56	1544.17
432.77	1583.08
432.98	1632.23
433.18	1525.74
433.39	1531.88
433.59	1566.70
433.80	1611.75
434.00	1665.00
434.21	1597.42
434.41	1484.78
434.62	1621.99
434.82	1441.77
435.03	1507.30
435.23	1521.64
435.44	1462.25
435.64	1503.21
435.85	1531.88
436.06	1550.31
436.26	1589.22
436.47	1581.03
436.67	1542.12
436.88	1435.63
437.08	1642.47
437.29	1576.94
437.49	1535.98
437.70	1595.37
437.90	1501.16
438.11	1656.81
438.31	1683.43
438.52	1630.18
438.72	1691.62
438.93	1753.06
439.13	1626.09
439.34	1730.53
439.54	1626.09
439.75	1654.76
439.95	1658.85
440.16	1570.79
440.36	1535.98
440.57	1636.33
440.77	1611.75
440.98	1581.03
441.18	1591.27
441.39	1517.54
441.59	1527.78
441.80	1656.81
442.00	1556.46
442.21	1560.55
442.41	1501.16
442.62	1689.57
442.82	1443.82
443.02	1552.36
443.23	1595.37
443.43	1509.35
443.64	1597.42
443.84	1601.51
444.05	1593.32
444.25	1560.55
444.46	1574.89
444.66	1578.98
444.87	1646.57
445.07	1517.54
445.28	1531.88
445.48	1595.37
445.69	1550.31
445.89	1658.85
446.09	1595.37
446.30	2011.11
446.50	3080.14
446.71	4452.28
446.91	5296.05
447.12	5767.08
447.32	5672.87
447.53	4560.83
447.73	3977.16
447.93	3682.25
448.14	3422.16
448.34	3160.02
448.55	2916.31
448.75	2861.01
448.96	2779.09
449.16	2480.09
449.36	2189.28
449.57	1943.52
449.77	1763.30
449.98	1570.79
450.18	1591.27
450.39	1593.32
450.59	1595.37
450.79	1619.94
451.00	1546.22
451.20	1658.85
451.41	1570.79
451.61	1501.16
451.81	1542.12
452.02	1546.22
452.22	1499.11
452.43	1507.30
452.63	1540.07
