SpectraSuite Data File
++++++++++++++++++++++++++++++++++++
Date: Tue May 03 12:55:56 CEST 2016
User: root
Dark Spectrum Present: No
Reference Spectrum Present: No
Number of Sampled Component Spectra: 1
Spectrometers: USB4C02835
Integration Time (usec): 100000 (USB4C02835)
Spectra Averaged: 1 (USB4C02835)
Boxcar Smoothing: 0 (USB4C02835)
Correct for Electrical Dark: No (USB4C02835)
Strobe/Lamp Enabled: No (USB4C02835)
Correct for Detector Non-linearity: No (USB4C02835)
Correct for Stray Light: No (USB4C02835)
Number of Pixels in Processed Spectrum: 3648
>>>>>Begin Processed Spectral Data<<<<<
177.47	1306.60
177.69	1306.60
177.91	1306.60
178.13	1351.66
178.36	1312.75
178.58	1572.84
178.80	1581.03
179.02	1490.92
179.24	1470.44
179.46	1531.88
179.68	1605.61
179.90	1527.78
180.13	1480.68
180.35	1488.87
180.57	1560.55
180.79	1474.54
181.01	1466.35
181.23	1527.78
181.45	1599.46
181.67	1535.98
181.90	1550.31
182.12	1480.68
182.34	1503.21
182.56	1517.54
182.78	1581.03
183.00	1523.69
183.22	1566.70
183.44	1431.53
183.66	1695.72
183.89	1558.50
184.11	1578.98
184.33	1595.37
184.55	1626.09
184.77	1533.93
184.99	1562.60
185.21	1511.40
185.43	1669.09
185.65	1542.12
185.87	1540.07
186.10	1609.70
186.32	1667.05
186.54	1554.41
186.76	1552.36
186.98	1548.26
187.20	1556.46
187.42	1542.12
187.64	1490.92
187.86	1581.03
188.08	1581.03
188.30	1527.78
188.52	1605.61
188.75	1548.26
188.97	1603.56
189.19	1560.55
189.41	1540.07
189.63	1581.03
189.85	1554.41
190.07	1486.83
190.29	1472.49
190.51	1515.50
190.73	1474.54
190.95	1599.46
191.17	1533.93
191.39	1527.78
191.61	1490.92
191.84	1517.54
192.06	1609.70
192.28	1554.41
192.50	1669.09
192.72	1576.94
192.94	1591.27
193.16	1636.33
193.38	1544.17
193.60	1492.97
193.82	1552.36
194.04	1593.32
194.26	1531.88
194.48	1509.35
194.70	1511.40
194.92	1429.48
195.14	1564.65
195.36	1552.36
195.58	1636.33
195.80	1474.54
196.02	1558.50
196.24	1495.02
196.46	1556.46
196.69	1513.45
196.91	1587.18
197.13	1568.74
197.35	1497.07
197.57	1640.42
197.79	1595.37
198.01	1624.04
198.23	1560.55
198.45	1523.69
198.67	1505.26
198.89	1501.16
199.11	1509.35
199.33	1472.49
199.55	1447.91
199.77	1560.55
199.99	1642.47
200.21	1609.70
200.43	1535.98
200.65	1468.39
200.87	1433.58
201.09	1599.46
201.31	1556.46
201.53	1505.26
201.75	1558.50
201.97	1525.74
202.19	1562.60
202.41	1642.47
202.63	1662.95
202.85	1570.79
203.07	1656.81
203.29	1492.97
203.51	1445.87
203.73	1544.17
203.95	1703.91
204.17	1566.70
204.39	1519.59
204.61	1509.35
204.83	1482.73
205.05	1558.50
205.27	1638.38
205.49	1669.09
205.71	1482.73
205.93	1476.59
206.15	1478.63
206.37	1507.30
206.59	1572.84
206.81	1495.02
207.03	1525.74
207.25	1476.59
207.47	1533.93
207.69	1527.78
207.91	1621.99
208.13	1587.18
208.34	1570.79
208.56	1509.35
208.78	1533.93
209.00	1531.88
209.22	1421.29
209.44	1552.36
209.66	1578.98
209.88	1490.92
210.10	1527.78
210.32	1566.70
210.54	1574.89
210.76	1507.30
210.98	1533.93
211.20	1435.63
211.42	1617.90
211.64	1550.31
211.86	1574.89
212.08	1572.84
212.30	1480.68
212.52	1513.45
212.74	1533.93
212.96	1523.69
213.17	1601.51
213.39	1464.30
213.61	1544.17
213.83	1599.46
214.05	1505.26
214.27	1626.09
214.49	1437.67
214.71	1538.02
214.93	1597.42
215.15	1527.78
215.37	1578.98
215.59	1478.63
215.81	1535.98
216.03	1550.31
216.24	1550.31
216.46	1495.02
216.68	1482.73
216.90	1509.35
217.12	1617.90
217.34	1517.54
217.56	1554.41
217.78	1589.22
218.00	1576.94
218.22	1554.41
218.44	1552.36
218.66	1482.73
218.87	1624.04
219.09	1503.21
219.31	1501.16
219.53	1630.18
219.75	1589.22
219.97	1495.02
220.19	1583.08
220.41	1495.02
220.63	1578.98
220.85	1544.17
221.06	1529.83
221.28	1560.55
221.50	1619.94
221.72	1578.98
221.94	1576.94
222.16	1527.78
222.38	1570.79
222.60	1576.94
222.82	1540.07
223.03	1581.03
223.25	1533.93
223.47	1564.65
223.69	1591.27
223.91	1511.40
224.13	1533.93
224.35	1507.30
224.57	1521.64
224.78	1525.74
225.00	1488.87
225.22	1552.36
225.44	1552.36
225.66	1552.36
225.88	1533.93
226.10	1601.51
226.32	1615.85
226.53	1562.60
226.75	1521.64
226.97	1558.50
227.19	1617.90
227.41	1521.64
227.63	1472.49
227.85	1462.25
228.06	1523.69
228.28	1548.26
228.50	1642.47
228.72	1409.00
228.94	1527.78
229.16	1507.30
229.37	1462.25
229.59	1531.88
229.81	1509.35
230.03	1548.26
230.25	1478.63
230.47	1456.11
230.69	1423.34
230.90	1595.37
231.12	1490.92
231.34	1533.93
231.56	1675.24
231.78	1484.78
232.00	1624.04
232.21	1591.27
232.43	1511.40
232.65	1415.15
232.87	1542.12
233.09	1558.50
233.30	1488.87
233.52	1548.26
233.74	1585.13
233.96	1499.11
234.18	1531.88
234.40	1495.02
234.61	1628.14
234.83	1499.11
235.05	1429.48
235.27	1632.23
235.49	1632.23
235.70	1490.92
235.92	1601.51
236.14	1595.37
236.36	1642.47
236.58	1499.11
236.79	1546.22
237.01	1515.50
237.23	1558.50
237.45	1640.42
237.67	1544.17
237.88	1519.59
238.10	1574.89
238.32	1552.36
238.54	1511.40
238.76	1515.50
238.97	1458.15
239.19	1570.79
239.41	1609.70
239.63	1597.42
239.85	1511.40
240.06	1505.26
240.28	1507.30
240.50	1542.12
240.72	1603.56
240.93	1560.55
241.15	1615.85
241.37	1599.46
241.59	1681.38
241.81	1572.84
242.02	1521.64
242.24	1568.74
242.46	1613.80
242.68	1566.70
242.89	1611.75
243.11	1634.28
243.33	1497.07
243.55	1533.93
243.76	1523.69
243.98	1484.78
244.20	1540.07
244.42	1525.74
244.64	1513.45
244.85	1427.43
245.07	1511.40
245.29	1499.11
245.51	1583.08
245.72	1568.74
245.94	1634.28
246.16	1587.18
246.38	1511.40
246.59	1484.78
246.81	1492.97
247.03	1544.17
247.24	1480.68
247.46	1468.39
247.68	1490.92
247.90	1527.78
248.11	1533.93
248.33	1570.79
248.55	1576.94
248.77	1519.59
248.98	1646.57
249.20	1587.18
249.42	1480.68
249.64	1523.69
249.85	1568.74
250.07	1468.39
250.29	1486.83
250.50	1556.46
250.72	1495.02
250.94	1611.75
251.16	1609.70
251.37	1585.13
251.59	1531.88
251.81	1538.02
252.02	1492.97
252.24	1490.92
252.46	1581.03
252.68	1476.59
252.89	1515.50
253.11	1538.02
253.33	1605.61
253.54	1574.89
253.76	1435.63
253.98	1427.43
254.20	1560.55
254.41	1441.77
254.63	1523.69
254.85	1456.11
255.06	1542.12
255.28	1548.26
255.50	1515.50
255.71	1490.92
255.93	1443.82
256.15	1548.26
256.36	1550.31
256.58	1523.69
256.80	1576.94
257.02	1527.78
257.23	1509.35
257.45	1529.83
257.67	1535.98
257.88	1552.36
258.10	1509.35
258.32	1542.12
258.53	1542.12
258.75	1587.18
258.97	1497.07
259.18	1646.57
259.40	1589.22
259.62	1636.33
259.83	1564.65
260.05	1640.42
260.27	1677.29
260.48	1564.65
260.70	1456.11
260.92	1495.02
261.13	1495.02
261.35	1468.39
261.57	1456.11
261.78	1431.53
262.00	1570.79
262.22	1517.54
262.43	1544.17
262.65	1482.73
262.86	1644.52
263.08	1679.33
263.30	1478.63
263.51	1523.69
263.73	1488.87
263.95	1576.94
264.16	1505.26
264.38	1495.02
264.60	1568.74
264.81	1587.18
265.03	1603.56
265.25	1521.64
265.46	1591.27
265.68	1613.80
265.89	1556.46
266.11	1476.59
266.33	1531.88
266.54	1562.60
266.76	1548.26
266.98	1599.46
267.19	1558.50
267.41	1589.22
267.62	1583.08
267.84	1464.30
268.06	1501.16
268.27	1554.41
268.49	1564.65
268.70	1544.17
268.92	1599.46
269.14	1511.40
269.35	1445.87
269.57	1624.04
269.79	1595.37
270.00	1509.35
270.22	1568.74
270.43	1564.65
270.65	1390.57
270.87	1540.07
271.08	1605.61
271.30	1540.07
271.51	1531.88
271.73	1566.70
271.95	1540.07
272.16	1572.84
272.38	1527.78
272.59	1542.12
272.81	1523.69
273.02	1529.83
273.24	1619.94
273.46	1558.50
273.67	1497.07
273.89	1478.63
274.10	1482.73
274.32	1540.07
274.54	1556.46
274.75	1546.22
274.97	1505.26
275.18	1517.54
275.40	1527.78
275.61	1513.45
275.83	1507.30
276.05	1492.97
276.26	1484.78
276.48	1564.65
276.69	1566.70
276.91	1480.68
277.12	1632.23
277.34	1587.18
277.55	1593.32
277.77	1480.68
277.99	1468.39
278.20	1486.83
278.42	1533.93
278.63	1480.68
278.85	1480.68
279.06	1429.48
279.28	1484.78
279.49	1591.27
279.71	1564.65
279.93	1621.99
280.14	1554.41
280.36	1538.02
280.57	1624.04
280.79	1626.09
281.00	1550.31
281.22	1490.92
281.43	1560.55
281.65	1445.87
281.86	1568.74
282.08	1499.11
282.29	1652.71
282.51	1449.96
282.73	1503.21
282.94	1497.07
283.16	1503.21
283.37	1583.08
283.59	1515.50
283.80	1462.25
284.02	1474.54
284.23	1529.83
284.45	1447.91
284.66	1513.45
284.88	1492.97
285.09	1574.89
285.31	1568.74
285.52	1589.22
285.74	1452.01
285.95	1669.09
286.17	1574.89
286.38	1540.07
286.60	1492.97
286.81	1486.83
287.03	1587.18
287.24	1587.18
287.46	1544.17
287.67	1476.59
287.89	1648.61
288.10	1540.07
288.32	1484.78
288.53	1632.23
288.75	1583.08
288.96	1558.50
289.18	1490.92
289.39	1558.50
289.61	1640.42
289.82	1597.42
290.04	1650.66
290.25	1501.16
290.47	1505.26
290.68	1517.54
290.90	1564.65
291.11	1468.39
291.33	1689.57
291.54	1474.54
291.76	1497.07
291.97	1589.22
292.18	1476.59
292.40	1535.98
292.61	1556.46
292.83	1628.14
293.04	1558.50
293.26	1593.32
293.47	1517.54
293.69	1482.73
293.90	1527.78
294.12	1595.37
294.33	1525.74
294.55	1613.80
294.76	1550.31
294.97	1634.28
295.19	1638.38
295.40	1546.22
295.62	1601.51
295.83	1572.84
296.05	1484.78
296.26	1568.74
296.48	1548.26
296.69	1564.65
296.90	1449.96
297.12	1581.03
297.33	1578.98
297.55	1574.89
297.76	1527.78
297.98	1621.99
298.19	1560.55
298.41	1513.45
298.62	1447.91
298.83	1607.66
299.05	1558.50
299.26	1503.21
299.48	1476.59
299.69	1562.60
299.90	1474.54
300.12	1495.02
300.33	1574.89
300.55	1505.26
300.76	1570.79
300.98	1517.54
301.19	1550.31
301.40	1513.45
301.62	1531.88
301.83	1519.59
302.05	1570.79
302.26	1599.46
302.47	1572.84
302.69	1474.54
302.90	1533.93
303.12	1441.77
303.33	1570.79
303.54	1503.21
303.76	1515.50
303.97	1531.88
304.19	1560.55
304.40	1533.93
304.61	1558.50
304.83	1640.42
305.04	1558.50
305.26	1492.97
305.47	1578.98
305.68	1560.55
305.90	1490.92
306.11	1560.55
306.33	1501.16
306.54	1509.35
306.75	1449.96
306.97	1488.87
307.18	1570.79
307.39	1490.92
307.61	1554.41
307.82	1525.74
308.04	1527.78
308.25	1513.45
308.46	1585.13
308.68	1509.35
308.89	1560.55
309.10	1552.36
309.32	1568.74
309.53	1517.54
309.74	1497.07
309.96	1484.78
310.17	1570.79
310.39	1505.26
310.60	1533.93
310.81	1482.73
311.03	1515.50
311.24	1519.59
311.45	1564.65
311.67	1560.55
311.88	1523.69
312.09	1527.78
312.31	1533.93
312.52	1542.12
312.73	1542.12
312.95	1476.59
313.16	1464.30
313.37	1626.09
313.59	1609.70
313.80	1517.54
314.01	1591.27
314.23	1486.83
314.44	1535.98
314.65	1447.91
314.87	1478.63
315.08	1525.74
315.29	1488.87
315.51	1486.83
315.72	1474.54
315.93	1636.33
316.15	1562.60
316.36	1486.83
316.57	1544.17
316.79	1568.74
317.00	1544.17
317.21	1558.50
317.43	1525.74
317.64	1599.46
317.85	1540.07
318.07	1538.02
318.28	1564.65
318.49	1757.16
318.70	1720.29
318.92	1724.39
319.13	1689.57
319.34	1689.57
319.56	1624.04
319.77	1648.61
319.98	1701.86
320.20	1615.85
320.41	1632.23
320.62	1626.09
320.83	1560.55
321.05	1601.51
321.26	1546.22
321.47	1464.30
321.69	1505.26
321.90	1503.21
322.11	1492.97
322.32	1513.45
322.54	1607.66
322.75	1556.46
322.96	1587.18
323.18	1449.96
323.39	1454.06
323.60	1515.50
323.81	1544.17
324.03	1509.35
324.24	1523.69
324.45	1525.74
324.66	1476.59
324.88	1617.90
325.09	1548.26
325.30	1570.79
325.52	1548.26
325.73	1585.13
325.94	1585.13
326.15	1464.30
326.37	1503.21
326.58	1626.09
326.79	1576.94
327.00	1454.06
327.22	1601.51
327.43	1517.54
327.64	1470.44
327.85	1544.17
328.07	1542.12
328.28	1591.27
328.49	1540.07
328.70	1562.60
328.92	1542.12
329.13	1472.49
329.34	1548.26
329.55	1617.90
329.76	1671.14
329.98	1490.92
330.19	1558.50
330.40	1603.56
330.61	1558.50
330.83	1552.36
331.04	1480.68
331.25	1476.59
331.46	1509.35
331.68	1433.58
331.89	1544.17
332.10	1533.93
332.31	1474.54
332.52	1523.69
332.74	1617.90
332.95	1474.54
333.16	1554.41
333.37	1499.11
333.58	1515.50
333.80	1474.54
334.01	1460.20
334.22	1517.54
334.43	1486.83
334.64	1595.37
334.86	1497.07
335.07	1505.26
335.28	1560.55
335.49	1492.97
335.70	1566.70
335.92	1669.09
336.13	1542.12
336.34	1562.60
336.55	1535.98
336.76	1550.31
336.98	1437.67
337.19	1445.87
337.40	1607.66
337.61	1595.37
337.82	1501.16
338.04	1601.51
338.25	1460.20
338.46	1550.31
338.67	1501.16
338.88	1484.78
339.09	1490.92
339.31	1503.21
339.52	1527.78
339.73	1538.02
339.94	1503.21
340.15	1560.55
340.36	1542.12
340.58	1505.26
340.79	1542.12
341.00	1554.41
341.21	1492.97
341.42	1636.33
341.63	1523.69
341.85	1507.30
342.06	1576.94
342.27	1515.50
342.48	1574.89
342.69	1490.92
342.90	1566.70
343.12	1538.02
343.33	1503.21
343.54	1574.89
343.75	1560.55
343.96	1505.26
344.17	1460.20
344.38	1544.17
344.60	1497.07
344.81	1488.87
345.02	1482.73
345.23	1542.12
345.44	1703.91
345.65	1607.66
345.86	1544.17
346.07	1538.02
346.29	1529.83
346.50	1558.50
346.71	1546.22
346.92	1595.37
347.13	1636.33
347.34	1558.50
347.55	1476.59
347.76	1511.40
347.98	1421.29
348.19	1533.93
348.40	1572.84
348.61	1517.54
348.82	1527.78
349.03	1564.65
349.24	1566.70
349.45	1601.51
349.66	1402.86
349.88	1566.70
350.09	1497.07
350.30	1599.46
350.51	1576.94
350.72	1511.40
350.93	1507.30
351.14	1476.59
351.35	1566.70
351.56	1466.35
351.77	1558.50
351.99	1613.80
352.20	1576.94
352.41	1624.04
352.62	1476.59
352.83	1480.68
353.04	1519.59
353.25	1527.78
353.46	1578.98
353.67	1548.26
353.88	1468.39
354.09	1591.27
354.30	1521.64
354.52	1568.74
354.73	1468.39
354.94	1497.07
355.15	1521.64
355.36	1656.81
355.57	1568.74
355.78	1581.03
355.99	1542.12
356.20	1517.54
356.41	1544.17
356.62	1605.61
356.83	1533.93
357.04	1540.07
357.25	1478.63
357.46	1525.74
357.68	1449.96
357.89	1458.15
358.10	1566.70
358.31	1535.98
358.52	1560.55
358.73	1454.06
358.94	1519.59
359.15	1562.60
359.36	1570.79
359.57	1533.93
359.78	1464.30
359.99	1550.31
360.20	1529.83
360.41	1542.12
360.62	1568.74
360.83	1591.27
361.04	1519.59
361.25	1570.79
361.46	1662.95
361.67	1583.08
361.88	1603.56
362.09	1601.51
362.30	1624.04
362.51	1503.21
362.72	1576.94
362.93	1550.31
363.14	1593.32
363.35	1521.64
363.56	1497.07
363.78	1570.79
363.99	1513.45
364.20	1486.83
364.41	1562.60
364.62	1628.14
364.83	1593.32
365.04	1529.83
365.25	1568.74
365.46	1634.28
365.67	1515.50
365.88	1560.55
366.09	1505.26
366.30	1570.79
366.51	1546.22
366.72	1511.40
366.93	1550.31
367.14	1581.03
367.35	1624.04
367.56	1492.97
367.77	1574.89
367.98	1531.88
368.18	1568.74
368.39	1566.70
368.60	1517.54
368.81	1572.84
369.02	1572.84
369.23	1574.89
369.44	1509.35
369.65	1507.30
369.86	1619.94
370.07	1642.47
370.28	1540.07
370.49	1601.51
370.70	1599.46
370.91	1472.49
371.12	1529.83
371.33	1628.14
371.54	1544.17
371.75	1576.94
371.96	1415.15
372.17	1538.02
372.38	1529.83
372.59	1480.68
372.80	1529.83
373.01	1546.22
373.22	1570.79
373.43	1503.21
373.64	1558.50
373.85	1562.60
374.06	1556.46
374.26	1531.88
374.47	1615.85
374.68	1607.66
374.89	1574.89
375.10	1548.26
375.31	1566.70
375.52	1568.74
375.73	1509.35
375.94	1439.72
376.15	1607.66
376.36	1552.36
376.57	1523.69
376.78	1554.41
376.99	1509.35
377.20	1632.23
377.40	1513.45
377.61	1685.48
377.82	1515.50
378.03	1517.54
378.24	1583.08
378.45	1538.02
378.66	1497.07
378.87	1529.83
379.08	1439.72
379.29	1476.59
379.50	1593.32
379.71	1507.30
379.91	1652.71
380.12	1554.41
380.33	1505.26
380.54	1529.83
380.75	1517.54
380.96	1544.17
381.17	1640.42
381.38	1529.83
381.59	1558.50
381.80	1546.22
382.00	1619.94
382.21	1552.36
382.42	1646.57
382.63	1714.15
382.84	1638.38
383.05	1562.60
383.26	1650.66
383.47	1587.18
383.68	1585.13
383.88	1585.13
384.09	1558.50
384.30	1662.95
384.51	1497.07
384.72	1585.13
384.93	1476.59
385.14	1550.31
385.35	1591.27
385.55	1542.12
385.76	1587.18
385.97	1550.31
386.18	1509.35
386.39	1521.64
386.60	1611.75
386.81	1632.23
387.02	1570.79
387.22	1550.31
387.43	1636.33
387.64	1687.53
387.85	1839.08
388.06	3104.72
388.27	7311.25
388.48	10706.78
388.68	12562.24
388.89	14085.93
389.10	13141.82
389.31	10205.03
389.52	9019.25
389.73	7839.62
389.93	7171.99
390.14	6715.29
390.35	6184.87
390.56	5541.80
390.77	4640.70
390.98	3657.67
391.18	2922.45
391.39	2172.89
391.60	1771.49
391.81	1767.40
392.02	1593.32
392.23	1646.57
392.43	1583.08
392.64	1636.33
392.85	1542.12
393.06	1613.80
393.27	1511.40
393.47	1540.07
393.68	1595.37
393.89	1517.54
394.10	1591.27
394.31	1466.35
394.52	1492.97
394.72	1519.59
394.93	1619.94
395.14	1505.26
395.35	1574.89
395.56	1540.07
395.76	1619.94
395.97	1705.96
396.18	1804.26
396.39	1728.49
396.60	1916.90
396.80	1806.31
397.01	1667.05
397.22	1613.80
397.43	1681.38
397.64	1607.66
397.84	1710.05
398.05	1794.02
398.26	1660.90
398.47	1617.90
398.67	1550.31
398.88	1552.36
399.09	1570.79
399.30	1525.74
399.51	1488.87
399.71	1427.43
399.92	1501.16
400.13	1611.75
400.34	1533.93
400.54	1515.50
400.75	1624.04
400.96	1535.98
401.17	1552.36
401.37	1578.98
401.58	1519.59
401.79	1601.51
402.00	1787.88
402.21	1884.13
402.41	1902.56
402.62	1920.99
402.83	1937.38
403.04	1837.03
403.24	1871.84
403.45	1671.14
403.66	1753.06
403.87	1732.58
404.07	1777.64
404.28	1740.77
404.49	1740.77
404.70	1599.46
404.90	1615.85
405.11	1619.94
405.32	1581.03
405.52	1548.26
405.73	1472.49
405.94	1550.31
406.15	1503.21
406.35	1597.42
406.56	1593.32
406.77	1552.36
406.98	1529.83
407.18	1495.02
407.39	1658.85
407.60	1585.13
407.80	1587.18
408.01	1533.93
408.22	1554.41
408.43	1484.78
408.63	1658.85
408.84	1603.56
409.05	1597.42
409.25	1505.26
409.46	1511.40
409.67	1566.70
409.88	1464.30
410.08	1529.83
410.29	1564.65
410.50	1566.70
410.70	1515.50
410.91	1415.15
411.12	1552.36
411.32	1552.36
411.53	1615.85
411.74	1685.48
411.95	1587.18
412.15	1587.18
412.36	1576.94
412.57	1581.03
412.77	1593.32
412.98	1593.32
413.19	1572.84
413.39	1630.18
413.60	1546.22
413.81	1632.23
414.01	1593.32
414.22	1576.94
414.43	1538.02
414.63	1515.50
414.84	1660.90
415.05	1581.03
415.25	1425.39
415.46	1654.76
415.67	1570.79
415.87	1554.41
416.08	1611.75
416.29	1492.97
416.49	1556.46
416.70	1474.54
416.91	1490.92
417.11	1570.79
417.32	1581.03
417.53	1642.47
417.73	1511.40
417.94	1542.12
418.15	1572.84
418.35	1560.55
418.56	1574.89
418.77	1619.94
418.97	1511.40
419.18	1513.45
419.38	1413.10
419.59	1540.07
419.80	1566.70
420.00	1513.45
420.21	1515.50
420.42	1615.85
420.62	1505.26
420.83	1540.07
421.04	1597.42
421.24	1509.35
421.45	1464.30
421.65	1601.51
421.86	1552.36
422.07	1476.59
422.27	1613.80
422.48	1548.26
422.69	1511.40
422.89	1488.87
423.10	1540.07
423.30	1497.07
423.51	1542.12
423.72	1570.79
423.92	1490.92
424.13	1519.59
424.33	1556.46
424.54	1613.80
424.75	1548.26
424.95	1642.47
425.16	1615.85
425.36	1595.37
425.57	1576.94
425.78	1564.65
425.98	1572.84
426.19	1535.98
426.39	1458.15
426.60	1665.00
426.81	1630.18
427.01	1445.87
427.22	1560.55
427.42	1472.49
427.63	1556.46
427.83	1554.41
428.04	1636.33
428.25	1611.75
428.45	1566.70
428.66	1589.22
428.86	1495.02
429.07	1521.64
429.28	1593.32
429.48	1503.21
429.69	1495.02
429.89	1626.09
430.10	1568.74
430.30	1550.31
430.51	1488.87
430.71	1519.59
430.92	1509.35
431.13	1488.87
431.33	1523.69
431.54	1634.28
431.74	1613.80
431.95	1615.85
432.15	1540.07
432.36	1513.45
432.56	1654.76
432.77	1656.81
432.98	1576.94
433.18	1554.41
433.39	1566.70
433.59	1495.02
433.80	1601.51
434.00	1621.99
434.21	1529.83
434.41	1533.93
434.62	1613.80
434.82	1521.64
435.03	1490.92
435.23	1503.21
435.44	1486.83
435.64	1576.94
435.85	1482.73
436.06	1626.09
436.26	1628.14
436.47	1513.45
436.67	1505.26
436.88	1495.02
437.08	1556.46
437.29	1652.71
437.49	1527.78
437.70	1654.76
437.90	1519.59
438.11	1738.73
438.31	1619.94
438.52	1691.62
438.72	1708.01
438.93	1708.01
439.13	1560.55
439.34	1624.04
439.54	1601.51
439.75	1570.79
439.95	1552.36
440.16	1525.74
440.36	1615.85
440.57	1597.42
440.77	1570.79
440.98	1560.55
441.18	1535.98
441.39	1509.35
441.59	1538.02
441.80	1703.91
442.00	1492.97
442.21	1517.54
442.41	1490.92
442.62	1527.78
442.82	1542.12
443.02	1554.41
443.23	1548.26
443.43	1478.63
443.64	1632.23
443.84	1517.54
444.05	1673.19
444.25	1550.31
444.46	1525.74
444.66	1683.43
444.87	1628.14
445.07	1490.92
445.28	1523.69
445.48	1621.99
445.69	1675.24
445.89	1656.81
446.09	1609.70
446.30	2068.45
446.50	3182.54
446.71	4511.68
446.91	5240.75
447.12	5769.13
447.32	5578.67
447.53	4593.59
447.73	4001.73
447.93	3729.35
448.14	3280.85
448.34	3166.16
448.55	2869.20
448.75	2873.30
448.96	2791.38
449.16	2504.67
449.36	2224.09
449.57	2064.35
449.77	1716.20
449.98	1632.23
450.18	1634.28
450.39	1617.90
450.59	1601.51
450.79	1519.59
451.00	1503.21
451.20	1581.03
451.41	1548.26
451.61	1581.03
451.81	1595.37
452.02	1515.50
452.22	1591.27
452.43	1490.92
452.63	1511.40
