SpectraSuite Data File
++++++++++++++++++++++++++++++++++++
Date: Tue May 03 12:55:57 CEST 2016
User: root
Dark Spectrum Present: No
Reference Spectrum Present: No
Number of Sampled Component Spectra: 1
Spectrometers: USB4C02835
Integration Time (usec): 100000 (USB4C02835)
Spectra Averaged: 1 (USB4C02835)
Boxcar Smoothing: 0 (USB4C02835)
Correct for Electrical Dark: No (USB4C02835)
Strobe/Lamp Enabled: No (USB4C02835)
Correct for Detector Non-linearity: No (USB4C02835)
Correct for Stray Light: No (USB4C02835)
Number of Pixels in Processed Spectrum: 3648
>>>>>Begin Processed Spectral Data<<<<<
177.47	1374.19
177.69	1374.19
177.91	1374.19
178.13	1359.85
178.36	1265.64
178.58	1468.39
178.80	1583.08
179.02	1499.11
179.24	1398.76
179.46	1564.65
179.68	1599.46
179.90	1509.35
180.13	1495.02
180.35	1531.88
180.57	1462.25
180.79	1535.98
181.01	1624.04
181.23	1636.33
181.45	1615.85
181.67	1540.07
181.90	1511.40
182.12	1495.02
182.34	1476.59
182.56	1562.60
182.78	1581.03
183.00	1568.74
183.22	1486.83
183.44	1411.05
183.66	1624.04
183.89	1624.04
184.11	1558.50
184.33	1566.70
184.55	1542.12
184.77	1511.40
184.99	1560.55
185.21	1501.16
185.43	1628.14
185.65	1497.07
185.87	1527.78
186.10	1669.09
186.32	1665.00
186.54	1578.98
186.76	1476.59
186.98	1658.85
187.20	1521.64
187.42	1519.59
187.64	1560.55
187.86	1550.31
188.08	1599.46
188.30	1558.50
188.52	1499.11
188.75	1572.84
188.97	1611.75
189.19	1538.02
189.41	1480.68
189.63	1574.89
189.85	1613.80
190.07	1538.02
190.29	1400.81
190.51	1591.27
190.73	1468.39
190.95	1667.05
191.17	1529.83
191.39	1449.96
191.61	1521.64
191.84	1521.64
192.06	1560.55
192.28	1521.64
192.50	1634.28
192.72	1509.35
192.94	1560.55
193.16	1640.42
193.38	1540.07
193.60	1470.44
193.82	1486.83
194.04	1597.42
194.26	1576.94
194.48	1665.00
194.70	1519.59
194.92	1484.78
195.14	1624.04
195.36	1533.93
195.58	1527.78
195.80	1521.64
196.02	1466.35
196.24	1480.68
196.46	1511.40
196.69	1503.21
196.91	1617.90
197.13	1585.13
197.35	1527.78
197.57	1638.38
197.79	1531.88
198.01	1535.98
198.23	1525.74
198.45	1564.65
198.67	1527.78
198.89	1509.35
199.11	1548.26
199.33	1441.77
199.55	1441.77
199.77	1497.07
199.99	1599.46
200.21	1486.83
200.43	1509.35
200.65	1495.02
200.87	1515.50
201.09	1558.50
201.31	1482.73
201.53	1585.13
201.75	1470.44
201.97	1488.87
202.19	1538.02
202.41	1517.54
202.63	1628.14
202.85	1509.35
203.07	1478.63
203.29	1542.12
203.51	1583.08
203.73	1501.16
203.95	1662.95
204.17	1535.98
204.39	1548.26
204.61	1482.73
204.83	1468.39
205.05	1697.77
205.27	1558.50
205.49	1634.28
205.71	1552.36
205.93	1499.11
206.15	1591.27
206.37	1542.12
206.59	1505.26
206.81	1501.16
207.03	1400.81
207.25	1515.50
207.47	1564.65
207.69	1535.98
207.91	1519.59
208.13	1613.80
208.34	1495.02
208.56	1507.30
208.78	1495.02
209.00	1478.63
209.22	1529.83
209.44	1544.17
209.66	1505.26
209.88	1570.79
210.10	1492.97
210.32	1527.78
210.54	1583.08
210.76	1535.98
210.98	1574.89
211.20	1370.09
211.42	1558.50
211.64	1636.33
211.86	1554.41
212.08	1583.08
212.30	1484.78
212.52	1542.12
212.74	1492.97
212.96	1519.59
213.17	1605.61
213.39	1535.98
213.61	1595.37
213.83	1533.93
214.05	1570.79
214.27	1564.65
214.49	1531.88
214.71	1488.87
214.93	1611.75
215.15	1521.64
215.37	1542.12
215.59	1529.83
215.81	1613.80
216.03	1638.38
216.24	1529.83
216.46	1560.55
216.68	1591.27
216.90	1552.36
217.12	1617.90
217.34	1578.98
217.56	1525.74
217.78	1615.85
218.00	1648.61
218.22	1585.13
218.44	1548.26
218.66	1497.07
218.87	1634.28
219.09	1484.78
219.31	1484.78
219.53	1499.11
219.75	1542.12
219.97	1589.22
220.19	1535.98
220.41	1464.30
220.63	1593.32
220.85	1519.59
221.06	1574.89
221.28	1558.50
221.50	1591.27
221.72	1593.32
221.94	1511.40
222.16	1492.97
222.38	1533.93
222.60	1591.27
222.82	1595.37
223.03	1572.84
223.25	1535.98
223.47	1544.17
223.69	1544.17
223.91	1585.13
224.13	1552.36
224.35	1511.40
224.57	1615.85
224.78	1546.22
225.00	1525.74
225.22	1511.40
225.44	1501.16
225.66	1560.55
225.88	1488.87
226.10	1566.70
226.32	1503.21
226.53	1624.04
226.75	1472.49
226.97	1593.32
227.19	1523.69
227.41	1544.17
227.63	1548.26
227.85	1540.07
228.06	1503.21
228.28	1523.69
228.50	1574.89
228.72	1468.39
228.94	1470.44
229.16	1386.47
229.37	1456.11
229.59	1476.59
229.81	1589.22
230.03	1480.68
230.25	1447.91
230.47	1458.15
230.69	1468.39
230.90	1570.79
231.12	1519.59
231.34	1611.75
231.56	1525.74
231.78	1468.39
232.00	1578.98
232.21	1533.93
232.43	1470.44
232.65	1501.16
232.87	1601.51
233.09	1470.44
233.30	1474.54
233.52	1550.31
233.74	1531.88
233.96	1474.54
234.18	1540.07
234.40	1511.40
234.61	1683.43
234.83	1492.97
235.05	1464.30
235.27	1677.29
235.49	1609.70
235.70	1576.94
235.92	1660.90
236.14	1482.73
236.36	1656.81
236.58	1488.87
236.79	1568.74
237.01	1460.20
237.23	1515.50
237.45	1607.66
237.67	1470.44
237.88	1517.54
238.10	1597.42
238.32	1439.72
238.54	1525.74
238.76	1544.17
238.97	1513.45
239.19	1421.29
239.41	1601.51
239.63	1587.18
239.85	1538.02
240.06	1525.74
240.28	1558.50
240.50	1621.99
240.72	1521.64
240.93	1527.78
241.15	1619.94
241.37	1515.50
241.59	1615.85
241.81	1607.66
242.02	1550.31
242.24	1556.46
242.46	1550.31
242.68	1519.59
242.89	1552.36
243.11	1574.89
243.33	1542.12
243.55	1568.74
243.76	1560.55
243.98	1513.45
244.20	1462.25
244.42	1480.68
244.64	1521.64
244.85	1464.30
245.07	1415.15
245.29	1550.31
245.51	1484.78
245.72	1540.07
245.94	1556.46
246.16	1529.83
246.38	1519.59
246.59	1509.35
246.81	1488.87
247.03	1525.74
247.24	1527.78
247.46	1523.69
247.68	1574.89
247.90	1560.55
248.11	1474.54
248.33	1542.12
248.55	1554.41
248.77	1550.31
248.98	1550.31
249.20	1574.89
249.42	1529.83
249.64	1507.30
249.85	1540.07
250.07	1521.64
250.29	1544.17
250.50	1587.18
250.72	1480.68
250.94	1511.40
251.16	1593.32
251.37	1581.03
251.59	1566.70
251.81	1589.22
252.02	1619.94
252.24	1552.36
252.46	1607.66
252.68	1419.24
252.89	1478.63
253.11	1521.64
253.33	1611.75
253.54	1535.98
253.76	1478.63
253.98	1550.31
254.20	1548.26
254.41	1476.59
254.63	1519.59
254.85	1449.96
255.06	1554.41
255.28	1581.03
255.50	1484.78
255.71	1538.02
255.93	1535.98
256.15	1576.94
256.36	1523.69
256.58	1558.50
256.80	1638.38
257.02	1603.56
257.23	1587.18
257.45	1478.63
257.67	1599.46
257.88	1511.40
258.10	1542.12
258.32	1550.31
258.53	1558.50
258.75	1560.55
258.97	1521.64
259.18	1523.69
259.40	1611.75
259.62	1568.74
259.83	1624.04
260.05	1548.26
260.27	1716.20
260.48	1660.90
260.70	1480.68
260.92	1456.11
261.13	1609.70
261.35	1511.40
261.57	1591.27
261.78	1415.15
262.00	1488.87
262.22	1544.17
262.43	1482.73
262.65	1449.96
262.86	1585.13
263.08	1662.95
263.30	1540.07
263.51	1486.83
263.73	1505.26
263.95	1589.22
264.16	1521.64
264.38	1480.68
264.60	1558.50
264.81	1435.63
265.03	1638.38
265.25	1587.18
265.46	1488.87
265.68	1656.81
265.89	1523.69
266.11	1458.15
266.33	1509.35
266.54	1572.84
266.76	1554.41
266.98	1574.89
267.19	1624.04
267.41	1593.32
267.62	1533.93
267.84	1452.01
268.06	1519.59
268.27	1599.46
268.49	1626.09
268.70	1599.46
268.92	1503.21
269.14	1492.97
269.35	1566.70
269.57	1546.22
269.79	1574.89
270.00	1542.12
270.22	1587.18
270.43	1497.07
270.65	1454.06
270.87	1474.54
271.08	1568.74
271.30	1599.46
271.51	1519.59
271.73	1505.26
271.95	1587.18
272.16	1568.74
272.38	1527.78
272.59	1478.63
272.81	1568.74
273.02	1484.78
273.24	1527.78
273.46	1529.83
273.67	1474.54
273.89	1501.16
274.10	1490.92
274.32	1550.31
274.54	1560.55
274.75	1560.55
274.97	1583.08
275.18	1640.42
275.40	1495.02
275.61	1564.65
275.83	1583.08
276.05	1503.21
276.26	1542.12
276.48	1542.12
276.69	1519.59
276.91	1505.26
277.12	1585.13
277.34	1617.90
277.55	1568.74
277.77	1527.78
277.99	1466.35
278.20	1519.59
278.42	1554.41
278.63	1570.79
278.85	1519.59
279.06	1452.01
279.28	1617.90
279.49	1552.36
279.71	1628.14
279.93	1507.30
280.14	1503.21
280.36	1492.97
280.57	1607.66
280.79	1578.98
281.00	1572.84
281.22	1454.06
281.43	1576.94
281.65	1406.95
281.86	1490.92
282.08	1548.26
282.29	1642.47
282.51	1433.58
282.73	1488.87
282.94	1525.74
283.16	1560.55
283.37	1701.86
283.59	1591.27
283.80	1548.26
284.02	1599.46
284.23	1495.02
284.45	1595.37
284.66	1515.50
284.88	1495.02
285.09	1542.12
285.31	1587.18
285.52	1601.51
285.74	1492.97
285.95	1544.17
286.17	1507.30
286.38	1621.99
286.60	1484.78
286.81	1578.98
287.03	1619.94
287.24	1527.78
287.46	1527.78
287.67	1468.39
287.89	1611.75
288.10	1550.31
288.32	1542.12
288.53	1619.94
288.75	1521.64
288.96	1554.41
289.18	1648.61
289.39	1525.74
289.61	1652.71
289.82	1535.98
290.04	1624.04
290.25	1521.64
290.47	1435.63
290.68	1544.17
290.90	1566.70
291.11	1476.59
291.33	1525.74
291.54	1437.67
291.76	1535.98
291.97	1603.56
292.18	1550.31
292.40	1558.50
292.61	1495.02
292.83	1624.04
293.04	1570.79
293.26	1558.50
293.47	1505.26
293.69	1497.07
293.90	1507.30
294.12	1540.07
294.33	1540.07
294.55	1470.44
294.76	1595.37
294.97	1556.46
295.19	1605.61
295.40	1550.31
295.62	1615.85
295.83	1640.42
296.05	1533.93
296.26	1552.36
296.48	1601.51
296.69	1599.46
296.90	1568.74
297.12	1587.18
297.33	1677.29
297.55	1583.08
297.76	1538.02
297.98	1652.71
298.19	1583.08
298.41	1484.78
298.62	1531.88
298.83	1601.51
299.05	1546.22
299.26	1525.74
299.48	1552.36
299.69	1538.02
299.90	1509.35
300.12	1519.59
300.33	1660.90
300.55	1570.79
300.76	1587.18
300.98	1488.87
301.19	1595.37
301.40	1492.97
301.62	1490.92
301.83	1499.11
302.05	1570.79
302.26	1509.35
302.47	1601.51
302.69	1431.53
302.90	1587.18
303.12	1447.91
303.33	1538.02
303.54	1621.99
303.76	1531.88
303.97	1511.40
304.19	1634.28
304.40	1452.01
304.61	1509.35
304.83	1632.23
305.04	1574.89
305.26	1495.02
305.47	1517.54
305.68	1589.22
305.90	1505.26
306.11	1609.70
306.33	1544.17
306.54	1576.94
306.75	1501.16
306.97	1456.11
307.18	1527.78
307.39	1597.42
307.61	1550.31
307.82	1464.30
308.04	1535.98
308.25	1513.45
308.46	1607.66
308.68	1566.70
308.89	1583.08
309.10	1578.98
309.32	1581.03
309.53	1478.63
309.74	1583.08
309.96	1482.73
310.17	1542.12
310.39	1423.34
310.60	1538.02
310.81	1503.21
311.03	1458.15
311.24	1546.22
311.45	1513.45
311.67	1552.36
311.88	1511.40
312.09	1495.02
312.31	1509.35
312.52	1501.16
312.73	1497.07
312.95	1429.48
313.16	1456.11
313.37	1597.42
313.59	1566.70
313.80	1624.04
314.01	1609.70
314.23	1581.03
314.44	1578.98
314.65	1382.38
314.87	1492.97
315.08	1585.13
315.29	1525.74
315.51	1429.48
315.72	1558.50
315.93	1593.32
316.15	1611.75
316.36	1503.21
316.57	1576.94
316.79	1646.57
317.00	1458.15
317.21	1621.99
317.43	1566.70
317.64	1562.60
317.85	1445.87
318.07	1583.08
318.28	1667.05
318.49	1734.63
318.70	1787.88
318.92	1714.15
319.13	1679.33
319.34	1675.24
319.56	1644.52
319.77	1679.33
319.98	1675.24
320.20	1624.04
320.41	1615.85
320.62	1581.03
320.83	1466.35
321.05	1681.38
321.26	1568.74
321.47	1591.27
321.69	1568.74
321.90	1542.12
322.11	1509.35
322.32	1562.60
322.54	1593.32
322.75	1474.54
322.96	1654.76
323.18	1525.74
323.39	1478.63
323.60	1486.83
323.81	1626.09
324.03	1480.68
324.24	1523.69
324.45	1521.64
324.66	1509.35
324.88	1521.64
325.09	1615.85
325.30	1609.70
325.52	1538.02
325.73	1642.47
325.94	1437.67
326.15	1497.07
326.37	1515.50
326.58	1513.45
326.79	1619.94
327.00	1458.15
327.22	1519.59
327.43	1511.40
327.64	1497.07
327.85	1619.94
328.07	1476.59
328.28	1605.61
328.49	1486.83
328.70	1531.88
328.92	1542.12
329.13	1538.02
329.34	1585.13
329.55	1597.42
329.76	1605.61
329.98	1585.13
330.19	1585.13
330.40	1511.40
330.61	1503.21
330.83	1515.50
331.04	1568.74
331.25	1558.50
331.46	1523.69
331.68	1470.44
331.89	1564.65
332.10	1576.94
332.31	1521.64
332.52	1542.12
332.74	1607.66
332.95	1501.16
333.16	1525.74
333.37	1566.70
333.58	1546.22
333.80	1603.56
334.01	1482.73
334.22	1507.30
334.43	1456.11
334.64	1564.65
334.86	1497.07
335.07	1454.06
335.28	1572.84
335.49	1552.36
335.70	1634.28
335.92	1542.12
336.13	1624.04
336.34	1576.94
336.55	1548.26
336.76	1568.74
336.98	1517.54
337.19	1482.73
337.40	1609.70
337.61	1607.66
337.82	1488.87
338.04	1650.66
338.25	1392.62
338.46	1540.07
338.67	1576.94
338.88	1513.45
339.09	1544.17
339.31	1482.73
339.52	1415.15
339.73	1517.54
339.94	1535.98
340.15	1515.50
340.36	1648.61
340.58	1505.26
340.79	1574.89
341.00	1478.63
341.21	1519.59
341.42	1599.46
341.63	1558.50
341.85	1589.22
342.06	1574.89
342.27	1501.16
342.48	1527.78
342.69	1515.50
342.90	1525.74
343.12	1482.73
343.33	1544.17
343.54	1507.30
343.75	1558.50
343.96	1472.49
344.17	1492.97
344.38	1497.07
344.60	1523.69
344.81	1501.16
345.02	1593.32
345.23	1574.89
345.44	1613.80
345.65	1611.75
345.86	1578.98
346.07	1521.64
346.29	1468.39
346.50	1560.55
346.71	1525.74
346.92	1570.79
347.13	1585.13
347.34	1560.55
347.55	1585.13
347.76	1525.74
347.98	1452.01
348.19	1560.55
348.40	1576.94
348.61	1519.59
348.82	1595.37
349.03	1595.37
349.24	1585.13
349.45	1634.28
349.66	1497.07
349.88	1540.07
350.09	1531.88
350.30	1578.98
350.51	1513.45
350.72	1495.02
350.93	1605.61
351.14	1445.87
351.35	1597.42
351.56	1548.26
351.77	1544.17
351.99	1507.30
352.20	1581.03
352.41	1595.37
352.62	1576.94
352.83	1611.75
353.04	1509.35
353.25	1464.30
353.46	1640.42
353.67	1556.46
353.88	1519.59
354.09	1515.50
354.30	1560.55
354.52	1511.40
354.73	1519.59
354.94	1531.88
355.15	1402.86
355.36	1660.90
355.57	1513.45
355.78	1615.85
355.99	1433.58
356.20	1535.98
356.41	1591.27
356.62	1642.47
356.83	1492.97
357.04	1658.85
357.25	1482.73
357.46	1531.88
357.68	1484.78
357.89	1470.44
358.10	1572.84
358.31	1533.93
358.52	1607.66
358.73	1517.54
358.94	1531.88
359.15	1587.18
359.36	1546.22
359.57	1542.12
359.78	1591.27
359.99	1527.78
360.20	1527.78
360.41	1458.15
360.62	1574.89
360.83	1556.46
361.04	1542.12
361.25	1548.26
361.46	1718.25
361.67	1642.47
361.88	1542.12
362.09	1511.40
362.30	1554.41
362.51	1517.54
362.72	1630.18
362.93	1517.54
363.14	1585.13
363.35	1507.30
363.56	1513.45
363.78	1603.56
363.99	1548.26
364.20	1509.35
364.41	1527.78
364.62	1621.99
364.83	1542.12
365.04	1490.92
365.25	1548.26
365.46	1640.42
365.67	1490.92
365.88	1605.61
366.09	1490.92
366.30	1478.63
366.51	1544.17
366.72	1523.69
366.93	1550.31
367.14	1517.54
367.35	1552.36
367.56	1499.11
367.77	1644.52
367.98	1462.25
368.18	1548.26
368.39	1632.23
368.60	1540.07
368.81	1533.93
369.02	1501.16
369.23	1542.12
369.44	1423.34
369.65	1578.98
369.86	1576.94
370.07	1681.38
370.28	1509.35
370.49	1630.18
370.70	1509.35
370.91	1544.17
371.12	1486.83
371.33	1644.52
371.54	1472.49
371.75	1570.79
371.96	1462.25
372.17	1597.42
372.38	1515.50
372.59	1527.78
372.80	1517.54
373.01	1540.07
373.22	1544.17
373.43	1587.18
373.64	1499.11
373.85	1636.33
374.06	1658.85
374.26	1509.35
374.47	1509.35
374.68	1527.78
374.89	1499.11
375.10	1462.25
375.31	1585.13
375.52	1544.17
375.73	1480.68
375.94	1531.88
376.15	1595.37
376.36	1492.97
376.57	1558.50
376.78	1503.21
376.99	1542.12
377.20	1607.66
377.40	1529.83
377.61	1599.46
377.82	1484.78
378.03	1566.70
378.24	1601.51
378.45	1515.50
378.66	1564.65
378.87	1437.67
379.08	1492.97
379.29	1501.16
379.50	1564.65
379.71	1492.97
379.91	1568.74
380.12	1525.74
380.33	1521.64
380.54	1562.60
380.75	1591.27
380.96	1554.41
381.17	1587.18
381.38	1626.09
381.59	1595.37
381.80	1560.55
382.00	1667.05
382.21	1515.50
382.42	1644.52
382.63	1679.33
382.84	1581.03
383.05	1503.21
383.26	1703.91
383.47	1533.93
383.68	1558.50
383.88	1560.55
384.09	1652.71
384.30	1597.42
384.51	1572.84
384.72	1474.54
384.93	1495.02
385.14	1486.83
385.35	1607.66
385.55	1472.49
385.76	1679.33
385.97	1544.17
386.18	1462.25
386.39	1515.50
386.60	1564.65
386.81	1505.26
387.02	1535.98
387.22	1533.93
387.43	1576.94
387.64	1642.47
387.85	1867.75
388.06	3098.58
388.27	7171.99
388.48	10370.91
388.68	12201.80
388.89	13717.29
389.10	12789.56
389.31	10164.07
389.52	8763.26
389.73	7878.54
389.93	7106.45
390.14	6854.55
390.35	6123.43
390.56	5658.54
390.77	4620.22
390.98	3418.06
391.18	2846.68
391.39	2113.50
391.60	1796.07
391.81	1669.09
392.02	1511.40
392.23	1695.72
392.43	1519.59
392.64	1611.75
392.85	1556.46
393.06	1624.04
393.27	1619.94
393.47	1513.45
393.68	1488.87
393.89	1535.98
394.10	1601.51
394.31	1535.98
394.52	1480.68
394.72	1552.36
394.93	1611.75
395.14	1525.74
395.35	1589.22
395.56	1501.16
395.76	1630.18
395.97	1726.44
396.18	1759.21
396.39	1796.07
396.60	1865.70
396.80	1732.58
397.01	1726.44
397.22	1806.31
397.43	1675.24
397.64	1587.18
397.84	1673.19
398.05	1705.96
398.26	1691.62
398.47	1533.93
398.67	1617.90
398.88	1648.61
399.09	1560.55
399.30	1511.40
399.51	1589.22
399.71	1544.17
399.92	1593.32
400.13	1525.74
400.34	1568.74
400.54	1603.56
400.75	1656.81
400.96	1611.75
401.17	1632.23
401.37	1513.45
401.58	1583.08
401.79	1576.94
402.00	1769.44
402.21	1925.09
402.41	1980.39
402.62	1908.71
402.83	2000.87
403.04	1859.56
403.24	1920.99
403.45	1726.44
403.66	1705.96
403.87	1744.87
404.07	1732.58
404.28	1746.92
404.49	1673.19
404.70	1662.95
404.90	1638.38
405.11	1454.06
405.32	1587.18
405.52	1525.74
405.73	1529.83
405.94	1480.68
406.15	1576.94
406.35	1648.61
406.56	1578.98
406.77	1525.74
406.98	1468.39
407.18	1472.49
407.39	1583.08
407.60	1480.68
407.80	1521.64
408.01	1581.03
408.22	1519.59
408.43	1509.35
408.63	1509.35
408.84	1558.50
409.05	1535.98
409.25	1480.68
409.46	1490.92
409.67	1499.11
409.88	1445.87
410.08	1611.75
410.29	1587.18
410.50	1599.46
410.70	1564.65
410.91	1519.59
411.12	1562.60
411.32	1566.70
411.53	1511.40
411.74	1617.90
411.95	1603.56
412.15	1535.98
412.36	1697.77
412.57	1548.26
412.77	1615.85
412.98	1552.36
413.19	1566.70
413.39	1556.46
413.60	1572.84
413.81	1603.56
414.01	1621.99
414.22	1568.74
414.43	1572.84
414.63	1538.02
414.84	1609.70
415.05	1595.37
415.25	1482.73
415.46	1583.08
415.67	1482.73
415.87	1595.37
416.08	1531.88
416.29	1515.50
416.49	1621.99
416.70	1517.54
416.91	1515.50
417.11	1495.02
417.32	1576.94
417.53	1669.09
417.73	1527.78
417.94	1554.41
418.15	1597.42
418.35	1591.27
418.56	1554.41
418.77	1650.66
418.97	1585.13
419.18	1560.55
419.38	1437.67
419.59	1449.96
419.80	1568.74
420.00	1462.25
420.21	1544.17
420.42	1574.89
420.62	1589.22
420.83	1531.88
421.04	1546.22
421.24	1515.50
421.45	1538.02
421.65	1521.64
421.86	1587.18
422.07	1583.08
422.27	1589.22
422.48	1568.74
422.69	1513.45
422.89	1568.74
423.10	1509.35
423.30	1372.14
423.51	1630.18
423.72	1503.21
423.92	1552.36
424.13	1554.41
424.33	1576.94
424.54	1484.78
424.75	1529.83
424.95	1636.33
425.16	1556.46
425.36	1572.84
425.57	1595.37
425.78	1572.84
425.98	1617.90
426.19	1550.31
426.39	1550.31
426.60	1583.08
426.81	1558.50
427.01	1621.99
427.22	1486.83
427.42	1527.78
427.63	1527.78
427.83	1550.31
428.04	1605.61
428.25	1628.14
428.45	1507.30
428.66	1556.46
428.86	1492.97
429.07	1474.54
429.28	1581.03
429.48	1482.73
429.69	1570.79
429.89	1542.12
430.10	1499.11
430.30	1550.31
430.51	1595.37
430.71	1472.49
430.92	1531.88
431.13	1548.26
431.33	1566.70
431.54	1525.74
431.74	1589.22
431.95	1613.80
432.15	1509.35
432.36	1576.94
432.56	1615.85
432.77	1591.27
432.98	1624.04
433.18	1527.78
433.39	1501.16
433.59	1570.79
433.80	1626.09
434.00	1742.82
434.21	1593.32
434.41	1490.92
434.62	1638.38
434.82	1503.21
435.03	1505.26
435.23	1521.64
435.44	1439.72
435.64	1558.50
435.85	1540.07
436.06	1566.70
436.26	1540.07
436.47	1499.11
436.67	1499.11
436.88	1603.56
437.08	1632.23
437.29	1607.66
437.49	1546.22
437.70	1617.90
437.90	1509.35
438.11	1716.20
438.31	1689.57
438.52	1689.57
438.72	1660.90
438.93	1769.44
439.13	1611.75
439.34	1621.99
439.54	1642.47
439.75	1570.79
439.95	1617.90
440.16	1576.94
440.36	1613.80
440.57	1609.70
440.77	1519.59
440.98	1544.17
441.18	1574.89
441.39	1503.21
441.59	1525.74
441.80	1650.66
442.00	1515.50
442.21	1558.50
442.41	1533.93
442.62	1531.88
442.82	1556.46
443.02	1503.21
443.23	1509.35
443.43	1519.59
443.64	1599.46
443.84	1531.88
444.05	1570.79
444.25	1570.79
444.46	1505.26
444.66	1593.32
444.87	1601.51
445.07	1519.59
445.28	1574.89
445.48	1609.70
445.69	1634.28
445.89	1669.09
446.09	1642.47
446.30	2064.35
446.50	3129.30
446.71	4485.05
446.91	5201.84
447.12	5765.03
447.32	5539.76
447.53	4636.60
447.73	3803.08
447.93	3657.67
448.14	3248.08
448.34	3266.51
448.55	2914.26
448.75	2940.88
448.96	2740.18
449.16	2422.75
449.36	2226.14
449.57	1998.82
449.77	1763.30
449.98	1687.53
450.18	1648.61
450.39	1613.80
450.59	1552.36
450.79	1521.64
451.00	1531.88
451.20	1589.22
451.41	1538.02
451.61	1595.37
451.81	1558.50
452.02	1521.64
452.22	1540.07
452.43	1470.44
452.63	1435.63
