SpectraSuite Data File
++++++++++++++++++++++++++++++++++++
Date: Tue May 03 12:55:53 CEST 2016
User: root
Dark Spectrum Present: No
Reference Spectrum Present: No
Number of Sampled Component Spectra: 1
Spectrometers: USB4C02835
Integration Time (usec): 100000 (USB4C02835)
Spectra Averaged: 1 (USB4C02835)
Boxcar Smoothing: 0 (USB4C02835)
Correct for Electrical Dark: No (USB4C02835)
Strobe/Lamp Enabled: No (USB4C02835)
Correct for Detector Non-linearity: No (USB4C02835)
Correct for Stray Light: No (USB4C02835)
Number of Pixels in Processed Spectrum: 3648
>>>>>Begin Processed Spectral Data<<<<<
177.47	1380.33
177.69	1380.33
177.91	1380.33
178.13	1341.42
178.36	1355.76
178.58	1556.46
178.80	1544.17
179.02	1462.25
179.24	1525.74
179.46	1607.66
179.68	1578.98
179.90	1503.21
180.13	1505.26
180.35	1589.22
180.57	1540.07
180.79	1505.26
181.01	1562.60
181.23	1517.54
181.45	1648.61
181.67	1558.50
181.90	1560.55
182.12	1554.41
182.34	1490.92
182.56	1562.60
182.78	1566.70
183.00	1591.27
183.22	1517.54
183.44	1400.81
183.66	1677.29
183.89	1566.70
184.11	1540.07
184.33	1599.46
184.55	1515.50
184.77	1568.74
184.99	1568.74
185.21	1503.21
185.43	1628.14
185.65	1509.35
185.87	1544.17
186.10	1560.55
186.32	1619.94
186.54	1492.97
186.76	1568.74
186.98	1568.74
187.20	1566.70
187.42	1527.78
187.64	1499.11
187.86	1441.77
188.08	1626.09
188.30	1509.35
188.52	1507.30
188.75	1667.05
188.97	1556.46
189.19	1525.74
189.41	1474.54
189.63	1503.21
189.85	1574.89
190.07	1472.49
190.29	1466.35
190.51	1589.22
190.73	1431.53
190.95	1650.66
191.17	1533.93
191.39	1468.39
191.61	1552.36
191.84	1497.07
192.06	1554.41
192.28	1406.95
192.50	1699.81
192.72	1552.36
192.94	1513.45
193.16	1525.74
193.38	1574.89
193.60	1480.68
193.82	1540.07
194.04	1562.60
194.26	1527.78
194.48	1546.22
194.70	1509.35
194.92	1456.11
195.14	1529.83
195.36	1558.50
195.58	1540.07
195.80	1544.17
196.02	1462.25
196.24	1562.60
196.46	1581.03
196.69	1452.01
196.91	1609.70
197.13	1560.55
197.35	1501.16
197.57	1566.70
197.79	1488.87
198.01	1621.99
198.23	1615.85
198.45	1474.54
198.67	1454.06
198.89	1525.74
199.11	1572.84
199.33	1497.07
199.55	1357.80
199.77	1497.07
199.99	1525.74
200.21	1552.36
200.43	1535.98
200.65	1484.78
200.87	1443.82
201.09	1466.35
201.31	1517.54
201.53	1484.78
201.75	1538.02
201.97	1535.98
202.19	1593.32
202.41	1615.85
202.63	1564.65
202.85	1562.60
203.07	1542.12
203.29	1517.54
203.51	1570.79
203.73	1550.31
203.95	1603.56
204.17	1527.78
204.39	1568.74
204.61	1468.39
204.83	1613.80
205.05	1599.46
205.27	1552.36
205.49	1673.19
205.71	1509.35
205.93	1525.74
206.15	1511.40
206.37	1511.40
206.59	1531.88
206.81	1550.31
207.03	1439.72
207.25	1460.20
207.47	1624.04
207.69	1538.02
207.91	1564.65
208.13	1675.24
208.34	1449.96
208.56	1505.26
208.78	1568.74
209.00	1535.98
209.22	1548.26
209.44	1564.65
209.66	1497.07
209.88	1515.50
210.10	1572.84
210.32	1624.04
210.54	1667.05
210.76	1538.02
210.98	1574.89
211.20	1486.83
211.42	1552.36
211.64	1585.13
211.86	1460.20
212.08	1533.93
212.30	1566.70
212.52	1570.79
212.74	1540.07
212.96	1540.07
213.17	1554.41
213.39	1560.55
213.61	1624.04
213.83	1591.27
214.05	1462.25
214.27	1538.02
214.49	1554.41
214.71	1570.79
214.93	1689.57
215.15	1501.16
215.37	1609.70
215.59	1497.07
215.81	1578.98
216.03	1531.88
216.24	1517.54
216.46	1515.50
216.68	1632.23
216.90	1533.93
217.12	1591.27
217.34	1558.50
217.56	1544.17
217.78	1615.85
218.00	1519.59
218.22	1583.08
218.44	1488.87
218.66	1499.11
218.87	1597.42
219.09	1509.35
219.31	1585.13
219.53	1587.18
219.75	1458.15
219.97	1540.07
220.19	1482.73
220.41	1474.54
220.63	1589.22
220.85	1542.12
221.06	1527.78
221.28	1556.46
221.50	1492.97
221.72	1505.26
221.94	1589.22
222.16	1560.55
222.38	1593.32
222.60	1495.02
222.82	1447.91
223.03	1468.39
223.25	1460.20
223.47	1585.13
223.69	1701.86
223.91	1492.97
224.13	1492.97
224.35	1570.79
224.57	1525.74
224.78	1505.26
225.00	1558.50
225.22	1445.87
225.44	1558.50
225.66	1658.85
225.88	1490.92
226.10	1546.22
226.32	1497.07
226.53	1609.70
226.75	1523.69
226.97	1556.46
227.19	1535.98
227.41	1447.91
227.63	1511.40
227.85	1443.82
228.06	1488.87
228.28	1548.26
228.50	1505.26
228.72	1433.58
228.94	1460.20
229.16	1402.86
229.37	1478.63
229.59	1544.17
229.81	1566.70
230.03	1454.06
230.25	1513.45
230.47	1478.63
230.69	1464.30
230.90	1576.94
231.12	1517.54
231.34	1548.26
231.56	1585.13
231.78	1533.93
232.00	1503.21
232.21	1517.54
232.43	1439.72
232.65	1390.57
232.87	1470.44
233.09	1533.93
233.30	1462.25
233.52	1619.94
233.74	1495.02
233.96	1548.26
234.18	1484.78
234.40	1488.87
234.61	1597.42
234.83	1509.35
235.05	1472.49
235.27	1642.47
235.49	1630.18
235.70	1533.93
235.92	1720.29
236.14	1523.69
236.36	1593.32
236.58	1492.97
236.79	1638.38
237.01	1517.54
237.23	1558.50
237.45	1634.28
237.67	1517.54
237.88	1583.08
238.10	1619.94
238.32	1460.20
238.54	1466.35
238.76	1583.08
238.97	1488.87
239.19	1484.78
239.41	1544.17
239.63	1519.59
239.85	1501.16
240.06	1554.41
240.28	1525.74
240.50	1626.09
240.72	1503.21
240.93	1542.12
241.15	1527.78
241.37	1548.26
241.59	1609.70
241.81	1654.76
242.02	1527.78
242.24	1595.37
242.46	1517.54
242.68	1492.97
242.89	1523.69
243.11	1593.32
243.33	1550.31
243.55	1576.94
243.76	1564.65
243.98	1456.11
244.20	1562.60
244.42	1548.26
244.64	1615.85
244.85	1462.25
245.07	1558.50
245.29	1562.60
245.51	1525.74
245.72	1523.69
245.94	1578.98
246.16	1505.26
246.38	1628.14
246.59	1542.12
246.81	1527.78
247.03	1550.31
247.24	1443.82
247.46	1531.88
247.68	1535.98
247.90	1538.02
248.11	1509.35
248.33	1607.66
248.55	1486.83
248.77	1523.69
248.98	1576.94
249.20	1601.51
249.42	1509.35
249.64	1566.70
249.85	1566.70
250.07	1535.98
250.29	1564.65
250.50	1523.69
250.72	1464.30
250.94	1505.26
251.16	1656.81
251.37	1626.09
251.59	1570.79
251.81	1595.37
252.02	1624.04
252.24	1568.74
252.46	1665.00
252.68	1511.40
252.89	1527.78
253.11	1501.16
253.33	1589.22
253.54	1603.56
253.76	1480.68
253.98	1527.78
254.20	1544.17
254.41	1472.49
254.63	1591.27
254.85	1560.55
255.06	1499.11
255.28	1603.56
255.50	1486.83
255.71	1499.11
255.93	1503.21
256.15	1589.22
256.36	1587.18
256.58	1509.35
256.80	1550.31
257.02	1509.35
257.23	1513.45
257.45	1587.18
257.67	1499.11
257.88	1509.35
258.10	1505.26
258.32	1488.87
258.53	1605.61
258.75	1574.89
258.97	1562.60
259.18	1603.56
259.40	1505.26
259.62	1570.79
259.83	1642.47
260.05	1535.98
260.27	1685.48
260.48	1529.83
260.70	1529.83
260.92	1613.80
261.13	1517.54
261.35	1499.11
261.57	1554.41
261.78	1535.98
262.00	1574.89
262.22	1531.88
262.43	1445.87
262.65	1550.31
262.86	1456.11
263.08	1714.15
263.30	1497.07
263.51	1492.97
263.73	1542.12
263.95	1658.85
264.16	1560.55
264.38	1478.63
264.60	1591.27
264.81	1542.12
265.03	1615.85
265.25	1648.61
265.46	1540.07
265.68	1519.59
265.89	1560.55
266.11	1546.22
266.33	1476.59
266.54	1527.78
266.76	1519.59
266.98	1519.59
267.19	1603.56
267.41	1562.60
267.62	1560.55
267.84	1550.31
268.06	1562.60
268.27	1525.74
268.49	1599.46
268.70	1607.66
268.92	1515.50
269.14	1447.91
269.35	1437.67
269.57	1462.25
269.79	1503.21
270.00	1509.35
270.22	1542.12
270.43	1505.26
270.65	1472.49
270.87	1540.07
271.08	1503.21
271.30	1540.07
271.51	1578.98
271.73	1501.16
271.95	1628.14
272.16	1478.63
272.38	1511.40
272.59	1470.44
272.81	1566.70
273.02	1607.66
273.24	1521.64
273.46	1550.31
273.67	1482.73
273.89	1486.83
274.10	1562.60
274.32	1562.60
274.54	1587.18
274.75	1538.02
274.97	1423.34
275.18	1488.87
275.40	1548.26
275.61	1533.93
275.83	1572.84
276.05	1529.83
276.26	1540.07
276.48	1617.90
276.69	1476.59
276.91	1484.78
277.12	1619.94
277.34	1523.69
277.55	1626.09
277.77	1527.78
277.99	1542.12
278.20	1503.21
278.42	1456.11
278.63	1505.26
278.85	1511.40
279.06	1523.69
279.28	1605.61
279.49	1576.94
279.71	1585.13
279.93	1542.12
280.14	1492.97
280.36	1495.02
280.57	1576.94
280.79	1624.04
281.00	1574.89
281.22	1495.02
281.43	1574.89
281.65	1468.39
281.86	1462.25
282.08	1621.99
282.29	1662.95
282.51	1533.93
282.73	1546.22
282.94	1513.45
283.16	1613.80
283.37	1611.75
283.59	1568.74
283.80	1540.07
284.02	1560.55
284.23	1507.30
284.45	1550.31
284.66	1452.01
284.88	1501.16
285.09	1527.78
285.31	1533.93
285.52	1542.12
285.74	1503.21
285.95	1499.11
286.17	1576.94
286.38	1578.98
286.60	1519.59
286.81	1511.40
287.03	1505.26
287.24	1538.02
287.46	1523.69
287.67	1589.22
287.89	1566.70
288.10	1601.51
288.32	1529.83
288.53	1542.12
288.75	1593.32
288.96	1546.22
289.18	1449.96
289.39	1421.29
289.61	1632.23
289.82	1630.18
290.04	1703.91
290.25	1499.11
290.47	1591.27
290.68	1562.60
290.90	1544.17
291.11	1523.69
291.33	1595.37
291.54	1402.86
291.76	1517.54
291.97	1540.07
292.18	1554.41
292.40	1482.73
292.61	1480.68
292.83	1640.42
293.04	1535.98
293.26	1564.65
293.47	1548.26
293.69	1484.78
293.90	1535.98
294.12	1484.78
294.33	1533.93
294.55	1564.65
294.76	1525.74
294.97	1648.61
295.19	1593.32
295.40	1511.40
295.62	1558.50
295.83	1568.74
296.05	1513.45
296.26	1511.40
296.48	1490.92
296.69	1464.30
296.90	1447.91
297.12	1638.38
297.33	1576.94
297.55	1439.72
297.76	1458.15
297.98	1562.60
298.19	1495.02
298.41	1544.17
298.62	1542.12
298.83	1589.22
299.05	1538.02
299.26	1529.83
299.48	1566.70
299.69	1587.18
299.90	1583.08
300.12	1519.59
300.33	1601.51
300.55	1464.30
300.76	1599.46
300.98	1447.91
301.19	1562.60
301.40	1552.36
301.62	1513.45
301.83	1525.74
302.05	1636.33
302.26	1529.83
302.47	1578.98
302.69	1517.54
302.90	1529.83
303.12	1460.20
303.33	1560.55
303.54	1626.09
303.76	1501.16
303.97	1533.93
304.19	1599.46
304.40	1480.68
304.61	1576.94
304.83	1599.46
305.04	1529.83
305.26	1609.70
305.47	1501.16
305.68	1525.74
305.90	1495.02
306.11	1550.31
306.33	1556.46
306.54	1417.19
306.75	1482.73
306.97	1540.07
307.18	1607.66
307.39	1480.68
307.61	1603.56
307.82	1499.11
308.04	1570.79
308.25	1423.34
308.46	1589.22
308.68	1544.17
308.89	1509.35
309.10	1544.17
309.32	1542.12
309.53	1435.63
309.74	1495.02
309.96	1552.36
310.17	1566.70
310.39	1495.02
310.60	1585.13
310.81	1511.40
311.03	1478.63
311.24	1644.52
311.45	1527.78
311.67	1665.00
311.88	1570.79
312.09	1576.94
312.31	1535.98
312.52	1574.89
312.73	1538.02
312.95	1497.07
313.16	1492.97
313.37	1572.84
313.59	1560.55
313.80	1505.26
314.01	1632.23
314.23	1470.44
314.44	1505.26
314.65	1515.50
314.87	1517.54
315.08	1546.22
315.29	1501.16
315.51	1511.40
315.72	1437.67
315.93	1538.02
316.15	1626.09
316.36	1611.75
316.57	1562.60
316.79	1566.70
317.00	1468.39
317.21	1501.16
317.43	1556.46
317.64	1486.83
317.85	1480.68
318.07	1558.50
318.28	1576.94
318.49	1732.58
318.70	1832.93
318.92	1748.97
319.13	1673.19
319.34	1693.67
319.56	1685.48
319.77	1748.97
319.98	1652.71
320.20	1652.71
320.41	1601.51
320.62	1525.74
320.83	1509.35
321.05	1648.61
321.26	1548.26
321.47	1527.78
321.69	1634.28
321.90	1535.98
322.11	1482.73
322.32	1449.96
322.54	1644.52
322.75	1548.26
322.96	1671.14
323.18	1501.16
323.39	1472.49
323.60	1464.30
323.81	1556.46
324.03	1470.44
324.24	1540.07
324.45	1499.11
324.66	1499.11
324.88	1591.27
325.09	1595.37
325.30	1564.65
325.52	1540.07
325.73	1538.02
325.94	1546.22
326.15	1486.83
326.37	1531.88
326.58	1609.70
326.79	1619.94
327.00	1525.74
327.22	1560.55
327.43	1503.21
327.64	1517.54
327.85	1626.09
328.07	1560.55
328.28	1585.13
328.49	1531.88
328.70	1560.55
328.92	1439.72
329.13	1540.07
329.34	1542.12
329.55	1552.36
329.76	1626.09
329.98	1538.02
330.19	1538.02
330.40	1568.74
330.61	1538.02
330.83	1509.35
331.04	1578.98
331.25	1548.26
331.46	1523.69
331.68	1525.74
331.89	1609.70
332.10	1531.88
332.31	1492.97
332.52	1572.84
332.74	1626.09
332.95	1452.01
333.16	1585.13
333.37	1615.85
333.58	1523.69
333.80	1482.73
334.01	1443.82
334.22	1513.45
334.43	1560.55
334.64	1542.12
334.86	1474.54
335.07	1529.83
335.28	1548.26
335.49	1523.69
335.70	1538.02
335.92	1605.61
336.13	1619.94
336.34	1581.03
336.55	1556.46
336.76	1527.78
336.98	1415.15
337.19	1523.69
337.40	1671.14
337.61	1624.04
337.82	1505.26
338.04	1540.07
338.25	1411.05
338.46	1449.96
338.67	1497.07
338.88	1458.15
339.09	1554.41
339.31	1468.39
339.52	1540.07
339.73	1423.34
339.94	1599.46
340.15	1619.94
340.36	1540.07
340.58	1486.83
340.79	1501.16
341.00	1560.55
341.21	1470.44
341.42	1658.85
341.63	1503.21
341.85	1624.04
342.06	1527.78
342.27	1458.15
342.48	1605.61
342.69	1505.26
342.90	1593.32
343.12	1517.54
343.33	1406.95
343.54	1609.70
343.75	1574.89
343.96	1452.01
344.17	1478.63
344.38	1529.83
344.60	1558.50
344.81	1495.02
345.02	1552.36
345.23	1525.74
345.44	1640.42
345.65	1603.56
345.86	1540.07
346.07	1585.13
346.29	1476.59
346.50	1583.08
346.71	1587.18
346.92	1560.55
347.13	1671.14
347.34	1441.77
347.55	1546.22
347.76	1568.74
347.98	1503.21
348.19	1535.98
348.40	1652.71
348.61	1519.59
348.82	1552.36
349.03	1570.79
349.24	1574.89
349.45	1585.13
349.66	1478.63
349.88	1578.98
350.09	1511.40
350.30	1566.70
350.51	1568.74
350.72	1497.07
350.93	1591.27
351.14	1540.07
351.35	1597.42
351.56	1574.89
351.77	1589.22
351.99	1525.74
352.20	1607.66
352.41	1632.23
352.62	1406.95
352.83	1568.74
353.04	1531.88
353.25	1566.70
353.46	1593.32
353.67	1654.76
353.88	1435.63
354.09	1546.22
354.30	1538.02
354.52	1538.02
354.73	1509.35
354.94	1576.94
355.15	1574.89
355.36	1572.84
355.57	1513.45
355.78	1607.66
355.99	1566.70
356.20	1529.83
356.41	1576.94
356.62	1482.73
356.83	1609.70
357.04	1544.17
357.25	1535.98
357.46	1570.79
357.68	1507.30
357.89	1488.87
358.10	1531.88
358.31	1531.88
358.52	1597.42
358.73	1441.77
358.94	1492.97
359.15	1556.46
359.36	1593.32
359.57	1574.89
359.78	1572.84
359.99	1599.46
360.20	1538.02
360.41	1499.11
360.62	1560.55
360.83	1560.55
361.04	1527.78
361.25	1507.30
361.46	1607.66
361.67	1566.70
361.88	1595.37
362.09	1519.59
362.30	1583.08
362.51	1542.12
362.72	1517.54
362.93	1570.79
363.14	1521.64
363.35	1589.22
363.56	1439.72
363.78	1576.94
363.99	1544.17
364.20	1476.59
364.41	1497.07
364.62	1654.76
364.83	1560.55
365.04	1544.17
365.25	1533.93
365.46	1568.74
365.67	1576.94
365.88	1564.65
366.09	1542.12
366.30	1527.78
366.51	1542.12
366.72	1445.87
366.93	1593.32
367.14	1548.26
367.35	1593.32
367.56	1527.78
367.77	1634.28
367.98	1581.03
368.18	1533.93
368.39	1556.46
368.60	1390.57
368.81	1585.13
369.02	1640.42
369.23	1540.07
369.44	1402.86
369.65	1523.69
369.86	1511.40
370.07	1574.89
370.28	1513.45
370.49	1576.94
370.70	1566.70
370.91	1574.89
371.12	1452.01
371.33	1669.09
371.54	1505.26
371.75	1591.27
371.96	1509.35
372.17	1538.02
372.38	1492.97
372.59	1587.18
372.80	1529.83
373.01	1535.98
373.22	1529.83
373.43	1548.26
373.64	1505.26
373.85	1560.55
374.06	1652.71
374.26	1619.94
374.47	1476.59
374.68	1605.61
374.89	1525.74
375.10	1542.12
375.31	1593.32
375.52	1525.74
375.73	1550.31
375.94	1486.83
376.15	1591.27
376.36	1521.64
376.57	1521.64
376.78	1476.59
376.99	1517.54
377.20	1626.09
377.40	1552.36
377.61	1605.61
377.82	1552.36
378.03	1564.65
378.24	1568.74
378.45	1513.45
378.66	1527.78
378.87	1478.63
379.08	1540.07
379.29	1519.59
379.50	1613.80
379.71	1517.54
379.91	1583.08
380.12	1511.40
380.33	1556.46
380.54	1597.42
380.75	1535.98
380.96	1460.20
381.17	1597.42
381.38	1558.50
381.59	1619.94
381.80	1583.08
382.00	1642.47
382.21	1583.08
382.42	1597.42
382.63	1644.52
382.84	1632.23
383.05	1595.37
383.26	1617.90
383.47	1593.32
383.68	1644.52
383.88	1634.28
384.09	1566.70
384.30	1626.09
384.51	1501.16
384.72	1527.78
384.93	1501.16
385.14	1495.02
385.35	1554.41
385.55	1556.46
385.76	1560.55
385.97	1556.46
386.18	1458.15
386.39	1449.96
386.60	1615.85
386.81	1613.80
387.02	1538.02
387.22	1595.37
387.43	1636.33
387.64	1685.48
387.85	1812.45
388.06	3039.19
388.27	7214.99
388.48	10538.85
388.68	12306.24
388.89	13903.66
389.10	12894.01
389.31	10182.50
389.52	8816.51
389.73	7767.95
389.93	7276.43
390.14	6647.71
390.35	6227.87
390.56	5496.75
390.77	4552.63
390.98	3522.51
391.18	2785.24
391.39	2146.27
391.60	1812.45
391.81	1650.66
392.02	1511.40
392.23	1626.09
392.43	1593.32
392.64	1599.46
392.85	1591.27
393.06	1675.24
393.27	1574.89
393.47	1568.74
393.68	1488.87
393.89	1540.07
394.10	1535.98
394.31	1542.12
394.52	1529.83
394.72	1503.21
394.93	1626.09
395.14	1501.16
395.35	1550.31
395.56	1478.63
395.76	1599.46
395.97	1679.33
396.18	1761.25
396.39	1802.21
396.60	1916.90
396.80	1708.01
397.01	1730.53
397.22	1652.71
397.43	1732.58
397.64	1501.16
397.84	1634.28
398.05	1708.01
398.26	1648.61
398.47	1619.94
398.67	1601.51
398.88	1533.93
399.09	1488.87
399.30	1513.45
399.51	1533.93
399.71	1458.15
399.92	1595.37
400.13	1554.41
400.34	1544.17
400.54	1466.35
400.75	1587.18
400.96	1599.46
401.17	1636.33
401.37	1576.94
401.58	1544.17
401.79	1626.09
402.00	1759.21
402.21	1937.38
402.41	1982.43
402.62	1968.10
402.83	2041.82
403.04	1880.04
403.24	1830.88
403.45	1804.26
403.66	1775.59
403.87	1722.34
404.07	1748.97
404.28	1796.07
404.49	1742.82
404.70	1648.61
404.90	1632.23
405.11	1595.37
405.32	1593.32
405.52	1535.98
405.73	1433.58
405.94	1558.50
406.15	1531.88
406.35	1529.83
406.56	1576.94
406.77	1603.56
406.98	1464.30
407.18	1525.74
407.39	1593.32
407.60	1464.30
407.80	1585.13
408.01	1560.55
408.22	1628.14
408.43	1497.07
408.63	1619.94
408.84	1495.02
409.05	1628.14
409.25	1472.49
409.46	1556.46
409.67	1488.87
409.88	1482.73
410.08	1570.79
410.29	1525.74
410.50	1544.17
410.70	1550.31
410.91	1472.49
411.12	1630.18
411.32	1492.97
411.53	1572.84
411.74	1607.66
411.95	1665.00
412.15	1658.85
412.36	1687.53
412.57	1636.33
412.77	1642.47
412.98	1591.27
413.19	1574.89
413.39	1599.46
413.60	1591.27
413.81	1632.23
414.01	1550.31
414.22	1574.89
414.43	1560.55
414.63	1535.98
414.84	1546.22
415.05	1531.88
415.25	1521.64
415.46	1574.89
415.67	1632.23
415.87	1540.07
416.08	1568.74
416.29	1550.31
416.49	1585.13
416.70	1611.75
416.91	1503.21
417.11	1560.55
417.32	1607.66
417.53	1658.85
417.73	1535.98
417.94	1505.26
418.15	1484.78
418.35	1507.30
418.56	1599.46
418.77	1634.28
418.97	1490.92
419.18	1552.36
419.38	1478.63
419.59	1585.13
419.80	1628.14
420.00	1538.02
420.21	1556.46
420.42	1546.22
420.62	1542.12
420.83	1492.97
421.04	1546.22
421.24	1423.34
421.45	1619.94
421.65	1535.98
421.86	1447.91
422.07	1505.26
422.27	1560.55
422.48	1531.88
422.69	1533.93
422.89	1492.97
423.10	1509.35
423.30	1509.35
423.51	1568.74
423.72	1525.74
423.92	1605.61
424.13	1527.78
424.33	1515.50
424.54	1595.37
424.75	1533.93
424.95	1644.52
425.16	1509.35
425.36	1511.40
425.57	1574.89
425.78	1544.17
425.98	1626.09
426.19	1546.22
426.39	1462.25
426.60	1476.59
426.81	1624.04
427.01	1548.26
427.22	1525.74
427.42	1523.69
427.63	1513.45
427.83	1609.70
428.04	1628.14
428.25	1611.75
428.45	1658.85
428.66	1607.66
428.86	1630.18
429.07	1564.65
429.28	1495.02
429.48	1480.68
429.69	1513.45
429.89	1597.42
430.10	1535.98
430.30	1519.59
430.51	1613.80
430.71	1482.73
430.92	1552.36
431.13	1529.83
431.33	1560.55
431.54	1529.83
431.74	1626.09
431.95	1677.29
432.15	1521.64
432.36	1486.83
432.56	1574.89
432.77	1581.03
432.98	1591.27
433.18	1554.41
433.39	1583.08
433.59	1529.83
433.80	1658.85
434.00	1636.33
434.21	1540.07
434.41	1503.21
434.62	1646.57
434.82	1499.11
435.03	1488.87
435.23	1591.27
435.44	1454.06
435.64	1605.61
435.85	1531.88
436.06	1658.85
436.26	1599.46
436.47	1519.59
436.67	1531.88
436.88	1511.40
437.08	1619.94
437.29	1640.42
437.49	1497.07
437.70	1587.18
437.90	1517.54
438.11	1644.52
438.31	1671.14
438.52	1740.77
438.72	1669.09
438.93	1757.16
439.13	1615.85
439.34	1667.05
439.54	1619.94
439.75	1628.14
439.95	1574.89
440.16	1607.66
440.36	1601.51
440.57	1558.50
440.77	1619.94
440.98	1523.69
441.18	1568.74
441.39	1462.25
441.59	1503.21
441.80	1597.42
442.00	1492.97
442.21	1589.22
442.41	1511.40
442.62	1601.51
442.82	1503.21
443.02	1599.46
443.23	1619.94
443.43	1585.13
443.64	1593.32
443.84	1521.64
444.05	1646.57
444.25	1546.22
444.46	1525.74
444.66	1517.54
444.87	1660.90
445.07	1509.35
445.28	1591.27
445.48	1564.65
445.69	1587.18
445.89	1587.18
446.09	1591.27
446.30	2011.11
446.50	3166.16
446.71	4411.32
446.91	5081.01
447.12	5820.33
447.32	5590.95
447.53	4698.04
447.73	4034.50
447.93	3545.03
448.14	3418.06
448.34	3237.84
448.55	2955.22
448.75	2887.64
448.96	2807.77
449.16	2480.09
449.36	2213.85
449.57	1894.37
449.77	1843.17
449.98	1665.00
450.18	1683.43
450.39	1517.54
450.59	1540.07
450.79	1499.11
451.00	1550.31
451.20	1564.65
451.41	1499.11
451.61	1540.07
451.81	1552.36
452.02	1515.50
452.22	1507.30
452.43	1505.26
452.63	1560.55
