SpectraSuite Data File
++++++++++++++++++++++++++++++++++++
Date: Thu May 05 13:21:18 CEST 2016
User: root
Dark Spectrum Present: No
Reference Spectrum Present: No
Number of Sampled Component Spectra: 1
Spectrometers: USB4C02835
Integration Time (usec): 100000 (USB4C02835)
Spectra Averaged: 1 (USB4C02835)
Boxcar Smoothing: 0 (USB4C02835)
Correct for Electrical Dark: No (USB4C02835)
Strobe/Lamp Enabled: No (USB4C02835)
Correct for Detector Non-linearity: No (USB4C02835)
Correct for Stray Light: No (USB4C02835)
Number of Pixels in Processed Spectrum: 3648
>>>>>Begin Processed Spectral Data<<<<<
177.47	1703.91
177.69	1703.91
177.91	1703.91
178.13	1775.59
178.36	1867.75
178.58	2119.65
178.80	2209.76
179.02	2140.13
179.24	2154.46
179.46	2127.84
179.68	2222.05
179.90	2252.77
180.13	2281.44
180.35	2037.73
180.57	2211.81
180.79	2330.59
181.01	2267.10
181.23	2211.81
181.45	2344.92
181.67	2285.53
181.90	2238.43
182.12	2234.33
182.34	2029.54
182.56	2299.87
182.78	2277.34
183.00	2088.93
183.22	2174.94
183.44	2086.88
183.66	2543.58
183.89	2269.15
184.11	2183.13
184.33	2279.39
184.55	2369.50
184.77	2183.13
184.99	2205.66
185.21	2203.61
185.43	2443.23
185.65	2224.09
185.87	2215.90
186.10	2453.47
186.32	2435.03
186.54	2230.24
186.76	2252.77
186.98	2303.96
187.20	2269.15
187.42	2162.66
187.64	2150.37
187.86	2306.01
188.08	2373.60
188.30	2160.61
188.52	2138.08
188.75	2324.44
188.97	2453.47
189.19	2054.11
189.41	2154.46
189.63	2283.49
189.85	2185.18
190.07	2072.54
190.29	2101.22
190.51	2222.05
190.73	2160.61
190.95	2260.96
191.17	2238.43
191.39	2152.42
191.61	2232.29
191.84	2195.42
192.06	2267.10
192.28	2072.54
192.50	2568.15
192.72	2285.53
192.94	2187.23
193.16	2385.88
193.38	2289.63
193.60	2101.22
193.82	2179.04
194.04	2310.11
194.26	2299.87
194.48	2224.09
194.70	2142.18
194.92	2168.80
195.14	2375.64
195.36	2127.84
195.58	2205.66
195.80	2273.25
196.02	2133.98
196.24	2170.85
196.46	2267.10
196.69	2318.30
196.91	2510.81
197.13	2113.50
197.35	2099.17
197.57	2465.75
197.79	2342.88
198.01	2193.37
198.23	2181.09
198.45	2340.83
198.67	2127.84
198.89	2097.12
199.11	2263.01
199.33	2179.04
199.55	1974.24
199.77	2168.80
199.99	2332.64
200.21	2201.57
200.43	2250.72
200.65	2062.30
200.87	2017.25
201.09	2293.72
201.31	2209.76
201.53	2217.95
201.75	2207.71
201.97	2252.77
202.19	2328.54
202.41	2211.81
202.63	2340.83
202.85	2357.21
203.07	2318.30
203.29	2217.95
203.51	2111.46
203.73	2211.81
203.95	2564.06
204.17	2146.27
204.39	2224.09
204.61	2228.19
204.83	2176.99
205.05	2283.49
205.27	2250.72
205.49	2400.22
205.71	2228.19
205.93	2144.22
206.15	2170.85
206.37	2240.48
206.59	2166.75
206.81	2144.22
207.03	2183.13
207.25	2236.38
207.47	2324.44
207.69	2220.00
207.91	2342.88
208.13	2437.08
208.34	2289.63
208.56	2082.78
208.78	2203.61
209.00	2181.09
209.22	2226.14
209.44	2148.32
209.66	2080.74
209.88	2234.33
210.10	2164.70
210.32	2117.60
210.54	2324.44
210.76	2252.77
210.98	2387.93
211.20	2125.79
211.42	2207.71
211.64	2326.49
211.86	2293.72
212.08	2193.37
212.30	2207.71
212.52	2275.29
212.74	2250.72
212.96	2205.66
213.17	2242.53
213.39	2334.68
213.61	2439.13
213.83	2154.46
214.05	2246.62
214.27	2432.99
214.49	2191.33
214.71	2050.02
214.93	2316.25
215.15	2291.68
215.37	2316.25
215.59	2109.41
215.81	2226.14
216.03	2402.27
216.24	2203.61
216.46	2154.46
216.68	2209.76
216.90	2381.79
217.12	2330.59
217.34	2226.14
217.56	2314.20
217.78	2363.36
218.00	2365.40
218.22	2283.49
218.44	2263.01
218.66	2254.81
218.87	2441.18
219.09	2170.85
219.31	2133.98
219.53	2281.44
219.75	2138.08
219.97	2236.38
220.19	2152.42
220.41	2209.76
220.63	2369.50
220.85	2183.13
221.06	2215.90
221.28	2420.70
221.50	2297.82
221.72	2220.00
221.94	2117.60
222.16	2260.96
222.38	2340.83
222.60	2234.33
222.82	2230.24
223.03	2326.49
223.25	2183.13
223.47	2203.61
223.69	2303.96
223.91	2263.01
224.13	2254.81
224.35	2144.22
224.57	2322.40
224.78	2281.44
225.00	2240.48
225.22	2240.48
225.44	2215.90
225.66	2326.49
225.88	2254.81
226.10	2234.33
226.32	2158.56
226.53	2383.84
226.75	2269.15
226.97	2217.95
227.19	2220.00
227.41	2088.93
227.63	2265.05
227.85	2000.87
228.06	2187.23
228.28	2285.53
228.50	2375.64
228.72	2076.64
228.94	2138.08
229.16	2138.08
229.37	2181.09
229.59	2109.41
229.81	2279.39
230.03	2220.00
230.25	2070.50
230.47	2017.25
230.69	2095.07
230.90	2371.55
231.12	2201.57
231.34	2131.94
231.56	2242.53
231.78	2140.13
232.00	2244.57
232.21	2140.13
232.43	2183.13
232.65	2111.46
232.87	2244.57
233.09	2144.22
233.30	2125.79
233.52	2287.58
233.74	2258.91
233.96	2138.08
234.18	2283.49
234.40	2211.81
234.61	2461.66
234.83	2105.31
235.05	2060.26
235.27	2514.91
235.49	2414.56
235.70	2152.42
235.92	2265.05
236.14	2275.29
236.36	2527.19
236.58	2039.78
236.79	2265.05
237.01	2220.00
237.23	2269.15
237.45	2314.20
237.67	2201.57
237.88	2250.72
238.10	2451.42
238.32	2152.42
238.54	2246.62
238.76	2217.95
238.97	2129.89
239.19	2131.94
239.41	2185.18
239.63	2326.49
239.85	2301.92
240.06	2162.66
240.28	2195.42
240.50	2404.32
240.72	2283.49
240.93	2142.18
241.15	2267.10
241.37	2220.00
241.59	2336.73
241.81	2138.08
242.02	2213.85
242.24	2338.78
242.46	2279.39
242.68	2103.26
242.89	2250.72
243.11	2379.74
243.33	2215.90
243.55	2203.61
243.76	2226.14
243.98	2256.86
244.20	2256.86
244.42	2176.99
244.64	2211.81
244.85	2150.37
245.07	2183.13
245.29	2191.33
245.51	2164.70
245.72	2314.20
245.94	2293.72
246.16	2183.13
246.38	2093.02
246.59	2164.70
246.81	2250.72
247.03	2129.89
247.24	2033.63
247.46	2207.71
247.68	2248.67
247.90	2133.98
248.11	2224.09
248.33	2316.25
248.55	2185.18
248.77	2183.13
248.98	2236.38
249.20	2351.07
249.42	2189.28
249.64	2230.24
249.85	2158.56
250.07	2287.58
250.29	2258.91
250.50	2209.76
250.72	2072.54
250.94	2277.34
251.16	2484.19
251.37	2238.43
251.59	2220.00
251.81	2273.25
252.02	2346.97
252.24	2170.85
252.46	2295.77
252.68	2215.90
252.89	2142.18
253.11	2043.87
253.33	2271.20
253.54	2392.03
253.76	2150.37
253.98	2113.50
254.20	2105.31
254.41	2174.94
254.63	2172.89
254.85	2037.73
255.06	2236.38
255.28	2332.64
255.50	2250.72
255.71	2162.66
255.93	2101.22
256.15	2193.37
256.36	2328.54
256.58	2150.37
256.80	2150.37
257.02	2252.77
257.23	2254.81
257.45	2187.23
257.67	2244.57
257.88	2197.47
258.10	2332.64
258.32	2164.70
258.53	2224.09
258.75	2449.37
258.97	2224.09
259.18	2119.65
259.40	2113.50
259.62	2394.08
259.83	2463.71
260.05	2217.95
260.27	2682.84
260.48	2389.98
260.70	2162.66
260.92	2101.22
261.13	2179.04
261.35	2312.16
261.57	2283.49
261.78	2111.46
262.00	2156.51
262.22	2351.07
262.43	2125.79
262.65	2121.70
262.86	2199.52
263.08	2482.14
263.30	2250.72
263.51	1998.82
263.73	2129.89
263.95	2299.87
264.16	2150.37
264.38	2224.09
264.60	2195.42
264.81	2273.25
265.03	2316.25
265.25	2316.25
265.46	2162.66
265.68	2332.64
265.89	2375.64
266.11	2086.88
266.33	2228.19
266.54	2357.21
266.76	2293.72
266.98	2265.05
267.19	2322.40
267.41	2435.03
267.62	2193.37
267.84	2082.78
268.06	2193.37
268.27	2273.25
268.49	2353.12
268.70	2242.53
268.92	2160.61
269.14	2144.22
269.35	2146.27
269.57	2293.72
269.79	2322.40
270.00	2183.13
270.22	2373.60
270.43	2109.41
270.65	2015.20
270.87	2306.01
271.08	2301.92
271.30	2285.53
271.51	2162.66
271.73	2314.20
271.95	2400.22
272.16	2256.86
272.38	2222.05
272.59	2213.85
272.81	2371.55
273.02	2136.03
273.24	2203.61
273.46	2394.08
273.67	2215.90
273.89	2154.46
274.10	2197.47
274.32	2289.63
274.54	2230.24
274.75	2236.38
274.97	2170.85
275.18	2367.45
275.40	2269.15
275.61	2203.61
275.83	2342.88
276.05	2095.07
276.26	2342.88
276.48	2244.57
276.69	2181.09
276.91	2260.96
277.12	2346.97
277.34	2324.44
277.55	2312.16
277.77	2349.02
277.99	2185.18
278.20	2146.27
278.42	2080.74
278.63	2193.37
278.85	2205.66
279.06	2076.64
279.28	2240.48
279.49	2369.50
279.71	2322.40
279.93	2258.91
280.14	2314.20
280.36	2131.94
280.57	2324.44
280.79	2301.92
281.00	2168.80
281.22	2191.33
281.43	2340.83
281.65	1970.15
281.86	2162.66
282.08	2318.30
282.29	2416.60
282.51	2146.27
282.73	2148.32
282.94	2068.45
283.16	2281.44
283.37	2383.84
283.59	2263.01
283.80	2271.20
284.02	2289.63
284.23	2299.87
284.45	2105.31
284.66	2152.42
284.88	2185.18
285.09	2220.00
285.31	2179.04
285.52	2260.96
285.74	2127.84
285.95	2236.38
286.17	2236.38
286.38	2349.02
286.60	2170.85
286.81	2191.33
287.03	2203.61
287.24	2111.46
287.46	2316.25
287.67	2242.53
287.89	2379.74
288.10	2244.57
288.32	2312.16
288.53	2346.97
288.75	2275.29
288.96	2322.40
289.18	2220.00
289.39	2232.29
289.61	2263.01
289.82	2482.14
290.04	2531.29
290.25	2095.07
290.47	2269.15
290.68	2346.97
290.90	2260.96
291.11	2140.13
291.33	2334.68
291.54	2209.76
291.76	2193.37
291.97	2281.44
292.18	2263.01
292.40	2133.98
292.61	2203.61
292.83	2455.51
293.04	2342.88
293.26	2174.94
293.47	2267.10
293.69	2185.18
293.90	2127.84
294.12	2381.79
294.33	2265.05
294.55	2254.81
294.76	2332.64
294.97	2392.03
295.19	2379.74
295.40	2213.85
295.62	2291.68
295.83	2346.97
296.05	2156.51
296.26	2260.96
296.48	2109.41
296.69	2267.10
296.90	2244.57
297.12	2260.96
297.33	2263.01
297.55	2195.42
297.76	2316.25
297.98	2342.88
298.19	2256.86
298.41	2179.04
298.62	2148.32
298.83	2367.45
299.05	2303.96
299.26	2277.34
299.48	2172.89
299.69	2230.24
299.90	2248.67
300.12	2242.53
300.33	2441.18
300.55	2226.14
300.76	2308.06
300.98	2164.70
301.19	2215.90
301.40	2228.19
301.62	2168.80
301.83	2269.15
302.05	2351.07
302.26	2244.57
302.47	2254.81
302.69	2226.14
302.90	2351.07
303.12	2058.21
303.33	2301.92
303.54	2437.08
303.76	2170.85
303.97	2293.72
304.19	2375.64
304.40	2242.53
304.61	2322.40
304.83	2402.27
305.04	2269.15
305.26	2312.16
305.47	2203.61
305.68	2277.34
305.90	2170.85
306.11	2373.60
306.33	2275.29
306.54	2176.99
306.75	2242.53
306.97	2113.50
307.18	2131.94
307.39	2193.37
307.61	2322.40
307.82	2375.64
308.04	2283.49
308.25	2095.07
308.46	2215.90
308.68	2244.57
308.89	2252.77
309.10	2389.98
309.32	2308.06
309.53	2232.29
309.74	2314.20
309.96	2170.85
310.17	2394.08
310.39	2142.18
310.60	2322.40
310.81	2281.44
311.03	2164.70
311.24	2355.16
311.45	2232.29
311.67	2422.75
311.88	2285.53
312.09	2271.20
312.31	2195.42
312.52	2203.61
312.73	2160.61
312.95	2133.98
313.16	2168.80
313.37	2424.80
313.59	2306.01
313.80	2355.16
314.01	2351.07
314.23	2162.66
314.44	2129.89
314.65	2125.79
314.87	2158.56
315.08	2263.01
315.29	2201.57
315.51	2197.47
315.72	2160.61
315.93	2359.26
316.15	2318.30
316.36	2211.81
316.57	2240.48
316.79	2271.20
317.00	2148.32
317.21	2351.07
317.43	2148.32
317.64	2232.29
317.85	2150.37
318.07	2174.94
318.28	2258.91
318.49	2398.17
318.70	2533.34
318.92	2432.99
319.13	2441.18
319.34	2465.75
319.56	2334.68
319.77	2379.74
319.98	2445.27
320.20	2351.07
320.41	2320.35
320.62	2310.11
320.83	2129.89
321.05	2375.64
321.26	2287.58
321.47	2185.18
321.69	2334.68
321.90	2133.98
322.11	2197.47
322.32	2279.39
322.54	2373.60
322.75	2220.00
322.96	2527.19
323.18	2013.15
323.39	2064.35
323.60	2154.46
323.81	2256.86
324.03	2170.85
324.24	2222.05
324.45	2330.59
324.66	2242.53
324.88	2426.84
325.09	2408.41
325.30	2293.72
325.52	2205.66
325.73	2287.58
325.94	2125.79
326.15	2113.50
326.37	2125.79
326.58	2275.29
326.79	2410.46
327.00	2117.60
327.22	2185.18
327.43	2107.36
327.64	2217.95
327.85	2322.40
328.07	2275.29
328.28	2527.19
328.49	2217.95
328.70	2211.81
328.92	2256.86
329.13	2279.39
329.34	2191.33
329.55	2381.79
329.76	2301.92
329.98	2287.58
330.19	2371.55
330.40	2277.34
330.61	2230.24
330.83	2299.87
331.04	2082.78
331.25	2258.91
331.46	2179.04
331.68	2166.75
331.89	2402.27
332.10	2213.85
332.31	2127.84
332.52	2240.48
332.74	2357.21
332.95	2095.07
333.16	2199.52
333.37	2301.92
333.58	2189.28
333.80	2154.46
334.01	2041.82
334.22	2236.38
334.43	2203.61
334.64	2238.43
334.86	2066.40
335.07	2129.89
335.28	2400.22
335.49	2086.88
335.70	2273.25
335.92	2383.84
336.13	2514.91
336.34	2232.29
336.55	2285.53
336.76	2263.01
336.98	2031.58
337.19	2228.19
337.40	2346.97
337.61	2572.25
337.82	2205.66
338.04	2326.49
338.25	2072.54
338.46	2269.15
338.67	2170.85
338.88	2150.37
339.09	2211.81
339.31	2240.48
339.52	2105.31
339.73	2236.38
339.94	2228.19
340.15	2338.78
340.36	2199.52
340.58	2283.49
340.79	2164.70
341.00	2297.82
341.21	2158.56
341.42	2408.41
341.63	2164.70
341.85	2361.31
342.06	2306.01
342.27	2125.79
342.48	2310.11
342.69	2136.03
342.90	2342.88
343.12	2273.25
343.33	2189.28
343.54	2334.68
343.75	2400.22
343.96	2176.99
344.17	2127.84
344.38	2277.34
344.60	2090.98
344.81	2076.64
345.02	2258.91
345.23	2361.31
345.44	2572.25
345.65	2281.44
345.86	2211.81
346.07	2340.83
346.29	2244.57
346.50	2324.44
346.71	2236.38
346.92	2443.23
347.13	2506.71
347.34	2238.43
347.55	2168.80
347.76	2318.30
347.98	2072.54
348.19	2256.86
348.40	2377.69
348.61	2252.77
348.82	2441.18
349.03	2332.64
349.24	2185.18
349.45	2457.56
349.66	2011.11
349.88	2127.84
350.09	2170.85
350.30	2334.68
350.51	2400.22
350.72	2215.90
350.93	2250.72
351.14	2197.47
351.35	2265.05
351.56	2256.86
351.77	2211.81
351.99	2279.39
352.20	2402.27
352.41	2293.72
352.62	2035.68
352.83	2207.71
353.04	2170.85
353.25	2273.25
353.46	2385.88
353.67	2373.60
353.88	2138.08
354.09	2318.30
354.30	2222.05
354.52	2355.16
354.73	2240.48
354.94	2193.37
355.15	2181.09
355.36	2516.95
355.57	2152.42
355.78	2187.23
355.99	2131.94
356.20	2142.18
356.41	2465.75
356.62	2250.72
356.83	2281.44
357.04	2389.98
357.25	2148.32
357.46	2160.61
357.68	2133.98
357.89	2160.61
358.10	2269.15
358.31	2156.51
358.52	2191.33
358.73	2203.61
358.94	2166.75
359.15	2158.56
359.36	2281.44
359.57	2193.37
359.78	2285.53
359.99	2301.92
360.20	2090.98
360.41	2281.44
360.62	2287.58
360.83	2193.37
361.04	2267.10
361.25	2258.91
361.46	2402.27
361.67	2330.59
361.88	2236.38
362.09	2365.40
362.30	2277.34
362.51	2138.08
362.72	2285.53
362.93	2420.70
363.14	2326.49
363.35	2265.05
363.56	2146.27
363.78	2289.63
363.99	2326.49
364.20	2256.86
364.41	2269.15
364.62	2506.71
364.83	2326.49
365.04	2258.91
365.25	2181.09
365.46	2408.41
365.67	2183.13
365.88	2211.81
366.09	2220.00
366.30	2129.89
366.51	2310.11
366.72	2170.85
366.93	2209.76
367.14	2371.55
367.35	2297.82
367.56	2187.23
367.77	2375.64
367.98	2238.43
368.18	2258.91
368.39	2332.64
368.60	2170.85
368.81	2289.63
369.02	2346.97
369.23	2226.14
369.44	2138.08
369.65	2228.19
369.86	2293.72
370.07	2340.83
370.28	2154.46
370.49	2250.72
370.70	2334.68
370.91	2152.42
371.12	2045.92
371.33	2394.08
371.54	2113.50
371.75	2381.79
371.96	2025.44
372.17	2260.96
372.38	2203.61
372.59	2301.92
372.80	2224.09
373.01	2191.33
373.22	2269.15
373.43	2189.28
373.64	2052.06
373.85	2375.64
374.06	2383.84
374.26	2377.69
374.47	2293.72
374.68	2392.03
374.89	2273.25
375.10	2115.55
375.31	2291.68
375.52	2215.90
375.73	2281.44
375.94	2197.47
376.15	2430.94
376.36	2144.22
376.57	2297.82
376.78	2269.15
376.99	2183.13
377.20	2357.21
377.40	2215.90
377.61	2367.45
377.82	2138.08
378.03	2443.23
378.24	2355.16
378.45	2260.96
378.66	2291.68
378.87	2142.18
379.08	2115.55
379.29	2236.38
379.50	2361.31
379.71	2258.91
379.91	2353.12
380.12	2176.99
380.33	2308.06
380.54	2248.67
380.75	2217.95
380.96	2170.85
381.17	2308.06
381.38	2236.38
381.59	2254.81
381.80	2250.72
382.00	2420.70
382.21	2283.49
382.42	2488.28
382.63	2480.09
382.84	2330.59
383.05	2369.50
383.26	2410.46
383.47	2260.96
383.68	2265.05
383.88	2320.35
384.09	2258.91
384.30	2424.80
384.51	2260.96
384.72	2191.33
384.93	2078.69
385.14	2211.81
385.35	2367.45
385.55	2072.54
385.76	2291.68
385.97	2226.14
386.18	2242.53
386.39	2146.27
386.60	2205.66
386.81	2244.57
387.02	2097.12
387.22	2138.08
387.43	2367.45
387.64	2283.49
387.85	2435.03
388.06	2478.04
388.27	3997.64
388.48	8157.06
388.68	11573.07
388.89	13860.65
389.10	14831.39
389.31	13754.16
389.52	10923.87
389.73	9478.00
389.93	8560.51
390.14	7837.58
390.35	7145.36
390.56	6297.50
390.77	5273.52
390.98	3954.63
391.18	3203.02
391.39	2777.05
391.60	2453.47
391.81	2396.12
392.02	2232.29
392.23	2490.33
392.43	2293.72
392.64	2334.68
392.85	2299.87
393.06	2437.08
393.27	2248.67
393.47	2168.80
393.68	2279.39
393.89	2252.77
394.10	2418.65
394.31	2142.18
394.52	2301.92
394.72	2211.81
394.93	2422.75
395.14	2095.07
395.35	2351.07
395.56	2187.23
395.76	2295.77
395.97	2283.49
396.18	2385.88
396.39	2400.22
396.60	2727.89
396.80	2551.77
397.01	2373.60
397.22	2365.40
397.43	2447.32
397.64	2265.05
397.84	2291.68
398.05	2484.19
398.26	2361.31
398.47	2328.54
398.67	2408.41
398.88	2244.57
399.09	2367.45
399.30	2090.98
399.51	2293.72
399.71	2179.04
399.92	2215.90
400.13	2217.95
400.34	2197.47
400.54	2240.48
400.75	2482.14
400.96	2168.80
401.17	2449.37
401.37	2236.38
401.58	2246.62
401.79	2240.48
402.00	2291.68
402.21	2637.78
402.41	2564.06
402.62	2490.33
402.83	2668.50
403.04	2645.98
403.24	2768.85
403.45	2351.07
403.66	2568.15
403.87	2428.89
404.07	2469.85
404.28	2539.48
404.49	2428.89
404.70	2291.68
404.90	2314.20
405.11	2373.60
405.32	2301.92
405.52	2232.29
405.73	2203.61
405.94	2213.85
406.15	2220.00
406.35	2381.79
406.56	2242.53
406.77	2273.25
406.98	2375.64
407.18	2154.46
407.39	2389.98
407.60	2297.82
407.80	2328.54
408.01	2162.66
408.22	2269.15
408.43	2107.36
408.63	2357.21
408.84	2365.40
409.05	2381.79
409.25	2172.89
409.46	2260.96
409.67	2228.19
409.88	2209.76
410.08	2260.96
410.29	2220.00
410.50	2301.92
410.70	2293.72
410.91	2211.81
411.12	2256.86
411.32	2250.72
411.53	2152.42
411.74	2269.15
411.95	2318.30
412.15	2314.20
412.36	2408.41
412.57	2301.92
412.77	2408.41
412.98	2306.01
413.19	2220.00
413.39	2269.15
413.60	2252.77
413.81	2387.93
414.01	2158.56
414.22	2312.16
414.43	2379.74
414.63	2258.91
414.84	2314.20
415.05	2297.82
415.25	2129.89
415.46	2293.72
415.67	2183.13
415.87	2260.96
416.08	2263.01
416.29	2217.95
416.49	2334.68
416.70	2195.42
416.91	2125.79
417.11	2265.05
417.32	2340.83
417.53	2238.43
417.73	2295.77
417.94	2195.42
418.15	2318.30
418.35	2310.11
418.56	2318.30
418.77	2469.85
418.97	2211.81
419.18	2285.53
419.38	2068.45
419.59	2228.19
419.80	2428.89
420.00	2211.81
420.21	2273.25
420.42	2441.18
420.62	2271.20
420.83	2201.57
421.04	2195.42
421.24	2277.34
421.45	2310.11
421.65	2281.44
421.86	2211.81
422.07	2318.30
422.27	2324.44
422.48	2293.72
422.69	2170.85
422.89	2265.05
423.10	2217.95
423.30	2125.79
423.51	2308.06
423.72	2322.40
423.92	2365.40
424.13	2170.85
424.33	2265.05
424.54	2371.55
424.75	2297.82
424.95	2404.32
425.16	2277.34
425.36	2252.77
425.57	2324.44
425.78	2312.16
425.98	2334.68
426.19	2226.14
426.39	2170.85
426.60	2322.40
426.81	2338.78
427.01	2213.85
427.22	2191.33
427.42	2050.02
427.63	2131.94
427.83	2424.80
428.04	2461.66
428.25	2310.11
428.45	2314.20
428.66	2349.02
428.86	2189.28
429.07	2220.00
429.28	2222.05
429.48	2291.68
429.69	2289.63
429.89	2267.10
430.10	2224.09
430.30	2236.38
430.51	2291.68
430.71	2127.84
430.92	2207.71
431.13	2191.33
431.33	2250.72
431.54	2322.40
431.74	2437.08
431.95	2545.63
432.15	2222.05
432.36	2338.78
432.56	2320.35
432.77	2449.37
432.98	2349.02
433.18	2283.49
433.39	2183.13
433.59	2275.29
433.80	2506.71
434.00	2449.37
434.21	2222.05
434.41	2166.75
434.62	2428.89
434.82	2209.76
435.03	2150.37
435.23	2271.20
435.44	2101.22
435.64	2269.15
435.85	2289.63
436.06	2330.59
436.26	2400.22
436.47	2299.87
436.67	2146.27
436.88	2207.71
437.08	2398.17
437.29	2340.83
437.49	2209.76
437.70	2449.37
437.90	2215.90
438.11	2406.36
438.31	2334.68
438.52	2443.23
438.72	2453.47
438.93	2510.81
439.13	2291.68
439.34	2375.64
439.54	2314.20
439.75	2334.68
439.95	2330.59
440.16	2158.56
440.36	2224.09
440.57	2369.50
440.77	2250.72
440.98	2228.19
441.18	2359.26
441.39	2195.42
441.59	2162.66
441.80	2562.01
442.00	2346.97
442.21	2355.16
442.41	2146.27
442.62	2346.97
442.82	2195.42
443.02	2236.38
443.23	2267.10
443.43	2287.58
443.64	2310.11
443.84	2269.15
444.05	2383.84
444.25	2287.58
444.46	2244.57
444.66	2193.37
444.87	2473.95
445.07	2115.55
445.28	2260.96
445.48	2408.41
445.69	2303.96
445.89	2531.29
446.09	2326.49
446.30	2555.86
446.50	2881.49
446.71	4364.22
446.91	5603.24
447.12	6473.63
447.32	6639.51
447.53	6252.45
447.73	4980.66
447.93	4566.97
448.14	4296.64
448.34	4087.75
448.55	3579.85
448.75	3504.07
448.96	3291.09
449.16	3022.80
449.36	2951.12
449.57	2527.19
449.77	2422.75
449.98	2240.48
450.18	2422.75
450.39	2277.34
450.59	2322.40
450.79	2303.96
451.00	2258.91
451.20	2392.03
451.41	2297.82
451.61	2344.92
451.81	2303.96
452.02	2248.67
452.22	2224.09
452.43	2228.19
452.63	2156.51
