SpectraSuite Data File
++++++++++++++++++++++++++++++++++++
Date: Thu May 05 13:20:36 CEST 2016
User: root
Dark Spectrum Present: No
Reference Spectrum Present: No
Number of Sampled Component Spectra: 1
Spectrometers: USB4C02835
Integration Time (usec): 100000 (USB4C02835)
Spectra Averaged: 1 (USB4C02835)
Boxcar Smoothing: 0 (USB4C02835)
Correct for Electrical Dark: No (USB4C02835)
Strobe/Lamp Enabled: No (USB4C02835)
Correct for Detector Non-linearity: No (USB4C02835)
Correct for Stray Light: No (USB4C02835)
Number of Pixels in Processed Spectrum: 3648
>>>>>Begin Processed Spectral Data<<<<<
177.47	1802.21
177.69	1802.21
177.91	1802.21
178.13	1808.36
178.36	1751.01
178.58	2150.37
178.80	2336.73
179.02	2154.46
179.24	2154.46
179.46	2179.04
179.68	2252.77
179.90	2183.13
180.13	2203.61
180.35	2093.02
180.57	2127.84
180.79	2342.88
181.01	2256.86
181.23	2287.58
181.45	2310.11
181.67	2306.01
181.90	2365.40
182.12	2117.60
182.34	2021.35
182.56	2310.11
182.78	2336.73
183.00	2187.23
183.22	2252.77
183.44	2072.54
183.66	2506.71
183.89	2344.92
184.11	2181.09
184.33	2322.40
184.55	2402.27
184.77	2183.13
184.99	2248.67
185.21	2179.04
185.43	2521.05
185.65	2133.98
185.87	2162.66
186.10	2449.37
186.32	2480.09
186.54	2189.28
186.76	2263.01
186.98	2244.57
187.20	2275.29
187.42	2152.42
187.64	2195.42
187.86	2389.98
188.08	2387.93
188.30	2179.04
188.52	2176.99
188.75	2369.50
188.97	2389.98
189.19	2138.08
189.41	2248.67
189.63	2244.57
189.85	2215.90
190.07	2127.84
190.29	2004.96
190.51	2263.01
190.73	2144.22
190.95	2332.64
191.17	2164.70
191.39	2154.46
191.61	2258.91
191.84	2228.19
192.06	2256.86
192.28	2045.92
192.50	2596.82
192.72	2203.61
192.94	2209.76
193.16	2342.88
193.38	2320.35
193.60	2131.94
193.82	2273.25
194.04	2351.07
194.26	2236.38
194.48	2193.37
194.70	2195.42
194.92	2234.33
195.14	2357.21
195.36	2195.42
195.58	2240.48
195.80	2168.80
196.02	2224.09
196.24	2097.12
196.46	2213.85
196.69	2228.19
196.91	2564.06
197.13	2170.85
197.35	2109.41
197.57	2430.94
197.79	2303.96
198.01	2209.76
198.23	2181.09
198.45	2287.58
198.67	2121.70
198.89	2138.08
199.11	2306.01
199.33	2138.08
199.55	2097.12
199.77	2187.23
199.99	2289.63
200.21	2183.13
200.43	2289.63
200.65	2121.70
200.87	2068.45
201.09	2179.04
201.31	2199.52
201.53	2254.81
201.75	2260.96
201.97	2271.20
202.19	2256.86
202.41	2211.81
202.63	2289.63
202.85	2279.39
203.07	2318.30
203.29	2162.66
203.51	2123.74
203.73	2162.66
203.95	2490.33
204.17	2162.66
204.39	2240.48
204.61	2226.14
204.83	2236.38
205.05	2310.11
205.27	2291.68
205.49	2531.29
205.71	2232.29
205.93	2088.93
206.15	2136.03
206.37	2244.57
206.59	2203.61
206.81	2113.50
207.03	2107.36
207.25	2158.56
207.47	2293.72
207.69	2179.04
207.91	2398.17
208.13	2406.36
208.34	2205.66
208.56	2113.50
208.78	2148.32
209.00	2211.81
209.22	2166.75
209.44	2220.00
209.66	2121.70
209.88	2269.15
210.10	2236.38
210.32	2074.59
210.54	2293.72
210.76	2291.68
210.98	2332.64
211.20	1994.72
211.42	2240.48
211.64	2340.83
211.86	2306.01
212.08	2226.14
212.30	2183.13
212.52	2265.05
212.74	2273.25
212.96	2230.24
213.17	2269.15
213.39	2332.64
213.61	2363.36
213.83	2170.85
214.05	2207.71
214.27	2340.83
214.49	2160.61
214.71	2150.37
214.93	2265.05
215.15	2236.38
215.37	2289.63
215.59	2086.88
215.81	2279.39
216.03	2308.06
216.24	2265.05
216.46	2195.42
216.68	2174.94
216.90	2342.88
217.12	2338.78
217.34	2201.57
217.56	2209.76
217.78	2342.88
218.00	2283.49
218.22	2224.09
218.44	2273.25
218.66	2359.26
218.87	2400.22
219.09	2103.26
219.31	2220.00
219.53	2301.92
219.75	2136.03
219.97	2244.57
220.19	2201.57
220.41	2236.38
220.63	2432.99
220.85	2211.81
221.06	2127.84
221.28	2346.97
221.50	2449.37
221.72	2256.86
221.94	2152.42
222.16	2260.96
222.38	2361.31
222.60	2232.29
222.82	2179.04
223.03	2256.86
223.25	2185.18
223.47	2244.57
223.69	2404.32
223.91	2338.78
224.13	2260.96
224.35	2056.16
224.57	2260.96
224.78	2283.49
225.00	2127.84
225.22	2209.76
225.44	2168.80
225.66	2299.87
225.88	2289.63
226.10	2226.14
226.32	2303.96
226.53	2389.98
226.75	2273.25
226.97	2211.81
227.19	2203.61
227.41	2195.42
227.63	2236.38
227.85	2043.87
228.06	2166.75
228.28	2269.15
228.50	2361.31
228.72	2138.08
228.94	2172.89
229.16	2084.83
229.37	2203.61
229.59	2160.61
229.81	2291.68
230.03	2119.65
230.25	2119.65
230.47	2074.59
230.69	2129.89
230.90	2349.02
231.12	2140.13
231.34	2201.57
231.56	2256.86
231.78	2146.27
232.00	2260.96
232.21	2217.95
232.43	2138.08
232.65	2031.58
232.87	2334.68
233.09	2170.85
233.30	2119.65
233.52	2361.31
233.74	2240.48
233.96	2238.43
234.18	2252.77
234.40	2320.35
234.61	2504.67
234.83	2058.21
235.05	2095.07
235.27	2529.24
235.49	2475.99
235.70	2160.61
235.92	2301.92
236.14	2220.00
236.36	2537.43
236.58	2058.21
236.79	2195.42
237.01	2291.68
237.23	2187.23
237.45	2369.50
237.67	2129.89
237.88	2342.88
238.10	2430.94
238.32	2125.79
238.54	2117.60
238.76	2228.19
238.97	2154.46
239.19	2154.46
239.41	2228.19
239.63	2269.15
239.85	2156.51
240.06	2183.13
240.28	2138.08
240.50	2402.27
240.72	2310.11
240.93	2136.03
241.15	2209.76
241.37	2281.44
241.59	2451.42
241.81	2183.13
242.02	2203.61
242.24	2306.01
242.46	2340.83
242.68	2162.66
242.89	2170.85
243.11	2330.59
243.33	2236.38
243.55	2248.67
243.76	2217.95
243.98	2176.99
244.20	2289.63
244.42	2236.38
244.64	2252.77
244.85	2138.08
245.07	2099.17
245.29	2244.57
245.51	2230.24
245.72	2285.53
245.94	2318.30
246.16	2185.18
246.38	2242.53
246.59	2215.90
246.81	2133.98
247.03	2189.28
247.24	2023.39
247.46	2232.29
247.68	2267.10
247.90	2172.89
248.11	2172.89
248.33	2211.81
248.55	2230.24
248.77	2195.42
248.98	2220.00
249.20	2455.51
249.42	2293.72
249.64	2195.42
249.85	2166.75
250.07	2158.56
250.29	2293.72
250.50	2256.86
250.72	2056.16
250.94	2197.47
251.16	2496.47
251.37	2250.72
251.59	2265.05
251.81	2326.49
252.02	2402.27
252.24	2191.33
252.46	2269.15
252.68	2162.66
252.89	2236.38
253.11	2078.69
253.33	2314.20
253.54	2334.68
253.76	2115.55
253.98	2095.07
254.20	2213.85
254.41	2142.18
254.63	2158.56
254.85	2076.64
255.06	2234.33
255.28	2381.79
255.50	2215.90
255.71	2236.38
255.93	2121.70
256.15	2215.90
256.36	2314.20
256.58	2142.18
256.80	2166.75
257.02	2232.29
257.23	2201.57
257.45	2228.19
257.67	2228.19
257.88	2121.70
258.10	2308.06
258.32	2179.04
258.53	2201.57
258.75	2424.80
258.97	2240.48
259.18	2125.79
259.40	2213.85
259.62	2484.19
259.83	2310.11
260.05	2232.29
260.27	2691.03
260.48	2449.37
260.70	2209.76
260.92	2185.18
261.13	2138.08
261.35	2306.01
261.57	2316.25
261.78	2080.74
262.00	2088.93
262.22	2252.77
262.43	2150.37
262.65	2250.72
262.86	2215.90
263.08	2473.95
263.30	2236.38
263.51	2056.16
263.73	2113.50
263.95	2426.84
264.16	2199.52
264.38	2103.26
264.60	2160.61
264.81	2213.85
265.03	2316.25
265.25	2301.92
265.46	2162.66
265.68	2365.40
265.89	2369.50
266.11	2095.07
266.33	2238.43
266.54	2330.59
266.76	2379.74
266.98	2254.81
267.19	2291.68
267.41	2301.92
267.62	2291.68
267.84	2103.26
268.06	2220.00
268.27	2242.53
268.49	2336.73
268.70	2334.68
268.92	2154.46
269.14	2160.61
269.35	2115.55
269.57	2209.76
269.79	2263.01
270.00	2166.75
270.22	2387.93
270.43	2037.73
270.65	2015.20
270.87	2250.72
271.08	2340.83
271.30	2314.20
271.51	2189.28
271.73	2299.87
271.95	2342.88
272.16	2170.85
272.38	2226.14
272.59	2273.25
272.81	2252.77
273.02	2109.41
273.24	2211.81
273.46	2394.08
273.67	2176.99
273.89	2080.74
274.10	2150.37
274.32	2340.83
274.54	2328.54
274.75	2252.77
274.97	2168.80
275.18	2318.30
275.40	2256.86
275.61	2250.72
275.83	2215.90
276.05	2150.37
276.26	2265.05
276.48	2232.29
276.69	2211.81
276.91	2187.23
277.12	2412.51
277.34	2320.35
277.55	2265.05
277.77	2179.04
277.99	2172.89
278.20	2093.02
278.42	2138.08
278.63	2170.85
278.85	2203.61
279.06	2084.83
279.28	2301.92
279.49	2355.16
279.71	2275.29
279.93	2252.77
280.14	2215.90
280.36	2193.37
280.57	2383.84
280.79	2205.66
281.00	2205.66
281.22	2238.43
281.43	2400.22
281.65	2088.93
281.86	2189.28
282.08	2285.53
282.29	2404.32
282.51	2080.74
282.73	2111.46
282.94	2152.42
283.16	2353.12
283.37	2439.13
283.59	2228.19
283.80	2299.87
284.02	2248.67
284.23	2269.15
284.45	2217.95
284.66	2213.85
284.88	2176.99
285.09	2279.39
285.31	2240.48
285.52	2308.06
285.74	2097.12
285.95	2332.64
286.17	2256.86
286.38	2314.20
286.60	2244.57
286.81	2170.85
287.03	2297.82
287.24	2267.10
287.46	2303.96
287.67	2230.24
287.89	2469.85
288.10	2265.05
288.32	2349.02
288.53	2351.07
288.75	2263.01
288.96	2328.54
289.18	2217.95
289.39	2213.85
289.61	2295.77
289.82	2447.32
290.04	2482.14
290.25	2162.66
290.47	2244.57
290.68	2279.39
290.90	2375.64
291.11	2029.54
291.33	2316.25
291.54	2230.24
291.76	2093.02
291.97	2267.10
292.18	2260.96
292.40	2217.95
292.61	2148.32
292.83	2432.99
293.04	2271.20
293.26	2269.15
293.47	2238.43
293.69	2148.32
293.90	2242.53
294.12	2447.32
294.33	2277.34
294.55	2160.61
294.76	2316.25
294.97	2324.44
295.19	2445.27
295.40	2244.57
295.62	2234.33
295.83	2402.27
296.05	2117.60
296.26	2385.88
296.48	2187.23
296.69	2277.34
296.90	2285.53
297.12	2322.40
297.33	2349.02
297.55	2228.19
297.76	2301.92
297.98	2269.15
298.19	2203.61
298.41	2189.28
298.62	2138.08
298.83	2351.07
299.05	2193.37
299.26	2263.01
299.48	2103.26
299.69	2260.96
299.90	2265.05
300.12	2193.37
300.33	2318.30
300.55	2283.49
300.76	2252.77
300.98	2152.42
301.19	2420.70
301.40	2179.04
301.62	2244.57
301.83	2293.72
302.05	2240.48
302.26	2265.05
302.47	2242.53
302.69	2121.70
302.90	2285.53
303.12	1925.09
303.33	2285.53
303.54	2461.66
303.76	2181.09
303.97	2242.53
304.19	2439.13
304.40	2125.79
304.61	2355.16
304.83	2318.30
305.04	2314.20
305.26	2301.92
305.47	2299.87
305.68	2232.29
305.90	2082.78
306.11	2359.26
306.33	2283.49
306.54	2129.89
306.75	2154.46
306.97	2039.78
307.18	2138.08
307.39	2195.42
307.61	2287.58
307.82	2156.51
308.04	2254.81
308.25	2187.23
308.46	2281.44
308.68	2260.96
308.89	2240.48
309.10	2308.06
309.32	2273.25
309.53	2242.53
309.74	2306.01
309.96	2211.81
310.17	2379.74
310.39	2250.72
310.60	2338.78
310.81	2267.10
311.03	2224.09
311.24	2260.96
311.45	2279.39
311.67	2375.64
311.88	2291.68
312.09	2220.00
312.31	2293.72
312.52	2160.61
312.73	2193.37
312.95	2109.41
313.16	2176.99
313.37	2338.78
313.59	2310.11
313.80	2340.83
314.01	2379.74
314.23	2193.37
314.44	2207.71
314.65	2146.27
314.87	2166.75
315.08	2129.89
315.29	2285.53
315.51	2152.42
315.72	2125.79
315.93	2328.54
316.15	2226.14
316.36	2174.94
316.57	2183.13
316.79	2271.20
317.00	2113.50
317.21	2269.15
317.43	2176.99
317.64	2217.95
317.85	2119.65
318.07	2209.76
318.28	2332.64
318.49	2359.26
318.70	2457.56
318.92	2385.88
319.13	2387.93
319.34	2430.94
319.56	2279.39
319.77	2357.21
319.98	2387.93
320.20	2398.17
320.41	2295.77
320.62	2328.54
320.83	2123.74
321.05	2406.36
321.26	2293.72
321.47	2187.23
321.69	2400.22
321.90	2146.27
322.11	2232.29
322.32	2281.44
322.54	2342.88
322.75	2179.04
322.96	2498.52
323.18	2070.50
323.39	2103.26
323.60	2170.85
323.81	2299.87
324.03	2211.81
324.24	2201.57
324.45	2330.59
324.66	2215.90
324.88	2316.25
325.09	2428.89
325.30	2265.05
325.52	2299.87
325.73	2242.53
325.94	2193.37
326.15	2148.32
326.37	2088.93
326.58	2392.03
326.79	2394.08
327.00	2152.42
327.22	2220.00
327.43	2088.93
327.64	2154.46
327.85	2271.20
328.07	2234.33
328.28	2394.08
328.49	2166.75
328.70	2207.71
328.92	2252.77
329.13	2201.57
329.34	2252.77
329.55	2357.21
329.76	2301.92
329.98	2285.53
330.19	2426.84
330.40	2265.05
330.61	2174.94
330.83	2367.45
331.04	2148.32
331.25	2283.49
331.46	2273.25
331.68	2119.65
331.89	2369.50
332.10	2193.37
332.31	2101.22
332.52	2238.43
332.74	2410.46
332.95	2050.02
333.16	2158.56
333.37	2392.03
333.58	2179.04
333.80	2146.27
334.01	2138.08
334.22	2193.37
334.43	2199.52
334.64	2203.61
334.86	2047.97
335.07	2181.09
335.28	2424.80
335.49	2101.22
335.70	2269.15
335.92	2355.16
336.13	2453.47
336.34	2242.53
336.55	2213.85
336.76	2275.29
336.98	2060.26
337.19	2242.53
337.40	2289.63
337.61	2490.33
337.82	2228.19
338.04	2359.26
338.25	2105.31
338.46	2240.48
338.67	2195.42
338.88	2154.46
339.09	2138.08
339.31	2168.80
339.52	2199.52
339.73	2119.65
339.94	2207.71
340.15	2346.97
340.36	2170.85
340.58	2240.48
340.79	2133.98
341.00	2349.02
341.21	2113.50
341.42	2318.30
341.63	2252.77
341.85	2316.25
342.06	2283.49
342.27	2127.84
342.48	2336.73
342.69	2193.37
342.90	2183.13
343.12	2367.45
343.33	2150.37
343.54	2330.59
343.75	2392.03
343.96	2318.30
344.17	2138.08
344.38	2260.96
344.60	2125.79
344.81	2185.18
345.02	2176.99
345.23	2389.98
345.44	2502.62
345.65	2277.34
345.86	2176.99
346.07	2281.44
346.29	2201.57
346.50	2306.01
346.71	2285.53
346.92	2406.36
347.13	2432.99
347.34	2228.19
347.55	2220.00
347.76	2308.06
347.98	2080.74
348.19	2250.72
348.40	2451.42
348.61	2252.77
348.82	2453.47
349.03	2267.10
349.24	2205.66
349.45	2492.38
349.66	2033.63
349.88	2187.23
350.09	2144.22
350.30	2394.08
350.51	2371.55
350.72	2250.72
350.93	2240.48
351.14	2146.27
351.35	2279.39
351.56	2228.19
351.77	2228.19
351.99	2310.11
352.20	2449.37
352.41	2383.84
352.62	2144.22
352.83	2176.99
353.04	2199.52
353.25	2187.23
353.46	2277.34
353.67	2424.80
353.88	2099.17
354.09	2277.34
354.30	2252.77
354.52	2351.07
354.73	2291.68
354.94	2179.04
355.15	2244.57
355.36	2482.14
355.57	2154.46
355.78	2234.33
355.99	2154.46
356.20	2260.96
356.41	2463.71
356.62	2293.72
356.83	2246.62
357.04	2449.37
357.25	2105.31
357.46	2197.47
357.68	2127.84
357.89	2158.56
358.10	2297.82
358.31	2252.77
358.52	2179.04
358.73	2093.02
358.94	2174.94
359.15	2191.33
359.36	2244.57
359.57	2244.57
359.78	2240.48
359.99	2277.34
360.20	2176.99
360.41	2260.96
360.62	2340.83
360.83	2293.72
361.04	2238.43
361.25	2293.72
361.46	2416.60
361.67	2289.63
361.88	2265.05
362.09	2346.97
362.30	2275.29
362.51	2156.51
362.72	2336.73
362.93	2322.40
363.14	2349.02
363.35	2258.91
363.56	2197.47
363.78	2322.40
363.99	2314.20
364.20	2248.67
364.41	2258.91
364.62	2527.19
364.83	2277.34
365.04	2195.42
365.25	2240.48
365.46	2418.65
365.67	2248.67
365.88	2283.49
366.09	2228.19
366.30	2176.99
366.51	2195.42
366.72	2154.46
366.93	2203.61
367.14	2224.09
367.35	2392.03
367.56	2201.57
367.77	2338.78
367.98	2240.48
368.18	2338.78
368.39	2342.88
368.60	2133.98
368.81	2314.20
369.02	2365.40
369.23	2183.13
369.44	2138.08
369.65	2273.25
369.86	2281.44
370.07	2301.92
370.28	2172.89
370.49	2267.10
370.70	2285.53
370.91	2129.89
371.12	2088.93
371.33	2344.92
371.54	2203.61
371.75	2375.64
371.96	1984.48
372.17	2326.49
372.38	2269.15
372.59	2316.25
372.80	2246.62
373.01	2240.48
373.22	2269.15
373.43	2234.33
373.64	2095.07
373.85	2357.21
374.06	2414.56
374.26	2297.82
374.47	2271.20
374.68	2359.26
374.89	2207.71
375.10	2179.04
375.31	2383.84
375.52	2193.37
375.73	2224.09
375.94	2148.32
376.15	2373.60
376.36	2146.27
376.57	2162.66
376.78	2203.61
376.99	2269.15
377.20	2363.36
377.40	2277.34
377.61	2396.12
377.82	2140.13
378.03	2416.60
378.24	2293.72
378.45	2228.19
378.66	2269.15
378.87	2058.21
379.08	2052.06
379.29	2193.37
379.50	2351.07
379.71	2234.33
379.91	2312.16
380.12	2293.72
380.33	2283.49
380.54	2226.14
380.75	2207.71
380.96	2230.24
381.17	2328.54
381.38	2183.13
381.59	2271.20
381.80	2291.68
382.00	2402.27
382.21	2234.33
382.42	2480.09
382.63	2441.18
382.84	2326.49
383.05	2359.26
383.26	2428.89
383.47	2258.91
383.68	2222.05
383.88	2310.11
384.09	2244.57
384.30	2379.74
384.51	2283.49
384.72	2236.38
384.93	2146.27
385.14	2156.51
385.35	2310.11
385.55	2111.46
385.76	2373.60
385.97	2179.04
386.18	2103.26
386.39	2113.50
386.60	2291.68
386.81	2213.85
387.02	2117.60
387.22	2037.73
387.43	2363.36
387.64	2326.49
387.85	2346.97
388.06	2480.09
388.27	3985.35
388.48	8275.84
388.68	11845.45
388.89	13817.65
389.10	15075.10
389.31	13791.02
389.52	11081.56
389.73	9500.53
389.93	8613.76
390.14	7880.58
390.35	7040.92
390.56	6528.92
390.77	5220.27
390.98	3985.35
391.18	3252.17
391.39	2760.66
391.60	2404.32
391.81	2451.42
392.02	2277.34
392.23	2469.85
392.43	2267.10
392.64	2334.68
392.85	2277.34
393.06	2461.66
393.27	2394.08
393.47	2176.99
393.68	2168.80
393.89	2187.23
394.10	2338.78
394.31	2185.18
394.52	2146.27
394.72	2207.71
394.93	2379.74
395.14	2125.79
395.35	2314.20
395.56	2230.24
395.76	2226.14
395.97	2332.64
396.18	2398.17
396.39	2312.16
396.60	2643.93
396.80	2555.86
397.01	2441.18
397.22	2445.27
397.43	2414.56
397.64	2291.68
397.84	2295.77
398.05	2506.71
398.26	2260.96
398.47	2297.82
398.67	2269.15
398.88	2215.90
399.09	2289.63
399.30	2197.47
399.51	2238.43
399.71	2226.14
399.92	2291.68
400.13	2322.40
400.34	2207.71
400.54	2254.81
400.75	2465.75
400.96	2320.35
401.17	2422.75
401.37	2271.20
401.58	2277.34
401.79	2166.75
402.00	2349.02
402.21	2613.21
402.41	2510.81
402.62	2557.91
402.83	2615.26
403.04	2617.30
403.24	2832.34
403.45	2392.03
403.66	2469.85
403.87	2482.14
404.07	2514.91
404.28	2533.34
404.49	2398.17
404.70	2355.16
404.90	2418.65
405.11	2252.77
405.32	2308.06
405.52	2220.00
405.73	2197.47
405.94	2189.28
406.15	2166.75
406.35	2281.44
406.56	2379.74
406.77	2320.35
406.98	2258.91
407.18	2183.13
407.39	2396.12
407.60	2246.62
407.80	2353.12
408.01	2283.49
408.22	2275.29
408.43	2158.56
408.63	2252.77
408.84	2389.98
409.05	2449.37
409.25	2187.23
409.46	2217.95
409.67	2203.61
409.88	2193.37
410.08	2357.21
410.29	2252.77
410.50	2361.31
410.70	2220.00
410.91	2170.85
411.12	2201.57
411.32	2252.77
411.53	2158.56
411.74	2330.59
411.95	2328.54
412.15	2285.53
412.36	2404.32
412.57	2381.79
412.77	2377.69
412.98	2273.25
413.19	2226.14
413.39	2287.58
413.60	2252.77
413.81	2428.89
414.01	2211.81
414.22	2297.82
414.43	2344.92
414.63	2240.48
414.84	2308.06
415.05	2209.76
415.25	2123.74
415.46	2320.35
415.67	2228.19
415.87	2330.59
416.08	2217.95
416.29	2234.33
416.49	2285.53
416.70	2113.50
416.91	2224.09
417.11	2250.72
417.32	2377.69
417.53	2244.57
417.73	2310.11
417.94	2303.96
418.15	2297.82
418.35	2271.20
418.56	2209.76
418.77	2508.76
418.97	2240.48
419.18	2203.61
419.38	2054.11
419.59	2228.19
419.80	2392.03
420.00	2222.05
420.21	2168.80
420.42	2318.30
420.62	2306.01
420.83	2211.81
421.04	2226.14
421.24	2244.57
421.45	2375.64
421.65	2269.15
421.86	2209.76
422.07	2299.87
422.27	2265.05
422.48	2260.96
422.69	2158.56
422.89	2265.05
423.10	2299.87
423.30	2203.61
423.51	2260.96
423.72	2324.44
423.92	2267.10
424.13	2138.08
424.33	2281.44
424.54	2326.49
424.75	2267.10
424.95	2351.07
425.16	2242.53
425.36	2291.68
425.57	2342.88
425.78	2301.92
425.98	2240.48
426.19	2244.57
426.39	2109.41
426.60	2314.20
426.81	2353.12
427.01	2275.29
427.22	2203.61
427.42	2117.60
427.63	2164.70
427.83	2351.07
428.04	2443.23
428.25	2406.36
428.45	2328.54
428.66	2371.55
428.86	2314.20
429.07	2232.29
429.28	2244.57
429.48	2246.62
429.69	2185.18
429.89	2269.15
430.10	2105.31
430.30	2342.88
430.51	2346.97
430.71	2133.98
430.92	2232.29
431.13	2269.15
431.33	2318.30
431.54	2306.01
431.74	2465.75
431.95	2506.71
432.15	2138.08
432.36	2279.39
432.56	2322.40
432.77	2496.47
432.98	2453.47
433.18	2230.24
433.39	2187.23
433.59	2205.66
433.80	2377.69
434.00	2424.80
434.21	2203.61
434.41	2234.33
434.62	2461.66
434.82	2105.31
435.03	2209.76
435.23	2301.92
435.44	2064.35
435.64	2236.38
435.85	2299.87
436.06	2338.78
436.26	2400.22
436.47	2203.61
436.67	2267.10
436.88	2277.34
437.08	2412.51
437.29	2398.17
437.49	2205.66
437.70	2506.71
437.90	2252.77
438.11	2453.47
438.31	2334.68
438.52	2437.08
438.72	2449.37
438.93	2428.89
439.13	2297.82
439.34	2428.89
439.54	2293.72
439.75	2359.26
439.95	2437.08
440.16	2277.34
440.36	2248.67
440.57	2338.78
440.77	2228.19
440.98	2293.72
441.18	2369.50
441.39	2258.91
441.59	2162.66
441.80	2514.91
442.00	2267.10
442.21	2340.83
442.41	2113.50
442.62	2342.88
442.82	2285.53
443.02	2295.77
443.23	2301.92
443.43	2287.58
443.64	2451.42
443.84	2150.37
444.05	2310.11
444.25	2236.38
444.46	2303.96
444.66	2250.72
444.87	2398.17
445.07	2105.31
445.28	2252.77
445.48	2332.64
445.69	2441.18
445.89	2510.81
446.09	2275.29
446.30	2471.90
446.50	2830.29
446.71	4345.79
446.91	5660.59
447.12	6248.35
447.32	6811.54
447.53	6309.79
447.73	5236.66
447.93	4521.92
448.14	4190.14
448.34	4112.32
448.55	3465.16
448.75	3653.58
448.96	3436.49
449.16	3057.62
449.36	2977.75
449.57	2547.67
449.77	2377.69
449.98	2254.81
450.18	2306.01
450.39	2326.49
450.59	2367.45
450.79	2226.14
451.00	2220.00
451.20	2355.16
451.41	2213.85
451.61	2353.12
451.81	2275.29
452.02	2191.33
452.22	2172.89
452.43	2220.00
452.63	2207.71
