SpectraSuite Data File
++++++++++++++++++++++++++++++++++++
Date: Thu May 05 13:20:48 CEST 2016
User: root
Dark Spectrum Present: No
Reference Spectrum Present: No
Number of Sampled Component Spectra: 1
Spectrometers: USB4C02835
Integration Time (usec): 100000 (USB4C02835)
Spectra Averaged: 1 (USB4C02835)
Boxcar Smoothing: 0 (USB4C02835)
Correct for Electrical Dark: No (USB4C02835)
Strobe/Lamp Enabled: No (USB4C02835)
Correct for Detector Non-linearity: No (USB4C02835)
Correct for Stray Light: No (USB4C02835)
Number of Pixels in Processed Spectrum: 3648
>>>>>Begin Processed Spectral Data<<<<<
177.47	1865.70
177.69	1865.70
177.91	1865.70
178.13	1748.97
178.36	1777.64
178.58	2156.51
178.80	2248.67
179.02	2144.22
179.24	2195.42
179.46	2144.22
179.68	2234.33
179.90	2312.16
180.13	2310.11
180.35	2095.07
180.57	2119.65
180.79	2283.49
181.01	2226.14
181.23	2373.60
181.45	2275.29
181.67	2289.63
181.90	2375.64
182.12	2117.60
182.34	2050.02
182.56	2295.77
182.78	2310.11
183.00	2156.51
183.22	2187.23
183.44	2037.73
183.66	2506.71
183.89	2367.45
184.11	2158.56
184.33	2310.11
184.55	2299.87
184.77	2162.66
184.99	2127.84
185.21	2228.19
185.43	2414.56
185.65	2242.53
185.87	2181.09
186.10	2488.28
186.32	2441.18
186.54	2215.90
186.76	2234.33
186.98	2316.25
187.20	2254.81
187.42	2148.32
187.64	2226.14
187.86	2222.05
188.08	2371.55
188.30	2179.04
188.52	2144.22
188.75	2383.84
188.97	2281.44
189.19	2088.93
189.41	2125.79
189.63	2334.68
189.85	2189.28
190.07	2097.12
190.29	2129.89
190.51	2306.01
190.73	2162.66
190.95	2330.59
191.17	2181.09
191.39	2168.80
191.61	2269.15
191.84	2142.18
192.06	2248.67
192.28	2082.78
192.50	2564.06
192.72	2226.14
192.94	2187.23
193.16	2330.59
193.38	2260.96
193.60	2111.46
193.82	2220.00
194.04	2346.97
194.26	2299.87
194.48	2166.75
194.70	2146.27
194.92	2213.85
195.14	2359.26
195.36	2164.70
195.58	2217.95
195.80	2222.05
196.02	2115.55
196.24	2097.12
196.46	2189.28
196.69	2144.22
196.91	2459.61
197.13	2179.04
197.35	2160.61
197.57	2465.75
197.79	2328.54
198.01	2260.96
198.23	2254.81
198.45	2244.57
198.67	2070.50
198.89	2037.73
199.11	2246.62
199.33	2109.41
199.55	2084.83
199.77	2113.50
199.99	2344.92
200.21	2203.61
200.43	2258.91
200.65	2088.93
200.87	1949.67
201.09	2228.19
201.31	2213.85
201.53	2285.53
201.75	2144.22
201.97	2248.67
202.19	2310.11
202.41	2275.29
202.63	2308.06
202.85	2303.96
203.07	2289.63
203.29	2170.85
203.51	2088.93
203.73	2195.42
203.95	2588.63
204.17	2220.00
204.39	2199.52
204.61	2197.47
204.83	2183.13
205.05	2250.72
205.27	2203.61
205.49	2492.38
205.71	2203.61
205.93	2039.78
206.15	2099.17
206.37	2215.90
206.59	2217.95
206.81	2125.79
207.03	2070.50
207.25	2144.22
207.47	2353.12
207.69	2047.97
207.91	2342.88
208.13	2400.22
208.34	2217.95
208.56	2076.64
208.78	2217.95
209.00	2260.96
209.22	2269.15
209.44	2174.94
209.66	2211.81
209.88	2324.44
210.10	2230.24
210.32	2185.18
210.54	2195.42
210.76	2244.57
210.98	2359.26
211.20	2064.35
211.42	2256.86
211.64	2414.56
211.86	2285.53
212.08	2242.53
212.30	2148.32
212.52	2158.56
212.74	2369.50
212.96	2191.33
213.17	2228.19
213.39	2308.06
213.61	2398.17
213.83	2154.46
214.05	2201.57
214.27	2351.07
214.49	2121.70
214.71	2101.22
214.93	2334.68
215.15	2252.77
215.37	2349.02
215.59	2029.54
215.81	2215.90
216.03	2447.32
216.24	2232.29
216.46	2183.13
216.68	2260.96
216.90	2285.53
217.12	2310.11
217.34	2207.71
217.56	2228.19
217.78	2340.83
218.00	2295.77
218.22	2207.71
218.44	2252.77
218.66	2277.34
218.87	2465.75
219.09	2183.13
219.31	2170.85
219.53	2308.06
219.75	2213.85
219.97	2265.05
220.19	2242.53
220.41	2324.44
220.63	2416.60
220.85	2160.61
221.06	2215.90
221.28	2318.30
221.50	2260.96
221.72	2189.28
221.94	2093.02
222.16	2363.36
222.38	2326.49
222.60	2174.94
222.82	2121.70
223.03	2402.27
223.25	2213.85
223.47	2133.98
223.69	2336.73
223.91	2299.87
224.13	2330.59
224.35	2144.22
224.57	2281.44
224.78	2258.91
225.00	2129.89
225.22	2246.62
225.44	2133.98
225.66	2297.82
225.88	2224.09
226.10	2240.48
226.32	2181.09
226.53	2424.80
226.75	2248.67
226.97	2236.38
227.19	2228.19
227.41	2160.61
227.63	2156.51
227.85	2090.98
228.06	2150.37
228.28	2281.44
228.50	2422.75
228.72	2037.73
228.94	2168.80
229.16	2078.69
229.37	2113.50
229.59	2119.65
229.81	2267.10
230.03	2246.62
230.25	2162.66
230.47	2133.98
230.69	2129.89
230.90	2363.36
231.12	2146.27
231.34	2207.71
231.56	2232.29
231.78	2146.27
232.00	2275.29
232.21	2187.23
232.43	2168.80
232.65	2047.97
232.87	2373.60
233.09	2064.35
233.30	2107.36
233.52	2287.58
233.74	2191.33
233.96	2121.70
234.18	2236.38
234.40	2187.23
234.61	2453.47
234.83	2136.03
235.05	2115.55
235.27	2414.56
235.49	2400.22
235.70	2136.03
235.92	2228.19
236.14	2269.15
236.36	2490.33
236.58	2144.22
236.79	2164.70
237.01	2236.38
237.23	2273.25
237.45	2342.88
237.67	2093.02
237.88	2267.10
238.10	2459.61
238.32	2056.16
238.54	2168.80
238.76	2226.14
238.97	2168.80
239.19	2129.89
239.41	2176.99
239.63	2359.26
239.85	2191.33
240.06	2254.81
240.28	2207.71
240.50	2324.44
240.72	2250.72
240.93	2201.57
241.15	2338.78
241.37	2269.15
241.59	2359.26
241.81	2199.52
242.02	2142.18
242.24	2308.06
242.46	2344.92
242.68	2080.74
242.89	2164.70
243.11	2365.40
243.33	2258.91
243.55	2189.28
243.76	2250.72
243.98	2217.95
244.20	2234.33
244.42	2162.66
244.64	2195.42
244.85	2117.60
245.07	2150.37
245.29	2236.38
245.51	2191.33
245.72	2224.09
245.94	2441.18
246.16	2164.70
246.38	2260.96
246.59	2158.56
246.81	2160.61
247.03	2131.94
247.24	2031.58
247.46	2250.72
247.68	2244.57
247.90	2150.37
248.11	2154.46
248.33	2332.64
248.55	2297.82
248.77	2246.62
248.98	2291.68
249.20	2459.61
249.42	2230.24
249.64	2224.09
249.85	2260.96
250.07	2154.46
250.29	2375.64
250.50	2187.23
250.72	2111.46
250.94	2340.83
251.16	2512.86
251.37	2244.57
251.59	2252.77
251.81	2238.43
252.02	2285.53
252.24	2189.28
252.46	2334.68
252.68	2250.72
252.89	2250.72
253.11	2064.35
253.33	2273.25
253.54	2457.56
253.76	2187.23
253.98	2179.04
254.20	2205.66
254.41	2095.07
254.63	2211.81
254.85	2058.21
255.06	2248.67
255.28	2275.29
255.50	2193.37
255.71	2176.99
255.93	2099.17
256.15	2193.37
256.36	2285.53
256.58	2113.50
256.80	2152.42
257.02	2244.57
257.23	2267.10
257.45	2187.23
257.67	2267.10
257.88	2205.66
258.10	2195.42
258.32	2236.38
258.53	2240.48
258.75	2396.12
258.97	2240.48
259.18	2172.89
259.40	2176.99
259.62	2441.18
259.83	2437.08
260.05	2256.86
260.27	2557.91
260.48	2383.84
260.70	2138.08
260.92	2113.50
261.13	2230.24
261.35	2277.34
261.57	2318.30
261.78	2070.50
262.00	2154.46
262.22	2322.40
262.43	2179.04
262.65	2252.77
262.86	2232.29
263.08	2523.10
263.30	2260.96
263.51	1976.29
263.73	2072.54
263.95	2406.36
264.16	2164.70
264.38	2095.07
264.60	2156.51
264.81	2244.57
265.03	2351.07
265.25	2308.06
265.46	2201.57
265.68	2482.14
265.89	2328.54
266.11	2015.20
266.33	2156.51
266.54	2379.74
266.76	2308.06
266.98	2267.10
267.19	2328.54
267.41	2383.84
267.62	2246.62
267.84	2103.26
268.06	2154.46
268.27	2273.25
268.49	2357.21
268.70	2275.29
268.92	2187.23
269.14	2154.46
269.35	2066.40
269.57	2127.84
269.79	2263.01
270.00	2207.71
270.22	2428.89
270.43	2113.50
270.65	2066.40
270.87	2367.45
271.08	2367.45
271.30	2285.53
271.51	2164.70
271.73	2318.30
271.95	2330.59
272.16	2181.09
272.38	2260.96
272.59	2199.52
272.81	2250.72
273.02	2213.85
273.24	2189.28
273.46	2363.36
273.67	2138.08
273.89	2099.17
274.10	2224.09
274.32	2369.50
274.54	2265.05
274.75	2265.05
274.97	2154.46
275.18	2279.39
275.40	2318.30
275.61	2232.29
275.83	2234.33
276.05	2119.65
276.26	2179.04
276.48	2250.72
276.69	2203.61
276.91	2176.99
277.12	2377.69
277.34	2240.48
277.55	2383.84
277.77	2193.37
277.99	2232.29
278.20	2187.23
278.42	2078.69
278.63	2217.95
278.85	2146.27
279.06	2080.74
279.28	2308.06
279.49	2404.32
279.71	2346.97
279.93	2285.53
280.14	2201.57
280.36	2176.99
280.57	2314.20
280.79	2240.48
281.00	2144.22
281.22	2195.42
281.43	2344.92
281.65	2015.20
281.86	2166.75
282.08	2314.20
282.29	2496.47
282.51	2093.02
282.73	2090.98
282.94	2176.99
283.16	2334.68
283.37	2277.34
283.59	2269.15
283.80	2301.92
284.02	2236.38
284.23	2277.34
284.45	2203.61
284.66	2152.42
284.88	2179.04
285.09	2285.53
285.31	2316.25
285.52	2187.23
285.74	2097.12
285.95	2306.01
286.17	2203.61
286.38	2308.06
286.60	2215.90
286.81	2185.18
287.03	2244.57
287.24	2234.33
287.46	2271.20
287.67	2283.49
287.89	2326.49
288.10	2226.14
288.32	2224.09
288.53	2334.68
288.75	2209.76
288.96	2310.11
289.18	2199.52
289.39	2164.70
289.61	2211.81
289.82	2377.69
290.04	2392.03
290.25	2123.74
290.47	2230.24
290.68	2277.34
290.90	2271.20
291.11	2058.21
291.33	2306.01
291.54	2084.83
291.76	2217.95
291.97	2267.10
292.18	2306.01
292.40	2158.56
292.61	2133.98
292.83	2437.08
293.04	2195.42
293.26	2256.86
293.47	2318.30
293.69	2101.22
293.90	2248.67
294.12	2361.31
294.33	2238.43
294.55	2195.42
294.76	2269.15
294.97	2338.78
295.19	2389.98
295.40	2174.94
295.62	2201.57
295.83	2328.54
296.05	2174.94
296.26	2336.73
296.48	2146.27
296.69	2269.15
296.90	2144.22
297.12	2252.77
297.33	2301.92
297.55	2224.09
297.76	2291.68
297.98	2291.68
298.19	2387.93
298.41	2293.72
298.62	2117.60
298.83	2389.98
299.05	2244.57
299.26	2228.19
299.48	2181.09
299.69	2213.85
299.90	2205.66
300.12	2133.98
300.33	2318.30
300.55	2256.86
300.76	2271.20
300.98	2129.89
301.19	2334.68
301.40	2156.51
301.62	2201.57
301.83	2285.53
302.05	2275.29
302.26	2217.95
302.47	2181.09
302.69	2185.18
302.90	2293.72
303.12	2052.06
303.33	2213.85
303.54	2404.32
303.76	2228.19
303.97	2179.04
304.19	2375.64
304.40	2121.70
304.61	2277.34
304.83	2383.84
305.04	2232.29
305.26	2316.25
305.47	2174.94
305.68	2176.99
305.90	2095.07
306.11	2353.12
306.33	2213.85
306.54	2203.61
306.75	2164.70
306.97	2152.42
307.18	2220.00
307.39	2197.47
307.61	2277.34
307.82	2244.57
308.04	2318.30
308.25	2154.46
308.46	2301.92
308.68	2273.25
308.89	2189.28
309.10	2256.86
309.32	2326.49
309.53	2199.52
309.74	2355.16
309.96	2232.29
310.17	2301.92
310.39	2185.18
310.60	2322.40
310.81	2289.63
311.03	2168.80
311.24	2297.82
311.45	2226.14
311.67	2334.68
311.88	2207.71
312.09	2152.42
312.31	2265.05
312.52	2232.29
312.73	2242.53
312.95	2060.26
313.16	2158.56
313.37	2371.55
313.59	2277.34
313.80	2310.11
314.01	2449.37
314.23	2246.62
314.44	2146.27
314.65	2236.38
314.87	2138.08
315.08	2105.31
315.29	2187.23
315.51	2201.57
315.72	2107.36
315.93	2342.88
316.15	2277.34
316.36	2197.47
316.57	2318.30
316.79	2271.20
317.00	2217.95
317.21	2367.45
317.43	2152.42
317.64	2275.29
317.85	2131.94
318.07	2121.70
318.28	2263.01
318.49	2359.26
318.70	2512.86
318.92	2381.79
319.13	2437.08
319.34	2359.26
319.56	2416.60
319.77	2414.56
319.98	2363.36
320.20	2402.27
320.41	2310.11
320.62	2306.01
320.83	2150.37
321.05	2406.36
321.26	2248.67
321.47	2287.58
321.69	2398.17
321.90	2080.74
322.11	2191.33
322.32	2277.34
322.54	2412.51
322.75	2162.66
322.96	2584.54
323.18	2078.69
323.39	2082.78
323.60	2195.42
323.81	2269.15
324.03	2154.46
324.24	2181.09
324.45	2324.44
324.66	2242.53
324.88	2389.98
325.09	2418.65
325.30	2224.09
325.52	2281.44
325.73	2279.39
325.94	2226.14
326.15	2107.36
326.37	2142.18
326.58	2285.53
326.79	2441.18
327.00	2150.37
327.22	2230.24
327.43	2201.57
327.64	2101.22
327.85	2344.92
328.07	2152.42
328.28	2465.75
328.49	2217.95
328.70	2199.52
328.92	2230.24
329.13	2228.19
329.34	2324.44
329.55	2396.12
329.76	2428.89
329.98	2220.00
330.19	2402.27
330.40	2215.90
330.61	2236.38
330.83	2306.01
331.04	2179.04
331.25	2240.48
331.46	2222.05
331.68	2226.14
331.89	2351.07
332.10	2207.71
332.31	2121.70
332.52	2252.77
332.74	2392.03
332.95	2125.79
333.16	2152.42
333.37	2392.03
333.58	2207.71
333.80	2316.25
334.01	2133.98
334.22	2230.24
334.43	2170.85
334.64	2224.09
334.86	2062.30
335.07	2144.22
335.28	2387.93
335.49	2127.84
335.70	2207.71
335.92	2392.03
336.13	2527.19
336.34	2193.37
336.55	2248.67
336.76	2310.11
336.98	2142.18
337.19	2244.57
337.40	2349.02
337.61	2541.53
337.82	2205.66
338.04	2369.50
338.25	2113.50
338.46	2187.23
338.67	2265.05
338.88	2199.52
339.09	2121.70
339.31	2193.37
339.52	2170.85
339.73	2185.18
339.94	2148.32
340.15	2283.49
340.36	2246.62
340.58	2306.01
340.79	2166.75
341.00	2320.35
341.21	2131.94
341.42	2430.94
341.63	2234.33
341.85	2301.92
342.06	2252.77
342.27	2127.84
342.48	2308.06
342.69	2121.70
342.90	2232.29
343.12	2349.02
343.33	2187.23
343.54	2355.16
343.75	2367.45
343.96	2260.96
344.17	2138.08
344.38	2265.05
344.60	2158.56
344.81	2246.62
345.02	2248.67
345.23	2322.40
345.44	2459.61
345.65	2269.15
345.86	2187.23
346.07	2263.01
346.29	2183.13
346.50	2318.30
346.71	2308.06
346.92	2351.07
347.13	2461.66
347.34	2244.57
347.55	2113.50
347.76	2291.68
347.98	2090.98
348.19	2201.57
348.40	2363.36
348.61	2269.15
348.82	2394.08
349.03	2322.40
349.24	2146.27
349.45	2449.37
349.66	2054.11
349.88	2127.84
350.09	2133.98
350.30	2334.68
350.51	2379.74
350.72	2265.05
350.93	2213.85
351.14	2203.61
351.35	2275.29
351.56	2215.90
351.77	2205.66
351.99	2293.72
352.20	2346.97
352.41	2318.30
352.62	2064.35
352.83	2314.20
353.04	2162.66
353.25	2228.19
353.46	2308.06
353.67	2346.97
353.88	2129.89
354.09	2162.66
354.30	2275.29
354.52	2308.06
354.73	2232.29
354.94	2156.51
355.15	2199.52
355.36	2396.12
355.57	2179.04
355.78	2242.53
355.99	2115.55
356.20	2293.72
356.41	2320.35
356.62	2301.92
356.83	2297.82
357.04	2359.26
357.25	2129.89
357.46	2183.13
357.68	2146.27
357.89	2203.61
358.10	2217.95
358.31	2228.19
358.52	2260.96
358.73	2185.18
358.94	2144.22
359.15	2189.28
359.36	2269.15
359.57	2248.67
359.78	2213.85
359.99	2351.07
360.20	2185.18
360.41	2246.62
360.62	2318.30
360.83	2269.15
361.04	2252.77
361.25	2238.43
361.46	2377.69
361.67	2267.10
361.88	2226.14
362.09	2297.82
362.30	2326.49
362.51	2170.85
362.72	2306.01
362.93	2355.16
363.14	2277.34
363.35	2187.23
363.56	2123.74
363.78	2326.49
363.99	2301.92
364.20	2234.33
364.41	2248.67
364.62	2465.75
364.83	2244.57
365.04	2260.96
365.25	2199.52
365.46	2392.03
365.67	2111.46
365.88	2258.91
366.09	2226.14
366.30	2277.34
366.51	2226.14
366.72	2162.66
366.93	2228.19
367.14	2306.01
367.35	2367.45
367.56	2170.85
367.77	2353.12
367.98	2240.48
368.18	2375.64
368.39	2299.87
368.60	2090.98
368.81	2297.82
369.02	2332.64
369.23	2236.38
369.44	2035.68
369.65	2154.46
369.86	2277.34
370.07	2310.11
370.28	2187.23
370.49	2246.62
370.70	2314.20
370.91	2119.65
371.12	2156.51
371.33	2381.79
371.54	2228.19
371.75	2387.93
371.96	2017.25
372.17	2293.72
372.38	2260.96
372.59	2295.77
372.80	2211.81
373.01	2248.67
373.22	2260.96
373.43	2256.86
373.64	2174.94
373.85	2349.02
374.06	2369.50
374.26	2308.06
374.47	2226.14
374.68	2412.51
374.89	2246.62
375.10	2242.53
375.31	2295.77
375.52	2303.96
375.73	2289.63
375.94	2152.42
376.15	2418.65
376.36	2154.46
376.57	2154.46
376.78	2213.85
376.99	2238.43
377.20	2349.02
377.40	2265.05
377.61	2449.37
377.82	2215.90
378.03	2414.56
378.24	2332.64
378.45	2279.39
378.66	2258.91
378.87	2166.75
379.08	2031.58
379.29	2170.85
379.50	2314.20
379.71	2306.01
379.91	2344.92
380.12	2215.90
380.33	2209.76
380.54	2217.95
380.75	2256.86
380.96	2263.01
381.17	2277.34
381.38	2209.76
381.59	2273.25
381.80	2287.58
382.00	2410.46
382.21	2367.45
382.42	2492.38
382.63	2535.39
382.84	2351.07
383.05	2361.31
383.26	2385.88
383.47	2291.68
383.68	2324.44
383.88	2277.34
384.09	2240.48
384.30	2408.41
384.51	2318.30
384.72	2195.42
384.93	2187.23
385.14	2230.24
385.35	2336.73
385.55	2078.69
385.76	2453.47
385.97	2228.19
386.18	2215.90
386.39	2252.77
386.60	2189.28
386.81	2211.81
387.02	2142.18
387.22	2203.61
387.43	2285.53
387.64	2326.49
387.85	2424.80
388.06	2455.51
388.27	3989.44
388.48	8044.42
388.68	11550.54
388.89	13930.28
389.10	14929.69
389.31	13868.84
389.52	10776.41
389.73	9375.60
389.93	8482.69
390.14	7888.78
390.35	7061.40
390.56	6256.54
390.77	5259.18
390.98	4040.64
391.18	3286.99
391.39	2775.00
391.60	2363.36
391.81	2377.69
392.02	2176.99
392.23	2512.86
392.43	2293.72
392.64	2373.60
392.85	2283.49
393.06	2373.60
393.27	2299.87
393.47	2138.08
393.68	2256.86
393.89	2220.00
394.10	2387.93
394.31	2205.66
394.52	2082.78
394.72	2187.23
394.93	2521.05
395.14	2133.98
395.35	2293.72
395.56	2217.95
395.76	2303.96
395.97	2269.15
396.18	2379.74
396.39	2406.36
396.60	2734.04
396.80	2482.14
397.01	2367.45
397.22	2404.32
397.43	2453.47
397.64	2228.19
397.84	2359.26
398.05	2545.63
398.26	2273.25
398.47	2367.45
398.67	2326.49
398.88	2236.38
399.09	2322.40
399.30	2226.14
399.51	2285.53
399.71	2195.42
399.92	2217.95
400.13	2240.48
400.34	2260.96
400.54	2228.19
400.75	2387.93
400.96	2285.53
401.17	2414.56
401.37	2265.05
401.58	2269.15
401.79	2242.53
402.00	2318.30
402.21	2637.78
402.41	2557.91
402.62	2572.25
402.83	2682.84
403.04	2695.13
403.24	2844.63
403.45	2308.06
403.66	2506.71
403.87	2432.99
404.07	2449.37
404.28	2488.28
404.49	2471.90
404.70	2338.78
404.90	2422.75
405.11	2256.86
405.32	2265.05
405.52	2220.00
405.73	2211.81
405.94	2179.04
406.15	2162.66
406.35	2340.83
406.56	2306.01
406.77	2234.33
406.98	2277.34
407.18	2199.52
407.39	2465.75
407.60	2285.53
407.80	2258.91
408.01	2244.57
408.22	2269.15
408.43	2162.66
408.63	2314.20
408.84	2324.44
409.05	2314.20
409.25	2162.66
409.46	2195.42
409.67	2226.14
409.88	2183.13
410.08	2310.11
410.29	2240.48
410.50	2342.88
410.70	2326.49
410.91	2195.42
411.12	2224.09
411.32	2283.49
411.53	2166.75
411.74	2351.07
411.95	2371.55
412.15	2312.16
412.36	2385.88
412.57	2267.10
412.77	2326.49
412.98	2314.20
413.19	2254.81
413.39	2293.72
413.60	2265.05
413.81	2443.23
414.01	2129.89
414.22	2246.62
414.43	2269.15
414.63	2267.10
414.84	2359.26
415.05	2267.10
415.25	2109.41
415.46	2217.95
415.67	2254.81
415.87	2377.69
416.08	2291.68
416.29	2191.33
416.49	2314.20
416.70	2127.84
416.91	2240.48
417.11	2203.61
417.32	2359.26
417.53	2285.53
417.73	2277.34
417.94	2252.77
418.15	2217.95
418.35	2250.72
418.56	2285.53
418.77	2475.99
418.97	2174.94
419.18	2207.71
419.38	2041.82
419.59	2195.42
419.80	2432.99
420.00	2228.19
420.21	2301.92
420.42	2346.97
420.62	2306.01
420.83	2197.47
421.04	2220.00
421.24	2199.52
421.45	2299.87
421.65	2289.63
421.86	2187.23
422.07	2330.59
422.27	2244.57
422.48	2252.77
422.69	2115.55
422.89	2318.30
423.10	2232.29
423.30	2072.54
423.51	2267.10
423.72	2289.63
423.92	2342.88
424.13	2185.18
424.33	2287.58
424.54	2240.48
424.75	2303.96
424.95	2379.74
425.16	2254.81
425.36	2199.52
425.57	2365.40
425.78	2414.56
425.98	2312.16
426.19	2162.66
426.39	2144.22
426.60	2330.59
426.81	2344.92
427.01	2326.49
427.22	2150.37
427.42	2078.69
427.63	2230.24
427.83	2277.34
428.04	2435.03
428.25	2293.72
428.45	2340.83
428.66	2394.08
428.86	2279.39
429.07	2260.96
429.28	2236.38
429.48	2244.57
429.69	2138.08
429.89	2228.19
430.10	2174.94
430.30	2334.68
430.51	2328.54
430.71	2095.07
430.92	2230.24
431.13	2199.52
431.33	2351.07
431.54	2265.05
431.74	2424.80
431.95	2394.08
432.15	2138.08
432.36	2318.30
432.56	2314.20
432.77	2473.95
432.98	2392.03
433.18	2342.88
433.39	2291.68
433.59	2250.72
433.80	2494.43
434.00	2469.85
434.21	2226.14
434.41	2156.51
434.62	2555.86
434.82	2142.18
435.03	2150.37
435.23	2312.16
435.44	2099.17
435.64	2283.49
435.85	2252.77
436.06	2385.88
436.26	2367.45
436.47	2181.09
436.67	2176.99
436.88	2207.71
437.08	2293.72
437.29	2398.17
437.49	2213.85
437.70	2365.40
437.90	2322.40
438.11	2408.41
438.31	2310.11
438.52	2469.85
438.72	2412.51
438.93	2506.71
439.13	2353.12
439.34	2432.99
439.54	2207.71
439.75	2381.79
439.95	2322.40
440.16	2213.85
440.36	2314.20
440.57	2250.72
440.77	2351.07
440.98	2326.49
441.18	2301.92
441.39	2199.52
441.59	2080.74
441.80	2455.51
442.00	2172.89
442.21	2379.74
442.41	2125.79
442.62	2373.60
442.82	2254.81
443.02	2252.77
443.23	2334.68
443.43	2230.24
443.64	2398.17
443.84	2176.99
444.05	2353.12
444.25	2258.91
444.46	2187.23
444.66	2285.53
444.87	2383.84
445.07	2086.88
445.28	2230.24
445.48	2408.41
445.69	2373.60
445.89	2496.47
446.09	2349.02
446.30	2537.43
446.50	2822.10
446.71	4380.61
446.91	5625.77
447.12	6324.13
447.32	6641.56
447.53	6176.67
447.73	5099.44
447.93	4536.25
448.14	4345.79
448.34	4175.81
448.55	3508.17
448.75	3526.60
448.96	3356.62
449.16	3088.34
449.36	2951.12
449.57	2533.34
449.77	2365.40
449.98	2279.39
450.18	2373.60
450.39	2381.79
450.59	2383.84
450.79	2228.19
451.00	2230.24
451.20	2353.12
451.41	2205.66
451.61	2322.40
451.81	2293.72
452.02	2207.71
452.22	2209.76
452.43	2230.24
452.63	2185.18
