SpectraSuite Data File
++++++++++++++++++++++++++++++++++++
Date: Thu May 05 13:21:06 CEST 2016
User: root
Dark Spectrum Present: No
Reference Spectrum Present: No
Number of Sampled Component Spectra: 1
Spectrometers: USB4C02835
Integration Time (usec): 100000 (USB4C02835)
Spectra Averaged: 1 (USB4C02835)
Boxcar Smoothing: 0 (USB4C02835)
Correct for Electrical Dark: No (USB4C02835)
Strobe/Lamp Enabled: No (USB4C02835)
Correct for Detector Non-linearity: No (USB4C02835)
Correct for Stray Light: No (USB4C02835)
Number of Pixels in Processed Spectrum: 3648
>>>>>Begin Processed Spectral Data<<<<<
177.47	1867.75
177.69	1867.75
177.91	1867.75
178.13	1744.87
178.36	1783.78
178.58	2115.55
178.80	2179.04
179.02	2125.79
179.24	2127.84
179.46	2224.09
179.68	2154.46
179.90	2217.95
180.13	2226.14
180.35	2076.64
180.57	2127.84
180.79	2357.21
181.01	2244.57
181.23	2189.28
181.45	2308.06
181.67	2332.64
181.90	2379.74
182.12	2183.13
182.34	2072.54
182.56	2240.48
182.78	2234.33
183.00	2168.80
183.22	2197.47
183.44	2133.98
183.66	2596.82
183.89	2291.68
184.11	2226.14
184.33	2371.55
184.55	2365.40
184.77	2179.04
184.99	2191.33
185.21	2250.72
185.43	2457.56
185.65	2160.61
185.87	2133.98
186.10	2449.37
186.32	2490.33
186.54	2269.15
186.76	2326.49
186.98	2369.50
187.20	2211.81
187.42	2158.56
187.64	2228.19
187.86	2277.34
188.08	2379.74
188.30	2150.37
188.52	2176.99
188.75	2334.68
188.97	2351.07
189.19	2144.22
189.41	2183.13
189.63	2410.46
189.85	2154.46
190.07	2107.36
190.29	2084.83
190.51	2263.01
190.73	2117.60
190.95	2318.30
191.17	2146.27
191.39	2080.74
191.61	2160.61
191.84	2144.22
192.06	2168.80
192.28	2056.16
192.50	2478.04
192.72	2308.06
192.94	2101.22
193.16	2392.03
193.38	2291.68
193.60	2111.46
193.82	2187.23
194.04	2379.74
194.26	2154.46
194.48	2199.52
194.70	2131.94
194.92	2256.86
195.14	2367.45
195.36	2224.09
195.58	2238.43
195.80	2228.19
196.02	2138.08
196.24	2111.46
196.46	2170.85
196.69	2183.13
196.91	2494.43
197.13	2185.18
197.35	2080.74
197.57	2389.98
197.79	2318.30
198.01	2179.04
198.23	2232.29
198.45	2314.20
198.67	2154.46
198.89	2158.56
199.11	2217.95
199.33	2154.46
199.55	2111.46
199.77	2174.94
199.99	2324.44
200.21	2168.80
200.43	2236.38
200.65	2174.94
200.87	2068.45
201.09	2211.81
201.31	2287.58
201.53	2244.57
201.75	2166.75
201.97	2256.86
202.19	2248.67
202.41	2195.42
202.63	2357.21
202.85	2353.12
203.07	2277.34
203.29	2195.42
203.51	2133.98
203.73	2201.57
203.95	2562.01
204.17	2226.14
204.39	2299.87
204.61	2185.18
204.83	2109.41
205.05	2314.20
205.27	2254.81
205.49	2435.03
205.71	2222.05
205.93	2056.16
206.15	2144.22
206.37	2281.44
206.59	2220.00
206.81	2133.98
207.03	2133.98
207.25	2070.50
207.47	2351.07
207.69	2174.94
207.91	2392.03
208.13	2408.41
208.34	2226.14
208.56	2115.55
208.78	2232.29
209.00	2195.42
209.22	2269.15
209.44	2224.09
209.66	2123.74
209.88	2201.57
210.10	2254.81
210.32	2220.00
210.54	2295.77
210.76	2246.62
210.98	2326.49
211.20	2111.46
211.42	2301.92
211.64	2430.94
211.86	2273.25
212.08	2234.33
212.30	2209.76
212.52	2238.43
212.74	2301.92
212.96	2168.80
213.17	2228.19
213.39	2353.12
213.61	2379.74
213.83	2179.04
214.05	2207.71
214.27	2365.40
214.49	2127.84
214.71	2164.70
214.93	2301.92
215.15	2267.10
215.37	2359.26
215.59	2105.31
215.81	2162.66
216.03	2457.56
216.24	2248.67
216.46	2236.38
216.68	2240.48
216.90	2310.11
217.12	2359.26
217.34	2179.04
217.56	2193.37
217.78	2445.27
218.00	2234.33
218.22	2273.25
218.44	2252.77
218.66	2234.33
218.87	2441.18
219.09	2240.48
219.31	2271.20
219.53	2269.15
219.75	2199.52
219.97	2211.81
220.19	2275.29
220.41	2287.58
220.63	2394.08
220.85	2273.25
221.06	2150.37
221.28	2412.51
221.50	2316.25
221.72	2172.89
221.94	2162.66
222.16	2269.15
222.38	2351.07
222.60	2195.42
222.82	2146.27
223.03	2355.16
223.25	2090.98
223.47	2248.67
223.69	2408.41
223.91	2392.03
224.13	2269.15
224.35	2176.99
224.57	2297.82
224.78	2211.81
225.00	2101.22
225.22	2117.60
225.44	2117.60
225.66	2316.25
225.88	2166.75
226.10	2260.96
226.32	2252.77
226.53	2435.03
226.75	2199.52
226.97	2183.13
227.19	2168.80
227.41	2146.27
227.63	2209.76
227.85	2047.97
228.06	2185.18
228.28	2303.96
228.50	2353.12
228.72	2064.35
228.94	2203.61
229.16	2080.74
229.37	2125.79
229.59	2090.98
229.81	2349.02
230.03	2160.61
230.25	2146.27
230.47	2086.88
230.69	2162.66
230.90	2353.12
231.12	2195.42
231.34	2187.23
231.56	2281.44
231.78	2244.57
232.00	2230.24
232.21	2174.94
232.43	2267.10
232.65	2088.93
232.87	2408.41
233.09	2127.84
233.30	2170.85
233.52	2330.59
233.74	2252.77
233.96	2168.80
234.18	2226.14
234.40	2162.66
234.61	2496.47
234.83	2064.35
235.05	2121.70
235.27	2502.62
235.49	2424.80
235.70	2193.37
235.92	2220.00
236.14	2308.06
236.36	2465.75
236.58	2105.31
236.79	2301.92
237.01	2283.49
237.23	2201.57
237.45	2273.25
237.67	2131.94
237.88	2330.59
238.10	2383.84
238.32	2084.83
238.54	2195.42
238.76	2236.38
238.97	2154.46
239.19	2127.84
239.41	2174.94
239.63	2389.98
239.85	2207.71
240.06	2207.71
240.28	2123.74
240.50	2375.64
240.72	2213.85
240.93	2121.70
241.15	2297.82
241.37	2246.62
241.59	2394.08
241.81	2160.61
242.02	2146.27
242.24	2267.10
242.46	2349.02
242.68	2144.22
242.89	2191.33
243.11	2338.78
243.33	2287.58
243.55	2250.72
243.76	2215.90
243.98	2187.23
244.20	2256.86
244.42	2281.44
244.64	2195.42
244.85	2133.98
245.07	2168.80
245.29	2181.09
245.51	2170.85
245.72	2285.53
245.94	2357.21
246.16	2236.38
246.38	2230.24
246.59	2136.03
246.81	2154.46
247.03	2080.74
247.24	2080.74
247.46	2185.18
247.68	2301.92
247.90	2209.76
248.11	2172.89
248.33	2435.03
248.55	2273.25
248.77	2252.77
248.98	2299.87
249.20	2416.60
249.42	2195.42
249.64	2226.14
249.85	2158.56
250.07	2166.75
250.29	2332.64
250.50	2228.19
250.72	2080.74
250.94	2215.90
251.16	2463.71
251.37	2240.48
251.59	2226.14
251.81	2211.81
252.02	2404.32
252.24	2176.99
252.46	2328.54
252.68	2211.81
252.89	2242.53
253.11	2076.64
253.33	2375.64
253.54	2381.79
253.76	2154.46
253.98	2211.81
254.20	2142.18
254.41	2217.95
254.63	2193.37
254.85	2021.35
255.06	2207.71
255.28	2260.96
255.50	2195.42
255.71	2144.22
255.93	2068.45
256.15	2220.00
256.36	2273.25
256.58	2068.45
256.80	2158.56
257.02	2326.49
257.23	2213.85
257.45	2160.61
257.67	2283.49
257.88	2232.29
258.10	2306.01
258.32	2109.41
258.53	2269.15
258.75	2416.60
258.97	2189.28
259.18	2183.13
259.40	2158.56
259.62	2361.31
259.83	2297.82
260.05	2197.47
260.27	2670.55
260.48	2254.81
260.70	2150.37
260.92	2127.84
261.13	2232.29
261.35	2269.15
261.57	2269.15
261.78	2129.89
262.00	2164.70
262.22	2285.53
262.43	2127.84
262.65	2236.38
262.86	2226.14
263.08	2494.43
263.30	2269.15
263.51	2080.74
263.73	2119.65
263.95	2373.60
264.16	2191.33
264.38	2133.98
264.60	2158.56
264.81	2217.95
265.03	2383.84
265.25	2392.03
265.46	2109.41
265.68	2437.08
265.89	2275.29
266.11	2133.98
266.33	2211.81
266.54	2344.92
266.76	2326.49
266.98	2265.05
267.19	2244.57
267.41	2344.92
267.62	2224.09
267.84	2027.49
268.06	2258.91
268.27	2355.16
268.49	2324.44
268.70	2220.00
268.92	2158.56
269.14	2176.99
269.35	2179.04
269.57	2195.42
269.79	2217.95
270.00	2213.85
270.22	2437.08
270.43	2121.70
270.65	2027.49
270.87	2312.16
271.08	2293.72
271.30	2367.45
271.51	2205.66
271.73	2363.36
271.95	2389.98
272.16	2207.71
272.38	2285.53
272.59	2133.98
272.81	2328.54
273.02	2193.37
273.24	2310.11
273.46	2363.36
273.67	2109.41
273.89	2097.12
274.10	2119.65
274.32	2385.88
274.54	2318.30
274.75	2316.25
274.97	2220.00
275.18	2357.21
275.40	2342.88
275.61	2183.13
275.83	2211.81
276.05	2125.79
276.26	2179.04
276.48	2187.23
276.69	2160.61
276.91	2215.90
277.12	2412.51
277.34	2277.34
277.55	2351.07
277.77	2265.05
277.99	2242.53
278.20	2117.60
278.42	2215.90
278.63	2236.38
278.85	2090.98
279.06	2148.32
279.28	2314.20
279.49	2308.06
279.71	2314.20
279.93	2277.34
280.14	2222.05
280.36	2183.13
280.57	2381.79
280.79	2265.05
281.00	2144.22
281.22	2252.77
281.43	2297.82
281.65	2029.54
281.86	2144.22
282.08	2318.30
282.29	2377.69
282.51	2113.50
282.73	2162.66
282.94	2146.27
283.16	2359.26
283.37	2320.35
283.59	2260.96
283.80	2357.21
284.02	2297.82
284.23	2244.57
284.45	2275.29
284.66	2142.18
284.88	2195.42
285.09	2252.77
285.31	2236.38
285.52	2281.44
285.74	2097.12
285.95	2316.25
286.17	2297.82
286.38	2301.92
286.60	2181.09
286.81	2133.98
287.03	2181.09
287.24	2217.95
287.46	2371.55
287.67	2252.77
287.89	2320.35
288.10	2260.96
288.32	2289.63
288.53	2336.73
288.75	2283.49
288.96	2275.29
289.18	2113.50
289.39	2205.66
289.61	2318.30
289.82	2439.13
290.04	2404.32
290.25	2152.42
290.47	2306.01
290.68	2271.20
290.90	2349.02
291.11	2142.18
291.33	2303.96
291.54	2176.99
291.76	2199.52
291.97	2195.42
292.18	2297.82
292.40	2238.43
292.61	2160.61
292.83	2519.00
293.04	2248.67
293.26	2277.34
293.47	2215.90
293.69	2209.76
293.90	2267.10
294.12	2314.20
294.33	2252.77
294.55	2201.57
294.76	2375.64
294.97	2406.36
295.19	2512.86
295.40	2267.10
295.62	2287.58
295.83	2236.38
296.05	2138.08
296.26	2318.30
296.48	2125.79
296.69	2199.52
296.90	2269.15
297.12	2265.05
297.33	2320.35
297.55	2258.91
297.76	2273.25
297.98	2365.40
298.19	2232.29
298.41	2299.87
298.62	2181.09
298.83	2424.80
299.05	2222.05
299.26	2183.13
299.48	2062.30
299.69	2263.01
299.90	2314.20
300.12	2203.61
300.33	2291.68
300.55	2330.59
300.76	2258.91
300.98	2123.74
301.19	2357.21
301.40	2166.75
301.62	2181.09
301.83	2328.54
302.05	2328.54
302.26	2217.95
302.47	2271.20
302.69	2125.79
302.90	2297.82
303.12	2025.44
303.33	2263.01
303.54	2412.51
303.76	2220.00
303.97	2166.75
304.19	2392.03
304.40	2105.31
304.61	2373.60
304.83	2392.03
305.04	2269.15
305.26	2344.92
305.47	2220.00
305.68	2211.81
305.90	2109.41
306.11	2385.88
306.33	2224.09
306.54	2125.79
306.75	2179.04
306.97	2101.22
307.18	2121.70
307.39	2144.22
307.61	2220.00
307.82	2211.81
308.04	2324.44
308.25	2131.94
308.46	2277.34
308.68	2240.48
308.89	2303.96
309.10	2404.32
309.32	2234.33
309.53	2244.57
309.74	2299.87
309.96	2170.85
310.17	2338.78
310.39	2220.00
310.60	2332.64
310.81	2222.05
311.03	2140.13
311.24	2355.16
311.45	2277.34
311.67	2334.68
311.88	2242.53
312.09	2199.52
312.31	2197.47
312.52	2236.38
312.73	2197.47
312.95	2181.09
313.16	2138.08
313.37	2330.59
313.59	2254.81
313.80	2338.78
314.01	2451.42
314.23	2181.09
314.44	2195.42
314.65	2109.41
314.87	2154.46
315.08	2226.14
315.29	2250.72
315.51	2119.65
315.72	2170.85
315.93	2408.41
316.15	2285.53
316.36	2152.42
316.57	2256.86
316.79	2269.15
317.00	2168.80
317.21	2320.35
317.43	2138.08
317.64	2234.33
317.85	2232.29
318.07	2193.37
318.28	2269.15
318.49	2320.35
318.70	2469.85
318.92	2435.03
319.13	2459.61
319.34	2424.80
319.56	2271.20
319.77	2408.41
319.98	2406.36
320.20	2330.59
320.41	2224.09
320.62	2394.08
320.83	2172.89
321.05	2463.71
321.26	2226.14
321.47	2168.80
321.69	2320.35
321.90	2109.41
322.11	2136.03
322.32	2349.02
322.54	2392.03
322.75	2195.42
322.96	2541.53
323.18	2154.46
323.39	2101.22
323.60	2191.33
323.81	2283.49
324.03	2152.42
324.24	2314.20
324.45	2330.59
324.66	2150.37
324.88	2308.06
325.09	2385.88
325.30	2183.13
325.52	2197.47
325.73	2285.53
325.94	2203.61
326.15	2084.83
326.37	2168.80
326.58	2373.60
326.79	2420.70
327.00	2211.81
327.22	2220.00
327.43	2201.57
327.64	2138.08
327.85	2265.05
328.07	2244.57
328.28	2414.56
328.49	2244.57
328.70	2199.52
328.92	2203.61
329.13	2101.22
329.34	2326.49
329.55	2318.30
329.76	2244.57
329.98	2183.13
330.19	2367.45
330.40	2228.19
330.61	2289.63
330.83	2371.55
331.04	2207.71
331.25	2303.96
331.46	2203.61
331.68	2125.79
331.89	2387.93
332.10	2265.05
332.31	2168.80
332.52	2228.19
332.74	2353.12
332.95	2140.13
333.16	2226.14
333.37	2371.55
333.58	2242.53
333.80	2185.18
334.01	2111.46
334.22	2209.76
334.43	2211.81
334.64	2168.80
334.86	2045.92
335.07	2162.66
335.28	2351.07
335.49	2099.17
335.70	2293.72
335.92	2408.41
336.13	2502.62
336.34	2244.57
336.55	2234.33
336.76	2359.26
336.98	2099.17
337.19	2244.57
337.40	2412.51
337.61	2494.43
337.82	2211.81
338.04	2293.72
338.25	2117.60
338.46	2179.04
338.67	2228.19
338.88	2144.22
339.09	2156.51
339.31	2201.57
339.52	2142.18
339.73	2176.99
339.94	2287.58
340.15	2314.20
340.36	2133.98
340.58	2295.77
340.79	2162.66
341.00	2324.44
341.21	2125.79
341.42	2398.17
341.63	2207.71
341.85	2281.44
342.06	2308.06
342.27	2158.56
342.48	2287.58
342.69	2168.80
342.90	2324.44
343.12	2383.84
343.33	2162.66
343.54	2324.44
343.75	2353.12
343.96	2234.33
344.17	2156.51
344.38	2310.11
344.60	2185.18
344.81	2121.70
345.02	2195.42
345.23	2334.68
345.44	2490.33
345.65	2269.15
345.86	2263.01
346.07	2324.44
346.29	2195.42
346.50	2330.59
346.71	2240.48
346.92	2326.49
347.13	2494.43
347.34	2207.71
347.55	2226.14
347.76	2340.83
347.98	2107.36
348.19	2191.33
348.40	2320.35
348.61	2144.22
348.82	2451.42
349.03	2342.88
349.24	2152.42
349.45	2457.56
349.66	2119.65
349.88	2283.49
350.09	2166.75
350.30	2338.78
350.51	2371.55
350.72	2209.76
350.93	2277.34
351.14	2222.05
351.35	2256.86
351.56	2209.76
351.77	2250.72
351.99	2277.34
352.20	2381.79
352.41	2330.59
352.62	2109.41
352.83	2281.44
353.04	2220.00
353.25	2179.04
353.46	2312.16
353.67	2332.64
353.88	2090.98
354.09	2195.42
354.30	2195.42
354.52	2326.49
354.73	2285.53
354.94	2164.70
355.15	2224.09
355.36	2422.75
355.57	2170.85
355.78	2248.67
355.99	2129.89
356.20	2211.81
356.41	2318.30
356.62	2256.86
356.83	2213.85
357.04	2422.75
357.25	2144.22
357.46	2166.75
357.68	2062.30
357.89	2158.56
358.10	2226.14
358.31	2138.08
358.52	2189.28
358.73	2193.37
358.94	2176.99
359.15	2205.66
359.36	2285.53
359.57	2176.99
359.78	2291.68
359.99	2334.68
360.20	2156.51
360.41	2203.61
360.62	2303.96
360.83	2263.01
361.04	2277.34
361.25	2258.91
361.46	2392.03
361.67	2310.11
361.88	2269.15
362.09	2371.55
362.30	2277.34
362.51	2176.99
362.72	2240.48
362.93	2297.82
363.14	2201.57
363.35	2252.77
363.56	2201.57
363.78	2392.03
363.99	2330.59
364.20	2158.56
364.41	2248.67
364.62	2428.89
364.83	2295.77
365.04	2248.67
365.25	2215.90
365.46	2510.81
365.67	2199.52
365.88	2250.72
366.09	2189.28
366.30	2228.19
366.51	2263.01
366.72	2236.38
366.93	2281.44
367.14	2299.87
367.35	2449.37
367.56	2250.72
367.77	2326.49
367.98	2193.37
368.18	2213.85
368.39	2201.57
368.60	2166.75
368.81	2400.22
369.02	2277.34
369.23	2168.80
369.44	2166.75
369.65	2187.23
369.86	2228.19
370.07	2275.29
370.28	2099.17
370.49	2324.44
370.70	2234.33
370.91	2209.76
371.12	2115.55
371.33	2365.40
371.54	2220.00
371.75	2379.74
371.96	2062.30
372.17	2236.38
372.38	2265.05
372.59	2287.58
372.80	2129.89
373.01	2213.85
373.22	2207.71
373.43	2248.67
373.64	2129.89
373.85	2443.23
374.06	2414.56
374.26	2344.92
374.47	2217.95
374.68	2385.88
374.89	2277.34
375.10	2244.57
375.31	2297.82
375.52	2244.57
375.73	2185.18
375.94	2062.30
376.15	2359.26
376.36	2224.09
376.57	2246.62
376.78	2220.00
376.99	2240.48
377.20	2359.26
377.40	2217.95
377.61	2455.51
377.82	2090.98
378.03	2428.89
378.24	2269.15
378.45	2146.27
378.66	2228.19
378.87	2037.73
379.08	2144.22
379.29	2179.04
379.50	2383.84
379.71	2226.14
379.91	2338.78
380.12	2234.33
380.33	2211.81
380.54	2213.85
380.75	2222.05
380.96	2254.81
381.17	2256.86
381.38	2236.38
381.59	2285.53
381.80	2269.15
382.00	2441.18
382.21	2250.72
382.42	2469.85
382.63	2475.99
382.84	2363.36
383.05	2381.79
383.26	2453.47
383.47	2289.63
383.68	2242.53
383.88	2342.88
384.09	2242.53
384.30	2441.18
384.51	2332.64
384.72	2269.15
384.93	2103.26
385.14	2265.05
385.35	2349.02
385.55	2158.56
385.76	2371.55
385.97	2287.58
386.18	2093.02
386.39	2224.09
386.60	2211.81
386.81	2154.46
387.02	2179.04
387.22	2203.61
387.43	2265.05
387.64	2328.54
387.85	2529.24
388.06	2529.24
388.27	3928.00
388.48	8202.11
388.68	11898.70
388.89	13948.72
389.10	15216.41
389.31	13860.65
389.52	10932.06
389.73	9639.79
389.93	8728.44
390.14	7915.40
390.35	7149.46
390.56	6328.22
390.77	5154.74
390.98	4046.79
391.18	3280.85
391.39	2775.00
391.60	2447.32
391.81	2408.41
392.02	2217.95
392.23	2494.43
392.43	2269.15
392.64	2406.36
392.85	2289.63
393.06	2383.84
393.27	2258.91
393.47	2191.33
393.68	2252.77
393.89	2207.71
394.10	2410.46
394.31	2181.09
394.52	2113.50
394.72	2205.66
394.93	2320.35
395.14	2131.94
395.35	2297.82
395.56	2195.42
395.76	2244.57
395.97	2265.05
396.18	2344.92
396.39	2346.97
396.60	2746.33
396.80	2490.33
397.01	2439.13
397.22	2451.42
397.43	2340.83
397.64	2211.81
397.84	2293.72
398.05	2449.37
398.26	2252.77
398.47	2297.82
398.67	2445.27
398.88	2211.81
399.09	2324.44
399.30	2125.79
399.51	2385.88
399.71	2232.29
399.92	2136.03
400.13	2326.49
400.34	2318.30
400.54	2260.96
400.75	2387.93
400.96	2293.72
401.17	2418.65
401.37	2353.12
401.58	2220.00
401.79	2226.14
402.00	2412.51
402.21	2695.13
402.41	2557.91
402.62	2643.93
402.83	2684.89
403.04	2740.18
403.24	2875.35
403.45	2318.30
403.66	2514.91
403.87	2422.75
404.07	2535.39
404.28	2535.39
404.49	2592.73
404.70	2375.64
404.90	2283.49
405.11	2289.63
405.32	2260.96
405.52	2197.47
405.73	2191.33
405.94	2146.27
406.15	2254.81
406.35	2365.40
406.56	2256.86
406.77	2299.87
406.98	2324.44
407.18	2193.37
407.39	2426.84
407.60	2179.04
407.80	2283.49
408.01	2260.96
408.22	2205.66
408.43	2201.57
408.63	2269.15
408.84	2387.93
409.05	2289.63
409.25	2164.70
409.46	2090.98
409.67	2228.19
409.88	2189.28
410.08	2244.57
410.29	2129.89
410.50	2297.82
410.70	2340.83
410.91	2203.61
411.12	2236.38
411.32	2267.10
411.53	2185.18
411.74	2377.69
411.95	2340.83
412.15	2291.68
412.36	2420.70
412.57	2392.03
412.77	2430.94
412.98	2330.59
413.19	2238.43
413.39	2314.20
413.60	2269.15
413.81	2394.08
414.01	2127.84
414.22	2301.92
414.43	2312.16
414.63	2256.86
414.84	2340.83
415.05	2238.43
415.25	2064.35
415.46	2334.68
415.67	2215.90
415.87	2228.19
416.08	2191.33
416.29	2166.75
416.49	2267.10
416.70	2176.99
416.91	2170.85
417.11	2283.49
417.32	2389.98
417.53	2389.98
417.73	2363.36
417.94	2226.14
418.15	2281.44
418.35	2215.90
418.56	2234.33
418.77	2469.85
418.97	2277.34
419.18	2224.09
419.38	2023.39
419.59	2197.47
419.80	2412.51
420.00	2179.04
420.21	2199.52
420.42	2408.41
420.62	2340.83
420.83	2287.58
421.04	2267.10
421.24	2240.48
421.45	2314.20
421.65	2250.72
421.86	2260.96
422.07	2357.21
422.27	2342.88
422.48	2248.67
422.69	2138.08
422.89	2193.37
423.10	2236.38
423.30	2193.37
423.51	2222.05
423.72	2265.05
423.92	2353.12
424.13	2142.18
424.33	2299.87
424.54	2297.82
424.75	2318.30
424.95	2514.91
425.16	2293.72
425.36	2176.99
425.57	2381.79
425.78	2316.25
425.98	2310.11
426.19	2232.29
426.39	2121.70
426.60	2211.81
426.81	2355.16
427.01	2359.26
427.22	2228.19
427.42	2064.35
427.63	2133.98
427.83	2375.64
428.04	2400.22
428.25	2332.64
428.45	2353.12
428.66	2373.60
428.86	2195.42
429.07	2277.34
429.28	2258.91
429.48	2293.72
429.69	2176.99
429.89	2199.52
430.10	2185.18
430.30	2326.49
430.51	2435.03
430.71	2158.56
430.92	2283.49
431.13	2162.66
431.33	2342.88
431.54	2318.30
431.74	2342.88
431.95	2463.71
432.15	2220.00
432.36	2238.43
432.56	2226.14
432.77	2512.86
432.98	2420.70
433.18	2297.82
433.39	2217.95
433.59	2269.15
433.80	2449.37
434.00	2492.38
434.21	2301.92
434.41	2125.79
434.62	2533.34
434.82	2172.89
435.03	2133.98
435.23	2338.78
435.44	2109.41
435.64	2217.95
435.85	2197.47
436.06	2367.45
436.26	2340.83
436.47	2242.53
436.67	2215.90
436.88	2154.46
437.08	2297.82
437.29	2392.03
437.49	2293.72
437.70	2318.30
437.90	2263.01
438.11	2355.16
438.31	2310.11
438.52	2512.86
438.72	2510.81
438.93	2416.60
439.13	2375.64
439.34	2365.40
439.54	2330.59
439.75	2373.60
439.95	2242.53
440.16	2215.90
440.36	2361.31
440.57	2220.00
440.77	2269.15
440.98	2242.53
441.18	2299.87
441.39	2275.29
441.59	2172.89
441.80	2473.95
442.00	2246.62
442.21	2340.83
442.41	2166.75
442.62	2400.22
442.82	2152.42
443.02	2283.49
443.23	2297.82
443.43	2252.77
443.64	2346.97
443.84	2113.50
444.05	2404.32
444.25	2285.53
444.46	2209.76
444.66	2324.44
444.87	2420.70
445.07	2195.42
445.28	2308.06
445.48	2445.27
445.69	2252.77
445.89	2432.99
446.09	2271.20
446.30	2539.48
446.50	2877.40
446.71	4462.52
446.91	5484.46
447.12	6430.62
447.32	6692.76
447.53	6270.88
447.73	5146.55
447.93	4626.36
448.14	4143.04
448.34	4151.23
448.55	3571.66
448.75	3590.09
448.96	3413.96
449.16	3092.43
449.36	2873.30
449.57	2598.87
449.77	2385.88
449.98	2301.92
450.18	2349.02
450.39	2349.02
450.59	2252.77
450.79	2230.24
451.00	2217.95
451.20	2342.88
451.41	2232.29
451.61	2277.34
451.81	2213.85
452.02	2228.19
452.22	2203.61
452.43	2228.19
452.63	2162.66
