SpectraSuite Data File
++++++++++++++++++++++++++++++++++++
Date: Thu May 05 13:21:10 CEST 2016
User: root
Dark Spectrum Present: No
Reference Spectrum Present: No
Number of Sampled Component Spectra: 1
Spectrometers: USB4C02835
Integration Time (usec): 100000 (USB4C02835)
Spectra Averaged: 1 (USB4C02835)
Boxcar Smoothing: 0 (USB4C02835)
Correct for Electrical Dark: No (USB4C02835)
Strobe/Lamp Enabled: No (USB4C02835)
Correct for Detector Non-linearity: No (USB4C02835)
Correct for Stray Light: No (USB4C02835)
Number of Pixels in Processed Spectrum: 3648
>>>>>Begin Processed Spectral Data<<<<<
177.47	1814.50
177.69	1814.50
177.91	1814.50
178.13	1834.98
178.36	1802.21
178.58	2136.03
178.80	2316.25
179.02	2179.04
179.24	2066.40
179.46	2109.41
179.68	2174.94
179.90	2314.20
180.13	2289.63
180.35	2023.39
180.57	2127.84
180.79	2291.68
181.01	2207.71
181.23	2158.56
181.45	2244.57
181.67	2381.79
181.90	2357.21
182.12	2146.27
182.34	1957.86
182.56	2314.20
182.78	2357.21
183.00	2162.66
183.22	2203.61
183.44	2037.73
183.66	2521.05
183.89	2279.39
184.11	2162.66
184.33	2310.11
184.55	2445.27
184.77	2183.13
184.99	2220.00
185.21	2205.66
185.43	2551.77
185.65	2150.37
185.87	2191.33
186.10	2346.97
186.32	2461.66
186.54	2293.72
186.76	2242.53
186.98	2392.03
187.20	2240.48
187.42	2232.29
187.64	2195.42
187.86	2320.35
188.08	2303.96
188.30	2121.70
188.52	2220.00
188.75	2381.79
188.97	2375.64
189.19	2176.99
189.41	2133.98
189.63	2293.72
189.85	2179.04
190.07	2043.87
190.29	2052.06
190.51	2301.92
190.73	2176.99
190.95	2287.58
191.17	2146.27
191.39	2148.32
191.61	2217.95
191.84	2113.50
192.06	2230.24
192.28	2099.17
192.50	2510.81
192.72	2332.64
192.94	2222.05
193.16	2330.59
193.38	2242.53
193.60	2037.73
193.82	2187.23
194.04	2404.32
194.26	2258.91
194.48	2236.38
194.70	2129.89
194.92	2236.38
195.14	2285.53
195.36	2152.42
195.58	2258.91
195.80	2240.48
196.02	2144.22
196.24	2228.19
196.46	2250.72
196.69	2230.24
196.91	2465.75
197.13	2203.61
197.35	2170.85
197.57	2420.70
197.79	2322.40
198.01	2271.20
198.23	2228.19
198.45	2291.68
198.67	2213.85
198.89	2076.64
199.11	2193.37
199.33	2234.33
199.55	1972.19
199.77	2191.33
199.99	2258.91
200.21	2142.18
200.43	2322.40
200.65	2103.26
200.87	2015.20
201.09	2269.15
201.31	2207.71
201.53	2303.96
201.75	2209.76
201.97	2338.78
202.19	2228.19
202.41	2269.15
202.63	2287.58
202.85	2330.59
203.07	2256.86
203.29	2222.05
203.51	2097.12
203.73	2179.04
203.95	2590.68
204.17	2176.99
204.39	2269.15
204.61	2209.76
204.83	2252.77
205.05	2226.14
205.27	2205.66
205.49	2412.51
205.71	2293.72
205.93	2101.22
206.15	2056.16
206.37	2342.88
206.59	2248.67
206.81	1982.43
207.03	2121.70
207.25	2181.09
207.47	2412.51
207.69	2172.89
207.91	2367.45
208.13	2432.99
208.34	2164.70
208.56	2201.57
208.78	2240.48
209.00	2234.33
209.22	2215.90
209.44	2240.48
209.66	2105.31
209.88	2283.49
210.10	2234.33
210.32	2162.66
210.54	2242.53
210.76	2234.33
210.98	2373.60
211.20	2013.15
211.42	2166.75
211.64	2314.20
211.86	2291.68
212.08	2326.49
212.30	2121.70
212.52	2232.29
212.74	2275.29
212.96	2281.44
213.17	2256.86
213.39	2351.07
213.61	2480.09
213.83	2183.13
214.05	2205.66
214.27	2342.88
214.49	2123.74
214.71	2146.27
214.93	2326.49
215.15	2205.66
215.37	2353.12
215.59	2111.46
215.81	2240.48
216.03	2365.40
216.24	2269.15
216.46	2148.32
216.68	2217.95
216.90	2260.96
217.12	2412.51
217.34	2154.46
217.56	2289.63
217.78	2332.64
218.00	2375.64
218.22	2226.14
218.44	2228.19
218.66	2273.25
218.87	2426.84
219.09	2236.38
219.31	2258.91
219.53	2293.72
219.75	2203.61
219.97	2148.32
220.19	2258.91
220.41	2156.51
220.63	2336.73
220.85	2228.19
221.06	2185.18
221.28	2392.03
221.50	2308.06
221.72	2170.85
221.94	2150.37
222.16	2324.44
222.38	2326.49
222.60	2205.66
222.82	2217.95
223.03	2359.26
223.25	2195.42
223.47	2242.53
223.69	2414.56
223.91	2338.78
224.13	2275.29
224.35	2136.03
224.57	2310.11
224.78	2322.40
225.00	2138.08
225.22	2170.85
225.44	2187.23
225.66	2324.44
225.88	2228.19
226.10	2279.39
226.32	2170.85
226.53	2377.69
226.75	2211.81
226.97	2164.70
227.19	2236.38
227.41	2246.62
227.63	2179.04
227.85	1998.82
228.06	2170.85
228.28	2250.72
228.50	2422.75
228.72	2084.83
228.94	2084.83
229.16	2058.21
229.37	2144.22
229.59	2160.61
229.81	2242.53
230.03	2193.37
230.25	2164.70
230.47	2105.31
230.69	2037.73
230.90	2387.93
231.12	2179.04
231.34	2213.85
231.56	2217.95
231.78	2146.27
232.00	2217.95
232.21	2195.42
232.43	2193.37
232.65	2062.30
232.87	2334.68
233.09	2101.22
233.30	2154.46
233.52	2383.84
233.74	2232.29
233.96	2162.66
234.18	2211.81
234.40	2217.95
234.61	2551.77
234.83	2109.41
235.05	2095.07
235.27	2447.32
235.49	2383.84
235.70	2142.18
235.92	2357.21
236.14	2269.15
236.36	2506.71
236.58	2117.60
236.79	2183.13
237.01	2291.68
237.23	2293.72
237.45	2338.78
237.67	2121.70
237.88	2232.29
238.10	2432.99
238.32	2127.84
238.54	2248.67
238.76	2301.92
238.97	2166.75
239.19	2101.22
239.41	2271.20
239.63	2412.51
239.85	2267.10
240.06	2195.42
240.28	2136.03
240.50	2400.22
240.72	2254.81
240.93	2176.99
241.15	2195.42
241.37	2267.10
241.59	2385.88
241.81	2203.61
242.02	2154.46
242.24	2306.01
242.46	2334.68
242.68	2129.89
242.89	2117.60
243.11	2353.12
243.33	2252.77
243.55	2211.81
243.76	2183.13
243.98	2187.23
244.20	2156.51
244.42	2174.94
244.64	2250.72
244.85	2121.70
245.07	2150.37
245.29	2166.75
245.51	2142.18
245.72	2316.25
245.94	2281.44
246.16	2232.29
246.38	2226.14
246.59	2228.19
246.81	2220.00
247.03	2103.26
247.24	2015.20
247.46	2213.85
247.68	2275.29
247.90	2115.55
248.11	2103.26
248.33	2334.68
248.55	2258.91
248.77	2222.05
248.98	2328.54
249.20	2414.56
249.42	2213.85
249.64	2201.57
249.85	2119.65
250.07	2238.43
250.29	2338.78
250.50	2226.14
250.72	2047.97
250.94	2281.44
251.16	2422.75
251.37	2203.61
251.59	2226.14
251.81	2295.77
252.02	2408.41
252.24	2160.61
252.46	2308.06
252.68	2170.85
252.89	2222.05
253.11	2031.58
253.33	2371.55
253.54	2404.32
253.76	2117.60
253.98	2170.85
254.20	2228.19
254.41	2121.70
254.63	2213.85
254.85	2138.08
255.06	2232.29
255.28	2244.57
255.50	2256.86
255.71	2103.26
255.93	2027.49
256.15	2170.85
256.36	2310.11
256.58	2174.94
256.80	2201.57
257.02	2189.28
257.23	2189.28
257.45	2148.32
257.67	2250.72
257.88	2138.08
258.10	2344.92
258.32	2168.80
258.53	2254.81
258.75	2457.56
258.97	2146.27
259.18	2193.37
259.40	2101.22
259.62	2471.90
259.83	2506.71
260.05	2203.61
260.27	2645.98
260.48	2381.79
260.70	2174.94
260.92	2154.46
261.13	2230.24
261.35	2299.87
261.57	2310.11
261.78	2035.68
262.00	2148.32
262.22	2338.78
262.43	2191.33
262.65	2220.00
262.86	2168.80
263.08	2531.29
263.30	2252.77
263.51	2105.31
263.73	2138.08
263.95	2369.50
264.16	2146.27
264.38	2123.74
264.60	2160.61
264.81	2252.77
265.03	2383.84
265.25	2402.27
265.46	2215.90
265.68	2357.21
265.89	2336.73
266.11	2013.15
266.33	2236.38
266.54	2400.22
266.76	2301.92
266.98	2267.10
267.19	2224.09
267.41	2416.60
267.62	2256.86
267.84	1976.29
268.06	2236.38
268.27	2271.20
268.49	2338.78
268.70	2236.38
268.92	2052.06
269.14	2146.27
269.35	2152.42
269.57	2211.81
269.79	2277.34
270.00	2222.05
270.22	2412.51
270.43	2023.39
270.65	2031.58
270.87	2291.68
271.08	2324.44
271.30	2154.46
271.51	2170.85
271.73	2303.96
271.95	2346.97
272.16	2197.47
272.38	2193.37
272.59	2228.19
272.81	2336.73
273.02	2144.22
273.24	2181.09
273.46	2299.87
273.67	2197.47
273.89	2097.12
274.10	2131.94
274.32	2322.40
274.54	2205.66
274.75	2267.10
274.97	2127.84
275.18	2326.49
275.40	2355.16
275.61	2226.14
275.83	2232.29
276.05	2142.18
276.26	2234.33
276.48	2258.91
276.69	2195.42
276.91	2179.04
277.12	2361.31
277.34	2285.53
277.55	2338.78
277.77	2203.61
277.99	2195.42
278.20	2103.26
278.42	2136.03
278.63	2170.85
278.85	2156.51
279.06	2086.88
279.28	2289.63
279.49	2359.26
279.71	2293.72
279.93	2283.49
280.14	2308.06
280.36	2125.79
280.57	2377.69
280.79	2228.19
281.00	2154.46
281.22	2228.19
281.43	2389.98
281.65	2066.40
281.86	2123.74
282.08	2310.11
282.29	2418.65
282.51	2101.22
282.73	2080.74
282.94	2119.65
283.16	2312.16
283.37	2271.20
283.59	2211.81
283.80	2357.21
284.02	2295.77
284.23	2326.49
284.45	2211.81
284.66	2187.23
284.88	2250.72
285.09	2281.44
285.31	2301.92
285.52	2267.10
285.74	2101.22
285.95	2279.39
286.17	2244.57
286.38	2353.12
286.60	2242.53
286.81	2205.66
287.03	2215.90
287.24	2250.72
287.46	2328.54
287.67	2269.15
287.89	2453.47
288.10	2232.29
288.32	2281.44
288.53	2359.26
288.75	2168.80
288.96	2332.64
289.18	2156.51
289.39	2211.81
289.61	2398.17
289.82	2455.51
290.04	2412.51
290.25	2150.37
290.47	2283.49
290.68	2254.81
290.90	2387.93
291.11	2045.92
291.33	2349.02
291.54	2121.70
291.76	2144.22
291.97	2234.33
292.18	2277.34
292.40	2123.74
292.61	2172.89
292.83	2455.51
293.04	2269.15
293.26	2250.72
293.47	2303.96
293.69	2183.13
293.90	2236.38
294.12	2392.03
294.33	2277.34
294.55	2172.89
294.76	2320.35
294.97	2363.36
295.19	2443.23
295.40	2195.42
295.62	2285.53
295.83	2314.20
296.05	2148.32
296.26	2306.01
296.48	2152.42
296.69	2273.25
296.90	2306.01
297.12	2371.55
297.33	2387.93
297.55	2260.96
297.76	2367.45
297.98	2306.01
298.19	2162.66
298.41	2170.85
298.62	2170.85
298.83	2383.84
299.05	2123.74
299.26	2250.72
299.48	2138.08
299.69	2336.73
299.90	2312.16
300.12	2154.46
300.33	2340.83
300.55	2297.82
300.76	2269.15
300.98	2066.40
301.19	2353.12
301.40	2263.01
301.62	2252.77
301.83	2269.15
302.05	2242.53
302.26	2242.53
302.47	2265.05
302.69	2158.56
302.90	2349.02
303.12	2047.97
303.33	2318.30
303.54	2467.80
303.76	2256.86
303.97	2277.34
304.19	2424.80
304.40	2138.08
304.61	2336.73
304.83	2392.03
305.04	2287.58
305.26	2353.12
305.47	2193.37
305.68	2220.00
305.90	2140.13
306.11	2404.32
306.33	2183.13
306.54	2187.23
306.75	2213.85
306.97	2136.03
307.18	2160.61
307.39	2203.61
307.61	2187.23
307.82	2170.85
308.04	2217.95
308.25	2185.18
308.46	2275.29
308.68	2322.40
308.89	2236.38
309.10	2412.51
309.32	2310.11
309.53	2220.00
309.74	2295.77
309.96	2176.99
310.17	2293.72
310.39	2209.76
310.60	2230.24
310.81	2277.34
311.03	2095.07
311.24	2310.11
311.45	2234.33
311.67	2377.69
311.88	2244.57
312.09	2197.47
312.31	2172.89
312.52	2193.37
312.73	2228.19
312.95	2105.31
313.16	2103.26
313.37	2363.36
313.59	2277.34
313.80	2246.62
314.01	2404.32
314.23	2220.00
314.44	2154.46
314.65	2070.50
314.87	2133.98
315.08	2228.19
315.29	2152.42
315.51	2201.57
315.72	2095.07
315.93	2383.84
316.15	2265.05
316.36	2285.53
316.57	2277.34
316.79	2211.81
317.00	2201.57
317.21	2250.72
317.43	2187.23
317.64	2209.76
317.85	2117.60
318.07	2117.60
318.28	2281.44
318.49	2392.03
318.70	2523.10
318.92	2455.51
319.13	2412.51
319.34	2439.13
319.56	2244.57
319.77	2400.22
319.98	2398.17
320.20	2340.83
320.41	2303.96
320.62	2330.59
320.83	2146.27
321.05	2496.47
321.26	2295.77
321.47	2203.61
321.69	2367.45
321.90	2121.70
322.11	2158.56
322.32	2267.10
322.54	2408.41
322.75	2179.04
322.96	2527.19
323.18	2136.03
323.39	2078.69
323.60	2142.18
323.81	2306.01
324.03	2293.72
324.24	2328.54
324.45	2277.34
324.66	2199.52
324.88	2439.13
325.09	2381.79
325.30	2203.61
325.52	2189.28
325.73	2318.30
325.94	2205.66
326.15	2074.59
326.37	2187.23
326.58	2301.92
326.79	2359.26
327.00	2107.36
327.22	2283.49
327.43	2244.57
327.64	2158.56
327.85	2332.64
328.07	2215.90
328.28	2430.94
328.49	2164.70
328.70	2242.53
328.92	2166.75
329.13	2226.14
329.34	2381.79
329.55	2334.68
329.76	2301.92
329.98	2209.76
330.19	2375.64
330.40	2211.81
330.61	2238.43
330.83	2281.44
331.04	2191.33
331.25	2334.68
331.46	2346.97
331.68	2203.61
331.89	2314.20
332.10	2250.72
332.31	2101.22
332.52	2248.67
332.74	2369.50
332.95	2101.22
333.16	2164.70
333.37	2283.49
333.58	2136.03
333.80	2269.15
334.01	2127.84
334.22	2256.86
334.43	2144.22
334.64	2207.71
334.86	2084.83
335.07	2207.71
335.28	2377.69
335.49	2097.12
335.70	2203.61
335.92	2389.98
336.13	2453.47
336.34	2277.34
336.55	2303.96
336.76	2220.00
336.98	2086.88
337.19	2228.19
337.40	2396.12
337.61	2527.19
337.82	2260.96
338.04	2297.82
338.25	2121.70
338.46	2236.38
338.67	2269.15
338.88	2050.02
339.09	2183.13
339.31	2105.31
339.52	2111.46
339.73	2203.61
339.94	2203.61
340.15	2365.40
340.36	2146.27
340.58	2258.91
340.79	2156.51
341.00	2318.30
341.21	2140.13
341.42	2422.75
341.63	2144.22
341.85	2383.84
342.06	2240.48
342.27	2117.60
342.48	2277.34
342.69	2209.76
342.90	2334.68
343.12	2365.40
343.33	2129.89
343.54	2451.42
343.75	2303.96
343.96	2256.86
344.17	2142.18
344.38	2252.77
344.60	2138.08
344.81	2113.50
345.02	2244.57
345.23	2402.27
345.44	2508.76
345.65	2289.63
345.86	2299.87
346.07	2377.69
346.29	2203.61
346.50	2363.36
346.71	2363.36
346.92	2408.41
347.13	2449.37
347.34	2240.48
347.55	2275.29
347.76	2299.87
347.98	2127.84
348.19	2269.15
348.40	2306.01
348.61	2230.24
348.82	2373.60
349.03	2346.97
349.24	2154.46
349.45	2478.04
349.66	2146.27
349.88	2226.14
350.09	2176.99
350.30	2369.50
350.51	2314.20
350.72	2295.77
350.93	2201.57
351.14	2195.42
351.35	2299.87
351.56	2250.72
351.77	2211.81
351.99	2244.57
352.20	2410.46
352.41	2291.68
352.62	2097.12
352.83	2224.09
353.04	2271.20
353.25	2209.76
353.46	2242.53
353.67	2365.40
353.88	2107.36
354.09	2293.72
354.30	2250.72
354.52	2314.20
354.73	2232.29
354.94	2154.46
355.15	2285.53
355.36	2465.75
355.57	2189.28
355.78	2205.66
355.99	2179.04
356.20	2215.90
356.41	2396.12
356.62	2310.11
356.83	2267.10
357.04	2357.21
357.25	2119.65
357.46	2162.66
357.68	2072.54
357.89	2138.08
358.10	2236.38
358.31	2211.81
358.52	2250.72
358.73	2176.99
358.94	2131.94
359.15	2187.23
359.36	2381.79
359.57	2250.72
359.78	2226.14
359.99	2334.68
360.20	2127.84
360.41	2242.53
360.62	2359.26
360.83	2236.38
361.04	2234.33
361.25	2330.59
361.46	2365.40
361.67	2381.79
361.88	2283.49
362.09	2342.88
362.30	2246.62
362.51	2215.90
362.72	2258.91
362.93	2316.25
363.14	2322.40
363.35	2226.14
363.56	2123.74
363.78	2359.26
363.99	2392.03
364.20	2166.75
364.41	2263.01
364.62	2412.51
364.83	2291.68
365.04	2201.57
365.25	2240.48
365.46	2371.55
365.67	2131.94
365.88	2281.44
366.09	2234.33
366.30	2269.15
366.51	2271.20
366.72	2103.26
366.93	2222.05
367.14	2285.53
367.35	2394.08
367.56	2269.15
367.77	2349.02
367.98	2228.19
368.18	2232.29
368.39	2226.14
368.60	2211.81
368.81	2394.08
369.02	2349.02
369.23	2312.16
369.44	2144.22
369.65	2187.23
369.86	2285.53
370.07	2224.09
370.28	2269.15
370.49	2373.60
370.70	2285.53
370.91	2105.31
371.12	2097.12
371.33	2332.64
371.54	2217.95
371.75	2340.83
371.96	1990.63
372.17	2207.71
372.38	2183.13
372.59	2322.40
372.80	2197.47
373.01	2351.07
373.22	2301.92
373.43	2242.53
373.64	2168.80
373.85	2353.12
374.06	2430.94
374.26	2400.22
374.47	2289.63
374.68	2363.36
374.89	2244.57
375.10	2275.29
375.31	2265.05
375.52	2205.66
375.73	2301.92
375.94	2142.18
376.15	2400.22
376.36	2220.00
376.57	2191.33
376.78	2201.57
376.99	2170.85
377.20	2377.69
377.40	2260.96
377.61	2387.93
377.82	2162.66
378.03	2465.75
378.24	2373.60
378.45	2295.77
378.66	2385.88
378.87	2080.74
379.08	2123.74
379.29	2172.89
379.50	2367.45
379.71	2209.76
379.91	2377.69
380.12	2244.57
380.33	2289.63
380.54	2217.95
380.75	2181.09
380.96	2215.90
381.17	2318.30
381.38	2250.72
381.59	2265.05
381.80	2310.11
382.00	2480.09
382.21	2263.01
382.42	2414.56
382.63	2496.47
382.84	2377.69
383.05	2361.31
383.26	2387.93
383.47	2258.91
383.68	2289.63
383.88	2338.78
384.09	2256.86
384.30	2443.23
384.51	2336.73
384.72	2179.04
384.93	2150.37
385.14	2271.20
385.35	2363.36
385.55	2105.31
385.76	2301.92
385.97	2242.53
386.18	2121.70
386.39	2209.76
386.60	2275.29
386.81	2209.76
387.02	2179.04
387.22	2166.75
387.43	2318.30
387.64	2353.12
387.85	2439.13
388.06	2432.99
388.27	3993.54
388.48	8247.17
388.68	11644.75
388.89	14006.06
389.10	15300.37
389.31	13928.24
389.52	11054.94
389.73	9414.51
389.93	8664.96
390.14	7901.06
390.35	7063.44
390.56	6467.49
390.77	5169.07
390.98	4024.26
391.18	3260.37
391.39	2719.70
391.60	2402.27
391.81	2404.32
392.02	2220.00
392.23	2514.91
392.43	2293.72
392.64	2342.88
392.85	2301.92
393.06	2463.71
393.27	2322.40
393.47	2228.19
393.68	2256.86
393.89	2283.49
394.10	2369.50
394.31	2209.76
394.52	2119.65
394.72	2166.75
394.93	2453.47
395.14	2123.74
395.35	2295.77
395.56	2170.85
395.76	2252.77
395.97	2361.31
396.18	2340.83
396.39	2385.88
396.60	2815.96
396.80	2484.19
397.01	2359.26
397.22	2404.32
397.43	2340.83
397.64	2295.77
397.84	2349.02
398.05	2475.99
398.26	2277.34
398.47	2377.69
398.67	2385.88
398.88	2308.06
399.09	2248.67
399.30	2226.14
399.51	2250.72
399.71	2215.90
399.92	2310.11
400.13	2308.06
400.34	2228.19
400.54	2308.06
400.75	2439.13
400.96	2273.25
401.17	2457.56
401.37	2334.68
401.58	2365.40
401.79	2281.44
402.00	2367.45
402.21	2602.97
402.41	2559.96
402.62	2535.39
402.83	2643.93
403.04	2703.32
403.24	2760.66
403.45	2365.40
403.66	2596.82
403.87	2422.75
404.07	2570.20
404.28	2498.52
404.49	2506.71
404.70	2367.45
404.90	2363.36
405.11	2258.91
405.32	2301.92
405.52	2174.94
405.73	2203.61
405.94	2162.66
406.15	2224.09
406.35	2326.49
406.56	2330.59
406.77	2295.77
406.98	2297.82
407.18	2203.61
407.39	2381.79
407.60	2252.77
407.80	2232.29
408.01	2238.43
408.22	2316.25
408.43	2162.66
408.63	2342.88
408.84	2353.12
409.05	2324.44
409.25	2129.89
409.46	2156.51
409.67	2160.61
409.88	2242.53
410.08	2246.62
410.29	2254.81
410.50	2387.93
410.70	2322.40
410.91	2189.28
411.12	2213.85
411.32	2183.13
411.53	2215.90
411.74	2326.49
411.95	2332.64
412.15	2342.88
412.36	2420.70
412.57	2400.22
412.77	2404.32
412.98	2232.29
413.19	2252.77
413.39	2410.46
413.60	2351.07
413.81	2342.88
414.01	2207.71
414.22	2297.82
414.43	2330.59
414.63	2232.29
414.84	2416.60
415.05	2279.39
415.25	2133.98
415.46	2349.02
415.67	2252.77
415.87	2330.59
416.08	2271.20
416.29	2258.91
416.49	2310.11
416.70	2217.95
416.91	2250.72
417.11	2238.43
417.32	2308.06
417.53	2303.96
417.73	2314.20
417.94	2215.90
418.15	2281.44
418.35	2275.29
418.56	2230.24
418.77	2514.91
418.97	2236.38
419.18	2283.49
419.38	2097.12
419.59	2310.11
419.80	2371.55
420.00	2191.33
420.21	2340.83
420.42	2346.97
420.62	2322.40
420.83	2267.10
421.04	2127.84
421.24	2154.46
421.45	2369.50
421.65	2281.44
421.86	2146.27
422.07	2338.78
422.27	2312.16
422.48	2199.52
422.69	2111.46
422.89	2291.68
423.10	2174.94
423.30	2097.12
423.51	2263.01
423.72	2310.11
423.92	2301.92
424.13	2058.21
424.33	2318.30
424.54	2357.21
424.75	2252.77
424.95	2449.37
425.16	2265.05
425.36	2234.33
425.57	2316.25
425.78	2308.06
425.98	2291.68
426.19	2209.76
426.39	2187.23
426.60	2273.25
426.81	2457.56
427.01	2301.92
427.22	2213.85
427.42	2123.74
427.63	2152.42
427.83	2377.69
428.04	2457.56
428.25	2349.02
428.45	2260.96
428.66	2306.01
428.86	2281.44
429.07	2242.53
429.28	2230.24
429.48	2193.37
429.69	2199.52
429.89	2383.84
430.10	2176.99
430.30	2330.59
430.51	2377.69
430.71	2211.81
430.92	2215.90
431.13	2228.19
431.33	2328.54
431.54	2244.57
431.74	2367.45
431.95	2484.19
432.15	2170.85
432.36	2256.86
432.56	2256.86
432.77	2519.00
432.98	2519.00
433.18	2326.49
433.39	2238.43
433.59	2256.86
433.80	2443.23
434.00	2463.71
434.21	2232.29
434.41	2203.61
434.62	2445.27
434.82	2097.12
435.03	2166.75
435.23	2252.77
435.44	2054.11
435.64	2289.63
435.85	2299.87
436.06	2283.49
436.26	2400.22
436.47	2234.33
436.67	2176.99
436.88	2201.57
437.08	2416.60
437.29	2439.13
437.49	2281.44
437.70	2406.36
437.90	2242.53
438.11	2361.31
438.31	2310.11
438.52	2453.47
438.72	2457.56
438.93	2525.15
439.13	2377.69
439.34	2367.45
439.54	2322.40
439.75	2336.73
439.95	2367.45
440.16	2185.18
440.36	2285.53
440.57	2326.49
440.77	2183.13
440.98	2299.87
441.18	2256.86
441.39	2220.00
441.59	2183.13
441.80	2529.24
442.00	2242.53
442.21	2326.49
442.41	2142.18
442.62	2432.99
442.82	2224.09
443.02	2226.14
443.23	2193.37
443.43	2308.06
443.64	2435.03
443.84	2217.95
444.05	2385.88
444.25	2324.44
444.46	2260.96
444.66	2244.57
444.87	2398.17
445.07	2148.32
445.28	2279.39
445.48	2412.51
445.69	2310.11
445.89	2506.71
446.09	2293.72
446.30	2521.05
446.50	2805.72
446.71	4356.03
446.91	5511.08
447.12	6561.69
447.32	6762.39
447.53	6322.08
447.73	5253.04
447.93	4548.54
448.14	4284.35
448.34	4224.96
448.55	3624.90
448.75	3540.94
448.96	3321.81
449.16	3071.95
449.36	2867.16
449.57	2600.92
449.77	2424.80
449.98	2252.77
450.18	2326.49
450.39	2326.49
450.59	2389.98
450.79	2308.06
451.00	2265.05
451.20	2342.88
451.41	2314.20
451.61	2351.07
451.81	2246.62
452.02	2160.61
452.22	2287.58
452.43	2201.57
452.63	2244.57
