SpectraSuite Data File
++++++++++++++++++++++++++++++++++++
Date: Thu May 05 13:21:32 CEST 2016
User: root
Dark Spectrum Present: No
Reference Spectrum Present: No
Number of Sampled Component Spectra: 1
Spectrometers: USB4C02835
Integration Time (usec): 100000 (USB4C02835)
Spectra Averaged: 1 (USB4C02835)
Boxcar Smoothing: 0 (USB4C02835)
Correct for Electrical Dark: No (USB4C02835)
Strobe/Lamp Enabled: No (USB4C02835)
Correct for Detector Non-linearity: No (USB4C02835)
Correct for Stray Light: No (USB4C02835)
Number of Pixels in Processed Spectrum: 3648
>>>>>Begin Processed Spectral Data<<<<<
177.47	1834.98
177.69	1834.98
177.91	1834.98
178.13	1722.34
178.36	1808.36
178.58	2133.98
178.80	2287.58
179.02	2127.84
179.24	2136.03
179.46	2136.03
179.68	2228.19
179.90	2228.19
180.13	2252.77
180.35	2090.98
180.57	2244.57
180.79	2301.92
181.01	2279.39
181.23	2242.53
181.45	2295.77
181.67	2463.71
181.90	2351.07
182.12	2101.22
182.34	2052.06
182.56	2277.34
182.78	2334.68
183.00	2164.70
183.22	2260.96
183.44	2084.83
183.66	2574.30
183.89	2369.50
184.11	2232.29
184.33	2289.63
184.55	2381.79
184.77	2183.13
184.99	2236.38
185.21	2207.71
185.43	2551.77
185.65	2160.61
185.87	2203.61
186.10	2523.10
186.32	2463.71
186.54	2318.30
186.76	2195.42
186.98	2273.25
187.20	2181.09
187.42	2136.03
187.64	2174.94
187.86	2248.67
188.08	2273.25
188.30	2148.32
188.52	2154.46
188.75	2416.60
188.97	2318.30
189.19	2189.28
189.41	2125.79
189.63	2260.96
189.85	2193.37
190.07	2045.92
190.29	2115.55
190.51	2303.96
190.73	2117.60
190.95	2299.87
191.17	2189.28
191.39	2129.89
191.61	2260.96
191.84	2111.46
192.06	2293.72
192.28	2113.50
192.50	2588.63
192.72	2193.37
192.94	2191.33
193.16	2260.96
193.38	2269.15
193.60	2138.08
193.82	2191.33
194.04	2385.88
194.26	2383.84
194.48	2287.58
194.70	2131.94
194.92	2187.23
195.14	2346.97
195.36	2127.84
195.58	2258.91
195.80	2236.38
196.02	2267.10
196.24	2129.89
196.46	2179.04
196.69	2170.85
196.91	2512.86
197.13	2197.47
197.35	2189.28
197.57	2439.13
197.79	2254.81
198.01	2226.14
198.23	2254.81
198.45	2349.02
198.67	2095.07
198.89	2160.61
199.11	2248.67
199.33	2187.23
199.55	2062.30
199.77	2123.74
199.99	2222.05
200.21	2207.71
200.43	2314.20
200.65	2103.26
200.87	2047.97
201.09	2260.96
201.31	2269.15
201.53	2191.33
201.75	2240.48
201.97	2238.43
202.19	2234.33
202.41	2203.61
202.63	2285.53
202.85	2303.96
203.07	2330.59
203.29	2152.42
203.51	2103.26
203.73	2113.50
203.95	2572.25
204.17	2226.14
204.39	2240.48
204.61	2301.92
204.83	2273.25
205.05	2299.87
205.27	2228.19
205.49	2488.28
205.71	2232.29
205.93	2131.94
206.15	2179.04
206.37	2373.60
206.59	2224.09
206.81	2127.84
207.03	2119.65
207.25	2207.71
207.47	2285.53
207.69	2193.37
207.91	2310.11
208.13	2514.91
208.34	2176.99
208.56	2131.94
208.78	2213.85
209.00	2293.72
209.22	2263.01
209.44	2242.53
209.66	2172.89
209.88	2215.90
210.10	2236.38
210.32	2174.94
210.54	2310.11
210.76	2187.23
210.98	2381.79
211.20	2080.74
211.42	2228.19
211.64	2326.49
211.86	2252.77
212.08	2285.53
212.30	2242.53
212.52	2252.77
212.74	2271.20
212.96	2236.38
213.17	2250.72
213.39	2312.16
213.61	2445.27
213.83	2136.03
214.05	2185.18
214.27	2357.21
214.49	2154.46
214.71	2150.37
214.93	2271.20
215.15	2252.77
215.37	2263.01
215.59	2158.56
215.81	2254.81
216.03	2316.25
216.24	2303.96
216.46	2215.90
216.68	2170.85
216.90	2295.77
217.12	2328.54
217.34	2193.37
217.56	2209.76
217.78	2351.07
218.00	2322.40
218.22	2273.25
218.44	2236.38
218.66	2265.05
218.87	2428.89
219.09	2154.46
219.31	2193.37
219.53	2220.00
219.75	2250.72
219.97	2213.85
220.19	2220.00
220.41	2299.87
220.63	2451.42
220.85	2150.37
221.06	2187.23
221.28	2396.12
221.50	2353.12
221.72	2203.61
221.94	2162.66
222.16	2342.88
222.38	2285.53
222.60	2136.03
222.82	2254.81
223.03	2328.54
223.25	2113.50
223.47	2185.18
223.69	2351.07
223.91	2334.68
224.13	2318.30
224.35	2088.93
224.57	2246.62
224.78	2252.77
225.00	2189.28
225.22	2191.33
225.44	2146.27
225.66	2332.64
225.88	2154.46
226.10	2256.86
226.32	2172.89
226.53	2373.60
226.75	2183.13
226.97	2183.13
227.19	2207.71
227.41	2220.00
227.63	2252.77
227.85	1994.72
228.06	2185.18
228.28	2269.15
228.50	2361.31
228.72	2072.54
228.94	2187.23
229.16	2078.69
229.37	2160.61
229.59	2140.13
229.81	2392.03
230.03	2203.61
230.25	2148.32
230.47	2109.41
230.69	2133.98
230.90	2318.30
231.12	2185.18
231.34	2250.72
231.56	2224.09
231.78	2127.84
232.00	2299.87
232.21	2136.03
232.43	2199.52
232.65	2019.30
232.87	2277.34
233.09	2146.27
233.30	2158.56
233.52	2297.82
233.74	2113.50
233.96	2133.98
234.18	2179.04
234.40	2195.42
234.61	2484.19
234.83	2129.89
235.05	2056.16
235.27	2545.63
235.49	2340.83
235.70	2142.18
235.92	2299.87
236.14	2310.11
236.36	2455.51
236.58	2123.74
236.79	2240.48
237.01	2263.01
237.23	2187.23
237.45	2328.54
237.67	2179.04
237.88	2248.67
238.10	2426.84
238.32	2039.78
238.54	2197.47
238.76	2242.53
238.97	2232.29
239.19	2168.80
239.41	2187.23
239.63	2328.54
239.85	2199.52
240.06	2205.66
240.28	2209.76
240.50	2375.64
240.72	2244.57
240.93	2154.46
241.15	2254.81
241.37	2170.85
241.59	2441.18
241.81	2195.42
242.02	2185.18
242.24	2326.49
242.46	2357.21
242.68	2107.36
242.89	2213.85
243.11	2326.49
243.33	2203.61
243.55	2162.66
243.76	2256.86
243.98	2199.52
244.20	2248.67
244.42	2183.13
244.64	2238.43
244.85	2113.50
245.07	2107.36
245.29	2207.71
245.51	2172.89
245.72	2310.11
245.94	2375.64
246.16	2234.33
246.38	2277.34
246.59	2195.42
246.81	2172.89
247.03	2207.71
247.24	2007.01
247.46	2176.99
247.68	2191.33
247.90	2152.42
248.11	2133.98
248.33	2416.60
248.55	2254.81
248.77	2209.76
248.98	2242.53
249.20	2342.88
249.42	2355.16
249.64	2191.33
249.85	2209.76
250.07	2181.09
250.29	2250.72
250.50	2275.29
250.72	2123.74
250.94	2324.44
251.16	2494.43
251.37	2269.15
251.59	2246.62
251.81	2306.01
252.02	2400.22
252.24	2095.07
252.46	2306.01
252.68	2154.46
252.89	2168.80
253.11	2103.26
253.33	2320.35
253.54	2365.40
253.76	2080.74
253.98	2148.32
254.20	2174.94
254.41	2129.89
254.63	2308.06
254.85	2027.49
255.06	2248.67
255.28	2236.38
255.50	2166.75
255.71	2146.27
255.93	2070.50
256.15	2260.96
256.36	2357.21
256.58	2136.03
256.80	2076.64
257.02	2203.61
257.23	2176.99
257.45	2170.85
257.67	2285.53
257.88	2258.91
258.10	2277.34
258.32	2187.23
258.53	2234.33
258.75	2494.43
258.97	2160.61
259.18	2195.42
259.40	2138.08
259.62	2482.14
259.83	2334.68
260.05	2230.24
260.27	2684.89
260.48	2404.32
260.70	2164.70
260.92	2148.32
261.13	2193.37
261.35	2314.20
261.57	2351.07
261.78	2058.21
262.00	2191.33
262.22	2301.92
262.43	2187.23
262.65	2183.13
262.86	2213.85
263.08	2488.28
263.30	2308.06
263.51	2121.70
263.73	2105.31
263.95	2398.17
264.16	2176.99
264.38	2131.94
264.60	2193.37
264.81	2203.61
265.03	2322.40
265.25	2324.44
265.46	2183.13
265.68	2443.23
265.89	2289.63
266.11	2076.64
266.33	2228.19
266.54	2316.25
266.76	2357.21
266.98	2285.53
267.19	2263.01
267.41	2355.16
267.62	2213.85
267.84	2039.78
268.06	2244.57
268.27	2267.10
268.49	2406.36
268.70	2222.05
268.92	2164.70
269.14	2228.19
269.35	2142.18
269.57	2201.57
269.79	2201.57
270.00	2224.09
270.22	2414.56
270.43	2133.98
270.65	2043.87
270.87	2324.44
271.08	2346.97
271.30	2189.28
271.51	2174.94
271.73	2258.91
271.95	2422.75
272.16	2142.18
272.38	2195.42
272.59	2220.00
272.81	2310.11
273.02	2156.51
273.24	2217.95
273.46	2383.84
273.67	2119.65
273.89	2097.12
274.10	2097.12
274.32	2437.08
274.54	2207.71
274.75	2269.15
274.97	2250.72
275.18	2369.50
275.40	2226.14
275.61	2199.52
275.83	2316.25
276.05	2160.61
276.26	2197.47
276.48	2303.96
276.69	2254.81
276.91	2240.48
277.12	2396.12
277.34	2344.92
277.55	2273.25
277.77	2269.15
277.99	2236.38
278.20	2185.18
278.42	2136.03
278.63	2191.33
278.85	2213.85
279.06	2127.84
279.28	2240.48
279.49	2375.64
279.71	2281.44
279.93	2285.53
280.14	2195.42
280.36	2205.66
280.57	2308.06
280.79	2285.53
281.00	2148.32
281.22	2234.33
281.43	2426.84
281.65	2097.12
281.86	2152.42
282.08	2230.24
282.29	2441.18
282.51	2111.46
282.73	2142.18
282.94	2068.45
283.16	2318.30
283.37	2318.30
283.59	2232.29
283.80	2279.39
284.02	2260.96
284.23	2240.48
284.45	2191.33
284.66	2195.42
284.88	2136.03
285.09	2199.52
285.31	2293.72
285.52	2269.15
285.74	2152.42
285.95	2260.96
286.17	2330.59
286.38	2324.44
286.60	2215.90
286.81	2209.76
287.03	2295.77
287.24	2244.57
287.46	2318.30
287.67	2226.14
287.89	2387.93
288.10	2277.34
288.32	2207.71
288.53	2392.03
288.75	2303.96
288.96	2301.92
289.18	2228.19
289.39	2160.61
289.61	2351.07
289.82	2465.75
290.04	2473.95
290.25	2119.65
290.47	2193.37
290.68	2232.29
290.90	2330.59
291.11	2090.98
291.33	2371.55
291.54	2207.71
291.76	2230.24
291.97	2291.68
292.18	2344.92
292.40	2181.09
292.61	2203.61
292.83	2422.75
293.04	2224.09
293.26	2246.62
293.47	2224.09
293.69	2076.64
293.90	2119.65
294.12	2389.98
294.33	2273.25
294.55	2234.33
294.76	2363.36
294.97	2400.22
295.19	2566.10
295.40	2146.27
295.62	2324.44
295.83	2344.92
296.05	2207.71
296.26	2383.84
296.48	2121.70
296.69	2303.96
296.90	2230.24
297.12	2332.64
297.33	2349.02
297.55	2285.53
297.76	2277.34
297.98	2385.88
298.19	2236.38
298.41	2234.33
298.62	2269.15
298.83	2402.27
299.05	2287.58
299.26	2228.19
299.48	2176.99
299.69	2252.77
299.90	2228.19
300.12	2152.42
300.33	2283.49
300.55	2263.01
300.76	2220.00
300.98	2211.81
301.19	2293.72
301.40	2203.61
301.62	2230.24
301.83	2310.11
302.05	2203.61
302.26	2267.10
302.47	2273.25
302.69	2166.75
302.90	2265.05
303.12	2086.88
303.33	2238.43
303.54	2519.00
303.76	2215.90
303.97	2191.33
304.19	2375.64
304.40	2154.46
304.61	2312.16
304.83	2314.20
305.04	2336.73
305.26	2285.53
305.47	2199.52
305.68	2242.53
305.90	2166.75
306.11	2392.03
306.33	2232.29
306.54	2228.19
306.75	2226.14
306.97	2121.70
307.18	2189.28
307.39	2224.09
307.61	2308.06
307.82	2265.05
308.04	2291.68
308.25	2127.84
308.46	2228.19
308.68	2275.29
308.89	2275.29
309.10	2416.60
309.32	2220.00
309.53	2367.45
309.74	2375.64
309.96	2187.23
310.17	2332.64
310.39	2162.66
310.60	2289.63
310.81	2181.09
311.03	2113.50
311.24	2277.34
311.45	2295.77
311.67	2408.41
311.88	2220.00
312.09	2183.13
312.31	2129.89
312.52	2234.33
312.73	2176.99
312.95	2170.85
313.16	2179.04
313.37	2432.99
313.59	2299.87
313.80	2258.91
314.01	2416.60
314.23	2267.10
314.44	2060.26
314.65	2113.50
314.87	2211.81
315.08	2166.75
315.29	2187.23
315.51	2166.75
315.72	2060.26
315.93	2375.64
316.15	2301.92
316.36	2230.24
316.57	2275.29
316.79	2306.01
317.00	2260.96
317.21	2283.49
317.43	2152.42
317.64	2273.25
317.85	2242.53
318.07	2236.38
318.28	2244.57
318.49	2340.83
318.70	2457.56
318.92	2379.74
319.13	2414.56
319.34	2439.13
319.56	2332.64
319.77	2412.51
319.98	2396.12
320.20	2383.84
320.41	2306.01
320.62	2332.64
320.83	2154.46
321.05	2510.81
321.26	2254.81
321.47	2303.96
321.69	2408.41
321.90	2074.59
322.11	2209.76
322.32	2244.57
322.54	2367.45
322.75	2209.76
322.96	2627.54
323.18	2080.74
323.39	2029.54
323.60	2150.37
323.81	2355.16
324.03	2140.13
324.24	2213.85
324.45	2301.92
324.66	2189.28
324.88	2422.75
325.09	2379.74
325.30	2195.42
325.52	2226.14
325.73	2375.64
325.94	2095.07
326.15	2080.74
326.37	2140.13
326.58	2330.59
326.79	2408.41
327.00	2162.66
327.22	2154.46
327.43	2174.94
327.64	2142.18
327.85	2269.15
328.07	2211.81
328.28	2457.56
328.49	2250.72
328.70	2265.05
328.92	2195.42
329.13	2236.38
329.34	2316.25
329.55	2478.04
329.76	2322.40
329.98	2260.96
330.19	2369.50
330.40	2267.10
330.61	2260.96
330.83	2349.02
331.04	2211.81
331.25	2256.86
331.46	2299.87
331.68	2187.23
331.89	2351.07
332.10	2258.91
332.31	2121.70
332.52	2203.61
332.74	2449.37
332.95	2133.98
333.16	2260.96
333.37	2326.49
333.58	2265.05
333.80	2250.72
334.01	2035.68
334.22	2203.61
334.43	2176.99
334.64	2187.23
334.86	2133.98
335.07	2101.22
335.28	2383.84
335.49	2099.17
335.70	2211.81
335.92	2349.02
336.13	2484.19
336.34	2269.15
336.55	2287.58
336.76	2285.53
336.98	2060.26
337.19	2217.95
337.40	2363.36
337.61	2498.52
337.82	2174.94
338.04	2326.49
338.25	2105.31
338.46	2252.77
338.67	2228.19
338.88	2179.04
339.09	2164.70
339.31	2232.29
339.52	2088.93
339.73	2166.75
339.94	2277.34
340.15	2283.49
340.36	2138.08
340.58	2232.29
340.79	2185.18
341.00	2260.96
341.21	2138.08
341.42	2359.26
341.63	2232.29
341.85	2277.34
342.06	2267.10
342.27	2213.85
342.48	2342.88
342.69	2105.31
342.90	2269.15
343.12	2326.49
343.33	2242.53
343.54	2355.16
343.75	2432.99
343.96	2306.01
344.17	2160.61
344.38	2240.48
344.60	2195.42
344.81	2136.03
345.02	2207.71
345.23	2445.27
345.44	2473.95
345.65	2246.62
345.86	2242.53
346.07	2293.72
346.29	2224.09
346.50	2226.14
346.71	2263.01
346.92	2365.40
347.13	2396.12
347.34	2277.34
347.55	2097.12
347.76	2269.15
347.98	2121.70
348.19	2211.81
348.40	2359.26
348.61	2201.57
348.82	2439.13
349.03	2318.30
349.24	2156.51
349.45	2443.23
349.66	2068.45
349.88	2244.57
350.09	2133.98
350.30	2389.98
350.51	2375.64
350.72	2326.49
350.93	2193.37
351.14	2185.18
351.35	2328.54
351.56	2228.19
351.77	2260.96
351.99	2287.58
352.20	2381.79
352.41	2318.30
352.62	2002.91
352.83	2234.33
353.04	2265.05
353.25	2113.50
353.46	2303.96
353.67	2414.56
353.88	1996.77
354.09	2267.10
354.30	2263.01
354.52	2342.88
354.73	2228.19
354.94	2170.85
355.15	2232.29
355.36	2447.32
355.57	2203.61
355.78	2252.77
355.99	2187.23
356.20	2179.04
356.41	2383.84
356.62	2369.50
356.83	2211.81
357.04	2416.60
357.25	2070.50
357.46	2236.38
357.68	2125.79
357.89	2121.70
358.10	2308.06
358.31	2248.67
358.52	2236.38
358.73	2088.93
358.94	2136.03
359.15	2187.23
359.36	2303.96
359.57	2297.82
359.78	2150.37
359.99	2330.59
360.20	2152.42
360.41	2252.77
360.62	2375.64
360.83	2215.90
361.04	2250.72
361.25	2293.72
361.46	2449.37
361.67	2260.96
361.88	2275.29
362.09	2441.18
362.30	2295.77
362.51	2228.19
362.72	2236.38
362.93	2318.30
363.14	2357.21
363.35	2207.71
363.56	2187.23
363.78	2359.26
363.99	2379.74
364.20	2138.08
364.41	2254.81
364.62	2408.41
364.83	2285.53
365.04	2213.85
365.25	2240.48
365.46	2514.91
365.67	2097.12
365.88	2228.19
366.09	2183.13
366.30	2220.00
366.51	2308.06
366.72	2215.90
366.93	2168.80
367.14	2242.53
367.35	2383.84
367.56	2240.48
367.77	2365.40
367.98	2269.15
368.18	2322.40
368.39	2330.59
368.60	2170.85
368.81	2387.93
369.02	2330.59
369.23	2236.38
369.44	2078.69
369.65	2260.96
369.86	2363.36
370.07	2281.44
370.28	2160.61
370.49	2283.49
370.70	2291.68
370.91	2162.66
371.12	2131.94
371.33	2389.98
371.54	2197.47
371.75	2383.84
371.96	2047.97
372.17	2310.11
372.38	2250.72
372.59	2314.20
372.80	2133.98
373.01	2293.72
373.22	2244.57
373.43	2271.20
373.64	2125.79
373.85	2455.51
374.06	2408.41
374.26	2277.34
374.47	2291.68
374.68	2445.27
374.89	2328.54
375.10	2224.09
375.31	2303.96
375.52	2293.72
375.73	2291.68
375.94	2101.22
376.15	2324.44
376.36	2224.09
376.57	2244.57
376.78	2179.04
376.99	2226.14
377.20	2353.12
377.40	2191.33
377.61	2375.64
377.82	2064.35
378.03	2428.89
378.24	2238.43
378.45	2254.81
378.66	2224.09
378.87	2160.61
379.08	2152.42
379.29	2220.00
379.50	2389.98
379.71	2283.49
379.91	2318.30
380.12	2193.37
380.33	2176.99
380.54	2293.72
380.75	2281.44
380.96	2170.85
381.17	2336.73
381.38	2308.06
381.59	2400.22
381.80	2326.49
382.00	2435.03
382.21	2394.08
382.42	2371.55
382.63	2525.15
382.84	2328.54
383.05	2420.70
383.26	2439.13
383.47	2269.15
383.68	2301.92
383.88	2273.25
384.09	2232.29
384.30	2435.03
384.51	2351.07
384.72	2273.25
384.93	2138.08
385.14	2258.91
385.35	2365.40
385.55	2148.32
385.76	2334.68
385.97	2211.81
386.18	2201.57
386.39	2084.83
386.60	2260.96
386.81	2215.90
387.02	2205.66
387.22	2158.56
387.43	2287.58
387.64	2365.40
387.85	2359.26
388.06	2484.19
388.27	4063.17
388.48	8216.45
388.68	11720.53
388.89	13854.51
389.10	15062.81
389.31	14024.49
389.52	10870.62
389.73	9459.57
389.93	8517.50
390.14	8099.72
390.35	7194.51
390.56	6381.47
390.77	5226.42
390.98	4065.22
391.18	3268.56
391.39	2756.57
391.60	2428.89
391.81	2447.32
392.02	2234.33
392.23	2486.23
392.43	2320.35
392.64	2332.64
392.85	2265.05
393.06	2457.56
393.27	2398.17
393.47	2238.43
393.68	2273.25
393.89	2166.75
394.10	2371.55
394.31	2121.70
394.52	2183.13
394.72	2185.18
394.93	2482.14
395.14	2131.94
395.35	2306.01
395.56	2236.38
395.76	2283.49
395.97	2342.88
396.18	2475.99
396.39	2400.22
396.60	2637.78
396.80	2502.62
397.01	2424.80
397.22	2404.32
397.43	2465.75
397.64	2195.42
397.84	2346.97
398.05	2553.82
398.26	2330.59
398.47	2332.64
398.67	2340.83
398.88	2316.25
399.09	2265.05
399.30	2150.37
399.51	2273.25
399.71	2209.76
399.92	2256.86
400.13	2301.92
400.34	2228.19
400.54	2228.19
400.75	2392.03
400.96	2265.05
401.17	2383.84
401.37	2340.83
401.58	2232.29
401.79	2256.86
402.00	2437.08
402.21	2650.07
402.41	2576.34
402.62	2709.46
402.83	2748.37
403.04	2627.54
403.24	2873.30
403.45	2408.41
403.66	2457.56
403.87	2437.08
404.07	2508.76
404.28	2486.23
404.49	2531.29
404.70	2428.89
404.90	2453.47
405.11	2375.64
405.32	2285.53
405.52	2197.47
405.73	2230.24
405.94	2121.70
406.15	2277.34
406.35	2306.01
406.56	2269.15
406.77	2228.19
406.98	2269.15
407.18	2146.27
407.39	2441.18
407.60	2193.37
407.80	2291.68
408.01	2129.89
408.22	2250.72
408.43	2170.85
408.63	2330.59
408.84	2383.84
409.05	2357.21
409.25	2170.85
409.46	2191.33
409.67	2244.57
409.88	2258.91
410.08	2267.10
410.29	2179.04
410.50	2301.92
410.70	2334.68
410.91	2138.08
411.12	2332.64
411.32	2267.10
411.53	2146.27
411.74	2318.30
411.95	2324.44
412.15	2326.49
412.36	2394.08
412.57	2418.65
412.77	2404.32
412.98	2334.68
413.19	2244.57
413.39	2324.44
413.60	2217.95
413.81	2377.69
414.01	2150.37
414.22	2271.20
414.43	2277.34
414.63	2285.53
414.84	2361.31
415.05	2244.57
415.25	2172.89
415.46	2293.72
415.67	2256.86
415.87	2308.06
416.08	2179.04
416.29	2201.57
416.49	2314.20
416.70	2199.52
416.91	2242.53
417.11	2236.38
417.32	2357.21
417.53	2275.29
417.73	2285.53
417.94	2250.72
418.15	2301.92
418.35	2240.48
418.56	2260.96
418.77	2521.05
418.97	2267.10
419.18	2179.04
419.38	1996.77
419.59	2244.57
419.80	2469.85
420.00	2168.80
420.21	2260.96
420.42	2441.18
420.62	2238.43
420.83	2217.95
421.04	2199.52
421.24	2271.20
421.45	2363.36
421.65	2258.91
421.86	2199.52
422.07	2310.11
422.27	2310.11
422.48	2238.43
422.69	2195.42
422.89	2293.72
423.10	2238.43
423.30	2244.57
423.51	2240.48
423.72	2287.58
423.92	2334.68
424.13	2152.42
424.33	2269.15
424.54	2367.45
424.75	2203.61
424.95	2383.84
425.16	2316.25
425.36	2232.29
425.57	2379.74
425.78	2269.15
425.98	2351.07
426.19	2267.10
426.39	2056.16
426.60	2306.01
426.81	2392.03
427.01	2211.81
427.22	2207.71
427.42	2084.83
427.63	2166.75
427.83	2306.01
428.04	2385.88
428.25	2375.64
428.45	2334.68
428.66	2342.88
428.86	2342.88
429.07	2174.94
429.28	2236.38
429.48	2291.68
429.69	2187.23
429.89	2244.57
430.10	2107.36
430.30	2269.15
430.51	2369.50
430.71	2119.65
430.92	2236.38
431.13	2179.04
431.33	2342.88
431.54	2195.42
431.74	2418.65
431.95	2484.19
432.15	2189.28
432.36	2244.57
432.56	2277.34
432.77	2498.52
432.98	2439.13
433.18	2203.61
433.39	2207.71
433.59	2244.57
433.80	2449.37
434.00	2484.19
434.21	2258.91
434.41	2146.27
434.62	2478.04
434.82	2160.61
435.03	2164.70
435.23	2342.88
435.44	2113.50
435.64	2250.72
435.85	2283.49
436.06	2342.88
436.26	2283.49
436.47	2297.82
436.67	2193.37
436.88	2258.91
437.08	2371.55
437.29	2392.03
437.49	2179.04
437.70	2398.17
437.90	2306.01
438.11	2461.66
438.31	2351.07
438.52	2486.23
438.72	2449.37
438.93	2539.48
439.13	2396.12
439.34	2392.03
439.54	2295.77
439.75	2394.08
439.95	2351.07
440.16	2150.37
440.36	2383.84
440.57	2310.11
440.77	2275.29
440.98	2269.15
441.18	2371.55
441.39	2195.42
441.59	2097.12
441.80	2494.43
442.00	2230.24
442.21	2367.45
442.41	2172.89
442.62	2363.36
442.82	2179.04
443.02	2217.95
443.23	2293.72
443.43	2310.11
443.64	2400.22
443.84	2224.09
444.05	2408.41
444.25	2291.68
444.46	2209.76
444.66	2291.68
444.87	2430.94
445.07	2078.69
445.28	2187.23
445.48	2375.64
445.69	2322.40
445.89	2519.00
446.09	2289.63
446.30	2549.72
446.50	2832.34
446.71	4425.66
446.91	5619.63
447.12	6221.73
447.32	6604.70
447.53	6152.10
447.73	5167.03
447.93	4648.89
448.14	4218.82
448.34	4102.08
448.55	3495.88
448.75	3653.58
448.96	3416.01
449.16	3020.75
449.36	2842.58
449.57	2572.25
449.77	2432.99
449.98	2260.96
450.18	2367.45
450.39	2297.82
450.59	2306.01
450.79	2263.01
451.00	2226.14
451.20	2324.44
451.41	2289.63
451.61	2297.82
451.81	2273.25
452.02	2199.52
452.22	2209.76
452.43	2263.01
452.63	2224.09
