SpectraSuite Data File
++++++++++++++++++++++++++++++++++++
Date: Thu May 05 13:20:47 CEST 2016
User: root
Dark Spectrum Present: No
Reference Spectrum Present: No
Number of Sampled Component Spectra: 1
Spectrometers: USB4C02835
Integration Time (usec): 100000 (USB4C02835)
Spectra Averaged: 1 (USB4C02835)
Boxcar Smoothing: 0 (USB4C02835)
Correct for Electrical Dark: No (USB4C02835)
Strobe/Lamp Enabled: No (USB4C02835)
Correct for Detector Non-linearity: No (USB4C02835)
Correct for Stray Light: No (USB4C02835)
Number of Pixels in Processed Spectrum: 3648
>>>>>Begin Processed Spectral Data<<<<<
177.47	1794.02
177.69	1794.02
177.91	1794.02
178.13	1753.06
178.36	1806.31
178.58	2209.76
178.80	2283.49
179.02	2166.75
179.24	2144.22
179.46	2183.13
179.68	2318.30
179.90	2209.76
180.13	2211.81
180.35	2062.30
180.57	2228.19
180.79	2359.26
181.01	2244.57
181.23	2260.96
181.45	2260.96
181.67	2332.64
181.90	2283.49
182.12	2209.76
182.34	2072.54
182.56	2215.90
182.78	2291.68
183.00	2156.51
183.22	2195.42
183.44	2029.54
183.66	2478.04
183.89	2318.30
184.11	2176.99
184.33	2365.40
184.55	2346.97
184.77	2166.75
184.99	2129.89
185.21	2226.14
185.43	2502.62
185.65	2154.46
185.87	2125.79
186.10	2473.95
186.32	2420.70
186.54	2267.10
186.76	2203.61
186.98	2379.74
187.20	2246.62
187.42	2090.98
187.64	2189.28
187.86	2265.05
188.08	2336.73
188.30	2195.42
188.52	2154.46
188.75	2432.99
188.97	2430.94
189.19	2138.08
189.41	2133.98
189.63	2342.88
189.85	2119.65
190.07	2113.50
190.29	2064.35
190.51	2344.92
190.73	2129.89
190.95	2297.82
191.17	2240.48
191.39	2138.08
191.61	2185.18
191.84	2097.12
192.06	2179.04
192.28	2109.41
192.50	2478.04
192.72	2217.95
192.94	2119.65
193.16	2373.60
193.38	2236.38
193.60	2080.74
193.82	2136.03
194.04	2432.99
194.26	2303.96
194.48	2220.00
194.70	2093.02
194.92	2189.28
195.14	2297.82
195.36	2183.13
195.58	2213.85
195.80	2236.38
196.02	2246.62
196.24	2181.09
196.46	2220.00
196.69	2263.01
196.91	2512.86
197.13	2201.57
197.35	2095.07
197.57	2349.02
197.79	2355.16
198.01	2152.42
198.23	2084.83
198.45	2267.10
198.67	2150.37
198.89	2183.13
199.11	2244.57
199.33	2242.53
199.55	1998.82
199.77	2121.70
199.99	2320.35
200.21	2189.28
200.43	2318.30
200.65	2181.09
200.87	2090.98
201.09	2203.61
201.31	2189.28
201.53	2301.92
201.75	2224.09
201.97	2285.53
202.19	2242.53
202.41	2240.48
202.63	2441.18
202.85	2293.72
203.07	2222.05
203.29	2088.93
203.51	2117.60
203.73	2181.09
203.95	2547.67
204.17	2187.23
204.39	2275.29
204.61	2160.61
204.83	2195.42
205.05	2273.25
205.27	2277.34
205.49	2566.10
205.71	2129.89
205.93	2039.78
206.15	2138.08
206.37	2224.09
206.59	2228.19
206.81	2086.88
207.03	2105.31
207.25	2181.09
207.47	2277.34
207.69	2183.13
207.91	2373.60
208.13	2416.60
208.34	2234.33
208.56	2146.27
208.78	2265.05
209.00	2203.61
209.22	2256.86
209.44	2267.10
209.66	2058.21
209.88	2295.77
210.10	2228.19
210.32	2174.94
210.54	2275.29
210.76	2209.76
210.98	2389.98
211.20	2078.69
211.42	2193.37
211.64	2363.36
211.86	2373.60
212.08	2238.43
212.30	2187.23
212.52	2226.14
212.74	2297.82
212.96	2193.37
213.17	2240.48
213.39	2328.54
213.61	2310.11
213.83	2138.08
214.05	2187.23
214.27	2338.78
214.49	2119.65
214.71	2166.75
214.93	2308.06
215.15	2291.68
215.37	2281.44
215.59	2064.35
215.81	2209.76
216.03	2357.21
216.24	2263.01
216.46	2187.23
216.68	2213.85
216.90	2363.36
217.12	2379.74
217.34	2176.99
217.56	2193.37
217.78	2455.51
218.00	2269.15
218.22	2172.89
218.44	2258.91
218.66	2217.95
218.87	2424.80
219.09	2160.61
219.31	2205.66
219.53	2269.15
219.75	2193.37
219.97	2215.90
220.19	2232.29
220.41	2220.00
220.63	2463.71
220.85	2160.61
221.06	2103.26
221.28	2330.59
221.50	2383.84
221.72	2154.46
221.94	2142.18
222.16	2277.34
222.38	2340.83
222.60	2176.99
222.82	2224.09
223.03	2297.82
223.25	2152.42
223.47	2226.14
223.69	2256.86
223.91	2283.49
224.13	2248.67
224.35	2138.08
224.57	2322.40
224.78	2240.48
225.00	2179.04
225.22	2179.04
225.44	2152.42
225.66	2373.60
225.88	2234.33
226.10	2217.95
226.32	2230.24
226.53	2400.22
226.75	2209.76
226.97	2187.23
227.19	2144.22
227.41	2115.55
227.63	2201.57
227.85	2062.30
228.06	2160.61
228.28	2271.20
228.50	2330.59
228.72	2088.93
228.94	2166.75
229.16	2136.03
229.37	2136.03
229.59	2170.85
229.81	2355.16
230.03	2242.53
230.25	2076.64
230.47	2072.54
230.69	2047.97
230.90	2389.98
231.12	2232.29
231.34	2279.39
231.56	2224.09
231.78	2138.08
232.00	2185.18
232.21	2191.33
232.43	2111.46
232.65	1974.24
232.87	2295.77
233.09	2170.85
233.30	2152.42
233.52	2383.84
233.74	2254.81
233.96	2176.99
234.18	2242.53
234.40	2195.42
234.61	2492.38
234.83	2035.68
235.05	2052.06
235.27	2592.73
235.49	2330.59
235.70	2121.70
235.92	2234.33
236.14	2289.63
236.36	2551.77
236.58	2068.45
236.79	2244.57
237.01	2244.57
237.23	2258.91
237.45	2303.96
237.67	2121.70
237.88	2242.53
238.10	2394.08
238.32	2103.26
238.54	2179.04
238.76	2338.78
238.97	2168.80
239.19	2115.55
239.41	2271.20
239.63	2293.72
239.85	2199.52
240.06	2187.23
240.28	2179.04
240.50	2334.68
240.72	2281.44
240.93	2136.03
241.15	2248.67
241.37	2283.49
241.59	2369.50
241.81	2158.56
242.02	2287.58
242.24	2273.25
242.46	2381.79
242.68	2047.97
242.89	2170.85
243.11	2383.84
243.33	2310.11
243.55	2260.96
243.76	2275.29
243.98	2140.13
244.20	2183.13
244.42	2136.03
244.64	2195.42
244.85	2193.37
245.07	2183.13
245.29	2215.90
245.51	2211.81
245.72	2232.29
245.94	2426.84
246.16	2164.70
246.38	2260.96
246.59	2193.37
246.81	2119.65
247.03	2142.18
247.24	2074.59
247.46	2234.33
247.68	2330.59
247.90	2166.75
248.11	2117.60
248.33	2363.36
248.55	2228.19
248.77	2226.14
248.98	2363.36
249.20	2369.50
249.42	2226.14
249.64	2158.56
249.85	2222.05
250.07	2256.86
250.29	2301.92
250.50	2217.95
250.72	2144.22
250.94	2277.34
251.16	2467.80
251.37	2207.71
251.59	2285.53
251.81	2318.30
252.02	2375.64
252.24	2170.85
252.46	2189.28
252.68	2201.57
252.89	2199.52
253.11	2154.46
253.33	2375.64
253.54	2396.12
253.76	2058.21
253.98	2093.02
254.20	2127.84
254.41	2129.89
254.63	2168.80
254.85	1996.77
255.06	2181.09
255.28	2318.30
255.50	2207.71
255.71	2164.70
255.93	2176.99
256.15	2183.13
256.36	2301.92
256.58	2090.98
256.80	2291.68
257.02	2201.57
257.23	2252.77
257.45	2250.72
257.67	2293.72
257.88	2121.70
258.10	2293.72
258.32	2226.14
258.53	2150.37
258.75	2375.64
258.97	2240.48
259.18	2127.84
259.40	2150.37
259.62	2383.84
259.83	2492.38
260.05	2209.76
260.27	2662.36
260.48	2383.84
260.70	2222.05
260.92	2125.79
261.13	2220.00
261.35	2310.11
261.57	2281.44
261.78	2086.88
262.00	2170.85
262.22	2359.26
262.43	2236.38
262.65	2246.62
262.86	2189.28
263.08	2529.24
263.30	2295.77
263.51	1968.10
263.73	2113.50
263.95	2400.22
264.16	2174.94
264.38	2144.22
264.60	2187.23
264.81	2265.05
265.03	2365.40
265.25	2363.36
265.46	2170.85
265.68	2432.99
265.89	2295.77
266.11	2043.87
266.33	2121.70
266.54	2320.35
266.76	2332.64
266.98	2250.72
267.19	2340.83
267.41	2293.72
267.62	2250.72
267.84	2095.07
268.06	2269.15
268.27	2213.85
268.49	2359.26
268.70	2236.38
268.92	2228.19
269.14	2209.76
269.35	2111.46
269.57	2244.57
269.79	2197.47
270.00	2172.89
270.22	2330.59
270.43	2062.30
270.65	2002.91
270.87	2220.00
271.08	2299.87
271.30	2281.44
271.51	2172.89
271.73	2322.40
271.95	2363.36
272.16	2189.28
272.38	2250.72
272.59	2297.82
272.81	2291.68
273.02	2150.37
273.24	2144.22
273.46	2385.88
273.67	2152.42
273.89	2129.89
274.10	2117.60
274.32	2310.11
274.54	2258.91
274.75	2230.24
274.97	2211.81
275.18	2330.59
275.40	2308.06
275.61	2226.14
275.83	2285.53
276.05	2103.26
276.26	2205.66
276.48	2254.81
276.69	2156.51
276.91	2133.98
277.12	2396.12
277.34	2281.44
277.55	2310.11
277.77	2195.42
277.99	2199.52
278.20	2113.50
278.42	2072.54
278.63	2211.81
278.85	2131.94
279.06	2150.37
279.28	2236.38
279.49	2418.65
279.71	2297.82
279.93	2191.33
280.14	2260.96
280.36	2152.42
280.57	2310.11
280.79	2322.40
281.00	2140.13
281.22	2207.71
281.43	2353.12
281.65	2064.35
281.86	2236.38
282.08	2265.05
282.29	2486.23
282.51	2113.50
282.73	2146.27
282.94	2101.22
283.16	2297.82
283.37	2383.84
283.59	2217.95
283.80	2230.24
284.02	2301.92
284.23	2176.99
284.45	2236.38
284.66	2217.95
284.88	2113.50
285.09	2240.48
285.31	2246.62
285.52	2275.29
285.74	2156.51
285.95	2310.11
286.17	2273.25
286.38	2289.63
286.60	2183.13
286.81	2183.13
287.03	2183.13
287.24	2226.14
287.46	2281.44
287.67	2242.53
287.89	2392.03
288.10	2283.49
288.32	2289.63
288.53	2389.98
288.75	2265.05
288.96	2279.39
289.18	2217.95
289.39	2154.46
289.61	2289.63
289.82	2379.74
290.04	2443.23
290.25	2162.66
290.47	2244.57
290.68	2172.89
290.90	2334.68
291.11	2064.35
291.33	2363.36
291.54	2176.99
291.76	2176.99
291.97	2252.77
292.18	2271.20
292.40	2232.29
292.61	2215.90
292.83	2435.03
293.04	2275.29
293.26	2291.68
293.47	2263.01
293.69	2086.88
293.90	2271.20
294.12	2400.22
294.33	2326.49
294.55	2242.53
294.76	2279.39
294.97	2375.64
295.19	2482.14
295.40	2203.61
295.62	2330.59
295.83	2324.44
296.05	2172.89
296.26	2279.39
296.48	2160.61
296.69	2258.91
296.90	2281.44
297.12	2328.54
297.33	2383.84
297.55	2293.72
297.76	2293.72
297.98	2301.92
298.19	2234.33
298.41	2308.06
298.62	2220.00
298.83	2303.96
299.05	2187.23
299.26	2207.71
299.48	2154.46
299.69	2269.15
299.90	2252.77
300.12	2084.83
300.33	2346.97
300.55	2185.18
300.76	2324.44
300.98	2105.31
301.19	2281.44
301.40	2195.42
301.62	2150.37
301.83	2273.25
302.05	2265.05
302.26	2299.87
302.47	2310.11
302.69	2160.61
302.90	2283.49
303.12	2070.50
303.33	2301.92
303.54	2496.47
303.76	2162.66
303.97	2197.47
304.19	2392.03
304.40	2199.52
304.61	2228.19
304.83	2441.18
305.04	2326.49
305.26	2250.72
305.47	2246.62
305.68	2222.05
305.90	2072.54
306.11	2383.84
306.33	2236.38
306.54	2144.22
306.75	2119.65
306.97	2019.30
307.18	2176.99
307.39	2191.33
307.61	2277.34
307.82	2156.51
308.04	2240.48
308.25	2207.71
308.46	2275.29
308.68	2217.95
308.89	2230.24
309.10	2289.63
309.32	2283.49
309.53	2238.43
309.74	2353.12
309.96	2256.86
310.17	2281.44
310.39	2217.95
310.60	2297.82
310.81	2252.77
311.03	2090.98
311.24	2213.85
311.45	2265.05
311.67	2338.78
311.88	2246.62
312.09	2209.76
312.31	2146.27
312.52	2168.80
312.73	2234.33
312.95	2154.46
313.16	2203.61
313.37	2359.26
313.59	2301.92
313.80	2301.92
314.01	2475.99
314.23	2191.33
314.44	2162.66
314.65	2109.41
314.87	2174.94
315.08	2209.76
315.29	2217.95
315.51	2193.37
315.72	2181.09
315.93	2373.60
316.15	2209.76
316.36	2207.71
316.57	2176.99
316.79	2277.34
317.00	2244.57
317.21	2277.34
317.43	2129.89
317.64	2179.04
317.85	2224.09
318.07	2193.37
318.28	2203.61
318.49	2369.50
318.70	2512.86
318.92	2414.56
319.13	2451.42
319.34	2418.65
319.56	2355.16
319.77	2367.45
319.98	2369.50
320.20	2367.45
320.41	2269.15
320.62	2283.49
320.83	2172.89
321.05	2441.18
321.26	2310.11
321.47	2211.81
321.69	2338.78
321.90	2170.85
322.11	2174.94
322.32	2318.30
322.54	2400.22
322.75	2199.52
322.96	2562.01
323.18	2097.12
323.39	2111.46
323.60	2195.42
323.81	2265.05
324.03	2166.75
324.24	2174.94
324.45	2277.34
324.66	2220.00
324.88	2506.71
325.09	2439.13
325.30	2201.57
325.52	2215.90
325.73	2424.80
325.94	2052.06
326.15	2023.39
326.37	2185.18
326.58	2355.16
326.79	2367.45
327.00	2160.61
327.22	2244.57
327.43	2203.61
327.64	2078.69
327.85	2297.82
328.07	2269.15
328.28	2463.71
328.49	2154.46
328.70	2306.01
328.92	2224.09
329.13	2234.33
329.34	2316.25
329.55	2392.03
329.76	2308.06
329.98	2234.33
330.19	2369.50
330.40	2234.33
330.61	2240.48
330.83	2201.57
331.04	2199.52
331.25	2242.53
331.46	2179.04
331.68	2152.42
331.89	2351.07
332.10	2277.34
332.31	2136.03
332.52	2179.04
332.74	2340.83
332.95	2039.78
333.16	2189.28
333.37	2322.40
333.58	2203.61
333.80	2308.06
334.01	2047.97
334.22	2158.56
334.43	2191.33
334.64	2129.89
334.86	2187.23
335.07	2199.52
335.28	2492.38
335.49	2088.93
335.70	2277.34
335.92	2332.64
336.13	2455.51
336.34	2326.49
336.55	2275.29
336.76	2291.68
336.98	2064.35
337.19	2242.53
337.40	2400.22
337.61	2580.44
337.82	2199.52
338.04	2392.03
338.25	2023.39
338.46	2195.42
338.67	2203.61
338.88	2166.75
339.09	2146.27
339.31	2244.57
339.52	2084.83
339.73	2152.42
339.94	2232.29
340.15	2291.68
340.36	2207.71
340.58	2207.71
340.79	2115.55
341.00	2318.30
341.21	2127.84
341.42	2383.84
341.63	2217.95
341.85	2359.26
342.06	2365.40
342.27	2242.53
342.48	2338.78
342.69	2154.46
342.90	2312.16
343.12	2324.44
343.33	2248.67
343.54	2342.88
343.75	2459.61
343.96	2209.76
344.17	2119.65
344.38	2217.95
344.60	2109.41
344.81	2064.35
345.02	2201.57
345.23	2334.68
345.44	2465.75
345.65	2318.30
345.86	2252.77
346.07	2246.62
346.29	2215.90
346.50	2303.96
346.71	2252.77
346.92	2410.46
347.13	2461.66
347.34	2299.87
347.55	2217.95
347.76	2254.81
347.98	2101.22
348.19	2191.33
348.40	2334.68
348.61	2238.43
348.82	2406.36
349.03	2291.68
349.24	2144.22
349.45	2496.47
349.66	2052.06
349.88	2209.76
350.09	2240.48
350.30	2359.26
350.51	2375.64
350.72	2324.44
350.93	2250.72
351.14	2226.14
351.35	2254.81
351.56	2158.56
351.77	2211.81
351.99	2260.96
352.20	2387.93
352.41	2365.40
352.62	2068.45
352.83	2287.58
353.04	2226.14
353.25	2250.72
353.46	2260.96
353.67	2365.40
353.88	2095.07
354.09	2203.61
354.30	2267.10
354.52	2303.96
354.73	2170.85
354.94	2215.90
355.15	2254.81
355.36	2441.18
355.57	2242.53
355.78	2213.85
355.99	2191.33
356.20	2152.42
356.41	2334.68
356.62	2234.33
356.83	2240.48
357.04	2392.03
357.25	2117.60
357.46	2131.94
357.68	2080.74
357.89	2072.54
358.10	2179.04
358.31	2187.23
358.52	2199.52
358.73	2127.84
358.94	2199.52
359.15	2166.75
359.36	2213.85
359.57	2215.90
359.78	2191.33
359.99	2269.15
360.20	2179.04
360.41	2252.77
360.62	2301.92
360.83	2236.38
361.04	2258.91
361.25	2234.33
361.46	2463.71
361.67	2250.72
361.88	2308.06
362.09	2336.73
362.30	2269.15
362.51	2240.48
362.72	2244.57
362.93	2316.25
363.14	2297.82
363.35	2256.86
363.56	2183.13
363.78	2326.49
363.99	2349.02
364.20	2301.92
364.41	2220.00
364.62	2480.09
364.83	2220.00
365.04	2191.33
365.25	2244.57
365.46	2484.19
365.67	2189.28
365.88	2207.71
366.09	2148.32
366.30	2310.11
366.51	2281.44
366.72	2144.22
366.93	2252.77
367.14	2277.34
367.35	2375.64
367.56	2170.85
367.77	2383.84
367.98	2318.30
368.18	2365.40
368.39	2342.88
368.60	2150.37
368.81	2349.02
369.02	2220.00
369.23	2310.11
369.44	2103.26
369.65	2220.00
369.86	2318.30
370.07	2215.90
370.28	2088.93
370.49	2320.35
370.70	2293.72
370.91	2185.18
371.12	2181.09
371.33	2396.12
371.54	2228.19
371.75	2412.51
371.96	2023.39
372.17	2244.57
372.38	2349.02
372.59	2260.96
372.80	2232.29
373.01	2271.20
373.22	2238.43
373.43	2228.19
373.64	2193.37
373.85	2414.56
374.06	2455.51
374.26	2301.92
374.47	2242.53
374.68	2461.66
374.89	2371.55
375.10	2203.61
375.31	2357.21
375.52	2287.58
375.73	2322.40
375.94	2142.18
376.15	2379.74
376.36	2152.42
376.57	2179.04
376.78	2258.91
376.99	2271.20
377.20	2271.20
377.40	2228.19
377.61	2400.22
377.82	2203.61
378.03	2351.07
378.24	2326.49
378.45	2232.29
378.66	2281.44
378.87	2121.70
379.08	2090.98
379.29	2162.66
379.50	2426.84
379.71	2291.68
379.91	2349.02
380.12	2217.95
380.33	2244.57
380.54	2260.96
380.75	2252.77
380.96	2201.57
381.17	2230.24
381.38	2166.75
381.59	2222.05
381.80	2306.01
382.00	2435.03
382.21	2359.26
382.42	2447.32
382.63	2443.23
382.84	2306.01
383.05	2281.44
383.26	2420.70
383.47	2248.67
383.68	2326.49
383.88	2375.64
384.09	2322.40
384.30	2387.93
384.51	2314.20
384.72	2228.19
384.93	2113.50
385.14	2234.33
385.35	2387.93
385.55	2129.89
385.76	2318.30
385.97	2277.34
386.18	2115.55
386.39	2160.61
386.60	2172.89
386.81	2195.42
387.02	2150.37
387.22	2170.85
387.43	2398.17
387.64	2301.92
387.85	2439.13
388.06	2496.47
388.27	4093.89
388.48	8028.04
388.68	11550.54
388.89	13973.29
389.10	15087.39
389.31	13864.75
389.52	10923.87
389.73	9400.18
389.93	8587.13
390.14	7817.10
390.35	7151.51
390.56	6485.92
390.77	5201.84
390.98	4050.88
391.18	3227.60
391.39	2777.05
391.60	2424.80
391.81	2424.80
392.02	2256.86
392.23	2551.77
392.43	2256.86
392.64	2326.49
392.85	2277.34
393.06	2355.16
393.27	2232.29
393.47	2213.85
393.68	2265.05
393.89	2226.14
394.10	2420.70
394.31	2150.37
394.52	2170.85
394.72	2217.95
394.93	2381.79
395.14	2166.75
395.35	2301.92
395.56	2166.75
395.76	2244.57
395.97	2328.54
396.18	2301.92
396.39	2449.37
396.60	2637.78
396.80	2490.33
397.01	2459.61
397.22	2340.83
397.43	2418.65
397.64	2285.53
397.84	2314.20
398.05	2478.04
398.26	2277.34
398.47	2332.64
398.67	2357.21
398.88	2334.68
399.09	2273.25
399.30	2162.66
399.51	2359.26
399.71	2181.09
399.92	2285.53
400.13	2355.16
400.34	2207.71
400.54	2209.76
400.75	2389.98
400.96	2254.81
401.17	2506.71
401.37	2357.21
401.58	2185.18
401.79	2213.85
402.00	2441.18
402.21	2736.09
402.41	2506.71
402.62	2627.54
402.83	2637.78
403.04	2676.70
403.24	2789.33
403.45	2435.03
403.66	2488.28
403.87	2488.28
404.07	2564.06
404.28	2564.06
404.49	2478.04
404.70	2430.94
404.90	2308.06
405.11	2377.69
405.32	2361.31
405.52	2203.61
405.73	2226.14
405.94	2193.37
406.15	2316.25
406.35	2328.54
406.56	2355.16
406.77	2291.68
406.98	2256.86
407.18	2140.13
407.39	2502.62
407.60	2211.81
407.80	2277.34
408.01	2156.51
408.22	2308.06
408.43	2140.13
408.63	2359.26
408.84	2367.45
409.05	2316.25
409.25	2254.81
409.46	2263.01
409.67	2193.37
409.88	2172.89
410.08	2277.34
410.29	2230.24
410.50	2351.07
410.70	2271.20
410.91	2129.89
411.12	2281.44
411.32	2220.00
411.53	2285.53
411.74	2281.44
411.95	2301.92
412.15	2424.80
412.36	2359.26
412.57	2424.80
412.77	2402.27
412.98	2340.83
413.19	2154.46
413.39	2332.64
413.60	2349.02
413.81	2471.90
414.01	2172.89
414.22	2312.16
414.43	2297.82
414.63	2277.34
414.84	2441.18
415.05	2271.20
415.25	2093.02
415.46	2357.21
415.67	2213.85
415.87	2310.11
416.08	2269.15
416.29	2254.81
416.49	2318.30
416.70	2205.66
416.91	2244.57
417.11	2197.47
417.32	2303.96
417.53	2342.88
417.73	2260.96
417.94	2248.67
418.15	2287.58
418.35	2353.12
418.56	2224.09
418.77	2516.95
418.97	2195.42
419.18	2250.72
419.38	2035.68
419.59	2207.71
419.80	2332.64
420.00	2164.70
420.21	2207.71
420.42	2351.07
420.62	2301.92
420.83	2174.94
421.04	2269.15
421.24	2293.72
421.45	2328.54
421.65	2342.88
421.86	2244.57
422.07	2308.06
422.27	2328.54
422.48	2224.09
422.69	2074.59
422.89	2281.44
423.10	2195.42
423.30	2205.66
423.51	2248.67
423.72	2269.15
423.92	2299.87
424.13	2138.08
424.33	2312.16
424.54	2328.54
424.75	2260.96
424.95	2414.56
425.16	2281.44
425.36	2263.01
425.57	2353.12
425.78	2432.99
425.98	2332.64
426.19	2226.14
426.39	2172.89
426.60	2293.72
426.81	2357.21
427.01	2295.77
427.22	2088.93
427.42	2160.61
427.63	2164.70
427.83	2334.68
428.04	2430.94
428.25	2338.78
428.45	2379.74
428.66	2392.03
428.86	2240.48
429.07	2236.38
429.28	2222.05
429.48	2258.91
429.69	2172.89
429.89	2291.68
430.10	2086.88
430.30	2312.16
430.51	2404.32
430.71	2168.80
430.92	2242.53
431.13	2117.60
431.33	2312.16
431.54	2314.20
431.74	2332.64
431.95	2457.56
432.15	2215.90
432.36	2283.49
432.56	2285.53
432.77	2410.46
432.98	2482.14
433.18	2265.05
433.39	2236.38
433.59	2211.81
433.80	2396.12
434.00	2387.93
434.21	2230.24
434.41	2250.72
434.62	2498.52
434.82	2144.22
435.03	2232.29
435.23	2279.39
435.44	2144.22
435.64	2205.66
435.85	2306.01
436.06	2340.83
436.26	2342.88
436.47	2228.19
436.67	2181.09
436.88	2252.77
437.08	2519.00
437.29	2408.41
437.49	2318.30
437.70	2363.36
437.90	2265.05
438.11	2416.60
438.31	2301.92
438.52	2482.14
438.72	2467.80
438.93	2588.63
439.13	2314.20
439.34	2408.41
439.54	2295.77
439.75	2410.46
439.95	2320.35
440.16	2289.63
440.36	2289.63
440.57	2322.40
440.77	2285.53
440.98	2250.72
441.18	2344.92
441.39	2193.37
441.59	2166.75
441.80	2441.18
442.00	2316.25
442.21	2369.50
442.41	2129.89
442.62	2342.88
442.82	2195.42
443.02	2375.64
443.23	2252.77
443.43	2154.46
443.64	2392.03
443.84	2195.42
444.05	2365.40
444.25	2299.87
444.46	2197.47
444.66	2267.10
444.87	2361.31
445.07	2086.88
445.28	2267.10
445.48	2451.42
445.69	2330.59
445.89	2570.20
446.09	2201.57
446.30	2504.67
446.50	2809.81
446.71	4411.32
446.91	5404.59
447.12	6297.50
447.32	6643.61
447.53	6141.86
447.73	4949.94
447.93	4554.68
448.14	4208.58
448.34	4020.16
448.55	3596.23
448.75	3594.19
448.96	3422.16
449.16	3088.34
449.36	2840.53
449.57	2572.25
449.77	2373.60
449.98	2332.64
450.18	2355.16
450.39	2359.26
450.59	2394.08
450.79	2254.81
451.00	2207.71
451.20	2365.40
451.41	2189.28
451.61	2316.25
451.81	2289.63
452.02	2162.66
452.22	2205.66
452.43	2207.71
452.63	2211.81
