SpectraSuite Data File
++++++++++++++++++++++++++++++++++++
Date: Thu May 05 13:20:40 CEST 2016
User: root
Dark Spectrum Present: No
Reference Spectrum Present: No
Number of Sampled Component Spectra: 1
Spectrometers: USB4C02835
Integration Time (usec): 100000 (USB4C02835)
Spectra Averaged: 1 (USB4C02835)
Boxcar Smoothing: 0 (USB4C02835)
Correct for Electrical Dark: No (USB4C02835)
Strobe/Lamp Enabled: No (USB4C02835)
Correct for Detector Non-linearity: No (USB4C02835)
Correct for Stray Light: No (USB4C02835)
Number of Pixels in Processed Spectrum: 3648
>>>>>Begin Processed Spectral Data<<<<<
177.47	1773.54
177.69	1773.54
177.91	1773.54
178.13	1892.32
178.36	1773.54
178.58	2140.13
178.80	2357.21
179.02	2023.39
179.24	2095.07
179.46	2117.60
179.68	2181.09
179.90	2236.38
180.13	2312.16
180.35	2101.22
180.57	2179.04
180.79	2293.72
181.01	2260.96
181.23	2228.19
181.45	2252.77
181.67	2338.78
181.90	2314.20
182.12	2209.76
182.34	2084.83
182.56	2312.16
182.78	2355.16
183.00	2207.71
183.22	2209.76
183.44	2113.50
183.66	2455.51
183.89	2252.77
184.11	2213.85
184.33	2265.05
184.55	2277.34
184.77	2209.76
184.99	2164.70
185.21	2263.01
185.43	2598.87
185.65	2211.81
185.87	2195.42
186.10	2496.47
186.32	2457.56
186.54	2226.14
186.76	2269.15
186.98	2301.92
187.20	2256.86
187.42	2201.57
187.64	2131.94
187.86	2269.15
188.08	2367.45
188.30	2199.52
188.52	2222.05
188.75	2349.02
188.97	2430.94
189.19	2179.04
189.41	2150.37
189.63	2252.77
189.85	2220.00
190.07	2052.06
190.29	2097.12
190.51	2277.34
190.73	2152.42
190.95	2318.30
191.17	2258.91
191.39	2129.89
191.61	2260.96
191.84	2174.94
192.06	2254.81
192.28	2029.54
192.50	2545.63
192.72	2250.72
192.94	2176.99
193.16	2363.36
193.38	2314.20
193.60	2185.18
193.82	2176.99
194.04	2324.44
194.26	2316.25
194.48	2222.05
194.70	2115.55
194.92	2203.61
195.14	2320.35
195.36	2185.18
195.58	2205.66
195.80	2269.15
196.02	2230.24
196.24	2121.70
196.46	2203.61
196.69	2199.52
196.91	2504.67
197.13	2213.85
197.35	2097.12
197.57	2422.75
197.79	2295.77
198.01	2211.81
198.23	2195.42
198.45	2334.68
198.67	2101.22
198.89	2164.70
199.11	2281.44
199.33	2217.95
199.55	2088.93
199.77	2168.80
199.99	2330.59
200.21	2211.81
200.43	2191.33
200.65	2107.36
200.87	2113.50
201.09	2258.91
201.31	2215.90
201.53	2174.94
201.75	2183.13
201.97	2322.40
202.19	2267.10
202.41	2220.00
202.63	2322.40
202.85	2351.07
203.07	2215.90
203.29	2166.75
203.51	2174.94
203.73	2240.48
203.95	2506.71
204.17	2183.13
204.39	2252.77
204.61	2162.66
204.83	2195.42
205.05	2203.61
205.27	2265.05
205.49	2465.75
205.71	2215.90
205.93	2176.99
206.15	2164.70
206.37	2328.54
206.59	2287.58
206.81	2150.37
207.03	2076.64
207.25	2170.85
207.47	2353.12
207.69	2195.42
207.91	2346.97
208.13	2340.83
208.34	2209.76
208.56	2111.46
208.78	2203.61
209.00	2193.37
209.22	2125.79
209.44	2226.14
209.66	2226.14
209.88	2265.05
210.10	2244.57
210.32	2234.33
210.54	2289.63
210.76	2213.85
210.98	2377.69
211.20	2072.54
211.42	2244.57
211.64	2295.77
211.86	2203.61
212.08	2228.19
212.30	2185.18
212.52	2306.01
212.74	2265.05
212.96	2203.61
213.17	2252.77
213.39	2316.25
213.61	2408.41
213.83	2172.89
214.05	2254.81
214.27	2373.60
214.49	2156.51
214.71	2101.22
214.93	2215.90
215.15	2297.82
215.37	2271.20
215.59	2105.31
215.81	2275.29
216.03	2455.51
216.24	2213.85
216.46	2232.29
216.68	2185.18
216.90	2373.60
217.12	2379.74
217.34	2117.60
217.56	2224.09
217.78	2418.65
218.00	2303.96
218.22	2205.66
218.44	2330.59
218.66	2260.96
218.87	2465.75
219.09	2201.57
219.31	2174.94
219.53	2260.96
219.75	2203.61
219.97	2203.61
220.19	2197.47
220.41	2291.68
220.63	2439.13
220.85	2238.43
221.06	2103.26
221.28	2361.31
221.50	2277.34
221.72	2203.61
221.94	2054.11
222.16	2287.58
222.38	2314.20
222.60	2213.85
222.82	2191.33
223.03	2322.40
223.25	2105.31
223.47	2105.31
223.69	2432.99
223.91	2326.49
224.13	2330.59
224.35	2123.74
224.57	2375.64
224.78	2308.06
225.00	2160.61
225.22	2162.66
225.44	2150.37
225.66	2306.01
225.88	2217.95
226.10	2240.48
226.32	2258.91
226.53	2404.32
226.75	2176.99
226.97	2224.09
227.19	2144.22
227.41	2201.57
227.63	2234.33
227.85	2064.35
228.06	2217.95
228.28	2258.91
228.50	2369.50
228.72	2105.31
228.94	2220.00
229.16	2113.50
229.37	2152.42
229.59	2136.03
229.81	2379.74
230.03	2213.85
230.25	2144.22
230.47	2090.98
230.69	2103.26
230.90	2334.68
231.12	2183.13
231.34	2187.23
231.56	2256.86
231.78	2133.98
232.00	2234.33
232.21	2150.37
232.43	2209.76
232.65	2023.39
232.87	2236.38
233.09	2078.69
233.30	2060.26
233.52	2359.26
233.74	2236.38
233.96	2142.18
234.18	2279.39
234.40	2252.77
234.61	2551.77
234.83	2054.11
235.05	2101.22
235.27	2488.28
235.49	2459.61
235.70	2152.42
235.92	2312.16
236.14	2281.44
236.36	2482.14
236.58	2072.54
236.79	2269.15
237.01	2220.00
237.23	2301.92
237.45	2342.88
237.67	2203.61
237.88	2250.72
238.10	2375.64
238.32	2080.74
238.54	2129.89
238.76	2213.85
238.97	2117.60
239.19	2113.50
239.41	2301.92
239.63	2359.26
239.85	2242.53
240.06	2154.46
240.28	2172.89
240.50	2428.89
240.72	2254.81
240.93	2181.09
241.15	2230.24
241.37	2250.72
241.59	2473.95
241.81	2105.31
242.02	2154.46
242.24	2322.40
242.46	2273.25
242.68	2154.46
242.89	2211.81
243.11	2340.83
243.33	2228.19
243.55	2193.37
243.76	2252.77
243.98	2154.46
244.20	2217.95
244.42	2166.75
244.64	2113.50
244.85	2052.06
245.07	2250.72
245.29	2174.94
245.51	2152.42
245.72	2273.25
245.94	2377.69
246.16	2144.22
246.38	2197.47
246.59	2220.00
246.81	2127.84
247.03	2064.35
247.24	2047.97
247.46	2181.09
247.68	2230.24
247.90	2191.33
248.11	2119.65
248.33	2301.92
248.55	2322.40
248.77	2236.38
248.98	2248.67
249.20	2473.95
249.42	2260.96
249.64	2215.90
249.85	2181.09
250.07	2240.48
250.29	2326.49
250.50	2195.42
250.72	2074.59
250.94	2228.19
251.16	2523.10
251.37	2154.46
251.59	2291.68
251.81	2269.15
252.02	2398.17
252.24	2133.98
252.46	2289.63
252.68	2187.23
252.89	2172.89
253.11	2017.25
253.33	2306.01
253.54	2404.32
253.76	2176.99
253.98	2127.84
254.20	2144.22
254.41	2105.31
254.63	2281.44
254.85	2080.74
255.06	2236.38
255.28	2217.95
255.50	2252.77
255.71	2088.93
255.93	2070.50
256.15	2179.04
256.36	2250.72
256.58	2179.04
256.80	2146.27
257.02	2260.96
257.23	2248.67
257.45	2176.99
257.67	2166.75
257.88	2146.27
258.10	2355.16
258.32	2181.09
258.53	2217.95
258.75	2357.21
258.97	2238.43
259.18	2183.13
259.40	2174.94
259.62	2414.56
259.83	2443.23
260.05	2256.86
260.27	2580.44
260.48	2265.05
260.70	2080.74
260.92	2105.31
261.13	2197.47
261.35	2310.11
261.57	2234.33
261.78	2150.37
262.00	2185.18
262.22	2306.01
262.43	2179.04
262.65	2195.42
262.86	2187.23
263.08	2500.57
263.30	2170.85
263.51	2064.35
263.73	2136.03
263.95	2365.40
264.16	2158.56
264.38	2187.23
264.60	2191.33
264.81	2256.86
265.03	2314.20
265.25	2381.79
265.46	2205.66
265.68	2330.59
265.89	2289.63
266.11	2047.97
266.33	2211.81
266.54	2338.78
266.76	2291.68
266.98	2269.15
267.19	2310.11
267.41	2392.03
267.62	2189.28
267.84	2021.35
268.06	2269.15
268.27	2269.15
268.49	2392.03
268.70	2271.20
268.92	2226.14
269.14	2150.37
269.35	2191.33
269.57	2281.44
269.79	2295.77
270.00	2199.52
270.22	2400.22
270.43	2050.02
270.65	2035.68
270.87	2226.14
271.08	2220.00
271.30	2199.52
271.51	2179.04
271.73	2340.83
271.95	2326.49
272.16	2193.37
272.38	2224.09
272.59	2162.66
272.81	2328.54
273.02	2179.04
273.24	2203.61
273.46	2332.64
273.67	2113.50
273.89	2113.50
274.10	2119.65
274.32	2306.01
274.54	2244.57
274.75	2228.19
274.97	2199.52
275.18	2357.21
275.40	2295.77
275.61	2226.14
275.83	2240.48
276.05	2179.04
276.26	2203.61
276.48	2258.91
276.69	2168.80
276.91	2189.28
277.12	2367.45
277.34	2322.40
277.55	2291.68
277.77	2242.53
277.99	2269.15
278.20	2197.47
278.42	2113.50
278.63	2199.52
278.85	2160.61
279.06	2084.83
279.28	2314.20
279.49	2301.92
279.71	2275.29
279.93	2185.18
280.14	2205.66
280.36	2226.14
280.57	2299.87
280.79	2336.73
281.00	2146.27
281.22	2193.37
281.43	2330.59
281.65	2021.35
281.86	2138.08
282.08	2258.91
282.29	2459.61
282.51	2090.98
282.73	2113.50
282.94	2054.11
283.16	2275.29
283.37	2396.12
283.59	2228.19
283.80	2281.44
284.02	2226.14
284.23	2154.46
284.45	2256.86
284.66	2162.66
284.88	2191.33
285.09	2183.13
285.31	2314.20
285.52	2389.98
285.74	2109.41
285.95	2342.88
286.17	2252.77
286.38	2359.26
286.60	2113.50
286.81	2195.42
287.03	2213.85
287.24	2353.12
287.46	2275.29
287.67	2240.48
287.89	2467.80
288.10	2242.53
288.32	2260.96
288.53	2322.40
288.75	2293.72
288.96	2326.49
289.18	2213.85
289.39	2187.23
289.61	2289.63
289.82	2453.47
290.04	2383.84
290.25	2179.04
290.47	2183.13
290.68	2250.72
290.90	2363.36
291.11	2062.30
291.33	2357.21
291.54	2222.05
291.76	2240.48
291.97	2150.37
292.18	2224.09
292.40	2242.53
292.61	2185.18
292.83	2392.03
293.04	2260.96
293.26	2334.68
293.47	2146.27
293.69	2127.84
293.90	2205.66
294.12	2365.40
294.33	2275.29
294.55	2244.57
294.76	2326.49
294.97	2332.64
295.19	2469.85
295.40	2277.34
295.62	2244.57
295.83	2383.84
296.05	2244.57
296.26	2334.68
296.48	2156.51
296.69	2250.72
296.90	2191.33
297.12	2269.15
297.33	2371.55
297.55	2258.91
297.76	2260.96
297.98	2301.92
298.19	2236.38
298.41	2275.29
298.62	2101.22
298.83	2414.56
299.05	2232.29
299.26	2164.70
299.48	2172.89
299.69	2301.92
299.90	2281.44
300.12	2127.84
300.33	2299.87
300.55	2289.63
300.76	2291.68
300.98	2199.52
301.19	2340.83
301.40	2228.19
301.62	2203.61
301.83	2412.51
302.05	2234.33
302.26	2277.34
302.47	2226.14
302.69	2203.61
302.90	2281.44
303.12	2103.26
303.33	2273.25
303.54	2408.41
303.76	2201.57
303.97	2260.96
304.19	2363.36
304.40	2195.42
304.61	2308.06
304.83	2344.92
305.04	2281.44
305.26	2244.57
305.47	2236.38
305.68	2250.72
305.90	2111.46
306.11	2414.56
306.33	2220.00
306.54	2168.80
306.75	2125.79
306.97	2064.35
307.18	2133.98
307.39	2207.71
307.61	2232.29
307.82	2150.37
308.04	2326.49
308.25	2185.18
308.46	2295.77
308.68	2197.47
308.89	2260.96
309.10	2367.45
309.32	2318.30
309.53	2203.61
309.74	2318.30
309.96	2193.37
310.17	2371.55
310.39	2275.29
310.60	2240.48
310.81	2287.58
311.03	2119.65
311.24	2269.15
311.45	2232.29
311.67	2318.30
311.88	2293.72
312.09	2244.57
312.31	2260.96
312.52	2193.37
312.73	2185.18
312.95	2127.84
313.16	2160.61
313.37	2349.02
313.59	2254.81
313.80	2310.11
314.01	2349.02
314.23	2220.00
314.44	2185.18
314.65	2078.69
314.87	2129.89
315.08	2162.66
315.29	2203.61
315.51	2121.70
315.72	2101.22
315.93	2324.44
316.15	2281.44
316.36	2244.57
316.57	2299.87
316.79	2279.39
317.00	2176.99
317.21	2312.16
317.43	2189.28
317.64	2238.43
317.85	2209.76
318.07	2168.80
318.28	2303.96
318.49	2332.64
318.70	2488.28
318.92	2445.27
319.13	2357.21
319.34	2385.88
319.56	2340.83
319.77	2361.31
319.98	2418.65
320.20	2320.35
320.41	2275.29
320.62	2312.16
320.83	2148.32
321.05	2408.41
321.26	2314.20
321.47	2265.05
321.69	2357.21
321.90	2111.46
322.11	2236.38
322.32	2162.66
322.54	2428.89
322.75	2191.33
322.96	2633.69
323.18	2152.42
323.39	2035.68
323.60	2129.89
323.81	2342.88
324.03	2146.27
324.24	2271.20
324.45	2244.57
324.66	2236.38
324.88	2326.49
325.09	2334.68
325.30	2144.22
325.52	2158.56
325.73	2252.77
325.94	2148.32
326.15	2078.69
326.37	2258.91
326.58	2324.44
326.79	2428.89
327.00	2050.02
327.22	2279.39
327.43	2215.90
327.64	2119.65
327.85	2281.44
328.07	2220.00
328.28	2430.94
328.49	2121.70
328.70	2250.72
328.92	2205.66
329.13	2283.49
329.34	2332.64
329.55	2367.45
329.76	2367.45
329.98	2265.05
330.19	2346.97
330.40	2230.24
330.61	2252.77
330.83	2357.21
331.04	2090.98
331.25	2168.80
331.46	2320.35
331.68	2193.37
331.89	2420.70
332.10	2236.38
332.31	2111.46
332.52	2260.96
332.74	2328.54
332.95	2111.46
333.16	2258.91
333.37	2310.11
333.58	2232.29
333.80	2320.35
334.01	2105.31
334.22	2195.42
334.43	2195.42
334.64	2168.80
334.86	2088.93
335.07	2203.61
335.28	2447.32
335.49	2097.12
335.70	2248.67
335.92	2404.32
336.13	2416.60
336.34	2326.49
336.55	2269.15
336.76	2265.05
336.98	2078.69
337.19	2181.09
337.40	2402.27
337.61	2449.37
337.82	2203.61
338.04	2279.39
338.25	2105.31
338.46	2322.40
338.67	2236.38
338.88	2168.80
339.09	2166.75
339.31	2252.77
339.52	2162.66
339.73	2168.80
339.94	2146.27
340.15	2238.43
340.36	2252.77
340.58	2273.25
340.79	2136.03
341.00	2299.87
341.21	2191.33
341.42	2375.64
341.63	2260.96
341.85	2265.05
342.06	2238.43
342.27	2215.90
342.48	2330.59
342.69	2158.56
342.90	2285.53
343.12	2402.27
343.33	2168.80
343.54	2357.21
343.75	2369.50
343.96	2297.82
344.17	2148.32
344.38	2195.42
344.60	2154.46
344.81	2193.37
345.02	2275.29
345.23	2271.20
345.44	2512.86
345.65	2334.68
345.86	2226.14
346.07	2232.29
346.29	2209.76
346.50	2301.92
346.71	2273.25
346.92	2377.69
347.13	2510.81
347.34	2154.46
347.55	2146.27
347.76	2287.58
347.98	2078.69
348.19	2160.61
348.40	2338.78
348.61	2146.27
348.82	2420.70
349.03	2291.68
349.24	2197.47
349.45	2449.37
349.66	2056.16
349.88	2215.90
350.09	2121.70
350.30	2332.64
350.51	2465.75
350.72	2332.64
350.93	2269.15
351.14	2224.09
351.35	2316.25
351.56	2117.60
351.77	2164.70
351.99	2338.78
352.20	2406.36
352.41	2310.11
352.62	2060.26
352.83	2267.10
353.04	2306.01
353.25	2156.51
353.46	2254.81
353.67	2406.36
353.88	2062.30
354.09	2185.18
354.30	2285.53
354.52	2275.29
354.73	2258.91
354.94	2193.37
355.15	2226.14
355.36	2420.70
355.57	2195.42
355.78	2269.15
355.99	2129.89
356.20	2170.85
356.41	2365.40
356.62	2285.53
356.83	2248.67
357.04	2383.84
357.25	2146.27
357.46	2205.66
357.68	2138.08
357.89	2179.04
358.10	2222.05
358.31	2273.25
358.52	2242.53
358.73	2101.22
358.94	2097.12
359.15	2234.33
359.36	2314.20
359.57	2236.38
359.78	2162.66
359.99	2301.92
360.20	2115.55
360.41	2252.77
360.62	2346.97
360.83	2211.81
361.04	2258.91
361.25	2291.68
361.46	2471.90
361.67	2394.08
361.88	2265.05
362.09	2293.72
362.30	2299.87
362.51	2195.42
362.72	2160.61
362.93	2324.44
363.14	2338.78
363.35	2242.53
363.56	2138.08
363.78	2361.31
363.99	2254.81
364.20	2183.13
364.41	2271.20
364.62	2402.27
364.83	2361.31
365.04	2220.00
365.25	2242.53
365.46	2504.67
365.67	2144.22
365.88	2320.35
366.09	2174.94
366.30	2242.53
366.51	2205.66
366.72	2133.98
366.93	2285.53
367.14	2222.05
367.35	2398.17
367.56	2211.81
367.77	2367.45
367.98	2201.57
368.18	2355.16
368.39	2293.72
368.60	2062.30
368.81	2275.29
369.02	2332.64
369.23	2195.42
369.44	2123.74
369.65	2252.77
369.86	2209.76
370.07	2396.12
370.28	2082.78
370.49	2295.77
370.70	2303.96
370.91	2138.08
371.12	2119.65
371.33	2389.98
371.54	2179.04
371.75	2379.74
371.96	2025.44
372.17	2244.57
372.38	2226.14
372.59	2265.05
372.80	2181.09
373.01	2267.10
373.22	2330.59
373.43	2240.48
373.64	2166.75
373.85	2439.13
374.06	2375.64
374.26	2263.01
374.47	2353.12
374.68	2373.60
374.89	2330.59
375.10	2250.72
375.31	2303.96
375.52	2359.26
375.73	2322.40
375.94	2152.42
376.15	2375.64
376.36	2195.42
376.57	2201.57
376.78	2213.85
376.99	2203.61
377.20	2365.40
377.40	2232.29
377.61	2441.18
377.82	2170.85
378.03	2359.26
378.24	2326.49
378.45	2228.19
378.66	2326.49
378.87	2109.41
379.08	2093.02
379.29	2197.47
379.50	2328.54
379.71	2275.29
379.91	2297.82
380.12	2226.14
380.33	2199.52
380.54	2244.57
380.75	2258.91
380.96	2217.95
381.17	2342.88
381.38	2232.29
381.59	2301.92
381.80	2312.16
382.00	2432.99
382.21	2308.06
382.42	2504.67
382.63	2471.90
382.84	2334.68
383.05	2392.03
383.26	2412.51
383.47	2265.05
383.68	2289.63
383.88	2244.57
384.09	2265.05
384.30	2346.97
384.51	2260.96
384.72	2209.76
384.93	2115.55
385.14	2324.44
385.35	2322.40
385.55	2125.79
385.76	2373.60
385.97	2215.90
386.18	2191.33
386.39	2199.52
386.60	2195.42
386.81	2142.18
387.02	2213.85
387.22	2211.81
387.43	2349.02
387.64	2349.02
387.85	2396.12
388.06	2553.82
388.27	3973.06
388.48	8011.65
388.68	11915.08
388.89	13961.00
389.10	15122.20
389.31	13893.42
389.52	10944.34
389.73	9586.54
389.93	8642.43
390.14	7843.72
390.35	7024.53
390.56	6340.51
390.77	5291.95
390.98	3960.77
391.18	3227.60
391.39	2783.19
391.60	2392.03
391.81	2420.70
392.02	2269.15
392.23	2531.29
392.43	2248.67
392.64	2398.17
392.85	2195.42
393.06	2414.56
393.27	2297.82
393.47	2164.70
393.68	2322.40
393.89	2265.05
394.10	2428.89
394.31	2220.00
394.52	2156.51
394.72	2308.06
394.93	2297.82
395.14	2131.94
395.35	2256.86
395.56	2195.42
395.76	2269.15
395.97	2318.30
396.18	2336.73
396.39	2412.51
396.60	2711.51
396.80	2510.81
397.01	2383.84
397.22	2369.50
397.43	2459.61
397.64	2236.38
397.84	2340.83
398.05	2521.05
398.26	2256.86
398.47	2379.74
398.67	2363.36
398.88	2226.14
399.09	2330.59
399.30	2187.23
399.51	2215.90
399.71	2189.28
399.92	2209.76
400.13	2293.72
400.34	2314.20
400.54	2250.72
400.75	2326.49
400.96	2271.20
401.17	2385.88
401.37	2258.91
401.58	2314.20
401.79	2299.87
402.00	2422.75
402.21	2711.51
402.41	2625.50
402.62	2643.93
402.83	2717.65
403.04	2639.83
403.24	2807.77
403.45	2373.60
403.66	2418.65
403.87	2414.56
404.07	2521.05
404.28	2437.08
404.49	2424.80
404.70	2406.36
404.90	2396.12
405.11	2256.86
405.32	2316.25
405.52	2142.18
405.73	2187.23
405.94	2187.23
406.15	2179.04
406.35	2353.12
406.56	2285.53
406.77	2271.20
406.98	2324.44
407.18	2162.66
407.39	2392.03
407.60	2242.53
407.80	2310.11
408.01	2199.52
408.22	2252.77
408.43	2121.70
408.63	2277.34
408.84	2353.12
409.05	2400.22
409.25	2150.37
409.46	2176.99
409.67	2185.18
409.88	2179.04
410.08	2306.01
410.29	2203.61
410.50	2324.44
410.70	2396.12
410.91	2154.46
411.12	2242.53
411.32	2228.19
411.53	2146.27
411.74	2260.96
411.95	2326.49
412.15	2375.64
412.36	2326.49
412.57	2340.83
412.77	2416.60
412.98	2273.25
413.19	2224.09
413.39	2336.73
413.60	2277.34
413.81	2398.17
414.01	2191.33
414.22	2322.40
414.43	2297.82
414.63	2138.08
414.84	2342.88
415.05	2250.72
415.25	2070.50
415.46	2334.68
415.67	2269.15
415.87	2207.71
416.08	2279.39
416.29	2226.14
416.49	2326.49
416.70	2230.24
416.91	2166.75
417.11	2220.00
417.32	2404.32
417.53	2293.72
417.73	2265.05
417.94	2306.01
418.15	2252.77
418.35	2258.91
418.56	2318.30
418.77	2543.58
418.97	2328.54
419.18	2217.95
419.38	2093.02
419.59	2240.48
419.80	2432.99
420.00	2191.33
420.21	2299.87
420.42	2389.98
420.62	2273.25
420.83	2138.08
421.04	2236.38
421.24	2234.33
421.45	2310.11
421.65	2269.15
421.86	2238.43
422.07	2367.45
422.27	2322.40
422.48	2310.11
422.69	2168.80
422.89	2244.57
423.10	2283.49
423.30	2152.42
423.51	2265.05
423.72	2293.72
423.92	2310.11
424.13	2176.99
424.33	2316.25
424.54	2334.68
424.75	2322.40
424.95	2365.40
425.16	2232.29
425.36	2281.44
425.57	2445.27
425.78	2260.96
425.98	2355.16
426.19	2211.81
426.39	2097.12
426.60	2285.53
426.81	2355.16
427.01	2338.78
427.22	2191.33
427.42	2045.92
427.63	2115.55
427.83	2297.82
428.04	2406.36
428.25	2432.99
428.45	2334.68
428.66	2281.44
428.86	2168.80
429.07	2195.42
429.28	2234.33
429.48	2275.29
429.69	2191.33
429.89	2314.20
430.10	2181.09
430.30	2357.21
430.51	2338.78
430.71	2242.53
430.92	2263.01
431.13	2228.19
431.33	2324.44
431.54	2228.19
431.74	2357.21
431.95	2467.80
432.15	2150.37
432.36	2140.13
432.56	2316.25
432.77	2455.51
432.98	2461.66
433.18	2226.14
433.39	2269.15
433.59	2199.52
433.80	2469.85
434.00	2480.09
434.21	2205.66
434.41	2168.80
434.62	2478.04
434.82	2138.08
435.03	2043.87
435.23	2326.49
435.44	2039.78
435.64	2191.33
435.85	2291.68
436.06	2400.22
436.26	2359.26
436.47	2209.76
436.67	2209.76
436.88	2209.76
437.08	2258.91
437.29	2297.82
437.49	2336.73
437.70	2367.45
437.90	2273.25
438.11	2465.75
438.31	2312.16
438.52	2420.70
438.72	2510.81
438.93	2504.67
439.13	2373.60
439.34	2373.60
439.54	2228.19
439.75	2258.91
439.95	2357.21
440.16	2230.24
440.36	2342.88
440.57	2275.29
440.77	2242.53
440.98	2242.53
441.18	2258.91
441.39	2160.61
441.59	2115.55
441.80	2439.13
442.00	2211.81
442.21	2428.89
442.41	2183.13
442.62	2322.40
442.82	2162.66
443.02	2252.77
443.23	2205.66
443.43	2318.30
443.64	2420.70
443.84	2156.51
444.05	2359.26
444.25	2197.47
444.46	2267.10
444.66	2248.67
444.87	2461.66
445.07	2129.89
445.28	2211.81
445.48	2394.08
445.69	2269.15
445.89	2519.00
446.09	2263.01
446.30	2574.30
446.50	2818.00
446.71	4337.60
446.91	5429.17
447.12	6471.58
447.32	6717.34
447.53	6217.63
447.73	5083.06
447.93	4480.96
448.14	4300.73
448.34	4118.47
448.55	3629.00
448.75	3626.95
448.96	3358.67
449.16	3028.95
449.36	2883.54
449.57	2549.72
449.77	2453.47
449.98	2215.90
450.18	2414.56
450.39	2367.45
450.59	2349.02
450.79	2256.86
451.00	2228.19
451.20	2357.21
451.41	2303.96
451.61	2314.20
451.81	2252.77
452.02	2252.77
452.22	2176.99
452.43	2263.01
452.63	2207.71
