SpectraSuite Data File
++++++++++++++++++++++++++++++++++++
Date: Thu May 05 13:21:27 CEST 2016
User: root
Dark Spectrum Present: No
Reference Spectrum Present: No
Number of Sampled Component Spectra: 1
Spectrometers: USB4C02835
Integration Time (usec): 100000 (USB4C02835)
Spectra Averaged: 1 (USB4C02835)
Boxcar Smoothing: 0 (USB4C02835)
Correct for Electrical Dark: No (USB4C02835)
Strobe/Lamp Enabled: No (USB4C02835)
Correct for Detector Non-linearity: No (USB4C02835)
Correct for Stray Light: No (USB4C02835)
Number of Pixels in Processed Spectrum: 3648
>>>>>Begin Processed Spectral Data<<<<<
177.47	1751.01
177.69	1751.01
177.91	1751.01
178.13	1843.17
178.36	1832.93
178.58	2164.70
178.80	2265.05
179.02	2117.60
179.24	2197.47
179.46	2148.32
179.68	2297.82
179.90	2254.81
180.13	2297.82
180.35	2090.98
180.57	2174.94
180.79	2326.49
181.01	2170.85
181.23	2222.05
181.45	2252.77
181.67	2273.25
181.90	2340.83
182.12	2199.52
182.34	2045.92
182.56	2330.59
182.78	2273.25
183.00	2168.80
183.22	2224.09
183.44	2127.84
183.66	2529.24
183.89	2310.11
184.11	2240.48
184.33	2281.44
184.55	2414.56
184.77	2252.77
184.99	2220.00
185.21	2220.00
185.43	2547.67
185.65	2140.13
185.87	2142.18
186.10	2488.28
186.32	2545.63
186.54	2152.42
186.76	2258.91
186.98	2357.21
187.20	2164.70
187.42	2168.80
187.64	2201.57
187.86	2246.62
188.08	2367.45
188.30	2131.94
188.52	2199.52
188.75	2480.09
188.97	2342.88
189.19	2185.18
189.41	2211.81
189.63	2334.68
189.85	2320.35
190.07	2095.07
190.29	2088.93
190.51	2281.44
190.73	2158.56
190.95	2316.25
191.17	2119.65
191.39	2142.18
191.61	2195.42
191.84	2162.66
192.06	2156.51
192.28	2154.46
192.50	2621.40
192.72	2207.71
192.94	2189.28
193.16	2306.01
193.38	2351.07
193.60	2080.74
193.82	2205.66
194.04	2379.74
194.26	2260.96
194.48	2203.61
194.70	2150.37
194.92	2158.56
195.14	2392.03
195.36	2140.13
195.58	2301.92
195.80	2224.09
196.02	2203.61
196.24	2191.33
196.46	2238.43
196.69	2172.89
196.91	2541.53
197.13	2211.81
197.35	2131.94
197.57	2369.50
197.79	2320.35
198.01	2238.43
198.23	2230.24
198.45	2351.07
198.67	2185.18
198.89	2070.50
199.11	2203.61
199.33	2185.18
199.55	2045.92
199.77	2084.83
199.99	2236.38
200.21	2246.62
200.43	2240.48
200.65	2183.13
200.87	2027.49
201.09	2297.82
201.31	2226.14
201.53	2269.15
201.75	2162.66
201.97	2308.06
202.19	2220.00
202.41	2228.19
202.63	2346.97
202.85	2334.68
203.07	2312.16
203.29	2154.46
203.51	2191.33
203.73	2226.14
203.95	2539.48
204.17	2158.56
204.39	2312.16
204.61	2203.61
204.83	2191.33
205.05	2248.67
205.27	2265.05
205.49	2451.42
205.71	2293.72
205.93	2105.31
206.15	2170.85
206.37	2299.87
206.59	2250.72
206.81	2113.50
207.03	2170.85
207.25	2097.12
207.47	2326.49
207.69	2152.42
207.91	2414.56
208.13	2406.36
208.34	2152.42
208.56	2133.98
208.78	2179.04
209.00	2203.61
209.22	2154.46
209.44	2217.95
209.66	2136.03
209.88	2226.14
210.10	2168.80
210.32	2170.85
210.54	2240.48
210.76	2338.78
210.98	2314.20
211.20	2007.01
211.42	2138.08
211.64	2367.45
211.86	2310.11
212.08	2160.61
212.30	2101.22
212.52	2301.92
212.74	2254.81
212.96	2236.38
213.17	2297.82
213.39	2308.06
213.61	2381.79
213.83	2113.50
214.05	2260.96
214.27	2346.97
214.49	2072.54
214.71	2142.18
214.93	2211.81
215.15	2252.77
215.37	2330.59
215.59	2086.88
215.81	2281.44
216.03	2414.56
216.24	2215.90
216.46	2211.81
216.68	2224.09
216.90	2326.49
217.12	2318.30
217.34	2162.66
217.56	2285.53
217.78	2432.99
218.00	2228.19
218.22	2179.04
218.44	2217.95
218.66	2299.87
218.87	2488.28
219.09	2242.53
219.31	2189.28
219.53	2271.20
219.75	2238.43
219.97	2183.13
220.19	2148.32
220.41	2240.48
220.63	2410.46
220.85	2271.20
221.06	2195.42
221.28	2385.88
221.50	2402.27
221.72	2133.98
221.94	2144.22
222.16	2281.44
222.38	2349.02
222.60	2242.53
222.82	2170.85
223.03	2363.36
223.25	2162.66
223.47	2166.75
223.69	2324.44
223.91	2318.30
224.13	2265.05
224.35	2090.98
224.57	2306.01
224.78	2310.11
225.00	2133.98
225.22	2158.56
225.44	2201.57
225.66	2408.41
225.88	2138.08
226.10	2252.77
226.32	2158.56
226.53	2377.69
226.75	2176.99
226.97	2193.37
227.19	2179.04
227.41	2265.05
227.63	2242.53
227.85	2023.39
228.06	2174.94
228.28	2340.83
228.50	2365.40
228.72	2050.02
228.94	2045.92
229.16	2050.02
229.37	2101.22
229.59	2142.18
229.81	2328.54
230.03	2277.34
230.25	2043.87
230.47	2035.68
230.69	2211.81
230.90	2324.44
231.12	2195.42
231.34	2228.19
231.56	2234.33
231.78	2154.46
232.00	2303.96
232.21	2179.04
232.43	2176.99
232.65	2060.26
232.87	2287.58
233.09	2105.31
233.30	2136.03
233.52	2258.91
233.74	2244.57
233.96	2144.22
234.18	2260.96
234.40	2258.91
234.61	2523.10
234.83	2088.93
235.05	2123.74
235.27	2590.68
235.49	2432.99
235.70	2166.75
235.92	2226.14
236.14	2314.20
236.36	2408.41
236.58	2072.54
236.79	2170.85
237.01	2183.13
237.23	2203.61
237.45	2428.89
237.67	2183.13
237.88	2258.91
238.10	2398.17
238.32	2105.31
238.54	2160.61
238.76	2248.67
238.97	2193.37
239.19	2115.55
239.41	2250.72
239.63	2351.07
239.85	2193.37
240.06	2240.48
240.28	2105.31
240.50	2332.64
240.72	2250.72
240.93	2176.99
241.15	2314.20
241.37	2211.81
241.59	2375.64
241.81	2160.61
242.02	2217.95
242.24	2285.53
242.46	2318.30
242.68	2054.11
242.89	2176.99
243.11	2537.43
243.33	2220.00
243.55	2220.00
243.76	2252.77
243.98	2217.95
244.20	2269.15
244.42	2220.00
244.64	2303.96
244.85	2117.60
245.07	2187.23
245.29	2213.85
245.51	2211.81
245.72	2246.62
245.94	2322.40
246.16	2215.90
246.38	2203.61
246.59	2265.05
246.81	2162.66
247.03	2133.98
247.24	2074.59
247.46	2176.99
247.68	2318.30
247.90	2133.98
248.11	2142.18
248.33	2297.82
248.55	2185.18
248.77	2220.00
248.98	2236.38
249.20	2346.97
249.42	2279.39
249.64	2250.72
249.85	2131.94
250.07	2256.86
250.29	2340.83
250.50	2203.61
250.72	2033.63
250.94	2349.02
251.16	2529.24
251.37	2244.57
251.59	2238.43
251.81	2355.16
252.02	2383.84
252.24	2162.66
252.46	2258.91
252.68	2142.18
252.89	2285.53
253.11	2072.54
253.33	2332.64
253.54	2439.13
253.76	2111.46
253.98	2160.61
254.20	2162.66
254.41	2105.31
254.63	2209.76
254.85	2047.97
255.06	2226.14
255.28	2267.10
255.50	2215.90
255.71	2201.57
255.93	2093.02
256.15	2236.38
256.36	2336.73
256.58	2121.70
256.80	2164.70
257.02	2195.42
257.23	2138.08
257.45	2187.23
257.67	2142.18
257.88	2273.25
258.10	2250.72
258.32	2176.99
258.53	2174.94
258.75	2418.65
258.97	2267.10
259.18	2220.00
259.40	2187.23
259.62	2451.42
259.83	2457.56
260.05	2142.18
260.27	2594.78
260.48	2301.92
260.70	2193.37
260.92	2146.27
261.13	2269.15
261.35	2291.68
261.57	2326.49
261.78	2017.25
262.00	2129.89
262.22	2271.20
262.43	2201.57
262.65	2232.29
262.86	2199.52
263.08	2521.05
263.30	2287.58
263.51	1976.29
263.73	2113.50
263.95	2430.94
264.16	2191.33
264.38	2142.18
264.60	2136.03
264.81	2260.96
265.03	2295.77
265.25	2297.82
265.46	2105.31
265.68	2484.19
265.89	2306.01
266.11	1957.86
266.33	2226.14
266.54	2351.07
266.76	2291.68
266.98	2273.25
267.19	2297.82
267.41	2357.21
267.62	2273.25
267.84	2050.02
268.06	2246.62
268.27	2308.06
268.49	2330.59
268.70	2236.38
268.92	2150.37
269.14	2222.05
269.35	2078.69
269.57	2183.13
269.79	2246.62
270.00	2234.33
270.22	2422.75
270.43	2080.74
270.65	2029.54
270.87	2207.71
271.08	2285.53
271.30	2244.57
271.51	2244.57
271.73	2301.92
271.95	2414.56
272.16	2189.28
272.38	2181.09
272.59	2199.52
272.81	2324.44
273.02	2133.98
273.24	2205.66
273.46	2289.63
273.67	2158.56
273.89	2129.89
274.10	2201.57
274.32	2349.02
274.54	2291.68
274.75	2281.44
274.97	2222.05
275.18	2299.87
275.40	2306.01
275.61	2244.57
275.83	2242.53
276.05	2138.08
276.26	2279.39
276.48	2267.10
276.69	2129.89
276.91	2187.23
277.12	2418.65
277.34	2342.88
277.55	2252.77
277.77	2312.16
277.99	2244.57
278.20	2160.61
278.42	2037.73
278.63	2238.43
278.85	2170.85
279.06	2146.27
279.28	2275.29
279.49	2297.82
279.71	2236.38
279.93	2324.44
280.14	2191.33
280.36	2111.46
280.57	2293.72
280.79	2269.15
281.00	2127.84
281.22	2258.91
281.43	2342.88
281.65	2015.20
281.86	2125.79
282.08	2291.68
282.29	2555.86
282.51	2119.65
282.73	2199.52
282.94	2156.51
283.16	2254.81
283.37	2363.36
283.59	2246.62
283.80	2346.97
284.02	2271.20
284.23	2248.67
284.45	2215.90
284.66	2158.56
284.88	2170.85
285.09	2242.53
285.31	2293.72
285.52	2357.21
285.74	2080.74
285.95	2299.87
286.17	2301.92
286.38	2342.88
286.60	2220.00
286.81	2228.19
287.03	2240.48
287.24	2230.24
287.46	2267.10
287.67	2267.10
287.89	2320.35
288.10	2267.10
288.32	2312.16
288.53	2414.56
288.75	2209.76
288.96	2346.97
289.18	2172.89
289.39	2209.76
289.61	2322.40
289.82	2445.27
290.04	2445.27
290.25	2117.60
290.47	2242.53
290.68	2209.76
290.90	2363.36
291.11	2064.35
291.33	2303.96
291.54	2131.94
291.76	2179.04
291.97	2220.00
292.18	2312.16
292.40	2228.19
292.61	2244.57
292.83	2412.51
293.04	2246.62
293.26	2310.11
293.47	2199.52
293.69	2127.84
293.90	2209.76
294.12	2328.54
294.33	2230.24
294.55	2191.33
294.76	2330.59
294.97	2488.28
295.19	2424.80
295.40	2265.05
295.62	2299.87
295.83	2220.00
296.05	2154.46
296.26	2320.35
296.48	2211.81
296.69	2283.49
296.90	2176.99
297.12	2297.82
297.33	2398.17
297.55	2273.25
297.76	2234.33
297.98	2332.64
298.19	2263.01
298.41	2193.37
298.62	2078.69
298.83	2318.30
299.05	2246.62
299.26	2226.14
299.48	2103.26
299.69	2256.86
299.90	2234.33
300.12	2191.33
300.33	2359.26
300.55	2310.11
300.76	2318.30
300.98	2201.57
301.19	2293.72
301.40	2193.37
301.62	2203.61
301.83	2289.63
302.05	2209.76
302.26	2220.00
302.47	2244.57
302.69	2152.42
302.90	2291.68
303.12	2015.20
303.33	2260.96
303.54	2463.71
303.76	2277.34
303.97	2283.49
304.19	2410.46
304.40	2240.48
304.61	2301.92
304.83	2359.26
305.04	2332.64
305.26	2269.15
305.47	2265.05
305.68	2252.77
305.90	2140.13
306.11	2408.41
306.33	2293.72
306.54	2117.60
306.75	2183.13
306.97	2117.60
307.18	2138.08
307.39	2170.85
307.61	2277.34
307.82	2215.90
308.04	2301.92
308.25	2146.27
308.46	2271.20
308.68	2258.91
308.89	2277.34
309.10	2256.86
309.32	2226.14
309.53	2213.85
309.74	2340.83
309.96	2232.29
310.17	2387.93
310.39	2220.00
310.60	2242.53
310.81	2164.70
311.03	2152.42
311.24	2316.25
311.45	2269.15
311.67	2424.80
311.88	2303.96
312.09	2260.96
312.31	2199.52
312.52	2234.33
312.73	2197.47
312.95	2170.85
313.16	2166.75
313.37	2326.49
313.59	2289.63
313.80	2297.82
314.01	2443.23
314.23	2170.85
314.44	2189.28
314.65	2142.18
314.87	2154.46
315.08	2203.61
315.29	2133.98
315.51	2166.75
315.72	2097.12
315.93	2342.88
316.15	2260.96
316.36	2211.81
316.57	2308.06
316.79	2285.53
317.00	2248.67
317.21	2285.53
317.43	2097.12
317.64	2250.72
317.85	2138.08
318.07	2248.67
318.28	2271.20
318.49	2463.71
318.70	2516.95
318.92	2371.55
319.13	2351.07
319.34	2404.32
319.56	2301.92
319.77	2422.75
319.98	2412.51
320.20	2404.32
320.41	2314.20
320.62	2346.97
320.83	2152.42
321.05	2367.45
321.26	2209.76
321.47	2277.34
321.69	2377.69
321.90	2097.12
322.11	2179.04
322.32	2310.11
322.54	2398.17
322.75	2187.23
322.96	2588.63
323.18	2183.13
323.39	2023.39
323.60	2170.85
323.81	2310.11
324.03	2125.79
324.24	2181.09
324.45	2310.11
324.66	2174.94
324.88	2379.74
325.09	2437.08
325.30	2217.95
325.52	2265.05
325.73	2277.34
325.94	2111.46
326.15	2088.93
326.37	2109.41
326.58	2281.44
326.79	2424.80
327.00	2213.85
327.22	2236.38
327.43	2138.08
327.64	2097.12
327.85	2379.74
328.07	2277.34
328.28	2412.51
328.49	2136.03
328.70	2228.19
328.92	2199.52
329.13	2244.57
329.34	2291.68
329.55	2396.12
329.76	2310.11
329.98	2297.82
330.19	2410.46
330.40	2224.09
330.61	2172.89
330.83	2332.64
331.04	2183.13
331.25	2213.85
331.46	2203.61
331.68	2097.12
331.89	2326.49
332.10	2244.57
332.31	2176.99
332.52	2316.25
332.74	2410.46
332.95	2072.54
333.16	2166.75
333.37	2355.16
333.58	2183.13
333.80	2242.53
334.01	2136.03
334.22	2232.29
334.43	2162.66
334.64	2238.43
334.86	2146.27
335.07	2146.27
335.28	2379.74
335.49	2224.09
335.70	2260.96
335.92	2359.26
336.13	2529.24
336.34	2265.05
336.55	2271.20
336.76	2379.74
336.98	2045.92
337.19	2203.61
337.40	2326.49
337.61	2592.73
337.82	2224.09
338.04	2228.19
338.25	2105.31
338.46	2260.96
338.67	2215.90
338.88	2127.84
339.09	2158.56
339.31	2162.66
339.52	2125.79
339.73	2129.89
339.94	2195.42
340.15	2404.32
340.36	2164.70
340.58	2295.77
340.79	2131.94
341.00	2340.83
341.21	2140.13
341.42	2381.79
341.63	2179.04
341.85	2365.40
342.06	2351.07
342.27	2138.08
342.48	2299.87
342.69	2187.23
342.90	2269.15
343.12	2344.92
343.33	2162.66
343.54	2314.20
343.75	2379.74
343.96	2187.23
344.17	2193.37
344.38	2281.44
344.60	2131.94
344.81	2129.89
345.02	2236.38
345.23	2414.56
345.44	2559.96
345.65	2250.72
345.86	2267.10
346.07	2332.64
346.29	2195.42
346.50	2316.25
346.71	2301.92
346.92	2430.94
347.13	2410.46
347.34	2199.52
347.55	2179.04
347.76	2367.45
347.98	2101.22
348.19	2248.67
348.40	2310.11
348.61	2244.57
348.82	2402.27
349.03	2267.10
349.24	2154.46
349.45	2504.67
349.66	2088.93
349.88	2211.81
350.09	2158.56
350.30	2408.41
350.51	2328.54
350.72	2193.37
350.93	2265.05
351.14	2234.33
351.35	2232.29
351.56	2306.01
351.77	2232.29
351.99	2265.05
352.20	2418.65
352.41	2342.88
352.62	2119.65
352.83	2211.81
353.04	2215.90
353.25	2160.61
353.46	2330.59
353.67	2359.26
353.88	2070.50
354.09	2215.90
354.30	2179.04
354.52	2248.67
354.73	2197.47
354.94	2160.61
355.15	2234.33
355.36	2478.04
355.57	2260.96
355.78	2234.33
355.99	2144.22
356.20	2226.14
356.41	2412.51
356.62	2283.49
356.83	2207.71
357.04	2404.32
357.25	2086.88
357.46	2217.95
357.68	2138.08
357.89	2152.42
358.10	2209.76
358.31	2269.15
358.52	2201.57
358.73	2220.00
358.94	2191.33
359.15	2138.08
359.36	2310.11
359.57	2250.72
359.78	2256.86
359.99	2324.44
360.20	2158.56
360.41	2248.67
360.62	2322.40
360.83	2279.39
361.04	2187.23
361.25	2236.38
361.46	2490.33
361.67	2324.44
361.88	2271.20
362.09	2285.53
362.30	2252.77
362.51	2265.05
362.72	2281.44
362.93	2363.36
363.14	2299.87
363.35	2346.97
363.56	2170.85
363.78	2328.54
363.99	2355.16
364.20	2170.85
364.41	2295.77
364.62	2486.23
364.83	2222.05
365.04	2244.57
365.25	2226.14
365.46	2471.90
365.67	2138.08
365.88	2234.33
366.09	2142.18
366.30	2232.29
366.51	2297.82
366.72	2113.50
366.93	2269.15
367.14	2244.57
367.35	2453.47
367.56	2236.38
367.77	2312.16
367.98	2236.38
368.18	2267.10
368.39	2326.49
368.60	2093.02
368.81	2387.93
369.02	2244.57
369.23	2220.00
369.44	2115.55
369.65	2232.29
369.86	2250.72
370.07	2215.90
370.28	2080.74
370.49	2281.44
370.70	2285.53
370.91	2146.27
371.12	2068.45
371.33	2340.83
371.54	2199.52
371.75	2365.40
371.96	2017.25
372.17	2240.48
372.38	2201.57
372.59	2246.62
372.80	2174.94
373.01	2246.62
373.22	2342.88
373.43	2213.85
373.64	2117.60
373.85	2357.21
374.06	2392.03
374.26	2346.97
374.47	2332.64
374.68	2461.66
374.89	2269.15
375.10	2162.66
375.31	2263.01
375.52	2234.33
375.73	2242.53
375.94	2179.04
376.15	2375.64
376.36	2164.70
376.57	2203.61
376.78	2168.80
376.99	2295.77
377.20	2373.60
377.40	2207.71
377.61	2447.32
377.82	2152.42
378.03	2385.88
378.24	2322.40
378.45	2242.53
378.66	2326.49
378.87	2129.89
379.08	2101.22
379.29	2195.42
379.50	2428.89
379.71	2205.66
379.91	2336.73
380.12	2236.38
380.33	2181.09
380.54	2252.77
380.75	2285.53
380.96	2209.76
381.17	2398.17
381.38	2295.77
381.59	2287.58
381.80	2250.72
382.00	2455.51
382.21	2260.96
382.42	2457.56
382.63	2463.71
382.84	2359.26
383.05	2332.64
383.26	2330.59
383.47	2375.64
383.68	2258.91
383.88	2265.05
384.09	2269.15
384.30	2502.62
384.51	2293.72
384.72	2193.37
384.93	2121.70
385.14	2224.09
385.35	2320.35
385.55	2111.46
385.76	2412.51
385.97	2267.10
386.18	2095.07
386.39	2179.04
386.60	2211.81
386.81	2207.71
387.02	2172.89
387.22	2142.18
387.43	2340.83
387.64	2334.68
387.85	2441.18
388.06	2502.62
388.27	3964.87
388.48	8247.17
388.68	11587.41
388.89	14214.95
389.10	15206.17
389.31	13995.82
389.52	10985.30
389.73	9539.44
389.93	8542.08
390.14	7890.82
390.35	7290.77
390.56	6406.05
390.77	5189.55
390.98	3993.54
391.18	3211.22
391.39	2772.95
391.60	2351.07
391.81	2437.08
392.02	2220.00
392.23	2492.38
392.43	2332.64
392.64	2404.32
392.85	2273.25
393.06	2359.26
393.27	2322.40
393.47	2138.08
393.68	2201.57
393.89	2236.38
394.10	2400.22
394.31	2174.94
394.52	2203.61
394.72	2187.23
394.93	2463.71
395.14	2105.31
395.35	2353.12
395.56	2193.37
395.76	2269.15
395.97	2271.20
396.18	2389.98
396.39	2367.45
396.60	2758.61
396.80	2473.95
397.01	2349.02
397.22	2428.89
397.43	2355.16
397.64	2267.10
397.84	2383.84
398.05	2568.15
398.26	2303.96
398.47	2371.55
398.67	2287.58
398.88	2269.15
399.09	2308.06
399.30	2220.00
399.51	2340.83
399.71	2121.70
399.92	2306.01
400.13	2289.63
400.34	2250.72
400.54	2199.52
400.75	2416.60
400.96	2365.40
401.17	2414.56
401.37	2316.25
401.58	2283.49
401.79	2299.87
402.00	2359.26
402.21	2699.22
402.41	2459.61
402.62	2635.74
402.83	2639.83
403.04	2717.65
403.24	2877.40
403.45	2457.56
403.66	2529.24
403.87	2486.23
404.07	2512.86
404.28	2506.71
404.49	2486.23
404.70	2324.44
404.90	2308.06
405.11	2355.16
405.32	2351.07
405.52	2213.85
405.73	2187.23
405.94	2191.33
406.15	2258.91
406.35	2310.11
406.56	2322.40
406.77	2244.57
406.98	2351.07
407.18	2193.37
407.39	2392.03
407.60	2193.37
407.80	2265.05
408.01	2293.72
408.22	2349.02
408.43	2217.95
408.63	2367.45
408.84	2375.64
409.05	2308.06
409.25	2217.95
409.46	2269.15
409.67	2152.42
409.88	2256.86
410.08	2291.68
410.29	2240.48
410.50	2240.48
410.70	2318.30
410.91	2127.84
411.12	2228.19
411.32	2269.15
411.53	2201.57
411.74	2349.02
411.95	2406.36
412.15	2271.20
412.36	2330.59
412.57	2373.60
412.77	2351.07
412.98	2246.62
413.19	2361.31
413.39	2279.39
413.60	2269.15
413.81	2355.16
414.01	2181.09
414.22	2338.78
414.43	2285.53
414.63	2256.86
414.84	2398.17
415.05	2236.38
415.25	2111.46
415.46	2293.72
415.67	2226.14
415.87	2287.58
416.08	2285.53
416.29	2250.72
416.49	2303.96
416.70	2267.10
416.91	2232.29
417.11	2269.15
417.32	2330.59
417.53	2346.97
417.73	2295.77
417.94	2234.33
418.15	2332.64
418.35	2316.25
418.56	2220.00
418.77	2351.07
418.97	2271.20
419.18	2199.52
419.38	2031.58
419.59	2174.94
419.80	2445.27
420.00	2207.71
420.21	2203.61
420.42	2437.08
420.62	2291.68
420.83	2195.42
421.04	2183.13
421.24	2254.81
421.45	2340.83
421.65	2244.57
421.86	2211.81
422.07	2353.12
422.27	2326.49
422.48	2183.13
422.69	2103.26
422.89	2283.49
423.10	2236.38
423.30	2197.47
423.51	2246.62
423.72	2269.15
423.92	2308.06
424.13	2138.08
424.33	2318.30
424.54	2351.07
424.75	2211.81
424.95	2398.17
425.16	2220.00
425.36	2279.39
425.57	2318.30
425.78	2355.16
425.98	2387.93
426.19	2246.62
426.39	2203.61
426.60	2277.34
426.81	2336.73
427.01	2342.88
427.22	2191.33
427.42	2052.06
427.63	2236.38
427.83	2340.83
428.04	2365.40
428.25	2308.06
428.45	2355.16
428.66	2408.41
428.86	2269.15
429.07	2289.63
429.28	2254.81
429.48	2170.85
429.69	2119.65
429.89	2265.05
430.10	2148.32
430.30	2351.07
430.51	2318.30
430.71	2220.00
430.92	2238.43
431.13	2222.05
431.33	2277.34
431.54	2242.53
431.74	2416.60
431.95	2523.10
432.15	2205.66
432.36	2230.24
432.56	2371.55
432.77	2430.94
432.98	2453.47
433.18	2316.25
433.39	2269.15
433.59	2193.37
433.80	2453.47
434.00	2473.95
434.21	2244.57
434.41	2199.52
434.62	2484.19
434.82	2152.42
435.03	2113.50
435.23	2289.63
435.44	2138.08
435.64	2152.42
435.85	2281.44
436.06	2351.07
436.26	2332.64
436.47	2193.37
436.67	2154.46
436.88	2162.66
437.08	2394.08
437.29	2486.23
437.49	2246.62
437.70	2340.83
437.90	2224.09
438.11	2484.19
438.31	2308.06
438.52	2512.86
438.72	2443.23
438.93	2510.81
439.13	2306.01
439.34	2480.09
439.54	2340.83
439.75	2439.13
439.95	2318.30
440.16	2179.04
440.36	2375.64
440.57	2326.49
440.77	2342.88
440.98	2275.29
441.18	2346.97
441.39	2205.66
441.59	2115.55
441.80	2480.09
442.00	2285.53
442.21	2379.74
442.41	2162.66
442.62	2314.20
442.82	2244.57
443.02	2263.01
443.23	2252.77
443.43	2252.77
443.64	2377.69
443.84	2220.00
444.05	2324.44
444.25	2301.92
444.46	2283.49
444.66	2220.00
444.87	2412.51
445.07	2166.75
445.28	2240.48
445.48	2355.16
445.69	2369.50
445.89	2473.95
446.09	2293.72
446.30	2475.99
446.50	2795.48
446.71	4462.52
446.91	5707.69
447.12	6391.71
447.32	6778.78
447.53	6281.12
447.73	5089.20
447.93	4542.39
448.14	4341.69
448.34	4054.98
448.55	3647.43
448.75	3571.66
448.96	3348.43
449.16	3059.67
449.36	2885.59
449.57	2570.20
449.77	2367.45
449.98	2279.39
450.18	2285.53
450.39	2310.11
450.59	2377.69
450.79	2326.49
451.00	2191.33
451.20	2418.65
451.41	2209.76
451.61	2258.91
451.81	2260.96
452.02	2217.95
452.22	2246.62
452.43	2256.86
452.63	2228.19
