SpectraSuite Data File
++++++++++++++++++++++++++++++++++++
Date: Thu May 05 13:20:44 CEST 2016
User: root
Dark Spectrum Present: No
Reference Spectrum Present: No
Number of Sampled Component Spectra: 1
Spectrometers: USB4C02835
Integration Time (usec): 100000 (USB4C02835)
Spectra Averaged: 1 (USB4C02835)
Boxcar Smoothing: 0 (USB4C02835)
Correct for Electrical Dark: No (USB4C02835)
Strobe/Lamp Enabled: No (USB4C02835)
Correct for Detector Non-linearity: No (USB4C02835)
Correct for Stray Light: No (USB4C02835)
Number of Pixels in Processed Spectrum: 3648
>>>>>Begin Processed Spectral Data<<<<<
177.47	1841.12
177.69	1841.12
177.91	1841.12
178.13	1781.73
178.36	1724.39
178.58	2217.95
178.80	2332.64
179.02	2084.83
179.24	2140.13
179.46	2154.46
179.68	2197.47
179.90	2267.10
180.13	2234.33
180.35	2129.89
180.57	2131.94
180.79	2244.57
181.01	2263.01
181.23	2322.40
181.45	2308.06
181.67	2322.40
181.90	2308.06
182.12	2277.34
182.34	2099.17
182.56	2357.21
182.78	2332.64
183.00	2244.57
183.22	2195.42
183.44	2088.93
183.66	2549.72
183.89	2303.96
184.11	2230.24
184.33	2265.05
184.55	2316.25
184.77	2232.29
184.99	2154.46
185.21	2179.04
185.43	2596.82
185.65	2109.41
185.87	2201.57
186.10	2543.58
186.32	2531.29
186.54	2230.24
186.76	2236.38
186.98	2363.36
187.20	2152.42
187.42	2146.27
187.64	2238.43
187.86	2256.86
188.08	2246.62
188.30	2111.46
188.52	2138.08
188.75	2269.15
188.97	2389.98
189.19	2129.89
189.41	2129.89
189.63	2344.92
189.85	2179.04
190.07	2119.65
190.29	2021.35
190.51	2275.29
190.73	2064.35
190.95	2359.26
191.17	2258.91
191.39	2099.17
191.61	2238.43
191.84	2138.08
192.06	2197.47
192.28	2207.71
192.50	2549.72
192.72	2240.48
192.94	2205.66
193.16	2383.84
193.38	2289.63
193.60	2158.56
193.82	2189.28
194.04	2363.36
194.26	2279.39
194.48	2183.13
194.70	2131.94
194.92	2193.37
195.14	2322.40
195.36	2148.32
195.58	2269.15
195.80	2277.34
196.02	2133.98
196.24	2123.74
196.46	2277.34
196.69	2150.37
196.91	2420.70
197.13	2181.09
197.35	2129.89
197.57	2404.32
197.79	2254.81
198.01	2326.49
198.23	2240.48
198.45	2281.44
198.67	2224.09
198.89	2084.83
199.11	2275.29
199.33	2293.72
199.55	2072.54
199.77	2111.46
199.99	2271.20
200.21	2250.72
200.43	2326.49
200.65	2095.07
200.87	2043.87
201.09	2211.81
201.31	2285.53
201.53	2228.19
201.75	2187.23
201.97	2330.59
202.19	2230.24
202.41	2238.43
202.63	2361.31
202.85	2338.78
203.07	2260.96
203.29	2146.27
203.51	2181.09
203.73	2220.00
203.95	2572.25
204.17	2156.51
204.39	2293.72
204.61	2269.15
204.83	2232.29
205.05	2236.38
205.27	2187.23
205.49	2461.66
205.71	2301.92
205.93	2127.84
206.15	2146.27
206.37	2260.96
206.59	2187.23
206.81	2121.70
207.03	2144.22
207.25	2187.23
207.47	2318.30
207.69	2195.42
207.91	2332.64
208.13	2441.18
208.34	2228.19
208.56	2113.50
208.78	2248.67
209.00	2174.94
209.22	2150.37
209.44	2146.27
209.66	2107.36
209.88	2324.44
210.10	2250.72
210.32	2146.27
210.54	2275.29
210.76	2234.33
210.98	2480.09
211.20	2097.12
211.42	2314.20
211.64	2394.08
211.86	2310.11
212.08	2269.15
212.30	2203.61
212.52	2220.00
212.74	2260.96
212.96	2295.77
213.17	2238.43
213.39	2289.63
213.61	2404.32
213.83	2199.52
214.05	2238.43
214.27	2301.92
214.49	2170.85
214.71	2107.36
214.93	2256.86
215.15	2322.40
215.37	2322.40
215.59	2039.78
215.81	2285.53
216.03	2428.89
216.24	2185.18
216.46	2127.84
216.68	2242.53
216.90	2324.44
217.12	2396.12
217.34	2240.48
217.56	2230.24
217.78	2373.60
218.00	2344.92
218.22	2258.91
218.44	2201.57
218.66	2283.49
218.87	2424.80
219.09	2146.27
219.31	2291.68
219.53	2203.61
219.75	2211.81
219.97	2203.61
220.19	2250.72
220.41	2211.81
220.63	2453.47
220.85	2199.52
221.06	2095.07
221.28	2351.07
221.50	2308.06
221.72	2207.71
221.94	2170.85
222.16	2273.25
222.38	2316.25
222.60	2248.67
222.82	2232.29
223.03	2316.25
223.25	2090.98
223.47	2179.04
223.69	2318.30
223.91	2316.25
224.13	2406.36
224.35	2129.89
224.57	2351.07
224.78	2260.96
225.00	2195.42
225.22	2267.10
225.44	2244.57
225.66	2277.34
225.88	2252.77
226.10	2275.29
226.32	2179.04
226.53	2428.89
226.75	2330.59
226.97	2228.19
227.19	2236.38
227.41	2179.04
227.63	2217.95
227.85	2088.93
228.06	2213.85
228.28	2220.00
228.50	2367.45
228.72	2103.26
228.94	2234.33
229.16	2121.70
229.37	2146.27
229.59	2095.07
229.81	2351.07
230.03	2179.04
230.25	2199.52
230.47	2113.50
230.69	2056.16
230.90	2322.40
231.12	2232.29
231.34	2275.29
231.56	2281.44
231.78	2162.66
232.00	2238.43
232.21	2113.50
232.43	2152.42
232.65	1984.48
232.87	2338.78
233.09	2064.35
233.30	2127.84
233.52	2308.06
233.74	2228.19
233.96	2140.13
234.18	2209.76
234.40	2285.53
234.61	2496.47
234.83	2109.41
235.05	2097.12
235.27	2586.58
235.49	2355.16
235.70	2129.89
235.92	2326.49
236.14	2318.30
236.36	2486.23
236.58	2129.89
236.79	2207.71
237.01	2236.38
237.23	2273.25
237.45	2365.40
237.67	2119.65
237.88	2291.68
238.10	2562.01
238.32	2127.84
238.54	2168.80
238.76	2287.58
238.97	2181.09
239.19	2105.31
239.41	2244.57
239.63	2326.49
239.85	2195.42
240.06	2185.18
240.28	2277.34
240.50	2389.98
240.72	2217.95
240.93	2113.50
241.15	2244.57
241.37	2250.72
241.59	2400.22
241.81	2117.60
242.02	2252.77
242.24	2269.15
242.46	2310.11
242.68	2105.31
242.89	2187.23
243.11	2340.83
243.33	2211.81
243.55	2185.18
243.76	2224.09
243.98	2183.13
244.20	2242.53
244.42	2158.56
244.64	2181.09
244.85	2209.76
245.07	2191.33
245.29	2187.23
245.51	2191.33
245.72	2306.01
245.94	2289.63
246.16	2160.61
246.38	2224.09
246.59	2195.42
246.81	2099.17
247.03	2154.46
247.24	2093.02
247.46	2211.81
247.68	2297.82
247.90	2064.35
248.11	2179.04
248.33	2340.83
248.55	2236.38
248.77	2224.09
248.98	2269.15
249.20	2463.71
249.42	2224.09
249.64	2252.77
249.85	2150.37
250.07	2236.38
250.29	2303.96
250.50	2263.01
250.72	2029.54
250.94	2344.92
251.16	2459.61
251.37	2199.52
251.59	2203.61
251.81	2260.96
252.02	2363.36
252.24	2097.12
252.46	2420.70
252.68	2158.56
252.89	2176.99
253.11	2056.16
253.33	2287.58
253.54	2314.20
253.76	2101.22
253.98	2129.89
254.20	2203.61
254.41	2105.31
254.63	2246.62
254.85	2021.35
255.06	2203.61
255.28	2291.68
255.50	2232.29
255.71	2146.27
255.93	2047.97
256.15	2199.52
256.36	2318.30
256.58	2136.03
256.80	2191.33
257.02	2256.86
257.23	2172.89
257.45	2133.98
257.67	2293.72
257.88	2183.13
258.10	2332.64
258.32	2222.05
258.53	2213.85
258.75	2447.32
258.97	2154.46
259.18	2107.36
259.40	2207.71
259.62	2441.18
259.83	2375.64
260.05	2267.10
260.27	2623.45
260.48	2283.49
260.70	2146.27
260.92	2168.80
261.13	2240.48
261.35	2228.19
261.57	2295.77
261.78	2138.08
262.00	2121.70
262.22	2310.11
262.43	2168.80
262.65	2220.00
262.86	2236.38
263.08	2516.95
263.30	2285.53
263.51	2082.78
263.73	2109.41
263.95	2365.40
264.16	2172.89
264.38	2164.70
264.60	2181.09
264.81	2168.80
265.03	2340.83
265.25	2277.34
265.46	2181.09
265.68	2414.56
265.89	2242.53
266.11	2047.97
266.33	2170.85
266.54	2316.25
266.76	2283.49
266.98	2308.06
267.19	2316.25
267.41	2359.26
267.62	2203.61
267.84	2043.87
268.06	2281.44
268.27	2248.67
268.49	2340.83
268.70	2150.37
268.92	2158.56
269.14	2187.23
269.35	2156.51
269.57	2248.67
269.79	2209.76
270.00	2211.81
270.22	2435.03
270.43	2105.31
270.65	2031.58
270.87	2275.29
271.08	2308.06
271.30	2281.44
271.51	2228.19
271.73	2285.53
271.95	2377.69
272.16	2189.28
272.38	2244.57
272.59	2156.51
272.81	2293.72
273.02	2203.61
273.24	2201.57
273.46	2269.15
273.67	2105.31
273.89	2144.22
274.10	2154.46
274.32	2400.22
274.54	2312.16
274.75	2260.96
274.97	2174.94
275.18	2332.64
275.40	2351.07
275.61	2187.23
275.83	2209.76
276.05	2105.31
276.26	2244.57
276.48	2277.34
276.69	2088.93
276.91	2170.85
277.12	2379.74
277.34	2361.31
277.55	2279.39
277.77	2289.63
277.99	2154.46
278.20	2170.85
278.42	2088.93
278.63	2217.95
278.85	2121.70
279.06	2109.41
279.28	2273.25
279.49	2324.44
279.71	2351.07
279.93	2299.87
280.14	2193.37
280.36	2183.13
280.57	2326.49
280.79	2281.44
281.00	2224.09
281.22	2158.56
281.43	2285.53
281.65	2007.01
281.86	2156.51
282.08	2312.16
282.29	2428.89
282.51	2086.88
282.73	2148.32
282.94	2111.46
283.16	2324.44
283.37	2379.74
283.59	2228.19
283.80	2306.01
284.02	2234.33
284.23	2195.42
284.45	2140.13
284.66	2242.53
284.88	2248.67
285.09	2211.81
285.31	2306.01
285.52	2250.72
285.74	2133.98
285.95	2312.16
286.17	2230.24
286.38	2359.26
286.60	2162.66
286.81	2174.94
287.03	2222.05
287.24	2275.29
287.46	2289.63
287.67	2277.34
287.89	2306.01
288.10	2299.87
288.32	2287.58
288.53	2353.12
288.75	2230.24
288.96	2328.54
289.18	2201.57
289.39	2142.18
289.61	2254.81
289.82	2486.23
290.04	2455.51
290.25	2179.04
290.47	2277.34
290.68	2269.15
290.90	2353.12
291.11	2060.26
291.33	2269.15
291.54	2174.94
291.76	2260.96
291.97	2301.92
292.18	2240.48
292.40	2248.67
292.61	2168.80
292.83	2426.84
293.04	2199.52
293.26	2269.15
293.47	2228.19
293.69	2154.46
293.90	2314.20
294.12	2459.61
294.33	2187.23
294.55	2176.99
294.76	2267.10
294.97	2328.54
295.19	2496.47
295.40	2232.29
295.62	2289.63
295.83	2357.21
296.05	2109.41
296.26	2326.49
296.48	2242.53
296.69	2209.76
296.90	2183.13
297.12	2295.77
297.33	2396.12
297.55	2224.09
297.76	2277.34
297.98	2314.20
298.19	2154.46
298.41	2220.00
298.62	2146.27
298.83	2375.64
299.05	2267.10
299.26	2252.77
299.48	2060.26
299.69	2232.29
299.90	2246.62
300.12	2148.32
300.33	2297.82
300.55	2170.85
300.76	2228.19
300.98	2068.45
301.19	2230.24
301.40	2236.38
301.62	2187.23
301.83	2244.57
302.05	2293.72
302.26	2207.71
302.47	2226.14
302.69	2201.57
302.90	2299.87
303.12	2095.07
303.33	2267.10
303.54	2389.98
303.76	2240.48
303.97	2240.48
304.19	2365.40
304.40	2148.32
304.61	2324.44
304.83	2349.02
305.04	2322.40
305.26	2334.68
305.47	2248.67
305.68	2164.70
305.90	2078.69
306.11	2351.07
306.33	2236.38
306.54	2107.36
306.75	2152.42
306.97	2162.66
307.18	2230.24
307.39	2197.47
307.61	2228.19
307.82	2105.31
308.04	2246.62
308.25	2170.85
308.46	2293.72
308.68	2252.77
308.89	2127.84
309.10	2363.36
309.32	2250.72
309.53	2238.43
309.74	2314.20
309.96	2174.94
310.17	2299.87
310.39	2236.38
310.60	2244.57
310.81	2289.63
311.03	2084.83
311.24	2346.97
311.45	2289.63
311.67	2394.08
311.88	2246.62
312.09	2240.48
312.31	2301.92
312.52	2189.28
312.73	2152.42
312.95	2125.79
313.16	2193.37
313.37	2351.07
313.59	2252.77
313.80	2301.92
314.01	2398.17
314.23	2234.33
314.44	2150.37
314.65	2183.13
314.87	2156.51
315.08	2250.72
315.29	2263.01
315.51	2158.56
315.72	2148.32
315.93	2322.40
316.15	2301.92
316.36	2244.57
316.57	2213.85
316.79	2228.19
317.00	2220.00
317.21	2275.29
317.43	2174.94
317.64	2273.25
317.85	2113.50
318.07	2211.81
318.28	2211.81
318.49	2394.08
318.70	2473.95
318.92	2367.45
319.13	2453.47
319.34	2490.33
319.56	2277.34
319.77	2299.87
319.98	2414.56
320.20	2385.88
320.41	2342.88
320.62	2277.34
320.83	2195.42
321.05	2428.89
321.26	2310.11
321.47	2197.47
321.69	2330.59
321.90	2115.55
322.11	2236.38
322.32	2322.40
322.54	2318.30
322.75	2115.55
322.96	2590.68
323.18	2121.70
323.39	2066.40
323.60	2144.22
323.81	2297.82
324.03	2209.76
324.24	2220.00
324.45	2279.39
324.66	2246.62
324.88	2314.20
325.09	2394.08
325.30	2209.76
325.52	2277.34
325.73	2330.59
325.94	2162.66
326.15	2097.12
326.37	2236.38
326.58	2252.77
326.79	2428.89
327.00	2142.18
327.22	2160.61
327.43	2232.29
327.64	2138.08
327.85	2236.38
328.07	2295.77
328.28	2445.27
328.49	2181.09
328.70	2181.09
328.92	2234.33
329.13	2168.80
329.34	2301.92
329.55	2402.27
329.76	2351.07
329.98	2203.61
330.19	2426.84
330.40	2232.29
330.61	2316.25
330.83	2383.84
331.04	2088.93
331.25	2236.38
331.46	2160.61
331.68	2174.94
331.89	2310.11
332.10	2195.42
332.31	2152.42
332.52	2248.67
332.74	2322.40
332.95	2146.27
333.16	2220.00
333.37	2273.25
333.58	2258.91
333.80	2240.48
334.01	2209.76
334.22	2308.06
334.43	2228.19
334.64	2166.75
334.86	2185.18
335.07	2162.66
335.28	2400.22
335.49	2062.30
335.70	2222.05
335.92	2375.64
336.13	2400.22
336.34	2306.01
336.55	2236.38
336.76	2301.92
336.98	2115.55
337.19	2246.62
337.40	2291.68
337.61	2490.33
337.82	2146.27
338.04	2277.34
338.25	2086.88
338.46	2183.13
338.67	2215.90
338.88	2097.12
339.09	2205.66
339.31	2277.34
339.52	2136.03
339.73	2138.08
339.94	2215.90
340.15	2326.49
340.36	2273.25
340.58	2250.72
340.79	2123.74
341.00	2250.72
341.21	2158.56
341.42	2365.40
341.63	2129.89
341.85	2355.16
342.06	2351.07
342.27	2193.37
342.48	2215.90
342.69	2150.37
342.90	2238.43
343.12	2414.56
343.33	2136.03
343.54	2389.98
343.75	2324.44
343.96	2299.87
344.17	2158.56
344.38	2232.29
344.60	2152.42
344.81	2183.13
345.02	2228.19
345.23	2365.40
345.44	2527.19
345.65	2314.20
345.86	2236.38
346.07	2201.57
346.29	2211.81
346.50	2314.20
346.71	2308.06
346.92	2338.78
347.13	2426.84
347.34	2162.66
347.55	2203.61
347.76	2279.39
347.98	2185.18
348.19	2166.75
348.40	2344.92
348.61	2209.76
348.82	2443.23
349.03	2301.92
349.24	2154.46
349.45	2349.02
349.66	2000.87
349.88	2199.52
350.09	2193.37
350.30	2396.12
350.51	2414.56
350.72	2226.14
350.93	2203.61
351.14	2252.77
351.35	2285.53
351.56	2195.42
351.77	2185.18
351.99	2324.44
352.20	2371.55
352.41	2244.57
352.62	2072.54
352.83	2324.44
353.04	2244.57
353.25	2162.66
353.46	2267.10
353.67	2308.06
353.88	2090.98
354.09	2222.05
354.30	2185.18
354.52	2363.36
354.73	2217.95
354.94	2183.13
355.15	2240.48
355.36	2519.00
355.57	2220.00
355.78	2258.91
355.99	2220.00
356.20	2168.80
356.41	2414.56
356.62	2187.23
356.83	2308.06
357.04	2449.37
357.25	2045.92
357.46	2117.60
357.68	2119.65
357.89	2050.02
358.10	2256.86
358.31	2189.28
358.52	2133.98
358.73	2056.16
358.94	2144.22
359.15	2191.33
359.36	2244.57
359.57	2293.72
359.78	2174.94
359.99	2289.63
360.20	2179.04
360.41	2283.49
360.62	2283.49
360.83	2236.38
361.04	2232.29
361.25	2201.57
361.46	2469.85
361.67	2285.53
361.88	2295.77
362.09	2367.45
362.30	2338.78
362.51	2115.55
362.72	2252.77
362.93	2328.54
363.14	2334.68
363.35	2258.91
363.56	2148.32
363.78	2267.10
363.99	2420.70
364.20	2140.13
364.41	2197.47
364.62	2457.56
364.83	2215.90
365.04	2193.37
365.25	2187.23
365.46	2523.10
365.67	2211.81
365.88	2263.01
366.09	2273.25
366.30	2254.81
366.51	2269.15
366.72	2154.46
366.93	2181.09
367.14	2197.47
367.35	2379.74
367.56	2234.33
367.77	2322.40
367.98	2269.15
368.18	2316.25
368.39	2306.01
368.60	2136.03
368.81	2291.68
369.02	2273.25
369.23	2129.89
369.44	2111.46
369.65	2232.29
369.86	2320.35
370.07	2299.87
370.28	2138.08
370.49	2326.49
370.70	2326.49
370.91	2185.18
371.12	2197.47
371.33	2394.08
371.54	2226.14
371.75	2379.74
371.96	1994.72
372.17	2258.91
372.38	2271.20
372.59	2162.66
372.80	2211.81
373.01	2273.25
373.22	2277.34
373.43	2199.52
373.64	2146.27
373.85	2291.68
374.06	2385.88
374.26	2318.30
374.47	2312.16
374.68	2389.98
374.89	2306.01
375.10	2265.05
375.31	2314.20
375.52	2287.58
375.73	2322.40
375.94	2136.03
376.15	2363.36
376.36	2215.90
376.57	2213.85
376.78	2234.33
376.99	2215.90
377.20	2375.64
377.40	2220.00
377.61	2396.12
377.82	2138.08
378.03	2416.60
378.24	2342.88
378.45	2283.49
378.66	2312.16
378.87	2052.06
379.08	2195.42
379.29	2248.67
379.50	2318.30
379.71	2232.29
379.91	2342.88
380.12	2248.67
380.33	2275.29
380.54	2265.05
380.75	2228.19
380.96	2195.42
381.17	2310.11
381.38	2174.94
381.59	2297.82
381.80	2170.85
382.00	2430.94
382.21	2330.59
382.42	2521.05
382.63	2473.95
382.84	2369.50
383.05	2338.78
383.26	2453.47
383.47	2260.96
383.68	2287.58
383.88	2306.01
384.09	2316.25
384.30	2478.04
384.51	2271.20
384.72	2183.13
384.93	2101.22
385.14	2244.57
385.35	2301.92
385.55	2097.12
385.76	2367.45
385.97	2303.96
386.18	2113.50
386.39	2234.33
386.60	2150.37
386.81	2213.85
387.02	2119.65
387.22	2209.76
387.43	2359.26
387.64	2265.05
387.85	2471.90
388.06	2480.09
388.27	3997.64
388.48	8281.99
388.68	11876.17
388.89	13997.87
389.10	15193.88
389.31	14071.59
389.52	11138.90
389.73	9426.80
389.93	8597.37
390.14	7976.84
390.35	7157.65
390.56	6430.62
390.77	5271.47
390.98	3952.58
391.18	3207.12
391.39	2719.70
391.60	2392.03
391.81	2400.22
392.02	2222.05
392.23	2471.90
392.43	2256.86
392.64	2408.41
392.85	2246.62
393.06	2392.03
393.27	2234.33
393.47	2203.61
393.68	2273.25
393.89	2236.38
394.10	2381.79
394.31	2170.85
394.52	2125.79
394.72	2187.23
394.93	2375.64
395.14	2140.13
395.35	2246.62
395.56	2279.39
395.76	2293.72
395.97	2250.72
396.18	2330.59
396.39	2432.99
396.60	2717.65
396.80	2566.10
397.01	2441.18
397.22	2443.23
397.43	2373.60
397.64	2217.95
397.84	2336.73
398.05	2549.72
398.26	2283.49
398.47	2306.01
398.67	2340.83
398.88	2306.01
399.09	2338.78
399.30	2197.47
399.51	2353.12
399.71	2154.46
399.92	2244.57
400.13	2273.25
400.34	2187.23
400.54	2281.44
400.75	2435.03
400.96	2326.49
401.17	2424.80
401.37	2301.92
401.58	2283.49
401.79	2269.15
402.00	2408.41
402.21	2641.88
402.41	2572.25
402.62	2621.40
402.83	2770.90
403.04	2686.94
403.24	2785.24
403.45	2371.55
403.66	2541.53
403.87	2463.71
404.07	2488.28
404.28	2484.19
404.49	2441.18
404.70	2314.20
404.90	2389.98
405.11	2252.77
405.32	2340.83
405.52	2152.42
405.73	2191.33
405.94	2131.94
406.15	2260.96
406.35	2260.96
406.56	2383.84
406.77	2271.20
406.98	2226.14
407.18	2191.33
407.39	2289.63
407.60	2260.96
407.80	2357.21
408.01	2244.57
408.22	2330.59
408.43	2193.37
408.63	2308.06
408.84	2324.44
409.05	2246.62
409.25	2230.24
409.46	2164.70
409.67	2168.80
409.88	2211.81
410.08	2209.76
410.29	2166.75
410.50	2404.32
410.70	2283.49
410.91	2193.37
411.12	2273.25
411.32	2306.01
411.53	2228.19
411.74	2357.21
411.95	2322.40
412.15	2310.11
412.36	2353.12
412.57	2363.36
412.77	2355.16
412.98	2260.96
413.19	2250.72
413.39	2256.86
413.60	2277.34
413.81	2441.18
414.01	2197.47
414.22	2310.11
414.43	2299.87
414.63	2215.90
414.84	2392.03
415.05	2260.96
415.25	2113.50
415.46	2260.96
415.67	2242.53
415.87	2365.40
416.08	2246.62
416.29	2224.09
416.49	2320.35
416.70	2125.79
416.91	2240.48
417.11	2176.99
417.32	2332.64
417.53	2359.26
417.73	2269.15
417.94	2308.06
418.15	2369.50
418.35	2285.53
418.56	2275.29
418.77	2447.32
418.97	2220.00
419.18	2228.19
419.38	2047.97
419.59	2248.67
419.80	2471.90
420.00	2211.81
420.21	2316.25
420.42	2379.74
420.62	2244.57
420.83	2211.81
421.04	2256.86
421.24	2326.49
421.45	2246.62
421.65	2252.77
421.86	2211.81
422.07	2373.60
422.27	2256.86
422.48	2310.11
422.69	2179.04
422.89	2207.71
423.10	2242.53
423.30	2154.46
423.51	2277.34
423.72	2367.45
423.92	2273.25
424.13	2172.89
424.33	2283.49
424.54	2367.45
424.75	2230.24
424.95	2404.32
425.16	2258.91
425.36	2267.10
425.57	2359.26
425.78	2287.58
425.98	2260.96
426.19	2224.09
426.39	2179.04
426.60	2220.00
426.81	2342.88
427.01	2244.57
427.22	2105.31
427.42	2080.74
427.63	2152.42
427.83	2328.54
428.04	2473.95
428.25	2320.35
428.45	2357.21
428.66	2404.32
428.86	2203.61
429.07	2164.70
429.28	2217.95
429.48	2254.81
429.69	2191.33
429.89	2361.31
430.10	2109.41
430.30	2332.64
430.51	2363.36
430.71	2129.89
430.92	2197.47
431.13	2170.85
431.33	2310.11
431.54	2256.86
431.74	2406.36
431.95	2473.95
432.15	2146.27
432.36	2269.15
432.56	2254.81
432.77	2531.29
432.98	2441.18
433.18	2265.05
433.39	2197.47
433.59	2240.48
433.80	2359.26
434.00	2412.51
434.21	2197.47
434.41	2154.46
434.62	2445.27
434.82	2144.22
435.03	2207.71
435.23	2297.82
435.44	2056.16
435.64	2217.95
435.85	2322.40
436.06	2301.92
436.26	2435.03
436.47	2301.92
436.67	2185.18
436.88	2326.49
437.08	2363.36
437.29	2375.64
437.49	2273.25
437.70	2365.40
437.90	2244.57
438.11	2406.36
438.31	2310.11
438.52	2422.75
438.72	2414.56
438.93	2527.19
439.13	2330.59
439.34	2355.16
439.54	2256.86
439.75	2324.44
439.95	2314.20
440.16	2164.70
440.36	2346.97
440.57	2258.91
440.77	2211.81
440.98	2273.25
441.18	2330.59
441.39	2195.42
441.59	2146.27
441.80	2484.19
442.00	2252.77
442.21	2363.36
442.41	2115.55
442.62	2373.60
442.82	2234.33
443.02	2293.72
443.23	2260.96
443.43	2195.42
443.64	2478.04
443.84	2187.23
444.05	2369.50
444.25	2281.44
444.46	2201.57
444.66	2193.37
444.87	2369.50
445.07	2121.70
445.28	2176.99
445.48	2365.40
445.69	2424.80
445.89	2543.58
446.09	2289.63
446.30	2572.25
446.50	2826.20
446.71	4466.62
446.91	5539.76
447.12	6234.02
447.32	6789.02
447.53	6340.51
447.73	5119.92
447.93	4585.40
448.14	4272.06
448.34	4067.27
448.55	3616.71
448.75	3495.88
448.96	3364.81
449.16	2979.79
449.36	2879.44
449.57	2523.10
449.77	2465.75
449.98	2244.57
450.18	2326.49
450.39	2355.16
450.59	2324.44
450.79	2267.10
451.00	2185.18
451.20	2308.06
451.41	2183.13
451.61	2322.40
451.81	2256.86
452.02	2162.66
452.22	2158.56
452.43	2179.04
452.63	2244.57
