SpectraSuite Data File
++++++++++++++++++++++++++++++++++++
Date: Thu May 05 13:21:20 CEST 2016
User: root
Dark Spectrum Present: No
Reference Spectrum Present: No
Number of Sampled Component Spectra: 1
Spectrometers: USB4C02835
Integration Time (usec): 100000 (USB4C02835)
Spectra Averaged: 1 (USB4C02835)
Boxcar Smoothing: 0 (USB4C02835)
Correct for Electrical Dark: No (USB4C02835)
Strobe/Lamp Enabled: No (USB4C02835)
Correct for Detector Non-linearity: No (USB4C02835)
Correct for Stray Light: No (USB4C02835)
Number of Pixels in Processed Spectrum: 3648
>>>>>Begin Processed Spectral Data<<<<<
177.47	1722.34
177.69	1722.34
177.91	1722.34
178.13	1824.74
178.36	1794.02
178.58	2179.04
178.80	2312.16
179.02	2097.12
179.24	2074.59
179.46	2107.36
179.68	2176.99
179.90	2242.53
180.13	2258.91
180.35	2070.50
180.57	2213.85
180.79	2381.79
181.01	2228.19
181.23	2207.71
181.45	2328.54
181.67	2252.77
181.90	2355.16
182.12	2187.23
182.34	2068.45
182.56	2355.16
182.78	2293.72
183.00	2144.22
183.22	2220.00
183.44	2037.73
183.66	2467.80
183.89	2324.44
184.11	2203.61
184.33	2357.21
184.55	2330.59
184.77	2209.76
184.99	2203.61
185.21	2203.61
185.43	2414.56
185.65	2146.27
185.87	2119.65
186.10	2408.41
186.32	2531.29
186.54	2260.96
186.76	2250.72
186.98	2383.84
187.20	2236.38
187.42	2156.51
187.64	2207.71
187.86	2279.39
188.08	2351.07
188.30	2097.12
188.52	2220.00
188.75	2441.18
188.97	2318.30
189.19	2193.37
189.41	2150.37
189.63	2246.62
189.85	2224.09
190.07	2095.07
190.29	2027.49
190.51	2365.40
190.73	2144.22
190.95	2226.14
191.17	2211.81
191.39	2119.65
191.61	2271.20
191.84	2148.32
192.06	2252.77
192.28	2127.84
192.50	2588.63
192.72	2269.15
192.94	2267.10
193.16	2383.84
193.38	2267.10
193.60	2095.07
193.82	2138.08
194.04	2297.82
194.26	2232.29
194.48	2142.18
194.70	2150.37
194.92	2203.61
195.14	2318.30
195.36	2176.99
195.58	2297.82
195.80	2232.29
196.02	2107.36
196.24	2152.42
196.46	2295.77
196.69	2201.57
196.91	2457.56
197.13	2170.85
197.35	2150.37
197.57	2394.08
197.79	2316.25
198.01	2207.71
198.23	2228.19
198.45	2258.91
198.67	2144.22
198.89	2136.03
199.11	2191.33
199.33	2209.76
199.55	2072.54
199.77	2136.03
199.99	2322.40
200.21	2183.13
200.43	2322.40
200.65	2078.69
200.87	2105.31
201.09	2256.86
201.31	2246.62
201.53	2283.49
201.75	2269.15
201.97	2267.10
202.19	2252.77
202.41	2222.05
202.63	2432.99
202.85	2234.33
203.07	2312.16
203.29	2291.68
203.51	2056.16
203.73	2123.74
203.95	2537.43
204.17	2193.37
204.39	2162.66
204.61	2310.11
204.83	2166.75
205.05	2258.91
205.27	2213.85
205.49	2398.17
205.71	2289.63
205.93	2111.46
206.15	2099.17
206.37	2279.39
206.59	2244.57
206.81	2056.16
207.03	2144.22
207.25	2209.76
207.47	2359.26
207.69	2172.89
207.91	2295.77
208.13	2445.27
208.34	2164.70
208.56	2086.88
208.78	2176.99
209.00	2195.42
209.22	2224.09
209.44	2154.46
209.66	2138.08
209.88	2244.57
210.10	2232.29
210.32	2168.80
210.54	2260.96
210.76	2187.23
210.98	2318.30
211.20	1990.63
211.42	2228.19
211.64	2392.03
211.86	2199.52
212.08	2265.05
212.30	2179.04
212.52	2267.10
212.74	2283.49
212.96	2199.52
213.17	2234.33
213.39	2342.88
213.61	2453.47
213.83	2187.23
214.05	2252.77
214.27	2432.99
214.49	2156.51
214.71	2138.08
214.93	2291.68
215.15	2228.19
215.37	2281.44
215.59	2109.41
215.81	2222.05
216.03	2301.92
216.24	2285.53
216.46	2142.18
216.68	2215.90
216.90	2342.88
217.12	2355.16
217.34	2189.28
217.56	2250.72
217.78	2381.79
218.00	2324.44
218.22	2195.42
218.44	2232.29
218.66	2252.77
218.87	2478.04
219.09	2109.41
219.31	2211.81
219.53	2230.24
219.75	2160.61
219.97	2209.76
220.19	2193.37
220.41	2254.81
220.63	2467.80
220.85	2322.40
221.06	2127.84
221.28	2432.99
221.50	2408.41
221.72	2209.76
221.94	2160.61
222.16	2267.10
222.38	2396.12
222.60	2191.33
222.82	2138.08
223.03	2398.17
223.25	2170.85
223.47	2103.26
223.69	2383.84
223.91	2375.64
224.13	2209.76
224.35	2121.70
224.57	2236.38
224.78	2269.15
225.00	2185.18
225.22	2136.03
225.44	2263.01
225.66	2301.92
225.88	2205.66
226.10	2269.15
226.32	2242.53
226.53	2330.59
226.75	2283.49
226.97	2238.43
227.19	2160.61
227.41	2217.95
227.63	2232.29
227.85	2019.30
228.06	2211.81
228.28	2359.26
228.50	2359.26
228.72	2111.46
228.94	2191.33
229.16	2121.70
229.37	2117.60
229.59	2209.76
229.81	2351.07
230.03	2185.18
230.25	2170.85
230.47	2109.41
230.69	2095.07
230.90	2318.30
231.12	2197.47
231.34	2244.57
231.56	2228.19
231.78	2246.62
232.00	2273.25
232.21	2131.94
232.43	2121.70
232.65	2133.98
232.87	2244.57
233.09	2129.89
233.30	2076.64
233.52	2260.96
233.74	2258.91
233.96	2080.74
234.18	2211.81
234.40	2183.13
234.61	2521.05
234.83	2072.54
235.05	2136.03
235.27	2457.56
235.49	2447.32
235.70	2119.65
235.92	2211.81
236.14	2316.25
236.36	2475.99
236.58	2146.27
236.79	2246.62
237.01	2230.24
237.23	2289.63
237.45	2389.98
237.67	2086.88
237.88	2301.92
238.10	2402.27
238.32	2103.26
238.54	2154.46
238.76	2258.91
238.97	2154.46
239.19	2082.78
239.41	2242.53
239.63	2400.22
239.85	2195.42
240.06	2252.77
240.28	2142.18
240.50	2408.41
240.72	2248.67
240.93	2183.13
241.15	2248.67
241.37	2217.95
241.59	2379.74
241.81	2127.84
242.02	2146.27
242.24	2310.11
242.46	2322.40
242.68	2121.70
242.89	2238.43
243.11	2402.27
243.33	2297.82
243.55	2215.90
243.76	2166.75
243.98	2217.95
244.20	2234.33
244.42	2142.18
244.64	2263.01
244.85	2142.18
245.07	2080.74
245.29	2222.05
245.51	2203.61
245.72	2228.19
245.94	2346.97
246.16	2236.38
246.38	2234.33
246.59	2228.19
246.81	2105.31
247.03	2105.31
247.24	2099.17
247.46	2207.71
247.68	2295.77
247.90	2185.18
248.11	2181.09
248.33	2265.05
248.55	2240.48
248.77	2185.18
248.98	2232.29
249.20	2428.89
249.42	2279.39
249.64	2260.96
249.85	2093.02
250.07	2260.96
250.29	2349.02
250.50	2238.43
250.72	2041.82
250.94	2281.44
251.16	2424.80
251.37	2215.90
251.59	2187.23
251.81	2308.06
252.02	2369.50
252.24	2140.13
252.46	2277.34
252.68	2222.05
252.89	2254.81
253.11	2072.54
253.33	2240.48
253.54	2385.88
253.76	2129.89
253.98	2152.42
254.20	2217.95
254.41	2095.07
254.63	2191.33
254.85	2121.70
255.06	2191.33
255.28	2295.77
255.50	2189.28
255.71	2125.79
255.93	2011.11
256.15	2166.75
256.36	2244.57
256.58	2154.46
256.80	2215.90
257.02	2281.44
257.23	2201.57
257.45	2148.32
257.67	2193.37
257.88	2170.85
258.10	2250.72
258.32	2179.04
258.53	2191.33
258.75	2473.95
258.97	2217.95
259.18	2093.02
259.40	2170.85
259.62	2441.18
259.83	2449.37
260.05	2228.19
260.27	2635.74
260.48	2289.63
260.70	2131.94
260.92	2105.31
261.13	2213.85
261.35	2179.04
261.57	2236.38
261.78	2095.07
262.00	2105.31
262.22	2326.49
262.43	2156.51
262.65	2201.57
262.86	2172.89
263.08	2504.67
263.30	2234.33
263.51	2031.58
263.73	2160.61
263.95	2441.18
264.16	2131.94
264.38	2070.50
264.60	2140.13
264.81	2238.43
265.03	2328.54
265.25	2326.49
265.46	2156.51
265.68	2406.36
265.89	2265.05
266.11	2052.06
266.33	2236.38
266.54	2398.17
266.76	2285.53
266.98	2179.04
267.19	2291.68
267.41	2326.49
267.62	2306.01
267.84	2103.26
268.06	2285.53
268.27	2252.77
268.49	2367.45
268.70	2250.72
268.92	2209.76
269.14	2189.28
269.35	2144.22
269.57	2209.76
269.79	2340.83
270.00	2176.99
270.22	2410.46
270.43	2152.42
270.65	2027.49
270.87	2256.86
271.08	2306.01
271.30	2301.92
271.51	2133.98
271.73	2316.25
271.95	2369.50
272.16	2187.23
272.38	2240.48
272.59	2211.81
272.81	2420.70
273.02	2234.33
273.24	2201.57
273.46	2361.31
273.67	2220.00
273.89	2056.16
274.10	2127.84
274.32	2363.36
274.54	2242.53
274.75	2252.77
274.97	2263.01
275.18	2283.49
275.40	2303.96
275.61	2158.56
275.83	2299.87
276.05	2121.70
276.26	2242.53
276.48	2297.82
276.69	2146.27
276.91	2291.68
277.12	2357.21
277.34	2310.11
277.55	2277.34
277.77	2330.59
277.99	2166.75
278.20	2142.18
278.42	2045.92
278.63	2187.23
278.85	2248.67
279.06	2133.98
279.28	2236.38
279.49	2351.07
279.71	2373.60
279.93	2209.76
280.14	2183.13
280.36	2146.27
280.57	2422.75
280.79	2285.53
281.00	2168.80
281.22	2142.18
281.43	2349.02
281.65	2058.21
281.86	2101.22
282.08	2287.58
282.29	2422.75
282.51	2095.07
282.73	2136.03
282.94	2062.30
283.16	2318.30
283.37	2342.88
283.59	2189.28
283.80	2275.29
284.02	2263.01
284.23	2328.54
284.45	2170.85
284.66	2152.42
284.88	2082.78
285.09	2207.71
285.31	2234.33
285.52	2244.57
285.74	2082.78
285.95	2203.61
286.17	2185.18
286.38	2342.88
286.60	2226.14
286.81	2191.33
287.03	2123.74
287.24	2281.44
287.46	2330.59
287.67	2170.85
287.89	2432.99
288.10	2293.72
288.32	2252.77
288.53	2367.45
288.75	2230.24
288.96	2381.79
289.18	2242.53
289.39	2197.47
289.61	2293.72
289.82	2557.91
290.04	2447.32
290.25	2129.89
290.47	2281.44
290.68	2250.72
290.90	2334.68
291.11	2066.40
291.33	2355.16
291.54	2187.23
291.76	2131.94
291.97	2334.68
292.18	2254.81
292.40	2265.05
292.61	2109.41
292.83	2435.03
293.04	2265.05
293.26	2260.96
293.47	2256.86
293.69	2176.99
293.90	2220.00
294.12	2424.80
294.33	2230.24
294.55	2279.39
294.76	2363.36
294.97	2340.83
295.19	2441.18
295.40	2191.33
295.62	2191.33
295.83	2281.44
296.05	2152.42
296.26	2355.16
296.48	2136.03
296.69	2236.38
296.90	2232.29
297.12	2334.68
297.33	2318.30
297.55	2271.20
297.76	2308.06
297.98	2256.86
298.19	2256.86
298.41	2213.85
298.62	2146.27
298.83	2342.88
299.05	2197.47
299.26	2201.57
299.48	2131.94
299.69	2332.64
299.90	2203.61
300.12	2152.42
300.33	2258.91
300.55	2299.87
300.76	2222.05
300.98	2133.98
301.19	2234.33
301.40	2158.56
301.62	2166.75
301.83	2301.92
302.05	2252.77
302.26	2183.13
302.47	2263.01
302.69	2191.33
302.90	2287.58
303.12	2080.74
303.33	2369.50
303.54	2486.23
303.76	2254.81
303.97	2265.05
304.19	2314.20
304.40	2160.61
304.61	2301.92
304.83	2392.03
305.04	2275.29
305.26	2244.57
305.47	2283.49
305.68	2240.48
305.90	2152.42
306.11	2379.74
306.33	2217.95
306.54	2162.66
306.75	2230.24
306.97	2140.13
307.18	2156.51
307.39	2082.78
307.61	2336.73
307.82	2158.56
308.04	2340.83
308.25	2105.31
308.46	2338.78
308.68	2285.53
308.89	2217.95
309.10	2291.68
309.32	2283.49
309.53	2306.01
309.74	2385.88
309.96	2201.57
310.17	2377.69
310.39	2236.38
310.60	2383.84
310.81	2254.81
311.03	2103.26
311.24	2269.15
311.45	2353.12
311.67	2373.60
311.88	2318.30
312.09	2158.56
312.31	2195.42
312.52	2269.15
312.73	2185.18
312.95	2133.98
313.16	2265.05
313.37	2254.81
313.59	2224.09
313.80	2299.87
314.01	2471.90
314.23	2187.23
314.44	2170.85
314.65	2131.94
314.87	2154.46
315.08	2111.46
315.29	2250.72
315.51	2162.66
315.72	2027.49
315.93	2412.51
316.15	2273.25
316.36	2191.33
316.57	2195.42
316.79	2252.77
317.00	2215.90
317.21	2183.13
317.43	2195.42
317.64	2314.20
317.85	2148.32
318.07	2162.66
318.28	2271.20
318.49	2375.64
318.70	2406.36
318.92	2385.88
319.13	2357.21
319.34	2416.60
319.56	2375.64
319.77	2496.47
319.98	2416.60
320.20	2396.12
320.41	2244.57
320.62	2306.01
320.83	2138.08
321.05	2412.51
321.26	2285.53
321.47	2281.44
321.69	2412.51
321.90	2072.54
322.11	2187.23
322.32	2250.72
322.54	2371.55
322.75	2236.38
322.96	2551.77
323.18	2187.23
323.39	2168.80
323.60	2129.89
323.81	2297.82
324.03	2154.46
324.24	2248.67
324.45	2185.18
324.66	2222.05
324.88	2359.26
325.09	2392.03
325.30	2148.32
325.52	2267.10
325.73	2289.63
325.94	2162.66
326.15	2138.08
326.37	2123.74
326.58	2336.73
326.79	2349.02
327.00	2146.27
327.22	2301.92
327.43	2301.92
327.64	2082.78
327.85	2357.21
328.07	2242.53
328.28	2473.95
328.49	2222.05
328.70	2195.42
328.92	2275.29
329.13	2162.66
329.34	2297.82
329.55	2437.08
329.76	2295.77
329.98	2170.85
330.19	2402.27
330.40	2277.34
330.61	2252.77
330.83	2332.64
331.04	2150.37
331.25	2205.66
331.46	2197.47
331.68	2201.57
331.89	2383.84
332.10	2242.53
332.31	2103.26
332.52	2213.85
332.74	2357.21
332.95	2138.08
333.16	2273.25
333.37	2392.03
333.58	2201.57
333.80	2265.05
334.01	2090.98
334.22	2199.52
334.43	2138.08
334.64	2260.96
334.86	2138.08
335.07	2129.89
335.28	2422.75
335.49	2129.89
335.70	2195.42
335.92	2373.60
336.13	2459.61
336.34	2293.72
336.55	2314.20
336.76	2297.82
336.98	2080.74
337.19	2199.52
337.40	2365.40
337.61	2596.82
337.82	2299.87
338.04	2314.20
338.25	2072.54
338.46	2209.76
338.67	2273.25
338.88	2074.59
339.09	2185.18
339.31	2240.48
339.52	2113.50
339.73	2119.65
339.94	2291.68
340.15	2355.16
340.36	2224.09
340.58	2346.97
340.79	2166.75
341.00	2299.87
341.21	2162.66
341.42	2412.51
341.63	2242.53
341.85	2389.98
342.06	2273.25
342.27	2222.05
342.48	2310.11
342.69	2047.97
342.90	2326.49
343.12	2330.59
343.33	2164.70
343.54	2250.72
343.75	2392.03
343.96	2242.53
344.17	2187.23
344.38	2285.53
344.60	2179.04
344.81	2187.23
345.02	2267.10
345.23	2381.79
345.44	2553.82
345.65	2293.72
345.86	2297.82
346.07	2273.25
346.29	2265.05
346.50	2306.01
346.71	2340.83
346.92	2357.21
347.13	2406.36
347.34	2158.56
347.55	2187.23
347.76	2273.25
347.98	2170.85
348.19	2285.53
348.40	2301.92
348.61	2242.53
348.82	2400.22
349.03	2254.81
349.24	2158.56
349.45	2465.75
349.66	1990.63
349.88	2244.57
350.09	2174.94
350.30	2312.16
350.51	2377.69
350.72	2258.91
350.93	2306.01
351.14	2187.23
351.35	2269.15
351.56	2234.33
351.77	2191.33
351.99	2338.78
352.20	2375.64
352.41	2385.88
352.62	2031.58
352.83	2228.19
353.04	2240.48
353.25	2185.18
353.46	2267.10
353.67	2359.26
353.88	2154.46
354.09	2211.81
354.30	2230.24
354.52	2318.30
354.73	2211.81
354.94	2176.99
355.15	2326.49
355.36	2408.41
355.57	2252.77
355.78	2220.00
355.99	2170.85
356.20	2199.52
356.41	2396.12
356.62	2265.05
356.83	2250.72
357.04	2359.26
357.25	2148.32
357.46	2125.79
357.68	2138.08
357.89	2131.94
358.10	2252.77
358.31	2168.80
358.52	2211.81
358.73	2199.52
358.94	2207.71
359.15	2193.37
359.36	2279.39
359.57	2242.53
359.78	2211.81
359.99	2279.39
360.20	2168.80
360.41	2244.57
360.62	2289.63
360.83	2250.72
361.04	2209.76
361.25	2234.33
361.46	2359.26
361.67	2318.30
361.88	2359.26
362.09	2295.77
362.30	2283.49
362.51	2228.19
362.72	2269.15
362.93	2310.11
363.14	2244.57
363.35	2265.05
363.56	2076.64
363.78	2375.64
363.99	2344.92
364.20	2193.37
364.41	2299.87
364.62	2422.75
364.83	2275.29
365.04	2244.57
365.25	2260.96
365.46	2545.63
365.67	2107.36
365.88	2240.48
366.09	2207.71
366.30	2179.04
366.51	2269.15
366.72	2154.46
366.93	2260.96
367.14	2246.62
367.35	2412.51
367.56	2289.63
367.77	2451.42
367.98	2246.62
368.18	2359.26
368.39	2256.86
368.60	2123.74
368.81	2330.59
369.02	2379.74
369.23	2222.05
369.44	2086.88
369.65	2195.42
369.86	2306.01
370.07	2258.91
370.28	2187.23
370.49	2332.64
370.70	2275.29
370.91	2252.77
371.12	2064.35
371.33	2340.83
371.54	2199.52
371.75	2359.26
371.96	1943.52
372.17	2297.82
372.38	2230.24
372.59	2346.97
372.80	2158.56
373.01	2232.29
373.22	2252.77
373.43	2250.72
373.64	2160.61
373.85	2363.36
374.06	2430.94
374.26	2357.21
374.47	2326.49
374.68	2447.32
374.89	2289.63
375.10	2211.81
375.31	2365.40
375.52	2295.77
375.73	2242.53
375.94	2121.70
376.15	2416.60
376.36	2150.37
376.57	2187.23
376.78	2209.76
376.99	2236.38
377.20	2383.84
377.40	2170.85
377.61	2398.17
377.82	2176.99
378.03	2361.31
378.24	2340.83
378.45	2236.38
378.66	2248.67
378.87	2105.31
379.08	2068.45
379.29	2211.81
379.50	2340.83
379.71	2365.40
379.91	2318.30
380.12	2244.57
380.33	2152.42
380.54	2232.29
380.75	2293.72
380.96	2172.89
381.17	2299.87
381.38	2252.77
381.59	2256.86
381.80	2183.13
382.00	2484.19
382.21	2285.53
382.42	2482.14
382.63	2490.33
382.84	2349.02
383.05	2373.60
383.26	2453.47
383.47	2172.89
383.68	2322.40
383.88	2301.92
384.09	2248.67
384.30	2455.51
384.51	2285.53
384.72	2238.43
384.93	2193.37
385.14	2267.10
385.35	2349.02
385.55	2201.57
385.76	2326.49
385.97	2166.75
386.18	2119.65
386.39	2138.08
386.60	2260.96
386.81	2213.85
387.02	2150.37
387.22	2215.90
387.43	2320.35
387.64	2330.59
387.85	2541.53
388.06	2486.23
388.27	4067.27
388.48	8267.65
388.68	11841.36
388.89	14059.31
389.10	15130.39
389.31	13844.27
389.52	11081.56
389.73	9506.67
389.93	8615.80
390.14	8015.75
390.35	7161.75
390.56	6365.09
390.77	5250.99
390.98	4046.79
391.18	3295.18
391.39	2785.24
391.60	2383.84
391.81	2346.97
392.02	2242.53
392.23	2502.62
392.43	2277.34
392.64	2443.23
392.85	2275.29
393.06	2432.99
393.27	2222.05
393.47	2179.04
393.68	2240.48
393.89	2185.18
394.10	2369.50
394.31	2179.04
394.52	2199.52
394.72	2201.57
394.93	2478.04
395.14	2082.78
395.35	2299.87
395.56	2199.52
395.76	2273.25
395.97	2308.06
396.18	2355.16
396.39	2424.80
396.60	2779.09
396.80	2531.29
397.01	2398.17
397.22	2351.07
397.43	2430.94
397.64	2297.82
397.84	2299.87
398.05	2396.12
398.26	2234.33
398.47	2351.07
398.67	2365.40
398.88	2232.29
399.09	2320.35
399.30	2187.23
399.51	2367.45
399.71	2187.23
399.92	2199.52
400.13	2367.45
400.34	2252.77
400.54	2217.95
400.75	2398.17
400.96	2340.83
401.17	2396.12
401.37	2297.82
401.58	2217.95
401.79	2285.53
402.00	2375.64
402.21	2670.55
402.41	2570.20
402.62	2613.21
402.83	2645.98
403.04	2719.70
403.24	2801.62
403.45	2392.03
403.66	2557.91
403.87	2525.15
404.07	2512.86
404.28	2541.53
404.49	2430.94
404.70	2381.79
404.90	2369.50
405.11	2269.15
405.32	2303.96
405.52	2232.29
405.73	2168.80
405.94	2176.99
406.15	2269.15
406.35	2357.21
406.56	2320.35
406.77	2224.09
406.98	2211.81
407.18	2152.42
407.39	2426.84
407.60	2265.05
407.80	2355.16
408.01	2246.62
408.22	2285.53
408.43	2285.53
408.63	2273.25
408.84	2295.77
409.05	2432.99
409.25	2226.14
409.46	2162.66
409.67	2301.92
409.88	2248.67
410.08	2240.48
410.29	2201.57
410.50	2269.15
410.70	2297.82
410.91	2170.85
411.12	2287.58
411.32	2322.40
411.53	2170.85
411.74	2291.68
411.95	2357.21
412.15	2389.98
412.36	2373.60
412.57	2289.63
412.77	2410.46
412.98	2269.15
413.19	2322.40
413.39	2271.20
413.60	2301.92
413.81	2371.55
414.01	2162.66
414.22	2324.44
414.43	2260.96
414.63	2185.18
414.84	2349.02
415.05	2314.20
415.25	2015.20
415.46	2373.60
415.67	2269.15
415.87	2338.78
416.08	2306.01
416.29	2271.20
416.49	2346.97
416.70	2150.37
416.91	2248.67
417.11	2185.18
417.32	2318.30
417.53	2250.72
417.73	2322.40
417.94	2285.53
418.15	2258.91
418.35	2318.30
418.56	2279.39
418.77	2504.67
418.97	2240.48
419.18	2254.81
419.38	2039.78
419.59	2269.15
419.80	2379.74
420.00	2183.13
420.21	2230.24
420.42	2340.83
420.62	2244.57
420.83	2215.90
421.04	2281.44
421.24	2285.53
421.45	2285.53
421.65	2308.06
421.86	2199.52
422.07	2334.68
422.27	2267.10
422.48	2226.14
422.69	2209.76
422.89	2211.81
423.10	2203.61
423.30	2129.89
423.51	2226.14
423.72	2351.07
423.92	2267.10
424.13	2140.13
424.33	2287.58
424.54	2400.22
424.75	2283.49
424.95	2428.89
425.16	2240.48
425.36	2205.66
425.57	2357.21
425.78	2252.77
425.98	2271.20
426.19	2275.29
426.39	2174.94
426.60	2306.01
426.81	2369.50
427.01	2236.38
427.22	2113.50
427.42	2101.22
427.63	2209.76
427.83	2355.16
428.04	2439.13
428.25	2441.18
428.45	2396.12
428.66	2346.97
428.86	2267.10
429.07	2228.19
429.28	2357.21
429.48	2232.29
429.69	2154.46
429.89	2312.16
430.10	2183.13
430.30	2332.64
430.51	2301.92
430.71	2144.22
430.92	2267.10
431.13	2211.81
431.33	2340.83
431.54	2291.68
431.74	2420.70
431.95	2447.32
432.15	2133.98
432.36	2170.85
432.56	2340.83
432.77	2519.00
432.98	2445.27
433.18	2293.72
433.39	2148.32
433.59	2277.34
433.80	2424.80
434.00	2389.98
434.21	2197.47
434.41	2295.77
434.62	2490.33
434.82	2170.85
435.03	2148.32
435.23	2275.29
435.44	2127.84
435.64	2230.24
435.85	2250.72
436.06	2334.68
436.26	2389.98
436.47	2205.66
436.67	2185.18
436.88	2346.97
437.08	2451.42
437.29	2453.47
437.49	2332.64
437.70	2398.17
437.90	2240.48
438.11	2465.75
438.31	2326.49
438.52	2449.37
438.72	2430.94
438.93	2539.48
439.13	2389.98
439.34	2457.56
439.54	2248.67
439.75	2373.60
439.95	2297.82
440.16	2170.85
440.36	2326.49
440.57	2260.96
440.77	2271.20
440.98	2299.87
441.18	2355.16
441.39	2236.38
441.59	2160.61
441.80	2496.47
442.00	2209.76
442.21	2355.16
442.41	2138.08
442.62	2498.52
442.82	2195.42
443.02	2287.58
443.23	2222.05
443.43	2275.29
443.64	2469.85
443.84	2220.00
444.05	2357.21
444.25	2258.91
444.46	2242.53
444.66	2263.01
444.87	2371.55
445.07	2105.31
445.28	2203.61
445.48	2375.64
445.69	2320.35
445.89	2523.10
446.09	2291.68
446.30	2527.19
446.50	2914.26
446.71	4429.76
446.91	5533.61
447.12	6465.44
447.32	6774.68
447.53	6215.59
447.73	5179.31
447.93	4640.70
448.14	4145.09
448.34	4130.75
448.55	3674.06
448.75	3661.77
448.96	3315.66
449.16	3026.90
449.36	2901.97
449.57	2559.96
449.77	2293.72
449.98	2308.06
450.18	2312.16
450.39	2318.30
450.59	2332.64
450.79	2232.29
451.00	2228.19
451.20	2365.40
451.41	2269.15
451.61	2383.84
451.81	2308.06
452.02	2240.48
452.22	2250.72
452.43	2220.00
452.63	2263.01
