SpectraSuite Data File
++++++++++++++++++++++++++++++++++++
Date: Thu May 05 13:21:19 CEST 2016
User: root
Dark Spectrum Present: No
Reference Spectrum Present: No
Number of Sampled Component Spectra: 1
Spectrometers: USB4C02835
Integration Time (usec): 100000 (USB4C02835)
Spectra Averaged: 1 (USB4C02835)
Boxcar Smoothing: 0 (USB4C02835)
Correct for Electrical Dark: No (USB4C02835)
Strobe/Lamp Enabled: No (USB4C02835)
Correct for Detector Non-linearity: No (USB4C02835)
Correct for Stray Light: No (USB4C02835)
Number of Pixels in Processed Spectrum: 3648
>>>>>Begin Processed Spectral Data<<<<<
177.47	1798.12
177.69	1798.12
177.91	1798.12
178.13	1832.93
178.36	1816.55
178.58	2090.98
178.80	2342.88
179.02	2074.59
179.24	2185.18
179.46	2133.98
179.68	2240.48
179.90	2207.71
180.13	2199.52
180.35	2117.60
180.57	2226.14
180.79	2402.27
181.01	2211.81
181.23	2211.81
181.45	2260.96
181.67	2336.73
181.90	2357.21
182.12	2195.42
182.34	2074.59
182.56	2310.11
182.78	2234.33
183.00	2185.18
183.22	2154.46
183.44	2099.17
183.66	2498.52
183.89	2199.52
184.11	2244.57
184.33	2359.26
184.55	2318.30
184.77	2185.18
184.99	2179.04
185.21	2211.81
185.43	2559.96
185.65	2138.08
185.87	2154.46
186.10	2484.19
186.32	2488.28
186.54	2306.01
186.76	2265.05
186.98	2394.08
187.20	2240.48
187.42	2254.81
187.64	2228.19
187.86	2316.25
188.08	2332.64
188.30	2142.18
188.52	2213.85
188.75	2441.18
188.97	2453.47
189.19	2105.31
189.41	2146.27
189.63	2277.34
189.85	2160.61
190.07	2064.35
190.29	2050.02
190.51	2365.40
190.73	2156.51
190.95	2277.34
191.17	2299.87
191.39	2097.12
191.61	2299.87
191.84	2138.08
192.06	2179.04
192.28	2140.13
192.50	2537.43
192.72	2248.67
192.94	2240.48
193.16	2404.32
193.38	2322.40
193.60	2144.22
193.82	2256.86
194.04	2435.03
194.26	2289.63
194.48	2174.94
194.70	2152.42
194.92	2228.19
195.14	2365.40
195.36	2109.41
195.58	2281.44
195.80	2211.81
196.02	2289.63
196.24	2248.67
196.46	2183.13
196.69	2258.91
196.91	2545.63
197.13	2168.80
197.35	2162.66
197.57	2439.13
197.79	2369.50
198.01	2220.00
198.23	2185.18
198.45	2295.77
198.67	2131.94
198.89	2047.97
199.11	2287.58
199.33	2293.72
199.55	2078.69
199.77	2113.50
199.99	2281.44
200.21	2291.68
200.43	2238.43
200.65	2121.70
200.87	2045.92
201.09	2242.53
201.31	2322.40
201.53	2199.52
201.75	2215.90
201.97	2326.49
202.19	2299.87
202.41	2199.52
202.63	2342.88
202.85	2332.64
203.07	2318.30
203.29	2269.15
203.51	2056.16
203.73	2156.51
203.95	2564.06
204.17	2152.42
204.39	2248.67
204.61	2263.01
204.83	2228.19
205.05	2322.40
205.27	2287.58
205.49	2506.71
205.71	2256.86
205.93	2101.22
206.15	2189.28
206.37	2250.72
206.59	2277.34
206.81	2070.50
207.03	2142.18
207.25	2146.27
207.47	2306.01
207.69	2162.66
207.91	2334.68
208.13	2367.45
208.34	2228.19
208.56	2144.22
208.78	2226.14
209.00	2199.52
209.22	2166.75
209.44	2201.57
209.66	2185.18
209.88	2252.77
210.10	2275.29
210.32	2244.57
210.54	2332.64
210.76	2252.77
210.98	2363.36
211.20	2047.97
211.42	2301.92
211.64	2371.55
211.86	2275.29
212.08	2215.90
212.30	2150.37
212.52	2217.95
212.74	2318.30
212.96	2248.67
213.17	2234.33
213.39	2342.88
213.61	2455.51
213.83	2133.98
214.05	2269.15
214.27	2324.44
214.49	2203.61
214.71	2160.61
214.93	2312.16
215.15	2287.58
215.37	2314.20
215.59	2050.02
215.81	2252.77
216.03	2351.07
216.24	2213.85
216.46	2187.23
216.68	2215.90
216.90	2359.26
217.12	2453.47
217.34	2193.37
217.56	2201.57
217.78	2400.22
218.00	2326.49
218.22	2195.42
218.44	2168.80
218.66	2283.49
218.87	2488.28
219.09	2260.96
219.31	2234.33
219.53	2244.57
219.75	2195.42
219.97	2240.48
220.19	2193.37
220.41	2291.68
220.63	2449.37
220.85	2189.28
221.06	2211.81
221.28	2338.78
221.50	2363.36
221.72	2154.46
221.94	2129.89
222.16	2238.43
222.38	2414.56
222.60	2174.94
222.82	2203.61
223.03	2371.55
223.25	2146.27
223.47	2201.57
223.69	2326.49
223.91	2312.16
224.13	2232.29
224.35	2119.65
224.57	2185.18
224.78	2244.57
225.00	2148.32
225.22	2246.62
225.44	2191.33
225.66	2293.72
225.88	2265.05
226.10	2211.81
226.32	2197.47
226.53	2441.18
226.75	2203.61
226.97	2187.23
227.19	2144.22
227.41	2183.13
227.63	2217.95
227.85	2109.41
228.06	2217.95
228.28	2334.68
228.50	2342.88
228.72	2093.02
228.94	2156.51
229.16	2039.78
229.37	2138.08
229.59	2047.97
229.81	2310.11
230.03	2203.61
230.25	2115.55
230.47	2072.54
230.69	2086.88
230.90	2299.87
231.12	2185.18
231.34	2181.09
231.56	2234.33
231.78	2121.70
232.00	2217.95
232.21	2203.61
232.43	2236.38
232.65	2037.73
232.87	2392.03
233.09	2080.74
233.30	2144.22
233.52	2371.55
233.74	2275.29
233.96	2179.04
234.18	2213.85
234.40	2250.72
234.61	2496.47
234.83	2103.26
235.05	2117.60
235.27	2441.18
235.49	2381.79
235.70	2193.37
235.92	2240.48
236.14	2353.12
236.36	2559.96
236.58	2080.74
236.79	2248.67
237.01	2203.61
237.23	2242.53
237.45	2377.69
237.67	2078.69
237.88	2267.10
238.10	2412.51
238.32	2115.55
238.54	2088.93
238.76	2244.57
238.97	2127.84
239.19	2146.27
239.41	2277.34
239.63	2379.74
239.85	2205.66
240.06	2166.75
240.28	2129.89
240.50	2291.68
240.72	2232.29
240.93	2170.85
241.15	2250.72
241.37	2244.57
241.59	2451.42
241.81	2193.37
242.02	2213.85
242.24	2267.10
242.46	2322.40
242.68	2099.17
242.89	2195.42
243.11	2349.02
243.33	2265.05
243.55	2244.57
243.76	2226.14
243.98	2138.08
244.20	2297.82
244.42	2203.61
244.64	2238.43
244.85	2144.22
245.07	2252.77
245.29	2256.86
245.51	2168.80
245.72	2275.29
245.94	2406.36
246.16	2187.23
246.38	2185.18
246.59	2187.23
246.81	2174.94
247.03	2162.66
247.24	2027.49
247.46	2195.42
247.68	2222.05
247.90	2160.61
248.11	2191.33
248.33	2326.49
248.55	2342.88
248.77	2156.51
248.98	2203.61
249.20	2416.60
249.42	2258.91
249.64	2183.13
249.85	2170.85
250.07	2115.55
250.29	2357.21
250.50	2283.49
250.72	2047.97
250.94	2351.07
251.16	2373.60
251.37	2170.85
251.59	2226.14
251.81	2359.26
252.02	2363.36
252.24	2146.27
252.46	2293.72
252.68	2088.93
252.89	2211.81
253.11	2060.26
253.33	2285.53
253.54	2367.45
253.76	2142.18
253.98	2142.18
254.20	2146.27
254.41	2111.46
254.63	2240.48
254.85	2088.93
255.06	2197.47
255.28	2338.78
255.50	2150.37
255.71	2121.70
255.93	2142.18
256.15	2314.20
256.36	2357.21
256.58	2095.07
256.80	2195.42
257.02	2256.86
257.23	2244.57
257.45	2185.18
257.67	2267.10
257.88	2220.00
258.10	2289.63
258.32	2195.42
258.53	2209.76
258.75	2375.64
258.97	2203.61
259.18	2129.89
259.40	2103.26
259.62	2367.45
259.83	2445.27
260.05	2260.96
260.27	2678.74
260.48	2363.36
260.70	2150.37
260.92	2234.33
261.13	2220.00
261.35	2279.39
261.57	2338.78
261.78	2078.69
262.00	2076.64
262.22	2303.96
262.43	2250.72
262.65	2279.39
262.86	2195.42
263.08	2480.09
263.30	2246.62
263.51	2015.20
263.73	2185.18
263.95	2369.50
264.16	2211.81
264.38	2140.13
264.60	2201.57
264.81	2236.38
265.03	2373.60
265.25	2334.68
265.46	2136.03
265.68	2447.32
265.89	2260.96
266.11	2088.93
266.33	2211.81
266.54	2324.44
266.76	2346.97
266.98	2363.36
267.19	2220.00
267.41	2361.31
267.62	2205.66
267.84	2031.58
268.06	2260.96
268.27	2244.57
268.49	2373.60
268.70	2242.53
268.92	2224.09
269.14	2119.65
269.35	2080.74
269.57	2201.57
269.79	2328.54
270.00	2146.27
270.22	2418.65
270.43	2160.61
270.65	1955.81
270.87	2287.58
271.08	2334.68
271.30	2228.19
271.51	2250.72
271.73	2297.82
271.95	2353.12
272.16	2224.09
272.38	2170.85
272.59	2220.00
272.81	2441.18
273.02	2254.81
273.24	2197.47
273.46	2375.64
273.67	2146.27
273.89	2109.41
274.10	2211.81
274.32	2359.26
274.54	2285.53
274.75	2256.86
274.97	2201.57
275.18	2289.63
275.40	2310.11
275.61	2179.04
275.83	2220.00
276.05	2127.84
276.26	2277.34
276.48	2244.57
276.69	2203.61
276.91	2154.46
277.12	2408.41
277.34	2263.01
277.55	2291.68
277.77	2338.78
277.99	2217.95
278.20	2121.70
278.42	2105.31
278.63	2164.70
278.85	2133.98
279.06	2133.98
279.28	2222.05
279.49	2349.02
279.71	2244.57
279.93	2256.86
280.14	2207.71
280.36	2160.61
280.57	2310.11
280.79	2299.87
281.00	2078.69
281.22	2179.04
281.43	2322.40
281.65	2066.40
281.86	2162.66
282.08	2297.82
282.29	2416.60
282.51	2131.94
282.73	2146.27
282.94	2056.16
283.16	2396.12
283.37	2346.97
283.59	2211.81
283.80	2244.57
284.02	2312.16
284.23	2273.25
284.45	2158.56
284.66	2168.80
284.88	2220.00
285.09	2222.05
285.31	2322.40
285.52	2293.72
285.74	2109.41
285.95	2324.44
286.17	2211.81
286.38	2334.68
286.60	2205.66
286.81	2199.52
287.03	2248.67
287.24	2301.92
287.46	2306.01
287.67	2242.53
287.89	2336.73
288.10	2244.57
288.32	2258.91
288.53	2371.55
288.75	2299.87
288.96	2293.72
289.18	2166.75
289.39	2205.66
289.61	2285.53
289.82	2488.28
290.04	2500.57
290.25	2162.66
290.47	2201.57
290.68	2199.52
290.90	2332.64
291.11	2070.50
291.33	2277.34
291.54	2170.85
291.76	2228.19
291.97	2281.44
292.18	2314.20
292.40	2174.94
292.61	2158.56
292.83	2416.60
293.04	2263.01
293.26	2260.96
293.47	2191.33
293.69	2072.54
293.90	2187.23
294.12	2365.40
294.33	2277.34
294.55	2238.43
294.76	2267.10
294.97	2342.88
295.19	2439.13
295.40	2240.48
295.62	2226.14
295.83	2283.49
296.05	2154.46
296.26	2330.59
296.48	2101.22
296.69	2226.14
296.90	2252.77
297.12	2252.77
297.33	2301.92
297.55	2215.90
297.76	2269.15
297.98	2318.30
298.19	2281.44
298.41	2295.77
298.62	2150.37
298.83	2383.84
299.05	2203.61
299.26	2162.66
299.48	2244.57
299.69	2346.97
299.90	2234.33
300.12	2199.52
300.33	2334.68
300.55	2248.67
300.76	2289.63
300.98	2154.46
301.19	2273.25
301.40	2170.85
301.62	2195.42
301.83	2263.01
302.05	2201.57
302.26	2181.09
302.47	2299.87
302.69	2150.37
302.90	2240.48
303.12	2058.21
303.33	2285.53
303.54	2437.08
303.76	2269.15
303.97	2303.96
304.19	2344.92
304.40	2136.03
304.61	2275.29
304.83	2439.13
305.04	2336.73
305.26	2277.34
305.47	2179.04
305.68	2226.14
305.90	2136.03
306.11	2379.74
306.33	2209.76
306.54	2119.65
306.75	2113.50
306.97	2084.83
307.18	2125.79
307.39	2193.37
307.61	2256.86
307.82	2250.72
308.04	2301.92
308.25	2119.65
308.46	2207.71
308.68	2289.63
308.89	2236.38
309.10	2330.59
309.32	2207.71
309.53	2275.29
309.74	2312.16
309.96	2179.04
310.17	2301.92
310.39	2133.98
310.60	2316.25
310.81	2267.10
311.03	2144.22
311.24	2291.68
311.45	2289.63
311.67	2387.93
311.88	2295.77
312.09	2199.52
312.31	2215.90
312.52	2191.33
312.73	2183.13
312.95	2195.42
313.16	2187.23
313.37	2412.51
313.59	2265.05
313.80	2400.22
314.01	2361.31
314.23	2260.96
314.44	2150.37
314.65	2088.93
314.87	2121.70
315.08	2201.57
315.29	2162.66
315.51	2275.29
315.72	2172.89
315.93	2326.49
316.15	2357.21
316.36	2201.57
316.57	2246.62
316.79	2279.39
317.00	2260.96
317.21	2295.77
317.43	2168.80
317.64	2289.63
317.85	2199.52
318.07	2164.70
318.28	2275.29
318.49	2334.68
318.70	2537.43
318.92	2387.93
319.13	2400.22
319.34	2402.27
319.56	2310.11
319.77	2416.60
319.98	2437.08
320.20	2367.45
320.41	2277.34
320.62	2277.34
320.83	2140.13
321.05	2447.32
321.26	2254.81
321.47	2265.05
321.69	2359.26
321.90	2174.94
322.11	2295.77
322.32	2260.96
322.54	2340.83
322.75	2260.96
322.96	2572.25
323.18	2101.22
323.39	2052.06
323.60	2129.89
323.81	2332.64
324.03	2160.61
324.24	2215.90
324.45	2236.38
324.66	2220.00
324.88	2355.16
325.09	2453.47
325.30	2222.05
325.52	2207.71
325.73	2244.57
325.94	2172.89
326.15	2127.84
326.37	2197.47
326.58	2381.79
326.79	2435.03
327.00	2088.93
327.22	2224.09
327.43	2271.20
327.64	2133.98
327.85	2265.05
328.07	2279.39
328.28	2428.89
328.49	2215.90
328.70	2236.38
328.92	2195.42
329.13	2324.44
329.34	2320.35
329.55	2342.88
329.76	2293.72
329.98	2236.38
330.19	2367.45
330.40	2217.95
330.61	2275.29
330.83	2349.02
331.04	2195.42
331.25	2236.38
331.46	2179.04
331.68	2187.23
331.89	2400.22
332.10	2183.13
332.31	2088.93
332.52	2312.16
332.74	2355.16
332.95	2060.26
333.16	2080.74
333.37	2293.72
333.58	2187.23
333.80	2244.57
334.01	2021.35
334.22	2236.38
334.43	2228.19
334.64	2299.87
334.86	2107.36
335.07	2179.04
335.28	2408.41
335.49	2097.12
335.70	2353.12
335.92	2371.55
336.13	2453.47
336.34	2324.44
336.55	2185.18
336.76	2314.20
336.98	2099.17
337.19	2267.10
337.40	2404.32
337.61	2473.95
337.82	2213.85
338.04	2269.15
338.25	2076.64
338.46	2201.57
338.67	2205.66
338.88	2187.23
339.09	2105.31
339.31	2207.71
339.52	2138.08
339.73	2162.66
339.94	2244.57
340.15	2324.44
340.36	2131.94
340.58	2310.11
340.79	2172.89
341.00	2422.75
341.21	2168.80
341.42	2312.16
341.63	2234.33
341.85	2340.83
342.06	2252.77
342.27	2146.27
342.48	2336.73
342.69	2144.22
342.90	2340.83
343.12	2381.79
343.33	2189.28
343.54	2291.68
343.75	2332.64
343.96	2246.62
344.17	2093.02
344.38	2217.95
344.60	2146.27
344.81	2086.88
345.02	2297.82
345.23	2342.88
345.44	2512.86
345.65	2291.68
345.86	2258.91
346.07	2340.83
346.29	2168.80
346.50	2287.58
346.71	2336.73
346.92	2381.79
347.13	2559.96
347.34	2232.29
347.55	2211.81
347.76	2211.81
347.98	2164.70
348.19	2260.96
348.40	2344.92
348.61	2129.89
348.82	2492.38
349.03	2226.14
349.24	2125.79
349.45	2449.37
349.66	2133.98
349.88	2260.96
350.09	2146.27
350.30	2424.80
350.51	2299.87
350.72	2332.64
350.93	2209.76
351.14	2224.09
351.35	2260.96
351.56	2273.25
351.77	2179.04
351.99	2342.88
352.20	2459.61
352.41	2336.73
352.62	2068.45
352.83	2246.62
353.04	2187.23
353.25	2299.87
353.46	2314.20
353.67	2346.97
353.88	2066.40
354.09	2234.33
354.30	2285.53
354.52	2260.96
354.73	2303.96
354.94	2170.85
355.15	2240.48
355.36	2428.89
355.57	2203.61
355.78	2242.53
355.99	2224.09
356.20	2250.72
356.41	2420.70
356.62	2355.16
356.83	2232.29
357.04	2400.22
357.25	2052.06
357.46	2211.81
357.68	2113.50
357.89	2189.28
358.10	2271.20
358.31	2236.38
358.52	2160.61
358.73	2172.89
358.94	2123.74
359.15	2131.94
359.36	2306.01
359.57	2291.68
359.78	2242.53
359.99	2322.40
360.20	2220.00
360.41	2226.14
360.62	2281.44
360.83	2357.21
361.04	2256.86
361.25	2299.87
361.46	2428.89
361.67	2312.16
361.88	2238.43
362.09	2285.53
362.30	2340.83
362.51	2203.61
362.72	2336.73
362.93	2220.00
363.14	2277.34
363.35	2179.04
363.56	2162.66
363.78	2336.73
363.99	2365.40
364.20	2230.24
364.41	2281.44
364.62	2445.27
364.83	2230.24
365.04	2224.09
365.25	2258.91
365.46	2453.47
365.67	2185.18
365.88	2144.22
366.09	2228.19
366.30	2230.24
366.51	2176.99
366.72	2121.70
366.93	2203.61
367.14	2277.34
367.35	2404.32
367.56	2252.77
367.77	2332.64
367.98	2195.42
368.18	2277.34
368.39	2281.44
368.60	2242.53
368.81	2334.68
369.02	2306.01
369.23	2240.48
369.44	2121.70
369.65	2199.52
369.86	2324.44
370.07	2357.21
370.28	2187.23
370.49	2269.15
370.70	2312.16
370.91	2152.42
371.12	2144.22
371.33	2383.84
371.54	2172.89
371.75	2412.51
371.96	2002.91
372.17	2277.34
372.38	2252.77
372.59	2299.87
372.80	2125.79
373.01	2209.76
373.22	2248.67
373.43	2203.61
373.64	2174.94
373.85	2330.59
374.06	2424.80
374.26	2295.77
374.47	2340.83
374.68	2439.13
374.89	2217.95
375.10	2209.76
375.31	2254.81
375.52	2211.81
375.73	2291.68
375.94	2131.94
376.15	2344.92
376.36	2226.14
376.57	2240.48
376.78	2269.15
376.99	2289.63
377.20	2332.64
377.40	2222.05
377.61	2441.18
377.82	2148.32
378.03	2334.68
378.24	2291.68
378.45	2285.53
378.66	2265.05
378.87	1978.34
379.08	2146.27
379.29	2230.24
379.50	2361.31
379.71	2236.38
379.91	2314.20
380.12	2220.00
380.33	2195.42
380.54	2299.87
380.75	2228.19
380.96	2209.76
381.17	2338.78
381.38	2240.48
381.59	2316.25
381.80	2232.29
382.00	2396.12
382.21	2367.45
382.42	2482.14
382.63	2461.66
382.84	2363.36
383.05	2314.20
383.26	2449.37
383.47	2285.53
383.68	2277.34
383.88	2267.10
384.09	2267.10
384.30	2349.02
384.51	2275.29
384.72	2166.75
384.93	2154.46
385.14	2260.96
385.35	2277.34
385.55	2111.46
385.76	2424.80
385.97	2187.23
386.18	2162.66
386.39	2240.48
386.60	2236.38
386.81	2197.47
387.02	2156.51
387.22	2129.89
387.43	2406.36
387.64	2281.44
387.85	2455.51
388.06	2426.84
388.27	3913.67
388.48	8152.96
388.68	11552.59
388.89	13811.50
389.10	14915.36
389.31	13958.96
389.52	10792.80
389.73	9518.96
389.93	8654.72
390.14	7872.39
390.35	7118.74
390.56	6449.05
390.77	5193.65
390.98	4014.02
391.18	3217.36
391.39	2766.81
391.60	2383.84
391.81	2367.45
392.02	2265.05
392.23	2531.29
392.43	2258.91
392.64	2342.88
392.85	2250.72
393.06	2351.07
393.27	2297.82
393.47	2170.85
393.68	2289.63
393.89	2211.81
394.10	2402.27
394.31	2244.57
394.52	2119.65
394.72	2043.87
394.93	2422.75
395.14	2226.14
395.35	2275.29
395.56	2176.99
395.76	2271.20
395.97	2293.72
396.18	2297.82
396.39	2412.51
396.60	2752.47
396.80	2447.32
397.01	2525.15
397.22	2404.32
397.43	2426.84
397.64	2197.47
397.84	2383.84
398.05	2498.52
398.26	2287.58
398.47	2318.30
398.67	2334.68
398.88	2258.91
399.09	2338.78
399.30	2174.94
399.51	2353.12
399.71	2201.57
399.92	2293.72
400.13	2320.35
400.34	2220.00
400.54	2289.63
400.75	2387.93
400.96	2316.25
401.17	2426.84
401.37	2318.30
401.58	2267.10
401.79	2242.53
402.00	2344.92
402.21	2594.78
402.41	2559.96
402.62	2547.67
402.83	2785.24
403.04	2713.56
403.24	2752.47
403.45	2445.27
403.66	2514.91
403.87	2506.71
404.07	2545.63
404.28	2439.13
404.49	2500.57
404.70	2375.64
404.90	2408.41
405.11	2271.20
405.32	2301.92
405.52	2234.33
405.73	2144.22
405.94	2140.13
406.15	2277.34
406.35	2326.49
406.56	2322.40
406.77	2254.81
406.98	2271.20
407.18	2125.79
407.39	2389.98
407.60	2176.99
407.80	2226.14
408.01	2176.99
408.22	2297.82
408.43	2133.98
408.63	2224.09
408.84	2359.26
409.05	2324.44
409.25	2164.70
409.46	2256.86
409.67	2162.66
409.88	2193.37
410.08	2234.33
410.29	2185.18
410.50	2338.78
410.70	2328.54
410.91	2121.70
411.12	2301.92
411.32	2301.92
411.53	2129.89
411.74	2404.32
411.95	2338.78
412.15	2271.20
412.36	2318.30
412.57	2271.20
412.77	2473.95
412.98	2273.25
413.19	2232.29
413.39	2293.72
413.60	2349.02
413.81	2357.21
414.01	2162.66
414.22	2291.68
414.43	2285.53
414.63	2217.95
414.84	2346.97
415.05	2271.20
415.25	2129.89
415.46	2314.20
415.67	2215.90
415.87	2254.81
416.08	2244.57
416.29	2246.62
416.49	2303.96
416.70	2162.66
416.91	2185.18
417.11	2211.81
417.32	2293.72
417.53	2369.50
417.73	2269.15
417.94	2187.23
418.15	2326.49
418.35	2260.96
418.56	2158.56
418.77	2408.41
418.97	2162.66
419.18	2244.57
419.38	1994.72
419.59	2236.38
419.80	2363.36
420.00	2152.42
420.21	2228.19
420.42	2432.99
420.62	2269.15
420.83	2170.85
421.04	2242.53
421.24	2269.15
421.45	2320.35
421.65	2326.49
421.86	2140.13
422.07	2371.55
422.27	2283.49
422.48	2234.33
422.69	2160.61
422.89	2172.89
423.10	2226.14
423.30	2127.84
423.51	2281.44
423.72	2310.11
423.92	2256.86
424.13	2125.79
424.33	2224.09
424.54	2332.64
424.75	2273.25
424.95	2400.22
425.16	2322.40
425.36	2250.72
425.57	2406.36
425.78	2357.21
425.98	2256.86
426.19	2123.74
426.39	2228.19
426.60	2308.06
426.81	2353.12
427.01	2263.01
427.22	2162.66
427.42	2129.89
427.63	2136.03
427.83	2301.92
428.04	2422.75
428.25	2330.59
428.45	2351.07
428.66	2426.84
428.86	2195.42
429.07	2207.71
429.28	2199.52
429.48	2220.00
429.69	2133.98
429.89	2244.57
430.10	2113.50
430.30	2338.78
430.51	2377.69
430.71	2166.75
430.92	2158.56
431.13	2207.71
431.33	2281.44
431.54	2287.58
431.74	2389.98
431.95	2465.75
432.15	2156.51
432.36	2281.44
432.56	2283.49
432.77	2482.14
432.98	2428.89
433.18	2287.58
433.39	2183.13
433.59	2275.29
433.80	2449.37
434.00	2430.94
434.21	2244.57
434.41	2179.04
434.62	2449.37
434.82	2220.00
435.03	2224.09
435.23	2220.00
435.44	2121.70
435.64	2310.11
435.85	2324.44
436.06	2336.73
436.26	2392.03
436.47	2256.86
436.67	2215.90
436.88	2195.42
437.08	2299.87
437.29	2416.60
437.49	2230.24
437.70	2430.94
437.90	2400.22
438.11	2359.26
438.31	2361.31
438.52	2463.71
438.72	2529.24
438.93	2584.54
439.13	2297.82
439.34	2361.31
439.54	2240.48
439.75	2351.07
439.95	2332.64
440.16	2301.92
440.36	2275.29
440.57	2285.53
440.77	2260.96
440.98	2252.77
441.18	2334.68
441.39	2166.75
441.59	2095.07
441.80	2516.95
442.00	2256.86
442.21	2326.49
442.41	2115.55
442.62	2422.75
442.82	2146.27
443.02	2242.53
443.23	2326.49
443.43	2140.13
443.64	2437.08
443.84	2179.04
444.05	2455.51
444.25	2248.67
444.46	2353.12
444.66	2285.53
444.87	2392.03
445.07	2183.13
445.28	2133.98
445.48	2340.83
445.69	2373.60
445.89	2551.77
446.09	2238.43
446.30	2566.10
446.50	2912.21
446.71	4366.27
446.91	5455.79
447.12	6408.09
447.32	6610.84
447.53	6307.74
447.73	5115.83
447.93	4489.15
448.14	4210.62
448.34	4097.99
448.55	3626.95
448.75	3504.07
448.96	3444.68
449.16	3049.43
449.36	2912.21
449.57	2621.40
449.77	2357.21
449.98	2293.72
450.18	2367.45
450.39	2326.49
450.59	2310.11
450.79	2224.09
451.00	2252.77
451.20	2336.73
451.41	2258.91
451.61	2310.11
451.81	2297.82
452.02	2269.15
452.22	2279.39
452.43	2183.13
452.63	2170.85
