SpectraSuite Data File
++++++++++++++++++++++++++++++++++++
Date: Thu May 05 13:20:45 CEST 2016
User: root
Dark Spectrum Present: No
Reference Spectrum Present: No
Number of Sampled Component Spectra: 1
Spectrometers: USB4C02835
Integration Time (usec): 100000 (USB4C02835)
Spectra Averaged: 1 (USB4C02835)
Boxcar Smoothing: 0 (USB4C02835)
Correct for Electrical Dark: No (USB4C02835)
Strobe/Lamp Enabled: No (USB4C02835)
Correct for Detector Non-linearity: No (USB4C02835)
Correct for Stray Light: No (USB4C02835)
Number of Pixels in Processed Spectrum: 3648
>>>>>Begin Processed Spectral Data<<<<<
177.47	1800.16
177.69	1800.16
177.91	1800.16
178.13	1865.70
178.36	1816.55
178.58	2080.74
178.80	2328.54
179.02	2111.46
179.24	2146.27
179.46	2168.80
179.68	2267.10
179.90	2183.13
180.13	2201.57
180.35	2140.13
180.57	2125.79
180.79	2318.30
181.01	2242.53
181.23	2273.25
181.45	2275.29
181.67	2365.40
181.90	2293.72
182.12	2152.42
182.34	2150.37
182.56	2297.82
182.78	2242.53
183.00	2179.04
183.22	2187.23
183.44	2150.37
183.66	2568.15
183.89	2301.92
184.11	2176.99
184.33	2308.06
184.55	2357.21
184.77	2275.29
184.99	2252.77
185.21	2179.04
185.43	2478.04
185.65	2193.37
185.87	2152.42
186.10	2480.09
186.32	2457.56
186.54	2236.38
186.76	2285.53
186.98	2353.12
187.20	2217.95
187.42	2162.66
187.64	2201.57
187.86	2293.72
188.08	2312.16
188.30	2146.27
188.52	2220.00
188.75	2424.80
188.97	2328.54
189.19	2129.89
189.41	2127.84
189.63	2328.54
189.85	2224.09
190.07	2047.97
190.29	2054.11
190.51	2281.44
190.73	2080.74
190.95	2326.49
191.17	2215.90
191.39	2183.13
191.61	2244.57
191.84	2179.04
192.06	2220.00
192.28	2119.65
192.50	2500.57
192.72	2250.72
192.94	2211.81
193.16	2285.53
193.38	2271.20
193.60	2121.70
193.82	2189.28
194.04	2293.72
194.26	2295.77
194.48	2193.37
194.70	2150.37
194.92	2273.25
195.14	2346.97
195.36	2136.03
195.58	2265.05
195.80	2226.14
196.02	2211.81
196.24	2162.66
196.46	2258.91
196.69	2160.61
196.91	2582.49
197.13	2203.61
197.35	2158.56
197.57	2406.36
197.79	2267.10
198.01	2236.38
198.23	2201.57
198.45	2287.58
198.67	2217.95
198.89	2082.78
199.11	2248.67
199.33	2197.47
199.55	2088.93
199.77	2166.75
199.99	2318.30
200.21	2240.48
200.43	2232.29
200.65	2127.84
200.87	2023.39
201.09	2293.72
201.31	2215.90
201.53	2250.72
201.75	2277.34
201.97	2244.57
202.19	2269.15
202.41	2275.29
202.63	2439.13
202.85	2299.87
203.07	2248.67
203.29	2215.90
203.51	2074.59
203.73	2230.24
203.95	2578.39
204.17	2228.19
204.39	2230.24
204.61	2191.33
204.83	2234.33
205.05	2215.90
205.27	2217.95
205.49	2430.94
205.71	2238.43
205.93	2138.08
206.15	2138.08
206.37	2318.30
206.59	2226.14
206.81	2060.26
207.03	2043.87
207.25	2158.56
207.47	2289.63
207.69	2156.51
207.91	2342.88
208.13	2342.88
208.34	2197.47
208.56	2113.50
208.78	2285.53
209.00	2244.57
209.22	2222.05
209.44	2179.04
209.66	2113.50
209.88	2273.25
210.10	2240.48
210.32	2119.65
210.54	2279.39
210.76	2207.71
210.98	2387.93
211.20	2039.78
211.42	2289.63
211.64	2412.51
211.86	2295.77
212.08	2176.99
212.30	2193.37
212.52	2265.05
212.74	2275.29
212.96	2215.90
213.17	2203.61
213.39	2359.26
213.61	2392.03
213.83	2176.99
214.05	2158.56
214.27	2379.74
214.49	2148.32
214.71	2195.42
214.93	2263.01
215.15	2299.87
215.37	2250.72
215.59	2072.54
215.81	2199.52
216.03	2349.02
216.24	2244.57
216.46	2179.04
216.68	2297.82
216.90	2375.64
217.12	2406.36
217.34	2201.57
217.56	2244.57
217.78	2383.84
218.00	2322.40
218.22	2189.28
218.44	2265.05
218.66	2285.53
218.87	2392.03
219.09	2168.80
219.31	2154.46
219.53	2277.34
219.75	2148.32
219.97	2129.89
220.19	2152.42
220.41	2230.24
220.63	2346.97
220.85	2228.19
221.06	2222.05
221.28	2422.75
221.50	2269.15
221.72	2195.42
221.94	2138.08
222.16	2211.81
222.38	2283.49
222.60	2228.19
222.82	2248.67
223.03	2359.26
223.25	2195.42
223.47	2228.19
223.69	2322.40
223.91	2334.68
224.13	2275.29
224.35	2125.79
224.57	2271.20
224.78	2340.83
225.00	2158.56
225.22	2174.94
225.44	2105.31
225.66	2363.36
225.88	2244.57
226.10	2220.00
226.32	2230.24
226.53	2449.37
226.75	2152.42
226.97	2131.94
227.19	2150.37
227.41	2203.61
227.63	2199.52
227.85	2072.54
228.06	2256.86
228.28	2277.34
228.50	2226.14
228.72	2148.32
228.94	2097.12
229.16	2019.30
229.37	2095.07
229.59	2160.61
229.81	2361.31
230.03	2195.42
230.25	2185.18
230.47	2037.73
230.69	2095.07
230.90	2334.68
231.12	2176.99
231.34	2191.33
231.56	2287.58
231.78	2193.37
232.00	2289.63
232.21	2179.04
232.43	2162.66
232.65	2086.88
232.87	2342.88
233.09	2095.07
233.30	2129.89
233.52	2277.34
233.74	2193.37
233.96	2146.27
234.18	2306.01
234.40	2234.33
234.61	2484.19
234.83	2072.54
235.05	2090.98
235.27	2473.95
235.49	2445.27
235.70	2088.93
235.92	2334.68
236.14	2283.49
236.36	2469.85
236.58	2072.54
236.79	2226.14
237.01	2320.35
237.23	2297.82
237.45	2351.07
237.67	2129.89
237.88	2355.16
238.10	2422.75
238.32	2150.37
238.54	2148.32
238.76	2187.23
238.97	2179.04
239.19	2193.37
239.41	2228.19
239.63	2353.12
239.85	2205.66
240.06	2181.09
240.28	2244.57
240.50	2342.88
240.72	2252.77
240.93	2217.95
241.15	2248.67
241.37	2199.52
241.59	2400.22
241.81	2179.04
242.02	2201.57
242.24	2285.53
242.46	2269.15
242.68	2039.78
242.89	2172.89
243.11	2267.10
243.33	2242.53
243.55	2203.61
243.76	2201.57
243.98	2211.81
244.20	2211.81
244.42	2193.37
244.64	2189.28
244.85	2107.36
245.07	2158.56
245.29	2287.58
245.51	2129.89
245.72	2287.58
245.94	2355.16
246.16	2170.85
246.38	2285.53
246.59	2156.51
246.81	2164.70
247.03	2160.61
247.24	2095.07
247.46	2160.61
247.68	2220.00
247.90	2156.51
248.11	2193.37
248.33	2371.55
248.55	2267.10
248.77	2174.94
248.98	2207.71
249.20	2412.51
249.42	2260.96
249.64	2179.04
249.85	2207.71
250.07	2232.29
250.29	2301.92
250.50	2283.49
250.72	2056.16
250.94	2203.61
251.16	2400.22
251.37	2193.37
251.59	2199.52
251.81	2293.72
252.02	2412.51
252.24	2144.22
252.46	2332.64
252.68	2240.48
252.89	2228.19
253.11	2140.13
253.33	2293.72
253.54	2447.32
253.76	2172.89
253.98	2207.71
254.20	2236.38
254.41	2197.47
254.63	2260.96
254.85	2074.59
255.06	2293.72
255.28	2301.92
255.50	2310.11
255.71	2199.52
255.93	2015.20
256.15	2174.94
256.36	2260.96
256.58	2154.46
256.80	2215.90
257.02	2146.27
257.23	2193.37
257.45	2191.33
257.67	2201.57
257.88	2211.81
258.10	2326.49
258.32	2154.46
258.53	2187.23
258.75	2400.22
258.97	2220.00
259.18	2138.08
259.40	2123.74
259.62	2451.42
259.83	2355.16
260.05	2179.04
260.27	2701.27
260.48	2383.84
260.70	2232.29
260.92	2162.66
261.13	2156.51
261.35	2293.72
261.57	2277.34
261.78	2093.02
262.00	2056.16
262.22	2291.68
262.43	2166.75
262.65	2195.42
262.86	2220.00
263.08	2457.56
263.30	2211.81
263.51	2078.69
263.73	2211.81
263.95	2412.51
264.16	2271.20
264.38	2107.36
264.60	2193.37
264.81	2285.53
265.03	2318.30
265.25	2328.54
265.46	2136.03
265.68	2310.11
265.89	2351.07
266.11	2095.07
266.33	2209.76
266.54	2420.70
266.76	2287.58
266.98	2254.81
267.19	2287.58
267.41	2334.68
267.62	2199.52
267.84	2052.06
268.06	2271.20
268.27	2275.29
268.49	2361.31
268.70	2211.81
268.92	2215.90
269.14	2154.46
269.35	2154.46
269.57	2181.09
269.79	2258.91
270.00	2115.55
270.22	2369.50
270.43	2086.88
270.65	2084.83
270.87	2258.91
271.08	2301.92
271.30	2203.61
271.51	2203.61
271.73	2291.68
271.95	2314.20
272.16	2113.50
272.38	2228.19
272.59	2211.81
272.81	2383.84
273.02	2187.23
273.24	2179.04
273.46	2424.80
273.67	2181.09
273.89	2117.60
274.10	2138.08
274.32	2410.46
274.54	2271.20
274.75	2269.15
274.97	2179.04
275.18	2293.72
275.40	2263.01
275.61	2136.03
275.83	2301.92
276.05	2105.31
276.26	2215.90
276.48	2191.33
276.69	2224.09
276.91	2211.81
277.12	2416.60
277.34	2181.09
277.55	2291.68
277.77	2273.25
277.99	2318.30
278.20	2123.74
278.42	2170.85
278.63	2203.61
278.85	2105.31
279.06	2084.83
279.28	2267.10
279.49	2269.15
279.71	2322.40
279.93	2252.77
280.14	2203.61
280.36	2148.32
280.57	2346.97
280.79	2285.53
281.00	2133.98
281.22	2220.00
281.43	2402.27
281.65	2054.11
281.86	2156.51
282.08	2293.72
282.29	2471.90
282.51	2107.36
282.73	2125.79
282.94	2105.31
283.16	2310.11
283.37	2365.40
283.59	2242.53
283.80	2285.53
284.02	2234.33
284.23	2408.41
284.45	2215.90
284.66	2166.75
284.88	2105.31
285.09	2191.33
285.31	2275.29
285.52	2316.25
285.74	2064.35
285.95	2299.87
286.17	2295.77
286.38	2340.83
286.60	2144.22
286.81	2170.85
287.03	2236.38
287.24	2244.57
287.46	2244.57
287.67	2195.42
287.89	2351.07
288.10	2213.85
288.32	2267.10
288.53	2406.36
288.75	2232.29
288.96	2281.44
289.18	2193.37
289.39	2226.14
289.61	2248.67
289.82	2437.08
290.04	2475.99
290.25	2156.51
290.47	2260.96
290.68	2260.96
290.90	2342.88
291.11	2050.02
291.33	2342.88
291.54	2097.12
291.76	2252.77
291.97	2203.61
292.18	2285.53
292.40	2203.61
292.61	2138.08
292.83	2383.84
293.04	2250.72
293.26	2332.64
293.47	2220.00
293.69	2148.32
293.90	2191.33
294.12	2385.88
294.33	2293.72
294.55	2183.13
294.76	2371.55
294.97	2373.60
295.19	2535.39
295.40	2258.91
295.62	2258.91
295.83	2375.64
296.05	2240.48
296.26	2226.14
296.48	2119.65
296.69	2234.33
296.90	2154.46
297.12	2277.34
297.33	2330.59
297.55	2267.10
297.76	2328.54
297.98	2308.06
298.19	2314.20
298.41	2248.67
298.62	2138.08
298.83	2373.60
299.05	2271.20
299.26	2146.27
299.48	2211.81
299.69	2330.59
299.90	2197.47
300.12	2215.90
300.33	2299.87
300.55	2291.68
300.76	2248.67
300.98	2113.50
301.19	2375.64
301.40	2187.23
301.62	2220.00
301.83	2363.36
302.05	2203.61
302.26	2207.71
302.47	2217.95
302.69	2070.50
302.90	2195.42
303.12	2105.31
303.33	2263.01
303.54	2410.46
303.76	2176.99
303.97	2260.96
304.19	2363.36
304.40	2166.75
304.61	2340.83
304.83	2402.27
305.04	2398.17
305.26	2314.20
305.47	2195.42
305.68	2168.80
305.90	2041.82
306.11	2377.69
306.33	2215.90
306.54	2154.46
306.75	2275.29
306.97	2142.18
307.18	2121.70
307.39	2244.57
307.61	2244.57
307.82	2265.05
308.04	2246.62
308.25	2086.88
308.46	2287.58
308.68	2193.37
308.89	2172.89
309.10	2357.21
309.32	2340.83
309.53	2283.49
309.74	2283.49
309.96	2236.38
310.17	2334.68
310.39	2236.38
310.60	2326.49
310.81	2195.42
311.03	2156.51
311.24	2334.68
311.45	2230.24
311.67	2408.41
311.88	2318.30
312.09	2228.19
312.31	2152.42
312.52	2250.72
312.73	2244.57
312.95	2154.46
313.16	2240.48
313.37	2375.64
313.59	2291.68
313.80	2349.02
314.01	2400.22
314.23	2187.23
314.44	2129.89
314.65	2146.27
314.87	2248.67
315.08	2230.24
315.29	2220.00
315.51	2226.14
315.72	2125.79
315.93	2359.26
316.15	2263.01
316.36	2185.18
316.57	2293.72
316.79	2297.82
317.00	2211.81
317.21	2394.08
317.43	2201.57
317.64	2267.10
317.85	2138.08
318.07	2193.37
318.28	2183.13
318.49	2379.74
318.70	2562.01
318.92	2328.54
319.13	2336.73
319.34	2410.46
319.56	2412.51
319.77	2383.84
319.98	2414.56
320.20	2367.45
320.41	2289.63
320.62	2314.20
320.83	2150.37
321.05	2424.80
321.26	2340.83
321.47	2269.15
321.69	2363.36
321.90	2146.27
322.11	2211.81
322.32	2299.87
322.54	2416.60
322.75	2191.33
322.96	2514.91
323.18	2144.22
323.39	2021.35
323.60	2193.37
323.81	2256.86
324.03	2203.61
324.24	2271.20
324.45	2344.92
324.66	2248.67
324.88	2297.82
325.09	2342.88
325.30	2252.77
325.52	2224.09
325.73	2297.82
325.94	2162.66
326.15	2074.59
326.37	2093.02
326.58	2375.64
326.79	2412.51
327.00	2170.85
327.22	2283.49
327.43	2228.19
327.64	2146.27
327.85	2269.15
328.07	2195.42
328.28	2416.60
328.49	2115.55
328.70	2172.89
328.92	2236.38
329.13	2207.71
329.34	2414.56
329.55	2361.31
329.76	2291.68
329.98	2301.92
330.19	2367.45
330.40	2291.68
330.61	2265.05
330.83	2303.96
331.04	2224.09
331.25	2228.19
331.46	2129.89
331.68	2097.12
331.89	2379.74
332.10	2338.78
332.31	2070.50
332.52	2228.19
332.74	2359.26
332.95	2097.12
333.16	2199.52
333.37	2252.77
333.58	2230.24
333.80	2228.19
334.01	2107.36
334.22	2234.33
334.43	2172.89
334.64	2232.29
334.86	2131.94
335.07	2176.99
335.28	2379.74
335.49	2084.83
335.70	2346.97
335.92	2340.83
336.13	2512.86
336.34	2318.30
336.55	2211.81
336.76	2291.68
336.98	2105.31
337.19	2260.96
337.40	2392.03
337.61	2490.33
337.82	2179.04
338.04	2250.72
338.25	2086.88
338.46	2220.00
338.67	2217.95
338.88	2146.27
339.09	2199.52
339.31	2170.85
339.52	2133.98
339.73	2170.85
339.94	2215.90
340.15	2310.11
340.36	2158.56
340.58	2306.01
340.79	2119.65
341.00	2277.34
341.21	2166.75
341.42	2459.61
341.63	2211.81
341.85	2375.64
342.06	2301.92
342.27	2236.38
342.48	2377.69
342.69	2084.83
342.90	2267.10
343.12	2379.74
343.33	2179.04
343.54	2346.97
343.75	2412.51
343.96	2209.76
344.17	2201.57
344.38	2267.10
344.60	2187.23
344.81	2133.98
345.02	2201.57
345.23	2422.75
345.44	2514.91
345.65	2353.12
345.86	2301.92
346.07	2287.58
346.29	2256.86
346.50	2234.33
346.71	2215.90
346.92	2367.45
347.13	2441.18
347.34	2129.89
347.55	2162.66
347.76	2285.53
347.98	2179.04
348.19	2244.57
348.40	2316.25
348.61	2209.76
348.82	2400.22
349.03	2318.30
349.24	2195.42
349.45	2441.18
349.66	2068.45
349.88	2203.61
350.09	2189.28
350.30	2396.12
350.51	2394.08
350.72	2285.53
350.93	2265.05
351.14	2187.23
351.35	2291.68
351.56	2224.09
351.77	2213.85
351.99	2211.81
352.20	2432.99
352.41	2316.25
352.62	2082.78
352.83	2215.90
353.04	2201.57
353.25	2224.09
353.46	2336.73
353.67	2351.07
353.88	2095.07
354.09	2154.46
354.30	2211.81
354.52	2312.16
354.73	2226.14
354.94	2166.75
355.15	2277.34
355.36	2465.75
355.57	2142.18
355.78	2252.77
355.99	2121.70
356.20	2228.19
356.41	2389.98
356.62	2318.30
356.83	2232.29
357.04	2342.88
357.25	2142.18
357.46	2283.49
357.68	2047.97
357.89	2146.27
358.10	2242.53
358.31	2285.53
358.52	2228.19
358.73	2154.46
358.94	2148.32
359.15	2195.42
359.36	2392.03
359.57	2324.44
359.78	2254.81
359.99	2293.72
360.20	2269.15
360.41	2269.15
360.62	2299.87
360.83	2236.38
361.04	2256.86
361.25	2281.44
361.46	2392.03
361.67	2297.82
361.88	2281.44
362.09	2349.02
362.30	2281.44
362.51	2105.31
362.72	2263.01
362.93	2383.84
363.14	2244.57
363.35	2283.49
363.56	2174.94
363.78	2330.59
363.99	2295.77
364.20	2156.51
364.41	2228.19
364.62	2392.03
364.83	2301.92
365.04	2211.81
365.25	2205.66
365.46	2498.52
365.67	2111.46
365.88	2195.42
366.09	2211.81
366.30	2220.00
366.51	2158.56
366.72	2174.94
366.93	2207.71
367.14	2197.47
367.35	2385.88
367.56	2133.98
367.77	2367.45
367.98	2228.19
368.18	2349.02
368.39	2277.34
368.60	2148.32
368.81	2334.68
369.02	2258.91
369.23	2138.08
369.44	2074.59
369.65	2293.72
369.86	2271.20
370.07	2291.68
370.28	2109.41
370.49	2330.59
370.70	2340.83
370.91	2121.70
371.12	2119.65
371.33	2469.85
371.54	2244.57
371.75	2330.59
371.96	2160.61
372.17	2228.19
372.38	2201.57
372.59	2263.01
372.80	2119.65
373.01	2236.38
373.22	2242.53
373.43	2301.92
373.64	2119.65
373.85	2344.92
374.06	2426.84
374.26	2383.84
374.47	2289.63
374.68	2375.64
374.89	2349.02
375.10	2224.09
375.31	2275.29
375.52	2236.38
375.73	2244.57
375.94	2146.27
376.15	2301.92
376.36	2187.23
376.57	2248.67
376.78	2199.52
376.99	2263.01
377.20	2420.70
377.40	2187.23
377.61	2349.02
377.82	2138.08
378.03	2379.74
378.24	2199.52
378.45	2277.34
378.66	2242.53
378.87	2097.12
379.08	2176.99
379.29	2152.42
379.50	2310.11
379.71	2156.51
379.91	2359.26
380.12	2228.19
380.33	2236.38
380.54	2172.89
380.75	2306.01
380.96	2211.81
381.17	2254.81
381.38	2332.64
381.59	2269.15
381.80	2224.09
382.00	2439.13
382.21	2293.72
382.42	2394.08
382.63	2498.52
382.84	2318.30
383.05	2340.83
383.26	2424.80
383.47	2271.20
383.68	2293.72
383.88	2260.96
384.09	2334.68
384.30	2361.31
384.51	2267.10
384.72	2187.23
384.93	2101.22
385.14	2211.81
385.35	2291.68
385.55	2082.78
385.76	2342.88
385.97	2236.38
386.18	2158.56
386.39	2195.42
386.60	2207.71
386.81	2275.29
387.02	2168.80
387.22	2129.89
387.43	2279.39
387.64	2346.97
387.85	2392.03
388.06	2514.91
388.27	3946.44
388.48	8013.70
388.68	11611.98
388.89	13772.59
389.10	15134.49
389.31	13680.43
389.52	10884.95
389.73	9518.96
389.93	8578.94
390.14	7917.45
390.35	6973.33
390.56	6365.09
390.77	5246.90
390.98	3934.15
391.18	3254.22
391.39	2686.94
391.60	2357.21
391.81	2383.84
392.02	2275.29
392.23	2441.18
392.43	2297.82
392.64	2332.64
392.85	2220.00
393.06	2416.60
393.27	2260.96
393.47	2138.08
393.68	2263.01
393.89	2170.85
394.10	2359.26
394.31	2160.61
394.52	2158.56
394.72	2220.00
394.93	2447.32
395.14	2160.61
395.35	2271.20
395.56	2199.52
395.76	2238.43
395.97	2340.83
396.18	2308.06
396.39	2351.07
396.60	2717.65
396.80	2496.47
397.01	2402.27
397.22	2408.41
397.43	2342.88
397.64	2306.01
397.84	2392.03
398.05	2475.99
398.26	2334.68
398.47	2365.40
398.67	2316.25
398.88	2269.15
399.09	2330.59
399.30	2310.11
399.51	2299.87
399.71	2224.09
399.92	2240.48
400.13	2295.77
400.34	2265.05
400.54	2197.47
400.75	2504.67
400.96	2328.54
401.17	2412.51
401.37	2310.11
401.58	2320.35
401.79	2203.61
402.00	2322.40
402.21	2627.54
402.41	2568.15
402.62	2588.63
402.83	2729.94
403.04	2703.32
403.24	2758.61
403.45	2424.80
403.66	2500.57
403.87	2463.71
404.07	2535.39
404.28	2453.47
404.49	2559.96
404.70	2320.35
404.90	2377.69
405.11	2299.87
405.32	2285.53
405.52	2254.81
405.73	2154.46
405.94	2220.00
406.15	2275.29
406.35	2277.34
406.56	2359.26
406.77	2240.48
406.98	2273.25
407.18	2256.86
407.39	2400.22
407.60	2234.33
407.80	2260.96
408.01	2146.27
408.22	2267.10
408.43	2168.80
408.63	2287.58
408.84	2326.49
409.05	2371.55
409.25	2209.76
409.46	2185.18
409.67	2283.49
409.88	2195.42
410.08	2301.92
410.29	2260.96
410.50	2256.86
410.70	2361.31
410.91	2193.37
411.12	2267.10
411.32	2314.20
411.53	2209.76
411.74	2285.53
411.95	2297.82
412.15	2349.02
412.36	2408.41
412.57	2332.64
412.77	2400.22
412.98	2260.96
413.19	2236.38
413.39	2349.02
413.60	2318.30
413.81	2383.84
414.01	2187.23
414.22	2267.10
414.43	2283.49
414.63	2220.00
414.84	2412.51
415.05	2267.10
415.25	2162.66
415.46	2349.02
415.67	2213.85
415.87	2211.81
416.08	2289.63
416.29	2263.01
416.49	2314.20
416.70	2211.81
416.91	2195.42
417.11	2193.37
417.32	2369.50
417.53	2303.96
417.73	2285.53
417.94	2185.18
418.15	2342.88
418.35	2291.68
418.56	2320.35
418.77	2537.43
418.97	2252.77
419.18	2254.81
419.38	2068.45
419.59	2260.96
419.80	2432.99
420.00	2168.80
420.21	2228.19
420.42	2420.70
420.62	2252.77
420.83	2179.04
421.04	2129.89
421.24	2228.19
421.45	2283.49
421.65	2301.92
421.86	2238.43
422.07	2336.73
422.27	2340.83
422.48	2287.58
422.69	2097.12
422.89	2236.38
423.10	2265.05
423.30	2168.80
423.51	2248.67
423.72	2285.53
423.92	2318.30
424.13	2211.81
424.33	2252.77
424.54	2408.41
424.75	2318.30
424.95	2424.80
425.16	2209.76
425.36	2201.57
425.57	2269.15
425.78	2342.88
425.98	2326.49
426.19	2226.14
426.39	2248.67
426.60	2299.87
426.81	2363.36
427.01	2240.48
427.22	2150.37
427.42	2179.04
427.63	2119.65
427.83	2363.36
428.04	2439.13
428.25	2396.12
428.45	2342.88
428.66	2346.97
428.86	2265.05
429.07	2252.77
429.28	2310.11
429.48	2283.49
429.69	2185.18
429.89	2271.20
430.10	2209.76
430.30	2293.72
430.51	2414.56
430.71	2193.37
430.92	2217.95
431.13	2199.52
431.33	2269.15
431.54	2269.15
431.74	2449.37
431.95	2465.75
432.15	2131.94
432.36	2306.01
432.56	2367.45
432.77	2461.66
432.98	2420.70
433.18	2324.44
433.39	2162.66
433.59	2260.96
433.80	2349.02
434.00	2404.32
434.21	2232.29
434.41	2207.71
434.62	2527.19
434.82	2146.27
435.03	2191.33
435.23	2174.94
435.44	2127.84
435.64	2328.54
435.85	2215.90
436.06	2312.16
436.26	2402.27
436.47	2228.19
436.67	2146.27
436.88	2295.77
437.08	2432.99
437.29	2400.22
437.49	2289.63
437.70	2353.12
437.90	2240.48
438.11	2402.27
438.31	2285.53
438.52	2494.43
438.72	2385.88
438.93	2510.81
439.13	2306.01
439.34	2387.93
439.54	2295.77
439.75	2326.49
439.95	2316.25
440.16	2234.33
440.36	2258.91
440.57	2328.54
440.77	2252.77
440.98	2230.24
441.18	2303.96
441.39	2193.37
441.59	2148.32
441.80	2545.63
442.00	2242.53
442.21	2392.03
442.41	2146.27
442.62	2414.56
442.82	2242.53
443.02	2170.85
443.23	2285.53
443.43	2201.57
443.64	2441.18
443.84	2222.05
444.05	2357.21
444.25	2246.62
444.46	2252.77
444.66	2232.29
444.87	2439.13
445.07	2158.56
445.28	2293.72
445.48	2361.31
445.69	2318.30
445.89	2422.75
446.09	2291.68
446.30	2549.72
446.50	2899.92
446.71	4317.12
446.91	5500.84
447.12	6197.15
447.32	6715.29
447.53	6211.49
447.73	5111.73
447.93	4509.63
448.14	4198.34
448.34	4112.32
448.55	3518.41
448.75	3653.58
448.96	3465.16
449.16	3092.43
449.36	2977.75
449.57	2605.02
449.77	2453.47
449.98	2269.15
450.18	2275.29
450.39	2320.35
450.59	2369.50
450.79	2277.34
451.00	2162.66
451.20	2326.49
451.41	2279.39
451.61	2269.15
451.81	2269.15
452.02	2162.66
452.22	2222.05
452.43	2117.60
452.63	2150.37
