SpectraSuite Data File
++++++++++++++++++++++++++++++++++++
Date: Thu May 05 13:21:05 CEST 2016
User: root
Dark Spectrum Present: No
Reference Spectrum Present: No
Number of Sampled Component Spectra: 1
Spectrometers: USB4C02835
Integration Time (usec): 100000 (USB4C02835)
Spectra Averaged: 1 (USB4C02835)
Boxcar Smoothing: 0 (USB4C02835)
Correct for Electrical Dark: No (USB4C02835)
Strobe/Lamp Enabled: No (USB4C02835)
Correct for Detector Non-linearity: No (USB4C02835)
Correct for Stray Light: No (USB4C02835)
Number of Pixels in Processed Spectrum: 3648
>>>>>Begin Processed Spectral Data<<<<<
177.47	1800.16
177.69	1800.16
177.91	1800.16
178.13	1789.92
178.36	1773.54
178.58	2105.31
178.80	2324.44
179.02	2117.60
179.24	2176.99
179.46	2129.89
179.68	2291.68
179.90	2242.53
180.13	2318.30
180.35	2123.74
180.57	2154.46
180.79	2310.11
181.01	2234.33
181.23	2187.23
181.45	2256.86
181.67	2342.88
181.90	2293.72
182.12	2093.02
182.34	2021.35
182.56	2320.35
182.78	2263.01
183.00	2101.22
183.22	2176.99
183.44	2090.98
183.66	2592.73
183.89	2342.88
184.11	2234.33
184.33	2332.64
184.55	2392.03
184.77	2097.12
184.99	2267.10
185.21	2203.61
185.43	2349.02
185.65	2144.22
185.87	2148.32
186.10	2549.72
186.32	2449.37
186.54	2250.72
186.76	2254.81
186.98	2422.75
187.20	2248.67
187.42	2181.09
187.64	2162.66
187.86	2273.25
188.08	2351.07
188.30	2105.31
188.52	2129.89
188.75	2389.98
188.97	2373.60
189.19	2146.27
189.41	2121.70
189.63	2277.34
189.85	2160.61
190.07	2066.40
190.29	2054.11
190.51	2236.38
190.73	2068.45
190.95	2314.20
191.17	2176.99
191.39	2074.59
191.61	2236.38
191.84	2185.18
192.06	2183.13
192.28	2174.94
192.50	2600.92
192.72	2220.00
192.94	2228.19
193.16	2367.45
193.38	2324.44
193.60	2095.07
193.82	2195.42
194.04	2367.45
194.26	2283.49
194.48	2183.13
194.70	2226.14
194.92	2269.15
195.14	2299.87
195.36	2131.94
195.58	2199.52
195.80	2275.29
196.02	2168.80
196.24	2250.72
196.46	2236.38
196.69	2131.94
196.91	2463.71
197.13	2160.61
197.35	2170.85
197.57	2396.12
197.79	2283.49
198.01	2213.85
198.23	2289.63
198.45	2263.01
198.67	2068.45
198.89	2121.70
199.11	2299.87
199.33	2246.62
199.55	1998.82
199.77	2146.27
199.99	2275.29
200.21	2185.18
200.43	2301.92
200.65	2158.56
200.87	2152.42
201.09	2209.76
201.31	2230.24
201.53	2269.15
201.75	2269.15
201.97	2213.85
202.19	2201.57
202.41	2318.30
202.63	2318.30
202.85	2285.53
203.07	2322.40
203.29	2248.67
203.51	2140.13
203.73	2187.23
203.95	2559.96
204.17	2232.29
204.39	2281.44
204.61	2217.95
204.83	2150.37
205.05	2271.20
205.27	2185.18
205.49	2447.32
205.71	2224.09
205.93	2125.79
206.15	2047.97
206.37	2242.53
206.59	2185.18
206.81	2039.78
207.03	2064.35
207.25	2156.51
207.47	2332.64
207.69	2211.81
207.91	2283.49
208.13	2457.56
208.34	2185.18
208.56	2160.61
208.78	2197.47
209.00	2301.92
209.22	2228.19
209.44	2217.95
209.66	2146.27
209.88	2260.96
210.10	2203.61
210.32	2093.02
210.54	2232.29
210.76	2144.22
210.98	2377.69
211.20	2052.06
211.42	2275.29
211.64	2392.03
211.86	2246.62
212.08	2228.19
212.30	2265.05
212.52	2252.77
212.74	2320.35
212.96	2215.90
213.17	2193.37
213.39	2342.88
213.61	2404.32
213.83	2158.56
214.05	2220.00
214.27	2359.26
214.49	2205.66
214.71	2109.41
214.93	2275.29
215.15	2226.14
215.37	2330.59
215.59	2097.12
215.81	2246.62
216.03	2416.60
216.24	2244.57
216.46	2154.46
216.68	2203.61
216.90	2310.11
217.12	2346.97
217.34	2193.37
217.56	2306.01
217.78	2408.41
218.00	2299.87
218.22	2293.72
218.44	2215.90
218.66	2306.01
218.87	2406.36
219.09	2174.94
219.31	2213.85
219.53	2234.33
219.75	2269.15
219.97	2207.71
220.19	2199.52
220.41	2279.39
220.63	2428.89
220.85	2203.61
221.06	2197.47
221.28	2338.78
221.50	2291.68
221.72	2168.80
221.94	2185.18
222.16	2306.01
222.38	2291.68
222.60	2133.98
222.82	2160.61
223.03	2422.75
223.25	2168.80
223.47	2226.14
223.69	2310.11
223.91	2285.53
224.13	2265.05
224.35	2174.94
224.57	2326.49
224.78	2267.10
225.00	2152.42
225.22	2222.05
225.44	2136.03
225.66	2303.96
225.88	2258.91
226.10	2303.96
226.32	2205.66
226.53	2416.60
226.75	2236.38
226.97	2228.19
227.19	2222.05
227.41	2209.76
227.63	2191.33
227.85	2027.49
228.06	2152.42
228.28	2211.81
228.50	2373.60
228.72	2097.12
228.94	2176.99
229.16	2013.15
229.37	2154.46
229.59	2140.13
229.81	2271.20
230.03	2162.66
230.25	2164.70
230.47	2088.93
230.69	2129.89
230.90	2291.68
231.12	2168.80
231.34	2220.00
231.56	2277.34
231.78	2080.74
232.00	2273.25
232.21	2146.27
232.43	2256.86
232.65	2031.58
232.87	2338.78
233.09	2109.41
233.30	2050.02
233.52	2334.68
233.74	2293.72
233.96	2201.57
234.18	2260.96
234.40	2297.82
234.61	2459.61
234.83	2117.60
235.05	2111.46
235.27	2529.24
235.49	2381.79
235.70	2172.89
235.92	2213.85
236.14	2324.44
236.36	2441.18
236.58	2109.41
236.79	2244.57
237.01	2240.48
237.23	2191.33
237.45	2432.99
237.67	2166.75
237.88	2330.59
238.10	2494.43
238.32	2076.64
238.54	2179.04
238.76	2215.90
238.97	2113.50
239.19	2099.17
239.41	2234.33
239.63	2371.55
239.85	2226.14
240.06	2127.84
240.28	2088.93
240.50	2326.49
240.72	2267.10
240.93	2129.89
241.15	2242.53
241.37	2244.57
241.59	2414.56
241.81	2211.81
242.02	2203.61
242.24	2170.85
242.46	2316.25
242.68	2150.37
242.89	2142.18
243.11	2375.64
243.33	2187.23
243.55	2179.04
243.76	2211.81
243.98	2164.70
244.20	2293.72
244.42	2170.85
244.64	2246.62
244.85	2064.35
245.07	2162.66
245.29	2222.05
245.51	2093.02
245.72	2285.53
245.94	2332.64
246.16	2256.86
246.38	2269.15
246.59	2232.29
246.81	2093.02
247.03	2097.12
247.24	2090.98
247.46	2275.29
247.68	2236.38
247.90	2127.84
248.11	2144.22
248.33	2367.45
248.55	2181.09
248.77	2265.05
248.98	2244.57
249.20	2375.64
249.42	2389.98
249.64	2217.95
249.85	2265.05
250.07	2220.00
250.29	2324.44
250.50	2326.49
250.72	2068.45
250.94	2373.60
251.16	2420.70
251.37	2205.66
251.59	2205.66
251.81	2336.73
252.02	2367.45
252.24	2113.50
252.46	2332.64
252.68	2156.51
252.89	2168.80
253.11	2021.35
253.33	2359.26
253.54	2422.75
253.76	2168.80
253.98	2193.37
254.20	2119.65
254.41	2205.66
254.63	2195.42
254.85	2041.82
255.06	2287.58
255.28	2285.53
255.50	2187.23
255.71	2179.04
255.93	2033.63
256.15	2260.96
256.36	2252.77
256.58	2170.85
256.80	2183.13
257.02	2226.14
257.23	2193.37
257.45	2187.23
257.67	2226.14
257.88	2191.33
258.10	2299.87
258.32	2174.94
258.53	2160.61
258.75	2381.79
258.97	2166.75
259.18	2129.89
259.40	2244.57
259.62	2432.99
259.83	2365.40
260.05	2201.57
260.27	2695.13
260.48	2297.82
260.70	2111.46
260.92	2195.42
261.13	2185.18
261.35	2308.06
261.57	2351.07
261.78	2084.83
262.00	2111.46
262.22	2267.10
262.43	2236.38
262.65	2183.13
262.86	2224.09
263.08	2412.51
263.30	2293.72
263.51	2056.16
263.73	2113.50
263.95	2432.99
264.16	2199.52
264.38	2060.26
264.60	2197.47
264.81	2224.09
265.03	2373.60
265.25	2340.83
265.46	2170.85
265.68	2306.01
265.89	2320.35
266.11	2088.93
266.33	2215.90
266.54	2291.68
266.76	2281.44
266.98	2283.49
267.19	2359.26
267.41	2363.36
267.62	2226.14
267.84	2045.92
268.06	2308.06
268.27	2252.77
268.49	2392.03
268.70	2256.86
268.92	2269.15
269.14	2150.37
269.35	2109.41
269.57	2236.38
269.79	2371.55
270.00	2207.71
270.22	2375.64
270.43	2062.30
270.65	2052.06
270.87	2273.25
271.08	2330.59
271.30	2258.91
271.51	2205.66
271.73	2287.58
271.95	2482.14
272.16	2228.19
272.38	2258.91
272.59	2213.85
272.81	2338.78
273.02	2121.70
273.24	2160.61
273.46	2377.69
273.67	2140.13
273.89	2070.50
274.10	2185.18
274.32	2392.03
274.54	2250.72
274.75	2217.95
274.97	2256.86
275.18	2273.25
275.40	2303.96
275.61	2193.37
275.83	2306.01
276.05	2129.89
276.26	2236.38
276.48	2240.48
276.69	2138.08
276.91	2213.85
277.12	2373.60
277.34	2340.83
277.55	2357.21
277.77	2226.14
277.99	2236.38
278.20	2080.74
278.42	2191.33
278.63	2185.18
278.85	2152.42
279.06	2199.52
279.28	2285.53
279.49	2394.08
279.71	2369.50
279.93	2185.18
280.14	2316.25
280.36	2146.27
280.57	2379.74
280.79	2285.53
281.00	2093.02
281.22	2174.94
281.43	2400.22
281.65	1966.05
281.86	2183.13
282.08	2355.16
282.29	2443.23
282.51	2142.18
282.73	2090.98
282.94	2131.94
283.16	2312.16
283.37	2371.55
283.59	2185.18
283.80	2301.92
284.02	2293.72
284.23	2306.01
284.45	2207.71
284.66	2140.13
284.88	2179.04
285.09	2252.77
285.31	2301.92
285.52	2299.87
285.74	2068.45
285.95	2287.58
286.17	2220.00
286.38	2371.55
286.60	2168.80
286.81	2195.42
287.03	2176.99
287.24	2269.15
287.46	2340.83
287.67	2228.19
287.89	2424.80
288.10	2252.77
288.32	2283.49
288.53	2367.45
288.75	2226.14
288.96	2349.02
289.18	2244.57
289.39	2119.65
289.61	2291.68
289.82	2445.27
290.04	2465.75
290.25	2107.36
290.47	2256.86
290.68	2248.67
290.90	2344.92
291.11	2062.30
291.33	2242.53
291.54	2176.99
291.76	2109.41
291.97	2226.14
292.18	2234.33
292.40	2199.52
292.61	2162.66
292.83	2445.27
293.04	2285.53
293.26	2207.71
293.47	2195.42
293.69	2154.46
293.90	2162.66
294.12	2416.60
294.33	2236.38
294.55	2113.50
294.76	2269.15
294.97	2404.32
295.19	2463.71
295.40	2154.46
295.62	2314.20
295.83	2400.22
296.05	2066.40
296.26	2367.45
296.48	2097.12
296.69	2326.49
296.90	2291.68
297.12	2363.36
297.33	2295.77
297.55	2260.96
297.76	2185.18
297.98	2326.49
298.19	2269.15
298.41	2293.72
298.62	2170.85
298.83	2351.07
299.05	2252.77
299.26	2185.18
299.48	2183.13
299.69	2308.06
299.90	2230.24
300.12	2211.81
300.33	2318.30
300.55	2275.29
300.76	2224.09
300.98	2174.94
301.19	2363.36
301.40	2205.66
301.62	2234.33
301.83	2310.11
302.05	2238.43
302.26	2195.42
302.47	2258.91
302.69	2146.27
302.90	2324.44
303.12	2076.64
303.33	2279.39
303.54	2453.47
303.76	2162.66
303.97	2265.05
304.19	2396.12
304.40	2140.13
304.61	2285.53
304.83	2432.99
305.04	2246.62
305.26	2248.67
305.47	2117.60
305.68	2252.77
305.90	2129.89
306.11	2359.26
306.33	2310.11
306.54	2123.74
306.75	2146.27
306.97	2095.07
307.18	2105.31
307.39	2281.44
307.61	2389.98
307.82	2260.96
308.04	2283.49
308.25	2148.32
308.46	2211.81
308.68	2244.57
308.89	2240.48
309.10	2297.82
309.32	2215.90
309.53	2256.86
309.74	2310.11
309.96	2211.81
310.17	2346.97
310.39	2138.08
310.60	2283.49
310.81	2211.81
311.03	2136.03
311.24	2310.11
311.45	2248.67
311.67	2387.93
311.88	2252.77
312.09	2211.81
312.31	2234.33
312.52	2250.72
312.73	2240.48
312.95	2152.42
313.16	2127.84
313.37	2377.69
313.59	2189.28
313.80	2381.79
314.01	2412.51
314.23	2201.57
314.44	2179.04
314.65	2166.75
314.87	2224.09
315.08	2162.66
315.29	2205.66
315.51	2260.96
315.72	2047.97
315.93	2291.68
316.15	2318.30
316.36	2254.81
316.57	2299.87
316.79	2236.38
317.00	2174.94
317.21	2357.21
317.43	2172.89
317.64	2324.44
317.85	2150.37
318.07	2127.84
318.28	2254.81
318.49	2422.75
318.70	2473.95
318.92	2435.03
319.13	2412.51
319.34	2443.23
319.56	2265.05
319.77	2365.40
319.98	2394.08
320.20	2338.78
320.41	2269.15
320.62	2269.15
320.83	2179.04
321.05	2453.47
321.26	2306.01
321.47	2308.06
321.69	2355.16
321.90	2121.70
322.11	2125.79
322.32	2265.05
322.54	2412.51
322.75	2232.29
322.96	2566.10
323.18	2189.28
323.39	2101.22
323.60	2179.04
323.81	2326.49
324.03	2207.71
324.24	2244.57
324.45	2273.25
324.66	2160.61
324.88	2394.08
325.09	2371.55
325.30	2248.67
325.52	2232.29
325.73	2342.88
325.94	2209.76
326.15	2029.54
326.37	2115.55
326.58	2295.77
326.79	2439.13
327.00	2129.89
327.22	2258.91
327.43	2211.81
327.64	2119.65
327.85	2381.79
328.07	2308.06
328.28	2467.80
328.49	2213.85
328.70	2220.00
328.92	2228.19
329.13	2260.96
329.34	2252.77
329.55	2322.40
329.76	2246.62
329.98	2220.00
330.19	2353.12
330.40	2232.29
330.61	2297.82
330.83	2279.39
331.04	2170.85
331.25	2291.68
331.46	2117.60
331.68	2228.19
331.89	2318.30
332.10	2181.09
332.31	2056.16
332.52	2201.57
332.74	2355.16
332.95	2103.26
333.16	2234.33
333.37	2340.83
333.58	2197.47
333.80	2267.10
334.01	2136.03
334.22	2183.13
334.43	2148.32
334.64	2191.33
334.86	2133.98
335.07	2199.52
335.28	2346.97
335.49	2127.84
335.70	2215.90
335.92	2379.74
336.13	2457.56
336.34	2299.87
336.55	2215.90
336.76	2328.54
336.98	2076.64
337.19	2281.44
337.40	2326.49
337.61	2389.98
337.82	2101.22
338.04	2330.59
338.25	2082.78
338.46	2222.05
338.67	2211.81
338.88	2191.33
339.09	2113.50
339.31	2234.33
339.52	2119.65
339.73	2160.61
339.94	2162.66
340.15	2318.30
340.36	2140.13
340.58	2256.86
340.79	2187.23
341.00	2310.11
341.21	2160.61
341.42	2381.79
341.63	2252.77
341.85	2349.02
342.06	2258.91
342.27	2203.61
342.48	2267.10
342.69	2176.99
342.90	2342.88
343.12	2342.88
343.33	2179.04
343.54	2381.79
343.75	2256.86
343.96	2277.34
344.17	2217.95
344.38	2308.06
344.60	2138.08
344.81	2185.18
345.02	2220.00
345.23	2441.18
345.44	2529.24
345.65	2342.88
345.86	2285.53
346.07	2240.48
346.29	2244.57
346.50	2252.77
346.71	2318.30
346.92	2306.01
347.13	2441.18
347.34	2244.57
347.55	2232.29
347.76	2289.63
347.98	2086.88
348.19	2164.70
348.40	2406.36
348.61	2230.24
348.82	2414.56
349.03	2246.62
349.24	2213.85
349.45	2371.55
349.66	2047.97
349.88	2187.23
350.09	2172.89
350.30	2367.45
350.51	2342.88
350.72	2240.48
350.93	2275.29
351.14	2201.57
351.35	2238.43
351.56	2211.81
351.77	2265.05
351.99	2269.15
352.20	2404.32
352.41	2322.40
352.62	2054.11
352.83	2250.72
353.04	2211.81
353.25	2164.70
353.46	2344.92
353.67	2310.11
353.88	2117.60
354.09	2275.29
354.30	2263.01
354.52	2318.30
354.73	2215.90
354.94	2228.19
355.15	2258.91
355.36	2508.76
355.57	2248.67
355.78	2277.34
355.99	2113.50
356.20	2164.70
356.41	2351.07
356.62	2238.43
356.83	2269.15
357.04	2392.03
357.25	2138.08
357.46	2213.85
357.68	2093.02
357.89	2207.71
358.10	2310.11
358.31	2242.53
358.52	2217.95
358.73	2121.70
358.94	2146.27
359.15	2183.13
359.36	2297.82
359.57	2322.40
359.78	2222.05
359.99	2344.92
360.20	2160.61
360.41	2275.29
360.62	2306.01
360.83	2236.38
361.04	2224.09
361.25	2273.25
361.46	2428.89
361.67	2285.53
361.88	2299.87
362.09	2359.26
362.30	2240.48
362.51	2215.90
362.72	2189.28
362.93	2322.40
363.14	2265.05
363.35	2252.77
363.56	2146.27
363.78	2349.02
363.99	2373.60
364.20	2138.08
364.41	2295.77
364.62	2367.45
364.83	2277.34
365.04	2201.57
365.25	2232.29
365.46	2496.47
365.67	2215.90
365.88	2179.04
366.09	2191.33
366.30	2211.81
366.51	2301.92
366.72	2133.98
366.93	2197.47
367.14	2334.68
367.35	2359.26
367.56	2183.13
367.77	2318.30
367.98	2201.57
368.18	2275.29
368.39	2283.49
368.60	2150.37
368.81	2310.11
369.02	2314.20
369.23	2207.71
369.44	2070.50
369.65	2207.71
369.86	2273.25
370.07	2312.16
370.28	2189.28
370.49	2326.49
370.70	2258.91
370.91	2129.89
371.12	2047.97
371.33	2328.54
371.54	2154.46
371.75	2400.22
371.96	1986.53
372.17	2222.05
372.38	2234.33
372.59	2236.38
372.80	2201.57
373.01	2308.06
373.22	2250.72
373.43	2308.06
373.64	2072.54
373.85	2430.94
374.06	2432.99
374.26	2340.83
374.47	2308.06
374.68	2410.46
374.89	2269.15
375.10	2195.42
375.31	2265.05
375.52	2267.10
375.73	2232.29
375.94	2158.56
376.15	2412.51
376.36	2193.37
376.57	2176.99
376.78	2191.33
376.99	2240.48
377.20	2385.88
377.40	2275.29
377.61	2301.92
377.82	2148.32
378.03	2332.64
378.24	2361.31
378.45	2283.49
378.66	2316.25
378.87	2074.59
379.08	2129.89
379.29	2162.66
379.50	2361.31
379.71	2154.46
379.91	2299.87
380.12	2176.99
380.33	2254.81
380.54	2283.49
380.75	2250.72
380.96	2254.81
381.17	2306.01
381.38	2275.29
381.59	2340.83
381.80	2234.33
382.00	2414.56
382.21	2293.72
382.42	2467.80
382.63	2496.47
382.84	2318.30
383.05	2338.78
383.26	2416.60
383.47	2293.72
383.68	2310.11
383.88	2351.07
384.09	2271.20
384.30	2383.84
384.51	2306.01
384.72	2281.44
384.93	2064.35
385.14	2289.63
385.35	2299.87
385.55	2162.66
385.76	2359.26
385.97	2222.05
386.18	2129.89
386.39	2215.90
386.60	2224.09
386.81	2207.71
387.02	2158.56
387.22	2111.46
387.43	2416.60
387.64	2371.55
387.85	2412.51
388.06	2465.75
388.27	3983.30
388.48	8152.96
388.68	11736.91
388.89	13952.81
389.10	15068.95
389.31	13989.67
389.52	10893.15
389.73	9406.32
389.93	8660.86
390.14	8032.13
390.35	7110.55
390.56	6401.95
390.77	5203.89
390.98	4081.60
391.18	3248.08
391.39	2736.09
391.60	2430.94
391.81	2367.45
392.02	2140.13
392.23	2482.14
392.43	2344.92
392.64	2351.07
392.85	2215.90
393.06	2455.51
393.27	2267.10
393.47	2154.46
393.68	2242.53
393.89	2150.37
394.10	2404.32
394.31	2187.23
394.52	2187.23
394.72	2220.00
394.93	2412.51
395.14	2170.85
395.35	2238.43
395.56	2185.18
395.76	2287.58
395.97	2295.77
396.18	2412.51
396.39	2414.56
396.60	2764.76
396.80	2547.67
397.01	2422.75
397.22	2432.99
397.43	2439.13
397.64	2238.43
397.84	2351.07
398.05	2449.37
398.26	2271.20
398.47	2248.67
398.67	2377.69
398.88	2283.49
399.09	2361.31
399.30	2238.43
399.51	2342.88
399.71	2220.00
399.92	2293.72
400.13	2359.26
400.34	2232.29
400.54	2209.76
400.75	2426.84
400.96	2281.44
401.17	2445.27
401.37	2326.49
401.58	2236.38
401.79	2228.19
402.00	2439.13
402.21	2686.94
402.41	2529.24
402.62	2654.17
402.83	2654.17
403.04	2627.54
403.24	2799.57
403.45	2359.26
403.66	2385.88
403.87	2482.14
404.07	2539.48
404.28	2461.66
404.49	2449.37
404.70	2349.02
404.90	2377.69
405.11	2324.44
405.32	2283.49
405.52	2181.09
405.73	2244.57
405.94	2201.57
406.15	2265.05
406.35	2342.88
406.56	2322.40
406.77	2240.48
406.98	2234.33
407.18	2113.50
407.39	2432.99
407.60	2170.85
407.80	2293.72
408.01	2191.33
408.22	2326.49
408.43	2187.23
408.63	2250.72
408.84	2363.36
409.05	2359.26
409.25	2213.85
409.46	2222.05
409.67	2252.77
409.88	2152.42
410.08	2152.42
410.29	2191.33
410.50	2424.80
410.70	2338.78
410.91	2166.75
411.12	2254.81
411.32	2222.05
411.53	2181.09
411.74	2351.07
411.95	2275.29
412.15	2301.92
412.36	2396.12
412.57	2353.12
412.77	2371.55
412.98	2215.90
413.19	2201.57
413.39	2273.25
413.60	2303.96
413.81	2416.60
414.01	2191.33
414.22	2273.25
414.43	2338.78
414.63	2271.20
414.84	2316.25
415.05	2252.77
415.25	2168.80
415.46	2375.64
415.67	2129.89
415.87	2168.80
416.08	2244.57
416.29	2230.24
416.49	2248.67
416.70	2162.66
416.91	2211.81
417.11	2185.18
417.32	2283.49
417.53	2308.06
417.73	2342.88
417.94	2252.77
418.15	2258.91
418.35	2234.33
418.56	2258.91
418.77	2564.06
418.97	2244.57
419.18	2240.48
419.38	1957.86
419.59	2269.15
419.80	2408.41
420.00	2228.19
420.21	2306.01
420.42	2402.27
420.62	2269.15
420.83	2164.70
421.04	2303.96
421.24	2236.38
421.45	2273.25
421.65	2252.77
421.86	2150.37
422.07	2351.07
422.27	2322.40
422.48	2297.82
422.69	2176.99
422.89	2236.38
423.10	2199.52
423.30	2103.26
423.51	2258.91
423.72	2371.55
423.92	2289.63
424.13	2191.33
424.33	2246.62
424.54	2369.50
424.75	2342.88
424.95	2353.12
425.16	2273.25
425.36	2234.33
425.57	2367.45
425.78	2346.97
425.98	2361.31
426.19	2254.81
426.39	2121.70
426.60	2228.19
426.81	2414.56
427.01	2342.88
427.22	2183.13
427.42	2119.65
427.63	2185.18
427.83	2310.11
428.04	2410.46
428.25	2328.54
428.45	2346.97
428.66	2342.88
428.86	2240.48
429.07	2236.38
429.28	2240.48
429.48	2193.37
429.69	2250.72
429.89	2187.23
430.10	2193.37
430.30	2342.88
430.51	2357.21
430.71	2088.93
430.92	2306.01
431.13	2232.29
431.33	2295.77
431.54	2269.15
431.74	2430.94
431.95	2473.95
432.15	2220.00
432.36	2215.90
432.56	2279.39
432.77	2498.52
432.98	2467.80
433.18	2299.87
433.39	2279.39
433.59	2179.04
433.80	2506.71
434.00	2471.90
434.21	2201.57
434.41	2170.85
434.62	2531.29
434.82	2228.19
435.03	2256.86
435.23	2293.72
435.44	2117.60
435.64	2220.00
435.85	2303.96
436.06	2365.40
436.26	2351.07
436.47	2293.72
436.67	2156.51
436.88	2211.81
437.08	2330.59
437.29	2338.78
437.49	2312.16
437.70	2400.22
437.90	2232.29
438.11	2482.14
438.31	2330.59
438.52	2338.78
438.72	2330.59
438.93	2600.92
439.13	2318.30
439.34	2373.60
439.54	2258.91
439.75	2375.64
439.95	2344.92
440.16	2187.23
440.36	2310.11
440.57	2303.96
440.77	2279.39
440.98	2263.01
441.18	2285.53
441.39	2271.20
441.59	2179.04
441.80	2478.04
442.00	2273.25
442.21	2373.60
442.41	2113.50
442.62	2351.07
442.82	2236.38
443.02	2258.91
443.23	2318.30
443.43	2228.19
443.64	2381.79
443.84	2244.57
444.05	2385.88
444.25	2277.34
444.46	2220.00
444.66	2267.10
444.87	2449.37
445.07	2164.70
445.28	2334.68
445.48	2392.03
445.69	2332.64
445.89	2514.91
446.09	2291.68
446.30	2566.10
446.50	2764.76
446.71	4466.62
446.91	5531.56
447.12	6293.41
447.32	6746.01
447.53	6143.91
447.73	5142.45
447.93	4476.86
448.14	4239.30
448.34	4075.46
448.55	3659.72
448.75	3631.05
448.96	3289.04
449.16	2996.18
449.36	2846.68
449.57	2498.52
449.77	2383.84
449.98	2248.67
450.18	2279.39
450.39	2332.64
450.59	2439.13
450.79	2236.38
451.00	2226.14
451.20	2361.31
451.41	2138.08
451.61	2299.87
451.81	2193.37
452.02	2285.53
452.22	2230.24
452.43	2281.44
452.63	2265.05
