SpectraSuite Data File
++++++++++++++++++++++++++++++++++++
Date: Thu May 05 13:21:15 CEST 2016
User: root
Dark Spectrum Present: No
Reference Spectrum Present: No
Number of Sampled Component Spectra: 1
Spectrometers: USB4C02835
Integration Time (usec): 100000 (USB4C02835)
Spectra Averaged: 1 (USB4C02835)
Boxcar Smoothing: 0 (USB4C02835)
Correct for Electrical Dark: No (USB4C02835)
Strobe/Lamp Enabled: No (USB4C02835)
Correct for Detector Non-linearity: No (USB4C02835)
Correct for Stray Light: No (USB4C02835)
Number of Pixels in Processed Spectrum: 3648
>>>>>Begin Processed Spectral Data<<<<<
177.47	1777.64
177.69	1777.64
177.91	1777.64
178.13	1822.69
178.36	1679.33
178.58	2138.08
178.80	2256.86
179.02	2066.40
179.24	2117.60
179.46	2117.60
179.68	2240.48
179.90	2146.27
180.13	2269.15
180.35	2107.36
180.57	2129.89
180.79	2353.12
181.01	2197.47
181.23	2201.57
181.45	2295.77
181.67	2330.59
181.90	2342.88
182.12	2146.27
182.34	2080.74
182.56	2316.25
182.78	2349.02
183.00	2209.76
183.22	2211.81
183.44	2047.97
183.66	2527.19
183.89	2310.11
184.11	2176.99
184.33	2289.63
184.55	2430.94
184.77	2209.76
184.99	2215.90
185.21	2201.57
185.43	2514.91
185.65	2207.71
185.87	2127.84
186.10	2506.71
186.32	2494.43
186.54	2179.04
186.76	2279.39
186.98	2396.12
187.20	2228.19
187.42	2242.53
187.64	2224.09
187.86	2293.72
188.08	2318.30
188.30	2129.89
188.52	2183.13
188.75	2389.98
188.97	2318.30
189.19	2097.12
189.41	2170.85
189.63	2314.20
189.85	2174.94
190.07	2054.11
190.29	2129.89
190.51	2273.25
190.73	2148.32
190.95	2258.91
191.17	2250.72
191.39	2144.22
191.61	2234.33
191.84	2146.27
192.06	2312.16
192.28	2148.32
192.50	2545.63
192.72	2260.96
192.94	2310.11
193.16	2281.44
193.38	2377.69
193.60	2105.31
193.82	2187.23
194.04	2275.29
194.26	2308.06
194.48	2222.05
194.70	2101.22
194.92	2236.38
195.14	2355.16
195.36	2113.50
195.58	2217.95
195.80	2224.09
196.02	2125.79
196.24	2111.46
196.46	2250.72
196.69	2267.10
196.91	2457.56
197.13	2230.24
197.35	2191.33
197.57	2359.26
197.79	2342.88
198.01	2234.33
198.23	2203.61
198.45	2299.87
198.67	2191.33
198.89	2080.74
199.11	2244.57
199.33	2189.28
199.55	2054.11
199.77	2179.04
199.99	2246.62
200.21	2246.62
200.43	2285.53
200.65	2105.31
200.87	2056.16
201.09	2242.53
201.31	2295.77
201.53	2248.67
201.75	2209.76
201.97	2301.92
202.19	2275.29
202.41	2297.82
202.63	2377.69
202.85	2306.01
203.07	2195.42
203.29	2138.08
203.51	2150.37
203.73	2168.80
203.95	2527.19
204.17	2211.81
204.39	2205.66
204.61	2199.52
204.83	2230.24
205.05	2244.57
205.27	2254.81
205.49	2473.95
205.71	2236.38
205.93	2050.02
206.15	2129.89
206.37	2279.39
206.59	2330.59
206.81	2138.08
207.03	2060.26
207.25	2150.37
207.47	2275.29
207.69	2183.13
207.91	2334.68
208.13	2426.84
208.34	2179.04
208.56	2150.37
208.78	2158.56
209.00	2176.99
209.22	2207.71
209.44	2166.75
209.66	2121.70
209.88	2275.29
210.10	2265.05
210.32	2187.23
210.54	2299.87
210.76	2236.38
210.98	2363.36
211.20	1994.72
211.42	2238.43
211.64	2324.44
211.86	2303.96
212.08	2162.66
212.30	2236.38
212.52	2185.18
212.74	2228.19
212.96	2195.42
213.17	2310.11
213.39	2322.40
213.61	2473.95
213.83	2201.57
214.05	2158.56
214.27	2318.30
214.49	2207.71
214.71	2146.27
214.93	2299.87
215.15	2250.72
215.37	2359.26
215.59	2084.83
215.81	2277.34
216.03	2359.26
216.24	2271.20
216.46	2148.32
216.68	2244.57
216.90	2330.59
217.12	2308.06
217.34	2142.18
217.56	2318.30
217.78	2449.37
218.00	2326.49
218.22	2260.96
218.44	2203.61
218.66	2314.20
218.87	2504.67
219.09	2236.38
219.31	2252.77
219.53	2250.72
219.75	2263.01
219.97	2197.47
220.19	2193.37
220.41	2240.48
220.63	2369.50
220.85	2252.77
221.06	2158.56
221.28	2383.84
221.50	2314.20
221.72	2179.04
221.94	2142.18
222.16	2316.25
222.38	2295.77
222.60	2209.76
222.82	2160.61
223.03	2326.49
223.25	2242.53
223.47	2195.42
223.69	2328.54
223.91	2365.40
224.13	2242.53
224.35	2152.42
224.57	2267.10
224.78	2373.60
225.00	2209.76
225.22	2187.23
225.44	2191.33
225.66	2301.92
225.88	2242.53
226.10	2252.77
226.32	2203.61
226.53	2416.60
226.75	2162.66
226.97	2170.85
227.19	2160.61
227.41	2236.38
227.63	2246.62
227.85	2043.87
228.06	2199.52
228.28	2138.08
228.50	2332.64
228.72	2090.98
228.94	2187.23
229.16	2064.35
229.37	2166.75
229.59	2152.42
229.81	2344.92
230.03	2252.77
230.25	2119.65
230.47	2099.17
230.69	2158.56
230.90	2381.79
231.12	2133.98
231.34	2181.09
231.56	2244.57
231.78	2191.33
232.00	2267.10
232.21	2168.80
232.43	2228.19
232.65	2041.82
232.87	2224.09
233.09	2121.70
233.30	2115.55
233.52	2365.40
233.74	2301.92
233.96	2187.23
234.18	2172.89
234.40	2308.06
234.61	2459.61
234.83	2113.50
235.05	2129.89
235.27	2559.96
235.49	2365.40
235.70	2095.07
235.92	2277.34
236.14	2383.84
236.36	2443.23
236.58	2072.54
236.79	2217.95
237.01	2203.61
237.23	2211.81
237.45	2336.73
237.67	2154.46
237.88	2314.20
238.10	2494.43
238.32	2007.01
238.54	2105.31
238.76	2283.49
238.97	2144.22
239.19	2172.89
239.41	2285.53
239.63	2418.65
239.85	2222.05
240.06	2209.76
240.28	2119.65
240.50	2332.64
240.72	2228.19
240.93	2176.99
241.15	2346.97
241.37	2189.28
241.59	2420.70
241.81	2213.85
242.02	2215.90
242.24	2228.19
242.46	2365.40
242.68	2117.60
242.89	2248.67
243.11	2381.79
243.33	2275.29
243.55	2195.42
243.76	2179.04
243.98	2176.99
244.20	2326.49
244.42	2193.37
244.64	2267.10
244.85	2097.12
245.07	2129.89
245.29	2211.81
245.51	2156.51
245.72	2254.81
245.94	2303.96
246.16	2172.89
246.38	2195.42
246.59	2168.80
246.81	2179.04
247.03	2170.85
247.24	2105.31
247.46	2197.47
247.68	2236.38
247.90	2138.08
248.11	2179.04
248.33	2283.49
248.55	2287.58
248.77	2152.42
248.98	2213.85
249.20	2406.36
249.42	2226.14
249.64	2179.04
249.85	2201.57
250.07	2183.13
250.29	2328.54
250.50	2191.33
250.72	2084.83
250.94	2215.90
251.16	2488.28
251.37	2258.91
251.59	2248.67
251.81	2322.40
252.02	2455.51
252.24	2123.74
252.46	2283.49
252.68	2086.88
252.89	2205.66
253.11	2080.74
253.33	2338.78
253.54	2416.60
253.76	2099.17
253.98	2207.71
254.20	2154.46
254.41	2121.70
254.63	2281.44
254.85	2033.63
255.06	2265.05
255.28	2418.65
255.50	2275.29
255.71	2138.08
255.93	2043.87
256.15	2164.70
256.36	2293.72
256.58	2119.65
256.80	2187.23
257.02	2228.19
257.23	2275.29
257.45	2189.28
257.67	2256.86
257.88	2201.57
258.10	2320.35
258.32	2154.46
258.53	2209.76
258.75	2396.12
258.97	2158.56
259.18	2176.99
259.40	2176.99
259.62	2568.15
259.83	2400.22
260.05	2226.14
260.27	2660.31
260.48	2260.96
260.70	2129.89
260.92	2080.74
261.13	2234.33
261.35	2238.43
261.57	2312.16
261.78	2039.78
262.00	2136.03
262.22	2318.30
262.43	2119.65
262.65	2187.23
262.86	2201.57
263.08	2531.29
263.30	2301.92
263.51	2074.59
263.73	2150.37
263.95	2330.59
264.16	2189.28
264.38	2127.84
264.60	2220.00
264.81	2197.47
265.03	2396.12
265.25	2310.11
265.46	2160.61
265.68	2340.83
265.89	2314.20
266.11	2107.36
266.33	2166.75
266.54	2375.64
266.76	2258.91
266.98	2242.53
267.19	2346.97
267.41	2381.79
267.62	2232.29
267.84	2035.68
268.06	2224.09
268.27	2303.96
268.49	2322.40
268.70	2220.00
268.92	2195.42
269.14	2162.66
269.35	2113.50
269.57	2217.95
269.79	2242.53
270.00	2260.96
270.22	2432.99
270.43	2088.93
270.65	2015.20
270.87	2283.49
271.08	2308.06
271.30	2244.57
271.51	2254.81
271.73	2299.87
271.95	2375.64
272.16	2170.85
272.38	2265.05
272.59	2158.56
272.81	2254.81
273.02	2187.23
273.24	2176.99
273.46	2385.88
273.67	2181.09
273.89	2121.70
274.10	2113.50
274.32	2308.06
274.54	2277.34
274.75	2248.67
274.97	2193.37
275.18	2308.06
275.40	2299.87
275.61	2179.04
275.83	2265.05
276.05	2174.94
276.26	2156.51
276.48	2205.66
276.69	2191.33
276.91	2195.42
277.12	2428.89
277.34	2318.30
277.55	2293.72
277.77	2277.34
277.99	2211.81
278.20	2220.00
278.42	2125.79
278.63	2176.99
278.85	2187.23
279.06	2174.94
279.28	2269.15
279.49	2340.83
279.71	2310.11
279.93	2244.57
280.14	2248.67
280.36	2097.12
280.57	2375.64
280.79	2328.54
281.00	2176.99
281.22	2191.33
281.43	2445.27
281.65	2031.58
281.86	2127.84
282.08	2271.20
282.29	2455.51
282.51	2119.65
282.73	2146.27
282.94	2047.97
283.16	2279.39
283.37	2400.22
283.59	2211.81
283.80	2238.43
284.02	2283.49
284.23	2234.33
284.45	2150.37
284.66	2170.85
284.88	2160.61
285.09	2240.48
285.31	2211.81
285.52	2334.68
285.74	2088.93
285.95	2342.88
286.17	2248.67
286.38	2353.12
286.60	2258.91
286.81	2121.70
287.03	2226.14
287.24	2293.72
287.46	2379.74
287.67	2179.04
287.89	2475.99
288.10	2160.61
288.32	2285.53
288.53	2387.93
288.75	2209.76
288.96	2326.49
289.18	2172.89
289.39	2176.99
289.61	2297.82
289.82	2459.61
290.04	2416.60
290.25	2131.94
290.47	2250.72
290.68	2162.66
290.90	2441.18
291.11	2133.98
291.33	2258.91
291.54	2138.08
291.76	2197.47
291.97	2332.64
292.18	2289.63
292.40	2136.03
292.61	2172.89
292.83	2357.21
293.04	2224.09
293.26	2322.40
293.47	2203.61
293.69	2174.94
293.90	2154.46
294.12	2344.92
294.33	2258.91
294.55	2164.70
294.76	2332.64
294.97	2439.13
295.19	2465.75
295.40	2203.61
295.62	2295.77
295.83	2379.74
296.05	2154.46
296.26	2351.07
296.48	2246.62
296.69	2258.91
296.90	2217.95
297.12	2273.25
297.33	2361.31
297.55	2242.53
297.76	2330.59
297.98	2342.88
298.19	2170.85
298.41	2211.81
298.62	2205.66
298.83	2400.22
299.05	2246.62
299.26	2220.00
299.48	2138.08
299.69	2314.20
299.90	2234.33
300.12	2150.37
300.33	2349.02
300.55	2191.33
300.76	2273.25
300.98	2095.07
301.19	2301.92
301.40	2172.89
301.62	2244.57
301.83	2275.29
302.05	2236.38
302.26	2176.99
302.47	2295.77
302.69	2183.13
302.90	2189.28
303.12	2066.40
303.33	2287.58
303.54	2473.95
303.76	2174.94
303.97	2258.91
304.19	2355.16
304.40	2152.42
304.61	2297.82
304.83	2392.03
305.04	2275.29
305.26	2215.90
305.47	2232.29
305.68	2220.00
305.90	2185.18
306.11	2359.26
306.33	2172.89
306.54	2074.59
306.75	2113.50
306.97	2115.55
307.18	2205.66
307.39	2166.75
307.61	2283.49
307.82	2197.47
308.04	2293.72
308.25	2201.57
308.46	2275.29
308.68	2301.92
308.89	2215.90
309.10	2244.57
309.32	2222.05
309.53	2220.00
309.74	2275.29
309.96	2176.99
310.17	2392.03
310.39	2187.23
310.60	2281.44
310.81	2267.10
311.03	2097.12
311.24	2242.53
311.45	2230.24
311.67	2357.21
311.88	2248.67
312.09	2215.90
312.31	2154.46
312.52	2250.72
312.73	2240.48
312.95	2127.84
313.16	2174.94
313.37	2375.64
313.59	2357.21
313.80	2310.11
314.01	2365.40
314.23	2256.86
314.44	2123.74
314.65	2129.89
314.87	2228.19
315.08	2146.27
315.29	2142.18
315.51	2203.61
315.72	2062.30
315.93	2371.55
316.15	2244.57
316.36	2195.42
316.57	2267.10
316.79	2324.44
317.00	2154.46
317.21	2308.06
317.43	2207.71
317.64	2275.29
317.85	2215.90
318.07	2217.95
318.28	2236.38
318.49	2406.36
318.70	2432.99
318.92	2424.80
319.13	2400.22
319.34	2473.95
319.56	2297.82
319.77	2340.83
319.98	2453.47
320.20	2326.49
320.41	2351.07
320.62	2357.21
320.83	2123.74
321.05	2447.32
321.26	2281.44
321.47	2248.67
321.69	2398.17
321.90	2070.50
322.11	2220.00
322.32	2269.15
322.54	2502.62
322.75	2166.75
322.96	2514.91
323.18	2170.85
323.39	2062.30
323.60	2191.33
323.81	2256.86
324.03	2164.70
324.24	2310.11
324.45	2267.10
324.66	2254.81
324.88	2420.70
325.09	2412.51
325.30	2240.48
325.52	2230.24
325.73	2275.29
325.94	2207.71
326.15	2047.97
326.37	2136.03
326.58	2453.47
326.79	2392.03
327.00	2176.99
327.22	2217.95
327.43	2258.91
327.64	2113.50
327.85	2293.72
328.07	2285.53
328.28	2416.60
328.49	2215.90
328.70	2232.29
328.92	2185.18
329.13	2220.00
329.34	2351.07
329.55	2469.85
329.76	2230.24
329.98	2265.05
330.19	2381.79
330.40	2295.77
330.61	2303.96
330.83	2297.82
331.04	2152.42
331.25	2232.29
331.46	2195.42
331.68	2164.70
331.89	2349.02
332.10	2260.96
332.31	2076.64
332.52	2232.29
332.74	2398.17
332.95	2113.50
333.16	2162.66
333.37	2314.20
333.58	2174.94
333.80	2213.85
334.01	2039.78
334.22	2314.20
334.43	2170.85
334.64	2207.71
334.86	2109.41
335.07	2158.56
335.28	2402.27
335.49	2047.97
335.70	2242.53
335.92	2308.06
336.13	2488.28
336.34	2332.64
336.55	2330.59
336.76	2295.77
336.98	2199.52
337.19	2179.04
337.40	2320.35
337.61	2545.63
337.82	2232.29
338.04	2330.59
338.25	2093.02
338.46	2238.43
338.67	2295.77
338.88	2168.80
339.09	2117.60
339.31	2252.77
339.52	2103.26
339.73	2146.27
339.94	2228.19
340.15	2281.44
340.36	2193.37
340.58	2260.96
340.79	2172.89
341.00	2314.20
341.21	2127.84
341.42	2363.36
341.63	2265.05
341.85	2326.49
342.06	2293.72
342.27	2136.03
342.48	2283.49
342.69	2181.09
342.90	2252.77
343.12	2306.01
343.33	2191.33
343.54	2344.92
343.75	2430.94
343.96	2256.86
344.17	2150.37
344.38	2254.81
344.60	2142.18
344.81	2146.27
345.02	2277.34
345.23	2369.50
345.44	2500.57
345.65	2308.06
345.86	2289.63
346.07	2244.57
346.29	2240.48
346.50	2271.20
346.71	2318.30
346.92	2459.61
347.13	2490.33
347.34	2289.63
347.55	2215.90
347.76	2340.83
347.98	2109.41
348.19	2330.59
348.40	2283.49
348.61	2176.99
348.82	2514.91
349.03	2301.92
349.24	2131.94
349.45	2447.32
349.66	2039.78
349.88	2205.66
350.09	2166.75
350.30	2398.17
350.51	2437.08
350.72	2226.14
350.93	2238.43
351.14	2101.22
351.35	2308.06
351.56	2193.37
351.77	2281.44
351.99	2338.78
352.20	2439.13
352.41	2285.53
352.62	2109.41
352.83	2281.44
353.04	2205.66
353.25	2185.18
353.46	2330.59
353.67	2344.92
353.88	2035.68
354.09	2250.72
354.30	2222.05
354.52	2357.21
354.73	2207.71
354.94	2127.84
355.15	2222.05
355.36	2394.08
355.57	2187.23
355.78	2187.23
355.99	2179.04
356.20	2215.90
356.41	2408.41
356.62	2299.87
356.83	2166.75
357.04	2324.44
357.25	2088.93
357.46	2285.53
357.68	2138.08
357.89	2140.13
358.10	2263.01
358.31	2228.19
358.52	2244.57
358.73	2101.22
358.94	2193.37
359.15	2232.29
359.36	2297.82
359.57	2217.95
359.78	2265.05
359.99	2330.59
360.20	2113.50
360.41	2217.95
360.62	2342.88
360.83	2260.96
361.04	2220.00
361.25	2324.44
361.46	2392.03
361.67	2314.20
361.88	2248.67
362.09	2299.87
362.30	2250.72
362.51	2136.03
362.72	2211.81
362.93	2357.21
363.14	2277.34
363.35	2224.09
363.56	2174.94
363.78	2410.46
363.99	2385.88
364.20	2154.46
364.41	2289.63
364.62	2451.42
364.83	2269.15
365.04	2154.46
365.25	2258.91
365.46	2398.17
365.67	2121.70
365.88	2148.32
366.09	2230.24
366.30	2258.91
366.51	2260.96
366.72	2203.61
366.93	2281.44
367.14	2328.54
367.35	2402.27
367.56	2248.67
367.77	2344.92
367.98	2215.90
368.18	2250.72
368.39	2217.95
368.60	2117.60
368.81	2326.49
369.02	2291.68
369.23	2211.81
369.44	2101.22
369.65	2226.14
369.86	2299.87
370.07	2199.52
370.28	2111.46
370.49	2228.19
370.70	2299.87
370.91	2195.42
371.12	2222.05
371.33	2369.50
371.54	2207.71
371.75	2342.88
371.96	2052.06
372.17	2238.43
372.38	2160.61
372.59	2310.11
372.80	2181.09
373.01	2246.62
373.22	2289.63
373.43	2187.23
373.64	2105.31
373.85	2457.56
374.06	2400.22
374.26	2326.49
374.47	2316.25
374.68	2420.70
374.89	2224.09
375.10	2179.04
375.31	2285.53
375.52	2240.48
375.73	2359.26
375.94	2148.32
376.15	2402.27
376.36	2244.57
376.57	2224.09
376.78	2174.94
376.99	2211.81
377.20	2359.26
377.40	2193.37
377.61	2330.59
377.82	2187.23
378.03	2402.27
378.24	2349.02
378.45	2215.90
378.66	2275.29
378.87	2054.11
379.08	2095.07
379.29	2187.23
379.50	2357.21
379.71	2271.20
379.91	2256.86
380.12	2187.23
380.33	2332.64
380.54	2281.44
380.75	2293.72
380.96	2236.38
381.17	2269.15
381.38	2201.57
381.59	2258.91
381.80	2224.09
382.00	2508.76
382.21	2400.22
382.42	2531.29
382.63	2412.51
382.84	2267.10
383.05	2381.79
383.26	2314.20
383.47	2324.44
383.68	2322.40
383.88	2318.30
384.09	2306.01
384.30	2359.26
384.51	2267.10
384.72	2252.77
384.93	2176.99
385.14	2277.34
385.35	2301.92
385.55	2117.60
385.76	2459.61
385.97	2193.37
386.18	2179.04
386.39	2170.85
386.60	2228.19
386.81	2207.71
387.02	2115.55
387.22	2185.18
387.43	2314.20
387.64	2295.77
387.85	2359.26
388.06	2467.80
388.27	3846.09
388.48	8044.42
388.68	11802.44
388.89	13934.38
389.10	15075.10
389.31	13807.41
389.52	11079.51
389.73	9482.10
389.93	8796.03
390.14	7896.97
390.35	7094.16
390.56	6406.05
390.77	5177.26
390.98	4075.46
391.18	3311.57
391.39	2699.22
391.60	2361.31
391.81	2400.22
392.02	2211.81
392.23	2521.05
392.43	2301.92
392.64	2369.50
392.85	2322.40
393.06	2383.84
393.27	2248.67
393.47	2220.00
393.68	2179.04
393.89	2224.09
394.10	2400.22
394.31	2187.23
394.52	2193.37
394.72	2314.20
394.93	2490.33
395.14	2105.31
395.35	2285.53
395.56	2162.66
395.76	2195.42
395.97	2244.57
396.18	2377.69
396.39	2338.78
396.60	2725.85
396.80	2525.15
397.01	2363.36
397.22	2453.47
397.43	2398.17
397.64	2211.81
397.84	2295.77
398.05	2457.56
398.26	2310.11
398.47	2328.54
398.67	2379.74
398.88	2301.92
399.09	2340.83
399.30	2152.42
399.51	2293.72
399.71	2217.95
399.92	2234.33
400.13	2277.34
400.34	2220.00
400.54	2197.47
400.75	2424.80
400.96	2326.49
401.17	2404.32
401.37	2363.36
401.58	2220.00
401.79	2258.91
402.00	2367.45
402.21	2721.75
402.41	2488.28
402.62	2605.02
402.83	2740.18
403.04	2684.89
403.24	2895.83
403.45	2406.36
403.66	2449.37
403.87	2465.75
404.07	2555.86
404.28	2531.29
404.49	2428.89
404.70	2381.79
404.90	2258.91
405.11	2285.53
405.32	2275.29
405.52	2220.00
405.73	2207.71
405.94	2170.85
406.15	2267.10
406.35	2396.12
406.56	2328.54
406.77	2357.21
406.98	2342.88
407.18	2125.79
407.39	2469.85
407.60	2263.01
407.80	2269.15
408.01	2152.42
408.22	2373.60
408.43	2170.85
408.63	2254.81
408.84	2351.07
409.05	2269.15
409.25	2121.70
409.46	2133.98
409.67	2242.53
409.88	2174.94
410.08	2301.92
410.29	2299.87
410.50	2312.16
410.70	2308.06
410.91	2156.51
411.12	2191.33
411.32	2285.53
411.53	2230.24
411.74	2392.03
411.95	2346.97
412.15	2277.34
412.36	2367.45
412.57	2308.06
412.77	2359.26
412.98	2293.72
413.19	2220.00
413.39	2285.53
413.60	2291.68
413.81	2451.42
414.01	2252.77
414.22	2252.77
414.43	2349.02
414.63	2258.91
414.84	2344.92
415.05	2185.18
415.25	2154.46
415.46	2306.01
415.67	2224.09
415.87	2289.63
416.08	2205.66
416.29	2242.53
416.49	2297.82
416.70	2199.52
416.91	2260.96
417.11	2236.38
417.32	2375.64
417.53	2351.07
417.73	2258.91
417.94	2273.25
418.15	2269.15
418.35	2254.81
418.56	2252.77
418.77	2480.09
418.97	2277.34
419.18	2285.53
419.38	2070.50
419.59	2277.34
419.80	2363.36
420.00	2205.66
420.21	2267.10
420.42	2424.80
420.62	2310.11
420.83	2201.57
421.04	2250.72
421.24	2183.13
421.45	2340.83
421.65	2316.25
421.86	2195.42
422.07	2301.92
422.27	2269.15
422.48	2236.38
422.69	2117.60
422.89	2234.33
423.10	2179.04
423.30	2176.99
423.51	2285.53
423.72	2359.26
423.92	2297.82
424.13	2105.31
424.33	2263.01
424.54	2330.59
424.75	2263.01
424.95	2326.49
425.16	2242.53
425.36	2240.48
425.57	2355.16
425.78	2230.24
425.98	2338.78
426.19	2187.23
426.39	2250.72
426.60	2234.33
426.81	2381.79
427.01	2277.34
427.22	2230.24
427.42	2066.40
427.63	2129.89
427.83	2392.03
428.04	2490.33
428.25	2299.87
428.45	2406.36
428.66	2297.82
428.86	2265.05
429.07	2156.51
429.28	2265.05
429.48	2365.40
429.69	2236.38
429.89	2338.78
430.10	2072.54
430.30	2375.64
430.51	2338.78
430.71	2226.14
430.92	2199.52
431.13	2193.37
431.33	2310.11
431.54	2263.01
431.74	2463.71
431.95	2494.43
432.15	2248.67
432.36	2273.25
432.56	2246.62
432.77	2545.63
432.98	2422.75
433.18	2314.20
433.39	2154.46
433.59	2269.15
433.80	2498.52
434.00	2424.80
434.21	2193.37
434.41	2181.09
434.62	2529.24
434.82	2224.09
435.03	2152.42
435.23	2273.25
435.44	2095.07
435.64	2220.00
435.85	2217.95
436.06	2342.88
436.26	2320.35
436.47	2127.84
436.67	2176.99
436.88	2207.71
437.08	2346.97
437.29	2457.56
437.49	2342.88
437.70	2365.40
437.90	2267.10
438.11	2504.67
438.31	2283.49
438.52	2488.28
438.72	2490.33
438.93	2521.05
439.13	2346.97
439.34	2461.66
439.54	2211.81
439.75	2463.71
439.95	2336.73
440.16	2234.33
440.36	2340.83
440.57	2269.15
440.77	2258.91
440.98	2230.24
441.18	2383.84
441.39	2220.00
441.59	2166.75
441.80	2457.56
442.00	2301.92
442.21	2367.45
442.41	2121.70
442.62	2361.31
442.82	2279.39
443.02	2203.61
443.23	2252.77
443.43	2187.23
443.64	2432.99
443.84	2179.04
444.05	2326.49
444.25	2326.49
444.46	2246.62
444.66	2228.19
444.87	2406.36
445.07	2109.41
445.28	2285.53
445.48	2441.18
445.69	2287.58
445.89	2568.15
446.09	2289.63
446.30	2549.72
446.50	2846.68
446.71	4392.89
446.91	5783.46
447.12	6391.71
447.32	6789.02
447.53	6234.02
447.73	5173.17
447.93	4624.31
448.14	4186.05
448.34	4118.47
448.55	3592.14
448.75	3518.41
448.96	3319.76
449.16	3106.77
449.36	2881.49
449.57	2562.01
449.77	2447.32
449.98	2310.11
450.18	2283.49
450.39	2332.64
450.59	2353.12
450.79	2326.49
451.00	2213.85
451.20	2336.73
451.41	2269.15
451.61	2279.39
451.81	2244.57
452.02	2176.99
452.22	2154.46
452.43	2230.24
452.63	2195.42
