SpectraSuite Data File
++++++++++++++++++++++++++++++++++++
Date: Thu May 05 13:20:35 CEST 2016
User: root
Dark Spectrum Present: No
Reference Spectrum Present: No
Number of Sampled Component Spectra: 1
Spectrometers: USB4C02835
Integration Time (usec): 100000 (USB4C02835)
Spectra Averaged: 1 (USB4C02835)
Boxcar Smoothing: 0 (USB4C02835)
Correct for Electrical Dark: No (USB4C02835)
Strobe/Lamp Enabled: No (USB4C02835)
Correct for Detector Non-linearity: No (USB4C02835)
Correct for Stray Light: No (USB4C02835)
Number of Pixels in Processed Spectrum: 3648
>>>>>Begin Processed Spectral Data<<<<<
177.47	1875.94
177.69	1875.94
177.91	1875.94
178.13	1834.98
178.36	1814.50
178.58	2142.18
178.80	2312.16
179.02	2107.36
179.24	2162.66
179.46	2101.22
179.68	2189.28
179.90	2258.91
180.13	2250.72
180.35	2121.70
180.57	2226.14
180.79	2322.40
181.01	2230.24
181.23	2271.20
181.45	2383.84
181.67	2306.01
181.90	2285.53
182.12	2242.53
182.34	2033.63
182.56	2273.25
182.78	2295.77
183.00	2199.52
183.22	2222.05
183.44	2156.51
183.66	2578.39
183.89	2283.49
184.11	2203.61
184.33	2310.11
184.55	2373.60
184.77	2166.75
184.99	2211.81
185.21	2160.61
185.43	2449.37
185.65	2181.09
185.87	2101.22
186.10	2525.15
186.32	2453.47
186.54	2293.72
186.76	2224.09
186.98	2357.21
187.20	2242.53
187.42	2138.08
187.64	2240.48
187.86	2344.92
188.08	2355.16
188.30	2179.04
188.52	2209.76
188.75	2334.68
188.97	2432.99
189.19	2224.09
189.41	2156.51
189.63	2344.92
189.85	2246.62
190.07	2062.30
190.29	2072.54
190.51	2234.33
190.73	2086.88
190.95	2279.39
191.17	2211.81
191.39	2066.40
191.61	2119.65
191.84	2199.52
192.06	2269.15
192.28	2117.60
192.50	2605.02
192.72	2267.10
192.94	2265.05
193.16	2357.21
193.38	2299.87
193.60	2086.88
193.82	2193.37
194.04	2383.84
194.26	2232.29
194.48	2166.75
194.70	2217.95
194.92	2209.76
195.14	2322.40
195.36	2088.93
195.58	2191.33
195.80	2250.72
196.02	2170.85
196.24	2150.37
196.46	2303.96
196.69	2209.76
196.91	2594.78
197.13	2203.61
197.35	2146.27
197.57	2351.07
197.79	2328.54
198.01	2273.25
198.23	2189.28
198.45	2260.96
198.67	2093.02
198.89	2154.46
199.11	2191.33
199.33	2199.52
199.55	2002.91
199.77	2195.42
199.99	2310.11
200.21	2226.14
200.43	2269.15
200.65	2113.50
200.87	2013.15
201.09	2258.91
201.31	2176.99
201.53	2244.57
201.75	2203.61
201.97	2322.40
202.19	2273.25
202.41	2240.48
202.63	2357.21
202.85	2346.97
203.07	2293.72
203.29	2125.79
203.51	2097.12
203.73	2236.38
203.95	2504.67
204.17	2201.57
204.39	2283.49
204.61	2258.91
204.83	2183.13
205.05	2244.57
205.27	2162.66
205.49	2392.03
205.71	2215.90
205.93	2078.69
206.15	2123.74
206.37	2234.33
206.59	2248.67
206.81	2105.31
207.03	2078.69
207.25	2129.89
207.47	2295.77
207.69	2133.98
207.91	2260.96
208.13	2363.36
208.34	2209.76
208.56	2088.93
208.78	2215.90
209.00	2226.14
209.22	2256.86
209.44	2256.86
209.66	2174.94
209.88	2230.24
210.10	2232.29
210.32	2187.23
210.54	2283.49
210.76	2201.57
210.98	2332.64
211.20	2035.68
211.42	2240.48
211.64	2398.17
211.86	2230.24
212.08	2226.14
212.30	2236.38
212.52	2144.22
212.74	2246.62
212.96	2265.05
213.17	2246.62
213.39	2404.32
213.61	2467.80
213.83	2119.65
214.05	2230.24
214.27	2357.21
214.49	2193.37
214.71	2150.37
214.93	2330.59
215.15	2308.06
215.37	2349.02
215.59	2131.94
215.81	2324.44
216.03	2344.92
216.24	2328.54
216.46	2195.42
216.68	2193.37
216.90	2340.83
217.12	2371.55
217.34	2162.66
217.56	2236.38
217.78	2406.36
218.00	2273.25
218.22	2203.61
218.44	2242.53
218.66	2314.20
218.87	2408.41
219.09	2119.65
219.31	2273.25
219.53	2254.81
219.75	2228.19
219.97	2174.94
220.19	2162.66
220.41	2308.06
220.63	2519.00
220.85	2258.91
221.06	2082.78
221.28	2375.64
221.50	2277.34
221.72	2179.04
221.94	2189.28
222.16	2242.53
222.38	2318.30
222.60	2283.49
222.82	2160.61
223.03	2334.68
223.25	2090.98
223.47	2185.18
223.69	2301.92
223.91	2256.86
224.13	2281.44
224.35	2181.09
224.57	2299.87
224.78	2260.96
225.00	2211.81
225.22	2127.84
225.44	2129.89
225.66	2318.30
225.88	2242.53
226.10	2289.63
226.32	2172.89
226.53	2334.68
226.75	2150.37
226.97	2162.66
227.19	2211.81
227.41	2193.37
227.63	2133.98
227.85	2060.26
228.06	2193.37
228.28	2256.86
228.50	2402.27
228.72	2072.54
228.94	2187.23
229.16	2113.50
229.37	2205.66
229.59	2191.33
229.81	2267.10
230.03	2174.94
230.25	2090.98
230.47	2105.31
230.69	2121.70
230.90	2353.12
231.12	2045.92
231.34	2162.66
231.56	2238.43
231.78	2088.93
232.00	2222.05
232.21	2217.95
232.43	2133.98
232.65	2023.39
232.87	2263.01
233.09	2082.78
233.30	2111.46
233.52	2291.68
233.74	2217.95
233.96	2125.79
234.18	2240.48
234.40	2181.09
234.61	2506.71
234.83	2111.46
235.05	2078.69
235.27	2455.51
235.49	2414.56
235.70	2144.22
235.92	2195.42
236.14	2289.63
236.36	2564.06
236.58	2095.07
236.79	2211.81
237.01	2287.58
237.23	2209.76
237.45	2258.91
237.67	2088.93
237.88	2342.88
238.10	2422.75
238.32	2148.32
238.54	2172.89
238.76	2220.00
238.97	2125.79
239.19	2113.50
239.41	2271.20
239.63	2334.68
239.85	2203.61
240.06	2187.23
240.28	2170.85
240.50	2400.22
240.72	2260.96
240.93	2129.89
241.15	2297.82
241.37	2324.44
241.59	2443.23
241.81	2162.66
242.02	2162.66
242.24	2291.68
242.46	2281.44
242.68	2160.61
242.89	2129.89
243.11	2322.40
243.33	2207.71
243.55	2199.52
243.76	2220.00
243.98	2131.94
244.20	2279.39
244.42	2267.10
244.64	2232.29
244.85	2082.78
245.07	2166.75
245.29	2187.23
245.51	2222.05
245.72	2324.44
245.94	2349.02
246.16	2176.99
246.38	2222.05
246.59	2172.89
246.81	2158.56
247.03	2129.89
247.24	2015.20
247.46	2179.04
247.68	2195.42
247.90	2123.74
248.11	2191.33
248.33	2324.44
248.55	2230.24
248.77	2267.10
248.98	2318.30
249.20	2379.74
249.42	2213.85
249.64	2176.99
249.85	2199.52
250.07	2187.23
250.29	2361.31
250.50	2316.25
250.72	2052.06
250.94	2271.20
251.16	2461.66
251.37	2176.99
251.59	2314.20
251.81	2269.15
252.02	2322.40
252.24	2140.13
252.46	2344.92
252.68	2209.76
252.89	2162.66
253.11	2064.35
253.33	2324.44
253.54	2297.82
253.76	2082.78
253.98	2127.84
254.20	2152.42
254.41	2101.22
254.63	2211.81
254.85	2103.26
255.06	2250.72
255.28	2236.38
255.50	2224.09
255.71	2138.08
255.93	2113.50
256.15	2201.57
256.36	2322.40
256.58	2062.30
256.80	2265.05
257.02	2287.58
257.23	2185.18
257.45	2183.13
257.67	2260.96
257.88	2179.04
258.10	2301.92
258.32	2191.33
258.53	2232.29
258.75	2367.45
258.97	2158.56
259.18	2129.89
259.40	2154.46
259.62	2396.12
259.83	2318.30
260.05	2285.53
260.27	2547.67
260.48	2416.60
260.70	2125.79
260.92	2144.22
261.13	2222.05
261.35	2291.68
261.57	2310.11
261.78	2191.33
262.00	2168.80
262.22	2283.49
262.43	2125.79
262.65	2176.99
262.86	2232.29
263.08	2471.90
263.30	2283.49
263.51	2066.40
263.73	2187.23
263.95	2316.25
264.16	2117.60
264.38	2174.94
264.60	2156.51
264.81	2312.16
265.03	2314.20
265.25	2301.92
265.46	2220.00
265.68	2308.06
265.89	2320.35
266.11	2060.26
266.33	2166.75
266.54	2387.93
266.76	2389.98
266.98	2207.71
267.19	2263.01
267.41	2422.75
267.62	2242.53
267.84	2031.58
268.06	2244.57
268.27	2289.63
268.49	2346.97
268.70	2316.25
268.92	2209.76
269.14	2207.71
269.35	2138.08
269.57	2211.81
269.79	2226.14
270.00	2197.47
270.22	2422.75
270.43	2103.26
270.65	2031.58
270.87	2238.43
271.08	2363.36
271.30	2273.25
271.51	2222.05
271.73	2285.53
271.95	2310.11
272.16	2183.13
272.38	2250.72
272.59	2197.47
272.81	2308.06
273.02	2136.03
273.24	2230.24
273.46	2326.49
273.67	2142.18
273.89	2119.65
274.10	2140.13
274.32	2340.83
274.54	2267.10
274.75	2238.43
274.97	2197.47
275.18	2336.73
275.40	2283.49
275.61	2297.82
275.83	2230.24
276.05	2211.81
276.26	2289.63
276.48	2250.72
276.69	2127.84
276.91	2258.91
277.12	2385.88
277.34	2361.31
277.55	2324.44
277.77	2297.82
277.99	2240.48
278.20	2160.61
278.42	2068.45
278.63	2105.31
278.85	2125.79
279.06	2095.07
279.28	2314.20
279.49	2359.26
279.71	2297.82
279.93	2238.43
280.14	2285.53
280.36	2207.71
280.57	2353.12
280.79	2260.96
281.00	2162.66
281.22	2193.37
281.43	2428.89
281.65	2054.11
281.86	2043.87
282.08	2381.79
282.29	2449.37
282.51	2113.50
282.73	2146.27
282.94	2162.66
283.16	2310.11
283.37	2414.56
283.59	2191.33
283.80	2299.87
284.02	2193.37
284.23	2217.95
284.45	2203.61
284.66	2220.00
284.88	2193.37
285.09	2236.38
285.31	2369.50
285.52	2293.72
285.74	2082.78
285.95	2281.44
286.17	2232.29
286.38	2265.05
286.60	2269.15
286.81	2142.18
287.03	2277.34
287.24	2248.67
287.46	2293.72
287.67	2267.10
287.89	2412.51
288.10	2193.37
288.32	2265.05
288.53	2346.97
288.75	2310.11
288.96	2346.97
289.18	2129.89
289.39	2195.42
289.61	2279.39
289.82	2494.43
290.04	2459.61
290.25	2129.89
290.47	2246.62
290.68	2193.37
290.90	2340.83
291.11	2097.12
291.33	2277.34
291.54	2140.13
291.76	2183.13
291.97	2275.29
292.18	2209.76
292.40	2244.57
292.61	2209.76
292.83	2430.94
293.04	2236.38
293.26	2228.19
293.47	2195.42
293.69	2168.80
293.90	2228.19
294.12	2398.17
294.33	2273.25
294.55	2193.37
294.76	2342.88
294.97	2416.60
295.19	2457.56
295.40	2316.25
295.62	2273.25
295.83	2306.01
296.05	2269.15
296.26	2426.84
296.48	2150.37
296.69	2285.53
296.90	2271.20
297.12	2277.34
297.33	2361.31
297.55	2306.01
297.76	2285.53
297.98	2308.06
298.19	2297.82
298.41	2252.77
298.62	2199.52
298.83	2383.84
299.05	2293.72
299.26	2166.75
299.48	2144.22
299.69	2326.49
299.90	2203.61
300.12	2142.18
300.33	2299.87
300.55	2207.71
300.76	2260.96
300.98	2185.18
301.19	2357.21
301.40	2183.13
301.62	2211.81
301.83	2293.72
302.05	2217.95
302.26	2260.96
302.47	2154.46
302.69	2170.85
302.90	2267.10
303.12	1998.82
303.33	2322.40
303.54	2547.67
303.76	2095.07
303.97	2203.61
304.19	2355.16
304.40	2097.12
304.61	2289.63
304.83	2332.64
305.04	2387.93
305.26	2277.34
305.47	2203.61
305.68	2301.92
305.90	2076.64
306.11	2355.16
306.33	2220.00
306.54	2164.70
306.75	2174.94
306.97	2105.31
307.18	2209.76
307.39	2185.18
307.61	2320.35
307.82	2187.23
308.04	2301.92
308.25	2148.32
308.46	2179.04
308.68	2281.44
308.89	2246.62
309.10	2402.27
309.32	2256.86
309.53	2228.19
309.74	2316.25
309.96	2263.01
310.17	2299.87
310.39	2176.99
310.60	2346.97
310.81	2197.47
311.03	2179.04
311.24	2289.63
311.45	2217.95
311.67	2404.32
311.88	2269.15
312.09	2242.53
312.31	2205.66
312.52	2207.71
312.73	2150.37
312.95	2133.98
313.16	2168.80
313.37	2322.40
313.59	2258.91
313.80	2334.68
314.01	2480.09
314.23	2232.29
314.44	2115.55
314.65	2142.18
314.87	2201.57
315.08	2119.65
315.29	2228.19
315.51	2162.66
315.72	2070.50
315.93	2400.22
316.15	2310.11
316.36	2185.18
316.57	2269.15
316.79	2252.77
317.00	2183.13
317.21	2232.29
317.43	2172.89
317.64	2195.42
317.85	2172.89
318.07	2187.23
318.28	2287.58
318.49	2398.17
318.70	2494.43
318.92	2396.12
319.13	2353.12
319.34	2432.99
319.56	2314.20
319.77	2363.36
319.98	2367.45
320.20	2418.65
320.41	2322.40
320.62	2334.68
320.83	2189.28
321.05	2478.04
321.26	2299.87
321.47	2250.72
321.69	2453.47
321.90	2136.03
322.11	2193.37
322.32	2314.20
322.54	2451.42
322.75	2199.52
322.96	2543.58
323.18	2146.27
323.39	2062.30
323.60	2127.84
323.81	2377.69
324.03	2146.27
324.24	2287.58
324.45	2209.76
324.66	2166.75
324.88	2381.79
325.09	2355.16
325.30	2224.09
325.52	2142.18
325.73	2293.72
325.94	2086.88
326.15	2078.69
326.37	2148.32
326.58	2306.01
326.79	2342.88
327.00	2148.32
327.22	2203.61
327.43	2203.61
327.64	2119.65
327.85	2334.68
328.07	2303.96
328.28	2449.37
328.49	2158.56
328.70	2199.52
328.92	2205.66
329.13	2226.14
329.34	2277.34
329.55	2414.56
329.76	2369.50
329.98	2199.52
330.19	2377.69
330.40	2222.05
330.61	2299.87
330.83	2363.36
331.04	2215.90
331.25	2267.10
331.46	2258.91
331.68	2095.07
331.89	2359.26
332.10	2275.29
332.31	2090.98
332.52	2291.68
332.74	2398.17
332.95	2062.30
333.16	2164.70
333.37	2254.81
333.58	2263.01
333.80	2281.44
334.01	2093.02
334.22	2211.81
334.43	2293.72
334.64	2179.04
334.86	2054.11
335.07	2160.61
335.28	2414.56
335.49	2176.99
335.70	2236.38
335.92	2359.26
336.13	2480.09
336.34	2256.86
336.55	2265.05
336.76	2269.15
336.98	2121.70
337.19	2228.19
337.40	2371.55
337.61	2506.71
337.82	2133.98
338.04	2295.77
338.25	2099.17
338.46	2199.52
338.67	2209.76
338.88	2170.85
339.09	2138.08
339.31	2172.89
339.52	2148.32
339.73	2185.18
339.94	2291.68
340.15	2293.72
340.36	2187.23
340.58	2228.19
340.79	2170.85
341.00	2281.44
341.21	2160.61
341.42	2346.97
341.63	2250.72
341.85	2297.82
342.06	2187.23
342.27	2185.18
342.48	2273.25
342.69	2086.88
342.90	2285.53
343.12	2349.02
343.33	2146.27
343.54	2408.41
343.75	2363.36
343.96	2211.81
344.17	2154.46
344.38	2246.62
344.60	2205.66
344.81	2133.98
345.02	2263.01
345.23	2316.25
345.44	2447.32
345.65	2308.06
345.86	2250.72
346.07	2236.38
346.29	2203.61
346.50	2297.82
346.71	2318.30
346.92	2367.45
347.13	2500.57
347.34	2236.38
347.55	2131.94
347.76	2252.77
347.98	2117.60
348.19	2215.90
348.40	2312.16
348.61	2193.37
348.82	2422.75
349.03	2316.25
349.24	2228.19
349.45	2494.43
349.66	2088.93
349.88	2174.94
350.09	2185.18
350.30	2332.64
350.51	2363.36
350.72	2275.29
350.93	2334.68
351.14	2228.19
351.35	2285.53
351.56	2170.85
351.77	2236.38
351.99	2254.81
352.20	2471.90
352.41	2367.45
352.62	2045.92
352.83	2207.71
353.04	2187.23
353.25	2207.71
353.46	2318.30
353.67	2387.93
353.88	2060.26
354.09	2258.91
354.30	2297.82
354.52	2353.12
354.73	2232.29
354.94	2185.18
355.15	2252.77
355.36	2457.56
355.57	2148.32
355.78	2271.20
355.99	2166.75
356.20	2187.23
356.41	2392.03
356.62	2283.49
356.83	2234.33
357.04	2428.89
357.25	2095.07
357.46	2156.51
357.68	2050.02
357.89	2123.74
358.10	2283.49
358.31	2121.70
358.52	2222.05
358.73	2142.18
358.94	2152.42
359.15	2191.33
359.36	2265.05
359.57	2310.11
359.78	2195.42
359.99	2265.05
360.20	2113.50
360.41	2240.48
360.62	2346.97
360.83	2260.96
361.04	2297.82
361.25	2238.43
361.46	2330.59
361.67	2365.40
361.88	2342.88
362.09	2291.68
362.30	2383.84
362.51	2170.85
362.72	2228.19
362.93	2338.78
363.14	2322.40
363.35	2263.01
363.56	2209.76
363.78	2416.60
363.99	2351.07
364.20	2201.57
364.41	2197.47
364.62	2400.22
364.83	2246.62
365.04	2201.57
365.25	2226.14
365.46	2392.03
365.67	2164.70
365.88	2269.15
366.09	2263.01
366.30	2129.89
366.51	2281.44
366.72	2109.41
366.93	2170.85
367.14	2291.68
367.35	2377.69
367.56	2250.72
367.77	2363.36
367.98	2248.67
368.18	2357.21
368.39	2336.73
368.60	2158.56
368.81	2357.21
369.02	2248.67
369.23	2213.85
369.44	2062.30
369.65	2248.67
369.86	2220.00
370.07	2269.15
370.28	2191.33
370.49	2342.88
370.70	2228.19
370.91	2070.50
371.12	2066.40
371.33	2301.92
371.54	2154.46
371.75	2324.44
371.96	2021.35
372.17	2318.30
372.38	2209.76
372.59	2234.33
372.80	2195.42
373.01	2281.44
373.22	2254.81
373.43	2203.61
373.64	2121.70
373.85	2437.08
374.06	2383.84
374.26	2234.33
374.47	2254.81
374.68	2367.45
374.89	2179.04
375.10	2138.08
375.31	2344.92
375.52	2228.19
375.73	2312.16
375.94	2113.50
376.15	2334.68
376.36	2215.90
376.57	2201.57
376.78	2162.66
376.99	2248.67
377.20	2359.26
377.40	2256.86
377.61	2375.64
377.82	2088.93
378.03	2359.26
378.24	2338.78
378.45	2209.76
378.66	2271.20
378.87	2027.49
379.08	2172.89
379.29	2170.85
379.50	2400.22
379.71	2263.01
379.91	2285.53
380.12	2207.71
380.33	2168.80
380.54	2226.14
380.75	2203.61
380.96	2297.82
381.17	2316.25
381.38	2367.45
381.59	2193.37
381.80	2252.77
382.00	2441.18
382.21	2295.77
382.42	2461.66
382.63	2543.58
382.84	2383.84
383.05	2285.53
383.26	2461.66
383.47	2271.20
383.68	2273.25
383.88	2375.64
384.09	2365.40
384.30	2365.40
384.51	2295.77
384.72	2131.94
384.93	2146.27
385.14	2220.00
385.35	2326.49
385.55	2109.41
385.76	2344.92
385.97	2260.96
386.18	2121.70
386.39	2191.33
386.60	2250.72
386.81	2248.67
387.02	2101.22
387.22	2244.57
387.43	2375.64
387.64	2258.91
387.85	2463.71
388.06	2523.10
388.27	4003.78
388.48	8308.61
388.68	11917.13
388.89	14169.90
389.10	15062.81
389.31	14061.35
389.52	11059.03
389.73	9502.58
389.93	8775.55
390.14	7968.65
390.35	7286.67
390.56	6371.23
390.77	5134.26
390.98	4091.84
391.18	3260.37
391.39	2719.70
391.60	2381.79
391.81	2424.80
392.02	2183.13
392.23	2529.24
392.43	2277.34
392.64	2398.17
392.85	2164.70
393.06	2291.68
393.27	2310.11
393.47	2236.38
393.68	2287.58
393.89	2295.77
394.10	2394.08
394.31	2117.60
394.52	2160.61
394.72	2162.66
394.93	2342.88
395.14	2133.98
395.35	2289.63
395.56	2179.04
395.76	2197.47
395.97	2310.11
396.18	2402.27
396.39	2371.55
396.60	2736.09
396.80	2426.84
397.01	2519.00
397.22	2351.07
397.43	2414.56
397.64	2179.04
397.84	2353.12
398.05	2482.14
398.26	2303.96
398.47	2349.02
398.67	2369.50
398.88	2226.14
399.09	2332.64
399.30	2183.13
399.51	2363.36
399.71	2088.93
399.92	2246.62
400.13	2275.29
400.34	2236.38
400.54	2269.15
400.75	2387.93
400.96	2318.30
401.17	2426.84
401.37	2320.35
401.58	2260.96
401.79	2224.09
402.00	2445.27
402.21	2641.88
402.41	2564.06
402.62	2547.67
402.83	2697.17
403.04	2686.94
403.24	2873.30
403.45	2361.31
403.66	2473.95
403.87	2541.53
404.07	2484.19
404.28	2496.47
404.49	2519.00
404.70	2326.49
404.90	2367.45
405.11	2226.14
405.32	2375.64
405.52	2136.03
405.73	2183.13
405.94	2211.81
406.15	2281.44
406.35	2281.44
406.56	2334.68
406.77	2205.66
406.98	2373.60
407.18	2220.00
407.39	2349.02
407.60	2252.77
407.80	2330.59
408.01	2205.66
408.22	2240.48
408.43	2187.23
408.63	2269.15
408.84	2346.97
409.05	2291.68
409.25	2203.61
409.46	2170.85
409.67	2271.20
409.88	2224.09
410.08	2269.15
410.29	2129.89
410.50	2283.49
410.70	2258.91
410.91	2168.80
411.12	2260.96
411.32	2230.24
411.53	2236.38
411.74	2371.55
411.95	2299.87
412.15	2306.01
412.36	2394.08
412.57	2320.35
412.77	2428.89
412.98	2287.58
413.19	2316.25
413.39	2271.20
413.60	2242.53
413.81	2398.17
414.01	2172.89
414.22	2322.40
414.43	2301.92
414.63	2222.05
414.84	2332.64
415.05	2142.18
415.25	2179.04
415.46	2379.74
415.67	2228.19
415.87	2318.30
416.08	2260.96
416.29	2238.43
416.49	2308.06
416.70	2258.91
416.91	2183.13
417.11	2248.67
417.32	2338.78
417.53	2301.92
417.73	2203.61
417.94	2224.09
418.15	2265.05
418.35	2236.38
418.56	2224.09
418.77	2547.67
418.97	2197.47
419.18	2228.19
419.38	2052.06
419.59	2285.53
419.80	2404.32
420.00	2248.67
420.21	2256.86
420.42	2383.84
420.62	2301.92
420.83	2189.28
421.04	2234.33
421.24	2148.32
421.45	2287.58
421.65	2365.40
421.86	2254.81
422.07	2254.81
422.27	2392.03
422.48	2230.24
422.69	2047.97
422.89	2228.19
423.10	2263.01
423.30	2058.21
423.51	2320.35
423.72	2367.45
423.92	2379.74
424.13	2158.56
424.33	2209.76
424.54	2373.60
424.75	2265.05
424.95	2473.95
425.16	2248.67
425.36	2236.38
425.57	2314.20
425.78	2338.78
425.98	2314.20
426.19	2279.39
426.39	2222.05
426.60	2220.00
426.81	2428.89
427.01	2256.86
427.22	2172.89
427.42	2107.36
427.63	2176.99
427.83	2265.05
428.04	2439.13
428.25	2396.12
428.45	2379.74
428.66	2332.64
428.86	2334.68
429.07	2195.42
429.28	2273.25
429.48	2209.76
429.69	2211.81
429.89	2312.16
430.10	2060.26
430.30	2371.55
430.51	2406.36
430.71	2183.13
430.92	2207.71
431.13	2131.94
431.33	2310.11
431.54	2324.44
431.74	2410.46
431.95	2420.70
432.15	2105.31
432.36	2207.71
432.56	2297.82
432.77	2424.80
432.98	2465.75
433.18	2242.53
433.39	2258.91
433.59	2236.38
433.80	2389.98
434.00	2457.56
434.21	2230.24
434.41	2224.09
434.62	2457.56
434.82	2138.08
435.03	2174.94
435.23	2250.72
435.44	2062.30
435.64	2260.96
435.85	2281.44
436.06	2283.49
436.26	2334.68
436.47	2179.04
436.67	2217.95
436.88	2246.62
437.08	2359.26
437.29	2406.36
437.49	2334.68
437.70	2346.97
437.90	2254.81
438.11	2420.70
438.31	2310.11
438.52	2445.27
438.72	2449.37
438.93	2613.21
439.13	2277.34
439.34	2408.41
439.54	2242.53
439.75	2306.01
439.95	2383.84
440.16	2150.37
440.36	2252.77
440.57	2303.96
440.77	2254.81
440.98	2269.15
441.18	2224.09
441.39	2230.24
441.59	2109.41
441.80	2494.43
442.00	2201.57
442.21	2367.45
442.41	2088.93
442.62	2351.07
442.82	2191.33
443.02	2248.67
443.23	2252.77
443.43	2267.10
443.64	2412.51
443.84	2209.76
444.05	2404.32
444.25	2297.82
444.46	2244.57
444.66	2326.49
444.87	2363.36
445.07	2156.51
445.28	2310.11
445.48	2400.22
445.69	2301.92
445.89	2566.10
446.09	2265.05
446.30	2562.01
446.50	2760.66
446.71	4306.88
446.91	5599.15
447.12	6410.14
447.32	6705.05
447.53	6332.32
447.73	5064.63
447.93	4702.14
448.14	4296.64
448.34	4038.59
448.55	3612.62
448.75	3635.14
448.96	3416.01
449.16	3004.37
449.36	2932.69
449.57	2549.72
449.77	2367.45
449.98	2242.53
450.18	2336.73
450.39	2359.26
450.59	2326.49
450.79	2226.14
451.00	2209.76
451.20	2326.49
451.41	2166.75
451.61	2353.12
451.81	2322.40
452.02	2234.33
452.22	2236.38
452.43	2193.37
452.63	2201.57
