SpectraSuite Data File
++++++++++++++++++++++++++++++++++++
Date: Thu May 05 13:21:31 CEST 2016
User: root
Dark Spectrum Present: No
Reference Spectrum Present: No
Number of Sampled Component Spectra: 1
Spectrometers: USB4C02835
Integration Time (usec): 100000 (USB4C02835)
Spectra Averaged: 1 (USB4C02835)
Boxcar Smoothing: 0 (USB4C02835)
Correct for Electrical Dark: No (USB4C02835)
Strobe/Lamp Enabled: No (USB4C02835)
Correct for Detector Non-linearity: No (USB4C02835)
Correct for Stray Light: No (USB4C02835)
Number of Pixels in Processed Spectrum: 3648
>>>>>Begin Processed Spectral Data<<<<<
177.47	1810.40
177.69	1810.40
177.91	1810.40
178.13	1906.66
178.36	1814.50
178.58	2220.00
178.80	2308.06
179.02	2064.35
179.24	2142.18
179.46	2136.03
179.68	2176.99
179.90	2344.92
180.13	2224.09
180.35	2058.21
180.57	2187.23
180.79	2385.88
181.01	2256.86
181.23	2211.81
181.45	2328.54
181.67	2351.07
181.90	2406.36
182.12	2240.48
182.34	2097.12
182.56	2267.10
182.78	2349.02
183.00	2185.18
183.22	2258.91
183.44	2099.17
183.66	2572.25
183.89	2236.38
184.11	2187.23
184.33	2326.49
184.55	2351.07
184.77	2199.52
184.99	2179.04
185.21	2207.71
185.43	2455.51
185.65	2133.98
185.87	2179.04
186.10	2414.56
186.32	2570.20
186.54	2230.24
186.76	2252.77
186.98	2385.88
187.20	2220.00
187.42	2121.70
187.64	2195.42
187.86	2234.33
188.08	2285.53
188.30	2150.37
188.52	2140.13
188.75	2392.03
188.97	2424.80
189.19	2203.61
189.41	2211.81
189.63	2308.06
189.85	2203.61
190.07	1984.48
190.29	2115.55
190.51	2316.25
190.73	2174.94
190.95	2326.49
191.17	2133.98
191.39	2170.85
191.61	2297.82
191.84	2152.42
192.06	2281.44
192.28	2107.36
192.50	2643.93
192.72	2207.71
192.94	2248.67
193.16	2344.92
193.38	2285.53
193.60	2095.07
193.82	2230.24
194.04	2392.03
194.26	2277.34
194.48	2187.23
194.70	2179.04
194.92	2211.81
195.14	2256.86
195.36	2121.70
195.58	2146.27
195.80	2228.19
196.02	2181.09
196.24	2166.75
196.46	2263.01
196.69	2228.19
196.91	2449.37
197.13	2244.57
197.35	2215.90
197.57	2353.12
197.79	2312.16
198.01	2170.85
198.23	2201.57
198.45	2271.20
198.67	2113.50
198.89	2148.32
199.11	2203.61
199.33	2162.66
199.55	2029.54
199.77	2209.76
199.99	2295.77
200.21	2224.09
200.43	2318.30
200.65	2113.50
200.87	2027.49
201.09	2301.92
201.31	2238.43
201.53	2234.33
201.75	2256.86
201.97	2314.20
202.19	2209.76
202.41	2193.37
202.63	2379.74
202.85	2215.90
203.07	2258.91
203.29	2181.09
203.51	2125.79
203.73	2152.42
203.95	2521.05
204.17	2209.76
204.39	2166.75
204.61	2230.24
204.83	2199.52
205.05	2287.58
205.27	2195.42
205.49	2510.81
205.71	2166.75
205.93	2056.16
206.15	2160.61
206.37	2226.14
206.59	2355.16
206.81	2074.59
207.03	2131.94
207.25	2107.36
207.47	2318.30
207.69	2179.04
207.91	2314.20
208.13	2369.50
208.34	2191.33
208.56	2138.08
208.78	2209.76
209.00	2232.29
209.22	2209.76
209.44	2236.38
209.66	2080.74
209.88	2240.48
210.10	2187.23
210.32	2187.23
210.54	2256.86
210.76	2269.15
210.98	2316.25
211.20	2078.69
211.42	2197.47
211.64	2392.03
211.86	2201.57
212.08	2203.61
212.30	2252.77
212.52	2199.52
212.74	2314.20
212.96	2193.37
213.17	2234.33
213.39	2412.51
213.61	2469.85
213.83	2228.19
214.05	2220.00
214.27	2318.30
214.49	2146.27
214.71	2113.50
214.93	2342.88
215.15	2277.34
215.37	2279.39
215.59	2062.30
215.81	2207.71
216.03	2373.60
216.24	2240.48
216.46	2199.52
216.68	2156.51
216.90	2297.82
217.12	2334.68
217.34	2183.13
217.56	2316.25
217.78	2346.97
218.00	2320.35
218.22	2207.71
218.44	2299.87
218.66	2342.88
218.87	2498.52
219.09	2150.37
219.31	2215.90
219.53	2277.34
219.75	2308.06
219.97	2179.04
220.19	2242.53
220.41	2236.38
220.63	2420.70
220.85	2203.61
221.06	2133.98
221.28	2414.56
221.50	2301.92
221.72	2220.00
221.94	2105.31
222.16	2211.81
222.38	2371.55
222.60	2162.66
222.82	2209.76
223.03	2377.69
223.25	2179.04
223.47	2199.52
223.69	2306.01
223.91	2394.08
224.13	2320.35
224.35	2142.18
224.57	2353.12
224.78	2232.29
225.00	2154.46
225.22	2138.08
225.44	2121.70
225.66	2353.12
225.88	2279.39
226.10	2246.62
226.32	2172.89
226.53	2441.18
226.75	2140.13
226.97	2240.48
227.19	2152.42
227.41	2123.74
227.63	2211.81
227.85	2113.50
228.06	2226.14
228.28	2246.62
228.50	2301.92
228.72	2103.26
228.94	2105.31
229.16	2088.93
229.37	2236.38
229.59	2158.56
229.81	2334.68
230.03	2195.42
230.25	2158.56
230.47	2129.89
230.69	2185.18
230.90	2283.49
231.12	2211.81
231.34	2201.57
231.56	2263.01
231.78	2105.31
232.00	2256.86
232.21	2168.80
232.43	2158.56
232.65	2037.73
232.87	2252.77
233.09	2052.06
233.30	2076.64
233.52	2349.02
233.74	2299.87
233.96	2193.37
234.18	2263.01
234.40	2207.71
234.61	2465.75
234.83	2054.11
235.05	2119.65
235.27	2521.05
235.49	2392.03
235.70	2103.26
235.92	2316.25
236.14	2328.54
236.36	2539.48
236.58	2029.54
236.79	2252.77
237.01	2226.14
237.23	2287.58
237.45	2318.30
237.67	2203.61
237.88	2211.81
238.10	2432.99
238.32	2068.45
238.54	2256.86
238.76	2195.42
238.97	2103.26
239.19	2113.50
239.41	2236.38
239.63	2379.74
239.85	2152.42
240.06	2146.27
240.28	2254.81
240.50	2318.30
240.72	2281.44
240.93	2179.04
241.15	2297.82
241.37	2246.62
241.59	2381.79
241.81	2138.08
242.02	2252.77
242.24	2320.35
242.46	2279.39
242.68	2052.06
242.89	2168.80
243.11	2293.72
243.33	2258.91
243.55	2236.38
243.76	2203.61
243.98	2220.00
244.20	2254.81
244.42	2195.42
244.64	2189.28
244.85	2150.37
245.07	2146.27
245.29	2170.85
245.51	2179.04
245.72	2170.85
245.94	2332.64
246.16	2211.81
246.38	2267.10
246.59	2238.43
246.81	2179.04
247.03	2164.70
247.24	2109.41
247.46	2201.57
247.68	2297.82
247.90	2158.56
248.11	2066.40
248.33	2293.72
248.55	2209.76
248.77	2242.53
248.98	2322.40
249.20	2506.71
249.42	2267.10
249.64	2138.08
249.85	2162.66
250.07	2119.65
250.29	2412.51
250.50	2213.85
250.72	2125.79
250.94	2324.44
251.16	2490.33
251.37	2248.67
251.59	2252.77
251.81	2342.88
252.02	2441.18
252.24	2150.37
252.46	2322.40
252.68	2269.15
252.89	2115.55
253.11	2099.17
253.33	2306.01
253.54	2338.78
253.76	2138.08
253.98	2224.09
254.20	2228.19
254.41	2138.08
254.63	2228.19
254.85	2076.64
255.06	2297.82
255.28	2322.40
255.50	2183.13
255.71	2236.38
255.93	2068.45
256.15	2236.38
256.36	2349.02
256.58	2103.26
256.80	2179.04
257.02	2154.46
257.23	2170.85
257.45	2263.01
257.67	2324.44
257.88	2197.47
258.10	2269.15
258.32	2162.66
258.53	2267.10
258.75	2353.12
258.97	2205.66
259.18	2213.85
259.40	2226.14
259.62	2441.18
259.83	2359.26
260.05	2242.53
260.27	2699.22
260.48	2293.72
260.70	2240.48
260.92	2146.27
261.13	2232.29
261.35	2308.06
261.57	2256.86
261.78	2088.93
262.00	2183.13
262.22	2312.16
262.43	2179.04
262.65	2236.38
262.86	2191.33
263.08	2535.39
263.30	2279.39
263.51	2037.73
263.73	2183.13
263.95	2349.02
264.16	2260.96
264.38	2088.93
264.60	2154.46
264.81	2283.49
265.03	2371.55
265.25	2314.20
265.46	2185.18
265.68	2346.97
265.89	2310.11
266.11	2015.20
266.33	2205.66
266.54	2396.12
266.76	2308.06
266.98	2263.01
267.19	2244.57
267.41	2371.55
267.62	2195.42
267.84	2047.97
268.06	2185.18
268.27	2258.91
268.49	2332.64
268.70	2260.96
268.92	2242.53
269.14	2189.28
269.35	2133.98
269.57	2185.18
269.79	2248.67
270.00	2146.27
270.22	2432.99
270.43	2113.50
270.65	2039.78
270.87	2318.30
271.08	2394.08
271.30	2279.39
271.51	2199.52
271.73	2369.50
271.95	2406.36
272.16	2189.28
272.38	2226.14
272.59	2232.29
272.81	2316.25
273.02	2168.80
273.24	2211.81
273.46	2375.64
273.67	2080.74
273.89	2152.42
274.10	2109.41
274.32	2353.12
274.54	2271.20
274.75	2275.29
274.97	2162.66
275.18	2383.84
275.40	2252.77
275.61	2183.13
275.83	2263.01
276.05	2166.75
276.26	2248.67
276.48	2183.13
276.69	2127.84
276.91	2228.19
277.12	2355.16
277.34	2299.87
277.55	2377.69
277.77	2228.19
277.99	2236.38
278.20	2095.07
278.42	2105.31
278.63	2150.37
278.85	2172.89
279.06	2115.55
279.28	2252.77
279.49	2355.16
279.71	2318.30
279.93	2320.35
280.14	2162.66
280.36	2176.99
280.57	2353.12
280.79	2248.67
281.00	2148.32
281.22	2226.14
281.43	2330.59
281.65	2060.26
281.86	2121.70
282.08	2365.40
282.29	2482.14
282.51	2105.31
282.73	2156.51
282.94	2107.36
283.16	2252.77
283.37	2383.84
283.59	2195.42
283.80	2316.25
284.02	2271.20
284.23	2291.68
284.45	2199.52
284.66	2201.57
284.88	2179.04
285.09	2195.42
285.31	2289.63
285.52	2336.73
285.74	2174.94
285.95	2351.07
286.17	2269.15
286.38	2365.40
286.60	2160.61
286.81	2220.00
287.03	2183.13
287.24	2217.95
287.46	2293.72
287.67	2258.91
287.89	2383.84
288.10	2252.77
288.32	2207.71
288.53	2435.03
288.75	2248.67
288.96	2265.05
289.18	2179.04
289.39	2150.37
289.61	2297.82
289.82	2494.43
290.04	2432.99
290.25	2097.12
290.47	2256.86
290.68	2252.77
290.90	2375.64
291.11	2117.60
291.33	2283.49
291.54	2154.46
291.76	2187.23
291.97	2162.66
292.18	2275.29
292.40	2185.18
292.61	2133.98
292.83	2357.21
293.04	2287.58
293.26	2322.40
293.47	2256.86
293.69	2242.53
293.90	2197.47
294.12	2377.69
294.33	2279.39
294.55	2166.75
294.76	2301.92
294.97	2379.74
295.19	2459.61
295.40	2160.61
295.62	2222.05
295.83	2316.25
296.05	2248.67
296.26	2359.26
296.48	2154.46
296.69	2195.42
296.90	2220.00
297.12	2279.39
297.33	2408.41
297.55	2279.39
297.76	2355.16
297.98	2342.88
298.19	2285.53
298.41	2195.42
298.62	2113.50
298.83	2404.32
299.05	2260.96
299.26	2181.09
299.48	2121.70
299.69	2328.54
299.90	2263.01
300.12	2119.65
300.33	2318.30
300.55	2207.71
300.76	2209.76
300.98	2187.23
301.19	2310.11
301.40	2258.91
301.62	2203.61
301.83	2359.26
302.05	2299.87
302.26	2211.81
302.47	2283.49
302.69	2217.95
302.90	2355.16
303.12	2035.68
303.33	2232.29
303.54	2408.41
303.76	2220.00
303.97	2236.38
304.19	2369.50
304.40	2138.08
304.61	2404.32
304.83	2387.93
305.04	2336.73
305.26	2301.92
305.47	2199.52
305.68	2176.99
305.90	2170.85
306.11	2359.26
306.33	2224.09
306.54	2166.75
306.75	2176.99
306.97	2107.36
307.18	2195.42
307.39	2166.75
307.61	2301.92
307.82	2269.15
308.04	2291.68
308.25	2127.84
308.46	2220.00
308.68	2254.81
308.89	2277.34
309.10	2338.78
309.32	2318.30
309.53	2234.33
309.74	2328.54
309.96	2193.37
310.17	2471.90
310.39	2252.77
310.60	2322.40
310.81	2203.61
311.03	2166.75
311.24	2332.64
311.45	2277.34
311.67	2449.37
311.88	2242.53
312.09	2230.24
312.31	2207.71
312.52	2193.37
312.73	2154.46
312.95	2047.97
313.16	2201.57
313.37	2387.93
313.59	2281.44
313.80	2340.83
314.01	2496.47
314.23	2269.15
314.44	2146.27
314.65	2189.28
314.87	2222.05
315.08	2211.81
315.29	2207.71
315.51	2136.03
315.72	2052.06
315.93	2400.22
316.15	2310.11
316.36	2213.85
316.57	2234.33
316.79	2269.15
317.00	2195.42
317.21	2275.29
317.43	2179.04
317.64	2367.45
317.85	2203.61
318.07	2207.71
318.28	2170.85
318.49	2428.89
318.70	2422.75
318.92	2342.88
319.13	2398.17
319.34	2441.18
319.56	2295.77
319.77	2318.30
319.98	2363.36
320.20	2375.64
320.41	2318.30
320.62	2351.07
320.83	2117.60
321.05	2353.12
321.26	2232.29
321.47	2318.30
321.69	2371.55
321.90	2142.18
322.11	2242.53
322.32	2187.23
322.54	2459.61
322.75	2199.52
322.96	2596.82
323.18	2146.27
323.39	2080.74
323.60	2226.14
323.81	2375.64
324.03	2236.38
324.24	2287.58
324.45	2277.34
324.66	2224.09
324.88	2420.70
325.09	2412.51
325.30	2209.76
325.52	2236.38
325.73	2273.25
325.94	2158.56
326.15	2080.74
326.37	2156.51
326.58	2383.84
326.79	2396.12
327.00	2158.56
327.22	2295.77
327.43	2211.81
327.64	2117.60
327.85	2271.20
328.07	2310.11
328.28	2473.95
328.49	2176.99
328.70	2174.94
328.92	2203.61
329.13	2332.64
329.34	2291.68
329.55	2406.36
329.76	2416.60
329.98	2312.16
330.19	2422.75
330.40	2260.96
330.61	2267.10
330.83	2330.59
331.04	2144.22
331.25	2265.05
331.46	2168.80
331.68	2076.64
331.89	2367.45
332.10	2203.61
332.31	2144.22
332.52	2265.05
332.74	2344.92
332.95	2101.22
333.16	2199.52
333.37	2334.68
333.58	2142.18
333.80	2273.25
334.01	2027.49
334.22	2199.52
334.43	2232.29
334.64	2203.61
334.86	2129.89
335.07	2236.38
335.28	2461.66
335.49	2170.85
335.70	2355.16
335.92	2316.25
336.13	2533.34
336.34	2359.26
336.55	2209.76
336.76	2312.16
336.98	2093.02
337.19	2281.44
337.40	2324.44
337.61	2568.15
337.82	2303.96
338.04	2322.40
338.25	2062.30
338.46	2252.77
338.67	2193.37
338.88	2195.42
339.09	2131.94
339.31	2131.94
339.52	2174.94
339.73	2109.41
339.94	2228.19
340.15	2324.44
340.36	2207.71
340.58	2236.38
340.79	2238.43
341.00	2267.10
341.21	2125.79
341.42	2367.45
341.63	2269.15
341.85	2381.79
342.06	2242.53
342.27	2099.17
342.48	2297.82
342.69	2043.87
342.90	2332.64
343.12	2293.72
343.33	2187.23
343.54	2400.22
343.75	2318.30
343.96	2185.18
344.17	2150.37
344.38	2265.05
344.60	2133.98
344.81	2176.99
345.02	2183.13
345.23	2359.26
345.44	2539.48
345.65	2314.20
345.86	2228.19
346.07	2232.29
346.29	2195.42
346.50	2269.15
346.71	2275.29
346.92	2465.75
347.13	2555.86
347.34	2240.48
347.55	2242.53
347.76	2338.78
347.98	2129.89
348.19	2236.38
348.40	2408.41
348.61	2203.61
348.82	2449.37
349.03	2244.57
349.24	2117.60
349.45	2392.03
349.66	2023.39
349.88	2236.38
350.09	2191.33
350.30	2371.55
350.51	2406.36
350.72	2252.77
350.93	2203.61
351.14	2195.42
351.35	2306.01
351.56	2207.71
351.77	2197.47
351.99	2324.44
352.20	2400.22
352.41	2340.83
352.62	2064.35
352.83	2185.18
353.04	2338.78
353.25	2179.04
353.46	2314.20
353.67	2471.90
353.88	2088.93
354.09	2269.15
354.30	2267.10
354.52	2361.31
354.73	2172.89
354.94	2193.37
355.15	2226.14
355.36	2367.45
355.57	2187.23
355.78	2228.19
355.99	2099.17
356.20	2133.98
356.41	2299.87
356.62	2277.34
356.83	2310.11
357.04	2326.49
357.25	2140.13
357.46	2226.14
357.68	2076.64
357.89	2242.53
358.10	2170.85
358.31	2215.90
358.52	2242.53
358.73	2179.04
358.94	2158.56
359.15	2113.50
359.36	2293.72
359.57	2189.28
359.78	2211.81
359.99	2254.81
360.20	2179.04
360.41	2258.91
360.62	2344.92
360.83	2195.42
361.04	2254.81
361.25	2392.03
361.46	2457.56
361.67	2349.02
361.88	2269.15
362.09	2441.18
362.30	2260.96
362.51	2195.42
362.72	2220.00
362.93	2351.07
363.14	2351.07
363.35	2269.15
363.56	2113.50
363.78	2340.83
363.99	2293.72
364.20	2215.90
364.41	2228.19
364.62	2482.14
364.83	2285.53
365.04	2242.53
365.25	2224.09
365.46	2482.14
365.67	2160.61
365.88	2207.71
366.09	2144.22
366.30	2285.53
366.51	2310.11
366.72	2125.79
366.93	2226.14
367.14	2306.01
367.35	2398.17
367.56	2250.72
367.77	2342.88
367.98	2285.53
368.18	2338.78
368.39	2324.44
368.60	2164.70
368.81	2357.21
369.02	2330.59
369.23	2168.80
369.44	2084.83
369.65	2158.56
369.86	2303.96
370.07	2258.91
370.28	2150.37
370.49	2394.08
370.70	2263.01
370.91	2117.60
371.12	2072.54
371.33	2308.06
371.54	2209.76
371.75	2381.79
371.96	2133.98
372.17	2301.92
372.38	2244.57
372.59	2299.87
372.80	2293.72
373.01	2160.61
373.22	2252.77
373.43	2306.01
373.64	2138.08
373.85	2469.85
374.06	2416.60
374.26	2338.78
374.47	2248.67
374.68	2363.36
374.89	2314.20
375.10	2174.94
375.31	2265.05
375.52	2275.29
375.73	2275.29
375.94	2078.69
376.15	2361.31
376.36	2211.81
376.57	2154.46
376.78	2220.00
376.99	2185.18
377.20	2471.90
377.40	2301.92
377.61	2514.91
377.82	2162.66
378.03	2383.84
378.24	2408.41
378.45	2191.33
378.66	2215.90
378.87	2121.70
379.08	2150.37
379.29	2203.61
379.50	2353.12
379.71	2105.31
379.91	2314.20
380.12	2179.04
380.33	2265.05
380.54	2232.29
380.75	2172.89
380.96	2211.81
381.17	2344.92
381.38	2199.52
381.59	2258.91
381.80	2240.48
382.00	2412.51
382.21	2277.34
382.42	2521.05
382.63	2512.86
382.84	2357.21
383.05	2357.21
383.26	2469.85
383.47	2299.87
383.68	2283.49
383.88	2353.12
384.09	2220.00
384.30	2484.19
384.51	2338.78
384.72	2236.38
384.93	2115.55
385.14	2162.66
385.35	2408.41
385.55	2131.94
385.76	2326.49
385.97	2248.67
386.18	2140.13
386.39	2166.75
386.60	2211.81
386.81	2152.42
387.02	2146.27
387.22	2179.04
387.43	2414.56
387.64	2342.88
387.85	2400.22
388.06	2441.18
388.27	3917.76
388.48	8091.52
388.68	11571.02
388.89	13791.02
389.10	15040.28
389.31	13680.43
389.52	10991.45
389.73	9496.43
389.93	8712.06
390.14	7831.43
390.35	7063.44
390.56	6297.50
390.77	5242.80
390.98	3991.49
391.18	3299.28
391.39	2699.22
391.60	2326.49
391.81	2306.01
392.02	2252.77
392.23	2471.90
392.43	2314.20
392.64	2330.59
392.85	2267.10
393.06	2521.05
393.27	2242.53
393.47	2119.65
393.68	2242.53
393.89	2240.48
394.10	2455.51
394.31	2203.61
394.52	2193.37
394.72	2166.75
394.93	2439.13
395.14	2195.42
395.35	2252.77
395.56	2150.37
395.76	2269.15
395.97	2236.38
396.18	2402.27
396.39	2412.51
396.60	2775.00
396.80	2529.24
397.01	2383.84
397.22	2457.56
397.43	2461.66
397.64	2269.15
397.84	2375.64
398.05	2539.48
398.26	2289.63
398.47	2385.88
398.67	2301.92
398.88	2211.81
399.09	2326.49
399.30	2222.05
399.51	2269.15
399.71	2220.00
399.92	2162.66
400.13	2373.60
400.34	2236.38
400.54	2273.25
400.75	2420.70
400.96	2291.68
401.17	2406.36
401.37	2301.92
401.58	2234.33
401.79	2269.15
402.00	2351.07
402.21	2695.13
402.41	2574.30
402.62	2609.11
402.83	2703.32
403.04	2672.60
403.24	2809.81
403.45	2346.97
403.66	2564.06
403.87	2453.47
404.07	2537.43
404.28	2549.72
404.49	2471.90
404.70	2363.36
404.90	2392.03
405.11	2322.40
405.32	2355.16
405.52	2217.95
405.73	2195.42
405.94	2109.41
406.15	2203.61
406.35	2367.45
406.56	2273.25
406.77	2303.96
406.98	2232.29
407.18	2252.77
407.39	2400.22
407.60	2242.53
407.80	2310.11
408.01	2260.96
408.22	2297.82
408.43	2205.66
408.63	2252.77
408.84	2322.40
409.05	2293.72
409.25	2183.13
409.46	2101.22
409.67	2226.14
409.88	2097.12
410.08	2273.25
410.29	2232.29
410.50	2318.30
410.70	2316.25
410.91	2136.03
411.12	2283.49
411.32	2279.39
411.53	2195.42
411.74	2328.54
411.95	2385.88
412.15	2314.20
412.36	2371.55
412.57	2342.88
412.77	2451.42
412.98	2244.57
413.19	2254.81
413.39	2363.36
413.60	2260.96
413.81	2404.32
414.01	2174.94
414.22	2269.15
414.43	2334.68
414.63	2162.66
414.84	2359.26
415.05	2258.91
415.25	2082.78
415.46	2334.68
415.67	2160.61
415.87	2269.15
416.08	2174.94
416.29	2265.05
416.49	2306.01
416.70	2269.15
416.91	2201.57
417.11	2355.16
417.32	2289.63
417.53	2330.59
417.73	2322.40
417.94	2148.32
418.15	2363.36
418.35	2267.10
418.56	2291.68
418.77	2508.76
418.97	2263.01
419.18	2252.77
419.38	2068.45
419.59	2250.72
419.80	2404.32
420.00	2244.57
420.21	2342.88
420.42	2430.94
420.62	2369.50
420.83	2209.76
421.04	2213.85
421.24	2230.24
421.45	2365.40
421.65	2240.48
421.86	2250.72
422.07	2312.16
422.27	2279.39
422.48	2240.48
422.69	2097.12
422.89	2256.86
423.10	2293.72
423.30	2119.65
423.51	2275.29
423.72	2293.72
423.92	2340.83
424.13	2193.37
424.33	2332.64
424.54	2250.72
424.75	2258.91
424.95	2428.89
425.16	2226.14
425.36	2162.66
425.57	2449.37
425.78	2344.92
425.98	2301.92
426.19	2205.66
426.39	2234.33
426.60	2252.77
426.81	2330.59
427.01	2199.52
427.22	2154.46
427.42	2121.70
427.63	2138.08
427.83	2412.51
428.04	2447.32
428.25	2496.47
428.45	2383.84
428.66	2383.84
428.86	2201.57
429.07	2189.28
429.28	2324.44
429.48	2271.20
429.69	2144.22
429.89	2297.82
430.10	2043.87
430.30	2297.82
430.51	2359.26
430.71	2179.04
430.92	2236.38
431.13	2160.61
431.33	2258.91
431.54	2318.30
431.74	2351.07
431.95	2457.56
432.15	2148.32
432.36	2220.00
432.56	2326.49
432.77	2484.19
432.98	2449.37
433.18	2252.77
433.39	2185.18
433.59	2211.81
433.80	2514.91
434.00	2535.39
434.21	2193.37
434.41	2189.28
434.62	2531.29
434.82	2129.89
435.03	2183.13
435.23	2234.33
435.44	2080.74
435.64	2205.66
435.85	2340.83
436.06	2404.32
436.26	2297.82
436.47	2226.14
436.67	2220.00
436.88	2269.15
437.08	2320.35
437.29	2287.58
437.49	2281.44
437.70	2318.30
437.90	2297.82
438.11	2500.57
438.31	2297.82
438.52	2445.27
438.72	2478.04
438.93	2531.29
439.13	2322.40
439.34	2387.93
439.54	2244.57
439.75	2363.36
439.95	2340.83
440.16	2234.33
440.36	2252.77
440.57	2238.43
440.77	2285.53
440.98	2301.92
441.18	2365.40
441.39	2289.63
441.59	2150.37
441.80	2465.75
442.00	2308.06
442.21	2396.12
442.41	2095.07
442.62	2351.07
442.82	2183.13
443.02	2248.67
443.23	2230.24
443.43	2209.76
443.64	2377.69
443.84	2209.76
444.05	2340.83
444.25	2293.72
444.46	2172.89
444.66	2269.15
444.87	2377.69
445.07	2107.36
445.28	2271.20
445.48	2424.80
445.69	2342.88
445.89	2537.43
446.09	2236.38
446.30	2527.19
446.50	2768.85
446.71	4458.43
446.91	5437.36
447.12	6401.95
447.32	6696.86
447.53	6215.59
447.73	5216.18
447.93	4571.07
448.14	4284.35
448.34	4132.80
448.55	3659.72
448.75	3526.60
448.96	3375.05
449.16	2979.79
449.36	2940.88
449.57	2539.48
449.77	2449.37
449.98	2215.90
450.18	2365.40
450.39	2322.40
450.59	2363.36
450.79	2250.72
451.00	2220.00
451.20	2392.03
451.41	2314.20
451.61	2248.67
451.81	2215.90
452.02	2252.77
452.22	2283.49
452.43	2205.66
452.63	2269.15
