SpectraSuite Data File
++++++++++++++++++++++++++++++++++++
Date: Thu May 05 13:20:46 CEST 2016
User: root
Dark Spectrum Present: No
Reference Spectrum Present: No
Number of Sampled Component Spectra: 1
Spectrometers: USB4C02835
Integration Time (usec): 100000 (USB4C02835)
Spectra Averaged: 1 (USB4C02835)
Boxcar Smoothing: 0 (USB4C02835)
Correct for Electrical Dark: No (USB4C02835)
Strobe/Lamp Enabled: No (USB4C02835)
Correct for Detector Non-linearity: No (USB4C02835)
Correct for Stray Light: No (USB4C02835)
Number of Pixels in Processed Spectrum: 3648
>>>>>Begin Processed Spectral Data<<<<<
177.47	1785.83
177.69	1785.83
177.91	1785.83
178.13	1837.03
178.36	1757.16
178.58	2209.76
178.80	2258.91
179.02	2125.79
179.24	2084.83
179.46	2181.09
179.68	2203.61
179.90	2226.14
180.13	2234.33
180.35	2056.16
180.57	2123.74
180.79	2260.96
181.01	2203.61
181.23	2310.11
181.45	2355.16
181.67	2242.53
181.90	2254.81
182.12	2166.75
182.34	2070.50
182.56	2287.58
182.78	2301.92
183.00	2103.26
183.22	2189.28
183.44	2095.07
183.66	2490.33
183.89	2326.49
184.11	2168.80
184.33	2291.68
184.55	2316.25
184.77	2222.05
184.99	2172.89
185.21	2310.11
185.43	2510.81
185.65	2150.37
185.87	2199.52
186.10	2484.19
186.32	2510.81
186.54	2310.11
186.76	2224.09
186.98	2338.78
187.20	2275.29
187.42	2095.07
187.64	2158.56
187.86	2289.63
188.08	2248.67
188.30	2217.95
188.52	2183.13
188.75	2324.44
188.97	2375.64
189.19	2140.13
189.41	2174.94
189.63	2316.25
189.85	2297.82
190.07	2117.60
190.29	2015.20
190.51	2318.30
190.73	2176.99
190.95	2283.49
191.17	2211.81
191.39	2082.78
191.61	2211.81
191.84	2154.46
192.06	2277.34
192.28	2144.22
192.50	2545.63
192.72	2224.09
192.94	2209.76
193.16	2351.07
193.38	2291.68
193.60	2142.18
193.82	2236.38
194.04	2355.16
194.26	2248.67
194.48	2228.19
194.70	2234.33
194.92	2230.24
195.14	2277.34
195.36	2129.89
195.58	2250.72
195.80	2176.99
196.02	2193.37
196.24	2131.94
196.46	2250.72
196.69	2176.99
196.91	2457.56
197.13	2162.66
197.35	2193.37
197.57	2424.80
197.79	2263.01
198.01	2224.09
198.23	2256.86
198.45	2301.92
198.67	2115.55
198.89	2064.35
199.11	2279.39
199.33	2160.61
199.55	2080.74
199.77	2119.65
199.99	2179.04
200.21	2172.89
200.43	2301.92
200.65	2097.12
200.87	2070.50
201.09	2226.14
201.31	2232.29
201.53	2246.62
201.75	2213.85
201.97	2293.72
202.19	2244.57
202.41	2287.58
202.63	2244.57
202.85	2260.96
203.07	2308.06
203.29	2217.95
203.51	2109.41
203.73	2119.65
203.95	2564.06
204.17	2113.50
204.39	2291.68
204.61	2209.76
204.83	2228.19
205.05	2224.09
205.27	2187.23
205.49	2488.28
205.71	2224.09
205.93	2088.93
206.15	2109.41
206.37	2244.57
206.59	2250.72
206.81	2125.79
207.03	2131.94
207.25	2164.70
207.47	2387.93
207.69	2211.81
207.91	2346.97
208.13	2367.45
208.34	2291.68
208.56	2097.12
208.78	2201.57
209.00	2287.58
209.22	2222.05
209.44	2125.79
209.66	2129.89
209.88	2277.34
210.10	2240.48
210.32	2113.50
210.54	2258.91
210.76	2211.81
210.98	2340.83
211.20	1984.48
211.42	2222.05
211.64	2344.92
211.86	2340.83
212.08	2179.04
212.30	2181.09
212.52	2211.81
212.74	2258.91
212.96	2201.57
213.17	2228.19
213.39	2389.98
213.61	2457.56
213.83	2179.04
214.05	2211.81
214.27	2400.22
214.49	2125.79
214.71	2039.78
214.93	2318.30
215.15	2183.13
215.37	2265.05
215.59	2095.07
215.81	2232.29
216.03	2379.74
216.24	2189.28
216.46	2183.13
216.68	2166.75
216.90	2273.25
217.12	2342.88
217.34	2121.70
217.56	2189.28
217.78	2412.51
218.00	2238.43
218.22	2181.09
218.44	2246.62
218.66	2250.72
218.87	2508.76
219.09	2129.89
219.31	2217.95
219.53	2291.68
219.75	2170.85
219.97	2176.99
220.19	2213.85
220.41	2199.52
220.63	2385.88
220.85	2234.33
221.06	2222.05
221.28	2459.61
221.50	2285.53
221.72	2244.57
221.94	2103.26
222.16	2246.62
222.38	2357.21
222.60	2234.33
222.82	2189.28
223.03	2355.16
223.25	2179.04
223.47	2248.67
223.69	2420.70
223.91	2299.87
224.13	2238.43
224.35	2064.35
224.57	2265.05
224.78	2258.91
225.00	2146.27
225.22	2273.25
225.44	2150.37
225.66	2330.59
225.88	2289.63
226.10	2246.62
226.32	2170.85
226.53	2424.80
226.75	2226.14
226.97	2252.77
227.19	2199.52
227.41	2156.51
227.63	2168.80
227.85	2004.96
228.06	2209.76
228.28	2295.77
228.50	2377.69
228.72	2150.37
228.94	2154.46
229.16	2097.12
229.37	2086.88
229.59	2101.22
229.81	2250.72
230.03	2162.66
230.25	2174.94
230.47	2068.45
230.69	2064.35
230.90	2371.55
231.12	2164.70
231.34	2205.66
231.56	2277.34
231.78	2140.13
232.00	2224.09
232.21	2215.90
232.43	2172.89
232.65	2041.82
232.87	2361.31
233.09	2107.36
233.30	2111.46
233.52	2349.02
233.74	2250.72
233.96	2113.50
234.18	2285.53
234.40	2287.58
234.61	2488.28
234.83	2090.98
235.05	2113.50
235.27	2457.56
235.49	2400.22
235.70	2119.65
235.92	2265.05
236.14	2355.16
236.36	2494.43
236.58	2080.74
236.79	2228.19
237.01	2279.39
237.23	2215.90
237.45	2320.35
237.67	2203.61
237.88	2287.58
238.10	2551.77
238.32	2168.80
238.54	2168.80
238.76	2303.96
238.97	2152.42
239.19	2123.74
239.41	2308.06
239.63	2310.11
239.85	2224.09
240.06	2176.99
240.28	2203.61
240.50	2244.57
240.72	2228.19
240.93	2187.23
241.15	2189.28
241.37	2201.57
241.59	2349.02
241.81	2236.38
242.02	2136.03
242.24	2277.34
242.46	2334.68
242.68	2103.26
242.89	2179.04
243.11	2252.77
243.33	2299.87
243.55	2199.52
243.76	2289.63
243.98	2150.37
244.20	2187.23
244.42	2220.00
244.64	2193.37
244.85	2158.56
245.07	2222.05
245.29	2258.91
245.51	2166.75
245.72	2275.29
245.94	2408.41
246.16	2195.42
246.38	2244.57
246.59	2086.88
246.81	2152.42
247.03	2119.65
247.24	2082.78
247.46	2179.04
247.68	2205.66
247.90	2162.66
248.11	2211.81
248.33	2383.84
248.55	2252.77
248.77	2205.66
248.98	2256.86
249.20	2422.75
249.42	2316.25
249.64	2228.19
249.85	2170.85
250.07	2244.57
250.29	2275.29
250.50	2277.34
250.72	2121.70
250.94	2260.96
251.16	2457.56
251.37	2205.66
251.59	2246.62
251.81	2344.92
252.02	2408.41
252.24	2154.46
252.46	2275.29
252.68	2265.05
252.89	2193.37
253.11	2047.97
253.33	2394.08
253.54	2404.32
253.76	2113.50
253.98	2189.28
254.20	2129.89
254.41	2109.41
254.63	2170.85
254.85	2152.42
255.06	2195.42
255.28	2318.30
255.50	2322.40
255.71	2078.69
255.93	2113.50
256.15	2242.53
256.36	2291.68
256.58	2125.79
256.80	2187.23
257.02	2240.48
257.23	2217.95
257.45	2121.70
257.67	2189.28
257.88	2183.13
258.10	2240.48
258.32	2234.33
258.53	2181.09
258.75	2373.60
258.97	2226.14
259.18	2168.80
259.40	2183.13
259.62	2430.94
259.83	2404.32
260.05	2269.15
260.27	2654.17
260.48	2318.30
260.70	2160.61
260.92	2113.50
261.13	2181.09
261.35	2258.91
261.57	2240.48
261.78	2158.56
262.00	2162.66
262.22	2340.83
262.43	2154.46
262.65	2146.27
262.86	2166.75
263.08	2478.04
263.30	2195.42
263.51	2047.97
263.73	2220.00
263.95	2367.45
264.16	2039.78
264.38	2105.31
264.60	2166.75
264.81	2306.01
265.03	2398.17
265.25	2342.88
265.46	2136.03
265.68	2461.66
265.89	2281.44
266.11	2166.75
266.33	2197.47
266.54	2351.07
266.76	2279.39
266.98	2269.15
267.19	2299.87
267.41	2334.68
267.62	2183.13
267.84	2138.08
268.06	2359.26
268.27	2314.20
268.49	2381.79
268.70	2267.10
268.92	2197.47
269.14	2168.80
269.35	2131.94
269.57	2211.81
269.79	2217.95
270.00	2193.37
270.22	2367.45
270.43	2152.42
270.65	2068.45
270.87	2324.44
271.08	2351.07
271.30	2242.53
271.51	2179.04
271.73	2324.44
271.95	2445.27
272.16	2162.66
272.38	2242.53
272.59	2220.00
272.81	2361.31
273.02	2193.37
273.24	2183.13
273.46	2365.40
273.67	2170.85
273.89	2136.03
274.10	2117.60
274.32	2240.48
274.54	2254.81
274.75	2220.00
274.97	2181.09
275.18	2256.86
275.40	2263.01
275.61	2179.04
275.83	2236.38
276.05	2150.37
276.26	2252.77
276.48	2240.48
276.69	2176.99
276.91	2252.77
277.12	2355.16
277.34	2269.15
277.55	2322.40
277.77	2291.68
277.99	2226.14
278.20	2129.89
278.42	2109.41
278.63	2244.57
278.85	2242.53
279.06	2105.31
279.28	2224.09
279.49	2283.49
279.71	2332.64
279.93	2273.25
280.14	2187.23
280.36	2193.37
280.57	2375.64
280.79	2336.73
281.00	2093.02
281.22	2158.56
281.43	2400.22
281.65	2068.45
281.86	2158.56
282.08	2269.15
282.29	2410.46
282.51	2154.46
282.73	2146.27
282.94	2138.08
283.16	2316.25
283.37	2334.68
283.59	2248.67
283.80	2232.29
284.02	2193.37
284.23	2289.63
284.45	2291.68
284.66	2269.15
284.88	2144.22
285.09	2207.71
285.31	2344.92
285.52	2295.77
285.74	2080.74
285.95	2377.69
286.17	2265.05
286.38	2367.45
286.60	2170.85
286.81	2234.33
287.03	2174.94
287.24	2152.42
287.46	2344.92
287.67	2260.96
287.89	2392.03
288.10	2252.77
288.32	2308.06
288.53	2285.53
288.75	2244.57
288.96	2269.15
289.18	2211.81
289.39	2170.85
289.61	2297.82
289.82	2461.66
290.04	2400.22
290.25	2129.89
290.47	2226.14
290.68	2273.25
290.90	2387.93
291.11	2103.26
291.33	2244.57
291.54	2095.07
291.76	2150.37
291.97	2215.90
292.18	2240.48
292.40	2230.24
292.61	2101.22
292.83	2439.13
293.04	2371.55
293.26	2271.20
293.47	2203.61
293.69	2162.66
293.90	2201.57
294.12	2318.30
294.33	2203.61
294.55	2154.46
294.76	2285.53
294.97	2400.22
295.19	2463.71
295.40	2252.77
295.62	2179.04
295.83	2291.68
296.05	2146.27
296.26	2342.88
296.48	2127.84
296.69	2238.43
296.90	2209.76
297.12	2291.68
297.33	2353.12
297.55	2220.00
297.76	2293.72
297.98	2271.20
298.19	2293.72
298.41	2242.53
298.62	2166.75
298.83	2344.92
299.05	2224.09
299.26	2242.53
299.48	2156.51
299.69	2244.57
299.90	2220.00
300.12	2113.50
300.33	2299.87
300.55	2269.15
300.76	2215.90
300.98	2144.22
301.19	2353.12
301.40	2154.46
301.62	2162.66
301.83	2260.96
302.05	2203.61
302.26	2203.61
302.47	2301.92
302.69	2160.61
302.90	2215.90
303.12	2060.26
303.33	2269.15
303.54	2437.08
303.76	2224.09
303.97	2265.05
304.19	2377.69
304.40	2201.57
304.61	2260.96
304.83	2387.93
305.04	2318.30
305.26	2349.02
305.47	2211.81
305.68	2246.62
305.90	2211.81
306.11	2441.18
306.33	2187.23
306.54	2236.38
306.75	2215.90
306.97	2152.42
307.18	2154.46
307.39	2189.28
307.61	2334.68
307.82	2224.09
308.04	2263.01
308.25	2162.66
308.46	2256.86
308.68	2271.20
308.89	2217.95
309.10	2340.83
309.32	2201.57
309.53	2287.58
309.74	2254.81
309.96	2263.01
310.17	2310.11
310.39	2162.66
310.60	2320.35
310.81	2289.63
311.03	2142.18
311.24	2363.36
311.45	2244.57
311.67	2344.92
311.88	2242.53
312.09	2181.09
312.31	2234.33
312.52	2201.57
312.73	2248.67
312.95	2088.93
313.16	2209.76
313.37	2334.68
313.59	2338.78
313.80	2349.02
314.01	2349.02
314.23	2279.39
314.44	2166.75
314.65	2121.70
314.87	2211.81
315.08	2154.46
315.29	2183.13
315.51	2152.42
315.72	2099.17
315.93	2385.88
316.15	2267.10
316.36	2179.04
316.57	2271.20
316.79	2291.68
317.00	2131.94
317.21	2217.95
317.43	2222.05
317.64	2220.00
317.85	2174.94
318.07	2226.14
318.28	2207.71
318.49	2346.97
318.70	2461.66
318.92	2428.89
319.13	2424.80
319.34	2426.84
319.56	2314.20
319.77	2314.20
319.98	2379.74
320.20	2349.02
320.41	2308.06
320.62	2377.69
320.83	2166.75
321.05	2385.88
321.26	2248.67
321.47	2234.33
321.69	2453.47
321.90	2121.70
322.11	2154.46
322.32	2213.85
322.54	2363.36
322.75	2162.66
322.96	2508.76
323.18	2131.94
323.39	2127.84
323.60	2213.85
323.81	2375.64
324.03	2187.23
324.24	2203.61
324.45	2281.44
324.66	2193.37
324.88	2398.17
325.09	2394.08
325.30	2265.05
325.52	2201.57
325.73	2367.45
325.94	2156.51
326.15	2121.70
326.37	2195.42
326.58	2330.59
326.79	2355.16
327.00	2166.75
327.22	2283.49
327.43	2226.14
327.64	2191.33
327.85	2283.49
328.07	2234.33
328.28	2461.66
328.49	2232.29
328.70	2244.57
328.92	2215.90
329.13	2195.42
329.34	2383.84
329.55	2334.68
329.76	2242.53
329.98	2344.92
330.19	2363.36
330.40	2256.86
330.61	2277.34
330.83	2312.16
331.04	2099.17
331.25	2295.77
331.46	2224.09
331.68	2156.51
331.89	2414.56
332.10	2275.29
332.31	2047.97
332.52	2275.29
332.74	2412.51
332.95	2086.88
333.16	2166.75
333.37	2349.02
333.58	2156.51
333.80	2256.86
334.01	2080.74
334.22	2166.75
334.43	2252.77
334.64	2162.66
334.86	2170.85
335.07	2109.41
335.28	2426.84
335.49	2107.36
335.70	2314.20
335.92	2453.47
336.13	2514.91
336.34	2310.11
336.55	2308.06
336.76	2306.01
336.98	2066.40
337.19	2220.00
337.40	2367.45
337.61	2469.85
337.82	2250.72
338.04	2275.29
338.25	2103.26
338.46	2197.47
338.67	2310.11
338.88	2154.46
339.09	2152.42
339.31	2201.57
339.52	2144.22
339.73	2097.12
339.94	2170.85
340.15	2322.40
340.36	2170.85
340.58	2187.23
340.79	2168.80
341.00	2277.34
341.21	2181.09
341.42	2383.84
341.63	2209.76
341.85	2328.54
342.06	2289.63
342.27	2195.42
342.48	2351.07
342.69	2099.17
342.90	2314.20
343.12	2363.36
343.33	2193.37
343.54	2314.20
343.75	2469.85
343.96	2287.58
344.17	2162.66
344.38	2226.14
344.60	2174.94
344.81	2121.70
345.02	2220.00
345.23	2324.44
345.44	2486.23
345.65	2349.02
345.86	2256.86
346.07	2269.15
346.29	2232.29
346.50	2273.25
346.71	2265.05
346.92	2387.93
347.13	2496.47
347.34	2250.72
347.55	2187.23
347.76	2238.43
347.98	2035.68
348.19	2209.76
348.40	2402.27
348.61	2349.02
348.82	2441.18
349.03	2277.34
349.24	2117.60
349.45	2428.89
349.66	2004.96
349.88	2269.15
350.09	2160.61
350.30	2383.84
350.51	2424.80
350.72	2285.53
350.93	2338.78
351.14	2215.90
351.35	2340.83
351.56	2281.44
351.77	2187.23
351.99	2287.58
352.20	2392.03
352.41	2287.58
352.62	2095.07
352.83	2277.34
353.04	2228.19
353.25	2191.33
353.46	2277.34
353.67	2322.40
353.88	2074.59
354.09	2342.88
354.30	2275.29
354.52	2351.07
354.73	2160.61
354.94	2201.57
355.15	2256.86
355.36	2447.32
355.57	2172.89
355.78	2160.61
355.99	2193.37
356.20	2179.04
356.41	2365.40
356.62	2263.01
356.83	2201.57
357.04	2387.93
357.25	2136.03
357.46	2299.87
357.68	2113.50
357.89	2179.04
358.10	2275.29
358.31	2226.14
358.52	2275.29
358.73	2127.84
358.94	2133.98
359.15	2123.74
359.36	2320.35
359.57	2236.38
359.78	2179.04
359.99	2310.11
360.20	2082.78
360.41	2146.27
360.62	2312.16
360.83	2213.85
361.04	2209.76
361.25	2279.39
361.46	2441.18
361.67	2293.72
361.88	2248.67
362.09	2351.07
362.30	2283.49
362.51	2195.42
362.72	2230.24
362.93	2318.30
363.14	2248.67
363.35	2271.20
363.56	2142.18
363.78	2406.36
363.99	2357.21
364.20	2111.46
364.41	2226.14
364.62	2496.47
364.83	2297.82
365.04	2252.77
365.25	2246.62
365.46	2449.37
365.67	2156.51
365.88	2273.25
366.09	2203.61
366.30	2244.57
366.51	2236.38
366.72	2101.22
366.93	2256.86
367.14	2332.64
367.35	2379.74
367.56	2183.13
367.77	2318.30
367.98	2217.95
368.18	2346.97
368.39	2277.34
368.60	2179.04
368.81	2322.40
369.02	2289.63
369.23	2217.95
369.44	2060.26
369.65	2213.85
369.86	2209.76
370.07	2392.03
370.28	2162.66
370.49	2299.87
370.70	2306.01
370.91	2234.33
371.12	2064.35
371.33	2398.17
371.54	2226.14
371.75	2365.40
371.96	2072.54
372.17	2326.49
372.38	2228.19
372.59	2279.39
372.80	2154.46
373.01	2244.57
373.22	2285.53
373.43	2201.57
373.64	2070.50
373.85	2455.51
374.06	2465.75
374.26	2355.16
374.47	2207.71
374.68	2447.32
374.89	2324.44
375.10	2172.89
375.31	2248.67
375.52	2258.91
375.73	2228.19
375.94	2181.09
376.15	2363.36
376.36	2228.19
376.57	2252.77
376.78	2185.18
376.99	2273.25
377.20	2365.40
377.40	2209.76
377.61	2349.02
377.82	2160.61
378.03	2408.41
378.24	2349.02
378.45	2252.77
378.66	2318.30
378.87	2148.32
379.08	2140.13
379.29	2209.76
379.50	2340.83
379.71	2250.72
379.91	2349.02
380.12	2215.90
380.33	2306.01
380.54	2176.99
380.75	2285.53
380.96	2189.28
381.17	2326.49
381.38	2254.81
381.59	2344.92
381.80	2220.00
382.00	2396.12
382.21	2287.58
382.42	2461.66
382.63	2506.71
382.84	2228.19
383.05	2351.07
383.26	2461.66
383.47	2357.21
383.68	2291.68
383.88	2318.30
384.09	2346.97
384.30	2412.51
384.51	2328.54
384.72	2199.52
384.93	2136.03
385.14	2203.61
385.35	2351.07
385.55	2097.12
385.76	2414.56
385.97	2248.67
386.18	2162.66
386.39	2199.52
386.60	2273.25
386.81	2162.66
387.02	2185.18
387.22	2160.61
387.43	2392.03
387.64	2402.27
387.85	2467.80
388.06	2496.47
388.27	4134.85
388.48	8302.47
388.68	11839.31
388.89	14184.23
389.10	15283.99
389.31	14067.50
389.52	11095.89
389.73	9475.95
389.93	8728.44
390.14	8077.19
390.35	7126.93
390.56	6352.80
390.77	5175.22
390.98	4063.17
391.18	3233.74
391.39	2775.00
391.60	2375.64
391.81	2471.90
392.02	2238.43
392.23	2439.13
392.43	2258.91
392.64	2439.13
392.85	2287.58
393.06	2449.37
393.27	2236.38
393.47	2179.04
393.68	2217.95
393.89	2213.85
394.10	2398.17
394.31	2179.04
394.52	2185.18
394.72	2252.77
394.93	2453.47
395.14	2095.07
395.35	2295.77
395.56	2222.05
395.76	2301.92
395.97	2326.49
396.18	2426.84
396.39	2379.74
396.60	2738.13
396.80	2475.99
397.01	2349.02
397.22	2412.51
397.43	2435.03
397.64	2179.04
397.84	2375.64
398.05	2486.23
398.26	2310.11
398.47	2322.40
398.67	2377.69
398.88	2236.38
399.09	2332.64
399.30	2267.10
399.51	2328.54
399.71	2203.61
399.92	2228.19
400.13	2246.62
400.34	2193.37
400.54	2281.44
400.75	2344.92
400.96	2301.92
401.17	2412.51
401.37	2332.64
401.58	2271.20
401.79	2260.96
402.00	2422.75
402.21	2641.88
402.41	2541.53
402.62	2637.78
402.83	2668.50
403.04	2738.13
403.24	2777.05
403.45	2435.03
403.66	2473.95
403.87	2480.09
404.07	2463.71
404.28	2488.28
404.49	2457.56
404.70	2263.01
404.90	2383.84
405.11	2287.58
405.32	2318.30
405.52	2152.42
405.73	2244.57
405.94	2166.75
406.15	2213.85
406.35	2306.01
406.56	2375.64
406.77	2250.72
406.98	2258.91
407.18	2217.95
407.39	2363.36
407.60	2187.23
407.80	2301.92
408.01	2185.18
408.22	2279.39
408.43	2179.04
408.63	2312.16
408.84	2273.25
409.05	2408.41
409.25	2084.83
409.46	2224.09
409.67	2183.13
409.88	2150.37
410.08	2244.57
410.29	2207.71
410.50	2303.96
410.70	2297.82
410.91	2068.45
411.12	2211.81
411.32	2334.68
411.53	2183.13
411.74	2275.29
411.95	2363.36
412.15	2265.05
412.36	2422.75
412.57	2349.02
412.77	2385.88
412.98	2258.91
413.19	2260.96
413.39	2326.49
413.60	2228.19
413.81	2383.84
414.01	2109.41
414.22	2295.77
414.43	2365.40
414.63	2207.71
414.84	2404.32
415.05	2273.25
415.25	2115.55
415.46	2361.31
415.67	2115.55
415.87	2289.63
416.08	2316.25
416.29	2220.00
416.49	2357.21
416.70	2228.19
416.91	2185.18
417.11	2158.56
417.32	2338.78
417.53	2281.44
417.73	2314.20
417.94	2232.29
418.15	2291.68
418.35	2209.76
418.56	2248.67
418.77	2422.75
418.97	2220.00
419.18	2232.29
419.38	2056.16
419.59	2299.87
419.80	2353.12
420.00	2244.57
420.21	2265.05
420.42	2373.60
420.62	2240.48
420.83	2170.85
421.04	2248.67
421.24	2191.33
421.45	2402.27
421.65	2252.77
421.86	2205.66
422.07	2357.21
422.27	2236.38
422.48	2189.28
422.69	2133.98
422.89	2226.14
423.10	2260.96
423.30	2205.66
423.51	2273.25
423.72	2310.11
423.92	2260.96
424.13	2127.84
424.33	2211.81
424.54	2402.27
424.75	2228.19
424.95	2351.07
425.16	2275.29
425.36	2181.09
425.57	2340.83
425.78	2228.19
425.98	2402.27
426.19	2203.61
426.39	2107.36
426.60	2236.38
426.81	2365.40
427.01	2260.96
427.22	2258.91
427.42	2127.84
427.63	2140.13
427.83	2273.25
428.04	2439.13
428.25	2363.36
428.45	2320.35
428.66	2357.21
428.86	2316.25
429.07	2193.37
429.28	2252.77
429.48	2281.44
429.69	2140.13
429.89	2267.10
430.10	2131.94
430.30	2338.78
430.51	2455.51
430.71	2136.03
430.92	2258.91
431.13	2179.04
431.33	2396.12
431.54	2279.39
431.74	2410.46
431.95	2441.18
432.15	2179.04
432.36	2326.49
432.56	2287.58
432.77	2449.37
432.98	2467.80
433.18	2242.53
433.39	2220.00
433.59	2234.33
433.80	2498.52
434.00	2496.47
434.21	2283.49
434.41	2131.94
434.62	2555.86
434.82	2162.66
435.03	2164.70
435.23	2308.06
435.44	2129.89
435.64	2238.43
435.85	2310.11
436.06	2332.64
436.26	2389.98
436.47	2273.25
436.67	2158.56
436.88	2174.94
437.08	2371.55
437.29	2365.40
437.49	2299.87
437.70	2379.74
437.90	2232.29
438.11	2484.19
438.31	2330.59
438.52	2469.85
438.72	2453.47
438.93	2564.06
439.13	2349.02
439.34	2365.40
439.54	2320.35
439.75	2336.73
439.95	2375.64
440.16	2256.86
440.36	2273.25
440.57	2271.20
440.77	2357.21
440.98	2281.44
441.18	2256.86
441.39	2236.38
441.59	2166.75
441.80	2420.70
442.00	2250.72
442.21	2318.30
442.41	2170.85
442.62	2346.97
442.82	2176.99
443.02	2250.72
443.23	2293.72
443.43	2297.82
443.64	2398.17
443.84	2160.61
444.05	2383.84
444.25	2308.06
444.46	2271.20
444.66	2330.59
444.87	2422.75
445.07	2068.45
445.28	2205.66
445.48	2396.12
445.69	2263.01
445.89	2557.91
446.09	2340.83
446.30	2596.82
446.50	2856.92
446.71	4440.00
446.91	5697.45
447.12	6500.25
447.32	6807.45
447.53	6332.32
447.73	5201.84
447.93	4632.51
448.14	4165.57
448.34	4079.55
448.55	3542.99
448.75	3559.37
448.96	3499.98
449.16	3014.61
449.36	2908.12
449.57	2605.02
449.77	2342.88
449.98	2275.29
450.18	2326.49
450.39	2318.30
450.59	2303.96
450.79	2244.57
451.00	2236.38
451.20	2373.60
451.41	2226.14
451.61	2320.35
451.81	2291.68
452.02	2115.55
452.22	2220.00
452.43	2236.38
452.63	2154.46
