SpectraSuite Data File
++++++++++++++++++++++++++++++++++++
Date: Thu May 05 13:21:12 CEST 2016
User: root
Dark Spectrum Present: No
Reference Spectrum Present: No
Number of Sampled Component Spectra: 1
Spectrometers: USB4C02835
Integration Time (usec): 100000 (USB4C02835)
Spectra Averaged: 1 (USB4C02835)
Boxcar Smoothing: 0 (USB4C02835)
Correct for Electrical Dark: No (USB4C02835)
Strobe/Lamp Enabled: No (USB4C02835)
Correct for Detector Non-linearity: No (USB4C02835)
Correct for Stray Light: No (USB4C02835)
Number of Pixels in Processed Spectrum: 3648
>>>>>Begin Processed Spectral Data<<<<<
177.47	1763.30
177.69	1763.30
177.91	1763.30
178.13	1818.60
178.36	1806.31
178.58	2187.23
178.80	2279.39
179.02	2146.27
179.24	2179.04
179.46	2113.50
179.68	2248.67
179.90	2201.57
180.13	2230.24
180.35	2185.18
180.57	2072.54
180.79	2324.44
181.01	2211.81
181.23	2217.95
181.45	2260.96
181.67	2324.44
181.90	2269.15
182.12	2205.66
182.34	2047.97
182.56	2334.68
182.78	2353.12
183.00	2160.61
183.22	2217.95
183.44	2125.79
183.66	2537.43
183.89	2318.30
184.11	2252.77
184.33	2342.88
184.55	2346.97
184.77	2176.99
184.99	2240.48
185.21	2242.53
185.43	2480.09
185.65	2168.80
185.87	2166.75
186.10	2559.96
186.32	2531.29
186.54	2269.15
186.76	2244.57
186.98	2330.59
187.20	2240.48
187.42	2183.13
187.64	2162.66
187.86	2310.11
188.08	2422.75
188.30	2166.75
188.52	2222.05
188.75	2469.85
188.97	2422.75
189.19	2203.61
189.41	2174.94
189.63	2308.06
189.85	2230.24
190.07	2072.54
190.29	2109.41
190.51	2310.11
190.73	2115.55
190.95	2324.44
191.17	2144.22
191.39	2176.99
191.61	2244.57
191.84	2203.61
192.06	2224.09
192.28	2119.65
192.50	2625.50
192.72	2228.19
192.94	2105.31
193.16	2351.07
193.38	2252.77
193.60	2052.06
193.82	2220.00
194.04	2406.36
194.26	2293.72
194.48	2213.85
194.70	2125.79
194.92	2207.71
195.14	2281.44
195.36	2131.94
195.58	2183.13
195.80	2252.77
196.02	2179.04
196.24	2121.70
196.46	2179.04
196.69	2197.47
196.91	2363.36
197.13	2277.34
197.35	2199.52
197.57	2443.23
197.79	2297.82
198.01	2152.42
198.23	2314.20
198.45	2248.67
198.67	2082.78
198.89	2047.97
199.11	2265.05
199.33	2211.81
199.55	2072.54
199.77	2133.98
199.99	2250.72
200.21	2154.46
200.43	2301.92
200.65	2176.99
200.87	1955.81
201.09	2232.29
201.31	2217.95
201.53	2252.77
201.75	2193.37
201.97	2271.20
202.19	2248.67
202.41	2287.58
202.63	2424.80
202.85	2283.49
203.07	2228.19
203.29	2170.85
203.51	2068.45
203.73	2174.94
203.95	2543.58
204.17	2172.89
204.39	2170.85
204.61	2248.67
204.83	2152.42
205.05	2297.82
205.27	2252.77
205.49	2428.89
205.71	2256.86
205.93	2111.46
206.15	2193.37
206.37	2328.54
206.59	2277.34
206.81	2088.93
207.03	2105.31
207.25	2140.13
207.47	2381.79
207.69	2263.01
207.91	2349.02
208.13	2322.40
208.34	2193.37
208.56	2189.28
208.78	2201.57
209.00	2205.66
209.22	2199.52
209.44	2144.22
209.66	2129.89
209.88	2207.71
210.10	2263.01
210.32	2117.60
210.54	2334.68
210.76	2244.57
210.98	2340.83
211.20	2023.39
211.42	2215.90
211.64	2342.88
211.86	2295.77
212.08	2267.10
212.30	2181.09
212.52	2267.10
212.74	2275.29
212.96	2160.61
213.17	2228.19
213.39	2326.49
213.61	2416.60
213.83	2131.94
214.05	2176.99
214.27	2369.50
214.49	2176.99
214.71	2129.89
214.93	2174.94
215.15	2310.11
215.37	2267.10
215.59	2101.22
215.81	2193.37
216.03	2381.79
216.24	2258.91
216.46	2113.50
216.68	2176.99
216.90	2381.79
217.12	2338.78
217.34	2172.89
217.56	2248.67
217.78	2336.73
218.00	2306.01
218.22	2263.01
218.44	2265.05
218.66	2353.12
218.87	2402.27
219.09	2183.13
219.31	2156.51
219.53	2265.05
219.75	2265.05
219.97	2195.42
220.19	2170.85
220.41	2195.42
220.63	2385.88
220.85	2197.47
221.06	2166.75
221.28	2432.99
221.50	2318.30
221.72	2187.23
221.94	2113.50
222.16	2271.20
222.38	2334.68
222.60	2176.99
222.82	2187.23
223.03	2318.30
223.25	2170.85
223.47	2199.52
223.69	2322.40
223.91	2346.97
224.13	2310.11
224.35	2172.89
224.57	2373.60
224.78	2324.44
225.00	2099.17
225.22	2187.23
225.44	2215.90
225.66	2346.97
225.88	2158.56
226.10	2252.77
226.32	2265.05
226.53	2297.82
226.75	2213.85
226.97	2285.53
227.19	2168.80
227.41	2199.52
227.63	2129.89
227.85	2027.49
228.06	2228.19
228.28	2318.30
228.50	2342.88
228.72	2103.26
228.94	2232.29
229.16	2004.96
229.37	2125.79
229.59	2125.79
229.81	2351.07
230.03	2220.00
230.25	2099.17
230.47	2133.98
230.69	2064.35
230.90	2316.25
231.12	2156.51
231.34	2164.70
231.56	2254.81
231.78	2086.88
232.00	2193.37
232.21	2160.61
232.43	2140.13
232.65	2047.97
232.87	2224.09
233.09	2090.98
233.30	2148.32
233.52	2275.29
233.74	2267.10
233.96	2101.22
234.18	2273.25
234.40	2248.67
234.61	2461.66
234.83	2070.50
235.05	2146.27
235.27	2521.05
235.49	2381.79
235.70	2144.22
235.92	2254.81
236.14	2220.00
236.36	2441.18
236.58	2084.83
236.79	2244.57
237.01	2258.91
237.23	2187.23
237.45	2322.40
237.67	2201.57
237.88	2201.57
238.10	2385.88
238.32	2111.46
238.54	2176.99
238.76	2191.33
238.97	2084.83
239.19	2109.41
239.41	2301.92
239.63	2340.83
239.85	2209.76
240.06	2224.09
240.28	2217.95
240.50	2410.46
240.72	2252.77
240.93	2127.84
241.15	2303.96
241.37	2209.76
241.59	2383.84
241.81	2181.09
242.02	2152.42
242.24	2326.49
242.46	2398.17
242.68	2174.94
242.89	2174.94
243.11	2398.17
243.33	2228.19
243.55	2195.42
243.76	2244.57
243.98	2187.23
244.20	2330.59
244.42	2103.26
244.64	2248.67
244.85	2121.70
245.07	2148.32
245.29	2271.20
245.51	2185.18
245.72	2244.57
245.94	2365.40
246.16	2236.38
246.38	2293.72
246.59	2093.02
246.81	2205.66
247.03	2160.61
247.24	2045.92
247.46	2152.42
247.68	2273.25
247.90	2154.46
248.11	2174.94
248.33	2369.50
248.55	2201.57
248.77	2195.42
248.98	2234.33
249.20	2379.74
249.42	2189.28
249.64	2207.71
249.85	2168.80
250.07	2168.80
250.29	2267.10
250.50	2314.20
250.72	2068.45
250.94	2293.72
251.16	2424.80
251.37	2203.61
251.59	2301.92
251.81	2316.25
252.02	2400.22
252.24	2144.22
252.46	2283.49
252.68	2183.13
252.89	2238.43
253.11	2113.50
253.33	2265.05
253.54	2404.32
253.76	2152.42
253.98	2189.28
254.20	2146.27
254.41	2084.83
254.63	2189.28
254.85	2080.74
255.06	2191.33
255.28	2289.63
255.50	2250.72
255.71	2152.42
255.93	2043.87
256.15	2224.09
256.36	2349.02
256.58	2160.61
256.80	2179.04
257.02	2234.33
257.23	2195.42
257.45	2154.46
257.67	2209.76
257.88	2228.19
258.10	2269.15
258.32	2183.13
258.53	2236.38
258.75	2408.41
258.97	2113.50
259.18	2203.61
259.40	2152.42
259.62	2484.19
259.83	2385.88
260.05	2193.37
260.27	2719.70
260.48	2320.35
260.70	2088.93
260.92	2138.08
261.13	2193.37
261.35	2269.15
261.57	2246.62
261.78	2000.87
262.00	2088.93
262.22	2342.88
262.43	2185.18
262.65	2230.24
262.86	2205.66
263.08	2529.24
263.30	2162.66
263.51	2084.83
263.73	2183.13
263.95	2471.90
264.16	2164.70
264.38	2168.80
264.60	2162.66
264.81	2283.49
265.03	2312.16
265.25	2367.45
265.46	2209.76
265.68	2383.84
265.89	2328.54
266.11	2072.54
266.33	2230.24
266.54	2392.03
266.76	2297.82
266.98	2203.61
267.19	2277.34
267.41	2232.29
267.62	2252.77
267.84	2043.87
268.06	2224.09
268.27	2269.15
268.49	2396.12
268.70	2277.34
268.92	2224.09
269.14	2168.80
269.35	2068.45
269.57	2203.61
269.79	2246.62
270.00	2150.37
270.22	2449.37
270.43	2113.50
270.65	2088.93
270.87	2367.45
271.08	2308.06
271.30	2166.75
271.51	2187.23
271.73	2314.20
271.95	2455.51
272.16	2211.81
272.38	2220.00
272.59	2189.28
272.81	2326.49
273.02	2115.55
273.24	2228.19
273.46	2392.03
273.67	2154.46
273.89	2060.26
274.10	2181.09
274.32	2334.68
274.54	2260.96
274.75	2224.09
274.97	2168.80
275.18	2260.96
275.40	2326.49
275.61	2195.42
275.83	2285.53
276.05	2103.26
276.26	2279.39
276.48	2213.85
276.69	2187.23
276.91	2236.38
277.12	2428.89
277.34	2357.21
277.55	2303.96
277.77	2312.16
277.99	2193.37
278.20	2121.70
278.42	2187.23
278.63	2133.98
278.85	2156.51
279.06	2097.12
279.28	2297.82
279.49	2414.56
279.71	2344.92
279.93	2260.96
280.14	2199.52
280.36	2125.79
280.57	2365.40
280.79	2310.11
281.00	2138.08
281.22	2181.09
281.43	2287.58
281.65	2056.16
281.86	2107.36
282.08	2308.06
282.29	2402.27
282.51	2217.95
282.73	2127.84
282.94	2156.51
283.16	2269.15
283.37	2346.97
283.59	2220.00
283.80	2306.01
284.02	2281.44
284.23	2236.38
284.45	2193.37
284.66	2176.99
284.88	2172.89
285.09	2279.39
285.31	2322.40
285.52	2351.07
285.74	2129.89
285.95	2318.30
286.17	2287.58
286.38	2389.98
286.60	2191.33
286.81	2220.00
287.03	2240.48
287.24	2297.82
287.46	2283.49
287.67	2236.38
287.89	2379.74
288.10	2244.57
288.32	2228.19
288.53	2342.88
288.75	2279.39
288.96	2371.55
289.18	2181.09
289.39	2193.37
289.61	2260.96
289.82	2422.75
290.04	2439.13
290.25	2088.93
290.47	2183.13
290.68	2275.29
290.90	2342.88
291.11	2021.35
291.33	2346.97
291.54	2129.89
291.76	2211.81
291.97	2289.63
292.18	2310.11
292.40	2242.53
292.61	2187.23
292.83	2414.56
293.04	2275.29
293.26	2285.53
293.47	2215.90
293.69	2146.27
293.90	2179.04
294.12	2355.16
294.33	2289.63
294.55	2277.34
294.76	2326.49
294.97	2324.44
295.19	2451.42
295.40	2217.95
295.62	2314.20
295.83	2400.22
296.05	2129.89
296.26	2355.16
296.48	2191.33
296.69	2195.42
296.90	2199.52
297.12	2285.53
297.33	2322.40
297.55	2318.30
297.76	2273.25
297.98	2310.11
298.19	2318.30
298.41	2291.68
298.62	2211.81
298.83	2392.03
299.05	2308.06
299.26	2187.23
299.48	2215.90
299.69	2291.68
299.90	2252.77
300.12	2138.08
300.33	2320.35
300.55	2224.09
300.76	2285.53
300.98	2156.51
301.19	2238.43
301.40	2224.09
301.62	2222.05
301.83	2340.83
302.05	2248.67
302.26	2258.91
302.47	2289.63
302.69	2224.09
302.90	2275.29
303.12	2064.35
303.33	2342.88
303.54	2478.04
303.76	2228.19
303.97	2150.37
304.19	2379.74
304.40	2185.18
304.61	2236.38
304.83	2430.94
305.04	2330.59
305.26	2326.49
305.47	2205.66
305.68	2277.34
305.90	2086.88
306.11	2406.36
306.33	2295.77
306.54	2179.04
306.75	2185.18
306.97	2113.50
307.18	2220.00
307.39	2170.85
307.61	2301.92
307.82	2224.09
308.04	2342.88
308.25	2187.23
308.46	2256.86
308.68	2277.34
308.89	2234.33
309.10	2320.35
309.32	2273.25
309.53	2234.33
309.74	2267.10
309.96	2215.90
310.17	2336.73
310.39	2203.61
310.60	2310.11
310.81	2217.95
311.03	2111.46
311.24	2340.83
311.45	2230.24
311.67	2383.84
311.88	2310.11
312.09	2191.33
312.31	2224.09
312.52	2176.99
312.73	2203.61
312.95	2090.98
313.16	2138.08
313.37	2359.26
313.59	2201.57
313.80	2334.68
314.01	2414.56
314.23	2240.48
314.44	2224.09
314.65	2150.37
314.87	2152.42
315.08	2220.00
315.29	2080.74
315.51	2187.23
315.72	2117.60
315.93	2383.84
316.15	2277.34
316.36	2224.09
316.57	2287.58
316.79	2252.77
317.00	2220.00
317.21	2203.61
317.43	2224.09
317.64	2228.19
317.85	2179.04
318.07	2162.66
318.28	2256.86
318.49	2392.03
318.70	2488.28
318.92	2467.80
319.13	2482.14
319.34	2502.62
319.56	2355.16
319.77	2396.12
319.98	2400.22
320.20	2361.31
320.41	2359.26
320.62	2310.11
320.83	2179.04
321.05	2457.56
321.26	2285.53
321.47	2211.81
321.69	2367.45
321.90	2093.02
322.11	2176.99
322.32	2285.53
322.54	2445.27
322.75	2189.28
322.96	2484.19
323.18	2093.02
323.39	2103.26
323.60	2136.03
323.81	2256.86
324.03	2185.18
324.24	2297.82
324.45	2236.38
324.66	2170.85
324.88	2389.98
325.09	2437.08
325.30	2207.71
325.52	2193.37
325.73	2332.64
325.94	2211.81
326.15	2107.36
326.37	2224.09
326.58	2301.92
326.79	2420.70
327.00	2070.50
327.22	2271.20
327.43	2193.37
327.64	2154.46
327.85	2277.34
328.07	2213.85
328.28	2453.47
328.49	2252.77
328.70	2232.29
328.92	2279.39
329.13	2283.49
329.34	2269.15
329.55	2418.65
329.76	2269.15
329.98	2258.91
330.19	2400.22
330.40	2230.24
330.61	2207.71
330.83	2357.21
331.04	2148.32
331.25	2273.25
331.46	2265.05
331.68	2172.89
331.89	2416.60
332.10	2228.19
332.31	2039.78
332.52	2176.99
332.74	2488.28
332.95	2054.11
333.16	2213.85
333.37	2328.54
333.58	2267.10
333.80	2242.53
334.01	2039.78
334.22	2248.67
334.43	2199.52
334.64	2164.70
334.86	2195.42
335.07	2127.84
335.28	2392.03
335.49	2086.88
335.70	2361.31
335.92	2283.49
336.13	2492.38
336.34	2301.92
336.55	2328.54
336.76	2291.68
336.98	2078.69
337.19	2258.91
337.40	2340.83
337.61	2500.57
337.82	2154.46
338.04	2285.53
338.25	2090.98
338.46	2217.95
338.67	2271.20
338.88	2187.23
339.09	2129.89
339.31	2236.38
339.52	2031.58
339.73	2146.27
339.94	2228.19
340.15	2277.34
340.36	2226.14
340.58	2328.54
340.79	2222.05
341.00	2291.68
341.21	2133.98
341.42	2361.31
341.63	2170.85
341.85	2330.59
342.06	2199.52
342.27	2232.29
342.48	2328.54
342.69	2119.65
342.90	2250.72
343.12	2385.88
343.33	2193.37
343.54	2301.92
343.75	2482.14
343.96	2201.57
344.17	2090.98
344.38	2279.39
344.60	2152.42
344.81	2113.50
345.02	2156.51
345.23	2349.02
345.44	2490.33
345.65	2306.01
345.86	2252.77
346.07	2363.36
346.29	2172.89
346.50	2236.38
346.71	2308.06
346.92	2404.32
347.13	2482.14
347.34	2191.33
347.55	2242.53
347.76	2318.30
347.98	2093.02
348.19	2285.53
348.40	2310.11
348.61	2144.22
348.82	2410.46
349.03	2256.86
349.24	2090.98
349.45	2498.52
349.66	2068.45
349.88	2273.25
350.09	2176.99
350.30	2455.51
350.51	2375.64
350.72	2260.96
350.93	2258.91
351.14	2222.05
351.35	2236.38
351.56	2283.49
351.77	2211.81
351.99	2316.25
352.20	2404.32
352.41	2332.64
352.62	2058.21
352.83	2203.61
353.04	2244.57
353.25	2187.23
353.46	2269.15
353.67	2351.07
353.88	2088.93
354.09	2267.10
354.30	2226.14
354.52	2293.72
354.73	2197.47
354.94	2244.57
355.15	2205.66
355.36	2500.57
355.57	2189.28
355.78	2269.15
355.99	2203.61
356.20	2158.56
356.41	2367.45
356.62	2267.10
356.83	2220.00
357.04	2385.88
357.25	2101.22
357.46	2142.18
357.68	2107.36
357.89	2160.61
358.10	2203.61
358.31	2285.53
358.52	2269.15
358.73	2211.81
358.94	2170.85
359.15	2213.85
359.36	2299.87
359.57	2258.91
359.78	2201.57
359.99	2293.72
360.20	2158.56
360.41	2254.81
360.62	2412.51
360.83	2295.77
361.04	2275.29
361.25	2295.77
361.46	2318.30
361.67	2349.02
361.88	2314.20
362.09	2371.55
362.30	2203.61
362.51	2183.13
362.72	2267.10
362.93	2357.21
363.14	2303.96
363.35	2279.39
363.56	2176.99
363.78	2396.12
363.99	2383.84
364.20	2224.09
364.41	2215.90
364.62	2486.23
364.83	2318.30
365.04	2242.53
365.25	2265.05
365.46	2439.13
365.67	2217.95
365.88	2271.20
366.09	2146.27
366.30	2176.99
366.51	2273.25
366.72	2088.93
366.93	2166.75
367.14	2258.91
367.35	2432.99
367.56	2203.61
367.77	2375.64
367.98	2252.77
368.18	2289.63
368.39	2322.40
368.60	2148.32
368.81	2383.84
369.02	2240.48
369.23	2244.57
369.44	2131.94
369.65	2207.71
369.86	2306.01
370.07	2273.25
370.28	2133.98
370.49	2234.33
370.70	2324.44
370.91	2195.42
371.12	2136.03
371.33	2338.78
371.54	2297.82
371.75	2322.40
371.96	2027.49
372.17	2277.34
372.38	2226.14
372.59	2265.05
372.80	2133.98
373.01	2250.72
373.22	2269.15
373.43	2265.05
373.64	2146.27
373.85	2367.45
374.06	2494.43
374.26	2392.03
374.47	2312.16
374.68	2406.36
374.89	2273.25
375.10	2285.53
375.31	2344.92
375.52	2297.82
375.73	2301.92
375.94	2127.84
376.15	2367.45
376.36	2148.32
376.57	2189.28
376.78	2179.04
376.99	2230.24
377.20	2428.89
377.40	2201.57
377.61	2424.80
377.82	2201.57
378.03	2387.93
378.24	2383.84
378.45	2187.23
378.66	2269.15
378.87	2074.59
379.08	2123.74
379.29	2146.27
379.50	2242.53
379.71	2150.37
379.91	2299.87
380.12	2285.53
380.33	2191.33
380.54	2236.38
380.75	2267.10
380.96	2258.91
381.17	2299.87
381.38	2217.95
381.59	2306.01
381.80	2238.43
382.00	2508.76
382.21	2260.96
382.42	2377.69
382.63	2529.24
382.84	2334.68
383.05	2289.63
383.26	2389.98
383.47	2324.44
383.68	2269.15
383.88	2283.49
384.09	2308.06
384.30	2334.68
384.51	2310.11
384.72	2170.85
384.93	2060.26
385.14	2228.19
385.35	2326.49
385.55	2136.03
385.76	2412.51
385.97	2224.09
386.18	2117.60
386.39	2281.44
386.60	2226.14
386.81	2207.71
387.02	2211.81
387.22	2191.33
387.43	2334.68
387.64	2297.82
387.85	2455.51
388.06	2494.43
388.27	4016.07
388.48	8271.75
388.68	11700.05
388.89	13944.62
389.10	15169.30
389.31	13975.34
389.52	11018.07
389.73	9414.51
389.93	8642.43
390.14	7995.27
390.35	7169.94
390.56	6432.67
390.77	5267.38
390.98	3987.40
391.18	3213.26
391.39	2748.37
391.60	2330.59
391.81	2371.55
392.02	2260.96
392.23	2504.67
392.43	2363.36
392.64	2422.75
392.85	2275.29
393.06	2463.71
393.27	2351.07
393.47	2170.85
393.68	2236.38
393.89	2140.13
394.10	2355.16
394.31	2156.51
394.52	2154.46
394.72	2258.91
394.93	2381.79
395.14	2144.22
395.35	2254.81
395.56	2217.95
395.76	2287.58
395.97	2332.64
396.18	2361.31
396.39	2334.68
396.60	2736.09
396.80	2488.28
397.01	2400.22
397.22	2418.65
397.43	2387.93
397.64	2207.71
397.84	2375.64
398.05	2482.14
398.26	2220.00
398.47	2310.11
398.67	2299.87
398.88	2277.34
399.09	2285.53
399.30	2197.47
399.51	2297.82
399.71	2131.94
399.92	2269.15
400.13	2269.15
400.34	2199.52
400.54	2320.35
400.75	2432.99
400.96	2277.34
401.17	2400.22
401.37	2365.40
401.58	2342.88
401.79	2254.81
402.00	2316.25
402.21	2703.32
402.41	2514.91
402.62	2539.48
402.83	2703.32
403.04	2680.79
403.24	2746.33
403.45	2396.12
403.66	2498.52
403.87	2422.75
404.07	2527.19
404.28	2523.10
404.49	2541.53
404.70	2404.32
404.90	2318.30
405.11	2295.77
405.32	2283.49
405.52	2226.14
405.73	2170.85
405.94	2162.66
406.15	2277.34
406.35	2310.11
406.56	2252.77
406.77	2267.10
406.98	2297.82
407.18	2170.85
407.39	2435.03
407.60	2234.33
407.80	2283.49
408.01	2244.57
408.22	2336.73
408.43	2138.08
408.63	2326.49
408.84	2236.38
409.05	2359.26
409.25	2166.75
409.46	2111.46
409.67	2195.42
409.88	2252.77
410.08	2301.92
410.29	2201.57
410.50	2330.59
410.70	2295.77
410.91	2234.33
411.12	2275.29
411.32	2179.04
411.53	2209.76
411.74	2287.58
411.95	2340.83
412.15	2297.82
412.36	2310.11
412.57	2238.43
412.77	2269.15
412.98	2248.67
413.19	2334.68
413.39	2279.39
413.60	2244.57
413.81	2402.27
414.01	2199.52
414.22	2314.20
414.43	2371.55
414.63	2254.81
414.84	2396.12
415.05	2338.78
415.25	2131.94
415.46	2330.59
415.67	2217.95
415.87	2232.29
416.08	2267.10
416.29	2199.52
416.49	2322.40
416.70	2275.29
416.91	2265.05
417.11	2213.85
417.32	2330.59
417.53	2369.50
417.73	2314.20
417.94	2187.23
418.15	2338.78
418.35	2234.33
418.56	2306.01
418.77	2482.14
418.97	2181.09
419.18	2217.95
419.38	1988.58
419.59	2211.81
419.80	2410.46
420.00	2232.29
420.21	2215.90
420.42	2357.21
420.62	2260.96
420.83	2230.24
421.04	2209.76
421.24	2224.09
421.45	2332.64
421.65	2287.58
421.86	2258.91
422.07	2375.64
422.27	2342.88
422.48	2183.13
422.69	2099.17
422.89	2248.67
423.10	2199.52
423.30	2119.65
423.51	2283.49
423.72	2267.10
423.92	2402.27
424.13	2076.64
424.33	2287.58
424.54	2310.11
424.75	2273.25
424.95	2533.34
425.16	2265.05
425.36	2258.91
425.57	2320.35
425.78	2332.64
425.98	2316.25
426.19	2195.42
426.39	2179.04
426.60	2318.30
426.81	2385.88
427.01	2265.05
427.22	2228.19
427.42	2136.03
427.63	2154.46
427.83	2342.88
428.04	2381.79
428.25	2340.83
428.45	2383.84
428.66	2351.07
428.86	2211.81
429.07	2289.63
429.28	2242.53
429.48	2252.77
429.69	2170.85
429.89	2252.77
430.10	2131.94
430.30	2336.73
430.51	2375.64
430.71	2226.14
430.92	2230.24
431.13	2195.42
431.33	2334.68
431.54	2277.34
431.74	2410.46
431.95	2555.86
432.15	2084.83
432.36	2271.20
432.56	2303.96
432.77	2523.10
432.98	2410.46
433.18	2228.19
433.39	2213.85
433.59	2220.00
433.80	2445.27
434.00	2453.47
434.21	2213.85
434.41	2142.18
434.62	2521.05
434.82	2086.88
435.03	2187.23
435.23	2242.53
435.44	2138.08
435.64	2344.92
435.85	2303.96
436.06	2277.34
436.26	2381.79
436.47	2242.53
436.67	2232.29
436.88	2215.90
437.08	2387.93
437.29	2437.08
437.49	2371.55
437.70	2381.79
437.90	2193.37
438.11	2459.61
438.31	2281.44
438.52	2482.14
438.72	2383.84
438.93	2568.15
439.13	2326.49
439.34	2392.03
439.54	2213.85
439.75	2412.51
439.95	2303.96
440.16	2193.37
440.36	2289.63
440.57	2389.98
440.77	2310.11
440.98	2269.15
441.18	2359.26
441.39	2187.23
441.59	2084.83
441.80	2461.66
442.00	2289.63
442.21	2322.40
442.41	2146.27
442.62	2381.79
442.82	2226.14
443.02	2297.82
443.23	2289.63
443.43	2301.92
443.64	2320.35
443.84	2258.91
444.05	2385.88
444.25	2314.20
444.46	2252.77
444.66	2238.43
444.87	2432.99
445.07	2093.02
445.28	2265.05
445.48	2318.30
445.69	2322.40
445.89	2461.66
446.09	2383.84
446.30	2559.96
446.50	2826.20
446.71	4284.35
446.91	5611.43
447.12	6313.89
447.32	6772.63
447.53	6240.16
447.73	5232.56
447.93	4460.48
448.14	4267.97
448.34	3975.11
448.55	3596.23
448.75	3499.98
448.96	3407.82
449.16	3045.33
449.36	2895.83
449.57	2539.48
449.77	2269.15
449.98	2269.15
450.18	2318.30
450.39	2260.96
450.59	2351.07
450.79	2176.99
451.00	2197.47
451.20	2291.68
451.41	2318.30
451.61	2340.83
451.81	2279.39
452.02	2226.14
452.22	2248.67
452.43	2244.57
452.63	2201.57
