SpectraSuite Data File
++++++++++++++++++++++++++++++++++++
Date: Thu May 05 13:21:13 CEST 2016
User: root
Dark Spectrum Present: No
Reference Spectrum Present: No
Number of Sampled Component Spectra: 1
Spectrometers: USB4C02835
Integration Time (usec): 100000 (USB4C02835)
Spectra Averaged: 1 (USB4C02835)
Boxcar Smoothing: 0 (USB4C02835)
Correct for Electrical Dark: No (USB4C02835)
Strobe/Lamp Enabled: No (USB4C02835)
Correct for Detector Non-linearity: No (USB4C02835)
Correct for Stray Light: No (USB4C02835)
Number of Pixels in Processed Spectrum: 3648
>>>>>Begin Processed Spectral Data<<<<<
177.47	1736.68
177.69	1736.68
177.91	1736.68
178.13	1820.64
178.36	1742.82
178.58	2209.76
178.80	2232.29
179.02	2121.70
179.24	2123.74
179.46	2166.75
179.68	2220.00
179.90	2269.15
180.13	2277.34
180.35	2082.78
180.57	2158.56
180.79	2385.88
181.01	2250.72
181.23	2211.81
181.45	2301.92
181.67	2277.34
181.90	2328.54
182.12	2170.85
182.34	2097.12
182.56	2291.68
182.78	2258.91
183.00	2199.52
183.22	2244.57
183.44	2047.97
183.66	2480.09
183.89	2318.30
184.11	2174.94
184.33	2301.92
184.55	2359.26
184.77	2154.46
184.99	2152.42
185.21	2183.13
185.43	2498.52
185.65	2164.70
185.87	2109.41
186.10	2435.03
186.32	2496.47
186.54	2228.19
186.76	2269.15
186.98	2295.77
187.20	2269.15
187.42	2162.66
187.64	2265.05
187.86	2314.20
188.08	2404.32
188.30	2076.64
188.52	2129.89
188.75	2349.02
188.97	2334.68
189.19	2142.18
189.41	2179.04
189.63	2267.10
189.85	2248.67
190.07	2037.73
190.29	2043.87
190.51	2285.53
190.73	2228.19
190.95	2308.06
191.17	2170.85
191.39	2131.94
191.61	2189.28
191.84	2170.85
192.06	2306.01
192.28	2136.03
192.50	2531.29
192.72	2211.81
192.94	2185.18
193.16	2432.99
193.38	2293.72
193.60	2133.98
193.82	2209.76
194.04	2404.32
194.26	2285.53
194.48	2193.37
194.70	2136.03
194.92	2181.09
195.14	2322.40
195.36	2217.95
195.58	2246.62
195.80	2291.68
196.02	2230.24
196.24	2150.37
196.46	2199.52
196.69	2228.19
196.91	2523.10
197.13	2201.57
197.35	2146.27
197.57	2412.51
197.79	2312.16
198.01	2281.44
198.23	2254.81
198.45	2277.34
198.67	2076.64
198.89	2086.88
199.11	2303.96
199.33	2211.81
199.55	2060.26
199.77	2181.09
199.99	2283.49
200.21	2160.61
200.43	2203.61
200.65	2052.06
200.87	2062.30
201.09	2256.86
201.31	2162.66
201.53	2176.99
201.75	2291.68
201.97	2330.59
202.19	2205.66
202.41	2234.33
202.63	2344.92
202.85	2306.01
203.07	2224.09
203.29	2181.09
203.51	2084.83
203.73	2170.85
203.95	2529.24
204.17	2136.03
204.39	2232.29
204.61	2193.37
204.83	2213.85
205.05	2189.28
205.27	2220.00
205.49	2498.52
205.71	2316.25
205.93	2129.89
206.15	2129.89
206.37	2166.75
206.59	2250.72
206.81	2138.08
207.03	2031.58
207.25	2111.46
207.47	2293.72
207.69	2207.71
207.91	2306.01
208.13	2408.41
208.34	2189.28
208.56	2133.98
208.78	2174.94
209.00	2254.81
209.22	2201.57
209.44	2228.19
209.66	2117.60
209.88	2271.20
210.10	2265.05
210.32	2156.51
210.54	2220.00
210.76	2267.10
210.98	2312.16
211.20	2076.64
211.42	2224.09
211.64	2351.07
211.86	2293.72
212.08	2176.99
212.30	2205.66
212.52	2207.71
212.74	2275.29
212.96	2248.67
213.17	2308.06
213.39	2258.91
213.61	2424.80
213.83	2138.08
214.05	2170.85
214.27	2357.21
214.49	2136.03
214.71	2195.42
214.93	2318.30
215.15	2258.91
215.37	2281.44
215.59	2111.46
215.81	2269.15
216.03	2400.22
216.24	2285.53
216.46	2209.76
216.68	2265.05
216.90	2316.25
217.12	2369.50
217.34	2220.00
217.56	2220.00
217.78	2430.94
218.00	2349.02
218.22	2224.09
218.44	2217.95
218.66	2250.72
218.87	2478.04
219.09	2189.28
219.31	2240.48
219.53	2240.48
219.75	2220.00
219.97	2228.19
220.19	2220.00
220.41	2287.58
220.63	2437.08
220.85	2277.34
221.06	2183.13
221.28	2357.21
221.50	2254.81
221.72	2271.20
221.94	2162.66
222.16	2213.85
222.38	2344.92
222.60	2232.29
222.82	2146.27
223.03	2424.80
223.25	2183.13
223.47	2183.13
223.69	2314.20
223.91	2392.03
224.13	2306.01
224.35	2127.84
224.57	2265.05
224.78	2217.95
225.00	2168.80
225.22	2232.29
225.44	2152.42
225.66	2330.59
225.88	2254.81
226.10	2263.01
226.32	2160.61
226.53	2375.64
226.75	2174.94
226.97	2203.61
227.19	2195.42
227.41	2176.99
227.63	2162.66
227.85	2004.96
228.06	2209.76
228.28	2367.45
228.50	2285.53
228.72	2103.26
228.94	2179.04
229.16	2052.06
229.37	2148.32
229.59	2179.04
229.81	2334.68
230.03	2209.76
230.25	2117.60
230.47	1966.05
230.69	2148.32
230.90	2342.88
231.12	2211.81
231.34	2220.00
231.56	2361.31
231.78	2115.55
232.00	2291.68
232.21	2166.75
232.43	2203.61
232.65	2076.64
232.87	2275.29
233.09	2099.17
233.30	2136.03
233.52	2349.02
233.74	2203.61
233.96	2191.33
234.18	2263.01
234.40	2263.01
234.61	2473.95
234.83	2072.54
235.05	2072.54
235.27	2482.14
235.49	2375.64
235.70	2193.37
235.92	2258.91
236.14	2279.39
236.36	2537.43
236.58	2064.35
236.79	2185.18
237.01	2316.25
237.23	2189.28
237.45	2330.59
237.67	2176.99
237.88	2285.53
238.10	2496.47
238.32	2084.83
238.54	2185.18
238.76	2183.13
238.97	2170.85
239.19	2099.17
239.41	2238.43
239.63	2299.87
239.85	2260.96
240.06	2162.66
240.28	2150.37
240.50	2400.22
240.72	2228.19
240.93	2144.22
241.15	2228.19
241.37	2291.68
241.59	2367.45
241.81	2185.18
242.02	2144.22
242.24	2244.57
242.46	2340.83
242.68	2133.98
242.89	2174.94
243.11	2318.30
243.33	2291.68
243.55	2164.70
243.76	2207.71
243.98	2191.33
244.20	2287.58
244.42	2127.84
244.64	2140.13
244.85	2154.46
245.07	2176.99
245.29	2213.85
245.51	2226.14
245.72	2263.01
245.94	2373.60
246.16	2252.77
246.38	2306.01
246.59	2224.09
246.81	2080.74
247.03	2138.08
247.24	2113.50
247.46	2154.46
247.68	2222.05
247.90	2117.60
248.11	2123.74
248.33	2291.68
248.55	2162.66
248.77	2142.18
248.98	2244.57
249.20	2490.33
249.42	2297.82
249.64	2140.13
249.85	2179.04
250.07	2211.81
250.29	2330.59
250.50	2277.34
250.72	2068.45
250.94	2318.30
251.16	2404.32
251.37	2158.56
251.59	2199.52
251.81	2248.67
252.02	2394.08
252.24	2105.31
252.46	2244.57
252.68	2179.04
252.89	2197.47
253.11	2062.30
253.33	2371.55
253.54	2342.88
253.76	2146.27
253.98	2148.32
254.20	2136.03
254.41	2117.60
254.63	2281.44
254.85	2039.78
255.06	2220.00
255.28	2267.10
255.50	2299.87
255.71	2111.46
255.93	2131.94
256.15	2215.90
256.36	2318.30
256.58	2154.46
256.80	2176.99
257.02	2213.85
257.23	2166.75
257.45	2162.66
257.67	2318.30
257.88	2150.37
258.10	2308.06
258.32	2154.46
258.53	2185.18
258.75	2478.04
258.97	2199.52
259.18	2197.47
259.40	2238.43
259.62	2455.51
259.83	2342.88
260.05	2170.85
260.27	2623.45
260.48	2371.55
260.70	2109.41
260.92	2068.45
261.13	2162.66
261.35	2318.30
261.57	2359.26
261.78	2133.98
262.00	2129.89
262.22	2285.53
262.43	2117.60
262.65	2242.53
262.86	2209.76
263.08	2449.37
263.30	2269.15
263.51	2015.20
263.73	2086.88
263.95	2340.83
264.16	2187.23
264.38	2084.83
264.60	2226.14
264.81	2293.72
265.03	2353.12
265.25	2324.44
265.46	2133.98
265.68	2408.41
265.89	2314.20
266.11	2152.42
266.33	2162.66
266.54	2291.68
266.76	2230.24
266.98	2248.67
267.19	2310.11
267.41	2363.36
267.62	2281.44
267.84	2068.45
268.06	2236.38
268.27	2156.51
268.49	2375.64
268.70	2299.87
268.92	2226.14
269.14	2164.70
269.35	2117.60
269.57	2189.28
269.79	2269.15
270.00	2148.32
270.22	2523.10
270.43	2150.37
270.65	2037.73
270.87	2312.16
271.08	2328.54
271.30	2187.23
271.51	2170.85
271.73	2334.68
271.95	2379.74
272.16	2164.70
272.38	2265.05
272.59	2131.94
272.81	2308.06
273.02	2258.91
273.24	2217.95
273.46	2338.78
273.67	2166.75
273.89	2103.26
274.10	2160.61
274.32	2389.98
274.54	2301.92
274.75	2265.05
274.97	2080.74
275.18	2295.77
275.40	2346.97
275.61	2160.61
275.83	2236.38
276.05	2121.70
276.26	2271.20
276.48	2168.80
276.69	2230.24
276.91	2263.01
277.12	2359.26
277.34	2283.49
277.55	2387.93
277.77	2340.83
277.99	2211.81
278.20	2213.85
278.42	2105.31
278.63	2162.66
278.85	2086.88
279.06	2121.70
279.28	2242.53
279.49	2351.07
279.71	2394.08
279.93	2205.66
280.14	2310.11
280.36	2176.99
280.57	2412.51
280.79	2256.86
281.00	2113.50
281.22	2220.00
281.43	2322.40
281.65	2015.20
281.86	2152.42
282.08	2277.34
282.29	2441.18
282.51	2187.23
282.73	2115.55
282.94	2127.84
283.16	2250.72
283.37	2357.21
283.59	2252.77
283.80	2324.44
284.02	2207.71
284.23	2244.57
284.45	2185.18
284.66	2174.94
284.88	2127.84
285.09	2277.34
285.31	2207.71
285.52	2244.57
285.74	2072.54
285.95	2318.30
286.17	2271.20
286.38	2392.03
286.60	2193.37
286.81	2088.93
287.03	2158.56
287.24	2244.57
287.46	2324.44
287.67	2220.00
287.89	2435.03
288.10	2217.95
288.32	2263.01
288.53	2332.64
288.75	2289.63
288.96	2293.72
289.18	2209.76
289.39	2203.61
289.61	2285.53
289.82	2502.62
290.04	2422.75
290.25	2078.69
290.47	2179.04
290.68	2273.25
290.90	2398.17
291.11	2105.31
291.33	2412.51
291.54	2133.98
291.76	2201.57
291.97	2283.49
292.18	2248.67
292.40	2197.47
292.61	2138.08
292.83	2437.08
293.04	2318.30
293.26	2254.81
293.47	2267.10
293.69	2166.75
293.90	2162.66
294.12	2449.37
294.33	2222.05
294.55	2220.00
294.76	2260.96
294.97	2410.46
295.19	2519.00
295.40	2230.24
295.62	2238.43
295.83	2342.88
296.05	2191.33
296.26	2310.11
296.48	2226.14
296.69	2183.13
296.90	2273.25
297.12	2310.11
297.33	2371.55
297.55	2289.63
297.76	2242.53
297.98	2289.63
298.19	2256.86
298.41	2285.53
298.62	2127.84
298.83	2418.65
299.05	2238.43
299.26	2176.99
299.48	2244.57
299.69	2203.61
299.90	2181.09
300.12	2121.70
300.33	2369.50
300.55	2234.33
300.76	2256.86
300.98	2203.61
301.19	2301.92
301.40	2176.99
301.62	2211.81
301.83	2207.71
302.05	2250.72
302.26	2193.37
302.47	2246.62
302.69	2095.07
302.90	2224.09
303.12	2093.02
303.33	2332.64
303.54	2521.05
303.76	2191.33
303.97	2236.38
304.19	2414.56
304.40	2144.22
304.61	2301.92
304.83	2392.03
305.04	2322.40
305.26	2263.01
305.47	2224.09
305.68	2195.42
305.90	2148.32
306.11	2377.69
306.33	2285.53
306.54	2203.61
306.75	2166.75
306.97	2117.60
307.18	2140.13
307.39	2244.57
307.61	2346.97
307.82	2293.72
308.04	2310.11
308.25	2207.71
308.46	2205.66
308.68	2287.58
308.89	2295.77
309.10	2379.74
309.32	2275.29
309.53	2275.29
309.74	2283.49
309.96	2281.44
310.17	2342.88
310.39	2277.34
310.60	2340.83
310.81	2176.99
311.03	2095.07
311.24	2324.44
311.45	2283.49
311.67	2412.51
311.88	2303.96
312.09	2269.15
312.31	2168.80
312.52	2199.52
312.73	2191.33
312.95	2166.75
313.16	2072.54
313.37	2351.07
313.59	2285.53
313.80	2342.88
314.01	2412.51
314.23	2164.70
314.44	2127.84
314.65	2209.76
314.87	2150.37
315.08	2228.19
315.29	2236.38
315.51	2121.70
315.72	2080.74
315.93	2281.44
316.15	2297.82
316.36	2246.62
316.57	2301.92
316.79	2185.18
317.00	2168.80
317.21	2346.97
317.43	2226.14
317.64	2252.77
317.85	2146.27
318.07	2195.42
318.28	2238.43
318.49	2312.16
318.70	2449.37
318.92	2310.11
319.13	2361.31
319.34	2506.71
319.56	2353.12
319.77	2295.77
319.98	2375.64
320.20	2351.07
320.41	2359.26
320.62	2293.72
320.83	2174.94
321.05	2461.66
321.26	2263.01
321.47	2250.72
321.69	2430.94
321.90	2138.08
322.11	2144.22
322.32	2381.79
322.54	2373.60
322.75	2228.19
322.96	2527.19
323.18	2133.98
323.39	2119.65
323.60	2215.90
323.81	2324.44
324.03	2252.77
324.24	2203.61
324.45	2246.62
324.66	2209.76
324.88	2334.68
325.09	2359.26
325.30	2201.57
325.52	2281.44
325.73	2246.62
325.94	2150.37
326.15	2062.30
326.37	2148.32
326.58	2293.72
326.79	2445.27
327.00	2117.60
327.22	2271.20
327.43	2160.61
327.64	2154.46
327.85	2269.15
328.07	2269.15
328.28	2328.54
328.49	2150.37
328.70	2252.77
328.92	2248.67
329.13	2181.09
329.34	2306.01
329.55	2351.07
329.76	2428.89
329.98	2340.83
330.19	2398.17
330.40	2254.81
330.61	2273.25
330.83	2355.16
331.04	2179.04
331.25	2168.80
331.46	2238.43
331.68	2113.50
331.89	2318.30
332.10	2314.20
332.31	2152.42
332.52	2359.26
332.74	2338.78
332.95	2039.78
333.16	2183.13
333.37	2301.92
333.58	2154.46
333.80	2211.81
334.01	2056.16
334.22	2349.02
334.43	2160.61
334.64	2246.62
334.86	2082.78
335.07	2129.89
335.28	2422.75
335.49	2109.41
335.70	2277.34
335.92	2414.56
336.13	2506.71
336.34	2306.01
336.55	2244.57
336.76	2342.88
336.98	2119.65
337.19	2209.76
337.40	2295.77
337.61	2531.29
337.82	2172.89
338.04	2269.15
338.25	2105.31
338.46	2217.95
338.67	2191.33
338.88	2160.61
339.09	2170.85
339.31	2154.46
339.52	2088.93
339.73	2166.75
339.94	2285.53
340.15	2342.88
340.36	2203.61
340.58	2275.29
340.79	2076.64
341.00	2383.84
341.21	2121.70
341.42	2373.60
341.63	2238.43
341.85	2314.20
342.06	2301.92
342.27	2162.66
342.48	2285.53
342.69	2162.66
342.90	2285.53
343.12	2234.33
343.33	2168.80
343.54	2404.32
343.75	2394.08
343.96	2244.57
344.17	2201.57
344.38	2244.57
344.60	2187.23
344.81	2160.61
345.02	2207.71
345.23	2373.60
345.44	2578.39
345.65	2310.11
345.86	2328.54
346.07	2248.67
346.29	2244.57
346.50	2279.39
346.71	2179.04
346.92	2404.32
347.13	2484.19
347.34	2166.75
347.55	2170.85
347.76	2291.68
347.98	2125.79
348.19	2236.38
348.40	2441.18
348.61	2185.18
348.82	2371.55
349.03	2236.38
349.24	2234.33
349.45	2514.91
349.66	2050.02
349.88	2199.52
350.09	2121.70
350.30	2392.03
350.51	2412.51
350.72	2283.49
350.93	2310.11
351.14	2170.85
351.35	2263.01
351.56	2275.29
351.77	2201.57
351.99	2293.72
352.20	2455.51
352.41	2308.06
352.62	2062.30
352.83	2283.49
353.04	2314.20
353.25	2160.61
353.46	2324.44
353.67	2328.54
353.88	2070.50
354.09	2244.57
354.30	2164.70
354.52	2346.97
354.73	2217.95
354.94	2170.85
355.15	2230.24
355.36	2473.95
355.57	2156.51
355.78	2267.10
355.99	2185.18
356.20	2183.13
356.41	2373.60
356.62	2324.44
356.83	2213.85
357.04	2357.21
357.25	2043.87
357.46	2160.61
357.68	2041.82
357.89	2133.98
358.10	2176.99
358.31	2297.82
358.52	2242.53
358.73	2201.57
358.94	2105.31
359.15	2133.98
359.36	2310.11
359.57	2338.78
359.78	2228.19
359.99	2336.73
360.20	2133.98
360.41	2310.11
360.62	2396.12
360.83	2234.33
361.04	2291.68
361.25	2260.96
361.46	2408.41
361.67	2326.49
361.88	2230.24
362.09	2404.32
362.30	2351.07
362.51	2193.37
362.72	2279.39
362.93	2351.07
363.14	2316.25
363.35	2281.44
363.56	2121.70
363.78	2398.17
363.99	2351.07
364.20	2242.53
364.41	2285.53
364.62	2527.19
364.83	2297.82
365.04	2099.17
365.25	2248.67
365.46	2539.48
365.67	2250.72
365.88	2187.23
366.09	2152.42
366.30	2152.42
366.51	2299.87
366.72	2144.22
366.93	2185.18
367.14	2306.01
367.35	2416.60
367.56	2242.53
367.77	2412.51
367.98	2283.49
368.18	2314.20
368.39	2281.44
368.60	2183.13
368.81	2357.21
369.02	2287.58
369.23	2244.57
369.44	2125.79
369.65	2213.85
369.86	2306.01
370.07	2381.79
370.28	2156.51
370.49	2346.97
370.70	2306.01
370.91	2203.61
371.12	2119.65
371.33	2351.07
371.54	2158.56
371.75	2355.16
371.96	1996.77
372.17	2344.92
372.38	2195.42
372.59	2265.05
372.80	2222.05
373.01	2287.58
373.22	2269.15
373.43	2187.23
373.64	2166.75
373.85	2371.55
374.06	2492.38
374.26	2336.73
374.47	2263.01
374.68	2367.45
374.89	2312.16
375.10	2226.14
375.31	2334.68
375.52	2269.15
375.73	2318.30
375.94	2109.41
376.15	2373.60
376.36	2160.61
376.57	2203.61
376.78	2164.70
376.99	2258.91
377.20	2359.26
377.40	2199.52
377.61	2322.40
377.82	2160.61
378.03	2447.32
378.24	2306.01
378.45	2244.57
378.66	2258.91
378.87	2123.74
379.08	2193.37
379.29	2168.80
379.50	2303.96
379.71	2236.38
379.91	2340.83
380.12	2250.72
380.33	2191.33
380.54	2201.57
380.75	2301.92
380.96	2203.61
381.17	2246.62
381.38	2277.34
381.59	2275.29
381.80	2234.33
382.00	2455.51
382.21	2306.01
382.42	2422.75
382.63	2559.96
382.84	2318.30
383.05	2398.17
383.26	2437.08
383.47	2244.57
383.68	2265.05
383.88	2324.44
384.09	2301.92
384.30	2375.64
384.51	2285.53
384.72	2269.15
384.93	2125.79
385.14	2230.24
385.35	2367.45
385.55	2119.65
385.76	2383.84
385.97	2269.15
386.18	2101.22
386.39	2236.38
386.60	2203.61
386.81	2183.13
387.02	2158.56
387.22	2068.45
387.43	2326.49
387.64	2312.16
387.85	2424.80
388.06	2469.85
388.27	3979.20
388.48	8148.87
388.68	11618.13
388.89	13766.45
389.10	14954.27
389.31	13952.81
389.52	10850.14
389.73	9281.39
389.93	8525.69
390.14	7849.86
390.35	6975.38
390.56	6428.57
390.77	5126.07
390.98	3882.95
391.18	3198.93
391.39	2801.62
391.60	2367.45
391.81	2293.72
392.02	2244.57
392.23	2531.29
392.43	2269.15
392.64	2346.97
392.85	2301.92
393.06	2457.56
393.27	2248.67
393.47	2201.57
393.68	2256.86
393.89	2187.23
394.10	2406.36
394.31	2193.37
394.52	2172.89
394.72	2146.27
394.93	2447.32
395.14	2170.85
395.35	2232.29
395.56	2072.54
395.76	2322.40
395.97	2318.30
396.18	2301.92
396.39	2369.50
396.60	2723.80
396.80	2459.61
397.01	2387.93
397.22	2441.18
397.43	2463.71
397.64	2199.52
397.84	2289.63
398.05	2578.39
398.26	2281.44
398.47	2398.17
398.67	2408.41
398.88	2351.07
399.09	2271.20
399.30	2193.37
399.51	2263.01
399.71	2136.03
399.92	2187.23
400.13	2310.11
400.34	2283.49
400.54	2252.77
400.75	2435.03
400.96	2269.15
401.17	2430.94
401.37	2361.31
401.58	2293.72
401.79	2131.94
402.00	2308.06
402.21	2678.74
402.41	2572.25
402.62	2592.73
402.83	2715.61
403.04	2660.31
403.24	2799.57
403.45	2318.30
403.66	2486.23
403.87	2455.51
404.07	2551.77
404.28	2502.62
404.49	2439.13
404.70	2383.84
404.90	2416.60
405.11	2299.87
405.32	2338.78
405.52	2220.00
405.73	2199.52
405.94	2187.23
406.15	2236.38
406.35	2363.36
406.56	2359.26
406.77	2265.05
406.98	2234.33
407.18	2138.08
407.39	2443.23
407.60	2211.81
407.80	2357.21
408.01	2217.95
408.22	2285.53
408.43	2185.18
408.63	2306.01
408.84	2310.11
409.05	2412.51
409.25	2172.89
409.46	2111.46
409.67	2203.61
409.88	2207.71
410.08	2213.85
410.29	2195.42
410.50	2289.63
410.70	2297.82
410.91	2236.38
411.12	2238.43
411.32	2279.39
411.53	2203.61
411.74	2410.46
411.95	2349.02
412.15	2326.49
412.36	2410.46
412.57	2342.88
412.77	2367.45
412.98	2254.81
413.19	2279.39
413.39	2332.64
413.60	2252.77
413.81	2389.98
414.01	2183.13
414.22	2318.30
414.43	2328.54
414.63	2254.81
414.84	2297.82
415.05	2183.13
415.25	2115.55
415.46	2303.96
415.67	2240.48
415.87	2273.25
416.08	2207.71
416.29	2242.53
416.49	2310.11
416.70	2191.33
416.91	2226.14
417.11	2187.23
417.32	2367.45
417.53	2365.40
417.73	2283.49
417.94	2209.76
418.15	2248.67
418.35	2273.25
418.56	2226.14
418.77	2541.53
418.97	2379.74
419.18	2295.77
419.38	2011.11
419.59	2301.92
419.80	2459.61
420.00	2228.19
420.21	2279.39
420.42	2381.79
420.62	2211.81
420.83	2166.75
421.04	2179.04
421.24	2250.72
421.45	2349.02
421.65	2295.77
421.86	2232.29
422.07	2324.44
422.27	2326.49
422.48	2203.61
422.69	2129.89
422.89	2269.15
423.10	2256.86
423.30	2168.80
423.51	2263.01
423.72	2222.05
423.92	2400.22
424.13	2127.84
424.33	2230.24
424.54	2285.53
424.75	2318.30
424.95	2361.31
425.16	2303.96
425.36	2207.71
425.57	2381.79
425.78	2318.30
425.98	2291.68
426.19	2230.24
426.39	2232.29
426.60	2232.29
426.81	2351.07
427.01	2293.72
427.22	2142.18
427.42	2097.12
427.63	2113.50
427.83	2334.68
428.04	2459.61
428.25	2408.41
428.45	2287.58
428.66	2375.64
428.86	2234.33
429.07	2201.57
429.28	2326.49
429.48	2320.35
429.69	2152.42
429.89	2283.49
430.10	2123.74
430.30	2316.25
430.51	2361.31
430.71	2220.00
430.92	2217.95
431.13	2222.05
431.33	2228.19
431.54	2355.16
431.74	2404.32
431.95	2441.18
432.15	2244.57
432.36	2322.40
432.56	2312.16
432.77	2535.39
432.98	2463.71
433.18	2283.49
433.39	2240.48
433.59	2195.42
433.80	2441.18
434.00	2496.47
434.21	2187.23
434.41	2095.07
434.62	2600.92
434.82	2205.66
435.03	2111.46
435.23	2357.21
435.44	2095.07
435.64	2220.00
435.85	2334.68
436.06	2381.79
436.26	2361.31
436.47	2254.81
436.67	2224.09
436.88	2273.25
437.08	2414.56
437.29	2396.12
437.49	2275.29
437.70	2455.51
437.90	2236.38
438.11	2422.75
438.31	2322.40
438.52	2523.10
438.72	2428.89
438.93	2588.63
439.13	2287.58
439.34	2383.84
439.54	2281.44
439.75	2277.34
439.95	2340.83
440.16	2222.05
440.36	2246.62
440.57	2269.15
440.77	2301.92
440.98	2224.09
441.18	2338.78
441.39	2187.23
441.59	2154.46
441.80	2512.86
442.00	2275.29
442.21	2375.64
442.41	2037.73
442.62	2387.93
442.82	2168.80
443.02	2193.37
443.23	2330.59
443.43	2220.00
443.64	2375.64
443.84	2215.90
444.05	2385.88
444.25	2230.24
444.46	2269.15
444.66	2289.63
444.87	2496.47
445.07	2072.54
445.28	2176.99
445.48	2365.40
445.69	2334.68
445.89	2449.37
446.09	2273.25
446.30	2553.82
446.50	2756.57
446.71	4493.24
446.91	5590.95
447.12	6289.31
447.32	6758.30
447.53	6162.34
447.73	5132.21
447.93	4493.24
448.14	4231.10
448.34	4030.40
448.55	3555.27
448.75	3536.84
448.96	3354.57
449.16	3039.19
449.36	2920.40
449.57	2521.05
449.77	2467.80
449.98	2267.10
450.18	2383.84
450.39	2355.16
450.59	2408.41
450.79	2340.83
451.00	2252.77
451.20	2338.78
451.41	2301.92
451.61	2281.44
451.81	2297.82
452.02	2203.61
452.22	2195.42
452.43	2201.57
452.63	2131.94
