SpectraSuite Data File
++++++++++++++++++++++++++++++++++++
Date: Thu May 05 13:20:42 CEST 2016
User: root
Dark Spectrum Present: No
Reference Spectrum Present: No
Number of Sampled Component Spectra: 1
Spectrometers: USB4C02835
Integration Time (usec): 100000 (USB4C02835)
Spectra Averaged: 1 (USB4C02835)
Boxcar Smoothing: 0 (USB4C02835)
Correct for Electrical Dark: No (USB4C02835)
Strobe/Lamp Enabled: No (USB4C02835)
Correct for Detector Non-linearity: No (USB4C02835)
Correct for Stray Light: No (USB4C02835)
Number of Pixels in Processed Spectrum: 3648
>>>>>Begin Processed Spectral Data<<<<<
177.47	1812.45
177.69	1812.45
177.91	1812.45
178.13	1802.21
178.36	1785.83
178.58	2131.94
178.80	2301.92
179.02	2168.80
179.24	2142.18
179.46	2207.71
179.68	2209.76
179.90	2293.72
180.13	2240.48
180.35	2111.46
180.57	2129.89
180.79	2303.96
181.01	2267.10
181.23	2129.89
181.45	2320.35
181.67	2236.38
181.90	2424.80
182.12	2099.17
182.34	2027.49
182.56	2310.11
182.78	2285.53
183.00	2156.51
183.22	2148.32
183.44	2144.22
183.66	2492.38
183.89	2297.82
184.11	2236.38
184.33	2260.96
184.55	2346.97
184.77	2195.42
184.99	2160.61
185.21	2133.98
185.43	2455.51
185.65	2158.56
185.87	2166.75
186.10	2498.52
186.32	2420.70
186.54	2195.42
186.76	2226.14
186.98	2371.55
187.20	2205.66
187.42	2129.89
187.64	2097.12
187.86	2301.92
188.08	2291.68
188.30	2144.22
188.52	2207.71
188.75	2363.36
188.97	2406.36
189.19	2127.84
189.41	2138.08
189.63	2297.82
189.85	2230.24
190.07	2101.22
190.29	2088.93
190.51	2275.29
190.73	2183.13
190.95	2166.75
191.17	2097.12
191.39	2117.60
191.61	2291.68
191.84	2140.13
192.06	2240.48
192.28	2093.02
192.50	2674.65
192.72	2234.33
192.94	2211.81
193.16	2357.21
193.38	2277.34
193.60	2148.32
193.82	2179.04
194.04	2414.56
194.26	2310.11
194.48	2211.81
194.70	2203.61
194.92	2277.34
195.14	2346.97
195.36	2170.85
195.58	2183.13
195.80	2248.67
196.02	2195.42
196.24	2154.46
196.46	2281.44
196.69	2236.38
196.91	2500.57
197.13	2111.46
197.35	2179.04
197.57	2437.08
197.79	2281.44
198.01	2207.71
198.23	2234.33
198.45	2310.11
198.67	2187.23
198.89	2107.36
199.11	2199.52
199.33	2236.38
199.55	2056.16
199.77	2127.84
199.99	2246.62
200.21	2299.87
200.43	2318.30
200.65	2117.60
200.87	2047.97
201.09	2267.10
201.31	2250.72
201.53	2211.81
201.75	2209.76
201.97	2281.44
202.19	2203.61
202.41	2217.95
202.63	2283.49
202.85	2389.98
203.07	2342.88
203.29	2199.52
203.51	2088.93
203.73	2170.85
203.95	2523.10
204.17	2203.61
204.39	2299.87
204.61	2273.25
204.83	2234.33
205.05	2301.92
205.27	2263.01
205.49	2437.08
205.71	2236.38
205.93	2031.58
206.15	2179.04
206.37	2179.04
206.59	2240.48
206.81	2041.82
207.03	2164.70
207.25	2138.08
207.47	2361.31
207.69	2183.13
207.91	2353.12
208.13	2381.79
208.34	2117.60
208.56	2129.89
208.78	2228.19
209.00	2195.42
209.22	2242.53
209.44	2154.46
209.66	2191.33
209.88	2332.64
210.10	2207.71
210.32	2166.75
210.54	2293.72
210.76	2263.01
210.98	2301.92
211.20	2007.01
211.42	2211.81
211.64	2412.51
211.86	2220.00
212.08	2191.33
212.30	2138.08
212.52	2244.57
212.74	2299.87
212.96	2179.04
213.17	2310.11
213.39	2338.78
213.61	2371.55
213.83	2179.04
214.05	2203.61
214.27	2318.30
214.49	2138.08
214.71	2156.51
214.93	2330.59
215.15	2283.49
215.37	2285.53
215.59	2086.88
215.81	2265.05
216.03	2318.30
216.24	2238.43
216.46	2144.22
216.68	2265.05
216.90	2277.34
217.12	2363.36
217.34	2238.43
217.56	2240.48
217.78	2402.27
218.00	2269.15
218.22	2265.05
218.44	2260.96
218.66	2256.86
218.87	2410.46
219.09	2150.37
219.31	2265.05
219.53	2260.96
219.75	2252.77
219.97	2187.23
220.19	2140.13
220.41	2220.00
220.63	2328.54
220.85	2160.61
221.06	2191.33
221.28	2330.59
221.50	2271.20
221.72	2179.04
221.94	2193.37
222.16	2293.72
222.38	2326.49
222.60	2146.27
222.82	2142.18
223.03	2222.05
223.25	2158.56
223.47	2160.61
223.69	2281.44
223.91	2351.07
224.13	2291.68
224.35	2236.38
224.57	2314.20
224.78	2285.53
225.00	2136.03
225.22	2170.85
225.44	2176.99
225.66	2342.88
225.88	2164.70
226.10	2228.19
226.32	2234.33
226.53	2359.26
226.75	2164.70
226.97	2250.72
227.19	2187.23
227.41	2232.29
227.63	2220.00
227.85	2093.02
228.06	2236.38
228.28	2254.81
228.50	2320.35
228.72	2054.11
228.94	2146.27
229.16	2154.46
229.37	2064.35
229.59	2097.12
229.81	2291.68
230.03	2191.33
230.25	2162.66
230.47	2000.87
230.69	2101.22
230.90	2379.74
231.12	2129.89
231.34	2256.86
231.56	2207.71
231.78	2121.70
232.00	2297.82
232.21	2240.48
232.43	2158.56
232.65	2090.98
232.87	2209.76
233.09	2076.64
233.30	2078.69
233.52	2310.11
233.74	2228.19
233.96	2123.74
234.18	2283.49
234.40	2154.46
234.61	2504.67
234.83	2121.70
235.05	2148.32
235.27	2543.58
235.49	2322.40
235.70	2154.46
235.92	2260.96
236.14	2256.86
236.36	2502.62
236.58	2127.84
236.79	2283.49
237.01	2238.43
237.23	2263.01
237.45	2318.30
237.67	2240.48
237.88	2275.29
238.10	2486.23
238.32	2095.07
238.54	2252.77
238.76	2232.29
238.97	2176.99
239.19	2170.85
239.41	2187.23
239.63	2394.08
239.85	2142.18
240.06	2242.53
240.28	2209.76
240.50	2322.40
240.72	2293.72
240.93	2138.08
241.15	2353.12
241.37	2160.61
241.59	2383.84
241.81	2232.29
242.02	2191.33
242.24	2365.40
242.46	2275.29
242.68	2113.50
242.89	2197.47
243.11	2334.68
243.33	2238.43
243.55	2201.57
243.76	2240.48
243.98	2123.74
244.20	2189.28
244.42	2199.52
244.64	2170.85
244.85	2084.83
245.07	2162.66
245.29	2172.89
245.51	2217.95
245.72	2326.49
245.94	2371.55
246.16	2164.70
246.38	2217.95
246.59	2142.18
246.81	2168.80
247.03	2142.18
247.24	2107.36
247.46	2195.42
247.68	2301.92
247.90	2109.41
248.11	2164.70
248.33	2299.87
248.55	2291.68
248.77	2232.29
248.98	2236.38
249.20	2394.08
249.42	2254.81
249.64	2199.52
249.85	2203.61
250.07	2224.09
250.29	2406.36
250.50	2203.61
250.72	2039.78
250.94	2306.01
251.16	2400.22
251.37	2176.99
251.59	2240.48
251.81	2342.88
252.02	2396.12
252.24	2172.89
252.46	2195.42
252.68	2191.33
252.89	2211.81
253.11	2088.93
253.33	2346.97
253.54	2359.26
253.76	2117.60
253.98	2244.57
254.20	2191.33
254.41	2244.57
254.63	2283.49
254.85	2052.06
255.06	2203.61
255.28	2367.45
255.50	2228.19
255.71	2136.03
255.93	2115.55
256.15	2236.38
256.36	2293.72
256.58	2117.60
256.80	2185.18
257.02	2250.72
257.23	2234.33
257.45	2187.23
257.67	2211.81
257.88	2220.00
258.10	2267.10
258.32	2228.19
258.53	2191.33
258.75	2375.64
258.97	2140.13
259.18	2152.42
259.40	2084.83
259.62	2392.03
259.83	2310.11
260.05	2193.37
260.27	2666.46
260.48	2316.25
260.70	2113.50
260.92	2170.85
261.13	2314.20
261.35	2334.68
261.57	2301.92
261.78	2039.78
262.00	2138.08
262.22	2258.91
262.43	2205.66
262.65	2244.57
262.86	2209.76
263.08	2500.57
263.30	2236.38
263.51	2033.63
263.73	2179.04
263.95	2342.88
264.16	2154.46
264.38	2084.83
264.60	2162.66
264.81	2301.92
265.03	2375.64
265.25	2340.83
265.46	2220.00
265.68	2406.36
265.89	2342.88
266.11	2047.97
266.33	2195.42
266.54	2271.20
266.76	2275.29
266.98	2297.82
267.19	2334.68
267.41	2351.07
267.62	2244.57
267.84	2176.99
268.06	2310.11
268.27	2220.00
268.49	2375.64
268.70	2285.53
268.92	2158.56
269.14	2179.04
269.35	2105.31
269.57	2220.00
269.79	2209.76
270.00	2267.10
270.22	2424.80
270.43	2088.93
270.65	2033.63
270.87	2244.57
271.08	2336.73
271.30	2217.95
271.51	2181.09
271.73	2295.77
271.95	2318.30
272.16	2152.42
272.38	2297.82
272.59	2156.51
272.81	2269.15
273.02	2160.61
273.24	2236.38
273.46	2383.84
273.67	2097.12
273.89	2056.16
274.10	2152.42
274.32	2363.36
274.54	2281.44
274.75	2199.52
274.97	2156.51
275.18	2299.87
275.40	2316.25
275.61	2150.37
275.83	2289.63
276.05	2154.46
276.26	2213.85
276.48	2297.82
276.69	2187.23
276.91	2121.70
277.12	2351.07
277.34	2367.45
277.55	2426.84
277.77	2267.10
277.99	2170.85
278.20	2093.02
278.42	2193.37
278.63	2193.37
278.85	2179.04
279.06	2088.93
279.28	2316.25
279.49	2369.50
279.71	2320.35
279.93	2228.19
280.14	2236.38
280.36	2078.69
280.57	2312.16
280.79	2303.96
281.00	2144.22
281.22	2150.37
281.43	2308.06
281.65	2066.40
281.86	2127.84
282.08	2289.63
282.29	2381.79
282.51	2123.74
282.73	2113.50
282.94	2097.12
283.16	2422.75
283.37	2373.60
283.59	2244.57
283.80	2289.63
284.02	2265.05
284.23	2359.26
284.45	2179.04
284.66	2146.27
284.88	2156.51
285.09	2211.81
285.31	2228.19
285.52	2308.06
285.74	2107.36
285.95	2371.55
286.17	2170.85
286.38	2371.55
286.60	2187.23
286.81	2070.50
287.03	2269.15
287.24	2230.24
287.46	2301.92
287.67	2267.10
287.89	2457.56
288.10	2162.66
288.32	2242.53
288.53	2357.21
288.75	2277.34
288.96	2242.53
289.18	2136.03
289.39	2195.42
289.61	2340.83
289.82	2504.67
290.04	2383.84
290.25	2211.81
290.47	2211.81
290.68	2199.52
290.90	2330.59
291.11	2056.16
291.33	2326.49
291.54	2234.33
291.76	2166.75
291.97	2263.01
292.18	2232.29
292.40	2211.81
292.61	2250.72
292.83	2326.49
293.04	2236.38
293.26	2357.21
293.47	2217.95
293.69	2138.08
293.90	2209.76
294.12	2342.88
294.33	2281.44
294.55	2244.57
294.76	2342.88
294.97	2330.59
295.19	2496.47
295.40	2234.33
295.62	2254.81
295.83	2273.25
296.05	2238.43
296.26	2246.62
296.48	2205.66
296.69	2250.72
296.90	2220.00
297.12	2271.20
297.33	2389.98
297.55	2342.88
297.76	2269.15
297.98	2299.87
298.19	2248.67
298.41	2293.72
298.62	2144.22
298.83	2281.44
299.05	2275.29
299.26	2160.61
299.48	2150.37
299.69	2346.97
299.90	2244.57
300.12	2199.52
300.33	2365.40
300.55	2191.33
300.76	2215.90
300.98	2160.61
301.19	2248.67
301.40	2199.52
301.62	2209.76
301.83	2275.29
302.05	2189.28
302.26	2197.47
302.47	2258.91
302.69	2080.74
302.90	2187.23
303.12	2072.54
303.33	2310.11
303.54	2432.99
303.76	2236.38
303.97	2179.04
304.19	2394.08
304.40	2136.03
304.61	2408.41
304.83	2432.99
305.04	2344.92
305.26	2277.34
305.47	2256.86
305.68	2269.15
305.90	2064.35
306.11	2375.64
306.33	2244.57
306.54	2166.75
306.75	2152.42
306.97	2131.94
307.18	2095.07
307.39	2152.42
307.61	2326.49
307.82	2285.53
308.04	2281.44
308.25	2131.94
308.46	2340.83
308.68	2226.14
308.89	2207.71
309.10	2306.01
309.32	2224.09
309.53	2228.19
309.74	2238.43
309.96	2211.81
310.17	2332.64
310.39	2176.99
310.60	2246.62
310.81	2236.38
311.03	2062.30
311.24	2363.36
311.45	2285.53
311.67	2392.03
311.88	2265.05
312.09	2224.09
312.31	2222.05
312.52	2242.53
312.73	2197.47
312.95	2125.79
313.16	2197.47
313.37	2277.34
313.59	2379.74
313.80	2338.78
314.01	2318.30
314.23	2158.56
314.44	2250.72
314.65	2101.22
314.87	2158.56
315.08	2154.46
315.29	2203.61
315.51	2154.46
315.72	2133.98
315.93	2402.27
316.15	2199.52
316.36	2179.04
316.57	2283.49
316.79	2269.15
317.00	2228.19
317.21	2269.15
317.43	2160.61
317.64	2269.15
317.85	2166.75
318.07	2111.46
318.28	2318.30
318.49	2355.16
318.70	2514.91
318.92	2281.44
319.13	2408.41
319.34	2426.84
319.56	2256.86
319.77	2455.51
319.98	2389.98
320.20	2375.64
320.41	2289.63
320.62	2342.88
320.83	2207.71
321.05	2463.71
321.26	2211.81
321.47	2232.29
321.69	2381.79
321.90	2129.89
322.11	2146.27
322.32	2250.72
322.54	2340.83
322.75	2191.33
322.96	2504.67
323.18	2138.08
323.39	2033.63
323.60	2109.41
323.81	2318.30
324.03	2138.08
324.24	2246.62
324.45	2273.25
324.66	2195.42
324.88	2357.21
325.09	2406.36
325.30	2228.19
325.52	2162.66
325.73	2326.49
325.94	2107.36
326.15	2076.64
326.37	2133.98
326.58	2328.54
326.79	2449.37
327.00	2179.04
327.22	2269.15
327.43	2236.38
327.64	2170.85
327.85	2226.14
328.07	2301.92
328.28	2422.75
328.49	2162.66
328.70	2193.37
328.92	2230.24
329.13	2316.25
329.34	2291.68
329.55	2379.74
329.76	2312.16
329.98	2176.99
330.19	2414.56
330.40	2324.44
330.61	2234.33
330.83	2422.75
331.04	2191.33
331.25	2244.57
331.46	2226.14
331.68	2105.31
331.89	2326.49
332.10	2265.05
332.31	2129.89
332.52	2191.33
332.74	2400.22
332.95	2127.84
333.16	2193.37
333.37	2363.36
333.58	2228.19
333.80	2248.67
334.01	2127.84
334.22	2144.22
334.43	2203.61
334.64	2127.84
334.86	2146.27
335.07	2176.99
335.28	2439.13
335.49	2119.65
335.70	2314.20
335.92	2408.41
336.13	2529.24
336.34	2244.57
336.55	2244.57
336.76	2277.34
336.98	2072.54
337.19	2205.66
337.40	2371.55
337.61	2500.57
337.82	2285.53
338.04	2375.64
338.25	2095.07
338.46	2217.95
338.67	2125.79
338.88	2168.80
339.09	2050.02
339.31	2123.74
339.52	2129.89
339.73	2144.22
339.94	2277.34
340.15	2336.73
340.36	2129.89
340.58	2250.72
340.79	2191.33
341.00	2283.49
341.21	2115.55
341.42	2359.26
341.63	2250.72
341.85	2320.35
342.06	2240.48
342.27	2166.75
342.48	2336.73
342.69	2170.85
342.90	2267.10
343.12	2367.45
343.33	2187.23
343.54	2389.98
343.75	2346.97
343.96	2254.81
344.17	2170.85
344.38	2215.90
344.60	2226.14
344.81	2123.74
345.02	2236.38
345.23	2301.92
345.44	2521.05
345.65	2295.77
345.86	2267.10
346.07	2197.47
346.29	2187.23
346.50	2260.96
346.71	2293.72
346.92	2408.41
347.13	2451.42
347.34	2269.15
347.55	2156.51
347.76	2203.61
347.98	2115.55
348.19	2318.30
348.40	2301.92
348.61	2248.67
348.82	2486.23
349.03	2281.44
349.24	2121.70
349.45	2459.61
349.66	2054.11
349.88	2285.53
350.09	2189.28
350.30	2465.75
350.51	2379.74
350.72	2277.34
350.93	2252.77
351.14	2199.52
351.35	2283.49
351.56	2195.42
351.77	2295.77
351.99	2301.92
352.20	2404.32
352.41	2445.27
352.62	2023.39
352.83	2236.38
353.04	2213.85
353.25	2185.18
353.46	2349.02
353.67	2408.41
353.88	2080.74
354.09	2211.81
354.30	2263.01
354.52	2326.49
354.73	2179.04
354.94	2170.85
355.15	2232.29
355.36	2480.09
355.57	2265.05
355.78	2306.01
355.99	2193.37
356.20	2142.18
356.41	2359.26
356.62	2326.49
356.83	2211.81
357.04	2392.03
357.25	2117.60
357.46	2205.66
357.68	2105.31
357.89	2162.66
358.10	2277.34
358.31	2281.44
358.52	2230.24
358.73	2097.12
358.94	2142.18
359.15	2207.71
359.36	2207.71
359.57	2285.53
359.78	2222.05
359.99	2271.20
360.20	2193.37
360.41	2215.90
360.62	2293.72
360.83	2326.49
361.04	2209.76
361.25	2246.62
361.46	2465.75
361.67	2201.57
361.88	2267.10
362.09	2234.33
362.30	2279.39
362.51	2197.47
362.72	2176.99
362.93	2392.03
363.14	2295.77
363.35	2303.96
363.56	2224.09
363.78	2389.98
363.99	2426.84
364.20	2215.90
364.41	2224.09
364.62	2437.08
364.83	2310.11
365.04	2252.77
365.25	2201.57
365.46	2539.48
365.67	2215.90
365.88	2199.52
366.09	2199.52
366.30	2217.95
366.51	2301.92
366.72	2113.50
366.93	2215.90
367.14	2234.33
367.35	2416.60
367.56	2254.81
367.77	2363.36
367.98	2248.67
368.18	2287.58
368.39	2228.19
368.60	2029.54
368.81	2285.53
369.02	2291.68
369.23	2220.00
369.44	2109.41
369.65	2250.72
369.86	2269.15
370.07	2281.44
370.28	2088.93
370.49	2336.73
370.70	2346.97
370.91	2125.79
371.12	2080.74
371.33	2349.02
371.54	2195.42
371.75	2338.78
371.96	2078.69
372.17	2258.91
372.38	2314.20
372.59	2232.29
372.80	2215.90
373.01	2195.42
373.22	2250.72
373.43	2211.81
373.64	2168.80
373.85	2383.84
374.06	2420.70
374.26	2213.85
374.47	2316.25
374.68	2365.40
374.89	2316.25
375.10	2170.85
375.31	2285.53
375.52	2203.61
375.73	2209.76
375.94	2072.54
376.15	2387.93
376.36	2246.62
376.57	2162.66
376.78	2158.56
376.99	2273.25
377.20	2402.27
377.40	2176.99
377.61	2334.68
377.82	2101.22
378.03	2416.60
378.24	2346.97
378.45	2209.76
378.66	2265.05
378.87	2021.35
379.08	2064.35
379.29	2226.14
379.50	2320.35
379.71	2250.72
379.91	2351.07
380.12	2179.04
380.33	2240.48
380.54	2236.38
380.75	2275.29
380.96	2236.38
381.17	2220.00
381.38	2213.85
381.59	2283.49
381.80	2226.14
382.00	2316.25
382.21	2308.06
382.42	2447.32
382.63	2428.89
382.84	2371.55
383.05	2389.98
383.26	2396.12
383.47	2275.29
383.68	2260.96
383.88	2269.15
384.09	2306.01
384.30	2408.41
384.51	2324.44
384.72	2160.61
384.93	2117.60
385.14	2291.68
385.35	2297.82
385.55	2068.45
385.76	2379.74
385.97	2228.19
386.18	2154.46
386.39	2185.18
386.60	2195.42
386.81	2176.99
387.02	2168.80
387.22	2160.61
387.43	2389.98
387.64	2326.49
387.85	2402.27
388.06	2514.91
388.27	3823.56
388.48	8275.84
388.68	11745.10
388.89	14188.33
389.10	15529.75
389.31	13926.19
389.52	11022.17
389.73	9478.00
389.93	8632.19
390.14	7872.39
390.35	7126.93
390.56	6498.20
390.77	5222.32
390.98	3981.25
391.18	3223.50
391.39	2670.55
391.60	2416.60
391.81	2408.41
392.02	2215.90
392.23	2514.91
392.43	2383.84
392.64	2379.74
392.85	2183.13
393.06	2447.32
393.27	2265.05
393.47	2193.37
393.68	2275.29
393.89	2228.19
394.10	2383.84
394.31	2236.38
394.52	2150.37
394.72	2179.04
394.93	2357.21
395.14	2162.66
395.35	2306.01
395.56	2166.75
395.76	2330.59
395.97	2279.39
396.18	2363.36
396.39	2385.88
396.60	2734.04
396.80	2508.76
397.01	2375.64
397.22	2439.13
397.43	2439.13
397.64	2224.09
397.84	2273.25
398.05	2500.57
398.26	2295.77
398.47	2371.55
398.67	2346.97
398.88	2291.68
399.09	2256.86
399.30	2189.28
399.51	2263.01
399.71	2170.85
399.92	2310.11
400.13	2349.02
400.34	2244.57
400.54	2228.19
400.75	2394.08
400.96	2310.11
401.17	2359.26
401.37	2326.49
401.58	2217.95
401.79	2269.15
402.00	2308.06
402.21	2629.59
402.41	2553.82
402.62	2648.02
402.83	2713.56
403.04	2707.41
403.24	2820.05
403.45	2420.70
403.66	2471.90
403.87	2447.32
404.07	2502.62
404.28	2502.62
404.49	2480.09
404.70	2322.40
404.90	2258.91
405.11	2318.30
405.32	2338.78
405.52	2275.29
405.73	2215.90
405.94	2189.28
406.15	2201.57
406.35	2342.88
406.56	2281.44
406.77	2258.91
406.98	2263.01
407.18	2152.42
407.39	2365.40
407.60	2260.96
407.80	2295.77
408.01	2240.48
408.22	2340.83
408.43	2170.85
408.63	2314.20
408.84	2310.11
409.05	2320.35
409.25	2220.00
409.46	2121.70
409.67	2199.52
409.88	2168.80
410.08	2273.25
410.29	2230.24
410.50	2269.15
410.70	2275.29
410.91	2179.04
411.12	2269.15
411.32	2234.33
411.53	2158.56
411.74	2303.96
411.95	2344.92
412.15	2318.30
412.36	2375.64
412.57	2308.06
412.77	2471.90
412.98	2279.39
413.19	2183.13
413.39	2230.24
413.60	2316.25
413.81	2387.93
414.01	2228.19
414.22	2322.40
414.43	2291.68
414.63	2185.18
414.84	2351.07
415.05	2244.57
415.25	2105.31
415.46	2269.15
415.67	2281.44
415.87	2273.25
416.08	2254.81
416.29	2215.90
416.49	2344.92
416.70	2189.28
416.91	2217.95
417.11	2220.00
417.32	2332.64
417.53	2316.25
417.73	2299.87
417.94	2220.00
418.15	2306.01
418.35	2295.77
418.56	2281.44
418.77	2506.71
418.97	2226.14
419.18	2271.20
419.38	2033.63
419.59	2236.38
419.80	2379.74
420.00	2150.37
420.21	2306.01
420.42	2349.02
420.62	2258.91
420.83	2179.04
421.04	2275.29
421.24	2226.14
421.45	2441.18
421.65	2299.87
421.86	2211.81
422.07	2363.36
422.27	2330.59
422.48	2258.91
422.69	2265.05
422.89	2269.15
423.10	2220.00
423.30	2213.85
423.51	2297.82
423.72	2291.68
423.92	2328.54
424.13	2058.21
424.33	2242.53
424.54	2367.45
424.75	2308.06
424.95	2351.07
425.16	2220.00
425.36	2258.91
425.57	2353.12
425.78	2322.40
425.98	2295.77
426.19	2236.38
426.39	2154.46
426.60	2252.77
426.81	2328.54
427.01	2230.24
427.22	2107.36
427.42	2113.50
427.63	2166.75
427.83	2392.03
428.04	2402.27
428.25	2365.40
428.45	2342.88
428.66	2385.88
428.86	2308.06
429.07	2154.46
429.28	2168.80
429.48	2189.28
429.69	2232.29
429.89	2277.34
430.10	2068.45
430.30	2375.64
430.51	2293.72
430.71	2154.46
430.92	2318.30
431.13	2209.76
431.33	2275.29
431.54	2289.63
431.74	2424.80
431.95	2580.44
432.15	2238.43
432.36	2332.64
432.56	2275.29
432.77	2439.13
432.98	2435.03
433.18	2277.34
433.39	2191.33
433.59	2189.28
433.80	2406.36
434.00	2404.32
434.21	2170.85
434.41	2133.98
434.62	2400.22
434.82	2133.98
435.03	2220.00
435.23	2332.64
435.44	2129.89
435.64	2199.52
435.85	2291.68
436.06	2316.25
436.26	2297.82
436.47	2185.18
436.67	2154.46
436.88	2248.67
437.08	2359.26
437.29	2414.56
437.49	2199.52
437.70	2437.08
437.90	2246.62
438.11	2385.88
438.31	2377.69
438.52	2490.33
438.72	2432.99
438.93	2588.63
439.13	2355.16
439.34	2314.20
439.54	2308.06
439.75	2330.59
439.95	2297.82
440.16	2183.13
440.36	2209.76
440.57	2265.05
440.77	2320.35
440.98	2267.10
441.18	2334.68
441.39	2154.46
441.59	2195.42
441.80	2480.09
442.00	2211.81
442.21	2338.78
442.41	2097.12
442.62	2328.54
442.82	2187.23
443.02	2252.77
443.23	2244.57
443.43	2269.15
443.64	2447.32
443.84	2256.86
444.05	2394.08
444.25	2275.29
444.46	2258.91
444.66	2275.29
444.87	2422.75
445.07	2150.37
445.28	2287.58
445.48	2404.32
445.69	2297.82
445.89	2469.85
446.09	2283.49
446.30	2490.33
446.50	2834.39
446.71	4444.09
446.91	5715.88
447.12	6410.14
447.32	6784.92
447.53	6225.82
447.73	5136.31
447.93	4554.68
448.14	4163.52
448.34	4136.90
448.55	3549.13
448.75	3620.81
448.96	3373.00
449.16	3067.86
449.36	2861.01
449.57	2602.97
449.77	2412.51
449.98	2244.57
450.18	2334.68
450.39	2389.98
450.59	2398.17
450.79	2232.29
451.00	2258.91
451.20	2306.01
451.41	2228.19
451.61	2285.53
451.81	2199.52
452.02	2240.48
452.22	2267.10
452.43	2271.20
452.63	2197.47
