SpectraSuite Data File
++++++++++++++++++++++++++++++++++++
Date: Thu May 05 13:20:38 CEST 2016
User: root
Dark Spectrum Present: No
Reference Spectrum Present: No
Number of Sampled Component Spectra: 1
Spectrometers: USB4C02835
Integration Time (usec): 100000 (USB4C02835)
Spectra Averaged: 1 (USB4C02835)
Boxcar Smoothing: 0 (USB4C02835)
Correct for Electrical Dark: No (USB4C02835)
Strobe/Lamp Enabled: No (USB4C02835)
Correct for Detector Non-linearity: No (USB4C02835)
Correct for Stray Light: No (USB4C02835)
Number of Pixels in Processed Spectrum: 3648
>>>>>Begin Processed Spectral Data<<<<<
177.47	1777.64
177.69	1777.64
177.91	1777.64
178.13	1699.81
178.36	1814.50
178.58	2150.37
178.80	2238.43
179.02	2203.61
179.24	2195.42
179.46	2138.08
179.68	2174.94
179.90	2226.14
180.13	2273.25
180.35	2129.89
180.57	2240.48
180.79	2340.83
181.01	2240.48
181.23	2220.00
181.45	2293.72
181.67	2205.66
181.90	2363.36
182.12	2146.27
182.34	1998.82
182.56	2285.53
182.78	2273.25
183.00	2168.80
183.22	2203.61
183.44	2093.02
183.66	2525.15
183.89	2301.92
184.11	2187.23
184.33	2246.62
184.55	2402.27
184.77	2226.14
184.99	2234.33
185.21	2297.82
185.43	2449.37
185.65	2144.22
185.87	2228.19
186.10	2519.00
186.32	2502.62
186.54	2285.53
186.76	2250.72
186.98	2310.11
187.20	2244.57
187.42	2129.89
187.64	2193.37
187.86	2234.33
188.08	2406.36
188.30	2127.84
188.52	2146.27
188.75	2377.69
188.97	2363.36
189.19	2187.23
189.41	2199.52
189.63	2351.07
189.85	2199.52
190.07	2133.98
190.29	2039.78
190.51	2342.88
190.73	2074.59
190.95	2224.09
191.17	2166.75
191.39	2088.93
191.61	2236.38
191.84	2207.71
192.06	2299.87
192.28	2140.13
192.50	2512.86
192.72	2301.92
192.94	2217.95
193.16	2336.73
193.38	2312.16
193.60	2160.61
193.82	2213.85
194.04	2342.88
194.26	2310.11
194.48	2162.66
194.70	2121.70
194.92	2242.53
195.14	2322.40
195.36	2181.09
195.58	2195.42
195.80	2338.78
196.02	2203.61
196.24	2174.94
196.46	2160.61
196.69	2156.51
196.91	2430.94
197.13	2160.61
197.35	2123.74
197.57	2324.44
197.79	2269.15
198.01	2273.25
198.23	2179.04
198.45	2351.07
198.67	2142.18
198.89	2111.46
199.11	2256.86
199.33	2199.52
199.55	2109.41
199.77	2148.32
199.99	2291.68
200.21	2191.33
200.43	2252.77
200.65	2103.26
200.87	2045.92
201.09	2213.85
201.31	2252.77
201.53	2203.61
201.75	2191.33
201.97	2316.25
202.19	2285.53
202.41	2273.25
202.63	2297.82
202.85	2349.02
203.07	2263.01
203.29	2142.18
203.51	2115.55
203.73	2133.98
203.95	2441.18
204.17	2250.72
204.39	2158.56
204.61	2244.57
204.83	2193.37
205.05	2187.23
205.27	2230.24
205.49	2387.93
205.71	2189.28
205.93	2054.11
206.15	2084.83
206.37	2213.85
206.59	2217.95
206.81	2052.06
207.03	2011.11
207.25	2183.13
207.47	2351.07
207.69	2185.18
207.91	2342.88
208.13	2367.45
208.34	2172.89
208.56	2144.22
208.78	2187.23
209.00	2191.33
209.22	2183.13
209.44	2152.42
209.66	2138.08
209.88	2285.53
210.10	2215.90
210.32	2107.36
210.54	2306.01
210.76	2176.99
210.98	2344.92
211.20	2029.54
211.42	2209.76
211.64	2428.89
211.86	2269.15
212.08	2228.19
212.30	2154.46
212.52	2211.81
212.74	2248.67
212.96	2154.46
213.17	2226.14
213.39	2365.40
213.61	2400.22
213.83	2158.56
214.05	2154.46
214.27	2484.19
214.49	2154.46
214.71	2209.76
214.93	2244.57
215.15	2271.20
215.37	2234.33
215.59	2129.89
215.81	2166.75
216.03	2402.27
216.24	2277.34
216.46	2213.85
216.68	2228.19
216.90	2373.60
217.12	2402.27
217.34	2156.51
217.56	2293.72
217.78	2420.70
218.00	2252.77
218.22	2312.16
218.44	2242.53
218.66	2289.63
218.87	2488.28
219.09	2136.03
219.31	2205.66
219.53	2312.16
219.75	2199.52
219.97	2236.38
220.19	2271.20
220.41	2301.92
220.63	2383.84
220.85	2174.94
221.06	2129.89
221.28	2389.98
221.50	2293.72
221.72	2230.24
221.94	2166.75
222.16	2226.14
222.38	2336.73
222.60	2148.32
222.82	2168.80
223.03	2365.40
223.25	2228.19
223.47	2203.61
223.69	2303.96
223.91	2340.83
224.13	2260.96
224.35	2127.84
224.57	2205.66
224.78	2299.87
225.00	2187.23
225.22	2101.22
225.44	2195.42
225.66	2250.72
225.88	2203.61
226.10	2260.96
226.32	2125.79
226.53	2387.93
226.75	2230.24
226.97	2203.61
227.19	2111.46
227.41	2170.85
227.63	2215.90
227.85	2105.31
228.06	2191.33
228.28	2242.53
228.50	2404.32
228.72	2146.27
228.94	2088.93
229.16	2131.94
229.37	2140.13
229.59	2113.50
229.81	2383.84
230.03	2179.04
230.25	2103.26
230.47	2068.45
230.69	2090.98
230.90	2342.88
231.12	2232.29
231.34	2252.77
231.56	2248.67
231.78	2156.51
232.00	2281.44
232.21	2299.87
232.43	2088.93
232.65	1998.82
232.87	2287.58
233.09	2004.96
233.30	2103.26
233.52	2338.78
233.74	2265.05
233.96	2215.90
234.18	2277.34
234.40	2226.14
234.61	2521.05
234.83	2121.70
235.05	2093.02
235.27	2496.47
235.49	2424.80
235.70	2199.52
235.92	2238.43
236.14	2240.48
236.36	2465.75
236.58	2121.70
236.79	2220.00
237.01	2308.06
237.23	2226.14
237.45	2394.08
237.67	2154.46
237.88	2248.67
238.10	2426.84
238.32	2160.61
238.54	2160.61
238.76	2254.81
238.97	2160.61
239.19	2158.56
239.41	2314.20
239.63	2299.87
239.85	2215.90
240.06	2181.09
240.28	2179.04
240.50	2420.70
240.72	2285.53
240.93	2138.08
241.15	2301.92
241.37	2310.11
241.59	2404.32
241.81	2187.23
242.02	2183.13
242.24	2332.64
242.46	2387.93
242.68	2138.08
242.89	2269.15
243.11	2375.64
243.33	2211.81
243.55	2207.71
243.76	2129.89
243.98	2226.14
244.20	2263.01
244.42	2244.57
244.64	2244.57
244.85	2142.18
245.07	2236.38
245.29	2203.61
245.51	2211.81
245.72	2293.72
245.94	2387.93
246.16	2164.70
246.38	2201.57
246.59	2211.81
246.81	2217.95
247.03	2160.61
247.24	2109.41
247.46	2283.49
247.68	2220.00
247.90	2115.55
248.11	2226.14
248.33	2301.92
248.55	2314.20
248.77	2275.29
248.98	2289.63
249.20	2422.75
249.42	2220.00
249.64	2226.14
249.85	2090.98
250.07	2232.29
250.29	2318.30
250.50	2316.25
250.72	2058.21
250.94	2265.05
251.16	2455.51
251.37	2168.80
251.59	2203.61
251.81	2275.29
252.02	2426.84
252.24	2066.40
252.46	2281.44
252.68	2111.46
252.89	2166.75
253.11	2086.88
253.33	2340.83
253.54	2389.98
253.76	2189.28
253.98	2160.61
254.20	2150.37
254.41	2080.74
254.63	2267.10
254.85	2093.02
255.06	2109.41
255.28	2295.77
255.50	2160.61
255.71	2185.18
255.93	2088.93
256.15	2240.48
256.36	2299.87
256.58	2181.09
256.80	2273.25
257.02	2308.06
257.23	2187.23
257.45	2185.18
257.67	2240.48
257.88	2187.23
258.10	2265.05
258.32	2211.81
258.53	2207.71
258.75	2340.83
258.97	2228.19
259.18	2183.13
259.40	2117.60
259.62	2463.71
259.83	2389.98
260.05	2187.23
260.27	2715.61
260.48	2326.49
260.70	2193.37
260.92	2123.74
261.13	2279.39
261.35	2269.15
261.57	2260.96
261.78	2072.54
262.00	2115.55
262.22	2322.40
262.43	2224.09
262.65	2279.39
262.86	2310.11
263.08	2529.24
263.30	2318.30
263.51	2035.68
263.73	2156.51
263.95	2422.75
264.16	2111.46
264.38	2150.37
264.60	2158.56
264.81	2297.82
265.03	2385.88
265.25	2334.68
265.46	2176.99
265.68	2392.03
265.89	2277.34
266.11	2029.54
266.33	2176.99
266.54	2359.26
266.76	2285.53
266.98	2248.67
267.19	2258.91
267.41	2306.01
267.62	2291.68
267.84	2070.50
268.06	2277.34
268.27	2258.91
268.49	2369.50
268.70	2256.86
268.92	2252.77
269.14	2176.99
269.35	2088.93
269.57	2220.00
269.79	2324.44
270.00	2224.09
270.22	2447.32
270.43	2117.60
270.65	2062.30
270.87	2246.62
271.08	2318.30
271.30	2193.37
271.51	2211.81
271.73	2295.77
271.95	2422.75
272.16	2172.89
272.38	2265.05
272.59	2189.28
272.81	2281.44
273.02	2193.37
273.24	2179.04
273.46	2326.49
273.67	2146.27
273.89	2082.78
274.10	2152.42
274.32	2359.26
274.54	2318.30
274.75	2164.70
274.97	2215.90
275.18	2301.92
275.40	2297.82
275.61	2197.47
275.83	2273.25
276.05	2076.64
276.26	2181.09
276.48	2252.77
276.69	2136.03
276.91	2193.37
277.12	2400.22
277.34	2277.34
277.55	2310.11
277.77	2263.01
277.99	2234.33
278.20	2133.98
278.42	2162.66
278.63	2146.27
278.85	2105.31
279.06	2121.70
279.28	2232.29
279.49	2381.79
279.71	2330.59
279.93	2195.42
280.14	2215.90
280.36	2160.61
280.57	2379.74
280.79	2277.34
281.00	2154.46
281.22	2162.66
281.43	2365.40
281.65	2035.68
281.86	2119.65
282.08	2279.39
282.29	2396.12
282.51	2078.69
282.73	2062.30
282.94	2080.74
283.16	2332.64
283.37	2373.60
283.59	2187.23
283.80	2310.11
284.02	2222.05
284.23	2295.77
284.45	2232.29
284.66	2158.56
284.88	2187.23
285.09	2277.34
285.31	2271.20
285.52	2224.09
285.74	2113.50
285.95	2381.79
286.17	2250.72
286.38	2383.84
286.60	2203.61
286.81	2209.76
287.03	2273.25
287.24	2193.37
287.46	2326.49
287.67	2236.38
287.89	2410.46
288.10	2277.34
288.32	2256.86
288.53	2342.88
288.75	2287.58
288.96	2301.92
289.18	2226.14
289.39	2217.95
289.61	2244.57
289.82	2512.86
290.04	2412.51
290.25	2152.42
290.47	2232.29
290.68	2162.66
290.90	2351.07
291.11	2090.98
291.33	2277.34
291.54	2152.42
291.76	2136.03
291.97	2217.95
292.18	2293.72
292.40	2160.61
292.61	2140.13
292.83	2484.19
293.04	2289.63
293.26	2273.25
293.47	2258.91
293.69	2152.42
293.90	2168.80
294.12	2334.68
294.33	2289.63
294.55	2244.57
294.76	2324.44
294.97	2437.08
295.19	2533.34
295.40	2252.77
295.62	2293.72
295.83	2355.16
296.05	2248.67
296.26	2383.84
296.48	2215.90
296.69	2230.24
296.90	2308.06
297.12	2322.40
297.33	2396.12
297.55	2248.67
297.76	2408.41
297.98	2256.86
298.19	2144.22
298.41	2310.11
298.62	2176.99
298.83	2291.68
299.05	2232.29
299.26	2189.28
299.48	2263.01
299.69	2297.82
299.90	2226.14
300.12	2160.61
300.33	2420.70
300.55	2349.02
300.76	2246.62
300.98	2176.99
301.19	2269.15
301.40	2148.32
301.62	2246.62
301.83	2279.39
302.05	2281.44
302.26	2179.04
302.47	2281.44
302.69	2181.09
302.90	2306.01
303.12	2039.78
303.33	2283.49
303.54	2471.90
303.76	2293.72
303.97	2232.29
304.19	2351.07
304.40	2152.42
304.61	2316.25
304.83	2328.54
305.04	2283.49
305.26	2334.68
305.47	2217.95
305.68	2207.71
305.90	2150.37
306.11	2308.06
306.33	2297.82
306.54	2152.42
306.75	2211.81
306.97	2109.41
307.18	2142.18
307.39	2205.66
307.61	2324.44
307.82	2236.38
308.04	2273.25
308.25	2080.74
308.46	2322.40
308.68	2224.09
308.89	2236.38
309.10	2359.26
309.32	2248.67
309.53	2232.29
309.74	2308.06
309.96	2277.34
310.17	2375.64
310.39	2154.46
310.60	2252.77
310.81	2195.42
311.03	2189.28
311.24	2383.84
311.45	2256.86
311.67	2439.13
311.88	2269.15
312.09	2217.95
312.31	2230.24
312.52	2248.67
312.73	2197.47
312.95	2121.70
313.16	2183.13
313.37	2330.59
313.59	2310.11
313.80	2349.02
314.01	2482.14
314.23	2185.18
314.44	2174.94
314.65	2211.81
314.87	2166.75
315.08	2174.94
315.29	2158.56
315.51	2113.50
315.72	2183.13
315.93	2430.94
316.15	2265.05
316.36	2170.85
316.57	2281.44
316.79	2283.49
317.00	2183.13
317.21	2211.81
317.43	2166.75
317.64	2244.57
317.85	2170.85
318.07	2201.57
318.28	2191.33
318.49	2308.06
318.70	2519.00
318.92	2432.99
319.13	2447.32
319.34	2392.03
319.56	2346.97
319.77	2342.88
319.98	2439.13
320.20	2349.02
320.41	2244.57
320.62	2314.20
320.83	2187.23
321.05	2465.75
321.26	2297.82
321.47	2293.72
321.69	2342.88
321.90	2160.61
322.11	2176.99
322.32	2318.30
322.54	2367.45
322.75	2215.90
322.96	2531.29
323.18	2168.80
323.39	2074.59
323.60	2199.52
323.81	2299.87
324.03	2256.86
324.24	2244.57
324.45	2316.25
324.66	2217.95
324.88	2406.36
325.09	2494.43
325.30	2281.44
325.52	2168.80
325.73	2330.59
325.94	2138.08
326.15	2144.22
326.37	2146.27
326.58	2336.73
326.79	2406.36
327.00	2113.50
327.22	2203.61
327.43	2203.61
327.64	2220.00
327.85	2297.82
328.07	2297.82
328.28	2514.91
328.49	2138.08
328.70	2203.61
328.92	2215.90
329.13	2193.37
329.34	2287.58
329.55	2377.69
329.76	2252.77
329.98	2273.25
330.19	2439.13
330.40	2263.01
330.61	2267.10
330.83	2340.83
331.04	2138.08
331.25	2263.01
331.46	2258.91
331.68	2127.84
331.89	2373.60
332.10	2236.38
332.31	2162.66
332.52	2258.91
332.74	2324.44
332.95	2086.88
333.16	2203.61
333.37	2283.49
333.58	2211.81
333.80	2189.28
334.01	2117.60
334.22	2201.57
334.43	2179.04
334.64	2205.66
334.86	2152.42
335.07	2138.08
335.28	2389.98
335.49	2101.22
335.70	2246.62
335.92	2404.32
336.13	2519.00
336.34	2361.31
336.55	2244.57
336.76	2283.49
336.98	2093.02
337.19	2285.53
337.40	2379.74
337.61	2508.76
337.82	2195.42
338.04	2365.40
338.25	2136.03
338.46	2154.46
338.67	2172.89
338.88	2199.52
339.09	2160.61
339.31	2220.00
339.52	2191.33
339.73	2095.07
339.94	2250.72
340.15	2250.72
340.36	2217.95
340.58	2197.47
340.79	2144.22
341.00	2258.91
341.21	2119.65
341.42	2389.98
341.63	2254.81
341.85	2406.36
342.06	2314.20
342.27	2189.28
342.48	2279.39
342.69	2207.71
342.90	2301.92
343.12	2293.72
343.33	2203.61
343.54	2318.30
343.75	2373.60
343.96	2199.52
344.17	2209.76
344.38	2250.72
344.60	2150.37
344.81	2123.74
345.02	2154.46
345.23	2383.84
345.44	2531.29
345.65	2273.25
345.86	2217.95
346.07	2250.72
346.29	2158.56
346.50	2349.02
346.71	2279.39
346.92	2402.27
347.13	2402.27
347.34	2220.00
347.55	2226.14
347.76	2256.86
347.98	2058.21
348.19	2232.29
348.40	2355.16
348.61	2242.53
348.82	2418.65
349.03	2244.57
349.24	2117.60
349.45	2437.08
349.66	2062.30
349.88	2121.70
350.09	2144.22
350.30	2379.74
350.51	2400.22
350.72	2224.09
350.93	2232.29
351.14	2265.05
351.35	2355.16
351.56	2256.86
351.77	2228.19
351.99	2254.81
352.20	2389.98
352.41	2342.88
352.62	2052.06
352.83	2277.34
353.04	2263.01
353.25	2179.04
353.46	2254.81
353.67	2353.12
353.88	2045.92
354.09	2250.72
354.30	2285.53
354.52	2387.93
354.73	2224.09
354.94	2170.85
355.15	2246.62
355.36	2486.23
355.57	2203.61
355.78	2195.42
355.99	2154.46
356.20	2164.70
356.41	2367.45
356.62	2306.01
356.83	2203.61
357.04	2432.99
357.25	2138.08
357.46	2254.81
357.68	2105.31
357.89	2050.02
358.10	2228.19
358.31	2170.85
358.52	2179.04
358.73	2103.26
358.94	2142.18
359.15	2160.61
359.36	2308.06
359.57	2277.34
359.78	2271.20
359.99	2326.49
360.20	2105.31
360.41	2195.42
360.62	2355.16
360.83	2328.54
361.04	2306.01
361.25	2279.39
361.46	2428.89
361.67	2340.83
361.88	2260.96
362.09	2418.65
362.30	2256.86
362.51	2236.38
362.72	2162.66
362.93	2318.30
363.14	2326.49
363.35	2226.14
363.56	2203.61
363.78	2404.32
363.99	2402.27
364.20	2142.18
364.41	2306.01
364.62	2473.95
364.83	2232.29
365.04	2211.81
365.25	2244.57
365.46	2478.04
365.67	2172.89
365.88	2269.15
366.09	2252.77
366.30	2117.60
366.51	2318.30
366.72	2179.04
366.93	2213.85
367.14	2277.34
367.35	2404.32
367.56	2269.15
367.77	2340.83
367.98	2283.49
368.18	2228.19
368.39	2392.03
368.60	2179.04
368.81	2363.36
369.02	2340.83
369.23	2254.81
369.44	2123.74
369.65	2244.57
369.86	2295.77
370.07	2381.79
370.28	2152.42
370.49	2275.29
370.70	2363.36
370.91	2109.41
371.12	2080.74
371.33	2316.25
371.54	2185.18
371.75	2416.60
371.96	2031.58
372.17	2330.59
372.38	2168.80
372.59	2301.92
372.80	2260.96
373.01	2199.52
373.22	2279.39
373.43	2226.14
373.64	2166.75
373.85	2408.41
374.06	2383.84
374.26	2353.12
374.47	2242.53
374.68	2412.51
374.89	2334.68
375.10	2242.53
375.31	2367.45
375.52	2281.44
375.73	2318.30
375.94	2090.98
376.15	2363.36
376.36	2197.47
376.57	2222.05
376.78	2289.63
376.99	2273.25
377.20	2381.79
377.40	2224.09
377.61	2412.51
377.82	2142.18
378.03	2443.23
378.24	2293.72
378.45	2195.42
378.66	2246.62
378.87	2109.41
379.08	2142.18
379.29	2166.75
379.50	2336.73
379.71	2252.77
379.91	2308.06
380.12	2230.24
380.33	2238.43
380.54	2271.20
380.75	2213.85
380.96	2203.61
381.17	2389.98
381.38	2209.76
381.59	2291.68
381.80	2275.29
382.00	2459.61
382.21	2437.08
382.42	2553.82
382.63	2512.86
382.84	2285.53
383.05	2367.45
383.26	2383.84
383.47	2260.96
383.68	2220.00
383.88	2342.88
384.09	2299.87
384.30	2400.22
384.51	2310.11
384.72	2254.81
384.93	2121.70
385.14	2285.53
385.35	2265.05
385.55	2113.50
385.76	2389.98
385.97	2191.33
386.18	2062.30
386.39	2215.90
386.60	2226.14
386.81	2215.90
387.02	2078.69
387.22	2185.18
387.43	2371.55
387.64	2430.94
387.85	2461.66
388.06	2514.91
388.27	3911.62
388.48	8329.09
388.68	11509.58
388.89	13999.91
389.10	15013.66
389.31	13793.07
389.52	10776.41
389.73	9473.90
389.93	8646.52
390.14	7896.97
390.35	7149.46
390.56	6332.32
390.77	5181.36
390.98	3958.72
391.18	3203.02
391.39	2748.37
391.60	2408.41
391.81	2478.04
392.02	2203.61
392.23	2531.29
392.43	2242.53
392.64	2326.49
392.85	2179.04
393.06	2453.47
393.27	2324.44
393.47	2222.05
393.68	2246.62
393.89	2250.72
394.10	2367.45
394.31	2256.86
394.52	2224.09
394.72	2170.85
394.93	2496.47
395.14	2140.13
395.35	2326.49
395.56	2195.42
395.76	2271.20
395.97	2314.20
396.18	2385.88
396.39	2414.56
396.60	2703.32
396.80	2447.32
397.01	2381.79
397.22	2402.27
397.43	2457.56
397.64	2226.14
397.84	2293.72
398.05	2475.99
398.26	2299.87
398.47	2357.21
398.67	2314.20
398.88	2244.57
399.09	2318.30
399.30	2195.42
399.51	2256.86
399.71	2185.18
399.92	2326.49
400.13	2242.53
400.34	2201.57
400.54	2324.44
400.75	2398.17
400.96	2389.98
401.17	2326.49
401.37	2303.96
401.58	2256.86
401.79	2281.44
402.00	2480.09
402.21	2668.50
402.41	2512.86
402.62	2613.21
402.83	2766.81
403.04	2697.17
403.24	2906.07
403.45	2363.36
403.66	2531.29
403.87	2430.94
404.07	2541.53
404.28	2496.47
404.49	2510.81
404.70	2349.02
404.90	2381.79
405.11	2285.53
405.32	2344.92
405.52	2246.62
405.73	2217.95
405.94	2224.09
406.15	2250.72
406.35	2338.78
406.56	2303.96
406.77	2250.72
406.98	2353.12
407.18	2193.37
407.39	2385.88
407.60	2314.20
407.80	2269.15
408.01	2236.38
408.22	2295.77
408.43	2179.04
408.63	2293.72
408.84	2326.49
409.05	2383.84
409.25	2230.24
409.46	2254.81
409.67	2244.57
409.88	2273.25
410.08	2275.29
410.29	2207.71
410.50	2281.44
410.70	2297.82
410.91	2176.99
411.12	2230.24
411.32	2269.15
411.53	2154.46
411.74	2334.68
411.95	2426.84
412.15	2340.83
412.36	2428.89
412.57	2287.58
412.77	2416.60
412.98	2287.58
413.19	2228.19
413.39	2289.63
413.60	2224.09
413.81	2422.75
414.01	2140.13
414.22	2222.05
414.43	2258.91
414.63	2246.62
414.84	2314.20
415.05	2193.37
415.25	2138.08
415.46	2267.10
415.67	2181.09
415.87	2314.20
416.08	2256.86
416.29	2258.91
416.49	2263.01
416.70	2283.49
416.91	2224.09
417.11	2314.20
417.32	2273.25
417.53	2410.46
417.73	2269.15
417.94	2289.63
418.15	2303.96
418.35	2242.53
418.56	2185.18
418.77	2551.77
418.97	2318.30
419.18	2211.81
419.38	2007.01
419.59	2234.33
419.80	2410.46
420.00	2183.13
420.21	2273.25
420.42	2340.83
420.62	2310.11
420.83	2176.99
421.04	2207.71
421.24	2250.72
421.45	2291.68
421.65	2326.49
421.86	2166.75
422.07	2318.30
422.27	2308.06
422.48	2301.92
422.69	2133.98
422.89	2281.44
423.10	2172.89
423.30	2064.35
423.51	2330.59
423.72	2256.86
423.92	2351.07
424.13	2045.92
424.33	2297.82
424.54	2310.11
424.75	2211.81
424.95	2424.80
425.16	2254.81
425.36	2258.91
425.57	2353.12
425.78	2326.49
425.98	2295.77
426.19	2256.86
426.39	2195.42
426.60	2211.81
426.81	2402.27
427.01	2256.86
427.22	2191.33
427.42	2064.35
427.63	2123.74
427.83	2328.54
428.04	2359.26
428.25	2334.68
428.45	2351.07
428.66	2422.75
428.86	2285.53
429.07	2269.15
429.28	2254.81
429.48	2289.63
429.69	2220.00
429.89	2260.96
430.10	2033.63
430.30	2328.54
430.51	2310.11
430.71	2107.36
430.92	2301.92
431.13	2195.42
431.33	2289.63
431.54	2269.15
431.74	2402.27
431.95	2445.27
432.15	2238.43
432.36	2195.42
432.56	2332.64
432.77	2539.48
432.98	2504.67
433.18	2258.91
433.39	2211.81
433.59	2252.77
433.80	2514.91
434.00	2408.41
434.21	2211.81
434.41	2195.42
434.62	2523.10
434.82	2187.23
435.03	2197.47
435.23	2314.20
435.44	2119.65
435.64	2201.57
435.85	2246.62
436.06	2383.84
436.26	2279.39
436.47	2217.95
436.67	2236.38
436.88	2287.58
437.08	2365.40
437.29	2373.60
437.49	2220.00
437.70	2316.25
437.90	2252.77
438.11	2457.56
438.31	2189.28
438.52	2428.89
438.72	2506.71
438.93	2490.33
439.13	2291.68
439.34	2496.47
439.54	2279.39
439.75	2357.21
439.95	2359.26
440.16	2275.29
440.36	2310.11
440.57	2310.11
440.77	2299.87
440.98	2252.77
441.18	2269.15
441.39	2181.09
441.59	2201.57
441.80	2506.71
442.00	2250.72
442.21	2408.41
442.41	2117.60
442.62	2359.26
442.82	2205.66
443.02	2199.52
443.23	2371.55
443.43	2236.38
443.64	2377.69
443.84	2162.66
444.05	2412.51
444.25	2234.33
444.46	2232.29
444.66	2289.63
444.87	2332.64
445.07	2133.98
445.28	2285.53
445.48	2285.53
445.69	2322.40
445.89	2449.37
446.09	2289.63
446.30	2488.28
446.50	2926.55
446.71	4437.95
446.91	5494.70
447.12	6336.42
447.32	6657.95
447.53	6133.67
447.73	5070.77
447.93	4548.54
448.14	4224.96
448.34	4085.70
448.55	3428.30
448.75	3532.75
448.96	3246.03
449.16	3088.34
449.36	2783.19
449.57	2574.30
449.77	2400.22
449.98	2269.15
450.18	2324.44
450.39	2285.53
450.59	2371.55
450.79	2326.49
451.00	2203.61
451.20	2295.77
451.41	2193.37
451.61	2338.78
451.81	2285.53
452.02	2220.00
452.22	2166.75
452.43	2228.19
452.63	2217.95
