SpectraSuite Data File
++++++++++++++++++++++++++++++++++++
Date: Thu May 05 13:21:16 CEST 2016
User: root
Dark Spectrum Present: No
Reference Spectrum Present: No
Number of Sampled Component Spectra: 1
Spectrometers: USB4C02835
Integration Time (usec): 100000 (USB4C02835)
Spectra Averaged: 1 (USB4C02835)
Boxcar Smoothing: 0 (USB4C02835)
Correct for Electrical Dark: No (USB4C02835)
Strobe/Lamp Enabled: No (USB4C02835)
Correct for Detector Non-linearity: No (USB4C02835)
Correct for Stray Light: No (USB4C02835)
Number of Pixels in Processed Spectrum: 3648
>>>>>Begin Processed Spectral Data<<<<<
177.47	1783.78
177.69	1783.78
177.91	1783.78
178.13	1816.55
178.36	1798.12
178.58	2179.04
178.80	2361.31
179.02	2093.02
179.24	2213.85
179.46	2209.76
179.68	2277.34
179.90	2263.01
180.13	2263.01
180.35	2127.84
180.57	2129.89
180.79	2326.49
181.01	2246.62
181.23	2220.00
181.45	2392.03
181.67	2351.07
181.90	2310.11
182.12	2146.27
182.34	2080.74
182.56	2289.63
182.78	2256.86
183.00	2152.42
183.22	2191.33
183.44	2078.69
183.66	2547.67
183.89	2281.44
184.11	2246.62
184.33	2351.07
184.55	2387.93
184.77	2213.85
184.99	2174.94
185.21	2195.42
185.43	2523.10
185.65	2191.33
185.87	2203.61
186.10	2525.15
186.32	2449.37
186.54	2248.67
186.76	2195.42
186.98	2361.31
187.20	2238.43
187.42	2260.96
187.64	2144.22
187.86	2328.54
188.08	2357.21
188.30	2203.61
188.52	2203.61
188.75	2439.13
188.97	2387.93
189.19	2109.41
189.41	2150.37
189.63	2250.72
189.85	2082.78
190.07	2154.46
190.29	2041.82
190.51	2338.78
190.73	2084.83
190.95	2301.92
191.17	2213.85
191.39	2150.37
191.61	2199.52
191.84	2203.61
192.06	2246.62
192.28	2142.18
192.50	2512.86
192.72	2236.38
192.94	2242.53
193.16	2361.31
193.38	2293.72
193.60	2133.98
193.82	2154.46
194.04	2383.84
194.26	2400.22
194.48	2222.05
194.70	2166.75
194.92	2195.42
195.14	2351.07
195.36	2170.85
195.58	2222.05
195.80	2217.95
196.02	2234.33
196.24	2142.18
196.46	2263.01
196.69	2213.85
196.91	2545.63
197.13	2121.70
197.35	2179.04
197.57	2445.27
197.79	2310.11
198.01	2258.91
198.23	2215.90
198.45	2250.72
198.67	2146.27
198.89	2183.13
199.11	2215.90
199.33	2136.03
199.55	2039.78
199.77	2123.74
199.99	2230.24
200.21	2191.33
200.43	2340.83
200.65	2086.88
200.87	2078.69
201.09	2322.40
201.31	2273.25
201.53	2158.56
201.75	2201.57
201.97	2236.38
202.19	2250.72
202.41	2207.71
202.63	2336.73
202.85	2242.53
203.07	2265.05
203.29	2215.90
203.51	2160.61
203.73	2158.56
203.95	2531.29
204.17	2176.99
204.39	2203.61
204.61	2252.77
204.83	2133.98
205.05	2250.72
205.27	2230.24
205.49	2430.94
205.71	2281.44
205.93	2127.84
206.15	2105.31
206.37	2293.72
206.59	2246.62
206.81	2136.03
207.03	2129.89
207.25	2160.61
207.47	2320.35
207.69	2203.61
207.91	2306.01
208.13	2410.46
208.34	2129.89
208.56	2123.74
208.78	2228.19
209.00	2193.37
209.22	2174.94
209.44	2172.89
209.66	2250.72
209.88	2203.61
210.10	2277.34
210.32	2138.08
210.54	2314.20
210.76	2211.81
210.98	2342.88
211.20	1986.53
211.42	2240.48
211.64	2478.04
211.86	2310.11
212.08	2275.29
212.30	2211.81
212.52	2215.90
212.74	2308.06
212.96	2226.14
213.17	2246.62
213.39	2312.16
213.61	2451.42
213.83	2142.18
214.05	2146.27
214.27	2299.87
214.49	2168.80
214.71	2162.66
214.93	2367.45
215.15	2289.63
215.37	2273.25
215.59	2029.54
215.81	2232.29
216.03	2408.41
216.24	2250.72
216.46	2158.56
216.68	2211.81
216.90	2338.78
217.12	2283.49
217.34	2117.60
217.56	2205.66
217.78	2336.73
218.00	2265.05
218.22	2220.00
218.44	2254.81
218.66	2275.29
218.87	2457.56
219.09	2158.56
219.31	2203.61
219.53	2318.30
219.75	2191.33
219.97	2273.25
220.19	2203.61
220.41	2209.76
220.63	2404.32
220.85	2234.33
221.06	2152.42
221.28	2426.84
221.50	2285.53
221.72	2232.29
221.94	2211.81
222.16	2220.00
222.38	2385.88
222.60	2187.23
222.82	2138.08
223.03	2326.49
223.25	2154.46
223.47	2226.14
223.69	2320.35
223.91	2392.03
224.13	2269.15
224.35	2103.26
224.57	2363.36
224.78	2207.71
225.00	2203.61
225.22	2250.72
225.44	2150.37
225.66	2248.67
225.88	2209.76
226.10	2199.52
226.32	2203.61
226.53	2457.56
226.75	2232.29
226.97	2183.13
227.19	2252.77
227.41	2209.76
227.63	2303.96
227.85	2101.22
228.06	2199.52
228.28	2252.77
228.50	2367.45
228.72	2076.64
228.94	2166.75
229.16	2052.06
229.37	2129.89
229.59	2136.03
229.81	2310.11
230.03	2250.72
230.25	2113.50
230.47	2037.73
230.69	2084.83
230.90	2414.56
231.12	2183.13
231.34	2170.85
231.56	2271.20
231.78	2154.46
232.00	2179.04
232.21	2191.33
232.43	2197.47
232.65	2076.64
232.87	2291.68
233.09	2027.49
233.30	2125.79
233.52	2303.96
233.74	2310.11
233.96	2187.23
234.18	2254.81
234.40	2217.95
234.61	2506.71
234.83	2068.45
235.05	2064.35
235.27	2473.95
235.49	2351.07
235.70	2111.46
235.92	2322.40
236.14	2324.44
236.36	2611.16
236.58	2078.69
236.79	2254.81
237.01	2226.14
237.23	2283.49
237.45	2375.64
237.67	2170.85
237.88	2263.01
238.10	2459.61
238.32	2179.04
238.54	2146.27
238.76	2162.66
238.97	2160.61
239.19	2050.02
239.41	2310.11
239.63	2392.03
239.85	2248.67
240.06	2207.71
240.28	2179.04
240.50	2297.82
240.72	2287.58
240.93	2121.70
241.15	2285.53
241.37	2205.66
241.59	2428.89
241.81	2205.66
242.02	2193.37
242.24	2322.40
242.46	2334.68
242.68	2148.32
242.89	2195.42
243.11	2332.64
243.33	2220.00
243.55	2168.80
243.76	2193.37
243.98	2189.28
244.20	2265.05
244.42	2154.46
244.64	2189.28
244.85	2064.35
245.07	2189.28
245.29	2174.94
245.51	2183.13
245.72	2318.30
245.94	2379.74
246.16	2248.67
246.38	2220.00
246.59	2144.22
246.81	2121.70
247.03	2127.84
247.24	2064.35
247.46	2195.42
247.68	2260.96
247.90	2097.12
248.11	2267.10
248.33	2289.63
248.55	2273.25
248.77	2213.85
248.98	2228.19
249.20	2439.13
249.42	2244.57
249.64	2174.94
249.85	2154.46
250.07	2154.46
250.29	2181.09
250.50	2258.91
250.72	2103.26
250.94	2338.78
251.16	2428.89
251.37	2273.25
251.59	2228.19
251.81	2293.72
252.02	2392.03
252.24	2056.16
252.46	2285.53
252.68	2179.04
252.89	2240.48
253.11	2039.78
253.33	2346.97
253.54	2416.60
253.76	2127.84
253.98	2189.28
254.20	2193.37
254.41	2168.80
254.63	2256.86
254.85	2099.17
255.06	2191.33
255.28	2338.78
255.50	2246.62
255.71	2117.60
255.93	2074.59
256.15	2246.62
256.36	2252.77
256.58	2162.66
256.80	2256.86
257.02	2160.61
257.23	2260.96
257.45	2193.37
257.67	2285.53
257.88	2152.42
258.10	2324.44
258.32	2146.27
258.53	2226.14
258.75	2416.60
258.97	2174.94
259.18	2113.50
259.40	2172.89
259.62	2387.93
259.83	2389.98
260.05	2265.05
260.27	2627.54
260.48	2359.26
260.70	2070.50
260.92	2162.66
261.13	2222.05
261.35	2279.39
261.57	2318.30
261.78	2052.06
262.00	2084.83
262.22	2355.16
262.43	2203.61
262.65	2263.01
262.86	2187.23
263.08	2480.09
263.30	2242.53
263.51	1998.82
263.73	2136.03
263.95	2414.56
264.16	2183.13
264.38	2127.84
264.60	2150.37
264.81	2287.58
265.03	2379.74
265.25	2389.98
265.46	2133.98
265.68	2414.56
265.89	2291.68
266.11	2088.93
266.33	2176.99
266.54	2361.31
266.76	2351.07
266.98	2291.68
267.19	2246.62
267.41	2316.25
267.62	2185.18
267.84	2078.69
268.06	2314.20
268.27	2285.53
268.49	2326.49
268.70	2277.34
268.92	2238.43
269.14	2136.03
269.35	2021.35
269.57	2226.14
269.79	2248.67
270.00	2211.81
270.22	2424.80
270.43	2107.36
270.65	1968.10
270.87	2265.05
271.08	2340.83
271.30	2281.44
271.51	2199.52
271.73	2355.16
271.95	2451.42
272.16	2156.51
272.38	2320.35
272.59	2203.61
272.81	2363.36
273.02	2086.88
273.24	2154.46
273.46	2275.29
273.67	2113.50
273.89	2136.03
274.10	2172.89
274.32	2365.40
274.54	2334.68
274.75	2213.85
274.97	2176.99
275.18	2336.73
275.40	2295.77
275.61	2115.55
275.83	2215.90
276.05	2146.27
276.26	2199.52
276.48	2183.13
276.69	2211.81
276.91	2162.66
277.12	2400.22
277.34	2269.15
277.55	2322.40
277.77	2199.52
277.99	2197.47
278.20	2125.79
278.42	2150.37
278.63	2146.27
278.85	2176.99
279.06	2131.94
279.28	2265.05
279.49	2330.59
279.71	2260.96
279.93	2301.92
280.14	2207.71
280.36	2176.99
280.57	2408.41
280.79	2326.49
281.00	2138.08
281.22	2113.50
281.43	2330.59
281.65	2029.54
281.86	2203.61
282.08	2336.73
282.29	2428.89
282.51	2041.82
282.73	2109.41
282.94	2115.55
283.16	2303.96
283.37	2318.30
283.59	2283.49
283.80	2326.49
284.02	2228.19
284.23	2338.78
284.45	2217.95
284.66	2197.47
284.88	2199.52
285.09	2271.20
285.31	2273.25
285.52	2306.01
285.74	2062.30
285.95	2277.34
286.17	2291.68
286.38	2301.92
286.60	2189.28
286.81	2158.56
287.03	2242.53
287.24	2279.39
287.46	2322.40
287.67	2260.96
287.89	2342.88
288.10	2260.96
288.32	2275.29
288.53	2267.10
288.75	2224.09
288.96	2289.63
289.18	2222.05
289.39	2322.40
289.61	2351.07
289.82	2523.10
290.04	2529.24
290.25	2107.36
290.47	2211.81
290.68	2248.67
290.90	2412.51
291.11	2041.82
291.33	2258.91
291.54	2215.90
291.76	2142.18
291.97	2318.30
292.18	2197.47
292.40	2181.09
292.61	2189.28
292.83	2437.08
293.04	2387.93
293.26	2281.44
293.47	2238.43
293.69	2095.07
293.90	2254.81
294.12	2320.35
294.33	2306.01
294.55	2174.94
294.76	2299.87
294.97	2377.69
295.19	2443.23
295.40	2105.31
295.62	2215.90
295.83	2328.54
296.05	2162.66
296.26	2314.20
296.48	2195.42
296.69	2220.00
296.90	2244.57
297.12	2226.14
297.33	2328.54
297.55	2340.83
297.76	2289.63
297.98	2310.11
298.19	2285.53
298.41	2244.57
298.62	2150.37
298.83	2281.44
299.05	2252.77
299.26	2215.90
299.48	2203.61
299.69	2316.25
299.90	2226.14
300.12	2138.08
300.33	2369.50
300.55	2228.19
300.76	2240.48
300.98	2176.99
301.19	2375.64
301.40	2228.19
301.62	2242.53
301.83	2258.91
302.05	2258.91
302.26	2185.18
302.47	2277.34
302.69	2154.46
302.90	2265.05
303.12	2107.36
303.33	2176.99
303.54	2349.02
303.76	2254.81
303.97	2234.33
304.19	2351.07
304.40	2105.31
304.61	2396.12
304.83	2371.55
305.04	2367.45
305.26	2209.76
305.47	2289.63
305.68	2211.81
305.90	2107.36
306.11	2299.87
306.33	2236.38
306.54	2142.18
306.75	2121.70
306.97	2166.75
307.18	2160.61
307.39	2166.75
307.61	2232.29
307.82	2187.23
308.04	2324.44
308.25	2187.23
308.46	2265.05
308.68	2217.95
308.89	2275.29
309.10	2316.25
309.32	2301.92
309.53	2285.53
309.74	2226.14
309.96	2224.09
310.17	2443.23
310.39	2187.23
310.60	2301.92
310.81	2195.42
311.03	2037.73
311.24	2283.49
311.45	2224.09
311.67	2437.08
311.88	2258.91
312.09	2191.33
312.31	2252.77
312.52	2275.29
312.73	2176.99
312.95	2142.18
313.16	2236.38
313.37	2273.25
313.59	2340.83
313.80	2357.21
314.01	2406.36
314.23	2291.68
314.44	2172.89
314.65	2127.84
314.87	2205.66
315.08	2164.70
315.29	2181.09
315.51	2133.98
315.72	2111.46
315.93	2351.07
316.15	2306.01
316.36	2187.23
316.57	2361.31
316.79	2250.72
317.00	2185.18
317.21	2322.40
317.43	2197.47
317.64	2258.91
317.85	2131.94
318.07	2183.13
318.28	2279.39
318.49	2396.12
318.70	2531.29
318.92	2437.08
319.13	2359.26
319.34	2430.94
319.56	2357.21
319.77	2381.79
319.98	2457.56
320.20	2385.88
320.41	2277.34
320.62	2273.25
320.83	2138.08
321.05	2490.33
321.26	2260.96
321.47	2140.13
321.69	2471.90
321.90	2105.31
322.11	2080.74
322.32	2258.91
322.54	2314.20
322.75	2215.90
322.96	2484.19
323.18	2150.37
323.39	2179.04
323.60	2201.57
323.81	2355.16
324.03	2199.52
324.24	2301.92
324.45	2217.95
324.66	2203.61
324.88	2318.30
325.09	2379.74
325.30	2213.85
325.52	2201.57
325.73	2342.88
325.94	2211.81
326.15	2070.50
326.37	2162.66
326.58	2277.34
326.79	2342.88
327.00	2076.64
327.22	2308.06
327.43	2256.86
327.64	2111.46
327.85	2269.15
328.07	2185.18
328.28	2537.43
328.49	2277.34
328.70	2215.90
328.92	2236.38
329.13	2195.42
329.34	2271.20
329.55	2480.09
329.76	2394.08
329.98	2246.62
330.19	2379.74
330.40	2312.16
330.61	2222.05
330.83	2351.07
331.04	2146.27
331.25	2260.96
331.46	2170.85
331.68	2125.79
331.89	2367.45
332.10	2244.57
332.31	2140.13
332.52	2236.38
332.74	2385.88
332.95	2138.08
333.16	2117.60
333.37	2371.55
333.58	2258.91
333.80	2260.96
334.01	2138.08
334.22	2273.25
334.43	2142.18
334.64	2162.66
334.86	2181.09
335.07	2183.13
335.28	2416.60
335.49	2103.26
335.70	2293.72
335.92	2416.60
336.13	2465.75
336.34	2306.01
336.55	2244.57
336.76	2269.15
336.98	2027.49
337.19	2211.81
337.40	2330.59
337.61	2508.76
337.82	2162.66
338.04	2279.39
338.25	2097.12
338.46	2215.90
338.67	2289.63
338.88	2162.66
339.09	2099.17
339.31	2271.20
339.52	2090.98
339.73	2170.85
339.94	2248.67
340.15	2394.08
340.36	2222.05
340.58	2260.96
340.79	2150.37
341.00	2297.82
341.21	2129.89
341.42	2490.33
341.63	2176.99
341.85	2353.12
342.06	2291.68
342.27	2158.56
342.48	2267.10
342.69	2152.42
342.90	2336.73
343.12	2346.97
343.33	2201.57
343.54	2349.02
343.75	2408.41
343.96	2215.90
344.17	2172.89
344.38	2172.89
344.60	2136.03
344.81	2170.85
345.02	2168.80
345.23	2338.78
345.44	2510.81
345.65	2338.78
345.86	2258.91
346.07	2277.34
346.29	2162.66
346.50	2342.88
346.71	2275.29
346.92	2392.03
347.13	2586.58
347.34	2228.19
347.55	2201.57
347.76	2281.44
347.98	2109.41
348.19	2185.18
348.40	2320.35
348.61	2246.62
348.82	2437.08
349.03	2322.40
349.24	2115.55
349.45	2447.32
349.66	2039.78
349.88	2275.29
350.09	2158.56
350.30	2400.22
350.51	2299.87
350.72	2271.20
350.93	2234.33
351.14	2224.09
351.35	2277.34
351.56	2263.01
351.77	2148.32
351.99	2254.81
352.20	2396.12
352.41	2295.77
352.62	2078.69
352.83	2320.35
353.04	2285.53
353.25	2217.95
353.46	2346.97
353.67	2373.60
353.88	2129.89
354.09	2252.77
354.30	2240.48
354.52	2379.74
354.73	2250.72
354.94	2226.14
355.15	2215.90
355.36	2371.55
355.57	2176.99
355.78	2244.57
355.99	2170.85
356.20	2162.66
356.41	2359.26
356.62	2285.53
356.83	2367.45
357.04	2414.56
357.25	2119.65
357.46	2209.76
357.68	2080.74
357.89	2244.57
358.10	2211.81
358.31	2240.48
358.52	2170.85
358.73	2129.89
358.94	2189.28
359.15	2168.80
359.36	2332.64
359.57	2295.77
359.78	2236.38
359.99	2203.61
360.20	2195.42
360.41	2293.72
360.62	2213.85
360.83	2234.33
361.04	2310.11
361.25	2179.04
361.46	2471.90
361.67	2275.29
361.88	2209.76
362.09	2260.96
362.30	2244.57
362.51	2125.79
362.72	2230.24
362.93	2338.78
363.14	2355.16
363.35	2203.61
363.56	2166.75
363.78	2387.93
363.99	2349.02
364.20	2203.61
364.41	2295.77
364.62	2465.75
364.83	2260.96
365.04	2181.09
365.25	2297.82
365.46	2467.80
365.67	2176.99
365.88	2224.09
366.09	2228.19
366.30	2260.96
366.51	2125.79
366.72	2129.89
366.93	2228.19
367.14	2228.19
367.35	2357.21
367.56	2211.81
367.77	2383.84
367.98	2244.57
368.18	2310.11
368.39	2301.92
368.60	2156.51
368.81	2402.27
369.02	2285.53
369.23	2250.72
369.44	2113.50
369.65	2207.71
369.86	2283.49
370.07	2346.97
370.28	2150.37
370.49	2340.83
370.70	2404.32
370.91	2170.85
371.12	2088.93
371.33	2320.35
371.54	2136.03
371.75	2357.21
371.96	2027.49
372.17	2299.87
372.38	2168.80
372.59	2285.53
372.80	2244.57
373.01	2220.00
373.22	2230.24
373.43	2207.71
373.64	2136.03
373.85	2418.65
374.06	2441.18
374.26	2322.40
374.47	2263.01
374.68	2392.03
374.89	2244.57
375.10	2236.38
375.31	2346.97
375.52	2170.85
375.73	2187.23
375.94	2197.47
376.15	2367.45
376.36	2201.57
376.57	2203.61
376.78	2217.95
376.99	2234.33
377.20	2408.41
377.40	2234.33
377.61	2414.56
377.82	2129.89
378.03	2367.45
378.24	2416.60
378.45	2271.20
378.66	2287.58
378.87	2119.65
379.08	2062.30
379.29	2234.33
379.50	2291.68
379.71	2228.19
379.91	2318.30
380.12	2174.94
380.33	2217.95
380.54	2199.52
380.75	2170.85
380.96	2170.85
381.17	2324.44
381.38	2228.19
381.59	2363.36
381.80	2293.72
382.00	2383.84
382.21	2318.30
382.42	2416.60
382.63	2557.91
382.84	2275.29
383.05	2301.92
383.26	2363.36
383.47	2197.47
383.68	2260.96
383.88	2254.81
384.09	2303.96
384.30	2430.94
384.51	2301.92
384.72	2279.39
384.93	2080.74
385.14	2254.81
385.35	2467.80
385.55	2131.94
385.76	2330.59
385.97	2244.57
386.18	2064.35
386.39	2240.48
386.60	2242.53
386.81	2256.86
387.02	2191.33
387.22	2174.94
387.43	2373.60
387.64	2248.67
387.85	2402.27
388.06	2514.91
388.27	3928.00
388.48	8097.67
388.68	11603.79
388.89	13881.13
389.10	14894.88
389.31	13879.08
389.52	10936.15
389.73	9318.26
389.93	8769.40
390.14	7896.97
390.35	6946.71
390.56	6225.82
390.77	5148.59
390.98	3997.64
391.18	3217.36
391.39	2826.20
391.60	2400.22
391.81	2478.04
392.02	2203.61
392.23	2582.49
392.43	2312.16
392.64	2349.02
392.85	2260.96
393.06	2453.47
393.27	2209.76
393.47	2183.13
393.68	2269.15
393.89	2217.95
394.10	2375.64
394.31	2205.66
394.52	2224.09
394.72	2179.04
394.93	2437.08
395.14	2086.88
395.35	2289.63
395.56	2185.18
395.76	2179.04
395.97	2254.81
396.18	2338.78
396.39	2357.21
396.60	2748.37
396.80	2490.33
397.01	2377.69
397.22	2416.60
397.43	2449.37
397.64	2297.82
397.84	2346.97
398.05	2435.03
398.26	2363.36
398.47	2357.21
398.67	2344.92
398.88	2285.53
399.09	2250.72
399.30	2252.77
399.51	2375.64
399.71	2232.29
399.92	2191.33
400.13	2295.77
400.34	2220.00
400.54	2217.95
400.75	2441.18
400.96	2330.59
401.17	2387.93
401.37	2250.72
401.58	2238.43
401.79	2170.85
402.00	2396.12
402.21	2650.07
402.41	2611.16
402.62	2568.15
402.83	2584.54
403.04	2721.75
403.24	2801.62
403.45	2349.02
403.66	2564.06
403.87	2482.14
404.07	2553.82
404.28	2492.38
404.49	2510.81
404.70	2299.87
404.90	2357.21
405.11	2301.92
405.32	2320.35
405.52	2174.94
405.73	2183.13
405.94	2103.26
406.15	2291.68
406.35	2269.15
406.56	2322.40
406.77	2283.49
406.98	2320.35
407.18	2203.61
407.39	2375.64
407.60	2150.37
407.80	2297.82
408.01	2230.24
408.22	2293.72
408.43	2244.57
408.63	2295.77
408.84	2396.12
409.05	2392.03
409.25	2240.48
409.46	2234.33
409.67	2191.33
409.88	2172.89
410.08	2230.24
410.29	2228.19
410.50	2260.96
410.70	2267.10
410.91	2113.50
411.12	2256.86
411.32	2211.81
411.53	2162.66
411.74	2299.87
411.95	2361.31
412.15	2326.49
412.36	2449.37
412.57	2363.36
412.77	2359.26
412.98	2185.18
413.19	2187.23
413.39	2330.59
413.60	2312.16
413.81	2389.98
414.01	2127.84
414.22	2285.53
414.43	2310.11
414.63	2203.61
414.84	2375.64
415.05	2215.90
415.25	2136.03
415.46	2332.64
415.67	2146.27
415.87	2338.78
416.08	2256.86
416.29	2238.43
416.49	2383.84
416.70	2160.61
416.91	2232.29
417.11	2220.00
417.32	2422.75
417.53	2349.02
417.73	2324.44
417.94	2260.96
418.15	2344.92
418.35	2326.49
418.56	2303.96
418.77	2467.80
418.97	2265.05
419.18	2172.89
419.38	2031.58
419.59	2248.67
419.80	2412.51
420.00	2234.33
420.21	2244.57
420.42	2455.51
420.62	2287.58
420.83	2195.42
421.04	2232.29
421.24	2240.48
421.45	2381.79
421.65	2271.20
421.86	2142.18
422.07	2357.21
422.27	2314.20
422.48	2236.38
422.69	2123.74
422.89	2252.77
423.10	2215.90
423.30	2129.89
423.51	2228.19
423.72	2340.83
423.92	2332.64
424.13	2103.26
424.33	2191.33
424.54	2367.45
424.75	2263.01
424.95	2349.02
425.16	2193.37
425.36	2207.71
425.57	2359.26
425.78	2248.67
425.98	2320.35
426.19	2236.38
426.39	2117.60
426.60	2287.58
426.81	2396.12
427.01	2320.35
427.22	2236.38
427.42	2142.18
427.63	2144.22
427.83	2367.45
428.04	2439.13
428.25	2322.40
428.45	2328.54
428.66	2428.89
428.86	2256.86
429.07	2203.61
429.28	2310.11
429.48	2351.07
429.69	2164.70
429.89	2306.01
430.10	2183.13
430.30	2306.01
430.51	2371.55
430.71	2066.40
430.92	2179.04
431.13	2123.74
431.33	2346.97
431.54	2359.26
431.74	2412.51
431.95	2500.57
432.15	2164.70
432.36	2230.24
432.56	2267.10
432.77	2486.23
432.98	2383.84
433.18	2258.91
433.39	2265.05
433.59	2260.96
433.80	2437.08
434.00	2430.94
434.21	2260.96
434.41	2201.57
434.62	2549.72
434.82	2183.13
435.03	2185.18
435.23	2195.42
435.44	2193.37
435.64	2213.85
435.85	2236.38
436.06	2428.89
436.26	2361.31
436.47	2220.00
436.67	2179.04
436.88	2293.72
437.08	2377.69
437.29	2385.88
437.49	2252.77
437.70	2392.03
437.90	2285.53
438.11	2400.22
438.31	2312.16
438.52	2412.51
438.72	2555.86
438.93	2498.52
439.13	2330.59
439.34	2428.89
439.54	2197.47
439.75	2318.30
439.95	2293.72
440.16	2242.53
440.36	2273.25
440.57	2297.82
440.77	2287.58
440.98	2260.96
441.18	2318.30
441.39	2187.23
441.59	2172.89
441.80	2457.56
442.00	2314.20
442.21	2377.69
442.41	2168.80
442.62	2312.16
442.82	2211.81
443.02	2336.73
443.23	2244.57
443.43	2226.14
443.64	2389.98
443.84	2207.71
444.05	2320.35
444.25	2279.39
444.46	2310.11
444.66	2250.72
444.87	2486.23
445.07	2123.74
445.28	2129.89
445.48	2447.32
445.69	2310.11
445.89	2523.10
446.09	2228.19
446.30	2568.15
446.50	2830.29
446.71	4431.80
446.91	5437.36
447.12	6336.42
447.32	6588.32
447.53	6133.67
447.73	5154.74
447.93	4620.22
448.14	4288.45
448.34	3973.06
448.55	3545.03
448.75	3538.89
448.96	3424.20
449.16	3030.99
449.36	2795.48
449.57	2600.92
449.77	2375.64
449.98	2193.37
450.18	2340.83
450.39	2291.68
450.59	2326.49
450.79	2254.81
451.00	2205.66
451.20	2273.25
451.41	2236.38
451.61	2281.44
451.81	2285.53
452.02	2148.32
452.22	2228.19
452.43	2244.57
452.63	2236.38
