SpectraSuite Data File
++++++++++++++++++++++++++++++++++++
Date: Thu May 05 13:20:56 CEST 2016
User: root
Dark Spectrum Present: No
Reference Spectrum Present: No
Number of Sampled Component Spectra: 1
Spectrometers: USB4C02835
Integration Time (usec): 100000 (USB4C02835)
Spectra Averaged: 1 (USB4C02835)
Boxcar Smoothing: 0 (USB4C02835)
Correct for Electrical Dark: No (USB4C02835)
Strobe/Lamp Enabled: No (USB4C02835)
Correct for Detector Non-linearity: No (USB4C02835)
Correct for Stray Light: No (USB4C02835)
Number of Pixels in Processed Spectrum: 3648
>>>>>Begin Processed Spectral Data<<<<<
177.47	1738.73
177.69	1738.73
177.91	1738.73
178.13	1773.54
178.36	1841.12
178.58	2160.61
178.80	2285.53
179.02	2140.13
179.24	2148.32
179.46	2144.22
179.68	2260.96
179.90	2170.85
180.13	2312.16
180.35	2105.31
180.57	2162.66
180.79	2334.68
181.01	2246.62
181.23	2234.33
181.45	2303.96
181.67	2297.82
181.90	2412.51
182.12	2170.85
182.34	2054.11
182.56	2301.92
182.78	2279.39
183.00	2160.61
183.22	2271.20
183.44	2174.94
183.66	2568.15
183.89	2273.25
184.11	2158.56
184.33	2248.67
184.55	2355.16
184.77	2170.85
184.99	2195.42
185.21	2199.52
185.43	2457.56
185.65	2123.74
185.87	2187.23
186.10	2445.27
186.32	2410.46
186.54	2242.53
186.76	2228.19
186.98	2289.63
187.20	2209.76
187.42	2113.50
187.64	2238.43
187.86	2306.01
188.08	2381.79
188.30	2105.31
188.52	2203.61
188.75	2396.12
188.97	2447.32
189.19	2109.41
189.41	2133.98
189.63	2283.49
189.85	2152.42
190.07	2105.31
190.29	2113.50
190.51	2373.60
190.73	2133.98
190.95	2234.33
191.17	2183.13
191.39	2133.98
191.61	2260.96
191.84	2199.52
192.06	2217.95
192.28	2103.26
192.50	2533.34
192.72	2193.37
192.94	2265.05
193.16	2396.12
193.38	2258.91
193.60	2117.60
193.82	2211.81
194.04	2344.92
194.26	2275.29
194.48	2211.81
194.70	2162.66
194.92	2197.47
195.14	2351.07
195.36	2088.93
195.58	2316.25
195.80	2195.42
196.02	2252.77
196.24	2240.48
196.46	2217.95
196.69	2144.22
196.91	2551.77
197.13	2187.23
197.35	2197.47
197.57	2406.36
197.79	2281.44
198.01	2187.23
198.23	2234.33
198.45	2258.91
198.67	2090.98
198.89	2119.65
199.11	2289.63
199.33	2150.37
199.55	2080.74
199.77	2176.99
199.99	2277.34
200.21	2244.57
200.43	2248.67
200.65	2064.35
200.87	2035.68
201.09	2240.48
201.31	2252.77
201.53	2211.81
201.75	2185.18
201.97	2326.49
202.19	2217.95
202.41	2205.66
202.63	2375.64
202.85	2289.63
203.07	2250.72
203.29	2125.79
203.51	2111.46
203.73	2146.27
203.95	2461.66
204.17	2234.33
204.39	2236.38
204.61	2248.67
204.83	2222.05
205.05	2256.86
205.27	2277.34
205.49	2627.54
205.71	2160.61
205.93	2117.60
206.15	2084.83
206.37	2301.92
206.59	2191.33
206.81	2060.26
207.03	2121.70
207.25	2150.37
207.47	2349.02
207.69	2195.42
207.91	2326.49
208.13	2404.32
208.34	2238.43
208.56	2115.55
208.78	2199.52
209.00	2220.00
209.22	2193.37
209.44	2179.04
209.66	2105.31
209.88	2234.33
210.10	2267.10
210.32	2166.75
210.54	2279.39
210.76	2170.85
210.98	2346.97
211.20	2113.50
211.42	2217.95
211.64	2295.77
211.86	2283.49
212.08	2312.16
212.30	2187.23
212.52	2228.19
212.74	2291.68
212.96	2199.52
213.17	2250.72
213.39	2392.03
213.61	2385.88
213.83	2140.13
214.05	2209.76
214.27	2389.98
214.49	2258.91
214.71	2086.88
214.93	2244.57
215.15	2299.87
215.37	2363.36
215.59	2115.55
215.81	2273.25
216.03	2420.70
216.24	2283.49
216.46	2201.57
216.68	2205.66
216.90	2373.60
217.12	2273.25
217.34	2113.50
217.56	2258.91
217.78	2387.93
218.00	2293.72
218.22	2203.61
218.44	2242.53
218.66	2244.57
218.87	2420.70
219.09	2142.18
219.31	2146.27
219.53	2324.44
219.75	2228.19
219.97	2187.23
220.19	2224.09
220.41	2152.42
220.63	2373.60
220.85	2252.77
221.06	2248.67
221.28	2387.93
221.50	2381.79
221.72	2211.81
221.94	2189.28
222.16	2238.43
222.38	2369.50
222.60	2185.18
222.82	2260.96
223.03	2381.79
223.25	2148.32
223.47	2109.41
223.69	2340.83
223.91	2299.87
224.13	2271.20
224.35	2109.41
224.57	2220.00
224.78	2314.20
225.00	2174.94
225.22	2125.79
225.44	2279.39
225.66	2283.49
225.88	2199.52
226.10	2289.63
226.32	2140.13
226.53	2416.60
226.75	2217.95
226.97	2203.61
227.19	2162.66
227.41	2217.95
227.63	2203.61
227.85	2007.01
228.06	2174.94
228.28	2244.57
228.50	2301.92
228.72	2101.22
228.94	2179.04
229.16	2033.63
229.37	2193.37
229.59	2181.09
229.81	2330.59
230.03	2252.77
230.25	2113.50
230.47	1990.63
230.69	2156.51
230.90	2328.54
231.12	2176.99
231.34	2205.66
231.56	2277.34
231.78	2224.09
232.00	2308.06
232.21	2193.37
232.43	2154.46
232.65	2072.54
232.87	2326.49
233.09	2129.89
233.30	2146.27
233.52	2344.92
233.74	2240.48
233.96	2162.66
234.18	2293.72
234.40	2306.01
234.61	2455.51
234.83	2136.03
235.05	2152.42
235.27	2535.39
235.49	2351.07
235.70	2082.78
235.92	2258.91
236.14	2324.44
236.36	2523.10
236.58	2121.70
236.79	2197.47
237.01	2273.25
237.23	2193.37
237.45	2392.03
237.67	2234.33
237.88	2291.68
238.10	2461.66
238.32	2162.66
238.54	2213.85
238.76	2246.62
238.97	2193.37
239.19	2125.79
239.41	2340.83
239.63	2285.53
239.85	2220.00
240.06	2220.00
240.28	2150.37
240.50	2322.40
240.72	2179.04
240.93	2170.85
241.15	2254.81
241.37	2285.53
241.59	2430.94
241.81	2203.61
242.02	2138.08
242.24	2334.68
242.46	2367.45
242.68	2082.78
242.89	2150.37
243.11	2353.12
243.33	2269.15
243.55	2252.77
243.76	2213.85
243.98	2203.61
244.20	2224.09
244.42	2119.65
244.64	2232.29
244.85	2162.66
245.07	2162.66
245.29	2283.49
245.51	2187.23
245.72	2308.06
245.94	2432.99
246.16	2195.42
246.38	2158.56
246.59	2267.10
246.81	2179.04
247.03	2168.80
247.24	2076.64
247.46	2195.42
247.68	2320.35
247.90	2109.41
248.11	2084.83
248.33	2400.22
248.55	2197.47
248.77	2205.66
248.98	2226.14
249.20	2422.75
249.42	2256.86
249.64	2127.84
249.85	2144.22
250.07	2136.03
250.29	2342.88
250.50	2193.37
250.72	2064.35
250.94	2293.72
251.16	2469.85
251.37	2265.05
251.59	2256.86
251.81	2199.52
252.02	2365.40
252.24	2181.09
252.46	2293.72
252.68	2209.76
252.89	2162.66
253.11	2047.97
253.33	2287.58
253.54	2365.40
253.76	2195.42
253.98	2187.23
254.20	2228.19
254.41	2072.54
254.63	2228.19
254.85	2041.82
255.06	2238.43
255.28	2340.83
255.50	2185.18
255.71	2203.61
255.93	2037.73
256.15	2193.37
256.36	2336.73
256.58	2109.41
256.80	2174.94
257.02	2220.00
257.23	2260.96
257.45	2207.71
257.67	2228.19
257.88	2207.71
258.10	2314.20
258.32	2138.08
258.53	2240.48
258.75	2457.56
258.97	2203.61
259.18	2154.46
259.40	2176.99
259.62	2471.90
259.83	2383.84
260.05	2162.66
260.27	2658.26
260.48	2289.63
260.70	2144.22
260.92	2103.26
261.13	2166.75
261.35	2310.11
261.57	2297.82
261.78	2129.89
262.00	2133.98
262.22	2285.53
262.43	2217.95
262.65	2285.53
262.86	2174.94
263.08	2523.10
263.30	2254.81
263.51	2060.26
263.73	2093.02
263.95	2367.45
264.16	2136.03
264.38	2082.78
264.60	2203.61
264.81	2283.49
265.03	2281.44
265.25	2293.72
265.46	2199.52
265.68	2400.22
265.89	2344.92
266.11	2109.41
266.33	2179.04
266.54	2334.68
266.76	2295.77
266.98	2254.81
267.19	2220.00
267.41	2306.01
267.62	2242.53
267.84	2105.31
268.06	2199.52
268.27	2191.33
268.49	2342.88
268.70	2291.68
268.92	2127.84
269.14	2136.03
269.35	2152.42
269.57	2217.95
269.79	2256.86
270.00	2158.56
270.22	2420.70
270.43	2078.69
270.65	1957.86
270.87	2215.90
271.08	2297.82
271.30	2238.43
271.51	2187.23
271.73	2308.06
271.95	2373.60
272.16	2273.25
272.38	2172.89
272.59	2164.70
272.81	2375.64
273.02	2176.99
273.24	2189.28
273.46	2308.06
273.67	2150.37
273.89	2125.79
274.10	2170.85
274.32	2467.80
274.54	2228.19
274.75	2281.44
274.97	2193.37
275.18	2338.78
275.40	2263.01
275.61	2215.90
275.83	2203.61
276.05	2109.41
276.26	2220.00
276.48	2316.25
276.69	2238.43
276.91	2285.53
277.12	2314.20
277.34	2230.24
277.55	2346.97
277.77	2289.63
277.99	2191.33
278.20	2172.89
278.42	2025.44
278.63	2187.23
278.85	2109.41
279.06	2152.42
279.28	2269.15
279.49	2297.82
279.71	2254.81
279.93	2220.00
280.14	2287.58
280.36	2138.08
280.57	2322.40
280.79	2289.63
281.00	2090.98
281.22	2238.43
281.43	2293.72
281.65	2045.92
281.86	2146.27
282.08	2234.33
282.29	2426.84
282.51	2097.12
282.73	2156.51
282.94	2056.16
283.16	2371.55
283.37	2389.98
283.59	2179.04
283.80	2293.72
284.02	2269.15
284.23	2254.81
284.45	2269.15
284.66	2119.65
284.88	2123.74
285.09	2211.81
285.31	2260.96
285.52	2260.96
285.74	2121.70
285.95	2293.72
286.17	2228.19
286.38	2459.61
286.60	2205.66
286.81	2170.85
287.03	2275.29
287.24	2295.77
287.46	2357.21
287.67	2244.57
287.89	2359.26
288.10	2240.48
288.32	2258.91
288.53	2346.97
288.75	2220.00
288.96	2267.10
289.18	2183.13
289.39	2154.46
289.61	2205.66
289.82	2443.23
290.04	2480.09
290.25	2170.85
290.47	2281.44
290.68	2258.91
290.90	2361.31
291.11	2056.16
291.33	2326.49
291.54	2187.23
291.76	2187.23
291.97	2293.72
292.18	2248.67
292.40	2248.67
292.61	2181.09
292.83	2432.99
293.04	2275.29
293.26	2297.82
293.47	2209.76
293.69	2107.36
293.90	2232.29
294.12	2308.06
294.33	2258.91
294.55	2285.53
294.76	2367.45
294.97	2426.84
295.19	2486.23
295.40	2224.09
295.62	2209.76
295.83	2303.96
296.05	2154.46
296.26	2338.78
296.48	2138.08
296.69	2217.95
296.90	2293.72
297.12	2351.07
297.33	2303.96
297.55	2260.96
297.76	2277.34
297.98	2340.83
298.19	2265.05
298.41	2265.05
298.62	2150.37
298.83	2361.31
299.05	2209.76
299.26	2185.18
299.48	2217.95
299.69	2283.49
299.90	2263.01
300.12	2179.04
300.33	2375.64
300.55	2236.38
300.76	2269.15
300.98	2121.70
301.19	2379.74
301.40	2191.33
301.62	2265.05
301.83	2363.36
302.05	2201.57
302.26	2217.95
302.47	2287.58
302.69	2127.84
302.90	2240.48
303.12	2060.26
303.33	2230.24
303.54	2478.04
303.76	2144.22
303.97	2217.95
304.19	2355.16
304.40	2236.38
304.61	2285.53
304.83	2471.90
305.04	2265.05
305.26	2275.29
305.47	2185.18
305.68	2217.95
305.90	2150.37
306.11	2373.60
306.33	2209.76
306.54	2203.61
306.75	2226.14
306.97	2119.65
307.18	2170.85
307.39	2244.57
307.61	2295.77
307.82	2217.95
308.04	2279.39
308.25	2101.22
308.46	2195.42
308.68	2222.05
308.89	2297.82
309.10	2379.74
309.32	2295.77
309.53	2263.01
309.74	2355.16
309.96	2222.05
310.17	2336.73
310.39	2224.09
310.60	2314.20
310.81	2326.49
311.03	2068.45
311.24	2291.68
311.45	2297.82
311.67	2455.51
311.88	2269.15
312.09	2176.99
312.31	2191.33
312.52	2248.67
312.73	2203.61
312.95	2197.47
313.16	2238.43
313.37	2392.03
313.59	2281.44
313.80	2351.07
314.01	2475.99
314.23	2203.61
314.44	2150.37
314.65	2105.31
314.87	2121.70
315.08	2209.76
315.29	2205.66
315.51	2131.94
315.72	2052.06
315.93	2328.54
316.15	2312.16
316.36	2267.10
316.57	2336.73
316.79	2330.59
317.00	2207.71
317.21	2318.30
317.43	2187.23
317.64	2312.16
317.85	2267.10
318.07	2154.46
318.28	2269.15
318.49	2340.83
318.70	2432.99
318.92	2422.75
319.13	2422.75
319.34	2521.05
319.56	2209.76
319.77	2344.92
319.98	2365.40
320.20	2357.21
320.41	2295.77
320.62	2287.58
320.83	2150.37
321.05	2406.36
321.26	2211.81
321.47	2256.86
321.69	2332.64
321.90	2031.58
322.11	2207.71
322.32	2281.44
322.54	2377.69
322.75	2228.19
322.96	2519.00
323.18	2078.69
323.39	2133.98
323.60	2142.18
323.81	2363.36
324.03	2263.01
324.24	2211.81
324.45	2203.61
324.66	2244.57
324.88	2365.40
325.09	2400.22
325.30	2195.42
325.52	2250.72
325.73	2326.49
325.94	2121.70
326.15	2127.84
326.37	2088.93
326.58	2342.88
326.79	2439.13
327.00	2152.42
327.22	2267.10
327.43	2203.61
327.64	2197.47
327.85	2287.58
328.07	2207.71
328.28	2531.29
328.49	2275.29
328.70	2207.71
328.92	2193.37
329.13	2185.18
329.34	2236.38
329.55	2383.84
329.76	2392.03
329.98	2254.81
330.19	2432.99
330.40	2256.86
330.61	2316.25
330.83	2361.31
331.04	2183.13
331.25	2265.05
331.46	2197.47
331.68	2146.27
331.89	2367.45
332.10	2217.95
332.31	2162.66
332.52	2277.34
332.74	2322.40
332.95	2136.03
333.16	2217.95
333.37	2322.40
333.58	2209.76
333.80	2310.11
334.01	2095.07
334.22	2242.53
334.43	2203.61
334.64	2258.91
334.86	2181.09
335.07	2160.61
335.28	2424.80
335.49	2088.93
335.70	2297.82
335.92	2359.26
336.13	2496.47
336.34	2228.19
336.55	2228.19
336.76	2260.96
336.98	2076.64
337.19	2228.19
337.40	2310.11
337.61	2480.09
337.82	2220.00
338.04	2267.10
338.25	2068.45
338.46	2277.34
338.67	2226.14
338.88	2146.27
339.09	2084.83
339.31	2195.42
339.52	2129.89
339.73	2156.51
339.94	2195.42
340.15	2361.31
340.36	2220.00
340.58	2234.33
340.79	2162.66
341.00	2301.92
341.21	2119.65
341.42	2396.12
341.63	2193.37
341.85	2365.40
342.06	2297.82
342.27	2121.70
342.48	2232.29
342.69	2113.50
342.90	2283.49
343.12	2367.45
343.33	2183.13
343.54	2342.88
343.75	2424.80
343.96	2244.57
344.17	2136.03
344.38	2201.57
344.60	2162.66
344.81	2084.83
345.02	2111.46
345.23	2398.17
345.44	2568.15
345.65	2291.68
345.86	2230.24
346.07	2271.20
346.29	2209.76
346.50	2293.72
346.71	2254.81
346.92	2398.17
347.13	2400.22
347.34	2273.25
347.55	2176.99
347.76	2359.26
347.98	2125.79
348.19	2199.52
348.40	2293.72
348.61	2170.85
348.82	2400.22
349.03	2281.44
349.24	2197.47
349.45	2351.07
349.66	2078.69
349.88	2291.68
350.09	2236.38
350.30	2455.51
350.51	2392.03
350.72	2306.01
350.93	2326.49
351.14	2269.15
351.35	2326.49
351.56	2183.13
351.77	2277.34
351.99	2310.11
352.20	2435.03
352.41	2359.26
352.62	2095.07
352.83	2166.75
353.04	2201.57
353.25	2127.84
353.46	2306.01
353.67	2351.07
353.88	2054.11
354.09	2203.61
354.30	2283.49
354.52	2277.34
354.73	2228.19
354.94	2166.75
355.15	2203.61
355.36	2504.67
355.57	2226.14
355.78	2234.33
355.99	2168.80
356.20	2228.19
356.41	2344.92
356.62	2289.63
356.83	2205.66
357.04	2392.03
357.25	2039.78
357.46	2166.75
357.68	2117.60
357.89	2185.18
358.10	2252.77
358.31	2209.76
358.52	2193.37
358.73	2111.46
358.94	2181.09
359.15	2176.99
359.36	2344.92
359.57	2263.01
359.78	2271.20
359.99	2281.44
360.20	2140.13
360.41	2189.28
360.62	2320.35
360.83	2301.92
361.04	2285.53
361.25	2328.54
361.46	2459.61
361.67	2312.16
361.88	2273.25
362.09	2338.78
362.30	2303.96
362.51	2217.95
362.72	2287.58
362.93	2389.98
363.14	2334.68
363.35	2228.19
363.56	2138.08
363.78	2353.12
363.99	2318.30
364.20	2248.67
364.41	2242.53
364.62	2406.36
364.83	2252.77
365.04	2220.00
365.25	2260.96
365.46	2404.32
365.67	2138.08
365.88	2209.76
366.09	2220.00
366.30	2271.20
366.51	2275.29
366.72	2150.37
366.93	2213.85
367.14	2299.87
367.35	2441.18
367.56	2228.19
367.77	2392.03
367.98	2226.14
368.18	2306.01
368.39	2269.15
368.60	2181.09
368.81	2338.78
369.02	2295.77
369.23	2183.13
369.44	2101.22
369.65	2242.53
369.86	2269.15
370.07	2361.31
370.28	2195.42
370.49	2293.72
370.70	2301.92
370.91	2035.68
371.12	2152.42
371.33	2277.34
371.54	2258.91
371.75	2361.31
371.96	2007.01
372.17	2283.49
372.38	2154.46
372.59	2269.15
372.80	2230.24
373.01	2263.01
373.22	2289.63
373.43	2215.90
373.64	2115.55
373.85	2371.55
374.06	2353.12
374.26	2324.44
374.47	2308.06
374.68	2359.26
374.89	2195.42
375.10	2168.80
375.31	2281.44
375.52	2396.12
375.73	2314.20
375.94	2168.80
376.15	2340.83
376.36	2199.52
376.57	2191.33
376.78	2168.80
376.99	2273.25
377.20	2351.07
377.40	2187.23
377.61	2437.08
377.82	2052.06
378.03	2432.99
378.24	2299.87
378.45	2285.53
378.66	2258.91
378.87	2127.84
379.08	2101.22
379.29	2228.19
379.50	2359.26
379.71	2258.91
379.91	2342.88
380.12	2142.18
380.33	2279.39
380.54	2232.29
380.75	2293.72
380.96	2168.80
381.17	2269.15
381.38	2224.09
381.59	2265.05
381.80	2258.91
382.00	2439.13
382.21	2357.21
382.42	2441.18
382.63	2555.86
382.84	2316.25
383.05	2287.58
383.26	2424.80
383.47	2189.28
383.68	2273.25
383.88	2459.61
384.09	2289.63
384.30	2408.41
384.51	2230.24
384.72	2179.04
384.93	2125.79
385.14	2224.09
385.35	2367.45
385.55	2162.66
385.76	2318.30
385.97	2230.24
386.18	2176.99
386.39	2256.86
386.60	2183.13
386.81	2166.75
387.02	2133.98
387.22	2115.55
387.43	2385.88
387.64	2324.44
387.85	2441.18
388.06	2441.18
388.27	3891.14
388.48	7935.88
388.68	11444.05
388.89	14042.92
389.10	14712.61
389.31	13727.53
389.52	10866.52
389.73	9516.91
389.93	8519.55
390.14	7966.60
390.35	7067.54
390.56	6322.08
390.77	5210.03
390.98	4014.02
391.18	3264.46
391.39	2783.19
391.60	2349.02
391.81	2389.98
392.02	2203.61
392.23	2480.09
392.43	2310.11
392.64	2346.97
392.85	2250.72
393.06	2400.22
393.27	2209.76
393.47	2193.37
393.68	2314.20
393.89	2185.18
394.10	2408.41
394.31	2168.80
394.52	2244.57
394.72	2252.77
394.93	2473.95
395.14	2123.74
395.35	2351.07
395.56	2191.33
395.76	2297.82
395.97	2285.53
396.18	2328.54
396.39	2404.32
396.60	2736.09
396.80	2527.19
397.01	2430.94
397.22	2326.49
397.43	2414.56
397.64	2285.53
397.84	2400.22
398.05	2539.48
398.26	2301.92
398.47	2340.83
398.67	2324.44
398.88	2203.61
399.09	2332.64
399.30	2123.74
399.51	2326.49
399.71	2209.76
399.92	2209.76
400.13	2267.10
400.34	2316.25
400.54	2207.71
400.75	2428.89
400.96	2355.16
401.17	2475.99
401.37	2301.92
401.58	2217.95
401.79	2277.34
402.00	2322.40
402.21	2684.89
402.41	2641.88
402.62	2619.35
402.83	2654.17
403.04	2711.51
403.24	2705.37
403.45	2330.59
403.66	2615.26
403.87	2473.95
404.07	2471.90
404.28	2504.67
404.49	2439.13
404.70	2279.39
404.90	2308.06
405.11	2269.15
405.32	2355.16
405.52	2162.66
405.73	2205.66
405.94	2170.85
406.15	2205.66
406.35	2361.31
406.56	2306.01
406.77	2217.95
406.98	2400.22
407.18	2267.10
407.39	2375.64
407.60	2258.91
407.80	2320.35
408.01	2260.96
408.22	2301.92
408.43	2224.09
408.63	2322.40
408.84	2371.55
409.05	2310.11
409.25	2160.61
409.46	2203.61
409.67	2224.09
409.88	2238.43
410.08	2283.49
410.29	2238.43
410.50	2383.84
410.70	2326.49
410.91	2084.83
411.12	2295.77
411.32	2217.95
411.53	2187.23
411.74	2332.64
411.95	2363.36
412.15	2312.16
412.36	2340.83
412.57	2353.12
412.77	2377.69
412.98	2314.20
413.19	2265.05
413.39	2400.22
413.60	2211.81
413.81	2447.32
414.01	2162.66
414.22	2303.96
414.43	2318.30
414.63	2267.10
414.84	2412.51
415.05	2176.99
415.25	2072.54
415.46	2430.94
415.67	2115.55
415.87	2256.86
416.08	2170.85
416.29	2217.95
416.49	2299.87
416.70	2172.89
416.91	2228.19
417.11	2226.14
417.32	2336.73
417.53	2293.72
417.73	2277.34
417.94	2289.63
418.15	2306.01
418.35	2197.47
418.56	2353.12
418.77	2465.75
418.97	2234.33
419.18	2197.47
419.38	2025.44
419.59	2232.29
419.80	2439.13
420.00	2195.42
420.21	2265.05
420.42	2342.88
420.62	2312.16
420.83	2199.52
421.04	2228.19
421.24	2314.20
421.45	2338.78
421.65	2258.91
421.86	2211.81
422.07	2365.40
422.27	2232.29
422.48	2236.38
422.69	2152.42
422.89	2226.14
423.10	2252.77
423.30	2105.31
423.51	2238.43
423.72	2291.68
423.92	2346.97
424.13	2109.41
424.33	2209.76
424.54	2420.70
424.75	2279.39
424.95	2455.51
425.16	2224.09
425.36	2252.77
425.57	2336.73
425.78	2373.60
425.98	2398.17
426.19	2273.25
426.39	2113.50
426.60	2168.80
426.81	2365.40
427.01	2289.63
427.22	2172.89
427.42	2150.37
427.63	2144.22
427.83	2334.68
428.04	2400.22
428.25	2361.31
428.45	2379.74
428.66	2303.96
428.86	2248.67
429.07	2240.48
429.28	2226.14
429.48	2322.40
429.69	2232.29
429.89	2277.34
430.10	2086.88
430.30	2373.60
430.51	2230.24
430.71	2195.42
430.92	2197.47
431.13	2269.15
431.33	2236.38
431.54	2250.72
431.74	2394.08
431.95	2529.24
432.15	2121.70
432.36	2207.71
432.56	2351.07
432.77	2424.80
432.98	2453.47
433.18	2213.85
433.39	2269.15
433.59	2222.05
433.80	2400.22
434.00	2449.37
434.21	2213.85
434.41	2193.37
434.62	2539.48
434.82	2123.74
435.03	2211.81
435.23	2289.63
435.44	2113.50
435.64	2250.72
435.85	2293.72
436.06	2336.73
436.26	2367.45
436.47	2258.91
436.67	2199.52
436.88	2187.23
437.08	2404.32
437.29	2441.18
437.49	2308.06
437.70	2361.31
437.90	2236.38
438.11	2437.08
438.31	2281.44
438.52	2449.37
438.72	2449.37
438.93	2549.72
439.13	2260.96
439.34	2430.94
439.54	2226.14
439.75	2328.54
439.95	2314.20
440.16	2162.66
440.36	2312.16
440.57	2349.02
440.77	2252.77
440.98	2269.15
441.18	2301.92
441.39	2236.38
441.59	2187.23
441.80	2482.14
442.00	2308.06
442.21	2355.16
442.41	2146.27
442.62	2490.33
442.82	2193.37
443.02	2256.86
443.23	2318.30
443.43	2301.92
443.64	2441.18
443.84	2174.94
444.05	2416.60
444.25	2357.21
444.46	2310.11
444.66	2260.96
444.87	2441.18
445.07	2052.06
445.28	2183.13
445.48	2392.03
445.69	2338.78
445.89	2533.34
446.09	2256.86
446.30	2551.77
446.50	2820.05
446.71	4427.71
446.91	5683.11
447.12	6444.96
447.32	6485.92
447.53	6174.63
447.73	5062.58
447.93	4523.96
448.14	4190.14
448.34	4063.17
448.55	3565.51
448.75	3596.23
448.96	3395.53
449.16	3010.51
449.36	2805.72
449.57	2668.50
449.77	2277.34
449.98	2301.92
450.18	2385.88
450.39	2318.30
450.59	2293.72
450.79	2336.73
451.00	2213.85
451.20	2318.30
451.41	2271.20
451.61	2336.73
451.81	2234.33
452.02	2256.86
452.22	2256.86
452.43	2234.33
452.63	2226.14
