SpectraSuite Data File
++++++++++++++++++++++++++++++++++++
Date: Thu May 05 13:21:21 CEST 2016
User: root
Dark Spectrum Present: No
Reference Spectrum Present: No
Number of Sampled Component Spectra: 1
Spectrometers: USB4C02835
Integration Time (usec): 100000 (USB4C02835)
Spectra Averaged: 1 (USB4C02835)
Boxcar Smoothing: 0 (USB4C02835)
Correct for Electrical Dark: No (USB4C02835)
Strobe/Lamp Enabled: No (USB4C02835)
Correct for Detector Non-linearity: No (USB4C02835)
Correct for Stray Light: No (USB4C02835)
Number of Pixels in Processed Spectrum: 3648
>>>>>Begin Processed Spectral Data<<<<<
177.47	1800.16
177.69	1800.16
177.91	1800.16
178.13	1783.78
178.36	1802.21
178.58	2217.95
178.80	2265.05
179.02	2068.45
179.24	2115.55
179.46	2107.36
179.68	2256.86
179.90	2222.05
180.13	2250.72
180.35	2084.83
180.57	2097.12
180.79	2375.64
181.01	2316.25
181.23	2183.13
181.45	2244.57
181.67	2263.01
181.90	2310.11
182.12	2203.61
182.34	2062.30
182.56	2301.92
182.78	2254.81
183.00	2203.61
183.22	2152.42
183.44	2193.37
183.66	2580.44
183.89	2277.34
184.11	2189.28
184.33	2301.92
184.55	2342.88
184.77	2191.33
184.99	2189.28
185.21	2265.05
185.43	2572.25
185.65	2154.46
185.87	2209.76
186.10	2453.47
186.32	2508.76
186.54	2306.01
186.76	2242.53
186.98	2310.11
187.20	2277.34
187.42	2174.94
187.64	2252.77
187.86	2322.40
188.08	2400.22
188.30	2224.09
188.52	2174.94
188.75	2299.87
188.97	2330.59
189.19	2080.74
189.41	2170.85
189.63	2326.49
189.85	2183.13
190.07	1994.72
190.29	2050.02
190.51	2359.26
190.73	2179.04
190.95	2301.92
191.17	2228.19
191.39	2146.27
191.61	2258.91
191.84	2197.47
192.06	2189.28
192.28	2060.26
192.50	2633.69
192.72	2215.90
192.94	2179.04
193.16	2363.36
193.38	2303.96
193.60	2138.08
193.82	2248.67
194.04	2424.80
194.26	2277.34
194.48	2179.04
194.70	2156.51
194.92	2265.05
195.14	2324.44
195.36	2103.26
195.58	2181.09
195.80	2308.06
196.02	2181.09
196.24	2201.57
196.46	2211.81
196.69	2166.75
196.91	2545.63
197.13	2164.70
197.35	2158.56
197.57	2408.41
197.79	2389.98
198.01	2351.07
198.23	2226.14
198.45	2342.88
198.67	2144.22
198.89	2144.22
199.11	2224.09
199.33	2209.76
199.55	2158.56
199.77	2267.10
199.99	2326.49
200.21	2176.99
200.43	2279.39
200.65	2117.60
200.87	2056.16
201.09	2301.92
201.31	2179.04
201.53	2279.39
201.75	2299.87
201.97	2295.77
202.19	2295.77
202.41	2240.48
202.63	2353.12
202.85	2271.20
203.07	2240.48
203.29	2183.13
203.51	2144.22
203.73	2101.22
203.95	2439.13
204.17	2152.42
204.39	2285.53
204.61	2291.68
204.83	2236.38
205.05	2234.33
205.27	2191.33
205.49	2471.90
205.71	2230.24
205.93	2090.98
206.15	2162.66
206.37	2217.95
206.59	2275.29
206.81	2074.59
207.03	2123.74
207.25	2129.89
207.47	2299.87
207.69	2220.00
207.91	2277.34
208.13	2430.94
208.34	2224.09
208.56	2127.84
208.78	2250.72
209.00	2273.25
209.22	2189.28
209.44	2133.98
209.66	2111.46
209.88	2228.19
210.10	2144.22
210.32	2236.38
210.54	2226.14
210.76	2142.18
210.98	2310.11
211.20	2078.69
211.42	2275.29
211.64	2461.66
211.86	2328.54
212.08	2181.09
212.30	2252.77
212.52	2269.15
212.74	2228.19
212.96	2217.95
213.17	2260.96
213.39	2342.88
213.61	2443.23
213.83	2187.23
214.05	2152.42
214.27	2379.74
214.49	2117.60
214.71	2176.99
214.93	2224.09
215.15	2224.09
215.37	2359.26
215.59	2121.70
215.81	2258.91
216.03	2408.41
216.24	2299.87
216.46	2201.57
216.68	2293.72
216.90	2346.97
217.12	2383.84
217.34	2158.56
217.56	2248.67
217.78	2428.89
218.00	2269.15
218.22	2220.00
218.44	2252.77
218.66	2281.44
218.87	2430.94
219.09	2168.80
219.31	2234.33
219.53	2295.77
219.75	2174.94
219.97	2187.23
220.19	2217.95
220.41	2236.38
220.63	2404.32
220.85	2168.80
221.06	2113.50
221.28	2410.46
221.50	2326.49
221.72	2148.32
221.94	2109.41
222.16	2242.53
222.38	2359.26
222.60	2220.00
222.82	2209.76
223.03	2324.44
223.25	2179.04
223.47	2226.14
223.69	2324.44
223.91	2267.10
224.13	2150.37
224.35	2084.83
224.57	2220.00
224.78	2240.48
225.00	2150.37
225.22	2162.66
225.44	2166.75
225.66	2369.50
225.88	2228.19
226.10	2269.15
226.32	2197.47
226.53	2486.23
226.75	2136.03
226.97	2154.46
227.19	2226.14
227.41	2166.75
227.63	2195.42
227.85	2062.30
228.06	2174.94
228.28	2230.24
228.50	2338.78
228.72	2070.50
228.94	2211.81
229.16	2084.83
229.37	2138.08
229.59	2125.79
229.81	2277.34
230.03	2250.72
230.25	2088.93
230.47	2088.93
230.69	2113.50
230.90	2387.93
231.12	2183.13
231.34	2254.81
231.56	2314.20
231.78	2176.99
232.00	2265.05
232.21	2166.75
232.43	2068.45
232.65	1955.81
232.87	2308.06
233.09	2031.58
233.30	2158.56
233.52	2254.81
233.74	2213.85
233.96	2201.57
234.18	2203.61
234.40	2197.47
234.61	2398.17
234.83	2097.12
235.05	2101.22
235.27	2566.10
235.49	2447.32
235.70	2125.79
235.92	2346.97
236.14	2258.91
236.36	2506.71
236.58	2109.41
236.79	2222.05
237.01	2154.46
237.23	2205.66
237.45	2342.88
237.67	2154.46
237.88	2353.12
238.10	2449.37
238.32	2113.50
238.54	2185.18
238.76	2179.04
238.97	2203.61
239.19	2117.60
239.41	2299.87
239.63	2299.87
239.85	2193.37
240.06	2183.13
240.28	2154.46
240.50	2383.84
240.72	2269.15
240.93	2125.79
241.15	2252.77
241.37	2232.29
241.59	2461.66
241.81	2174.94
242.02	2238.43
242.24	2232.29
242.46	2269.15
242.68	2093.02
242.89	2176.99
243.11	2340.83
243.33	2254.81
243.55	2133.98
243.76	2250.72
243.98	2244.57
244.20	2273.25
244.42	2080.74
244.64	2248.67
244.85	2111.46
245.07	2193.37
245.29	2203.61
245.51	2140.13
245.72	2260.96
245.94	2316.25
246.16	2197.47
246.38	2174.94
246.59	2211.81
246.81	2191.33
247.03	2154.46
247.24	2039.78
247.46	2209.76
247.68	2170.85
247.90	2142.18
248.11	2185.18
248.33	2424.80
248.55	2230.24
248.77	2222.05
248.98	2211.81
249.20	2332.64
249.42	2293.72
249.64	2207.71
249.85	2136.03
250.07	2236.38
250.29	2351.07
250.50	2236.38
250.72	2072.54
250.94	2316.25
251.16	2490.33
251.37	2220.00
251.59	2275.29
251.81	2373.60
252.02	2377.69
252.24	2117.60
252.46	2260.96
252.68	2123.74
252.89	2226.14
253.11	2039.78
253.33	2336.73
253.54	2355.16
253.76	2105.31
253.98	2146.27
254.20	2146.27
254.41	2197.47
254.63	2185.18
254.85	2136.03
255.06	2154.46
255.28	2301.92
255.50	2281.44
255.71	2193.37
255.93	2043.87
256.15	2166.75
256.36	2250.72
256.58	2111.46
256.80	2189.28
257.02	2168.80
257.23	2258.91
257.45	2203.61
257.67	2242.53
257.88	2209.76
258.10	2320.35
258.32	2144.22
258.53	2205.66
258.75	2426.84
258.97	2088.93
259.18	2144.22
259.40	2220.00
259.62	2404.32
259.83	2494.43
260.05	2217.95
260.27	2707.41
260.48	2332.64
260.70	2127.84
260.92	2176.99
261.13	2205.66
261.35	2289.63
261.57	2293.72
261.78	2113.50
262.00	2201.57
262.22	2334.68
262.43	2191.33
262.65	2179.04
262.86	2275.29
263.08	2508.76
263.30	2244.57
263.51	1982.43
263.73	2195.42
263.95	2432.99
264.16	2203.61
264.38	2176.99
264.60	2195.42
264.81	2283.49
265.03	2328.54
265.25	2379.74
265.46	2123.74
265.68	2439.13
265.89	2365.40
266.11	2035.68
266.33	2232.29
266.54	2291.68
266.76	2293.72
266.98	2211.81
267.19	2199.52
267.41	2396.12
267.62	2252.77
267.84	2088.93
268.06	2179.04
268.27	2324.44
268.49	2363.36
268.70	2242.53
268.92	2217.95
269.14	2121.70
269.35	2093.02
269.57	2217.95
269.79	2240.48
270.00	2224.09
270.22	2422.75
270.43	2224.09
270.65	2037.73
270.87	2275.29
271.08	2281.44
271.30	2197.47
271.51	2158.56
271.73	2293.72
271.95	2408.41
272.16	2203.61
272.38	2254.81
272.59	2195.42
272.81	2297.82
273.02	2191.33
273.24	2150.37
273.46	2371.55
273.67	2172.89
273.89	2113.50
274.10	2105.31
274.32	2316.25
274.54	2330.59
274.75	2260.96
274.97	2267.10
275.18	2346.97
275.40	2344.92
275.61	2215.90
275.83	2240.48
276.05	2121.70
276.26	2273.25
276.48	2258.91
276.69	2123.74
276.91	2220.00
277.12	2375.64
277.34	2359.26
277.55	2310.11
277.77	2293.72
277.99	2226.14
278.20	2195.42
278.42	2095.07
278.63	2222.05
278.85	2090.98
279.06	2144.22
279.28	2383.84
279.49	2281.44
279.71	2359.26
279.93	2263.01
280.14	2277.34
280.36	2179.04
280.57	2291.68
280.79	2269.15
281.00	2168.80
281.22	2160.61
281.43	2392.03
281.65	2062.30
281.86	2129.89
282.08	2297.82
282.29	2473.95
282.51	2052.06
282.73	2154.46
282.94	2129.89
283.16	2439.13
283.37	2344.92
283.59	2226.14
283.80	2269.15
284.02	2316.25
284.23	2291.68
284.45	2166.75
284.66	2220.00
284.88	2168.80
285.09	2234.33
285.31	2252.77
285.52	2236.38
285.74	2080.74
285.95	2303.96
286.17	2306.01
286.38	2359.26
286.60	2191.33
286.81	2166.75
287.03	2211.81
287.24	2303.96
287.46	2326.49
287.67	2228.19
287.89	2367.45
288.10	2275.29
288.32	2222.05
288.53	2306.01
288.75	2211.81
288.96	2359.26
289.18	2164.70
289.39	2179.04
289.61	2213.85
289.82	2494.43
290.04	2435.03
290.25	2174.94
290.47	2230.24
290.68	2275.29
290.90	2357.21
291.11	2080.74
291.33	2297.82
291.54	2148.32
291.76	2195.42
291.97	2295.77
292.18	2398.17
292.40	2226.14
292.61	2168.80
292.83	2469.85
293.04	2220.00
293.26	2332.64
293.47	2189.28
293.69	2164.70
293.90	2211.81
294.12	2346.97
294.33	2217.95
294.55	2236.38
294.76	2316.25
294.97	2435.03
295.19	2439.13
295.40	2179.04
295.62	2322.40
295.83	2359.26
296.05	2238.43
296.26	2396.12
296.48	2232.29
296.69	2256.86
296.90	2203.61
297.12	2351.07
297.33	2299.87
297.55	2203.61
297.76	2301.92
297.98	2275.29
298.19	2195.42
298.41	2258.91
298.62	2226.14
298.83	2394.08
299.05	2207.71
299.26	2158.56
299.48	2136.03
299.69	2248.67
299.90	2312.16
300.12	2166.75
300.33	2293.72
300.55	2267.10
300.76	2238.43
300.98	2193.37
301.19	2363.36
301.40	2140.13
301.62	2269.15
301.83	2258.91
302.05	2187.23
302.26	2170.85
302.47	2269.15
302.69	2107.36
302.90	2295.77
303.12	2103.26
303.33	2303.96
303.54	2482.14
303.76	2187.23
303.97	2238.43
304.19	2361.31
304.40	2209.76
304.61	2359.26
304.83	2359.26
305.04	2316.25
305.26	2295.77
305.47	2248.67
305.68	2238.43
305.90	2121.70
306.11	2396.12
306.33	2240.48
306.54	2154.46
306.75	2199.52
306.97	2080.74
307.18	2166.75
307.39	2168.80
307.61	2310.11
307.82	2234.33
308.04	2320.35
308.25	2195.42
308.46	2201.57
308.68	2277.34
308.89	2285.53
309.10	2346.97
309.32	2277.34
309.53	2265.05
309.74	2297.82
309.96	2258.91
310.17	2289.63
310.39	2179.04
310.60	2293.72
310.81	2203.61
311.03	2101.22
311.24	2359.26
311.45	2220.00
311.67	2379.74
311.88	2301.92
312.09	2187.23
312.31	2273.25
312.52	2201.57
312.73	2256.86
312.95	2111.46
313.16	2215.90
313.37	2351.07
313.59	2236.38
313.80	2308.06
314.01	2414.56
314.23	2121.70
314.44	2220.00
314.65	2105.31
314.87	2256.86
315.08	2226.14
315.29	2154.46
315.51	2142.18
315.72	2166.75
315.93	2342.88
316.15	2242.53
316.36	2230.24
316.57	2289.63
316.79	2213.85
317.00	2170.85
317.21	2334.68
317.43	2242.53
317.64	2332.64
317.85	2154.46
318.07	2191.33
318.28	2213.85
318.49	2353.12
318.70	2580.44
318.92	2379.74
319.13	2428.89
319.34	2349.02
319.56	2297.82
319.77	2392.03
319.98	2361.31
320.20	2328.54
320.41	2324.44
320.62	2367.45
320.83	2162.66
321.05	2480.09
321.26	2244.57
321.47	2303.96
321.69	2383.84
321.90	2078.69
322.11	2195.42
322.32	2281.44
322.54	2336.73
322.75	2205.66
322.96	2551.77
323.18	2088.93
323.39	2113.50
323.60	2211.81
323.81	2310.11
324.03	2207.71
324.24	2248.67
324.45	2308.06
324.66	2166.75
324.88	2340.83
325.09	2394.08
325.30	2265.05
325.52	2217.95
325.73	2324.44
325.94	2240.48
326.15	2103.26
326.37	2170.85
326.58	2318.30
326.79	2449.37
327.00	2170.85
327.22	2281.44
327.43	2172.89
327.64	2021.35
327.85	2316.25
328.07	2160.61
328.28	2469.85
328.49	2236.38
328.70	2258.91
328.92	2199.52
329.13	2220.00
329.34	2351.07
329.55	2334.68
329.76	2269.15
329.98	2224.09
330.19	2447.32
330.40	2322.40
330.61	2205.66
330.83	2310.11
331.04	2150.37
331.25	2269.15
331.46	2105.31
331.68	2119.65
331.89	2365.40
332.10	2244.57
332.31	2117.60
332.52	2314.20
332.74	2310.11
332.95	2035.68
333.16	2179.04
333.37	2316.25
333.58	2215.90
333.80	2211.81
334.01	2113.50
334.22	2230.24
334.43	2138.08
334.64	2260.96
334.86	2121.70
335.07	2174.94
335.28	2371.55
335.49	2138.08
335.70	2303.96
335.92	2387.93
336.13	2480.09
336.34	2252.77
336.55	2248.67
336.76	2291.68
336.98	2123.74
337.19	2217.95
337.40	2314.20
337.61	2519.00
337.82	2224.09
338.04	2285.53
338.25	2058.21
338.46	2187.23
338.67	2277.34
338.88	2152.42
339.09	2109.41
339.31	2215.90
339.52	2152.42
339.73	2111.46
339.94	2197.47
340.15	2324.44
340.36	2185.18
340.58	2318.30
340.79	2129.89
341.00	2332.64
341.21	2099.17
341.42	2351.07
341.63	2203.61
341.85	2392.03
342.06	2258.91
342.27	2185.18
342.48	2310.11
342.69	2136.03
342.90	2371.55
343.12	2367.45
343.33	2160.61
343.54	2332.64
343.75	2334.68
343.96	2242.53
344.17	2234.33
344.38	2277.34
344.60	2129.89
344.81	2140.13
345.02	2244.57
345.23	2371.55
345.44	2498.52
345.65	2277.34
345.86	2271.20
346.07	2252.77
346.29	2207.71
346.50	2336.73
346.71	2217.95
346.92	2367.45
347.13	2463.71
347.34	2314.20
347.55	2142.18
347.76	2209.76
347.98	2121.70
348.19	2240.48
348.40	2330.59
348.61	2179.04
348.82	2478.04
349.03	2240.48
349.24	2164.70
349.45	2498.52
349.66	2119.65
349.88	2244.57
350.09	2150.37
350.30	2432.99
350.51	2375.64
350.72	2263.01
350.93	2238.43
351.14	2113.50
351.35	2392.03
351.56	2201.57
351.77	2238.43
351.99	2330.59
352.20	2465.75
352.41	2334.68
352.62	2062.30
352.83	2215.90
353.04	2209.76
353.25	2185.18
353.46	2269.15
353.67	2389.98
353.88	2088.93
354.09	2279.39
354.30	2285.53
354.52	2375.64
354.73	2211.81
354.94	2160.61
355.15	2213.85
355.36	2371.55
355.57	2254.81
355.78	2273.25
355.99	2144.22
356.20	2209.76
356.41	2351.07
356.62	2258.91
356.83	2252.77
357.04	2400.22
357.25	2172.89
357.46	2183.13
357.68	2191.33
357.89	2199.52
358.10	2293.72
358.31	2312.16
358.52	2293.72
358.73	2166.75
358.94	2111.46
359.15	2136.03
359.36	2383.84
359.57	2281.44
359.78	2248.67
359.99	2355.16
360.20	2093.02
360.41	2293.72
360.62	2279.39
360.83	2191.33
361.04	2279.39
361.25	2224.09
361.46	2461.66
361.67	2314.20
361.88	2240.48
362.09	2400.22
362.30	2185.18
362.51	2097.12
362.72	2267.10
362.93	2293.72
363.14	2293.72
363.35	2226.14
363.56	2176.99
363.78	2375.64
363.99	2330.59
364.20	2207.71
364.41	2256.86
364.62	2453.47
364.83	2195.42
365.04	2308.06
365.25	2148.32
365.46	2508.76
365.67	2125.79
365.88	2209.76
366.09	2158.56
366.30	2195.42
366.51	2209.76
366.72	2146.27
366.93	2220.00
367.14	2230.24
367.35	2437.08
367.56	2172.89
367.77	2322.40
367.98	2191.33
368.18	2318.30
368.39	2306.01
368.60	2156.51
368.81	2338.78
369.02	2326.49
369.23	2203.61
369.44	2019.30
369.65	2193.37
369.86	2285.53
370.07	2306.01
370.28	2103.26
370.49	2344.92
370.70	2363.36
370.91	2074.59
371.12	2193.37
371.33	2400.22
371.54	2232.29
371.75	2359.26
371.96	2023.39
372.17	2215.90
372.38	2222.05
372.59	2220.00
372.80	2127.84
373.01	2174.94
373.22	2322.40
373.43	2320.35
373.64	2136.03
373.85	2475.99
374.06	2361.31
374.26	2330.59
374.47	2285.53
374.68	2408.41
374.89	2269.15
375.10	2207.71
375.31	2355.16
375.52	2299.87
375.73	2275.29
375.94	2152.42
376.15	2398.17
376.36	2166.75
376.57	2193.37
376.78	2260.96
376.99	2242.53
377.20	2334.68
377.40	2275.29
377.61	2334.68
377.82	2146.27
378.03	2367.45
378.24	2369.50
378.45	2283.49
378.66	2215.90
378.87	2113.50
379.08	2068.45
379.29	2254.81
379.50	2365.40
379.71	2283.49
379.91	2273.25
380.12	2187.23
380.33	2222.05
380.54	2220.00
380.75	2234.33
380.96	2179.04
381.17	2285.53
381.38	2277.34
381.59	2314.20
381.80	2258.91
382.00	2461.66
382.21	2248.67
382.42	2482.14
382.63	2494.43
382.84	2312.16
383.05	2400.22
383.26	2443.23
383.47	2244.57
383.68	2293.72
383.88	2314.20
384.09	2303.96
384.30	2422.75
384.51	2267.10
384.72	2205.66
384.93	2080.74
385.14	2224.09
385.35	2346.97
385.55	2201.57
385.76	2412.51
385.97	2260.96
386.18	2080.74
386.39	2185.18
386.60	2226.14
386.81	2187.23
387.02	2174.94
387.22	2162.66
387.43	2346.97
387.64	2285.53
387.85	2469.85
388.06	2439.13
388.27	3874.76
388.48	8083.33
388.68	11599.70
388.89	14061.35
389.10	14999.32
389.31	13952.81
389.52	11016.02
389.73	9478.00
389.93	8396.67
390.14	7876.49
390.35	6942.61
390.56	6348.70
390.77	5337.01
390.98	3989.44
391.18	3203.02
391.39	2805.72
391.60	2437.08
391.81	2418.65
392.02	2209.76
392.23	2449.37
392.43	2308.06
392.64	2359.26
392.85	2275.29
393.06	2400.22
393.27	2303.96
393.47	2207.71
393.68	2240.48
393.89	2168.80
394.10	2418.65
394.31	2338.78
394.52	2105.31
394.72	2228.19
394.93	2349.02
395.14	2176.99
395.35	2285.53
395.56	2211.81
395.76	2242.53
395.97	2293.72
396.18	2324.44
396.39	2465.75
396.60	2768.85
396.80	2447.32
397.01	2373.60
397.22	2432.99
397.43	2435.03
397.64	2228.19
397.84	2355.16
398.05	2504.67
398.26	2301.92
398.47	2351.07
398.67	2492.38
398.88	2326.49
399.09	2316.25
399.30	2191.33
399.51	2340.83
399.71	2197.47
399.92	2256.86
400.13	2330.59
400.34	2176.99
400.54	2256.86
400.75	2447.32
400.96	2306.01
401.17	2463.71
401.37	2324.44
401.58	2308.06
401.79	2244.57
402.00	2435.03
402.21	2629.59
402.41	2609.11
402.62	2553.82
402.83	2731.99
403.04	2703.32
403.24	2820.05
403.45	2344.92
403.66	2469.85
403.87	2416.60
404.07	2443.23
404.28	2527.19
404.49	2465.75
404.70	2330.59
404.90	2338.78
405.11	2351.07
405.32	2377.69
405.52	2162.66
405.73	2236.38
405.94	2238.43
406.15	2283.49
406.35	2318.30
406.56	2318.30
406.77	2295.77
406.98	2271.20
407.18	2170.85
407.39	2396.12
407.60	2176.99
407.80	2275.29
408.01	2138.08
408.22	2238.43
408.43	2131.94
408.63	2252.77
408.84	2326.49
409.05	2416.60
409.25	2129.89
409.46	2172.89
409.67	2228.19
409.88	2191.33
410.08	2250.72
410.29	2289.63
410.50	2277.34
410.70	2287.58
410.91	2121.70
411.12	2289.63
411.32	2201.57
411.53	2205.66
411.74	2400.22
411.95	2400.22
412.15	2213.85
412.36	2439.13
412.57	2301.92
412.77	2426.84
412.98	2228.19
413.19	2240.48
413.39	2349.02
413.60	2346.97
413.81	2383.84
414.01	2138.08
414.22	2346.97
414.43	2351.07
414.63	2263.01
414.84	2420.70
415.05	2146.27
415.25	2138.08
415.46	2252.77
415.67	2234.33
415.87	2326.49
416.08	2232.29
416.29	2195.42
416.49	2289.63
416.70	2138.08
416.91	2199.52
417.11	2205.66
417.32	2328.54
417.53	2334.68
417.73	2297.82
417.94	2285.53
418.15	2334.68
418.35	2342.88
418.56	2179.04
418.77	2555.86
418.97	2265.05
419.18	2199.52
419.38	2056.16
419.59	2203.61
419.80	2334.68
420.00	2258.91
420.21	2248.67
420.42	2351.07
420.62	2357.21
420.83	2179.04
421.04	2232.29
421.24	2217.95
421.45	2269.15
421.65	2273.25
421.86	2242.53
422.07	2310.11
422.27	2346.97
422.48	2293.72
422.69	2201.57
422.89	2166.75
423.10	2283.49
423.30	2121.70
423.51	2252.77
423.72	2299.87
423.92	2246.62
424.13	2099.17
424.33	2258.91
424.54	2281.44
424.75	2250.72
424.95	2418.65
425.16	2342.88
425.36	2220.00
425.57	2310.11
425.78	2363.36
425.98	2320.35
426.19	2217.95
426.39	2183.13
426.60	2318.30
426.81	2336.73
427.01	2351.07
427.22	2162.66
427.42	2144.22
427.63	2101.22
427.83	2396.12
428.04	2377.69
428.25	2363.36
428.45	2351.07
428.66	2340.83
428.86	2222.05
429.07	2226.14
429.28	2297.82
429.48	2240.48
429.69	2162.66
429.89	2275.29
430.10	2146.27
430.30	2334.68
430.51	2396.12
430.71	2217.95
430.92	2209.76
431.13	2195.42
431.33	2408.41
431.54	2258.91
431.74	2439.13
431.95	2437.08
432.15	2152.42
432.36	2244.57
432.56	2322.40
432.77	2535.39
432.98	2363.36
433.18	2248.67
433.39	2246.62
433.59	2168.80
433.80	2457.56
434.00	2389.98
434.21	2314.20
434.41	2230.24
434.62	2475.99
434.82	2154.46
435.03	2183.13
435.23	2273.25
435.44	2144.22
435.64	2205.66
435.85	2248.67
436.06	2338.78
436.26	2318.30
436.47	2187.23
436.67	2285.53
436.88	2250.72
437.08	2375.64
437.29	2408.41
437.49	2285.53
437.70	2381.79
437.90	2303.96
438.11	2490.33
438.31	2342.88
438.52	2387.93
438.72	2404.32
438.93	2580.44
439.13	2424.80
439.34	2455.51
439.54	2242.53
439.75	2332.64
439.95	2367.45
440.16	2193.37
440.36	2357.21
440.57	2338.78
440.77	2269.15
440.98	2232.29
441.18	2258.91
441.39	2170.85
441.59	2179.04
441.80	2439.13
442.00	2226.14
442.21	2379.74
442.41	2103.26
442.62	2389.98
442.82	2248.67
443.02	2256.86
443.23	2299.87
443.43	2211.81
443.64	2439.13
443.84	2226.14
444.05	2346.97
444.25	2281.44
444.46	2207.71
444.66	2230.24
444.87	2381.79
445.07	2209.76
445.28	2211.81
445.48	2392.03
445.69	2340.83
445.89	2486.23
446.09	2340.83
446.30	2551.77
446.50	2813.91
446.71	4321.21
446.91	5554.09
447.12	6455.20
447.32	6756.25
447.53	6145.95
447.73	5160.88
447.93	4558.78
448.14	4276.16
448.34	4081.60
448.55	3594.19
448.75	3573.71
448.96	3309.52
449.16	3108.82
449.36	2873.30
449.57	2580.44
449.77	2406.36
449.98	2275.29
450.18	2344.92
450.39	2324.44
450.59	2316.25
450.79	2242.53
451.00	2183.13
451.20	2392.03
451.41	2297.82
451.61	2389.98
451.81	2260.96
452.02	2193.37
452.22	2299.87
452.43	2197.47
452.63	2193.37
