SpectraSuite Data File
++++++++++++++++++++++++++++++++++++
Date: Thu May 05 13:20:57 CEST 2016
User: root
Dark Spectrum Present: No
Reference Spectrum Present: No
Number of Sampled Component Spectra: 1
Spectrometers: USB4C02835
Integration Time (usec): 100000 (USB4C02835)
Spectra Averaged: 1 (USB4C02835)
Boxcar Smoothing: 0 (USB4C02835)
Correct for Electrical Dark: No (USB4C02835)
Strobe/Lamp Enabled: No (USB4C02835)
Correct for Detector Non-linearity: No (USB4C02835)
Correct for Stray Light: No (USB4C02835)
Number of Pixels in Processed Spectrum: 3648
>>>>>Begin Processed Spectral Data<<<<<
177.47	1830.88
177.69	1830.88
177.91	1830.88
178.13	1824.74
178.36	1847.27
178.58	2193.37
178.80	2195.42
179.02	2193.37
179.24	2125.79
179.46	2146.27
179.68	2226.14
179.90	2258.91
180.13	2183.13
180.35	2105.31
180.57	2088.93
180.79	2326.49
181.01	2267.10
181.23	2246.62
181.45	2269.15
181.67	2342.88
181.90	2330.59
182.12	2158.56
182.34	2043.87
182.56	2306.01
182.78	2310.11
183.00	2150.37
183.22	2260.96
183.44	2140.13
183.66	2504.67
183.89	2316.25
184.11	2199.52
184.33	2256.86
184.55	2342.88
184.77	2185.18
184.99	2217.95
185.21	2246.62
185.43	2424.80
185.65	2129.89
185.87	2144.22
186.10	2486.23
186.32	2439.13
186.54	2258.91
186.76	2220.00
186.98	2408.41
187.20	2205.66
187.42	2162.66
187.64	2152.42
187.86	2295.77
188.08	2377.69
188.30	2125.79
188.52	2144.22
188.75	2392.03
188.97	2412.51
189.19	2166.75
189.41	2097.12
189.63	2291.68
189.85	2361.31
190.07	2052.06
190.29	2097.12
190.51	2299.87
190.73	2179.04
190.95	2277.34
191.17	2211.81
191.39	2072.54
191.61	2258.91
191.84	2115.55
192.06	2260.96
192.28	2033.63
192.50	2521.05
192.72	2303.96
192.94	2154.46
193.16	2416.60
193.38	2281.44
193.60	2195.42
193.82	2185.18
194.04	2338.78
194.26	2203.61
194.48	2250.72
194.70	2179.04
194.92	2334.68
195.14	2351.07
195.36	2174.94
195.58	2228.19
195.80	2150.37
196.02	2209.76
196.24	2193.37
196.46	2195.42
196.69	2201.57
196.91	2486.23
197.13	2183.13
197.35	2226.14
197.57	2416.60
197.79	2283.49
198.01	2224.09
198.23	2252.77
198.45	2289.63
198.67	2187.23
198.89	2197.47
199.11	2185.18
199.33	2318.30
199.55	2064.35
199.77	2185.18
199.99	2271.20
200.21	2211.81
200.43	2230.24
200.65	2107.36
200.87	2021.35
201.09	2205.66
201.31	2314.20
201.53	2215.90
201.75	2195.42
201.97	2252.77
202.19	2252.77
202.41	2187.23
202.63	2301.92
202.85	2365.40
203.07	2148.32
203.29	2138.08
203.51	2064.35
203.73	2052.06
203.95	2525.15
204.17	2215.90
204.39	2203.61
204.61	2234.33
204.83	2183.13
205.05	2244.57
205.27	2246.62
205.49	2553.82
205.71	2263.01
205.93	2146.27
206.15	2131.94
206.37	2277.34
206.59	2242.53
206.81	2052.06
207.03	2138.08
207.25	2129.89
207.47	2375.64
207.69	2144.22
207.91	2301.92
208.13	2371.55
208.34	2277.34
208.56	2117.60
208.78	2224.09
209.00	2191.33
209.22	2254.81
209.44	2183.13
209.66	2183.13
209.88	2273.25
210.10	2228.19
210.32	2230.24
210.54	2299.87
210.76	2250.72
210.98	2328.54
211.20	2023.39
211.42	2238.43
211.64	2394.08
211.86	2181.09
212.08	2228.19
212.30	2228.19
212.52	2232.29
212.74	2324.44
212.96	2191.33
213.17	2283.49
213.39	2340.83
213.61	2430.94
213.83	2170.85
214.05	2263.01
214.27	2369.50
214.49	2162.66
214.71	2123.74
214.93	2318.30
215.15	2250.72
215.37	2248.67
215.59	2029.54
215.81	2260.96
216.03	2412.51
216.24	2279.39
216.46	2185.18
216.68	2265.05
216.90	2330.59
217.12	2340.83
217.34	2250.72
217.56	2224.09
217.78	2346.97
218.00	2240.48
218.22	2207.71
218.44	2320.35
218.66	2240.48
218.87	2465.75
219.09	2121.70
219.31	2211.81
219.53	2320.35
219.75	2187.23
219.97	2164.70
220.19	2310.11
220.41	2236.38
220.63	2365.40
220.85	2232.29
221.06	2113.50
221.28	2406.36
221.50	2365.40
221.72	2154.46
221.94	2125.79
222.16	2254.81
222.38	2383.84
222.60	2097.12
222.82	2138.08
223.03	2346.97
223.25	2179.04
223.47	2244.57
223.69	2310.11
223.91	2353.12
224.13	2281.44
224.35	2082.78
224.57	2334.68
224.78	2330.59
225.00	2193.37
225.22	2176.99
225.44	2162.66
225.66	2318.30
225.88	2164.70
226.10	2217.95
226.32	2222.05
226.53	2373.60
226.75	2193.37
226.97	2209.76
227.19	2170.85
227.41	2152.42
227.63	2224.09
227.85	2060.26
228.06	2158.56
228.28	2258.91
228.50	2250.72
228.72	2138.08
228.94	2099.17
229.16	2082.78
229.37	2172.89
229.59	2144.22
229.81	2297.82
230.03	2258.91
230.25	2156.51
230.47	2129.89
230.69	2121.70
230.90	2334.68
231.12	2162.66
231.34	2285.53
231.56	2256.86
231.78	2121.70
232.00	2258.91
232.21	2230.24
232.43	2154.46
232.65	2080.74
232.87	2308.06
233.09	2093.02
233.30	2125.79
233.52	2334.68
233.74	2244.57
233.96	2117.60
234.18	2252.77
234.40	2265.05
234.61	2449.37
234.83	2097.12
235.05	2146.27
235.27	2580.44
235.49	2416.60
235.70	2222.05
235.92	2281.44
236.14	2242.53
236.36	2490.33
236.58	2052.06
236.79	2277.34
237.01	2301.92
237.23	2224.09
237.45	2326.49
237.67	2138.08
237.88	2301.92
238.10	2451.42
238.32	2158.56
238.54	2107.36
238.76	2244.57
238.97	2117.60
239.19	2185.18
239.41	2260.96
239.63	2349.02
239.85	2250.72
240.06	2193.37
240.28	2115.55
240.50	2338.78
240.72	2250.72
240.93	2176.99
241.15	2256.86
241.37	2244.57
241.59	2340.83
241.81	2248.67
242.02	2230.24
242.24	2260.96
242.46	2295.77
242.68	2080.74
242.89	2133.98
243.11	2285.53
243.33	2211.81
243.55	2199.52
243.76	2154.46
243.98	2179.04
244.20	2269.15
244.42	2191.33
244.64	2224.09
244.85	2144.22
245.07	2187.23
245.29	2201.57
245.51	2119.65
245.72	2293.72
245.94	2408.41
246.16	2189.28
246.38	2244.57
246.59	2179.04
246.81	2156.51
247.03	2160.61
247.24	2109.41
247.46	2166.75
247.68	2199.52
247.90	2138.08
248.11	2166.75
248.33	2336.73
248.55	2254.81
248.77	2193.37
248.98	2228.19
249.20	2389.98
249.42	2303.96
249.64	2140.13
249.85	2187.23
250.07	2148.32
250.29	2342.88
250.50	2211.81
250.72	2056.16
250.94	2277.34
251.16	2512.86
251.37	2168.80
251.59	2217.95
251.81	2299.87
252.02	2394.08
252.24	2179.04
252.46	2283.49
252.68	2207.71
252.89	2166.75
253.11	2017.25
253.33	2285.53
253.54	2418.65
253.76	2152.42
253.98	2187.23
254.20	2146.27
254.41	2117.60
254.63	2187.23
254.85	2058.21
255.06	2133.98
255.28	2301.92
255.50	2273.25
255.71	2115.55
255.93	2066.40
256.15	2258.91
256.36	2285.53
256.58	2156.51
256.80	2250.72
257.02	2291.68
257.23	2232.29
257.45	2244.57
257.67	2213.85
257.88	2162.66
258.10	2285.53
258.32	2201.57
258.53	2291.68
258.75	2465.75
258.97	2197.47
259.18	2146.27
259.40	2123.74
259.62	2396.12
259.83	2410.46
260.05	2144.22
260.27	2633.69
260.48	2435.03
260.70	2150.37
260.92	2181.09
261.13	2176.99
261.35	2265.05
261.57	2238.43
261.78	2097.12
262.00	2127.84
262.22	2318.30
262.43	2197.47
262.65	2187.23
262.86	2203.61
263.08	2529.24
263.30	2322.40
263.51	2066.40
263.73	2093.02
263.95	2414.56
264.16	2170.85
264.38	2113.50
264.60	2170.85
264.81	2228.19
265.03	2373.60
265.25	2349.02
265.46	2236.38
265.68	2332.64
265.89	2256.86
266.11	2121.70
266.33	2246.62
266.54	2326.49
266.76	2342.88
266.98	2263.01
267.19	2310.11
267.41	2322.40
267.62	2226.14
267.84	2039.78
268.06	2258.91
268.27	2277.34
268.49	2275.29
268.70	2179.04
268.92	2129.89
269.14	2117.60
269.35	2109.41
269.57	2217.95
269.79	2269.15
270.00	2222.05
270.22	2402.27
270.43	2084.83
270.65	2078.69
270.87	2281.44
271.08	2375.64
271.30	2246.62
271.51	2160.61
271.73	2342.88
271.95	2408.41
272.16	2250.72
272.38	2293.72
272.59	2308.06
272.81	2314.20
273.02	2140.13
273.24	2248.67
273.46	2330.59
273.67	2162.66
273.89	2070.50
274.10	2168.80
274.32	2326.49
274.54	2308.06
274.75	2158.56
274.97	2226.14
275.18	2338.78
275.40	2242.53
275.61	2222.05
275.83	2295.77
276.05	2140.13
276.26	2150.37
276.48	2220.00
276.69	2189.28
276.91	2179.04
277.12	2373.60
277.34	2324.44
277.55	2308.06
277.77	2230.24
277.99	2158.56
278.20	2107.36
278.42	2088.93
278.63	2170.85
278.85	2166.75
279.06	2015.20
279.28	2322.40
279.49	2367.45
279.71	2351.07
279.93	2260.96
280.14	2275.29
280.36	2109.41
280.57	2351.07
280.79	2332.64
281.00	2125.79
281.22	2144.22
281.43	2373.60
281.65	2052.06
281.86	2133.98
282.08	2318.30
282.29	2498.52
282.51	2117.60
282.73	2111.46
282.94	2150.37
283.16	2320.35
283.37	2367.45
283.59	2181.09
283.80	2269.15
284.02	2152.42
284.23	2273.25
284.45	2193.37
284.66	2203.61
284.88	2154.46
285.09	2263.01
285.31	2308.06
285.52	2340.83
285.74	2121.70
285.95	2211.81
286.17	2236.38
286.38	2344.92
286.60	2117.60
286.81	2166.75
287.03	2254.81
287.24	2342.88
287.46	2336.73
287.67	2326.49
287.89	2449.37
288.10	2301.92
288.32	2211.81
288.53	2394.08
288.75	2209.76
288.96	2363.36
289.18	2170.85
289.39	2217.95
289.61	2301.92
289.82	2457.56
290.04	2416.60
290.25	2144.22
290.47	2230.24
290.68	2152.42
290.90	2361.31
291.11	2095.07
291.33	2324.44
291.54	2136.03
291.76	2123.74
291.97	2281.44
292.18	2283.49
292.40	2142.18
292.61	2217.95
292.83	2410.46
293.04	2279.39
293.26	2269.15
293.47	2220.00
293.69	2185.18
293.90	2199.52
294.12	2400.22
294.33	2289.63
294.55	2244.57
294.76	2318.30
294.97	2361.31
295.19	2467.80
295.40	2246.62
295.62	2293.72
295.83	2269.15
296.05	2242.53
296.26	2367.45
296.48	2213.85
296.69	2222.05
296.90	2213.85
297.12	2369.50
297.33	2252.77
297.55	2244.57
297.76	2275.29
297.98	2314.20
298.19	2240.48
298.41	2303.96
298.62	2203.61
298.83	2396.12
299.05	2318.30
299.26	2244.57
299.48	2185.18
299.69	2220.00
299.90	2244.57
300.12	2211.81
300.33	2316.25
300.55	2258.91
300.76	2269.15
300.98	2136.03
301.19	2291.68
301.40	2193.37
301.62	2152.42
301.83	2291.68
302.05	2258.91
302.26	2277.34
302.47	2260.96
302.69	2090.98
302.90	2297.82
303.12	2164.70
303.33	2306.01
303.54	2498.52
303.76	2162.66
303.97	2236.38
304.19	2424.80
304.40	2140.13
304.61	2340.83
304.83	2357.21
305.04	2310.11
305.26	2240.48
305.47	2185.18
305.68	2193.37
305.90	2095.07
306.11	2342.88
306.33	2265.05
306.54	2127.84
306.75	2107.36
306.97	2097.12
307.18	2168.80
307.39	2127.84
307.61	2273.25
307.82	2179.04
308.04	2265.05
308.25	2136.03
308.46	2240.48
308.68	2293.72
308.89	2297.82
309.10	2326.49
309.32	2297.82
309.53	2260.96
309.74	2318.30
309.96	2226.14
310.17	2369.50
310.39	2203.61
310.60	2326.49
310.81	2172.89
311.03	2121.70
311.24	2359.26
311.45	2162.66
311.67	2430.94
311.88	2322.40
312.09	2240.48
312.31	2291.68
312.52	2217.95
312.73	2236.38
312.95	2133.98
313.16	2228.19
313.37	2359.26
313.59	2334.68
313.80	2371.55
314.01	2408.41
314.23	2228.19
314.44	2176.99
314.65	2158.56
314.87	2168.80
315.08	2230.24
315.29	2160.61
315.51	2144.22
315.72	2103.26
315.93	2359.26
316.15	2383.84
316.36	2246.62
316.57	2240.48
316.79	2310.11
317.00	2115.55
317.21	2367.45
317.43	2152.42
317.64	2252.77
317.85	2217.95
318.07	2217.95
318.28	2179.04
318.49	2346.97
318.70	2494.43
318.92	2408.41
319.13	2410.46
319.34	2496.47
319.56	2365.40
319.77	2359.26
319.98	2293.72
320.20	2357.21
320.41	2291.68
320.62	2408.41
320.83	2197.47
321.05	2480.09
321.26	2238.43
321.47	2297.82
321.69	2373.60
321.90	2074.59
322.11	2197.47
322.32	2392.03
322.54	2306.01
322.75	2215.90
322.96	2600.92
323.18	2103.26
323.39	2043.87
323.60	2123.74
323.81	2373.60
324.03	2170.85
324.24	2252.77
324.45	2267.10
324.66	2209.76
324.88	2443.23
325.09	2488.28
325.30	2209.76
325.52	2211.81
325.73	2326.49
325.94	2179.04
326.15	2140.13
326.37	2162.66
326.58	2349.02
326.79	2406.36
327.00	2105.31
327.22	2306.01
327.43	2244.57
327.64	2133.98
327.85	2248.67
328.07	2215.90
328.28	2379.74
328.49	2228.19
328.70	2174.94
328.92	2183.13
329.13	2226.14
329.34	2252.77
329.55	2422.75
329.76	2330.59
329.98	2244.57
330.19	2365.40
330.40	2265.05
330.61	2260.96
330.83	2299.87
331.04	2142.18
331.25	2265.05
331.46	2187.23
331.68	2074.59
331.89	2340.83
332.10	2195.42
332.31	2113.50
332.52	2242.53
332.74	2392.03
332.95	2088.93
333.16	2277.34
333.37	2244.57
333.58	2195.42
333.80	2277.34
334.01	2050.02
334.22	2176.99
334.43	2154.46
334.64	2170.85
334.86	2125.79
335.07	2095.07
335.28	2383.84
335.49	2201.57
335.70	2256.86
335.92	2387.93
336.13	2519.00
336.34	2275.29
336.55	2203.61
336.76	2279.39
336.98	2064.35
337.19	2201.57
337.40	2408.41
337.61	2484.19
337.82	2246.62
338.04	2334.68
338.25	2084.83
338.46	2263.01
338.67	2232.29
338.88	2140.13
339.09	2113.50
339.31	2226.14
339.52	2240.48
339.73	2127.84
339.94	2332.64
340.15	2293.72
340.36	2232.29
340.58	2242.53
340.79	2207.71
341.00	2410.46
341.21	2095.07
341.42	2392.03
341.63	2205.66
341.85	2324.44
342.06	2271.20
342.27	2146.27
342.48	2314.20
342.69	2176.99
342.90	2260.96
343.12	2283.49
343.33	2164.70
343.54	2336.73
343.75	2422.75
343.96	2205.66
344.17	2172.89
344.38	2211.81
344.60	2185.18
344.81	2256.86
345.02	2215.90
345.23	2351.07
345.44	2510.81
345.65	2267.10
345.86	2312.16
346.07	2279.39
346.29	2301.92
346.50	2277.34
346.71	2285.53
346.92	2389.98
347.13	2475.99
347.34	2191.33
347.55	2174.94
347.76	2342.88
347.98	2115.55
348.19	2267.10
348.40	2324.44
348.61	2211.81
348.82	2441.18
349.03	2260.96
349.24	2187.23
349.45	2402.27
349.66	2060.26
349.88	2142.18
350.09	2150.37
350.30	2408.41
350.51	2398.17
350.72	2334.68
350.93	2248.67
351.14	2258.91
351.35	2351.07
351.56	2228.19
351.77	2217.95
351.99	2295.77
352.20	2418.65
352.41	2400.22
352.62	2080.74
352.83	2277.34
353.04	2230.24
353.25	2174.94
353.46	2349.02
353.67	2328.54
353.88	2007.01
354.09	2265.05
354.30	2199.52
354.52	2322.40
354.73	2189.28
354.94	2209.76
355.15	2217.95
355.36	2463.71
355.57	2236.38
355.78	2256.86
355.99	2168.80
356.20	2215.90
356.41	2379.74
356.62	2263.01
356.83	2215.90
357.04	2408.41
357.25	2113.50
357.46	2181.09
357.68	2031.58
357.89	2103.26
358.10	2205.66
358.31	2174.94
358.52	2234.33
358.73	2150.37
358.94	2197.47
359.15	2207.71
359.36	2340.83
359.57	2209.76
359.78	2271.20
359.99	2291.68
360.20	2166.75
360.41	2269.15
360.62	2322.40
360.83	2222.05
361.04	2258.91
361.25	2297.82
361.46	2406.36
361.67	2371.55
361.88	2289.63
362.09	2318.30
362.30	2260.96
362.51	2156.51
362.72	2230.24
362.93	2375.64
363.14	2365.40
363.35	2277.34
363.56	2103.26
363.78	2334.68
363.99	2289.63
364.20	2138.08
364.41	2234.33
364.62	2398.17
364.83	2281.44
365.04	2287.58
365.25	2232.29
365.46	2426.84
365.67	2138.08
365.88	2314.20
366.09	2236.38
366.30	2215.90
366.51	2211.81
366.72	2119.65
366.93	2238.43
367.14	2211.81
367.35	2426.84
367.56	2236.38
367.77	2383.84
367.98	2310.11
368.18	2295.77
368.39	2277.34
368.60	2113.50
368.81	2330.59
369.02	2316.25
369.23	2179.04
369.44	2097.12
369.65	2203.61
369.86	2291.68
370.07	2353.12
370.28	2152.42
370.49	2277.34
370.70	2336.73
370.91	2111.46
371.12	2142.18
371.33	2281.44
371.54	2170.85
371.75	2357.21
371.96	2011.11
372.17	2361.31
372.38	2232.29
372.59	2293.72
372.80	2199.52
373.01	2289.63
373.22	2289.63
373.43	2199.52
373.64	2095.07
373.85	2363.36
374.06	2412.51
374.26	2357.21
374.47	2303.96
374.68	2465.75
374.89	2260.96
375.10	2213.85
375.31	2281.44
375.52	2256.86
375.73	2324.44
375.94	2123.74
376.15	2371.55
376.36	2236.38
376.57	2228.19
376.78	2258.91
376.99	2314.20
377.20	2406.36
377.40	2220.00
377.61	2404.32
377.82	2205.66
378.03	2437.08
378.24	2396.12
378.45	2187.23
378.66	2250.72
378.87	2133.98
379.08	2121.70
379.29	2136.03
379.50	2379.74
379.71	2170.85
379.91	2279.39
380.12	2189.28
380.33	2232.29
380.54	2285.53
380.75	2240.48
380.96	2185.18
381.17	2377.69
381.38	2211.81
381.59	2287.58
381.80	2277.34
382.00	2463.71
382.21	2277.34
382.42	2537.43
382.63	2527.19
382.84	2238.43
383.05	2373.60
383.26	2480.09
383.47	2220.00
383.68	2265.05
383.88	2273.25
384.09	2277.34
384.30	2398.17
384.51	2324.44
384.72	2185.18
384.93	2152.42
385.14	2318.30
385.35	2445.27
385.55	2183.13
385.76	2369.50
385.97	2267.10
386.18	2179.04
386.39	2144.22
386.60	2254.81
386.81	2199.52
387.02	2095.07
387.22	2111.46
387.43	2392.03
387.64	2400.22
387.85	2467.80
388.06	2555.86
388.27	3968.96
388.48	8335.23
388.68	11667.28
388.89	14004.01
389.10	14956.32
389.31	14063.40
389.52	10889.05
389.73	9510.77
389.93	8746.87
390.14	7933.83
390.35	7081.88
390.56	6236.06
390.77	5287.86
390.98	4001.73
391.18	3213.26
391.39	2705.37
391.60	2521.05
391.81	2398.17
392.02	2269.15
392.23	2523.10
392.43	2295.77
392.64	2303.96
392.85	2244.57
393.06	2367.45
393.27	2185.18
393.47	2209.76
393.68	2260.96
393.89	2244.57
394.10	2322.40
394.31	2123.74
394.52	2117.60
394.72	2207.71
394.93	2363.36
395.14	2195.42
395.35	2244.57
395.56	2236.38
395.76	2234.33
395.97	2244.57
396.18	2355.16
396.39	2357.21
396.60	2770.90
396.80	2553.82
397.01	2437.08
397.22	2402.27
397.43	2475.99
397.64	2299.87
397.84	2381.79
398.05	2504.67
398.26	2260.96
398.47	2326.49
398.67	2322.40
398.88	2285.53
399.09	2301.92
399.30	2258.91
399.51	2295.77
399.71	2181.09
399.92	2260.96
400.13	2349.02
400.34	2246.62
400.54	2220.00
400.75	2439.13
400.96	2338.78
401.17	2394.08
401.37	2285.53
401.58	2222.05
401.79	2160.61
402.00	2400.22
402.21	2768.85
402.41	2551.77
402.62	2592.73
402.83	2625.50
403.04	2699.22
403.24	2813.91
403.45	2344.92
403.66	2568.15
403.87	2492.38
404.07	2490.33
404.28	2531.29
404.49	2455.51
404.70	2334.68
404.90	2316.25
405.11	2267.10
405.32	2308.06
405.52	2162.66
405.73	2117.60
405.94	2275.29
406.15	2263.01
406.35	2293.72
406.56	2359.26
406.77	2346.97
406.98	2209.76
407.18	2189.28
407.39	2340.83
407.60	2176.99
407.80	2281.44
408.01	2187.23
408.22	2265.05
408.43	2191.33
408.63	2346.97
408.84	2236.38
409.05	2361.31
409.25	2088.93
409.46	2197.47
409.67	2168.80
409.88	2230.24
410.08	2228.19
410.29	2213.85
410.50	2299.87
410.70	2275.29
410.91	2168.80
411.12	2291.68
411.32	2226.14
411.53	2191.33
411.74	2316.25
411.95	2412.51
412.15	2215.90
412.36	2439.13
412.57	2326.49
412.77	2351.07
412.98	2242.53
413.19	2174.94
413.39	2246.62
413.60	2236.38
413.81	2441.18
414.01	2258.91
414.22	2293.72
414.43	2326.49
414.63	2234.33
414.84	2408.41
415.05	2238.43
415.25	2187.23
415.46	2344.92
415.67	2236.38
415.87	2248.67
416.08	2277.34
416.29	2211.81
416.49	2287.58
416.70	2193.37
416.91	2224.09
417.11	2166.75
417.32	2318.30
417.53	2232.29
417.73	2271.20
417.94	2297.82
418.15	2275.29
418.35	2291.68
418.56	2301.92
418.77	2572.25
418.97	2260.96
419.18	2244.57
419.38	2068.45
419.59	2277.34
419.80	2396.12
420.00	2263.01
420.21	2277.34
420.42	2351.07
420.62	2275.29
420.83	2154.46
421.04	2183.13
421.24	2244.57
421.45	2363.36
421.65	2340.83
421.86	2277.34
422.07	2291.68
422.27	2267.10
422.48	2203.61
422.69	2123.74
422.89	2293.72
423.10	2205.66
423.30	2101.22
423.51	2377.69
423.72	2324.44
423.92	2297.82
424.13	2105.31
424.33	2248.67
424.54	2336.73
424.75	2273.25
424.95	2400.22
425.16	2256.86
425.36	2162.66
425.57	2465.75
425.78	2355.16
425.98	2373.60
426.19	2252.77
426.39	2193.37
426.60	2326.49
426.81	2322.40
427.01	2301.92
427.22	2228.19
427.42	2119.65
427.63	2174.94
427.83	2269.15
428.04	2490.33
428.25	2361.31
428.45	2389.98
428.66	2342.88
428.86	2197.47
429.07	2201.57
429.28	2222.05
429.48	2267.10
429.69	2113.50
429.89	2351.07
430.10	2193.37
430.30	2353.12
430.51	2312.16
430.71	2215.90
430.92	2244.57
431.13	2181.09
431.33	2359.26
431.54	2281.44
431.74	2457.56
431.95	2437.08
432.15	2123.74
432.36	2260.96
432.56	2250.72
432.77	2510.81
432.98	2416.60
433.18	2256.86
433.39	2125.79
433.59	2201.57
433.80	2385.88
434.00	2496.47
434.21	2129.89
434.41	2138.08
434.62	2555.86
434.82	2072.54
435.03	2191.33
435.23	2277.34
435.44	2045.92
435.64	2250.72
435.85	2254.81
436.06	2392.03
436.26	2314.20
436.47	2236.38
436.67	2224.09
436.88	2256.86
437.08	2410.46
437.29	2346.97
437.49	2349.02
437.70	2385.88
437.90	2217.95
438.11	2432.99
438.31	2367.45
438.52	2514.91
438.72	2439.13
438.93	2602.97
439.13	2330.59
439.34	2488.28
439.54	2195.42
439.75	2342.88
439.95	2340.83
440.16	2244.57
440.36	2260.96
440.57	2260.96
440.77	2283.49
440.98	2318.30
441.18	2248.67
441.39	2244.57
441.59	2129.89
441.80	2465.75
442.00	2242.53
442.21	2392.03
442.41	2162.66
442.62	2349.02
442.82	2197.47
443.02	2297.82
443.23	2271.20
443.43	2273.25
443.64	2408.41
443.84	2146.27
444.05	2357.21
444.25	2256.86
444.46	2342.88
444.66	2277.34
444.87	2428.89
445.07	2127.84
445.28	2285.53
445.48	2490.33
445.69	2344.92
445.89	2543.58
446.09	2252.77
446.30	2572.25
446.50	2881.49
446.71	4390.84
446.91	5337.01
447.12	6301.60
447.32	6813.59
447.53	6242.21
447.73	5162.93
447.93	4575.16
448.14	4159.42
448.34	4022.21
448.55	3651.53
448.75	3481.55
448.96	3356.62
449.16	2990.03
449.36	2818.00
449.57	2553.82
449.77	2324.44
449.98	2265.05
450.18	2342.88
450.39	2375.64
450.59	2359.26
450.79	2308.06
451.00	2285.53
451.20	2338.78
451.41	2220.00
451.61	2428.89
451.81	2297.82
452.02	2150.37
452.22	2201.57
452.43	2156.51
452.63	2127.84
