SpectraSuite Data File
++++++++++++++++++++++++++++++++++++
Date: Thu May 05 13:21:22 CEST 2016
User: root
Dark Spectrum Present: No
Reference Spectrum Present: No
Number of Sampled Component Spectra: 1
Spectrometers: USB4C02835
Integration Time (usec): 100000 (USB4C02835)
Spectra Averaged: 1 (USB4C02835)
Boxcar Smoothing: 0 (USB4C02835)
Correct for Electrical Dark: No (USB4C02835)
Strobe/Lamp Enabled: No (USB4C02835)
Correct for Detector Non-linearity: No (USB4C02835)
Correct for Stray Light: No (USB4C02835)
Number of Pixels in Processed Spectrum: 3648
>>>>>Begin Processed Spectral Data<<<<<
177.47	1783.78
177.69	1783.78
177.91	1783.78
178.13	1785.83
178.36	1804.26
178.58	2201.57
178.80	2207.71
179.02	2187.23
179.24	2168.80
179.46	2170.85
179.68	2201.57
179.90	2195.42
180.13	2187.23
180.35	2045.92
180.57	2060.26
180.79	2392.03
181.01	2322.40
181.23	2232.29
181.45	2230.24
181.67	2310.11
181.90	2367.45
182.12	2185.18
182.34	2127.84
182.56	2254.81
182.78	2291.68
183.00	2232.29
183.22	2217.95
183.44	2097.12
183.66	2457.56
183.89	2197.47
184.11	2154.46
184.33	2332.64
184.55	2314.20
184.77	2211.81
184.99	2185.18
185.21	2252.77
185.43	2471.90
185.65	2121.70
185.87	2211.81
186.10	2531.29
186.32	2486.23
186.54	2234.33
186.76	2279.39
186.98	2359.26
187.20	2232.29
187.42	2121.70
187.64	2217.95
187.86	2287.58
188.08	2342.88
188.30	2205.66
188.52	2172.89
188.75	2373.60
188.97	2375.64
189.19	2154.46
189.41	2250.72
189.63	2332.64
189.85	2236.38
190.07	2115.55
190.29	2043.87
190.51	2228.19
190.73	2160.61
190.95	2283.49
191.17	2220.00
191.39	2082.78
191.61	2254.81
191.84	2045.92
192.06	2226.14
192.28	2093.02
192.50	2516.95
192.72	2140.13
192.94	2156.51
193.16	2367.45
193.38	2250.72
193.60	2088.93
193.82	2226.14
194.04	2330.59
194.26	2263.01
194.48	2203.61
194.70	2189.28
194.92	2201.57
195.14	2318.30
195.36	2123.74
195.58	2213.85
195.80	2232.29
196.02	2138.08
196.24	2248.67
196.46	2250.72
196.69	2209.76
196.91	2473.95
197.13	2121.70
197.35	2183.13
197.57	2404.32
197.79	2301.92
198.01	2293.72
198.23	2240.48
198.45	2332.64
198.67	2117.60
198.89	2142.18
199.11	2281.44
199.33	2236.38
199.55	2045.92
199.77	2117.60
199.99	2215.90
200.21	2162.66
200.43	2355.16
200.65	2101.22
200.87	2109.41
201.09	2224.09
201.31	2220.00
201.53	2222.05
201.75	2220.00
201.97	2314.20
202.19	2244.57
202.41	2236.38
202.63	2301.92
202.85	2209.76
203.07	2279.39
203.29	2195.42
203.51	2172.89
203.73	2265.05
203.95	2512.86
204.17	2150.37
204.39	2332.64
204.61	2297.82
204.83	2201.57
205.05	2312.16
205.27	2234.33
205.49	2426.84
205.71	2209.76
205.93	2113.50
206.15	2187.23
206.37	2357.21
206.59	2234.33
206.81	2064.35
207.03	2088.93
207.25	2203.61
207.47	2344.92
207.69	2119.65
207.91	2375.64
208.13	2351.07
208.34	2203.61
208.56	2154.46
208.78	2181.09
209.00	2211.81
209.22	2232.29
209.44	2099.17
209.66	2154.46
209.88	2195.42
210.10	2220.00
210.32	2093.02
210.54	2215.90
210.76	2299.87
210.98	2346.97
211.20	2004.96
211.42	2240.48
211.64	2424.80
211.86	2312.16
212.08	2199.52
212.30	2220.00
212.52	2238.43
212.74	2281.44
212.96	2258.91
213.17	2232.29
213.39	2318.30
213.61	2475.99
213.83	2170.85
214.05	2224.09
214.27	2365.40
214.49	2002.91
214.71	2162.66
214.93	2285.53
215.15	2265.05
215.37	2269.15
215.59	2004.96
215.81	2220.00
216.03	2408.41
216.24	2299.87
216.46	2189.28
216.68	2179.04
216.90	2324.44
217.12	2359.26
217.34	2154.46
217.56	2308.06
217.78	2465.75
218.00	2338.78
218.22	2129.89
218.44	2170.85
218.66	2373.60
218.87	2461.66
219.09	2127.84
219.31	2267.10
219.53	2244.57
219.75	2203.61
219.97	2154.46
220.19	2174.94
220.41	2265.05
220.63	2408.41
220.85	2226.14
221.06	2271.20
221.28	2410.46
221.50	2412.51
221.72	2195.42
221.94	2176.99
222.16	2287.58
222.38	2412.51
222.60	2220.00
222.82	2242.53
223.03	2375.64
223.25	2129.89
223.47	2220.00
223.69	2336.73
223.91	2414.56
224.13	2334.68
224.35	2125.79
224.57	2240.48
224.78	2392.03
225.00	2222.05
225.22	2193.37
225.44	2086.88
225.66	2338.78
225.88	2217.95
226.10	2381.79
226.32	2322.40
226.53	2326.49
226.75	2224.09
226.97	2193.37
227.19	2158.56
227.41	2142.18
227.63	2308.06
227.85	2062.30
228.06	2211.81
228.28	2324.44
228.50	2322.40
228.72	2088.93
228.94	2187.23
229.16	2121.70
229.37	2181.09
229.59	2150.37
229.81	2369.50
230.03	2285.53
230.25	2090.98
230.47	2052.06
230.69	2054.11
230.90	2301.92
231.12	2224.09
231.34	2179.04
231.56	2250.72
231.78	2111.46
232.00	2314.20
232.21	2220.00
232.43	2136.03
232.65	2041.82
232.87	2314.20
233.09	2090.98
233.30	2179.04
233.52	2301.92
233.74	2209.76
233.96	2234.33
234.18	2256.86
234.40	2269.15
234.61	2461.66
234.83	2129.89
235.05	2082.78
235.27	2457.56
235.49	2357.21
235.70	2107.36
235.92	2303.96
236.14	2377.69
236.36	2496.47
236.58	2101.22
236.79	2220.00
237.01	2330.59
237.23	2287.58
237.45	2375.64
237.67	2125.79
237.88	2220.00
238.10	2357.21
238.32	2080.74
238.54	2183.13
238.76	2244.57
238.97	2144.22
239.19	2095.07
239.41	2207.71
239.63	2367.45
239.85	2205.66
240.06	2213.85
240.28	2117.60
240.50	2375.64
240.72	2207.71
240.93	2131.94
241.15	2293.72
241.37	2248.67
241.59	2314.20
241.81	2185.18
242.02	2174.94
242.24	2359.26
242.46	2349.02
242.68	2103.26
242.89	2125.79
243.11	2424.80
243.33	2238.43
243.55	2226.14
243.76	2217.95
243.98	2224.09
244.20	2281.44
244.42	2224.09
244.64	2158.56
244.85	2140.13
245.07	2215.90
245.29	2220.00
245.51	2170.85
245.72	2248.67
245.94	2410.46
246.16	2220.00
246.38	2328.54
246.59	2136.03
246.81	2166.75
247.03	2168.80
247.24	2041.82
247.46	2316.25
247.68	2271.20
247.90	2076.64
248.11	2131.94
248.33	2355.16
248.55	2326.49
248.77	2242.53
248.98	2199.52
249.20	2424.80
249.42	2279.39
249.64	2119.65
249.85	2172.89
250.07	2146.27
250.29	2244.57
250.50	2277.34
250.72	1986.53
250.94	2273.25
251.16	2443.23
251.37	2246.62
251.59	2252.77
251.81	2252.77
252.02	2449.37
252.24	2166.75
252.46	2291.68
252.68	2228.19
252.89	2191.33
253.11	2129.89
253.33	2285.53
253.54	2426.84
253.76	2111.46
253.98	2121.70
254.20	2158.56
254.41	2176.99
254.63	2252.77
254.85	2146.27
255.06	2295.77
255.28	2252.77
255.50	2158.56
255.71	2162.66
255.93	2013.15
256.15	2172.89
256.36	2293.72
256.58	2064.35
256.80	2209.76
257.02	2224.09
257.23	2187.23
257.45	2187.23
257.67	2273.25
257.88	2209.76
258.10	2334.68
258.32	2217.95
258.53	2220.00
258.75	2408.41
258.97	2224.09
259.18	2191.33
259.40	2101.22
259.62	2453.47
259.83	2394.08
260.05	2281.44
260.27	2752.47
260.48	2310.11
260.70	2166.75
260.92	2160.61
261.13	2144.22
261.35	2260.96
261.57	2279.39
261.78	2097.12
262.00	2103.26
262.22	2346.97
262.43	2066.40
262.65	2228.19
262.86	2199.52
263.08	2424.80
263.30	2263.01
263.51	2144.22
263.73	2109.41
263.95	2387.93
264.16	2168.80
264.38	2097.12
264.60	2119.65
264.81	2228.19
265.03	2340.83
265.25	2381.79
265.46	2230.24
265.68	2375.64
265.89	2336.73
266.11	2111.46
266.33	2260.96
266.54	2381.79
266.76	2332.64
266.98	2191.33
267.19	2285.53
267.41	2293.72
267.62	2248.67
267.84	2062.30
268.06	2232.29
268.27	2320.35
268.49	2377.69
268.70	2256.86
268.92	2144.22
269.14	2181.09
269.35	2070.50
269.57	2211.81
269.79	2187.23
270.00	2248.67
270.22	2412.51
270.43	2162.66
270.65	2050.02
270.87	2316.25
271.08	2344.92
271.30	2228.19
271.51	2217.95
271.73	2316.25
271.95	2432.99
272.16	2166.75
272.38	2201.57
272.59	2203.61
272.81	2340.83
273.02	2209.76
273.24	2238.43
273.46	2355.16
273.67	2097.12
273.89	2146.27
274.10	2162.66
274.32	2371.55
274.54	2324.44
274.75	2256.86
274.97	2230.24
275.18	2301.92
275.40	2287.58
275.61	2160.61
275.83	2228.19
276.05	2129.89
276.26	2176.99
276.48	2273.25
276.69	2133.98
276.91	2170.85
277.12	2375.64
277.34	2312.16
277.55	2336.73
277.77	2318.30
277.99	2230.24
278.20	2037.73
278.42	2136.03
278.63	2207.71
278.85	2226.14
279.06	2129.89
279.28	2181.09
279.49	2365.40
279.71	2326.49
279.93	2205.66
280.14	2314.20
280.36	2129.89
280.57	2379.74
280.79	2334.68
281.00	2070.50
281.22	2211.81
281.43	2334.68
281.65	2029.54
281.86	2138.08
282.08	2277.34
282.29	2420.70
282.51	2160.61
282.73	2234.33
282.94	2121.70
283.16	2338.78
283.37	2373.60
283.59	2301.92
283.80	2275.29
284.02	2269.15
284.23	2277.34
284.45	2203.61
284.66	2146.27
284.88	2170.85
285.09	2232.29
285.31	2338.78
285.52	2224.09
285.74	2152.42
285.95	2312.16
286.17	2246.62
286.38	2344.92
286.60	2207.71
286.81	2127.84
287.03	2179.04
287.24	2222.05
287.46	2224.09
287.67	2273.25
287.89	2439.13
288.10	2246.62
288.32	2306.01
288.53	2369.50
288.75	2265.05
288.96	2318.30
289.18	2129.89
289.39	2228.19
289.61	2246.62
289.82	2488.28
290.04	2394.08
290.25	2054.11
290.47	2277.34
290.68	2224.09
290.90	2344.92
291.11	2025.44
291.33	2308.06
291.54	2220.00
291.76	2129.89
291.97	2340.83
292.18	2295.77
292.40	2170.85
292.61	2258.91
292.83	2437.08
293.04	2351.07
293.26	2252.77
293.47	2193.37
293.69	2136.03
293.90	2158.56
294.12	2441.18
294.33	2201.57
294.55	2168.80
294.76	2322.40
294.97	2373.60
295.19	2533.34
295.40	2226.14
295.62	2240.48
295.83	2314.20
296.05	2179.04
296.26	2291.68
296.48	2224.09
296.69	2291.68
296.90	2250.72
297.12	2293.72
297.33	2306.01
297.55	2273.25
297.76	2263.01
297.98	2269.15
298.19	2295.77
298.41	2207.71
298.62	2170.85
298.83	2342.88
299.05	2228.19
299.26	2185.18
299.48	2150.37
299.69	2293.72
299.90	2293.72
300.12	2146.27
300.33	2301.92
300.55	2226.14
300.76	2250.72
300.98	2138.08
301.19	2230.24
301.40	2242.53
301.62	2211.81
301.83	2244.57
302.05	2353.12
302.26	2164.70
302.47	2260.96
302.69	2146.27
302.90	2260.96
303.12	2035.68
303.33	2256.86
303.54	2422.75
303.76	2238.43
303.97	2236.38
304.19	2408.41
304.40	2093.02
304.61	2275.29
304.83	2406.36
305.04	2344.92
305.26	2346.97
305.47	2236.38
305.68	2232.29
305.90	2101.22
306.11	2267.10
306.33	2195.42
306.54	2152.42
306.75	2109.41
306.97	2103.26
307.18	2240.48
307.39	2193.37
307.61	2342.88
307.82	2281.44
308.04	2277.34
308.25	2154.46
308.46	2258.91
308.68	2242.53
308.89	2252.77
309.10	2308.06
309.32	2355.16
309.53	2277.34
309.74	2240.48
309.96	2105.31
310.17	2342.88
310.39	2197.47
310.60	2410.46
310.81	2203.61
311.03	2017.25
311.24	2301.92
311.45	2281.44
311.67	2406.36
311.88	2240.48
312.09	2207.71
312.31	2146.27
312.52	2213.85
312.73	2226.14
312.95	2086.88
313.16	2101.22
313.37	2332.64
313.59	2285.53
313.80	2344.92
314.01	2385.88
314.23	2193.37
314.44	2099.17
314.65	2136.03
314.87	2172.89
315.08	2105.31
315.29	2127.84
315.51	2154.46
315.72	2176.99
315.93	2277.34
316.15	2283.49
316.36	2281.44
316.57	2213.85
316.79	2252.77
317.00	2246.62
317.21	2250.72
317.43	2244.57
317.64	2207.71
317.85	2127.84
318.07	2162.66
318.28	2232.29
318.49	2475.99
318.70	2506.71
318.92	2392.03
319.13	2365.40
319.34	2500.57
319.56	2273.25
319.77	2420.70
319.98	2373.60
320.20	2330.59
320.41	2320.35
320.62	2236.38
320.83	2154.46
321.05	2400.22
321.26	2279.39
321.47	2232.29
321.69	2330.59
321.90	2080.74
322.11	2133.98
322.32	2375.64
322.54	2363.36
322.75	2193.37
322.96	2605.02
323.18	2052.06
323.39	2076.64
323.60	2195.42
323.81	2291.68
324.03	2103.26
324.24	2209.76
324.45	2193.37
324.66	2250.72
324.88	2420.70
325.09	2400.22
325.30	2187.23
325.52	2226.14
325.73	2271.20
325.94	2236.38
326.15	2129.89
326.37	2170.85
326.58	2281.44
326.79	2467.80
327.00	2123.74
327.22	2260.96
327.43	2162.66
327.64	2209.76
327.85	2252.77
328.07	2144.22
328.28	2389.98
328.49	2238.43
328.70	2260.96
328.92	2199.52
329.13	2260.96
329.34	2289.63
329.55	2379.74
329.76	2330.59
329.98	2179.04
330.19	2371.55
330.40	2228.19
330.61	2248.67
330.83	2396.12
331.04	2117.60
331.25	2342.88
331.46	2297.82
331.68	2113.50
331.89	2381.79
332.10	2234.33
332.31	2080.74
332.52	2267.10
332.74	2310.11
332.95	2113.50
333.16	2127.84
333.37	2283.49
333.58	2265.05
333.80	2250.72
334.01	2127.84
334.22	2295.77
334.43	2207.71
334.64	2201.57
334.86	2215.90
335.07	2129.89
335.28	2361.31
335.49	2162.66
335.70	2246.62
335.92	2334.68
336.13	2473.95
336.34	2359.26
336.55	2260.96
336.76	2308.06
336.98	2090.98
337.19	2160.61
337.40	2369.50
337.61	2502.62
337.82	2236.38
338.04	2353.12
338.25	2058.21
338.46	2240.48
338.67	2297.82
338.88	2129.89
339.09	2086.88
339.31	2267.10
339.52	2131.94
339.73	2133.98
339.94	2240.48
340.15	2375.64
340.36	2191.33
340.58	2222.05
340.79	2111.46
341.00	2349.02
341.21	2129.89
341.42	2377.69
341.63	2205.66
341.85	2369.50
342.06	2310.11
342.27	2107.36
342.48	2344.92
342.69	2162.66
342.90	2203.61
343.12	2373.60
343.33	2203.61
343.54	2293.72
343.75	2389.98
343.96	2189.28
344.17	2138.08
344.38	2236.38
344.60	2140.13
344.81	2228.19
345.02	2236.38
345.23	2361.31
345.44	2480.09
345.65	2291.68
345.86	2285.53
346.07	2271.20
346.29	2121.70
346.50	2256.86
346.71	2301.92
346.92	2385.88
347.13	2484.19
347.34	2179.04
347.55	2201.57
347.76	2293.72
347.98	2086.88
348.19	2187.23
348.40	2342.88
348.61	2201.57
348.82	2357.21
349.03	2279.39
349.24	2129.89
349.45	2447.32
349.66	2084.83
349.88	2260.96
350.09	2113.50
350.30	2406.36
350.51	2389.98
350.72	2232.29
350.93	2250.72
351.14	2189.28
351.35	2322.40
351.56	2193.37
351.77	2205.66
351.99	2232.29
352.20	2437.08
352.41	2287.58
352.62	2074.59
352.83	2287.58
353.04	2242.53
353.25	2285.53
353.46	2224.09
353.67	2326.49
353.88	2144.22
354.09	2258.91
354.30	2273.25
354.52	2256.86
354.73	2207.71
354.94	2203.61
355.15	2281.44
355.36	2529.24
355.57	2189.28
355.78	2344.92
355.99	2162.66
356.20	2191.33
356.41	2369.50
356.62	2277.34
356.83	2318.30
357.04	2400.22
357.25	2166.75
357.46	2260.96
357.68	2078.69
357.89	2158.56
358.10	2267.10
358.31	2267.10
358.52	2195.42
358.73	2093.02
358.94	2197.47
359.15	2129.89
359.36	2299.87
359.57	2158.56
359.78	2310.11
359.99	2258.91
360.20	2185.18
360.41	2203.61
360.62	2338.78
360.83	2228.19
361.04	2275.29
361.25	2263.01
361.46	2414.56
361.67	2238.43
361.88	2275.29
362.09	2285.53
362.30	2297.82
362.51	2215.90
362.72	2277.34
362.93	2310.11
363.14	2340.83
363.35	2213.85
363.56	2136.03
363.78	2424.80
363.99	2365.40
364.20	2242.53
364.41	2258.91
364.62	2430.94
364.83	2252.77
365.04	2217.95
365.25	2207.71
365.46	2459.61
365.67	2215.90
365.88	2340.83
366.09	2090.98
366.30	2133.98
366.51	2263.01
366.72	2101.22
366.93	2222.05
367.14	2252.77
367.35	2387.93
367.56	2252.77
367.77	2392.03
367.98	2222.05
368.18	2289.63
368.39	2336.73
368.60	2109.41
368.81	2383.84
369.02	2310.11
369.23	2201.57
369.44	2150.37
369.65	2176.99
369.86	2379.74
370.07	2332.64
370.28	2213.85
370.49	2285.53
370.70	2289.63
370.91	2125.79
371.12	2099.17
371.33	2281.44
371.54	2211.81
371.75	2344.92
371.96	1984.48
372.17	2289.63
372.38	2215.90
372.59	2265.05
372.80	2121.70
373.01	2279.39
373.22	2285.53
373.43	2222.05
373.64	2176.99
373.85	2371.55
374.06	2471.90
374.26	2299.87
374.47	2252.77
374.68	2383.84
374.89	2220.00
375.10	2195.42
375.31	2271.20
375.52	2238.43
375.73	2351.07
375.94	2146.27
376.15	2322.40
376.36	2246.62
376.57	2224.09
376.78	2260.96
376.99	2260.96
377.20	2422.75
377.40	2232.29
377.61	2398.17
377.82	2021.35
378.03	2400.22
378.24	2263.01
378.45	2240.48
378.66	2252.77
378.87	2121.70
379.08	2138.08
379.29	2154.46
379.50	2375.64
379.71	2283.49
379.91	2361.31
380.12	2215.90
380.33	2256.86
380.54	2258.91
380.75	2271.20
380.96	2265.05
381.17	2375.64
381.38	2205.66
381.59	2283.49
381.80	2240.48
382.00	2461.66
382.21	2242.53
382.42	2480.09
382.63	2521.05
382.84	2297.82
383.05	2289.63
383.26	2375.64
383.47	2258.91
383.68	2295.77
383.88	2334.68
384.09	2318.30
384.30	2473.95
384.51	2326.49
384.72	2267.10
384.93	2107.36
385.14	2203.61
385.35	2279.39
385.55	2090.98
385.76	2340.83
385.97	2207.71
386.18	2129.89
386.39	2217.95
386.60	2263.01
386.81	2179.04
387.02	2166.75
387.22	2109.41
387.43	2396.12
387.64	2295.77
387.85	2410.46
388.06	2545.63
388.27	3860.42
388.48	8091.52
388.68	11628.37
388.89	13819.69
389.10	15017.75
389.31	13854.51
389.52	10952.54
389.73	9480.05
389.93	8720.25
390.14	7942.02
390.35	7106.45
390.56	6356.90
390.77	5228.46
390.98	3971.01
391.18	3315.66
391.39	2807.77
391.60	2340.83
391.81	2432.99
392.02	2230.24
392.23	2605.02
392.43	2258.91
392.64	2424.80
392.85	2240.48
393.06	2424.80
393.27	2232.29
393.47	2142.18
393.68	2176.99
393.89	2185.18
394.10	2355.16
394.31	2207.71
394.52	2181.09
394.72	2183.13
394.93	2416.60
395.14	2187.23
395.35	2324.44
395.56	2234.33
395.76	2236.38
395.97	2269.15
396.18	2377.69
396.39	2449.37
396.60	2758.61
396.80	2469.85
397.01	2396.12
397.22	2367.45
397.43	2381.79
397.64	2215.90
397.84	2355.16
398.05	2494.43
398.26	2326.49
398.47	2340.83
398.67	2383.84
398.88	2299.87
399.09	2289.63
399.30	2185.18
399.51	2293.72
399.71	2146.27
399.92	2293.72
400.13	2269.15
400.34	2265.05
400.54	2220.00
400.75	2473.95
400.96	2230.24
401.17	2412.51
401.37	2308.06
401.58	2203.61
401.79	2260.96
402.00	2445.27
402.21	2658.26
402.41	2529.24
402.62	2633.69
402.83	2619.35
403.04	2629.59
403.24	2871.25
403.45	2371.55
403.66	2486.23
403.87	2482.14
404.07	2455.51
404.28	2547.67
404.49	2496.47
404.70	2363.36
404.90	2301.92
405.11	2277.34
405.32	2349.02
405.52	2133.98
405.73	2281.44
405.94	2187.23
406.15	2230.24
406.35	2406.36
406.56	2281.44
406.77	2236.38
406.98	2242.53
407.18	2168.80
407.39	2402.27
407.60	2084.83
407.80	2295.77
408.01	2260.96
408.22	2291.68
408.43	2203.61
408.63	2242.53
408.84	2224.09
409.05	2369.50
409.25	2181.09
409.46	2209.76
409.67	2250.72
409.88	2242.53
410.08	2320.35
410.29	2211.81
410.50	2265.05
410.70	2326.49
410.91	2207.71
411.12	2299.87
411.32	2252.77
411.53	2119.65
411.74	2387.93
411.95	2297.82
412.15	2265.05
412.36	2328.54
412.57	2318.30
412.77	2420.70
412.98	2310.11
413.19	2199.52
413.39	2306.01
413.60	2256.86
413.81	2455.51
414.01	2150.37
414.22	2240.48
414.43	2342.88
414.63	2170.85
414.84	2389.98
415.05	2183.13
415.25	2025.44
415.46	2340.83
415.67	2199.52
415.87	2258.91
416.08	2193.37
416.29	2279.39
416.49	2267.10
416.70	2250.72
416.91	2242.53
417.11	2172.89
417.32	2318.30
417.53	2291.68
417.73	2244.57
417.94	2154.46
418.15	2385.88
418.35	2279.39
418.56	2242.53
418.77	2457.56
418.97	2248.67
419.18	2291.68
419.38	2015.20
419.59	2281.44
419.80	2424.80
420.00	2252.77
420.21	2289.63
420.42	2387.93
420.62	2277.34
420.83	2174.94
421.04	2162.66
421.24	2285.53
421.45	2275.29
421.65	2299.87
421.86	2213.85
422.07	2383.84
422.27	2195.42
422.48	2260.96
422.69	2252.77
422.89	2277.34
423.10	2310.11
423.30	2144.22
423.51	2306.01
423.72	2293.72
423.92	2332.64
424.13	2084.83
424.33	2187.23
424.54	2394.08
424.75	2326.49
424.95	2432.99
425.16	2236.38
425.36	2226.14
425.57	2310.11
425.78	2275.29
425.98	2318.30
426.19	2209.76
426.39	2138.08
426.60	2342.88
426.81	2385.88
427.01	2299.87
427.22	2170.85
427.42	2189.28
427.63	2097.12
427.83	2342.88
428.04	2424.80
428.25	2306.01
428.45	2396.12
428.66	2412.51
428.86	2215.90
429.07	2299.87
429.28	2246.62
429.48	2291.68
429.69	2224.09
429.89	2322.40
430.10	2095.07
430.30	2326.49
430.51	2394.08
430.71	2142.18
430.92	2355.16
431.13	2189.28
431.33	2385.88
431.54	2326.49
431.74	2387.93
431.95	2478.04
432.15	2215.90
432.36	2258.91
432.56	2371.55
432.77	2473.95
432.98	2416.60
433.18	2363.36
433.39	2185.18
433.59	2209.76
433.80	2463.71
434.00	2496.47
434.21	2195.42
434.41	2217.95
434.62	2531.29
434.82	2158.56
435.03	2185.18
435.23	2326.49
435.44	2127.84
435.64	2289.63
435.85	2273.25
436.06	2336.73
436.26	2387.93
436.47	2250.72
436.67	2164.70
436.88	2260.96
437.08	2355.16
437.29	2394.08
437.49	2263.01
437.70	2428.89
437.90	2281.44
438.11	2389.98
438.31	2330.59
438.52	2490.33
438.72	2465.75
438.93	2492.38
439.13	2346.97
439.34	2418.65
439.54	2256.86
439.75	2406.36
439.95	2326.49
440.16	2209.76
440.36	2287.58
440.57	2283.49
440.77	2355.16
440.98	2326.49
441.18	2324.44
441.39	2265.05
441.59	2154.46
441.80	2463.71
442.00	2265.05
442.21	2367.45
442.41	2080.74
442.62	2353.12
442.82	2215.90
443.02	2119.65
443.23	2267.10
443.43	2285.53
443.64	2414.56
443.84	2140.13
444.05	2414.56
444.25	2267.10
444.46	2185.18
444.66	2244.57
444.87	2439.13
445.07	2121.70
445.28	2310.11
445.48	2365.40
445.69	2359.26
445.89	2504.67
446.09	2293.72
446.30	2547.67
446.50	2750.42
446.71	4480.96
446.91	5527.47
447.12	6408.09
447.32	6625.18
447.53	6254.50
447.73	5005.24
447.93	4571.07
448.14	4116.42
448.34	4059.07
448.55	3661.77
448.75	3542.99
448.96	3315.66
449.16	3053.52
449.36	2916.31
449.57	2553.82
449.77	2314.20
449.98	2316.25
450.18	2283.49
450.39	2418.65
450.59	2248.67
450.79	2316.25
451.00	2168.80
451.20	2316.25
451.41	2306.01
451.61	2369.50
451.81	2211.81
452.02	2236.38
452.22	2246.62
452.43	2246.62
452.63	2209.76
