SpectraSuite Data File
++++++++++++++++++++++++++++++++++++
Date: Thu May 05 13:21:11 CEST 2016
User: root
Dark Spectrum Present: No
Reference Spectrum Present: No
Number of Sampled Component Spectra: 1
Spectrometers: USB4C02835
Integration Time (usec): 100000 (USB4C02835)
Spectra Averaged: 1 (USB4C02835)
Boxcar Smoothing: 0 (USB4C02835)
Correct for Electrical Dark: No (USB4C02835)
Strobe/Lamp Enabled: No (USB4C02835)
Correct for Detector Non-linearity: No (USB4C02835)
Correct for Stray Light: No (USB4C02835)
Number of Pixels in Processed Spectrum: 3648
>>>>>Begin Processed Spectral Data<<<<<
177.47	1796.07
177.69	1796.07
177.91	1796.07
178.13	1826.79
178.36	1751.01
178.58	2123.74
178.80	2375.64
179.02	2054.11
179.24	2154.46
179.46	2228.19
179.68	2301.92
179.90	2201.57
180.13	2217.95
180.35	2041.82
180.57	2138.08
180.79	2289.63
181.01	2295.77
181.23	2289.63
181.45	2258.91
181.67	2287.58
181.90	2359.26
182.12	2220.00
182.34	2133.98
182.56	2316.25
182.78	2342.88
183.00	2199.52
183.22	2258.91
183.44	2097.12
183.66	2410.46
183.89	2250.72
184.11	2211.81
184.33	2273.25
184.55	2455.51
184.77	2131.94
184.99	2179.04
185.21	2191.33
185.43	2531.29
185.65	2185.18
185.87	2105.31
186.10	2539.48
186.32	2516.95
186.54	2258.91
186.76	2260.96
186.98	2332.64
187.20	2297.82
187.42	2195.42
187.64	2240.48
187.86	2340.83
188.08	2375.64
188.30	2129.89
188.52	2205.66
188.75	2334.68
188.97	2346.97
189.19	2152.42
189.41	2158.56
189.63	2308.06
189.85	2160.61
190.07	1994.72
190.29	2074.59
190.51	2297.82
190.73	2103.26
190.95	2265.05
191.17	2187.23
191.39	2088.93
191.61	2248.67
191.84	2168.80
192.06	2269.15
192.28	2115.55
192.50	2592.73
192.72	2226.14
192.94	2127.84
193.16	2375.64
193.38	2242.53
193.60	2152.42
193.82	2283.49
194.04	2273.25
194.26	2328.54
194.48	2209.76
194.70	2119.65
194.92	2220.00
195.14	2322.40
195.36	2115.55
195.58	2217.95
195.80	2129.89
196.02	2193.37
196.24	2154.46
196.46	2242.53
196.69	2281.44
196.91	2586.58
197.13	2279.39
197.35	2068.45
197.57	2400.22
197.79	2318.30
198.01	2287.58
198.23	2220.00
198.45	2320.35
198.67	2158.56
198.89	2084.83
199.11	2195.42
199.33	2234.33
199.55	2027.49
199.77	2199.52
199.99	2281.44
200.21	2236.38
200.43	2318.30
200.65	2146.27
200.87	1994.72
201.09	2203.61
201.31	2207.71
201.53	2203.61
201.75	2195.42
201.97	2293.72
202.19	2215.90
202.41	2258.91
202.63	2367.45
202.85	2291.68
203.07	2260.96
203.29	2140.13
203.51	2144.22
203.73	2170.85
203.95	2588.63
204.17	2203.61
204.39	2185.18
204.61	2191.33
204.83	2162.66
205.05	2355.16
205.27	2234.33
205.49	2475.99
205.71	2213.85
205.93	2031.58
206.15	2119.65
206.37	2217.95
206.59	2220.00
206.81	2109.41
207.03	2131.94
207.25	2205.66
207.47	2277.34
207.69	2201.57
207.91	2398.17
208.13	2428.89
208.34	2140.13
208.56	2131.94
208.78	2275.29
209.00	2183.13
209.22	2236.38
209.44	2170.85
209.66	2138.08
209.88	2260.96
210.10	2267.10
210.32	2160.61
210.54	2256.86
210.76	2254.81
210.98	2379.74
211.20	2050.02
211.42	2201.57
211.64	2346.97
211.86	2273.25
212.08	2324.44
212.30	2174.94
212.52	2195.42
212.74	2316.25
212.96	2226.14
213.17	2263.01
213.39	2293.72
213.61	2461.66
213.83	2121.70
214.05	2207.71
214.27	2389.98
214.49	2222.05
214.71	2090.98
214.93	2285.53
215.15	2322.40
215.37	2209.76
215.59	2064.35
215.81	2201.57
216.03	2357.21
216.24	2220.00
216.46	2209.76
216.68	2285.53
216.90	2318.30
217.12	2396.12
217.34	2209.76
217.56	2326.49
217.78	2447.32
218.00	2310.11
218.22	2209.76
218.44	2242.53
218.66	2269.15
218.87	2412.51
219.09	2121.70
219.31	2281.44
219.53	2244.57
219.75	2213.85
219.97	2168.80
220.19	2146.27
220.41	2199.52
220.63	2408.41
220.85	2232.29
221.06	2168.80
221.28	2402.27
221.50	2340.83
221.72	2250.72
221.94	2121.70
222.16	2351.07
222.38	2357.21
222.60	2158.56
222.82	2179.04
223.03	2330.59
223.25	2113.50
223.47	2260.96
223.69	2316.25
223.91	2355.16
224.13	2242.53
224.35	2062.30
224.57	2254.81
224.78	2287.58
225.00	2181.09
225.22	2228.19
225.44	2164.70
225.66	2400.22
225.88	2160.61
226.10	2244.57
226.32	2246.62
226.53	2461.66
226.75	2193.37
226.97	2195.42
227.19	2260.96
227.41	2258.91
227.63	2283.49
227.85	2113.50
228.06	2195.42
228.28	2340.83
228.50	2349.02
228.72	2113.50
228.94	2203.61
229.16	2070.50
229.37	2146.27
229.59	2054.11
229.81	2242.53
230.03	2199.52
230.25	2172.89
230.47	2093.02
230.69	2172.89
230.90	2359.26
231.12	2205.66
231.34	2258.91
231.56	2260.96
231.78	2117.60
232.00	2275.29
232.21	2238.43
232.43	2166.75
232.65	2150.37
232.87	2281.44
233.09	2090.98
233.30	2133.98
233.52	2332.64
233.74	2248.67
233.96	2127.84
234.18	2252.77
234.40	2201.57
234.61	2480.09
234.83	2066.40
235.05	2078.69
235.27	2471.90
235.49	2293.72
235.70	2207.71
235.92	2236.38
236.14	2269.15
236.36	2486.23
236.58	2068.45
236.79	2220.00
237.01	2271.20
237.23	2228.19
237.45	2330.59
237.67	2191.33
237.88	2340.83
238.10	2406.36
238.32	2095.07
238.54	2215.90
238.76	2271.20
238.97	2152.42
239.19	2133.98
239.41	2217.95
239.63	2318.30
239.85	2197.47
240.06	2191.33
240.28	2144.22
240.50	2414.56
240.72	2291.68
240.93	2099.17
241.15	2248.67
241.37	2285.53
241.59	2379.74
241.81	2220.00
242.02	2174.94
242.24	2265.05
242.46	2295.77
242.68	2090.98
242.89	2187.23
243.11	2334.68
243.33	2201.57
243.55	2179.04
243.76	2263.01
243.98	2152.42
244.20	2287.58
244.42	2138.08
244.64	2181.09
244.85	2158.56
245.07	2150.37
245.29	2203.61
245.51	2183.13
245.72	2295.77
245.94	2346.97
246.16	2217.95
246.38	2199.52
246.59	2158.56
246.81	2201.57
247.03	2187.23
247.24	2056.16
247.46	2213.85
247.68	2256.86
247.90	2166.75
248.11	2150.37
248.33	2275.29
248.55	2244.57
248.77	2160.61
248.98	2148.32
249.20	2441.18
249.42	2285.53
249.64	2183.13
249.85	2140.13
250.07	2254.81
250.29	2320.35
250.50	2203.61
250.72	2154.46
250.94	2306.01
251.16	2457.56
251.37	2260.96
251.59	2211.81
251.81	2263.01
252.02	2260.96
252.24	2133.98
252.46	2328.54
252.68	2207.71
252.89	2279.39
253.11	2158.56
253.33	2375.64
253.54	2416.60
253.76	2146.27
253.98	2154.46
254.20	2230.24
254.41	2103.26
254.63	2267.10
254.85	2111.46
255.06	2209.76
255.28	2267.10
255.50	2215.90
255.71	2144.22
255.93	2109.41
256.15	2230.24
256.36	2297.82
256.58	2142.18
256.80	2144.22
257.02	2183.13
257.23	2265.05
257.45	2203.61
257.67	2211.81
257.88	2207.71
258.10	2312.16
258.32	2217.95
258.53	2213.85
258.75	2482.14
258.97	2138.08
259.18	2133.98
259.40	2197.47
259.62	2291.68
259.83	2367.45
260.05	2224.09
260.27	2699.22
260.48	2396.12
260.70	2127.84
260.92	2113.50
261.13	2129.89
261.35	2254.81
261.57	2269.15
261.78	2011.11
262.00	2101.22
262.22	2306.01
262.43	2131.94
262.65	2195.42
262.86	2269.15
263.08	2547.67
263.30	2330.59
263.51	2093.02
263.73	2127.84
263.95	2453.47
264.16	2228.19
264.38	2166.75
264.60	2181.09
264.81	2232.29
265.03	2361.31
265.25	2324.44
265.46	2160.61
265.68	2355.16
265.89	2408.41
266.11	2080.74
266.33	2222.05
266.54	2373.60
266.76	2289.63
266.98	2246.62
267.19	2248.67
267.41	2275.29
267.62	2213.85
267.84	2025.44
268.06	2199.52
268.27	2310.11
268.49	2361.31
268.70	2228.19
268.92	2148.32
269.14	2211.81
269.35	2146.27
269.57	2195.42
269.79	2254.81
270.00	2187.23
270.22	2398.17
270.43	2160.61
270.65	2058.21
270.87	2299.87
271.08	2383.84
271.30	2318.30
271.51	2236.38
271.73	2287.58
271.95	2379.74
272.16	2193.37
272.38	2306.01
272.59	2193.37
272.81	2340.83
273.02	2232.29
273.24	2232.29
273.46	2355.16
273.67	2154.46
273.89	2129.89
274.10	2131.94
274.32	2435.03
274.54	2232.29
274.75	2293.72
274.97	2234.33
275.18	2303.96
275.40	2263.01
275.61	2213.85
275.83	2267.10
276.05	2152.42
276.26	2242.53
276.48	2205.66
276.69	2125.79
276.91	2203.61
277.12	2381.79
277.34	2267.10
277.55	2293.72
277.77	2189.28
277.99	2187.23
278.20	2146.27
278.42	2162.66
278.63	2162.66
278.85	2193.37
279.06	2226.14
279.28	2310.11
279.49	2357.21
279.71	2289.63
279.93	2252.77
280.14	2181.09
280.36	2195.42
280.57	2387.93
280.79	2267.10
281.00	2146.27
281.22	2179.04
281.43	2357.21
281.65	2000.87
281.86	2179.04
282.08	2252.77
282.29	2437.08
282.51	2117.60
282.73	2039.78
282.94	2078.69
283.16	2263.01
283.37	2344.92
283.59	2306.01
283.80	2275.29
284.02	2260.96
284.23	2224.09
284.45	2172.89
284.66	2158.56
284.88	2101.22
285.09	2246.62
285.31	2314.20
285.52	2326.49
285.74	2127.84
285.95	2275.29
286.17	2312.16
286.38	2324.44
286.60	2144.22
286.81	2166.75
287.03	2254.81
287.24	2183.13
287.46	2346.97
287.67	2240.48
287.89	2412.51
288.10	2267.10
288.32	2205.66
288.53	2326.49
288.75	2301.92
288.96	2351.07
289.18	2127.84
289.39	2136.03
289.61	2328.54
289.82	2432.99
290.04	2408.41
290.25	2131.94
290.47	2185.18
290.68	2162.66
290.90	2398.17
291.11	2076.64
291.33	2373.60
291.54	2183.13
291.76	2199.52
291.97	2228.19
292.18	2191.33
292.40	2211.81
292.61	2181.09
292.83	2437.08
293.04	2265.05
293.26	2248.67
293.47	2297.82
293.69	2056.16
293.90	2260.96
294.12	2394.08
294.33	2217.95
294.55	2109.41
294.76	2330.59
294.97	2437.08
295.19	2441.18
295.40	2199.52
295.62	2254.81
295.83	2299.87
296.05	2240.48
296.26	2230.24
296.48	2258.91
296.69	2250.72
296.90	2232.29
297.12	2363.36
297.33	2322.40
297.55	2224.09
297.76	2277.34
297.98	2355.16
298.19	2260.96
298.41	2213.85
298.62	2203.61
298.83	2349.02
299.05	2277.34
299.26	2248.67
299.48	2174.94
299.69	2252.77
299.90	2228.19
300.12	2142.18
300.33	2299.87
300.55	2260.96
300.76	2265.05
300.98	2129.89
301.19	2256.86
301.40	2232.29
301.62	2211.81
301.83	2285.53
302.05	2277.34
302.26	2275.29
302.47	2242.53
302.69	2117.60
302.90	2301.92
303.12	2011.11
303.33	2289.63
303.54	2455.51
303.76	2236.38
303.97	2240.48
304.19	2355.16
304.40	2195.42
304.61	2289.63
304.83	2367.45
305.04	2308.06
305.26	2336.73
305.47	2291.68
305.68	2113.50
305.90	2035.68
306.11	2306.01
306.33	2267.10
306.54	2105.31
306.75	2168.80
306.97	2121.70
307.18	2209.76
307.39	2220.00
307.61	2308.06
307.82	2183.13
308.04	2277.34
308.25	2150.37
308.46	2299.87
308.68	2217.95
308.89	2293.72
309.10	2310.11
309.32	2244.57
309.53	2228.19
309.74	2314.20
309.96	2234.33
310.17	2400.22
310.39	2176.99
310.60	2367.45
310.81	2281.44
311.03	2172.89
311.24	2291.68
311.45	2260.96
311.67	2383.84
311.88	2213.85
312.09	2242.53
312.31	2150.37
312.52	2207.71
312.73	2144.22
312.95	2244.57
313.16	2084.83
313.37	2381.79
313.59	2353.12
313.80	2306.01
314.01	2363.36
314.23	2203.61
314.44	2205.66
314.65	2119.65
314.87	2119.65
315.08	2226.14
315.29	2207.71
315.51	2172.89
315.72	2078.69
315.93	2359.26
316.15	2254.81
316.36	2220.00
316.57	2320.35
316.79	2187.23
317.00	2205.66
317.21	2371.55
317.43	2195.42
317.64	2332.64
317.85	2109.41
318.07	2140.13
318.28	2158.56
318.49	2359.26
318.70	2486.23
318.92	2392.03
319.13	2408.41
319.34	2457.56
319.56	2306.01
319.77	2381.79
319.98	2322.40
320.20	2398.17
320.41	2369.50
320.62	2306.01
320.83	2193.37
321.05	2449.37
321.26	2275.29
321.47	2260.96
321.69	2349.02
321.90	2168.80
322.11	2201.57
322.32	2240.48
322.54	2414.56
322.75	2215.90
322.96	2471.90
323.18	2119.65
323.39	2062.30
323.60	2138.08
323.81	2248.67
324.03	2201.57
324.24	2238.43
324.45	2269.15
324.66	2211.81
324.88	2340.83
325.09	2326.49
325.30	2285.53
325.52	2213.85
325.73	2291.68
325.94	2185.18
326.15	2039.78
326.37	2195.42
326.58	2236.38
326.79	2322.40
327.00	2217.95
327.22	2236.38
327.43	2230.24
327.64	2146.27
327.85	2349.02
328.07	2334.68
328.28	2408.41
328.49	2205.66
328.70	2275.29
328.92	2267.10
329.13	2179.04
329.34	2328.54
329.55	2414.56
329.76	2334.68
329.98	2228.19
330.19	2412.51
330.40	2293.72
330.61	2330.59
330.83	2367.45
331.04	2234.33
331.25	2209.76
331.46	2195.42
331.68	2160.61
331.89	2408.41
332.10	2254.81
332.31	2101.22
332.52	2293.72
332.74	2322.40
332.95	2140.13
333.16	2154.46
333.37	2404.32
333.58	2207.71
333.80	2226.14
334.01	2062.30
334.22	2260.96
334.43	2275.29
334.64	2158.56
334.86	2123.74
335.07	2121.70
335.28	2414.56
335.49	2156.51
335.70	2275.29
335.92	2406.36
336.13	2553.82
336.34	2217.95
336.55	2201.57
336.76	2283.49
336.98	2088.93
337.19	2197.47
337.40	2344.92
337.61	2545.63
337.82	2195.42
338.04	2289.63
338.25	2093.02
338.46	2234.33
338.67	2246.62
338.88	2193.37
339.09	2109.41
339.31	2234.33
339.52	2146.27
339.73	2125.79
339.94	2285.53
340.15	2369.50
340.36	2226.14
340.58	2248.67
340.79	2209.76
341.00	2260.96
341.21	2144.22
341.42	2365.40
341.63	2185.18
341.85	2291.68
342.06	2267.10
342.27	2125.79
342.48	2359.26
342.69	2072.54
342.90	2246.62
343.12	2357.21
343.33	2228.19
343.54	2359.26
343.75	2428.89
343.96	2236.38
344.17	2133.98
344.38	2248.67
344.60	2148.32
344.81	2101.22
345.02	2187.23
345.23	2383.84
345.44	2480.09
345.65	2314.20
345.86	2207.71
346.07	2351.07
346.29	2191.33
346.50	2275.29
346.71	2217.95
346.92	2320.35
347.13	2478.04
347.34	2244.57
347.55	2211.81
347.76	2228.19
347.98	2183.13
348.19	2252.77
348.40	2361.31
348.61	2250.72
348.82	2357.21
349.03	2240.48
349.24	2191.33
349.45	2426.84
349.66	2056.16
349.88	2306.01
350.09	2168.80
350.30	2381.79
350.51	2367.45
350.72	2283.49
350.93	2232.29
351.14	2170.85
351.35	2281.44
351.56	2209.76
351.77	2328.54
351.99	2277.34
352.20	2375.64
352.41	2383.84
352.62	2105.31
352.83	2220.00
353.04	2256.86
353.25	2248.67
353.46	2283.49
353.67	2408.41
353.88	2129.89
354.09	2207.71
354.30	2254.81
354.52	2410.46
354.73	2316.25
354.94	2189.28
355.15	2166.75
355.36	2445.27
355.57	2238.43
355.78	2205.66
355.99	2154.46
356.20	2236.38
356.41	2330.59
356.62	2232.29
356.83	2244.57
357.04	2406.36
357.25	2129.89
357.46	2179.04
357.68	2101.22
357.89	2209.76
358.10	2263.01
358.31	2220.00
358.52	2195.42
358.73	2150.37
358.94	2125.79
359.15	2133.98
359.36	2301.92
359.57	2201.57
359.78	2215.90
359.99	2310.11
360.20	2068.45
360.41	2228.19
360.62	2330.59
360.83	2211.81
361.04	2269.15
361.25	2236.38
361.46	2326.49
361.67	2275.29
361.88	2279.39
362.09	2330.59
362.30	2291.68
362.51	2185.18
362.72	2195.42
362.93	2324.44
363.14	2287.58
363.35	2275.29
363.56	2185.18
363.78	2373.60
363.99	2314.20
364.20	2172.89
364.41	2273.25
364.62	2379.74
364.83	2240.48
365.04	2228.19
365.25	2166.75
365.46	2437.08
365.67	2136.03
365.88	2287.58
366.09	2201.57
366.30	2213.85
366.51	2258.91
366.72	2185.18
366.93	2207.71
367.14	2254.81
367.35	2396.12
367.56	2228.19
367.77	2346.97
367.98	2281.44
368.18	2346.97
368.39	2289.63
368.60	2115.55
368.81	2344.92
369.02	2285.53
369.23	2183.13
369.44	2115.55
369.65	2211.81
369.86	2353.12
370.07	2283.49
370.28	2217.95
370.49	2277.34
370.70	2328.54
370.91	2121.70
371.12	2195.42
371.33	2392.03
371.54	2269.15
371.75	2344.92
371.96	2045.92
372.17	2205.66
372.38	2269.15
372.59	2195.42
372.80	2162.66
373.01	2269.15
373.22	2287.58
373.43	2248.67
373.64	2078.69
373.85	2394.08
374.06	2422.75
374.26	2379.74
374.47	2283.49
374.68	2379.74
374.89	2314.20
375.10	2107.36
375.31	2318.30
375.52	2244.57
375.73	2267.10
375.94	2201.57
376.15	2365.40
376.36	2162.66
376.57	2176.99
376.78	2228.19
376.99	2254.81
377.20	2330.59
377.40	2250.72
377.61	2383.84
377.82	2152.42
378.03	2420.70
378.24	2326.49
378.45	2234.33
378.66	2260.96
378.87	2068.45
379.08	2111.46
379.29	2205.66
379.50	2260.96
379.71	2195.42
379.91	2316.25
380.12	2191.33
380.33	2211.81
380.54	2254.81
380.75	2260.96
380.96	2220.00
381.17	2224.09
381.38	2217.95
381.59	2269.15
381.80	2152.42
382.00	2402.27
382.21	2252.77
382.42	2441.18
382.63	2449.37
382.84	2281.44
383.05	2408.41
383.26	2445.27
383.47	2283.49
383.68	2334.68
383.88	2326.49
384.09	2316.25
384.30	2467.80
384.51	2330.59
384.72	2226.14
384.93	2105.31
385.14	2283.49
385.35	2349.02
385.55	2176.99
385.76	2385.88
385.97	2220.00
386.18	2203.61
386.39	2236.38
386.60	2224.09
386.81	2154.46
387.02	2168.80
387.22	2224.09
387.43	2306.01
387.64	2285.53
387.85	2457.56
388.06	2445.27
388.27	3925.96
388.48	7952.26
388.68	11505.49
388.89	13850.41
389.10	14903.07
389.31	13760.30
389.52	10790.75
389.73	9486.19
389.93	8482.69
390.14	7874.44
390.35	7143.32
390.56	6348.70
390.77	5164.98
390.98	4014.02
391.18	3209.17
391.39	2789.33
391.60	2389.98
391.81	2338.78
392.02	2232.29
392.23	2537.43
392.43	2295.77
392.64	2297.82
392.85	2297.82
393.06	2416.60
393.27	2226.14
393.47	2215.90
393.68	2234.33
393.89	2269.15
394.10	2373.60
394.31	2197.47
394.52	2133.98
394.72	2242.53
394.93	2389.98
395.14	2152.42
395.35	2344.92
395.56	2240.48
395.76	2230.24
395.97	2236.38
396.18	2375.64
396.39	2416.60
396.60	2746.33
396.80	2504.67
397.01	2430.94
397.22	2424.80
397.43	2396.12
397.64	2240.48
397.84	2332.64
398.05	2498.52
398.26	2277.34
398.47	2314.20
398.67	2310.11
398.88	2215.90
399.09	2351.07
399.30	2203.61
399.51	2289.63
399.71	2162.66
399.92	2154.46
400.13	2289.63
400.34	2170.85
400.54	2297.82
400.75	2459.61
400.96	2297.82
401.17	2443.23
401.37	2312.16
401.58	2191.33
401.79	2187.23
402.00	2281.44
402.21	2629.59
402.41	2576.34
402.62	2572.25
402.83	2654.17
403.04	2723.80
403.24	2781.14
403.45	2375.64
403.66	2547.67
403.87	2400.22
404.07	2480.09
404.28	2490.33
404.49	2519.00
404.70	2244.57
404.90	2312.16
405.11	2234.33
405.32	2224.09
405.52	2176.99
405.73	2154.46
405.94	2228.19
406.15	2201.57
406.35	2387.93
406.56	2283.49
406.77	2258.91
406.98	2267.10
407.18	2213.85
407.39	2453.47
407.60	2201.57
407.80	2322.40
408.01	2271.20
408.22	2293.72
408.43	2158.56
408.63	2238.43
408.84	2295.77
409.05	2392.03
409.25	2162.66
409.46	2109.41
409.67	2217.95
409.88	2207.71
410.08	2250.72
410.29	2260.96
410.50	2359.26
410.70	2242.53
410.91	2127.84
411.12	2287.58
411.32	2263.01
411.53	2170.85
411.74	2408.41
411.95	2252.77
412.15	2346.97
412.36	2392.03
412.57	2332.64
412.77	2332.64
412.98	2340.83
413.19	2265.05
413.39	2303.96
413.60	2267.10
413.81	2365.40
414.01	2152.42
414.22	2367.45
414.43	2392.03
414.63	2224.09
414.84	2351.07
415.05	2277.34
415.25	2133.98
415.46	2353.12
415.67	2211.81
415.87	2244.57
416.08	2340.83
416.29	2260.96
416.49	2248.67
416.70	2258.91
416.91	2168.80
417.11	2201.57
417.32	2322.40
417.53	2344.92
417.73	2293.72
417.94	2291.68
418.15	2324.44
418.35	2242.53
418.56	2236.38
418.77	2488.28
418.97	2269.15
419.18	2236.38
419.38	2072.54
419.59	2207.71
419.80	2357.21
420.00	2220.00
420.21	2234.33
420.42	2377.69
420.62	2308.06
420.83	2179.04
421.04	2258.91
421.24	2236.38
421.45	2238.43
421.65	2287.58
421.86	2232.29
422.07	2340.83
422.27	2256.86
422.48	2168.80
422.69	2119.65
422.89	2271.20
423.10	2240.48
423.30	2152.42
423.51	2277.34
423.72	2371.55
423.92	2242.53
424.13	2136.03
424.33	2299.87
424.54	2400.22
424.75	2250.72
424.95	2432.99
425.16	2310.11
425.36	2162.66
425.57	2326.49
425.78	2297.82
425.98	2297.82
426.19	2228.19
426.39	2152.42
426.60	2293.72
426.81	2398.17
427.01	2252.77
427.22	2170.85
427.42	2082.78
427.63	2125.79
427.83	2326.49
428.04	2406.36
428.25	2277.34
428.45	2359.26
428.66	2369.50
428.86	2289.63
429.07	2217.95
429.28	2328.54
429.48	2181.09
429.69	2123.74
429.89	2318.30
430.10	2066.40
430.30	2316.25
430.51	2389.98
430.71	2095.07
430.92	2269.15
431.13	2260.96
431.33	2392.03
431.54	2269.15
431.74	2324.44
431.95	2473.95
432.15	2236.38
432.36	2293.72
432.56	2340.83
432.77	2389.98
432.98	2443.23
433.18	2320.35
433.39	2154.46
433.59	2250.72
433.80	2439.13
434.00	2432.99
434.21	2310.11
434.41	2275.29
434.62	2480.09
434.82	2158.56
435.03	2097.12
435.23	2213.85
435.44	2097.12
435.64	2197.47
435.85	2283.49
436.06	2402.27
436.26	2275.29
436.47	2201.57
436.67	2152.42
436.88	2222.05
437.08	2363.36
437.29	2389.98
437.49	2297.82
437.70	2406.36
437.90	2220.00
438.11	2414.56
438.31	2336.73
438.52	2498.52
438.72	2451.42
438.93	2588.63
439.13	2301.92
439.34	2455.51
439.54	2260.96
439.75	2371.55
439.95	2271.20
440.16	2236.38
440.36	2338.78
440.57	2232.29
440.77	2310.11
440.98	2207.71
441.18	2314.20
441.39	2199.52
441.59	2064.35
441.80	2471.90
442.00	2193.37
442.21	2387.93
442.41	2123.74
442.62	2371.55
442.82	2201.57
443.02	2215.90
443.23	2242.53
443.43	2131.94
443.64	2371.55
443.84	2209.76
444.05	2334.68
444.25	2250.72
444.46	2281.44
444.66	2293.72
444.87	2437.08
445.07	2226.14
445.28	2293.72
445.48	2408.41
445.69	2326.49
445.89	2537.43
446.09	2375.64
446.30	2514.91
446.50	2901.97
446.71	4372.41
446.91	5463.98
447.12	6324.13
447.32	6606.75
447.53	6080.42
447.73	5044.15
447.93	4468.67
448.14	4153.28
448.34	4001.73
448.55	3581.90
448.75	3594.19
448.96	3385.29
449.16	2957.27
449.36	2922.45
449.57	2633.69
449.77	2426.84
449.98	2299.87
450.18	2297.82
450.39	2353.12
450.59	2379.74
450.79	2275.29
451.00	2224.09
451.20	2349.02
451.41	2297.82
451.61	2310.11
451.81	2240.48
452.02	2240.48
452.22	2260.96
452.43	2252.77
452.63	2242.53
