SpectraSuite Data File
++++++++++++++++++++++++++++++++++++
Date: Thu May 05 13:21:00 CEST 2016
User: root
Dark Spectrum Present: No
Reference Spectrum Present: No
Number of Sampled Component Spectra: 1
Spectrometers: USB4C02835
Integration Time (usec): 100000 (USB4C02835)
Spectra Averaged: 1 (USB4C02835)
Boxcar Smoothing: 0 (USB4C02835)
Correct for Electrical Dark: No (USB4C02835)
Strobe/Lamp Enabled: No (USB4C02835)
Correct for Detector Non-linearity: No (USB4C02835)
Correct for Stray Light: No (USB4C02835)
Number of Pixels in Processed Spectrum: 3648
>>>>>Begin Processed Spectral Data<<<<<
177.47	1816.55
177.69	1816.55
177.91	1816.55
178.13	1843.17
178.36	1820.64
178.58	2191.33
178.80	2273.25
179.02	2170.85
179.24	2193.37
179.46	2152.42
179.68	2238.43
179.90	2244.57
180.13	2269.15
180.35	2113.50
180.57	2207.71
180.79	2344.92
181.01	2222.05
181.23	2269.15
181.45	2287.58
181.67	2287.58
181.90	2289.63
182.12	2215.90
182.34	2076.64
182.56	2314.20
182.78	2269.15
183.00	2168.80
183.22	2232.29
183.44	2070.50
183.66	2463.71
183.89	2240.48
184.11	2191.33
184.33	2334.68
184.55	2328.54
184.77	2187.23
184.99	2181.09
185.21	2195.42
185.43	2502.62
185.65	2205.66
185.87	2158.56
186.10	2465.75
186.32	2443.23
186.54	2232.29
186.76	2240.48
186.98	2351.07
187.20	2242.53
187.42	2215.90
187.64	2209.76
187.86	2301.92
188.08	2422.75
188.30	2146.27
188.52	2150.37
188.75	2396.12
188.97	2322.40
189.19	2150.37
189.41	2193.37
189.63	2201.57
189.85	2211.81
190.07	2152.42
190.29	2093.02
190.51	2269.15
190.73	2058.21
190.95	2324.44
191.17	2244.57
191.39	2039.78
191.61	2258.91
191.84	2244.57
192.06	2236.38
192.28	2062.30
192.50	2615.26
192.72	2226.14
192.94	2162.66
193.16	2412.51
193.38	2285.53
193.60	2160.61
193.82	2215.90
194.04	2291.68
194.26	2285.53
194.48	2176.99
194.70	2080.74
194.92	2248.67
195.14	2236.38
195.36	2119.65
195.58	2306.01
195.80	2271.20
196.02	2150.37
196.24	2162.66
196.46	2289.63
196.69	2238.43
196.91	2510.81
197.13	2144.22
197.35	2150.37
197.57	2371.55
197.79	2303.96
198.01	2265.05
198.23	2312.16
198.45	2224.09
198.67	2166.75
198.89	2166.75
199.11	2277.34
199.33	2160.61
199.55	1970.15
199.77	2129.89
199.99	2224.09
200.21	2164.70
200.43	2289.63
200.65	2101.22
200.87	2113.50
201.09	2275.29
201.31	2209.76
201.53	2301.92
201.75	2242.53
201.97	2318.30
202.19	2179.04
202.41	2203.61
202.63	2318.30
202.85	2308.06
203.07	2328.54
203.29	2080.74
203.51	2088.93
203.73	2213.85
203.95	2590.68
204.17	2238.43
204.39	2201.57
204.61	2269.15
204.83	2183.13
205.05	2281.44
205.27	2240.48
205.49	2475.99
205.71	2224.09
205.93	2150.37
206.15	2150.37
206.37	2234.33
206.59	2217.95
206.81	2011.11
207.03	2097.12
207.25	2115.55
207.47	2367.45
207.69	2199.52
207.91	2412.51
208.13	2406.36
208.34	2209.76
208.56	2136.03
208.78	2222.05
209.00	2209.76
209.22	2205.66
209.44	2121.70
209.66	2183.13
209.88	2297.82
210.10	2283.49
210.32	2152.42
210.54	2293.72
210.76	2170.85
210.98	2359.26
211.20	1998.82
211.42	2263.01
211.64	2363.36
211.86	2310.11
212.08	2222.05
212.30	2209.76
212.52	2220.00
212.74	2332.64
212.96	2244.57
213.17	2238.43
213.39	2334.68
213.61	2381.79
213.83	2156.51
214.05	2170.85
214.27	2301.92
214.49	2203.61
214.71	2197.47
214.93	2303.96
215.15	2293.72
215.37	2275.29
215.59	2002.91
215.81	2203.61
216.03	2346.97
216.24	2318.30
216.46	2146.27
216.68	2228.19
216.90	2428.89
217.12	2254.81
217.34	2127.84
217.56	2260.96
217.78	2332.64
218.00	2312.16
218.22	2220.00
218.44	2322.40
218.66	2396.12
218.87	2359.26
219.09	2211.81
219.31	2201.57
219.53	2222.05
219.75	2230.24
219.97	2199.52
220.19	2199.52
220.41	2246.62
220.63	2475.99
220.85	2254.81
221.06	2105.31
221.28	2353.12
221.50	2392.03
221.72	2189.28
221.94	2152.42
222.16	2318.30
222.38	2324.44
222.60	2234.33
222.82	2187.23
223.03	2355.16
223.25	2170.85
223.47	2103.26
223.69	2426.84
223.91	2357.21
224.13	2244.57
224.35	2105.31
224.57	2306.01
224.78	2301.92
225.00	2136.03
225.22	2246.62
225.44	2146.27
225.66	2293.72
225.88	2170.85
226.10	2211.81
226.32	2154.46
226.53	2383.84
226.75	2289.63
226.97	2138.08
227.19	2176.99
227.41	2197.47
227.63	2117.60
227.85	2064.35
228.06	2191.33
228.28	2232.29
228.50	2320.35
228.72	2111.46
228.94	2166.75
229.16	2060.26
229.37	2142.18
229.59	2072.54
229.81	2318.30
230.03	2207.71
230.25	2086.88
230.47	2019.30
230.69	2156.51
230.90	2361.31
231.12	2129.89
231.34	2144.22
231.56	2203.61
231.78	2146.27
232.00	2248.67
232.21	2127.84
232.43	2166.75
232.65	2021.35
232.87	2301.92
233.09	2088.93
233.30	2111.46
233.52	2361.31
233.74	2199.52
233.96	2199.52
234.18	2277.34
234.40	2209.76
234.61	2506.71
234.83	2215.90
235.05	2076.64
235.27	2508.76
235.49	2406.36
235.70	2181.09
235.92	2254.81
236.14	2236.38
236.36	2600.92
236.58	2060.26
236.79	2246.62
237.01	2224.09
237.23	2176.99
237.45	2346.97
237.67	2170.85
237.88	2310.11
238.10	2410.46
238.32	2047.97
238.54	2193.37
238.76	2318.30
238.97	2144.22
239.19	2166.75
239.41	2222.05
239.63	2430.94
239.85	2166.75
240.06	2164.70
240.28	2099.17
240.50	2332.64
240.72	2279.39
240.93	2185.18
241.15	2258.91
241.37	2254.81
241.59	2457.56
241.81	2185.18
242.02	2174.94
242.24	2236.38
242.46	2349.02
242.68	2095.07
242.89	2166.75
243.11	2383.84
243.33	2289.63
243.55	2205.66
243.76	2277.34
243.98	2160.61
244.20	2240.48
244.42	2111.46
244.64	2228.19
244.85	2162.66
245.07	2285.53
245.29	2269.15
245.51	2211.81
245.72	2211.81
245.94	2250.72
246.16	2162.66
246.38	2244.57
246.59	2191.33
246.81	2101.22
247.03	2176.99
247.24	2127.84
247.46	2283.49
247.68	2301.92
247.90	2203.61
248.11	2125.79
248.33	2303.96
248.55	2254.81
248.77	2187.23
248.98	2226.14
249.20	2369.50
249.42	2297.82
249.64	2146.27
249.85	2209.76
250.07	2205.66
250.29	2260.96
250.50	2199.52
250.72	2148.32
250.94	2365.40
251.16	2449.37
251.37	2199.52
251.59	2207.71
251.81	2234.33
252.02	2379.74
252.24	2174.94
252.46	2293.72
252.68	2205.66
252.89	2125.79
253.11	2029.54
253.33	2244.57
253.54	2332.64
253.76	2160.61
253.98	2142.18
254.20	2105.31
254.41	2056.16
254.63	2265.05
254.85	2072.54
255.06	2144.22
255.28	2246.62
255.50	2248.67
255.71	2168.80
255.93	2080.74
256.15	2193.37
256.36	2310.11
256.58	2113.50
256.80	2187.23
257.02	2240.48
257.23	2232.29
257.45	2121.70
257.67	2260.96
257.88	2133.98
258.10	2244.57
258.32	2164.70
258.53	2232.29
258.75	2461.66
258.97	2152.42
259.18	2201.57
259.40	2148.32
259.62	2387.93
259.83	2379.74
260.05	2248.67
260.27	2670.55
260.48	2365.40
260.70	2148.32
260.92	2154.46
261.13	2187.23
261.35	2269.15
261.57	2248.67
261.78	2109.41
262.00	2127.84
262.22	2318.30
262.43	2226.14
262.65	2226.14
262.86	2193.37
263.08	2432.99
263.30	2234.33
263.51	2095.07
263.73	2170.85
263.95	2428.89
264.16	2164.70
264.38	2142.18
264.60	2086.88
264.81	2252.77
265.03	2318.30
265.25	2316.25
265.46	2154.46
265.68	2396.12
265.89	2351.07
266.11	2154.46
266.33	2222.05
266.54	2410.46
266.76	2330.59
266.98	2267.10
267.19	2324.44
267.41	2351.07
267.62	2293.72
267.84	2068.45
268.06	2283.49
268.27	2285.53
268.49	2359.26
268.70	2203.61
268.92	2101.22
269.14	2113.50
269.35	2176.99
269.57	2238.43
269.79	2244.57
270.00	2224.09
270.22	2394.08
270.43	2066.40
270.65	2070.50
270.87	2226.14
271.08	2332.64
271.30	2230.24
271.51	2181.09
271.73	2277.34
271.95	2291.68
272.16	2226.14
272.38	2238.43
272.59	2156.51
272.81	2316.25
273.02	2166.75
273.24	2146.27
273.46	2383.84
273.67	2201.57
273.89	2131.94
274.10	2119.65
274.32	2342.88
274.54	2246.62
274.75	2244.57
274.97	2189.28
275.18	2355.16
275.40	2297.82
275.61	2224.09
275.83	2230.24
276.05	2162.66
276.26	2279.39
276.48	2195.42
276.69	2109.41
276.91	2203.61
277.12	2369.50
277.34	2289.63
277.55	2283.49
277.77	2306.01
277.99	2205.66
278.20	2142.18
278.42	2129.89
278.63	2195.42
278.85	2068.45
279.06	2125.79
279.28	2310.11
279.49	2295.77
279.71	2338.78
279.93	2301.92
280.14	2285.53
280.36	2230.24
280.57	2242.53
280.79	2318.30
281.00	2144.22
281.22	2121.70
281.43	2344.92
281.65	2017.25
281.86	2136.03
282.08	2283.49
282.29	2504.67
282.51	2074.59
282.73	2156.51
282.94	2129.89
283.16	2353.12
283.37	2404.32
283.59	2265.05
283.80	2271.20
284.02	2101.22
284.23	2203.61
284.45	2168.80
284.66	2150.37
284.88	2183.13
285.09	2250.72
285.31	2256.86
285.52	2258.91
285.74	2013.15
285.95	2289.63
286.17	2244.57
286.38	2371.55
286.60	2234.33
286.81	2203.61
287.03	2195.42
287.24	2228.19
287.46	2295.77
287.67	2281.44
287.89	2367.45
288.10	2287.58
288.32	2269.15
288.53	2367.45
288.75	2281.44
288.96	2365.40
289.18	2220.00
289.39	2185.18
289.61	2310.11
289.82	2494.43
290.04	2551.77
290.25	2160.61
290.47	2260.96
290.68	2197.47
290.90	2361.31
291.11	2105.31
291.33	2295.77
291.54	2146.27
291.76	2113.50
291.97	2201.57
292.18	2250.72
292.40	2185.18
292.61	2187.23
292.83	2392.03
293.04	2236.38
293.26	2281.44
293.47	2213.85
293.69	2119.65
293.90	2263.01
294.12	2365.40
294.33	2238.43
294.55	2244.57
294.76	2340.83
294.97	2437.08
295.19	2478.04
295.40	2154.46
295.62	2283.49
295.83	2324.44
296.05	2166.75
296.26	2265.05
296.48	2211.81
296.69	2203.61
296.90	2279.39
297.12	2285.53
297.33	2318.30
297.55	2226.14
297.76	2275.29
297.98	2260.96
298.19	2244.57
298.41	2301.92
298.62	2095.07
298.83	2314.20
299.05	2252.77
299.26	2187.23
299.48	2148.32
299.69	2236.38
299.90	2217.95
300.12	2187.23
300.33	2260.96
300.55	2301.92
300.76	2217.95
300.98	2179.04
301.19	2340.83
301.40	2244.57
301.62	2193.37
301.83	2303.96
302.05	2289.63
302.26	2203.61
302.47	2291.68
302.69	2191.33
302.90	2381.79
303.12	2105.31
303.33	2275.29
303.54	2459.61
303.76	2238.43
303.97	2248.67
304.19	2310.11
304.40	2195.42
304.61	2267.10
304.83	2340.83
305.04	2332.64
305.26	2283.49
305.47	2277.34
305.68	2269.15
305.90	2090.98
306.11	2342.88
306.33	2220.00
306.54	2176.99
306.75	2172.89
306.97	2158.56
307.18	2162.66
307.39	2191.33
307.61	2306.01
307.82	2176.99
308.04	2349.02
308.25	2166.75
308.46	2260.96
308.68	2254.81
308.89	2244.57
309.10	2357.21
309.32	2244.57
309.53	2199.52
309.74	2242.53
309.96	2156.51
310.17	2285.53
310.39	2269.15
310.60	2250.72
310.81	2277.34
311.03	2109.41
311.24	2277.34
311.45	2303.96
311.67	2449.37
311.88	2240.48
312.09	2236.38
312.31	2254.81
312.52	2187.23
312.73	2162.66
312.95	2068.45
313.16	2162.66
313.37	2367.45
313.59	2260.96
313.80	2353.12
314.01	2355.16
314.23	2224.09
314.44	2146.27
314.65	2201.57
314.87	2166.75
315.08	2172.89
315.29	2207.71
315.51	2234.33
315.72	2097.12
315.93	2342.88
316.15	2287.58
316.36	2193.37
316.57	2291.68
316.79	2209.76
317.00	2105.31
317.21	2332.64
317.43	2222.05
317.64	2172.89
317.85	2064.35
318.07	2230.24
318.28	2244.57
318.49	2377.69
318.70	2539.48
318.92	2379.74
319.13	2465.75
319.34	2453.47
319.56	2275.29
319.77	2443.23
319.98	2396.12
320.20	2402.27
320.41	2306.01
320.62	2285.53
320.83	2269.15
321.05	2471.90
321.26	2252.77
321.47	2199.52
321.69	2396.12
321.90	2160.61
322.11	2187.23
322.32	2306.01
322.54	2432.99
322.75	2179.04
322.96	2500.57
323.18	2056.16
323.39	2136.03
323.60	2168.80
323.81	2285.53
324.03	2207.71
324.24	2248.67
324.45	2322.40
324.66	2201.57
324.88	2381.79
325.09	2389.98
325.30	2193.37
325.52	2201.57
325.73	2342.88
325.94	2170.85
326.15	2172.89
326.37	2121.70
326.58	2371.55
326.79	2263.01
327.00	2213.85
327.22	2189.28
327.43	2176.99
327.64	2129.89
327.85	2199.52
328.07	2215.90
328.28	2453.47
328.49	2234.33
328.70	2228.19
328.92	2199.52
329.13	2226.14
329.34	2355.16
329.55	2475.99
329.76	2310.11
329.98	2271.20
330.19	2361.31
330.40	2226.14
330.61	2310.11
330.83	2301.92
331.04	2105.31
331.25	2267.10
331.46	2289.63
331.68	2146.27
331.89	2400.22
332.10	2197.47
332.31	2156.51
332.52	2265.05
332.74	2459.61
332.95	2136.03
333.16	2248.67
333.37	2316.25
333.58	2174.94
333.80	2220.00
334.01	2072.54
334.22	2269.15
334.43	2195.42
334.64	2203.61
334.86	2133.98
335.07	2146.27
335.28	2346.97
335.49	2095.07
335.70	2271.20
335.92	2353.12
336.13	2428.89
336.34	2308.06
336.55	2213.85
336.76	2234.33
336.98	2062.30
337.19	2236.38
337.40	2338.78
337.61	2461.66
337.82	2228.19
338.04	2250.72
338.25	2060.26
338.46	2230.24
338.67	2215.90
338.88	2154.46
339.09	2107.36
339.31	2105.31
339.52	2078.69
339.73	2115.55
339.94	2318.30
340.15	2357.21
340.36	2189.28
340.58	2211.81
340.79	2086.88
341.00	2340.83
341.21	2121.70
341.42	2383.84
341.63	2213.85
341.85	2340.83
342.06	2281.44
342.27	2150.37
342.48	2297.82
342.69	2146.27
342.90	2322.40
343.12	2383.84
343.33	2191.33
343.54	2330.59
343.75	2426.84
343.96	2271.20
344.17	2174.94
344.38	2248.67
344.60	2158.56
344.81	2097.12
345.02	2125.79
345.23	2322.40
345.44	2471.90
345.65	2322.40
345.86	2183.13
346.07	2316.25
346.29	2191.33
346.50	2269.15
346.71	2265.05
346.92	2326.49
347.13	2504.67
347.34	2211.81
347.55	2254.81
347.76	2320.35
347.98	2125.79
348.19	2314.20
348.40	2359.26
348.61	2267.10
348.82	2441.18
349.03	2240.48
349.24	2197.47
349.45	2455.51
349.66	2115.55
349.88	2250.72
350.09	2164.70
350.30	2392.03
350.51	2447.32
350.72	2293.72
350.93	2205.66
351.14	2172.89
351.35	2346.97
351.56	2273.25
351.77	2220.00
351.99	2334.68
352.20	2418.65
352.41	2363.36
352.62	2136.03
352.83	2183.13
353.04	2217.95
353.25	2211.81
353.46	2340.83
353.67	2408.41
353.88	2076.64
354.09	2242.53
354.30	2224.09
354.52	2308.06
354.73	2232.29
354.94	2236.38
355.15	2226.14
355.36	2492.38
355.57	2254.81
355.78	2238.43
355.99	2156.51
356.20	2197.47
356.41	2396.12
356.62	2277.34
356.83	2150.37
357.04	2387.93
357.25	2068.45
357.46	2146.27
357.68	2078.69
357.89	2152.42
358.10	2263.01
358.31	2160.61
358.52	2248.67
358.73	2148.32
358.94	2107.36
359.15	2230.24
359.36	2265.05
359.57	2289.63
359.78	2289.63
359.99	2363.36
360.20	2170.85
360.41	2179.04
360.62	2330.59
360.83	2273.25
361.04	2121.70
361.25	2299.87
361.46	2465.75
361.67	2308.06
361.88	2232.29
362.09	2408.41
362.30	2359.26
362.51	2220.00
362.72	2265.05
362.93	2318.30
363.14	2306.01
363.35	2283.49
363.56	2187.23
363.78	2400.22
363.99	2379.74
364.20	2113.50
364.41	2265.05
364.62	2416.60
364.83	2306.01
365.04	2230.24
365.25	2207.71
365.46	2510.81
365.67	2197.47
365.88	2172.89
366.09	2162.66
366.30	2226.14
366.51	2258.91
366.72	2052.06
366.93	2176.99
367.14	2297.82
367.35	2310.11
367.56	2162.66
367.77	2357.21
367.98	2242.53
368.18	2277.34
368.39	2265.05
368.60	2160.61
368.81	2271.20
369.02	2404.32
369.23	2244.57
369.44	2004.96
369.65	2174.94
369.86	2326.49
370.07	2312.16
370.28	2209.76
370.49	2265.05
370.70	2263.01
370.91	2052.06
371.12	2097.12
371.33	2385.88
371.54	2205.66
371.75	2381.79
371.96	2047.97
372.17	2308.06
372.38	2189.28
372.59	2236.38
372.80	2222.05
373.01	2363.36
373.22	2297.82
373.43	2244.57
373.64	2189.28
373.85	2330.59
374.06	2441.18
374.26	2406.36
374.47	2308.06
374.68	2435.03
374.89	2330.59
375.10	2162.66
375.31	2375.64
375.52	2308.06
375.73	2234.33
375.94	2103.26
376.15	2344.92
376.36	2138.08
376.57	2211.81
376.78	2203.61
376.99	2293.72
377.20	2377.69
377.40	2230.24
377.61	2365.40
377.82	2119.65
378.03	2416.60
378.24	2207.71
378.45	2248.67
378.66	2260.96
378.87	2095.07
379.08	2080.74
379.29	2162.66
379.50	2443.23
379.71	2150.37
379.91	2273.25
380.12	2164.70
380.33	2256.86
380.54	2199.52
380.75	2265.05
380.96	2252.77
381.17	2279.39
381.38	2252.77
381.59	2303.96
381.80	2191.33
382.00	2428.89
382.21	2244.57
382.42	2424.80
382.63	2406.36
382.84	2287.58
383.05	2385.88
383.26	2453.47
383.47	2322.40
383.68	2230.24
383.88	2277.34
384.09	2293.72
384.30	2402.27
384.51	2263.01
384.72	2277.34
384.93	2129.89
385.14	2281.44
385.35	2379.74
385.55	2127.84
385.76	2381.79
385.97	2287.58
386.18	2131.94
386.39	2144.22
386.60	2197.47
386.81	2166.75
387.02	2093.02
387.22	2148.32
387.43	2349.02
387.64	2312.16
387.85	2441.18
388.06	2580.44
388.27	3962.82
388.48	8157.06
388.68	11689.81
388.89	13858.60
389.10	14792.48
389.31	13682.48
389.52	10884.95
389.73	9359.22
389.93	8521.60
390.14	7774.09
390.35	7014.29
390.56	6297.50
390.77	5181.36
390.98	4036.55
391.18	3295.18
391.39	2764.76
391.60	2412.51
391.81	2430.94
392.02	2123.74
392.23	2445.27
392.43	2324.44
392.64	2432.99
392.85	2287.58
393.06	2375.64
393.27	2240.48
393.47	2187.23
393.68	2334.68
393.89	2260.96
394.10	2432.99
394.31	2258.91
394.52	2156.51
394.72	2152.42
394.93	2408.41
395.14	2148.32
395.35	2269.15
395.56	2265.05
395.76	2271.20
395.97	2252.77
396.18	2357.21
396.39	2371.55
396.60	2736.09
396.80	2439.13
397.01	2392.03
397.22	2396.12
397.43	2508.76
397.64	2265.05
397.84	2355.16
398.05	2537.43
398.26	2260.96
398.47	2367.45
398.67	2410.46
398.88	2252.77
399.09	2310.11
399.30	2174.94
399.51	2314.20
399.71	2101.22
399.92	2308.06
400.13	2324.44
400.34	2222.05
400.54	2267.10
400.75	2443.23
400.96	2277.34
401.17	2383.84
401.37	2369.50
401.58	2230.24
401.79	2277.34
402.00	2398.17
402.21	2684.89
402.41	2605.02
402.62	2584.54
402.83	2668.50
403.04	2736.09
403.24	2783.19
403.45	2312.16
403.66	2394.08
403.87	2461.66
404.07	2457.56
404.28	2455.51
404.49	2523.10
404.70	2361.31
404.90	2392.03
405.11	2258.91
405.32	2328.54
405.52	2183.13
405.73	2222.05
405.94	2107.36
406.15	2211.81
406.35	2287.58
406.56	2176.99
406.77	2267.10
406.98	2353.12
407.18	2113.50
407.39	2361.31
407.60	2258.91
407.80	2330.59
408.01	2179.04
408.22	2361.31
408.43	2179.04
408.63	2355.16
408.84	2322.40
409.05	2316.25
409.25	2152.42
409.46	2156.51
409.67	2131.94
409.88	2205.66
410.08	2318.30
410.29	2170.85
410.50	2324.44
410.70	2269.15
410.91	2187.23
411.12	2328.54
411.32	2263.01
411.53	2236.38
411.74	2316.25
411.95	2316.25
412.15	2365.40
412.36	2363.36
412.57	2324.44
412.77	2453.47
412.98	2287.58
413.19	2244.57
413.39	2322.40
413.60	2260.96
413.81	2351.07
414.01	2228.19
414.22	2260.96
414.43	2293.72
414.63	2275.29
414.84	2342.88
415.05	2256.86
415.25	2039.78
415.46	2359.26
415.67	2164.70
415.87	2234.33
416.08	2277.34
416.29	2228.19
416.49	2316.25
416.70	2232.29
416.91	2258.91
417.11	2226.14
417.32	2336.73
417.53	2371.55
417.73	2273.25
417.94	2179.04
418.15	2238.43
418.35	2301.92
418.56	2279.39
418.77	2437.08
418.97	2199.52
419.18	2301.92
419.38	2009.06
419.59	2273.25
419.80	2484.19
420.00	2228.19
420.21	2258.91
420.42	2346.97
420.62	2301.92
420.83	2152.42
421.04	2230.24
421.24	2244.57
421.45	2351.07
421.65	2254.81
421.86	2224.09
422.07	2398.17
422.27	2269.15
422.48	2217.95
422.69	2179.04
422.89	2248.67
423.10	2260.96
423.30	2088.93
423.51	2283.49
423.72	2342.88
423.92	2340.83
424.13	2105.31
424.33	2228.19
424.54	2383.84
424.75	2254.81
424.95	2330.59
425.16	2209.76
425.36	2179.04
425.57	2379.74
425.78	2301.92
425.98	2351.07
426.19	2195.42
426.39	2113.50
426.60	2211.81
426.81	2336.73
427.01	2287.58
427.22	2170.85
427.42	2101.22
427.63	2111.46
427.83	2389.98
428.04	2387.93
428.25	2332.64
428.45	2408.41
428.66	2295.77
428.86	2277.34
429.07	2215.90
429.28	2203.61
429.48	2148.32
429.69	2226.14
429.89	2316.25
430.10	2133.98
430.30	2379.74
430.51	2326.49
430.71	2187.23
430.92	2250.72
431.13	2138.08
431.33	2389.98
431.54	2254.81
431.74	2416.60
431.95	2430.94
432.15	2166.75
432.36	2246.62
432.56	2310.11
432.77	2447.32
432.98	2465.75
433.18	2295.77
433.39	2226.14
433.59	2215.90
433.80	2379.74
434.00	2514.91
434.21	2220.00
434.41	2174.94
434.62	2449.37
434.82	2185.18
435.03	2144.22
435.23	2342.88
435.44	2031.58
435.64	2215.90
435.85	2224.09
436.06	2396.12
436.26	2422.75
436.47	2209.76
436.67	2211.81
436.88	2310.11
437.08	2303.96
437.29	2418.65
437.49	2351.07
437.70	2492.38
437.90	2185.18
438.11	2412.51
438.31	2314.20
438.52	2512.86
438.72	2451.42
438.93	2578.39
439.13	2295.77
439.34	2383.84
439.54	2324.44
439.75	2355.16
439.95	2291.68
440.16	2256.86
440.36	2217.95
440.57	2281.44
440.77	2256.86
440.98	2260.96
441.18	2293.72
441.39	2248.67
441.59	2103.26
441.80	2521.05
442.00	2301.92
442.21	2340.83
442.41	2103.26
442.62	2367.45
442.82	2271.20
443.02	2220.00
443.23	2301.92
443.43	2222.05
443.64	2414.56
443.84	2230.24
444.05	2437.08
444.25	2306.01
444.46	2242.53
444.66	2199.52
444.87	2428.89
445.07	2154.46
445.28	2211.81
445.48	2387.93
445.69	2338.78
445.89	2478.04
446.09	2152.42
446.30	2502.62
446.50	2916.31
446.71	4409.28
446.91	5447.60
447.12	6274.98
447.32	6709.15
447.53	6145.95
447.73	5124.02
447.93	4534.20
448.14	4220.86
448.34	4028.35
448.55	3557.32
448.75	3620.81
448.96	3405.77
449.16	3047.38
449.36	2818.00
449.57	2557.91
449.77	2344.92
449.98	2195.42
450.18	2381.79
450.39	2344.92
450.59	2340.83
450.79	2320.35
451.00	2160.61
451.20	2334.68
451.41	2230.24
451.61	2310.11
451.81	2377.69
452.02	2193.37
452.22	2236.38
452.43	2197.47
452.63	2258.91
