SpectraSuite Data File
++++++++++++++++++++++++++++++++++++
Date: Thu May 05 13:20:50 CEST 2016
User: root
Dark Spectrum Present: No
Reference Spectrum Present: No
Number of Sampled Component Spectra: 1
Spectrometers: USB4C02835
Integration Time (usec): 100000 (USB4C02835)
Spectra Averaged: 1 (USB4C02835)
Boxcar Smoothing: 0 (USB4C02835)
Correct for Electrical Dark: No (USB4C02835)
Strobe/Lamp Enabled: No (USB4C02835)
Correct for Detector Non-linearity: No (USB4C02835)
Correct for Stray Light: No (USB4C02835)
Number of Pixels in Processed Spectrum: 3648
>>>>>Begin Processed Spectral Data<<<<<
177.47	1767.40
177.69	1767.40
177.91	1767.40
178.13	1755.11
178.36	1828.84
178.58	2160.61
178.80	2318.30
179.02	2064.35
179.24	2211.81
179.46	2152.42
179.68	2211.81
179.90	2224.09
180.13	2222.05
180.35	2099.17
180.57	2138.08
180.79	2299.87
181.01	2260.96
181.23	2260.96
181.45	2271.20
181.67	2275.29
181.90	2396.12
182.12	2195.42
182.34	2007.01
182.56	2242.53
182.78	2293.72
183.00	2258.91
183.22	2230.24
183.44	2084.83
183.66	2545.63
183.89	2283.49
184.11	2144.22
184.33	2269.15
184.55	2310.11
184.77	2144.22
184.99	2136.03
185.21	2170.85
185.43	2541.53
185.65	2146.27
185.87	2129.89
186.10	2506.71
186.32	2408.41
186.54	2250.72
186.76	2310.11
186.98	2359.26
187.20	2240.48
187.42	2174.94
187.64	2111.46
187.86	2289.63
188.08	2342.88
188.30	2088.93
188.52	2142.18
188.75	2365.40
188.97	2447.32
189.19	2158.56
189.41	2285.53
189.63	2207.71
189.85	2211.81
190.07	2031.58
190.29	2121.70
190.51	2193.37
190.73	2115.55
190.95	2349.02
191.17	2213.85
191.39	2123.74
191.61	2252.77
191.84	2207.71
192.06	2263.01
192.28	2129.89
192.50	2559.96
192.72	2252.77
192.94	2105.31
193.16	2355.16
193.38	2326.49
193.60	2160.61
193.82	2199.52
194.04	2404.32
194.26	2263.01
194.48	2162.66
194.70	2119.65
194.92	2201.57
195.14	2375.64
195.36	2127.84
195.58	2236.38
195.80	2220.00
196.02	2162.66
196.24	2136.03
196.46	2154.46
196.69	2193.37
196.91	2545.63
197.13	2138.08
197.35	2117.60
197.57	2394.08
197.79	2295.77
198.01	2346.97
198.23	2154.46
198.45	2336.73
198.67	2066.40
198.89	2072.54
199.11	2250.72
199.33	2174.94
199.55	1986.53
199.77	2129.89
199.99	2279.39
200.21	2220.00
200.43	2269.15
200.65	2113.50
200.87	2052.06
201.09	2209.76
201.31	2185.18
201.53	2193.37
201.75	2207.71
201.97	2363.36
202.19	2326.49
202.41	2191.33
202.63	2312.16
202.85	2285.53
203.07	2217.95
203.29	2160.61
203.51	2179.04
203.73	2234.33
203.95	2572.25
204.17	2166.75
204.39	2226.14
204.61	2152.42
204.83	2215.90
205.05	2217.95
205.27	2209.76
205.49	2553.82
205.71	2199.52
205.93	2101.22
206.15	2095.07
206.37	2234.33
206.59	2174.94
206.81	2054.11
207.03	2113.50
207.25	2164.70
207.47	2326.49
207.69	2230.24
207.91	2328.54
208.13	2383.84
208.34	2191.33
208.56	2160.61
208.78	2117.60
209.00	2240.48
209.22	2232.29
209.44	2252.77
209.66	2154.46
209.88	2273.25
210.10	2232.29
210.32	2158.56
210.54	2324.44
210.76	2277.34
210.98	2330.59
211.20	1957.86
211.42	2260.96
211.64	2342.88
211.86	2252.77
212.08	2217.95
212.30	2217.95
212.52	2152.42
212.74	2334.68
212.96	2248.67
213.17	2291.68
213.39	2344.92
213.61	2383.84
213.83	2129.89
214.05	2234.33
214.27	2375.64
214.49	2154.46
214.71	2133.98
214.93	2308.06
215.15	2281.44
215.37	2267.10
215.59	2058.21
215.81	2260.96
216.03	2422.75
216.24	2353.12
216.46	2220.00
216.68	2213.85
216.90	2303.96
217.12	2359.26
217.34	2160.61
217.56	2287.58
217.78	2375.64
218.00	2324.44
218.22	2179.04
218.44	2213.85
218.66	2258.91
218.87	2420.70
219.09	2215.90
219.31	2199.52
219.53	2295.77
219.75	2176.99
219.97	2168.80
220.19	2226.14
220.41	2260.96
220.63	2510.81
220.85	2195.42
221.06	2230.24
221.28	2287.58
221.50	2318.30
221.72	2242.53
221.94	2160.61
222.16	2310.11
222.38	2363.36
222.60	2201.57
222.82	2189.28
223.03	2295.77
223.25	2117.60
223.47	2211.81
223.69	2310.11
223.91	2379.74
224.13	2324.44
224.35	2179.04
224.57	2306.01
224.78	2265.05
225.00	2086.88
225.22	2181.09
225.44	2176.99
225.66	2324.44
225.88	2265.05
226.10	2269.15
226.32	2205.66
226.53	2426.84
226.75	2193.37
226.97	2142.18
227.19	2146.27
227.41	2201.57
227.63	2228.19
227.85	2007.01
228.06	2172.89
228.28	2244.57
228.50	2326.49
228.72	2105.31
228.94	2217.95
229.16	2084.83
229.37	2105.31
229.59	2146.27
229.81	2303.96
230.03	2215.90
230.25	2129.89
230.47	2080.74
230.69	2125.79
230.90	2353.12
231.12	2170.85
231.34	2273.25
231.56	2211.81
231.78	2129.89
232.00	2254.81
232.21	2166.75
232.43	2256.86
232.65	2039.78
232.87	2273.25
233.09	2029.54
233.30	2105.31
233.52	2355.16
233.74	2275.29
233.96	2158.56
234.18	2220.00
234.40	2293.72
234.61	2490.33
234.83	2052.06
235.05	2054.11
235.27	2490.33
235.49	2330.59
235.70	2150.37
235.92	2287.58
236.14	2275.29
236.36	2447.32
236.58	2086.88
236.79	2258.91
237.01	2228.19
237.23	2273.25
237.45	2396.12
237.67	2189.28
237.88	2287.58
238.10	2381.79
238.32	2084.83
238.54	2113.50
238.76	2226.14
238.97	2191.33
239.19	2123.74
239.41	2248.67
239.63	2318.30
239.85	2207.71
240.06	2187.23
240.28	2154.46
240.50	2324.44
240.72	2291.68
240.93	2127.84
241.15	2301.92
241.37	2199.52
241.59	2367.45
241.81	2144.22
242.02	2158.56
242.24	2283.49
242.46	2267.10
242.68	2101.22
242.89	2179.04
243.11	2359.26
243.33	2203.61
243.55	2195.42
243.76	2217.95
243.98	2275.29
244.20	2248.67
244.42	2195.42
244.64	2236.38
244.85	2144.22
245.07	2058.21
245.29	2156.51
245.51	2154.46
245.72	2252.77
245.94	2355.16
246.16	2156.51
246.38	2209.76
246.59	2209.76
246.81	2187.23
247.03	2185.18
247.24	2019.30
247.46	2228.19
247.68	2338.78
247.90	2156.51
248.11	2162.66
248.33	2293.72
248.55	2285.53
248.77	2226.14
248.98	2236.38
249.20	2459.61
249.42	2324.44
249.64	2185.18
249.85	2103.26
250.07	2148.32
250.29	2349.02
250.50	2226.14
250.72	2170.85
250.94	2314.20
251.16	2478.04
251.37	2220.00
251.59	2234.33
251.81	2258.91
252.02	2398.17
252.24	2183.13
252.46	2193.37
252.68	2185.18
252.89	2172.89
253.11	2068.45
253.33	2332.64
253.54	2375.64
253.76	2119.65
253.98	2131.94
254.20	2154.46
254.41	2195.42
254.63	2203.61
254.85	2064.35
255.06	2324.44
255.28	2373.60
255.50	2168.80
255.71	2166.75
255.93	2080.74
256.15	2181.09
256.36	2396.12
256.58	2105.31
256.80	2162.66
257.02	2242.53
257.23	2191.33
257.45	2232.29
257.67	2248.67
257.88	2148.32
258.10	2303.96
258.32	2154.46
258.53	2271.20
258.75	2387.93
258.97	2129.89
259.18	2222.05
259.40	2185.18
259.62	2465.75
259.83	2353.12
260.05	2215.90
260.27	2652.12
260.48	2316.25
260.70	2090.98
260.92	2095.07
261.13	2263.01
261.35	2248.67
261.57	2285.53
261.78	2054.11
262.00	2160.61
262.22	2246.62
262.43	2183.13
262.65	2211.81
262.86	2160.61
263.08	2488.28
263.30	2213.85
263.51	2035.68
263.73	2150.37
263.95	2514.91
264.16	2234.33
264.38	2105.31
264.60	2187.23
264.81	2242.53
265.03	2353.12
265.25	2375.64
265.46	2158.56
265.68	2392.03
265.89	2310.11
266.11	2086.88
266.33	2199.52
266.54	2324.44
266.76	2285.53
266.98	2201.57
267.19	2258.91
267.41	2326.49
267.62	2299.87
267.84	2121.70
268.06	2301.92
268.27	2342.88
268.49	2291.68
268.70	2179.04
268.92	2199.52
269.14	2211.81
269.35	2109.41
269.57	2230.24
269.79	2283.49
270.00	2148.32
270.22	2375.64
270.43	2129.89
270.65	2056.16
270.87	2265.05
271.08	2381.79
271.30	2324.44
271.51	2228.19
271.73	2326.49
271.95	2295.77
272.16	2111.46
272.38	2234.33
272.59	2240.48
272.81	2303.96
273.02	2138.08
273.24	2234.33
273.46	2408.41
273.67	2064.35
273.89	2082.78
274.10	2162.66
274.32	2346.97
274.54	2285.53
274.75	2240.48
274.97	2181.09
275.18	2289.63
275.40	2314.20
275.61	2181.09
275.83	2172.89
276.05	2199.52
276.26	2195.42
276.48	2244.57
276.69	2318.30
276.91	2238.43
277.12	2342.88
277.34	2346.97
277.55	2326.49
277.77	2281.44
277.99	2207.71
278.20	2140.13
278.42	2176.99
278.63	2205.66
278.85	2248.67
279.06	2113.50
279.28	2277.34
279.49	2375.64
279.71	2377.69
279.93	2260.96
280.14	2326.49
280.36	2195.42
280.57	2281.44
280.79	2297.82
281.00	2146.27
281.22	2136.03
281.43	2367.45
281.65	2060.26
281.86	2093.02
282.08	2355.16
282.29	2461.66
282.51	2125.79
282.73	2152.42
282.94	2179.04
283.16	2340.83
283.37	2359.26
283.59	2181.09
283.80	2324.44
284.02	2230.24
284.23	2293.72
284.45	2150.37
284.66	2152.42
284.88	2146.27
285.09	2230.24
285.31	2316.25
285.52	2306.01
285.74	2144.22
285.95	2320.35
286.17	2281.44
286.38	2359.26
286.60	2176.99
286.81	2211.81
287.03	2172.89
287.24	2263.01
287.46	2330.59
287.67	2187.23
287.89	2426.84
288.10	2193.37
288.32	2209.76
288.53	2381.79
288.75	2226.14
288.96	2322.40
289.18	2123.74
289.39	2197.47
289.61	2291.68
289.82	2490.33
290.04	2414.56
290.25	2146.27
290.47	2236.38
290.68	2269.15
290.90	2334.68
291.11	2133.98
291.33	2203.61
291.54	2160.61
291.76	2172.89
291.97	2252.77
292.18	2228.19
292.40	2269.15
292.61	2191.33
292.83	2359.26
293.04	2160.61
293.26	2195.42
293.47	2201.57
293.69	2136.03
293.90	2183.13
294.12	2295.77
294.33	2232.29
294.55	2230.24
294.76	2248.67
294.97	2432.99
295.19	2516.95
295.40	2306.01
295.62	2254.81
295.83	2340.83
296.05	2176.99
296.26	2324.44
296.48	2172.89
296.69	2326.49
296.90	2265.05
297.12	2256.86
297.33	2312.16
297.55	2320.35
297.76	2267.10
297.98	2250.72
298.19	2260.96
298.41	2287.58
298.62	2195.42
298.83	2422.75
299.05	2301.92
299.26	2224.09
299.48	2172.89
299.69	2293.72
299.90	2189.28
300.12	2226.14
300.33	2318.30
300.55	2199.52
300.76	2228.19
300.98	2113.50
301.19	2289.63
301.40	2162.66
301.62	2183.13
301.83	2310.11
302.05	2308.06
302.26	2144.22
302.47	2211.81
302.69	2160.61
302.90	2256.86
303.12	2050.02
303.33	2310.11
303.54	2430.94
303.76	2238.43
303.97	2267.10
304.19	2326.49
304.40	2187.23
304.61	2340.83
304.83	2340.83
305.04	2422.75
305.26	2318.30
305.47	2236.38
305.68	2191.33
305.90	2099.17
306.11	2295.77
306.33	2244.57
306.54	2179.04
306.75	2146.27
306.97	2103.26
307.18	2191.33
307.39	2191.33
307.61	2277.34
307.82	2260.96
308.04	2301.92
308.25	2170.85
308.46	2256.86
308.68	2285.53
308.89	2217.95
309.10	2310.11
309.32	2301.92
309.53	2209.76
309.74	2203.61
309.96	2111.46
310.17	2297.82
310.39	2209.76
310.60	2326.49
310.81	2187.23
311.03	2054.11
311.24	2306.01
311.45	2250.72
311.67	2293.72
311.88	2297.82
312.09	2269.15
312.31	2248.67
312.52	2150.37
312.73	2176.99
312.95	2183.13
313.16	2066.40
313.37	2316.25
313.59	2318.30
313.80	2269.15
314.01	2381.79
314.23	2166.75
314.44	2146.27
314.65	2138.08
314.87	2174.94
315.08	2279.39
315.29	2187.23
315.51	2105.31
315.72	2093.02
315.93	2357.21
316.15	2359.26
316.36	2195.42
316.57	2338.78
316.79	2228.19
317.00	2203.61
317.21	2322.40
317.43	2107.36
317.64	2320.35
317.85	2119.65
318.07	2154.46
318.28	2254.81
318.49	2359.26
318.70	2482.14
318.92	2392.03
319.13	2441.18
319.34	2435.03
319.56	2277.34
319.77	2455.51
319.98	2291.68
320.20	2355.16
320.41	2318.30
320.62	2416.60
320.83	2152.42
321.05	2486.23
321.26	2277.34
321.47	2197.47
321.69	2359.26
321.90	2162.66
322.11	2211.81
322.32	2318.30
322.54	2287.58
322.75	2166.75
322.96	2551.77
323.18	2136.03
323.39	2119.65
323.60	2072.54
323.81	2324.44
324.03	2217.95
324.24	2269.15
324.45	2252.77
324.66	2217.95
324.88	2389.98
325.09	2351.07
325.30	2226.14
325.52	2234.33
325.73	2211.81
325.94	2183.13
326.15	2086.88
326.37	2183.13
326.58	2353.12
326.79	2408.41
327.00	2203.61
327.22	2236.38
327.43	2189.28
327.64	2148.32
327.85	2246.62
328.07	2222.05
328.28	2508.76
328.49	2244.57
328.70	2228.19
328.92	2254.81
329.13	2260.96
329.34	2308.06
329.55	2404.32
329.76	2236.38
329.98	2320.35
330.19	2385.88
330.40	2289.63
330.61	2324.44
330.83	2271.20
331.04	2205.66
331.25	2277.34
331.46	2228.19
331.68	2154.46
331.89	2357.21
332.10	2236.38
332.31	2115.55
332.52	2248.67
332.74	2381.79
332.95	2105.31
333.16	2193.37
333.37	2273.25
333.58	2191.33
333.80	2285.53
334.01	2084.83
334.22	2254.81
334.43	2201.57
334.64	2224.09
334.86	2119.65
335.07	2179.04
335.28	2351.07
335.49	2084.83
335.70	2310.11
335.92	2367.45
336.13	2465.75
336.34	2299.87
336.55	2234.33
336.76	2308.06
336.98	2045.92
337.19	2252.77
337.40	2406.36
337.61	2439.13
337.82	2203.61
338.04	2371.55
338.25	2125.79
338.46	2263.01
338.67	2256.86
338.88	2179.04
339.09	2131.94
339.31	2179.04
339.52	2207.71
339.73	2097.12
339.94	2172.89
340.15	2291.68
340.36	2209.76
340.58	2222.05
340.79	2146.27
341.00	2269.15
341.21	2078.69
341.42	2437.08
341.63	2226.14
341.85	2349.02
342.06	2244.57
342.27	2201.57
342.48	2332.64
342.69	2136.03
342.90	2246.62
343.12	2371.55
343.33	2228.19
343.54	2387.93
343.75	2424.80
343.96	2211.81
344.17	2150.37
344.38	2256.86
344.60	2117.60
344.81	2129.89
345.02	2170.85
345.23	2252.77
345.44	2504.67
345.65	2340.83
345.86	2275.29
346.07	2299.87
346.29	2246.62
346.50	2301.92
346.71	2301.92
346.92	2306.01
347.13	2375.64
347.34	2234.33
347.55	2187.23
347.76	2338.78
347.98	2088.93
348.19	2220.00
348.40	2318.30
348.61	2199.52
348.82	2432.99
349.03	2318.30
349.24	2121.70
349.45	2453.47
349.66	2045.92
349.88	2217.95
350.09	2232.29
350.30	2414.56
350.51	2361.31
350.72	2201.57
350.93	2344.92
351.14	2279.39
351.35	2285.53
351.56	2195.42
351.77	2176.99
351.99	2322.40
352.20	2392.03
352.41	2355.16
352.62	2097.12
352.83	2277.34
353.04	2295.77
353.25	2142.18
353.46	2322.40
353.67	2412.51
353.88	2088.93
354.09	2152.42
354.30	2263.01
354.52	2291.68
354.73	2236.38
354.94	2176.99
355.15	2301.92
355.36	2465.75
355.57	2201.57
355.78	2226.14
355.99	2146.27
356.20	2250.72
356.41	2324.44
356.62	2254.81
356.83	2256.86
357.04	2428.89
357.25	2088.93
357.46	2195.42
357.68	2084.83
357.89	2113.50
358.10	2277.34
358.31	2201.57
358.52	2236.38
358.73	2170.85
358.94	2183.13
359.15	2168.80
359.36	2246.62
359.57	2252.77
359.78	2179.04
359.99	2209.76
360.20	2123.74
360.41	2244.57
360.62	2326.49
360.83	2265.05
361.04	2170.85
361.25	2301.92
361.46	2469.85
361.67	2377.69
361.88	2277.34
362.09	2353.12
362.30	2291.68
362.51	2162.66
362.72	2193.37
362.93	2322.40
363.14	2285.53
363.35	2226.14
363.56	2007.01
363.78	2357.21
363.99	2406.36
364.20	2179.04
364.41	2242.53
364.62	2482.14
364.83	2263.01
365.04	2127.84
365.25	2293.72
365.46	2432.99
365.67	2150.37
365.88	2193.37
366.09	2291.68
366.30	2242.53
366.51	2273.25
366.72	2074.59
366.93	2279.39
367.14	2283.49
367.35	2383.84
367.56	2293.72
367.77	2328.54
367.98	2211.81
368.18	2303.96
368.39	2240.48
368.60	2146.27
368.81	2281.44
369.02	2267.10
369.23	2156.51
369.44	2062.30
369.65	2201.57
369.86	2338.78
370.07	2301.92
370.28	2168.80
370.49	2197.47
370.70	2281.44
370.91	2117.60
371.12	2160.61
371.33	2389.98
371.54	2234.33
371.75	2367.45
371.96	2021.35
372.17	2269.15
372.38	2244.57
372.59	2254.81
372.80	2252.77
373.01	2187.23
373.22	2258.91
373.43	2162.66
373.64	2095.07
373.85	2385.88
374.06	2441.18
374.26	2361.31
374.47	2318.30
374.68	2424.80
374.89	2297.82
375.10	2170.85
375.31	2271.20
375.52	2226.14
375.73	2287.58
375.94	2095.07
376.15	2408.41
376.36	2228.19
376.57	2166.75
376.78	2148.32
376.99	2316.25
377.20	2430.94
377.40	2234.33
377.61	2398.17
377.82	2166.75
378.03	2404.32
378.24	2330.59
378.45	2195.42
378.66	2346.97
378.87	2101.22
379.08	2090.98
379.29	2179.04
379.50	2400.22
379.71	2283.49
379.91	2332.64
380.12	2195.42
380.33	2351.07
380.54	2287.58
380.75	2287.58
380.96	2293.72
381.17	2351.07
381.38	2312.16
381.59	2324.44
381.80	2332.64
382.00	2432.99
382.21	2342.88
382.42	2408.41
382.63	2498.52
382.84	2387.93
383.05	2324.44
383.26	2525.15
383.47	2297.82
383.68	2170.85
383.88	2322.40
384.09	2283.49
384.30	2478.04
384.51	2248.67
384.72	2230.24
384.93	2117.60
385.14	2316.25
385.35	2392.03
385.55	2168.80
385.76	2445.27
385.97	2277.34
386.18	2156.51
386.39	2166.75
386.60	2154.46
386.81	2250.72
387.02	2148.32
387.22	2154.46
387.43	2336.73
387.64	2389.98
387.85	2414.56
388.06	2385.88
388.27	3958.72
388.48	8208.26
388.68	11640.65
388.89	14010.15
389.10	15085.34
389.31	14141.22
389.52	10913.63
389.73	9514.86
389.93	8615.80
390.14	7903.11
390.35	7065.49
390.56	6455.20
390.77	5306.29
390.98	4038.59
391.18	3184.59
391.39	2731.99
391.60	2463.71
391.81	2404.32
392.02	2232.29
392.23	2482.14
392.43	2252.77
392.64	2320.35
392.85	2187.23
393.06	2394.08
393.27	2322.40
393.47	2199.52
393.68	2224.09
393.89	2228.19
394.10	2394.08
394.31	2203.61
394.52	2211.81
394.72	2207.71
394.93	2351.07
395.14	2088.93
395.35	2301.92
395.56	2133.98
395.76	2330.59
395.97	2242.53
396.18	2340.83
396.39	2334.68
396.60	2721.75
396.80	2453.47
397.01	2428.89
397.22	2381.79
397.43	2488.28
397.64	2203.61
397.84	2355.16
398.05	2496.47
398.26	2193.37
398.47	2340.83
398.67	2373.60
398.88	2232.29
399.09	2342.88
399.30	2236.38
399.51	2258.91
399.71	2170.85
399.92	2277.34
400.13	2334.68
400.34	2269.15
400.54	2193.37
400.75	2482.14
400.96	2246.62
401.17	2385.88
401.37	2318.30
401.58	2226.14
401.79	2250.72
402.00	2351.07
402.21	2662.36
402.41	2549.72
402.62	2605.02
402.83	2656.22
403.04	2752.47
403.24	2777.05
403.45	2346.97
403.66	2572.25
403.87	2447.32
404.07	2619.35
404.28	2469.85
404.49	2453.47
404.70	2387.93
404.90	2410.46
405.11	2267.10
405.32	2320.35
405.52	2203.61
405.73	2152.42
405.94	2154.46
406.15	2232.29
406.35	2299.87
406.56	2349.02
406.77	2260.96
406.98	2267.10
407.18	2246.62
407.39	2430.94
407.60	2179.04
407.80	2314.20
408.01	2185.18
408.22	2346.97
408.43	2185.18
408.63	2211.81
408.84	2351.07
409.05	2410.46
409.25	2179.04
409.46	2164.70
409.67	2174.94
409.88	2162.66
410.08	2281.44
410.29	2146.27
410.50	2238.43
410.70	2299.87
410.91	2236.38
411.12	2326.49
411.32	2232.29
411.53	2197.47
411.74	2373.60
411.95	2357.21
412.15	2392.03
412.36	2404.32
412.57	2336.73
412.77	2318.30
412.98	2256.86
413.19	2260.96
413.39	2324.44
413.60	2279.39
413.81	2404.32
414.01	2240.48
414.22	2306.01
414.43	2314.20
414.63	2283.49
414.84	2381.79
415.05	2170.85
415.25	2123.74
415.46	2332.64
415.67	2197.47
415.87	2306.01
416.08	2250.72
416.29	2224.09
416.49	2344.92
416.70	2150.37
416.91	2170.85
417.11	2138.08
417.32	2303.96
417.53	2324.44
417.73	2226.14
417.94	2211.81
418.15	2267.10
418.35	2301.92
418.56	2220.00
418.77	2510.81
418.97	2242.53
419.18	2260.96
419.38	2021.35
419.59	2242.53
419.80	2482.14
420.00	2207.71
420.21	2240.48
420.42	2357.21
420.62	2269.15
420.83	2211.81
421.04	2283.49
421.24	2260.96
421.45	2353.12
421.65	2265.05
421.86	2189.28
422.07	2314.20
422.27	2322.40
422.48	2273.25
422.69	2047.97
422.89	2308.06
423.10	2220.00
423.30	2138.08
423.51	2201.57
423.72	2330.59
423.92	2422.75
424.13	2138.08
424.33	2203.61
424.54	2308.06
424.75	2176.99
424.95	2398.17
425.16	2263.01
425.36	2285.53
425.57	2303.96
425.78	2306.01
425.98	2277.34
426.19	2289.63
426.39	2146.27
426.60	2285.53
426.81	2410.46
427.01	2267.10
427.22	2125.79
427.42	2144.22
427.63	2166.75
427.83	2293.72
428.04	2422.75
428.25	2373.60
428.45	2318.30
428.66	2293.72
428.86	2273.25
429.07	2228.19
429.28	2232.29
429.48	2236.38
429.69	2172.89
429.89	2336.73
430.10	2170.85
430.30	2277.34
430.51	2404.32
430.71	2211.81
430.92	2179.04
431.13	2170.85
431.33	2320.35
431.54	2131.94
431.74	2392.03
431.95	2473.95
432.15	2127.84
432.36	2211.81
432.56	2324.44
432.77	2482.14
432.98	2422.75
433.18	2297.82
433.39	2220.00
433.59	2203.61
433.80	2455.51
434.00	2437.08
434.21	2230.24
434.41	2209.76
434.62	2537.43
434.82	2144.22
435.03	2172.89
435.23	2277.34
435.44	2129.89
435.64	2170.85
435.85	2260.96
436.06	2324.44
436.26	2287.58
436.47	2273.25
436.67	2183.13
436.88	2170.85
437.08	2377.69
437.29	2332.64
437.49	2224.09
437.70	2383.84
437.90	2224.09
438.11	2471.90
438.31	2389.98
438.52	2478.04
438.72	2488.28
438.93	2533.34
439.13	2295.77
439.34	2392.03
439.54	2330.59
439.75	2351.07
439.95	2424.80
440.16	2256.86
440.36	2269.15
440.57	2154.46
440.77	2275.29
440.98	2222.05
441.18	2359.26
441.39	2148.32
441.59	2129.89
441.80	2482.14
442.00	2203.61
442.21	2357.21
442.41	2142.18
442.62	2443.23
442.82	2197.47
443.02	2303.96
443.23	2275.29
443.43	2260.96
443.64	2365.40
443.84	2189.28
444.05	2385.88
444.25	2277.34
444.46	2195.42
444.66	2258.91
444.87	2394.08
445.07	2136.03
445.28	2220.00
445.48	2379.74
445.69	2291.68
445.89	2578.39
446.09	2277.34
446.30	2578.39
446.50	2901.97
446.71	4335.55
446.91	5525.42
447.12	6248.35
447.32	6651.80
447.53	6299.55
447.73	5119.92
447.93	4487.10
448.14	4077.51
448.34	3956.68
448.55	3669.96
448.75	3604.42
448.96	3502.03
449.16	3016.66
449.36	2897.88
449.57	2596.82
449.77	2326.49
449.98	2301.92
450.18	2351.07
450.39	2287.58
450.59	2353.12
450.79	2291.68
451.00	2209.76
451.20	2285.53
451.41	2205.66
451.61	2336.73
451.81	2168.80
452.02	2236.38
452.22	2230.24
452.43	2232.29
452.63	2191.33
