SpectraSuite Data File
++++++++++++++++++++++++++++++++++++
Date: Thu May 05 13:20:43 CEST 2016
User: root
Dark Spectrum Present: No
Reference Spectrum Present: No
Number of Sampled Component Spectra: 1
Spectrometers: USB4C02835
Integration Time (usec): 100000 (USB4C02835)
Spectra Averaged: 1 (USB4C02835)
Boxcar Smoothing: 0 (USB4C02835)
Correct for Electrical Dark: No (USB4C02835)
Strobe/Lamp Enabled: No (USB4C02835)
Correct for Detector Non-linearity: No (USB4C02835)
Correct for Stray Light: No (USB4C02835)
Number of Pixels in Processed Spectrum: 3648
>>>>>Begin Processed Spectral Data<<<<<
177.47	1826.79
177.69	1826.79
177.91	1826.79
178.13	1867.75
178.36	1728.49
178.58	2181.09
178.80	2213.85
179.02	2131.94
179.24	2142.18
179.46	2162.66
179.68	2236.38
179.90	2183.13
180.13	2205.66
180.35	2144.22
180.57	2144.22
180.79	2320.35
181.01	2281.44
181.23	2248.67
181.45	2256.86
181.67	2277.34
181.90	2375.64
182.12	2138.08
182.34	2043.87
182.56	2346.97
182.78	2238.43
183.00	2072.54
183.22	2211.81
183.44	2095.07
183.66	2559.96
183.89	2314.20
184.11	2174.94
184.33	2334.68
184.55	2375.64
184.77	2127.84
184.99	2185.18
185.21	2181.09
185.43	2453.47
185.65	2146.27
185.87	2176.99
186.10	2414.56
186.32	2557.91
186.54	2260.96
186.76	2232.29
186.98	2332.64
187.20	2342.88
187.42	2105.31
187.64	2213.85
187.86	2291.68
188.08	2320.35
188.30	2113.50
188.52	2133.98
188.75	2439.13
188.97	2353.12
189.19	2109.41
189.41	2138.08
189.63	2318.30
189.85	2207.71
190.07	2078.69
190.29	2023.39
190.51	2324.44
190.73	2164.70
190.95	2316.25
191.17	2144.22
191.39	2133.98
191.61	2248.67
191.84	2160.61
192.06	2197.47
192.28	2060.26
192.50	2527.19
192.72	2267.10
192.94	2220.00
193.16	2291.68
193.38	2351.07
193.60	2142.18
193.82	2170.85
194.04	2379.74
194.26	2273.25
194.48	2162.66
194.70	2131.94
194.92	2185.18
195.14	2273.25
195.36	2113.50
195.58	2303.96
195.80	2195.42
196.02	2215.90
196.24	2140.13
196.46	2308.06
196.69	2258.91
196.91	2445.27
197.13	2213.85
197.35	2129.89
197.57	2428.89
197.79	2285.53
198.01	2234.33
198.23	2123.74
198.45	2297.82
198.67	2183.13
198.89	2133.98
199.11	2265.05
199.33	2195.42
199.55	2121.70
199.77	2148.32
199.99	2277.34
200.21	2207.71
200.43	2215.90
200.65	2113.50
200.87	2037.73
201.09	2240.48
201.31	2156.51
201.53	2191.33
201.75	2271.20
201.97	2285.53
202.19	2258.91
202.41	2250.72
202.63	2303.96
202.85	2316.25
203.07	2244.57
203.29	2133.98
203.51	2039.78
203.73	2217.95
203.95	2566.10
204.17	2146.27
204.39	2269.15
204.61	2226.14
204.83	2142.18
205.05	2213.85
205.27	2285.53
205.49	2447.32
205.71	2281.44
205.93	2187.23
206.15	2162.66
206.37	2228.19
206.59	2217.95
206.81	2086.88
207.03	2109.41
207.25	2150.37
207.47	2277.34
207.69	2215.90
207.91	2422.75
208.13	2459.61
208.34	2125.79
208.56	2109.41
208.78	2209.76
209.00	2234.33
209.22	2146.27
209.44	2170.85
209.66	2125.79
209.88	2269.15
210.10	2191.33
210.32	2068.45
210.54	2314.20
210.76	2316.25
210.98	2285.53
211.20	2017.25
211.42	2252.77
211.64	2383.84
211.86	2244.57
212.08	2205.66
212.30	2224.09
212.52	2129.89
212.74	2312.16
212.96	2226.14
213.17	2215.90
213.39	2363.36
213.61	2342.88
213.83	2129.89
214.05	2281.44
214.27	2277.34
214.49	2136.03
214.71	2121.70
214.93	2287.58
215.15	2246.62
215.37	2367.45
215.59	2007.01
215.81	2158.56
216.03	2373.60
216.24	2254.81
216.46	2191.33
216.68	2215.90
216.90	2269.15
217.12	2303.96
217.34	2265.05
217.56	2273.25
217.78	2367.45
218.00	2365.40
218.22	2215.90
218.44	2285.53
218.66	2342.88
218.87	2541.53
219.09	2097.12
219.31	2172.89
219.53	2381.79
219.75	2234.33
219.97	2252.77
220.19	2220.00
220.41	2203.61
220.63	2363.36
220.85	2170.85
221.06	2131.94
221.28	2396.12
221.50	2326.49
221.72	2228.19
221.94	2136.03
222.16	2260.96
222.38	2338.78
222.60	2183.13
222.82	2154.46
223.03	2326.49
223.25	2117.60
223.47	2199.52
223.69	2416.60
223.91	2369.50
224.13	2301.92
224.35	2205.66
224.57	2252.77
224.78	2308.06
225.00	2166.75
225.22	2209.76
225.44	2187.23
225.66	2308.06
225.88	2224.09
226.10	2183.13
226.32	2199.52
226.53	2389.98
226.75	2252.77
226.97	2211.81
227.19	2176.99
227.41	2291.68
227.63	2088.93
227.85	2015.20
228.06	2138.08
228.28	2258.91
228.50	2404.32
228.72	2011.11
228.94	2191.33
229.16	2076.64
229.37	2166.75
229.59	2144.22
229.81	2215.90
230.03	2203.61
230.25	2070.50
230.47	2029.54
230.69	2058.21
230.90	2375.64
231.12	2207.71
231.34	2203.61
231.56	2308.06
231.78	2080.74
232.00	2220.00
232.21	2179.04
232.43	2158.56
232.65	2117.60
232.87	2297.82
233.09	2047.97
233.30	2066.40
233.52	2359.26
233.74	2222.05
233.96	2162.66
234.18	2185.18
234.40	2244.57
234.61	2482.14
234.83	2166.75
235.05	2133.98
235.27	2535.39
235.49	2369.50
235.70	2203.61
235.92	2252.77
236.14	2242.53
236.36	2461.66
236.58	2111.46
236.79	2244.57
237.01	2234.33
237.23	2271.20
237.45	2318.30
237.67	2084.83
237.88	2267.10
238.10	2510.81
238.32	2129.89
238.54	2238.43
238.76	2222.05
238.97	2162.66
239.19	2129.89
239.41	2213.85
239.63	2328.54
239.85	2228.19
240.06	2207.71
240.28	2154.46
240.50	2273.25
240.72	2263.01
240.93	2138.08
241.15	2299.87
241.37	2283.49
241.59	2424.80
241.81	2174.94
242.02	2179.04
242.24	2310.11
242.46	2324.44
242.68	2119.65
242.89	2211.81
243.11	2389.98
243.33	2275.29
243.55	2154.46
243.76	2203.61
243.98	2207.71
244.20	2320.35
244.42	2228.19
244.64	2224.09
244.85	2078.69
245.07	2211.81
245.29	2238.43
245.51	2189.28
245.72	2154.46
245.94	2365.40
246.16	2252.77
246.38	2263.01
246.59	2252.77
246.81	2232.29
247.03	2093.02
247.24	2140.13
247.46	2170.85
247.68	2310.11
247.90	2115.55
248.11	2209.76
248.33	2416.60
248.55	2168.80
248.77	2195.42
248.98	2201.57
249.20	2439.13
249.42	2267.10
249.64	2301.92
249.85	2158.56
250.07	2217.95
250.29	2322.40
250.50	2193.37
250.72	2160.61
250.94	2265.05
251.16	2381.79
251.37	2273.25
251.59	2203.61
251.81	2346.97
252.02	2398.17
252.24	2109.41
252.46	2353.12
252.68	2207.71
252.89	2215.90
253.11	2086.88
253.33	2324.44
253.54	2387.93
253.76	2193.37
253.98	2162.66
254.20	2220.00
254.41	2093.02
254.63	2246.62
254.85	2072.54
255.06	2093.02
255.28	2381.79
255.50	2203.61
255.71	2158.56
255.93	2097.12
256.15	2254.81
256.36	2318.30
256.58	2119.65
256.80	2140.13
257.02	2258.91
257.23	2121.70
257.45	2183.13
257.67	2195.42
257.88	2234.33
258.10	2297.82
258.32	2207.71
258.53	2234.33
258.75	2449.37
258.97	2226.14
259.18	2164.70
259.40	2146.27
259.62	2451.42
259.83	2392.03
260.05	2234.33
260.27	2676.70
260.48	2361.31
260.70	2176.99
260.92	2228.19
261.13	2164.70
261.35	2248.67
261.57	2353.12
261.78	2031.58
262.00	2136.03
262.22	2275.29
262.43	2260.96
262.65	2232.29
262.86	2129.89
263.08	2478.04
263.30	2291.68
263.51	2086.88
263.73	2121.70
263.95	2367.45
264.16	2144.22
264.38	2158.56
264.60	2146.27
264.81	2244.57
265.03	2310.11
265.25	2265.05
265.46	2117.60
265.68	2412.51
265.89	2308.06
266.11	2019.30
266.33	2207.71
266.54	2310.11
266.76	2248.67
266.98	2320.35
267.19	2312.16
267.41	2297.82
267.62	2244.57
267.84	2035.68
268.06	2189.28
268.27	2334.68
268.49	2359.26
268.70	2213.85
268.92	2236.38
269.14	2146.27
269.35	2121.70
269.57	2203.61
269.79	2166.75
270.00	2224.09
270.22	2385.88
270.43	2133.98
270.65	2060.26
270.87	2306.01
271.08	2314.20
271.30	2277.34
271.51	2191.33
271.73	2361.31
271.95	2392.03
272.16	2269.15
272.38	2291.68
272.59	2248.67
272.81	2291.68
273.02	2179.04
273.24	2217.95
273.46	2398.17
273.67	2140.13
273.89	2129.89
274.10	2103.26
274.32	2332.64
274.54	2320.35
274.75	2220.00
274.97	2162.66
275.18	2279.39
275.40	2332.64
275.61	2187.23
275.83	2277.34
276.05	2123.74
276.26	2324.44
276.48	2185.18
276.69	2174.94
276.91	2166.75
277.12	2349.02
277.34	2299.87
277.55	2301.92
277.77	2291.68
277.99	2170.85
278.20	2209.76
278.42	2154.46
278.63	2209.76
278.85	2172.89
279.06	2103.26
279.28	2301.92
279.49	2342.88
279.71	2357.21
279.93	2246.62
280.14	2207.71
280.36	2138.08
280.57	2273.25
280.79	2330.59
281.00	2211.81
281.22	2179.04
281.43	2349.02
281.65	2080.74
281.86	2193.37
282.08	2289.63
282.29	2424.80
282.51	2129.89
282.73	2095.07
282.94	2045.92
283.16	2301.92
283.37	2344.92
283.59	2234.33
283.80	2273.25
284.02	2279.39
284.23	2306.01
284.45	2189.28
284.66	2234.33
284.88	2197.47
285.09	2260.96
285.31	2295.77
285.52	2265.05
285.74	2117.60
285.95	2346.97
286.17	2191.33
286.38	2445.27
286.60	2234.33
286.81	2129.89
287.03	2207.71
287.24	2275.29
287.46	2254.81
287.67	2310.11
287.89	2441.18
288.10	2172.89
288.32	2250.72
288.53	2324.44
288.75	2172.89
288.96	2392.03
289.18	2244.57
289.39	2148.32
289.61	2316.25
289.82	2469.85
290.04	2502.62
290.25	2168.80
290.47	2236.38
290.68	2207.71
290.90	2383.84
291.11	2117.60
291.33	2310.11
291.54	2232.29
291.76	2121.70
291.97	2285.53
292.18	2275.29
292.40	2222.05
292.61	2236.38
292.83	2537.43
293.04	2373.60
293.26	2226.14
293.47	2209.76
293.69	2144.22
293.90	2117.60
294.12	2381.79
294.33	2166.75
294.55	2207.71
294.76	2287.58
294.97	2447.32
295.19	2457.56
295.40	2170.85
295.62	2252.77
295.83	2410.46
296.05	2170.85
296.26	2310.11
296.48	2162.66
296.69	2250.72
296.90	2281.44
297.12	2283.49
297.33	2328.54
297.55	2215.90
297.76	2303.96
297.98	2367.45
298.19	2299.87
298.41	2281.44
298.62	2162.66
298.83	2342.88
299.05	2254.81
299.26	2201.57
299.48	2191.33
299.69	2299.87
299.90	2199.52
300.12	2160.61
300.33	2320.35
300.55	2271.20
300.76	2234.33
300.98	2220.00
301.19	2326.49
301.40	2217.95
301.62	2220.00
301.83	2332.64
302.05	2295.77
302.26	2271.20
302.47	2310.11
302.69	2181.09
302.90	2303.96
303.12	2064.35
303.33	2316.25
303.54	2449.37
303.76	2246.62
303.97	2215.90
304.19	2408.41
304.40	2164.70
304.61	2301.92
304.83	2408.41
305.04	2289.63
305.26	2277.34
305.47	2242.53
305.68	2236.38
305.90	2113.50
306.11	2371.55
306.33	2285.53
306.54	2228.19
306.75	2123.74
306.97	2117.60
307.18	2144.22
307.39	2183.13
307.61	2306.01
307.82	2232.29
308.04	2297.82
308.25	2093.02
308.46	2252.77
308.68	2273.25
308.89	2287.58
309.10	2349.02
309.32	2242.53
309.53	2246.62
309.74	2242.53
309.96	2187.23
310.17	2357.21
310.39	2211.81
310.60	2293.72
310.81	2252.77
311.03	2156.51
311.24	2359.26
311.45	2301.92
311.67	2396.12
311.88	2248.67
312.09	2222.05
312.31	2160.61
312.52	2146.27
312.73	2148.32
312.95	2222.05
313.16	2187.23
313.37	2406.36
313.59	2258.91
313.80	2252.77
314.01	2439.13
314.23	2154.46
314.44	2138.08
314.65	2183.13
314.87	2199.52
315.08	2250.72
315.29	2152.42
315.51	2172.89
315.72	2160.61
315.93	2322.40
316.15	2240.48
316.36	2183.13
316.57	2277.34
316.79	2330.59
317.00	2142.18
317.21	2318.30
317.43	2148.32
317.64	2230.24
317.85	2101.22
318.07	2142.18
318.28	2265.05
318.49	2453.47
318.70	2486.23
318.92	2330.59
319.13	2408.41
319.34	2473.95
319.56	2299.87
319.77	2293.72
319.98	2353.12
320.20	2367.45
320.41	2369.50
320.62	2222.05
320.83	2189.28
321.05	2473.95
321.26	2222.05
321.47	2220.00
321.69	2373.60
321.90	2088.93
322.11	2185.18
322.32	2242.53
322.54	2453.47
322.75	2185.18
322.96	2494.43
323.18	2125.79
323.39	2078.69
323.60	2291.68
323.81	2342.88
324.03	2199.52
324.24	2277.34
324.45	2308.06
324.66	2187.23
324.88	2490.33
325.09	2404.32
325.30	2226.14
325.52	2318.30
325.73	2265.05
325.94	2160.61
326.15	2068.45
326.37	2117.60
326.58	2351.07
326.79	2371.55
327.00	2105.31
327.22	2170.85
327.43	2242.53
327.64	2174.94
327.85	2260.96
328.07	2158.56
328.28	2449.37
328.49	2150.37
328.70	2242.53
328.92	2191.33
329.13	2250.72
329.34	2271.20
329.55	2414.56
329.76	2326.49
329.98	2263.01
330.19	2340.83
330.40	2230.24
330.61	2260.96
330.83	2310.11
331.04	2176.99
331.25	2267.10
331.46	2154.46
331.68	2195.42
331.89	2361.31
332.10	2228.19
332.31	2117.60
332.52	2222.05
332.74	2365.40
332.95	2160.61
333.16	2185.18
333.37	2310.11
333.58	2240.48
333.80	2209.76
334.01	2084.83
334.22	2246.62
334.43	2185.18
334.64	2195.42
334.86	2103.26
335.07	2205.66
335.28	2351.07
335.49	2179.04
335.70	2179.04
335.92	2359.26
336.13	2504.67
336.34	2283.49
336.55	2211.81
336.76	2224.09
336.98	2105.31
337.19	2191.33
337.40	2478.04
337.61	2514.91
337.82	2240.48
338.04	2269.15
338.25	2076.64
338.46	2211.81
338.67	2269.15
338.88	2129.89
339.09	2150.37
339.31	2162.66
339.52	2080.74
339.73	2127.84
339.94	2263.01
340.15	2281.44
340.36	2244.57
340.58	2260.96
340.79	2142.18
341.00	2383.84
341.21	2131.94
341.42	2424.80
341.63	2220.00
341.85	2326.49
342.06	2295.77
342.27	2158.56
342.48	2281.44
342.69	2088.93
342.90	2236.38
343.12	2336.73
343.33	2191.33
343.54	2375.64
343.75	2484.19
343.96	2244.57
344.17	2211.81
344.38	2271.20
344.60	2168.80
344.81	2154.46
345.02	2193.37
345.23	2310.11
345.44	2580.44
345.65	2265.05
345.86	2349.02
346.07	2242.53
346.29	2144.22
346.50	2281.44
346.71	2289.63
346.92	2424.80
347.13	2514.91
347.34	2220.00
347.55	2213.85
347.76	2322.40
347.98	2127.84
348.19	2224.09
348.40	2232.29
348.61	2236.38
348.82	2379.74
349.03	2281.44
349.24	2119.65
349.45	2412.51
349.66	2138.08
349.88	2232.29
350.09	2133.98
350.30	2375.64
350.51	2400.22
350.72	2269.15
350.93	2226.14
351.14	2140.13
351.35	2260.96
351.56	2248.67
351.77	2240.48
351.99	2297.82
352.20	2404.32
352.41	2312.16
352.62	2080.74
352.83	2281.44
353.04	2265.05
353.25	2183.13
353.46	2289.63
353.67	2400.22
353.88	2097.12
354.09	2269.15
354.30	2201.57
354.52	2291.68
354.73	2207.71
354.94	2269.15
355.15	2158.56
355.36	2496.47
355.57	2172.89
355.78	2226.14
355.99	2160.61
356.20	2170.85
356.41	2322.40
356.62	2250.72
356.83	2312.16
357.04	2367.45
357.25	2201.57
357.46	2201.57
357.68	2127.84
357.89	2179.04
358.10	2291.68
358.31	2269.15
358.52	2226.14
358.73	2086.88
358.94	2070.50
359.15	2217.95
359.36	2310.11
359.57	2269.15
359.78	2220.00
359.99	2293.72
360.20	2156.51
360.41	2179.04
360.62	2351.07
360.83	2287.58
361.04	2195.42
361.25	2322.40
361.46	2445.27
361.67	2310.11
361.88	2295.77
362.09	2359.26
362.30	2369.50
362.51	2240.48
362.72	2263.01
362.93	2359.26
363.14	2314.20
363.35	2267.10
363.56	2113.50
363.78	2342.88
363.99	2363.36
364.20	2187.23
364.41	2213.85
364.62	2535.39
364.83	2303.96
365.04	2279.39
365.25	2207.71
365.46	2519.00
365.67	2209.76
365.88	2283.49
366.09	2275.29
366.30	2228.19
366.51	2283.49
366.72	2154.46
366.93	2207.71
367.14	2244.57
367.35	2346.97
367.56	2211.81
367.77	2338.78
367.98	2236.38
368.18	2344.92
368.39	2271.20
368.60	2103.26
368.81	2361.31
369.02	2326.49
369.23	2133.98
369.44	2111.46
369.65	2191.33
369.86	2238.43
370.07	2297.82
370.28	2166.75
370.49	2277.34
370.70	2244.57
370.91	2125.79
371.12	2117.60
371.33	2322.40
371.54	2234.33
371.75	2426.84
371.96	2023.39
372.17	2281.44
372.38	2256.86
372.59	2293.72
372.80	2252.77
373.01	2201.57
373.22	2215.90
373.43	2199.52
373.64	2113.50
373.85	2373.60
374.06	2488.28
374.26	2260.96
374.47	2277.34
374.68	2363.36
374.89	2320.35
375.10	2195.42
375.31	2179.04
375.52	2244.57
375.73	2260.96
375.94	2105.31
376.15	2392.03
376.36	2201.57
376.57	2197.47
376.78	2189.28
376.99	2228.19
377.20	2330.59
377.40	2174.94
377.61	2426.84
377.82	2179.04
378.03	2346.97
378.24	2371.55
378.45	2236.38
378.66	2303.96
378.87	2113.50
379.08	2088.93
379.29	2154.46
379.50	2416.60
379.71	2263.01
379.91	2359.26
380.12	2209.76
380.33	2236.38
380.54	2285.53
380.75	2301.92
380.96	2256.86
381.17	2217.95
381.38	2277.34
381.59	2275.29
381.80	2277.34
382.00	2408.41
382.21	2342.88
382.42	2500.57
382.63	2510.81
382.84	2312.16
383.05	2332.64
383.26	2396.12
383.47	2265.05
383.68	2314.20
383.88	2318.30
384.09	2279.39
384.30	2351.07
384.51	2269.15
384.72	2230.24
384.93	2176.99
385.14	2273.25
385.35	2332.64
385.55	2095.07
385.76	2326.49
385.97	2179.04
386.18	2131.94
386.39	2176.99
386.60	2187.23
386.81	2260.96
387.02	2127.84
387.22	2181.09
387.43	2330.59
387.64	2244.57
387.85	2338.78
388.06	2424.80
388.27	3960.77
388.48	8226.69
388.68	11517.78
388.89	13930.28
389.10	15130.39
389.31	14044.97
389.52	10997.59
389.73	9318.26
389.93	8589.18
390.14	7950.21
390.35	7141.27
390.56	6307.74
390.77	5234.61
390.98	3932.10
391.18	3282.89
391.39	2729.94
391.60	2256.86
391.81	2389.98
392.02	2248.67
392.23	2508.76
392.43	2310.11
392.64	2340.83
392.85	2232.29
393.06	2478.04
393.27	2308.06
393.47	2154.46
393.68	2232.29
393.89	2228.19
394.10	2416.60
394.31	2117.60
394.52	2166.75
394.72	2127.84
394.93	2422.75
395.14	2144.22
395.35	2346.97
395.56	2205.66
395.76	2207.71
395.97	2236.38
396.18	2322.40
396.39	2408.41
396.60	2799.57
396.80	2459.61
397.01	2387.93
397.22	2439.13
397.43	2387.93
397.64	2215.90
397.84	2289.63
398.05	2486.23
398.26	2197.47
398.47	2359.26
398.67	2342.88
398.88	2306.01
399.09	2293.72
399.30	2187.23
399.51	2295.77
399.71	2226.14
399.92	2265.05
400.13	2267.10
400.34	2209.76
400.54	2220.00
400.75	2519.00
400.96	2258.91
401.17	2428.89
401.37	2371.55
401.58	2336.73
401.79	2209.76
402.00	2336.73
402.21	2701.27
402.41	2525.15
402.62	2519.00
402.83	2772.95
403.04	2664.41
403.24	2852.82
403.45	2383.84
403.66	2525.15
403.87	2451.42
404.07	2539.48
404.28	2459.61
404.49	2494.43
404.70	2359.26
404.90	2314.20
405.11	2301.92
405.32	2363.36
405.52	2260.96
405.73	2166.75
405.94	2185.18
406.15	2224.09
406.35	2322.40
406.56	2371.55
406.77	2269.15
406.98	2246.62
407.18	2236.38
407.39	2398.17
407.60	2183.13
407.80	2281.44
408.01	2199.52
408.22	2293.72
408.43	2140.13
408.63	2277.34
408.84	2297.82
409.05	2359.26
409.25	2125.79
409.46	2150.37
409.67	2236.38
409.88	2107.36
410.08	2217.95
410.29	2187.23
410.50	2392.03
410.70	2320.35
410.91	2164.70
411.12	2263.01
411.32	2199.52
411.53	2164.70
411.74	2351.07
411.95	2271.20
412.15	2398.17
412.36	2318.30
412.57	2320.35
412.77	2455.51
412.98	2293.72
413.19	2211.81
413.39	2295.77
413.60	2316.25
413.81	2416.60
414.01	2226.14
414.22	2236.38
414.43	2287.58
414.63	2226.14
414.84	2297.82
415.05	2232.29
415.25	2076.64
415.46	2275.29
415.67	2260.96
415.87	2308.06
416.08	2220.00
416.29	2146.27
416.49	2344.92
416.70	2236.38
416.91	2193.37
417.11	2277.34
417.32	2318.30
417.53	2314.20
417.73	2267.10
417.94	2244.57
418.15	2265.05
418.35	2236.38
418.56	2242.53
418.77	2482.14
418.97	2226.14
419.18	2195.42
419.38	1990.63
419.59	2240.48
419.80	2402.27
420.00	2172.89
420.21	2289.63
420.42	2400.22
420.62	2273.25
420.83	2156.51
421.04	2277.34
421.24	2217.95
421.45	2320.35
421.65	2297.82
421.86	2220.00
422.07	2416.60
422.27	2242.53
422.48	2230.24
422.69	2148.32
422.89	2260.96
423.10	2283.49
423.30	2228.19
423.51	2306.01
423.72	2293.72
423.92	2303.96
424.13	2162.66
424.33	2263.01
424.54	2357.21
424.75	2236.38
424.95	2439.13
425.16	2232.29
425.36	2226.14
425.57	2349.02
425.78	2273.25
425.98	2301.92
426.19	2281.44
426.39	2170.85
426.60	2248.67
426.81	2306.01
427.01	2355.16
427.22	2154.46
427.42	2109.41
427.63	2162.66
427.83	2351.07
428.04	2369.50
428.25	2334.68
428.45	2336.73
428.66	2363.36
428.86	2293.72
429.07	2275.29
429.28	2220.00
429.48	2234.33
429.69	2138.08
429.89	2267.10
430.10	2121.70
430.30	2291.68
430.51	2361.31
430.71	2158.56
430.92	2172.89
431.13	2224.09
431.33	2248.67
431.54	2238.43
431.74	2381.79
431.95	2523.10
432.15	2152.42
432.36	2142.18
432.56	2310.11
432.77	2498.52
432.98	2486.23
433.18	2189.28
433.39	2240.48
433.59	2277.34
433.80	2496.47
434.00	2471.90
434.21	2248.67
434.41	2244.57
434.62	2424.80
434.82	2086.88
435.03	2148.32
435.23	2267.10
435.44	2064.35
435.64	2273.25
435.85	2211.81
436.06	2379.74
436.26	2359.26
436.47	2254.81
436.67	2205.66
436.88	2240.48
437.08	2357.21
437.29	2357.21
437.49	2275.29
437.70	2428.89
437.90	2303.96
438.11	2469.85
438.31	2287.58
438.52	2457.56
438.72	2482.14
438.93	2564.06
439.13	2271.20
439.34	2424.80
439.54	2215.90
439.75	2410.46
439.95	2322.40
440.16	2158.56
440.36	2297.82
440.57	2314.20
440.77	2275.29
440.98	2201.57
441.18	2342.88
441.39	2236.38
441.59	2109.41
441.80	2465.75
442.00	2191.33
442.21	2338.78
442.41	2193.37
442.62	2398.17
442.82	2220.00
443.02	2228.19
443.23	2238.43
443.43	2250.72
443.64	2445.27
443.84	2140.13
444.05	2400.22
444.25	2322.40
444.46	2240.48
444.66	2242.53
444.87	2449.37
445.07	2146.27
445.28	2314.20
445.48	2334.68
445.69	2318.30
445.89	2510.81
446.09	2322.40
446.30	2572.25
446.50	2818.00
446.71	4382.65
446.91	5535.66
447.12	6291.36
447.32	6823.83
447.53	6283.17
447.73	5246.90
447.93	4700.09
448.14	4239.30
448.34	4042.69
448.55	3637.19
448.75	3530.70
448.96	3395.53
449.16	3026.90
449.36	2883.54
449.57	2619.35
449.77	2371.55
449.98	2271.20
450.18	2312.16
450.39	2340.83
450.59	2367.45
450.79	2297.82
451.00	2146.27
451.20	2334.68
451.41	2269.15
451.61	2367.45
451.81	2273.25
452.02	2199.52
452.22	2154.46
452.43	2234.33
452.63	2273.25
