SpectraSuite Data File
++++++++++++++++++++++++++++++++++++
Date: Thu May 05 13:20:53 CEST 2016
User: root
Dark Spectrum Present: No
Reference Spectrum Present: No
Number of Sampled Component Spectra: 1
Spectrometers: USB4C02835
Integration Time (usec): 100000 (USB4C02835)
Spectra Averaged: 1 (USB4C02835)
Boxcar Smoothing: 0 (USB4C02835)
Correct for Electrical Dark: No (USB4C02835)
Strobe/Lamp Enabled: No (USB4C02835)
Correct for Detector Non-linearity: No (USB4C02835)
Correct for Stray Light: No (USB4C02835)
Number of Pixels in Processed Spectrum: 3648
>>>>>Begin Processed Spectral Data<<<<<
177.47	1753.06
177.69	1753.06
177.91	1753.06
178.13	1789.92
178.36	1777.64
178.58	2117.60
178.80	2277.34
179.02	2097.12
179.24	2148.32
179.46	2187.23
179.68	2170.85
179.90	2197.47
180.13	2269.15
180.35	2119.65
180.57	2174.94
180.79	2340.83
181.01	2275.29
181.23	2213.85
181.45	2326.49
181.67	2303.96
181.90	2346.97
182.12	2203.61
182.34	2097.12
182.56	2289.63
182.78	2334.68
183.00	2248.67
183.22	2211.81
183.44	2054.11
183.66	2531.29
183.89	2263.01
184.11	2226.14
184.33	2367.45
184.55	2375.64
184.77	2195.42
184.99	2189.28
185.21	2197.47
185.43	2506.71
185.65	2117.60
185.87	2185.18
186.10	2531.29
186.32	2502.62
186.54	2269.15
186.76	2283.49
186.98	2346.97
187.20	2250.72
187.42	2170.85
187.64	2166.75
187.86	2285.53
188.08	2385.88
188.30	2097.12
188.52	2191.33
188.75	2381.79
188.97	2375.64
189.19	2181.09
189.41	2138.08
189.63	2260.96
189.85	2211.81
190.07	2142.18
190.29	2045.92
190.51	2318.30
190.73	2086.88
190.95	2324.44
191.17	2195.42
191.39	2123.74
191.61	2197.47
191.84	2142.18
192.06	2230.24
192.28	2074.59
192.50	2623.45
192.72	2256.86
192.94	2228.19
193.16	2359.26
193.38	2314.20
193.60	2168.80
193.82	2230.24
194.04	2324.44
194.26	2269.15
194.48	2211.81
194.70	2207.71
194.92	2191.33
195.14	2332.64
195.36	2168.80
195.58	2197.47
195.80	2260.96
196.02	2195.42
196.24	2154.46
196.46	2238.43
196.69	2176.99
196.91	2523.10
197.13	2203.61
197.35	2117.60
197.57	2363.36
197.79	2285.53
198.01	2217.95
198.23	2125.79
198.45	2277.34
198.67	2207.71
198.89	2084.83
199.11	2189.28
199.33	2166.75
199.55	2078.69
199.77	2099.17
199.99	2252.77
200.21	2170.85
200.43	2295.77
200.65	2101.22
200.87	1953.76
201.09	2240.48
201.31	2228.19
201.53	2226.14
201.75	2187.23
201.97	2303.96
202.19	2299.87
202.41	2138.08
202.63	2387.93
202.85	2351.07
203.07	2269.15
203.29	2209.76
203.51	2160.61
203.73	2228.19
203.95	2486.23
204.17	2193.37
204.39	2136.03
204.61	2228.19
204.83	2232.29
205.05	2217.95
205.27	2242.53
205.49	2459.61
205.71	2267.10
205.93	2068.45
206.15	2127.84
206.37	2281.44
206.59	2232.29
206.81	2144.22
207.03	2099.17
207.25	2125.79
207.47	2293.72
207.69	2224.09
207.91	2346.97
208.13	2361.31
208.34	2162.66
208.56	2168.80
208.78	2176.99
209.00	2146.27
209.22	2269.15
209.44	2252.77
209.66	2191.33
209.88	2215.90
210.10	2240.48
210.32	2154.46
210.54	2256.86
210.76	2203.61
210.98	2369.50
211.20	1988.58
211.42	2299.87
211.64	2291.68
211.86	2260.96
212.08	2215.90
212.30	2199.52
212.52	2316.25
212.74	2260.96
212.96	2199.52
213.17	2236.38
213.39	2310.11
213.61	2373.60
213.83	2117.60
214.05	2203.61
214.27	2324.44
214.49	2158.56
214.71	2154.46
214.93	2301.92
215.15	2199.52
215.37	2330.59
215.59	2039.78
215.81	2220.00
216.03	2437.08
216.24	2244.57
216.46	2217.95
216.68	2236.38
216.90	2322.40
217.12	2365.40
217.34	2176.99
217.56	2232.29
217.78	2412.51
218.00	2295.77
218.22	2256.86
218.44	2285.53
218.66	2256.86
218.87	2451.42
219.09	2162.66
219.31	2187.23
219.53	2318.30
219.75	2224.09
219.97	2220.00
220.19	2236.38
220.41	2187.23
220.63	2408.41
220.85	2244.57
221.06	2226.14
221.28	2285.53
221.50	2359.26
221.72	2136.03
221.94	2154.46
222.16	2269.15
222.38	2387.93
222.60	2172.89
222.82	2181.09
223.03	2316.25
223.25	2238.43
223.47	2238.43
223.69	2406.36
223.91	2322.40
224.13	2236.38
224.35	2109.41
224.57	2357.21
224.78	2240.48
225.00	2183.13
225.22	2142.18
225.44	2189.28
225.66	2314.20
225.88	2170.85
226.10	2312.16
226.32	2179.04
226.53	2344.92
226.75	2293.72
226.97	2215.90
227.19	2197.47
227.41	2072.54
227.63	2150.37
227.85	2078.69
228.06	2154.46
228.28	2275.29
228.50	2328.54
228.72	2103.26
228.94	2199.52
229.16	2101.22
229.37	2158.56
229.59	2080.74
229.81	2322.40
230.03	2213.85
230.25	2133.98
230.47	2023.39
230.69	2160.61
230.90	2392.03
231.12	2240.48
231.34	2166.75
231.56	2301.92
231.78	2054.11
232.00	2205.66
232.21	2211.81
232.43	2168.80
232.65	2056.16
232.87	2326.49
233.09	2121.70
233.30	2088.93
233.52	2359.26
233.74	2236.38
233.96	2105.31
234.18	2207.71
234.40	2179.04
234.61	2420.70
234.83	2037.73
235.05	2072.54
235.27	2557.91
235.49	2422.75
235.70	2181.09
235.92	2244.57
236.14	2289.63
236.36	2422.75
236.58	1982.43
236.79	2203.61
237.01	2269.15
237.23	2109.41
237.45	2330.59
237.67	2107.36
237.88	2295.77
238.10	2463.71
238.32	2119.65
238.54	2117.60
238.76	2250.72
238.97	2146.27
239.19	2099.17
239.41	2324.44
239.63	2371.55
239.85	2183.13
240.06	2138.08
240.28	2074.59
240.50	2336.73
240.72	2283.49
240.93	2103.26
241.15	2326.49
241.37	2199.52
241.59	2351.07
241.81	2183.13
242.02	2183.13
242.24	2326.49
242.46	2353.12
242.68	2123.74
242.89	2138.08
243.11	2340.83
243.33	2174.94
243.55	2174.94
243.76	2224.09
243.98	2179.04
244.20	2263.01
244.42	2164.70
244.64	2197.47
244.85	2047.97
245.07	2129.89
245.29	2207.71
245.51	2187.23
245.72	2269.15
245.94	2379.74
246.16	2209.76
246.38	2279.39
246.59	2207.71
246.81	2185.18
247.03	2170.85
247.24	2078.69
247.46	2138.08
247.68	2273.25
247.90	2109.41
248.11	2197.47
248.33	2342.88
248.55	2256.86
248.77	2220.00
248.98	2168.80
249.20	2424.80
249.42	2316.25
249.64	2203.61
249.85	2154.46
250.07	2195.42
250.29	2318.30
250.50	2162.66
250.72	2056.16
250.94	2283.49
251.16	2471.90
251.37	2176.99
251.59	2289.63
251.81	2338.78
252.02	2361.31
252.24	2236.38
252.46	2312.16
252.68	2150.37
252.89	2142.18
253.11	2052.06
253.33	2295.77
253.54	2412.51
253.76	2093.02
253.98	2174.94
254.20	2150.37
254.41	2097.12
254.63	2179.04
254.85	2080.74
255.06	2162.66
255.28	2246.62
255.50	2162.66
255.71	2109.41
255.93	2031.58
256.15	2297.82
256.36	2291.68
256.58	2086.88
256.80	2213.85
257.02	2183.13
257.23	2269.15
257.45	2279.39
257.67	2283.49
257.88	2164.70
258.10	2342.88
258.32	2226.14
258.53	2146.27
258.75	2424.80
258.97	2154.46
259.18	2127.84
259.40	2193.37
259.62	2437.08
259.83	2377.69
260.05	2185.18
260.27	2736.09
260.48	2332.64
260.70	2152.42
260.92	2086.88
261.13	2211.81
261.35	2271.20
261.57	2324.44
261.78	2045.92
262.00	2080.74
262.22	2263.01
262.43	2160.61
262.65	2236.38
262.86	2191.33
263.08	2537.43
263.30	2263.01
263.51	2007.01
263.73	2150.37
263.95	2349.02
264.16	2142.18
264.38	2131.94
264.60	2148.32
264.81	2207.71
265.03	2414.56
265.25	2293.72
265.46	2148.32
265.68	2332.64
265.89	2240.48
266.11	2052.06
266.33	2203.61
266.54	2357.21
266.76	2271.20
266.98	2113.50
267.19	2328.54
267.41	2359.26
267.62	2254.81
267.84	2080.74
268.06	2203.61
268.27	2248.67
268.49	2396.12
268.70	2299.87
268.92	2156.51
269.14	2179.04
269.35	2144.22
269.57	2154.46
269.79	2195.42
270.00	2281.44
270.22	2519.00
270.43	2138.08
270.65	2037.73
270.87	2203.61
271.08	2318.30
271.30	2238.43
271.51	2158.56
271.73	2324.44
271.95	2367.45
272.16	2101.22
272.38	2295.77
272.59	2176.99
272.81	2330.59
273.02	2148.32
273.24	2207.71
273.46	2420.70
273.67	2170.85
273.89	2119.65
274.10	2152.42
274.32	2367.45
274.54	2281.44
274.75	2185.18
274.97	2160.61
275.18	2279.39
275.40	2240.48
275.61	2195.42
275.83	2228.19
276.05	2168.80
276.26	2195.42
276.48	2289.63
276.69	2168.80
276.91	2242.53
277.12	2369.50
277.34	2293.72
277.55	2279.39
277.77	2299.87
277.99	2258.91
278.20	2156.51
278.42	2107.36
278.63	2125.79
278.85	2191.33
279.06	2093.02
279.28	2234.33
279.49	2281.44
279.71	2308.06
279.93	2191.33
280.14	2179.04
280.36	2191.33
280.57	2326.49
280.79	2277.34
281.00	2090.98
281.22	2222.05
281.43	2381.79
281.65	1988.58
281.86	2111.46
282.08	2365.40
282.29	2396.12
282.51	2138.08
282.73	2084.83
282.94	2129.89
283.16	2355.16
283.37	2326.49
283.59	2289.63
283.80	2220.00
284.02	2267.10
284.23	2234.33
284.45	2187.23
284.66	2228.19
284.88	2170.85
285.09	2217.95
285.31	2279.39
285.52	2295.77
285.74	2082.78
285.95	2346.97
286.17	2256.86
286.38	2293.72
286.60	2154.46
286.81	2127.84
287.03	2269.15
287.24	2244.57
287.46	2258.91
287.67	2230.24
287.89	2475.99
288.10	2207.71
288.32	2250.72
288.53	2342.88
288.75	2281.44
288.96	2326.49
289.18	2248.67
289.39	2215.90
289.61	2349.02
289.82	2482.14
290.04	2400.22
290.25	2148.32
290.47	2256.86
290.68	2201.57
290.90	2445.27
291.11	2121.70
291.33	2353.12
291.54	2197.47
291.76	2179.04
291.97	2234.33
292.18	2252.77
292.40	2195.42
292.61	2125.79
292.83	2367.45
293.04	2293.72
293.26	2308.06
293.47	2209.76
293.69	2127.84
293.90	2258.91
294.12	2430.94
294.33	2277.34
294.55	2148.32
294.76	2367.45
294.97	2400.22
295.19	2506.71
295.40	2222.05
295.62	2279.39
295.83	2344.92
296.05	2215.90
296.26	2328.54
296.48	2105.31
296.69	2211.81
296.90	2301.92
297.12	2267.10
297.33	2414.56
297.55	2271.20
297.76	2326.49
297.98	2432.99
298.19	2220.00
298.41	2226.14
298.62	2121.70
298.83	2285.53
299.05	2269.15
299.26	2203.61
299.48	2138.08
299.69	2283.49
299.90	2222.05
300.12	2220.00
300.33	2230.24
300.55	2285.53
300.76	2265.05
300.98	2109.41
301.19	2400.22
301.40	2191.33
301.62	2187.23
301.83	2349.02
302.05	2256.86
302.26	2154.46
302.47	2236.38
302.69	2119.65
302.90	2228.19
303.12	2064.35
303.33	2279.39
303.54	2480.09
303.76	2207.71
303.97	2172.89
304.19	2357.21
304.40	2125.79
304.61	2316.25
304.83	2359.26
305.04	2379.74
305.26	2295.77
305.47	2183.13
305.68	2265.05
305.90	2170.85
306.11	2367.45
306.33	2244.57
306.54	2105.31
306.75	2150.37
306.97	2166.75
307.18	2119.65
307.39	2160.61
307.61	2265.05
307.82	2189.28
308.04	2277.34
308.25	2156.51
308.46	2252.77
308.68	2220.00
308.89	2215.90
309.10	2324.44
309.32	2265.05
309.53	2310.11
309.74	2263.01
309.96	2187.23
310.17	2328.54
310.39	2203.61
310.60	2332.64
310.81	2252.77
311.03	2228.19
311.24	2301.92
311.45	2252.77
311.67	2449.37
311.88	2322.40
312.09	2226.14
312.31	2228.19
312.52	2228.19
312.73	2234.33
312.95	2133.98
313.16	2183.13
313.37	2346.97
313.59	2273.25
313.80	2316.25
314.01	2359.26
314.23	2138.08
314.44	2170.85
314.65	2146.27
314.87	2281.44
315.08	2187.23
315.29	2174.94
315.51	2199.52
315.72	2140.13
315.93	2449.37
316.15	2291.68
316.36	2166.75
316.57	2277.34
316.79	2275.29
317.00	2189.28
317.21	2349.02
317.43	2228.19
317.64	2258.91
317.85	2078.69
318.07	2228.19
318.28	2236.38
318.49	2430.94
318.70	2486.23
318.92	2334.68
319.13	2369.50
319.34	2435.03
319.56	2363.36
319.77	2383.84
319.98	2387.93
320.20	2355.16
320.41	2377.69
320.62	2273.25
320.83	2191.33
321.05	2432.99
321.26	2279.39
321.47	2316.25
321.69	2392.03
321.90	2154.46
322.11	2195.42
322.32	2275.29
322.54	2416.60
322.75	2174.94
322.96	2514.91
323.18	2131.94
323.39	2068.45
323.60	2176.99
323.81	2334.68
324.03	2172.89
324.24	2205.66
324.45	2242.53
324.66	2156.51
324.88	2426.84
325.09	2453.47
325.30	2244.57
325.52	2205.66
325.73	2297.82
325.94	2144.22
326.15	2107.36
326.37	2168.80
326.58	2281.44
326.79	2389.98
327.00	2187.23
327.22	2260.96
327.43	2162.66
327.64	2150.37
327.85	2320.35
328.07	2217.95
328.28	2445.27
328.49	2205.66
328.70	2195.42
328.92	2195.42
329.13	2230.24
329.34	2273.25
329.55	2365.40
329.76	2344.92
329.98	2215.90
330.19	2349.02
330.40	2281.44
330.61	2236.38
330.83	2338.78
331.04	2146.27
331.25	2267.10
331.46	2195.42
331.68	2172.89
331.89	2373.60
332.10	2185.18
332.31	2062.30
332.52	2220.00
332.74	2465.75
332.95	2103.26
333.16	2185.18
333.37	2389.98
333.58	2168.80
333.80	2310.11
334.01	2060.26
334.22	2269.15
334.43	2170.85
334.64	2140.13
334.86	2133.98
335.07	2154.46
335.28	2439.13
335.49	2152.42
335.70	2267.10
335.92	2418.65
336.13	2455.51
336.34	2318.30
336.55	2256.86
336.76	2228.19
336.98	2078.69
337.19	2170.85
337.40	2396.12
337.61	2568.15
337.82	2234.33
338.04	2297.82
338.25	2099.17
338.46	2250.72
338.67	2226.14
338.88	2160.61
339.09	2050.02
339.31	2240.48
339.52	2136.03
339.73	2195.42
339.94	2226.14
340.15	2281.44
340.36	2148.32
340.58	2265.05
340.79	2154.46
341.00	2342.88
341.21	2127.84
341.42	2496.47
341.63	2226.14
341.85	2342.88
342.06	2254.81
342.27	2203.61
342.48	2283.49
342.69	2125.79
342.90	2244.57
343.12	2338.78
343.33	2222.05
343.54	2363.36
343.75	2443.23
343.96	2205.66
344.17	2123.74
344.38	2324.44
344.60	2179.04
344.81	2105.31
345.02	2228.19
345.23	2324.44
345.44	2467.80
345.65	2363.36
345.86	2263.01
346.07	2267.10
346.29	2209.76
346.50	2367.45
346.71	2342.88
346.92	2338.78
347.13	2463.71
347.34	2220.00
347.55	2119.65
347.76	2314.20
347.98	2093.02
348.19	2256.86
348.40	2387.93
348.61	2230.24
348.82	2363.36
349.03	2281.44
349.24	2166.75
349.45	2392.03
349.66	2058.21
349.88	2164.70
350.09	2248.67
350.30	2389.98
350.51	2414.56
350.72	2252.77
350.93	2310.11
351.14	2222.05
351.35	2324.44
351.56	2185.18
351.77	2213.85
351.99	2326.49
352.20	2326.49
352.41	2373.60
352.62	2054.11
352.83	2260.96
353.04	2316.25
353.25	2185.18
353.46	2359.26
353.67	2385.88
353.88	2056.16
354.09	2242.53
354.30	2275.29
354.52	2301.92
354.73	2201.57
354.94	2179.04
355.15	2201.57
355.36	2414.56
355.57	2197.47
355.78	2238.43
355.99	2242.53
356.20	2232.29
356.41	2392.03
356.62	2383.84
356.83	2250.72
357.04	2365.40
357.25	1988.58
357.46	2252.77
357.68	2115.55
357.89	2191.33
358.10	2207.71
358.31	2191.33
358.52	2217.95
358.73	2172.89
358.94	2168.80
359.15	2136.03
359.36	2277.34
359.57	2303.96
359.78	2220.00
359.99	2336.73
360.20	2181.09
360.41	2246.62
360.62	2287.58
360.83	2207.71
361.04	2250.72
361.25	2250.72
361.46	2375.64
361.67	2363.36
361.88	2353.12
362.09	2346.97
362.30	2220.00
362.51	2138.08
362.72	2306.01
362.93	2332.64
363.14	2256.86
363.35	2252.77
363.56	2125.79
363.78	2351.07
363.99	2412.51
364.20	2107.36
364.41	2205.66
364.62	2492.38
364.83	2265.05
365.04	2197.47
365.25	2215.90
365.46	2478.04
365.67	2144.22
365.88	2236.38
366.09	2158.56
366.30	2174.94
366.51	2283.49
366.72	2205.66
366.93	2195.42
367.14	2260.96
367.35	2398.17
367.56	2183.13
367.77	2369.50
367.98	2277.34
368.18	2320.35
368.39	2301.92
368.60	2093.02
368.81	2299.87
369.02	2332.64
369.23	2176.99
369.44	2088.93
369.65	2201.57
369.86	2265.05
370.07	2338.78
370.28	2109.41
370.49	2342.88
370.70	2299.87
370.91	2217.95
371.12	2121.70
371.33	2328.54
371.54	2213.85
371.75	2387.93
371.96	2023.39
372.17	2293.72
372.38	2201.57
372.59	2246.62
372.80	2279.39
373.01	2363.36
373.22	2152.42
373.43	2215.90
373.64	2107.36
373.85	2310.11
374.06	2416.60
374.26	2299.87
374.47	2312.16
374.68	2428.89
374.89	2289.63
375.10	2289.63
375.31	2326.49
375.52	2295.77
375.73	2265.05
375.94	2127.84
376.15	2428.89
376.36	2162.66
376.57	2277.34
376.78	2174.94
376.99	2293.72
377.20	2367.45
377.40	2138.08
377.61	2379.74
377.82	2176.99
378.03	2351.07
378.24	2295.77
378.45	2142.18
378.66	2230.24
378.87	2090.98
379.08	2121.70
379.29	2213.85
379.50	2336.73
379.71	2340.83
379.91	2308.06
380.12	2191.33
380.33	2195.42
380.54	2271.20
380.75	2232.29
380.96	2162.66
381.17	2324.44
381.38	2301.92
381.59	2279.39
381.80	2207.71
382.00	2430.94
382.21	2306.01
382.42	2471.90
382.63	2473.95
382.84	2260.96
383.05	2346.97
383.26	2473.95
383.47	2310.11
383.68	2246.62
383.88	2254.81
384.09	2199.52
384.30	2471.90
384.51	2254.81
384.72	2211.81
384.93	2150.37
385.14	2240.48
385.35	2293.72
385.55	2109.41
385.76	2332.64
385.97	2240.48
386.18	2101.22
386.39	2185.18
386.60	2203.61
386.81	2209.76
387.02	2138.08
387.22	2183.13
387.43	2328.54
387.64	2314.20
387.85	2430.94
388.06	2455.51
388.27	3985.35
388.48	8112.00
388.68	11673.42
388.89	13891.37
389.10	15093.53
389.31	13655.86
389.52	10968.92
389.73	9459.57
389.93	8419.20
390.14	7958.41
390.35	7192.47
390.56	6313.89
390.77	5136.31
390.98	4046.79
391.18	3254.22
391.39	2811.86
391.60	2426.84
391.81	2490.33
392.02	2222.05
392.23	2432.99
392.43	2263.01
392.64	2400.22
392.85	2263.01
393.06	2447.32
393.27	2332.64
393.47	2093.02
393.68	2281.44
393.89	2252.77
394.10	2357.21
394.31	2242.53
394.52	2166.75
394.72	2217.95
394.93	2473.95
395.14	2164.70
395.35	2277.34
395.56	2160.61
395.76	2340.83
395.97	2228.19
396.18	2394.08
396.39	2414.56
396.60	2654.17
396.80	2498.52
397.01	2377.69
397.22	2387.93
397.43	2437.08
397.64	2244.57
397.84	2279.39
398.05	2521.05
398.26	2273.25
398.47	2324.44
398.67	2418.65
398.88	2215.90
399.09	2371.55
399.30	2201.57
399.51	2324.44
399.71	2213.85
399.92	2260.96
400.13	2242.53
400.34	2209.76
400.54	2308.06
400.75	2379.74
400.96	2275.29
401.17	2490.33
401.37	2281.44
401.58	2273.25
401.79	2199.52
402.00	2430.94
402.21	2627.54
402.41	2516.95
402.62	2605.02
402.83	2711.51
403.04	2742.23
403.24	2797.53
403.45	2449.37
403.66	2514.91
403.87	2437.08
404.07	2486.23
404.28	2523.10
404.49	2512.86
404.70	2314.20
404.90	2367.45
405.11	2338.78
405.32	2330.59
405.52	2207.71
405.73	2164.70
405.94	2121.70
406.15	2275.29
406.35	2328.54
406.56	2326.49
406.77	2252.77
406.98	2324.44
407.18	2176.99
407.39	2463.71
407.60	2174.94
407.80	2301.92
408.01	2228.19
408.22	2301.92
408.43	2158.56
408.63	2318.30
408.84	2342.88
409.05	2303.96
409.25	2160.61
409.46	2191.33
409.67	2195.42
409.88	2144.22
410.08	2277.34
410.29	2195.42
410.50	2367.45
410.70	2342.88
410.91	2121.70
411.12	2381.79
411.32	2265.05
411.53	2203.61
411.74	2383.84
411.95	2322.40
412.15	2330.59
412.36	2420.70
412.57	2353.12
412.77	2383.84
412.98	2236.38
413.19	2285.53
413.39	2318.30
413.60	2254.81
413.81	2322.40
414.01	2109.41
414.22	2283.49
414.43	2359.26
414.63	2283.49
414.84	2342.88
415.05	2310.11
415.25	2090.98
415.46	2322.40
415.67	2217.95
415.87	2195.42
416.08	2275.29
416.29	2285.53
416.49	2340.83
416.70	2234.33
416.91	2150.37
417.11	2195.42
417.32	2359.26
417.53	2357.21
417.73	2289.63
417.94	2258.91
418.15	2318.30
418.35	2242.53
418.56	2281.44
418.77	2490.33
418.97	2285.53
419.18	2211.81
419.38	2041.82
419.59	2215.90
419.80	2418.65
420.00	2236.38
420.21	2260.96
420.42	2447.32
420.62	2332.64
420.83	2117.60
421.04	2209.76
421.24	2295.77
421.45	2283.49
421.65	2273.25
421.86	2217.95
422.07	2342.88
422.27	2342.88
422.48	2224.09
422.69	2138.08
422.89	2220.00
423.10	2230.24
423.30	2170.85
423.51	2236.38
423.72	2260.96
423.92	2265.05
424.13	2146.27
424.33	2293.72
424.54	2310.11
424.75	2252.77
424.95	2408.41
425.16	2289.63
425.36	2303.96
425.57	2340.83
425.78	2318.30
425.98	2275.29
426.19	2181.09
426.39	2215.90
426.60	2267.10
426.81	2385.88
427.01	2275.29
427.22	2207.71
427.42	2078.69
427.63	2168.80
427.83	2340.83
428.04	2490.33
428.25	2332.64
428.45	2287.58
428.66	2340.83
428.86	2281.44
429.07	2203.61
429.28	2254.81
429.48	2340.83
429.69	2176.99
429.89	2285.53
430.10	2187.23
430.30	2285.53
430.51	2400.22
430.71	2152.42
430.92	2191.33
431.13	2207.71
431.33	2312.16
431.54	2293.72
431.74	2359.26
431.95	2545.63
432.15	2148.32
432.36	2215.90
432.56	2303.96
432.77	2531.29
432.98	2435.03
433.18	2285.53
433.39	2209.76
433.59	2293.72
433.80	2410.46
434.00	2469.85
434.21	2244.57
434.41	2185.18
434.62	2539.48
434.82	2125.79
435.03	2248.67
435.23	2209.76
435.44	2111.46
435.64	2299.87
435.85	2291.68
436.06	2318.30
436.26	2355.16
436.47	2291.68
436.67	2160.61
436.88	2181.09
437.08	2344.92
437.29	2389.98
437.49	2285.53
437.70	2363.36
437.90	2308.06
438.11	2465.75
438.31	2324.44
438.52	2457.56
438.72	2449.37
438.93	2564.06
439.13	2402.27
439.34	2494.43
439.54	2228.19
439.75	2439.13
439.95	2349.02
440.16	2236.38
440.36	2220.00
440.57	2332.64
440.77	2279.39
440.98	2283.49
441.18	2328.54
441.39	2232.29
441.59	2154.46
441.80	2461.66
442.00	2246.62
442.21	2375.64
442.41	2187.23
442.62	2342.88
442.82	2125.79
443.02	2318.30
443.23	2289.63
443.43	2162.66
443.64	2428.89
443.84	2179.04
444.05	2330.59
444.25	2211.81
444.46	2240.48
444.66	2226.14
444.87	2496.47
445.07	2160.61
445.28	2224.09
445.48	2381.79
445.69	2289.63
445.89	2453.47
446.09	2306.01
446.30	2535.39
446.50	2783.19
446.71	4472.76
446.91	5506.99
447.12	6248.35
447.32	6746.01
447.53	6133.67
447.73	5148.59
447.93	4470.72
448.14	4216.77
448.34	4054.98
448.55	3579.85
448.75	3506.12
448.96	3495.88
449.16	3176.40
449.36	2822.10
449.57	2549.72
449.77	2408.41
449.98	2217.95
450.18	2346.97
450.39	2404.32
450.59	2328.54
450.79	2289.63
451.00	2279.39
451.20	2400.22
451.41	2263.01
451.61	2283.49
451.81	2252.77
452.02	2220.00
452.22	2197.47
452.43	2250.72
452.63	2176.99
