SpectraSuite Data File
++++++++++++++++++++++++++++++++++++
Date: Thu May 05 13:20:39 CEST 2016
User: root
Dark Spectrum Present: No
Reference Spectrum Present: No
Number of Sampled Component Spectra: 1
Spectrometers: USB4C02835
Integration Time (usec): 100000 (USB4C02835)
Spectra Averaged: 1 (USB4C02835)
Boxcar Smoothing: 0 (USB4C02835)
Correct for Electrical Dark: No (USB4C02835)
Strobe/Lamp Enabled: No (USB4C02835)
Correct for Detector Non-linearity: No (USB4C02835)
Correct for Stray Light: No (USB4C02835)
Number of Pixels in Processed Spectrum: 3648
>>>>>Begin Processed Spectral Data<<<<<
177.47	1746.92
177.69	1746.92
177.91	1746.92
178.13	1761.25
178.36	1701.86
178.58	2170.85
178.80	2289.63
179.02	2154.46
179.24	2191.33
179.46	2203.61
179.68	2228.19
179.90	2220.00
180.13	2289.63
180.35	2078.69
180.57	2236.38
180.79	2367.45
181.01	2275.29
181.23	2158.56
181.45	2320.35
181.67	2293.72
181.90	2277.34
182.12	2164.70
182.34	2068.45
182.56	2312.16
182.78	2301.92
183.00	2113.50
183.22	2236.38
183.44	2097.12
183.66	2451.42
183.89	2277.34
184.11	2250.72
184.33	2367.45
184.55	2365.40
184.77	2181.09
184.99	2203.61
185.21	2166.75
185.43	2494.43
185.65	2176.99
185.87	2179.04
186.10	2473.95
186.32	2461.66
186.54	2271.20
186.76	2260.96
186.98	2377.69
187.20	2217.95
187.42	2215.90
187.64	2158.56
187.86	2285.53
188.08	2439.13
188.30	2086.88
188.52	2209.76
188.75	2375.64
188.97	2334.68
189.19	2123.74
189.41	2168.80
189.63	2332.64
189.85	2195.42
190.07	2056.16
190.29	2031.58
190.51	2392.03
190.73	2103.26
190.95	2293.72
191.17	2201.57
191.39	2070.50
191.61	2283.49
191.84	2197.47
192.06	2228.19
192.28	2142.18
192.50	2600.92
192.72	2244.57
192.94	2176.99
193.16	2310.11
193.38	2306.01
193.60	2090.98
193.82	2207.71
194.04	2326.49
194.26	2232.29
194.48	2217.95
194.70	2138.08
194.92	2203.61
195.14	2353.12
195.36	2125.79
195.58	2248.67
195.80	2220.00
196.02	2162.66
196.24	2154.46
196.46	2254.81
196.69	2236.38
196.91	2553.82
197.13	2209.76
197.35	2154.46
197.57	2324.44
197.79	2297.82
198.01	2222.05
198.23	2232.29
198.45	2320.35
198.67	2115.55
198.89	2113.50
199.11	2281.44
199.33	2232.29
199.55	2035.68
199.77	2162.66
199.99	2326.49
200.21	2146.27
200.43	2289.63
200.65	2156.51
200.87	2070.50
201.09	2234.33
201.31	2230.24
201.53	2168.80
201.75	2205.66
201.97	2273.25
202.19	2285.53
202.41	2209.76
202.63	2342.88
202.85	2369.50
203.07	2301.92
203.29	2205.66
203.51	2097.12
203.73	2224.09
203.95	2625.50
204.17	2273.25
204.39	2306.01
204.61	2246.62
204.83	2215.90
205.05	2283.49
205.27	2277.34
205.49	2447.32
205.71	2240.48
205.93	2119.65
206.15	2176.99
206.37	2228.19
206.59	2220.00
206.81	2168.80
207.03	2080.74
207.25	2109.41
207.47	2392.03
207.69	2176.99
207.91	2379.74
208.13	2373.60
208.34	2193.37
208.56	2072.54
208.78	2228.19
209.00	2215.90
209.22	2138.08
209.44	2195.42
209.66	2162.66
209.88	2275.29
210.10	2150.37
210.32	2127.84
210.54	2312.16
210.76	2185.18
210.98	2299.87
211.20	1974.24
211.42	2148.32
211.64	2330.59
211.86	2328.54
212.08	2228.19
212.30	2195.42
212.52	2191.33
212.74	2281.44
212.96	2215.90
213.17	2236.38
213.39	2346.97
213.61	2443.23
213.83	2142.18
214.05	2234.33
214.27	2334.68
214.49	2156.51
214.71	2129.89
214.93	2258.91
215.15	2207.71
215.37	2256.86
215.59	2041.82
215.81	2179.04
216.03	2351.07
216.24	2291.68
216.46	2111.46
216.68	2172.89
216.90	2383.84
217.12	2346.97
217.34	2252.77
217.56	2246.62
217.78	2308.06
218.00	2334.68
218.22	2246.62
218.44	2242.53
218.66	2217.95
218.87	2461.66
219.09	2154.46
219.31	2244.57
219.53	2297.82
219.75	2244.57
219.97	2187.23
220.19	2150.37
220.41	2240.48
220.63	2400.22
220.85	2207.71
221.06	2185.18
221.28	2441.18
221.50	2342.88
221.72	2185.18
221.94	2164.70
222.16	2263.01
222.38	2295.77
222.60	2203.61
222.82	2211.81
223.03	2344.92
223.25	2088.93
223.47	2164.70
223.69	2306.01
223.91	2281.44
224.13	2265.05
224.35	2138.08
224.57	2310.11
224.78	2240.48
225.00	2209.76
225.22	2306.01
225.44	2232.29
225.66	2428.89
225.88	2205.66
226.10	2250.72
226.32	2187.23
226.53	2402.27
226.75	2252.77
226.97	2187.23
227.19	2179.04
227.41	2185.18
227.63	2183.13
227.85	2013.15
228.06	2195.42
228.28	2308.06
228.50	2367.45
228.72	2109.41
228.94	2172.89
229.16	2060.26
229.37	2064.35
229.59	2156.51
229.81	2346.97
230.03	2189.28
230.25	2127.84
230.47	2093.02
230.69	2107.36
230.90	2283.49
231.12	2191.33
231.34	2277.34
231.56	2256.86
231.78	2142.18
232.00	2234.33
232.21	2199.52
232.43	2138.08
232.65	2058.21
232.87	2277.34
233.09	2045.92
233.30	2133.98
233.52	2301.92
233.74	2287.58
233.96	2146.27
234.18	2236.38
234.40	2283.49
234.61	2494.43
234.83	2070.50
235.05	2146.27
235.27	2471.90
235.49	2447.32
235.70	2127.84
235.92	2318.30
236.14	2342.88
236.36	2514.91
236.58	2095.07
236.79	2244.57
237.01	2258.91
237.23	2224.09
237.45	2359.26
237.67	2174.94
237.88	2324.44
238.10	2406.36
238.32	2058.21
238.54	2187.23
238.76	2240.48
238.97	2170.85
239.19	2129.89
239.41	2263.01
239.63	2383.84
239.85	2220.00
240.06	2269.15
240.28	2138.08
240.50	2275.29
240.72	2328.54
240.93	2152.42
241.15	2189.28
241.37	2279.39
241.59	2293.72
241.81	2211.81
242.02	2150.37
242.24	2263.01
242.46	2291.68
242.68	2101.22
242.89	2197.47
243.11	2342.88
243.33	2236.38
243.55	2220.00
243.76	2267.10
243.98	2220.00
244.20	2209.76
244.42	2162.66
244.64	2228.19
244.85	2189.28
245.07	2127.84
245.29	2240.48
245.51	2129.89
245.72	2301.92
245.94	2383.84
246.16	2254.81
246.38	2316.25
246.59	2168.80
246.81	2136.03
247.03	2084.83
247.24	2035.68
247.46	2250.72
247.68	2228.19
247.90	2113.50
248.11	2168.80
248.33	2332.64
248.55	2213.85
248.77	2224.09
248.98	2256.86
249.20	2408.41
249.42	2355.16
249.64	2129.89
249.85	2205.66
250.07	2258.91
250.29	2346.97
250.50	2256.86
250.72	2060.26
250.94	2316.25
251.16	2430.94
251.37	2215.90
251.59	2211.81
251.81	2316.25
252.02	2430.94
252.24	2119.65
252.46	2281.44
252.68	2166.75
252.89	2174.94
253.11	2066.40
253.33	2248.67
253.54	2420.70
253.76	2234.33
253.98	2119.65
254.20	2207.71
254.41	2164.70
254.63	2234.33
254.85	2074.59
255.06	2195.42
255.28	2310.11
255.50	2258.91
255.71	2111.46
255.93	2062.30
256.15	2205.66
256.36	2303.96
256.58	2154.46
256.80	2246.62
257.02	2297.82
257.23	2242.53
257.45	2170.85
257.67	2279.39
257.88	2242.53
258.10	2228.19
258.32	2176.99
258.53	2328.54
258.75	2375.64
258.97	2211.81
259.18	2105.31
259.40	2183.13
259.62	2428.89
259.83	2402.27
260.05	2174.94
260.27	2654.17
260.48	2310.11
260.70	2203.61
260.92	2172.89
261.13	2203.61
261.35	2289.63
261.57	2260.96
261.78	2033.63
262.00	2113.50
262.22	2281.44
262.43	2168.80
262.65	2306.01
262.86	2224.09
263.08	2537.43
263.30	2226.14
263.51	2041.82
263.73	2093.02
263.95	2418.65
264.16	2154.46
264.38	2123.74
264.60	2199.52
264.81	2228.19
265.03	2359.26
265.25	2404.32
265.46	2207.71
265.68	2375.64
265.89	2396.12
266.11	2031.58
266.33	2207.71
266.54	2469.85
266.76	2367.45
266.98	2256.86
267.19	2279.39
267.41	2293.72
267.62	2228.19
267.84	2039.78
268.06	2252.77
268.27	2355.16
268.49	2369.50
268.70	2326.49
268.92	2191.33
269.14	2070.50
269.35	2105.31
269.57	2187.23
269.79	2195.42
270.00	2217.95
270.22	2412.51
270.43	2095.07
270.65	2060.26
270.87	2217.95
271.08	2324.44
271.30	2281.44
271.51	2090.98
271.73	2258.91
271.95	2430.94
272.16	2209.76
272.38	2220.00
272.59	2211.81
272.81	2318.30
273.02	2179.04
273.24	2203.61
273.46	2285.53
273.67	2156.51
273.89	2138.08
274.10	2105.31
274.32	2338.78
274.54	2252.77
274.75	2246.62
274.97	2211.81
275.18	2263.01
275.40	2363.36
275.61	2142.18
275.83	2215.90
276.05	2211.81
276.26	2252.77
276.48	2279.39
276.69	2199.52
276.91	2250.72
277.12	2349.02
277.34	2342.88
277.55	2271.20
277.77	2324.44
277.99	2187.23
278.20	2260.96
278.42	2072.54
278.63	2185.18
278.85	2172.89
279.06	2103.26
279.28	2269.15
279.49	2277.34
279.71	2322.40
279.93	2242.53
280.14	2244.57
280.36	2172.89
280.57	2338.78
280.79	2260.96
281.00	2146.27
281.22	2129.89
281.43	2379.74
281.65	1998.82
281.86	2136.03
282.08	2357.21
282.29	2441.18
282.51	2162.66
282.73	2101.22
282.94	2117.60
283.16	2322.40
283.37	2322.40
283.59	2152.42
283.80	2357.21
284.02	2168.80
284.23	2252.77
284.45	2193.37
284.66	2195.42
284.88	2246.62
285.09	2254.81
285.31	2381.79
285.52	2351.07
285.74	2072.54
285.95	2316.25
286.17	2254.81
286.38	2340.83
286.60	2240.48
286.81	2187.23
287.03	2162.66
287.24	2299.87
287.46	2265.05
287.67	2267.10
287.89	2441.18
288.10	2232.29
288.32	2260.96
288.53	2351.07
288.75	2273.25
288.96	2277.34
289.18	2168.80
289.39	2256.86
289.61	2301.92
289.82	2344.92
290.04	2445.27
290.25	2179.04
290.47	2281.44
290.68	2332.64
290.90	2418.65
291.11	2144.22
291.33	2287.58
291.54	2203.61
291.76	2164.70
291.97	2301.92
292.18	2258.91
292.40	2258.91
292.61	2170.85
292.83	2381.79
293.04	2299.87
293.26	2250.72
293.47	2193.37
293.69	2179.04
293.90	2162.66
294.12	2342.88
294.33	2230.24
294.55	2217.95
294.76	2293.72
294.97	2381.79
295.19	2514.91
295.40	2254.81
295.62	2312.16
295.83	2394.08
296.05	2195.42
296.26	2338.78
296.48	2207.71
296.69	2215.90
296.90	2215.90
297.12	2332.64
297.33	2308.06
297.55	2269.15
297.76	2226.14
297.98	2342.88
298.19	2228.19
298.41	2293.72
298.62	2176.99
298.83	2377.69
299.05	2301.92
299.26	2205.66
299.48	2179.04
299.69	2228.19
299.90	2250.72
300.12	2203.61
300.33	2260.96
300.55	2236.38
300.76	2277.34
300.98	2131.94
301.19	2344.92
301.40	2230.24
301.62	2236.38
301.83	2269.15
302.05	2308.06
302.26	2234.33
302.47	2324.44
302.69	2220.00
302.90	2322.40
303.12	2097.12
303.33	2289.63
303.54	2435.03
303.76	2156.51
303.97	2230.24
304.19	2385.88
304.40	2170.85
304.61	2310.11
304.83	2379.74
305.04	2289.63
305.26	2295.77
305.47	2189.28
305.68	2236.38
305.90	2080.74
306.11	2400.22
306.33	2250.72
306.54	2203.61
306.75	2138.08
306.97	2129.89
307.18	2209.76
307.39	2185.18
307.61	2320.35
307.82	2252.77
308.04	2205.66
308.25	2166.75
308.46	2162.66
308.68	2252.77
308.89	2256.86
309.10	2320.35
309.32	2265.05
309.53	2279.39
309.74	2269.15
309.96	2265.05
310.17	2265.05
310.39	2170.85
310.60	2297.82
310.81	2226.14
311.03	2133.98
311.24	2289.63
311.45	2285.53
311.67	2367.45
311.88	2168.80
312.09	2168.80
312.31	2265.05
312.52	2236.38
312.73	2187.23
312.95	2136.03
313.16	2195.42
313.37	2332.64
313.59	2318.30
313.80	2301.92
314.01	2424.80
314.23	2213.85
314.44	2224.09
314.65	2109.41
314.87	2129.89
315.08	2205.66
315.29	2191.33
315.51	2181.09
315.72	2050.02
315.93	2396.12
316.15	2283.49
316.36	2187.23
316.57	2310.11
316.79	2273.25
317.00	2209.76
317.21	2269.15
317.43	2240.48
317.64	2287.58
317.85	2172.89
318.07	2273.25
318.28	2254.81
318.49	2287.58
318.70	2539.48
318.92	2346.97
319.13	2430.94
319.34	2392.03
319.56	2301.92
319.77	2351.07
319.98	2389.98
320.20	2371.55
320.41	2306.01
320.62	2412.51
320.83	2127.84
321.05	2349.02
321.26	2250.72
321.47	2258.91
321.69	2435.03
321.90	2195.42
322.11	2179.04
322.32	2287.58
322.54	2422.75
322.75	2203.61
322.96	2527.19
323.18	2168.80
323.39	2043.87
323.60	2119.65
323.81	2330.59
324.03	2088.93
324.24	2201.57
324.45	2287.58
324.66	2127.84
324.88	2357.21
325.09	2398.17
325.30	2224.09
325.52	2265.05
325.73	2273.25
325.94	2127.84
326.15	2105.31
326.37	2105.31
326.58	2299.87
326.79	2432.99
327.00	2138.08
327.22	2281.44
327.43	2174.94
327.64	2121.70
327.85	2289.63
328.07	2236.38
328.28	2545.63
328.49	2197.47
328.70	2226.14
328.92	2287.58
329.13	2236.38
329.34	2314.20
329.55	2406.36
329.76	2328.54
329.98	2248.67
330.19	2426.84
330.40	2220.00
330.61	2340.83
330.83	2297.82
331.04	2189.28
331.25	2316.25
331.46	2215.90
331.68	2140.13
331.89	2342.88
332.10	2277.34
332.31	2123.74
332.52	2207.71
332.74	2363.36
332.95	2097.12
333.16	2232.29
333.37	2248.67
333.58	2248.67
333.80	2285.53
334.01	2123.74
334.22	2195.42
334.43	2197.47
334.64	2176.99
334.86	2170.85
335.07	2144.22
335.28	2349.02
335.49	2086.88
335.70	2312.16
335.92	2351.07
336.13	2516.95
336.34	2287.58
336.55	2258.91
336.76	2283.49
336.98	2021.35
337.19	2226.14
337.40	2328.54
337.61	2529.24
337.82	2228.19
338.04	2308.06
338.25	2142.18
338.46	2228.19
338.67	2199.52
338.88	2217.95
339.09	2205.66
339.31	2228.19
339.52	2066.40
339.73	2146.27
339.94	2256.86
340.15	2349.02
340.36	2228.19
340.58	2228.19
340.79	2170.85
341.00	2285.53
341.21	2090.98
341.42	2412.51
341.63	2195.42
341.85	2275.29
342.06	2336.73
342.27	2129.89
342.48	2324.44
342.69	2166.75
342.90	2301.92
343.12	2338.78
343.33	2140.13
343.54	2217.95
343.75	2381.79
343.96	2236.38
344.17	2242.53
344.38	2228.19
344.60	2195.42
344.81	2121.70
345.02	2195.42
345.23	2383.84
345.44	2559.96
345.65	2279.39
345.86	2232.29
346.07	2349.02
346.29	2254.81
346.50	2301.92
346.71	2299.87
346.92	2375.64
347.13	2451.42
347.34	2195.42
347.55	2179.04
347.76	2314.20
347.98	2170.85
348.19	2220.00
348.40	2351.07
348.61	2152.42
348.82	2371.55
349.03	2267.10
349.24	2183.13
349.45	2410.46
349.66	2052.06
349.88	2242.53
350.09	2203.61
350.30	2457.56
350.51	2439.13
350.72	2318.30
350.93	2263.01
351.14	2238.43
351.35	2301.92
351.56	2240.48
351.77	2228.19
351.99	2328.54
352.20	2422.75
352.41	2312.16
352.62	2082.78
352.83	2189.28
353.04	2209.76
353.25	2238.43
353.46	2299.87
353.67	2330.59
353.88	2043.87
354.09	2226.14
354.30	2117.60
354.52	2285.53
354.73	2250.72
354.94	2250.72
355.15	2250.72
355.36	2437.08
355.57	2205.66
355.78	2250.72
355.99	2129.89
356.20	2193.37
356.41	2330.59
356.62	2308.06
356.83	2246.62
357.04	2383.84
357.25	2113.50
357.46	2199.52
357.68	2084.83
357.89	2199.52
358.10	2336.73
358.31	2228.19
358.52	2244.57
358.73	2193.37
358.94	2203.61
359.15	2117.60
359.36	2242.53
359.57	2246.62
359.78	2254.81
359.99	2258.91
360.20	2158.56
360.41	2181.09
360.62	2363.36
360.83	2238.43
361.04	2246.62
361.25	2322.40
361.46	2465.75
361.67	2318.30
361.88	2256.86
362.09	2381.79
362.30	2299.87
362.51	2156.51
362.72	2166.75
362.93	2357.21
363.14	2308.06
363.35	2185.18
363.56	2187.23
363.78	2338.78
363.99	2338.78
364.20	2191.33
364.41	2209.76
364.62	2504.67
364.83	2207.71
365.04	2281.44
365.25	2211.81
365.46	2465.75
365.67	2244.57
365.88	2246.62
366.09	2174.94
366.30	2258.91
366.51	2203.61
366.72	2101.22
366.93	2228.19
367.14	2265.05
367.35	2404.32
367.56	2244.57
367.77	2392.03
367.98	2240.48
368.18	2256.86
368.39	2220.00
368.60	2127.84
368.81	2332.64
369.02	2244.57
369.23	2187.23
369.44	2113.50
369.65	2138.08
369.86	2355.16
370.07	2326.49
370.28	2170.85
370.49	2283.49
370.70	2322.40
370.91	2197.47
371.12	2162.66
371.33	2328.54
371.54	2197.47
371.75	2324.44
371.96	2017.25
372.17	2314.20
372.38	2220.00
372.59	2314.20
372.80	2162.66
373.01	2258.91
373.22	2277.34
373.43	2332.64
373.64	2193.37
373.85	2318.30
374.06	2482.14
374.26	2301.92
374.47	2271.20
374.68	2383.84
374.89	2265.05
375.10	2189.28
375.31	2306.01
375.52	2283.49
375.73	2195.42
375.94	2164.70
376.15	2404.32
376.36	2148.32
376.57	2232.29
376.78	2230.24
376.99	2222.05
377.20	2443.23
377.40	2213.85
377.61	2428.89
377.82	2176.99
378.03	2412.51
378.24	2326.49
378.45	2258.91
378.66	2252.77
378.87	2064.35
379.08	2084.83
379.29	2236.38
379.50	2383.84
379.71	2197.47
379.91	2336.73
380.12	2183.13
380.33	2256.86
380.54	2254.81
380.75	2213.85
380.96	2217.95
381.17	2326.49
381.38	2357.21
381.59	2228.19
381.80	2310.11
382.00	2426.84
382.21	2299.87
382.42	2453.47
382.63	2490.33
382.84	2349.02
383.05	2377.69
383.26	2457.56
383.47	2301.92
383.68	2242.53
383.88	2379.74
384.09	2310.11
384.30	2404.32
384.51	2258.91
384.72	2254.81
384.93	2109.41
385.14	2232.29
385.35	2357.21
385.55	2131.94
385.76	2342.88
385.97	2285.53
386.18	2060.26
386.39	2058.21
386.60	2201.57
386.81	2207.71
387.02	2185.18
387.22	2185.18
387.43	2297.82
387.64	2344.92
387.85	2408.41
388.06	2439.13
388.27	3930.05
388.48	8126.34
388.68	11724.62
388.89	13883.18
389.10	14888.73
389.31	13860.65
389.52	10930.01
389.73	9420.66
389.93	8603.52
390.14	7931.78
390.35	7012.24
390.56	6436.77
390.77	5183.41
390.98	3995.59
391.18	3295.18
391.39	2736.09
391.60	2318.30
391.81	2396.12
392.02	2183.13
392.23	2506.71
392.43	2303.96
392.64	2363.36
392.85	2252.77
393.06	2459.61
393.27	2301.92
393.47	2209.76
393.68	2242.53
393.89	2215.90
394.10	2387.93
394.31	2240.48
394.52	2201.57
394.72	2193.37
394.93	2394.08
395.14	2113.50
395.35	2295.77
395.56	2236.38
395.76	2277.34
395.97	2263.01
396.18	2242.53
396.39	2383.84
396.60	2631.64
396.80	2562.01
397.01	2465.75
397.22	2400.22
397.43	2416.60
397.64	2289.63
397.84	2297.82
398.05	2443.23
398.26	2273.25
398.47	2373.60
398.67	2383.84
398.88	2195.42
399.09	2324.44
399.30	2213.85
399.51	2342.88
399.71	2228.19
399.92	2228.19
400.13	2330.59
400.34	2250.72
400.54	2205.66
400.75	2396.12
400.96	2287.58
401.17	2346.97
401.37	2252.77
401.58	2211.81
401.79	2267.10
402.00	2406.36
402.21	2686.94
402.41	2625.50
402.62	2611.16
402.83	2703.32
403.04	2740.18
403.24	2824.15
403.45	2408.41
403.66	2568.15
403.87	2398.17
404.07	2377.69
404.28	2508.76
404.49	2475.99
404.70	2402.27
404.90	2373.60
405.11	2244.57
405.32	2283.49
405.52	2195.42
405.73	2209.76
405.94	2154.46
406.15	2181.09
406.35	2306.01
406.56	2371.55
406.77	2293.72
406.98	2322.40
407.18	2205.66
407.39	2459.61
407.60	2224.09
407.80	2291.68
408.01	2203.61
408.22	2297.82
408.43	2174.94
408.63	2330.59
408.84	2355.16
409.05	2320.35
409.25	2150.37
409.46	2181.09
409.67	2289.63
409.88	2248.67
410.08	2226.14
410.29	2111.46
410.50	2230.24
410.70	2254.81
410.91	2140.13
411.12	2195.42
411.32	2260.96
411.53	2205.66
411.74	2332.64
411.95	2357.21
412.15	2349.02
412.36	2340.83
412.57	2396.12
412.77	2410.46
412.98	2277.34
413.19	2277.34
413.39	2340.83
413.60	2303.96
413.81	2441.18
414.01	2160.61
414.22	2277.34
414.43	2346.97
414.63	2248.67
414.84	2344.92
415.05	2207.71
415.25	2152.42
415.46	2365.40
415.67	2152.42
415.87	2238.43
416.08	2125.79
416.29	2256.86
416.49	2236.38
416.70	2146.27
416.91	2254.81
417.11	2160.61
417.32	2387.93
417.53	2351.07
417.73	2301.92
417.94	2277.34
418.15	2299.87
418.35	2277.34
418.56	2228.19
418.77	2498.52
418.97	2279.39
419.18	2185.18
419.38	2037.73
419.59	2244.57
419.80	2381.79
420.00	2252.77
420.21	2269.15
420.42	2285.53
420.62	2297.82
420.83	2234.33
421.04	2209.76
421.24	2191.33
421.45	2287.58
421.65	2244.57
421.86	2209.76
422.07	2279.39
422.27	2322.40
422.48	2238.43
422.69	2154.46
422.89	2330.59
423.10	2154.46
423.30	2215.90
423.51	2240.48
423.72	2281.44
423.92	2373.60
424.13	2129.89
424.33	2209.76
424.54	2258.91
424.75	2242.53
424.95	2400.22
425.16	2240.48
425.36	2250.72
425.57	2306.01
425.78	2273.25
425.98	2441.18
426.19	2195.42
426.39	2191.33
426.60	2283.49
426.81	2379.74
427.01	2316.25
427.22	2234.33
427.42	2043.87
427.63	2166.75
427.83	2301.92
428.04	2453.47
428.25	2342.88
428.45	2342.88
428.66	2297.82
428.86	2265.05
429.07	2179.04
429.28	2179.04
429.48	2230.24
429.69	2152.42
429.89	2289.63
430.10	2156.51
430.30	2379.74
430.51	2279.39
430.71	2211.81
430.92	2211.81
431.13	2207.71
431.33	2336.73
431.54	2217.95
431.74	2342.88
431.95	2463.71
432.15	2107.36
432.36	2299.87
432.56	2355.16
432.77	2514.91
432.98	2457.56
433.18	2338.78
433.39	2127.84
433.59	2183.13
433.80	2504.67
434.00	2473.95
434.21	2201.57
434.41	2203.61
434.62	2432.99
434.82	2191.33
435.03	2136.03
435.23	2283.49
435.44	2058.21
435.64	2187.23
435.85	2275.29
436.06	2322.40
436.26	2379.74
436.47	2220.00
436.67	2172.89
436.88	2314.20
437.08	2346.97
437.29	2404.32
437.49	2312.16
437.70	2363.36
437.90	2289.63
438.11	2363.36
438.31	2308.06
438.52	2396.12
438.72	2490.33
438.93	2463.71
439.13	2381.79
439.34	2416.60
439.54	2220.00
439.75	2314.20
439.95	2289.63
440.16	2185.18
440.36	2279.39
440.57	2236.38
440.77	2256.86
440.98	2351.07
441.18	2400.22
441.39	2254.81
441.59	2168.80
441.80	2496.47
442.00	2269.15
442.21	2379.74
442.41	2170.85
442.62	2291.68
442.82	2271.20
443.02	2318.30
443.23	2244.57
443.43	2260.96
443.64	2398.17
443.84	2211.81
444.05	2312.16
444.25	2301.92
444.46	2236.38
444.66	2252.77
444.87	2416.60
445.07	2127.84
445.28	2357.21
445.48	2387.93
445.69	2330.59
445.89	2553.82
446.09	2269.15
446.30	2553.82
446.50	2785.24
446.71	4513.72
446.91	5535.66
447.12	6393.76
447.32	6762.39
447.53	6111.14
447.73	5054.39
447.93	4546.49
448.14	4239.30
448.34	4077.51
448.55	3610.57
448.75	3571.66
448.96	3284.94
449.16	3088.34
449.36	2922.45
449.57	2615.26
449.77	2355.16
449.98	2285.53
450.18	2367.45
450.39	2291.68
450.59	2398.17
450.79	2201.57
451.00	2283.49
451.20	2318.30
451.41	2234.33
451.61	2312.16
451.81	2246.62
452.02	2189.28
452.22	2160.61
452.43	2230.24
452.63	2217.95
