SpectraSuite Data File
++++++++++++++++++++++++++++++++++++
Date: Thu May 05 13:20:34 CEST 2016
User: root
Dark Spectrum Present: No
Reference Spectrum Present: No
Number of Sampled Component Spectra: 1
Spectrometers: USB4C02835
Integration Time (usec): 100000 (USB4C02835)
Spectra Averaged: 1 (USB4C02835)
Boxcar Smoothing: 0 (USB4C02835)
Correct for Electrical Dark: No (USB4C02835)
Strobe/Lamp Enabled: No (USB4C02835)
Correct for Detector Non-linearity: No (USB4C02835)
Correct for Stray Light: No (USB4C02835)
Number of Pixels in Processed Spectrum: 3648
>>>>>Begin Processed Spectral Data<<<<<
177.47	1851.36
177.69	1851.36
177.91	1851.36
178.13	1726.44
178.36	1916.90
178.58	2187.23
178.80	2250.72
179.02	2078.69
179.24	2195.42
179.46	2154.46
179.68	2207.71
179.90	2205.66
180.13	2275.29
180.35	2148.32
180.57	2185.18
180.79	2260.96
181.01	2263.01
181.23	2232.29
181.45	2303.96
181.67	2306.01
181.90	2385.88
182.12	2168.80
182.34	2047.97
182.56	2287.58
182.78	2285.53
183.00	2131.94
183.22	2191.33
183.44	2033.63
183.66	2523.10
183.89	2287.58
184.11	2185.18
184.33	2301.92
184.55	2402.27
184.77	2109.41
184.99	2203.61
185.21	2136.03
185.43	2424.80
185.65	2123.74
185.87	2123.74
186.10	2455.51
186.32	2463.71
186.54	2252.77
186.76	2152.42
186.98	2308.06
187.20	2320.35
187.42	2146.27
187.64	2150.37
187.86	2265.05
188.08	2408.41
188.30	2154.46
188.52	2176.99
188.75	2373.60
188.97	2310.11
189.19	2170.85
189.41	2125.79
189.63	2277.34
189.85	2181.09
190.07	2076.64
190.29	2150.37
190.51	2201.57
190.73	2109.41
190.95	2299.87
191.17	2201.57
191.39	2037.73
191.61	2232.29
191.84	2176.99
192.06	2301.92
192.28	2148.32
192.50	2607.06
192.72	2260.96
192.94	2187.23
193.16	2422.75
193.38	2277.34
193.60	2105.31
193.82	2201.57
194.04	2422.75
194.26	2275.29
194.48	2160.61
194.70	2150.37
194.92	2220.00
195.14	2381.79
195.36	2093.02
195.58	2191.33
195.80	2187.23
196.02	2209.76
196.24	2189.28
196.46	2191.33
196.69	2179.04
196.91	2557.91
197.13	2199.52
197.35	2125.79
197.57	2430.94
197.79	2351.07
198.01	2189.28
198.23	2191.33
198.45	2351.07
198.67	2072.54
198.89	2109.41
199.11	2234.33
199.33	2136.03
199.55	2017.25
199.77	2195.42
199.99	2299.87
200.21	2248.67
200.43	2279.39
200.65	2088.93
200.87	1935.33
201.09	2228.19
201.31	2252.77
201.53	2238.43
201.75	2244.57
201.97	2193.37
202.19	2164.70
202.41	2244.57
202.63	2422.75
202.85	2308.06
203.07	2213.85
203.29	2148.32
203.51	2119.65
203.73	2201.57
203.95	2564.06
204.17	2209.76
204.39	2138.08
204.61	2136.03
204.83	2232.29
205.05	2267.10
205.27	2201.57
205.49	2504.67
205.71	2195.42
205.93	2119.65
206.15	2152.42
206.37	2324.44
206.59	2297.82
206.81	2060.26
207.03	2062.30
207.25	2166.75
207.47	2310.11
207.69	2220.00
207.91	2310.11
208.13	2453.47
208.34	2213.85
208.56	2113.50
208.78	2160.61
209.00	2142.18
209.22	2162.66
209.44	2220.00
209.66	2187.23
209.88	2236.38
210.10	2250.72
210.32	2211.81
210.54	2217.95
210.76	2174.94
210.98	2357.21
211.20	2023.39
211.42	2244.57
211.64	2357.21
211.86	2205.66
212.08	2193.37
212.30	2160.61
212.52	2207.71
212.74	2301.92
212.96	2160.61
213.17	2207.71
213.39	2357.21
213.61	2430.94
213.83	2129.89
214.05	2273.25
214.27	2301.92
214.49	2129.89
214.71	2164.70
214.93	2330.59
215.15	2308.06
215.37	2277.34
215.59	2099.17
215.81	2207.71
216.03	2392.03
216.24	2267.10
216.46	2181.09
216.68	2244.57
216.90	2295.77
217.12	2265.05
217.34	2107.36
217.56	2228.19
217.78	2424.80
218.00	2287.58
218.22	2185.18
218.44	2187.23
218.66	2310.11
218.87	2406.36
219.09	2160.61
219.31	2215.90
219.53	2269.15
219.75	2187.23
219.97	2217.95
220.19	2234.33
220.41	2281.44
220.63	2430.94
220.85	2228.19
221.06	2220.00
221.28	2424.80
221.50	2377.69
221.72	2220.00
221.94	2113.50
222.16	2234.33
222.38	2269.15
222.60	2230.24
222.82	2113.50
223.03	2310.11
223.25	2099.17
223.47	2195.42
223.69	2344.92
223.91	2265.05
224.13	2287.58
224.35	2136.03
224.57	2301.92
224.78	2303.96
225.00	2236.38
225.22	2162.66
225.44	2158.56
225.66	2334.68
225.88	2162.66
226.10	2265.05
226.32	2168.80
226.53	2428.89
226.75	2162.66
226.97	2185.18
227.19	2146.27
227.41	2174.94
227.63	2183.13
227.85	2078.69
228.06	2187.23
228.28	2234.33
228.50	2316.25
228.72	2068.45
228.94	2170.85
229.16	2074.59
229.37	2154.46
229.59	2119.65
229.81	2306.01
230.03	2240.48
230.25	2162.66
230.47	2121.70
230.69	2056.16
230.90	2244.57
231.12	2133.98
231.34	2232.29
231.56	2269.15
231.78	2109.41
232.00	2269.15
232.21	2191.33
232.43	2146.27
232.65	2009.06
232.87	2228.19
233.09	2023.39
233.30	2162.66
233.52	2269.15
233.74	2234.33
233.96	2269.15
234.18	2236.38
234.40	2195.42
234.61	2473.95
234.83	2136.03
235.05	2033.63
235.27	2523.10
235.49	2432.99
235.70	2121.70
235.92	2301.92
236.14	2289.63
236.36	2432.99
236.58	2097.12
236.79	2277.34
237.01	2230.24
237.23	2256.86
237.45	2363.36
237.67	2191.33
237.88	2279.39
238.10	2465.75
238.32	2072.54
238.54	2142.18
238.76	2283.49
238.97	2150.37
239.19	2084.83
239.41	2281.44
239.63	2308.06
239.85	2197.47
240.06	2191.33
240.28	2166.75
240.50	2338.78
240.72	2176.99
240.93	2136.03
241.15	2248.67
241.37	2238.43
241.59	2361.31
241.81	2193.37
242.02	2199.52
242.24	2260.96
242.46	2326.49
242.68	2103.26
242.89	2271.20
243.11	2367.45
243.33	2234.33
243.55	2224.09
243.76	2220.00
243.98	2226.14
244.20	2277.34
244.42	2189.28
244.64	2301.92
244.85	2152.42
245.07	2179.04
245.29	2256.86
245.51	2133.98
245.72	2283.49
245.94	2392.03
246.16	2176.99
246.38	2209.76
246.59	2240.48
246.81	2148.32
247.03	2150.37
247.24	2004.96
247.46	2250.72
247.68	2248.67
247.90	2164.70
248.11	2152.42
248.33	2381.79
248.55	2215.90
248.77	2136.03
248.98	2211.81
249.20	2355.16
249.42	2189.28
249.64	2252.77
249.85	2185.18
250.07	2215.90
250.29	2379.74
250.50	2260.96
250.72	2121.70
250.94	2240.48
251.16	2445.27
251.37	2228.19
251.59	2277.34
251.81	2258.91
252.02	2314.20
252.24	2207.71
252.46	2228.19
252.68	2220.00
252.89	2213.85
253.11	2113.50
253.33	2314.20
253.54	2406.36
253.76	2109.41
253.98	2162.66
254.20	2119.65
254.41	2174.94
254.63	2256.86
254.85	2050.02
255.06	2199.52
255.28	2342.88
255.50	2299.87
255.71	2220.00
255.93	2062.30
256.15	2285.53
256.36	2318.30
256.58	2201.57
256.80	2195.42
257.02	2230.24
257.23	2156.51
257.45	2084.83
257.67	2342.88
257.88	2181.09
258.10	2310.11
258.32	2084.83
258.53	2265.05
258.75	2492.38
258.97	2174.94
259.18	2174.94
259.40	2164.70
259.62	2475.99
259.83	2400.22
260.05	2195.42
260.27	2637.78
260.48	2334.68
260.70	2150.37
260.92	2138.08
261.13	2252.77
261.35	2252.77
261.57	2291.68
261.78	2004.96
262.00	2074.59
262.22	2326.49
262.43	2131.94
262.65	2252.77
262.86	2156.51
263.08	2525.15
263.30	2279.39
263.51	2064.35
263.73	2117.60
263.95	2387.93
264.16	2168.80
264.38	2072.54
264.60	2217.95
264.81	2232.29
265.03	2357.21
265.25	2303.96
265.46	2129.89
265.68	2422.75
265.89	2248.67
266.11	2021.35
266.33	2185.18
266.54	2326.49
266.76	2254.81
266.98	2303.96
267.19	2275.29
267.41	2396.12
267.62	2269.15
267.84	2078.69
268.06	2222.05
268.27	2283.49
268.49	2353.12
268.70	2267.10
268.92	2170.85
269.14	2152.42
269.35	2072.54
269.57	2179.04
269.79	2207.71
270.00	2191.33
270.22	2416.60
270.43	2068.45
270.65	1982.43
270.87	2250.72
271.08	2359.26
271.30	2232.29
271.51	2256.86
271.73	2326.49
271.95	2404.32
272.16	2187.23
272.38	2176.99
272.59	2222.05
272.81	2275.29
273.02	2166.75
273.24	2201.57
273.46	2334.68
273.67	2097.12
273.89	2099.17
274.10	2160.61
274.32	2334.68
274.54	2346.97
274.75	2279.39
274.97	2187.23
275.18	2363.36
275.40	2308.06
275.61	2146.27
275.83	2224.09
276.05	2119.65
276.26	2220.00
276.48	2232.29
276.69	2236.38
276.91	2250.72
277.12	2359.26
277.34	2318.30
277.55	2314.20
277.77	2269.15
277.99	2228.19
278.20	2176.99
278.42	2125.79
278.63	2082.78
278.85	2215.90
279.06	2095.07
279.28	2293.72
279.49	2322.40
279.71	2363.36
279.93	2236.38
280.14	2238.43
280.36	2154.46
280.57	2402.27
280.79	2211.81
281.00	2146.27
281.22	2220.00
281.43	2359.26
281.65	2056.16
281.86	2228.19
282.08	2338.78
282.29	2445.27
282.51	2037.73
282.73	2162.66
282.94	2080.74
283.16	2248.67
283.37	2414.56
283.59	2291.68
283.80	2211.81
284.02	2246.62
284.23	2299.87
284.45	2146.27
284.66	2172.89
284.88	2226.14
285.09	2316.25
285.31	2371.55
285.52	2303.96
285.74	2060.26
285.95	2310.11
286.17	2269.15
286.38	2389.98
286.60	2205.66
286.81	2226.14
287.03	2187.23
287.24	2269.15
287.46	2312.16
287.67	2234.33
287.89	2363.36
288.10	2195.42
288.32	2285.53
288.53	2359.26
288.75	2207.71
288.96	2316.25
289.18	2207.71
289.39	2172.89
289.61	2318.30
289.82	2490.33
290.04	2547.67
290.25	2084.83
290.47	2211.81
290.68	2232.29
290.90	2361.31
291.11	2148.32
291.33	2340.83
291.54	2099.17
291.76	2189.28
291.97	2248.67
292.18	2170.85
292.40	2195.42
292.61	2142.18
292.83	2475.99
293.04	2265.05
293.26	2324.44
293.47	2236.38
293.69	2152.42
293.90	2267.10
294.12	2291.68
294.33	2252.77
294.55	2238.43
294.76	2371.55
294.97	2371.55
295.19	2498.52
295.40	2283.49
295.62	2238.43
295.83	2408.41
296.05	2150.37
296.26	2383.84
296.48	2170.85
296.69	2248.67
296.90	2203.61
297.12	2281.44
297.33	2375.64
297.55	2220.00
297.76	2281.44
297.98	2383.84
298.19	2269.15
298.41	2203.61
298.62	2205.66
298.83	2422.75
299.05	2265.05
299.26	2185.18
299.48	2109.41
299.69	2349.02
299.90	2252.77
300.12	2152.42
300.33	2291.68
300.55	2244.57
300.76	2324.44
300.98	2193.37
301.19	2289.63
301.40	2133.98
301.62	2248.67
301.83	2285.53
302.05	2246.62
302.26	2258.91
302.47	2297.82
302.69	2168.80
302.90	2279.39
303.12	2127.84
303.33	2269.15
303.54	2455.51
303.76	2234.33
303.97	2269.15
304.19	2338.78
304.40	2142.18
304.61	2351.07
304.83	2398.17
305.04	2342.88
305.26	2318.30
305.47	2183.13
305.68	2256.86
305.90	2025.44
306.11	2351.07
306.33	2222.05
306.54	2213.85
306.75	2138.08
306.97	2074.59
307.18	2152.42
307.39	2170.85
307.61	2260.96
307.82	2265.05
308.04	2318.30
308.25	2199.52
308.46	2303.96
308.68	2211.81
308.89	2193.37
309.10	2371.55
309.32	2269.15
309.53	2232.29
309.74	2256.86
309.96	2138.08
310.17	2328.54
310.39	2228.19
310.60	2265.05
310.81	2246.62
311.03	2127.84
311.24	2291.68
311.45	2183.13
311.67	2414.56
311.88	2228.19
312.09	2195.42
312.31	2142.18
312.52	2205.66
312.73	2263.01
312.95	2084.83
313.16	2084.83
313.37	2301.92
313.59	2275.29
313.80	2394.08
314.01	2432.99
314.23	2191.33
314.44	2138.08
314.65	2144.22
314.87	2207.71
315.08	2168.80
315.29	2146.27
315.51	2213.85
315.72	2176.99
315.93	2293.72
316.15	2326.49
316.36	2211.81
316.57	2312.16
316.79	2314.20
317.00	2176.99
317.21	2342.88
317.43	2197.47
317.64	2226.14
317.85	2238.43
318.07	2154.46
318.28	2224.09
318.49	2349.02
318.70	2486.23
318.92	2430.94
319.13	2402.27
319.34	2547.67
319.56	2344.92
319.77	2361.31
319.98	2357.21
320.20	2291.68
320.41	2269.15
320.62	2406.36
320.83	2179.04
321.05	2463.71
321.26	2281.44
321.47	2220.00
321.69	2353.12
321.90	2121.70
322.11	2220.00
322.32	2289.63
322.54	2371.55
322.75	2211.81
322.96	2488.28
323.18	2133.98
323.39	2062.30
323.60	2217.95
323.81	2291.68
324.03	2164.70
324.24	2215.90
324.45	2242.53
324.66	2267.10
324.88	2424.80
325.09	2334.68
325.30	2256.86
325.52	2203.61
325.73	2308.06
325.94	2099.17
326.15	2080.74
326.37	2127.84
326.58	2359.26
326.79	2422.75
327.00	2166.75
327.22	2244.57
327.43	2254.81
327.64	2125.79
327.85	2283.49
328.07	2193.37
328.28	2467.80
328.49	2295.77
328.70	2193.37
328.92	2240.48
329.13	2240.48
329.34	2351.07
329.55	2412.51
329.76	2363.36
329.98	2238.43
330.19	2344.92
330.40	2258.91
330.61	2260.96
330.83	2422.75
331.04	2191.33
331.25	2279.39
331.46	2179.04
331.68	2201.57
331.89	2318.30
332.10	2217.95
332.31	2138.08
332.52	2289.63
332.74	2398.17
332.95	2082.78
333.16	2244.57
333.37	2437.08
333.58	2267.10
333.80	2283.49
334.01	2109.41
334.22	2248.67
334.43	2146.27
334.64	2119.65
334.86	2201.57
335.07	2121.70
335.28	2426.84
335.49	2068.45
335.70	2326.49
335.92	2402.27
336.13	2473.95
336.34	2332.64
336.55	2244.57
336.76	2201.57
336.98	2039.78
337.19	2242.53
337.40	2432.99
337.61	2562.01
337.82	2142.18
338.04	2248.67
338.25	2043.87
338.46	2230.24
338.67	2252.77
338.88	2146.27
339.09	2115.55
339.31	2138.08
339.52	2109.41
339.73	2156.51
339.94	2293.72
340.15	2351.07
340.36	2129.89
340.58	2224.09
340.79	2148.32
341.00	2342.88
341.21	2111.46
341.42	2396.12
341.63	2199.52
341.85	2396.12
342.06	2291.68
342.27	2111.46
342.48	2310.11
342.69	2097.12
342.90	2357.21
343.12	2355.16
343.33	2170.85
343.54	2416.60
343.75	2394.08
343.96	2322.40
344.17	2158.56
344.38	2160.61
344.60	2160.61
344.81	2154.46
345.02	2193.37
345.23	2357.21
345.44	2469.85
345.65	2285.53
345.86	2256.86
346.07	2191.33
346.29	2176.99
346.50	2238.43
346.71	2256.86
346.92	2359.26
347.13	2480.09
347.34	2203.61
347.55	2136.03
347.76	2359.26
347.98	2117.60
348.19	2217.95
348.40	2326.49
348.61	2193.37
348.82	2394.08
349.03	2275.29
349.24	2162.66
349.45	2461.66
349.66	2072.54
349.88	2215.90
350.09	2093.02
350.30	2398.17
350.51	2414.56
350.72	2209.76
350.93	2332.64
351.14	2084.83
351.35	2308.06
351.56	2222.05
351.77	2226.14
351.99	2314.20
352.20	2365.40
352.41	2326.49
352.62	2076.64
352.83	2293.72
353.04	2275.29
353.25	2162.66
353.46	2342.88
353.67	2342.88
353.88	2127.84
354.09	2138.08
354.30	2267.10
354.52	2269.15
354.73	2170.85
354.94	2142.18
355.15	2289.63
355.36	2463.71
355.57	2150.37
355.78	2267.10
355.99	2162.66
356.20	2228.19
356.41	2346.97
356.62	2269.15
356.83	2277.34
357.04	2432.99
357.25	2080.74
357.46	2156.51
357.68	2090.98
357.89	2168.80
358.10	2297.82
358.31	2217.95
358.52	2240.48
358.73	2125.79
358.94	2160.61
359.15	2146.27
359.36	2277.34
359.57	2236.38
359.78	2222.05
359.99	2373.60
360.20	2138.08
360.41	2211.81
360.62	2330.59
360.83	2250.72
361.04	2181.09
361.25	2293.72
361.46	2346.97
361.67	2385.88
361.88	2322.40
362.09	2279.39
362.30	2267.10
362.51	2170.85
362.72	2277.34
362.93	2398.17
363.14	2310.11
363.35	2326.49
363.56	2197.47
363.78	2271.20
363.99	2346.97
364.20	2176.99
364.41	2308.06
364.62	2422.75
364.83	2236.38
365.04	2138.08
365.25	2220.00
365.46	2488.28
365.67	2129.89
365.88	2215.90
366.09	2228.19
366.30	2179.04
366.51	2273.25
366.72	2070.50
366.93	2213.85
367.14	2203.61
367.35	2392.03
367.56	2193.37
367.77	2373.60
367.98	2224.09
368.18	2314.20
368.39	2308.06
368.60	2154.46
368.81	2283.49
369.02	2252.77
369.23	2154.46
369.44	2119.65
369.65	2166.75
369.86	2310.11
370.07	2285.53
370.28	2150.37
370.49	2260.96
370.70	2220.00
370.91	2156.51
371.12	2133.98
371.33	2357.21
371.54	2246.62
371.75	2303.96
371.96	2062.30
372.17	2293.72
372.38	2285.53
372.59	2281.44
372.80	2260.96
373.01	2301.92
373.22	2203.61
373.43	2232.29
373.64	2111.46
373.85	2424.80
374.06	2416.60
374.26	2392.03
374.47	2291.68
374.68	2361.31
374.89	2291.68
375.10	2246.62
375.31	2353.12
375.52	2281.44
375.73	2269.15
375.94	2170.85
376.15	2373.60
376.36	2179.04
376.57	2265.05
376.78	2146.27
376.99	2162.66
377.20	2432.99
377.40	2207.71
377.61	2387.93
377.82	2185.18
378.03	2326.49
378.24	2365.40
378.45	2228.19
378.66	2232.29
378.87	2029.54
379.08	2111.46
379.29	2140.13
379.50	2412.51
379.71	2236.38
379.91	2324.44
380.12	2267.10
380.33	2303.96
380.54	2170.85
380.75	2199.52
380.96	2168.80
381.17	2281.44
381.38	2260.96
381.59	2281.44
381.80	2181.09
382.00	2322.40
382.21	2320.35
382.42	2447.32
382.63	2533.34
382.84	2240.48
383.05	2359.26
383.26	2416.60
383.47	2228.19
383.68	2299.87
383.88	2316.25
384.09	2273.25
384.30	2441.18
384.51	2291.68
384.72	2250.72
384.93	2136.03
385.14	2244.57
385.35	2361.31
385.55	2111.46
385.76	2303.96
385.97	2306.01
386.18	2170.85
386.39	2164.70
386.60	2248.67
386.81	2275.29
387.02	2146.27
387.22	2176.99
387.43	2383.84
387.64	2396.12
387.85	2428.89
388.06	2508.76
388.27	3968.96
388.48	8304.51
388.68	11648.85
388.89	14255.91
389.10	15320.85
389.31	13961.00
389.52	10954.58
389.73	9619.31
389.93	8554.37
390.14	8038.28
390.35	7200.66
390.56	6340.51
390.77	5328.81
390.98	4011.97
391.18	3205.07
391.39	2822.10
391.60	2371.55
391.81	2381.79
392.02	2199.52
392.23	2486.23
392.43	2176.99
392.64	2404.32
392.85	2297.82
393.06	2461.66
393.27	2213.85
393.47	2123.74
393.68	2252.77
393.89	2213.85
394.10	2310.11
394.31	2224.09
394.52	2138.08
394.72	2238.43
394.93	2463.71
395.14	2113.50
395.35	2318.30
395.56	2121.70
395.76	2297.82
395.97	2285.53
396.18	2363.36
396.39	2406.36
396.60	2643.93
396.80	2471.90
397.01	2404.32
397.22	2295.77
397.43	2412.51
397.64	2306.01
397.84	2373.60
398.05	2430.94
398.26	2265.05
398.47	2332.64
398.67	2314.20
398.88	2248.67
399.09	2285.53
399.30	2197.47
399.51	2301.92
399.71	2138.08
399.92	2238.43
400.13	2310.11
400.34	2228.19
400.54	2187.23
400.75	2435.03
400.96	2244.57
401.17	2422.75
401.37	2242.53
401.58	2265.05
401.79	2211.81
402.00	2371.55
402.21	2658.26
402.41	2580.44
402.62	2539.48
402.83	2660.31
403.04	2621.40
403.24	2725.85
403.45	2404.32
403.66	2471.90
403.87	2570.20
404.07	2549.72
404.28	2533.34
404.49	2486.23
404.70	2277.34
404.90	2396.12
405.11	2252.77
405.32	2291.68
405.52	2226.14
405.73	2093.02
405.94	2215.90
406.15	2115.55
406.35	2244.57
406.56	2326.49
406.77	2363.36
406.98	2224.09
407.18	2224.09
407.39	2441.18
407.60	2195.42
407.80	2392.03
408.01	2232.29
408.22	2310.11
408.43	2144.22
408.63	2310.11
408.84	2285.53
409.05	2299.87
409.25	2197.47
409.46	2187.23
409.67	2271.20
409.88	2242.53
410.08	2228.19
410.29	2246.62
410.50	2355.16
410.70	2275.29
410.91	2138.08
411.12	2265.05
411.32	2213.85
411.53	2176.99
411.74	2332.64
411.95	2365.40
412.15	2408.41
412.36	2432.99
412.57	2428.89
412.77	2422.75
412.98	2260.96
413.19	2242.53
413.39	2299.87
413.60	2310.11
413.81	2351.07
414.01	2244.57
414.22	2267.10
414.43	2355.16
414.63	2265.05
414.84	2326.49
415.05	2236.38
415.25	2082.78
415.46	2322.40
415.67	2160.61
415.87	2293.72
416.08	2275.29
416.29	2187.23
416.49	2291.68
416.70	2174.94
416.91	2203.61
417.11	2176.99
417.32	2346.97
417.53	2322.40
417.73	2265.05
417.94	2312.16
418.15	2283.49
418.35	2252.77
418.56	2260.96
418.77	2539.48
418.97	2191.33
419.18	2234.33
419.38	2043.87
419.59	2246.62
419.80	2389.98
420.00	2187.23
420.21	2258.91
420.42	2361.31
420.62	2236.38
420.83	2162.66
421.04	2209.76
421.24	2199.52
421.45	2430.94
421.65	2256.86
421.86	2127.84
422.07	2355.16
422.27	2295.77
422.48	2265.05
422.69	2136.03
422.89	2316.25
423.10	2197.47
423.30	2123.74
423.51	2273.25
423.72	2248.67
423.92	2371.55
424.13	2232.29
424.33	2285.53
424.54	2332.64
424.75	2303.96
424.95	2418.65
425.16	2273.25
425.36	2201.57
425.57	2426.84
425.78	2289.63
425.98	2318.30
426.19	2207.71
426.39	2146.27
426.60	2256.86
426.81	2367.45
427.01	2295.77
427.22	2095.07
427.42	2150.37
427.63	2146.27
427.83	2349.02
428.04	2426.84
428.25	2383.84
428.45	2312.16
428.66	2459.61
428.86	2220.00
429.07	2213.85
429.28	2209.76
429.48	2232.29
429.69	2170.85
429.89	2318.30
430.10	2129.89
430.30	2359.26
430.51	2379.74
430.71	2174.94
430.92	2252.77
431.13	2201.57
431.33	2340.83
431.54	2232.29
431.74	2416.60
431.95	2453.47
432.15	2162.66
432.36	2240.48
432.56	2310.11
432.77	2365.40
432.98	2371.55
433.18	2228.19
433.39	2226.14
433.59	2277.34
433.80	2531.29
434.00	2531.29
434.21	2170.85
434.41	2129.89
434.62	2492.38
434.82	2226.14
435.03	2183.13
435.23	2269.15
435.44	2064.35
435.64	2148.32
435.85	2250.72
436.06	2342.88
436.26	2379.74
436.47	2226.14
436.67	2203.61
436.88	2203.61
437.08	2412.51
437.29	2432.99
437.49	2324.44
437.70	2361.31
437.90	2273.25
438.11	2400.22
438.31	2402.27
438.52	2521.05
438.72	2400.22
438.93	2498.52
439.13	2351.07
439.34	2359.26
439.54	2285.53
439.75	2283.49
439.95	2320.35
440.16	2308.06
440.36	2195.42
440.57	2324.44
440.77	2289.63
440.98	2342.88
441.18	2310.11
441.39	2193.37
441.59	2162.66
441.80	2525.15
442.00	2336.73
442.21	2369.50
442.41	2093.02
442.62	2408.41
442.82	2254.81
443.02	2277.34
443.23	2269.15
443.43	2254.81
443.64	2351.07
443.84	2207.71
444.05	2408.41
444.25	2236.38
444.46	2267.10
444.66	2224.09
444.87	2475.99
445.07	2086.88
445.28	2230.24
445.48	2441.18
445.69	2359.26
445.89	2539.48
446.09	2310.11
446.30	2600.92
446.50	2797.53
446.71	4358.08
446.91	5400.49
447.12	6332.32
447.32	6586.27
447.53	6291.36
447.73	5113.78
447.93	4569.02
448.14	4212.67
448.34	4026.31
448.55	3598.28
448.75	3571.66
448.96	3450.83
449.16	3065.81
449.36	2891.73
449.57	2537.43
449.77	2381.79
449.98	2371.55
450.18	2385.88
450.39	2318.30
450.59	2424.80
450.79	2279.39
451.00	2195.42
451.20	2430.94
451.41	2269.15
451.61	2338.78
451.81	2250.72
452.02	2244.57
452.22	2144.22
452.43	2170.85
452.63	2230.24
