SpectraSuite Data File
++++++++++++++++++++++++++++++++++++
Date: Thu May 05 13:20:59 CEST 2016
User: root
Dark Spectrum Present: No
Reference Spectrum Present: No
Number of Sampled Component Spectra: 1
Spectrometers: USB4C02835
Integration Time (usec): 100000 (USB4C02835)
Spectra Averaged: 1 (USB4C02835)
Boxcar Smoothing: 0 (USB4C02835)
Correct for Electrical Dark: No (USB4C02835)
Strobe/Lamp Enabled: No (USB4C02835)
Correct for Detector Non-linearity: No (USB4C02835)
Correct for Stray Light: No (USB4C02835)
Number of Pixels in Processed Spectrum: 3648
>>>>>Begin Processed Spectral Data<<<<<
177.47	1824.74
177.69	1824.74
177.91	1824.74
178.13	1783.78
178.36	1822.69
178.58	2185.18
178.80	2303.96
179.02	2111.46
179.24	2166.75
179.46	2138.08
179.68	2260.96
179.90	2256.86
180.13	2215.90
180.35	2119.65
180.57	2107.36
180.79	2383.84
181.01	2267.10
181.23	2240.48
181.45	2256.86
181.67	2256.86
181.90	2387.93
182.12	2170.85
182.34	2109.41
182.56	2295.77
182.78	2269.15
183.00	2179.04
183.22	2179.04
183.44	2078.69
183.66	2484.19
183.89	2267.10
184.11	2179.04
184.33	2318.30
184.55	2285.53
184.77	2193.37
184.99	2240.48
185.21	2240.48
185.43	2480.09
185.65	2226.14
185.87	2076.64
186.10	2516.95
186.32	2480.09
186.54	2265.05
186.76	2267.10
186.98	2351.07
187.20	2244.57
187.42	2168.80
187.64	2209.76
187.86	2359.26
188.08	2342.88
188.30	2097.12
188.52	2191.33
188.75	2457.56
188.97	2400.22
189.19	2172.89
189.41	2162.66
189.63	2256.86
189.85	2170.85
190.07	2045.92
190.29	2086.88
190.51	2306.01
190.73	2088.93
190.95	2338.78
191.17	2215.90
191.39	2086.88
191.61	2314.20
191.84	2129.89
192.06	2199.52
192.28	2056.16
192.50	2596.82
192.72	2293.72
192.94	2170.85
193.16	2383.84
193.38	2275.29
193.60	2119.65
193.82	2176.99
194.04	2404.32
194.26	2330.59
194.48	2207.71
194.70	2170.85
194.92	2172.89
195.14	2404.32
195.36	2164.70
195.58	2217.95
195.80	2156.51
196.02	2166.75
196.24	2187.23
196.46	2193.37
196.69	2166.75
196.91	2471.90
197.13	2174.94
197.35	2158.56
197.57	2402.27
197.79	2334.68
198.01	2213.85
198.23	2281.44
198.45	2312.16
198.67	2121.70
198.89	2127.84
199.11	2289.63
199.33	2187.23
199.55	2023.39
199.77	2215.90
199.99	2324.44
200.21	2217.95
200.43	2281.44
200.65	2183.13
200.87	2031.58
201.09	2220.00
201.31	2326.49
201.53	2273.25
201.75	2193.37
201.97	2379.74
202.19	2236.38
202.41	2289.63
202.63	2289.63
202.85	2256.86
203.07	2248.67
203.29	2166.75
203.51	2138.08
203.73	2256.86
203.95	2490.33
204.17	2123.74
204.39	2252.77
204.61	2220.00
204.83	2252.77
205.05	2220.00
205.27	2252.77
205.49	2516.95
205.71	2314.20
205.93	2078.69
206.15	2140.13
206.37	2265.05
206.59	2285.53
206.81	2103.26
207.03	2123.74
207.25	2093.02
207.47	2299.87
207.69	2207.71
207.91	2400.22
208.13	2359.26
208.34	2201.57
208.56	2072.54
208.78	2162.66
209.00	2162.66
209.22	2222.05
209.44	2195.42
209.66	2033.63
209.88	2256.86
210.10	2168.80
210.32	2068.45
210.54	2258.91
210.76	2332.64
210.98	2314.20
211.20	1992.67
211.42	2248.67
211.64	2389.98
211.86	2338.78
212.08	2236.38
212.30	2179.04
212.52	2195.42
212.74	2203.61
212.96	2287.58
213.17	2232.29
213.39	2334.68
213.61	2299.87
213.83	2111.46
214.05	2222.05
214.27	2424.80
214.49	2152.42
214.71	2115.55
214.93	2340.83
215.15	2273.25
215.37	2308.06
215.59	2080.74
215.81	2287.58
216.03	2369.50
216.24	2193.37
216.46	2146.27
216.68	2131.94
216.90	2330.59
217.12	2381.79
217.34	2146.27
217.56	2234.33
217.78	2420.70
218.00	2291.68
218.22	2207.71
218.44	2205.66
218.66	2283.49
218.87	2439.13
219.09	2160.61
219.31	2176.99
219.53	2154.46
219.75	2201.57
219.97	2201.57
220.19	2289.63
220.41	2174.94
220.63	2478.04
220.85	2105.31
221.06	2179.04
221.28	2398.17
221.50	2308.06
221.72	2220.00
221.94	2181.09
222.16	2240.48
222.38	2336.73
222.60	2220.00
222.82	2168.80
223.03	2277.34
223.25	2195.42
223.47	2201.57
223.69	2326.49
223.91	2326.49
224.13	2232.29
224.35	2062.30
224.57	2283.49
224.78	2185.18
225.00	2095.07
225.22	2193.37
225.44	2158.56
225.66	2320.35
225.88	2240.48
226.10	2211.81
226.32	2172.89
226.53	2367.45
226.75	2256.86
226.97	2158.56
227.19	2226.14
227.41	2222.05
227.63	2183.13
227.85	2025.44
228.06	2252.77
228.28	2287.58
228.50	2353.12
228.72	2074.59
228.94	2166.75
229.16	2181.09
229.37	2148.32
229.59	2133.98
229.81	2303.96
230.03	2252.77
230.25	2052.06
230.47	2080.74
230.69	2142.18
230.90	2326.49
231.12	2217.95
231.34	2226.14
231.56	2271.20
231.78	2181.09
232.00	2322.40
232.21	2215.90
232.43	2076.64
232.65	2097.12
232.87	2336.73
233.09	2035.68
233.30	2142.18
233.52	2244.57
233.74	2244.57
233.96	2191.33
234.18	2246.62
234.40	2217.95
234.61	2420.70
234.83	2181.09
235.05	2123.74
235.27	2531.29
235.49	2412.51
235.70	2144.22
235.92	2260.96
236.14	2295.77
236.36	2428.89
236.58	2109.41
236.79	2275.29
237.01	2138.08
237.23	2195.42
237.45	2371.55
237.67	2127.84
237.88	2312.16
238.10	2453.47
238.32	2111.46
238.54	2117.60
238.76	2205.66
238.97	2203.61
239.19	2138.08
239.41	2224.09
239.63	2412.51
239.85	2129.89
240.06	2199.52
240.28	2154.46
240.50	2412.51
240.72	2256.86
240.93	2093.02
241.15	2224.09
241.37	2213.85
241.59	2381.79
241.81	2150.37
242.02	2176.99
242.24	2355.16
242.46	2318.30
242.68	2097.12
242.89	2197.47
243.11	2392.03
243.33	2248.67
243.55	2236.38
243.76	2248.67
243.98	2187.23
244.20	2295.77
244.42	2168.80
244.64	2252.77
244.85	2113.50
245.07	2207.71
245.29	2295.77
245.51	2220.00
245.72	2224.09
245.94	2449.37
246.16	2228.19
246.38	2252.77
246.59	2267.10
246.81	2174.94
247.03	2170.85
247.24	2072.54
247.46	2226.14
247.68	2236.38
247.90	2187.23
248.11	2209.76
248.33	2297.82
248.55	2308.06
248.77	2258.91
248.98	2230.24
249.20	2396.12
249.42	2258.91
249.64	2250.72
249.85	2226.14
250.07	2119.65
250.29	2332.64
250.50	2236.38
250.72	2150.37
250.94	2303.96
251.16	2473.95
251.37	2189.28
251.59	2230.24
251.81	2334.68
252.02	2396.12
252.24	2148.32
252.46	2263.01
252.68	2129.89
252.89	2209.76
253.11	2007.01
253.33	2285.53
253.54	2361.31
253.76	2142.18
253.98	2183.13
254.20	2103.26
254.41	2154.46
254.63	2263.01
254.85	2072.54
255.06	2217.95
255.28	2244.57
255.50	2183.13
255.71	2174.94
255.93	2052.06
256.15	2201.57
256.36	2322.40
256.58	2111.46
256.80	2160.61
257.02	2258.91
257.23	2191.33
257.45	2172.89
257.67	2209.76
257.88	2217.95
258.10	2379.74
258.32	2119.65
258.53	2213.85
258.75	2414.56
258.97	2199.52
259.18	2158.56
259.40	2174.94
259.62	2424.80
259.83	2314.20
260.05	2244.57
260.27	2660.31
260.48	2369.50
260.70	2205.66
260.92	2121.70
261.13	2170.85
261.35	2260.96
261.57	2265.05
261.78	2066.40
262.00	2152.42
262.22	2334.68
262.43	2150.37
262.65	2201.57
262.86	2162.66
263.08	2510.81
263.30	2326.49
263.51	1968.10
263.73	2113.50
263.95	2414.56
264.16	2203.61
264.38	2133.98
264.60	2224.09
264.81	2260.96
265.03	2367.45
265.25	2314.20
265.46	2154.46
265.68	2359.26
265.89	2265.05
266.11	2043.87
266.33	2252.77
266.54	2414.56
266.76	2297.82
266.98	2213.85
267.19	2308.06
267.41	2297.82
267.62	2281.44
267.84	2007.01
268.06	2250.72
268.27	2281.44
268.49	2303.96
268.70	2193.37
268.92	2154.46
269.14	2088.93
269.35	2138.08
269.57	2275.29
269.79	2234.33
270.00	2236.38
270.22	2400.22
270.43	2097.12
270.65	2052.06
270.87	2338.78
271.08	2359.26
271.30	2222.05
271.51	2195.42
271.73	2310.11
271.95	2443.23
272.16	2185.18
272.38	2226.14
272.59	2293.72
272.81	2299.87
273.02	2213.85
273.24	2232.29
273.46	2375.64
273.67	2170.85
273.89	2080.74
274.10	2133.98
274.32	2379.74
274.54	2287.58
274.75	2187.23
274.97	2195.42
275.18	2349.02
275.40	2377.69
275.61	2154.46
275.83	2254.81
276.05	2152.42
276.26	2164.70
276.48	2232.29
276.69	2238.43
276.91	2146.27
277.12	2375.64
277.34	2355.16
277.55	2349.02
277.77	2195.42
277.99	2207.71
278.20	2152.42
278.42	2187.23
278.63	2095.07
278.85	2170.85
279.06	2144.22
279.28	2203.61
279.49	2230.24
279.71	2394.08
279.93	2226.14
280.14	2207.71
280.36	2136.03
280.57	2297.82
280.79	2326.49
281.00	2068.45
281.22	2220.00
281.43	2308.06
281.65	2062.30
281.86	2062.30
282.08	2324.44
282.29	2453.47
282.51	2054.11
282.73	2162.66
282.94	2162.66
283.16	2371.55
283.37	2363.36
283.59	2197.47
283.80	2236.38
284.02	2299.87
284.23	2222.05
284.45	2217.95
284.66	2144.22
284.88	2113.50
285.09	2201.57
285.31	2289.63
285.52	2301.92
285.74	2045.92
285.95	2299.87
286.17	2287.58
286.38	2367.45
286.60	2220.00
286.81	2121.70
287.03	2209.76
287.24	2211.81
287.46	2236.38
287.67	2273.25
287.89	2377.69
288.10	2293.72
288.32	2232.29
288.53	2293.72
288.75	2283.49
288.96	2281.44
289.18	2201.57
289.39	2183.13
289.61	2328.54
289.82	2482.14
290.04	2432.99
290.25	2099.17
290.47	2238.43
290.68	2179.04
290.90	2432.99
291.11	2119.65
291.33	2279.39
291.54	2179.04
291.76	2242.53
291.97	2293.72
292.18	2199.52
292.40	2166.75
292.61	2150.37
292.83	2406.36
293.04	2201.57
293.26	2306.01
293.47	2252.77
293.69	2146.27
293.90	2174.94
294.12	2410.46
294.33	2312.16
294.55	2187.23
294.76	2246.62
294.97	2430.94
295.19	2461.66
295.40	2250.72
295.62	2312.16
295.83	2342.88
296.05	2152.42
296.26	2295.77
296.48	2195.42
296.69	2248.67
296.90	2283.49
297.12	2287.58
297.33	2297.82
297.55	2299.87
297.76	2346.97
297.98	2324.44
298.19	2215.90
298.41	2176.99
298.62	2129.89
298.83	2389.98
299.05	2220.00
299.26	2244.57
299.48	2203.61
299.69	2238.43
299.90	2252.77
300.12	2224.09
300.33	2308.06
300.55	2236.38
300.76	2258.91
300.98	2160.61
301.19	2340.83
301.40	2236.38
301.62	2162.66
301.83	2269.15
302.05	2211.81
302.26	2244.57
302.47	2238.43
302.69	2084.83
302.90	2269.15
303.12	2068.45
303.33	2322.40
303.54	2432.99
303.76	2236.38
303.97	2263.01
304.19	2365.40
304.40	2105.31
304.61	2252.77
304.83	2375.64
305.04	2357.21
305.26	2224.09
305.47	2267.10
305.68	2146.27
305.90	2142.18
306.11	2377.69
306.33	2265.05
306.54	2172.89
306.75	2133.98
306.97	2129.89
307.18	2183.13
307.39	2228.19
307.61	2228.19
307.82	2199.52
308.04	2373.60
308.25	2172.89
308.46	2271.20
308.68	2179.04
308.89	2334.68
309.10	2228.19
309.32	2236.38
309.53	2224.09
309.74	2269.15
309.96	2195.42
310.17	2377.69
310.39	2113.50
310.60	2371.55
310.81	2252.77
311.03	2115.55
311.24	2346.97
311.45	2203.61
311.67	2465.75
311.88	2240.48
312.09	2160.61
312.31	2238.43
312.52	2170.85
312.73	2228.19
312.95	2189.28
313.16	2187.23
313.37	2389.98
313.59	2258.91
313.80	2312.16
314.01	2447.32
314.23	2121.70
314.44	2209.76
314.65	2082.78
314.87	2115.55
315.08	2201.57
315.29	2207.71
315.51	2176.99
315.72	2097.12
315.93	2416.60
316.15	2228.19
316.36	2183.13
316.57	2242.53
316.79	2205.66
317.00	2181.09
317.21	2336.73
317.43	2107.36
317.64	2242.53
317.85	2105.31
318.07	2201.57
318.28	2267.10
318.49	2369.50
318.70	2445.27
318.92	2441.18
319.13	2439.13
319.34	2504.67
319.56	2365.40
319.77	2367.45
319.98	2375.64
320.20	2359.26
320.41	2375.64
320.62	2299.87
320.83	2176.99
321.05	2375.64
321.26	2291.68
321.47	2256.86
321.69	2355.16
321.90	2105.31
322.11	2226.14
322.32	2226.14
322.54	2400.22
322.75	2146.27
322.96	2512.86
323.18	2111.46
323.39	2099.17
323.60	2189.28
323.81	2299.87
324.03	2170.85
324.24	2209.76
324.45	2269.15
324.66	2154.46
324.88	2283.49
325.09	2396.12
325.30	2209.76
325.52	2252.77
325.73	2273.25
325.94	2174.94
326.15	2156.51
326.37	2224.09
326.58	2365.40
326.79	2435.03
327.00	2232.29
327.22	2166.75
327.43	2129.89
327.64	2203.61
327.85	2220.00
328.07	2289.63
328.28	2377.69
328.49	2230.24
328.70	2273.25
328.92	2308.06
329.13	2203.61
329.34	2287.58
329.55	2414.56
329.76	2349.02
329.98	2240.48
330.19	2424.80
330.40	2220.00
330.61	2236.38
330.83	2267.10
331.04	2148.32
331.25	2191.33
331.46	2162.66
331.68	2105.31
331.89	2428.89
332.10	2285.53
332.31	2136.03
332.52	2189.28
332.74	2320.35
332.95	2121.70
333.16	2191.33
333.37	2207.71
333.58	2250.72
333.80	2228.19
334.01	2064.35
334.22	2246.62
334.43	2168.80
334.64	2236.38
334.86	2148.32
335.07	2146.27
335.28	2420.70
335.49	2099.17
335.70	2283.49
335.92	2381.79
336.13	2508.76
336.34	2387.93
336.55	2252.77
336.76	2293.72
336.98	2039.78
337.19	2193.37
337.40	2455.51
337.61	2502.62
337.82	2273.25
338.04	2301.92
338.25	2062.30
338.46	2183.13
338.67	2258.91
338.88	2138.08
339.09	2172.89
339.31	2230.24
339.52	2154.46
339.73	2117.60
339.94	2226.14
340.15	2285.53
340.36	2201.57
340.58	2213.85
340.79	2193.37
341.00	2289.63
341.21	2121.70
341.42	2371.55
341.63	2136.03
341.85	2353.12
342.06	2297.82
342.27	2095.07
342.48	2301.92
342.69	2105.31
342.90	2297.82
343.12	2334.68
343.33	2131.94
343.54	2371.55
343.75	2422.75
343.96	2244.57
344.17	2160.61
344.38	2254.81
344.60	2230.24
344.81	2170.85
345.02	2256.86
345.23	2394.08
345.44	2547.67
345.65	2213.85
345.86	2248.67
346.07	2224.09
346.29	2172.89
346.50	2250.72
346.71	2303.96
346.92	2303.96
347.13	2398.17
347.34	2273.25
347.55	2191.33
347.76	2324.44
347.98	2097.12
348.19	2170.85
348.40	2400.22
348.61	2205.66
348.82	2437.08
349.03	2207.71
349.24	2166.75
349.45	2478.04
349.66	2105.31
349.88	2260.96
350.09	2090.98
350.30	2320.35
350.51	2367.45
350.72	2224.09
350.93	2260.96
351.14	2234.33
351.35	2310.11
351.56	2158.56
351.77	2226.14
351.99	2332.64
352.20	2412.51
352.41	2322.40
352.62	2062.30
352.83	2228.19
353.04	2258.91
353.25	2252.77
353.46	2308.06
353.67	2367.45
353.88	2045.92
354.09	2189.28
354.30	2258.91
354.52	2281.44
354.73	2254.81
354.94	2191.33
355.15	2308.06
355.36	2432.99
355.57	2152.42
355.78	2310.11
355.99	2181.09
356.20	2187.23
356.41	2381.79
356.62	2269.15
356.83	2236.38
357.04	2338.78
357.25	2086.88
357.46	2191.33
357.68	2129.89
357.89	2144.22
358.10	2285.53
358.31	2154.46
358.52	2142.18
358.73	2193.37
358.94	2150.37
359.15	2162.66
359.36	2252.77
359.57	2179.04
359.78	2183.13
359.99	2326.49
360.20	2162.66
360.41	2217.95
360.62	2336.73
360.83	2260.96
361.04	2181.09
361.25	2256.86
361.46	2461.66
361.67	2258.91
361.88	2260.96
362.09	2328.54
362.30	2314.20
362.51	2211.81
362.72	2246.62
362.93	2330.59
363.14	2291.68
363.35	2267.10
363.56	2150.37
363.78	2320.35
363.99	2357.21
364.20	2187.23
364.41	2187.23
364.62	2441.18
364.83	2326.49
365.04	2170.85
365.25	2199.52
365.46	2508.76
365.67	2123.74
365.88	2234.33
366.09	2193.37
366.30	2318.30
366.51	2246.62
366.72	2228.19
366.93	2246.62
367.14	2179.04
367.35	2375.64
367.56	2187.23
367.77	2371.55
367.98	2256.86
368.18	2314.20
368.39	2326.49
368.60	2181.09
368.81	2273.25
369.02	2213.85
369.23	2217.95
369.44	2039.78
369.65	2263.01
369.86	2334.68
370.07	2236.38
370.28	2197.47
370.49	2289.63
370.70	2281.44
370.91	2117.60
371.12	2101.22
371.33	2365.40
371.54	2267.10
371.75	2381.79
371.96	2088.93
372.17	2312.16
372.38	2232.29
372.59	2310.11
372.80	2162.66
373.01	2224.09
373.22	2226.14
373.43	2250.72
373.64	2189.28
373.85	2381.79
374.06	2482.14
374.26	2359.26
374.47	2209.76
374.68	2381.79
374.89	2361.31
375.10	2193.37
375.31	2312.16
375.52	2273.25
375.73	2297.82
375.94	2086.88
376.15	2402.27
376.36	2146.27
376.57	2142.18
376.78	2213.85
376.99	2179.04
377.20	2351.07
377.40	2277.34
377.61	2426.84
377.82	2203.61
378.03	2381.79
378.24	2334.68
378.45	2269.15
378.66	2252.77
378.87	2078.69
379.08	2166.75
379.29	2179.04
379.50	2250.72
379.71	2260.96
379.91	2314.20
380.12	2230.24
380.33	2236.38
380.54	2283.49
380.75	2195.42
380.96	2230.24
381.17	2326.49
381.38	2248.67
381.59	2236.38
381.80	2252.77
382.00	2408.41
382.21	2357.21
382.42	2426.84
382.63	2549.72
382.84	2207.71
383.05	2371.55
383.26	2377.69
383.47	2220.00
383.68	2172.89
383.88	2351.07
384.09	2265.05
384.30	2361.31
384.51	2306.01
384.72	2187.23
384.93	2113.50
385.14	2328.54
385.35	2383.84
385.55	2136.03
385.76	2394.08
385.97	2224.09
386.18	2150.37
386.39	2203.61
386.60	2236.38
386.81	2258.91
387.02	2179.04
387.22	2220.00
387.43	2322.40
387.64	2310.11
387.85	2416.60
388.06	2543.58
388.27	3837.89
388.48	8134.53
388.68	11802.44
388.89	13991.72
389.10	15011.61
389.31	14102.31
389.52	10960.73
389.73	9525.10
389.93	8673.15
390.14	8009.61
390.35	7096.21
390.56	6414.24
390.77	5271.47
390.98	4075.46
391.18	3323.85
391.39	2807.77
391.60	2375.64
391.81	2381.79
392.02	2179.04
392.23	2455.51
392.43	2289.63
392.64	2349.02
392.85	2258.91
393.06	2410.46
393.27	2222.05
393.47	2131.94
393.68	2260.96
393.89	2189.28
394.10	2314.20
394.31	2224.09
394.52	2142.18
394.72	2224.09
394.93	2416.60
395.14	2193.37
395.35	2320.35
395.56	2136.03
395.76	2289.63
395.97	2326.49
396.18	2275.29
396.39	2400.22
396.60	2799.57
396.80	2613.21
397.01	2447.32
397.22	2428.89
397.43	2385.88
397.64	2187.23
397.84	2351.07
398.05	2496.47
398.26	2283.49
398.47	2301.92
398.67	2428.89
398.88	2263.01
399.09	2303.96
399.30	2150.37
399.51	2285.53
399.71	2193.37
399.92	2213.85
400.13	2301.92
400.34	2244.57
400.54	2285.53
400.75	2408.41
400.96	2287.58
401.17	2375.64
401.37	2346.97
401.58	2146.27
401.79	2285.53
402.00	2340.83
402.21	2631.64
402.41	2484.19
402.62	2572.25
402.83	2629.59
403.04	2684.89
403.24	2850.77
403.45	2437.08
403.66	2414.56
403.87	2453.47
404.07	2572.25
404.28	2545.63
404.49	2555.86
404.70	2330.59
404.90	2346.97
405.11	2230.24
405.32	2293.72
405.52	2195.42
405.73	2248.67
405.94	2240.48
406.15	2326.49
406.35	2316.25
406.56	2310.11
406.77	2271.20
406.98	2314.20
407.18	2226.14
407.39	2383.84
407.60	2242.53
407.80	2322.40
408.01	2193.37
408.22	2275.29
408.43	2215.90
408.63	2306.01
408.84	2385.88
409.05	2361.31
409.25	2172.89
409.46	2176.99
409.67	2234.33
409.88	2197.47
410.08	2226.14
410.29	2150.37
410.50	2332.64
410.70	2281.44
410.91	2103.26
411.12	2277.34
411.32	2244.57
411.53	2203.61
411.74	2400.22
411.95	2308.06
412.15	2263.01
412.36	2439.13
412.57	2330.59
412.77	2283.49
412.98	2285.53
413.19	2189.28
413.39	2211.81
413.60	2248.67
413.81	2418.65
414.01	2197.47
414.22	2273.25
414.43	2357.21
414.63	2211.81
414.84	2361.31
415.05	2232.29
415.25	2078.69
415.46	2326.49
415.67	2148.32
415.87	2318.30
416.08	2234.33
416.29	2306.01
416.49	2260.96
416.70	2234.33
416.91	2240.48
417.11	2213.85
417.32	2357.21
417.53	2363.36
417.73	2281.44
417.94	2207.71
418.15	2283.49
418.35	2246.62
418.56	2226.14
418.77	2461.66
418.97	2240.48
419.18	2211.81
419.38	2027.49
419.59	2312.16
419.80	2377.69
420.00	2207.71
420.21	2281.44
420.42	2398.17
420.62	2277.34
420.83	2152.42
421.04	2224.09
421.24	2162.66
421.45	2277.34
421.65	2283.49
421.86	2244.57
422.07	2293.72
422.27	2303.96
422.48	2289.63
422.69	2133.98
422.89	2242.53
423.10	2187.23
423.30	2172.89
423.51	2215.90
423.72	2299.87
423.92	2392.03
424.13	2144.22
424.33	2295.77
424.54	2293.72
424.75	2316.25
424.95	2400.22
425.16	2256.86
425.36	2281.44
425.57	2351.07
425.78	2246.62
425.98	2328.54
426.19	2176.99
426.39	2179.04
426.60	2285.53
426.81	2306.01
427.01	2297.82
427.22	2236.38
427.42	2117.60
427.63	2144.22
427.83	2312.16
428.04	2455.51
428.25	2332.64
428.45	2340.83
428.66	2344.92
428.86	2297.82
429.07	2232.29
429.28	2271.20
429.48	2193.37
429.69	2191.33
429.89	2297.82
430.10	2228.19
430.30	2310.11
430.51	2400.22
430.71	2170.85
430.92	2215.90
431.13	2222.05
431.33	2308.06
431.54	2293.72
431.74	2441.18
431.95	2435.03
432.15	2240.48
432.36	2160.61
432.56	2224.09
432.77	2412.51
432.98	2432.99
433.18	2285.53
433.39	2170.85
433.59	2252.77
433.80	2533.34
434.00	2488.28
434.21	2205.66
434.41	2215.90
434.62	2498.52
434.82	2174.94
435.03	2166.75
435.23	2301.92
435.44	2095.07
435.64	2252.77
435.85	2273.25
436.06	2328.54
436.26	2363.36
436.47	2258.91
436.67	2160.61
436.88	2260.96
437.08	2269.15
437.29	2428.89
437.49	2232.29
437.70	2346.97
437.90	2222.05
438.11	2394.08
438.31	2289.63
438.52	2482.14
438.72	2445.27
438.93	2519.00
439.13	2367.45
439.34	2375.64
439.54	2252.77
439.75	2297.82
439.95	2359.26
440.16	2267.10
440.36	2326.49
440.57	2359.26
440.77	2248.67
440.98	2291.68
441.18	2283.49
441.39	2232.29
441.59	2213.85
441.80	2504.67
442.00	2287.58
442.21	2412.51
442.41	2197.47
442.62	2406.36
442.82	2146.27
443.02	2281.44
443.23	2293.72
443.43	2103.26
443.64	2381.79
443.84	2179.04
444.05	2414.56
444.25	2256.86
444.46	2162.66
444.66	2201.57
444.87	2496.47
445.07	2099.17
445.28	2277.34
445.48	2342.88
445.69	2271.20
445.89	2535.39
446.09	2244.57
446.30	2584.54
446.50	2815.96
446.71	4464.57
446.91	5574.57
447.12	6262.69
447.32	6727.58
447.53	6117.28
447.73	5021.62
447.93	4562.87
448.14	4177.86
448.34	4071.36
448.55	3575.75
448.75	3620.81
448.96	3432.40
449.16	3229.65
449.36	2867.16
449.57	2488.28
449.77	2428.89
449.98	2316.25
450.18	2346.97
450.39	2301.92
450.59	2392.03
450.79	2271.20
451.00	2176.99
451.20	2318.30
451.41	2297.82
451.61	2306.01
451.81	2248.67
452.02	2170.85
452.22	2113.50
452.43	2183.13
452.63	2215.90
