SpectraSuite Data File
++++++++++++++++++++++++++++++++++++
Date: Thu May 05 13:21:01 CEST 2016
User: root
Dark Spectrum Present: No
Reference Spectrum Present: No
Number of Sampled Component Spectra: 1
Spectrometers: USB4C02835
Integration Time (usec): 100000 (USB4C02835)
Spectra Averaged: 1 (USB4C02835)
Boxcar Smoothing: 0 (USB4C02835)
Correct for Electrical Dark: No (USB4C02835)
Strobe/Lamp Enabled: No (USB4C02835)
Correct for Detector Non-linearity: No (USB4C02835)
Correct for Stray Light: No (USB4C02835)
Number of Pixels in Processed Spectrum: 3648
>>>>>Begin Processed Spectral Data<<<<<
177.47	1748.97
177.69	1748.97
177.91	1748.97
178.13	1849.32
178.36	1814.50
178.58	2103.26
178.80	2267.10
179.02	2185.18
179.24	2160.61
179.46	2119.65
179.68	2207.71
179.90	2207.71
180.13	2297.82
180.35	2113.50
180.57	2138.08
180.79	2246.62
181.01	2240.48
181.23	2228.19
181.45	2240.48
181.67	2265.05
181.90	2287.58
182.12	2162.66
182.34	2017.25
182.56	2310.11
182.78	2283.49
183.00	2136.03
183.22	2144.22
183.44	2111.46
183.66	2457.56
183.89	2301.92
184.11	2193.37
184.33	2265.05
184.55	2379.74
184.77	2160.61
184.99	2191.33
185.21	2129.89
185.43	2586.58
185.65	2154.46
185.87	2115.55
186.10	2404.32
186.32	2494.43
186.54	2230.24
186.76	2224.09
186.98	2353.12
187.20	2263.01
187.42	2144.22
187.64	2201.57
187.86	2312.16
188.08	2306.01
188.30	2117.60
188.52	2209.76
188.75	2402.27
188.97	2420.70
189.19	2195.42
189.41	2191.33
189.63	2332.64
189.85	2187.23
190.07	2113.50
190.29	2093.02
190.51	2293.72
190.73	2150.37
190.95	2306.01
191.17	2170.85
191.39	2109.41
191.61	2222.05
191.84	2111.46
192.06	2217.95
192.28	2176.99
192.50	2516.95
192.72	2303.96
192.94	2176.99
193.16	2326.49
193.38	2246.62
193.60	2021.35
193.82	2193.37
194.04	2279.39
194.26	2363.36
194.48	2238.43
194.70	2158.56
194.92	2252.77
195.14	2246.62
195.36	2078.69
195.58	2281.44
195.80	2222.05
196.02	2213.85
196.24	2142.18
196.46	2209.76
196.69	2193.37
196.91	2496.47
197.13	2269.15
197.35	2191.33
197.57	2324.44
197.79	2273.25
198.01	2234.33
198.23	2220.00
198.45	2277.34
198.67	2162.66
198.89	2131.94
199.11	2207.71
199.33	2170.85
199.55	2027.49
199.77	2222.05
199.99	2250.72
200.21	2269.15
200.43	2295.77
200.65	2125.79
200.87	2072.54
201.09	2250.72
201.31	2246.62
201.53	2273.25
201.75	2228.19
201.97	2267.10
202.19	2205.66
202.41	2256.86
202.63	2416.60
202.85	2211.81
203.07	2318.30
203.29	2154.46
203.51	2215.90
203.73	2166.75
203.95	2555.86
204.17	2136.03
204.39	2193.37
204.61	2267.10
204.83	2201.57
205.05	2299.87
205.27	2205.66
205.49	2420.70
205.71	2211.81
205.93	2068.45
206.15	2088.93
206.37	2224.09
206.59	2238.43
206.81	2045.92
207.03	2056.16
207.25	2154.46
207.47	2330.59
207.69	2215.90
207.91	2355.16
208.13	2381.79
208.34	2215.90
208.56	2185.18
208.78	2224.09
209.00	2203.61
209.22	2129.89
209.44	2203.61
209.66	2207.71
209.88	2285.53
210.10	2228.19
210.32	2107.36
210.54	2240.48
210.76	2246.62
210.98	2340.83
211.20	2088.93
211.42	2250.72
211.64	2355.16
211.86	2379.74
212.08	2226.14
212.30	2242.53
212.52	2258.91
212.74	2318.30
212.96	2181.09
213.17	2238.43
213.39	2351.07
213.61	2340.83
213.83	2154.46
214.05	2189.28
214.27	2441.18
214.49	2179.04
214.71	2133.98
214.93	2303.96
215.15	2285.53
215.37	2301.92
215.59	2070.50
215.81	2224.09
216.03	2349.02
216.24	2263.01
216.46	2193.37
216.68	2179.04
216.90	2291.68
217.12	2336.73
217.34	2129.89
217.56	2222.05
217.78	2359.26
218.00	2279.39
218.22	2181.09
218.44	2195.42
218.66	2289.63
218.87	2428.89
219.09	2105.31
219.31	2170.85
219.53	2267.10
219.75	2183.13
219.97	2201.57
220.19	2136.03
220.41	2256.86
220.63	2334.68
220.85	2170.85
221.06	2187.23
221.28	2363.36
221.50	2355.16
221.72	2275.29
221.94	2156.51
222.16	2275.29
222.38	2396.12
222.60	2195.42
222.82	2250.72
223.03	2332.64
223.25	2176.99
223.47	2162.66
223.69	2279.39
223.91	2332.64
224.13	2238.43
224.35	2133.98
224.57	2281.44
224.78	2269.15
225.00	2176.99
225.22	2220.00
225.44	2121.70
225.66	2254.81
225.88	2162.66
226.10	2277.34
226.32	2205.66
226.53	2349.02
226.75	2199.52
226.97	2250.72
227.19	2158.56
227.41	2222.05
227.63	2189.28
227.85	2035.68
228.06	2201.57
228.28	2203.61
228.50	2369.50
228.72	2088.93
228.94	2168.80
229.16	2097.12
229.37	2211.81
229.59	2136.03
229.81	2332.64
230.03	2131.94
230.25	2146.27
230.47	2097.12
230.69	1986.53
230.90	2314.20
231.12	2160.61
231.34	2265.05
231.56	2281.44
231.78	2154.46
232.00	2232.29
232.21	2162.66
232.43	2215.90
232.65	2015.20
232.87	2273.25
233.09	2174.94
233.30	2021.35
233.52	2367.45
233.74	2205.66
233.96	2209.76
234.18	2240.48
234.40	2236.38
234.61	2457.56
234.83	2080.74
235.05	2088.93
235.27	2441.18
235.49	2303.96
235.70	2154.46
235.92	2308.06
236.14	2336.73
236.36	2506.71
236.58	2097.12
236.79	2244.57
237.01	2299.87
237.23	2226.14
237.45	2349.02
237.67	2133.98
237.88	2404.32
238.10	2469.85
238.32	2111.46
238.54	2193.37
238.76	2207.71
238.97	2220.00
239.19	2097.12
239.41	2310.11
239.63	2353.12
239.85	2090.98
240.06	2117.60
240.28	2095.07
240.50	2336.73
240.72	2211.81
240.93	2088.93
241.15	2289.63
241.37	2297.82
241.59	2361.31
241.81	2211.81
242.02	2230.24
242.24	2269.15
242.46	2179.04
242.68	2095.07
242.89	2244.57
243.11	2377.69
243.33	2258.91
243.55	2228.19
243.76	2308.06
243.98	2113.50
244.20	2207.71
244.42	2242.53
244.64	2199.52
244.85	2152.42
245.07	2150.37
245.29	2203.61
245.51	2211.81
245.72	2238.43
245.94	2340.83
246.16	2146.27
246.38	2203.61
246.59	2176.99
246.81	2115.55
247.03	2148.32
247.24	2086.88
247.46	2252.77
247.68	2258.91
247.90	2080.74
248.11	2150.37
248.33	2312.16
248.55	2291.68
248.77	2195.42
248.98	2226.14
249.20	2457.56
249.42	2232.29
249.64	2232.29
249.85	2236.38
250.07	2168.80
250.29	2324.44
250.50	2338.78
250.72	2150.37
250.94	2285.53
251.16	2484.19
251.37	2189.28
251.59	2340.83
251.81	2285.53
252.02	2351.07
252.24	2093.02
252.46	2385.88
252.68	2195.42
252.89	2217.95
253.11	2011.11
253.33	2314.20
253.54	2353.12
253.76	2123.74
253.98	2090.98
254.20	2101.22
254.41	2127.84
254.63	2203.61
254.85	2078.69
255.06	2195.42
255.28	2320.35
255.50	2193.37
255.71	2179.04
255.93	2054.11
256.15	2217.95
256.36	2291.68
256.58	2101.22
256.80	2260.96
257.02	2185.18
257.23	2285.53
257.45	2162.66
257.67	2291.68
257.88	2215.90
258.10	2293.72
258.32	2240.48
258.53	2277.34
258.75	2414.56
258.97	2197.47
259.18	2191.33
259.40	2181.09
259.62	2437.08
259.83	2410.46
260.05	2260.96
260.27	2727.89
260.48	2389.98
260.70	2115.55
260.92	2107.36
261.13	2160.61
261.35	2310.11
261.57	2310.11
261.78	2072.54
262.00	2093.02
262.22	2236.38
262.43	2240.48
262.65	2209.76
262.86	2236.38
263.08	2492.38
263.30	2314.20
263.51	2019.30
263.73	2146.27
263.95	2332.64
264.16	2162.66
264.38	2113.50
264.60	2078.69
264.81	2203.61
265.03	2289.63
265.25	2273.25
265.46	2101.22
265.68	2404.32
265.89	2346.97
266.11	2066.40
266.33	2248.67
266.54	2365.40
266.76	2289.63
266.98	2260.96
267.19	2281.44
267.41	2365.40
267.62	2258.91
267.84	2093.02
268.06	2246.62
268.27	2248.67
268.49	2228.19
268.70	2260.96
268.92	2213.85
269.14	2213.85
269.35	2084.83
269.57	2185.18
269.79	2220.00
270.00	2203.61
270.22	2471.90
270.43	2162.66
270.65	2007.01
270.87	2312.16
271.08	2338.78
271.30	2301.92
271.51	2191.33
271.73	2324.44
271.95	2398.17
272.16	2172.89
272.38	2269.15
272.59	2207.71
272.81	2250.72
273.02	2185.18
273.24	2279.39
273.46	2396.12
273.67	2138.08
273.89	2101.22
274.10	2023.39
274.32	2340.83
274.54	2273.25
274.75	2277.34
274.97	2203.61
275.18	2314.20
275.40	2375.64
275.61	2232.29
275.83	2256.86
276.05	2215.90
276.26	2236.38
276.48	2359.26
276.69	2197.47
276.91	2240.48
277.12	2447.32
277.34	2269.15
277.55	2353.12
277.77	2222.05
277.99	2242.53
278.20	2168.80
278.42	2113.50
278.63	2162.66
278.85	2185.18
279.06	2097.12
279.28	2281.44
279.49	2191.33
279.71	2342.88
279.93	2236.38
280.14	2209.76
280.36	2185.18
280.57	2373.60
280.79	2217.95
281.00	2097.12
281.22	2205.66
281.43	2346.97
281.65	2054.11
281.86	2144.22
282.08	2328.54
282.29	2453.47
282.51	2076.64
282.73	2084.83
282.94	2195.42
283.16	2344.92
283.37	2322.40
283.59	2191.33
283.80	2346.97
284.02	2267.10
284.23	2191.33
284.45	2172.89
284.66	2174.94
284.88	2207.71
285.09	2179.04
285.31	2299.87
285.52	2320.35
285.74	2088.93
285.95	2291.68
286.17	2179.04
286.38	2418.65
286.60	2197.47
286.81	2215.90
287.03	2154.46
287.24	2234.33
287.46	2353.12
287.67	2316.25
287.89	2387.93
288.10	2226.14
288.32	2277.34
288.53	2408.41
288.75	2164.70
288.96	2316.25
289.18	2179.04
289.39	2093.02
289.61	2289.63
289.82	2426.84
290.04	2428.89
290.25	2084.83
290.47	2191.33
290.68	2310.11
290.90	2287.58
291.11	2056.16
291.33	2303.96
291.54	2211.81
291.76	2197.47
291.97	2277.34
292.18	2269.15
292.40	2166.75
292.61	2142.18
292.83	2506.71
293.04	2265.05
293.26	2269.15
293.47	2252.77
293.69	2146.27
293.90	2244.57
294.12	2455.51
294.33	2287.58
294.55	2154.46
294.76	2332.64
294.97	2406.36
295.19	2480.09
295.40	2138.08
295.62	2267.10
295.83	2324.44
296.05	2191.33
296.26	2320.35
296.48	2109.41
296.69	2230.24
296.90	2195.42
297.12	2281.44
297.33	2312.16
297.55	2199.52
297.76	2303.96
297.98	2269.15
298.19	2228.19
298.41	2162.66
298.62	2148.32
298.83	2322.40
299.05	2285.53
299.26	2150.37
299.48	2189.28
299.69	2285.53
299.90	2250.72
300.12	2168.80
300.33	2301.92
300.55	2240.48
300.76	2334.68
300.98	2191.33
301.19	2297.82
301.40	2201.57
301.62	2158.56
301.83	2342.88
302.05	2260.96
302.26	2201.57
302.47	2176.99
302.69	2125.79
302.90	2273.25
303.12	2074.59
303.33	2275.29
303.54	2449.37
303.76	2209.76
303.97	2267.10
304.19	2351.07
304.40	2129.89
304.61	2355.16
304.83	2389.98
305.04	2357.21
305.26	2396.12
305.47	2244.57
305.68	2199.52
305.90	2191.33
306.11	2365.40
306.33	2209.76
306.54	2240.48
306.75	2156.51
306.97	2056.16
307.18	2187.23
307.39	2168.80
307.61	2244.57
307.82	2197.47
308.04	2279.39
308.25	2234.33
308.46	2289.63
308.68	2230.24
308.89	2267.10
309.10	2363.36
309.32	2242.53
309.53	2215.90
309.74	2318.30
309.96	2156.51
310.17	2371.55
310.39	2269.15
310.60	2258.91
310.81	2258.91
311.03	2162.66
311.24	2310.11
311.45	2289.63
311.67	2420.70
311.88	2275.29
312.09	2228.19
312.31	2164.70
312.52	2191.33
312.73	2248.67
312.95	2117.60
313.16	2133.98
313.37	2349.02
313.59	2279.39
313.80	2359.26
314.01	2363.36
314.23	2211.81
314.44	2174.94
314.65	2199.52
314.87	2187.23
315.08	2215.90
315.29	2203.61
315.51	2193.37
315.72	2138.08
315.93	2310.11
316.15	2242.53
316.36	2265.05
316.57	2267.10
316.79	2285.53
317.00	2183.13
317.21	2224.09
317.43	2211.81
317.64	2234.33
317.85	2121.70
318.07	2197.47
318.28	2301.92
318.49	2379.74
318.70	2531.29
318.92	2367.45
319.13	2467.80
319.34	2363.36
319.56	2361.31
319.77	2408.41
319.98	2383.84
320.20	2373.60
320.41	2310.11
320.62	2416.60
320.83	2138.08
321.05	2422.75
321.26	2269.15
321.47	2220.00
321.69	2346.97
321.90	2144.22
322.11	2220.00
322.32	2215.90
322.54	2469.85
322.75	2187.23
322.96	2576.34
323.18	2107.36
323.39	2074.59
323.60	2142.18
323.81	2336.73
324.03	2252.77
324.24	2260.96
324.45	2301.92
324.66	2150.37
324.88	2383.84
325.09	2408.41
325.30	2246.62
325.52	2258.91
325.73	2248.67
325.94	2064.35
326.15	2039.78
326.37	2162.66
326.58	2334.68
326.79	2381.79
327.00	2183.13
327.22	2195.42
327.43	2138.08
327.64	2156.51
327.85	2260.96
328.07	2277.34
328.28	2394.08
328.49	2146.27
328.70	2222.05
328.92	2234.33
329.13	2232.29
329.34	2365.40
329.55	2389.98
329.76	2256.86
329.98	2318.30
330.19	2357.21
330.40	2265.05
330.61	2256.86
330.83	2338.78
331.04	2217.95
331.25	2295.77
331.46	2144.22
331.68	2152.42
331.89	2369.50
332.10	2199.52
332.31	2035.68
332.52	2252.77
332.74	2344.92
332.95	2093.02
333.16	2226.14
333.37	2291.68
333.58	2199.52
333.80	2267.10
334.01	2095.07
334.22	2203.61
334.43	2131.94
334.64	2236.38
334.86	2119.65
335.07	2230.24
335.28	2392.03
335.49	2154.46
335.70	2338.78
335.92	2383.84
336.13	2559.96
336.34	2256.86
336.55	2260.96
336.76	2273.25
336.98	2037.73
337.19	2224.09
337.40	2392.03
337.61	2482.14
337.82	2283.49
338.04	2326.49
338.25	2078.69
338.46	2203.61
338.67	2179.04
338.88	2181.09
339.09	2138.08
339.31	2162.66
339.52	2256.86
339.73	2170.85
339.94	2220.00
340.15	2295.77
340.36	2222.05
340.58	2181.09
340.79	2115.55
341.00	2346.97
341.21	2111.46
341.42	2357.21
341.63	2205.66
341.85	2324.44
342.06	2217.95
342.27	2142.18
342.48	2293.72
342.69	2215.90
342.90	2297.82
343.12	2308.06
343.33	2170.85
343.54	2361.31
343.75	2346.97
343.96	2236.38
344.17	2129.89
344.38	2283.49
344.60	2119.65
344.81	2160.61
345.02	2162.66
345.23	2371.55
345.44	2441.18
345.65	2281.44
345.86	2322.40
346.07	2271.20
346.29	2224.09
346.50	2273.25
346.71	2285.53
346.92	2430.94
347.13	2392.03
347.34	2291.68
347.55	2215.90
347.76	2316.25
347.98	2125.79
348.19	2199.52
348.40	2383.84
348.61	2193.37
348.82	2410.46
349.03	2226.14
349.24	2183.13
349.45	2422.75
349.66	2088.93
349.88	2197.47
350.09	2191.33
350.30	2340.83
350.51	2359.26
350.72	2244.57
350.93	2279.39
351.14	2162.66
351.35	2324.44
351.56	2291.68
351.77	2228.19
351.99	2340.83
352.20	2467.80
352.41	2324.44
352.62	2076.64
352.83	2316.25
353.04	2279.39
353.25	2179.04
353.46	2314.20
353.67	2385.88
353.88	2064.35
354.09	2246.62
354.30	2209.76
354.52	2379.74
354.73	2189.28
354.94	2207.71
355.15	2258.91
355.36	2435.03
355.57	2252.77
355.78	2244.57
355.99	2209.76
356.20	2256.86
356.41	2373.60
356.62	2224.09
356.83	2236.38
357.04	2418.65
357.25	2109.41
357.46	2136.03
357.68	2101.22
357.89	2144.22
358.10	2183.13
358.31	2172.89
358.52	2156.51
358.73	2213.85
358.94	2140.13
359.15	2220.00
359.36	2232.29
359.57	2342.88
359.78	2230.24
359.99	2301.92
360.20	2140.13
360.41	2269.15
360.62	2365.40
360.83	2260.96
361.04	2328.54
361.25	2336.73
361.46	2469.85
361.67	2365.40
361.88	2283.49
362.09	2318.30
362.30	2281.44
362.51	2187.23
362.72	2297.82
362.93	2375.64
363.14	2306.01
363.35	2359.26
363.56	2045.92
363.78	2301.92
363.99	2322.40
364.20	2185.18
364.41	2252.77
364.62	2465.75
364.83	2234.33
365.04	2230.24
365.25	2252.77
365.46	2379.74
365.67	2220.00
365.88	2127.84
366.09	2154.46
366.30	2271.20
366.51	2252.77
366.72	2111.46
366.93	2213.85
367.14	2289.63
367.35	2375.64
367.56	2217.95
367.77	2373.60
367.98	2234.33
368.18	2340.83
368.39	2254.81
368.60	2205.66
368.81	2267.10
369.02	2238.43
369.23	2213.85
369.44	2082.78
369.65	2263.01
369.86	2246.62
370.07	2357.21
370.28	2140.13
370.49	2248.67
370.70	2308.06
370.91	2150.37
371.12	2152.42
371.33	2332.64
371.54	2244.57
371.75	2455.51
371.96	2072.54
372.17	2285.53
372.38	2170.85
372.59	2154.46
372.80	2185.18
373.01	2242.53
373.22	2351.07
373.43	2230.24
373.64	2136.03
373.85	2357.21
374.06	2400.22
374.26	2318.30
374.47	2310.11
374.68	2398.17
374.89	2269.15
375.10	2185.18
375.31	2291.68
375.52	2301.92
375.73	2209.76
375.94	2121.70
376.15	2357.21
376.36	2199.52
376.57	2250.72
376.78	2252.77
376.99	2318.30
377.20	2426.84
377.40	2258.91
377.61	2418.65
377.82	2146.27
378.03	2404.32
378.24	2332.64
378.45	2234.33
378.66	2289.63
378.87	2129.89
379.08	2023.39
379.29	2170.85
379.50	2426.84
379.71	2193.37
379.91	2314.20
380.12	2160.61
380.33	2269.15
380.54	2211.81
380.75	2236.38
380.96	2189.28
381.17	2242.53
381.38	2258.91
381.59	2363.36
381.80	2310.11
382.00	2523.10
382.21	2232.29
382.42	2437.08
382.63	2457.56
382.84	2287.58
383.05	2299.87
383.26	2473.95
383.47	2342.88
383.68	2238.43
383.88	2267.10
384.09	2291.68
384.30	2416.60
384.51	2289.63
384.72	2179.04
384.93	2146.27
385.14	2281.44
385.35	2340.83
385.55	2154.46
385.76	2371.55
385.97	2281.44
386.18	2150.37
386.39	2099.17
386.60	2240.48
386.81	2215.90
387.02	2131.94
387.22	2093.02
387.43	2387.93
387.64	2355.16
387.85	2461.66
388.06	2508.76
388.27	3923.91
388.48	8220.55
388.68	11611.98
388.89	13831.98
389.10	14972.70
389.31	13936.43
389.52	11059.03
389.73	9576.30
389.93	8638.33
390.14	7925.64
390.35	7090.07
390.56	6553.50
390.77	5308.34
390.98	4097.99
391.18	3252.17
391.39	2785.24
391.60	2373.60
391.81	2381.79
392.02	2250.72
392.23	2555.86
392.43	2297.82
392.64	2338.78
392.85	2226.14
393.06	2381.79
393.27	2295.77
393.47	2209.76
393.68	2244.57
393.89	2244.57
394.10	2402.27
394.31	2258.91
394.52	2176.99
394.72	2111.46
394.93	2428.89
395.14	2129.89
395.35	2211.81
395.56	2199.52
395.76	2215.90
395.97	2248.67
396.18	2299.87
396.39	2365.40
396.60	2789.33
396.80	2478.04
397.01	2351.07
397.22	2334.68
397.43	2490.33
397.64	2308.06
397.84	2359.26
398.05	2576.34
398.26	2389.98
398.47	2324.44
398.67	2396.12
398.88	2334.68
399.09	2342.88
399.30	2179.04
399.51	2363.36
399.71	2125.79
399.92	2234.33
400.13	2293.72
400.34	2230.24
400.54	2314.20
400.75	2412.51
400.96	2338.78
401.17	2453.47
401.37	2342.88
401.58	2283.49
401.79	2265.05
402.00	2353.12
402.21	2672.60
402.41	2525.15
402.62	2588.63
402.83	2576.34
403.04	2596.82
403.24	2811.86
403.45	2324.44
403.66	2465.75
403.87	2471.90
404.07	2527.19
404.28	2506.71
404.49	2514.91
404.70	2414.56
404.90	2330.59
405.11	2260.96
405.32	2363.36
405.52	2170.85
405.73	2211.81
405.94	2240.48
406.15	2279.39
406.35	2285.53
406.56	2314.20
406.77	2260.96
406.98	2224.09
407.18	2144.22
407.39	2447.32
407.60	2322.40
407.80	2359.26
408.01	2228.19
408.22	2338.78
408.43	2236.38
408.63	2236.38
408.84	2289.63
409.05	2387.93
409.25	2136.03
409.46	2150.37
409.67	2244.57
409.88	2201.57
410.08	2265.05
410.29	2176.99
410.50	2265.05
410.70	2291.68
410.91	2193.37
411.12	2248.67
411.32	2228.19
411.53	2183.13
411.74	2310.11
411.95	2328.54
412.15	2406.36
412.36	2447.32
412.57	2379.74
412.77	2416.60
412.98	2283.49
413.19	2279.39
413.39	2277.34
413.60	2256.86
413.81	2365.40
414.01	2168.80
414.22	2299.87
414.43	2185.18
414.63	2244.57
414.84	2340.83
415.05	2318.30
415.25	2105.31
415.46	2283.49
415.67	2271.20
415.87	2344.92
416.08	2193.37
416.29	2228.19
416.49	2326.49
416.70	2213.85
416.91	2146.27
417.11	2217.95
417.32	2310.11
417.53	2310.11
417.73	2295.77
417.94	2267.10
418.15	2217.95
418.35	2281.44
418.56	2250.72
418.77	2473.95
418.97	2273.25
419.18	2242.53
419.38	2039.78
419.59	2207.71
419.80	2439.13
420.00	2160.61
420.21	2295.77
420.42	2363.36
420.62	2289.63
420.83	2170.85
421.04	2205.66
421.24	2179.04
421.45	2361.31
421.65	2279.39
421.86	2326.49
422.07	2316.25
422.27	2289.63
422.48	2187.23
422.69	2215.90
422.89	2236.38
423.10	2277.34
423.30	2125.79
423.51	2332.64
423.72	2260.96
423.92	2398.17
424.13	2152.42
424.33	2244.57
424.54	2289.63
424.75	2254.81
424.95	2381.79
425.16	2232.29
425.36	2183.13
425.57	2400.22
425.78	2306.01
425.98	2320.35
426.19	2281.44
426.39	2179.04
426.60	2250.72
426.81	2342.88
427.01	2269.15
427.22	2129.89
427.42	2007.01
427.63	2185.18
427.83	2291.68
428.04	2387.93
428.25	2332.64
428.45	2381.79
428.66	2365.40
428.86	2170.85
429.07	2166.75
429.28	2224.09
429.48	2187.23
429.69	2189.28
429.89	2236.38
430.10	2070.50
430.30	2338.78
430.51	2387.93
430.71	2162.66
430.92	2273.25
431.13	2142.18
431.33	2244.57
431.54	2297.82
431.74	2451.42
431.95	2412.51
432.15	2226.14
432.36	2242.53
432.56	2258.91
432.77	2410.46
432.98	2465.75
433.18	2297.82
433.39	2172.89
433.59	2322.40
433.80	2512.86
434.00	2461.66
434.21	2224.09
434.41	2187.23
434.62	2557.91
434.82	2144.22
435.03	2144.22
435.23	2338.78
435.44	2138.08
435.64	2265.05
435.85	2285.53
436.06	2387.93
436.26	2402.27
436.47	2170.85
436.67	2148.32
436.88	2265.05
437.08	2275.29
437.29	2463.71
437.49	2220.00
437.70	2404.32
437.90	2308.06
438.11	2418.65
438.31	2355.16
438.52	2502.62
438.72	2441.18
438.93	2496.47
439.13	2326.49
439.34	2357.21
439.54	2291.68
439.75	2293.72
439.95	2338.78
440.16	2217.95
440.36	2297.82
440.57	2230.24
440.77	2252.77
440.98	2230.24
441.18	2392.03
441.39	2127.84
441.59	2146.27
441.80	2478.04
442.00	2267.10
442.21	2342.88
442.41	2127.84
442.62	2332.64
442.82	2224.09
443.02	2220.00
443.23	2351.07
443.43	2234.33
443.64	2410.46
443.84	2263.01
444.05	2414.56
444.25	2246.62
444.46	2211.81
444.66	2205.66
444.87	2392.03
445.07	2152.42
445.28	2293.72
445.48	2392.03
445.69	2293.72
445.89	2465.75
446.09	2306.01
446.30	2516.95
446.50	2858.96
446.71	4394.94
446.91	5488.56
447.12	6418.33
447.32	6692.76
447.53	6332.32
447.73	5181.36
447.93	4456.38
448.14	4216.77
448.34	4120.51
448.55	3559.37
448.75	3624.90
448.96	3366.86
449.16	3104.72
449.36	2897.88
449.57	2584.54
449.77	2404.32
449.98	2318.30
450.18	2416.60
450.39	2367.45
450.59	2410.46
450.79	2260.96
451.00	2281.44
451.20	2342.88
451.41	2183.13
451.61	2351.07
451.81	2246.62
452.02	2187.23
452.22	2195.42
452.43	2285.53
452.63	2172.89
