SpectraSuite Data File
++++++++++++++++++++++++++++++++++++
Date: Thu May 05 13:21:23 CEST 2016
User: root
Dark Spectrum Present: No
Reference Spectrum Present: No
Number of Sampled Component Spectra: 1
Spectrometers: USB4C02835
Integration Time (usec): 100000 (USB4C02835)
Spectra Averaged: 1 (USB4C02835)
Boxcar Smoothing: 0 (USB4C02835)
Correct for Electrical Dark: No (USB4C02835)
Strobe/Lamp Enabled: No (USB4C02835)
Correct for Detector Non-linearity: No (USB4C02835)
Correct for Stray Light: No (USB4C02835)
Number of Pixels in Processed Spectrum: 3648
>>>>>Begin Processed Spectral Data<<<<<
177.47	1798.12
177.69	1798.12
177.91	1798.12
178.13	1814.50
178.36	1785.83
178.58	2162.66
178.80	2318.30
179.02	2125.79
179.24	2185.18
179.46	2111.46
179.68	2248.67
179.90	2260.96
180.13	2203.61
180.35	2136.03
180.57	2107.36
180.79	2400.22
181.01	2293.72
181.23	2185.18
181.45	2267.10
181.67	2291.68
181.90	2303.96
182.12	2220.00
182.34	2064.35
182.56	2293.72
182.78	2271.20
183.00	2129.89
183.22	2215.90
183.44	2076.64
183.66	2553.82
183.89	2234.33
184.11	2168.80
184.33	2332.64
184.55	2324.44
184.77	2193.37
184.99	2187.23
185.21	2131.94
185.43	2519.00
185.65	2164.70
185.87	2197.47
186.10	2424.80
186.32	2469.85
186.54	2197.47
186.76	2228.19
186.98	2334.68
187.20	2195.42
187.42	2129.89
187.64	2174.94
187.86	2346.97
188.08	2338.78
188.30	2123.74
188.52	2252.77
188.75	2330.59
188.97	2326.49
189.19	2150.37
189.41	2222.05
189.63	2230.24
189.85	2129.89
190.07	2070.50
190.29	2076.64
190.51	2318.30
190.73	2105.31
190.95	2334.68
191.17	2170.85
191.39	2101.22
191.61	2240.48
191.84	2148.32
192.06	2269.15
192.28	2136.03
192.50	2484.19
192.72	2226.14
192.94	2209.76
193.16	2326.49
193.38	2236.38
193.60	2121.70
193.82	2240.48
194.04	2346.97
194.26	2240.48
194.48	2179.04
194.70	2125.79
194.92	2179.04
195.14	2277.34
195.36	2150.37
195.58	2211.81
195.80	2234.33
196.02	2211.81
196.24	2142.18
196.46	2211.81
196.69	2224.09
196.91	2572.25
197.13	2160.61
197.35	2197.47
197.57	2398.17
197.79	2308.06
198.01	2244.57
198.23	2232.29
198.45	2289.63
198.67	2140.13
198.89	2138.08
199.11	2346.97
199.33	2158.56
199.55	2093.02
199.77	2121.70
199.99	2279.39
200.21	2158.56
200.43	2252.77
200.65	2121.70
200.87	1978.34
201.09	2228.19
201.31	2285.53
201.53	2238.43
201.75	2207.71
201.97	2306.01
202.19	2228.19
202.41	2277.34
202.63	2342.88
202.85	2314.20
203.07	2289.63
203.29	2191.33
203.51	2117.60
203.73	2252.77
203.95	2574.30
204.17	2183.13
204.39	2265.05
204.61	2234.33
204.83	2209.76
205.05	2226.14
205.27	2293.72
205.49	2459.61
205.71	2248.67
205.93	2121.70
206.15	2148.32
206.37	2240.48
206.59	2203.61
206.81	2129.89
207.03	2095.07
207.25	2160.61
207.47	2244.57
207.69	2133.98
207.91	2324.44
208.13	2373.60
208.34	2238.43
208.56	2125.79
208.78	2224.09
209.00	2250.72
209.22	2244.57
209.44	2248.67
209.66	2142.18
209.88	2203.61
210.10	2146.27
210.32	2195.42
210.54	2232.29
210.76	2238.43
210.98	2359.26
211.20	2007.01
211.42	2199.52
211.64	2387.93
211.86	2361.31
212.08	2242.53
212.30	2224.09
212.52	2250.72
212.74	2346.97
212.96	2226.14
213.17	2238.43
213.39	2316.25
213.61	2424.80
213.83	2160.61
214.05	2150.37
214.27	2416.60
214.49	2105.31
214.71	2138.08
214.93	2289.63
215.15	2291.68
215.37	2256.86
215.59	2097.12
215.81	2217.95
216.03	2361.31
216.24	2310.11
216.46	2160.61
216.68	2199.52
216.90	2392.03
217.12	2316.25
217.34	2224.09
217.56	2263.01
217.78	2355.16
218.00	2293.72
218.22	2203.61
218.44	2201.57
218.66	2273.25
218.87	2430.94
219.09	2213.85
219.31	2191.33
219.53	2306.01
219.75	2183.13
219.97	2199.52
220.19	2209.76
220.41	2187.23
220.63	2437.08
220.85	2207.71
221.06	2189.28
221.28	2428.89
221.50	2326.49
221.72	2136.03
221.94	2123.74
222.16	2303.96
222.38	2426.84
222.60	2236.38
222.82	2211.81
223.03	2332.64
223.25	2222.05
223.47	2226.14
223.69	2406.36
223.91	2385.88
224.13	2279.39
224.35	2066.40
224.57	2334.68
224.78	2308.06
225.00	2224.09
225.22	2211.81
225.44	2136.03
225.66	2289.63
225.88	2201.57
226.10	2240.48
226.32	2240.48
226.53	2428.89
226.75	2187.23
226.97	2228.19
227.19	2136.03
227.41	2193.37
227.63	2170.85
227.85	2072.54
228.06	2191.33
228.28	2199.52
228.50	2322.40
228.72	2095.07
228.94	2115.55
229.16	2166.75
229.37	2148.32
229.59	2176.99
229.81	2301.92
230.03	2220.00
230.25	2090.98
230.47	2072.54
230.69	2119.65
230.90	2340.83
231.12	2191.33
231.34	2226.14
231.56	2285.53
231.78	2158.56
232.00	2299.87
232.21	2176.99
232.43	2162.66
232.65	2039.78
232.87	2322.40
233.09	2093.02
233.30	2119.65
233.52	2353.12
233.74	2201.57
233.96	2111.46
234.18	2232.29
234.40	2236.38
234.61	2439.13
234.83	2060.26
235.05	2172.89
235.27	2551.77
235.49	2424.80
235.70	2127.84
235.92	2191.33
236.14	2285.53
236.36	2453.47
236.58	2136.03
236.79	2297.82
237.01	2252.77
237.23	2160.61
237.45	2310.11
237.67	2123.74
237.88	2265.05
238.10	2404.32
238.32	2131.94
238.54	2236.38
238.76	2244.57
238.97	2154.46
239.19	2103.26
239.41	2273.25
239.63	2389.98
239.85	2140.13
240.06	2203.61
240.28	2121.70
240.50	2367.45
240.72	2193.37
240.93	2090.98
241.15	2203.61
241.37	2226.14
241.59	2242.53
241.81	2148.32
242.02	2256.86
242.24	2267.10
242.46	2277.34
242.68	2076.64
242.89	2203.61
243.11	2396.12
243.33	2230.24
243.55	2252.77
243.76	2209.76
243.98	2265.05
244.20	2287.58
244.42	2189.28
244.64	2166.75
244.85	2203.61
245.07	2090.98
245.29	2209.76
245.51	2183.13
245.72	2293.72
245.94	2455.51
246.16	2172.89
246.38	2248.67
246.59	2207.71
246.81	2176.99
247.03	2193.37
247.24	2146.27
247.46	2205.66
247.68	2230.24
247.90	2146.27
248.11	2215.90
248.33	2326.49
248.55	2265.05
248.77	2318.30
248.98	2275.29
249.20	2410.46
249.42	2242.53
249.64	2207.71
249.85	2127.84
250.07	2111.46
250.29	2334.68
250.50	2291.68
250.72	2078.69
250.94	2306.01
251.16	2504.67
251.37	2158.56
251.59	2193.37
251.81	2318.30
252.02	2334.68
252.24	2185.18
252.46	2342.88
252.68	2207.71
252.89	2138.08
253.11	1955.81
253.33	2281.44
253.54	2398.17
253.76	2121.70
253.98	2217.95
254.20	2144.22
254.41	2117.60
254.63	2277.34
254.85	2144.22
255.06	2160.61
255.28	2322.40
255.50	2228.19
255.71	2107.36
255.93	2056.16
256.15	2277.34
256.36	2295.77
256.58	2103.26
256.80	2228.19
257.02	2256.86
257.23	2226.14
257.45	2228.19
257.67	2244.57
257.88	2160.61
258.10	2318.30
258.32	2209.76
258.53	2226.14
258.75	2408.41
258.97	2211.81
259.18	2099.17
259.40	2179.04
259.62	2365.40
259.83	2396.12
260.05	2281.44
260.27	2746.33
260.48	2359.26
260.70	2142.18
260.92	2052.06
261.13	2162.66
261.35	2236.38
261.57	2254.81
261.78	2095.07
262.00	2056.16
262.22	2308.06
262.43	2162.66
262.65	2244.57
262.86	2185.18
263.08	2508.76
263.30	2207.71
263.51	1982.43
263.73	2109.41
263.95	2328.54
264.16	2211.81
264.38	2129.89
264.60	2133.98
264.81	2211.81
265.03	2287.58
265.25	2373.60
265.46	2174.94
265.68	2478.04
265.89	2289.63
266.11	2097.12
266.33	2265.05
266.54	2363.36
266.76	2269.15
266.98	2162.66
267.19	2334.68
267.41	2383.84
267.62	2283.49
267.84	2060.26
268.06	2260.96
268.27	2273.25
268.49	2299.87
268.70	2318.30
268.92	2224.09
269.14	2156.51
269.35	2201.57
269.57	2125.79
269.79	2310.11
270.00	2187.23
270.22	2490.33
270.43	2062.30
270.65	2037.73
270.87	2334.68
271.08	2338.78
271.30	2199.52
271.51	2189.28
271.73	2281.44
271.95	2383.84
272.16	2258.91
272.38	2263.01
272.59	2193.37
272.81	2299.87
273.02	2189.28
273.24	2205.66
273.46	2334.68
273.67	2213.85
273.89	2047.97
274.10	2199.52
274.32	2437.08
274.54	2269.15
274.75	2185.18
274.97	2279.39
275.18	2367.45
275.40	2297.82
275.61	2203.61
275.83	2310.11
276.05	2181.09
276.26	2238.43
276.48	2326.49
276.69	2250.72
276.91	2215.90
277.12	2398.17
277.34	2301.92
277.55	2328.54
277.77	2252.77
277.99	2236.38
278.20	2146.27
278.42	2097.12
278.63	2142.18
278.85	2129.89
279.06	2105.31
279.28	2287.58
279.49	2314.20
279.71	2349.02
279.93	2277.34
280.14	2191.33
280.36	2187.23
280.57	2383.84
280.79	2334.68
281.00	2140.13
281.22	2179.04
281.43	2367.45
281.65	2101.22
281.86	2170.85
282.08	2365.40
282.29	2473.95
282.51	2080.74
282.73	2107.36
282.94	2193.37
283.16	2410.46
283.37	2430.94
283.59	2236.38
283.80	2326.49
284.02	2260.96
284.23	2297.82
284.45	2207.71
284.66	2234.33
284.88	2179.04
285.09	2252.77
285.31	2265.05
285.52	2301.92
285.74	2148.32
285.95	2326.49
286.17	2228.19
286.38	2299.87
286.60	2242.53
286.81	2226.14
287.03	2228.19
287.24	2230.24
287.46	2285.53
287.67	2258.91
287.89	2486.23
288.10	2299.87
288.32	2205.66
288.53	2385.88
288.75	2275.29
288.96	2346.97
289.18	2166.75
289.39	2138.08
289.61	2273.25
289.82	2416.60
290.04	2396.12
290.25	2109.41
290.47	2293.72
290.68	2232.29
290.90	2344.92
291.11	2076.64
291.33	2314.20
291.54	2133.98
291.76	2203.61
291.97	2269.15
292.18	2322.40
292.40	2183.13
292.61	2228.19
292.83	2439.13
293.04	2281.44
293.26	2293.72
293.47	2228.19
293.69	2088.93
293.90	2125.79
294.12	2400.22
294.33	2275.29
294.55	2211.81
294.76	2324.44
294.97	2308.06
295.19	2422.75
295.40	2217.95
295.62	2293.72
295.83	2349.02
296.05	2232.29
296.26	2375.64
296.48	2213.85
296.69	2269.15
296.90	2244.57
297.12	2299.87
297.33	2238.43
297.55	2283.49
297.76	2318.30
297.98	2318.30
298.19	2301.92
298.41	2279.39
298.62	2140.13
298.83	2387.93
299.05	2230.24
299.26	2281.44
299.48	2220.00
299.69	2299.87
299.90	2265.05
300.12	2150.37
300.33	2383.84
300.55	2207.71
300.76	2220.00
300.98	2162.66
301.19	2387.93
301.40	2199.52
301.62	2162.66
301.83	2310.11
302.05	2244.57
302.26	2183.13
302.47	2250.72
302.69	2160.61
302.90	2297.82
303.12	2021.35
303.33	2213.85
303.54	2475.99
303.76	2226.14
303.97	2248.67
304.19	2473.95
304.40	2179.04
304.61	2344.92
304.83	2371.55
305.04	2363.36
305.26	2369.50
305.47	2232.29
305.68	2267.10
305.90	2121.70
306.11	2285.53
306.33	2234.33
306.54	2160.61
306.75	2207.71
306.97	2146.27
307.18	2207.71
307.39	2162.66
307.61	2301.92
307.82	2254.81
308.04	2301.92
308.25	2170.85
308.46	2318.30
308.68	2338.78
308.89	2232.29
309.10	2416.60
309.32	2263.01
309.53	2228.19
309.74	2301.92
309.96	2152.42
310.17	2351.07
310.39	2273.25
310.60	2314.20
310.81	2205.66
311.03	2088.93
311.24	2334.68
311.45	2256.86
311.67	2426.84
311.88	2279.39
312.09	2244.57
312.31	2197.47
312.52	2211.81
312.73	2232.29
312.95	2103.26
313.16	2068.45
313.37	2287.58
313.59	2248.67
313.80	2271.20
314.01	2432.99
314.23	2209.76
314.44	2129.89
314.65	2164.70
314.87	2195.42
315.08	2220.00
315.29	2226.14
315.51	2162.66
315.72	2203.61
315.93	2332.64
316.15	2332.64
316.36	2207.71
316.57	2269.15
316.79	2367.45
317.00	2138.08
317.21	2299.87
317.43	2154.46
317.64	2316.25
317.85	2162.66
318.07	2185.18
318.28	2187.23
318.49	2334.68
318.70	2396.12
318.92	2398.17
319.13	2418.65
319.34	2408.41
319.56	2396.12
319.77	2377.69
319.98	2367.45
320.20	2310.11
320.41	2303.96
320.62	2306.01
320.83	2187.23
321.05	2318.30
321.26	2332.64
321.47	2250.72
321.69	2473.95
321.90	2160.61
322.11	2150.37
322.32	2232.29
322.54	2500.57
322.75	2226.14
322.96	2570.20
323.18	2191.33
323.39	2084.83
323.60	2193.37
323.81	2285.53
324.03	2146.27
324.24	2144.22
324.45	2224.09
324.66	2183.13
324.88	2338.78
325.09	2430.94
325.30	2170.85
325.52	2183.13
325.73	2334.68
325.94	2199.52
326.15	2076.64
326.37	2103.26
326.58	2328.54
326.79	2453.47
327.00	2125.79
327.22	2232.29
327.43	2195.42
327.64	2150.37
327.85	2306.01
328.07	2236.38
328.28	2455.51
328.49	2146.27
328.70	2209.76
328.92	2211.81
329.13	2269.15
329.34	2349.02
329.55	2494.43
329.76	2308.06
329.98	2310.11
330.19	2320.35
330.40	2258.91
330.61	2248.67
330.83	2209.76
331.04	2252.77
331.25	2246.62
331.46	2271.20
331.68	2144.22
331.89	2344.92
332.10	2152.42
332.31	2099.17
332.52	2248.67
332.74	2396.12
332.95	2119.65
333.16	2170.85
333.37	2381.79
333.58	2189.28
333.80	2246.62
334.01	2109.41
334.22	2230.24
334.43	2256.86
334.64	2269.15
334.86	2172.89
335.07	2170.85
335.28	2420.70
335.49	2090.98
335.70	2273.25
335.92	2414.56
336.13	2406.36
336.34	2310.11
336.55	2228.19
336.76	2324.44
336.98	2095.07
337.19	2244.57
337.40	2424.80
337.61	2478.04
337.82	2246.62
338.04	2209.76
338.25	2121.70
338.46	2236.38
338.67	2123.74
338.88	2125.79
339.09	2109.41
339.31	2187.23
339.52	2099.17
339.73	2168.80
339.94	2174.94
340.15	2310.11
340.36	2254.81
340.58	2248.67
340.79	2150.37
341.00	2381.79
341.21	2228.19
341.42	2424.80
341.63	2197.47
341.85	2320.35
342.06	2230.24
342.27	2197.47
342.48	2293.72
342.69	2152.42
342.90	2250.72
343.12	2254.81
343.33	2070.50
343.54	2375.64
343.75	2379.74
343.96	2316.25
344.17	2146.27
344.38	2285.53
344.60	2224.09
344.81	2035.68
345.02	2258.91
345.23	2336.73
345.44	2461.66
345.65	2260.96
345.86	2256.86
346.07	2316.25
346.29	2156.51
346.50	2267.10
346.71	2312.16
346.92	2330.59
347.13	2510.81
347.34	2148.32
347.55	2199.52
347.76	2322.40
347.98	2170.85
348.19	2291.68
348.40	2326.49
348.61	2260.96
348.82	2408.41
349.03	2281.44
349.24	2176.99
349.45	2443.23
349.66	2146.27
349.88	2267.10
350.09	2129.89
350.30	2340.83
350.51	2408.41
350.72	2269.15
350.93	2220.00
351.14	2195.42
351.35	2277.34
351.56	2183.13
351.77	2256.86
351.99	2299.87
352.20	2359.26
352.41	2349.02
352.62	2097.12
352.83	2207.71
353.04	2263.01
353.25	2176.99
353.46	2301.92
353.67	2324.44
353.88	2088.93
354.09	2160.61
354.30	2248.67
354.52	2293.72
354.73	2236.38
354.94	2150.37
355.15	2289.63
355.36	2441.18
355.57	2203.61
355.78	2322.40
355.99	2193.37
356.20	2179.04
356.41	2342.88
356.62	2269.15
356.83	2189.28
357.04	2363.36
357.25	2138.08
357.46	2195.42
357.68	2113.50
357.89	2150.37
358.10	2258.91
358.31	2310.11
358.52	2267.10
358.73	2209.76
358.94	2093.02
359.15	2248.67
359.36	2346.97
359.57	2269.15
359.78	2267.10
359.99	2332.64
360.20	2158.56
360.41	2242.53
360.62	2385.88
360.83	2172.89
361.04	2275.29
361.25	2277.34
361.46	2387.93
361.67	2351.07
361.88	2164.70
362.09	2338.78
362.30	2242.53
362.51	2136.03
362.72	2228.19
362.93	2371.55
363.14	2346.97
363.35	2234.33
363.56	2166.75
363.78	2351.07
363.99	2344.92
364.20	2217.95
364.41	2303.96
364.62	2400.22
364.83	2365.40
365.04	2179.04
365.25	2269.15
365.46	2514.91
365.67	2242.53
365.88	2203.61
366.09	2168.80
366.30	2185.18
366.51	2242.53
366.72	2107.36
366.93	2193.37
367.14	2281.44
367.35	2445.27
367.56	2234.33
367.77	2308.06
367.98	2275.29
368.18	2267.10
368.39	2297.82
368.60	2109.41
368.81	2232.29
369.02	2342.88
369.23	2316.25
369.44	2144.22
369.65	2166.75
369.86	2297.82
370.07	2281.44
370.28	2138.08
370.49	2201.57
370.70	2367.45
370.91	2154.46
371.12	2133.98
371.33	2420.70
371.54	2125.79
371.75	2402.27
371.96	2078.69
372.17	2342.88
372.38	2209.76
372.59	2342.88
372.80	2189.28
373.01	2174.94
373.22	2254.81
373.43	2199.52
373.64	2144.22
373.85	2420.70
374.06	2449.37
374.26	2346.97
374.47	2369.50
374.68	2334.68
374.89	2273.25
375.10	2269.15
375.31	2281.44
375.52	2224.09
375.73	2308.06
375.94	2193.37
376.15	2357.21
376.36	2217.95
376.57	2234.33
376.78	2283.49
376.99	2269.15
377.20	2340.83
377.40	2230.24
377.61	2416.60
377.82	2162.66
378.03	2432.99
378.24	2322.40
378.45	2236.38
378.66	2301.92
378.87	2113.50
379.08	2095.07
379.29	2230.24
379.50	2322.40
379.71	2250.72
379.91	2342.88
380.12	2244.57
380.33	2273.25
380.54	2187.23
380.75	2289.63
380.96	2166.75
381.17	2289.63
381.38	2236.38
381.59	2240.48
381.80	2244.57
382.00	2412.51
382.21	2326.49
382.42	2525.15
382.63	2459.61
382.84	2314.20
383.05	2342.88
383.26	2500.57
383.47	2318.30
383.68	2346.97
383.88	2263.01
384.09	2181.09
384.30	2398.17
384.51	2310.11
384.72	2158.56
384.93	2193.37
385.14	2306.01
385.35	2344.92
385.55	2129.89
385.76	2424.80
385.97	2215.90
386.18	2146.27
386.39	2154.46
386.60	2181.09
386.81	2275.29
387.02	2080.74
387.22	2168.80
387.43	2336.73
387.64	2281.44
387.85	2426.84
388.06	2449.37
388.27	3973.06
388.48	8097.67
388.68	11675.47
388.89	13719.34
389.10	14835.49
389.31	13813.55
389.52	10696.54
389.73	9310.07
389.93	8593.28
390.14	7952.26
390.35	7128.98
390.56	6342.56
390.77	5207.98
390.98	4122.56
391.18	3311.57
391.39	2703.32
391.60	2336.73
391.81	2457.56
392.02	2283.49
392.23	2455.51
392.43	2293.72
392.64	2420.70
392.85	2277.34
393.06	2439.13
393.27	2244.57
393.47	2187.23
393.68	2154.46
393.89	2260.96
394.10	2308.06
394.31	2187.23
394.52	2170.85
394.72	2193.37
394.93	2430.94
395.14	2176.99
395.35	2285.53
395.56	2228.19
395.76	2215.90
395.97	2303.96
396.18	2359.26
396.39	2363.36
396.60	2707.41
396.80	2580.44
397.01	2416.60
397.22	2377.69
397.43	2418.65
397.64	2232.29
397.84	2322.40
398.05	2504.67
398.26	2260.96
398.47	2349.02
398.67	2383.84
398.88	2273.25
399.09	2340.83
399.30	2281.44
399.51	2256.86
399.71	2154.46
399.92	2334.68
400.13	2308.06
400.34	2201.57
400.54	2301.92
400.75	2469.85
400.96	2373.60
401.17	2377.69
401.37	2336.73
401.58	2236.38
401.79	2260.96
402.00	2324.44
402.21	2637.78
402.41	2463.71
402.62	2588.63
402.83	2715.61
403.04	2695.13
403.24	2815.96
403.45	2432.99
403.66	2525.15
403.87	2512.86
404.07	2471.90
404.28	2510.81
404.49	2545.63
404.70	2277.34
404.90	2285.53
405.11	2295.77
405.32	2334.68
405.52	2111.46
405.73	2217.95
405.94	2142.18
406.15	2281.44
406.35	2392.03
406.56	2359.26
406.77	2306.01
406.98	2240.48
407.18	2170.85
407.39	2420.70
407.60	2279.39
407.80	2250.72
408.01	2236.38
408.22	2273.25
408.43	2191.33
408.63	2293.72
408.84	2318.30
409.05	2328.54
409.25	2146.27
409.46	2193.37
409.67	2228.19
409.88	2174.94
410.08	2252.77
410.29	2154.46
410.50	2295.77
410.70	2260.96
410.91	2095.07
411.12	2248.67
411.32	2269.15
411.53	2207.71
411.74	2375.64
411.95	2340.83
412.15	2326.49
412.36	2340.83
412.57	2377.69
412.77	2318.30
412.98	2332.64
413.19	2240.48
413.39	2263.01
413.60	2336.73
413.81	2392.03
414.01	2150.37
414.22	2289.63
414.43	2387.93
414.63	2215.90
414.84	2359.26
415.05	2215.90
415.25	2121.70
415.46	2277.34
415.67	2158.56
415.87	2263.01
416.08	2308.06
416.29	2125.79
416.49	2232.29
416.70	2136.03
416.91	2250.72
417.11	2211.81
417.32	2342.88
417.53	2346.97
417.73	2260.96
417.94	2168.80
418.15	2306.01
418.35	2301.92
418.56	2287.58
418.77	2543.58
418.97	2224.09
419.18	2258.91
419.38	2007.01
419.59	2258.91
419.80	2473.95
420.00	2207.71
420.21	2232.29
420.42	2381.79
420.62	2256.86
420.83	2205.66
421.04	2236.38
421.24	2207.71
421.45	2289.63
421.65	2306.01
421.86	2279.39
422.07	2381.79
422.27	2332.64
422.48	2258.91
422.69	2189.28
422.89	2273.25
423.10	2234.33
423.30	2187.23
423.51	2297.82
423.72	2301.92
423.92	2371.55
424.13	2062.30
424.33	2222.05
424.54	2359.26
424.75	2220.00
424.95	2385.88
425.16	2269.15
425.36	2162.66
425.57	2383.84
425.78	2318.30
425.98	2293.72
426.19	2234.33
426.39	2179.04
426.60	2281.44
426.81	2432.99
427.01	2306.01
427.22	2168.80
427.42	2127.84
427.63	2160.61
427.83	2365.40
428.04	2377.69
428.25	2346.97
428.45	2340.83
428.66	2375.64
428.86	2275.29
429.07	2297.82
429.28	2199.52
429.48	2256.86
429.69	2244.57
429.89	2265.05
430.10	2142.18
430.30	2275.29
430.51	2381.79
430.71	2158.56
430.92	2265.05
431.13	2162.66
431.33	2359.26
431.54	2220.00
431.74	2430.94
431.95	2457.56
432.15	2166.75
432.36	2260.96
432.56	2334.68
432.77	2412.51
432.98	2420.70
433.18	2265.05
433.39	2240.48
433.59	2273.25
433.80	2461.66
434.00	2447.32
434.21	2226.14
434.41	2234.33
434.62	2545.63
434.82	2193.37
435.03	2125.79
435.23	2365.40
435.44	2172.89
435.64	2174.94
435.85	2267.10
436.06	2301.92
436.26	2318.30
436.47	2244.57
436.67	2213.85
436.88	2357.21
437.08	2377.69
437.29	2371.55
437.49	2324.44
437.70	2408.41
437.90	2164.70
438.11	2453.47
438.31	2330.59
438.52	2449.37
438.72	2490.33
438.93	2578.39
439.13	2367.45
439.34	2443.23
439.54	2308.06
439.75	2322.40
439.95	2349.02
440.16	2220.00
440.36	2336.73
440.57	2260.96
440.77	2199.52
440.98	2232.29
441.18	2353.12
441.39	2191.33
441.59	2197.47
441.80	2416.60
442.00	2285.53
442.21	2381.79
442.41	2101.22
442.62	2412.51
442.82	2119.65
443.02	2242.53
443.23	2195.42
443.43	2244.57
443.64	2451.42
443.84	2185.18
444.05	2373.60
444.25	2267.10
444.46	2260.96
444.66	2297.82
444.87	2396.12
445.07	2064.35
445.28	2336.73
445.48	2475.99
445.69	2297.82
445.89	2463.71
446.09	2265.05
446.30	2564.06
446.50	2785.24
446.71	4419.52
446.91	5543.85
447.12	6332.32
447.32	6700.95
447.53	6123.43
447.73	5212.08
447.93	4571.07
448.14	4261.82
448.34	4042.69
448.55	3665.86
448.75	3526.60
448.96	3508.17
449.16	3121.10
449.36	2908.12
449.57	2570.20
449.77	2389.98
449.98	2258.91
450.18	2375.64
450.39	2326.49
450.59	2332.64
450.79	2209.76
451.00	2183.13
451.20	2246.62
451.41	2174.94
451.61	2349.02
451.81	2299.87
452.02	2234.33
452.22	2246.62
452.43	2258.91
452.63	2170.85
