SpectraSuite Data File
++++++++++++++++++++++++++++++++++++
Date: Thu May 05 13:21:24 CEST 2016
User: root
Dark Spectrum Present: No
Reference Spectrum Present: No
Number of Sampled Component Spectra: 1
Spectrometers: USB4C02835
Integration Time (usec): 100000 (USB4C02835)
Spectra Averaged: 1 (USB4C02835)
Boxcar Smoothing: 0 (USB4C02835)
Correct for Electrical Dark: No (USB4C02835)
Strobe/Lamp Enabled: No (USB4C02835)
Correct for Detector Non-linearity: No (USB4C02835)
Correct for Stray Light: No (USB4C02835)
Number of Pixels in Processed Spectrum: 3648
>>>>>Begin Processed Spectral Data<<<<<
177.47	1769.44
177.69	1769.44
177.91	1769.44
178.13	1814.50
178.36	1810.40
178.58	2193.37
178.80	2281.44
179.02	2058.21
179.24	2146.27
179.46	2136.03
179.68	2189.28
179.90	2189.28
180.13	2260.96
180.35	2199.52
180.57	2099.17
180.79	2308.06
181.01	2306.01
181.23	2199.52
181.45	2283.49
181.67	2228.19
181.90	2324.44
182.12	2170.85
182.34	2072.54
182.56	2293.72
182.78	2246.62
183.00	2170.85
183.22	2228.19
183.44	2095.07
183.66	2547.67
183.89	2299.87
184.11	2193.37
184.33	2301.92
184.55	2383.84
184.77	2256.86
184.99	2252.77
185.21	2158.56
185.43	2572.25
185.65	2138.08
185.87	2119.65
186.10	2504.67
186.32	2492.38
186.54	2277.34
186.76	2265.05
186.98	2277.34
187.20	2220.00
187.42	2246.62
187.64	2095.07
187.86	2297.82
188.08	2332.64
188.30	2080.74
188.52	2168.80
188.75	2396.12
188.97	2361.31
189.19	2140.13
189.41	2195.42
189.63	2316.25
189.85	2244.57
190.07	2080.74
190.29	2105.31
190.51	2260.96
190.73	2133.98
190.95	2244.57
191.17	2213.85
191.39	2187.23
191.61	2230.24
191.84	2179.04
192.06	2310.11
192.28	2176.99
192.50	2572.25
192.72	2185.18
192.94	2187.23
193.16	2332.64
193.38	2240.48
193.60	2142.18
193.82	2220.00
194.04	2346.97
194.26	2293.72
194.48	2181.09
194.70	2154.46
194.92	2127.84
195.14	2314.20
195.36	2064.35
195.58	2166.75
195.80	2220.00
196.02	2170.85
196.24	2047.97
196.46	2191.33
196.69	2226.14
196.91	2557.91
197.13	2250.72
197.35	2176.99
197.57	2334.68
197.79	2414.56
198.01	2285.53
198.23	2271.20
198.45	2232.29
198.67	2136.03
198.89	2113.50
199.11	2301.92
199.33	2133.98
199.55	2119.65
199.77	2195.42
199.99	2301.92
200.21	2197.47
200.43	2211.81
200.65	2068.45
200.87	2035.68
201.09	2301.92
201.31	2187.23
201.53	2166.75
201.75	2170.85
201.97	2248.67
202.19	2217.95
202.41	2236.38
202.63	2326.49
202.85	2357.21
203.07	2273.25
203.29	2242.53
203.51	2033.63
203.73	2228.19
203.95	2473.95
204.17	2246.62
204.39	2174.94
204.61	2283.49
204.83	2168.80
205.05	2254.81
205.27	2301.92
205.49	2455.51
205.71	2277.34
205.93	2070.50
206.15	2203.61
206.37	2291.68
206.59	2232.29
206.81	2088.93
207.03	2080.74
207.25	2191.33
207.47	2392.03
207.69	2191.33
207.91	2326.49
208.13	2445.27
208.34	2111.46
208.56	2115.55
208.78	2195.42
209.00	2234.33
209.22	2195.42
209.44	2142.18
209.66	2172.89
209.88	2297.82
210.10	2248.67
210.32	2209.76
210.54	2244.57
210.76	2236.38
210.98	2303.96
211.20	2056.16
211.42	2224.09
211.64	2355.16
211.86	2289.63
212.08	2207.71
212.30	2185.18
212.52	2199.52
212.74	2324.44
212.96	2205.66
213.17	2215.90
213.39	2389.98
213.61	2449.37
213.83	2117.60
214.05	2222.05
214.27	2346.97
214.49	2136.03
214.71	2168.80
214.93	2349.02
215.15	2232.29
215.37	2299.87
215.59	2031.58
215.81	2236.38
216.03	2289.63
216.24	2215.90
216.46	2181.09
216.68	2240.48
216.90	2387.93
217.12	2318.30
217.34	2160.61
217.56	2299.87
217.78	2373.60
218.00	2326.49
218.22	2207.71
218.44	2170.85
218.66	2267.10
218.87	2312.16
219.09	2154.46
219.31	2265.05
219.53	2316.25
219.75	2248.67
219.97	2195.42
220.19	2179.04
220.41	2260.96
220.63	2455.51
220.85	2209.76
221.06	2154.46
221.28	2426.84
221.50	2314.20
221.72	2252.77
221.94	2150.37
222.16	2291.68
222.38	2332.64
222.60	2187.23
222.82	2127.84
223.03	2344.92
223.25	2191.33
223.47	2211.81
223.69	2265.05
223.91	2285.53
224.13	2363.36
224.35	2113.50
224.57	2316.25
224.78	2308.06
225.00	2205.66
225.22	2174.94
225.44	2086.88
225.66	2351.07
225.88	2293.72
226.10	2170.85
226.32	2240.48
226.53	2338.78
226.75	2150.37
226.97	2201.57
227.19	2138.08
227.41	2146.27
227.63	2211.81
227.85	2054.11
228.06	2185.18
228.28	2287.58
228.50	2308.06
228.72	2054.11
228.94	2162.66
229.16	2039.78
229.37	2117.60
229.59	2152.42
229.81	2326.49
230.03	2246.62
230.25	2068.45
230.47	2101.22
230.69	2138.08
230.90	2381.79
231.12	2191.33
231.34	2226.14
231.56	2228.19
231.78	2193.37
232.00	2295.77
232.21	2215.90
232.43	2150.37
232.65	2070.50
232.87	2310.11
233.09	2123.74
233.30	2084.83
233.52	2342.88
233.74	2211.81
233.96	2260.96
234.18	2232.29
234.40	2201.57
234.61	2402.27
234.83	2146.27
235.05	2064.35
235.27	2441.18
235.49	2406.36
235.70	2226.14
235.92	2248.67
236.14	2314.20
236.36	2602.97
236.58	2082.78
236.79	2222.05
237.01	2232.29
237.23	2293.72
237.45	2310.11
237.67	2109.41
237.88	2389.98
238.10	2469.85
238.32	2076.64
238.54	2217.95
238.76	2179.04
238.97	2179.04
239.19	2170.85
239.41	2230.24
239.63	2373.60
239.85	2195.42
240.06	2170.85
240.28	2170.85
240.50	2424.80
240.72	2215.90
240.93	2205.66
241.15	2256.86
241.37	2258.91
241.59	2408.41
241.81	2136.03
242.02	2236.38
242.24	2209.76
242.46	2336.73
242.68	2078.69
242.89	2160.61
243.11	2301.92
243.33	2207.71
243.55	2222.05
243.76	2269.15
243.98	2121.70
244.20	2295.77
244.42	2220.00
244.64	2195.42
244.85	2107.36
245.07	2156.51
245.29	2176.99
245.51	2125.79
245.72	2209.76
245.94	2369.50
246.16	2191.33
246.38	2189.28
246.59	2205.66
246.81	2224.09
247.03	2072.54
247.24	2117.60
247.46	2211.81
247.68	2293.72
247.90	2129.89
248.11	2146.27
248.33	2344.92
248.55	2285.53
248.77	2234.33
248.98	2256.86
249.20	2478.04
249.42	2205.66
249.64	2209.76
249.85	2088.93
250.07	2244.57
250.29	2234.33
250.50	2232.29
250.72	2127.84
250.94	2285.53
251.16	2457.56
251.37	2215.90
251.59	2258.91
251.81	2357.21
252.02	2371.55
252.24	2105.31
252.46	2367.45
252.68	2228.19
252.89	2197.47
253.11	2078.69
253.33	2291.68
253.54	2373.60
253.76	2115.55
253.98	2203.61
254.20	2170.85
254.41	2183.13
254.63	2179.04
254.85	2105.31
255.06	2213.85
255.28	2277.34
255.50	2250.72
255.71	2115.55
255.93	2058.21
256.15	2297.82
256.36	2297.82
256.58	2166.75
256.80	2172.89
257.02	2152.42
257.23	2164.70
257.45	2207.71
257.67	2297.82
257.88	2181.09
258.10	2295.77
258.32	2080.74
258.53	2211.81
258.75	2322.40
258.97	2170.85
259.18	2215.90
259.40	2205.66
259.62	2422.75
259.83	2465.75
260.05	2228.19
260.27	2717.65
260.48	2383.84
260.70	2183.13
260.92	2187.23
261.13	2168.80
261.35	2297.82
261.57	2396.12
261.78	2146.27
262.00	2109.41
262.22	2318.30
262.43	2215.90
262.65	2185.18
262.86	2203.61
263.08	2494.43
263.30	2215.90
263.51	2070.50
263.73	2148.32
263.95	2459.61
264.16	2232.29
264.38	2119.65
264.60	2172.89
264.81	2299.87
265.03	2318.30
265.25	2383.84
265.46	2146.27
265.68	2418.65
265.89	2289.63
266.11	2033.63
266.33	2193.37
266.54	2355.16
266.76	2254.81
266.98	2236.38
267.19	2301.92
267.41	2310.11
267.62	2236.38
267.84	2095.07
268.06	2297.82
268.27	2340.83
268.49	2396.12
268.70	2318.30
268.92	2195.42
269.14	2215.90
269.35	2162.66
269.57	2203.61
269.79	2256.86
270.00	2197.47
270.22	2449.37
270.43	2103.26
270.65	2035.68
270.87	2203.61
271.08	2316.25
271.30	2242.53
271.51	2170.85
271.73	2349.02
271.95	2392.03
272.16	2195.42
272.38	2224.09
272.59	2256.86
272.81	2334.68
273.02	2217.95
273.24	2158.56
273.46	2263.01
273.67	2172.89
273.89	2138.08
274.10	2131.94
274.32	2394.08
274.54	2238.43
274.75	2217.95
274.97	2230.24
275.18	2287.58
275.40	2267.10
275.61	2211.81
275.83	2203.61
276.05	2064.35
276.26	2211.81
276.48	2258.91
276.69	2217.95
276.91	2172.89
277.12	2396.12
277.34	2228.19
277.55	2375.64
277.77	2256.86
277.99	2291.68
278.20	2236.38
278.42	2043.87
278.63	2174.94
278.85	2172.89
279.06	2160.61
279.28	2303.96
279.49	2338.78
279.71	2351.07
279.93	2224.09
280.14	2181.09
280.36	2176.99
280.57	2404.32
280.79	2271.20
281.00	2183.13
281.22	2150.37
281.43	2383.84
281.65	2050.02
281.86	2193.37
282.08	2306.01
282.29	2490.33
282.51	2189.28
282.73	2162.66
282.94	2156.51
283.16	2297.82
283.37	2416.60
283.59	2250.72
283.80	2342.88
284.02	2244.57
284.23	2158.56
284.45	2265.05
284.66	2195.42
284.88	2213.85
285.09	2201.57
285.31	2308.06
285.52	2256.86
285.74	2121.70
285.95	2275.29
286.17	2263.01
286.38	2357.21
286.60	2152.42
286.81	2205.66
287.03	2236.38
287.24	2240.48
287.46	2342.88
287.67	2240.48
287.89	2385.88
288.10	2232.29
288.32	2260.96
288.53	2367.45
288.75	2220.00
288.96	2342.88
289.18	2160.61
289.39	2226.14
289.61	2375.64
289.82	2463.71
290.04	2451.42
290.25	2095.07
290.47	2240.48
290.68	2232.29
290.90	2258.91
291.11	2088.93
291.33	2322.40
291.54	2136.03
291.76	2267.10
291.97	2222.05
292.18	2320.35
292.40	2293.72
292.61	2187.23
292.83	2482.14
293.04	2273.25
293.26	2289.63
293.47	2193.37
293.69	2142.18
293.90	2121.70
294.12	2285.53
294.33	2248.67
294.55	2230.24
294.76	2314.20
294.97	2400.22
295.19	2480.09
295.40	2234.33
295.62	2283.49
295.83	2324.44
296.05	2217.95
296.26	2308.06
296.48	2193.37
296.69	2244.57
296.90	2193.37
297.12	2232.29
297.33	2351.07
297.55	2293.72
297.76	2285.53
297.98	2330.59
298.19	2217.95
298.41	2279.39
298.62	2187.23
298.83	2355.16
299.05	2297.82
299.26	2252.77
299.48	2170.85
299.69	2244.57
299.90	2183.13
300.12	2179.04
300.33	2310.11
300.55	2226.14
300.76	2289.63
300.98	2111.46
301.19	2340.83
301.40	2236.38
301.62	2181.09
301.83	2303.96
302.05	2256.86
302.26	2168.80
302.47	2236.38
302.69	2187.23
302.90	2269.15
303.12	2007.01
303.33	2324.44
303.54	2420.70
303.76	2211.81
303.97	2250.72
304.19	2369.50
304.40	2064.35
304.61	2260.96
304.83	2369.50
305.04	2295.77
305.26	2293.72
305.47	2209.76
305.68	2295.77
305.90	2127.84
306.11	2351.07
306.33	2234.33
306.54	2213.85
306.75	2146.27
306.97	2119.65
307.18	2258.91
307.39	2203.61
307.61	2332.64
307.82	2258.91
308.04	2283.49
308.25	2043.87
308.46	2326.49
308.68	2179.04
308.89	2275.29
309.10	2342.88
309.32	2287.58
309.53	2306.01
309.74	2226.14
309.96	2179.04
310.17	2357.21
310.39	2207.71
310.60	2226.14
310.81	2197.47
311.03	2078.69
311.24	2248.67
311.45	2244.57
311.67	2383.84
311.88	2269.15
312.09	2252.77
312.31	2146.27
312.52	2193.37
312.73	2179.04
312.95	2127.84
313.16	2199.52
313.37	2381.79
313.59	2281.44
313.80	2340.83
314.01	2463.71
314.23	2203.61
314.44	2154.46
314.65	2119.65
314.87	2185.18
315.08	2267.10
315.29	2203.61
315.51	2125.79
315.72	2115.55
315.93	2373.60
316.15	2287.58
316.36	2230.24
316.57	2277.34
316.79	2224.09
317.00	2230.24
317.21	2230.24
317.43	2209.76
317.64	2234.33
317.85	2187.23
318.07	2201.57
318.28	2170.85
318.49	2379.74
318.70	2523.10
318.92	2385.88
319.13	2346.97
319.34	2412.51
319.56	2406.36
319.77	2383.84
319.98	2426.84
320.20	2389.98
320.41	2342.88
320.62	2373.60
320.83	2263.01
321.05	2469.85
321.26	2211.81
321.47	2334.68
321.69	2312.16
321.90	2123.74
322.11	2199.52
322.32	2299.87
322.54	2367.45
322.75	2187.23
322.96	2480.09
323.18	2058.21
323.39	2082.78
323.60	2090.98
323.81	2277.34
324.03	2199.52
324.24	2263.01
324.45	2230.24
324.66	2203.61
324.88	2416.60
325.09	2428.89
325.30	2193.37
325.52	2250.72
325.73	2359.26
325.94	2154.46
326.15	2129.89
326.37	2211.81
326.58	2316.25
326.79	2363.36
327.00	2179.04
327.22	2318.30
327.43	2152.42
327.64	2199.52
327.85	2242.53
328.07	2260.96
328.28	2408.41
328.49	2207.71
328.70	2193.37
328.92	2207.71
329.13	2224.09
329.34	2269.15
329.55	2457.56
329.76	2291.68
329.98	2258.91
330.19	2408.41
330.40	2387.93
330.61	2256.86
330.83	2359.26
331.04	2220.00
331.25	2293.72
331.46	2234.33
331.68	2160.61
331.89	2349.02
332.10	2217.95
332.31	2031.58
332.52	2246.62
332.74	2392.03
332.95	2119.65
333.16	2191.33
333.37	2389.98
333.58	2242.53
333.80	2250.72
334.01	2088.93
334.22	2342.88
334.43	2101.22
334.64	2228.19
334.86	2117.60
335.07	2088.93
335.28	2359.26
335.49	2125.79
335.70	2244.57
335.92	2365.40
336.13	2441.18
336.34	2293.72
336.55	2281.44
336.76	2258.91
336.98	2070.50
337.19	2093.02
337.40	2428.89
337.61	2596.82
337.82	2281.44
338.04	2250.72
338.25	2058.21
338.46	2293.72
338.67	2318.30
338.88	2133.98
339.09	2193.37
339.31	2201.57
339.52	2144.22
339.73	2160.61
339.94	2273.25
340.15	2349.02
340.36	2217.95
340.58	2179.04
340.79	2133.98
341.00	2326.49
341.21	2197.47
341.42	2400.22
341.63	2187.23
341.85	2349.02
342.06	2226.14
342.27	2086.88
342.48	2297.82
342.69	2103.26
342.90	2326.49
343.12	2299.87
343.33	2166.75
343.54	2306.01
343.75	2367.45
343.96	2209.76
344.17	2215.90
344.38	2256.86
344.60	2097.12
344.81	2209.76
345.02	2242.53
345.23	2355.16
345.44	2494.43
345.65	2281.44
345.86	2263.01
346.07	2258.91
346.29	2252.77
346.50	2281.44
346.71	2316.25
346.92	2340.83
347.13	2521.05
347.34	2220.00
347.55	2217.95
347.76	2365.40
347.98	2078.69
348.19	2224.09
348.40	2344.92
348.61	2138.08
348.82	2416.60
349.03	2297.82
349.24	2129.89
349.45	2363.36
349.66	2119.65
349.88	2254.81
350.09	2123.74
350.30	2406.36
350.51	2396.12
350.72	2220.00
350.93	2232.29
351.14	2234.33
351.35	2287.58
351.56	2330.59
351.77	2224.09
351.99	2355.16
352.20	2465.75
352.41	2318.30
352.62	2152.42
352.83	2213.85
353.04	2314.20
353.25	2183.13
353.46	2336.73
353.67	2406.36
353.88	2099.17
354.09	2263.01
354.30	2187.23
354.52	2301.92
354.73	2232.29
354.94	2203.61
355.15	2232.29
355.36	2553.82
355.57	2119.65
355.78	2236.38
355.99	2211.81
356.20	2187.23
356.41	2400.22
356.62	2252.77
356.83	2314.20
357.04	2310.11
357.25	2052.06
357.46	2105.31
357.68	2093.02
357.89	2203.61
358.10	2281.44
358.31	2215.90
358.52	2191.33
358.73	2181.09
358.94	2154.46
359.15	2168.80
359.36	2289.63
359.57	2224.09
359.78	2301.92
359.99	2299.87
360.20	2127.84
360.41	2271.20
360.62	2324.44
360.83	2316.25
361.04	2217.95
361.25	2334.68
361.46	2408.41
361.67	2312.16
361.88	2275.29
362.09	2232.29
362.30	2275.29
362.51	2285.53
362.72	2199.52
362.93	2359.26
363.14	2295.77
363.35	2281.44
363.56	2193.37
363.78	2383.84
363.99	2389.98
364.20	2193.37
364.41	2293.72
364.62	2490.33
364.83	2359.26
365.04	2199.52
365.25	2246.62
365.46	2435.03
365.67	2152.42
365.88	2232.29
366.09	2236.38
366.30	2226.14
366.51	2252.77
366.72	2154.46
366.93	2176.99
367.14	2189.28
367.35	2355.16
367.56	2224.09
367.77	2279.39
367.98	2254.81
368.18	2244.57
368.39	2314.20
368.60	2105.31
368.81	2338.78
369.02	2330.59
369.23	2242.53
369.44	2138.08
369.65	2189.28
369.86	2275.29
370.07	2363.36
370.28	2107.36
370.49	2324.44
370.70	2342.88
370.91	2174.94
371.12	2097.12
371.33	2441.18
371.54	2193.37
371.75	2363.36
371.96	2088.93
372.17	2275.29
372.38	2158.56
372.59	2326.49
372.80	2226.14
373.01	2195.42
373.22	2322.40
373.43	2287.58
373.64	2052.06
373.85	2367.45
374.06	2414.56
374.26	2295.77
374.47	2275.29
374.68	2455.51
374.89	2344.92
375.10	2220.00
375.31	2275.29
375.52	2275.29
375.73	2260.96
375.94	2236.38
376.15	2400.22
376.36	2201.57
376.57	2209.76
376.78	2142.18
376.99	2312.16
377.20	2416.60
377.40	2265.05
377.61	2400.22
377.82	2136.03
378.03	2385.88
378.24	2416.60
378.45	2220.00
378.66	2226.14
378.87	2090.98
379.08	2113.50
379.29	2170.85
379.50	2439.13
379.71	2260.96
379.91	2363.36
380.12	2252.77
380.33	2248.67
380.54	2283.49
380.75	2228.19
380.96	2215.90
381.17	2318.30
381.38	2265.05
381.59	2291.68
381.80	2234.33
382.00	2385.88
382.21	2277.34
382.42	2504.67
382.63	2449.37
382.84	2242.53
383.05	2336.73
383.26	2502.62
383.47	2224.09
383.68	2252.77
383.88	2273.25
384.09	2334.68
384.30	2416.60
384.51	2277.34
384.72	2240.48
384.93	2146.27
385.14	2254.81
385.35	2330.59
385.55	2187.23
385.76	2357.21
385.97	2205.66
386.18	2203.61
386.39	2142.18
386.60	2199.52
386.81	2234.33
387.02	2195.42
387.22	2117.60
387.43	2398.17
387.64	2248.67
387.85	2351.07
388.06	2432.99
388.27	3966.92
388.48	8243.07
388.68	11474.77
388.89	14075.69
389.10	15218.46
389.31	13743.92
389.52	10915.67
389.73	9357.17
389.93	8484.73
390.14	7956.36
390.35	7100.31
390.56	6338.46
390.77	5158.83
390.98	4052.93
391.18	3282.89
391.39	2713.56
391.60	2346.97
391.81	2475.99
392.02	2252.77
392.23	2611.16
392.43	2295.77
392.64	2449.37
392.85	2271.20
393.06	2449.37
393.27	2287.58
393.47	2172.89
393.68	2236.38
393.89	2207.71
394.10	2338.78
394.31	2193.37
394.52	2195.42
394.72	2230.24
394.93	2455.51
395.14	2117.60
395.35	2293.72
395.56	2170.85
395.76	2277.34
395.97	2299.87
396.18	2351.07
396.39	2408.41
396.60	2625.50
396.80	2457.56
397.01	2365.40
397.22	2465.75
397.43	2490.33
397.64	2267.10
397.84	2322.40
398.05	2502.62
398.26	2217.95
398.47	2316.25
398.67	2316.25
398.88	2320.35
399.09	2320.35
399.30	2228.19
399.51	2263.01
399.71	2211.81
399.92	2267.10
400.13	2392.03
400.34	2232.29
400.54	2258.91
400.75	2392.03
400.96	2260.96
401.17	2449.37
401.37	2400.22
401.58	2234.33
401.79	2318.30
402.00	2389.98
402.21	2625.50
402.41	2529.24
402.62	2570.20
402.83	2654.17
403.04	2731.99
403.24	2740.18
403.45	2461.66
403.66	2535.39
403.87	2494.43
404.07	2473.95
404.28	2553.82
404.49	2465.75
404.70	2234.33
404.90	2326.49
405.11	2285.53
405.32	2277.34
405.52	2281.44
405.73	2220.00
405.94	2156.51
406.15	2205.66
406.35	2375.64
406.56	2297.82
406.77	2326.49
406.98	2346.97
407.18	2170.85
407.39	2418.65
407.60	2183.13
407.80	2322.40
408.01	2158.56
408.22	2308.06
408.43	2242.53
408.63	2334.68
408.84	2371.55
409.05	2357.21
409.25	2211.81
409.46	2207.71
409.67	2226.14
409.88	2127.84
410.08	2293.72
410.29	2217.95
410.50	2342.88
410.70	2349.02
410.91	2234.33
411.12	2301.92
411.32	2285.53
411.53	2095.07
411.74	2389.98
411.95	2318.30
412.15	2336.73
412.36	2400.22
412.57	2357.21
412.77	2422.75
412.98	2285.53
413.19	2215.90
413.39	2236.38
413.60	2351.07
413.81	2377.69
414.01	2224.09
414.22	2277.34
414.43	2367.45
414.63	2252.77
414.84	2412.51
415.05	2203.61
415.25	2058.21
415.46	2285.53
415.67	2246.62
415.87	2301.92
416.08	2248.67
416.29	2193.37
416.49	2293.72
416.70	2244.57
416.91	2195.42
417.11	2265.05
417.32	2449.37
417.53	2318.30
417.73	2258.91
417.94	2226.14
418.15	2332.64
418.35	2267.10
418.56	2277.34
418.77	2574.30
418.97	2281.44
419.18	2295.77
419.38	2066.40
419.59	2236.38
419.80	2441.18
420.00	2246.62
420.21	2213.85
420.42	2363.36
420.62	2265.05
420.83	2185.18
421.04	2183.13
421.24	2269.15
421.45	2310.11
421.65	2326.49
421.86	2179.04
422.07	2371.55
422.27	2310.11
422.48	2250.72
422.69	2217.95
422.89	2195.42
423.10	2236.38
423.30	2179.04
423.51	2285.53
423.72	2258.91
423.92	2316.25
424.13	2191.33
424.33	2293.72
424.54	2392.03
424.75	2238.43
424.95	2365.40
425.16	2185.18
425.36	2244.57
425.57	2404.32
425.78	2310.11
425.98	2260.96
426.19	2224.09
426.39	2109.41
426.60	2324.44
426.81	2369.50
427.01	2191.33
427.22	2187.23
427.42	2105.31
427.63	2146.27
427.83	2320.35
428.04	2447.32
428.25	2389.98
428.45	2351.07
428.66	2416.60
428.86	2303.96
429.07	2279.39
429.28	2283.49
429.48	2242.53
429.69	2129.89
429.89	2308.06
430.10	2127.84
430.30	2269.15
430.51	2410.46
430.71	2185.18
430.92	2342.88
431.13	2117.60
431.33	2295.77
431.54	2256.86
431.74	2416.60
431.95	2469.85
432.15	2140.13
432.36	2306.01
432.56	2260.96
432.77	2449.37
432.98	2455.51
433.18	2215.90
433.39	2205.66
433.59	2217.95
433.80	2516.95
434.00	2478.04
434.21	2234.33
434.41	2222.05
434.62	2488.28
434.82	2133.98
435.03	2203.61
435.23	2324.44
435.44	2185.18
435.64	2160.61
435.85	2265.05
436.06	2242.53
436.26	2340.83
436.47	2244.57
436.67	2152.42
436.88	2252.77
437.08	2367.45
437.29	2420.70
437.49	2260.96
437.70	2400.22
437.90	2312.16
438.11	2510.81
438.31	2267.10
438.52	2443.23
438.72	2443.23
438.93	2525.15
439.13	2381.79
439.34	2369.50
439.54	2185.18
439.75	2381.79
439.95	2357.21
440.16	2269.15
440.36	2217.95
440.57	2277.34
440.77	2258.91
440.98	2220.00
441.18	2387.93
441.39	2248.67
441.59	2078.69
441.80	2498.52
442.00	2351.07
442.21	2379.74
442.41	2185.18
442.62	2359.26
442.82	2176.99
443.02	2193.37
443.23	2293.72
443.43	2240.48
443.64	2408.41
443.84	2172.89
444.05	2336.73
444.25	2330.59
444.46	2211.81
444.66	2242.53
444.87	2392.03
445.07	2222.05
445.28	2213.85
445.48	2359.26
445.69	2234.33
445.89	2545.63
446.09	2281.44
446.30	2543.58
446.50	2869.20
446.71	4409.28
446.91	5648.30
447.12	6338.46
447.32	6606.75
447.53	6072.23
447.73	5089.20
447.93	4552.63
448.14	4263.87
448.34	4100.03
448.55	3602.38
448.75	3487.69
448.96	3389.39
449.16	3088.34
449.36	2858.96
449.57	2611.16
449.77	2381.79
449.98	2248.67
450.18	2363.36
450.39	2332.64
450.59	2359.26
450.79	2181.09
451.00	2244.57
451.20	2375.64
451.41	2170.85
451.61	2236.38
451.81	2334.68
452.02	2275.29
452.22	2275.29
452.43	2252.77
452.63	2226.14
