SpectraSuite Data File
++++++++++++++++++++++++++++++++++++
Date: Thu May 05 13:21:04 CEST 2016
User: root
Dark Spectrum Present: No
Reference Spectrum Present: No
Number of Sampled Component Spectra: 1
Spectrometers: USB4C02835
Integration Time (usec): 100000 (USB4C02835)
Spectra Averaged: 1 (USB4C02835)
Boxcar Smoothing: 0 (USB4C02835)
Correct for Electrical Dark: No (USB4C02835)
Strobe/Lamp Enabled: No (USB4C02835)
Correct for Detector Non-linearity: No (USB4C02835)
Correct for Stray Light: No (USB4C02835)
Number of Pixels in Processed Spectrum: 3648
>>>>>Begin Processed Spectral Data<<<<<
177.47	1748.97
177.69	1748.97
177.91	1748.97
178.13	1802.21
178.36	1814.50
178.58	2086.88
178.80	2308.06
179.02	2084.83
179.24	2121.70
179.46	2113.50
179.68	2277.34
179.90	2244.57
180.13	2248.67
180.35	2152.42
180.57	2176.99
180.79	2334.68
181.01	2154.46
181.23	2217.95
181.45	2269.15
181.67	2340.83
181.90	2275.29
182.12	2191.33
182.34	2058.21
182.56	2301.92
182.78	2330.59
183.00	2154.46
183.22	2232.29
183.44	2060.26
183.66	2545.63
183.89	2260.96
184.11	2234.33
184.33	2283.49
184.55	2351.07
184.77	2154.46
184.99	2189.28
185.21	2144.22
185.43	2420.70
185.65	2187.23
185.87	2189.28
186.10	2492.38
186.32	2488.28
186.54	2224.09
186.76	2254.81
186.98	2330.59
187.20	2254.81
187.42	2129.89
187.64	2166.75
187.86	2318.30
188.08	2351.07
188.30	2021.35
188.52	2250.72
188.75	2375.64
188.97	2492.38
189.19	2203.61
189.41	2209.76
189.63	2355.16
189.85	2271.20
190.07	2054.11
190.29	2064.35
190.51	2283.49
190.73	2093.02
190.95	2287.58
191.17	2191.33
191.39	2146.27
191.61	2248.67
191.84	2162.66
192.06	2248.67
192.28	2033.63
192.50	2512.86
192.72	2187.23
192.94	2205.66
193.16	2377.69
193.38	2326.49
193.60	2093.02
193.82	2193.37
194.04	2318.30
194.26	2336.73
194.48	2220.00
194.70	2123.74
194.92	2236.38
195.14	2316.25
195.36	2109.41
195.58	2193.37
195.80	2236.38
196.02	2166.75
196.24	2146.27
196.46	2228.19
196.69	2283.49
196.91	2537.43
197.13	2146.27
197.35	2205.66
197.57	2387.93
197.79	2240.48
198.01	2256.86
198.23	2267.10
198.45	2365.40
198.67	2172.89
198.89	2080.74
199.11	2306.01
199.33	2121.70
199.55	2023.39
199.77	2232.29
199.99	2303.96
200.21	2176.99
200.43	2260.96
200.65	2054.11
200.87	2086.88
201.09	2267.10
201.31	2211.81
201.53	2207.71
201.75	2207.71
201.97	2232.29
202.19	2260.96
202.41	2244.57
202.63	2289.63
202.85	2351.07
203.07	2242.53
203.29	2142.18
203.51	2148.32
203.73	2193.37
203.95	2543.58
204.17	2205.66
204.39	2275.29
204.61	2277.34
204.83	2269.15
205.05	2283.49
205.27	2299.87
205.49	2498.52
205.71	2203.61
205.93	2045.92
206.15	2090.98
206.37	2297.82
206.59	2240.48
206.81	2154.46
207.03	2125.79
207.25	2109.41
207.47	2371.55
207.69	2133.98
207.91	2396.12
208.13	2400.22
208.34	2168.80
208.56	2138.08
208.78	2183.13
209.00	2195.42
209.22	2248.67
209.44	2152.42
209.66	2142.18
209.88	2334.68
210.10	2248.67
210.32	2189.28
210.54	2369.50
210.76	2220.00
210.98	2414.56
211.20	2097.12
211.42	2252.77
211.64	2349.02
211.86	2228.19
212.08	2258.91
212.30	2172.89
212.52	2215.90
212.74	2310.11
212.96	2226.14
213.17	2228.19
213.39	2363.36
213.61	2301.92
213.83	2215.90
214.05	2234.33
214.27	2412.51
214.49	2115.55
214.71	2197.47
214.93	2236.38
215.15	2289.63
215.37	2275.29
215.59	2035.68
215.81	2240.48
216.03	2398.17
216.24	2191.33
216.46	2248.67
216.68	2187.23
216.90	2437.08
217.12	2367.45
217.34	2146.27
217.56	2252.77
217.78	2422.75
218.00	2293.72
218.22	2209.76
218.44	2260.96
218.66	2324.44
218.87	2506.71
219.09	2109.41
219.31	2191.33
219.53	2256.86
219.75	2248.67
219.97	2199.52
220.19	2234.33
220.41	2222.05
220.63	2420.70
220.85	2162.66
221.06	2236.38
221.28	2332.64
221.50	2340.83
221.72	2199.52
221.94	2203.61
222.16	2207.71
222.38	2281.44
222.60	2203.61
222.82	2162.66
223.03	2353.12
223.25	2166.75
223.47	2140.13
223.69	2285.53
223.91	2373.60
224.13	2248.67
224.35	2121.70
224.57	2324.44
224.78	2314.20
225.00	2160.61
225.22	2195.42
225.44	2207.71
225.66	2351.07
225.88	2234.33
226.10	2240.48
226.32	2185.18
226.53	2334.68
226.75	2228.19
226.97	2228.19
227.19	2166.75
227.41	2195.42
227.63	2228.19
227.85	2119.65
228.06	2203.61
228.28	2187.23
228.50	2215.90
228.72	2168.80
228.94	2142.18
229.16	2007.01
229.37	2105.31
229.59	2101.22
229.81	2301.92
230.03	2242.53
230.25	2078.69
230.47	2129.89
230.69	2203.61
230.90	2240.48
231.12	2213.85
231.34	2187.23
231.56	2232.29
231.78	2176.99
232.00	2269.15
232.21	2234.33
232.43	2148.32
232.65	2043.87
232.87	2283.49
233.09	2058.21
233.30	2117.60
233.52	2338.78
233.74	2226.14
233.96	2201.57
234.18	2191.33
234.40	2303.96
234.61	2480.09
234.83	2103.26
235.05	2084.83
235.27	2523.10
235.49	2408.41
235.70	2121.70
235.92	2248.67
236.14	2277.34
236.36	2539.48
236.58	2095.07
236.79	2260.96
237.01	2248.67
237.23	2215.90
237.45	2328.54
237.67	2160.61
237.88	2285.53
238.10	2475.99
238.32	2131.94
238.54	2179.04
238.76	2207.71
238.97	2156.51
239.19	2086.88
239.41	2174.94
239.63	2463.71
239.85	2203.61
240.06	2176.99
240.28	2160.61
240.50	2306.01
240.72	2256.86
240.93	2127.84
241.15	2209.76
241.37	2187.23
241.59	2353.12
241.81	2211.81
242.02	2224.09
242.24	2291.68
242.46	2306.01
242.68	2129.89
242.89	2199.52
243.11	2322.40
243.33	2336.73
243.55	2213.85
243.76	2246.62
243.98	2146.27
244.20	2275.29
244.42	2133.98
244.64	2232.29
244.85	2093.02
245.07	2179.04
245.29	2213.85
245.51	2205.66
245.72	2265.05
245.94	2435.03
246.16	2191.33
246.38	2207.71
246.59	2220.00
246.81	2179.04
247.03	2109.41
247.24	2043.87
247.46	2158.56
247.68	2334.68
247.90	2115.55
248.11	2228.19
248.33	2369.50
248.55	2236.38
248.77	2162.66
248.98	2211.81
249.20	2500.57
249.42	2267.10
249.64	2252.77
249.85	2244.57
250.07	2203.61
250.29	2258.91
250.50	2277.34
250.72	2127.84
250.94	2330.59
251.16	2437.08
251.37	2144.22
251.59	2191.33
251.81	2359.26
252.02	2398.17
252.24	2172.89
252.46	2342.88
252.68	2197.47
252.89	2189.28
253.11	2088.93
253.33	2324.44
253.54	2326.49
253.76	2133.98
253.98	2119.65
254.20	2142.18
254.41	2168.80
254.63	2312.16
254.85	2076.64
255.06	2146.27
255.28	2340.83
255.50	2265.05
255.71	2203.61
255.93	2125.79
256.15	2197.47
256.36	2326.49
256.58	2162.66
256.80	2203.61
257.02	2271.20
257.23	2211.81
257.45	2162.66
257.67	2213.85
257.88	2207.71
258.10	2320.35
258.32	2166.75
258.53	2179.04
258.75	2443.23
258.97	2181.09
259.18	2160.61
259.40	2113.50
259.62	2465.75
259.83	2418.65
260.05	2228.19
260.27	2676.70
260.48	2351.07
260.70	2191.33
260.92	2136.03
261.13	2162.66
261.35	2332.64
261.57	2340.83
261.78	2070.50
262.00	2144.22
262.22	2383.84
262.43	2289.63
262.65	2183.13
262.86	2168.80
263.08	2471.90
263.30	2240.48
263.51	2043.87
263.73	2156.51
263.95	2349.02
264.16	2260.96
264.38	2099.17
264.60	2148.32
264.81	2275.29
265.03	2316.25
265.25	2283.49
265.46	2113.50
265.68	2416.60
265.89	2363.36
266.11	2103.26
266.33	2193.37
266.54	2387.93
266.76	2308.06
266.98	2338.78
267.19	2359.26
267.41	2346.97
267.62	2228.19
267.84	2072.54
268.06	2234.33
268.27	2228.19
268.49	2349.02
268.70	2220.00
268.92	2154.46
269.14	2146.27
269.35	2119.65
269.57	2170.85
269.79	2271.20
270.00	2156.51
270.22	2445.27
270.43	2088.93
270.65	2023.39
270.87	2351.07
271.08	2320.35
271.30	2209.76
271.51	2152.42
271.73	2365.40
271.95	2387.93
272.16	2133.98
272.38	2238.43
272.59	2189.28
272.81	2371.55
273.02	2088.93
273.24	2234.33
273.46	2365.40
273.67	2179.04
273.89	2101.22
274.10	2109.41
274.32	2287.58
274.54	2277.34
274.75	2236.38
274.97	2127.84
275.18	2359.26
275.40	2240.48
275.61	2236.38
275.83	2242.53
276.05	2117.60
276.26	2310.11
276.48	2191.33
276.69	2238.43
276.91	2164.70
277.12	2324.44
277.34	2301.92
277.55	2244.57
277.77	2250.72
277.99	2199.52
278.20	2099.17
278.42	2066.40
278.63	2181.09
278.85	2199.52
279.06	2193.37
279.28	2324.44
279.49	2383.84
279.71	2367.45
279.93	2170.85
280.14	2236.38
280.36	2140.13
280.57	2340.83
280.79	2324.44
281.00	2170.85
281.22	2179.04
281.43	2314.20
281.65	2072.54
281.86	2174.94
282.08	2332.64
282.29	2410.46
282.51	2113.50
282.73	2080.74
282.94	2074.59
283.16	2351.07
283.37	2410.46
283.59	2256.86
283.80	2320.35
284.02	2285.53
284.23	2275.29
284.45	2074.59
284.66	2172.89
284.88	2234.33
285.09	2287.58
285.31	2287.58
285.52	2281.44
285.74	2097.12
285.95	2297.82
286.17	2250.72
286.38	2392.03
286.60	2203.61
286.81	2209.76
287.03	2191.33
287.24	2222.05
287.46	2301.92
287.67	2293.72
287.89	2377.69
288.10	2303.96
288.32	2424.80
288.53	2359.26
288.75	2277.34
288.96	2279.39
289.18	2187.23
289.39	2291.68
289.61	2291.68
289.82	2473.95
290.04	2449.37
290.25	2170.85
290.47	2211.81
290.68	2242.53
290.90	2342.88
291.11	2095.07
291.33	2226.14
291.54	2113.50
291.76	2170.85
291.97	2234.33
292.18	2238.43
292.40	2269.15
292.61	2226.14
292.83	2465.75
293.04	2285.53
293.26	2187.23
293.47	2099.17
293.69	2162.66
293.90	2176.99
294.12	2363.36
294.33	2232.29
294.55	2226.14
294.76	2316.25
294.97	2297.82
295.19	2445.27
295.40	2148.32
295.62	2234.33
295.83	2279.39
296.05	2146.27
296.26	2263.01
296.48	2150.37
296.69	2232.29
296.90	2250.72
297.12	2389.98
297.33	2346.97
297.55	2242.53
297.76	2275.29
297.98	2367.45
298.19	2238.43
298.41	2252.77
298.62	2117.60
298.83	2340.83
299.05	2246.62
299.26	2162.66
299.48	2160.61
299.69	2265.05
299.90	2289.63
300.12	2129.89
300.33	2361.31
300.55	2301.92
300.76	2336.73
300.98	2174.94
301.19	2308.06
301.40	2211.81
301.62	2158.56
301.83	2246.62
302.05	2314.20
302.26	2250.72
302.47	2301.92
302.69	2170.85
302.90	2312.16
303.12	1925.09
303.33	2334.68
303.54	2410.46
303.76	2220.00
303.97	2260.96
304.19	2353.12
304.40	2205.66
304.61	2269.15
304.83	2344.92
305.04	2408.41
305.26	2310.11
305.47	2220.00
305.68	2213.85
305.90	2121.70
306.11	2375.64
306.33	2271.20
306.54	2127.84
306.75	2222.05
306.97	2117.60
307.18	2185.18
307.39	2195.42
307.61	2242.53
307.82	2252.77
308.04	2310.11
308.25	2232.29
308.46	2271.20
308.68	2242.53
308.89	2195.42
309.10	2303.96
309.32	2250.72
309.53	2269.15
309.74	2271.20
309.96	2154.46
310.17	2289.63
310.39	2201.57
310.60	2334.68
310.81	2256.86
311.03	2105.31
311.24	2365.40
311.45	2263.01
311.67	2422.75
311.88	2252.77
312.09	2228.19
312.31	2209.76
312.52	2203.61
312.73	2250.72
312.95	2105.31
313.16	2179.04
313.37	2385.88
313.59	2295.77
313.80	2326.49
314.01	2428.89
314.23	2211.81
314.44	2127.84
314.65	2101.22
314.87	2154.46
315.08	2224.09
315.29	2183.13
315.51	2183.13
315.72	2166.75
315.93	2328.54
316.15	2269.15
316.36	2170.85
316.57	2297.82
316.79	2281.44
317.00	2133.98
317.21	2291.68
317.43	2107.36
317.64	2267.10
317.85	2099.17
318.07	2193.37
318.28	2285.53
318.49	2322.40
318.70	2559.96
318.92	2383.84
319.13	2357.21
319.34	2443.23
319.56	2361.31
319.77	2334.68
319.98	2369.50
320.20	2365.40
320.41	2336.73
320.62	2375.64
320.83	2119.65
321.05	2400.22
321.26	2301.92
321.47	2271.20
321.69	2351.07
321.90	2172.89
322.11	2156.51
322.32	2293.72
322.54	2389.98
322.75	2138.08
322.96	2576.34
323.18	2152.42
323.39	2152.42
323.60	2121.70
323.81	2306.01
324.03	2232.29
324.24	2246.62
324.45	2265.05
324.66	2119.65
324.88	2357.21
325.09	2392.03
325.30	2201.57
325.52	2207.71
325.73	2338.78
325.94	2101.22
326.15	2064.35
326.37	2158.56
326.58	2224.09
326.79	2435.03
327.00	2181.09
327.22	2230.24
327.43	2256.86
327.64	2121.70
327.85	2342.88
328.07	2308.06
328.28	2461.66
328.49	2220.00
328.70	2316.25
328.92	2187.23
329.13	2129.89
329.34	2353.12
329.55	2412.51
329.76	2310.11
329.98	2271.20
330.19	2416.60
330.40	2246.62
330.61	2260.96
330.83	2346.97
331.04	2224.09
331.25	2252.77
331.46	2222.05
331.68	2168.80
331.89	2383.84
332.10	2303.96
332.31	2138.08
332.52	2179.04
332.74	2303.96
332.95	2101.22
333.16	2166.75
333.37	2234.33
333.58	2248.67
333.80	2265.05
334.01	2125.79
334.22	2162.66
334.43	2154.46
334.64	2258.91
334.86	2105.31
335.07	2107.36
335.28	2426.84
335.49	2138.08
335.70	2289.63
335.92	2340.83
336.13	2420.70
336.34	2394.08
336.55	2320.35
336.76	2238.43
336.98	2136.03
337.19	2263.01
337.40	2359.26
337.61	2504.67
337.82	2240.48
338.04	2320.35
338.25	2117.60
338.46	2217.95
338.67	2236.38
338.88	2111.46
339.09	2093.02
339.31	2183.13
339.52	2152.42
339.73	2095.07
339.94	2209.76
340.15	2332.64
340.36	2242.53
340.58	2332.64
340.79	2101.22
341.00	2301.92
341.21	2211.81
341.42	2363.36
341.63	2224.09
341.85	2398.17
342.06	2260.96
342.27	2123.74
342.48	2359.26
342.69	2136.03
342.90	2320.35
343.12	2322.40
343.33	2170.85
343.54	2328.54
343.75	2404.32
343.96	2193.37
344.17	2193.37
344.38	2269.15
344.60	2103.26
344.81	2144.22
345.02	2205.66
345.23	2291.68
345.44	2529.24
345.65	2338.78
345.86	2269.15
346.07	2316.25
346.29	2209.76
346.50	2220.00
346.71	2306.01
346.92	2367.45
347.13	2467.80
347.34	2183.13
347.55	2119.65
347.76	2301.92
347.98	2078.69
348.19	2220.00
348.40	2363.36
348.61	2224.09
348.82	2463.71
349.03	2301.92
349.24	2138.08
349.45	2461.66
349.66	2060.26
349.88	2195.42
350.09	2158.56
350.30	2389.98
350.51	2316.25
350.72	2244.57
350.93	2265.05
351.14	2267.10
351.35	2293.72
351.56	2248.67
351.77	2185.18
351.99	2318.30
352.20	2375.64
352.41	2310.11
352.62	2172.89
352.83	2217.95
353.04	2271.20
353.25	2174.94
353.46	2322.40
353.67	2373.60
353.88	2066.40
354.09	2310.11
354.30	2250.72
354.52	2295.77
354.73	2256.86
354.94	2258.91
355.15	2275.29
355.36	2430.94
355.57	2240.48
355.78	2349.02
355.99	2267.10
356.20	2242.53
356.41	2424.80
356.62	2285.53
356.83	2273.25
357.04	2428.89
357.25	2029.54
357.46	2152.42
357.68	2103.26
357.89	2195.42
358.10	2197.47
358.31	2185.18
358.52	2217.95
358.73	2142.18
358.94	2217.95
359.15	2211.81
359.36	2293.72
359.57	2127.84
359.78	2158.56
359.99	2277.34
360.20	2193.37
360.41	2101.22
360.62	2375.64
360.83	2246.62
361.04	2283.49
361.25	2308.06
361.46	2455.51
361.67	2301.92
361.88	2299.87
362.09	2359.26
362.30	2334.68
362.51	2222.05
362.72	2215.90
362.93	2359.26
363.14	2242.53
363.35	2297.82
363.56	2191.33
363.78	2389.98
363.99	2332.64
364.20	2179.04
364.41	2267.10
364.62	2441.18
364.83	2271.20
365.04	2185.18
365.25	2236.38
365.46	2572.25
365.67	2197.47
365.88	2285.53
366.09	2142.18
366.30	2279.39
366.51	2301.92
366.72	2109.41
366.93	2222.05
367.14	2263.01
367.35	2375.64
367.56	2197.47
367.77	2365.40
367.98	2195.42
368.18	2396.12
368.39	2222.05
368.60	2207.71
368.81	2324.44
369.02	2299.87
369.23	2170.85
369.44	2119.65
369.65	2213.85
369.86	2260.96
370.07	2312.16
370.28	2269.15
370.49	2220.00
370.70	2349.02
370.91	2136.03
371.12	2058.21
371.33	2359.26
371.54	2232.29
371.75	2326.49
371.96	2013.15
372.17	2275.29
372.38	2346.97
372.59	2213.85
372.80	2277.34
373.01	2308.06
373.22	2287.58
373.43	2244.57
373.64	2131.94
373.85	2301.92
374.06	2547.67
374.26	2373.60
374.47	2269.15
374.68	2420.70
374.89	2365.40
375.10	2146.27
375.31	2240.48
375.52	2244.57
375.73	2344.92
375.94	2160.61
376.15	2324.44
376.36	2222.05
376.57	2187.23
376.78	2154.46
376.99	2254.81
377.20	2441.18
377.40	2250.72
377.61	2457.56
377.82	2203.61
378.03	2392.03
378.24	2275.29
378.45	2203.61
378.66	2226.14
378.87	2195.42
379.08	2086.88
379.29	2209.76
379.50	2439.13
379.71	2277.34
379.91	2322.40
380.12	2281.44
380.33	2265.05
380.54	2260.96
380.75	2228.19
380.96	2250.72
381.17	2330.59
381.38	2246.62
381.59	2242.53
381.80	2179.04
382.00	2432.99
382.21	2301.92
382.42	2441.18
382.63	2510.81
382.84	2330.59
383.05	2406.36
383.26	2488.28
383.47	2220.00
383.68	2355.16
383.88	2357.21
384.09	2269.15
384.30	2406.36
384.51	2279.39
384.72	2142.18
384.93	2133.98
385.14	2236.38
385.35	2322.40
385.55	2119.65
385.76	2377.69
385.97	2183.13
386.18	2064.35
386.39	2189.28
386.60	2211.81
386.81	2242.53
387.02	2123.74
387.22	2140.13
387.43	2383.84
387.64	2314.20
387.85	2342.88
388.06	2439.13
388.27	4001.73
388.48	8066.95
388.68	11458.39
388.89	13809.45
389.10	14837.53
389.31	13881.13
389.52	10778.46
389.73	9305.97
389.93	8519.55
390.14	7790.47
390.35	7063.44
390.56	6301.60
390.77	5337.01
390.98	4030.40
391.18	3194.83
391.39	2752.47
391.60	2281.44
391.81	2357.21
392.02	2234.33
392.23	2482.14
392.43	2285.53
392.64	2355.16
392.85	2263.01
393.06	2570.20
393.27	2265.05
393.47	2160.61
393.68	2203.61
393.89	2160.61
394.10	2443.23
394.31	2248.67
394.52	2176.99
394.72	2162.66
394.93	2328.54
395.14	2138.08
395.35	2301.92
395.56	2174.94
395.76	2172.89
395.97	2334.68
396.18	2318.30
396.39	2375.64
396.60	2691.03
396.80	2578.39
397.01	2404.32
397.22	2373.60
397.43	2392.03
397.64	2213.85
397.84	2310.11
398.05	2478.04
398.26	2281.44
398.47	2432.99
398.67	2326.49
398.88	2254.81
399.09	2328.54
399.30	2160.61
399.51	2328.54
399.71	2166.75
399.92	2252.77
400.13	2320.35
400.34	2308.06
400.54	2293.72
400.75	2404.32
400.96	2299.87
401.17	2445.27
401.37	2308.06
401.58	2291.68
401.79	2236.38
402.00	2422.75
402.21	2625.50
402.41	2625.50
402.62	2645.98
402.83	2660.31
403.04	2645.98
403.24	2877.40
403.45	2406.36
403.66	2576.34
403.87	2498.52
404.07	2490.33
404.28	2519.00
404.49	2402.27
404.70	2383.84
404.90	2326.49
405.11	2349.02
405.32	2316.25
405.52	2158.56
405.73	2240.48
405.94	2230.24
406.15	2267.10
406.35	2316.25
406.56	2324.44
406.77	2291.68
406.98	2256.86
407.18	2140.13
407.39	2428.89
407.60	2211.81
407.80	2260.96
408.01	2189.28
408.22	2209.76
408.43	2127.84
408.63	2291.68
408.84	2367.45
409.05	2404.32
409.25	2209.76
409.46	2211.81
409.67	2269.15
409.88	2244.57
410.08	2273.25
410.29	2170.85
410.50	2277.34
410.70	2338.78
410.91	2183.13
411.12	2306.01
411.32	2238.43
411.53	2211.81
411.74	2312.16
411.95	2322.40
412.15	2316.25
412.36	2424.80
412.57	2367.45
412.77	2389.98
412.98	2252.77
413.19	2228.19
413.39	2301.92
413.60	2328.54
413.81	2443.23
414.01	2172.89
414.22	2334.68
414.43	2301.92
414.63	2215.90
414.84	2449.37
415.05	2224.09
415.25	2107.36
415.46	2326.49
415.67	2193.37
415.87	2240.48
416.08	2250.72
416.29	2258.91
416.49	2351.07
416.70	2308.06
416.91	2191.33
417.11	2275.29
417.32	2398.17
417.53	2351.07
417.73	2349.02
417.94	2187.23
418.15	2193.37
418.35	2332.64
418.56	2234.33
418.77	2420.70
418.97	2275.29
419.18	2224.09
419.38	2076.64
419.59	2281.44
419.80	2361.31
420.00	2242.53
420.21	2265.05
420.42	2379.74
420.62	2287.58
420.83	2189.28
421.04	2226.14
421.24	2273.25
421.45	2330.59
421.65	2332.64
421.86	2287.58
422.07	2400.22
422.27	2252.77
422.48	2187.23
422.69	2144.22
422.89	2267.10
423.10	2129.89
423.30	2146.27
423.51	2230.24
423.72	2408.41
423.92	2349.02
424.13	2158.56
424.33	2316.25
424.54	2357.21
424.75	2263.01
424.95	2426.84
425.16	2375.64
425.36	2236.38
425.57	2316.25
425.78	2338.78
425.98	2359.26
426.19	2176.99
426.39	2183.13
426.60	2246.62
426.81	2373.60
427.01	2170.85
427.22	2133.98
427.42	2066.40
427.63	2199.52
427.83	2291.68
428.04	2459.61
428.25	2371.55
428.45	2355.16
428.66	2396.12
428.86	2215.90
429.07	2228.19
429.28	2228.19
429.48	2291.68
429.69	2168.80
429.89	2285.53
430.10	2220.00
430.30	2234.33
430.51	2316.25
430.71	2250.72
430.92	2207.71
431.13	2166.75
431.33	2275.29
431.54	2301.92
431.74	2457.56
431.95	2531.29
432.15	2158.56
432.36	2281.44
432.56	2338.78
432.77	2461.66
432.98	2439.13
433.18	2340.83
433.39	2248.67
433.59	2179.04
433.80	2461.66
434.00	2400.22
434.21	2166.75
434.41	2170.85
434.62	2527.19
434.82	2168.80
435.03	2179.04
435.23	2297.82
435.44	2123.74
435.64	2203.61
435.85	2324.44
436.06	2318.30
436.26	2316.25
436.47	2205.66
436.67	2172.89
436.88	2162.66
437.08	2338.78
437.29	2404.32
437.49	2342.88
437.70	2373.60
437.90	2310.11
438.11	2422.75
438.31	2308.06
438.52	2404.32
438.72	2469.85
438.93	2514.91
439.13	2326.49
439.34	2420.70
439.54	2293.72
439.75	2398.17
439.95	2338.78
440.16	2207.71
440.36	2314.20
440.57	2248.67
440.77	2314.20
440.98	2275.29
441.18	2314.20
441.39	2193.37
441.59	2162.66
441.80	2455.51
442.00	2277.34
442.21	2441.18
442.41	2082.78
442.62	2291.68
442.82	2242.53
443.02	2269.15
443.23	2271.20
443.43	2220.00
443.64	2428.89
443.84	2138.08
444.05	2449.37
444.25	2310.11
444.46	2275.29
444.66	2168.80
444.87	2318.30
445.07	2156.51
445.28	2293.72
445.48	2365.40
445.69	2289.63
445.89	2492.38
446.09	2301.92
446.30	2578.39
446.50	2877.40
446.71	4298.69
446.91	5394.35
447.12	6262.69
447.32	6653.85
447.53	6111.14
447.73	5203.89
447.93	4517.82
448.14	4112.32
448.34	4120.51
448.55	3637.19
448.75	3565.51
448.96	3348.43
449.16	3059.67
449.36	2891.73
449.57	2523.10
449.77	2389.98
449.98	2306.01
450.18	2332.64
450.39	2320.35
450.59	2283.49
450.79	2324.44
451.00	2195.42
451.20	2394.08
451.41	2211.81
451.61	2389.98
451.81	2289.63
452.02	2185.18
452.22	2228.19
452.43	2138.08
452.63	2217.95
