SpectraSuite Data File
++++++++++++++++++++++++++++++++++++
Date: Mon Jun 06 13:21:37 CEST 2016
User: root
Dark Spectrum Present: No
Reference Spectrum Present: No
Number of Sampled Component Spectra: 1
Spectrometers: USB4C02835
Integration Time (usec): 100000 (USB4C02835)
Spectra Averaged: 1 (USB4C02835)
Boxcar Smoothing: 0 (USB4C02835)
Correct for Electrical Dark: No (USB4C02835)
Strobe/Lamp Enabled: No (USB4C02835)
Correct for Detector Non-linearity: No (USB4C02835)
Correct for Stray Light: No (USB4C02835)
Number of Pixels in Processed Spectrum: 3648
>>>>>Begin Processed Spectral Data<<<<<
177.47	1423.34
177.69	1423.34
177.91	1423.34
178.13	1456.11
178.36	1501.16
178.58	1611.75
178.80	1845.22
179.02	1613.80
179.24	1634.28
179.46	1669.09
179.68	1751.01
179.90	1757.16
180.13	1628.14
180.35	1621.99
180.57	1632.23
180.79	1746.92
181.01	1658.85
181.23	1683.43
181.45	1775.59
181.67	1720.29
181.90	1734.63
182.12	1656.81
182.34	1689.57
182.56	1701.86
182.78	1701.86
183.00	1658.85
183.22	1722.34
183.44	1535.98
183.66	1791.97
183.89	1769.44
184.11	1710.05
184.33	1712.10
184.55	1705.96
184.77	1673.19
184.99	1732.58
185.21	1703.91
185.43	1828.84
185.65	1665.00
185.87	1650.66
186.10	1791.97
186.32	1812.45
186.54	1718.25
186.76	1724.39
186.98	1677.29
187.20	1677.29
187.42	1605.61
187.64	1722.34
187.86	1697.77
188.08	1683.43
188.30	1781.73
188.52	1650.66
188.75	1751.01
188.97	1746.92
189.19	1621.99
189.41	1740.77
189.63	1697.77
189.85	1624.04
190.07	1601.51
190.29	1650.66
190.51	1734.63
190.73	1597.42
190.95	1781.73
191.17	1689.57
191.39	1662.95
191.61	1708.01
191.84	1652.71
192.06	1712.10
192.28	1562.60
192.50	1779.68
192.72	1753.06
192.94	1710.05
193.16	1757.16
193.38	1748.97
193.60	1621.99
193.82	1708.01
194.04	1697.77
194.26	1734.63
194.48	1718.25
194.70	1675.24
194.92	1636.33
195.14	1775.59
195.36	1654.76
195.58	1744.87
195.80	1736.68
196.02	1611.75
196.24	1689.57
196.46	1691.62
196.69	1609.70
196.91	1865.70
197.13	1638.38
197.35	1650.66
197.57	1802.21
197.79	1769.44
198.01	1681.38
198.23	1773.54
198.45	1671.14
198.67	1648.61
198.89	1685.48
199.11	1701.86
199.33	1693.67
199.55	1515.50
199.77	1730.53
199.99	1705.96
200.21	1673.19
200.43	1646.57
200.65	1669.09
200.87	1544.17
201.09	1697.77
201.31	1689.57
201.53	1761.25
201.75	1693.67
201.97	1757.16
202.19	1746.92
202.41	1779.68
202.63	1806.31
202.85	1691.62
203.07	1693.67
203.29	1738.73
203.51	1609.70
203.73	1621.99
203.95	1920.99
204.17	1718.25
204.39	1669.09
204.61	1660.90
204.83	1662.95
205.05	1730.53
205.27	1763.30
205.49	1845.22
205.71	1695.72
205.93	1603.56
206.15	1718.25
206.37	1724.39
206.59	1667.05
206.81	1640.42
207.03	1648.61
207.25	1687.53
207.47	1773.54
207.69	1648.61
207.91	1734.63
208.13	1685.48
208.34	1605.61
208.56	1611.75
208.78	1654.76
209.00	1607.66
209.22	1665.00
209.44	1667.05
209.66	1699.81
209.88	1683.43
210.10	1667.05
210.32	1675.24
210.54	1746.92
210.76	1697.77
210.98	1755.11
211.20	1570.79
211.42	1738.73
211.64	1699.81
211.86	1673.19
212.08	1689.57
212.30	1699.81
212.52	1662.95
212.74	1671.14
212.96	1720.29
213.17	1726.44
213.39	1722.34
213.61	1738.73
213.83	1769.44
214.05	1646.57
214.27	1775.59
214.49	1615.85
214.71	1609.70
214.93	1771.49
215.15	1703.91
215.37	1816.55
215.59	1660.90
215.81	1726.44
216.03	1755.11
216.24	1722.34
216.46	1658.85
216.68	1687.53
216.90	1693.67
217.12	1716.20
217.34	1730.53
217.56	1708.01
217.78	1699.81
218.00	1779.68
218.22	1691.62
218.44	1701.86
218.66	1771.49
218.87	1722.34
219.09	1691.62
219.31	1748.97
219.53	1710.05
219.75	1683.43
219.97	1652.71
220.19	1726.44
220.41	1736.68
220.63	1787.88
220.85	1683.43
221.06	1783.78
221.28	1791.97
221.50	1808.36
221.72	1705.96
221.94	1701.86
222.16	1669.09
222.38	1730.53
222.60	1665.00
222.82	1695.72
223.03	1763.30
223.25	1626.09
223.47	1785.83
223.69	1798.12
223.91	1654.76
224.13	1710.05
224.35	1738.73
224.57	1742.82
224.78	1730.53
225.00	1624.04
225.22	1699.81
225.44	1642.47
225.66	1732.58
225.88	1697.77
226.10	1728.49
226.32	1703.91
226.53	1773.54
226.75	1718.25
226.97	1693.67
227.19	1693.67
227.41	1632.23
227.63	1703.91
227.85	1542.12
228.06	1718.25
228.28	1763.30
228.50	1710.05
228.72	1652.71
228.94	1701.86
229.16	1632.23
229.37	1665.00
229.59	1656.81
229.81	1740.77
230.03	1681.38
230.25	1525.74
230.47	1683.43
230.69	1595.37
230.90	1718.25
231.12	1681.38
231.34	1691.62
231.56	1763.30
231.78	1648.61
232.00	1699.81
232.21	1681.38
232.43	1677.29
232.65	1560.55
232.87	1669.09
233.09	1607.66
233.30	1648.61
233.52	1720.29
233.74	1619.94
233.96	1677.29
234.18	1665.00
234.40	1644.52
234.61	1800.16
234.83	1515.50
235.05	1615.85
235.27	1818.60
235.49	1736.68
235.70	1716.20
235.92	1791.97
236.14	1665.00
236.36	1861.60
236.58	1540.07
236.79	1730.53
237.01	1665.00
237.23	1685.48
237.45	1767.40
237.67	1691.62
237.88	1738.73
238.10	1781.73
238.32	1693.67
238.54	1650.66
238.76	1599.46
238.97	1685.48
239.19	1640.42
239.41	1777.64
239.63	1751.01
239.85	1630.18
240.06	1677.29
240.28	1699.81
240.50	1724.39
240.72	1716.20
240.93	1705.96
241.15	1847.27
241.37	1714.15
241.59	1724.39
241.81	1611.75
242.02	1722.34
242.24	1738.73
242.46	1697.77
242.68	1677.29
242.89	1658.85
243.11	1810.40
243.33	1658.85
243.55	1669.09
243.76	1763.30
243.98	1595.37
244.20	1697.77
244.42	1708.01
244.64	1667.05
244.85	1603.56
245.07	1621.99
245.29	1712.10
245.51	1783.78
245.72	1681.38
245.94	1705.96
246.16	1740.77
246.38	1722.34
246.59	1662.95
246.81	1673.19
247.03	1589.22
247.24	1560.55
247.46	1714.15
247.68	1738.73
247.90	1718.25
248.11	1687.53
248.33	1675.24
248.55	1714.15
248.77	1673.19
248.98	1820.64
249.20	1722.34
249.42	1740.77
249.64	1675.24
249.85	1734.63
250.07	1705.96
250.29	1734.63
250.50	1785.83
250.72	1683.43
250.94	1787.88
251.16	1861.60
251.37	1775.59
251.59	1748.97
251.81	1714.15
252.02	1775.59
252.24	1660.90
252.46	1796.07
252.68	1679.33
252.89	1624.04
253.11	1581.03
253.33	1812.45
253.54	1759.21
253.76	1578.98
253.98	1722.34
254.20	1732.58
254.41	1669.09
254.63	1665.00
254.85	1665.00
255.06	1742.82
255.28	1771.49
255.50	1708.01
255.71	1656.81
255.93	1581.03
256.15	1757.16
256.36	1708.01
256.58	1648.61
256.80	1730.53
257.02	1662.95
257.23	1685.48
257.45	1687.53
257.67	1759.21
257.88	1697.77
258.10	1701.86
258.32	1748.97
258.53	1712.10
258.75	1796.07
258.97	1665.00
259.18	1738.73
259.40	1691.62
259.62	1851.36
259.83	1800.16
260.05	1726.44
260.27	2033.63
260.48	1767.40
260.70	1650.66
260.92	1736.68
261.13	1718.25
261.35	1744.87
261.57	1767.40
261.78	1599.46
262.00	1628.14
262.22	1744.87
262.43	1710.05
262.65	1675.24
262.86	1679.33
263.08	1834.98
263.30	1685.48
263.51	1615.85
263.73	1589.22
263.95	1816.55
264.16	1624.04
264.38	1683.43
264.60	1667.05
264.81	1654.76
265.03	1656.81
265.25	1665.00
265.46	1691.62
265.68	1689.57
265.89	1716.20
266.11	1552.36
266.33	1730.53
266.54	1697.77
266.76	1769.44
266.98	1662.95
267.19	1763.30
267.41	1734.63
267.62	1726.44
267.84	1636.33
268.06	1650.66
268.27	1646.57
268.49	1810.40
268.70	1705.96
268.92	1640.42
269.14	1695.72
269.35	1595.37
269.57	1740.77
269.79	1693.67
270.00	1732.58
270.22	1781.73
270.43	1677.29
270.65	1589.22
270.87	1734.63
271.08	1726.44
271.30	1728.49
271.51	1658.85
271.73	1701.86
271.95	1787.88
272.16	1777.64
272.38	1691.62
272.59	1662.95
272.81	1769.44
273.02	1685.48
273.24	1718.25
273.46	1769.44
273.67	1632.23
273.89	1638.38
274.10	1689.57
274.32	1736.68
274.54	1740.77
274.75	1662.95
274.97	1648.61
275.18	1693.67
275.40	1708.01
275.61	1681.38
275.83	1673.19
276.05	1656.81
276.26	1687.53
276.48	1665.00
276.69	1677.29
276.91	1636.33
277.12	1677.29
277.34	1755.11
277.55	1812.45
277.77	1687.53
277.99	1685.48
278.20	1708.01
278.42	1640.42
278.63	1642.47
278.85	1710.05
279.06	1640.42
279.28	1746.92
279.49	1818.60
279.71	1660.90
279.93	1687.53
280.14	1708.01
280.36	1644.52
280.57	1693.67
280.79	1744.87
281.00	1667.05
281.22	1695.72
281.43	1746.92
281.65	1646.57
281.86	1687.53
282.08	1740.77
282.29	1771.49
282.51	1632.23
282.73	1669.09
282.94	1603.56
283.16	1679.33
283.37	1802.21
283.59	1732.58
283.80	1681.38
284.02	1626.09
284.23	1687.53
284.45	1626.09
284.66	1599.46
284.88	1640.42
285.09	1662.95
285.31	1644.52
285.52	1656.81
285.74	1560.55
285.95	1765.35
286.17	1677.29
286.38	1748.97
286.60	1597.42
286.81	1697.77
287.03	1679.33
287.24	1681.38
287.46	1689.57
287.67	1740.77
287.89	1783.78
288.10	1691.62
288.32	1673.19
288.53	1763.30
288.75	1767.40
288.96	1632.23
289.18	1642.47
289.39	1701.86
289.61	1722.34
289.82	1841.12
290.04	1804.26
290.25	1691.62
290.47	1732.58
290.68	1624.04
290.90	1722.34
291.11	1646.57
291.33	1724.39
291.54	1701.86
291.76	1681.38
291.97	1699.81
292.18	1693.67
292.40	1654.76
292.61	1656.81
292.83	1798.12
293.04	1794.02
293.26	1673.19
293.47	1730.53
293.69	1634.28
293.90	1665.00
294.12	1757.16
294.33	1671.14
294.55	1652.71
294.76	1679.33
294.97	1716.20
295.19	1849.32
295.40	1712.10
295.62	1718.25
295.83	1783.78
296.05	1665.00
296.26	1683.43
296.48	1595.37
296.69	1642.47
296.90	1740.77
297.12	1730.53
297.33	1771.49
297.55	1722.34
297.76	1779.68
297.98	1783.78
298.19	1722.34
298.41	1703.91
298.62	1642.47
298.83	1781.73
299.05	1679.33
299.26	1662.95
299.48	1646.57
299.69	1763.30
299.90	1687.53
300.12	1665.00
300.33	1722.34
300.55	1685.48
300.76	1718.25
300.98	1697.77
301.19	1748.97
301.40	1726.44
301.62	1615.85
301.83	1691.62
302.05	1703.91
302.26	1683.43
302.47	1775.59
302.69	1669.09
302.90	1712.10
303.12	1578.98
303.33	1757.16
303.54	1845.22
303.76	1650.66
303.97	1761.25
304.19	1800.16
304.40	1654.76
304.61	1603.56
304.83	1753.06
305.04	1779.68
305.26	1732.58
305.47	1667.05
305.68	1751.01
305.90	1615.85
306.11	1716.20
306.33	1660.90
306.54	1648.61
306.75	1642.47
306.97	1574.89
307.18	1630.18
307.39	1636.33
307.61	1759.21
307.82	1734.63
308.04	1740.77
308.25	1611.75
308.46	1769.44
308.68	1714.15
308.89	1812.45
309.10	1791.97
309.32	1734.63
309.53	1636.33
309.74	1716.20
309.96	1673.19
310.17	1744.87
310.39	1673.19
310.60	1714.15
310.81	1734.63
311.03	1613.80
311.24	1763.30
311.45	1658.85
311.67	1767.40
311.88	1716.20
312.09	1638.38
312.31	1638.38
312.52	1755.11
312.73	1722.34
312.95	1615.85
313.16	1730.53
313.37	1785.83
313.59	1751.01
313.80	1740.77
314.01	1796.07
314.23	1693.67
314.44	1632.23
314.65	1617.90
314.87	1691.62
315.08	1640.42
315.29	1689.57
315.51	1660.90
315.72	1576.94
315.93	1841.12
316.15	1763.30
316.36	1748.97
316.57	1714.15
316.79	1699.81
317.00	1681.38
317.21	1726.44
317.43	1642.47
317.64	1763.30
317.85	1626.09
318.07	1669.09
318.28	1738.73
318.49	1746.92
318.70	1892.32
318.92	1959.91
319.13	1818.60
319.34	1806.31
319.56	1810.40
319.77	1791.97
319.98	1742.82
320.20	1839.08
320.41	1738.73
320.62	1796.07
320.83	1693.67
321.05	1849.32
321.26	1675.24
321.47	1765.35
321.69	1730.53
321.90	1607.66
322.11	1751.01
322.32	1677.29
322.54	1794.02
322.75	1722.34
322.96	1830.88
323.18	1611.75
323.39	1552.36
323.60	1640.42
323.81	1751.01
324.03	1726.44
324.24	1689.57
324.45	1716.20
324.66	1738.73
324.88	1726.44
325.09	1765.35
325.30	1673.19
325.52	1714.15
325.73	1716.20
325.94	1628.14
326.15	1607.66
326.37	1611.75
326.58	1716.20
326.79	1804.26
327.00	1603.56
327.22	1773.54
327.43	1681.38
327.64	1621.99
327.85	1736.68
328.07	1665.00
328.28	1748.97
328.49	1689.57
328.70	1687.53
328.92	1773.54
329.13	1722.34
329.34	1732.58
329.55	1820.64
329.76	1773.54
329.98	1630.18
330.19	1806.31
330.40	1718.25
330.61	1714.15
330.83	1636.33
331.04	1648.61
331.25	1714.15
331.46	1720.29
331.68	1679.33
331.89	1787.88
332.10	1714.15
332.31	1652.71
332.52	1652.71
332.74	1722.34
332.95	1665.00
333.16	1716.20
333.37	1826.79
333.58	1716.20
333.80	1738.73
334.01	1619.94
334.22	1650.66
334.43	1624.04
334.64	1644.52
334.86	1628.14
335.07	1687.53
335.28	1789.92
335.49	1611.75
335.70	1773.54
335.92	1814.50
336.13	1863.65
336.34	1757.16
336.55	1703.91
336.76	1699.81
336.98	1595.37
337.19	1683.43
337.40	1724.39
337.61	1890.28
337.82	1626.09
338.04	1794.02
338.25	1615.85
338.46	1630.18
338.67	1646.57
338.88	1646.57
339.09	1675.24
339.31	1638.38
339.52	1550.31
339.73	1673.19
339.94	1705.96
340.15	1701.86
340.36	1671.14
340.58	1650.66
340.79	1656.81
341.00	1753.06
341.21	1611.75
341.42	1724.39
341.63	1603.56
341.85	1716.20
342.06	1662.95
342.27	1656.81
342.48	1755.11
342.69	1648.61
342.90	1683.43
343.12	1701.86
343.33	1730.53
343.54	1693.67
343.75	1841.12
343.96	1677.29
344.17	1607.66
344.38	1730.53
344.60	1658.85
344.81	1595.37
345.02	1701.86
345.23	1759.21
345.44	1814.50
345.65	1693.67
345.86	1689.57
346.07	1701.86
346.29	1634.28
346.50	1748.97
346.71	1726.44
346.92	1730.53
347.13	1837.03
347.34	1644.52
347.55	1708.01
347.76	1701.86
347.98	1538.02
348.19	1669.09
348.40	1779.68
348.61	1701.86
348.82	1722.34
349.03	1765.35
349.24	1746.92
349.45	1794.02
349.66	1619.94
349.88	1630.18
350.09	1605.61
350.30	1757.16
350.51	1785.83
350.72	1687.53
350.93	1679.33
351.14	1687.53
351.35	1708.01
351.56	1738.73
351.77	1726.44
351.99	1671.14
352.20	1839.08
352.41	1650.66
352.62	1566.70
352.83	1716.20
353.04	1638.38
353.25	1730.53
353.46	1712.10
353.67	1828.84
353.88	1624.04
354.09	1728.49
354.30	1667.05
354.52	1783.78
354.73	1708.01
354.94	1718.25
355.15	1677.29
355.36	1822.69
355.57	1732.58
355.78	1705.96
355.99	1742.82
356.20	1671.14
356.41	1699.81
356.62	1714.15
356.83	1626.09
357.04	1787.88
357.25	1648.61
357.46	1630.18
357.68	1628.14
357.89	1556.46
358.10	1730.53
358.31	1650.66
358.52	1714.15
358.73	1564.65
358.94	1650.66
359.15	1601.51
359.36	1732.58
359.57	1654.76
359.78	1656.81
359.99	1681.38
360.20	1636.33
360.41	1744.87
360.62	1738.73
360.83	1742.82
361.04	1771.49
361.25	1722.34
361.46	1804.26
361.67	1728.49
361.88	1742.82
362.09	1787.88
362.30	1667.05
362.51	1691.62
362.72	1705.96
362.93	1761.25
363.14	1798.12
363.35	1773.54
363.56	1697.77
363.78	1710.05
363.99	1808.36
364.20	1572.84
364.41	1726.44
364.62	1880.04
364.83	1705.96
365.04	1701.86
365.25	1689.57
365.46	1869.80
365.67	1675.24
365.88	1636.33
366.09	1779.68
366.30	1738.73
366.51	1779.68
366.72	1671.14
366.93	1738.73
367.14	1748.97
367.35	1771.49
367.56	1687.53
367.77	1765.35
367.98	1626.09
368.18	1685.48
368.39	1660.90
368.60	1667.05
368.81	1773.54
369.02	1724.39
369.23	1599.46
369.44	1615.85
369.65	1652.71
369.86	1691.62
370.07	1759.21
370.28	1574.89
370.49	1691.62
370.70	1642.47
370.91	1609.70
371.12	1718.25
371.33	1767.40
371.54	1691.62
371.75	1789.92
371.96	1521.64
372.17	1585.13
372.38	1642.47
372.59	1642.47
372.80	1746.92
373.01	1746.92
373.22	1701.86
373.43	1710.05
373.64	1669.09
373.85	1736.68
374.06	1830.88
374.26	1748.97
374.47	1691.62
374.68	1826.79
374.89	1683.43
375.10	1738.73
375.31	1775.59
375.52	1669.09
375.73	1726.44
375.94	1677.29
376.15	1804.26
376.36	1630.18
376.57	1712.10
376.78	1701.86
376.99	1591.27
377.20	1757.16
377.40	1777.64
377.61	1765.35
377.82	1609.70
378.03	1789.92
378.24	1734.63
378.45	1722.34
378.66	1714.15
378.87	1662.95
379.08	1675.24
379.29	1689.57
379.50	1691.62
379.71	1697.77
379.91	1781.73
380.12	1671.14
380.33	1744.87
380.54	1665.00
380.75	1705.96
380.96	1648.61
381.17	1736.68
381.38	1742.82
381.59	1771.49
381.80	1730.53
382.00	1847.27
382.21	1767.40
382.42	1757.16
382.63	1867.75
382.84	1757.16
383.05	1808.36
383.26	1794.02
383.47	1716.20
383.68	1748.97
383.88	1712.10
384.09	1773.54
384.30	1873.89
384.51	1722.34
384.72	1656.81
384.93	1697.77
385.14	1689.57
385.35	1767.40
385.55	1601.51
385.76	1806.31
385.97	1765.35
386.18	1599.46
386.39	1724.39
386.60	1660.90
386.81	1687.53
387.02	1648.61
387.22	1609.70
387.43	1755.11
387.64	1738.73
387.85	1894.37
388.06	2164.70
388.27	4267.97
388.48	6838.17
388.68	8384.38
388.89	9697.13
389.10	9936.74
389.31	8642.43
389.52	7409.55
389.73	6815.64
389.93	6244.26
390.14	5877.67
390.35	5310.38
390.56	4618.17
390.77	3815.37
390.98	3057.62
391.18	2443.23
391.39	2158.56
391.60	1873.89
391.81	1800.16
392.02	1669.09
392.23	1822.69
392.43	1734.63
392.64	1841.12
392.85	1783.78
393.06	1740.77
393.27	1695.72
393.47	1660.90
393.68	1703.91
393.89	1650.66
394.10	1783.78
394.31	1681.38
394.52	1644.52
394.72	1701.86
394.93	1714.15
395.14	1636.33
395.35	1728.49
395.56	1701.86
395.76	1748.97
395.97	1832.93
396.18	1900.52
396.39	1787.88
396.60	2082.78
396.80	1847.27
397.01	1810.40
397.22	1777.64
397.43	1814.50
397.64	1812.45
397.84	1736.68
398.05	1877.99
398.26	1697.77
398.47	1763.30
398.67	1736.68
398.88	1677.29
399.09	1685.48
399.30	1697.77
399.51	1742.82
399.71	1691.62
399.92	1679.33
400.13	1691.62
400.34	1644.52
400.54	1703.91
400.75	1703.91
400.96	1697.77
401.17	1820.64
401.37	1789.92
401.58	1734.63
401.79	1757.16
402.00	1867.75
402.21	2004.96
402.41	1957.86
402.62	2037.73
402.83	2045.92
403.04	2027.49
403.24	2045.92
403.45	1806.31
403.66	1877.99
403.87	1892.32
404.07	1902.56
404.28	1951.71
404.49	1882.08
404.70	1783.78
404.90	1773.54
405.11	1742.82
405.32	1781.73
405.52	1693.67
405.73	1665.00
405.94	1650.66
406.15	1673.19
406.35	1712.10
406.56	1755.11
406.77	1746.92
406.98	1771.49
407.18	1591.27
407.39	1724.39
407.60	1675.24
407.80	1720.29
408.01	1697.77
408.22	1710.05
408.43	1683.43
408.63	1728.49
408.84	1787.88
409.05	1705.96
409.25	1617.90
409.46	1638.38
409.67	1687.53
409.88	1705.96
410.08	1748.97
410.29	1705.96
410.50	1691.62
410.70	1816.55
410.91	1648.61
411.12	1689.57
411.32	1642.47
411.53	1669.09
411.74	1769.44
411.95	1816.55
412.15	1736.68
412.36	1802.21
412.57	1679.33
412.77	1806.31
412.98	1703.91
413.19	1697.77
413.39	1767.40
413.60	1716.20
413.81	1769.44
414.01	1679.33
414.22	1716.20
414.43	1798.12
414.63	1705.96
414.84	1771.49
415.05	1699.81
415.25	1699.81
415.46	1726.44
415.67	1665.00
415.87	1677.29
416.08	1720.29
416.29	1669.09
416.49	1738.73
416.70	1703.91
416.91	1615.85
417.11	1726.44
417.32	1712.10
417.53	1714.15
417.73	1708.01
417.94	1695.72
418.15	1693.67
418.35	1722.34
418.56	1740.77
418.77	1841.12
418.97	1697.77
419.18	1697.77
419.38	1640.42
419.59	1699.81
419.80	1738.73
420.00	1730.53
420.21	1763.30
420.42	1769.44
420.62	1728.49
420.83	1632.23
421.04	1593.32
421.24	1777.64
421.45	1757.16
421.65	1798.12
421.86	1718.25
422.07	1736.68
422.27	1724.39
422.48	1789.92
422.69	1642.47
422.89	1673.19
423.10	1716.20
423.30	1660.90
423.51	1679.33
423.72	1724.39
423.92	1738.73
424.13	1652.71
424.33	1675.24
424.54	1771.49
424.75	1685.48
424.95	1785.83
425.16	1794.02
425.36	1677.29
425.57	1695.72
425.78	1652.71
425.98	1755.11
426.19	1689.57
426.39	1685.48
426.60	1787.88
426.81	1802.21
427.01	1748.97
427.22	1650.66
427.42	1650.66
427.63	1677.29
427.83	1808.36
428.04	1816.55
428.25	1832.93
428.45	1798.12
428.66	1736.68
428.86	1681.38
429.07	1671.14
429.28	1734.63
429.48	1712.10
429.69	1671.14
429.89	1748.97
430.10	1626.09
430.30	1740.77
430.51	1720.29
430.71	1716.20
430.92	1673.19
431.13	1632.23
431.33	1789.92
431.54	1775.59
431.74	1732.58
431.95	1755.11
432.15	1605.61
432.36	1759.21
432.56	1802.21
432.77	1859.56
432.98	1853.41
433.18	1710.05
433.39	1703.91
433.59	1767.40
433.80	1798.12
434.00	1847.27
434.21	1605.61
434.41	1642.47
434.62	1826.79
434.82	1708.01
435.03	1665.00
435.23	1779.68
435.44	1572.84
435.64	1732.58
435.85	1740.77
436.06	1695.72
436.26	1804.26
436.47	1701.86
436.67	1640.42
436.88	1669.09
437.08	1740.77
437.29	1882.08
437.49	1705.96
437.70	1695.72
437.90	1705.96
438.11	1820.64
438.31	1808.36
438.52	1834.98
438.72	1861.60
438.93	1939.43
439.13	1765.35
439.34	1796.07
439.54	1697.77
439.75	1810.40
439.95	1773.54
440.16	1732.58
440.36	1646.57
440.57	1753.06
440.77	1777.64
440.98	1746.92
441.18	1714.15
441.39	1685.48
441.59	1642.47
441.80	1814.50
442.00	1689.57
442.21	1771.49
442.41	1652.71
442.62	1679.33
442.82	1748.97
443.02	1738.73
443.23	1759.21
443.43	1779.68
443.64	1818.60
443.84	1677.29
444.05	1837.03
444.25	1687.53
444.46	1689.57
444.66	1746.92
444.87	1818.60
445.07	1669.09
445.28	1773.54
445.48	1839.08
445.69	1767.40
445.89	1920.99
446.09	1724.39
446.30	2047.97
446.50	2645.98
446.71	3768.26
446.91	4292.54
447.12	4863.93
447.32	4884.41
447.53	4444.09
447.73	3882.95
447.93	3438.54
448.14	3352.52
448.34	3164.11
448.55	2901.97
448.75	2768.85
448.96	2799.57
449.16	2461.66
449.36	2236.38
449.57	2019.30
449.77	1859.56
449.98	1796.07
450.18	1785.83
450.39	1822.69
450.59	1804.26
450.79	1791.97
451.00	1724.39
451.20	1794.02
451.41	1669.09
451.61	1751.01
451.81	1718.25
452.02	1699.81
452.22	1626.09
452.43	1742.82
452.63	1705.96
