SpectraSuite Data File
++++++++++++++++++++++++++++++++++++
Date: Mon Jun 06 13:29:17 CEST 2016
User: root
Dark Spectrum Present: No
Reference Spectrum Present: No
Number of Sampled Component Spectra: 1
Spectrometers: USB4C02835
Integration Time (usec): 100000 (USB4C02835)
Spectra Averaged: 1 (USB4C02835)
Boxcar Smoothing: 0 (USB4C02835)
Correct for Electrical Dark: No (USB4C02835)
Strobe/Lamp Enabled: No (USB4C02835)
Correct for Detector Non-linearity: No (USB4C02835)
Correct for Stray Light: No (USB4C02835)
Number of Pixels in Processed Spectrum: 3648
>>>>>Begin Processed Spectral Data<<<<<
177.47	1456.11
177.69	1456.11
177.91	1456.11
178.13	1376.24
178.36	1343.47
178.58	1552.36
178.80	1705.96
179.02	1609.70
179.24	1650.66
179.46	1638.38
179.68	1732.58
179.90	1681.38
180.13	1740.77
180.35	1701.86
180.57	1658.85
180.79	1744.87
181.01	1724.39
181.23	1648.61
181.45	1755.11
181.67	1751.01
181.90	1738.73
182.12	1568.74
182.34	1574.89
182.56	1714.15
182.78	1740.77
183.00	1677.29
183.22	1679.33
183.44	1587.18
183.66	1820.64
183.89	1734.63
184.11	1703.91
184.33	1767.40
184.55	1785.83
184.77	1722.34
184.99	1662.95
185.21	1660.90
185.43	1853.41
185.65	1638.38
185.87	1681.38
186.10	1798.12
186.32	1832.93
186.54	1720.29
186.76	1699.81
186.98	1671.14
187.20	1720.29
187.42	1712.10
187.64	1697.77
187.86	1763.30
188.08	1771.49
188.30	1718.25
188.52	1701.86
188.75	1744.87
188.97	1751.01
189.19	1646.57
189.41	1669.09
189.63	1708.01
189.85	1683.43
190.07	1589.22
190.29	1609.70
190.51	1708.01
190.73	1718.25
190.95	1748.97
191.17	1660.90
191.39	1607.66
191.61	1671.14
191.84	1789.92
192.06	1738.73
192.28	1621.99
192.50	1877.99
192.72	1628.14
192.94	1730.53
193.16	1794.02
193.38	1755.11
193.60	1636.33
193.82	1716.20
194.04	1613.80
194.26	1722.34
194.48	1763.30
194.70	1718.25
194.92	1626.09
195.14	1724.39
195.36	1626.09
195.58	1662.95
195.80	1683.43
196.02	1593.32
196.24	1708.01
196.46	1705.96
196.69	1669.09
196.91	1828.84
197.13	1673.19
197.35	1665.00
197.57	1736.68
197.79	1763.30
198.01	1644.52
198.23	1746.92
198.45	1753.06
198.67	1552.36
198.89	1767.40
199.11	1751.01
199.33	1587.18
199.55	1587.18
199.77	1677.29
199.99	1740.77
200.21	1652.71
200.43	1714.15
200.65	1681.38
200.87	1562.60
201.09	1640.42
201.31	1689.57
201.53	1720.29
201.75	1804.26
201.97	1660.90
202.19	1708.01
202.41	1697.77
202.63	1796.07
202.85	1783.78
203.07	1734.63
203.29	1619.94
203.51	1671.14
203.73	1665.00
203.95	1816.55
204.17	1740.77
204.39	1738.73
204.61	1699.81
204.83	1648.61
205.05	1712.10
205.27	1687.53
205.49	1841.12
205.71	1609.70
205.93	1603.56
206.15	1640.42
206.37	1673.19
206.59	1624.04
206.81	1634.28
207.03	1599.46
207.25	1685.48
207.47	1701.86
207.69	1599.46
207.91	1789.92
208.13	1763.30
208.34	1683.43
208.56	1671.14
208.78	1728.49
209.00	1681.38
209.22	1691.62
209.44	1775.59
209.66	1751.01
209.88	1681.38
210.10	1656.81
210.32	1687.53
210.54	1785.83
210.76	1716.20
210.98	1777.64
211.20	1572.84
211.42	1667.05
211.64	1683.43
211.86	1769.44
212.08	1732.58
212.30	1716.20
212.52	1679.33
212.74	1746.92
212.96	1705.96
213.17	1722.34
213.39	1718.25
213.61	1791.97
213.83	1773.54
214.05	1591.27
214.27	1781.73
214.49	1644.52
214.71	1654.76
214.93	1814.50
215.15	1685.48
215.37	1785.83
215.59	1640.42
215.81	1773.54
216.03	1791.97
216.24	1757.16
216.46	1656.81
216.68	1718.25
216.90	1710.05
217.12	1771.49
217.34	1818.60
217.56	1685.48
217.78	1804.26
218.00	1779.68
218.22	1716.20
218.44	1677.29
218.66	1722.34
218.87	1845.22
219.09	1693.67
219.31	1763.30
219.53	1716.20
219.75	1714.15
219.97	1687.53
220.19	1722.34
220.41	1689.57
220.63	1722.34
220.85	1748.97
221.06	1691.62
221.28	1740.77
221.50	1691.62
221.72	1724.39
221.94	1734.63
222.16	1730.53
222.38	1746.92
222.60	1699.81
222.82	1675.24
223.03	1669.09
223.25	1650.66
223.47	1734.63
223.69	1837.03
223.91	1718.25
224.13	1714.15
224.35	1650.66
224.57	1726.44
224.78	1722.34
225.00	1632.23
225.22	1658.85
225.44	1695.72
225.66	1695.72
225.88	1609.70
226.10	1699.81
226.32	1708.01
226.53	1824.74
226.75	1607.66
226.97	1677.29
227.19	1681.38
227.41	1642.47
227.63	1632.23
227.85	1650.66
228.06	1703.91
228.28	1779.68
228.50	1718.25
228.72	1564.65
228.94	1628.14
229.16	1603.56
229.37	1619.94
229.59	1617.90
229.81	1791.97
230.03	1662.95
230.25	1603.56
230.47	1695.72
230.69	1658.85
230.90	1783.78
231.12	1673.19
231.34	1705.96
231.56	1732.58
231.78	1646.57
232.00	1773.54
232.21	1644.52
232.43	1712.10
232.65	1589.22
232.87	1634.28
233.09	1656.81
233.30	1687.53
233.52	1796.07
233.74	1689.57
233.96	1712.10
234.18	1665.00
234.40	1683.43
234.61	1804.26
234.83	1591.27
235.05	1634.28
235.27	1769.44
235.49	1673.19
235.70	1726.44
235.92	1755.11
236.14	1675.24
236.36	1890.28
236.58	1679.33
236.79	1767.40
237.01	1726.44
237.23	1748.97
237.45	1818.60
237.67	1701.86
237.88	1626.09
238.10	1789.92
238.32	1628.14
238.54	1656.81
238.76	1693.67
238.97	1683.43
239.19	1679.33
239.41	1781.73
239.63	1763.30
239.85	1634.28
240.06	1656.81
240.28	1607.66
240.50	1757.16
240.72	1703.91
240.93	1683.43
241.15	1755.11
241.37	1679.33
241.59	1736.68
241.81	1644.52
242.02	1615.85
242.24	1740.77
242.46	1736.68
242.68	1669.09
242.89	1656.81
243.11	1753.06
243.33	1675.24
243.55	1736.68
243.76	1722.34
243.98	1728.49
244.20	1705.96
244.42	1771.49
244.64	1632.23
244.85	1646.57
245.07	1665.00
245.29	1753.06
245.51	1630.18
245.72	1665.00
245.94	1738.73
246.16	1665.00
246.38	1763.30
246.59	1583.08
246.81	1671.14
247.03	1636.33
247.24	1695.72
247.46	1669.09
247.68	1708.01
247.90	1617.90
248.11	1636.33
248.33	1751.01
248.55	1677.29
248.77	1718.25
248.98	1763.30
249.20	1808.36
249.42	1646.57
249.64	1757.16
249.85	1656.81
250.07	1671.14
250.29	1677.29
250.50	1724.39
250.72	1581.03
250.94	1652.71
251.16	1789.92
251.37	1712.10
251.59	1738.73
251.81	1697.77
252.02	1843.17
252.24	1658.85
252.46	1753.06
252.68	1660.90
252.89	1722.34
253.11	1630.18
253.33	1828.84
253.54	1718.25
253.76	1601.51
253.98	1630.18
254.20	1705.96
254.41	1646.57
254.63	1673.19
254.85	1636.33
255.06	1640.42
255.28	1689.57
255.50	1720.29
255.71	1675.24
255.93	1603.56
256.15	1640.42
256.36	1742.82
256.58	1714.15
256.80	1691.62
257.02	1646.57
257.23	1675.24
257.45	1710.05
257.67	1734.63
257.88	1695.72
258.10	1732.58
258.32	1708.01
258.53	1683.43
258.75	1781.73
258.97	1646.57
259.18	1640.42
259.40	1742.82
259.62	1798.12
259.83	1785.83
260.05	1796.07
260.27	1968.10
260.48	1710.05
260.70	1675.24
260.92	1560.55
261.13	1679.33
261.35	1675.24
261.57	1740.77
261.78	1535.98
262.00	1609.70
262.22	1759.21
262.43	1675.24
262.65	1660.90
262.86	1685.48
263.08	1849.32
263.30	1650.66
263.51	1638.38
263.73	1748.97
263.95	1779.68
264.16	1695.72
264.38	1710.05
264.60	1691.62
264.81	1673.19
265.03	1703.91
265.25	1765.35
265.46	1693.67
265.68	1744.87
265.89	1712.10
266.11	1603.56
266.33	1816.55
266.54	1716.20
266.76	1665.00
266.98	1742.82
267.19	1697.77
267.41	1746.92
267.62	1648.61
267.84	1595.37
268.06	1691.62
268.27	1732.58
268.49	1693.67
268.70	1820.64
268.92	1693.67
269.14	1665.00
269.35	1599.46
269.57	1763.30
269.79	1697.77
270.00	1679.33
270.22	1787.88
270.43	1648.61
270.65	1609.70
270.87	1773.54
271.08	1738.73
271.30	1679.33
271.51	1626.09
271.73	1738.73
271.95	1697.77
272.16	1746.92
272.38	1634.28
272.59	1611.75
272.81	1724.39
273.02	1689.57
273.24	1691.62
273.46	1710.05
273.67	1599.46
273.89	1615.85
274.10	1673.19
274.32	1740.77
274.54	1693.67
274.75	1759.21
274.97	1693.67
275.18	1783.78
275.40	1697.77
275.61	1732.58
275.83	1644.52
276.05	1658.85
276.26	1652.71
276.48	1751.01
276.69	1597.42
276.91	1662.95
277.12	1841.12
277.34	1775.59
277.55	1701.86
277.77	1677.29
277.99	1730.53
278.20	1652.71
278.42	1603.56
278.63	1671.14
278.85	1699.81
279.06	1632.23
279.28	1822.69
279.49	1736.68
279.71	1689.57
279.93	1761.25
280.14	1708.01
280.36	1624.04
280.57	1720.29
280.79	1791.97
281.00	1654.76
281.22	1607.66
281.43	1777.64
281.65	1576.94
281.86	1593.32
282.08	1734.63
282.29	1789.92
282.51	1611.75
282.73	1650.66
282.94	1652.71
283.16	1746.92
283.37	1734.63
283.59	1779.68
283.80	1695.72
284.02	1683.43
284.23	1710.05
284.45	1722.34
284.66	1687.53
284.88	1656.81
285.09	1697.77
285.31	1730.53
285.52	1689.57
285.74	1636.33
285.95	1742.82
286.17	1751.01
286.38	1718.25
286.60	1689.57
286.81	1689.57
287.03	1578.98
287.24	1718.25
287.46	1697.77
287.67	1710.05
287.89	1839.08
288.10	1701.86
288.32	1683.43
288.53	1730.53
288.75	1769.44
288.96	1687.53
289.18	1689.57
289.39	1734.63
289.61	1783.78
289.82	1791.97
290.04	1810.40
290.25	1603.56
290.47	1634.28
290.68	1740.77
290.90	1822.69
291.11	1615.85
291.33	1732.58
291.54	1673.19
291.76	1718.25
291.97	1755.11
292.18	1701.86
292.40	1619.94
292.61	1689.57
292.83	1843.17
293.04	1656.81
293.26	1724.39
293.47	1705.96
293.69	1617.90
293.90	1695.72
294.12	1753.06
294.33	1695.72
294.55	1662.95
294.76	1722.34
294.97	1777.64
295.19	1853.41
295.40	1714.15
295.62	1767.40
295.83	1742.82
296.05	1665.00
296.26	1771.49
296.48	1642.47
296.69	1804.26
296.90	1660.90
297.12	1761.25
297.33	1777.64
297.55	1773.54
297.76	1724.39
297.98	1669.09
298.19	1736.68
298.41	1689.57
298.62	1624.04
298.83	1757.16
299.05	1730.53
299.26	1687.53
299.48	1609.70
299.69	1716.20
299.90	1644.52
300.12	1671.14
300.33	1724.39
300.55	1726.44
300.76	1667.05
300.98	1677.29
301.19	1720.29
301.40	1712.10
301.62	1710.05
301.83	1726.44
302.05	1652.71
302.26	1693.67
302.47	1689.57
302.69	1595.37
302.90	1675.24
303.12	1599.46
303.33	1773.54
303.54	1765.35
303.76	1644.52
303.97	1669.09
304.19	1824.74
304.40	1650.66
304.61	1765.35
304.83	1804.26
305.04	1712.10
305.26	1681.38
305.47	1677.29
305.68	1781.73
305.90	1589.22
306.11	1738.73
306.33	1652.71
306.54	1656.81
306.75	1650.66
306.97	1665.00
307.18	1570.79
307.39	1673.19
307.61	1796.07
307.82	1730.53
308.04	1816.55
308.25	1626.09
308.46	1685.48
308.68	1701.86
308.89	1712.10
309.10	1679.33
309.32	1708.01
309.53	1714.15
309.74	1681.38
309.96	1669.09
310.17	1679.33
310.39	1751.01
310.60	1705.96
310.81	1771.49
311.03	1648.61
311.24	1771.49
311.45	1710.05
311.67	1748.97
311.88	1677.29
312.09	1728.49
312.31	1693.67
312.52	1730.53
312.73	1697.77
312.95	1642.47
313.16	1626.09
313.37	1779.68
313.59	1746.92
313.80	1730.53
314.01	1716.20
314.23	1605.61
314.44	1626.09
314.65	1632.23
314.87	1638.38
315.08	1609.70
315.29	1683.43
315.51	1658.85
315.72	1656.81
315.93	1834.98
316.15	1767.40
316.36	1644.52
316.57	1722.34
316.79	1685.48
317.00	1732.58
317.21	1617.90
317.43	1669.09
317.64	1693.67
317.85	1695.72
318.07	1667.05
318.28	1730.53
318.49	1796.07
318.70	1820.64
318.92	1777.64
319.13	1736.68
319.34	1826.79
319.56	1787.88
319.77	1855.46
319.98	1695.72
320.20	1726.44
320.41	1726.44
320.62	1730.53
320.83	1681.38
321.05	1816.55
321.26	1718.25
321.47	1685.48
321.69	1828.84
321.90	1589.22
322.11	1718.25
322.32	1658.85
322.54	1798.12
322.75	1681.38
322.96	1804.26
323.18	1705.96
323.39	1611.75
323.60	1665.00
323.81	1763.30
324.03	1728.49
324.24	1726.44
324.45	1681.38
324.66	1718.25
324.88	1802.21
325.09	1808.36
325.30	1718.25
325.52	1751.01
325.73	1757.16
325.94	1619.94
326.15	1634.28
326.37	1642.47
326.58	1708.01
326.79	1763.30
327.00	1718.25
327.22	1736.68
327.43	1687.53
327.64	1597.42
327.85	1693.67
328.07	1687.53
328.28	1781.73
328.49	1730.53
328.70	1759.21
328.92	1720.29
329.13	1667.05
329.34	1767.40
329.55	1732.58
329.76	1671.14
329.98	1675.24
330.19	1863.65
330.40	1742.82
330.61	1732.58
330.83	1755.11
331.04	1667.05
331.25	1710.05
331.46	1722.34
331.68	1538.02
331.89	1736.68
332.10	1677.29
332.31	1646.57
332.52	1691.62
332.74	1779.68
332.95	1583.08
333.16	1726.44
333.37	1699.81
333.58	1677.29
333.80	1677.29
334.01	1671.14
334.22	1634.28
334.43	1685.48
334.64	1710.05
334.86	1677.29
335.07	1632.23
335.28	1722.34
335.49	1593.32
335.70	1675.24
335.92	1705.96
336.13	1804.26
336.34	1695.72
336.55	1695.72
336.76	1656.81
336.98	1615.85
337.19	1693.67
337.40	1837.03
337.61	1834.98
337.82	1593.32
338.04	1746.92
338.25	1632.23
338.46	1763.30
338.67	1714.15
338.88	1650.66
339.09	1636.33
339.31	1671.14
339.52	1574.89
339.73	1632.23
339.94	1763.30
340.15	1761.25
340.36	1658.85
340.58	1757.16
340.79	1699.81
341.00	1742.82
341.21	1574.89
341.42	1765.35
341.63	1650.66
341.85	1732.58
342.06	1712.10
342.27	1673.19
342.48	1775.59
342.69	1636.33
342.90	1703.91
343.12	1765.35
343.33	1740.77
343.54	1660.90
343.75	1759.21
343.96	1765.35
344.17	1601.51
344.38	1685.48
344.60	1644.52
344.81	1636.33
345.02	1697.77
345.23	1708.01
345.44	1783.78
345.65	1738.73
345.86	1738.73
346.07	1763.30
346.29	1718.25
346.50	1699.81
346.71	1681.38
346.92	1669.09
347.13	1816.55
347.34	1716.20
347.55	1703.91
347.76	1740.77
347.98	1675.24
348.19	1695.72
348.40	1746.92
348.61	1605.61
348.82	1798.12
349.03	1781.73
349.24	1585.13
349.45	1777.64
349.66	1691.62
349.88	1697.77
350.09	1685.48
350.30	1796.07
350.51	1761.25
350.72	1689.57
350.93	1710.05
351.14	1650.66
351.35	1695.72
351.56	1718.25
351.77	1636.33
351.99	1710.05
352.20	1767.40
352.41	1771.49
352.62	1595.37
352.83	1621.99
353.04	1677.29
353.25	1634.28
353.46	1779.68
353.67	1699.81
353.88	1556.46
354.09	1740.77
354.30	1751.01
354.52	1849.32
354.73	1722.34
354.94	1648.61
355.15	1779.68
355.36	1824.74
355.57	1728.49
355.78	1746.92
355.99	1654.76
356.20	1681.38
356.41	1855.46
356.62	1677.29
356.83	1730.53
357.04	1742.82
357.25	1593.32
357.46	1660.90
357.68	1607.66
357.89	1673.19
358.10	1695.72
358.31	1720.29
358.52	1722.34
358.73	1648.61
358.94	1656.81
359.15	1636.33
359.36	1679.33
359.57	1636.33
359.78	1734.63
359.99	1720.29
360.20	1636.33
360.41	1652.71
360.62	1697.77
360.83	1673.19
361.04	1726.44
361.25	1708.01
361.46	1796.07
361.67	1642.47
361.88	1755.11
362.09	1738.73
362.30	1708.01
362.51	1677.29
362.72	1648.61
362.93	1710.05
363.14	1753.06
363.35	1673.19
363.56	1669.09
363.78	1716.20
363.99	1693.67
364.20	1683.43
364.41	1726.44
364.62	1845.22
364.83	1759.21
365.04	1779.68
365.25	1656.81
365.46	1787.88
365.67	1648.61
365.88	1632.23
366.09	1697.77
366.30	1683.43
366.51	1755.11
366.72	1648.61
366.93	1681.38
367.14	1644.52
367.35	1748.97
367.56	1689.57
367.77	1773.54
367.98	1656.81
368.18	1734.63
368.39	1681.38
368.60	1662.95
368.81	1759.21
369.02	1775.59
369.23	1636.33
369.44	1595.37
369.65	1695.72
369.86	1769.44
370.07	1736.68
370.28	1681.38
370.49	1697.77
370.70	1751.01
370.91	1632.23
371.12	1650.66
371.33	1714.15
371.54	1687.53
371.75	1820.64
371.96	1535.98
372.17	1714.15
372.38	1701.86
372.59	1728.49
372.80	1665.00
373.01	1718.25
373.22	1718.25
373.43	1681.38
373.64	1671.14
373.85	1748.97
374.06	1800.16
374.26	1718.25
374.47	1693.67
374.68	1820.64
374.89	1652.71
375.10	1742.82
375.31	1740.77
375.52	1705.96
375.73	1640.42
375.94	1615.85
376.15	1757.16
376.36	1660.90
376.57	1615.85
376.78	1691.62
376.99	1710.05
377.20	1767.40
377.40	1632.23
377.61	1767.40
377.82	1615.85
378.03	1712.10
378.24	1708.01
378.45	1673.19
378.66	1777.64
378.87	1650.66
379.08	1671.14
379.29	1753.06
379.50	1777.64
379.71	1689.57
379.91	1816.55
380.12	1736.68
380.33	1665.00
380.54	1642.47
380.75	1681.38
380.96	1660.90
381.17	1748.97
381.38	1703.91
381.59	1697.77
381.80	1701.86
382.00	1900.52
382.21	1763.30
382.42	1759.21
382.63	1832.93
382.84	1755.11
383.05	1773.54
383.26	1820.64
383.47	1755.11
383.68	1757.16
383.88	1787.88
384.09	1718.25
384.30	1816.55
384.51	1732.58
384.72	1609.70
384.93	1648.61
385.14	1728.49
385.35	1726.44
385.55	1683.43
385.76	1777.64
385.97	1658.85
386.18	1578.98
386.39	1720.29
386.60	1734.63
386.81	1667.05
387.02	1730.53
387.22	1636.33
387.43	1834.98
387.64	1757.16
387.85	1832.93
388.06	2220.00
388.27	4278.21
388.48	6748.06
388.68	8284.03
388.89	9719.66
389.10	9930.60
389.31	8742.78
389.52	7643.02
389.73	6686.62
389.93	6227.87
390.14	5910.44
390.35	5324.72
390.56	4526.01
390.77	3880.90
390.98	3080.14
391.18	2643.93
391.39	2127.84
391.60	1834.98
391.81	1837.03
392.02	1765.35
392.23	1814.50
392.43	1783.78
392.64	1798.12
392.85	1734.63
393.06	1828.84
393.27	1691.62
393.47	1708.01
393.68	1714.15
393.89	1716.20
394.10	1716.20
394.31	1619.94
394.52	1589.22
394.72	1671.14
394.93	1763.30
395.14	1644.52
395.35	1617.90
395.56	1695.72
395.76	1812.45
395.97	1800.16
396.18	1863.65
396.39	1724.39
396.60	2025.44
396.80	1918.95
397.01	1794.02
397.22	1773.54
397.43	1912.80
397.64	1712.10
397.84	1787.88
398.05	1857.51
398.26	1695.72
398.47	1800.16
398.67	1791.97
398.88	1746.92
399.09	1722.34
399.30	1673.19
399.51	1703.91
399.71	1660.90
399.92	1667.05
400.13	1767.40
400.34	1675.24
400.54	1736.68
400.75	1810.40
400.96	1685.48
401.17	1802.21
401.37	1642.47
401.58	1703.91
401.79	1710.05
402.00	1761.25
402.21	1964.00
402.41	1961.95
402.62	2023.39
402.83	2052.06
403.04	2021.35
403.24	2062.30
403.45	1837.03
403.66	1886.18
403.87	1904.61
404.07	1867.75
404.28	1927.14
404.49	1859.56
404.70	1802.21
404.90	1742.82
405.11	1806.31
405.32	1777.64
405.52	1671.14
405.73	1701.86
405.94	1679.33
406.15	1746.92
406.35	1744.87
406.56	1765.35
406.77	1740.77
406.98	1697.77
407.18	1705.96
407.39	1679.33
407.60	1699.81
407.80	1724.39
408.01	1601.51
408.22	1632.23
408.43	1697.77
408.63	1693.67
408.84	1681.38
409.05	1658.85
409.25	1712.10
409.46	1689.57
409.67	1626.09
409.88	1626.09
410.08	1779.68
410.29	1699.81
410.50	1787.88
410.70	1787.88
410.91	1673.19
411.12	1755.11
411.32	1689.57
411.53	1705.96
411.74	1787.88
411.95	1861.60
412.15	1667.05
412.36	1820.64
412.57	1775.59
412.77	1798.12
412.98	1738.73
413.19	1718.25
413.39	1736.68
413.60	1759.21
413.81	1761.25
414.01	1667.05
414.22	1789.92
414.43	1759.21
414.63	1632.23
414.84	1767.40
415.05	1730.53
415.25	1626.09
415.46	1767.40
415.67	1701.86
415.87	1748.97
416.08	1722.34
416.29	1783.78
416.49	1712.10
416.70	1681.38
416.91	1644.52
417.11	1722.34
417.32	1714.15
417.53	1767.40
417.73	1763.30
417.94	1699.81
418.15	1742.82
418.35	1746.92
418.56	1722.34
418.77	1806.31
418.97	1718.25
419.18	1703.91
419.38	1552.36
419.59	1759.21
419.80	1791.97
420.00	1761.25
420.21	1732.58
420.42	1802.21
420.62	1736.68
420.83	1669.09
421.04	1726.44
421.24	1667.05
421.45	1794.02
421.65	1763.30
421.86	1654.76
422.07	1746.92
422.27	1689.57
422.48	1751.01
422.69	1624.04
422.89	1654.76
423.10	1740.77
423.30	1615.85
423.51	1689.57
423.72	1689.57
423.92	1640.42
424.13	1660.90
424.33	1640.42
424.54	1744.87
424.75	1722.34
424.95	1804.26
425.16	1718.25
425.36	1648.61
425.57	1685.48
425.78	1828.84
425.98	1744.87
426.19	1665.00
426.39	1667.05
426.60	1681.38
426.81	1816.55
427.01	1716.20
427.22	1628.14
427.42	1636.33
427.63	1628.14
427.83	1787.88
428.04	1886.18
428.25	1701.86
428.45	1765.35
428.66	1791.97
428.86	1693.67
429.07	1646.57
429.28	1751.01
429.48	1675.24
429.69	1710.05
429.89	1740.77
430.10	1677.29
430.30	1742.82
430.51	1841.12
430.71	1652.71
430.92	1710.05
431.13	1667.05
431.33	1724.39
431.54	1712.10
431.74	1757.16
431.95	1789.92
432.15	1525.74
432.36	1738.73
432.56	1773.54
432.77	1779.68
432.98	1710.05
433.18	1699.81
433.39	1644.52
433.59	1658.85
433.80	1902.56
434.00	1779.68
434.21	1662.95
434.41	1726.44
434.62	1877.99
434.82	1544.17
435.03	1601.51
435.23	1689.57
435.44	1642.47
435.64	1746.92
435.85	1681.38
436.06	1705.96
436.26	1730.53
436.47	1753.06
436.67	1646.57
436.88	1705.96
437.08	1767.40
437.29	1771.49
437.49	1681.38
437.70	1804.26
437.90	1820.64
438.11	1853.41
438.31	1777.64
438.52	1884.13
438.72	1882.08
438.93	1884.13
439.13	1730.53
439.34	1851.36
439.54	1693.67
439.75	1773.54
439.95	1816.55
440.16	1683.43
440.36	1746.92
440.57	1677.29
440.77	1820.64
440.98	1656.81
441.18	1726.44
441.39	1699.81
441.59	1673.19
441.80	1765.35
442.00	1732.58
442.21	1777.64
442.41	1640.42
442.62	1771.49
442.82	1712.10
443.02	1693.67
443.23	1779.68
443.43	1763.30
443.64	1751.01
443.84	1665.00
444.05	1845.22
444.25	1656.81
444.46	1736.68
444.66	1740.77
444.87	1800.16
445.07	1652.71
445.28	1767.40
445.48	1693.67
445.69	1734.63
445.89	1798.12
446.09	1703.91
446.30	2013.15
446.50	2713.56
446.71	3653.58
446.91	4360.13
447.12	4661.18
447.32	4861.88
447.53	4237.25
447.73	3973.06
447.93	3542.99
448.14	3332.05
448.34	3104.72
448.55	2922.45
448.75	2738.13
448.96	2592.73
449.16	2375.64
449.36	2289.63
449.57	2101.22
449.77	1873.89
449.98	1812.45
450.18	1828.84
450.39	1814.50
450.59	1800.16
450.79	1763.30
451.00	1730.53
451.20	1746.92
451.41	1730.53
451.61	1726.44
451.81	1718.25
452.02	1701.86
452.22	1779.68
452.43	1687.53
452.63	1693.67
