SpectraSuite Data File
++++++++++++++++++++++++++++++++++++
Date: Mon Jun 06 14:54:37 CEST 2016
User: root
Dark Spectrum Present: No
Reference Spectrum Present: No
Number of Sampled Component Spectra: 1
Spectrometers: USB4C02835
Integration Time (usec): 100000 (USB4C02835)
Spectra Averaged: 1 (USB4C02835)
Boxcar Smoothing: 0 (USB4C02835)
Correct for Electrical Dark: No (USB4C02835)
Strobe/Lamp Enabled: No (USB4C02835)
Correct for Detector Non-linearity: No (USB4C02835)
Correct for Stray Light: No (USB4C02835)
Number of Pixels in Processed Spectrum: 3648
>>>>>Begin Processed Spectral Data<<<<<
177.47	1490.92
177.69	1490.92
177.91	1490.92
178.13	1495.02
178.36	1406.95
178.58	1648.61
178.80	1652.71
179.02	1636.33
179.24	1617.90
179.46	1607.66
179.68	1769.44
179.90	1730.53
180.13	1626.09
180.35	1730.53
180.57	1724.39
180.79	1701.86
181.01	1701.86
181.23	1734.63
181.45	1806.31
181.67	1789.92
181.90	1697.77
182.12	1640.42
182.34	1638.38
182.56	1769.44
182.78	1753.06
183.00	1640.42
183.22	1740.77
183.44	1589.22
183.66	1855.46
183.89	1822.69
184.11	1650.66
184.33	1787.88
184.55	1771.49
184.77	1681.38
184.99	1710.05
185.21	1646.57
185.43	1851.36
185.65	1708.01
185.87	1634.28
186.10	1785.83
186.32	1869.80
186.54	1736.68
186.76	1767.40
186.98	1771.49
187.20	1695.72
187.42	1667.05
187.64	1615.85
187.86	1675.24
188.08	1705.96
188.30	1710.05
188.52	1652.71
188.75	1767.40
188.97	1753.06
189.19	1677.29
189.41	1724.39
189.63	1710.05
189.85	1685.48
190.07	1716.20
190.29	1658.85
190.51	1810.40
190.73	1624.04
190.95	1812.45
191.17	1701.86
191.39	1603.56
191.61	1624.04
191.84	1593.32
192.06	1673.19
192.28	1603.56
192.50	1843.17
192.72	1675.24
192.94	1703.91
193.16	1689.57
193.38	1683.43
193.60	1708.01
193.82	1751.01
194.04	1697.77
194.26	1763.30
194.48	1679.33
194.70	1609.70
194.92	1624.04
195.14	1859.56
195.36	1701.86
195.58	1689.57
195.80	1675.24
196.02	1789.92
196.24	1748.97
196.46	1697.77
196.69	1697.77
196.91	1824.74
197.13	1685.48
197.35	1691.62
197.57	1763.30
197.79	1710.05
198.01	1699.81
198.23	1765.35
198.45	1636.33
198.67	1701.86
198.89	1652.71
199.11	1699.81
199.33	1630.18
199.55	1564.65
199.77	1703.91
199.99	1771.49
200.21	1644.52
200.43	1763.30
200.65	1572.84
200.87	1566.70
201.09	1763.30
201.31	1705.96
201.53	1705.96
201.75	1689.57
201.97	1720.29
202.19	1679.33
202.41	1779.68
202.63	1781.73
202.85	1718.25
203.07	1718.25
203.29	1640.42
203.51	1681.38
203.73	1624.04
203.95	1810.40
204.17	1683.43
204.39	1802.21
204.61	1669.09
204.83	1701.86
205.05	1665.00
205.27	1810.40
205.49	1826.79
205.71	1662.95
205.93	1665.00
206.15	1619.94
206.37	1728.49
206.59	1740.77
206.81	1599.46
207.03	1660.90
207.25	1662.95
207.47	1763.30
207.69	1660.90
207.91	1791.97
208.13	1791.97
208.34	1650.66
208.56	1671.14
208.78	1753.06
209.00	1761.25
209.22	1681.38
209.44	1673.19
209.66	1693.67
209.88	1675.24
210.10	1671.14
210.32	1763.30
210.54	1800.16
210.76	1722.34
210.98	1730.53
211.20	1566.70
211.42	1681.38
211.64	1755.11
211.86	1712.10
212.08	1763.30
212.30	1710.05
212.52	1710.05
212.74	1751.01
212.96	1697.77
213.17	1736.68
213.39	1771.49
213.61	1816.55
213.83	1710.05
214.05	1632.23
214.27	1730.53
214.49	1699.81
214.71	1691.62
214.93	1720.29
215.15	1683.43
215.37	1775.59
215.59	1609.70
215.81	1703.91
216.03	1742.82
216.24	1724.39
216.46	1619.94
216.68	1703.91
216.90	1773.54
217.12	1705.96
217.34	1736.68
217.56	1755.11
217.78	1771.49
218.00	1734.63
218.22	1708.01
218.44	1673.19
218.66	1626.09
218.87	1689.57
219.09	1730.53
219.31	1738.73
219.53	1726.44
219.75	1644.52
219.97	1660.90
220.19	1751.01
220.41	1712.10
220.63	1730.53
220.85	1742.82
221.06	1720.29
221.28	1744.87
221.50	1667.05
221.72	1728.49
221.94	1761.25
222.16	1744.87
222.38	1701.86
222.60	1656.81
222.82	1703.91
223.03	1720.29
223.25	1615.85
223.47	1662.95
223.69	1818.60
223.91	1746.92
224.13	1681.38
224.35	1599.46
224.57	1785.83
224.78	1763.30
225.00	1652.71
225.22	1720.29
225.44	1615.85
225.66	1773.54
225.88	1611.75
226.10	1697.77
226.32	1730.53
226.53	1648.61
226.75	1736.68
226.97	1650.66
227.19	1660.90
227.41	1693.67
227.63	1550.31
227.85	1636.33
228.06	1677.29
228.28	1667.05
228.50	1757.16
228.72	1642.47
228.94	1763.30
229.16	1538.02
229.37	1650.66
229.59	1611.75
229.81	1767.40
230.03	1624.04
230.25	1648.61
230.47	1613.80
230.69	1619.94
230.90	1712.10
231.12	1732.58
231.34	1705.96
231.56	1787.88
231.78	1632.23
232.00	1691.62
232.21	1650.66
232.43	1693.67
232.65	1542.12
232.87	1708.01
233.09	1662.95
233.30	1701.86
233.52	1767.40
233.74	1718.25
233.96	1701.86
234.18	1675.24
234.40	1681.38
234.61	1828.84
234.83	1619.94
235.05	1617.90
235.27	1794.02
235.49	1732.58
235.70	1677.29
235.92	1771.49
236.14	1800.16
236.36	1812.45
236.58	1603.56
236.79	1718.25
237.01	1714.15
237.23	1746.92
237.45	1796.07
237.67	1626.09
237.88	1742.82
238.10	1755.11
238.32	1681.38
238.54	1681.38
238.76	1687.53
238.97	1624.04
239.19	1681.38
239.41	1699.81
239.63	1738.73
239.85	1699.81
240.06	1738.73
240.28	1708.01
240.50	1665.00
240.72	1681.38
240.93	1667.05
241.15	1693.67
241.37	1636.33
241.59	1779.68
241.81	1673.19
242.02	1617.90
242.24	1726.44
242.46	1767.40
242.68	1708.01
242.89	1759.21
243.11	1726.44
243.33	1609.70
243.55	1728.49
243.76	1660.90
243.98	1628.14
244.20	1695.72
244.42	1714.15
244.64	1705.96
244.85	1607.66
245.07	1636.33
245.29	1691.62
245.51	1652.71
245.72	1691.62
245.94	1779.68
246.16	1693.67
246.38	1732.58
246.59	1619.94
246.81	1658.85
247.03	1708.01
247.24	1603.56
247.46	1708.01
247.68	1785.83
247.90	1632.23
248.11	1671.14
248.33	1689.57
248.55	1728.49
248.77	1810.40
248.98	1724.39
249.20	1781.73
249.42	1757.16
249.64	1708.01
249.85	1689.57
250.07	1677.29
250.29	1679.33
250.50	1761.25
250.72	1558.50
250.94	1693.67
251.16	1849.32
251.37	1705.96
251.59	1701.86
251.81	1720.29
252.02	1746.92
252.24	1679.33
252.46	1757.16
252.68	1656.81
252.89	1701.86
253.11	1619.94
253.33	1771.49
253.54	1773.54
253.76	1562.60
253.98	1621.99
254.20	1734.63
254.41	1699.81
254.63	1652.71
254.85	1673.19
255.06	1759.21
255.28	1662.95
255.50	1667.05
255.71	1632.23
255.93	1665.00
256.15	1632.23
256.36	1726.44
256.58	1712.10
256.80	1671.14
257.02	1697.77
257.23	1677.29
257.45	1624.04
257.67	1775.59
257.88	1681.38
258.10	1751.01
258.32	1712.10
258.53	1697.77
258.75	1867.75
258.97	1646.57
259.18	1705.96
259.40	1609.70
259.62	1748.97
259.83	1789.92
260.05	1714.15
260.27	1904.61
260.48	1744.87
260.70	1652.71
260.92	1679.33
261.13	1705.96
261.35	1726.44
261.57	1751.01
261.78	1595.37
262.00	1589.22
262.22	1791.97
262.43	1656.81
262.65	1628.14
262.86	1712.10
263.08	1810.40
263.30	1728.49
263.51	1601.51
263.73	1636.33
263.95	1787.88
264.16	1615.85
264.38	1607.66
264.60	1728.49
264.81	1656.81
265.03	1787.88
265.25	1685.48
265.46	1736.68
265.68	1765.35
265.89	1705.96
266.11	1599.46
266.33	1726.44
266.54	1796.07
266.76	1730.53
266.98	1728.49
267.19	1810.40
267.41	1746.92
267.62	1730.53
267.84	1615.85
268.06	1699.81
268.27	1753.06
268.49	1705.96
268.70	1742.82
268.92	1671.14
269.14	1595.37
269.35	1646.57
269.57	1705.96
269.79	1714.15
270.00	1693.67
270.22	1818.60
270.43	1648.61
270.65	1566.70
270.87	1755.11
271.08	1779.68
271.30	1728.49
271.51	1697.77
271.73	1714.15
271.95	1736.68
272.16	1665.00
272.38	1685.48
272.59	1677.29
272.81	1742.82
273.02	1708.01
273.24	1712.10
273.46	1761.25
273.67	1673.19
273.89	1677.29
274.10	1603.56
274.32	1763.30
274.54	1697.77
274.75	1685.48
274.97	1740.77
275.18	1748.97
275.40	1808.36
275.61	1593.32
275.83	1798.12
276.05	1615.85
276.26	1730.53
276.48	1740.77
276.69	1644.52
276.91	1722.34
277.12	1796.07
277.34	1728.49
277.55	1724.39
277.77	1759.21
277.99	1636.33
278.20	1646.57
278.42	1683.43
278.63	1662.95
278.85	1640.42
279.06	1593.32
279.28	1665.00
279.49	1757.16
279.71	1697.77
279.93	1679.33
280.14	1703.91
280.36	1667.05
280.57	1699.81
280.79	1744.87
281.00	1607.66
281.22	1671.14
281.43	1789.92
281.65	1595.37
281.86	1683.43
282.08	1703.91
282.29	1783.78
282.51	1605.61
282.73	1611.75
282.94	1558.50
283.16	1638.38
283.37	1785.83
283.59	1722.34
283.80	1732.58
284.02	1593.32
284.23	1691.62
284.45	1738.73
284.66	1669.09
284.88	1642.47
285.09	1703.91
285.31	1736.68
285.52	1763.30
285.74	1636.33
285.95	1720.29
286.17	1738.73
286.38	1714.15
286.60	1654.76
286.81	1636.33
287.03	1679.33
287.24	1757.16
287.46	1755.11
287.67	1677.29
287.89	1800.16
288.10	1738.73
288.32	1712.10
288.53	1787.88
288.75	1652.71
288.96	1734.63
289.18	1685.48
289.39	1724.39
289.61	1687.53
289.82	1834.98
290.04	1736.68
290.25	1630.18
290.47	1679.33
290.68	1705.96
290.90	1732.58
291.11	1673.19
291.33	1693.67
291.54	1636.33
291.76	1570.79
291.97	1652.71
292.18	1689.57
292.40	1705.96
292.61	1675.24
292.83	1834.98
293.04	1746.92
293.26	1691.62
293.47	1712.10
293.69	1665.00
293.90	1644.52
294.12	1716.20
294.33	1740.77
294.55	1685.48
294.76	1820.64
294.97	1804.26
295.19	1843.17
295.40	1660.90
295.62	1736.68
295.83	1814.50
296.05	1636.33
296.26	1767.40
296.48	1632.23
296.69	1675.24
296.90	1654.76
297.12	1646.57
297.33	1804.26
297.55	1681.38
297.76	1724.39
297.98	1804.26
298.19	1705.96
298.41	1673.19
298.62	1656.81
298.83	1761.25
299.05	1724.39
299.26	1720.29
299.48	1705.96
299.69	1716.20
299.90	1669.09
300.12	1665.00
300.33	1681.38
300.55	1738.73
300.76	1744.87
300.98	1693.67
301.19	1736.68
301.40	1679.33
301.62	1650.66
301.83	1660.90
302.05	1691.62
302.26	1697.77
302.47	1728.49
302.69	1652.71
302.90	1697.77
303.12	1593.32
303.33	1722.34
303.54	1775.59
303.76	1695.72
303.97	1697.77
304.19	1781.73
304.40	1685.48
304.61	1718.25
304.83	1855.46
305.04	1671.14
305.26	1726.44
305.47	1628.14
305.68	1701.86
305.90	1675.24
306.11	1773.54
306.33	1755.11
306.54	1607.66
306.75	1644.52
306.97	1619.94
307.18	1603.56
307.39	1681.38
307.61	1722.34
307.82	1685.48
308.04	1724.39
308.25	1615.85
308.46	1767.40
308.68	1703.91
308.89	1773.54
309.10	1796.07
309.32	1755.11
309.53	1685.48
309.74	1751.01
309.96	1642.47
310.17	1742.82
310.39	1720.29
310.60	1679.33
310.81	1677.29
311.03	1671.14
311.24	1699.81
311.45	1669.09
311.67	1800.16
311.88	1697.77
312.09	1691.62
312.31	1599.46
312.52	1689.57
312.73	1648.61
312.95	1630.18
313.16	1646.57
313.37	1708.01
313.59	1779.68
313.80	1710.05
314.01	1771.49
314.23	1636.33
314.44	1611.75
314.65	1695.72
314.87	1693.67
315.08	1638.38
315.29	1699.81
315.51	1665.00
315.72	1660.90
315.93	1798.12
316.15	1816.55
316.36	1675.24
316.57	1673.19
316.79	1722.34
317.00	1669.09
317.21	1751.01
317.43	1683.43
317.64	1710.05
317.85	1718.25
318.07	1665.00
318.28	1681.38
318.49	1757.16
318.70	1884.13
318.92	1779.68
319.13	1751.01
319.34	1820.64
319.56	1820.64
319.77	1806.31
319.98	1720.29
320.20	1767.40
320.41	1730.53
320.62	1794.02
320.83	1673.19
321.05	1771.49
321.26	1708.01
321.47	1755.11
321.69	1802.21
321.90	1658.85
322.11	1609.70
322.32	1665.00
322.54	1789.92
322.75	1683.43
322.96	1847.27
323.18	1628.14
323.39	1601.51
323.60	1656.81
323.81	1693.67
324.03	1654.76
324.24	1691.62
324.45	1665.00
324.66	1767.40
324.88	1724.39
325.09	1646.57
325.30	1722.34
325.52	1714.15
325.73	1669.09
325.94	1624.04
326.15	1550.31
326.37	1658.85
326.58	1738.73
326.79	1810.40
327.00	1632.23
327.22	1714.15
327.43	1650.66
327.64	1716.20
327.85	1779.68
328.07	1738.73
328.28	1802.21
328.49	1640.42
328.70	1611.75
328.92	1703.91
329.13	1681.38
329.34	1728.49
329.55	1781.73
329.76	1744.87
329.98	1656.81
330.19	1783.78
330.40	1710.05
330.61	1726.44
330.83	1765.35
331.04	1640.42
331.25	1691.62
331.46	1640.42
331.68	1611.75
331.89	1763.30
332.10	1636.33
332.31	1607.66
332.52	1722.34
332.74	1761.25
332.95	1607.66
333.16	1720.29
333.37	1746.92
333.58	1603.56
333.80	1708.01
334.01	1693.67
334.22	1671.14
334.43	1658.85
334.64	1632.23
334.86	1660.90
335.07	1583.08
335.28	1757.16
335.49	1576.94
335.70	1705.96
335.92	1740.77
336.13	1808.36
336.34	1712.10
336.55	1710.05
336.76	1724.39
336.98	1619.94
337.19	1679.33
337.40	1785.83
337.61	1877.99
337.82	1671.14
338.04	1765.35
338.25	1615.85
338.46	1730.53
338.67	1681.38
338.88	1603.56
339.09	1611.75
339.31	1615.85
339.52	1619.94
339.73	1658.85
339.94	1755.11
340.15	1611.75
340.36	1728.49
340.58	1767.40
340.79	1673.19
341.00	1701.86
341.21	1628.14
341.42	1783.78
341.63	1748.97
341.85	1662.95
342.06	1708.01
342.27	1619.94
342.48	1677.29
342.69	1589.22
342.90	1720.29
343.12	1720.29
343.33	1744.87
343.54	1738.73
343.75	1779.68
343.96	1652.71
344.17	1701.86
344.38	1724.39
344.60	1615.85
344.81	1695.72
345.02	1697.77
345.23	1746.92
345.44	1867.75
345.65	1697.77
345.86	1710.05
346.07	1751.01
346.29	1679.33
346.50	1726.44
346.71	1834.98
346.92	1771.49
347.13	1808.36
347.34	1775.59
347.55	1667.05
347.76	1732.58
347.98	1607.66
348.19	1675.24
348.40	1742.82
348.61	1658.85
348.82	1767.40
349.03	1751.01
349.24	1722.34
349.45	1732.58
349.66	1574.89
349.88	1718.25
350.09	1638.38
350.30	1724.39
350.51	1734.63
350.72	1740.77
350.93	1746.92
351.14	1771.49
351.35	1714.15
351.56	1718.25
351.77	1753.06
351.99	1767.40
352.20	1873.89
352.41	1771.49
352.62	1642.47
352.83	1769.44
353.04	1697.77
353.25	1665.00
353.46	1691.62
353.67	1712.10
353.88	1556.46
354.09	1734.63
354.30	1701.86
354.52	1689.57
354.73	1693.67
354.94	1695.72
355.15	1685.48
355.36	1769.44
355.57	1720.29
355.78	1734.63
355.99	1712.10
356.20	1599.46
356.41	1718.25
356.62	1767.40
356.83	1687.53
357.04	1830.88
357.25	1591.27
357.46	1673.19
357.68	1632.23
357.89	1716.20
358.10	1658.85
358.31	1681.38
358.52	1705.96
358.73	1644.52
358.94	1656.81
359.15	1673.19
359.36	1677.29
359.57	1708.01
359.78	1730.53
359.99	1677.29
360.20	1636.33
360.41	1679.33
360.62	1755.11
360.83	1806.31
361.04	1779.68
361.25	1671.14
361.46	1755.11
361.67	1710.05
361.88	1738.73
362.09	1718.25
362.30	1691.62
362.51	1646.57
362.72	1714.15
362.93	1783.78
363.14	1699.81
363.35	1705.96
363.56	1619.94
363.78	1751.01
363.99	1705.96
364.20	1677.29
364.41	1714.15
364.62	1783.78
364.83	1761.25
365.04	1730.53
365.25	1783.78
365.46	1853.41
365.67	1642.47
365.88	1611.75
366.09	1673.19
366.30	1671.14
366.51	1738.73
366.72	1621.99
366.93	1738.73
367.14	1689.57
367.35	1822.69
367.56	1683.43
367.77	1822.69
367.98	1740.77
368.18	1730.53
368.39	1744.87
368.60	1628.14
368.81	1689.57
369.02	1703.91
369.23	1665.00
369.44	1615.85
369.65	1673.19
369.86	1789.92
370.07	1732.58
370.28	1601.51
370.49	1724.39
370.70	1755.11
370.91	1626.09
371.12	1673.19
371.33	1753.06
371.54	1660.90
371.75	1775.59
371.96	1601.51
372.17	1675.24
372.38	1634.28
372.59	1779.68
372.80	1634.28
373.01	1648.61
373.22	1794.02
373.43	1714.15
373.64	1726.44
373.85	1738.73
374.06	1796.07
374.26	1730.53
374.47	1675.24
374.68	1746.92
374.89	1763.30
375.10	1710.05
375.31	1755.11
375.52	1665.00
375.73	1681.38
375.94	1669.09
376.15	1771.49
376.36	1624.04
376.57	1693.67
376.78	1689.57
376.99	1638.38
377.20	1751.01
377.40	1607.66
377.61	1834.98
377.82	1603.56
378.03	1794.02
378.24	1703.91
378.45	1697.77
378.66	1714.15
378.87	1728.49
379.08	1624.04
379.29	1660.90
379.50	1769.44
379.71	1624.04
379.91	1783.78
380.12	1722.34
380.33	1685.48
380.54	1669.09
380.75	1689.57
380.96	1705.96
381.17	1744.87
381.38	1763.30
381.59	1730.53
381.80	1677.29
382.00	1775.59
382.21	1705.96
382.42	1828.84
382.63	1851.36
382.84	1703.91
383.05	1705.96
383.26	1820.64
383.47	1714.15
383.68	1800.16
383.88	1697.77
384.09	1669.09
384.30	1816.55
384.51	1697.77
384.72	1669.09
384.93	1615.85
385.14	1775.59
385.35	1753.06
385.55	1693.67
385.76	1753.06
385.97	1701.86
386.18	1652.71
386.39	1671.14
386.60	1607.66
386.81	1683.43
387.02	1699.81
387.22	1656.81
387.43	1769.44
387.64	1767.40
387.85	1929.19
388.06	2260.96
388.27	4132.80
388.48	6651.80
388.68	7860.10
388.89	9285.49
389.10	9588.59
389.31	8333.18
389.52	7520.14
389.73	6582.17
389.93	6178.72
390.14	5775.27
390.35	5089.20
390.56	4470.72
390.77	3704.78
390.98	2930.64
391.18	2533.34
391.39	2189.28
391.60	1837.03
391.81	1802.21
392.02	1724.39
392.23	1875.94
392.43	1671.14
392.64	1789.92
392.85	1718.25
393.06	1785.83
393.27	1765.35
393.47	1654.76
393.68	1705.96
393.89	1691.62
394.10	1796.07
394.31	1624.04
394.52	1656.81
394.72	1701.86
394.93	1824.74
395.14	1677.29
395.35	1697.77
395.56	1708.01
395.76	1734.63
395.97	1832.93
396.18	1773.54
396.39	1791.97
396.60	2000.87
396.80	1796.07
397.01	1804.26
397.22	1820.64
397.43	1810.40
397.64	1667.05
397.84	1820.64
398.05	1812.45
398.26	1748.97
398.47	1796.07
398.67	1705.96
398.88	1665.00
399.09	1804.26
399.30	1624.04
399.51	1787.88
399.71	1599.46
399.92	1732.58
400.13	1683.43
400.34	1667.05
400.54	1671.14
400.75	1791.97
400.96	1699.81
401.17	1851.36
401.37	1683.43
401.58	1757.16
401.79	1687.53
402.00	1847.27
402.21	2045.92
402.41	1988.58
402.62	1939.43
402.83	2027.49
403.04	1939.43
403.24	2068.45
403.45	1865.70
403.66	1929.19
403.87	1884.13
404.07	1834.98
404.28	1859.56
404.49	1882.08
404.70	1740.77
404.90	1777.64
405.11	1697.77
405.32	1759.21
405.52	1638.38
405.73	1665.00
405.94	1636.33
406.15	1738.73
406.35	1673.19
406.56	1742.82
406.77	1667.05
406.98	1734.63
407.18	1669.09
407.39	1791.97
407.60	1724.39
407.80	1697.77
408.01	1626.09
408.22	1738.73
408.43	1660.90
408.63	1697.77
408.84	1773.54
409.05	1730.53
409.25	1644.52
409.46	1632.23
409.67	1669.09
409.88	1628.14
410.08	1632.23
410.29	1640.42
410.50	1847.27
410.70	1697.77
410.91	1693.67
411.12	1710.05
411.32	1738.73
411.53	1636.33
411.74	1798.12
411.95	1837.03
412.15	1775.59
412.36	1775.59
412.57	1730.53
412.77	1828.84
412.98	1701.86
413.19	1771.49
413.39	1724.39
413.60	1728.49
413.81	1775.59
414.01	1654.76
414.22	1736.68
414.43	1757.16
414.63	1748.97
414.84	1789.92
415.05	1701.86
415.25	1597.42
415.46	1667.05
415.67	1619.94
415.87	1767.40
416.08	1761.25
416.29	1619.94
416.49	1708.01
416.70	1728.49
416.91	1691.62
417.11	1681.38
417.32	1812.45
417.53	1699.81
417.73	1755.11
417.94	1673.19
418.15	1726.44
418.35	1683.43
418.56	1646.57
418.77	1771.49
418.97	1701.86
419.18	1693.67
419.38	1566.70
419.59	1689.57
419.80	1849.32
420.00	1716.20
420.21	1757.16
420.42	1714.15
420.62	1740.77
420.83	1662.95
421.04	1708.01
421.24	1658.85
421.45	1724.39
421.65	1730.53
421.86	1730.53
422.07	1722.34
422.27	1701.86
422.48	1734.63
422.69	1595.37
422.89	1640.42
423.10	1716.20
423.30	1576.94
423.51	1695.72
423.72	1732.58
423.92	1669.09
424.13	1691.62
424.33	1665.00
424.54	1843.17
424.75	1626.09
424.95	1814.50
425.16	1705.96
425.36	1626.09
425.57	1775.59
425.78	1755.11
425.98	1771.49
426.19	1710.05
426.39	1662.95
426.60	1716.20
426.81	1763.30
427.01	1775.59
427.22	1746.92
427.42	1585.13
427.63	1626.09
427.83	1791.97
428.04	1738.73
428.25	1777.64
428.45	1812.45
428.66	1806.31
428.86	1671.14
429.07	1703.91
429.28	1767.40
429.48	1652.71
429.69	1630.18
429.89	1644.52
430.10	1609.70
430.30	1742.82
430.51	1800.16
430.71	1673.19
430.92	1732.58
431.13	1675.24
431.33	1701.86
431.54	1734.63
431.74	1759.21
431.95	1812.45
432.15	1634.28
432.36	1687.53
432.56	1714.15
432.77	1806.31
432.98	1794.02
433.18	1644.52
433.39	1722.34
433.59	1626.09
433.80	1808.36
434.00	1859.56
434.21	1683.43
434.41	1710.05
434.62	1845.22
434.82	1662.95
435.03	1679.33
435.23	1722.34
435.44	1597.42
435.64	1775.59
435.85	1648.61
436.06	1744.87
436.26	1773.54
436.47	1675.24
436.67	1654.76
436.88	1669.09
437.08	1783.78
437.29	1812.45
437.49	1716.20
437.70	1867.75
437.90	1697.77
438.11	1832.93
438.31	1767.40
438.52	1798.12
438.72	1851.36
438.93	1925.09
439.13	1777.64
439.34	1828.84
439.54	1800.16
439.75	1822.69
439.95	1808.36
440.16	1716.20
440.36	1802.21
440.57	1804.26
440.77	1751.01
440.98	1703.91
441.18	1673.19
441.39	1701.86
441.59	1736.68
441.80	1884.13
442.00	1755.11
442.21	1802.21
442.41	1671.14
442.62	1777.64
442.82	1757.16
443.02	1785.83
443.23	1736.68
443.43	1710.05
443.64	1779.68
443.84	1640.42
444.05	1837.03
444.25	1748.97
444.46	1705.96
444.66	1755.11
444.87	1861.60
445.07	1656.81
445.28	1681.38
445.48	1814.50
445.69	1708.01
445.89	1927.14
446.09	1701.86
446.30	1964.00
446.50	2680.79
446.71	3696.58
446.91	4325.31
447.12	4540.35
447.32	4761.53
447.53	4310.97
447.73	3903.43
447.93	3487.69
448.14	3252.17
448.34	3215.31
448.55	2848.72
448.75	2744.28
448.96	2805.72
449.16	2328.54
449.36	2310.11
449.57	2105.31
449.77	1837.03
449.98	1804.26
450.18	1861.60
450.39	1808.36
450.59	1798.12
450.79	1691.62
451.00	1740.77
451.20	1810.40
451.41	1636.33
451.61	1751.01
451.81	1771.49
452.02	1763.30
452.22	1736.68
452.43	1689.57
452.63	1628.14
