SpectraSuite Data File
++++++++++++++++++++++++++++++++++++
Date: Mon Jun 06 14:16:37 CEST 2016
User: root
Dark Spectrum Present: No
Reference Spectrum Present: No
Number of Sampled Component Spectra: 1
Spectrometers: USB4C02835
Integration Time (usec): 100000 (USB4C02835)
Spectra Averaged: 1 (USB4C02835)
Boxcar Smoothing: 0 (USB4C02835)
Correct for Electrical Dark: No (USB4C02835)
Strobe/Lamp Enabled: No (USB4C02835)
Correct for Detector Non-linearity: No (USB4C02835)
Correct for Stray Light: No (USB4C02835)
Number of Pixels in Processed Spectrum: 3648
>>>>>Begin Processed Spectral Data<<<<<
177.47	1402.86
177.69	1402.86
177.91	1402.86
178.13	1378.28
178.36	1449.96
178.58	1640.42
178.80	1667.05
179.02	1601.51
179.24	1689.57
179.46	1685.48
179.68	1757.16
179.90	1644.52
180.13	1736.68
180.35	1640.42
180.57	1718.25
180.79	1685.48
181.01	1720.29
181.23	1734.63
181.45	1779.68
181.67	1640.42
181.90	1671.14
182.12	1632.23
182.34	1689.57
182.56	1701.86
182.78	1728.49
183.00	1697.77
183.22	1665.00
183.44	1656.81
183.66	1882.08
183.89	1736.68
184.11	1708.01
184.33	1751.01
184.55	1863.65
184.77	1775.59
184.99	1648.61
185.21	1634.28
185.43	1701.86
185.65	1708.01
185.87	1710.05
186.10	1818.60
186.32	1841.12
186.54	1742.82
186.76	1728.49
186.98	1757.16
187.20	1710.05
187.42	1671.14
187.64	1703.91
187.86	1687.53
188.08	1763.30
188.30	1708.01
188.52	1730.53
188.75	1785.83
188.97	1738.73
189.19	1658.85
189.41	1658.85
189.63	1759.21
189.85	1595.37
190.07	1644.52
190.29	1599.46
190.51	1724.39
190.73	1654.76
190.95	1767.40
191.17	1728.49
191.39	1699.81
191.61	1611.75
191.84	1634.28
192.06	1740.77
192.28	1556.46
192.50	1982.43
192.72	1687.53
192.94	1716.20
193.16	1744.87
193.38	1757.16
193.60	1615.85
193.82	1697.77
194.04	1755.11
194.26	1697.77
194.48	1783.78
194.70	1632.23
194.92	1626.09
195.14	1714.15
195.36	1720.29
195.58	1617.90
195.80	1658.85
196.02	1619.94
196.24	1701.86
196.46	1726.44
196.69	1595.37
196.91	1839.08
197.13	1681.38
197.35	1722.34
197.57	1759.21
197.79	1722.34
198.01	1677.29
198.23	1751.01
198.45	1665.00
198.67	1689.57
198.89	1607.66
199.11	1724.39
199.33	1636.33
199.55	1517.54
199.77	1650.66
199.99	1705.96
200.21	1703.91
200.43	1615.85
200.65	1636.33
200.87	1673.19
201.09	1630.18
201.31	1646.57
201.53	1763.30
201.75	1656.81
201.97	1761.25
202.19	1695.72
202.41	1716.20
202.63	1771.49
202.85	1697.77
203.07	1718.25
203.29	1742.82
203.51	1673.19
203.73	1665.00
203.95	1918.95
204.17	1771.49
204.39	1730.53
204.61	1712.10
204.83	1660.90
205.05	1738.73
205.27	1697.77
205.49	1814.50
205.71	1714.15
205.93	1638.38
206.15	1648.61
206.37	1720.29
206.59	1675.24
206.81	1640.42
207.03	1724.39
207.25	1648.61
207.47	1689.57
207.69	1673.19
207.91	1771.49
208.13	1779.68
208.34	1619.94
208.56	1722.34
208.78	1691.62
209.00	1705.96
209.22	1693.67
209.44	1611.75
209.66	1628.14
209.88	1798.12
210.10	1634.28
210.32	1673.19
210.54	1767.40
210.76	1701.86
210.98	1703.91
211.20	1646.57
211.42	1714.15
211.64	1759.21
211.86	1697.77
212.08	1740.77
212.30	1744.87
212.52	1628.14
212.74	1687.53
212.96	1767.40
213.17	1769.44
213.39	1708.01
213.61	1720.29
213.83	1763.30
214.05	1640.42
214.27	1722.34
214.49	1624.04
214.71	1630.18
214.93	1812.45
215.15	1714.15
215.37	1798.12
215.59	1595.37
215.81	1665.00
216.03	1822.69
216.24	1671.14
216.46	1716.20
216.68	1751.01
216.90	1730.53
217.12	1771.49
217.34	1701.86
217.56	1771.49
217.78	1796.07
218.00	1738.73
218.22	1669.09
218.44	1724.39
218.66	1759.21
218.87	1779.68
219.09	1726.44
219.31	1689.57
219.53	1705.96
219.75	1669.09
219.97	1636.33
220.19	1773.54
220.41	1744.87
220.63	1740.77
220.85	1783.78
221.06	1640.42
221.28	1808.36
221.50	1755.11
221.72	1716.20
221.94	1662.95
222.16	1669.09
222.38	1646.57
222.60	1744.87
222.82	1665.00
223.03	1703.91
223.25	1599.46
223.47	1718.25
223.69	1802.21
223.91	1730.53
224.13	1722.34
224.35	1648.61
224.57	1753.06
224.78	1736.68
225.00	1640.42
225.22	1716.20
225.44	1658.85
225.66	1734.63
225.88	1650.66
226.10	1751.01
226.32	1710.05
226.53	1751.01
226.75	1757.16
226.97	1685.48
227.19	1710.05
227.41	1734.63
227.63	1658.85
227.85	1599.46
228.06	1689.57
228.28	1683.43
228.50	1732.58
228.72	1671.14
228.94	1705.96
229.16	1546.22
229.37	1632.23
229.59	1667.05
229.81	1787.88
230.03	1624.04
230.25	1603.56
230.47	1734.63
230.69	1609.70
230.90	1777.64
231.12	1640.42
231.34	1716.20
231.56	1773.54
231.78	1634.28
232.00	1761.25
232.21	1695.72
232.43	1595.37
232.65	1642.47
232.87	1705.96
233.09	1576.94
233.30	1595.37
233.52	1759.21
233.74	1636.33
233.96	1652.71
234.18	1716.20
234.40	1693.67
234.61	1802.21
234.83	1626.09
235.05	1665.00
235.27	1961.95
235.49	1738.73
235.70	1734.63
235.92	1757.16
236.14	1722.34
236.36	1855.46
236.58	1576.94
236.79	1720.29
237.01	1761.25
237.23	1730.53
237.45	1828.84
237.67	1654.76
237.88	1689.57
238.10	1853.41
238.32	1642.47
238.54	1634.28
238.76	1716.20
238.97	1581.03
239.19	1642.47
239.41	1708.01
239.63	1751.01
239.85	1691.62
240.06	1693.67
240.28	1691.62
240.50	1726.44
240.72	1744.87
240.93	1695.72
241.15	1804.26
241.37	1728.49
241.59	1740.77
241.81	1689.57
242.02	1738.73
242.24	1726.44
242.46	1695.72
242.68	1566.70
242.89	1738.73
243.11	1779.68
243.33	1617.90
243.55	1759.21
243.76	1681.38
243.98	1710.05
244.20	1746.92
244.42	1730.53
244.64	1718.25
244.85	1687.53
245.07	1665.00
245.29	1669.09
245.51	1718.25
245.72	1665.00
245.94	1724.39
246.16	1701.86
246.38	1814.50
246.59	1669.09
246.81	1648.61
247.03	1732.58
247.24	1638.38
247.46	1683.43
247.68	1744.87
247.90	1742.82
248.11	1675.24
248.33	1777.64
248.55	1677.29
248.77	1628.14
248.98	1699.81
249.20	1828.84
249.42	1730.53
249.64	1794.02
249.85	1642.47
250.07	1634.28
250.29	1744.87
250.50	1628.14
250.72	1535.98
250.94	1660.90
251.16	1777.64
251.37	1755.11
251.59	1767.40
251.81	1720.29
252.02	1871.84
252.24	1646.57
252.46	1746.92
252.68	1628.14
252.89	1693.67
253.11	1570.79
253.33	1763.30
253.54	1726.44
253.76	1591.27
253.98	1675.24
254.20	1695.72
254.41	1636.33
254.63	1630.18
254.85	1591.27
255.06	1646.57
255.28	1701.86
255.50	1640.42
255.71	1656.81
255.93	1564.65
256.15	1656.81
256.36	1718.25
256.58	1667.05
256.80	1681.38
257.02	1767.40
257.23	1667.05
257.45	1699.81
257.67	1720.29
257.88	1632.23
258.10	1722.34
258.32	1644.52
258.53	1681.38
258.75	1824.74
258.97	1675.24
259.18	1687.53
259.40	1710.05
259.62	1867.75
259.83	1796.07
260.05	1779.68
260.27	1951.71
260.48	1781.73
260.70	1697.77
260.92	1691.62
261.13	1710.05
261.35	1693.67
261.57	1787.88
261.78	1574.89
262.00	1671.14
262.22	1714.15
262.43	1640.42
262.65	1714.15
262.86	1716.20
263.08	1806.31
263.30	1763.30
263.51	1689.57
263.73	1613.80
263.95	1732.58
264.16	1681.38
264.38	1640.42
264.60	1763.30
264.81	1681.38
265.03	1722.34
265.25	1753.06
265.46	1708.01
265.68	1779.68
265.89	1769.44
266.11	1619.94
266.33	1757.16
266.54	1777.64
266.76	1722.34
266.98	1712.10
267.19	1773.54
267.41	1755.11
267.62	1740.77
267.84	1558.50
268.06	1695.72
268.27	1681.38
268.49	1724.39
268.70	1730.53
268.92	1679.33
269.14	1636.33
269.35	1634.28
269.57	1687.53
269.79	1697.77
270.00	1634.28
270.22	1812.45
270.43	1767.40
270.65	1531.88
270.87	1779.68
271.08	1755.11
271.30	1662.95
271.51	1746.92
271.73	1699.81
271.95	1734.63
272.16	1695.72
272.38	1705.96
272.59	1677.29
272.81	1718.25
273.02	1671.14
273.24	1779.68
273.46	1751.01
273.67	1595.37
273.89	1683.43
274.10	1628.14
274.32	1708.01
274.54	1673.19
274.75	1746.92
274.97	1658.85
275.18	1658.85
275.40	1669.09
275.61	1648.61
275.83	1650.66
276.05	1564.65
276.26	1652.71
276.48	1779.68
276.69	1650.66
276.91	1695.72
277.12	1683.43
277.34	1771.49
277.55	1718.25
277.77	1636.33
277.99	1705.96
278.20	1576.94
278.42	1648.61
278.63	1644.52
278.85	1681.38
279.06	1675.24
279.28	1804.26
279.49	1755.11
279.71	1773.54
279.93	1714.15
280.14	1695.72
280.36	1662.95
280.57	1734.63
280.79	1732.58
281.00	1617.90
281.22	1755.11
281.43	1796.07
281.65	1667.05
281.86	1603.56
282.08	1712.10
282.29	1853.41
282.51	1630.18
282.73	1642.47
282.94	1718.25
283.16	1701.86
283.37	1832.93
283.59	1720.29
283.80	1722.34
284.02	1787.88
284.23	1677.29
284.45	1665.00
284.66	1693.67
284.88	1626.09
285.09	1724.39
285.31	1701.86
285.52	1730.53
285.74	1626.09
285.95	1759.21
286.17	1691.62
286.38	1738.73
286.60	1697.77
286.81	1669.09
287.03	1669.09
287.24	1665.00
287.46	1652.71
287.67	1710.05
287.89	1882.08
288.10	1742.82
288.32	1689.57
288.53	1796.07
288.75	1714.15
288.96	1734.63
289.18	1714.15
289.39	1730.53
289.61	1746.92
289.82	1820.64
290.04	1751.01
290.25	1646.57
290.47	1771.49
290.68	1638.38
290.90	1845.22
291.11	1669.09
291.33	1755.11
291.54	1632.23
291.76	1599.46
291.97	1771.49
292.18	1759.21
292.40	1718.25
292.61	1628.14
292.83	1773.54
293.04	1742.82
293.26	1677.29
293.47	1703.91
293.69	1595.37
293.90	1751.01
294.12	1820.64
294.33	1681.38
294.55	1648.61
294.76	1748.97
294.97	1714.15
295.19	1800.16
295.40	1691.62
295.62	1753.06
295.83	1730.53
296.05	1660.90
296.26	1728.49
296.48	1689.57
296.69	1712.10
296.90	1740.77
297.12	1824.74
297.33	1798.12
297.55	1679.33
297.76	1740.77
297.98	1734.63
298.19	1658.85
298.41	1714.15
298.62	1632.23
298.83	1839.08
299.05	1628.14
299.26	1710.05
299.48	1740.77
299.69	1726.44
299.90	1714.15
300.12	1734.63
300.33	1759.21
300.55	1787.88
300.76	1755.11
300.98	1566.70
301.19	1765.35
301.40	1679.33
301.62	1671.14
301.83	1722.34
302.05	1689.57
302.26	1693.67
302.47	1794.02
302.69	1638.38
302.90	1699.81
303.12	1535.98
303.33	1818.60
303.54	1769.44
303.76	1656.81
303.97	1714.15
304.19	1814.50
304.40	1636.33
304.61	1665.00
304.83	1855.46
305.04	1740.77
305.26	1683.43
305.47	1642.47
305.68	1638.38
305.90	1601.51
306.11	1802.21
306.33	1777.64
306.54	1697.77
306.75	1648.61
306.97	1546.22
307.18	1691.62
307.39	1699.81
307.61	1746.92
307.82	1677.29
308.04	1673.19
308.25	1640.42
308.46	1693.67
308.68	1683.43
308.89	1705.96
309.10	1849.32
309.32	1660.90
309.53	1687.53
309.74	1734.63
309.96	1630.18
310.17	1751.01
310.39	1728.49
310.60	1636.33
310.81	1611.75
311.03	1665.00
311.24	1742.82
311.45	1691.62
311.67	1769.44
311.88	1728.49
312.09	1708.01
312.31	1652.71
312.52	1693.67
312.73	1646.57
312.95	1716.20
313.16	1665.00
313.37	1755.11
313.59	1742.82
313.80	1734.63
314.01	1796.07
314.23	1660.90
314.44	1589.22
314.65	1679.33
314.87	1626.09
315.08	1642.47
315.29	1724.39
315.51	1656.81
315.72	1650.66
315.93	1708.01
316.15	1722.34
316.36	1689.57
316.57	1716.20
316.79	1736.68
317.00	1732.58
317.21	1673.19
317.43	1650.66
317.64	1728.49
317.85	1697.77
318.07	1642.47
318.28	1716.20
318.49	1822.69
318.70	1820.64
318.92	1804.26
319.13	1861.60
319.34	1783.78
319.56	1798.12
319.77	1777.64
319.98	1773.54
320.20	1712.10
320.41	1746.92
320.62	1722.34
320.83	1632.23
321.05	1814.50
321.26	1822.69
321.47	1699.81
321.69	1771.49
321.90	1714.15
322.11	1638.38
322.32	1744.87
322.54	1806.31
322.75	1669.09
322.96	1884.13
323.18	1615.85
323.39	1642.47
323.60	1677.29
323.81	1755.11
324.03	1673.19
324.24	1798.12
324.45	1712.10
324.66	1636.33
324.88	1785.83
325.09	1814.50
325.30	1675.24
325.52	1714.15
325.73	1689.57
325.94	1601.51
326.15	1652.71
326.37	1648.61
326.58	1775.59
326.79	1814.50
327.00	1650.66
327.22	1632.23
327.43	1652.71
327.64	1705.96
327.85	1820.64
328.07	1714.15
328.28	1771.49
328.49	1710.05
328.70	1712.10
328.92	1701.86
329.13	1650.66
329.34	1730.53
329.55	1761.25
329.76	1777.64
329.98	1681.38
330.19	1724.39
330.40	1746.92
330.61	1667.05
330.83	1783.78
331.04	1654.76
331.25	1681.38
331.46	1689.57
331.68	1652.71
331.89	1789.92
332.10	1695.72
332.31	1642.47
332.52	1787.88
332.74	1736.68
332.95	1619.94
333.16	1740.77
333.37	1783.78
333.58	1658.85
333.80	1626.09
334.01	1617.90
334.22	1675.24
334.43	1662.95
334.64	1646.57
334.86	1681.38
335.07	1617.90
335.28	1740.77
335.49	1603.56
335.70	1701.86
335.92	1712.10
336.13	1820.64
336.34	1724.39
336.55	1699.81
336.76	1701.86
336.98	1599.46
337.19	1671.14
337.40	1777.64
337.61	1769.44
337.82	1652.71
338.04	1755.11
338.25	1660.90
338.46	1726.44
338.67	1705.96
338.88	1632.23
339.09	1728.49
339.31	1710.05
339.52	1726.44
339.73	1644.52
339.94	1689.57
340.15	1742.82
340.36	1689.57
340.58	1662.95
340.79	1607.66
341.00	1757.16
341.21	1689.57
341.42	1880.04
341.63	1730.53
341.85	1730.53
342.06	1691.62
342.27	1667.05
342.48	1757.16
342.69	1613.80
342.90	1775.59
343.12	1761.25
343.33	1654.76
343.54	1734.63
343.75	1746.92
343.96	1679.33
344.17	1613.80
344.38	1710.05
344.60	1638.38
344.81	1607.66
345.02	1687.53
345.23	1800.16
345.44	1718.25
345.65	1757.16
345.86	1769.44
346.07	1691.62
346.29	1648.61
346.50	1763.30
346.71	1708.01
346.92	1744.87
347.13	1787.88
347.34	1673.19
347.55	1638.38
347.76	1751.01
347.98	1554.41
348.19	1730.53
348.40	1765.35
348.61	1626.09
348.82	1763.30
349.03	1730.53
349.24	1638.38
349.45	1718.25
349.66	1570.79
349.88	1677.29
350.09	1681.38
350.30	1732.58
350.51	1783.78
350.72	1763.30
350.93	1787.88
351.14	1705.96
351.35	1761.25
351.56	1691.62
351.77	1660.90
351.99	1779.68
352.20	1675.24
352.41	1814.50
352.62	1619.94
352.83	1744.87
353.04	1763.30
353.25	1597.42
353.46	1798.12
353.67	1753.06
353.88	1574.89
354.09	1701.86
354.30	1695.72
354.52	1718.25
354.73	1667.05
354.94	1628.14
355.15	1722.34
355.36	1802.21
355.57	1738.73
355.78	1740.77
355.99	1654.76
356.20	1699.81
356.41	1755.11
356.62	1787.88
356.83	1738.73
357.04	1773.54
357.25	1578.98
357.46	1638.38
357.68	1613.80
357.89	1650.66
358.10	1628.14
358.31	1658.85
358.52	1716.20
358.73	1599.46
358.94	1662.95
359.15	1595.37
359.36	1753.06
359.57	1699.81
359.78	1660.90
359.99	1705.96
360.20	1599.46
360.41	1679.33
360.62	1787.88
360.83	1736.68
361.04	1730.53
361.25	1755.11
361.46	1777.64
361.67	1679.33
361.88	1656.81
362.09	1759.21
362.30	1775.59
362.51	1734.63
362.72	1675.24
362.93	1671.14
363.14	1738.73
363.35	1728.49
363.56	1699.81
363.78	1834.98
363.99	1689.57
364.20	1681.38
364.41	1705.96
364.62	1828.84
364.83	1806.31
365.04	1724.39
365.25	1689.57
365.46	1841.12
365.67	1673.19
365.88	1683.43
366.09	1701.86
366.30	1652.71
366.51	1728.49
366.72	1669.09
366.93	1673.19
367.14	1738.73
367.35	1730.53
367.56	1675.24
367.77	1712.10
367.98	1746.92
368.18	1691.62
368.39	1712.10
368.60	1624.04
368.81	1667.05
369.02	1781.73
369.23	1667.05
369.44	1632.23
369.65	1689.57
369.86	1771.49
370.07	1755.11
370.28	1697.77
370.49	1787.88
370.70	1806.31
370.91	1630.18
371.12	1732.58
371.33	1724.39
371.54	1785.83
371.75	1800.16
371.96	1587.18
372.17	1675.24
372.38	1689.57
372.59	1718.25
372.80	1722.34
373.01	1691.62
373.22	1634.28
373.43	1701.86
373.64	1630.18
373.85	1773.54
374.06	1884.13
374.26	1648.61
374.47	1714.15
374.68	1718.25
374.89	1759.21
375.10	1712.10
375.31	1728.49
375.52	1769.44
375.73	1691.62
375.94	1665.00
376.15	1796.07
376.36	1714.15
376.57	1671.14
376.78	1685.48
376.99	1734.63
377.20	1779.68
377.40	1683.43
377.61	1794.02
377.82	1658.85
378.03	1791.97
378.24	1665.00
378.45	1662.95
378.66	1779.68
378.87	1593.32
379.08	1648.61
379.29	1697.77
379.50	1804.26
379.71	1626.09
379.91	1675.24
380.12	1691.62
380.33	1771.49
380.54	1675.24
380.75	1693.67
380.96	1673.19
381.17	1728.49
381.38	1632.23
381.59	1773.54
381.80	1736.68
382.00	1861.60
382.21	1691.62
382.42	1841.12
382.63	1892.32
382.84	1691.62
383.05	1812.45
383.26	1773.54
383.47	1716.20
383.68	1748.97
383.88	1671.14
384.09	1732.58
384.30	1808.36
384.51	1718.25
384.72	1685.48
384.93	1607.66
385.14	1705.96
385.35	1675.24
385.55	1636.33
385.76	1791.97
385.97	1724.39
386.18	1689.57
386.39	1640.42
386.60	1685.48
386.81	1716.20
387.02	1699.81
387.22	1621.99
387.43	1783.78
387.64	1814.50
387.85	1857.51
388.06	2203.61
388.27	4317.12
388.48	6688.67
388.68	8095.62
388.89	9621.36
389.10	9799.53
389.31	8609.66
389.52	7487.37
389.73	6756.25
389.93	6313.89
390.14	5861.29
390.35	5167.03
390.56	4620.22
390.77	3762.12
390.98	3086.29
391.18	2553.82
391.39	2072.54
391.60	1851.36
391.81	1787.88
392.02	1726.44
392.23	1810.40
392.43	1646.57
392.64	1841.12
392.85	1783.78
393.06	1787.88
393.27	1656.81
393.47	1617.90
393.68	1781.73
393.89	1683.43
394.10	1716.20
394.31	1636.33
394.52	1644.52
394.72	1693.67
394.93	1753.06
395.14	1685.48
395.35	1746.92
395.56	1710.05
395.76	1787.88
395.97	1779.68
396.18	1816.55
396.39	1775.59
396.60	2082.78
396.80	1896.42
397.01	1828.84
397.22	1796.07
397.43	1861.60
397.64	1714.15
397.84	1804.26
398.05	1939.43
398.26	1705.96
398.47	1869.80
398.67	1718.25
398.88	1708.01
399.09	1757.16
399.30	1804.26
399.51	1753.06
399.71	1634.28
399.92	1673.19
400.13	1710.05
400.34	1685.48
400.54	1671.14
400.75	1738.73
400.96	1710.05
401.17	1781.73
401.37	1796.07
401.58	1740.77
401.79	1626.09
402.00	1828.84
402.21	1982.43
402.41	1931.23
402.62	2037.73
402.83	2084.83
403.04	2011.11
403.24	1990.63
403.45	1884.13
403.66	1869.80
403.87	1828.84
404.07	1912.80
404.28	1884.13
404.49	1873.89
404.70	1763.30
404.90	1740.77
405.11	1734.63
405.32	1748.97
405.52	1667.05
405.73	1683.43
405.94	1710.05
406.15	1691.62
406.35	1746.92
406.56	1755.11
406.77	1691.62
406.98	1697.77
407.18	1650.66
407.39	1820.64
407.60	1683.43
407.80	1726.44
408.01	1695.72
408.22	1771.49
408.43	1730.53
408.63	1746.92
408.84	1740.77
409.05	1714.15
409.25	1681.38
409.46	1603.56
409.67	1638.38
409.88	1669.09
410.08	1787.88
410.29	1679.33
410.50	1738.73
410.70	1724.39
410.91	1671.14
411.12	1714.15
411.32	1705.96
411.53	1691.62
411.74	1814.50
411.95	1816.55
412.15	1642.47
412.36	1824.74
412.57	1837.03
412.77	1787.88
412.98	1730.53
413.19	1640.42
413.39	1783.78
413.60	1714.15
413.81	1808.36
414.01	1656.81
414.22	1695.72
414.43	1697.77
414.63	1605.61
414.84	1787.88
415.05	1791.97
415.25	1574.89
415.46	1710.05
415.67	1689.57
415.87	1724.39
416.08	1660.90
416.29	1714.15
416.49	1757.16
416.70	1761.25
416.91	1689.57
417.11	1730.53
417.32	1720.29
417.53	1722.34
417.73	1710.05
417.94	1777.64
418.15	1681.38
418.35	1683.43
418.56	1775.59
418.77	1824.74
418.97	1736.68
419.18	1732.58
419.38	1624.04
419.59	1734.63
419.80	1761.25
420.00	1718.25
420.21	1677.29
420.42	1730.53
420.62	1722.34
420.83	1701.86
421.04	1738.73
421.24	1652.71
421.45	1714.15
421.65	1687.53
421.86	1632.23
422.07	1789.92
422.27	1708.01
422.48	1693.67
422.69	1660.90
422.89	1687.53
423.10	1646.57
423.30	1650.66
423.51	1730.53
423.72	1646.57
423.92	1787.88
424.13	1634.28
424.33	1773.54
424.54	1753.06
424.75	1728.49
424.95	1794.02
425.16	1701.86
425.36	1671.14
425.57	1669.09
425.78	1746.92
425.98	1830.88
426.19	1726.44
426.39	1615.85
426.60	1697.77
426.81	1818.60
427.01	1679.33
427.22	1689.57
427.42	1558.50
427.63	1642.47
427.83	1843.17
428.04	1824.74
428.25	1744.87
428.45	1765.35
428.66	1716.20
428.86	1687.53
429.07	1779.68
429.28	1718.25
429.48	1746.92
429.69	1630.18
429.89	1685.48
430.10	1585.13
430.30	1771.49
430.51	1763.30
430.71	1665.00
430.92	1648.61
431.13	1671.14
431.33	1722.34
431.54	1712.10
431.74	1828.84
431.95	1849.32
432.15	1654.76
432.36	1691.62
432.56	1748.97
432.77	1769.44
432.98	1820.64
433.18	1753.06
433.39	1667.05
433.59	1734.63
433.80	1755.11
434.00	1834.98
434.21	1662.95
434.41	1673.19
434.62	1804.26
434.82	1591.27
435.03	1705.96
435.23	1722.34
435.44	1634.28
435.64	1673.19
435.85	1671.14
436.06	1724.39
436.26	1802.21
436.47	1685.48
436.67	1662.95
436.88	1679.33
437.08	1751.01
437.29	1837.03
437.49	1789.92
437.70	1781.73
437.90	1679.33
438.11	1820.64
438.31	1828.84
438.52	1785.83
438.72	1849.32
438.93	1865.70
439.13	1761.25
439.34	1847.27
439.54	1751.01
439.75	1808.36
439.95	1857.51
440.16	1732.58
440.36	1697.77
440.57	1769.44
440.77	1724.39
440.98	1730.53
441.18	1753.06
441.39	1708.01
441.59	1605.61
441.80	1894.37
442.00	1767.40
442.21	1787.88
442.41	1636.33
442.62	1769.44
442.82	1687.53
443.02	1710.05
443.23	1759.21
443.43	1728.49
443.64	1779.68
443.84	1712.10
444.05	1830.88
444.25	1701.86
444.46	1699.81
444.66	1714.15
444.87	1882.08
445.07	1712.10
445.28	1699.81
445.48	1812.45
445.69	1769.44
445.89	1873.89
446.09	1724.39
446.30	2019.30
446.50	2578.39
446.71	3702.73
446.91	4431.80
447.12	4767.67
447.32	4878.26
447.53	4325.31
447.73	3839.94
447.93	3534.79
448.14	3323.85
448.34	3256.27
448.55	2932.69
448.75	2770.90
448.96	2760.66
449.16	2502.62
449.36	2226.14
449.57	2115.55
449.77	1869.80
449.98	1847.27
450.18	1761.25
450.39	1869.80
450.59	1802.21
450.79	1658.85
451.00	1671.14
451.20	1808.36
451.41	1683.43
451.61	1775.59
451.81	1734.63
452.02	1624.04
452.22	1681.38
452.43	1599.46
452.63	1685.48
