SpectraSuite Data File
++++++++++++++++++++++++++++++++++++
Date: Mon Jun 06 14:34:57 CEST 2016
User: root
Dark Spectrum Present: No
Reference Spectrum Present: No
Number of Sampled Component Spectra: 1
Spectrometers: USB4C02835
Integration Time (usec): 100000 (USB4C02835)
Spectra Averaged: 1 (USB4C02835)
Boxcar Smoothing: 0 (USB4C02835)
Correct for Electrical Dark: No (USB4C02835)
Strobe/Lamp Enabled: No (USB4C02835)
Correct for Detector Non-linearity: No (USB4C02835)
Correct for Stray Light: No (USB4C02835)
Number of Pixels in Processed Spectrum: 3648
>>>>>Begin Processed Spectral Data<<<<<
177.47	1423.34
177.69	1423.34
177.91	1423.34
178.13	1472.49
178.36	1460.20
178.58	1665.00
178.80	1720.29
179.02	1589.22
179.24	1675.24
179.46	1671.14
179.68	1710.05
179.90	1693.67
180.13	1732.58
180.35	1605.61
180.57	1669.09
180.79	1808.36
181.01	1640.42
181.23	1751.01
181.45	1828.84
181.67	1755.11
181.90	1765.35
182.12	1654.76
182.34	1638.38
182.56	1693.67
182.78	1730.53
183.00	1814.50
183.22	1595.37
183.44	1566.70
183.66	1837.03
183.89	1767.40
184.11	1691.62
184.33	1740.77
184.55	1738.73
184.77	1751.01
184.99	1646.57
185.21	1746.92
185.43	1830.88
185.65	1595.37
185.87	1652.71
186.10	1880.04
186.32	1806.31
186.54	1726.44
186.76	1732.58
186.98	1751.01
187.20	1705.96
187.42	1705.96
187.64	1673.19
187.86	1705.96
188.08	1720.29
188.30	1689.57
188.52	1714.15
188.75	1796.07
188.97	1820.64
189.19	1675.24
189.41	1712.10
189.63	1714.15
189.85	1671.14
190.07	1650.66
190.29	1632.23
190.51	1646.57
190.73	1605.61
190.95	1787.88
191.17	1673.19
191.39	1656.81
191.61	1681.38
191.84	1742.82
192.06	1716.20
192.28	1624.04
192.50	1871.84
192.72	1697.77
192.94	1695.72
193.16	1656.81
193.38	1705.96
193.60	1601.51
193.82	1748.97
194.04	1779.68
194.26	1681.38
194.48	1681.38
194.70	1701.86
194.92	1638.38
195.14	1695.72
195.36	1675.24
195.58	1693.67
195.80	1638.38
196.02	1636.33
196.24	1675.24
196.46	1730.53
196.69	1613.80
196.91	1802.21
197.13	1671.14
197.35	1697.77
197.57	1834.98
197.79	1783.78
198.01	1775.59
198.23	1693.67
198.45	1716.20
198.67	1636.33
198.89	1685.48
199.11	1673.19
199.33	1673.19
199.55	1544.17
199.77	1691.62
199.99	1726.44
200.21	1732.58
200.43	1728.49
200.65	1646.57
200.87	1564.65
201.09	1646.57
201.31	1695.72
201.53	1765.35
201.75	1697.77
201.97	1701.86
202.19	1724.39
202.41	1726.44
202.63	1796.07
202.85	1728.49
203.07	1658.85
203.29	1665.00
203.51	1615.85
203.73	1570.79
203.95	1947.62
204.17	1705.96
204.39	1744.87
204.61	1712.10
204.83	1638.38
205.05	1759.21
205.27	1834.98
205.49	1796.07
205.71	1726.44
205.93	1691.62
206.15	1691.62
206.37	1748.97
206.59	1673.19
206.81	1679.33
207.03	1683.43
207.25	1699.81
207.47	1738.73
207.69	1703.91
207.91	1740.77
208.13	1769.44
208.34	1654.76
208.56	1710.05
208.78	1775.59
209.00	1673.19
209.22	1736.68
209.44	1710.05
209.66	1642.47
209.88	1710.05
210.10	1671.14
210.32	1669.09
210.54	1783.78
210.76	1660.90
210.98	1789.92
211.20	1611.75
211.42	1699.81
211.64	1789.92
211.86	1708.01
212.08	1669.09
212.30	1687.53
212.52	1736.68
212.74	1644.52
212.96	1691.62
213.17	1783.78
213.39	1677.29
213.61	1705.96
213.83	1740.77
214.05	1607.66
214.27	1767.40
214.49	1511.40
214.71	1693.67
214.93	1810.40
215.15	1691.62
215.37	1693.67
215.59	1644.52
215.81	1785.83
216.03	1773.54
216.24	1761.25
216.46	1683.43
216.68	1673.19
216.90	1720.29
217.12	1701.86
217.34	1693.67
217.56	1755.11
217.78	1785.83
218.00	1759.21
218.22	1695.72
218.44	1705.96
218.66	1742.82
218.87	1779.68
219.09	1660.90
219.31	1705.96
219.53	1740.77
219.75	1714.15
219.97	1718.25
220.19	1757.16
220.41	1693.67
220.63	1812.45
220.85	1738.73
221.06	1642.47
221.28	1734.63
221.50	1673.19
221.72	1744.87
221.94	1705.96
222.16	1783.78
222.38	1783.78
222.60	1724.39
222.82	1671.14
223.03	1775.59
223.25	1558.50
223.47	1763.30
223.69	1822.69
223.91	1826.79
224.13	1769.44
224.35	1660.90
224.57	1724.39
224.78	1738.73
225.00	1615.85
225.22	1695.72
225.44	1718.25
225.66	1701.86
225.88	1724.39
226.10	1742.82
226.32	1742.82
226.53	1767.40
226.75	1734.63
226.97	1714.15
227.19	1726.44
227.41	1562.60
227.63	1638.38
227.85	1599.46
228.06	1734.63
228.28	1636.33
228.50	1726.44
228.72	1660.90
228.94	1705.96
229.16	1650.66
229.37	1591.27
229.59	1662.95
229.81	1812.45
230.03	1714.15
230.25	1572.84
230.47	1656.81
230.69	1644.52
230.90	1773.54
231.12	1695.72
231.34	1708.01
231.56	1841.12
231.78	1646.57
232.00	1685.48
232.21	1669.09
232.43	1654.76
232.65	1591.27
232.87	1705.96
233.09	1660.90
233.30	1673.19
233.52	1730.53
233.74	1667.05
233.96	1705.96
234.18	1691.62
234.40	1632.23
234.61	1763.30
234.83	1621.99
235.05	1615.85
235.27	1824.74
235.49	1716.20
235.70	1662.95
235.92	1814.50
236.14	1677.29
236.36	1886.18
236.58	1677.29
236.79	1775.59
237.01	1656.81
237.23	1753.06
237.45	1791.97
237.67	1646.57
237.88	1679.33
238.10	1787.88
238.32	1632.23
238.54	1669.09
238.76	1624.04
238.97	1634.28
239.19	1734.63
239.41	1761.25
239.63	1714.15
239.85	1705.96
240.06	1751.01
240.28	1617.90
240.50	1798.12
240.72	1693.67
240.93	1673.19
241.15	1794.02
241.37	1705.96
241.59	1685.48
241.81	1791.97
242.02	1736.68
242.24	1728.49
242.46	1650.66
242.68	1638.38
242.89	1628.14
243.11	1763.30
243.33	1626.09
243.55	1763.30
243.76	1695.72
243.98	1656.81
244.20	1701.86
244.42	1675.24
244.64	1771.49
244.85	1632.23
245.07	1636.33
245.29	1738.73
245.51	1632.23
245.72	1730.53
245.94	1671.14
246.16	1669.09
246.38	1826.79
246.59	1701.86
246.81	1650.66
247.03	1656.81
247.24	1611.75
247.46	1699.81
247.68	1779.68
247.90	1656.81
248.11	1642.47
248.33	1746.92
248.55	1681.38
248.77	1716.20
248.98	1716.20
249.20	1777.64
249.42	1646.57
249.64	1783.78
249.85	1699.81
250.07	1683.43
250.29	1789.92
250.50	1767.40
250.72	1673.19
250.94	1791.97
251.16	1837.03
251.37	1822.69
251.59	1767.40
251.81	1705.96
252.02	1724.39
252.24	1675.24
252.46	1697.77
252.68	1617.90
252.89	1669.09
253.11	1656.81
253.33	1779.68
253.54	1828.84
253.76	1591.27
253.98	1708.01
254.20	1718.25
254.41	1611.75
254.63	1708.01
254.85	1650.66
255.06	1742.82
255.28	1771.49
255.50	1669.09
255.71	1681.38
255.93	1718.25
256.15	1613.80
256.36	1708.01
256.58	1677.29
256.80	1812.45
257.02	1701.86
257.23	1673.19
257.45	1740.77
257.67	1705.96
257.88	1693.67
258.10	1683.43
258.32	1732.58
258.53	1726.44
258.75	1882.08
258.97	1628.14
259.18	1695.72
259.40	1691.62
259.62	1806.31
259.83	1802.21
260.05	1767.40
260.27	2004.96
260.48	1708.01
260.70	1679.33
260.92	1755.11
261.13	1787.88
261.35	1673.19
261.57	1656.81
261.78	1681.38
262.00	1628.14
262.22	1695.72
262.43	1697.77
262.65	1746.92
262.86	1726.44
263.08	1873.89
263.30	1644.52
263.51	1658.85
263.73	1669.09
263.95	1779.68
264.16	1665.00
264.38	1648.61
264.60	1761.25
264.81	1667.05
265.03	1658.85
265.25	1744.87
265.46	1630.18
265.68	1763.30
265.89	1701.86
266.11	1648.61
266.33	1716.20
266.54	1808.36
266.76	1687.53
266.98	1775.59
267.19	1802.21
267.41	1777.64
267.62	1705.96
267.84	1572.84
268.06	1695.72
268.27	1755.11
268.49	1773.54
268.70	1761.25
268.92	1656.81
269.14	1628.14
269.35	1585.13
269.57	1791.97
269.79	1751.01
270.00	1689.57
270.22	1771.49
270.43	1697.77
270.65	1650.66
270.87	1759.21
271.08	1732.58
271.30	1712.10
271.51	1675.24
271.73	1759.21
271.95	1748.97
272.16	1710.05
272.38	1724.39
272.59	1652.71
272.81	1667.05
273.02	1724.39
273.24	1685.48
273.46	1755.11
273.67	1654.76
273.89	1626.09
274.10	1640.42
274.32	1800.16
274.54	1679.33
274.75	1705.96
274.97	1650.66
275.18	1779.68
275.40	1689.57
275.61	1761.25
275.83	1755.11
276.05	1669.09
276.26	1677.29
276.48	1767.40
276.69	1665.00
276.91	1665.00
277.12	1851.36
277.34	1798.12
277.55	1802.21
277.77	1673.19
277.99	1646.57
278.20	1591.27
278.42	1726.44
278.63	1562.60
278.85	1626.09
279.06	1671.14
279.28	1740.77
279.49	1681.38
279.71	1765.35
279.93	1708.01
280.14	1763.30
280.36	1675.24
280.57	1765.35
280.79	1701.86
281.00	1681.38
281.22	1654.76
281.43	1695.72
281.65	1525.74
281.86	1636.33
282.08	1777.64
282.29	1837.03
282.51	1607.66
282.73	1648.61
282.94	1632.23
283.16	1796.07
283.37	1875.94
283.59	1691.62
283.80	1730.53
284.02	1746.92
284.23	1716.20
284.45	1691.62
284.66	1593.32
284.88	1675.24
285.09	1775.59
285.31	1761.25
285.52	1753.06
285.74	1640.42
285.95	1808.36
286.17	1718.25
286.38	1689.57
286.60	1611.75
286.81	1734.63
287.03	1746.92
287.24	1712.10
287.46	1710.05
287.67	1662.95
287.89	1865.70
288.10	1646.57
288.32	1705.96
288.53	1753.06
288.75	1755.11
288.96	1724.39
289.18	1685.48
289.39	1714.15
289.61	1746.92
289.82	1722.34
290.04	1789.92
290.25	1665.00
290.47	1685.48
290.68	1732.58
290.90	1761.25
291.11	1621.99
291.33	1769.44
291.54	1634.28
291.76	1683.43
291.97	1691.62
292.18	1718.25
292.40	1732.58
292.61	1656.81
292.83	1781.73
293.04	1683.43
293.26	1755.11
293.47	1738.73
293.69	1673.19
293.90	1703.91
294.12	1767.40
294.33	1699.81
294.55	1777.64
294.76	1718.25
294.97	1796.07
295.19	1812.45
295.40	1656.81
295.62	1677.29
295.83	1732.58
296.05	1634.28
296.26	1783.78
296.48	1634.28
296.69	1671.14
296.90	1693.67
297.12	1736.68
297.33	1734.63
297.55	1736.68
297.76	1759.21
297.98	1757.16
298.19	1667.05
298.41	1632.23
298.62	1607.66
298.83	1742.82
299.05	1632.23
299.26	1673.19
299.48	1601.51
299.69	1662.95
299.90	1685.48
300.12	1671.14
300.33	1755.11
300.55	1746.92
300.76	1746.92
300.98	1650.66
301.19	1738.73
301.40	1638.38
301.62	1724.39
301.83	1673.19
302.05	1693.67
302.26	1769.44
302.47	1665.00
302.69	1640.42
302.90	1681.38
303.12	1591.27
303.33	1738.73
303.54	1800.16
303.76	1646.57
303.97	1746.92
304.19	1761.25
304.40	1652.71
304.61	1732.58
304.83	1748.97
305.04	1734.63
305.26	1773.54
305.47	1730.53
305.68	1710.05
305.90	1605.61
306.11	1689.57
306.33	1656.81
306.54	1683.43
306.75	1691.62
306.97	1603.56
307.18	1648.61
307.39	1665.00
307.61	1701.86
307.82	1759.21
308.04	1746.92
308.25	1708.01
308.46	1802.21
308.68	1791.97
308.89	1716.20
309.10	1775.59
309.32	1693.67
309.53	1761.25
309.74	1691.62
309.96	1693.67
310.17	1712.10
310.39	1673.19
310.60	1716.20
310.81	1671.14
311.03	1667.05
311.24	1781.73
311.45	1712.10
311.67	1771.49
311.88	1681.38
312.09	1693.67
312.31	1642.47
312.52	1703.91
312.73	1609.70
312.95	1656.81
313.16	1605.61
313.37	1820.64
313.59	1765.35
313.80	1761.25
314.01	1718.25
314.23	1667.05
314.44	1718.25
314.65	1574.89
314.87	1693.67
315.08	1660.90
315.29	1626.09
315.51	1601.51
315.72	1583.08
315.93	1822.69
316.15	1757.16
316.36	1673.19
316.57	1689.57
316.79	1738.73
317.00	1640.42
317.21	1820.64
317.43	1660.90
317.64	1722.34
317.85	1695.72
318.07	1626.09
318.28	1804.26
318.49	1781.73
318.70	1851.36
318.92	1824.74
319.13	1804.26
319.34	1841.12
319.56	1703.91
319.77	1761.25
319.98	1773.54
320.20	1775.59
320.41	1769.44
320.62	1748.97
320.83	1701.86
321.05	1861.60
321.26	1751.01
321.47	1736.68
321.69	1724.39
321.90	1714.15
322.11	1724.39
322.32	1703.91
322.54	1779.68
322.75	1691.62
322.96	1757.16
323.18	1675.24
323.39	1638.38
323.60	1605.61
323.81	1730.53
324.03	1763.30
324.24	1675.24
324.45	1703.91
324.66	1738.73
324.88	1740.77
325.09	1771.49
325.30	1665.00
325.52	1693.67
325.73	1718.25
325.94	1673.19
326.15	1562.60
326.37	1699.81
326.58	1740.77
326.79	1826.79
327.00	1673.19
327.22	1755.11
327.43	1607.66
327.64	1640.42
327.85	1677.29
328.07	1740.77
328.28	1820.64
328.49	1683.43
328.70	1652.71
328.92	1652.71
329.13	1669.09
329.34	1732.58
329.55	1822.69
329.76	1779.68
329.98	1726.44
330.19	1769.44
330.40	1748.97
330.61	1728.49
330.83	1757.16
331.04	1710.05
331.25	1679.33
331.46	1773.54
331.68	1658.85
331.89	1744.87
332.10	1665.00
332.31	1638.38
332.52	1642.47
332.74	1716.20
332.95	1634.28
333.16	1761.25
333.37	1753.06
333.58	1697.77
333.80	1740.77
334.01	1650.66
334.22	1642.47
334.43	1665.00
334.64	1710.05
334.86	1570.79
335.07	1675.24
335.28	1771.49
335.49	1605.61
335.70	1720.29
335.92	1761.25
336.13	1886.18
336.34	1679.33
336.55	1691.62
336.76	1665.00
336.98	1548.26
337.19	1701.86
337.40	1820.64
337.61	1869.80
337.82	1679.33
338.04	1728.49
338.25	1591.27
338.46	1693.67
338.67	1648.61
338.88	1677.29
339.09	1587.18
339.31	1718.25
339.52	1638.38
339.73	1621.99
339.94	1708.01
340.15	1806.31
340.36	1738.73
340.58	1697.77
340.79	1685.48
341.00	1748.97
341.21	1701.86
341.42	1796.07
341.63	1658.85
341.85	1775.59
342.06	1734.63
342.27	1685.48
342.48	1791.97
342.69	1658.85
342.90	1724.39
343.12	1722.34
343.33	1714.15
343.54	1722.34
343.75	1755.11
343.96	1712.10
344.17	1626.09
344.38	1691.62
344.60	1677.29
344.81	1650.66
345.02	1685.48
345.23	1779.68
345.44	1787.88
345.65	1812.45
345.86	1808.36
346.07	1662.95
346.29	1708.01
346.50	1677.29
346.71	1742.82
346.92	1781.73
347.13	1828.84
347.34	1722.34
347.55	1640.42
347.76	1755.11
347.98	1644.52
348.19	1621.99
348.40	1763.30
348.61	1599.46
348.82	1738.73
349.03	1716.20
349.24	1712.10
349.45	1794.02
349.66	1626.09
349.88	1693.67
350.09	1632.23
350.30	1796.07
350.51	1732.58
350.72	1730.53
350.93	1730.53
351.14	1669.09
351.35	1705.96
351.56	1671.14
351.77	1724.39
351.99	1775.59
352.20	1736.68
352.41	1771.49
352.62	1591.27
352.83	1742.82
353.04	1630.18
353.25	1695.72
353.46	1791.97
353.67	1722.34
353.88	1583.08
354.09	1693.67
354.30	1695.72
354.52	1742.82
354.73	1673.19
354.94	1636.33
355.15	1730.53
355.36	1779.68
355.57	1609.70
355.78	1628.14
355.99	1677.29
356.20	1699.81
356.41	1751.01
356.62	1730.53
356.83	1730.53
357.04	1796.07
357.25	1603.56
357.46	1662.95
357.68	1648.61
357.89	1728.49
358.10	1714.15
358.31	1726.44
358.52	1720.29
358.73	1552.36
358.94	1640.42
359.15	1748.97
359.36	1744.87
359.57	1820.64
359.78	1705.96
359.99	1718.25
360.20	1621.99
360.41	1652.71
360.62	1785.83
360.83	1708.01
361.04	1720.29
361.25	1742.82
361.46	1767.40
361.67	1738.73
361.88	1804.26
362.09	1671.14
362.30	1718.25
362.51	1705.96
362.72	1708.01
362.93	1785.83
363.14	1732.58
363.35	1656.81
363.56	1757.16
363.78	1781.73
363.99	1734.63
364.20	1728.49
364.41	1675.24
364.62	1822.69
364.83	1662.95
365.04	1759.21
365.25	1640.42
365.46	1812.45
365.67	1619.94
365.88	1632.23
366.09	1687.53
366.30	1716.20
366.51	1708.01
366.72	1673.19
366.93	1716.20
367.14	1669.09
367.35	1796.07
367.56	1677.29
367.77	1757.16
367.98	1693.67
368.18	1767.40
368.39	1787.88
368.60	1626.09
368.81	1734.63
369.02	1689.57
369.23	1712.10
369.44	1632.23
369.65	1681.38
369.86	1738.73
370.07	1753.06
370.28	1656.81
370.49	1753.06
370.70	1718.25
370.91	1609.70
371.12	1652.71
371.33	1714.15
371.54	1634.28
371.75	1865.70
371.96	1527.78
372.17	1650.66
372.38	1679.33
372.59	1769.44
372.80	1654.76
373.01	1656.81
373.22	1695.72
373.43	1689.57
373.64	1607.66
373.85	1724.39
374.06	1789.92
374.26	1771.49
374.47	1703.91
374.68	1824.74
374.89	1714.15
375.10	1671.14
375.31	1812.45
375.52	1730.53
375.73	1730.53
375.94	1669.09
376.15	1814.50
376.36	1636.33
376.57	1679.33
376.78	1638.38
376.99	1724.39
377.20	1796.07
377.40	1681.38
377.61	1734.63
377.82	1562.60
378.03	1798.12
378.24	1667.05
378.45	1724.39
378.66	1679.33
378.87	1673.19
379.08	1683.43
379.29	1718.25
379.50	1736.68
379.71	1710.05
379.91	1722.34
380.12	1689.57
380.33	1763.30
380.54	1656.81
380.75	1624.04
380.96	1751.01
381.17	1693.67
381.38	1675.24
381.59	1775.59
381.80	1714.15
382.00	1812.45
382.21	1712.10
382.42	1847.27
382.63	1849.32
382.84	1773.54
383.05	1779.68
383.26	1767.40
383.47	1730.53
383.68	1748.97
383.88	1759.21
384.09	1726.44
384.30	1818.60
384.51	1765.35
384.72	1669.09
384.93	1587.18
385.14	1695.72
385.35	1771.49
385.55	1548.26
385.76	1830.88
385.97	1669.09
386.18	1708.01
386.39	1621.99
386.60	1738.73
386.81	1748.97
387.02	1699.81
387.22	1685.48
387.43	1765.35
387.64	1748.97
387.85	1849.32
388.06	2258.91
388.27	4204.48
388.48	6850.46
388.68	8202.11
388.89	9676.65
389.10	9774.95
389.31	8521.60
389.52	7577.48
389.73	6737.82
389.93	6305.70
390.14	5781.42
390.35	5205.94
390.56	4493.24
390.77	3698.63
390.98	3004.37
391.18	2525.15
391.39	2146.27
391.60	1865.70
391.81	1861.60
392.02	1730.53
392.23	1898.47
392.43	1697.77
392.64	1802.21
392.85	1662.95
393.06	1744.87
393.27	1708.01
393.47	1656.81
393.68	1738.73
393.89	1656.81
394.10	1787.88
394.31	1697.77
394.52	1566.70
394.72	1695.72
394.93	1804.26
395.14	1689.57
395.35	1658.85
395.56	1650.66
395.76	1736.68
395.97	1775.59
396.18	1867.75
396.39	1890.28
396.60	2054.11
396.80	1918.95
397.01	1796.07
397.22	1800.16
397.43	1886.18
397.64	1753.06
397.84	1789.92
398.05	1808.36
398.26	1732.58
398.47	1767.40
398.67	1779.68
398.88	1703.91
399.09	1738.73
399.30	1691.62
399.51	1773.54
399.71	1581.03
399.92	1654.76
400.13	1767.40
400.34	1734.63
400.54	1708.01
400.75	1832.93
400.96	1765.35
401.17	1834.98
401.37	1769.44
401.58	1644.52
401.79	1783.78
402.00	1912.80
402.21	2035.68
402.41	1945.57
402.62	1906.66
402.83	2009.06
403.04	1980.39
403.24	2062.30
403.45	1794.02
403.66	2037.73
403.87	1857.51
404.07	1955.81
404.28	1843.17
404.49	1775.59
404.70	1748.97
404.90	1677.29
405.11	1804.26
405.32	1732.58
405.52	1671.14
405.73	1634.28
405.94	1683.43
406.15	1660.90
406.35	1734.63
406.56	1708.01
406.77	1734.63
406.98	1734.63
407.18	1679.33
407.39	1828.84
407.60	1738.73
407.80	1738.73
408.01	1654.76
408.22	1812.45
408.43	1703.91
408.63	1779.68
408.84	1806.31
409.05	1689.57
409.25	1628.14
409.46	1691.62
409.67	1730.53
409.88	1626.09
410.08	1701.86
410.29	1695.72
410.50	1703.91
410.70	1832.93
410.91	1624.04
411.12	1720.29
411.32	1726.44
411.53	1712.10
411.74	1675.24
411.95	1853.41
412.15	1751.01
412.36	1665.00
412.57	1718.25
412.77	1804.26
412.98	1761.25
413.19	1775.59
413.39	1734.63
413.60	1773.54
413.81	1789.92
414.01	1626.09
414.22	1726.44
414.43	1730.53
414.63	1679.33
414.84	1730.53
415.05	1755.11
415.25	1632.23
415.46	1724.39
415.67	1624.04
415.87	1693.67
416.08	1710.05
416.29	1714.15
416.49	1730.53
416.70	1695.72
416.91	1675.24
417.11	1742.82
417.32	1783.78
417.53	1714.15
417.73	1734.63
417.94	1691.62
418.15	1738.73
418.35	1671.14
418.56	1675.24
418.77	1816.55
418.97	1671.14
419.18	1689.57
419.38	1585.13
419.59	1679.33
419.80	1771.49
420.00	1656.81
420.21	1822.69
420.42	1841.12
420.62	1701.86
420.83	1617.90
421.04	1673.19
421.24	1634.28
421.45	1687.53
421.65	1697.77
421.86	1669.09
422.07	1712.10
422.27	1714.15
422.48	1791.97
422.69	1648.61
422.89	1665.00
423.10	1683.43
423.30	1656.81
423.51	1738.73
423.72	1740.77
423.92	1705.96
424.13	1624.04
424.33	1746.92
424.54	1771.49
424.75	1753.06
424.95	1796.07
425.16	1771.49
425.36	1669.09
425.57	1722.34
425.78	1665.00
425.98	1787.88
426.19	1701.86
426.39	1621.99
426.60	1714.15
426.81	1832.93
427.01	1796.07
427.22	1771.49
427.42	1587.18
427.63	1652.71
427.83	1759.21
428.04	1796.07
428.25	1824.74
428.45	1800.16
428.66	1785.83
428.86	1667.05
429.07	1703.91
429.28	1677.29
429.48	1736.68
429.69	1632.23
429.89	1722.34
430.10	1675.24
430.30	1699.81
430.51	1738.73
430.71	1665.00
430.92	1675.24
431.13	1681.38
431.33	1767.40
431.54	1742.82
431.74	1773.54
431.95	1732.58
432.15	1708.01
432.36	1722.34
432.56	1789.92
432.77	1824.74
432.98	1796.07
433.18	1716.20
433.39	1665.00
433.59	1679.33
433.80	1877.99
434.00	1896.42
434.21	1648.61
434.41	1718.25
434.62	1849.32
434.82	1634.28
435.03	1619.94
435.23	1724.39
435.44	1656.81
435.64	1683.43
435.85	1742.82
436.06	1738.73
436.26	1693.67
436.47	1679.33
436.67	1679.33
436.88	1710.05
437.08	1732.58
437.29	1828.84
437.49	1759.21
437.70	1771.49
437.90	1681.38
438.11	1902.56
438.31	1730.53
438.52	1843.17
438.72	1884.13
438.93	1880.04
439.13	1845.22
439.34	1849.32
439.54	1765.35
439.75	1808.36
439.95	1751.01
440.16	1728.49
440.36	1720.29
440.57	1800.16
440.77	1791.97
440.98	1695.72
441.18	1751.01
441.39	1650.66
441.59	1687.53
441.80	1808.36
442.00	1781.73
442.21	1781.73
442.41	1673.19
442.62	1693.67
442.82	1667.05
443.02	1685.48
443.23	1763.30
443.43	1738.73
443.64	1865.70
443.84	1689.57
444.05	1806.31
444.25	1777.64
444.46	1695.72
444.66	1718.25
444.87	1781.73
445.07	1626.09
445.28	1673.19
445.48	1851.36
445.69	1804.26
445.89	1873.89
446.09	1775.59
446.30	1988.58
446.50	2723.80
446.71	3913.67
446.91	4384.70
447.12	4863.93
447.32	4919.22
447.53	4327.36
447.73	3772.36
447.93	3510.22
448.14	3319.76
448.34	3256.27
448.55	2910.16
448.75	2752.47
448.96	2650.07
449.16	2467.80
449.36	2308.06
449.57	2064.35
449.77	1892.32
449.98	1761.25
450.18	1791.97
450.39	1837.03
450.59	1808.36
450.79	1701.86
451.00	1724.39
451.20	1779.68
451.41	1751.01
451.61	1736.68
451.81	1687.53
452.02	1665.00
452.22	1703.91
452.43	1730.53
452.63	1642.47
