SpectraSuite Data File
++++++++++++++++++++++++++++++++++++
Date: Mon Jun 06 14:05:17 CEST 2016
User: root
Dark Spectrum Present: No
Reference Spectrum Present: No
Number of Sampled Component Spectra: 1
Spectrometers: USB4C02835
Integration Time (usec): 100000 (USB4C02835)
Spectra Averaged: 1 (USB4C02835)
Boxcar Smoothing: 0 (USB4C02835)
Correct for Electrical Dark: No (USB4C02835)
Strobe/Lamp Enabled: No (USB4C02835)
Correct for Detector Non-linearity: No (USB4C02835)
Correct for Stray Light: No (USB4C02835)
Number of Pixels in Processed Spectrum: 3648
>>>>>Begin Processed Spectral Data<<<<<
177.47	1382.38
177.69	1382.38
177.91	1382.38
178.13	1484.78
178.36	1472.49
178.58	1542.12
178.80	1710.05
179.02	1595.37
179.24	1642.47
179.46	1697.77
179.68	1736.68
179.90	1673.19
180.13	1699.81
180.35	1603.56
180.57	1753.06
180.79	1779.68
181.01	1697.77
181.23	1796.07
181.45	1755.11
181.67	1650.66
181.90	1710.05
182.12	1669.09
182.34	1607.66
182.56	1720.29
182.78	1697.77
183.00	1689.57
183.22	1681.38
183.44	1677.29
183.66	1877.99
183.89	1789.92
184.11	1650.66
184.33	1699.81
184.55	1724.39
184.77	1660.90
184.99	1773.54
185.21	1701.86
185.43	1794.02
185.65	1703.91
185.87	1753.06
186.10	1812.45
186.32	1802.21
186.54	1753.06
186.76	1763.30
186.98	1779.68
187.20	1679.33
187.42	1675.24
187.64	1705.96
187.86	1748.97
188.08	1746.92
188.30	1703.91
188.52	1681.38
188.75	1701.86
188.97	1765.35
189.19	1648.61
189.41	1734.63
189.63	1718.25
189.85	1634.28
190.07	1576.94
190.29	1621.99
190.51	1710.05
190.73	1642.47
190.95	1726.44
191.17	1728.49
191.39	1601.51
191.61	1568.74
191.84	1665.00
192.06	1705.96
192.28	1558.50
192.50	1841.12
192.72	1757.16
192.94	1695.72
193.16	1738.73
193.38	1724.39
193.60	1638.38
193.82	1720.29
194.04	1736.68
194.26	1730.53
194.48	1734.63
194.70	1632.23
194.92	1712.10
195.14	1732.58
195.36	1656.81
195.58	1667.05
195.80	1689.57
196.02	1714.15
196.24	1710.05
196.46	1679.33
196.69	1648.61
196.91	1865.70
197.13	1652.71
197.35	1667.05
197.57	1851.36
197.79	1720.29
198.01	1781.73
198.23	1863.65
198.45	1712.10
198.67	1699.81
198.89	1667.05
199.11	1636.33
199.33	1613.80
199.55	1615.85
199.77	1621.99
199.99	1757.16
200.21	1697.77
200.43	1689.57
200.65	1624.04
200.87	1591.27
201.09	1771.49
201.31	1683.43
201.53	1787.88
201.75	1751.01
201.97	1714.15
202.19	1736.68
202.41	1783.78
202.63	1761.25
202.85	1753.06
203.07	1742.82
203.29	1742.82
203.51	1615.85
203.73	1710.05
203.95	1849.32
204.17	1775.59
204.39	1740.77
204.61	1687.53
204.83	1710.05
205.05	1761.25
205.27	1722.34
205.49	1828.84
205.71	1685.48
205.93	1650.66
206.15	1665.00
206.37	1773.54
206.59	1703.91
206.81	1644.52
207.03	1662.95
207.25	1611.75
207.47	1798.12
207.69	1644.52
207.91	1718.25
208.13	1705.96
208.34	1675.24
208.56	1652.71
208.78	1634.28
209.00	1726.44
209.22	1662.95
209.44	1738.73
209.66	1708.01
209.88	1691.62
210.10	1667.05
210.32	1667.05
210.54	1767.40
210.76	1669.09
210.98	1730.53
211.20	1515.50
211.42	1742.82
211.64	1841.12
211.86	1728.49
212.08	1654.76
212.30	1742.82
212.52	1689.57
212.74	1814.50
212.96	1630.18
213.17	1708.01
213.39	1654.76
213.61	1710.05
213.83	1814.50
214.05	1583.08
214.27	1742.82
214.49	1611.75
214.71	1634.28
214.93	1720.29
215.15	1740.77
215.37	1789.92
215.59	1646.57
215.81	1722.34
216.03	1662.95
216.24	1687.53
216.46	1648.61
216.68	1718.25
216.90	1685.48
217.12	1734.63
217.34	1722.34
217.56	1714.15
217.78	1748.97
218.00	1740.77
218.22	1724.39
218.44	1683.43
218.66	1718.25
218.87	1828.84
219.09	1652.71
219.31	1630.18
219.53	1736.68
219.75	1644.52
219.97	1695.72
220.19	1728.49
220.41	1677.29
220.63	1781.73
220.85	1689.57
221.06	1734.63
221.28	1826.79
221.50	1742.82
221.72	1669.09
221.94	1679.33
222.16	1705.96
222.38	1714.15
222.60	1736.68
222.82	1718.25
223.03	1677.29
223.25	1673.19
223.47	1761.25
223.69	1779.68
223.91	1742.82
224.13	1712.10
224.35	1642.47
224.57	1822.69
224.78	1636.33
225.00	1605.61
225.22	1671.14
225.44	1781.73
225.66	1671.14
225.88	1654.76
226.10	1716.20
226.32	1695.72
226.53	1771.49
226.75	1697.77
226.97	1681.38
227.19	1621.99
227.41	1644.52
227.63	1722.34
227.85	1662.95
228.06	1644.52
228.28	1662.95
228.50	1800.16
228.72	1644.52
228.94	1685.48
229.16	1646.57
229.37	1591.27
229.59	1662.95
229.81	1751.01
230.03	1632.23
230.25	1560.55
230.47	1634.28
230.69	1665.00
230.90	1763.30
231.12	1621.99
231.34	1738.73
231.56	1746.92
231.78	1619.94
232.00	1728.49
232.21	1718.25
232.43	1708.01
232.65	1544.17
232.87	1708.01
233.09	1685.48
233.30	1755.11
233.52	1746.92
233.74	1761.25
233.96	1652.71
234.18	1701.86
234.40	1658.85
234.61	1828.84
234.83	1640.42
235.05	1734.63
235.27	1781.73
235.49	1771.49
235.70	1695.72
235.92	1763.30
236.14	1812.45
236.36	1916.90
236.58	1613.80
236.79	1697.77
237.01	1679.33
237.23	1660.90
237.45	1837.03
237.67	1722.34
237.88	1748.97
238.10	1804.26
238.32	1619.94
238.54	1724.39
238.76	1748.97
238.97	1724.39
239.19	1691.62
239.41	1769.44
239.63	1742.82
239.85	1638.38
240.06	1646.57
240.28	1634.28
240.50	1769.44
240.72	1681.38
240.93	1650.66
241.15	1738.73
241.37	1736.68
241.59	1761.25
241.81	1714.15
242.02	1718.25
242.24	1742.82
242.46	1755.11
242.68	1699.81
242.89	1701.86
243.11	1775.59
243.33	1726.44
243.55	1746.92
243.76	1728.49
243.98	1648.61
244.20	1691.62
244.42	1699.81
244.64	1689.57
244.85	1720.29
245.07	1665.00
245.29	1746.92
245.51	1738.73
245.72	1757.16
245.94	1738.73
246.16	1769.44
246.38	1738.73
246.59	1636.33
246.81	1621.99
247.03	1738.73
247.24	1642.47
247.46	1667.05
247.68	1738.73
247.90	1669.09
248.11	1726.44
248.33	1763.30
248.55	1658.85
248.77	1703.91
248.98	1681.38
249.20	1791.97
249.42	1755.11
249.64	1611.75
249.85	1746.92
250.07	1718.25
250.29	1638.38
250.50	1738.73
250.72	1609.70
250.94	1783.78
251.16	1865.70
251.37	1783.78
251.59	1738.73
251.81	1705.96
252.02	1808.36
252.24	1677.29
252.46	1808.36
252.68	1656.81
252.89	1658.85
253.11	1601.51
253.33	1828.84
253.54	1759.21
253.76	1671.14
253.98	1720.29
254.20	1615.85
254.41	1626.09
254.63	1673.19
254.85	1658.85
255.06	1730.53
255.28	1730.53
255.50	1646.57
255.71	1734.63
255.93	1626.09
256.15	1724.39
256.36	1785.83
256.58	1697.77
256.80	1806.31
257.02	1734.63
257.23	1656.81
257.45	1716.20
257.67	1732.58
257.88	1705.96
258.10	1738.73
258.32	1669.09
258.53	1693.67
258.75	1789.92
258.97	1591.27
259.18	1736.68
259.40	1716.20
259.62	1746.92
259.83	1724.39
260.05	1742.82
260.27	1947.62
260.48	1693.67
260.70	1677.29
260.92	1685.48
261.13	1642.47
261.35	1675.24
261.57	1746.92
261.78	1644.52
262.00	1710.05
262.22	1691.62
262.43	1716.20
262.65	1701.86
262.86	1679.33
263.08	1726.44
263.30	1722.34
263.51	1646.57
263.73	1720.29
263.95	1722.34
264.16	1689.57
264.38	1646.57
264.60	1712.10
264.81	1708.01
265.03	1701.86
265.25	1763.30
265.46	1679.33
265.68	1800.16
265.89	1777.64
266.11	1615.85
266.33	1755.11
266.54	1738.73
266.76	1722.34
266.98	1800.16
267.19	1714.15
267.41	1718.25
267.62	1710.05
267.84	1593.32
268.06	1738.73
268.27	1667.05
268.49	1738.73
268.70	1734.63
268.92	1681.38
269.14	1654.76
269.35	1605.61
269.57	1646.57
269.79	1708.01
270.00	1621.99
270.22	1861.60
270.43	1673.19
270.65	1607.66
270.87	1607.66
271.08	1710.05
271.30	1705.96
271.51	1701.86
271.73	1705.96
271.95	1738.73
272.16	1714.15
272.38	1667.05
272.59	1703.91
272.81	1685.48
273.02	1728.49
273.24	1708.01
273.46	1767.40
273.67	1642.47
273.89	1658.85
274.10	1656.81
274.32	1753.06
274.54	1759.21
274.75	1683.43
274.97	1640.42
275.18	1685.48
275.40	1714.15
275.61	1734.63
275.83	1644.52
276.05	1658.85
276.26	1738.73
276.48	1763.30
276.69	1675.24
276.91	1662.95
277.12	1724.39
277.34	1718.25
277.55	1822.69
277.77	1720.29
277.99	1742.82
278.20	1644.52
278.42	1589.22
278.63	1669.09
278.85	1646.57
279.06	1628.14
279.28	1681.38
279.49	1746.92
279.71	1738.73
279.93	1710.05
280.14	1708.01
280.36	1632.23
280.57	1644.52
280.79	1712.10
281.00	1730.53
281.22	1677.29
281.43	1763.30
281.65	1593.32
281.86	1636.33
282.08	1650.66
282.29	1695.72
282.51	1689.57
282.73	1697.77
282.94	1593.32
283.16	1722.34
283.37	1769.44
283.59	1714.15
283.80	1683.43
284.02	1771.49
284.23	1736.68
284.45	1615.85
284.66	1677.29
284.88	1578.98
285.09	1712.10
285.31	1689.57
285.52	1710.05
285.74	1605.61
285.95	1794.02
286.17	1726.44
286.38	1779.68
286.60	1648.61
286.81	1708.01
287.03	1746.92
287.24	1746.92
287.46	1716.20
287.67	1777.64
287.89	1787.88
288.10	1691.62
288.32	1728.49
288.53	1726.44
288.75	1673.19
288.96	1728.49
289.18	1677.29
289.39	1773.54
289.61	1742.82
289.82	1882.08
290.04	1804.26
290.25	1685.48
290.47	1726.44
290.68	1583.08
290.90	1775.59
291.11	1626.09
291.33	1775.59
291.54	1679.33
291.76	1689.57
291.97	1775.59
292.18	1716.20
292.40	1671.14
292.61	1716.20
292.83	1828.84
293.04	1714.15
293.26	1738.73
293.47	1714.15
293.69	1646.57
293.90	1691.62
294.12	1841.12
294.33	1691.62
294.55	1693.67
294.76	1800.16
294.97	1808.36
295.19	1843.17
295.40	1748.97
295.62	1785.83
295.83	1769.44
296.05	1654.76
296.26	1755.11
296.48	1714.15
296.69	1714.15
296.90	1718.25
297.12	1714.15
297.33	1669.09
297.55	1748.97
297.76	1714.15
297.98	1779.68
298.19	1726.44
298.41	1701.86
298.62	1665.00
298.83	1802.21
299.05	1716.20
299.26	1693.67
299.48	1712.10
299.69	1757.16
299.90	1648.61
300.12	1619.94
300.33	1746.92
300.55	1769.44
300.76	1724.39
300.98	1689.57
301.19	1720.29
301.40	1667.05
301.62	1687.53
301.83	1667.05
302.05	1763.30
302.26	1761.25
302.47	1673.19
302.69	1640.42
302.90	1640.42
303.12	1599.46
303.33	1744.87
303.54	1708.01
303.76	1703.91
303.97	1724.39
304.19	1810.40
304.40	1662.95
304.61	1677.29
304.83	1857.51
305.04	1742.82
305.26	1734.63
305.47	1697.77
305.68	1705.96
305.90	1599.46
306.11	1767.40
306.33	1667.05
306.54	1701.86
306.75	1589.22
306.97	1617.90
307.18	1662.95
307.39	1603.56
307.61	1841.12
307.82	1697.77
308.04	1730.53
308.25	1787.88
308.46	1771.49
308.68	1705.96
308.89	1710.05
309.10	1746.92
309.32	1742.82
309.53	1705.96
309.74	1705.96
309.96	1708.01
310.17	1771.49
310.39	1693.67
310.60	1685.48
310.81	1708.01
311.03	1671.14
311.24	1732.58
311.45	1693.67
311.67	1841.12
311.88	1738.73
312.09	1650.66
312.31	1718.25
312.52	1691.62
312.73	1634.28
312.95	1691.62
313.16	1730.53
313.37	1779.68
313.59	1732.58
313.80	1697.77
314.01	1755.11
314.23	1603.56
314.44	1662.95
314.65	1626.09
314.87	1673.19
315.08	1738.73
315.29	1626.09
315.51	1681.38
315.72	1665.00
315.93	1763.30
316.15	1742.82
316.36	1634.28
316.57	1675.24
316.79	1765.35
317.00	1691.62
317.21	1800.16
317.43	1718.25
317.64	1742.82
317.85	1595.37
318.07	1677.29
318.28	1685.48
318.49	1767.40
318.70	1851.36
318.92	1859.56
319.13	1826.79
319.34	1886.18
319.56	1798.12
319.77	1734.63
319.98	1732.58
320.20	1748.97
320.41	1765.35
320.62	1748.97
320.83	1691.62
321.05	1794.02
321.26	1693.67
321.47	1703.91
321.69	1841.12
321.90	1597.42
322.11	1626.09
322.32	1730.53
322.54	1789.92
322.75	1693.67
322.96	1863.65
323.18	1646.57
323.39	1607.66
323.60	1652.71
323.81	1740.77
324.03	1681.38
324.24	1656.81
324.45	1724.39
324.66	1648.61
324.88	1640.42
325.09	1832.93
325.30	1728.49
325.52	1675.24
325.73	1722.34
325.94	1621.99
326.15	1613.80
326.37	1626.09
326.58	1775.59
326.79	1701.86
327.00	1681.38
327.22	1689.57
327.43	1705.96
327.64	1538.02
327.85	1673.19
328.07	1720.29
328.28	1843.17
328.49	1695.72
328.70	1652.71
328.92	1673.19
329.13	1761.25
329.34	1777.64
329.55	1765.35
329.76	1765.35
329.98	1691.62
330.19	1722.34
330.40	1683.43
330.61	1775.59
330.83	1708.01
331.04	1730.53
331.25	1732.58
331.46	1697.77
331.68	1613.80
331.89	1847.27
332.10	1683.43
332.31	1583.08
332.52	1693.67
332.74	1732.58
332.95	1626.09
333.16	1687.53
333.37	1697.77
333.58	1621.99
333.80	1665.00
334.01	1648.61
334.22	1626.09
334.43	1607.66
334.64	1656.81
334.86	1603.56
335.07	1681.38
335.28	1736.68
335.49	1576.94
335.70	1742.82
335.92	1767.40
336.13	1800.16
336.34	1732.58
336.55	1712.10
336.76	1748.97
336.98	1585.13
337.19	1699.81
337.40	1816.55
337.61	1830.88
337.82	1699.81
338.04	1744.87
338.25	1599.46
338.46	1646.57
338.67	1701.86
338.88	1644.52
339.09	1679.33
339.31	1636.33
339.52	1748.97
339.73	1605.61
339.94	1783.78
340.15	1726.44
340.36	1632.23
340.58	1621.99
340.79	1619.94
341.00	1775.59
341.21	1665.00
341.42	1687.53
341.63	1660.90
341.85	1705.96
342.06	1712.10
342.27	1644.52
342.48	1732.58
342.69	1628.14
342.90	1708.01
343.12	1675.24
343.33	1671.14
343.54	1734.63
343.75	1771.49
343.96	1822.69
344.17	1718.25
344.38	1665.00
344.60	1675.24
344.81	1665.00
345.02	1724.39
345.23	1818.60
345.44	1796.07
345.65	1775.59
345.86	1761.25
346.07	1716.20
346.29	1619.94
346.50	1648.61
346.71	1769.44
346.92	1765.35
347.13	1751.01
347.34	1673.19
347.55	1599.46
347.76	1681.38
347.98	1605.61
348.19	1662.95
348.40	1796.07
348.61	1624.04
348.82	1769.44
349.03	1701.86
349.24	1581.03
349.45	1812.45
349.66	1615.85
349.88	1748.97
350.09	1648.61
350.30	1812.45
350.51	1771.49
350.72	1791.97
350.93	1716.20
351.14	1656.81
351.35	1763.30
351.56	1644.52
351.77	1677.29
351.99	1693.67
352.20	1796.07
352.41	1841.12
352.62	1615.85
352.83	1640.42
353.04	1734.63
353.25	1619.94
353.46	1695.72
353.67	1703.91
353.88	1578.98
354.09	1710.05
354.30	1714.15
354.52	1763.30
354.73	1714.15
354.94	1648.61
355.15	1775.59
355.36	1769.44
355.57	1658.85
355.78	1710.05
355.99	1632.23
356.20	1726.44
356.41	1773.54
356.62	1712.10
356.83	1662.95
357.04	1837.03
357.25	1527.78
357.46	1646.57
357.68	1574.89
357.89	1748.97
358.10	1734.63
358.31	1736.68
358.52	1722.34
358.73	1646.57
358.94	1601.51
359.15	1578.98
359.36	1697.77
359.57	1669.09
359.78	1685.48
359.99	1736.68
360.20	1677.29
360.41	1699.81
360.62	1755.11
360.83	1722.34
361.04	1748.97
361.25	1701.86
361.46	1785.83
361.67	1757.16
361.88	1726.44
362.09	1716.20
362.30	1724.39
362.51	1734.63
362.72	1683.43
362.93	1742.82
363.14	1710.05
363.35	1804.26
363.56	1701.86
363.78	1746.92
363.99	1675.24
364.20	1689.57
364.41	1716.20
364.62	1847.27
364.83	1665.00
365.04	1669.09
365.25	1744.87
365.46	1753.06
365.67	1615.85
365.88	1671.14
366.09	1673.19
366.30	1624.04
366.51	1722.34
366.72	1636.33
366.93	1787.88
367.14	1736.68
367.35	1683.43
367.56	1638.38
367.77	1726.44
367.98	1628.14
368.18	1742.82
368.39	1697.77
368.60	1679.33
368.81	1714.15
369.02	1699.81
369.23	1705.96
369.44	1630.18
369.65	1650.66
369.86	1673.19
370.07	1771.49
370.28	1675.24
370.49	1771.49
370.70	1738.73
370.91	1607.66
371.12	1613.80
371.33	1808.36
371.54	1718.25
371.75	1847.27
371.96	1607.66
372.17	1605.61
372.38	1701.86
372.59	1820.64
372.80	1714.15
373.01	1660.90
373.22	1710.05
373.43	1759.21
373.64	1634.28
373.85	1753.06
374.06	1748.97
374.26	1679.33
374.47	1708.01
374.68	1767.40
374.89	1662.95
375.10	1742.82
375.31	1787.88
375.52	1652.71
375.73	1710.05
375.94	1683.43
376.15	1824.74
376.36	1679.33
376.57	1691.62
376.78	1687.53
376.99	1767.40
377.20	1757.16
377.40	1615.85
377.61	1759.21
377.82	1660.90
378.03	1798.12
378.24	1710.05
378.45	1683.43
378.66	1794.02
378.87	1583.08
379.08	1542.12
379.29	1650.66
379.50	1783.78
379.71	1685.48
379.91	1708.01
380.12	1644.52
380.33	1724.39
380.54	1718.25
380.75	1697.77
380.96	1705.96
381.17	1843.17
381.38	1716.20
381.59	1787.88
381.80	1751.01
382.00	1847.27
382.21	1724.39
382.42	1888.23
382.63	1810.40
382.84	1775.59
383.05	1783.78
383.26	1849.32
383.47	1753.06
383.68	1740.77
383.88	1740.77
384.09	1726.44
384.30	1783.78
384.51	1767.40
384.72	1634.28
384.93	1619.94
385.14	1722.34
385.35	1730.53
385.55	1613.80
385.76	1783.78
385.97	1667.05
386.18	1691.62
386.39	1687.53
386.60	1644.52
386.81	1769.44
387.02	1755.11
387.22	1591.27
387.43	1710.05
387.64	1742.82
387.85	1849.32
388.06	2201.57
388.27	4294.59
388.48	6776.73
388.68	8402.82
388.89	9731.95
389.10	9533.29
389.31	8468.35
389.52	7638.92
389.73	6823.83
389.93	6301.60
390.14	5871.53
390.35	5173.17
390.56	4585.40
390.77	3770.31
390.98	3055.57
391.18	2500.57
391.39	2119.65
391.60	1841.12
391.81	1898.47
392.02	1748.97
392.23	1767.40
392.43	1757.16
392.64	1757.16
392.85	1732.58
393.06	1804.26
393.27	1712.10
393.47	1679.33
393.68	1705.96
393.89	1667.05
394.10	1748.97
394.31	1732.58
394.52	1744.87
394.72	1685.48
394.93	1800.16
395.14	1673.19
395.35	1753.06
395.56	1697.77
395.76	1744.87
395.97	1748.97
396.18	1767.40
396.39	1728.49
396.60	2025.44
396.80	1902.56
397.01	1816.55
397.22	1779.68
397.43	1814.50
397.64	1800.16
397.84	1761.25
398.05	1873.89
398.26	1710.05
398.47	1728.49
398.67	1759.21
398.88	1683.43
399.09	1712.10
399.30	1636.33
399.51	1701.86
399.71	1667.05
399.92	1699.81
400.13	1736.68
400.34	1671.14
400.54	1697.77
400.75	1767.40
400.96	1761.25
401.17	1781.73
401.37	1662.95
401.58	1714.15
401.79	1671.14
402.00	1824.74
402.21	1943.52
402.41	1976.29
402.62	1972.19
402.83	1982.43
403.04	1953.76
403.24	2129.89
403.45	1804.26
403.66	1873.89
403.87	1810.40
404.07	1906.66
404.28	1923.04
404.49	1832.93
404.70	1834.98
404.90	1730.53
405.11	1681.38
405.32	1773.54
405.52	1679.33
405.73	1724.39
405.94	1689.57
406.15	1677.29
406.35	1775.59
406.56	1775.59
406.77	1665.00
406.98	1763.30
407.18	1693.67
407.39	1775.59
407.60	1619.94
407.80	1718.25
408.01	1761.25
408.22	1744.87
408.43	1746.92
408.63	1730.53
408.84	1744.87
409.05	1765.35
409.25	1691.62
409.46	1628.14
409.67	1671.14
409.88	1642.47
410.08	1720.29
410.29	1699.81
410.50	1796.07
410.70	1751.01
410.91	1599.46
411.12	1591.27
411.32	1730.53
411.53	1722.34
411.74	1738.73
411.95	1789.92
412.15	1736.68
412.36	1818.60
412.57	1720.29
412.77	1818.60
412.98	1703.91
413.19	1644.52
413.39	1779.68
413.60	1738.73
413.81	1806.31
414.01	1660.90
414.22	1755.11
414.43	1632.23
414.63	1679.33
414.84	1753.06
415.05	1738.73
415.25	1650.66
415.46	1679.33
415.67	1693.67
415.87	1732.58
416.08	1626.09
416.29	1638.38
416.49	1685.48
416.70	1708.01
416.91	1669.09
417.11	1691.62
417.32	1708.01
417.53	1712.10
417.73	1665.00
417.94	1634.28
418.15	1681.38
418.35	1806.31
418.56	1779.68
418.77	1830.88
418.97	1796.07
419.18	1632.23
419.38	1568.74
419.59	1624.04
419.80	1814.50
420.00	1746.92
420.21	1697.77
420.42	1783.78
420.62	1714.15
420.83	1693.67
421.04	1738.73
421.24	1703.91
421.45	1759.21
421.65	1695.72
421.86	1687.53
422.07	1761.25
422.27	1740.77
422.48	1710.05
422.69	1533.93
422.89	1724.39
423.10	1732.58
423.30	1681.38
423.51	1730.53
423.72	1716.20
423.92	1753.06
424.13	1716.20
424.33	1740.77
424.54	1726.44
424.75	1722.34
424.95	1746.92
425.16	1757.16
425.36	1716.20
425.57	1763.30
425.78	1771.49
425.98	1757.16
426.19	1693.67
426.39	1648.61
426.60	1796.07
426.81	1779.68
427.01	1621.99
427.22	1675.24
427.42	1628.14
427.63	1601.51
427.83	1730.53
428.04	1794.02
428.25	1748.97
428.45	1841.12
428.66	1746.92
428.86	1716.20
429.07	1697.77
429.28	1763.30
429.48	1687.53
429.69	1601.51
429.89	1732.58
430.10	1574.89
430.30	1730.53
430.51	1728.49
430.71	1626.09
430.92	1720.29
431.13	1679.33
431.33	1650.66
431.54	1730.53
431.74	1789.92
431.95	1785.83
432.15	1652.71
432.36	1708.01
432.56	1785.83
432.77	1800.16
432.98	1845.22
433.18	1677.29
433.39	1708.01
433.59	1628.14
433.80	1818.60
434.00	1818.60
434.21	1708.01
434.41	1687.53
434.62	1771.49
434.82	1673.19
435.03	1675.24
435.23	1736.68
435.44	1652.71
435.64	1722.34
435.85	1730.53
436.06	1781.73
436.26	1683.43
436.47	1673.19
436.67	1701.86
436.88	1763.30
437.08	1720.29
437.29	1837.03
437.49	1742.82
437.70	1695.72
437.90	1755.11
438.11	1818.60
438.31	1816.55
438.52	1804.26
438.72	1875.94
438.93	1892.32
439.13	1828.84
439.34	1886.18
439.54	1759.21
439.75	1810.40
439.95	1746.92
440.16	1728.49
440.36	1740.77
440.57	1791.97
440.77	1789.92
440.98	1714.15
441.18	1730.53
441.39	1781.73
441.59	1742.82
441.80	1800.16
442.00	1785.83
442.21	1759.21
442.41	1740.77
442.62	1787.88
442.82	1650.66
443.02	1748.97
443.23	1753.06
443.43	1794.02
443.64	1822.69
443.84	1681.38
444.05	1843.17
444.25	1734.63
444.46	1640.42
444.66	1718.25
444.87	1810.40
445.07	1619.94
445.28	1617.90
445.48	1810.40
445.69	1748.97
445.89	1800.16
446.09	1714.15
446.30	1974.24
446.50	2658.26
446.71	3694.54
446.91	4296.64
447.12	4650.94
447.32	4859.83
447.53	4384.70
447.73	3809.22
447.93	3477.45
448.14	3280.85
448.34	3168.21
448.55	2858.96
448.75	2881.49
448.96	2691.03
449.16	2473.95
449.36	2248.67
449.57	2015.20
449.77	1920.99
449.98	1843.17
450.18	1734.63
450.39	1771.49
450.59	1746.92
450.79	1740.77
451.00	1689.57
451.20	1685.48
451.41	1705.96
451.61	1816.55
451.81	1810.40
452.02	1693.67
452.22	1681.38
452.43	1687.53
452.63	1724.39
