SpectraSuite Data File
++++++++++++++++++++++++++++++++++++
Date: Mon Jun 06 14:22:57 CEST 2016
User: root
Dark Spectrum Present: No
Reference Spectrum Present: No
Number of Sampled Component Spectra: 1
Spectrometers: USB4C02835
Integration Time (usec): 100000 (USB4C02835)
Spectra Averaged: 1 (USB4C02835)
Boxcar Smoothing: 0 (USB4C02835)
Correct for Electrical Dark: No (USB4C02835)
Strobe/Lamp Enabled: No (USB4C02835)
Correct for Detector Non-linearity: No (USB4C02835)
Correct for Stray Light: No (USB4C02835)
Number of Pixels in Processed Spectrum: 3648
>>>>>Begin Processed Spectral Data<<<<<
177.47	1447.91
177.69	1447.91
177.91	1447.91
178.13	1484.78
178.36	1503.21
178.58	1662.95
178.80	1718.25
179.02	1669.09
179.24	1607.66
179.46	1693.67
179.68	1802.21
179.90	1669.09
180.13	1679.33
180.35	1603.56
180.57	1656.81
180.79	1736.68
181.01	1675.24
181.23	1738.73
181.45	1755.11
181.67	1720.29
181.90	1751.01
182.12	1617.90
182.34	1718.25
182.56	1734.63
182.78	1636.33
183.00	1636.33
183.22	1740.77
183.44	1589.22
183.66	1863.65
183.89	1693.67
184.11	1755.11
184.33	1748.97
184.55	1783.78
184.77	1751.01
184.99	1777.64
185.21	1701.86
185.43	1826.79
185.65	1660.90
185.87	1624.04
186.10	1791.97
186.32	1804.26
186.54	1689.57
186.76	1738.73
186.98	1724.39
187.20	1695.72
187.42	1632.23
187.64	1695.72
187.86	1734.63
188.08	1701.86
188.30	1615.85
188.52	1722.34
188.75	1753.06
188.97	1820.64
189.19	1640.42
189.41	1742.82
189.63	1708.01
189.85	1685.48
190.07	1621.99
190.29	1638.38
190.51	1695.72
190.73	1619.94
190.95	1757.16
191.17	1667.05
191.39	1638.38
191.61	1654.76
191.84	1679.33
192.06	1753.06
192.28	1595.37
192.50	1865.70
192.72	1787.88
192.94	1650.66
193.16	1763.30
193.38	1634.28
193.60	1746.92
193.82	1716.20
194.04	1753.06
194.26	1665.00
194.48	1701.86
194.70	1675.24
194.92	1689.57
195.14	1705.96
195.36	1636.33
195.58	1656.81
195.80	1673.19
196.02	1644.52
196.24	1738.73
196.46	1777.64
196.69	1624.04
196.91	1869.80
197.13	1699.81
197.35	1648.61
197.57	1789.92
197.79	1767.40
198.01	1691.62
198.23	1697.77
198.45	1695.72
198.67	1658.85
198.89	1742.82
199.11	1667.05
199.33	1683.43
199.55	1568.74
199.77	1673.19
199.99	1753.06
200.21	1656.81
200.43	1699.81
200.65	1628.14
200.87	1628.14
201.09	1675.24
201.31	1724.39
201.53	1746.92
201.75	1722.34
201.97	1748.97
202.19	1626.09
202.41	1740.77
202.63	1888.23
202.85	1710.05
203.07	1779.68
203.29	1648.61
203.51	1634.28
203.73	1667.05
203.95	1837.03
204.17	1724.39
204.39	1632.23
204.61	1693.67
204.83	1591.27
205.05	1730.53
205.27	1798.12
205.49	1820.64
205.71	1677.29
205.93	1658.85
206.15	1632.23
206.37	1755.11
206.59	1699.81
206.81	1636.33
207.03	1646.57
207.25	1615.85
207.47	1789.92
207.69	1667.05
207.91	1705.96
208.13	1732.58
208.34	1748.97
208.56	1744.87
208.78	1730.53
209.00	1703.91
209.22	1656.81
209.44	1695.72
209.66	1636.33
209.88	1652.71
210.10	1714.15
210.32	1767.40
210.54	1875.94
210.76	1660.90
210.98	1824.74
211.20	1593.32
211.42	1677.29
211.64	1730.53
211.86	1710.05
212.08	1697.77
212.30	1742.82
212.52	1714.15
212.74	1775.59
212.96	1720.29
213.17	1728.49
213.39	1728.49
213.61	1718.25
213.83	1708.01
214.05	1652.71
214.27	1673.19
214.49	1632.23
214.71	1630.18
214.93	1775.59
215.15	1697.77
215.37	1693.67
215.59	1638.38
215.81	1693.67
216.03	1804.26
216.24	1671.14
216.46	1675.24
216.68	1701.86
216.90	1708.01
217.12	1767.40
217.34	1718.25
217.56	1714.15
217.78	1820.64
218.00	1642.47
218.22	1697.77
218.44	1693.67
218.66	1730.53
218.87	1851.36
219.09	1656.81
219.31	1773.54
219.53	1705.96
219.75	1630.18
219.97	1734.63
220.19	1771.49
220.41	1681.38
220.63	1714.15
220.85	1714.15
221.06	1609.70
221.28	1722.34
221.50	1697.77
221.72	1708.01
221.94	1660.90
222.16	1728.49
222.38	1673.19
222.60	1716.20
222.82	1716.20
223.03	1738.73
223.25	1650.66
223.47	1779.68
223.69	1830.88
223.91	1728.49
224.13	1744.87
224.35	1662.95
224.57	1789.92
224.78	1701.86
225.00	1689.57
225.22	1683.43
225.44	1742.82
225.66	1730.53
225.88	1652.71
226.10	1722.34
226.32	1710.05
226.53	1814.50
226.75	1685.48
226.97	1695.72
227.19	1748.97
227.41	1578.98
227.63	1710.05
227.85	1607.66
228.06	1691.62
228.28	1744.87
228.50	1718.25
228.72	1613.80
228.94	1757.16
229.16	1636.33
229.37	1599.46
229.59	1669.09
229.81	1798.12
230.03	1687.53
230.25	1632.23
230.47	1628.14
230.69	1658.85
230.90	1759.21
231.12	1679.33
231.34	1658.85
231.56	1800.16
231.78	1621.99
232.00	1779.68
232.21	1660.90
232.43	1671.14
232.65	1550.31
232.87	1703.91
233.09	1671.14
233.30	1626.09
233.52	1755.11
233.74	1691.62
233.96	1705.96
234.18	1701.86
234.40	1701.86
234.61	1777.64
234.83	1591.27
235.05	1691.62
235.27	1898.47
235.49	1763.30
235.70	1634.28
235.92	1796.07
236.14	1656.81
236.36	1832.93
236.58	1581.03
236.79	1710.05
237.01	1675.24
237.23	1658.85
237.45	1822.69
237.67	1703.91
237.88	1667.05
238.10	1783.78
238.32	1632.23
238.54	1724.39
238.76	1716.20
238.97	1628.14
239.19	1648.61
239.41	1738.73
239.63	1728.49
239.85	1687.53
240.06	1714.15
240.28	1642.47
240.50	1767.40
240.72	1724.39
240.93	1710.05
241.15	1791.97
241.37	1734.63
241.59	1751.01
241.81	1736.68
242.02	1699.81
242.24	1771.49
242.46	1677.29
242.68	1648.61
242.89	1660.90
243.11	1746.92
243.33	1652.71
243.55	1669.09
243.76	1720.29
243.98	1634.28
244.20	1669.09
244.42	1691.62
244.64	1742.82
244.85	1714.15
245.07	1624.04
245.29	1775.59
245.51	1703.91
245.72	1701.86
245.94	1761.25
246.16	1722.34
246.38	1718.25
246.59	1621.99
246.81	1611.75
247.03	1716.20
247.24	1507.30
247.46	1703.91
247.68	1671.14
247.90	1716.20
248.11	1624.04
248.33	1783.78
248.55	1722.34
248.77	1642.47
248.98	1732.58
249.20	1814.50
249.42	1689.57
249.64	1697.77
249.85	1685.48
250.07	1691.62
250.29	1726.44
250.50	1738.73
250.72	1628.14
250.94	1615.85
251.16	1753.06
251.37	1783.78
251.59	1771.49
251.81	1681.38
252.02	1843.17
252.24	1636.33
252.46	1738.73
252.68	1648.61
252.89	1640.42
253.11	1685.48
253.33	1748.97
253.54	1796.07
253.76	1578.98
253.98	1724.39
254.20	1736.68
254.41	1636.33
254.63	1728.49
254.85	1628.14
255.06	1740.77
255.28	1708.01
255.50	1669.09
255.71	1656.81
255.93	1560.55
256.15	1722.34
256.36	1748.97
256.58	1705.96
256.80	1742.82
257.02	1685.48
257.23	1755.11
257.45	1646.57
257.67	1751.01
257.88	1650.66
258.10	1730.53
258.32	1656.81
258.53	1720.29
258.75	1791.97
258.97	1718.25
259.18	1746.92
259.40	1697.77
259.62	1779.68
259.83	1822.69
260.05	1734.63
260.27	2000.87
260.48	1771.49
260.70	1697.77
260.92	1675.24
261.13	1685.48
261.35	1746.92
261.57	1714.15
261.78	1564.65
262.00	1603.56
262.22	1771.49
262.43	1646.57
262.65	1726.44
262.86	1648.61
263.08	1849.32
263.30	1716.20
263.51	1550.31
263.73	1628.14
263.95	1775.59
264.16	1662.95
264.38	1650.66
264.60	1693.67
264.81	1718.25
265.03	1744.87
265.25	1720.29
265.46	1759.21
265.68	1755.11
265.89	1705.96
266.11	1566.70
266.33	1734.63
266.54	1687.53
266.76	1722.34
266.98	1708.01
267.19	1789.92
267.41	1730.53
267.62	1669.09
267.84	1621.99
268.06	1746.92
268.27	1720.29
268.49	1810.40
268.70	1665.00
268.92	1683.43
269.14	1656.81
269.35	1640.42
269.57	1699.81
269.79	1828.84
270.00	1687.53
270.22	1865.70
270.43	1621.99
270.65	1583.08
270.87	1689.57
271.08	1765.35
271.30	1755.11
271.51	1652.71
271.73	1693.67
271.95	1763.30
272.16	1632.23
272.38	1746.92
272.59	1662.95
272.81	1726.44
273.02	1652.71
273.24	1710.05
273.46	1828.84
273.67	1705.96
273.89	1662.95
274.10	1603.56
274.32	1648.61
274.54	1777.64
274.75	1728.49
274.97	1650.66
275.18	1681.38
275.40	1730.53
275.61	1648.61
275.83	1732.58
276.05	1658.85
276.26	1708.01
276.48	1738.73
276.69	1654.76
276.91	1773.54
277.12	1691.62
277.34	1804.26
277.55	1703.91
277.77	1746.92
277.99	1679.33
278.20	1644.52
278.42	1679.33
278.63	1648.61
278.85	1681.38
279.06	1570.79
279.28	1757.16
279.49	1775.59
279.71	1736.68
279.93	1742.82
280.14	1705.96
280.36	1648.61
280.57	1779.68
280.79	1791.97
281.00	1683.43
281.22	1730.53
281.43	1724.39
281.65	1568.74
281.86	1652.71
282.08	1742.82
282.29	1779.68
282.51	1617.90
282.73	1703.91
282.94	1609.70
283.16	1716.20
283.37	1853.41
283.59	1703.91
283.80	1820.64
284.02	1665.00
284.23	1695.72
284.45	1648.61
284.66	1609.70
284.88	1632.23
285.09	1687.53
285.31	1742.82
285.52	1742.82
285.74	1634.28
285.95	1683.43
286.17	1642.47
286.38	1703.91
286.60	1660.90
286.81	1636.33
287.03	1724.39
287.24	1722.34
287.46	1773.54
287.67	1646.57
287.89	1751.01
288.10	1665.00
288.32	1693.67
288.53	1779.68
288.75	1648.61
288.96	1757.16
289.18	1667.05
289.39	1742.82
289.61	1738.73
289.82	1759.21
290.04	1785.83
290.25	1574.89
290.47	1726.44
290.68	1652.71
290.90	1781.73
291.11	1615.85
291.33	1695.72
291.54	1673.19
291.76	1701.86
291.97	1724.39
292.18	1724.39
292.40	1710.05
292.61	1640.42
292.83	1857.51
293.04	1744.87
293.26	1716.20
293.47	1675.24
293.69	1630.18
293.90	1681.38
294.12	1775.59
294.33	1695.72
294.55	1718.25
294.76	1769.44
294.97	1769.44
295.19	1812.45
295.40	1718.25
295.62	1699.81
295.83	1705.96
296.05	1601.51
296.26	1755.11
296.48	1687.53
296.69	1689.57
296.90	1695.72
297.12	1765.35
297.33	1779.68
297.55	1759.21
297.76	1683.43
297.98	1714.15
298.19	1681.38
298.41	1736.68
298.62	1624.04
298.83	1806.31
299.05	1720.29
299.26	1673.19
299.48	1597.42
299.69	1693.67
299.90	1703.91
300.12	1665.00
300.33	1734.63
300.55	1787.88
300.76	1767.40
300.98	1669.09
301.19	1732.58
301.40	1621.99
301.62	1701.86
301.83	1712.10
302.05	1703.91
302.26	1777.64
302.47	1726.44
302.69	1685.48
302.90	1732.58
303.12	1527.78
303.33	1730.53
303.54	1777.64
303.76	1683.43
303.97	1730.53
304.19	1732.58
304.40	1714.15
304.61	1705.96
304.83	1779.68
305.04	1742.82
305.26	1742.82
305.47	1724.39
305.68	1748.97
305.90	1648.61
306.11	1783.78
306.33	1681.38
306.54	1699.81
306.75	1585.13
306.97	1615.85
307.18	1697.77
307.39	1650.66
307.61	1712.10
307.82	1652.71
308.04	1675.24
308.25	1634.28
308.46	1757.16
308.68	1665.00
308.89	1615.85
309.10	1783.78
309.32	1724.39
309.53	1611.75
309.74	1765.35
309.96	1599.46
310.17	1769.44
310.39	1615.85
310.60	1761.25
310.81	1689.57
311.03	1527.78
311.24	1730.53
311.45	1728.49
311.67	1726.44
311.88	1636.33
312.09	1720.29
312.31	1671.14
312.52	1652.71
312.73	1689.57
312.95	1611.75
313.16	1687.53
313.37	1779.68
313.59	1722.34
313.80	1720.29
314.01	1789.92
314.23	1646.57
314.44	1683.43
314.65	1597.42
314.87	1591.27
315.08	1703.91
315.29	1669.09
315.51	1679.33
315.72	1652.71
315.93	1812.45
316.15	1773.54
316.36	1619.94
316.57	1730.53
316.79	1791.97
317.00	1585.13
317.21	1699.81
317.43	1626.09
317.64	1712.10
317.85	1763.30
318.07	1728.49
318.28	1744.87
318.49	1785.83
318.70	1886.18
318.92	1742.82
319.13	1832.93
319.34	1824.74
319.56	1777.64
319.77	1751.01
319.98	1816.55
320.20	1839.08
320.41	1730.53
320.62	1738.73
320.83	1685.48
321.05	1818.60
321.26	1726.44
321.47	1744.87
321.69	1728.49
321.90	1665.00
322.11	1650.66
322.32	1710.05
322.54	1798.12
322.75	1689.57
322.96	1830.88
323.18	1660.90
323.39	1693.67
323.60	1615.85
323.81	1681.38
324.03	1748.97
324.24	1691.62
324.45	1697.77
324.66	1662.95
324.88	1736.68
325.09	1771.49
325.30	1673.19
325.52	1746.92
325.73	1755.11
325.94	1705.96
326.15	1687.53
326.37	1675.24
326.58	1734.63
326.79	1806.31
327.00	1648.61
327.22	1701.86
327.43	1589.22
327.64	1658.85
327.85	1746.92
328.07	1746.92
328.28	1849.32
328.49	1730.53
328.70	1722.34
328.92	1726.44
329.13	1710.05
329.34	1710.05
329.55	1824.74
329.76	1771.49
329.98	1658.85
330.19	1800.16
330.40	1748.97
330.61	1710.05
330.83	1753.06
331.04	1691.62
331.25	1740.77
331.46	1755.11
331.68	1587.18
331.89	1736.68
332.10	1705.96
332.31	1665.00
332.52	1638.38
332.74	1705.96
332.95	1619.94
333.16	1667.05
333.37	1703.91
333.58	1640.42
333.80	1642.47
334.01	1624.04
334.22	1638.38
334.43	1691.62
334.64	1681.38
334.86	1597.42
335.07	1619.94
335.28	1753.06
335.49	1624.04
335.70	1710.05
335.92	1826.79
336.13	1798.12
336.34	1781.73
336.55	1699.81
336.76	1775.59
336.98	1603.56
337.19	1708.01
337.40	1820.64
337.61	1804.26
337.82	1708.01
338.04	1789.92
338.25	1638.38
338.46	1693.67
338.67	1701.86
338.88	1630.18
339.09	1628.14
339.31	1691.62
339.52	1617.90
339.73	1677.29
339.94	1757.16
340.15	1742.82
340.36	1691.62
340.58	1757.16
340.79	1722.34
341.00	1691.62
341.21	1671.14
341.42	1820.64
341.63	1679.33
341.85	1734.63
342.06	1677.29
342.27	1746.92
342.48	1806.31
342.69	1632.23
342.90	1787.88
343.12	1783.78
343.33	1632.23
343.54	1654.76
343.75	1830.88
343.96	1685.48
344.17	1662.95
344.38	1724.39
344.60	1624.04
344.81	1640.42
345.02	1724.39
345.23	1753.06
345.44	1771.49
345.65	1767.40
345.86	1783.78
346.07	1654.76
346.29	1669.09
346.50	1740.77
346.71	1689.57
346.92	1710.05
347.13	1841.12
347.34	1673.19
347.55	1697.77
347.76	1777.64
347.98	1683.43
348.19	1695.72
348.40	1775.59
348.61	1720.29
348.82	1718.25
349.03	1759.21
349.24	1744.87
349.45	1820.64
349.66	1675.24
349.88	1701.86
350.09	1658.85
350.30	1851.36
350.51	1771.49
350.72	1740.77
350.93	1662.95
351.14	1699.81
351.35	1728.49
351.56	1671.14
351.77	1677.29
351.99	1662.95
352.20	1826.79
352.41	1789.92
352.62	1593.32
352.83	1662.95
353.04	1656.81
353.25	1675.24
353.46	1769.44
353.67	1705.96
353.88	1652.71
354.09	1667.05
354.30	1755.11
354.52	1740.77
354.73	1677.29
354.94	1628.14
355.15	1757.16
355.36	1798.12
355.57	1662.95
355.78	1724.39
355.99	1712.10
356.20	1658.85
356.41	1818.60
356.62	1755.11
356.83	1720.29
357.04	1777.64
357.25	1591.27
357.46	1703.91
357.68	1658.85
357.89	1636.33
358.10	1697.77
358.31	1675.24
358.52	1697.77
358.73	1691.62
358.94	1660.90
359.15	1681.38
359.36	1771.49
359.57	1640.42
359.78	1705.96
359.99	1730.53
360.20	1660.90
360.41	1681.38
360.62	1728.49
360.83	1699.81
361.04	1693.67
361.25	1722.34
361.46	1779.68
361.67	1767.40
361.88	1710.05
362.09	1681.38
362.30	1679.33
362.51	1724.39
362.72	1654.76
362.93	1742.82
363.14	1779.68
363.35	1765.35
363.56	1712.10
363.78	1753.06
363.99	1796.07
364.20	1695.72
364.41	1687.53
364.62	1730.53
364.83	1718.25
365.04	1636.33
365.25	1687.53
365.46	1834.98
365.67	1650.66
365.88	1568.74
366.09	1683.43
366.30	1683.43
366.51	1677.29
366.72	1656.81
366.93	1755.11
367.14	1734.63
367.35	1849.32
367.56	1679.33
367.77	1812.45
367.98	1710.05
368.18	1708.01
368.39	1665.00
368.60	1669.09
368.81	1726.44
369.02	1656.81
369.23	1669.09
369.44	1595.37
369.65	1662.95
369.86	1722.34
370.07	1718.25
370.28	1675.24
370.49	1687.53
370.70	1722.34
370.91	1673.19
371.12	1581.03
371.33	1730.53
371.54	1636.33
371.75	1724.39
371.96	1595.37
372.17	1718.25
372.38	1697.77
372.59	1716.20
372.80	1703.91
373.01	1714.15
373.22	1724.39
373.43	1712.10
373.64	1619.94
373.85	1738.73
374.06	1753.06
374.26	1816.55
374.47	1712.10
374.68	1777.64
374.89	1679.33
375.10	1697.77
375.31	1699.81
375.52	1662.95
375.73	1738.73
375.94	1652.71
376.15	1705.96
376.36	1734.63
376.57	1730.53
376.78	1744.87
376.99	1722.34
377.20	1724.39
377.40	1642.47
377.61	1781.73
377.82	1619.94
378.03	1710.05
378.24	1734.63
378.45	1701.86
378.66	1701.86
378.87	1615.85
379.08	1667.05
379.29	1695.72
379.50	1783.78
379.71	1681.38
379.91	1705.96
380.12	1687.53
380.33	1673.19
380.54	1669.09
380.75	1683.43
380.96	1697.77
381.17	1806.31
381.38	1769.44
381.59	1701.86
381.80	1740.77
382.00	1818.60
382.21	1734.63
382.42	1787.88
382.63	1832.93
382.84	1742.82
383.05	1824.74
383.26	1839.08
383.47	1712.10
383.68	1781.73
383.88	1794.02
384.09	1806.31
384.30	1753.06
384.51	1695.72
384.72	1578.98
384.93	1587.18
385.14	1691.62
385.35	1730.53
385.55	1578.98
385.76	1773.54
385.97	1662.95
386.18	1671.14
386.39	1638.38
386.60	1654.76
386.81	1634.28
387.02	1685.48
387.22	1654.76
387.43	1800.16
387.64	1804.26
387.85	1828.84
388.06	2203.61
388.27	4270.01
388.48	6928.28
388.68	8273.79
388.89	9860.97
389.10	10065.77
389.31	8730.49
389.52	7749.51
389.73	6686.62
389.93	6391.71
390.14	5851.05
390.35	5351.34
390.56	4591.55
390.77	3823.56
390.98	3098.58
391.18	2492.38
391.39	2099.17
391.60	1808.36
391.81	1789.92
392.02	1755.11
392.23	1826.79
392.43	1718.25
392.64	1798.12
392.85	1710.05
393.06	1824.74
393.27	1691.62
393.47	1716.20
393.68	1652.71
393.89	1648.61
394.10	1794.02
394.31	1654.76
394.52	1656.81
394.72	1660.90
394.93	1796.07
395.14	1640.42
395.35	1730.53
395.56	1628.14
395.76	1820.64
395.97	1810.40
396.18	1867.75
396.39	1816.55
396.60	2062.30
396.80	1834.98
397.01	1861.60
397.22	1824.74
397.43	1886.18
397.64	1781.73
397.84	1810.40
398.05	1865.70
398.26	1771.49
398.47	1746.92
398.67	1853.41
398.88	1662.95
399.09	1804.26
399.30	1726.44
399.51	1697.77
399.71	1677.29
399.92	1701.86
400.13	1695.72
400.34	1669.09
400.54	1724.39
400.75	1765.35
400.96	1785.83
401.17	1796.07
401.37	1701.86
401.58	1732.58
401.79	1730.53
402.00	1789.92
402.21	2041.82
402.41	1970.15
402.62	1976.29
402.83	2002.91
403.04	2009.06
403.24	1992.67
403.45	1906.66
403.66	1931.23
403.87	1882.08
404.07	1908.71
404.28	1900.52
404.49	1802.21
404.70	1771.49
404.90	1759.21
405.11	1779.68
405.32	1640.42
405.52	1712.10
405.73	1705.96
405.94	1746.92
406.15	1685.48
406.35	1705.96
406.56	1728.49
406.77	1701.86
406.98	1681.38
407.18	1646.57
407.39	1800.16
407.60	1667.05
407.80	1685.48
408.01	1658.85
408.22	1734.63
408.43	1755.11
408.63	1736.68
408.84	1818.60
409.05	1728.49
409.25	1626.09
409.46	1697.77
409.67	1654.76
409.88	1656.81
410.08	1744.87
410.29	1689.57
410.50	1771.49
410.70	1751.01
410.91	1562.60
411.12	1783.78
411.32	1691.62
411.53	1628.14
411.74	1853.41
411.95	1781.73
412.15	1802.21
412.36	1796.07
412.57	1748.97
412.77	1820.64
412.98	1787.88
413.19	1621.99
413.39	1687.53
413.60	1796.07
413.81	1796.07
414.01	1665.00
414.22	1693.67
414.43	1816.55
414.63	1632.23
414.84	1779.68
415.05	1726.44
415.25	1583.08
415.46	1753.06
415.67	1736.68
415.87	1673.19
416.08	1658.85
416.29	1732.58
416.49	1779.68
416.70	1665.00
416.91	1624.04
417.11	1828.84
417.32	1787.88
417.53	1685.48
417.73	1677.29
417.94	1691.62
418.15	1755.11
418.35	1763.30
418.56	1683.43
418.77	1798.12
418.97	1722.34
419.18	1708.01
419.38	1593.32
419.59	1689.57
419.80	1759.21
420.00	1648.61
420.21	1636.33
420.42	1787.88
420.62	1742.82
420.83	1607.66
421.04	1740.77
421.24	1742.82
421.45	1705.96
421.65	1734.63
421.86	1699.81
422.07	1753.06
422.27	1771.49
422.48	1689.57
422.69	1648.61
422.89	1714.15
423.10	1726.44
423.30	1566.70
423.51	1708.01
423.72	1787.88
423.92	1722.34
424.13	1660.90
424.33	1718.25
424.54	1677.29
424.75	1746.92
424.95	1771.49
425.16	1695.72
425.36	1669.09
425.57	1722.34
425.78	1777.64
425.98	1734.63
426.19	1714.15
426.39	1689.57
426.60	1732.58
426.81	1834.98
427.01	1734.63
427.22	1671.14
427.42	1615.85
427.63	1648.61
427.83	1744.87
428.04	1771.49
428.25	1853.41
428.45	1695.72
428.66	1775.59
428.86	1734.63
429.07	1773.54
429.28	1714.15
429.48	1585.13
429.69	1701.86
429.89	1693.67
430.10	1632.23
430.30	1820.64
430.51	1724.39
430.71	1640.42
430.92	1751.01
431.13	1691.62
431.33	1742.82
431.54	1740.77
431.74	1732.58
431.95	1804.26
432.15	1714.15
432.36	1753.06
432.56	1775.59
432.77	1849.32
432.98	1824.74
433.18	1716.20
433.39	1605.61
433.59	1691.62
433.80	1759.21
434.00	1824.74
434.21	1732.58
434.41	1658.85
434.62	1839.08
434.82	1656.81
435.03	1665.00
435.23	1697.77
435.44	1628.14
435.64	1765.35
435.85	1708.01
436.06	1740.77
436.26	1757.16
436.47	1763.30
436.67	1656.81
436.88	1726.44
437.08	1789.92
437.29	1851.36
437.49	1695.72
437.70	1724.39
437.90	1675.24
438.11	1853.41
438.31	1812.45
438.52	1798.12
438.72	1820.64
438.93	1910.75
439.13	1820.64
439.34	1748.97
439.54	1781.73
439.75	1873.89
439.95	1724.39
440.16	1763.30
440.36	1755.11
440.57	1732.58
440.77	1816.55
440.98	1757.16
441.18	1824.74
441.39	1675.24
441.59	1695.72
441.80	1744.87
442.00	1714.15
442.21	1767.40
442.41	1656.81
442.62	1687.53
442.82	1705.96
443.02	1634.28
443.23	1777.64
443.43	1683.43
443.64	1837.03
443.84	1595.37
444.05	1759.21
444.25	1699.81
444.46	1728.49
444.66	1683.43
444.87	1761.25
445.07	1591.27
445.28	1755.11
445.48	1826.79
445.69	1832.93
445.89	1867.75
446.09	1685.48
446.30	1992.67
446.50	2656.22
446.71	3772.36
446.91	4394.94
447.12	4743.10
447.32	4843.45
447.53	4358.08
447.73	3923.91
447.93	3547.08
448.14	3311.57
448.34	3196.88
448.55	2934.74
448.75	2779.09
448.96	2701.27
449.16	2363.36
449.36	2265.05
449.57	2058.21
449.77	1832.93
449.98	1746.92
450.18	1804.26
450.39	1820.64
450.59	1775.59
450.79	1746.92
451.00	1740.77
451.20	1726.44
451.41	1673.19
451.61	1804.26
451.81	1714.15
452.02	1773.54
452.22	1726.44
452.43	1722.34
452.63	1771.49
