SpectraSuite Data File
++++++++++++++++++++++++++++++++++++
Date: Mon Jun 06 16:12:37 CEST 2016
User: root
Dark Spectrum Present: No
Reference Spectrum Present: No
Number of Sampled Component Spectra: 1
Spectrometers: USB4C02835
Integration Time (usec): 100000 (USB4C02835)
Spectra Averaged: 1 (USB4C02835)
Boxcar Smoothing: 0 (USB4C02835)
Correct for Electrical Dark: No (USB4C02835)
Strobe/Lamp Enabled: No (USB4C02835)
Correct for Detector Non-linearity: No (USB4C02835)
Correct for Stray Light: No (USB4C02835)
Number of Pixels in Processed Spectrum: 3648
>>>>>Begin Processed Spectral Data<<<<<
177.47	1509.35
177.69	1509.35
177.91	1509.35
178.13	1462.25
178.36	1462.25
178.58	1669.09
178.80	1685.48
179.02	1574.89
179.24	1632.23
179.46	1732.58
179.68	1742.82
179.90	1605.61
180.13	1726.44
180.35	1640.42
180.57	1697.77
180.79	1773.54
181.01	1757.16
181.23	1726.44
181.45	1839.08
181.67	1748.97
181.90	1769.44
182.12	1751.01
182.34	1669.09
182.56	1757.16
182.78	1785.83
183.00	1693.67
183.22	1708.01
183.44	1630.18
183.66	1970.15
183.89	1808.36
184.11	1660.90
184.33	1779.68
184.55	1742.82
184.77	1681.38
184.99	1759.21
185.21	1624.04
185.43	1882.08
185.65	1695.72
185.87	1683.43
186.10	1859.56
186.32	1877.99
186.54	1767.40
186.76	1732.58
186.98	1728.49
187.20	1699.81
187.42	1658.85
187.64	1689.57
187.86	1697.77
188.08	1689.57
188.30	1679.33
188.52	1738.73
188.75	1812.45
188.97	1812.45
189.19	1679.33
189.41	1744.87
189.63	1814.50
189.85	1650.66
190.07	1656.81
190.29	1640.42
190.51	1775.59
190.73	1650.66
190.95	1783.78
191.17	1722.34
191.39	1609.70
191.61	1669.09
191.84	1691.62
192.06	1714.15
192.28	1644.52
192.50	1820.64
192.72	1800.16
192.94	1689.57
193.16	1810.40
193.38	1751.01
193.60	1697.77
193.82	1714.15
194.04	1806.31
194.26	1783.78
194.48	1746.92
194.70	1648.61
194.92	1720.29
195.14	1722.34
195.36	1665.00
195.58	1667.05
195.80	1667.05
196.02	1638.38
196.24	1701.86
196.46	1769.44
196.69	1673.19
196.91	1896.42
197.13	1730.53
197.35	1689.57
197.57	1820.64
197.79	1771.49
198.01	1757.16
198.23	1781.73
198.45	1722.34
198.67	1601.51
198.89	1759.21
199.11	1748.97
199.33	1722.34
199.55	1679.33
199.77	1710.05
199.99	1875.94
200.21	1722.34
200.43	1783.78
200.65	1681.38
200.87	1615.85
201.09	1769.44
201.31	1710.05
201.53	1736.68
201.75	1796.07
201.97	1714.15
202.19	1703.91
202.41	1837.03
202.63	1779.68
202.85	1722.34
203.07	1722.34
203.29	1683.43
203.51	1626.09
203.73	1697.77
203.95	1845.22
204.17	1742.82
204.39	1705.96
204.61	1685.48
204.83	1679.33
205.05	1767.40
205.27	1804.26
205.49	1826.79
205.71	1759.21
205.93	1697.77
206.15	1746.92
206.37	1738.73
206.59	1673.19
206.81	1640.42
207.03	1648.61
207.25	1619.94
207.47	1746.92
207.69	1751.01
207.91	1779.68
208.13	1789.92
208.34	1683.43
208.56	1689.57
208.78	1753.06
209.00	1691.62
209.22	1621.99
209.44	1734.63
209.66	1757.16
209.88	1730.53
210.10	1742.82
210.32	1634.28
210.54	1843.17
210.76	1652.71
210.98	1783.78
211.20	1548.26
211.42	1734.63
211.64	1824.74
211.86	1773.54
212.08	1705.96
212.30	1767.40
212.52	1685.48
212.74	1736.68
212.96	1730.53
213.17	1763.30
213.39	1771.49
213.61	1806.31
213.83	1656.81
214.05	1617.90
214.27	1787.88
214.49	1665.00
214.71	1714.15
214.93	1798.12
215.15	1718.25
215.37	1830.88
215.59	1617.90
215.81	1789.92
216.03	1796.07
216.24	1708.01
216.46	1701.86
216.68	1720.29
216.90	1804.26
217.12	1820.64
217.34	1701.86
217.56	1771.49
217.78	1781.73
218.00	1726.44
218.22	1740.77
218.44	1691.62
218.66	1697.77
218.87	1843.17
219.09	1701.86
219.31	1759.21
219.53	1785.83
219.75	1732.58
219.97	1804.26
220.19	1667.05
220.41	1689.57
220.63	1724.39
220.85	1773.54
221.06	1726.44
221.28	1748.97
221.50	1650.66
221.72	1759.21
221.94	1718.25
222.16	1714.15
222.38	1744.87
222.60	1798.12
222.82	1718.25
223.03	1820.64
223.25	1720.29
223.47	1718.25
223.69	1867.75
223.91	1763.30
224.13	1714.15
224.35	1669.09
224.57	1779.68
224.78	1751.01
225.00	1693.67
225.22	1701.86
225.44	1714.15
225.66	1816.55
225.88	1716.20
226.10	1753.06
226.32	1728.49
226.53	1812.45
226.75	1708.01
226.97	1683.43
227.19	1779.68
227.41	1669.09
227.63	1677.29
227.85	1628.14
228.06	1718.25
228.28	1718.25
228.50	1732.58
228.72	1695.72
228.94	1677.29
229.16	1638.38
229.37	1607.66
229.59	1626.09
229.81	1753.06
230.03	1710.05
230.25	1669.09
230.47	1626.09
230.69	1714.15
230.90	1794.02
231.12	1632.23
231.34	1757.16
231.56	1867.75
231.78	1665.00
232.00	1718.25
232.21	1732.58
232.43	1669.09
232.65	1585.13
232.87	1697.77
233.09	1677.29
233.30	1738.73
233.52	1701.86
233.74	1611.75
233.96	1701.86
234.18	1732.58
234.40	1681.38
234.61	1822.69
234.83	1624.04
235.05	1605.61
235.27	1814.50
235.49	1814.50
235.70	1726.44
235.92	1789.92
236.14	1714.15
236.36	1830.88
236.58	1669.09
236.79	1759.21
237.01	1669.09
237.23	1652.71
237.45	1751.01
237.67	1650.66
237.88	1689.57
238.10	1742.82
238.32	1636.33
238.54	1644.52
238.76	1742.82
238.97	1699.81
239.19	1646.57
239.41	1689.57
239.63	1742.82
239.85	1685.48
240.06	1695.72
240.28	1718.25
240.50	1771.49
240.72	1695.72
240.93	1652.71
241.15	1849.32
241.37	1777.64
241.59	1796.07
241.81	1734.63
242.02	1667.05
242.24	1734.63
242.46	1751.01
242.68	1740.77
242.89	1681.38
243.11	1734.63
243.33	1742.82
243.55	1765.35
243.76	1822.69
243.98	1685.48
244.20	1693.67
244.42	1775.59
244.64	1748.97
244.85	1595.37
245.07	1671.14
245.29	1791.97
245.51	1718.25
245.72	1777.64
245.94	1791.97
246.16	1779.68
246.38	1779.68
246.59	1630.18
246.81	1640.42
247.03	1685.48
247.24	1652.71
247.46	1699.81
247.68	1619.94
247.90	1683.43
248.11	1679.33
248.33	1736.68
248.55	1699.81
248.77	1761.25
248.98	1802.21
249.20	1837.03
249.42	1751.01
249.64	1734.63
249.85	1751.01
250.07	1621.99
250.29	1714.15
250.50	1761.25
250.72	1716.20
250.94	1810.40
251.16	1828.84
251.37	1816.55
251.59	1748.97
251.81	1804.26
252.02	1679.33
252.24	1681.38
252.46	1843.17
252.68	1714.15
252.89	1609.70
253.11	1570.79
253.33	1814.50
253.54	1828.84
253.76	1656.81
253.98	1751.01
254.20	1712.10
254.41	1617.90
254.63	1748.97
254.85	1621.99
255.06	1703.91
255.28	1791.97
255.50	1746.92
255.71	1705.96
255.93	1703.91
256.15	1689.57
256.36	1736.68
256.58	1621.99
256.80	1675.24
257.02	1638.38
257.23	1738.73
257.45	1728.49
257.67	1824.74
257.88	1677.29
258.10	1718.25
258.32	1726.44
258.53	1665.00
258.75	1888.23
258.97	1714.15
259.18	1744.87
259.40	1755.11
259.62	1798.12
259.83	1806.31
260.05	1691.62
260.27	2029.54
260.48	1789.92
260.70	1681.38
260.92	1687.53
261.13	1693.67
261.35	1705.96
261.57	1779.68
261.78	1673.19
262.00	1699.81
262.22	1718.25
262.43	1669.09
262.65	1599.46
262.86	1724.39
263.08	1841.12
263.30	1712.10
263.51	1619.94
263.73	1667.05
263.95	1861.60
264.16	1732.58
264.38	1683.43
264.60	1714.15
264.81	1689.57
265.03	1789.92
265.25	1724.39
265.46	1816.55
265.68	1781.73
265.89	1794.02
266.11	1591.27
266.33	1685.48
266.54	1773.54
266.76	1779.68
266.98	1787.88
267.19	1806.31
267.41	1761.25
267.62	1701.86
267.84	1603.56
268.06	1699.81
268.27	1730.53
268.49	1722.34
268.70	1818.60
268.92	1660.90
269.14	1607.66
269.35	1685.48
269.57	1716.20
269.79	1744.87
270.00	1697.77
270.22	1810.40
270.43	1685.48
270.65	1587.18
270.87	1759.21
271.08	1646.57
271.30	1781.73
271.51	1701.86
271.73	1781.73
271.95	1705.96
272.16	1722.34
272.38	1675.24
272.59	1673.19
272.81	1755.11
273.02	1703.91
273.24	1693.67
273.46	1779.68
273.67	1693.67
273.89	1662.95
274.10	1683.43
274.32	1695.72
274.54	1697.77
274.75	1738.73
274.97	1726.44
275.18	1818.60
275.40	1816.55
275.61	1810.40
275.83	1720.29
276.05	1644.52
276.26	1779.68
276.48	1724.39
276.69	1697.77
276.91	1634.28
277.12	1718.25
277.34	1726.44
277.55	1769.44
277.77	1751.01
277.99	1673.19
278.20	1679.33
278.42	1697.77
278.63	1701.86
278.85	1697.77
279.06	1646.57
279.28	1701.86
279.49	1742.82
279.71	1705.96
279.93	1695.72
280.14	1789.92
280.36	1687.53
280.57	1781.73
280.79	1869.80
281.00	1611.75
281.22	1736.68
281.43	1781.73
281.65	1505.26
281.86	1662.95
282.08	1800.16
282.29	1873.89
282.51	1648.61
282.73	1652.71
282.94	1658.85
283.16	1808.36
283.37	1839.08
283.59	1673.19
283.80	1718.25
284.02	1705.96
284.23	1769.44
284.45	1714.15
284.66	1607.66
284.88	1724.39
285.09	1765.35
285.31	1730.53
285.52	1791.97
285.74	1646.57
285.95	1808.36
286.17	1771.49
286.38	1822.69
286.60	1640.42
286.81	1611.75
287.03	1689.57
287.24	1689.57
287.46	1820.64
287.67	1673.19
287.89	1890.28
288.10	1697.77
288.32	1742.82
288.53	1800.16
288.75	1736.68
288.96	1746.92
289.18	1705.96
289.39	1673.19
289.61	1740.77
289.82	1875.94
290.04	1816.55
290.25	1701.86
290.47	1693.67
290.68	1687.53
290.90	1740.77
291.11	1583.08
291.33	1798.12
291.54	1669.09
291.76	1652.71
291.97	1771.49
292.18	1785.83
292.40	1763.30
292.61	1714.15
292.83	1857.51
293.04	1763.30
293.26	1710.05
293.47	1685.48
293.69	1624.04
293.90	1699.81
294.12	1740.77
294.33	1677.29
294.55	1687.53
294.76	1697.77
294.97	1691.62
295.19	1806.31
295.40	1646.57
295.62	1734.63
295.83	1826.79
296.05	1767.40
296.26	1728.49
296.48	1634.28
296.69	1763.30
296.90	1665.00
297.12	1851.36
297.33	1763.30
297.55	1767.40
297.76	1683.43
297.98	1794.02
298.19	1720.29
298.41	1697.77
298.62	1699.81
298.83	1746.92
299.05	1738.73
299.26	1628.14
299.48	1787.88
299.69	1806.31
299.90	1748.97
300.12	1662.95
300.33	1703.91
300.55	1769.44
300.76	1769.44
300.98	1603.56
301.19	1697.77
301.40	1687.53
301.62	1691.62
301.83	1789.92
302.05	1695.72
302.26	1734.63
302.47	1718.25
302.69	1667.05
302.90	1763.30
303.12	1595.37
303.33	1769.44
303.54	1837.03
303.76	1615.85
303.97	1783.78
304.19	1839.08
304.40	1658.85
304.61	1699.81
304.83	1771.49
305.04	1773.54
305.26	1708.01
305.47	1718.25
305.68	1656.81
305.90	1632.23
306.11	1796.07
306.33	1691.62
306.54	1716.20
306.75	1685.48
306.97	1632.23
307.18	1587.18
307.39	1660.90
307.61	1814.50
307.82	1712.10
308.04	1720.29
308.25	1599.46
308.46	1742.82
308.68	1759.21
308.89	1769.44
309.10	1746.92
309.32	1728.49
309.53	1673.19
309.74	1751.01
309.96	1744.87
310.17	1787.88
310.39	1697.77
310.60	1742.82
310.81	1781.73
311.03	1728.49
311.24	1779.68
311.45	1740.77
311.67	1808.36
311.88	1708.01
312.09	1662.95
312.31	1681.38
312.52	1683.43
312.73	1712.10
312.95	1679.33
313.16	1665.00
313.37	1738.73
313.59	1697.77
313.80	1865.70
314.01	1855.46
314.23	1671.14
314.44	1665.00
314.65	1611.75
314.87	1681.38
315.08	1681.38
315.29	1693.67
315.51	1751.01
315.72	1619.94
315.93	1767.40
316.15	1812.45
316.36	1679.33
316.57	1718.25
316.79	1685.48
317.00	1673.19
317.21	1767.40
317.43	1665.00
317.64	1671.14
317.85	1697.77
318.07	1722.34
318.28	1755.11
318.49	1875.94
318.70	1898.47
318.92	1802.21
319.13	1771.49
319.34	1933.28
319.56	1837.03
319.77	1871.84
319.98	1837.03
320.20	1761.25
320.41	1796.07
320.62	1742.82
320.83	1675.24
321.05	1871.84
321.26	1632.23
321.47	1714.15
321.69	1775.59
321.90	1738.73
322.11	1693.67
322.32	1662.95
322.54	1826.79
322.75	1718.25
322.96	1871.84
323.18	1677.29
323.39	1626.09
323.60	1705.96
323.81	1757.16
324.03	1710.05
324.24	1665.00
324.45	1691.62
324.66	1705.96
324.88	1767.40
325.09	1845.22
325.30	1644.52
325.52	1671.14
325.73	1667.05
325.94	1705.96
326.15	1705.96
326.37	1691.62
326.58	1738.73
326.79	1865.70
327.00	1665.00
327.22	1720.29
327.43	1681.38
327.64	1660.90
327.85	1691.62
328.07	1744.87
328.28	1777.64
328.49	1720.29
328.70	1658.85
328.92	1685.48
329.13	1689.57
329.34	1734.63
329.55	1787.88
329.76	1757.16
329.98	1710.05
330.19	1818.60
330.40	1705.96
330.61	1769.44
330.83	1777.64
331.04	1685.48
331.25	1638.38
331.46	1615.85
331.68	1665.00
331.89	1746.92
332.10	1671.14
332.31	1611.75
332.52	1658.85
332.74	1812.45
332.95	1687.53
333.16	1687.53
333.37	1769.44
333.58	1751.01
333.80	1767.40
334.01	1624.04
334.22	1708.01
334.43	1613.80
334.64	1648.61
334.86	1605.61
335.07	1640.42
335.28	1816.55
335.49	1652.71
335.70	1779.68
335.92	1751.01
336.13	1812.45
336.34	1693.67
336.55	1759.21
336.76	1777.64
336.98	1587.18
337.19	1726.44
337.40	1818.60
337.61	1798.12
337.82	1771.49
338.04	1730.53
338.25	1662.95
338.46	1718.25
338.67	1718.25
338.88	1683.43
339.09	1621.99
339.31	1705.96
339.52	1675.24
339.73	1697.77
339.94	1650.66
340.15	1828.84
340.36	1677.29
340.58	1732.58
340.79	1671.14
341.00	1738.73
341.21	1675.24
341.42	1804.26
341.63	1669.09
341.85	1812.45
342.06	1740.77
342.27	1642.47
342.48	1761.25
342.69	1726.44
342.90	1779.68
343.12	1767.40
343.33	1718.25
343.54	1734.63
343.75	1816.55
343.96	1796.07
344.17	1714.15
344.38	1736.68
344.60	1726.44
344.81	1626.09
345.02	1687.53
345.23	1845.22
345.44	1810.40
345.65	1779.68
345.86	1732.58
346.07	1703.91
346.29	1689.57
346.50	1773.54
346.71	1683.43
346.92	1800.16
347.13	1800.16
347.34	1644.52
347.55	1736.68
347.76	1689.57
347.98	1714.15
348.19	1812.45
348.40	1783.78
348.61	1621.99
348.82	1802.21
349.03	1742.82
349.24	1644.52
349.45	1728.49
349.66	1665.00
349.88	1732.58
350.09	1697.77
350.30	1753.06
350.51	1804.26
350.72	1710.05
350.93	1763.30
351.14	1624.04
351.35	1683.43
351.56	1716.20
351.77	1763.30
351.99	1742.82
352.20	1908.71
352.41	1826.79
352.62	1640.42
352.83	1697.77
353.04	1732.58
353.25	1689.57
353.46	1777.64
353.67	1722.34
353.88	1599.46
354.09	1710.05
354.30	1701.86
354.52	1722.34
354.73	1759.21
354.94	1677.29
355.15	1757.16
355.36	1771.49
355.57	1640.42
355.78	1710.05
355.99	1701.86
356.20	1699.81
356.41	1812.45
356.62	1701.86
356.83	1730.53
357.04	1808.36
357.25	1583.08
357.46	1777.64
357.68	1658.85
357.89	1644.52
358.10	1755.11
358.31	1714.15
358.52	1705.96
358.73	1679.33
358.94	1583.08
359.15	1669.09
359.36	1808.36
359.57	1742.82
359.78	1681.38
359.99	1730.53
360.20	1624.04
360.41	1599.46
360.62	1740.77
360.83	1720.29
361.04	1736.68
361.25	1742.82
361.46	1757.16
361.67	1691.62
361.88	1755.11
362.09	1818.60
362.30	1708.01
362.51	1609.70
362.72	1759.21
362.93	1761.25
363.14	1779.68
363.35	1695.72
363.56	1632.23
363.78	1761.25
363.99	1810.40
364.20	1640.42
364.41	1667.05
364.62	1796.07
364.83	1673.19
365.04	1701.86
365.25	1738.73
365.46	1759.21
365.67	1691.62
365.88	1665.00
366.09	1689.57
366.30	1722.34
366.51	1726.44
366.72	1595.37
366.93	1763.30
367.14	1691.62
367.35	1869.80
367.56	1669.09
367.77	1828.84
367.98	1703.91
368.18	1777.64
368.39	1720.29
368.60	1638.38
368.81	1761.25
369.02	1693.67
369.23	1732.58
369.44	1585.13
369.65	1671.14
369.86	1656.81
370.07	1753.06
370.28	1648.61
370.49	1759.21
370.70	1763.30
370.91	1699.81
371.12	1640.42
371.33	1843.17
371.54	1730.53
371.75	1822.69
371.96	1617.90
372.17	1712.10
372.38	1634.28
372.59	1720.29
372.80	1689.57
373.01	1683.43
373.22	1703.91
373.43	1673.19
373.64	1615.85
373.85	1832.93
374.06	1837.03
374.26	1740.77
374.47	1834.98
374.68	1824.74
374.89	1716.20
375.10	1712.10
375.31	1865.70
375.52	1800.16
375.73	1714.15
375.94	1613.80
376.15	1794.02
376.36	1693.67
376.57	1708.01
376.78	1691.62
376.99	1740.77
377.20	1816.55
377.40	1681.38
377.61	1873.89
377.82	1796.07
378.03	1773.54
378.24	1730.53
378.45	1757.16
378.66	1720.29
378.87	1621.99
379.08	1654.76
379.29	1744.87
379.50	1738.73
379.71	1689.57
379.91	1716.20
380.12	1683.43
380.33	1757.16
380.54	1665.00
380.75	1736.68
380.96	1701.86
381.17	1722.34
381.38	1753.06
381.59	1714.15
381.80	1783.78
382.00	1886.18
382.21	1734.63
382.42	1812.45
382.63	1861.60
382.84	1789.92
383.05	1757.16
383.26	1877.99
383.47	1767.40
383.68	1771.49
383.88	1791.97
384.09	1718.25
384.30	1796.07
384.51	1744.87
384.72	1691.62
384.93	1642.47
385.14	1695.72
385.35	1765.35
385.55	1644.52
385.76	1724.39
385.97	1640.42
386.18	1609.70
386.39	1703.91
386.60	1665.00
386.81	1708.01
387.02	1652.71
387.22	1753.06
387.43	1742.82
387.64	1736.68
387.85	1925.09
388.06	2146.27
388.27	4302.78
388.48	6621.08
388.68	8138.63
388.89	9504.62
389.10	9455.47
389.31	8458.11
389.52	7427.98
389.73	6680.47
389.93	6023.08
390.14	5664.68
390.35	5142.45
390.56	4544.44
390.77	3774.41
390.98	3059.67
391.18	2525.15
391.39	2107.36
391.60	1814.50
391.81	1826.79
392.02	1787.88
392.23	1837.03
392.43	1783.78
392.64	1873.89
392.85	1744.87
393.06	1806.31
393.27	1767.40
393.47	1646.57
393.68	1720.29
393.89	1605.61
394.10	1787.88
394.31	1671.14
394.52	1687.53
394.72	1689.57
394.93	1812.45
395.14	1681.38
395.35	1728.49
395.56	1687.53
395.76	1726.44
395.97	1834.98
396.18	1763.30
396.39	1777.64
396.60	2054.11
396.80	1888.23
397.01	1828.84
397.22	1855.46
397.43	1894.37
397.64	1785.83
397.84	1826.79
398.05	1925.09
398.26	1816.55
398.47	1808.36
398.67	1763.30
398.88	1695.72
399.09	1814.50
399.30	1701.86
399.51	1753.06
399.71	1763.30
399.92	1693.67
400.13	1761.25
400.34	1708.01
400.54	1699.81
400.75	1812.45
400.96	1753.06
401.17	1865.70
401.37	1804.26
401.58	1683.43
401.79	1705.96
402.00	1845.22
402.21	2029.54
402.41	1886.18
402.62	1986.53
402.83	2054.11
403.04	1964.00
403.24	2144.22
403.45	1880.04
403.66	1914.85
403.87	1884.13
404.07	1931.23
404.28	1947.62
404.49	1931.23
404.70	1826.79
404.90	1816.55
405.11	1732.58
405.32	1787.88
405.52	1767.40
405.73	1632.23
405.94	1665.00
406.15	1751.01
406.35	1742.82
406.56	1654.76
406.77	1748.97
406.98	1771.49
407.18	1697.77
407.39	1816.55
407.60	1701.86
407.80	1781.73
408.01	1730.53
408.22	1824.74
408.43	1701.86
408.63	1763.30
408.84	1779.68
409.05	1710.05
409.25	1681.38
409.46	1693.67
409.67	1691.62
409.88	1753.06
410.08	1730.53
410.29	1705.96
410.50	1716.20
410.70	1736.68
410.91	1683.43
411.12	1726.44
411.32	1685.48
411.53	1660.90
411.74	1779.68
411.95	1843.17
412.15	1726.44
412.36	1798.12
412.57	1734.63
412.77	1843.17
412.98	1705.96
413.19	1697.77
413.39	1734.63
413.60	1744.87
413.81	1763.30
414.01	1607.66
414.22	1777.64
414.43	1734.63
414.63	1632.23
414.84	1796.07
415.05	1687.53
415.25	1652.71
415.46	1746.92
415.67	1685.48
415.87	1650.66
416.08	1753.06
416.29	1699.81
416.49	1804.26
416.70	1626.09
416.91	1658.85
417.11	1724.39
417.32	1767.40
417.53	1779.68
417.73	1732.58
417.94	1652.71
418.15	1699.81
418.35	1693.67
418.56	1718.25
418.77	1890.28
418.97	1712.10
419.18	1757.16
419.38	1556.46
419.59	1738.73
419.80	1837.03
420.00	1751.01
420.21	1742.82
420.42	1744.87
420.62	1800.16
420.83	1644.52
421.04	1667.05
421.24	1671.14
421.45	1869.80
421.65	1771.49
421.86	1636.33
422.07	1734.63
422.27	1822.69
422.48	1773.54
422.69	1738.73
422.89	1722.34
423.10	1691.62
423.30	1669.09
423.51	1736.68
423.72	1771.49
423.92	1759.21
424.13	1646.57
424.33	1757.16
424.54	1814.50
424.75	1681.38
424.95	1818.60
425.16	1714.15
425.36	1755.11
425.57	1658.85
425.78	1787.88
425.98	1820.64
426.19	1642.47
426.39	1671.14
426.60	1712.10
426.81	1773.54
427.01	1734.63
427.22	1722.34
427.42	1587.18
427.63	1673.19
427.83	1816.55
428.04	1888.23
428.25	1787.88
428.45	1773.54
428.66	1816.55
428.86	1787.88
429.07	1714.15
429.28	1691.62
429.48	1716.20
429.69	1615.85
429.89	1734.63
430.10	1615.85
430.30	1779.68
430.51	1800.16
430.71	1683.43
430.92	1767.40
431.13	1714.15
431.33	1732.58
431.54	1824.74
431.74	1851.36
431.95	1785.83
432.15	1624.04
432.36	1712.10
432.56	1789.92
432.77	1794.02
432.98	1816.55
433.18	1746.92
433.39	1689.57
433.59	1804.26
433.80	1914.85
434.00	1837.03
434.21	1763.30
434.41	1712.10
434.62	1882.08
434.82	1679.33
435.03	1683.43
435.23	1648.61
435.44	1652.71
435.64	1677.29
435.85	1767.40
436.06	1781.73
436.26	1822.69
436.47	1669.09
436.67	1718.25
436.88	1804.26
437.08	1787.88
437.29	1820.64
437.49	1740.77
437.70	1802.21
437.90	1828.84
438.11	1894.37
438.31	1849.32
438.52	1849.32
438.72	1824.74
438.93	1873.89
439.13	1785.83
439.34	1816.55
439.54	1667.05
439.75	1791.97
439.95	1753.06
440.16	1759.21
440.36	1828.84
440.57	1759.21
440.77	1882.08
440.98	1730.53
441.18	1767.40
441.39	1779.68
441.59	1632.23
441.80	1824.74
442.00	1726.44
442.21	1800.16
442.41	1730.53
442.62	1771.49
442.82	1744.87
443.02	1748.97
443.23	1736.68
443.43	1665.00
443.64	1779.68
443.84	1634.28
444.05	1775.59
444.25	1751.01
444.46	1734.63
444.66	1775.59
444.87	1927.14
445.07	1658.85
445.28	1732.58
445.48	1775.59
445.69	1789.92
445.89	1820.64
446.09	1755.11
446.30	2058.21
446.50	2637.78
446.71	3708.87
446.91	4310.97
447.12	4741.05
447.32	4810.68
447.53	4243.39
447.73	3860.42
447.93	3606.47
448.14	3246.03
448.34	3264.46
448.55	2895.83
448.75	2863.06
448.96	2748.37
449.16	2451.42
449.36	2269.15
449.57	2078.69
449.77	1877.99
449.98	1789.92
450.18	1847.27
450.39	1865.70
450.59	1773.54
450.79	1708.01
451.00	1787.88
451.20	1834.98
451.41	1775.59
451.61	1796.07
451.81	1736.68
452.02	1736.68
452.22	1689.57
452.43	1665.00
452.63	1693.67
