SpectraSuite Data File
++++++++++++++++++++++++++++++++++++
Date: Mon Jun 06 16:27:17 CEST 2016
User: root
Dark Spectrum Present: No
Reference Spectrum Present: No
Number of Sampled Component Spectra: 1
Spectrometers: USB4C02835
Integration Time (usec): 100000 (USB4C02835)
Spectra Averaged: 1 (USB4C02835)
Boxcar Smoothing: 0 (USB4C02835)
Correct for Electrical Dark: No (USB4C02835)
Strobe/Lamp Enabled: No (USB4C02835)
Correct for Detector Non-linearity: No (USB4C02835)
Correct for Stray Light: No (USB4C02835)
Number of Pixels in Processed Spectrum: 3648
>>>>>Begin Processed Spectral Data<<<<<
177.47	1515.50
177.69	1515.50
177.91	1515.50
178.13	1499.11
178.36	1497.07
178.58	1628.14
178.80	1710.05
179.02	1609.70
179.24	1714.15
179.46	1734.63
179.68	1777.64
179.90	1726.44
180.13	1716.20
180.35	1685.48
180.57	1677.29
180.79	1798.12
181.01	1771.49
181.23	1765.35
181.45	1822.69
181.67	1724.39
181.90	1714.15
182.12	1646.57
182.34	1662.95
182.56	1798.12
182.78	1746.92
183.00	1665.00
183.22	1679.33
183.44	1576.94
183.66	1886.18
183.89	1714.15
184.11	1732.58
184.33	1679.33
184.55	1730.53
184.77	1736.68
184.99	1779.68
185.21	1681.38
185.43	1871.84
185.65	1665.00
185.87	1695.72
186.10	1832.93
186.32	1779.68
186.54	1734.63
186.76	1714.15
186.98	1759.21
187.20	1662.95
187.42	1720.29
187.64	1675.24
187.86	1740.77
188.08	1718.25
188.30	1640.42
188.52	1675.24
188.75	1757.16
188.97	1781.73
189.19	1757.16
189.41	1714.15
189.63	1753.06
189.85	1716.20
190.07	1626.09
190.29	1607.66
190.51	1816.55
190.73	1648.61
190.95	1720.29
191.17	1726.44
191.39	1677.29
191.61	1691.62
191.84	1708.01
192.06	1742.82
192.28	1617.90
192.50	1888.23
192.72	1697.77
192.94	1705.96
193.16	1761.25
193.38	1769.44
193.60	1544.17
193.82	1757.16
194.04	1732.58
194.26	1701.86
194.48	1773.54
194.70	1673.19
194.92	1691.62
195.14	1738.73
195.36	1673.19
195.58	1650.66
195.80	1728.49
196.02	1699.81
196.24	1667.05
196.46	1689.57
196.69	1646.57
196.91	1869.80
197.13	1660.90
197.35	1656.81
197.57	1791.97
197.79	1722.34
198.01	1669.09
198.23	1746.92
198.45	1748.97
198.67	1581.03
198.89	1665.00
199.11	1789.92
199.33	1705.96
199.55	1558.50
199.77	1652.71
199.99	1865.70
200.21	1714.15
200.43	1767.40
200.65	1679.33
200.87	1636.33
201.09	1656.81
201.31	1726.44
201.53	1751.01
201.75	1693.67
201.97	1722.34
202.19	1742.82
202.41	1728.49
202.63	1771.49
202.85	1714.15
203.07	1779.68
203.29	1742.82
203.51	1615.85
203.73	1648.61
203.95	1824.74
204.17	1804.26
204.39	1748.97
204.61	1718.25
204.83	1679.33
205.05	1726.44
205.27	1796.07
205.49	1877.99
205.71	1665.00
205.93	1632.23
206.15	1673.19
206.37	1613.80
206.59	1675.24
206.81	1673.19
207.03	1632.23
207.25	1646.57
207.47	1818.60
207.69	1759.21
207.91	1740.77
208.13	1718.25
208.34	1722.34
208.56	1615.85
208.78	1759.21
209.00	1710.05
209.22	1714.15
209.44	1683.43
209.66	1712.10
209.88	1724.39
210.10	1761.25
210.32	1757.16
210.54	1689.57
210.76	1708.01
210.98	1802.21
211.20	1626.09
211.42	1804.26
211.64	1685.48
211.86	1718.25
212.08	1746.92
212.30	1728.49
212.52	1621.99
212.74	1802.21
212.96	1783.78
213.17	1755.11
213.39	1763.30
213.61	1746.92
213.83	1660.90
214.05	1595.37
214.27	1742.82
214.49	1615.85
214.71	1720.29
214.93	1724.39
215.15	1714.15
215.37	1759.21
215.59	1648.61
215.81	1712.10
216.03	1779.68
216.24	1732.58
216.46	1748.97
216.68	1724.39
216.90	1845.22
217.12	1755.11
217.34	1716.20
217.56	1757.16
217.78	1808.36
218.00	1669.09
218.22	1789.92
218.44	1763.30
218.66	1742.82
218.87	1847.27
219.09	1669.09
219.31	1714.15
219.53	1730.53
219.75	1718.25
219.97	1796.07
220.19	1658.85
220.41	1765.35
220.63	1757.16
220.85	1691.62
221.06	1783.78
221.28	1697.77
221.50	1742.82
221.72	1681.38
221.94	1800.16
222.16	1718.25
222.38	1796.07
222.60	1734.63
222.82	1685.48
223.03	1720.29
223.25	1679.33
223.47	1791.97
223.69	1851.36
223.91	1794.02
224.13	1738.73
224.35	1701.86
224.57	1761.25
224.78	1722.34
225.00	1648.61
225.22	1718.25
225.44	1689.57
225.66	1771.49
225.88	1660.90
226.10	1779.68
226.32	1724.39
226.53	1863.65
226.75	1775.59
226.97	1751.01
227.19	1683.43
227.41	1724.39
227.63	1599.46
227.85	1679.33
228.06	1673.19
228.28	1650.66
228.50	1783.78
228.72	1728.49
228.94	1691.62
229.16	1611.75
229.37	1675.24
229.59	1689.57
229.81	1818.60
230.03	1648.61
230.25	1601.51
230.47	1605.61
230.69	1656.81
230.90	1767.40
231.12	1654.76
231.34	1712.10
231.56	1757.16
231.78	1705.96
232.00	1742.82
232.21	1728.49
232.43	1734.63
232.65	1587.18
232.87	1785.83
233.09	1628.14
233.30	1703.91
233.52	1783.78
233.74	1763.30
233.96	1695.72
234.18	1738.73
234.40	1628.14
234.61	1820.64
234.83	1591.27
235.05	1658.85
235.27	1839.08
235.49	1802.21
235.70	1728.49
235.92	1779.68
236.14	1761.25
236.36	1847.27
236.58	1626.09
236.79	1744.87
237.01	1763.30
237.23	1693.67
237.45	1839.08
237.67	1662.95
237.88	1761.25
238.10	1794.02
238.32	1576.94
238.54	1714.15
238.76	1701.86
238.97	1685.48
239.19	1710.05
239.41	1847.27
239.63	1769.44
239.85	1662.95
240.06	1669.09
240.28	1656.81
240.50	1691.62
240.72	1699.81
240.93	1673.19
241.15	1785.83
241.37	1738.73
241.59	1855.46
241.81	1656.81
242.02	1701.86
242.24	1755.11
242.46	1671.14
242.68	1693.67
242.89	1724.39
243.11	1824.74
243.33	1720.29
243.55	1701.86
243.76	1740.77
243.98	1640.42
244.20	1728.49
244.42	1689.57
244.64	1744.87
244.85	1677.29
245.07	1665.00
245.29	1734.63
245.51	1718.25
245.72	1708.01
245.94	1798.12
246.16	1730.53
246.38	1763.30
246.59	1708.01
246.81	1654.76
247.03	1669.09
247.24	1617.90
247.46	1726.44
247.68	1746.92
247.90	1722.34
248.11	1748.97
248.33	1802.21
248.55	1708.01
248.77	1734.63
248.98	1720.29
249.20	1718.25
249.42	1675.24
249.64	1775.59
249.85	1689.57
250.07	1701.86
250.29	1789.92
250.50	1791.97
250.72	1550.31
250.94	1689.57
251.16	1789.92
251.37	1777.64
251.59	1703.91
251.81	1763.30
252.02	1804.26
252.24	1662.95
252.46	1796.07
252.68	1701.86
252.89	1697.77
253.11	1669.09
253.33	1826.79
253.54	1882.08
253.76	1593.32
253.98	1654.76
254.20	1601.51
254.41	1617.90
254.63	1697.77
254.85	1648.61
255.06	1751.01
255.28	1763.30
255.50	1775.59
255.71	1687.53
255.93	1626.09
256.15	1769.44
256.36	1677.29
256.58	1714.15
256.80	1775.59
257.02	1628.14
257.23	1658.85
257.45	1710.05
257.67	1742.82
257.88	1619.94
258.10	1736.68
258.32	1785.83
258.53	1708.01
258.75	1800.16
258.97	1650.66
259.18	1755.11
259.40	1763.30
259.62	1822.69
259.83	1779.68
260.05	1777.64
260.27	1929.19
260.48	1730.53
260.70	1677.29
260.92	1691.62
261.13	1718.25
261.35	1718.25
261.57	1732.58
261.78	1658.85
262.00	1658.85
262.22	1744.87
262.43	1675.24
262.65	1730.53
262.86	1705.96
263.08	1832.93
263.30	1726.44
263.51	1576.94
263.73	1673.19
263.95	1800.16
264.16	1691.62
264.38	1638.38
264.60	1703.91
264.81	1693.67
265.03	1738.73
265.25	1755.11
265.46	1728.49
265.68	1753.06
265.89	1765.35
266.11	1595.37
266.33	1712.10
266.54	1771.49
266.76	1732.58
266.98	1687.53
267.19	1763.30
267.41	1720.29
267.62	1673.19
267.84	1611.75
268.06	1767.40
268.27	1779.68
268.49	1771.49
268.70	1726.44
268.92	1708.01
269.14	1673.19
269.35	1667.05
269.57	1693.67
269.79	1746.92
270.00	1714.15
270.22	1779.68
270.43	1714.15
270.65	1538.02
270.87	1724.39
271.08	1796.07
271.30	1771.49
271.51	1732.58
271.73	1669.09
271.95	1738.73
272.16	1699.81
272.38	1714.15
272.59	1673.19
272.81	1794.02
273.02	1703.91
273.24	1689.57
273.46	1742.82
273.67	1673.19
273.89	1656.81
274.10	1624.04
274.32	1802.21
274.54	1703.91
274.75	1740.77
274.97	1669.09
275.18	1738.73
275.40	1742.82
275.61	1726.44
275.83	1701.86
276.05	1722.34
276.26	1681.38
276.48	1773.54
276.69	1697.77
276.91	1722.34
277.12	1712.10
277.34	1738.73
277.55	1748.97
277.77	1728.49
277.99	1812.45
278.20	1638.38
278.42	1636.33
278.63	1658.85
278.85	1640.42
279.06	1665.00
279.28	1730.53
279.49	1714.15
279.71	1724.39
279.93	1716.20
280.14	1738.73
280.36	1679.33
280.57	1755.11
280.79	1810.40
281.00	1652.71
281.22	1652.71
281.43	1824.74
281.65	1535.98
281.86	1615.85
282.08	1689.57
282.29	1738.73
282.51	1595.37
282.73	1619.94
282.94	1744.87
283.16	1740.77
283.37	1837.03
283.59	1740.77
283.80	1748.97
284.02	1761.25
284.23	1753.06
284.45	1669.09
284.66	1665.00
284.88	1759.21
285.09	1705.96
285.31	1726.44
285.52	1716.20
285.74	1630.18
285.95	1794.02
286.17	1730.53
286.38	1810.40
286.60	1759.21
286.81	1685.48
287.03	1736.68
287.24	1757.16
287.46	1724.39
287.67	1736.68
287.89	1816.55
288.10	1724.39
288.32	1765.35
288.53	1859.56
288.75	1689.57
288.96	1730.53
289.18	1660.90
289.39	1683.43
289.61	1816.55
289.82	1820.64
290.04	1810.40
290.25	1642.47
290.47	1775.59
290.68	1697.77
290.90	1808.36
291.11	1675.24
291.33	1730.53
291.54	1621.99
291.76	1714.15
291.97	1771.49
292.18	1808.36
292.40	1722.34
292.61	1710.05
292.83	1791.97
293.04	1722.34
293.26	1732.58
293.47	1677.29
293.69	1665.00
293.90	1673.19
294.12	1722.34
294.33	1691.62
294.55	1738.73
294.76	1734.63
294.97	1783.78
295.19	1869.80
295.40	1675.24
295.62	1714.15
295.83	1796.07
296.05	1697.77
296.26	1759.21
296.48	1703.91
296.69	1736.68
296.90	1708.01
297.12	1710.05
297.33	1761.25
297.55	1695.72
297.76	1712.10
297.98	1812.45
298.19	1646.57
298.41	1691.62
298.62	1615.85
298.83	1775.59
299.05	1722.34
299.26	1667.05
299.48	1673.19
299.69	1714.15
299.90	1683.43
300.12	1714.15
300.33	1779.68
300.55	1708.01
300.76	1761.25
300.98	1621.99
301.19	1796.07
301.40	1681.38
301.62	1683.43
301.83	1767.40
302.05	1691.62
302.26	1777.64
302.47	1708.01
302.69	1689.57
302.90	1755.11
303.12	1630.18
303.33	1757.16
303.54	1832.93
303.76	1730.53
303.97	1648.61
304.19	1822.69
304.40	1705.96
304.61	1816.55
304.83	1746.92
305.04	1781.73
305.26	1742.82
305.47	1689.57
305.68	1742.82
305.90	1724.39
306.11	1761.25
306.33	1714.15
306.54	1675.24
306.75	1640.42
306.97	1669.09
307.18	1613.80
307.39	1716.20
307.61	1767.40
307.82	1687.53
308.04	1724.39
308.25	1708.01
308.46	1693.67
308.68	1636.33
308.89	1765.35
309.10	1777.64
309.32	1677.29
309.53	1681.38
309.74	1701.86
309.96	1726.44
310.17	1673.19
310.39	1615.85
310.60	1746.92
310.81	1693.67
311.03	1615.85
311.24	1722.34
311.45	1755.11
311.67	1753.06
311.88	1738.73
312.09	1669.09
312.31	1683.43
312.52	1730.53
312.73	1650.66
312.95	1624.04
313.16	1716.20
313.37	1853.41
313.59	1730.53
313.80	1781.73
314.01	1812.45
314.23	1669.09
314.44	1689.57
314.65	1695.72
314.87	1740.77
315.08	1658.85
315.29	1728.49
315.51	1673.19
315.72	1640.42
315.93	1912.80
316.15	1767.40
316.36	1724.39
316.57	1740.77
316.79	1759.21
317.00	1712.10
317.21	1765.35
317.43	1691.62
317.64	1722.34
317.85	1673.19
318.07	1744.87
318.28	1734.63
318.49	1855.46
318.70	1884.13
318.92	1837.03
319.13	1806.31
319.34	1890.28
319.56	1820.64
319.77	1773.54
319.98	1822.69
320.20	1746.92
320.41	1785.83
320.62	1773.54
320.83	1585.13
321.05	1869.80
321.26	1714.15
321.47	1705.96
321.69	1837.03
321.90	1673.19
322.11	1673.19
322.32	1656.81
322.54	1744.87
322.75	1703.91
322.96	1800.16
323.18	1652.71
323.39	1665.00
323.60	1642.47
323.81	1728.49
324.03	1703.91
324.24	1734.63
324.45	1687.53
324.66	1689.57
324.88	1734.63
325.09	1845.22
325.30	1736.68
325.52	1695.72
325.73	1771.49
325.94	1619.94
326.15	1648.61
326.37	1685.48
326.58	1816.55
326.79	1783.78
327.00	1621.99
327.22	1685.48
327.43	1695.72
327.64	1595.37
327.85	1738.73
328.07	1757.16
328.28	1802.21
328.49	1640.42
328.70	1705.96
328.92	1640.42
329.13	1710.05
329.34	1708.01
329.55	1746.92
329.76	1773.54
329.98	1716.20
330.19	1781.73
330.40	1796.07
330.61	1650.66
330.83	1781.73
331.04	1574.89
331.25	1724.39
331.46	1679.33
331.68	1638.38
331.89	1755.11
332.10	1693.67
332.31	1693.67
332.52	1658.85
332.74	1775.59
332.95	1593.32
333.16	1683.43
333.37	1751.01
333.58	1667.05
333.80	1740.77
334.01	1566.70
334.22	1654.76
334.43	1685.48
334.64	1628.14
334.86	1626.09
335.07	1683.43
335.28	1830.88
335.49	1691.62
335.70	1779.68
335.92	1791.97
336.13	1794.02
336.34	1718.25
336.55	1710.05
336.76	1708.01
336.98	1656.81
337.19	1751.01
337.40	1753.06
337.61	1814.50
337.82	1734.63
338.04	1761.25
338.25	1648.61
338.46	1716.20
338.67	1724.39
338.88	1628.14
339.09	1585.13
339.31	1669.09
339.52	1677.29
339.73	1634.28
339.94	1724.39
340.15	1806.31
340.36	1689.57
340.58	1775.59
340.79	1710.05
341.00	1710.05
341.21	1697.77
341.42	1763.30
341.63	1673.19
341.85	1710.05
342.06	1789.92
342.27	1685.48
342.48	1789.92
342.69	1697.77
342.90	1753.06
343.12	1730.53
343.33	1634.28
343.54	1798.12
343.75	1806.31
343.96	1689.57
344.17	1691.62
344.38	1632.23
344.60	1718.25
344.81	1585.13
345.02	1734.63
345.23	1669.09
345.44	1798.12
345.65	1755.11
345.86	1765.35
346.07	1722.34
346.29	1685.48
346.50	1798.12
346.71	1763.30
346.92	1687.53
347.13	1798.12
347.34	1714.15
347.55	1683.43
347.76	1722.34
347.98	1615.85
348.19	1667.05
348.40	1802.21
348.61	1648.61
348.82	1718.25
349.03	1669.09
349.24	1720.29
349.45	1808.36
349.66	1638.38
349.88	1716.20
350.09	1644.52
350.30	1761.25
350.51	1736.68
350.72	1724.39
350.93	1726.44
351.14	1689.57
351.35	1705.96
351.56	1634.28
351.77	1730.53
351.99	1732.58
352.20	1816.55
352.41	1765.35
352.62	1665.00
352.83	1681.38
353.04	1699.81
353.25	1648.61
353.46	1824.74
353.67	1769.44
353.88	1662.95
354.09	1822.69
354.30	1722.34
354.52	1761.25
354.73	1671.14
354.94	1648.61
355.15	1679.33
355.36	1849.32
355.57	1683.43
355.78	1695.72
355.99	1765.35
356.20	1695.72
356.41	1695.72
356.62	1744.87
356.83	1675.24
357.04	1785.83
357.25	1689.57
357.46	1720.29
357.68	1634.28
357.89	1603.56
358.10	1724.39
358.31	1746.92
358.52	1689.57
358.73	1644.52
358.94	1665.00
359.15	1656.81
359.36	1804.26
359.57	1746.92
359.78	1689.57
359.99	1787.88
360.20	1728.49
360.41	1689.57
360.62	1759.21
360.83	1755.11
361.04	1757.16
361.25	1673.19
361.46	1857.51
361.67	1736.68
361.88	1757.16
362.09	1779.68
362.30	1675.24
362.51	1708.01
362.72	1691.62
362.93	1744.87
363.14	1746.92
363.35	1744.87
363.56	1656.81
363.78	1734.63
363.99	1742.82
364.20	1767.40
364.41	1652.71
364.62	1820.64
364.83	1736.68
365.04	1667.05
365.25	1740.77
365.46	1763.30
365.67	1728.49
365.88	1652.71
366.09	1701.86
366.30	1669.09
366.51	1679.33
366.72	1683.43
366.93	1695.72
367.14	1734.63
367.35	1828.84
367.56	1736.68
367.77	1783.78
367.98	1710.05
368.18	1710.05
368.39	1800.16
368.60	1701.86
368.81	1734.63
369.02	1728.49
369.23	1730.53
369.44	1611.75
369.65	1669.09
369.86	1718.25
370.07	1701.86
370.28	1705.96
370.49	1775.59
370.70	1765.35
370.91	1669.09
371.12	1636.33
371.33	1767.40
371.54	1710.05
371.75	1820.64
371.96	1613.80
372.17	1705.96
372.38	1687.53
372.59	1748.97
372.80	1675.24
373.01	1736.68
373.22	1691.62
373.43	1689.57
373.64	1660.90
373.85	1824.74
374.06	1845.22
374.26	1734.63
374.47	1722.34
374.68	1806.31
374.89	1656.81
375.10	1716.20
375.31	1791.97
375.52	1716.20
375.73	1697.77
375.94	1669.09
376.15	1861.60
376.36	1730.53
376.57	1640.42
376.78	1693.67
376.99	1660.90
377.20	1812.45
377.40	1675.24
377.61	1841.12
377.82	1677.29
378.03	1826.79
378.24	1746.92
378.45	1675.24
378.66	1740.77
378.87	1650.66
379.08	1665.00
379.29	1634.28
379.50	1761.25
379.71	1710.05
379.91	1732.58
380.12	1652.71
380.33	1761.25
380.54	1730.53
380.75	1705.96
380.96	1712.10
381.17	1783.78
381.38	1679.33
381.59	1773.54
381.80	1740.77
382.00	1851.36
382.21	1718.25
382.42	1867.75
382.63	1886.18
382.84	1736.68
383.05	1777.64
383.26	1796.07
383.47	1693.67
383.68	1744.87
383.88	1785.83
384.09	1697.77
384.30	1794.02
384.51	1771.49
384.72	1665.00
384.93	1617.90
385.14	1753.06
385.35	1757.16
385.55	1615.85
385.76	1800.16
385.97	1656.81
386.18	1669.09
386.39	1669.09
386.60	1753.06
386.81	1705.96
387.02	1636.33
387.22	1708.01
387.43	1783.78
387.64	1777.64
387.85	1816.55
388.06	2174.94
388.27	4181.95
388.48	6715.29
388.68	8226.69
388.89	9631.60
389.10	9908.07
389.31	8515.45
389.52	7464.85
389.73	6764.44
389.93	6182.82
390.14	5744.55
390.35	5117.87
390.56	4554.68
390.77	3815.37
390.98	3035.09
391.18	2519.00
391.39	2160.61
391.60	1884.13
391.81	1861.60
392.02	1742.82
392.23	1892.32
392.43	1767.40
392.64	1800.16
392.85	1701.86
393.06	1816.55
393.27	1646.57
393.47	1722.34
393.68	1800.16
393.89	1732.58
394.10	1773.54
394.31	1671.14
394.52	1634.28
394.72	1753.06
394.93	1791.97
395.14	1619.94
395.35	1720.29
395.56	1662.95
395.76	1705.96
395.97	1736.68
396.18	1898.47
396.39	1847.27
396.60	2084.83
396.80	1861.60
397.01	1877.99
397.22	1759.21
397.43	1918.95
397.64	1761.25
397.84	1837.03
398.05	1912.80
398.26	1757.16
398.47	1785.83
398.67	1742.82
398.88	1744.87
399.09	1746.92
399.30	1716.20
399.51	1746.92
399.71	1681.38
399.92	1742.82
400.13	1791.97
400.34	1681.38
400.54	1746.92
400.75	1724.39
400.96	1826.79
401.17	1847.27
401.37	1751.01
401.58	1746.92
401.79	1738.73
402.00	1896.42
402.21	2054.11
402.41	1959.91
402.62	2023.39
402.83	2033.63
403.04	1949.67
403.24	2105.31
403.45	1837.03
403.66	1871.84
403.87	1855.46
404.07	1894.37
404.28	1873.89
404.49	1863.65
404.70	1787.88
404.90	1814.50
405.11	1746.92
405.32	1726.44
405.52	1675.24
405.73	1759.21
405.94	1767.40
406.15	1722.34
406.35	1742.82
406.56	1710.05
406.77	1753.06
406.98	1755.11
407.18	1646.57
407.39	1806.31
407.60	1718.25
407.80	1751.01
408.01	1730.53
408.22	1697.77
408.43	1671.14
408.63	1787.88
408.84	1851.36
409.05	1726.44
409.25	1697.77
409.46	1681.38
409.67	1671.14
409.88	1658.85
410.08	1722.34
410.29	1740.77
410.50	1771.49
410.70	1753.06
410.91	1703.91
411.12	1710.05
411.32	1800.16
411.53	1683.43
411.74	1880.04
411.95	1761.25
412.15	1775.59
412.36	1763.30
412.57	1716.20
412.77	1806.31
412.98	1787.88
413.19	1730.53
413.39	1742.82
413.60	1703.91
413.81	1816.55
414.01	1648.61
414.22	1775.59
414.43	1804.26
414.63	1701.86
414.84	1730.53
415.05	1689.57
415.25	1662.95
415.46	1744.87
415.67	1742.82
415.87	1738.73
416.08	1714.15
416.29	1744.87
416.49	1783.78
416.70	1677.29
416.91	1714.15
417.11	1718.25
417.32	1789.92
417.53	1787.88
417.73	1742.82
417.94	1675.24
418.15	1718.25
418.35	1671.14
418.56	1722.34
418.77	1791.97
418.97	1705.96
419.18	1648.61
419.38	1581.03
419.59	1775.59
419.80	1810.40
420.00	1632.23
420.21	1710.05
420.42	1789.92
420.62	1720.29
420.83	1568.74
421.04	1734.63
421.24	1624.04
421.45	1771.49
421.65	1757.16
421.86	1648.61
422.07	1726.44
422.27	1796.07
422.48	1685.48
422.69	1757.16
422.89	1712.10
423.10	1708.01
423.30	1634.28
423.51	1673.19
423.72	1669.09
423.92	1767.40
424.13	1642.47
424.33	1712.10
424.54	1744.87
424.75	1742.82
424.95	1816.55
425.16	1730.53
425.36	1669.09
425.57	1810.40
425.78	1730.53
425.98	1755.11
426.19	1671.14
426.39	1576.94
426.60	1751.01
426.81	1814.50
427.01	1789.92
427.22	1630.18
427.42	1652.71
427.63	1703.91
427.83	1746.92
428.04	1802.21
428.25	1730.53
428.45	1734.63
428.66	1736.68
428.86	1748.97
429.07	1693.67
429.28	1648.61
429.48	1681.38
429.69	1654.76
429.89	1751.01
430.10	1615.85
430.30	1714.15
430.51	1791.97
430.71	1746.92
430.92	1771.49
431.13	1630.18
431.33	1722.34
431.54	1724.39
431.74	1830.88
431.95	1824.74
432.15	1636.33
432.36	1724.39
432.56	1771.49
432.77	1863.65
432.98	1888.23
433.18	1748.97
433.39	1730.53
433.59	1689.57
433.80	1822.69
434.00	1820.64
434.21	1687.53
434.41	1679.33
434.62	1845.22
434.82	1689.57
435.03	1681.38
435.23	1683.43
435.44	1695.72
435.64	1716.20
435.85	1789.92
436.06	1773.54
436.26	1740.77
436.47	1660.90
436.67	1667.05
436.88	1689.57
437.08	1796.07
437.29	1847.27
437.49	1667.05
437.70	1726.44
437.90	1716.20
438.11	1855.46
438.31	1771.49
438.52	1820.64
438.72	1816.55
438.93	1929.19
439.13	1777.64
439.34	1728.49
439.54	1824.74
439.75	1837.03
439.95	1789.92
440.16	1673.19
440.36	1751.01
440.57	1767.40
440.77	1746.92
440.98	1746.92
441.18	1705.96
441.39	1748.97
441.59	1759.21
441.80	1824.74
442.00	1759.21
442.21	1837.03
442.41	1705.96
442.62	1689.57
442.82	1718.25
443.02	1804.26
443.23	1710.05
443.43	1656.81
443.64	1822.69
443.84	1689.57
444.05	1730.53
444.25	1728.49
444.46	1783.78
444.66	1695.72
444.87	1828.84
445.07	1701.86
445.28	1732.58
445.48	1812.45
445.69	1736.68
445.89	1865.70
446.09	1781.73
446.30	2027.49
446.50	2645.98
446.71	3743.69
446.91	4276.16
447.12	4753.34
447.32	4884.41
447.53	4378.56
447.73	3966.92
447.93	3559.37
448.14	3336.14
448.34	3211.22
448.55	2938.84
448.75	2785.24
448.96	2715.61
449.16	2469.85
449.36	2381.79
449.57	2107.36
449.77	1875.94
449.98	1863.65
450.18	1902.56
450.39	1783.78
450.59	1736.68
450.79	1796.07
451.00	1718.25
451.20	1832.93
451.41	1724.39
451.61	1806.31
451.81	1755.11
452.02	1730.53
452.22	1703.91
452.43	1761.25
452.63	1748.97
