SpectraSuite Data File
++++++++++++++++++++++++++++++++++++
Date: Mon Jun 06 17:28:37 CEST 2016
User: root
Dark Spectrum Present: No
Reference Spectrum Present: No
Number of Sampled Component Spectra: 1
Spectrometers: USB4C02835
Integration Time (usec): 100000 (USB4C02835)
Spectra Averaged: 1 (USB4C02835)
Boxcar Smoothing: 0 (USB4C02835)
Correct for Electrical Dark: No (USB4C02835)
Strobe/Lamp Enabled: No (USB4C02835)
Correct for Detector Non-linearity: No (USB4C02835)
Correct for Stray Light: No (USB4C02835)
Number of Pixels in Processed Spectrum: 3648
>>>>>Begin Processed Spectral Data<<<<<
177.47	1529.83
177.69	1529.83
177.91	1529.83
178.13	1497.07
178.36	1386.47
178.58	1671.14
178.80	1673.19
179.02	1591.27
179.24	1742.82
179.46	1665.00
179.68	1689.57
179.90	1679.33
180.13	1730.53
180.35	1720.29
180.57	1693.67
180.79	1738.73
181.01	1662.95
181.23	1771.49
181.45	1798.12
181.67	1757.16
181.90	1771.49
182.12	1710.05
182.34	1591.27
182.56	1689.57
182.78	1728.49
183.00	1751.01
183.22	1693.67
183.44	1640.42
183.66	1851.36
183.89	1841.12
184.11	1665.00
184.33	1714.15
184.55	1777.64
184.77	1763.30
184.99	1744.87
185.21	1619.94
185.43	1869.80
185.65	1701.86
185.87	1710.05
186.10	1857.51
186.32	1804.26
186.54	1787.88
186.76	1708.01
186.98	1730.53
187.20	1691.62
187.42	1701.86
187.64	1703.91
187.86	1748.97
188.08	1773.54
188.30	1710.05
188.52	1736.68
188.75	1732.58
188.97	1888.23
189.19	1701.86
189.41	1714.15
189.63	1773.54
189.85	1705.96
190.07	1599.46
190.29	1662.95
190.51	1785.83
190.73	1658.85
190.95	1810.40
191.17	1724.39
191.39	1554.41
191.61	1710.05
191.84	1718.25
192.06	1773.54
192.28	1546.22
192.50	1877.99
192.72	1804.26
192.94	1683.43
193.16	1822.69
193.38	1695.72
193.60	1662.95
193.82	1777.64
194.04	1781.73
194.26	1730.53
194.48	1673.19
194.70	1665.00
194.92	1697.77
195.14	1720.29
195.36	1742.82
195.58	1765.35
195.80	1673.19
196.02	1714.15
196.24	1746.92
196.46	1751.01
196.69	1695.72
196.91	1900.52
197.13	1656.81
197.35	1667.05
197.57	1849.32
197.79	1730.53
198.01	1716.20
198.23	1773.54
198.45	1773.54
198.67	1599.46
198.89	1734.63
199.11	1761.25
199.33	1767.40
199.55	1673.19
199.77	1720.29
199.99	1761.25
200.21	1673.19
200.43	1746.92
200.65	1628.14
200.87	1658.85
201.09	1771.49
201.31	1769.44
201.53	1748.97
201.75	1716.20
201.97	1744.87
202.19	1722.34
202.41	1722.34
202.63	1810.40
202.85	1808.36
203.07	1732.58
203.29	1626.09
203.51	1718.25
203.73	1669.09
203.95	1855.46
204.17	1693.67
204.39	1726.44
204.61	1726.44
204.83	1648.61
205.05	1732.58
205.27	1828.84
205.49	1818.60
205.71	1665.00
205.93	1697.77
206.15	1681.38
206.37	1736.68
206.59	1730.53
206.81	1675.24
207.03	1748.97
207.25	1648.61
207.47	1714.15
207.69	1740.77
207.91	1705.96
208.13	1816.55
208.34	1689.57
208.56	1562.60
208.78	1697.77
209.00	1660.90
209.22	1675.24
209.44	1746.92
209.66	1669.09
209.88	1677.29
210.10	1636.33
210.32	1771.49
210.54	1802.21
210.76	1751.01
210.98	1771.49
211.20	1621.99
211.42	1769.44
211.64	1847.27
211.86	1806.31
212.08	1763.30
212.30	1701.86
212.52	1689.57
212.74	1716.20
212.96	1738.73
213.17	1810.40
213.39	1820.64
213.61	1740.77
213.83	1701.86
214.05	1675.24
214.27	1783.78
214.49	1669.09
214.71	1710.05
214.93	1900.52
215.15	1775.59
215.37	1730.53
215.59	1658.85
215.81	1763.30
216.03	1724.39
216.24	1718.25
216.46	1703.91
216.68	1699.81
216.90	1724.39
217.12	1718.25
217.34	1718.25
217.56	1738.73
217.78	1834.98
218.00	1746.92
218.22	1767.40
218.44	1753.06
218.66	1697.77
218.87	1769.44
219.09	1708.01
219.31	1712.10
219.53	1638.38
219.75	1689.57
219.97	1708.01
220.19	1775.59
220.41	1753.06
220.63	1794.02
220.85	1734.63
221.06	1667.05
221.28	1859.56
221.50	1732.58
221.72	1800.16
221.94	1636.33
222.16	1775.59
222.38	1675.24
222.60	1759.21
222.82	1710.05
223.03	1798.12
223.25	1677.29
223.47	1771.49
223.69	1812.45
223.91	1677.29
224.13	1681.38
224.35	1695.72
224.57	1708.01
224.78	1779.68
225.00	1597.42
225.22	1660.90
225.44	1726.44
225.66	1779.68
225.88	1730.53
226.10	1734.63
226.32	1730.53
226.53	1755.11
226.75	1720.29
226.97	1695.72
227.19	1714.15
227.41	1642.47
227.63	1644.52
227.85	1619.94
228.06	1755.11
228.28	1705.96
228.50	1742.82
228.72	1685.48
228.94	1636.33
229.16	1687.53
229.37	1654.76
229.59	1720.29
229.81	1789.92
230.03	1728.49
230.25	1595.37
230.47	1695.72
230.69	1646.57
230.90	1781.73
231.12	1695.72
231.34	1708.01
231.56	1748.97
231.78	1621.99
232.00	1714.15
232.21	1703.91
232.43	1662.95
232.65	1636.33
232.87	1691.62
233.09	1718.25
233.30	1683.43
233.52	1744.87
233.74	1640.42
233.96	1736.68
234.18	1701.86
234.40	1783.78
234.61	1802.21
234.83	1599.46
235.05	1683.43
235.27	1908.71
235.49	1806.31
235.70	1665.00
235.92	1806.31
236.14	1789.92
236.36	1896.42
236.58	1644.52
236.79	1728.49
237.01	1697.77
237.23	1691.62
237.45	1814.50
237.67	1652.71
237.88	1751.01
238.10	1812.45
238.32	1665.00
238.54	1652.71
238.76	1751.01
238.97	1693.67
239.19	1636.33
239.41	1751.01
239.63	1708.01
239.85	1740.77
240.06	1677.29
240.28	1746.92
240.50	1730.53
240.72	1693.67
240.93	1738.73
241.15	1742.82
241.37	1763.30
241.59	1695.72
241.81	1724.39
242.02	1736.68
242.24	1712.10
242.46	1740.77
242.68	1757.16
242.89	1751.01
243.11	1791.97
243.33	1697.77
243.55	1789.92
243.76	1746.92
243.98	1712.10
244.20	1736.68
244.42	1755.11
244.64	1693.67
244.85	1728.49
245.07	1695.72
245.29	1802.21
245.51	1669.09
245.72	1722.34
245.94	1769.44
246.16	1722.34
246.38	1732.58
246.59	1734.63
246.81	1613.80
247.03	1730.53
247.24	1554.41
247.46	1638.38
247.68	1691.62
247.90	1685.48
248.11	1660.90
248.33	1800.16
248.55	1701.86
248.77	1759.21
248.98	1755.11
249.20	1882.08
249.42	1722.34
249.64	1818.60
249.85	1693.67
250.07	1685.48
250.29	1748.97
250.50	1791.97
250.72	1607.66
250.94	1722.34
251.16	1822.69
251.37	1859.56
251.59	1714.15
251.81	1777.64
252.02	1863.65
252.24	1685.48
252.46	1773.54
252.68	1757.16
252.89	1673.19
253.11	1615.85
253.33	1794.02
253.54	1732.58
253.76	1628.14
253.98	1705.96
254.20	1720.29
254.41	1728.49
254.63	1626.09
254.85	1636.33
255.06	1742.82
255.28	1769.44
255.50	1714.15
255.71	1656.81
255.93	1671.14
256.15	1685.48
256.36	1718.25
256.58	1646.57
256.80	1753.06
257.02	1730.53
257.23	1675.24
257.45	1656.81
257.67	1712.10
257.88	1710.05
258.10	1689.57
258.32	1726.44
258.53	1708.01
258.75	1785.83
258.97	1652.71
259.18	1619.94
259.40	1718.25
259.62	1746.92
259.83	1830.88
260.05	1771.49
260.27	2082.78
260.48	1693.67
260.70	1669.09
260.92	1662.95
261.13	1726.44
261.35	1695.72
261.57	1742.82
261.78	1603.56
262.00	1675.24
262.22	1761.25
262.43	1648.61
262.65	1673.19
262.86	1703.91
263.08	1843.17
263.30	1683.43
263.51	1628.14
263.73	1603.56
263.95	1853.41
264.16	1626.09
264.38	1615.85
264.60	1812.45
264.81	1679.33
265.03	1834.98
265.25	1703.91
265.46	1720.29
265.68	1751.01
265.89	1705.96
266.11	1570.79
266.33	1787.88
266.54	1773.54
266.76	1728.49
266.98	1802.21
267.19	1804.26
267.41	1701.86
267.62	1705.96
267.84	1574.89
268.06	1728.49
268.27	1695.72
268.49	1738.73
268.70	1837.03
268.92	1724.39
269.14	1689.57
269.35	1650.66
269.57	1781.73
269.79	1812.45
270.00	1665.00
270.22	1777.64
270.43	1718.25
270.65	1665.00
270.87	1761.25
271.08	1783.78
271.30	1796.07
271.51	1701.86
271.73	1775.59
271.95	1787.88
272.16	1746.92
272.38	1730.53
272.59	1730.53
272.81	1763.30
273.02	1773.54
273.24	1689.57
273.46	1775.59
273.67	1667.05
273.89	1597.42
274.10	1613.80
274.32	1708.01
274.54	1675.24
274.75	1732.58
274.97	1761.25
275.18	1802.21
275.40	1789.92
275.61	1654.76
275.83	1738.73
276.05	1660.90
276.26	1744.87
276.48	1798.12
276.69	1667.05
276.91	1660.90
277.12	1771.49
277.34	1789.92
277.55	1828.84
277.77	1722.34
277.99	1714.15
278.20	1681.38
278.42	1667.05
278.63	1658.85
278.85	1605.61
279.06	1587.18
279.28	1720.29
279.49	1816.55
279.71	1751.01
279.93	1734.63
280.14	1714.15
280.36	1718.25
280.57	1785.83
280.79	1837.03
281.00	1705.96
281.22	1632.23
281.43	1857.51
281.65	1617.90
281.86	1662.95
282.08	1736.68
282.29	1781.73
282.51	1589.22
282.73	1685.48
282.94	1677.29
283.16	1804.26
283.37	1785.83
283.59	1738.73
283.80	1730.53
284.02	1638.38
284.23	1714.15
284.45	1652.71
284.66	1634.28
284.88	1687.53
285.09	1732.58
285.31	1695.72
285.52	1720.29
285.74	1630.18
285.95	1748.97
286.17	1695.72
286.38	1736.68
286.60	1603.56
286.81	1695.72
287.03	1626.09
287.24	1705.96
287.46	1722.34
287.67	1757.16
287.89	1896.42
288.10	1679.33
288.32	1705.96
288.53	1773.54
288.75	1757.16
288.96	1730.53
289.18	1689.57
289.39	1705.96
289.61	1714.15
289.82	1837.03
290.04	1800.16
290.25	1671.14
290.47	1722.34
290.68	1736.68
290.90	1783.78
291.11	1656.81
291.33	1816.55
291.54	1630.18
291.76	1640.42
291.97	1742.82
292.18	1732.58
292.40	1724.39
292.61	1669.09
292.83	1894.37
293.04	1705.96
293.26	1767.40
293.47	1642.47
293.69	1701.86
293.90	1677.29
294.12	1761.25
294.33	1761.25
294.55	1703.91
294.76	1705.96
294.97	1810.40
295.19	1828.84
295.40	1744.87
295.62	1693.67
295.83	1734.63
296.05	1724.39
296.26	1755.11
296.48	1624.04
296.69	1705.96
296.90	1714.15
297.12	1720.29
297.33	1773.54
297.55	1734.63
297.76	1712.10
297.98	1730.53
298.19	1730.53
298.41	1667.05
298.62	1630.18
298.83	1828.84
299.05	1697.77
299.26	1689.57
299.48	1681.38
299.69	1716.20
299.90	1712.10
300.12	1703.91
300.33	1789.92
300.55	1767.40
300.76	1816.55
300.98	1669.09
301.19	1730.53
301.40	1667.05
301.62	1722.34
301.83	1796.07
302.05	1736.68
302.26	1726.44
302.47	1730.53
302.69	1689.57
302.90	1710.05
303.12	1595.37
303.33	1785.83
303.54	1791.97
303.76	1662.95
303.97	1730.53
304.19	1755.11
304.40	1708.01
304.61	1824.74
304.83	1841.12
305.04	1787.88
305.26	1738.73
305.47	1691.62
305.68	1685.48
305.90	1701.86
306.11	1759.21
306.33	1742.82
306.54	1597.42
306.75	1644.52
306.97	1611.75
307.18	1701.86
307.39	1677.29
307.61	1703.91
307.82	1734.63
308.04	1726.44
308.25	1646.57
308.46	1736.68
308.68	1771.49
308.89	1691.62
309.10	1808.36
309.32	1732.58
309.53	1726.44
309.74	1654.76
309.96	1705.96
310.17	1779.68
310.39	1746.92
310.60	1783.78
310.81	1785.83
311.03	1603.56
311.24	1816.55
311.45	1744.87
311.67	1871.84
311.88	1748.97
312.09	1615.85
312.31	1712.10
312.52	1746.92
312.73	1740.77
312.95	1636.33
313.16	1673.19
313.37	1734.63
313.59	1748.97
313.80	1738.73
314.01	1822.69
314.23	1681.38
314.44	1628.14
314.65	1656.81
314.87	1589.22
315.08	1714.15
315.29	1738.73
315.51	1576.94
315.72	1607.66
315.93	1900.52
316.15	1738.73
316.36	1734.63
316.57	1673.19
316.79	1773.54
317.00	1730.53
317.21	1687.53
317.43	1755.11
317.64	1679.33
317.85	1673.19
318.07	1695.72
318.28	1728.49
318.49	1814.50
318.70	1927.14
318.92	1902.56
319.13	1783.78
319.34	1812.45
319.56	1761.25
319.77	1755.11
319.98	1814.50
320.20	1783.78
320.41	1685.48
320.62	1705.96
320.83	1656.81
321.05	1841.12
321.26	1751.01
321.47	1701.86
321.69	1789.92
321.90	1697.77
322.11	1714.15
322.32	1722.34
322.54	1761.25
322.75	1693.67
322.96	1841.12
323.18	1634.28
323.39	1562.60
323.60	1640.42
323.81	1746.92
324.03	1667.05
324.24	1617.90
324.45	1695.72
324.66	1687.53
324.88	1787.88
325.09	1779.68
325.30	1665.00
325.52	1734.63
325.73	1755.11
325.94	1710.05
326.15	1638.38
326.37	1689.57
326.58	1787.88
326.79	1880.04
327.00	1689.57
327.22	1701.86
327.43	1691.62
327.64	1595.37
327.85	1718.25
328.07	1701.86
328.28	1785.83
328.49	1689.57
328.70	1744.87
328.92	1671.14
329.13	1683.43
329.34	1712.10
329.55	1794.02
329.76	1748.97
329.98	1691.62
330.19	1787.88
330.40	1837.03
330.61	1744.87
330.83	1863.65
331.04	1697.77
331.25	1742.82
331.46	1796.07
331.68	1669.09
331.89	1705.96
332.10	1763.30
332.31	1646.57
332.52	1701.86
332.74	1808.36
332.95	1681.38
333.16	1736.68
333.37	1757.16
333.58	1642.47
333.80	1734.63
334.01	1632.23
334.22	1722.34
334.43	1718.25
334.64	1732.58
334.86	1609.70
335.07	1658.85
335.28	1804.26
335.49	1665.00
335.70	1787.88
335.92	1826.79
336.13	1869.80
336.34	1828.84
336.55	1769.44
336.76	1828.84
336.98	1603.56
337.19	1708.01
337.40	1732.58
337.61	1923.04
337.82	1638.38
338.04	1744.87
338.25	1599.46
338.46	1701.86
338.67	1683.43
338.88	1648.61
339.09	1732.58
339.31	1712.10
339.52	1642.47
339.73	1669.09
339.94	1736.68
340.15	1796.07
340.36	1703.91
340.58	1716.20
340.79	1716.20
341.00	1787.88
341.21	1603.56
341.42	1732.58
341.63	1699.81
341.85	1730.53
342.06	1742.82
342.27	1658.85
342.48	1726.44
342.69	1593.32
342.90	1769.44
343.12	1791.97
343.33	1605.61
343.54	1828.84
343.75	1828.84
343.96	1669.09
344.17	1607.66
344.38	1699.81
344.60	1621.99
344.81	1650.66
345.02	1726.44
345.23	1738.73
345.44	1789.92
345.65	1697.77
345.86	1769.44
346.07	1654.76
346.29	1638.38
346.50	1789.92
346.71	1775.59
346.92	1847.27
347.13	1822.69
347.34	1714.15
347.55	1748.97
347.76	1732.58
347.98	1601.51
348.19	1681.38
348.40	1861.60
348.61	1691.62
348.82	1773.54
349.03	1748.97
349.24	1714.15
349.45	1775.59
349.66	1605.61
349.88	1757.16
350.09	1716.20
350.30	1869.80
350.51	1708.01
350.72	1710.05
350.93	1730.53
351.14	1705.96
351.35	1808.36
351.56	1720.29
351.77	1794.02
351.99	1718.25
352.20	1806.31
352.41	1808.36
352.62	1619.94
352.83	1722.34
353.04	1681.38
353.25	1662.95
353.46	1814.50
353.67	1769.44
353.88	1624.04
354.09	1767.40
354.30	1697.77
354.52	1755.11
354.73	1710.05
354.94	1665.00
355.15	1665.00
355.36	1779.68
355.57	1726.44
355.78	1834.98
355.99	1714.15
356.20	1695.72
356.41	1755.11
356.62	1757.16
356.83	1644.52
357.04	1708.01
357.25	1572.84
357.46	1744.87
357.68	1626.09
357.89	1705.96
358.10	1787.88
358.31	1650.66
358.52	1689.57
358.73	1667.05
358.94	1650.66
359.15	1699.81
359.36	1787.88
359.57	1746.92
359.78	1669.09
359.99	1769.44
360.20	1689.57
360.41	1615.85
360.62	1755.11
360.83	1730.53
361.04	1685.48
361.25	1738.73
361.46	1751.01
361.67	1681.38
361.88	1736.68
362.09	1732.58
362.30	1773.54
362.51	1671.14
362.72	1738.73
362.93	1781.73
363.14	1775.59
363.35	1693.67
363.56	1667.05
363.78	1720.29
363.99	1761.25
364.20	1679.33
364.41	1783.78
364.62	1755.11
364.83	1761.25
365.04	1734.63
365.25	1734.63
365.46	1857.51
365.67	1654.76
365.88	1648.61
366.09	1746.92
366.30	1724.39
366.51	1804.26
366.72	1662.95
366.93	1714.15
367.14	1681.38
367.35	1775.59
367.56	1677.29
367.77	1877.99
367.98	1730.53
368.18	1726.44
368.39	1794.02
368.60	1665.00
368.81	1796.07
369.02	1757.16
369.23	1726.44
369.44	1648.61
369.65	1628.14
369.86	1804.26
370.07	1740.77
370.28	1693.67
370.49	1751.01
370.70	1775.59
370.91	1617.90
371.12	1650.66
371.33	1759.21
371.54	1740.77
371.75	1755.11
371.96	1656.81
372.17	1697.77
372.38	1712.10
372.59	1818.60
372.80	1730.53
373.01	1703.91
373.22	1703.91
373.43	1705.96
373.64	1650.66
373.85	1710.05
374.06	1812.45
374.26	1687.53
374.47	1748.97
374.68	1845.22
374.89	1748.97
375.10	1777.64
375.31	1732.58
375.52	1691.62
375.73	1705.96
375.94	1708.01
376.15	1757.16
376.36	1654.76
376.57	1675.24
376.78	1703.91
376.99	1767.40
377.20	1742.82
377.40	1677.29
377.61	1855.46
377.82	1603.56
378.03	1767.40
378.24	1738.73
378.45	1697.77
378.66	1757.16
378.87	1703.91
379.08	1675.24
379.29	1718.25
379.50	1781.73
379.71	1720.29
379.91	1785.83
380.12	1650.66
380.33	1648.61
380.54	1722.34
380.75	1724.39
380.96	1789.92
381.17	1724.39
381.38	1816.55
381.59	1771.49
381.80	1650.66
382.00	1841.12
382.21	1779.68
382.42	1740.77
382.63	1855.46
382.84	1791.97
383.05	1705.96
383.26	1804.26
383.47	1834.98
383.68	1837.03
383.88	1755.11
384.09	1771.49
384.30	1845.22
384.51	1740.77
384.72	1630.18
384.93	1656.81
385.14	1722.34
385.35	1800.16
385.55	1681.38
385.76	1785.83
385.97	1652.71
386.18	1693.67
386.39	1650.66
386.60	1718.25
386.81	1693.67
387.02	1693.67
387.22	1650.66
387.43	1718.25
387.64	1787.88
387.85	1886.18
388.06	2209.76
388.27	4120.51
388.48	6678.43
388.68	8224.64
388.89	9647.98
389.10	9543.53
389.31	8552.32
389.52	7559.05
389.73	6774.68
389.93	6148.00
390.14	5799.85
390.35	5203.89
390.56	4749.24
390.77	3803.08
390.98	3022.80
391.18	2502.62
391.39	2103.26
391.60	1906.66
391.81	1869.80
392.02	1722.34
392.23	1789.92
392.43	1728.49
392.64	1806.31
392.85	1685.48
393.06	1816.55
393.27	1697.77
393.47	1646.57
393.68	1767.40
393.89	1722.34
394.10	1808.36
394.31	1705.96
394.52	1675.24
394.72	1746.92
394.93	1767.40
395.14	1662.95
395.35	1732.58
395.56	1685.48
395.76	1710.05
395.97	1814.50
396.18	1775.59
396.39	1818.60
396.60	2007.01
396.80	1910.75
397.01	1781.73
397.22	1865.70
397.43	1902.56
397.64	1748.97
397.84	1804.26
398.05	1820.64
398.26	1730.53
398.47	1820.64
398.67	1734.63
398.88	1695.72
399.09	1726.44
399.30	1701.86
399.51	1757.16
399.71	1681.38
399.92	1738.73
400.13	1701.86
400.34	1718.25
400.54	1734.63
400.75	1779.68
400.96	1689.57
401.17	1779.68
401.37	1753.06
401.58	1755.11
401.79	1667.05
402.00	1931.23
402.21	1966.05
402.41	2002.91
402.62	1988.58
402.83	2025.44
403.04	2099.17
403.24	2148.32
403.45	1839.08
403.66	1892.32
403.87	1849.32
404.07	1898.47
404.28	1961.95
404.49	1828.84
404.70	1759.21
404.90	1826.79
405.11	1775.59
405.32	1769.44
405.52	1705.96
405.73	1722.34
405.94	1605.61
406.15	1722.34
406.35	1726.44
406.56	1779.68
406.77	1769.44
406.98	1675.24
407.18	1585.13
407.39	1781.73
407.60	1740.77
407.80	1742.82
408.01	1693.67
408.22	1693.67
408.43	1703.91
408.63	1722.34
408.84	1708.01
409.05	1828.84
409.25	1697.77
409.46	1658.85
409.67	1677.29
409.88	1699.81
410.08	1763.30
410.29	1665.00
410.50	1769.44
410.70	1767.40
410.91	1689.57
411.12	1789.92
411.32	1677.29
411.53	1720.29
411.74	1808.36
411.95	1875.94
412.15	1738.73
412.36	1789.92
412.57	1722.34
412.77	1845.22
412.98	1705.96
413.19	1708.01
413.39	1755.11
413.60	1751.01
413.81	1775.59
414.01	1693.67
414.22	1775.59
414.43	1751.01
414.63	1650.66
414.84	1771.49
415.05	1671.14
415.25	1599.46
415.46	1761.25
415.67	1726.44
415.87	1763.30
416.08	1673.19
416.29	1701.86
416.49	1734.63
416.70	1699.81
416.91	1751.01
417.11	1732.58
417.32	1732.58
417.53	1804.26
417.73	1787.88
417.94	1689.57
418.15	1660.90
418.35	1771.49
418.56	1740.77
418.77	1794.02
418.97	1746.92
419.18	1767.40
419.38	1628.14
419.59	1755.11
419.80	1757.16
420.00	1683.43
420.21	1791.97
420.42	1755.11
420.62	1767.40
420.83	1738.73
421.04	1675.24
421.24	1755.11
421.45	1714.15
421.65	1742.82
421.86	1746.92
422.07	1755.11
422.27	1693.67
422.48	1660.90
422.69	1675.24
422.89	1710.05
423.10	1720.29
423.30	1624.04
423.51	1771.49
423.72	1697.77
423.92	1814.50
424.13	1640.42
424.33	1753.06
424.54	1736.68
424.75	1740.77
424.95	1759.21
425.16	1771.49
425.36	1687.53
425.57	1796.07
425.78	1824.74
425.98	1753.06
426.19	1685.48
426.39	1677.29
426.60	1656.81
426.81	1890.28
427.01	1718.25
427.22	1724.39
427.42	1632.23
427.63	1671.14
427.83	1777.64
428.04	1867.75
428.25	1800.16
428.45	1753.06
428.66	1796.07
428.86	1710.05
429.07	1660.90
429.28	1697.77
429.48	1732.58
429.69	1689.57
429.89	1763.30
430.10	1667.05
430.30	1705.96
430.51	1751.01
430.71	1681.38
430.92	1671.14
431.13	1679.33
431.33	1734.63
431.54	1722.34
431.74	1798.12
431.95	1845.22
432.15	1671.14
432.36	1767.40
432.56	1744.87
432.77	1755.11
432.98	1820.64
433.18	1794.02
433.39	1675.24
433.59	1738.73
433.80	1841.12
434.00	1918.95
434.21	1789.92
434.41	1681.38
434.62	1755.11
434.82	1646.57
435.03	1628.14
435.23	1757.16
435.44	1693.67
435.64	1673.19
435.85	1722.34
436.06	1736.68
436.26	1751.01
436.47	1669.09
436.67	1640.42
436.88	1636.33
437.08	1779.68
437.29	1755.11
437.49	1710.05
437.70	1767.40
437.90	1763.30
438.11	1927.14
438.31	1757.16
438.52	1824.74
438.72	1851.36
438.93	1871.84
439.13	1800.16
439.34	1787.88
439.54	1816.55
439.75	1789.92
439.95	1841.12
440.16	1728.49
440.36	1759.21
440.57	1789.92
440.77	1763.30
440.98	1802.21
441.18	1851.36
441.39	1677.29
441.59	1708.01
441.80	1935.33
442.00	1779.68
442.21	1851.36
442.41	1736.68
442.62	1771.49
442.82	1665.00
443.02	1753.06
443.23	1699.81
443.43	1697.77
443.64	1837.03
443.84	1681.38
444.05	1839.08
444.25	1716.20
444.46	1761.25
444.66	1755.11
444.87	1847.27
445.07	1714.15
445.28	1732.58
445.48	1785.83
445.69	1853.41
445.89	1902.56
446.09	1753.06
446.30	2142.18
446.50	2711.51
446.71	3815.37
446.91	4272.06
447.12	4790.20
447.32	4861.88
447.53	4319.17
447.73	3868.61
447.93	3563.47
448.14	3368.91
448.34	3344.33
448.55	2951.12
448.75	2899.92
448.96	2666.46
449.16	2463.71
449.36	2279.39
449.57	2086.88
449.77	1949.67
449.98	1738.73
450.18	1837.03
450.39	1916.90
450.59	1802.21
450.79	1689.57
451.00	1724.39
451.20	1843.17
451.41	1693.67
451.61	1714.15
451.81	1742.82
452.02	1763.30
452.22	1751.01
452.43	1703.91
452.63	1703.91
