SpectraSuite Data File
++++++++++++++++++++++++++++++++++++
Date: Mon Jun 06 17:29:57 CEST 2016
User: root
Dark Spectrum Present: No
Reference Spectrum Present: No
Number of Sampled Component Spectra: 1
Spectrometers: USB4C02835
Integration Time (usec): 100000 (USB4C02835)
Spectra Averaged: 1 (USB4C02835)
Boxcar Smoothing: 0 (USB4C02835)
Correct for Electrical Dark: No (USB4C02835)
Strobe/Lamp Enabled: No (USB4C02835)
Correct for Detector Non-linearity: No (USB4C02835)
Correct for Stray Light: No (USB4C02835)
Number of Pixels in Processed Spectrum: 3648
>>>>>Begin Processed Spectral Data<<<<<
177.47	1447.91
177.69	1447.91
177.91	1447.91
178.13	1454.06
178.36	1519.59
178.58	1722.34
178.80	1746.92
179.02	1642.47
179.24	1601.51
179.46	1724.39
179.68	1771.49
179.90	1714.15
180.13	1740.77
180.35	1615.85
180.57	1665.00
180.79	1755.11
181.01	1681.38
181.23	1837.03
181.45	1718.25
181.67	1779.68
181.90	1808.36
182.12	1697.77
182.34	1583.08
182.56	1796.07
182.78	1746.92
183.00	1695.72
183.22	1656.81
183.44	1689.57
183.66	1931.23
183.89	1796.07
184.11	1732.58
184.33	1814.50
184.55	1726.44
184.77	1722.34
184.99	1716.20
185.21	1742.82
185.43	1851.36
185.65	1738.73
185.87	1708.01
186.10	1802.21
186.32	1886.18
186.54	1660.90
186.76	1671.14
186.98	1751.01
187.20	1697.77
187.42	1705.96
187.64	1771.49
187.86	1718.25
188.08	1791.97
188.30	1636.33
188.52	1671.14
188.75	1814.50
188.97	1765.35
189.19	1703.91
189.41	1802.21
189.63	1710.05
189.85	1708.01
190.07	1646.57
190.29	1646.57
190.51	1771.49
190.73	1535.98
190.95	1759.21
191.17	1736.68
191.39	1609.70
191.61	1689.57
191.84	1759.21
192.06	1697.77
192.28	1656.81
192.50	1947.62
192.72	1777.64
192.94	1660.90
193.16	1757.16
193.38	1722.34
193.60	1703.91
193.82	1654.76
194.04	1783.78
194.26	1744.87
194.48	1746.92
194.70	1699.81
194.92	1673.19
195.14	1701.86
195.36	1759.21
195.58	1796.07
195.80	1771.49
196.02	1669.09
196.24	1744.87
196.46	1687.53
196.69	1697.77
196.91	1853.41
197.13	1656.81
197.35	1689.57
197.57	1785.83
197.79	1781.73
198.01	1785.83
198.23	1740.77
198.45	1732.58
198.67	1634.28
198.89	1685.48
199.11	1689.57
199.33	1722.34
199.55	1624.04
199.77	1669.09
199.99	1722.34
200.21	1726.44
200.43	1703.91
200.65	1628.14
200.87	1583.08
201.09	1703.91
201.31	1761.25
201.53	1771.49
201.75	1820.64
201.97	1765.35
202.19	1724.39
202.41	1796.07
202.63	1834.98
202.85	1810.40
203.07	1824.74
203.29	1636.33
203.51	1605.61
203.73	1619.94
203.95	1882.08
204.17	1738.73
204.39	1765.35
204.61	1726.44
204.83	1695.72
205.05	1779.68
205.27	1748.97
205.49	1859.56
205.71	1722.34
205.93	1619.94
206.15	1701.86
206.37	1724.39
206.59	1687.53
206.81	1642.47
207.03	1621.99
207.25	1644.52
207.47	1755.11
207.69	1677.29
207.91	1808.36
208.13	1832.93
208.34	1660.90
208.56	1755.11
208.78	1724.39
209.00	1703.91
209.22	1691.62
209.44	1673.19
209.66	1718.25
209.88	1753.06
210.10	1658.85
210.32	1689.57
210.54	1794.02
210.76	1626.09
210.98	1773.54
211.20	1632.23
211.42	1765.35
211.64	1665.00
211.86	1695.72
212.08	1738.73
212.30	1685.48
212.52	1665.00
212.74	1722.34
212.96	1730.53
213.17	1763.30
213.39	1736.68
213.61	1740.77
213.83	1705.96
214.05	1648.61
214.27	1699.81
214.49	1628.14
214.71	1718.25
214.93	1808.36
215.15	1660.90
215.37	1669.09
215.59	1658.85
215.81	1779.68
216.03	1828.84
216.24	1771.49
216.46	1689.57
216.68	1730.53
216.90	1726.44
217.12	1791.97
217.34	1701.86
217.56	1648.61
217.78	1865.70
218.00	1636.33
218.22	1669.09
218.44	1695.72
218.66	1757.16
218.87	1794.02
219.09	1652.71
219.31	1757.16
219.53	1677.29
219.75	1667.05
219.97	1693.67
220.19	1683.43
220.41	1673.19
220.63	1796.07
220.85	1695.72
221.06	1722.34
221.28	1810.40
221.50	1763.30
221.72	1665.00
221.94	1751.01
222.16	1710.05
222.38	1765.35
222.60	1748.97
222.82	1673.19
223.03	1757.16
223.25	1644.52
223.47	1742.82
223.69	1867.75
223.91	1724.39
224.13	1718.25
224.35	1728.49
224.57	1800.16
224.78	1718.25
225.00	1673.19
225.22	1685.48
225.44	1673.19
225.66	1783.78
225.88	1730.53
226.10	1738.73
226.32	1636.33
226.53	1740.77
226.75	1697.77
226.97	1697.77
227.19	1773.54
227.41	1691.62
227.63	1689.57
227.85	1632.23
228.06	1695.72
228.28	1710.05
228.50	1773.54
228.72	1693.67
228.94	1730.53
229.16	1601.51
229.37	1576.94
229.59	1744.87
229.81	1773.54
230.03	1693.67
230.25	1722.34
230.47	1705.96
230.69	1648.61
230.90	1705.96
231.12	1738.73
231.34	1708.01
231.56	1748.97
231.78	1603.56
232.00	1740.77
232.21	1656.81
232.43	1699.81
232.65	1554.41
232.87	1722.34
233.09	1646.57
233.30	1726.44
233.52	1822.69
233.74	1734.63
233.96	1697.77
234.18	1771.49
234.40	1765.35
234.61	1877.99
234.83	1652.71
235.05	1740.77
235.27	1837.03
235.49	1779.68
235.70	1683.43
235.92	1820.64
236.14	1722.34
236.36	1904.61
236.58	1650.66
236.79	1730.53
237.01	1705.96
237.23	1738.73
237.45	1839.08
237.67	1751.01
237.88	1665.00
238.10	1851.36
238.32	1644.52
238.54	1724.39
238.76	1712.10
238.97	1626.09
239.19	1714.15
239.41	1873.89
239.63	1761.25
239.85	1667.05
240.06	1773.54
240.28	1689.57
240.50	1822.69
240.72	1705.96
240.93	1654.76
241.15	1755.11
241.37	1804.26
241.59	1787.88
241.81	1675.24
242.02	1736.68
242.24	1716.20
242.46	1705.96
242.68	1636.33
242.89	1732.58
243.11	1751.01
243.33	1714.15
243.55	1746.92
243.76	1718.25
243.98	1646.57
244.20	1751.01
244.42	1703.91
244.64	1716.20
244.85	1642.47
245.07	1644.52
245.29	1759.21
245.51	1679.33
245.72	1761.25
245.94	1781.73
246.16	1748.97
246.38	1759.21
246.59	1732.58
246.81	1648.61
247.03	1712.10
247.24	1722.34
247.46	1636.33
247.68	1685.48
247.90	1742.82
248.11	1685.48
248.33	1767.40
248.55	1716.20
248.77	1722.34
248.98	1812.45
249.20	1787.88
249.42	1746.92
249.64	1658.85
249.85	1744.87
250.07	1722.34
250.29	1824.74
250.50	1759.21
250.72	1585.13
250.94	1705.96
251.16	1822.69
251.37	1746.92
251.59	1769.44
251.81	1716.20
252.02	1757.16
252.24	1710.05
252.46	1832.93
252.68	1712.10
252.89	1722.34
253.11	1595.37
253.33	1812.45
253.54	1796.07
253.76	1642.47
253.98	1656.81
254.20	1732.58
254.41	1665.00
254.63	1673.19
254.85	1656.81
255.06	1769.44
255.28	1716.20
255.50	1638.38
255.71	1644.52
255.93	1701.86
256.15	1705.96
256.36	1740.77
256.58	1679.33
256.80	1806.31
257.02	1736.68
257.23	1697.77
257.45	1730.53
257.67	1773.54
257.88	1662.95
258.10	1744.87
258.32	1718.25
258.53	1714.15
258.75	1781.73
258.97	1675.24
259.18	1685.48
259.40	1746.92
259.62	1882.08
259.83	1789.92
260.05	1777.64
260.27	2025.44
260.48	1834.98
260.70	1667.05
260.92	1697.77
261.13	1787.88
261.35	1726.44
261.57	1726.44
261.78	1675.24
262.00	1662.95
262.22	1753.06
262.43	1650.66
262.65	1689.57
262.86	1734.63
263.08	1830.88
263.30	1693.67
263.51	1658.85
263.73	1675.24
263.95	1810.40
264.16	1593.32
264.38	1689.57
264.60	1787.88
264.81	1726.44
265.03	1847.27
265.25	1779.68
265.46	1685.48
265.68	1744.87
265.89	1814.50
266.11	1669.09
266.33	1703.91
266.54	1732.58
266.76	1732.58
266.98	1722.34
267.19	1804.26
267.41	1767.40
267.62	1732.58
267.84	1662.95
268.06	1808.36
268.27	1689.57
268.49	1751.01
268.70	1804.26
268.92	1755.11
269.14	1697.77
269.35	1636.33
269.57	1558.50
269.79	1798.12
270.00	1693.67
270.22	1822.69
270.43	1693.67
270.65	1556.46
270.87	1732.58
271.08	1734.63
271.30	1744.87
271.51	1677.29
271.73	1691.62
271.95	1777.64
272.16	1724.39
272.38	1716.20
272.59	1699.81
272.81	1736.68
273.02	1679.33
273.24	1681.38
273.46	1783.78
273.67	1624.04
273.89	1632.23
274.10	1683.43
274.32	1755.11
274.54	1669.09
274.75	1675.24
274.97	1712.10
275.18	1724.39
275.40	1738.73
275.61	1705.96
275.83	1695.72
276.05	1669.09
276.26	1708.01
276.48	1802.21
276.69	1648.61
276.91	1658.85
277.12	1796.07
277.34	1773.54
277.55	1779.68
277.77	1683.43
277.99	1673.19
278.20	1638.38
278.42	1595.37
278.63	1679.33
278.85	1566.70
279.06	1662.95
279.28	1710.05
279.49	1710.05
279.71	1726.44
279.93	1779.68
280.14	1681.38
280.36	1630.18
280.57	1720.29
280.79	1849.32
281.00	1634.28
281.22	1652.71
281.43	1839.08
281.65	1562.60
281.86	1691.62
282.08	1757.16
282.29	1794.02
282.51	1658.85
282.73	1609.70
282.94	1615.85
283.16	1773.54
283.37	1834.98
283.59	1751.01
283.80	1714.15
284.02	1753.06
284.23	1695.72
284.45	1689.57
284.66	1628.14
284.88	1662.95
285.09	1632.23
285.31	1730.53
285.52	1677.29
285.74	1687.53
285.95	1812.45
286.17	1714.15
286.38	1849.32
286.60	1718.25
286.81	1714.15
287.03	1697.77
287.24	1695.72
287.46	1775.59
287.67	1730.53
287.89	1890.28
288.10	1730.53
288.32	1681.38
288.53	1746.92
288.75	1638.38
288.96	1728.49
289.18	1732.58
289.39	1658.85
289.61	1816.55
289.82	1804.26
290.04	1818.60
290.25	1683.43
290.47	1783.78
290.68	1656.81
290.90	1771.49
291.11	1660.90
291.33	1759.21
291.54	1689.57
291.76	1673.19
291.97	1693.67
292.18	1710.05
292.40	1656.81
292.61	1708.01
292.83	1937.38
293.04	1697.77
293.26	1791.97
293.47	1646.57
293.69	1634.28
293.90	1732.58
294.12	1777.64
294.33	1748.97
294.55	1701.86
294.76	1740.77
294.97	1789.92
295.19	1837.03
295.40	1738.73
295.62	1619.94
295.83	1775.59
296.05	1738.73
296.26	1785.83
296.48	1626.09
296.69	1730.53
296.90	1773.54
297.12	1730.53
297.33	1763.30
297.55	1726.44
297.76	1734.63
297.98	1783.78
298.19	1660.90
298.41	1740.77
298.62	1665.00
298.83	1777.64
299.05	1671.14
299.26	1714.15
299.48	1685.48
299.69	1751.01
299.90	1708.01
300.12	1665.00
300.33	1705.96
300.55	1736.68
300.76	1708.01
300.98	1630.18
301.19	1724.39
301.40	1710.05
301.62	1660.90
301.83	1751.01
302.05	1765.35
302.26	1720.29
302.47	1775.59
302.69	1638.38
302.90	1712.10
303.12	1605.61
303.33	1728.49
303.54	1818.60
303.76	1681.38
303.97	1734.63
304.19	1794.02
304.40	1650.66
304.61	1787.88
304.83	1769.44
305.04	1744.87
305.26	1763.30
305.47	1740.77
305.68	1683.43
305.90	1591.27
306.11	1796.07
306.33	1740.77
306.54	1701.86
306.75	1687.53
306.97	1550.31
307.18	1687.53
307.39	1687.53
307.61	1761.25
307.82	1662.95
308.04	1787.88
308.25	1675.24
308.46	1669.09
308.68	1634.28
308.89	1656.81
309.10	1710.05
309.32	1716.20
309.53	1720.29
309.74	1722.34
309.96	1718.25
310.17	1722.34
310.39	1693.67
310.60	1730.53
310.81	1619.94
311.03	1669.09
311.24	1734.63
311.45	1693.67
311.67	1853.41
311.88	1708.01
312.09	1689.57
312.31	1710.05
312.52	1671.14
312.73	1699.81
312.95	1587.18
313.16	1648.61
313.37	1775.59
313.59	1734.63
313.80	1703.91
314.01	1781.73
314.23	1742.82
314.44	1646.57
314.65	1595.37
314.87	1660.90
315.08	1697.77
315.29	1691.62
315.51	1669.09
315.72	1626.09
315.93	1722.34
316.15	1791.97
316.36	1683.43
316.57	1695.72
316.79	1789.92
317.00	1646.57
317.21	1689.57
317.43	1632.23
317.64	1699.81
317.85	1660.90
318.07	1640.42
318.28	1714.15
318.49	1867.75
318.70	1951.71
318.92	1865.70
319.13	1847.27
319.34	1828.84
319.56	1810.40
319.77	1783.78
319.98	1820.64
320.20	1753.06
320.41	1759.21
320.62	1705.96
320.83	1687.53
321.05	1853.41
321.26	1736.68
321.47	1669.09
321.69	1732.58
321.90	1591.27
322.11	1689.57
322.32	1665.00
322.54	1753.06
322.75	1658.85
322.96	1890.28
323.18	1669.09
323.39	1599.46
323.60	1728.49
323.81	1804.26
324.03	1660.90
324.24	1673.19
324.45	1757.16
324.66	1687.53
324.88	1822.69
325.09	1791.97
325.30	1775.59
325.52	1816.55
325.73	1759.21
325.94	1693.67
326.15	1648.61
326.37	1683.43
326.58	1755.11
326.79	1753.06
327.00	1738.73
327.22	1738.73
327.43	1718.25
327.64	1634.28
327.85	1734.63
328.07	1689.57
328.28	1804.26
328.49	1742.82
328.70	1646.57
328.92	1689.57
329.13	1716.20
329.34	1808.36
329.55	1820.64
329.76	1812.45
329.98	1626.09
330.19	1785.83
330.40	1763.30
330.61	1624.04
330.83	1710.05
331.04	1714.15
331.25	1697.77
331.46	1714.15
331.68	1673.19
331.89	1695.72
332.10	1619.94
332.31	1603.56
332.52	1687.53
332.74	1796.07
332.95	1619.94
333.16	1720.29
333.37	1808.36
333.58	1691.62
333.80	1781.73
334.01	1591.27
334.22	1705.96
334.43	1744.87
334.64	1703.91
334.86	1677.29
335.07	1624.04
335.28	1779.68
335.49	1662.95
335.70	1791.97
335.92	1828.84
336.13	1832.93
336.34	1744.87
336.55	1726.44
336.76	1734.63
336.98	1624.04
337.19	1751.01
337.40	1902.56
337.61	1980.39
337.82	1689.57
338.04	1781.73
338.25	1613.80
338.46	1724.39
338.67	1689.57
338.88	1632.23
339.09	1683.43
339.31	1679.33
339.52	1632.23
339.73	1632.23
339.94	1781.73
340.15	1693.67
340.36	1648.61
340.58	1728.49
340.79	1609.70
341.00	1720.29
341.21	1646.57
341.42	1892.32
341.63	1712.10
341.85	1779.68
342.06	1742.82
342.27	1658.85
342.48	1773.54
342.69	1656.81
342.90	1673.19
343.12	1759.21
343.33	1650.66
343.54	1800.16
343.75	1820.64
343.96	1773.54
344.17	1689.57
344.38	1665.00
344.60	1632.23
344.81	1671.14
345.02	1722.34
345.23	1783.78
345.44	1894.37
345.65	1726.44
345.86	1701.86
346.07	1753.06
346.29	1755.11
346.50	1722.34
346.71	1724.39
346.92	1742.82
347.13	1896.42
347.34	1722.34
347.55	1648.61
347.76	1759.21
347.98	1621.99
348.19	1730.53
348.40	1783.78
348.61	1650.66
348.82	1767.40
349.03	1751.01
349.24	1783.78
349.45	1882.08
349.66	1632.23
349.88	1744.87
350.09	1687.53
350.30	1871.84
350.51	1822.69
350.72	1744.87
350.93	1791.97
351.14	1712.10
351.35	1718.25
351.56	1679.33
351.77	1734.63
351.99	1746.92
352.20	1877.99
352.41	1791.97
352.62	1601.51
352.83	1685.48
353.04	1662.95
353.25	1615.85
353.46	1804.26
353.67	1740.77
353.88	1658.85
354.09	1650.66
354.30	1724.39
354.52	1804.26
354.73	1748.97
354.94	1701.86
355.15	1681.38
355.36	1800.16
355.57	1675.24
355.78	1759.21
355.99	1652.71
356.20	1693.67
356.41	1832.93
356.62	1767.40
356.83	1734.63
357.04	1710.05
357.25	1593.32
357.46	1769.44
357.68	1624.04
357.89	1740.77
358.10	1722.34
358.31	1644.52
358.52	1705.96
358.73	1636.33
358.94	1660.90
359.15	1798.12
359.36	1703.91
359.57	1736.68
359.78	1685.48
359.99	1761.25
360.20	1613.80
360.41	1728.49
360.62	1693.67
360.83	1757.16
361.04	1685.48
361.25	1822.69
361.46	1859.56
361.67	1755.11
361.88	1701.86
362.09	1746.92
362.30	1732.58
362.51	1697.77
362.72	1746.92
362.93	1802.21
363.14	1689.57
363.35	1740.77
363.56	1734.63
363.78	1769.44
363.99	1660.90
364.20	1677.29
364.41	1734.63
364.62	1808.36
364.83	1765.35
365.04	1660.90
365.25	1693.67
365.46	1904.61
365.67	1679.33
365.88	1636.33
366.09	1722.34
366.30	1708.01
366.51	1679.33
366.72	1685.48
366.93	1755.11
367.14	1697.77
367.35	1798.12
367.56	1730.53
367.77	1720.29
367.98	1701.86
368.18	1740.77
368.39	1730.53
368.60	1646.57
368.81	1794.02
369.02	1746.92
369.23	1697.77
369.44	1677.29
369.65	1699.81
369.86	1796.07
370.07	1775.59
370.28	1671.14
370.49	1738.73
370.70	1755.11
370.91	1660.90
371.12	1726.44
371.33	1753.06
371.54	1777.64
371.75	1746.92
371.96	1517.54
372.17	1652.71
372.38	1751.01
372.59	1720.29
372.80	1708.01
373.01	1763.30
373.22	1710.05
373.43	1712.10
373.64	1644.52
373.85	1740.77
374.06	1779.68
374.26	1765.35
374.47	1681.38
374.68	1886.18
374.89	1697.77
375.10	1679.33
375.31	1744.87
375.52	1734.63
375.73	1718.25
375.94	1693.67
376.15	1804.26
376.36	1632.23
376.57	1693.67
376.78	1734.63
376.99	1742.82
377.20	1755.11
377.40	1675.24
377.61	1742.82
377.82	1597.42
378.03	1746.92
378.24	1837.03
378.45	1687.53
378.66	1804.26
378.87	1617.90
379.08	1716.20
379.29	1662.95
379.50	1740.77
379.71	1642.47
379.91	1705.96
380.12	1640.42
380.33	1785.83
380.54	1691.62
380.75	1720.29
380.96	1738.73
381.17	1751.01
381.38	1710.05
381.59	1771.49
381.80	1722.34
382.00	1902.56
382.21	1757.16
382.42	1779.68
382.63	1964.00
382.84	1781.73
383.05	1804.26
383.26	1771.49
383.47	1708.01
383.68	1816.55
383.88	1796.07
384.09	1703.91
384.30	1820.64
384.51	1677.29
384.72	1763.30
384.93	1585.13
385.14	1769.44
385.35	1781.73
385.55	1652.71
385.76	1738.73
385.97	1652.71
386.18	1720.29
386.39	1753.06
386.60	1671.14
386.81	1671.14
387.02	1671.14
387.22	1607.66
387.43	1783.78
387.64	1853.41
387.85	2000.87
388.06	2193.37
388.27	4130.75
388.48	6817.69
388.68	8155.01
388.89	9434.99
389.10	9893.74
389.31	8542.08
389.52	7559.05
389.73	6590.36
389.93	6307.74
390.14	5859.24
390.35	5304.24
390.56	4626.36
390.77	3792.84
390.98	3080.14
391.18	2490.33
391.39	2168.80
391.60	1890.28
391.81	1804.26
392.02	1771.49
392.23	1847.27
392.43	1808.36
392.64	1845.22
392.85	1791.97
393.06	1837.03
393.27	1693.67
393.47	1685.48
393.68	1744.87
393.89	1763.30
394.10	1814.50
394.31	1646.57
394.52	1587.18
394.72	1759.21
394.93	1820.64
395.14	1607.66
395.35	1763.30
395.56	1708.01
395.76	1808.36
395.97	1826.79
396.18	1791.97
396.39	1806.31
396.60	2041.82
396.80	1896.42
397.01	1892.32
397.22	1818.60
397.43	1800.16
397.64	1755.11
397.84	1834.98
398.05	1857.51
398.26	1746.92
398.47	1863.65
398.67	1820.64
398.88	1681.38
399.09	1722.34
399.30	1642.47
399.51	1738.73
399.71	1595.37
399.92	1683.43
400.13	1771.49
400.34	1732.58
400.54	1751.01
400.75	1787.88
400.96	1697.77
401.17	1824.74
401.37	1781.73
401.58	1671.14
401.79	1783.78
402.00	1871.84
402.21	2050.02
402.41	1976.29
402.62	2054.11
402.83	2047.97
403.04	1890.28
403.24	2125.79
403.45	1765.35
403.66	1992.67
403.87	1843.17
404.07	1875.94
404.28	1834.98
404.49	1863.65
404.70	1849.32
404.90	1777.64
405.11	1726.44
405.32	1804.26
405.52	1669.09
405.73	1667.05
405.94	1703.91
406.15	1748.97
406.35	1759.21
406.56	1712.10
406.77	1802.21
406.98	1763.30
407.18	1728.49
407.39	1742.82
407.60	1734.63
407.80	1736.68
408.01	1708.01
408.22	1724.39
408.43	1667.05
408.63	1738.73
408.84	1718.25
409.05	1820.64
409.25	1695.72
409.46	1740.77
409.67	1751.01
409.88	1691.62
410.08	1761.25
410.29	1730.53
410.50	1710.05
410.70	1789.92
410.91	1658.85
411.12	1738.73
411.32	1767.40
411.53	1677.29
411.74	1785.83
411.95	1857.51
412.15	1736.68
412.36	1902.56
412.57	1759.21
412.77	1779.68
412.98	1751.01
413.19	1738.73
413.39	1697.77
413.60	1789.92
413.81	1765.35
414.01	1687.53
414.22	1767.40
414.43	1732.58
414.63	1730.53
414.84	1804.26
415.05	1691.62
415.25	1693.67
415.46	1802.21
415.67	1771.49
415.87	1779.68
416.08	1800.16
416.29	1738.73
416.49	1837.03
416.70	1697.77
416.91	1708.01
417.11	1773.54
417.32	1691.62
417.53	1693.67
417.73	1763.30
417.94	1712.10
418.15	1714.15
418.35	1640.42
418.56	1710.05
418.77	1855.46
418.97	1687.53
419.18	1734.63
419.38	1576.94
419.59	1767.40
419.80	1796.07
420.00	1677.29
420.21	1732.58
420.42	1812.45
420.62	1744.87
420.83	1718.25
421.04	1742.82
421.24	1697.77
421.45	1789.92
421.65	1775.59
421.86	1681.38
422.07	1716.20
422.27	1779.68
422.48	1785.83
422.69	1693.67
422.89	1740.77
423.10	1701.86
423.30	1683.43
423.51	1730.53
423.72	1791.97
423.92	1732.58
424.13	1630.18
424.33	1718.25
424.54	1765.35
424.75	1785.83
424.95	1781.73
425.16	1785.83
425.36	1681.38
425.57	1689.57
425.78	1757.16
425.98	1671.14
426.19	1742.82
426.39	1640.42
426.60	1701.86
426.81	1884.13
427.01	1679.33
427.22	1681.38
427.42	1607.66
427.63	1634.28
427.83	1742.82
428.04	1800.16
428.25	1841.12
428.45	1781.73
428.66	1826.79
428.86	1751.01
429.07	1720.29
429.28	1787.88
429.48	1671.14
429.69	1656.81
429.89	1771.49
430.10	1685.48
430.30	1765.35
430.51	1804.26
430.71	1691.62
430.92	1697.77
431.13	1654.76
431.33	1730.53
431.54	1755.11
431.74	1804.26
431.95	1830.88
432.15	1636.33
432.36	1771.49
432.56	1701.86
432.77	1824.74
432.98	1767.40
433.18	1701.86
433.39	1701.86
433.59	1728.49
433.80	1818.60
434.00	1890.28
434.21	1673.19
434.41	1710.05
434.62	1826.79
434.82	1576.94
435.03	1697.77
435.23	1763.30
435.44	1701.86
435.64	1693.67
435.85	1775.59
436.06	1736.68
436.26	1785.83
436.47	1738.73
436.67	1763.30
436.88	1658.85
437.08	1748.97
437.29	1804.26
437.49	1748.97
437.70	1726.44
437.90	1744.87
438.11	1847.27
438.31	1761.25
438.52	1890.28
438.72	1857.51
438.93	1941.47
439.13	1826.79
439.34	1808.36
439.54	1845.22
439.75	1742.82
439.95	1837.03
440.16	1748.97
440.36	1730.53
440.57	1777.64
440.77	1779.68
440.98	1759.21
441.18	1808.36
441.39	1693.67
441.59	1714.15
441.80	1853.41
442.00	1824.74
442.21	1804.26
442.41	1746.92
442.62	1751.01
442.82	1748.97
443.02	1732.58
443.23	1685.48
443.43	1759.21
443.64	1820.64
443.84	1677.29
444.05	1834.98
444.25	1830.88
444.46	1673.19
444.66	1785.83
444.87	1925.09
445.07	1689.57
445.28	1738.73
445.48	1783.78
445.69	1843.17
445.89	1898.47
446.09	1757.16
446.30	2041.82
446.50	2635.74
446.71	3696.58
446.91	4335.55
447.12	4845.49
447.32	4818.87
447.53	4433.85
447.73	3893.19
447.93	3657.67
448.14	3260.37
448.34	3098.58
448.55	2914.26
448.75	2953.17
448.96	2695.13
449.16	2414.56
449.36	2289.63
449.57	2111.46
449.77	1888.23
449.98	1789.92
450.18	1820.64
450.39	1873.89
450.59	1783.78
450.79	1740.77
451.00	1714.15
451.20	1730.53
451.41	1665.00
451.61	1886.18
451.81	1806.31
452.02	1759.21
452.22	1685.48
452.43	1755.11
452.63	1714.15
