SpectraSuite Data File
++++++++++++++++++++++++++++++++++++
Date: Mon Jun 06 17:15:17 CEST 2016
User: root
Dark Spectrum Present: No
Reference Spectrum Present: No
Number of Sampled Component Spectra: 1
Spectrometers: USB4C02835
Integration Time (usec): 100000 (USB4C02835)
Spectra Averaged: 1 (USB4C02835)
Boxcar Smoothing: 0 (USB4C02835)
Correct for Electrical Dark: No (USB4C02835)
Strobe/Lamp Enabled: No (USB4C02835)
Correct for Detector Non-linearity: No (USB4C02835)
Correct for Stray Light: No (USB4C02835)
Number of Pixels in Processed Spectrum: 3648
>>>>>Begin Processed Spectral Data<<<<<
177.47	1558.50
177.69	1558.50
177.91	1558.50
178.13	1392.62
178.36	1447.91
178.58	1673.19
178.80	1746.92
179.02	1626.09
179.24	1671.14
179.46	1671.14
179.68	1771.49
179.90	1755.11
180.13	1656.81
180.35	1685.48
180.57	1667.05
180.79	1775.59
181.01	1636.33
181.23	1736.68
181.45	1818.60
181.67	1728.49
181.90	1710.05
182.12	1660.90
182.34	1685.48
182.56	1771.49
182.78	1689.57
183.00	1728.49
183.22	1734.63
183.44	1656.81
183.66	1851.36
183.89	1734.63
184.11	1658.85
184.33	1740.77
184.55	1779.68
184.77	1710.05
184.99	1753.06
185.21	1699.81
185.43	1873.89
185.65	1724.39
185.87	1675.24
186.10	1863.65
186.32	1849.32
186.54	1802.21
186.76	1718.25
186.98	1869.80
187.20	1699.81
187.42	1708.01
187.64	1740.77
187.86	1685.48
188.08	1744.87
188.30	1740.77
188.52	1685.48
188.75	1755.11
188.97	1810.40
189.19	1665.00
189.41	1656.81
189.63	1728.49
189.85	1673.19
190.07	1578.98
190.29	1724.39
190.51	1720.29
190.73	1615.85
190.95	1742.82
191.17	1679.33
191.39	1574.89
191.61	1650.66
191.84	1687.53
192.06	1769.44
192.28	1570.79
192.50	1896.42
192.72	1806.31
192.94	1767.40
193.16	1763.30
193.38	1789.92
193.60	1669.09
193.82	1765.35
194.04	1685.48
194.26	1769.44
194.48	1613.80
194.70	1632.23
194.92	1660.90
195.14	1728.49
195.36	1693.67
195.58	1705.96
195.80	1726.44
196.02	1630.18
196.24	1720.29
196.46	1714.15
196.69	1714.15
196.91	1789.92
197.13	1665.00
197.35	1699.81
197.57	1826.79
197.79	1705.96
198.01	1650.66
198.23	1744.87
198.45	1761.25
198.67	1671.14
198.89	1607.66
199.11	1701.86
199.33	1703.91
199.55	1611.75
199.77	1724.39
199.99	1767.40
200.21	1644.52
200.43	1812.45
200.65	1718.25
200.87	1566.70
201.09	1673.19
201.31	1759.21
201.53	1757.16
201.75	1730.53
201.97	1751.01
202.19	1798.12
202.41	1775.59
202.63	1767.40
202.85	1808.36
203.07	1769.44
203.29	1679.33
203.51	1624.04
203.73	1621.99
203.95	1871.84
204.17	1712.10
204.39	1730.53
204.61	1658.85
204.83	1699.81
205.05	1726.44
205.27	1814.50
205.49	1828.84
205.71	1660.90
205.93	1644.52
206.15	1654.76
206.37	1648.61
206.59	1763.30
206.81	1689.57
207.03	1632.23
207.25	1681.38
207.47	1794.02
207.69	1691.62
207.91	1853.41
208.13	1779.68
208.34	1634.28
208.56	1609.70
208.78	1718.25
209.00	1705.96
209.22	1675.24
209.44	1701.86
209.66	1671.14
209.88	1701.86
210.10	1736.68
210.32	1681.38
210.54	1785.83
210.76	1705.96
210.98	1779.68
211.20	1621.99
211.42	1628.14
211.64	1791.97
211.86	1736.68
212.08	1667.05
212.30	1789.92
212.52	1740.77
212.74	1755.11
212.96	1710.05
213.17	1720.29
213.39	1699.81
213.61	1759.21
213.83	1794.02
214.05	1605.61
214.27	1701.86
214.49	1685.48
214.71	1675.24
214.93	1742.82
215.15	1697.77
215.37	1724.39
215.59	1583.08
215.81	1732.58
216.03	1751.01
216.24	1673.19
216.46	1748.97
216.68	1714.15
216.90	1740.77
217.12	1748.97
217.34	1746.92
217.56	1791.97
217.78	1789.92
218.00	1728.49
218.22	1730.53
218.44	1724.39
218.66	1624.04
218.87	1794.02
219.09	1693.67
219.31	1718.25
219.53	1671.14
219.75	1673.19
219.97	1742.82
220.19	1714.15
220.41	1734.63
220.63	1779.68
220.85	1673.19
221.06	1759.21
221.28	1658.85
221.50	1728.49
221.72	1654.76
221.94	1691.62
222.16	1718.25
222.38	1759.21
222.60	1796.07
222.82	1624.04
223.03	1802.21
223.25	1656.81
223.47	1796.07
223.69	1820.64
223.91	1732.58
224.13	1726.44
224.35	1650.66
224.57	1802.21
224.78	1796.07
225.00	1738.73
225.22	1662.95
225.44	1777.64
225.66	1753.06
225.88	1726.44
226.10	1710.05
226.32	1746.92
226.53	1732.58
226.75	1626.09
226.97	1677.29
227.19	1691.62
227.41	1630.18
227.63	1691.62
227.85	1609.70
228.06	1671.14
228.28	1722.34
228.50	1738.73
228.72	1710.05
228.94	1697.77
229.16	1595.37
229.37	1755.11
229.59	1705.96
229.81	1765.35
230.03	1675.24
230.25	1640.42
230.47	1742.82
230.69	1599.46
230.90	1753.06
231.12	1726.44
231.34	1759.21
231.56	1777.64
231.78	1648.61
232.00	1697.77
232.21	1734.63
232.43	1671.14
232.65	1619.94
232.87	1705.96
233.09	1654.76
233.30	1599.46
233.52	1746.92
233.74	1705.96
233.96	1746.92
234.18	1665.00
234.40	1662.95
234.61	1853.41
234.83	1693.67
235.05	1638.38
235.27	1851.36
235.49	1843.17
235.70	1697.77
235.92	1851.36
236.14	1759.21
236.36	1861.60
236.58	1599.46
236.79	1828.84
237.01	1652.71
237.23	1710.05
237.45	1783.78
237.67	1681.38
237.88	1726.44
238.10	1877.99
238.32	1714.15
238.54	1624.04
238.76	1720.29
238.97	1617.90
239.19	1667.05
239.41	1789.92
239.63	1722.34
239.85	1708.01
240.06	1673.19
240.28	1691.62
240.50	1751.01
240.72	1845.22
240.93	1767.40
241.15	1783.78
241.37	1691.62
241.59	1787.88
241.81	1722.34
242.02	1738.73
242.24	1767.40
242.46	1751.01
242.68	1630.18
242.89	1703.91
243.11	1828.84
243.33	1738.73
243.55	1681.38
243.76	1724.39
243.98	1632.23
244.20	1665.00
244.42	1757.16
244.64	1669.09
244.85	1609.70
245.07	1636.33
245.29	1740.77
245.51	1796.07
245.72	1736.68
245.94	1736.68
246.16	1701.86
246.38	1746.92
246.59	1679.33
246.81	1716.20
247.03	1705.96
247.24	1595.37
247.46	1703.91
247.68	1714.15
247.90	1695.72
248.11	1638.38
248.33	1785.83
248.55	1744.87
248.77	1685.48
248.98	1722.34
249.20	1798.12
249.42	1710.05
249.64	1755.11
249.85	1695.72
250.07	1683.43
250.29	1744.87
250.50	1714.15
250.72	1675.24
250.94	1773.54
251.16	1847.27
251.37	1767.40
251.59	1665.00
251.81	1751.01
252.02	1779.68
252.24	1660.90
252.46	1783.78
252.68	1687.53
252.89	1583.08
253.11	1650.66
253.33	1771.49
253.54	1767.40
253.76	1695.72
253.98	1738.73
254.20	1658.85
254.41	1527.78
254.63	1712.10
254.85	1689.57
255.06	1724.39
255.28	1775.59
255.50	1677.29
255.71	1687.53
255.93	1689.57
256.15	1730.53
256.36	1744.87
256.58	1708.01
256.80	1806.31
257.02	1701.86
257.23	1669.09
257.45	1777.64
257.67	1751.01
257.88	1689.57
258.10	1753.06
258.32	1648.61
258.53	1601.51
258.75	1820.64
258.97	1697.77
259.18	1740.77
259.40	1748.97
259.62	1884.13
259.83	1746.92
260.05	1759.21
260.27	1984.48
260.48	1736.68
260.70	1730.53
260.92	1697.77
261.13	1726.44
261.35	1804.26
261.57	1679.33
261.78	1605.61
262.00	1654.76
262.22	1757.16
262.43	1595.37
262.65	1632.23
262.86	1669.09
263.08	1832.93
263.30	1775.59
263.51	1673.19
263.73	1630.18
263.95	1861.60
264.16	1712.10
264.38	1720.29
264.60	1744.87
264.81	1689.57
265.03	1839.08
265.25	1771.49
265.46	1708.01
265.68	1791.97
265.89	1746.92
266.11	1630.18
266.33	1714.15
266.54	1859.56
266.76	1679.33
266.98	1726.44
267.19	1800.16
267.41	1783.78
267.62	1726.44
267.84	1665.00
268.06	1771.49
268.27	1736.68
268.49	1767.40
268.70	1806.31
268.92	1667.05
269.14	1667.05
269.35	1628.14
269.57	1724.39
269.79	1810.40
270.00	1744.87
270.22	1802.21
270.43	1705.96
270.65	1617.90
270.87	1708.01
271.08	1794.02
271.30	1757.16
271.51	1665.00
271.73	1734.63
271.95	1800.16
272.16	1701.86
272.38	1738.73
272.59	1665.00
272.81	1712.10
273.02	1714.15
273.24	1818.60
273.46	1748.97
273.67	1648.61
273.89	1683.43
274.10	1687.53
274.32	1755.11
274.54	1710.05
274.75	1699.81
274.97	1724.39
275.18	1695.72
275.40	1683.43
275.61	1716.20
275.83	1693.67
276.05	1624.04
276.26	1742.82
276.48	1748.97
276.69	1697.77
276.91	1621.99
277.12	1724.39
277.34	1779.68
277.55	1781.73
277.77	1746.92
277.99	1746.92
278.20	1710.05
278.42	1619.94
278.63	1671.14
278.85	1669.09
279.06	1654.76
279.28	1667.05
279.49	1783.78
279.71	1767.40
279.93	1765.35
280.14	1656.81
280.36	1607.66
280.57	1841.12
280.79	1685.48
281.00	1751.01
281.22	1693.67
281.43	1742.82
281.65	1589.22
281.86	1642.47
282.08	1701.86
282.29	1847.27
282.51	1662.95
282.73	1611.75
282.94	1662.95
283.16	1746.92
283.37	1794.02
283.59	1730.53
283.80	1703.91
284.02	1693.67
284.23	1767.40
284.45	1611.75
284.66	1621.99
284.88	1732.58
285.09	1738.73
285.31	1746.92
285.52	1826.79
285.74	1624.04
285.95	1777.64
286.17	1816.55
286.38	1804.26
286.60	1609.70
286.81	1679.33
287.03	1677.29
287.24	1744.87
287.46	1710.05
287.67	1681.38
287.89	1863.65
288.10	1732.58
288.32	1732.58
288.53	1839.08
288.75	1660.90
288.96	1798.12
289.18	1681.38
289.39	1740.77
289.61	1796.07
289.82	1851.36
290.04	1830.88
290.25	1763.30
290.47	1695.72
290.68	1753.06
290.90	1767.40
291.11	1632.23
291.33	1751.01
291.54	1703.91
291.76	1687.53
291.97	1708.01
292.18	1769.44
292.40	1708.01
292.61	1748.97
292.83	1828.84
293.04	1732.58
293.26	1748.97
293.47	1662.95
293.69	1681.38
293.90	1730.53
294.12	1789.92
294.33	1681.38
294.55	1683.43
294.76	1787.88
294.97	1791.97
295.19	1830.88
295.40	1761.25
295.62	1763.30
295.83	1763.30
296.05	1617.90
296.26	1734.63
296.48	1665.00
296.69	1765.35
296.90	1720.29
297.12	1728.49
297.33	1765.35
297.55	1730.53
297.76	1746.92
297.98	1783.78
298.19	1703.91
298.41	1736.68
298.62	1677.29
298.83	1810.40
299.05	1744.87
299.26	1601.51
299.48	1740.77
299.69	1705.96
299.90	1732.58
300.12	1626.09
300.33	1726.44
300.55	1671.14
300.76	1830.88
300.98	1611.75
301.19	1695.72
301.40	1646.57
301.62	1693.67
301.83	1736.68
302.05	1751.01
302.26	1769.44
302.47	1761.25
302.69	1626.09
302.90	1701.86
303.12	1638.38
303.33	1734.63
303.54	1763.30
303.76	1716.20
303.97	1738.73
304.19	1718.25
304.40	1755.11
304.61	1781.73
304.83	1869.80
305.04	1802.21
305.26	1734.63
305.47	1675.24
305.68	1671.14
305.90	1642.47
306.11	1730.53
306.33	1751.01
306.54	1726.44
306.75	1632.23
306.97	1632.23
307.18	1652.71
307.39	1677.29
307.61	1765.35
307.82	1685.48
308.04	1685.48
308.25	1652.71
308.46	1759.21
308.68	1734.63
308.89	1722.34
309.10	1763.30
309.32	1791.97
309.53	1566.70
309.74	1794.02
309.96	1681.38
310.17	1730.53
310.39	1648.61
310.60	1726.44
310.81	1697.77
311.03	1601.51
311.24	1773.54
311.45	1722.34
311.67	1816.55
311.88	1673.19
312.09	1679.33
312.31	1636.33
312.52	1730.53
312.73	1748.97
312.95	1665.00
313.16	1677.29
313.37	1789.92
313.59	1748.97
313.80	1734.63
314.01	1806.31
314.23	1605.61
314.44	1648.61
314.65	1615.85
314.87	1697.77
315.08	1728.49
315.29	1660.90
315.51	1710.05
315.72	1697.77
315.93	1888.23
316.15	1880.04
316.36	1634.28
316.57	1714.15
316.79	1755.11
317.00	1734.63
317.21	1673.19
317.43	1818.60
317.64	1736.68
317.85	1626.09
318.07	1665.00
318.28	1720.29
318.49	1900.52
318.70	1929.19
318.92	1834.98
319.13	1880.04
319.34	1845.22
319.56	1789.92
319.77	1755.11
319.98	1828.84
320.20	1828.84
320.41	1763.30
320.62	1763.30
320.83	1654.76
321.05	1900.52
321.26	1757.16
321.47	1708.01
321.69	1830.88
321.90	1671.14
322.11	1646.57
322.32	1740.77
322.54	1806.31
322.75	1693.67
322.96	1894.37
323.18	1658.85
323.39	1656.81
323.60	1693.67
323.81	1757.16
324.03	1630.18
324.24	1732.58
324.45	1740.77
324.66	1742.82
324.88	1791.97
325.09	1730.53
325.30	1724.39
325.52	1724.39
325.73	1748.97
325.94	1646.57
326.15	1599.46
326.37	1662.95
326.58	1806.31
326.79	1755.11
327.00	1599.46
327.22	1691.62
327.43	1708.01
327.64	1660.90
327.85	1738.73
328.07	1710.05
328.28	1837.03
328.49	1722.34
328.70	1728.49
328.92	1775.59
329.13	1705.96
329.34	1730.53
329.55	1804.26
329.76	1708.01
329.98	1742.82
330.19	1832.93
330.40	1660.90
330.61	1773.54
330.83	1681.38
331.04	1609.70
331.25	1701.86
331.46	1699.81
331.68	1697.77
331.89	1779.68
332.10	1779.68
332.31	1617.90
332.52	1789.92
332.74	1751.01
332.95	1677.29
333.16	1724.39
333.37	1783.78
333.58	1748.97
333.80	1734.63
334.01	1634.28
334.22	1740.77
334.43	1689.57
334.64	1640.42
334.86	1701.86
335.07	1656.81
335.28	1712.10
335.49	1605.61
335.70	1708.01
335.92	1830.88
336.13	1804.26
336.34	1789.92
336.55	1757.16
336.76	1783.78
336.98	1583.08
337.19	1660.90
337.40	1794.02
337.61	1818.60
337.82	1699.81
338.04	1726.44
338.25	1677.29
338.46	1753.06
338.67	1716.20
338.88	1679.33
339.09	1644.52
339.31	1683.43
339.52	1642.47
339.73	1595.37
339.94	1691.62
340.15	1763.30
340.36	1685.48
340.58	1759.21
340.79	1624.04
341.00	1744.87
341.21	1636.33
341.42	1789.92
341.63	1773.54
341.85	1783.78
342.06	1689.57
342.27	1708.01
342.48	1708.01
342.69	1691.62
342.90	1746.92
343.12	1755.11
343.33	1703.91
343.54	1708.01
343.75	1794.02
343.96	1665.00
344.17	1665.00
344.38	1720.29
344.60	1683.43
344.81	1636.33
345.02	1628.14
345.23	1877.99
345.44	1771.49
345.65	1849.32
345.86	1693.67
346.07	1665.00
346.29	1662.95
346.50	1718.25
346.71	1804.26
346.92	1738.73
347.13	1841.12
347.34	1714.15
347.55	1714.15
347.76	1708.01
347.98	1626.09
348.19	1619.94
348.40	1755.11
348.61	1675.24
348.82	1802.21
349.03	1714.15
349.24	1673.19
349.45	1822.69
349.66	1718.25
349.88	1703.91
350.09	1630.18
350.30	1763.30
350.51	1779.68
350.72	1765.35
350.93	1736.68
351.14	1716.20
351.35	1701.86
351.56	1716.20
351.77	1708.01
351.99	1767.40
352.20	1814.50
352.41	1773.54
352.62	1630.18
352.83	1716.20
353.04	1697.77
353.25	1730.53
353.46	1775.59
353.67	1748.97
353.88	1599.46
354.09	1794.02
354.30	1744.87
354.52	1777.64
354.73	1681.38
354.94	1714.15
355.15	1757.16
355.36	1832.93
355.57	1626.09
355.78	1697.77
355.99	1699.81
356.20	1753.06
356.41	1808.36
356.62	1724.39
356.83	1744.87
357.04	1763.30
357.25	1638.38
357.46	1728.49
357.68	1611.75
357.89	1662.95
358.10	1730.53
358.31	1722.34
358.52	1783.78
358.73	1654.76
358.94	1609.70
359.15	1574.89
359.36	1730.53
359.57	1759.21
359.78	1669.09
359.99	1730.53
360.20	1605.61
360.41	1740.77
360.62	1736.68
360.83	1763.30
361.04	1736.68
361.25	1757.16
361.46	1796.07
361.67	1759.21
361.88	1763.30
362.09	1818.60
362.30	1740.77
362.51	1722.34
362.72	1789.92
362.93	1746.92
363.14	1802.21
363.35	1710.05
363.56	1640.42
363.78	1755.11
363.99	1783.78
364.20	1673.19
364.41	1693.67
364.62	1716.20
364.83	1722.34
365.04	1808.36
365.25	1695.72
365.46	1824.74
365.67	1669.09
365.88	1642.47
366.09	1722.34
366.30	1665.00
366.51	1736.68
366.72	1681.38
366.93	1699.81
367.14	1697.77
367.35	1810.40
367.56	1665.00
367.77	1894.37
367.98	1671.14
368.18	1798.12
368.39	1705.96
368.60	1675.24
368.81	1800.16
369.02	1746.92
369.23	1714.15
369.44	1605.61
369.65	1611.75
369.86	1699.81
370.07	1775.59
370.28	1746.92
370.49	1773.54
370.70	1816.55
370.91	1652.71
371.12	1642.47
371.33	1865.70
371.54	1642.47
371.75	1841.12
371.96	1630.18
372.17	1712.10
372.38	1775.59
372.59	1748.97
372.80	1744.87
373.01	1683.43
373.22	1716.20
373.43	1763.30
373.64	1615.85
373.85	1730.53
374.06	1845.22
374.26	1742.82
374.47	1818.60
374.68	1742.82
374.89	1759.21
375.10	1650.66
375.31	1722.34
375.52	1769.44
375.73	1759.21
375.94	1701.86
376.15	1839.08
376.36	1636.33
376.57	1640.42
376.78	1734.63
376.99	1771.49
377.20	1746.92
377.40	1609.70
377.61	1781.73
377.82	1660.90
378.03	1888.23
378.24	1755.11
378.45	1703.91
378.66	1683.43
378.87	1677.29
379.08	1624.04
379.29	1728.49
379.50	1691.62
379.71	1740.77
379.91	1765.35
380.12	1656.81
380.33	1728.49
380.54	1636.33
380.75	1738.73
380.96	1812.45
381.17	1753.06
381.38	1687.53
381.59	1699.81
381.80	1734.63
382.00	1714.15
382.21	1748.97
382.42	1894.37
382.63	1898.47
382.84	1751.01
383.05	1771.49
383.26	1775.59
383.47	1724.39
383.68	1734.63
383.88	1800.16
384.09	1720.29
384.30	1783.78
384.51	1701.86
384.72	1726.44
384.93	1613.80
385.14	1738.73
385.35	1746.92
385.55	1685.48
385.76	1855.46
385.97	1751.01
386.18	1640.42
386.39	1669.09
386.60	1681.38
386.81	1773.54
387.02	1673.19
387.22	1662.95
387.43	1791.97
387.64	1779.68
387.85	1851.36
388.06	2256.86
388.27	4116.42
388.48	6690.71
388.68	8261.51
388.89	9682.80
389.10	9897.83
389.31	8546.17
389.52	7796.62
389.73	6791.06
389.93	6363.04
390.14	5924.77
390.35	5214.13
390.56	4599.74
390.77	3686.34
390.98	3129.30
391.18	2613.21
391.39	2154.46
391.60	1818.60
391.81	1783.78
392.02	1634.28
392.23	1882.08
392.43	1763.30
392.64	1863.65
392.85	1738.73
393.06	1769.44
393.27	1714.15
393.47	1652.71
393.68	1730.53
393.89	1761.25
394.10	1699.81
394.31	1701.86
394.52	1601.51
394.72	1724.39
394.93	1783.78
395.14	1650.66
395.35	1761.25
395.56	1673.19
395.76	1705.96
395.97	1740.77
396.18	1746.92
396.39	1798.12
396.60	2060.26
396.80	1931.23
397.01	1828.84
397.22	1841.12
397.43	1763.30
397.64	1839.08
397.84	1757.16
398.05	1871.84
398.26	1732.58
398.47	1789.92
398.67	1783.78
398.88	1746.92
399.09	1736.68
399.30	1718.25
399.51	1771.49
399.71	1685.48
399.92	1693.67
400.13	1755.11
400.34	1724.39
400.54	1681.38
400.75	1867.75
400.96	1748.97
401.17	1839.08
401.37	1787.88
401.58	1789.92
401.79	1757.16
402.00	1871.84
402.21	1968.10
402.41	2000.87
402.62	2000.87
402.83	2060.26
403.04	1986.53
403.24	2035.68
403.45	1865.70
403.66	1902.56
403.87	1830.88
404.07	1898.47
404.28	1957.86
404.49	1779.68
404.70	1839.08
404.90	1765.35
405.11	1746.92
405.32	1746.92
405.52	1679.33
405.73	1720.29
405.94	1669.09
406.15	1652.71
406.35	1812.45
406.56	1732.58
406.77	1748.97
406.98	1722.34
407.18	1683.43
407.39	1828.84
407.60	1628.14
407.80	1693.67
408.01	1644.52
408.22	1671.14
408.43	1644.52
408.63	1703.91
408.84	1699.81
409.05	1724.39
409.25	1636.33
409.46	1656.81
409.67	1767.40
409.88	1705.96
410.08	1660.90
410.29	1755.11
410.50	1744.87
410.70	1753.06
410.91	1636.33
411.12	1779.68
411.32	1699.81
411.53	1681.38
411.74	1839.08
411.95	1828.84
412.15	1726.44
412.36	1843.17
412.57	1759.21
412.77	1755.11
412.98	1755.11
413.19	1691.62
413.39	1779.68
413.60	1822.69
413.81	1804.26
414.01	1626.09
414.22	1730.53
414.43	1837.03
414.63	1718.25
414.84	1742.82
415.05	1796.07
415.25	1660.90
415.46	1773.54
415.67	1685.48
415.87	1787.88
416.08	1775.59
416.29	1683.43
416.49	1726.44
416.70	1722.34
416.91	1656.81
417.11	1744.87
417.32	1738.73
417.53	1802.21
417.73	1771.49
417.94	1675.24
418.15	1718.25
418.35	1716.20
418.56	1753.06
418.77	1806.31
418.97	1705.96
419.18	1656.81
419.38	1621.99
419.59	1660.90
419.80	1767.40
420.00	1701.86
420.21	1705.96
420.42	1808.36
420.62	1734.63
420.83	1712.10
421.04	1763.30
421.24	1683.43
421.45	1751.01
421.65	1714.15
421.86	1777.64
422.07	1683.43
422.27	1689.57
422.48	1810.40
422.69	1624.04
422.89	1720.29
423.10	1681.38
423.30	1603.56
423.51	1718.25
423.72	1740.77
423.92	1697.77
424.13	1609.70
424.33	1738.73
424.54	1787.88
424.75	1742.82
424.95	1849.32
425.16	1714.15
425.36	1710.05
425.57	1734.63
425.78	1722.34
425.98	1820.64
426.19	1636.33
426.39	1667.05
426.60	1693.67
426.81	1841.12
427.01	1669.09
427.22	1681.38
427.42	1576.94
427.63	1630.18
427.83	1755.11
428.04	1787.88
428.25	1697.77
428.45	1767.40
428.66	1787.88
428.86	1697.77
429.07	1656.81
429.28	1746.92
429.48	1738.73
429.69	1652.71
429.89	1748.97
430.10	1710.05
430.30	1767.40
430.51	1751.01
430.71	1656.81
430.92	1767.40
431.13	1695.72
431.33	1738.73
431.54	1779.68
431.74	1720.29
431.95	1873.89
432.15	1621.99
432.36	1730.53
432.56	1796.07
432.77	1857.51
432.98	1834.98
433.18	1701.86
433.39	1748.97
433.59	1794.02
433.80	1818.60
434.00	1826.79
434.21	1746.92
434.41	1650.66
434.62	1873.89
434.82	1685.48
435.03	1632.23
435.23	1710.05
435.44	1587.18
435.64	1701.86
435.85	1677.29
436.06	1781.73
436.26	1669.09
436.47	1683.43
436.67	1679.33
436.88	1669.09
437.08	1816.55
437.29	1824.74
437.49	1738.73
437.70	1759.21
437.90	1705.96
438.11	1845.22
438.31	1759.21
438.52	1802.21
438.72	1814.50
438.93	1890.28
439.13	1867.75
439.34	1855.46
439.54	1718.25
439.75	1847.27
439.95	1828.84
440.16	1720.29
440.36	1757.16
440.57	1806.31
440.77	1804.26
440.98	1699.81
441.18	1818.60
441.39	1724.39
441.59	1673.19
441.80	1916.90
442.00	1738.73
442.21	1896.42
442.41	1662.95
442.62	1759.21
442.82	1658.85
443.02	1683.43
443.23	1791.97
443.43	1708.01
443.64	1779.68
443.84	1648.61
444.05	1791.97
444.25	1753.06
444.46	1710.05
444.66	1742.82
444.87	1748.97
445.07	1671.14
445.28	1691.62
445.48	1816.55
445.69	1789.92
445.89	1902.56
446.09	1771.49
446.30	2031.58
446.50	2627.54
446.71	3688.39
446.91	4417.47
447.12	4663.22
447.32	4878.26
447.53	4349.89
447.73	3868.61
447.93	3557.32
448.14	3389.39
448.34	3221.45
448.55	2908.12
448.75	2811.86
448.96	2562.01
449.16	2484.19
449.36	2318.30
449.57	2023.39
449.77	1970.15
449.98	1839.08
450.18	1794.02
450.39	1791.97
450.59	1822.69
450.79	1761.25
451.00	1726.44
451.20	1796.07
451.41	1708.01
451.61	1804.26
451.81	1742.82
452.02	1644.52
452.22	1660.90
452.43	1740.77
452.63	1662.95
