SpectraSuite Data File
++++++++++++++++++++++++++++++++++++
Date: Mon Jun 06 14:14:57 CEST 2016
User: root
Dark Spectrum Present: No
Reference Spectrum Present: No
Number of Sampled Component Spectra: 1
Spectrometers: USB4C02835
Integration Time (usec): 100000 (USB4C02835)
Spectra Averaged: 1 (USB4C02835)
Boxcar Smoothing: 0 (USB4C02835)
Correct for Electrical Dark: No (USB4C02835)
Strobe/Lamp Enabled: No (USB4C02835)
Correct for Detector Non-linearity: No (USB4C02835)
Correct for Stray Light: No (USB4C02835)
Number of Pixels in Processed Spectrum: 3648
>>>>>Begin Processed Spectral Data<<<<<
177.47	1509.35
177.69	1509.35
177.91	1509.35
178.13	1511.40
178.36	1462.25
178.58	1658.85
178.80	1701.86
179.02	1669.09
179.24	1652.71
179.46	1695.72
179.68	1755.11
179.90	1701.86
180.13	1718.25
180.35	1677.29
180.57	1669.09
180.79	1716.20
181.01	1791.97
181.23	1757.16
181.45	1757.16
181.67	1703.91
181.90	1652.71
182.12	1705.96
182.34	1630.18
182.56	1796.07
182.78	1753.06
183.00	1679.33
183.22	1738.73
183.44	1613.80
183.66	1863.65
183.89	1759.21
184.11	1667.05
184.33	1753.06
184.55	1785.83
184.77	1705.96
184.99	1646.57
185.21	1673.19
185.43	1839.08
185.65	1673.19
185.87	1621.99
186.10	1794.02
186.32	1789.92
186.54	1730.53
186.76	1718.25
186.98	1687.53
187.20	1691.62
187.42	1683.43
187.64	1681.38
187.86	1693.67
188.08	1748.97
188.30	1753.06
188.52	1685.48
188.75	1818.60
188.97	1845.22
189.19	1648.61
189.41	1748.97
189.63	1689.57
189.85	1687.53
190.07	1650.66
190.29	1613.80
190.51	1703.91
190.73	1665.00
190.95	1751.01
191.17	1720.29
191.39	1615.85
191.61	1638.38
191.84	1669.09
192.06	1718.25
192.28	1611.75
192.50	1861.60
192.72	1673.19
192.94	1658.85
193.16	1730.53
193.38	1691.62
193.60	1646.57
193.82	1677.29
194.04	1710.05
194.26	1636.33
194.48	1689.57
194.70	1673.19
194.92	1609.70
195.14	1675.24
195.36	1695.72
195.58	1742.82
195.80	1751.01
196.02	1689.57
196.24	1650.66
196.46	1769.44
196.69	1691.62
196.91	1863.65
197.13	1787.88
197.35	1683.43
197.57	1753.06
197.79	1714.15
198.01	1775.59
198.23	1767.40
198.45	1748.97
198.67	1681.38
198.89	1699.81
199.11	1779.68
199.33	1675.24
199.55	1607.66
199.77	1693.67
199.99	1794.02
200.21	1701.86
200.43	1708.01
200.65	1660.90
200.87	1621.99
201.09	1726.44
201.31	1624.04
201.53	1775.59
201.75	1730.53
201.97	1710.05
202.19	1658.85
202.41	1695.72
202.63	1738.73
202.85	1705.96
203.07	1757.16
203.29	1691.62
203.51	1648.61
203.73	1683.43
203.95	1841.12
204.17	1779.68
204.39	1708.01
204.61	1677.29
204.83	1705.96
205.05	1736.68
205.27	1775.59
205.49	1781.73
205.71	1648.61
205.93	1632.23
206.15	1599.46
206.37	1691.62
206.59	1781.73
206.81	1576.94
207.03	1665.00
207.25	1705.96
207.47	1769.44
207.69	1681.38
207.91	1810.40
208.13	1757.16
208.34	1636.33
208.56	1636.33
208.78	1763.30
209.00	1685.48
209.22	1722.34
209.44	1697.77
209.66	1683.43
209.88	1718.25
210.10	1611.75
210.32	1644.52
210.54	1865.70
210.76	1650.66
210.98	1820.64
211.20	1656.81
211.42	1705.96
211.64	1748.97
211.86	1740.77
212.08	1724.39
212.30	1765.35
212.52	1669.09
212.74	1658.85
212.96	1677.29
213.17	1767.40
213.39	1722.34
213.61	1791.97
213.83	1759.21
214.05	1599.46
214.27	1787.88
214.49	1701.86
214.71	1728.49
214.93	1777.64
215.15	1656.81
215.37	1734.63
215.59	1648.61
215.81	1736.68
216.03	1859.56
216.24	1718.25
216.46	1695.72
216.68	1742.82
216.90	1757.16
217.12	1746.92
217.34	1693.67
217.56	1753.06
217.78	1787.88
218.00	1691.62
218.22	1648.61
218.44	1771.49
218.66	1746.92
218.87	1746.92
219.09	1646.57
219.31	1736.68
219.53	1789.92
219.75	1718.25
219.97	1697.77
220.19	1710.05
220.41	1669.09
220.63	1738.73
220.85	1720.29
221.06	1697.77
221.28	1767.40
221.50	1652.71
221.72	1701.86
221.94	1705.96
222.16	1722.34
222.38	1765.35
222.60	1753.06
222.82	1648.61
223.03	1710.05
223.25	1617.90
223.47	1746.92
223.69	1816.55
223.91	1744.87
224.13	1642.47
224.35	1681.38
224.57	1802.21
224.78	1787.88
225.00	1710.05
225.22	1767.40
225.44	1705.96
225.66	1771.49
225.88	1705.96
226.10	1761.25
226.32	1773.54
226.53	1775.59
226.75	1722.34
226.97	1621.99
227.19	1712.10
227.41	1677.29
227.63	1675.24
227.85	1599.46
228.06	1685.48
228.28	1697.77
228.50	1779.68
228.72	1669.09
228.94	1763.30
229.16	1662.95
229.37	1650.66
229.59	1632.23
229.81	1742.82
230.03	1636.33
230.25	1601.51
230.47	1628.14
230.69	1689.57
230.90	1796.07
231.12	1648.61
231.34	1697.77
231.56	1785.83
231.78	1628.14
232.00	1712.10
232.21	1691.62
232.43	1671.14
232.65	1572.84
232.87	1728.49
233.09	1699.81
233.30	1628.14
233.52	1757.16
233.74	1730.53
233.96	1679.33
234.18	1724.39
234.40	1648.61
234.61	1902.56
234.83	1650.66
235.05	1644.52
235.27	1814.50
235.49	1806.31
235.70	1693.67
235.92	1746.92
236.14	1791.97
236.36	1832.93
236.58	1615.85
236.79	1728.49
237.01	1753.06
237.23	1705.96
237.45	1904.61
237.67	1607.66
237.88	1638.38
238.10	1869.80
238.32	1646.57
238.54	1691.62
238.76	1736.68
238.97	1675.24
239.19	1578.98
239.41	1726.44
239.63	1808.36
239.85	1701.86
240.06	1781.73
240.28	1685.48
240.50	1773.54
240.72	1605.61
240.93	1693.67
241.15	1722.34
241.37	1761.25
241.59	1724.39
241.81	1687.53
242.02	1679.33
242.24	1789.92
242.46	1794.02
242.68	1642.47
242.89	1662.95
243.11	1759.21
243.33	1740.77
243.55	1673.19
243.76	1775.59
243.98	1638.38
244.20	1671.14
244.42	1728.49
244.64	1728.49
244.85	1689.57
245.07	1640.42
245.29	1691.62
245.51	1751.01
245.72	1724.39
245.94	1685.48
246.16	1781.73
246.38	1781.73
246.59	1652.71
246.81	1714.15
247.03	1705.96
247.24	1609.70
247.46	1570.79
247.68	1701.86
247.90	1679.33
248.11	1662.95
248.33	1708.01
248.55	1679.33
248.77	1691.62
248.98	1783.78
249.20	1800.16
249.42	1779.68
249.64	1761.25
249.85	1705.96
250.07	1585.13
250.29	1718.25
250.50	1763.30
250.72	1595.37
250.94	1724.39
251.16	1869.80
251.37	1777.64
251.59	1687.53
251.81	1691.62
252.02	1699.81
252.24	1714.15
252.46	1804.26
252.68	1699.81
252.89	1681.38
253.11	1638.38
253.33	1808.36
253.54	1765.35
253.76	1742.82
253.98	1634.28
254.20	1746.92
254.41	1619.94
254.63	1705.96
254.85	1603.56
255.06	1669.09
255.28	1785.83
255.50	1656.81
255.71	1652.71
255.93	1607.66
256.15	1656.81
256.36	1705.96
256.58	1660.90
256.80	1759.21
257.02	1695.72
257.23	1699.81
257.45	1632.23
257.67	1695.72
257.88	1636.33
258.10	1816.55
258.32	1689.57
258.53	1769.44
258.75	1812.45
258.97	1701.86
259.18	1699.81
259.40	1644.52
259.62	1845.22
259.83	1728.49
260.05	1683.43
260.27	1953.76
260.48	1701.86
260.70	1679.33
260.92	1738.73
261.13	1734.63
261.35	1742.82
261.57	1685.48
261.78	1621.99
262.00	1642.47
262.22	1783.78
262.43	1585.13
262.65	1656.81
262.86	1669.09
263.08	1767.40
263.30	1761.25
263.51	1601.51
263.73	1634.28
263.95	1738.73
264.16	1665.00
264.38	1697.77
264.60	1783.78
264.81	1669.09
265.03	1738.73
265.25	1746.92
265.46	1742.82
265.68	1722.34
265.89	1800.16
266.11	1638.38
266.33	1751.01
266.54	1767.40
266.76	1724.39
266.98	1718.25
267.19	1736.68
267.41	1740.77
267.62	1699.81
267.84	1599.46
268.06	1763.30
268.27	1748.97
268.49	1765.35
268.70	1755.11
268.92	1722.34
269.14	1642.47
269.35	1548.26
269.57	1716.20
269.79	1781.73
270.00	1742.82
270.22	1746.92
270.43	1630.18
270.65	1617.90
270.87	1705.96
271.08	1718.25
271.30	1744.87
271.51	1755.11
271.73	1726.44
271.95	1804.26
272.16	1689.57
272.38	1728.49
272.59	1720.29
272.81	1732.58
273.02	1685.48
273.24	1746.92
273.46	1714.15
273.67	1615.85
273.89	1646.57
274.10	1634.28
274.32	1703.91
274.54	1677.29
274.75	1679.33
274.97	1658.85
275.18	1705.96
275.40	1665.00
275.61	1703.91
275.83	1689.57
276.05	1589.22
276.26	1683.43
276.48	1679.33
276.69	1667.05
276.91	1675.24
277.12	1796.07
277.34	1716.20
277.55	1853.41
277.77	1687.53
277.99	1656.81
278.20	1683.43
278.42	1650.66
278.63	1652.71
278.85	1609.70
279.06	1673.19
279.28	1671.14
279.49	1718.25
279.71	1773.54
279.93	1650.66
280.14	1697.77
280.36	1644.52
280.57	1765.35
280.79	1708.01
281.00	1599.46
281.22	1697.77
281.43	1726.44
281.65	1628.14
281.86	1546.22
282.08	1820.64
282.29	1783.78
282.51	1695.72
282.73	1667.05
282.94	1654.76
283.16	1800.16
283.37	1710.05
283.59	1722.34
283.80	1701.86
284.02	1697.77
284.23	1716.20
284.45	1675.24
284.66	1558.50
284.88	1636.33
285.09	1673.19
285.31	1748.97
285.52	1730.53
285.74	1634.28
285.95	1771.49
286.17	1757.16
286.38	1757.16
286.60	1576.94
286.81	1667.05
287.03	1658.85
287.24	1687.53
287.46	1755.11
287.67	1708.01
287.89	1824.74
288.10	1683.43
288.32	1693.67
288.53	1861.60
288.75	1701.86
288.96	1751.01
289.18	1718.25
289.39	1607.66
289.61	1699.81
289.82	1800.16
290.04	1800.16
290.25	1665.00
290.47	1677.29
290.68	1724.39
290.90	1685.48
291.11	1626.09
291.33	1746.92
291.54	1660.90
291.76	1640.42
291.97	1714.15
292.18	1724.39
292.40	1619.94
292.61	1722.34
292.83	1877.99
293.04	1763.30
293.26	1710.05
293.47	1726.44
293.69	1665.00
293.90	1738.73
294.12	1771.49
294.33	1732.58
294.55	1738.73
294.76	1767.40
294.97	1759.21
295.19	1880.04
295.40	1669.09
295.62	1755.11
295.83	1775.59
296.05	1683.43
296.26	1746.92
296.48	1669.09
296.69	1755.11
296.90	1714.15
297.12	1685.48
297.33	1773.54
297.55	1691.62
297.76	1716.20
297.98	1777.64
298.19	1624.04
298.41	1689.57
298.62	1640.42
298.83	1816.55
299.05	1785.83
299.26	1695.72
299.48	1681.38
299.69	1779.68
299.90	1748.97
300.12	1683.43
300.33	1849.32
300.55	1656.81
300.76	1773.54
300.98	1695.72
301.19	1755.11
301.40	1705.96
301.62	1675.24
301.83	1703.91
302.05	1785.83
302.26	1755.11
302.47	1683.43
302.69	1535.98
302.90	1714.15
303.12	1535.98
303.33	1783.78
303.54	1779.68
303.76	1703.91
303.97	1734.63
304.19	1771.49
304.40	1583.08
304.61	1691.62
304.83	1824.74
305.04	1714.15
305.26	1720.29
305.47	1759.21
305.68	1730.53
305.90	1703.91
306.11	1712.10
306.33	1667.05
306.54	1693.67
306.75	1705.96
306.97	1617.90
307.18	1730.53
307.39	1652.71
307.61	1667.05
307.82	1697.77
308.04	1732.58
308.25	1677.29
308.46	1744.87
308.68	1701.86
308.89	1697.77
309.10	1808.36
309.32	1787.88
309.53	1730.53
309.74	1705.96
309.96	1636.33
310.17	1791.97
310.39	1734.63
310.60	1695.72
310.81	1716.20
311.03	1667.05
311.24	1722.34
311.45	1757.16
311.67	1806.31
311.88	1718.25
312.09	1634.28
312.31	1665.00
312.52	1732.58
312.73	1730.53
312.95	1687.53
313.16	1722.34
313.37	1814.50
313.59	1681.38
313.80	1748.97
314.01	1755.11
314.23	1621.99
314.44	1593.32
314.65	1675.24
314.87	1654.76
315.08	1714.15
315.29	1665.00
315.51	1595.37
315.72	1642.47
315.93	1837.03
316.15	1718.25
316.36	1652.71
316.57	1681.38
316.79	1787.88
317.00	1662.95
317.21	1775.59
317.43	1628.14
317.64	1791.97
317.85	1613.80
318.07	1703.91
318.28	1759.21
318.49	1812.45
318.70	1906.66
318.92	1791.97
319.13	1804.26
319.34	1865.70
319.56	1783.78
319.77	1806.31
319.98	1726.44
320.20	1812.45
320.41	1765.35
320.62	1621.99
320.83	1652.71
321.05	1802.21
321.26	1722.34
321.47	1705.96
321.69	1804.26
321.90	1646.57
322.11	1640.42
322.32	1718.25
322.54	1748.97
322.75	1619.94
322.96	1845.22
323.18	1644.52
323.39	1603.56
323.60	1671.14
323.81	1787.88
324.03	1642.47
324.24	1734.63
324.45	1712.10
324.66	1671.14
324.88	1742.82
325.09	1912.80
325.30	1783.78
325.52	1734.63
325.73	1755.11
325.94	1638.38
326.15	1624.04
326.37	1636.33
326.58	1732.58
326.79	1781.73
327.00	1656.81
327.22	1658.85
327.43	1705.96
327.64	1697.77
327.85	1685.48
328.07	1771.49
328.28	1853.41
328.49	1597.42
328.70	1753.06
328.92	1765.35
329.13	1746.92
329.34	1783.78
329.55	1787.88
329.76	1791.97
329.98	1699.81
330.19	1744.87
330.40	1656.81
330.61	1591.27
330.83	1771.49
331.04	1720.29
331.25	1740.77
331.46	1650.66
331.68	1624.04
331.89	1791.97
332.10	1714.15
332.31	1662.95
332.52	1691.62
332.74	1806.31
332.95	1628.14
333.16	1783.78
333.37	1691.62
333.58	1654.76
333.80	1665.00
334.01	1613.80
334.22	1673.19
334.43	1662.95
334.64	1658.85
334.86	1656.81
335.07	1648.61
335.28	1775.59
335.49	1656.81
335.70	1669.09
335.92	1765.35
336.13	1820.64
336.34	1722.34
336.55	1726.44
336.76	1687.53
336.98	1687.53
337.19	1701.86
337.40	1796.07
337.61	1869.80
337.82	1769.44
338.04	1767.40
338.25	1650.66
338.46	1632.23
338.67	1601.51
338.88	1669.09
339.09	1611.75
339.31	1675.24
339.52	1675.24
339.73	1611.75
339.94	1716.20
340.15	1689.57
340.36	1722.34
340.58	1734.63
340.79	1632.23
341.00	1787.88
341.21	1648.61
341.42	1771.49
341.63	1712.10
341.85	1761.25
342.06	1765.35
342.27	1722.34
342.48	1691.62
342.69	1636.33
342.90	1673.19
343.12	1763.30
343.33	1689.57
343.54	1730.53
343.75	1822.69
343.96	1669.09
344.17	1662.95
344.38	1718.25
344.60	1658.85
344.81	1665.00
345.02	1736.68
345.23	1753.06
345.44	1798.12
345.65	1771.49
345.86	1685.48
346.07	1648.61
346.29	1642.47
346.50	1718.25
346.71	1658.85
346.92	1755.11
347.13	1767.40
347.34	1630.18
347.55	1753.06
347.76	1746.92
347.98	1683.43
348.19	1675.24
348.40	1775.59
348.61	1640.42
348.82	1880.04
349.03	1759.21
349.24	1642.47
349.45	1785.83
349.66	1576.94
349.88	1621.99
350.09	1697.77
350.30	1810.40
350.51	1787.88
350.72	1714.15
350.93	1705.96
351.14	1593.32
351.35	1787.88
351.56	1718.25
351.77	1656.81
351.99	1656.81
352.20	1814.50
352.41	1724.39
352.62	1644.52
352.83	1730.53
353.04	1734.63
353.25	1705.96
353.46	1787.88
353.67	1732.58
353.88	1513.45
354.09	1730.53
354.30	1695.72
354.52	1740.77
354.73	1736.68
354.94	1720.29
355.15	1744.87
355.36	1808.36
355.57	1654.76
355.78	1669.09
355.99	1619.94
356.20	1685.48
356.41	1716.20
356.62	1615.85
356.83	1710.05
357.04	1738.73
357.25	1562.60
357.46	1689.57
357.68	1613.80
357.89	1636.33
358.10	1699.81
358.31	1699.81
358.52	1685.48
358.73	1628.14
358.94	1646.57
359.15	1689.57
359.36	1722.34
359.57	1716.20
359.78	1722.34
359.99	1763.30
360.20	1574.89
360.41	1691.62
360.62	1724.39
360.83	1705.96
361.04	1634.28
361.25	1734.63
361.46	1714.15
361.67	1787.88
361.88	1699.81
362.09	1748.97
362.30	1693.67
362.51	1759.21
362.72	1671.14
362.93	1722.34
363.14	1789.92
363.35	1742.82
363.56	1607.66
363.78	1837.03
363.99	1798.12
364.20	1648.61
364.41	1724.39
364.62	1783.78
364.83	1656.81
365.04	1761.25
365.25	1685.48
365.46	1816.55
365.67	1679.33
365.88	1640.42
366.09	1714.15
366.30	1665.00
366.51	1751.01
366.72	1669.09
366.93	1665.00
367.14	1748.97
367.35	1759.21
367.56	1710.05
367.77	1771.49
367.98	1636.33
368.18	1708.01
368.39	1765.35
368.60	1626.09
368.81	1697.77
369.02	1705.96
369.23	1718.25
369.44	1574.89
369.65	1632.23
369.86	1787.88
370.07	1742.82
370.28	1681.38
370.49	1763.30
370.70	1708.01
370.91	1646.57
371.12	1615.85
371.33	1759.21
371.54	1701.86
371.75	1742.82
371.96	1515.50
372.17	1705.96
372.38	1732.58
372.59	1665.00
372.80	1679.33
373.01	1714.15
373.22	1714.15
373.43	1734.63
373.64	1673.19
373.85	1746.92
374.06	1830.88
374.26	1712.10
374.47	1681.38
374.68	1767.40
374.89	1677.29
375.10	1779.68
375.31	1773.54
375.52	1667.05
375.73	1708.01
375.94	1597.42
376.15	1746.92
376.36	1628.14
376.57	1724.39
376.78	1730.53
376.99	1683.43
377.20	1753.06
377.40	1632.23
377.61	1757.16
377.82	1685.48
378.03	1794.02
378.24	1787.88
378.45	1703.91
378.66	1697.77
378.87	1665.00
379.08	1648.61
379.29	1695.72
379.50	1791.97
379.71	1681.38
379.91	1777.64
380.12	1648.61
380.33	1697.77
380.54	1685.48
380.75	1689.57
380.96	1667.05
381.17	1765.35
381.38	1761.25
381.59	1789.92
381.80	1650.66
382.00	1882.08
382.21	1767.40
382.42	1843.17
382.63	1931.23
382.84	1757.16
383.05	1785.83
383.26	1843.17
383.47	1714.15
383.68	1734.63
383.88	1748.97
384.09	1720.29
384.30	1771.49
384.51	1730.53
384.72	1710.05
384.93	1660.90
385.14	1748.97
385.35	1705.96
385.55	1662.95
385.76	1740.77
385.97	1640.42
386.18	1722.34
386.39	1671.14
386.60	1673.19
386.81	1693.67
387.02	1650.66
387.22	1652.71
387.43	1777.64
387.64	1771.49
387.85	1845.22
388.06	2123.74
388.27	4325.31
388.48	6764.44
388.68	8320.90
388.89	9621.36
389.10	9740.14
389.31	8537.98
389.52	7540.62
389.73	6590.36
389.93	6393.76
390.14	5873.57
390.35	5226.42
390.56	4556.73
390.77	3819.46
390.98	2975.70
391.18	2486.23
391.39	2117.60
391.60	1742.82
391.81	1837.03
392.02	1718.25
392.23	1894.37
392.43	1691.62
392.64	1724.39
392.85	1681.38
393.06	1767.40
393.27	1720.29
393.47	1570.79
393.68	1755.11
393.89	1740.77
394.10	1804.26
394.31	1681.38
394.52	1656.81
394.72	1687.53
394.93	1787.88
395.14	1671.14
395.35	1742.82
395.56	1691.62
395.76	1687.53
395.97	1837.03
396.18	1853.41
396.39	1865.70
396.60	2039.78
396.80	1892.32
397.01	1787.88
397.22	1800.16
397.43	1845.22
397.64	1789.92
397.84	1820.64
398.05	1851.36
398.26	1732.58
398.47	1837.03
398.67	1777.64
398.88	1675.24
399.09	1718.25
399.30	1679.33
399.51	1783.78
399.71	1640.42
399.92	1718.25
400.13	1779.68
400.34	1683.43
400.54	1624.04
400.75	1757.16
400.96	1710.05
401.17	1742.82
401.37	1710.05
401.58	1726.44
401.79	1679.33
402.00	1888.23
402.21	2000.87
402.41	1996.77
402.62	2013.15
402.83	2027.49
403.04	1974.24
403.24	2045.92
403.45	1804.26
403.66	1822.69
403.87	1861.60
404.07	1849.32
404.28	1896.42
404.49	1863.65
404.70	1814.50
404.90	1804.26
405.11	1763.30
405.32	1705.96
405.52	1660.90
405.73	1632.23
405.94	1677.29
406.15	1708.01
406.35	1734.63
406.56	1724.39
406.77	1697.77
406.98	1658.85
407.18	1640.42
407.39	1712.10
407.60	1656.81
407.80	1677.29
408.01	1722.34
408.22	1759.21
408.43	1748.97
408.63	1738.73
408.84	1767.40
409.05	1763.30
409.25	1609.70
409.46	1648.61
409.67	1673.19
409.88	1671.14
410.08	1738.73
410.29	1699.81
410.50	1681.38
410.70	1697.77
410.91	1656.81
411.12	1636.33
411.32	1656.81
411.53	1658.85
411.74	1693.67
411.95	1769.44
412.15	1708.01
412.36	1710.05
412.57	1722.34
412.77	1794.02
412.98	1761.25
413.19	1673.19
413.39	1759.21
413.60	1802.21
413.81	1806.31
414.01	1705.96
414.22	1744.87
414.43	1718.25
414.63	1679.33
414.84	1783.78
415.05	1751.01
415.25	1626.09
415.46	1710.05
415.67	1681.38
415.87	1726.44
416.08	1669.09
416.29	1683.43
416.49	1699.81
416.70	1732.58
416.91	1665.00
417.11	1710.05
417.32	1724.39
417.53	1734.63
417.73	1714.15
417.94	1693.67
418.15	1701.86
418.35	1697.77
418.56	1734.63
418.77	1826.79
418.97	1789.92
419.18	1611.75
419.38	1718.25
419.59	1708.01
419.80	1798.12
420.00	1730.53
420.21	1691.62
420.42	1775.59
420.62	1697.77
420.83	1646.57
421.04	1652.71
421.24	1603.56
421.45	1773.54
421.65	1718.25
421.86	1789.92
422.07	1767.40
422.27	1667.05
422.48	1734.63
422.69	1685.48
422.89	1613.80
423.10	1705.96
423.30	1671.14
423.51	1724.39
423.72	1771.49
423.92	1808.36
424.13	1703.91
424.33	1769.44
424.54	1708.01
424.75	1689.57
424.95	1855.46
425.16	1751.01
425.36	1736.68
425.57	1779.68
425.78	1691.62
425.98	1669.09
426.19	1712.10
426.39	1578.98
426.60	1757.16
426.81	1781.73
427.01	1724.39
427.22	1654.76
427.42	1619.94
427.63	1605.61
427.83	1769.44
428.04	1765.35
428.25	1806.31
428.45	1732.58
428.66	1757.16
428.86	1685.48
429.07	1681.38
429.28	1773.54
429.48	1665.00
429.69	1595.37
429.89	1755.11
430.10	1646.57
430.30	1753.06
430.51	1820.64
430.71	1708.01
430.92	1710.05
431.13	1796.07
431.33	1728.49
431.54	1689.57
431.74	1763.30
431.95	1804.26
432.15	1695.72
432.36	1755.11
432.56	1705.96
432.77	1810.40
432.98	1787.88
433.18	1718.25
433.39	1753.06
433.59	1689.57
433.80	1824.74
434.00	1867.75
434.21	1724.39
434.41	1630.18
434.62	1888.23
434.82	1656.81
435.03	1751.01
435.23	1736.68
435.44	1673.19
435.64	1738.73
435.85	1705.96
436.06	1787.88
436.26	1736.68
436.47	1687.53
436.67	1646.57
436.88	1726.44
437.08	1720.29
437.29	1816.55
437.49	1697.77
437.70	1767.40
437.90	1736.68
438.11	1810.40
438.31	1740.77
438.52	1832.93
438.72	1869.80
438.93	1937.38
439.13	1730.53
439.34	1884.13
439.54	1763.30
439.75	1865.70
439.95	1832.93
440.16	1697.77
440.36	1646.57
440.57	1779.68
440.77	1779.68
440.98	1746.92
441.18	1810.40
441.39	1660.90
441.59	1626.09
441.80	1822.69
442.00	1781.73
442.21	1902.56
442.41	1624.04
442.62	1753.06
442.82	1646.57
443.02	1742.82
443.23	1796.07
443.43	1738.73
443.64	1802.21
443.84	1685.48
444.05	1832.93
444.25	1740.77
444.46	1699.81
444.66	1798.12
444.87	1742.82
445.07	1648.61
445.28	1718.25
445.48	1771.49
445.69	1732.58
445.89	1890.28
446.09	1757.16
446.30	2045.92
446.50	2705.37
446.71	3733.45
446.91	4278.21
447.12	4847.54
447.32	4794.29
447.53	4310.97
447.73	3854.28
447.93	3518.41
448.14	3311.57
448.34	3168.21
448.55	2852.82
448.75	2908.12
448.96	2717.65
449.16	2353.12
449.36	2234.33
449.57	2047.97
449.77	1877.99
449.98	1767.40
450.18	1841.12
450.39	1837.03
450.59	1763.30
450.79	1837.03
451.00	1683.43
451.20	1691.62
451.41	1751.01
451.61	1818.60
451.81	1732.58
452.02	1656.81
452.22	1679.33
452.43	1742.82
452.63	1802.21
