SpectraSuite Data File
++++++++++++++++++++++++++++++++++++
Date: Mon Jun 06 12:57:17 CEST 2016
User: root
Dark Spectrum Present: No
Reference Spectrum Present: No
Number of Sampled Component Spectra: 1
Spectrometers: USB4C02835
Integration Time (usec): 100000 (USB4C02835)
Spectra Averaged: 1 (USB4C02835)
Boxcar Smoothing: 0 (USB4C02835)
Correct for Electrical Dark: No (USB4C02835)
Strobe/Lamp Enabled: No (USB4C02835)
Correct for Detector Non-linearity: No (USB4C02835)
Correct for Stray Light: No (USB4C02835)
Number of Pixels in Processed Spectrum: 3648
>>>>>Begin Processed Spectral Data<<<<<
177.47	1411.05
177.69	1411.05
177.91	1411.05
178.13	1474.54
178.36	1503.21
178.58	1683.43
178.80	1765.35
179.02	1658.85
179.24	1654.76
179.46	1654.76
179.68	1675.24
179.90	1714.15
180.13	1691.62
180.35	1699.81
180.57	1673.19
180.79	1755.11
181.01	1697.77
181.23	1742.82
181.45	1759.21
181.67	1751.01
181.90	1730.53
182.12	1687.53
182.34	1632.23
182.56	1736.68
182.78	1726.44
183.00	1660.90
183.22	1757.16
183.44	1593.32
183.66	1740.77
183.89	1818.60
184.11	1683.43
184.33	1710.05
184.55	1736.68
184.77	1669.09
184.99	1765.35
185.21	1722.34
185.43	1751.01
185.65	1662.95
185.87	1695.72
186.10	1751.01
186.32	1728.49
186.54	1755.11
186.76	1652.71
186.98	1699.81
187.20	1746.92
187.42	1705.96
187.64	1724.39
187.86	1648.61
188.08	1755.11
188.30	1656.81
188.52	1701.86
188.75	1759.21
188.97	1771.49
189.19	1703.91
189.41	1708.01
189.63	1712.10
189.85	1658.85
190.07	1621.99
190.29	1574.89
190.51	1755.11
190.73	1556.46
190.95	1689.57
191.17	1667.05
191.39	1632.23
191.61	1720.29
191.84	1697.77
192.06	1681.38
192.28	1621.99
192.50	1851.36
192.72	1783.78
192.94	1673.19
193.16	1693.67
193.38	1720.29
193.60	1656.81
193.82	1683.43
194.04	1726.44
194.26	1685.48
194.48	1636.33
194.70	1730.53
194.92	1714.15
195.14	1755.11
195.36	1720.29
195.58	1738.73
195.80	1720.29
196.02	1675.24
196.24	1712.10
196.46	1714.15
196.69	1636.33
196.91	1871.84
197.13	1669.09
197.35	1673.19
197.57	1746.92
197.79	1722.34
198.01	1771.49
198.23	1710.05
198.45	1679.33
198.67	1640.42
198.89	1669.09
199.11	1769.44
199.33	1599.46
199.55	1599.46
199.77	1693.67
199.99	1751.01
200.21	1699.81
200.43	1652.71
200.65	1609.70
200.87	1562.60
201.09	1714.15
201.31	1714.15
201.53	1689.57
201.75	1701.86
201.97	1757.16
202.19	1714.15
202.41	1726.44
202.63	1808.36
202.85	1773.54
203.07	1740.77
203.29	1742.82
203.51	1642.47
203.73	1589.22
203.95	1847.27
204.17	1712.10
204.39	1708.01
204.61	1746.92
204.83	1751.01
205.05	1675.24
205.27	1722.34
205.49	1837.03
205.71	1658.85
205.93	1695.72
206.15	1642.47
206.37	1667.05
206.59	1656.81
206.81	1628.14
207.03	1642.47
207.25	1546.22
207.47	1710.05
207.69	1673.19
207.91	1880.04
208.13	1773.54
208.34	1714.15
208.56	1697.77
208.78	1687.53
209.00	1697.77
209.22	1687.53
209.44	1673.19
209.66	1679.33
209.88	1595.37
210.10	1683.43
210.32	1705.96
210.54	1769.44
210.76	1679.33
210.98	1697.77
211.20	1574.89
211.42	1716.20
211.64	1718.25
211.86	1775.59
212.08	1746.92
212.30	1689.57
212.52	1679.33
212.74	1656.81
212.96	1677.29
213.17	1794.02
213.39	1697.77
213.61	1771.49
213.83	1662.95
214.05	1669.09
214.27	1765.35
214.49	1669.09
214.71	1628.14
214.93	1769.44
215.15	1675.24
215.37	1708.01
215.59	1570.79
215.81	1710.05
216.03	1685.48
216.24	1722.34
216.46	1656.81
216.68	1695.72
216.90	1748.97
217.12	1732.58
217.34	1779.68
217.56	1685.48
217.78	1705.96
218.00	1722.34
218.22	1687.53
218.44	1730.53
218.66	1730.53
218.87	1773.54
219.09	1652.71
219.31	1675.24
219.53	1736.68
219.75	1660.90
219.97	1632.23
220.19	1755.11
220.41	1609.70
220.63	1738.73
220.85	1773.54
221.06	1681.38
221.28	1755.11
221.50	1689.57
221.72	1748.97
221.94	1667.05
222.16	1646.57
222.38	1685.48
222.60	1644.52
222.82	1701.86
223.03	1751.01
223.25	1632.23
223.47	1751.01
223.69	1798.12
223.91	1722.34
224.13	1693.67
224.35	1609.70
224.57	1775.59
224.78	1753.06
225.00	1669.09
225.22	1669.09
225.44	1691.62
225.66	1716.20
225.88	1685.48
226.10	1812.45
226.32	1849.32
226.53	1802.21
226.75	1667.05
226.97	1691.62
227.19	1689.57
227.41	1677.29
227.63	1673.19
227.85	1611.75
228.06	1714.15
228.28	1738.73
228.50	1724.39
228.72	1708.01
228.94	1652.71
229.16	1665.00
229.37	1638.38
229.59	1716.20
229.81	1734.63
230.03	1656.81
230.25	1607.66
230.47	1632.23
230.69	1624.04
230.90	1808.36
231.12	1611.75
231.34	1683.43
231.56	1755.11
231.78	1644.52
232.00	1722.34
232.21	1796.07
232.43	1652.71
232.65	1574.89
232.87	1722.34
233.09	1648.61
233.30	1652.71
233.52	1755.11
233.74	1669.09
233.96	1693.67
234.18	1718.25
234.40	1722.34
234.61	1794.02
234.83	1613.80
235.05	1658.85
235.27	1816.55
235.49	1781.73
235.70	1710.05
235.92	1726.44
236.14	1658.85
236.36	1816.55
236.58	1572.84
236.79	1703.91
237.01	1681.38
237.23	1736.68
237.45	1746.92
237.67	1673.19
237.88	1724.39
238.10	1800.16
238.32	1638.38
238.54	1732.58
238.76	1742.82
238.97	1603.56
239.19	1667.05
239.41	1757.16
239.63	1691.62
239.85	1679.33
240.06	1773.54
240.28	1736.68
240.50	1724.39
240.72	1736.68
240.93	1611.75
241.15	1730.53
241.37	1783.78
241.59	1708.01
241.81	1738.73
242.02	1755.11
242.24	1660.90
242.46	1710.05
242.68	1624.04
242.89	1671.14
243.11	1822.69
243.33	1669.09
243.55	1636.33
243.76	1746.92
243.98	1654.76
244.20	1599.46
244.42	1656.81
244.64	1798.12
244.85	1691.62
245.07	1628.14
245.29	1716.20
245.51	1636.33
245.72	1773.54
245.94	1691.62
246.16	1677.29
246.38	1724.39
246.59	1638.38
246.81	1652.71
247.03	1617.90
247.24	1650.66
247.46	1687.53
247.68	1730.53
247.90	1660.90
248.11	1712.10
248.33	1679.33
248.55	1679.33
248.77	1667.05
248.98	1755.11
249.20	1796.07
249.42	1689.57
249.64	1683.43
249.85	1744.87
250.07	1710.05
250.29	1724.39
250.50	1796.07
250.72	1665.00
250.94	1748.97
251.16	1841.12
251.37	1769.44
251.59	1732.58
251.81	1748.97
252.02	1791.97
252.24	1691.62
252.46	1812.45
252.68	1644.52
252.89	1691.62
253.11	1640.42
253.33	1791.97
253.54	1832.93
253.76	1660.90
253.98	1669.09
254.20	1628.14
254.41	1583.08
254.63	1691.62
254.85	1599.46
255.06	1712.10
255.28	1673.19
255.50	1695.72
255.71	1705.96
255.93	1648.61
256.15	1669.09
256.36	1689.57
256.58	1621.99
256.80	1773.54
257.02	1587.18
257.23	1699.81
257.45	1691.62
257.67	1746.92
257.88	1775.59
258.10	1708.01
258.32	1716.20
258.53	1722.34
258.75	1798.12
258.97	1683.43
259.18	1789.92
259.40	1605.61
259.62	1759.21
259.83	1726.44
260.05	1673.19
260.27	2039.78
260.48	1783.78
260.70	1617.90
260.92	1691.62
261.13	1669.09
261.35	1691.62
261.57	1765.35
261.78	1626.09
262.00	1695.72
262.22	1634.28
262.43	1640.42
262.65	1673.19
262.86	1722.34
263.08	1794.02
263.30	1681.38
263.51	1566.70
263.73	1697.77
263.95	1761.25
264.16	1667.05
264.38	1697.77
264.60	1814.50
264.81	1669.09
265.03	1712.10
265.25	1800.16
265.46	1701.86
265.68	1720.29
265.89	1728.49
266.11	1665.00
266.33	1767.40
266.54	1748.97
266.76	1732.58
266.98	1708.01
267.19	1796.07
267.41	1751.01
267.62	1685.48
267.84	1626.09
268.06	1677.29
268.27	1683.43
268.49	1789.92
268.70	1734.63
268.92	1656.81
269.14	1656.81
269.35	1538.02
269.57	1667.05
269.79	1669.09
270.00	1693.67
270.22	1732.58
270.43	1665.00
270.65	1619.94
270.87	1732.58
271.08	1687.53
271.30	1775.59
271.51	1710.05
271.73	1650.66
271.95	1806.31
272.16	1693.67
272.38	1681.38
272.59	1705.96
272.81	1689.57
273.02	1736.68
273.24	1652.71
273.46	1705.96
273.67	1654.76
273.89	1607.66
274.10	1615.85
274.32	1757.16
274.54	1650.66
274.75	1689.57
274.97	1683.43
275.18	1796.07
275.40	1681.38
275.61	1677.29
275.83	1740.77
276.05	1699.81
276.26	1660.90
276.48	1716.20
276.69	1615.85
276.91	1648.61
277.12	1736.68
277.34	1767.40
277.55	1785.83
277.77	1667.05
277.99	1652.71
278.20	1624.04
278.42	1624.04
278.63	1640.42
278.85	1634.28
279.06	1693.67
279.28	1658.85
279.49	1742.82
279.71	1705.96
279.93	1665.00
280.14	1718.25
280.36	1712.10
280.57	1755.11
280.79	1783.78
281.00	1609.70
281.22	1671.14
281.43	1697.77
281.65	1617.90
281.86	1642.47
282.08	1636.33
282.29	1787.88
282.51	1632.23
282.73	1603.56
282.94	1630.18
283.16	1779.68
283.37	1800.16
283.59	1703.91
283.80	1714.15
284.02	1626.09
284.23	1742.82
284.45	1621.99
284.66	1583.08
284.88	1675.24
285.09	1734.63
285.31	1757.16
285.52	1689.57
285.74	1546.22
285.95	1708.01
286.17	1712.10
286.38	1796.07
286.60	1675.24
286.81	1701.86
287.03	1687.53
287.24	1689.57
287.46	1830.88
287.67	1697.77
287.89	1734.63
288.10	1652.71
288.32	1677.29
288.53	1720.29
288.75	1697.77
288.96	1689.57
289.18	1634.28
289.39	1648.61
289.61	1791.97
289.82	1732.58
290.04	1751.01
290.25	1611.75
290.47	1691.62
290.68	1667.05
290.90	1771.49
291.11	1650.66
291.33	1763.30
291.54	1644.52
291.76	1632.23
291.97	1699.81
292.18	1683.43
292.40	1650.66
292.61	1642.47
292.83	1849.32
293.04	1763.30
293.26	1771.49
293.47	1695.72
293.69	1648.61
293.90	1744.87
294.12	1726.44
294.33	1699.81
294.55	1689.57
294.76	1693.67
294.97	1755.11
295.19	1800.16
295.40	1648.61
295.62	1734.63
295.83	1751.01
296.05	1738.73
296.26	1812.45
296.48	1667.05
296.69	1697.77
296.90	1751.01
297.12	1736.68
297.33	1753.06
297.55	1677.29
297.76	1722.34
297.98	1703.91
298.19	1632.23
298.41	1742.82
298.62	1611.75
298.83	1775.59
299.05	1722.34
299.26	1689.57
299.48	1658.85
299.69	1650.66
299.90	1669.09
300.12	1626.09
300.33	1789.92
300.55	1652.71
300.76	1740.77
300.98	1640.42
301.19	1789.92
301.40	1753.06
301.62	1703.91
301.83	1654.76
302.05	1671.14
302.26	1767.40
302.47	1693.67
302.69	1683.43
302.90	1679.33
303.12	1550.31
303.33	1665.00
303.54	1796.07
303.76	1759.21
303.97	1726.44
304.19	1763.30
304.40	1732.58
304.61	1679.33
304.83	1763.30
305.04	1703.91
305.26	1699.81
305.47	1648.61
305.68	1693.67
305.90	1636.33
306.11	1753.06
306.33	1689.57
306.54	1646.57
306.75	1603.56
306.97	1658.85
307.18	1648.61
307.39	1613.80
307.61	1763.30
307.82	1728.49
308.04	1718.25
308.25	1697.77
308.46	1705.96
308.68	1638.38
308.89	1746.92
309.10	1832.93
309.32	1718.25
309.53	1695.72
309.74	1746.92
309.96	1658.85
310.17	1796.07
310.39	1665.00
310.60	1710.05
310.81	1697.77
311.03	1685.48
311.24	1728.49
311.45	1685.48
311.67	1857.51
311.88	1720.29
312.09	1615.85
312.31	1689.57
312.52	1667.05
312.73	1710.05
312.95	1638.38
313.16	1705.96
313.37	1837.03
313.59	1697.77
313.80	1753.06
314.01	1787.88
314.23	1732.58
314.44	1665.00
314.65	1609.70
314.87	1662.95
315.08	1656.81
315.29	1683.43
315.51	1636.33
315.72	1652.71
315.93	1804.26
316.15	1765.35
316.36	1681.38
316.57	1703.91
316.79	1814.50
317.00	1656.81
317.21	1712.10
317.43	1593.32
317.64	1683.43
317.85	1705.96
318.07	1667.05
318.28	1714.15
318.49	1886.18
318.70	1875.94
318.92	1798.12
319.13	1794.02
319.34	1839.08
319.56	1816.55
319.77	1714.15
319.98	1736.68
320.20	1744.87
320.41	1654.76
320.62	1800.16
320.83	1689.57
321.05	1857.51
321.26	1759.21
321.47	1726.44
321.69	1732.58
321.90	1652.71
322.11	1665.00
322.32	1710.05
322.54	1748.97
322.75	1642.47
322.96	1820.64
323.18	1656.81
323.39	1591.27
323.60	1669.09
323.81	1751.01
324.03	1650.66
324.24	1724.39
324.45	1734.63
324.66	1693.67
324.88	1812.45
325.09	1757.16
325.30	1658.85
325.52	1710.05
325.73	1675.24
325.94	1605.61
326.15	1556.46
326.37	1703.91
326.58	1777.64
326.79	1761.25
327.00	1636.33
327.22	1699.81
327.43	1611.75
327.64	1652.71
327.85	1746.92
328.07	1757.16
328.28	1765.35
328.49	1654.76
328.70	1734.63
328.92	1701.86
329.13	1734.63
329.34	1722.34
329.55	1890.28
329.76	1708.01
329.98	1710.05
330.19	1832.93
330.40	1720.29
330.61	1705.96
330.83	1740.77
331.04	1652.71
331.25	1705.96
331.46	1685.48
331.68	1660.90
331.89	1767.40
332.10	1708.01
332.31	1671.14
332.52	1603.56
332.74	1796.07
332.95	1640.42
333.16	1687.53
333.37	1693.67
333.58	1667.05
333.80	1660.90
334.01	1634.28
334.22	1701.86
334.43	1675.24
334.64	1685.48
334.86	1654.76
335.07	1601.51
335.28	1744.87
335.49	1640.42
335.70	1755.11
335.92	1791.97
336.13	1837.03
336.34	1728.49
336.55	1689.57
336.76	1763.30
336.98	1607.66
337.19	1683.43
337.40	1767.40
337.61	1808.36
337.82	1648.61
338.04	1781.73
338.25	1617.90
338.46	1718.25
338.67	1630.18
338.88	1763.30
339.09	1636.33
339.31	1730.53
339.52	1626.09
339.73	1726.44
339.94	1816.55
340.15	1701.86
340.36	1679.33
340.58	1708.01
340.79	1718.25
341.00	1697.77
341.21	1607.66
341.42	1890.28
341.63	1697.77
341.85	1759.21
342.06	1757.16
342.27	1617.90
342.48	1765.35
342.69	1593.32
342.90	1695.72
343.12	1734.63
343.33	1738.73
343.54	1726.44
343.75	1773.54
343.96	1691.62
344.17	1691.62
344.38	1740.77
344.60	1662.95
344.81	1656.81
345.02	1689.57
345.23	1800.16
345.44	1861.60
345.65	1742.82
345.86	1757.16
346.07	1634.28
346.29	1667.05
346.50	1763.30
346.71	1763.30
346.92	1947.62
347.13	1789.92
347.34	1710.05
347.55	1689.57
347.76	1570.79
347.98	1656.81
348.19	1671.14
348.40	1732.58
348.61	1695.72
348.82	1763.30
349.03	1806.31
349.24	1626.09
349.45	1775.59
349.66	1607.66
349.88	1677.29
350.09	1736.68
350.30	1751.01
350.51	1722.34
350.72	1679.33
350.93	1714.15
351.14	1658.85
351.35	1732.58
351.56	1714.15
351.77	1660.90
351.99	1773.54
352.20	1837.03
352.41	1777.64
352.62	1654.76
352.83	1665.00
353.04	1732.58
353.25	1669.09
353.46	1779.68
353.67	1740.77
353.88	1570.79
354.09	1669.09
354.30	1609.70
354.52	1755.11
354.73	1599.46
354.94	1658.85
355.15	1710.05
355.36	1818.60
355.57	1644.52
355.78	1691.62
355.99	1679.33
356.20	1626.09
356.41	1730.53
356.62	1671.14
356.83	1665.00
357.04	1818.60
357.25	1617.90
357.46	1673.19
357.68	1624.04
357.89	1585.13
358.10	1683.43
358.31	1679.33
358.52	1712.10
358.73	1687.53
358.94	1685.48
359.15	1697.77
359.36	1708.01
359.57	1697.77
359.78	1712.10
359.99	1724.39
360.20	1654.76
360.41	1718.25
360.62	1775.59
360.83	1673.19
361.04	1740.77
361.25	1738.73
361.46	1794.02
361.67	1708.01
361.88	1679.33
362.09	1771.49
362.30	1681.38
362.51	1681.38
362.72	1742.82
362.93	1794.02
363.14	1730.53
363.35	1701.86
363.56	1736.68
363.78	1777.64
363.99	1746.92
364.20	1665.00
364.41	1738.73
364.62	1869.80
364.83	1677.29
365.04	1595.37
365.25	1753.06
365.46	1787.88
365.67	1640.42
365.88	1619.94
366.09	1607.66
366.30	1734.63
366.51	1691.62
366.72	1605.61
366.93	1656.81
367.14	1787.88
367.35	1716.20
367.56	1730.53
367.77	1681.38
367.98	1734.63
368.18	1736.68
368.39	1755.11
368.60	1644.52
368.81	1742.82
369.02	1695.72
369.23	1652.71
369.44	1593.32
369.65	1630.18
369.86	1677.29
370.07	1722.34
370.28	1652.71
370.49	1710.05
370.70	1740.77
370.91	1650.66
371.12	1646.57
371.33	1722.34
371.54	1578.98
371.75	1863.65
371.96	1634.28
372.17	1779.68
372.38	1703.91
372.59	1816.55
372.80	1652.71
373.01	1718.25
373.22	1681.38
373.43	1722.34
373.64	1624.04
373.85	1777.64
374.06	1708.01
374.26	1773.54
374.47	1810.40
374.68	1855.46
374.89	1818.60
375.10	1660.90
375.31	1738.73
375.52	1761.25
375.73	1693.67
375.94	1671.14
376.15	1814.50
376.36	1628.14
376.57	1720.29
376.78	1673.19
376.99	1763.30
377.20	1685.48
377.40	1660.90
377.61	1804.26
377.82	1615.85
378.03	1781.73
378.24	1734.63
378.45	1755.11
378.66	1677.29
378.87	1667.05
379.08	1601.51
379.29	1759.21
379.50	1773.54
379.71	1605.61
379.91	1753.06
380.12	1703.91
380.33	1665.00
380.54	1677.29
380.75	1685.48
380.96	1644.52
381.17	1751.01
381.38	1718.25
381.59	1695.72
381.80	1710.05
382.00	1765.35
382.21	1736.68
382.42	1841.12
382.63	1867.75
382.84	1779.68
383.05	1785.83
383.26	1828.84
383.47	1810.40
383.68	1689.57
383.88	1697.77
384.09	1746.92
384.30	1779.68
384.51	1824.74
384.72	1644.52
384.93	1642.47
385.14	1667.05
385.35	1804.26
385.55	1652.71
385.76	1728.49
385.97	1677.29
386.18	1621.99
386.39	1667.05
386.60	1646.57
386.81	1708.01
387.02	1626.09
387.22	1701.86
387.43	1746.92
387.64	1732.58
387.85	1898.47
388.06	2211.81
388.27	4382.65
388.48	6829.98
388.68	8130.44
388.89	9699.18
389.10	9842.54
389.31	8576.89
389.52	7661.45
389.73	6694.81
389.93	6260.64
390.14	5830.57
390.35	5203.89
390.56	4685.75
390.77	3839.94
390.98	3012.56
391.18	2553.82
391.39	2090.98
391.60	1814.50
391.81	1742.82
392.02	1783.78
392.23	1824.74
392.43	1646.57
392.64	1759.21
392.85	1722.34
393.06	1769.44
393.27	1708.01
393.47	1615.85
393.68	1798.12
393.89	1660.90
394.10	1789.92
394.31	1656.81
394.52	1619.94
394.72	1642.47
394.93	1796.07
395.14	1667.05
395.35	1773.54
395.56	1638.38
395.76	1773.54
395.97	1812.45
396.18	1798.12
396.39	1789.92
396.60	2041.82
396.80	1877.99
397.01	1853.41
397.22	1861.60
397.43	1865.70
397.64	1685.48
397.84	1837.03
398.05	1769.44
398.26	1722.34
398.47	1771.49
398.67	1765.35
398.88	1738.73
399.09	1746.92
399.30	1701.86
399.51	1695.72
399.71	1669.09
399.92	1710.05
400.13	1687.53
400.34	1646.57
400.54	1677.29
400.75	1880.04
400.96	1746.92
401.17	1841.12
401.37	1738.73
401.58	1652.71
401.79	1662.95
402.00	1832.93
402.21	1961.95
402.41	1920.99
402.62	1968.10
402.83	2056.16
403.04	1957.86
403.24	2062.30
403.45	1873.89
403.66	1939.43
403.87	1931.23
404.07	1896.42
404.28	1869.80
404.49	1933.28
404.70	1763.30
404.90	1794.02
405.11	1693.67
405.32	1667.05
405.52	1730.53
405.73	1667.05
405.94	1667.05
406.15	1662.95
406.35	1652.71
406.56	1751.01
406.77	1734.63
406.98	1761.25
407.18	1716.20
407.39	1816.55
407.60	1716.20
407.80	1734.63
408.01	1656.81
408.22	1722.34
408.43	1634.28
408.63	1759.21
408.84	1777.64
409.05	1746.92
409.25	1697.77
409.46	1619.94
409.67	1695.72
409.88	1650.66
410.08	1734.63
410.29	1585.13
410.50	1744.87
410.70	1746.92
410.91	1574.89
411.12	1734.63
411.32	1667.05
411.53	1710.05
411.74	1816.55
411.95	1767.40
412.15	1751.01
412.36	1757.16
412.57	1718.25
412.77	1695.72
412.98	1761.25
413.19	1705.96
413.39	1718.25
413.60	1773.54
413.81	1751.01
414.01	1718.25
414.22	1693.67
414.43	1757.16
414.63	1769.44
414.84	1787.88
415.05	1646.57
415.25	1644.52
415.46	1722.34
415.67	1669.09
415.87	1765.35
416.08	1691.62
416.29	1658.85
416.49	1761.25
416.70	1660.90
416.91	1708.01
417.11	1708.01
417.32	1751.01
417.53	1808.36
417.73	1763.30
417.94	1644.52
418.15	1695.72
418.35	1722.34
418.56	1712.10
418.77	1828.84
418.97	1708.01
419.18	1748.97
419.38	1505.26
419.59	1650.66
419.80	1837.03
420.00	1685.48
420.21	1720.29
420.42	1701.86
420.62	1671.14
420.83	1669.09
421.04	1724.39
421.24	1697.77
421.45	1787.88
421.65	1675.24
421.86	1679.33
422.07	1769.44
422.27	1761.25
422.48	1708.01
422.69	1636.33
422.89	1742.82
423.10	1701.86
423.30	1587.18
423.51	1724.39
423.72	1767.40
423.92	1746.92
424.13	1675.24
424.33	1732.58
424.54	1738.73
424.75	1724.39
424.95	1744.87
425.16	1730.53
425.36	1703.91
425.57	1697.77
425.78	1851.36
425.98	1714.15
426.19	1681.38
426.39	1703.91
426.60	1679.33
426.81	1783.78
427.01	1746.92
427.22	1724.39
427.42	1597.42
427.63	1685.48
427.83	1814.50
428.04	1794.02
428.25	1708.01
428.45	1705.96
428.66	1753.06
428.86	1732.58
429.07	1746.92
429.28	1705.96
429.48	1730.53
429.69	1644.52
429.89	1705.96
430.10	1632.23
430.30	1736.68
430.51	1781.73
430.71	1650.66
430.92	1671.14
431.13	1730.53
431.33	1691.62
431.54	1845.22
431.74	1742.82
431.95	1816.55
432.15	1669.09
432.36	1751.01
432.56	1777.64
432.77	1712.10
432.98	1783.78
433.18	1738.73
433.39	1667.05
433.59	1710.05
433.80	1787.88
434.00	1810.40
434.21	1677.29
434.41	1687.53
434.62	1804.26
434.82	1644.52
435.03	1730.53
435.23	1746.92
435.44	1652.71
435.64	1740.77
435.85	1759.21
436.06	1730.53
436.26	1804.26
436.47	1669.09
436.67	1724.39
436.88	1697.77
437.08	1708.01
437.29	1863.65
437.49	1703.91
437.70	1710.05
437.90	1730.53
438.11	1814.50
438.31	1828.84
438.52	1837.03
438.72	1785.83
438.93	1904.61
439.13	1740.77
439.34	1806.31
439.54	1634.28
439.75	1808.36
439.95	1826.79
440.16	1718.25
440.36	1751.01
440.57	1755.11
440.77	1751.01
440.98	1759.21
441.18	1771.49
441.39	1777.64
441.59	1583.08
441.80	1751.01
442.00	1720.29
442.21	1851.36
442.41	1652.71
442.62	1775.59
442.82	1662.95
443.02	1724.39
443.23	1812.45
443.43	1759.21
443.64	1810.40
443.84	1773.54
444.05	1853.41
444.25	1689.57
444.46	1683.43
444.66	1648.61
444.87	1812.45
445.07	1650.66
445.28	1802.21
445.48	1814.50
445.69	1779.68
445.89	1937.38
446.09	1773.54
446.30	1990.63
446.50	2592.73
446.71	3612.62
446.91	4351.93
447.12	4810.68
447.32	4741.05
447.53	4341.69
447.73	3766.21
447.93	3442.64
448.14	3293.13
448.34	3258.32
448.55	2865.11
448.75	2844.63
448.96	2705.37
449.16	2469.85
449.36	2271.20
449.57	2052.06
449.77	1877.99
449.98	1916.90
450.18	1820.64
450.39	1841.12
450.59	1775.59
450.79	1822.69
451.00	1742.82
451.20	1746.92
451.41	1701.86
451.61	1763.30
451.81	1722.34
452.02	1716.20
452.22	1730.53
452.43	1767.40
452.63	1714.15
