SpectraSuite Data File
++++++++++++++++++++++++++++++++++++
Date: Mon Jun 06 14:28:57 CEST 2016
User: root
Dark Spectrum Present: No
Reference Spectrum Present: No
Number of Sampled Component Spectra: 1
Spectrometers: USB4C02835
Integration Time (usec): 100000 (USB4C02835)
Spectra Averaged: 1 (USB4C02835)
Boxcar Smoothing: 0 (USB4C02835)
Correct for Electrical Dark: No (USB4C02835)
Strobe/Lamp Enabled: No (USB4C02835)
Correct for Detector Non-linearity: No (USB4C02835)
Correct for Stray Light: No (USB4C02835)
Number of Pixels in Processed Spectrum: 3648
>>>>>Begin Processed Spectral Data<<<<<
177.47	1509.35
177.69	1509.35
177.91	1509.35
178.13	1497.07
178.36	1425.39
178.58	1671.14
178.80	1716.20
179.02	1646.57
179.24	1714.15
179.46	1656.81
179.68	1726.44
179.90	1679.33
180.13	1710.05
180.35	1671.14
180.57	1718.25
180.79	1781.73
181.01	1673.19
181.23	1832.93
181.45	1732.58
181.67	1728.49
181.90	1757.16
182.12	1710.05
182.34	1632.23
182.56	1714.15
182.78	1736.68
183.00	1728.49
183.22	1755.11
183.44	1681.38
183.66	1755.11
183.89	1718.25
184.11	1751.01
184.33	1742.82
184.55	1734.63
184.77	1695.72
184.99	1775.59
185.21	1597.42
185.43	1779.68
185.65	1673.19
185.87	1716.20
186.10	1785.83
186.32	1861.60
186.54	1714.15
186.76	1701.86
186.98	1746.92
187.20	1671.14
187.42	1710.05
187.64	1642.47
187.86	1669.09
188.08	1746.92
188.30	1583.08
188.52	1742.82
188.75	1705.96
188.97	1767.40
189.19	1673.19
189.41	1685.48
189.63	1681.38
189.85	1675.24
190.07	1591.27
190.29	1675.24
190.51	1630.18
190.73	1640.42
190.95	1763.30
191.17	1701.86
191.39	1617.90
191.61	1665.00
191.84	1621.99
192.06	1738.73
192.28	1679.33
192.50	1880.04
192.72	1697.77
192.94	1691.62
193.16	1714.15
193.38	1665.00
193.60	1667.05
193.82	1642.47
194.04	1679.33
194.26	1714.15
194.48	1716.20
194.70	1605.61
194.92	1636.33
195.14	1708.01
195.36	1652.71
195.58	1726.44
195.80	1693.67
196.02	1656.81
196.24	1675.24
196.46	1697.77
196.69	1726.44
196.91	1867.75
197.13	1660.90
197.35	1640.42
197.57	1716.20
197.79	1675.24
198.01	1697.77
198.23	1757.16
198.45	1705.96
198.67	1648.61
198.89	1640.42
199.11	1732.58
199.33	1736.68
199.55	1564.65
199.77	1697.77
199.99	1726.44
200.21	1755.11
200.43	1691.62
200.65	1714.15
200.87	1589.22
201.09	1662.95
201.31	1658.85
201.53	1767.40
201.75	1755.11
201.97	1701.86
202.19	1728.49
202.41	1753.06
202.63	1880.04
202.85	1757.16
203.07	1751.01
203.29	1732.58
203.51	1640.42
203.73	1710.05
203.95	1904.61
204.17	1654.76
204.39	1728.49
204.61	1681.38
204.83	1687.53
205.05	1722.34
205.27	1732.58
205.49	1806.31
205.71	1722.34
205.93	1642.47
206.15	1708.01
206.37	1718.25
206.59	1638.38
206.81	1677.29
207.03	1613.80
207.25	1658.85
207.47	1771.49
207.69	1712.10
207.91	1779.68
208.13	1816.55
208.34	1646.57
208.56	1607.66
208.78	1652.71
209.00	1632.23
209.22	1697.77
209.44	1681.38
209.66	1730.53
209.88	1775.59
210.10	1703.91
210.32	1658.85
210.54	1810.40
210.76	1695.72
210.98	1761.25
211.20	1576.94
211.42	1695.72
211.64	1742.82
211.86	1673.19
212.08	1720.29
212.30	1722.34
212.52	1701.86
212.74	1683.43
212.96	1726.44
213.17	1755.11
213.39	1693.67
213.61	1894.37
213.83	1716.20
214.05	1609.70
214.27	1791.97
214.49	1695.72
214.71	1673.19
214.93	1755.11
215.15	1689.57
215.37	1746.92
215.59	1665.00
215.81	1697.77
216.03	1837.03
216.24	1667.05
216.46	1728.49
216.68	1708.01
216.90	1705.96
217.12	1794.02
217.34	1691.62
217.56	1691.62
217.78	1759.21
218.00	1726.44
218.22	1744.87
218.44	1742.82
218.66	1650.66
218.87	1787.88
219.09	1685.48
219.31	1689.57
219.53	1751.01
219.75	1568.74
219.97	1665.00
220.19	1693.67
220.41	1701.86
220.63	1763.30
220.85	1738.73
221.06	1634.28
221.28	1841.12
221.50	1699.81
221.72	1718.25
221.94	1701.86
222.16	1638.38
222.38	1802.21
222.60	1742.82
222.82	1705.96
223.03	1677.29
223.25	1648.61
223.47	1761.25
223.69	1816.55
223.91	1677.29
224.13	1724.39
224.35	1677.29
224.57	1787.88
224.78	1736.68
225.00	1636.33
225.22	1681.38
225.44	1732.58
225.66	1671.14
225.88	1638.38
226.10	1773.54
226.32	1714.15
226.53	1705.96
226.75	1656.81
226.97	1632.23
227.19	1656.81
227.41	1656.81
227.63	1675.24
227.85	1615.85
228.06	1716.20
228.28	1679.33
228.50	1773.54
228.72	1669.09
228.94	1673.19
229.16	1601.51
229.37	1611.75
229.59	1705.96
229.81	1796.07
230.03	1591.27
230.25	1636.33
230.47	1628.14
230.69	1587.18
230.90	1757.16
231.12	1796.07
231.34	1718.25
231.56	1734.63
231.78	1705.96
232.00	1767.40
232.21	1699.81
232.43	1687.53
232.65	1624.04
232.87	1716.20
233.09	1601.51
233.30	1624.04
233.52	1740.77
233.74	1636.33
233.96	1646.57
234.18	1671.14
234.40	1673.19
234.61	1886.18
234.83	1613.80
235.05	1581.03
235.27	1847.27
235.49	1771.49
235.70	1619.94
235.92	1746.92
236.14	1777.64
236.36	1820.64
236.58	1607.66
236.79	1728.49
237.01	1775.59
237.23	1705.96
237.45	1820.64
237.67	1642.47
237.88	1748.97
238.10	1851.36
238.32	1648.61
238.54	1624.04
238.76	1697.77
238.97	1665.00
239.19	1691.62
239.41	1785.83
239.63	1726.44
239.85	1746.92
240.06	1712.10
240.28	1681.38
240.50	1658.85
240.72	1677.29
240.93	1701.86
241.15	1728.49
241.37	1667.05
241.59	1660.90
241.81	1751.01
242.02	1658.85
242.24	1652.71
242.46	1779.68
242.68	1683.43
242.89	1687.53
243.11	1783.78
243.33	1710.05
243.55	1708.01
243.76	1701.86
243.98	1671.14
244.20	1738.73
244.42	1757.16
244.64	1732.58
244.85	1669.09
245.07	1665.00
245.29	1814.50
245.51	1730.53
245.72	1656.81
245.94	1705.96
246.16	1673.19
246.38	1708.01
246.59	1658.85
246.81	1617.90
247.03	1740.77
247.24	1646.57
247.46	1746.92
247.68	1687.53
247.90	1710.05
248.11	1669.09
248.33	1650.66
248.55	1675.24
248.77	1662.95
248.98	1744.87
249.20	1773.54
249.42	1771.49
249.64	1771.49
249.85	1689.57
250.07	1632.23
250.29	1794.02
250.50	1728.49
250.72	1599.46
250.94	1771.49
251.16	1824.74
251.37	1746.92
251.59	1736.68
251.81	1705.96
252.02	1789.92
252.24	1720.29
252.46	1834.98
252.68	1679.33
252.89	1691.62
253.11	1621.99
253.33	1730.53
253.54	1767.40
253.76	1730.53
253.98	1603.56
254.20	1718.25
254.41	1675.24
254.63	1654.76
254.85	1609.70
255.06	1755.11
255.28	1726.44
255.50	1722.34
255.71	1677.29
255.93	1644.52
256.15	1691.62
256.36	1730.53
256.58	1632.23
256.80	1720.29
257.02	1632.23
257.23	1714.15
257.45	1734.63
257.67	1673.19
257.88	1695.72
258.10	1763.30
258.32	1718.25
258.53	1761.25
258.75	1738.73
258.97	1689.57
259.18	1658.85
259.40	1687.53
259.62	1777.64
259.83	1767.40
260.05	1726.44
260.27	1918.95
260.48	1779.68
260.70	1603.56
260.92	1691.62
261.13	1675.24
261.35	1630.18
261.57	1687.53
261.78	1648.61
262.00	1617.90
262.22	1687.53
262.43	1597.42
262.65	1683.43
262.86	1742.82
263.08	1918.95
263.30	1755.11
263.51	1646.57
263.73	1705.96
263.95	1728.49
264.16	1617.90
264.38	1673.19
264.60	1685.48
264.81	1636.33
265.03	1718.25
265.25	1734.63
265.46	1677.29
265.68	1777.64
265.89	1691.62
266.11	1638.38
266.33	1783.78
266.54	1765.35
266.76	1656.81
266.98	1767.40
267.19	1755.11
267.41	1734.63
267.62	1734.63
267.84	1691.62
268.06	1787.88
268.27	1736.68
268.49	1736.68
268.70	1773.54
268.92	1699.81
269.14	1611.75
269.35	1583.08
269.57	1767.40
269.79	1736.68
270.00	1681.38
270.22	1765.35
270.43	1667.05
270.65	1607.66
270.87	1732.58
271.08	1742.82
271.30	1699.81
271.51	1687.53
271.73	1712.10
271.95	1728.49
272.16	1718.25
272.38	1667.05
272.59	1656.81
272.81	1718.25
273.02	1736.68
273.24	1722.34
273.46	1722.34
273.67	1665.00
273.89	1673.19
274.10	1679.33
274.32	1703.91
274.54	1691.62
274.75	1732.58
274.97	1632.23
275.18	1738.73
275.40	1765.35
275.61	1730.53
275.83	1714.15
276.05	1628.14
276.26	1726.44
276.48	1734.63
276.69	1705.96
276.91	1660.90
277.12	1791.97
277.34	1746.92
277.55	1771.49
277.77	1732.58
277.99	1669.09
278.20	1693.67
278.42	1570.79
278.63	1648.61
278.85	1634.28
279.06	1583.08
279.28	1652.71
279.49	1730.53
279.71	1738.73
279.93	1689.57
280.14	1730.53
280.36	1642.47
280.57	1804.26
280.79	1677.29
281.00	1675.24
281.22	1699.81
281.43	1814.50
281.65	1591.27
281.86	1667.05
282.08	1669.09
282.29	1785.83
282.51	1640.42
282.73	1613.80
282.94	1654.76
283.16	1697.77
283.37	1771.49
283.59	1693.67
283.80	1710.05
284.02	1671.14
284.23	1730.53
284.45	1761.25
284.66	1570.79
284.88	1624.04
285.09	1683.43
285.31	1671.14
285.52	1675.24
285.74	1634.28
285.95	1730.53
286.17	1767.40
286.38	1830.88
286.60	1630.18
286.81	1732.58
287.03	1673.19
287.24	1617.90
287.46	1685.48
287.67	1722.34
287.89	1832.93
288.10	1673.19
288.32	1724.39
288.53	1763.30
288.75	1701.86
288.96	1722.34
289.18	1712.10
289.39	1742.82
289.61	1800.16
289.82	1783.78
290.04	1693.67
290.25	1667.05
290.47	1699.81
290.68	1738.73
290.90	1808.36
291.11	1599.46
291.33	1746.92
291.54	1660.90
291.76	1681.38
291.97	1800.16
292.18	1791.97
292.40	1626.09
292.61	1605.61
292.83	1877.99
293.04	1724.39
293.26	1708.01
293.47	1667.05
293.69	1662.95
293.90	1675.24
294.12	1765.35
294.33	1689.57
294.55	1699.81
294.76	1767.40
294.97	1751.01
295.19	1832.93
295.40	1718.25
295.62	1722.34
295.83	1656.81
296.05	1658.85
296.26	1716.20
296.48	1671.14
296.69	1714.15
296.90	1708.01
297.12	1697.77
297.33	1824.74
297.55	1697.77
297.76	1763.30
297.98	1662.95
298.19	1738.73
298.41	1679.33
298.62	1732.58
298.83	1728.49
299.05	1671.14
299.26	1628.14
299.48	1710.05
299.69	1685.48
299.90	1689.57
300.12	1687.53
300.33	1744.87
300.55	1730.53
300.76	1665.00
300.98	1619.94
301.19	1697.77
301.40	1652.71
301.62	1742.82
301.83	1771.49
302.05	1755.11
302.26	1730.53
302.47	1660.90
302.69	1617.90
302.90	1775.59
303.12	1576.94
303.33	1730.53
303.54	1855.46
303.76	1695.72
303.97	1662.95
304.19	1832.93
304.40	1667.05
304.61	1759.21
304.83	1828.84
305.04	1757.16
305.26	1728.49
305.47	1689.57
305.68	1652.71
305.90	1640.42
306.11	1746.92
306.33	1697.77
306.54	1662.95
306.75	1652.71
306.97	1546.22
307.18	1716.20
307.39	1628.14
307.61	1761.25
307.82	1695.72
308.04	1722.34
308.25	1685.48
308.46	1748.97
308.68	1685.48
308.89	1607.66
309.10	1791.97
309.32	1685.48
309.53	1726.44
309.74	1740.77
309.96	1701.86
310.17	1769.44
310.39	1683.43
310.60	1779.68
310.81	1757.16
311.03	1726.44
311.24	1753.06
311.45	1718.25
311.67	1746.92
311.88	1728.49
312.09	1701.86
312.31	1705.96
312.52	1740.77
312.73	1724.39
312.95	1685.48
313.16	1638.38
313.37	1824.74
313.59	1691.62
313.80	1771.49
314.01	1775.59
314.23	1638.38
314.44	1673.19
314.65	1683.43
314.87	1673.19
315.08	1695.72
315.29	1689.57
315.51	1648.61
315.72	1626.09
315.93	1779.68
316.15	1757.16
316.36	1748.97
316.57	1718.25
316.79	1738.73
317.00	1677.29
317.21	1714.15
317.43	1710.05
317.64	1718.25
317.85	1705.96
318.07	1644.52
318.28	1642.47
318.49	1802.21
318.70	1875.94
318.92	1812.45
319.13	1802.21
319.34	1828.84
319.56	1818.60
319.77	1812.45
319.98	1818.60
320.20	1785.83
320.41	1742.82
320.62	1757.16
320.83	1615.85
321.05	1851.36
321.26	1703.91
321.47	1619.94
321.69	1828.84
321.90	1652.71
322.11	1665.00
322.32	1740.77
322.54	1757.16
322.75	1652.71
322.96	1773.54
323.18	1640.42
323.39	1576.94
323.60	1665.00
323.81	1748.97
324.03	1710.05
324.24	1703.91
324.45	1705.96
324.66	1667.05
324.88	1789.92
325.09	1834.98
325.30	1769.44
325.52	1703.91
325.73	1734.63
325.94	1716.20
326.15	1574.89
326.37	1742.82
326.58	1761.25
326.79	1761.25
327.00	1679.33
327.22	1777.64
327.43	1640.42
327.64	1624.04
327.85	1667.05
328.07	1710.05
328.28	1837.03
328.49	1708.01
328.70	1677.29
328.92	1669.09
329.13	1732.58
329.34	1759.21
329.55	1742.82
329.76	1695.72
329.98	1734.63
330.19	1808.36
330.40	1642.47
330.61	1757.16
330.83	1701.86
331.04	1695.72
331.25	1736.68
331.46	1650.66
331.68	1665.00
331.89	1716.20
332.10	1671.14
332.31	1638.38
332.52	1667.05
332.74	1787.88
332.95	1630.18
333.16	1722.34
333.37	1695.72
333.58	1675.24
333.80	1714.15
334.01	1628.14
334.22	1671.14
334.43	1642.47
334.64	1662.95
334.86	1591.27
335.07	1597.42
335.28	1787.88
335.49	1621.99
335.70	1783.78
335.92	1736.68
336.13	1802.21
336.34	1591.27
336.55	1669.09
336.76	1701.86
336.98	1669.09
337.19	1607.66
337.40	1789.92
337.61	1902.56
337.82	1681.38
338.04	1718.25
338.25	1650.66
338.46	1798.12
338.67	1718.25
338.88	1589.22
339.09	1665.00
339.31	1644.52
339.52	1628.14
339.73	1675.24
339.94	1638.38
340.15	1746.92
340.36	1683.43
340.58	1722.34
340.79	1632.23
341.00	1748.97
341.21	1675.24
341.42	1753.06
341.63	1658.85
341.85	1738.73
342.06	1697.77
342.27	1581.03
342.48	1771.49
342.69	1656.81
342.90	1718.25
343.12	1746.92
343.33	1710.05
343.54	1771.49
343.75	1822.69
343.96	1759.21
344.17	1648.61
344.38	1746.92
344.60	1642.47
344.81	1644.52
345.02	1710.05
345.23	1695.72
345.44	1703.91
345.65	1734.63
345.86	1724.39
346.07	1757.16
346.29	1560.55
346.50	1630.18
346.71	1748.97
346.92	1773.54
347.13	1845.22
347.34	1697.77
347.55	1726.44
347.76	1722.34
347.98	1613.80
348.19	1658.85
348.40	1742.82
348.61	1689.57
348.82	1841.12
349.03	1742.82
349.24	1650.66
349.45	1759.21
349.66	1593.32
349.88	1746.92
350.09	1671.14
350.30	1769.44
350.51	1822.69
350.72	1689.57
350.93	1671.14
351.14	1726.44
351.35	1761.25
351.56	1708.01
351.77	1607.66
351.99	1726.44
352.20	1759.21
352.41	1769.44
352.62	1599.46
352.83	1691.62
353.04	1699.81
353.25	1619.94
353.46	1816.55
353.67	1820.64
353.88	1560.55
354.09	1726.44
354.30	1699.81
354.52	1689.57
354.73	1689.57
354.94	1648.61
355.15	1605.61
355.36	1779.68
355.57	1685.48
355.78	1791.97
355.99	1703.91
356.20	1677.29
356.41	1771.49
356.62	1804.26
356.83	1751.01
357.04	1814.50
357.25	1621.99
357.46	1630.18
357.68	1683.43
357.89	1652.71
358.10	1621.99
358.31	1667.05
358.52	1689.57
358.73	1685.48
358.94	1669.09
359.15	1658.85
359.36	1767.40
359.57	1681.38
359.78	1755.11
359.99	1781.73
360.20	1665.00
360.41	1615.85
360.62	1695.72
360.83	1648.61
361.04	1712.10
361.25	1685.48
361.46	1816.55
361.67	1673.19
361.88	1736.68
362.09	1773.54
362.30	1687.53
362.51	1619.94
362.72	1738.73
362.93	1783.78
363.14	1746.92
363.35	1681.38
363.56	1652.71
363.78	1804.26
363.99	1767.40
364.20	1632.23
364.41	1748.97
364.62	1843.17
364.83	1757.16
365.04	1710.05
365.25	1701.86
365.46	1810.40
365.67	1675.24
365.88	1632.23
366.09	1751.01
366.30	1703.91
366.51	1794.02
366.72	1619.94
366.93	1722.34
367.14	1716.20
367.35	1728.49
367.56	1724.39
367.77	1849.32
367.98	1619.94
368.18	1685.48
368.39	1638.38
368.60	1675.24
368.81	1746.92
369.02	1712.10
369.23	1736.68
369.44	1617.90
369.65	1744.87
369.86	1691.62
370.07	1708.01
370.28	1689.57
370.49	1783.78
370.70	1730.53
370.91	1730.53
371.12	1642.47
371.33	1675.24
371.54	1626.09
371.75	1814.50
371.96	1632.23
372.17	1652.71
372.38	1740.77
372.59	1773.54
372.80	1697.77
373.01	1671.14
373.22	1755.11
373.43	1714.15
373.64	1677.29
373.85	1710.05
374.06	1791.97
374.26	1691.62
374.47	1675.24
374.68	1773.54
374.89	1722.34
375.10	1642.47
375.31	1806.31
375.52	1685.48
375.73	1693.67
375.94	1650.66
376.15	1673.19
376.36	1697.77
376.57	1693.67
376.78	1632.23
376.99	1755.11
377.20	1734.63
377.40	1701.86
377.61	1746.92
377.82	1634.28
378.03	1771.49
378.24	1724.39
378.45	1671.14
378.66	1638.38
378.87	1560.55
379.08	1636.33
379.29	1748.97
379.50	1771.49
379.71	1722.34
379.91	1736.68
380.12	1636.33
380.33	1683.43
380.54	1701.86
380.75	1708.01
380.96	1648.61
381.17	1689.57
381.38	1728.49
381.59	1724.39
381.80	1728.49
382.00	1802.21
382.21	1738.73
382.42	1738.73
382.63	1851.36
382.84	1734.63
383.05	1738.73
383.26	1832.93
383.47	1718.25
383.68	1791.97
383.88	1699.81
384.09	1726.44
384.30	1812.45
384.51	1705.96
384.72	1716.20
384.93	1546.22
385.14	1685.48
385.35	1714.15
385.55	1619.94
385.76	1806.31
385.97	1720.29
386.18	1640.42
386.39	1667.05
386.60	1665.00
386.81	1683.43
387.02	1677.29
387.22	1652.71
387.43	1746.92
387.64	1667.05
387.85	1906.66
388.06	2232.29
388.27	4263.87
388.48	6832.02
388.68	8509.31
388.89	9719.66
389.10	10090.34
389.31	8791.93
389.52	7698.31
389.73	6967.19
389.93	6449.05
390.14	5877.67
390.35	5207.98
390.56	4644.79
390.77	3880.90
390.98	3045.33
391.18	2596.82
391.39	2074.59
391.60	1818.60
391.81	1841.12
392.02	1701.86
392.23	1871.84
392.43	1726.44
392.64	1830.88
392.85	1730.53
393.06	1791.97
393.27	1757.16
393.47	1712.10
393.68	1650.66
393.89	1611.75
394.10	1712.10
394.31	1644.52
394.52	1710.05
394.72	1697.77
394.93	1834.98
395.14	1621.99
395.35	1730.53
395.56	1665.00
395.76	1744.87
395.97	1773.54
396.18	1828.84
396.39	1820.64
396.60	1968.10
396.80	1886.18
397.01	1812.45
397.22	1791.97
397.43	1843.17
397.64	1771.49
397.84	1751.01
398.05	1800.16
398.26	1796.07
398.47	1703.91
398.67	1787.88
398.88	1699.81
399.09	1800.16
399.30	1665.00
399.51	1738.73
399.71	1685.48
399.92	1730.53
400.13	1705.96
400.34	1705.96
400.54	1730.53
400.75	1791.97
400.96	1759.21
401.17	1775.59
401.37	1720.29
401.58	1738.73
401.79	1734.63
402.00	1822.69
402.21	1968.10
402.41	1955.81
402.62	1992.67
402.83	2004.96
403.04	2056.16
403.24	2123.74
403.45	1812.45
403.66	1923.04
403.87	1826.79
404.07	1914.85
404.28	1900.52
404.49	1828.84
404.70	1740.77
404.90	1771.49
405.11	1724.39
405.32	1681.38
405.52	1621.99
405.73	1681.38
405.94	1677.29
406.15	1708.01
406.35	1722.34
406.56	1736.68
406.77	1646.57
406.98	1734.63
407.18	1693.67
407.39	1806.31
407.60	1689.57
407.80	1765.35
408.01	1720.29
408.22	1724.39
408.43	1650.66
408.63	1724.39
408.84	1746.92
409.05	1656.81
409.25	1673.19
409.46	1673.19
409.67	1710.05
409.88	1646.57
410.08	1736.68
410.29	1644.52
410.50	1796.07
410.70	1675.24
410.91	1673.19
411.12	1730.53
411.32	1712.10
411.53	1576.94
411.74	1884.13
411.95	1701.86
412.15	1755.11
412.36	1816.55
412.57	1699.81
412.77	1787.88
412.98	1658.85
413.19	1710.05
413.39	1759.21
413.60	1759.21
413.81	1765.35
414.01	1624.04
414.22	1738.73
414.43	1755.11
414.63	1730.53
414.84	1785.83
415.05	1722.34
415.25	1595.37
415.46	1734.63
415.67	1683.43
415.87	1783.78
416.08	1613.80
416.29	1650.66
416.49	1783.78
416.70	1718.25
416.91	1771.49
417.11	1726.44
417.32	1777.64
417.53	1775.59
417.73	1765.35
417.94	1691.62
418.15	1714.15
418.35	1728.49
418.56	1757.16
418.77	1812.45
418.97	1701.86
419.18	1640.42
419.38	1621.99
419.59	1712.10
419.80	1714.15
420.00	1738.73
420.21	1714.15
420.42	1705.96
420.62	1675.24
420.83	1718.25
421.04	1722.34
421.24	1677.29
421.45	1791.97
421.65	1648.61
421.86	1720.29
422.07	1714.15
422.27	1714.15
422.48	1710.05
422.69	1701.86
422.89	1683.43
423.10	1689.57
423.30	1597.42
423.51	1648.61
423.72	1736.68
423.92	1781.73
424.13	1581.03
424.33	1683.43
424.54	1738.73
424.75	1720.29
424.95	1785.83
425.16	1720.29
425.36	1595.37
425.57	1767.40
425.78	1716.20
425.98	1738.73
426.19	1738.73
426.39	1681.38
426.60	1761.25
426.81	1781.73
427.01	1650.66
427.22	1660.90
427.42	1703.91
427.63	1734.63
427.83	1730.53
428.04	1894.37
428.25	1820.64
428.45	1751.01
428.66	1751.01
428.86	1714.15
429.07	1671.14
429.28	1726.44
429.48	1710.05
429.69	1665.00
429.89	1748.97
430.10	1669.09
430.30	1718.25
430.51	1742.82
430.71	1701.86
430.92	1638.38
431.13	1644.52
431.33	1812.45
431.54	1746.92
431.74	1746.92
431.95	1785.83
432.15	1601.51
432.36	1667.05
432.56	1748.97
432.77	1841.12
432.98	1839.08
433.18	1691.62
433.39	1648.61
433.59	1714.15
433.80	1814.50
434.00	1902.56
434.21	1708.01
434.41	1720.29
434.62	1812.45
434.82	1677.29
435.03	1615.85
435.23	1722.34
435.44	1648.61
435.64	1714.15
435.85	1691.62
436.06	1791.97
436.26	1730.53
436.47	1689.57
436.67	1687.53
436.88	1738.73
437.08	1800.16
437.29	1775.59
437.49	1736.68
437.70	1769.44
437.90	1759.21
438.11	1783.78
438.31	1787.88
438.52	1880.04
438.72	1884.13
438.93	1914.85
439.13	1865.70
439.34	1808.36
439.54	1769.44
439.75	1736.68
439.95	1779.68
440.16	1744.87
440.36	1746.92
440.57	1757.16
440.77	1789.92
440.98	1734.63
441.18	1710.05
441.39	1660.90
441.59	1658.85
441.80	1849.32
442.00	1636.33
442.21	1847.27
442.41	1595.37
442.62	1777.64
442.82	1755.11
443.02	1724.39
443.23	1693.67
443.43	1701.86
443.64	1814.50
443.84	1763.30
444.05	1718.25
444.25	1732.58
444.46	1728.49
444.66	1757.16
444.87	1857.51
445.07	1630.18
445.28	1734.63
445.48	1751.01
445.69	1742.82
445.89	1830.88
446.09	1695.72
446.30	2011.11
446.50	2707.41
446.71	3700.68
446.91	4272.06
447.12	4716.47
447.32	4782.01
447.53	4360.13
447.73	3770.31
447.93	3555.27
448.14	3383.24
448.34	3188.69
448.55	2961.36
448.75	2797.53
448.96	2725.85
449.16	2416.60
449.36	2346.97
449.57	2070.50
449.77	1941.47
449.98	1781.73
450.18	1765.35
450.39	1855.46
450.59	1779.68
450.79	1810.40
451.00	1708.01
451.20	1830.88
451.41	1783.78
451.61	1816.55
451.81	1751.01
452.02	1730.53
452.22	1759.21
452.43	1701.86
452.63	1652.71
