SpectraSuite Data File
++++++++++++++++++++++++++++++++++++
Date: Mon Jun 06 13:29:37 CEST 2016
User: root
Dark Spectrum Present: No
Reference Spectrum Present: No
Number of Sampled Component Spectra: 1
Spectrometers: USB4C02835
Integration Time (usec): 100000 (USB4C02835)
Spectra Averaged: 1 (USB4C02835)
Boxcar Smoothing: 0 (USB4C02835)
Correct for Electrical Dark: No (USB4C02835)
Strobe/Lamp Enabled: No (USB4C02835)
Correct for Detector Non-linearity: No (USB4C02835)
Correct for Stray Light: No (USB4C02835)
Number of Pixels in Processed Spectrum: 3648
>>>>>Begin Processed Spectral Data<<<<<
177.47	1478.63
177.69	1478.63
177.91	1478.63
178.13	1480.68
178.36	1462.25
178.58	1660.90
178.80	1746.92
179.02	1644.52
179.24	1724.39
179.46	1646.57
179.68	1738.73
179.90	1753.06
180.13	1699.81
180.35	1685.48
180.57	1744.87
180.79	1665.00
181.01	1652.71
181.23	1746.92
181.45	1789.92
181.67	1794.02
181.90	1748.97
182.12	1671.14
182.34	1630.18
182.56	1712.10
182.78	1726.44
183.00	1716.20
183.22	1703.91
183.44	1617.90
183.66	1845.22
183.89	1863.65
184.11	1720.29
184.33	1777.64
184.55	1697.77
184.77	1728.49
184.99	1665.00
185.21	1695.72
185.43	1867.75
185.65	1599.46
185.87	1746.92
186.10	1781.73
186.32	1845.22
186.54	1681.38
186.76	1699.81
186.98	1771.49
187.20	1638.38
187.42	1675.24
187.64	1644.52
187.86	1740.77
188.08	1728.49
188.30	1634.28
188.52	1705.96
188.75	1761.25
188.97	1816.55
189.19	1634.28
189.41	1746.92
189.63	1728.49
189.85	1662.95
190.07	1681.38
190.29	1617.90
190.51	1734.63
190.73	1634.28
190.95	1716.20
191.17	1681.38
191.39	1632.23
191.61	1720.29
191.84	1554.41
192.06	1734.63
192.28	1572.84
192.50	1890.28
192.72	1675.24
192.94	1746.92
193.16	1730.53
193.38	1753.06
193.60	1728.49
193.82	1576.94
194.04	1738.73
194.26	1652.71
194.48	1746.92
194.70	1611.75
194.92	1708.01
195.14	1771.49
195.36	1665.00
195.58	1675.24
195.80	1658.85
196.02	1656.81
196.24	1710.05
196.46	1687.53
196.69	1646.57
196.91	1875.94
197.13	1650.66
197.35	1640.42
197.57	1800.16
197.79	1689.57
198.01	1740.77
198.23	1689.57
198.45	1740.77
198.67	1695.72
198.89	1648.61
199.11	1669.09
199.33	1654.76
199.55	1574.89
199.77	1763.30
199.99	1730.53
200.21	1593.32
200.43	1796.07
200.65	1665.00
200.87	1576.94
201.09	1679.33
201.31	1695.72
201.53	1708.01
201.75	1771.49
201.97	1603.56
202.19	1667.05
202.41	1751.01
202.63	1814.50
202.85	1714.15
203.07	1681.38
203.29	1720.29
203.51	1613.80
203.73	1656.81
203.95	1789.92
204.17	1683.43
204.39	1769.44
204.61	1673.19
204.83	1681.38
205.05	1759.21
205.27	1703.91
205.49	1812.45
205.71	1689.57
205.93	1562.60
206.15	1654.76
206.37	1683.43
206.59	1699.81
206.81	1677.29
207.03	1665.00
207.25	1656.81
207.47	1757.16
207.69	1691.62
207.91	1781.73
208.13	1855.46
208.34	1677.29
208.56	1640.42
208.78	1734.63
209.00	1693.67
209.22	1697.77
209.44	1675.24
209.66	1675.24
209.88	1685.48
210.10	1621.99
210.32	1660.90
210.54	1812.45
210.76	1572.84
210.98	1714.15
211.20	1538.02
211.42	1695.72
211.64	1746.92
211.86	1763.30
212.08	1755.11
212.30	1730.53
212.52	1658.85
212.74	1697.77
212.96	1669.09
213.17	1791.97
213.39	1695.72
213.61	1789.92
213.83	1791.97
214.05	1691.62
214.27	1761.25
214.49	1654.76
214.71	1605.61
214.93	1816.55
215.15	1742.82
215.37	1710.05
215.59	1578.98
215.81	1705.96
216.03	1771.49
216.24	1648.61
216.46	1677.29
216.68	1730.53
216.90	1757.16
217.12	1755.11
217.34	1691.62
217.56	1748.97
217.78	1828.84
218.00	1718.25
218.22	1796.07
218.44	1675.24
218.66	1740.77
218.87	1771.49
219.09	1685.48
219.31	1765.35
219.53	1755.11
219.75	1599.46
219.97	1669.09
220.19	1716.20
220.41	1685.48
220.63	1769.44
220.85	1656.81
221.06	1675.24
221.28	1740.77
221.50	1775.59
221.72	1763.30
221.94	1689.57
222.16	1693.67
222.38	1755.11
222.60	1736.68
222.82	1697.77
223.03	1699.81
223.25	1665.00
223.47	1810.40
223.69	1820.64
223.91	1722.34
224.13	1662.95
224.35	1630.18
224.57	1777.64
224.78	1746.92
225.00	1654.76
225.22	1699.81
225.44	1744.87
225.66	1742.82
225.88	1673.19
226.10	1769.44
226.32	1654.76
226.53	1736.68
226.75	1685.48
226.97	1642.47
227.19	1665.00
227.41	1667.05
227.63	1675.24
227.85	1617.90
228.06	1724.39
228.28	1677.29
228.50	1832.93
228.72	1636.33
228.94	1710.05
229.16	1578.98
229.37	1636.33
229.59	1662.95
229.81	1759.21
230.03	1703.91
230.25	1652.71
230.47	1572.84
230.69	1566.70
230.90	1759.21
231.12	1619.94
231.34	1708.01
231.56	1681.38
231.78	1591.27
232.00	1740.77
232.21	1638.38
232.43	1640.42
232.65	1583.08
232.87	1740.77
233.09	1617.90
233.30	1662.95
233.52	1740.77
233.74	1697.77
233.96	1656.81
234.18	1761.25
234.40	1763.30
234.61	1751.01
234.83	1671.14
235.05	1611.75
235.27	1828.84
235.49	1730.53
235.70	1718.25
235.92	1886.18
236.14	1705.96
236.36	1855.46
236.58	1638.38
236.79	1728.49
237.01	1660.90
237.23	1716.20
237.45	1888.23
237.67	1648.61
237.88	1681.38
238.10	1845.22
238.32	1607.66
238.54	1761.25
238.76	1595.37
238.97	1619.94
239.19	1691.62
239.41	1730.53
239.63	1785.83
239.85	1615.85
240.06	1736.68
240.28	1689.57
240.50	1732.58
240.72	1693.67
240.93	1687.53
241.15	1757.16
241.37	1728.49
241.59	1837.03
241.81	1701.86
242.02	1601.51
242.24	1787.88
242.46	1753.06
242.68	1710.05
242.89	1740.77
243.11	1720.29
243.33	1708.01
243.55	1708.01
243.76	1751.01
243.98	1720.29
244.20	1675.24
244.42	1658.85
244.64	1693.67
244.85	1656.81
245.07	1656.81
245.29	1767.40
245.51	1689.57
245.72	1699.81
245.94	1724.39
246.16	1673.19
246.38	1687.53
246.59	1660.90
246.81	1636.33
247.03	1734.63
247.24	1599.46
247.46	1611.75
247.68	1605.61
247.90	1665.00
248.11	1695.72
248.33	1759.21
248.55	1658.85
248.77	1689.57
248.98	1734.63
249.20	1730.53
249.42	1724.39
249.64	1796.07
249.85	1763.30
250.07	1697.77
250.29	1763.30
250.50	1810.40
250.72	1607.66
250.94	1728.49
251.16	1785.83
251.37	1783.78
251.59	1705.96
251.81	1722.34
252.02	1759.21
252.24	1751.01
252.46	1787.88
252.68	1656.81
252.89	1708.01
253.11	1593.32
253.33	1806.31
253.54	1742.82
253.76	1540.07
253.98	1648.61
254.20	1673.19
254.41	1626.09
254.63	1679.33
254.85	1617.90
255.06	1681.38
255.28	1681.38
255.50	1697.77
255.71	1593.32
255.93	1646.57
256.15	1685.48
256.36	1693.67
256.58	1677.29
256.80	1699.81
257.02	1722.34
257.23	1613.80
257.45	1763.30
257.67	1744.87
257.88	1687.53
258.10	1630.18
258.32	1765.35
258.53	1738.73
258.75	1773.54
258.97	1671.14
259.18	1720.29
259.40	1734.63
259.62	1832.93
259.83	1751.01
260.05	1800.16
260.27	1953.76
260.48	1751.01
260.70	1634.28
260.92	1642.47
261.13	1728.49
261.35	1734.63
261.57	1740.77
261.78	1660.90
262.00	1660.90
262.22	1751.01
262.43	1691.62
262.65	1679.33
262.86	1718.25
263.08	1845.22
263.30	1669.09
263.51	1605.61
263.73	1667.05
263.95	1763.30
264.16	1587.18
264.38	1710.05
264.60	1730.53
264.81	1671.14
265.03	1718.25
265.25	1679.33
265.46	1685.48
265.68	1746.92
265.89	1722.34
266.11	1660.90
266.33	1703.91
266.54	1785.83
266.76	1650.66
266.98	1710.05
267.19	1804.26
267.41	1783.78
267.62	1705.96
267.84	1640.42
268.06	1746.92
268.27	1665.00
268.49	1751.01
268.70	1775.59
268.92	1708.01
269.14	1589.22
269.35	1644.52
269.57	1769.44
269.79	1765.35
270.00	1595.37
270.22	1779.68
270.43	1585.13
270.65	1578.98
270.87	1736.68
271.08	1728.49
271.30	1726.44
271.51	1673.19
271.73	1738.73
271.95	1828.84
272.16	1757.16
272.38	1703.91
272.59	1716.20
272.81	1742.82
273.02	1742.82
273.24	1732.58
273.46	1728.49
273.67	1607.66
273.89	1708.01
274.10	1634.28
274.32	1757.16
274.54	1720.29
274.75	1718.25
274.97	1736.68
275.18	1685.48
275.40	1761.25
275.61	1699.81
275.83	1673.19
276.05	1646.57
276.26	1693.67
276.48	1712.10
276.69	1634.28
276.91	1597.42
277.12	1761.25
277.34	1734.63
277.55	1718.25
277.77	1683.43
277.99	1640.42
278.20	1621.99
278.42	1650.66
278.63	1621.99
278.85	1685.48
279.06	1599.46
279.28	1800.16
279.49	1720.29
279.71	1779.68
279.93	1748.97
280.14	1681.38
280.36	1681.38
280.57	1765.35
280.79	1785.83
281.00	1642.47
281.22	1632.23
281.43	1843.17
281.65	1556.46
281.86	1732.58
282.08	1665.00
282.29	1800.16
282.51	1621.99
282.73	1644.52
282.94	1605.61
283.16	1724.39
283.37	1826.79
283.59	1626.09
283.80	1724.39
284.02	1751.01
284.23	1691.62
284.45	1578.98
284.66	1673.19
284.88	1681.38
285.09	1742.82
285.31	1734.63
285.52	1734.63
285.74	1648.61
285.95	1753.06
286.17	1730.53
286.38	1751.01
286.60	1669.09
286.81	1734.63
287.03	1673.19
287.24	1753.06
287.46	1746.92
287.67	1732.58
287.89	1802.21
288.10	1705.96
288.32	1748.97
288.53	1830.88
288.75	1677.29
288.96	1720.29
289.18	1665.00
289.39	1783.78
289.61	1769.44
289.82	1841.12
290.04	1765.35
290.25	1636.33
290.47	1642.47
290.68	1712.10
290.90	1781.73
291.11	1654.76
291.33	1796.07
291.54	1597.42
291.76	1689.57
291.97	1734.63
292.18	1669.09
292.40	1726.44
292.61	1710.05
292.83	1853.41
293.04	1722.34
293.26	1691.62
293.47	1693.67
293.69	1677.29
293.90	1697.77
294.12	1763.30
294.33	1787.88
294.55	1720.29
294.76	1767.40
294.97	1773.54
295.19	1845.22
295.40	1689.57
295.62	1732.58
295.83	1687.53
296.05	1642.47
296.26	1751.01
296.48	1628.14
296.69	1648.61
296.90	1716.20
297.12	1679.33
297.33	1755.11
297.55	1669.09
297.76	1730.53
297.98	1761.25
298.19	1658.85
298.41	1662.95
298.62	1648.61
298.83	1779.68
299.05	1736.68
299.26	1642.47
299.48	1683.43
299.69	1759.21
299.90	1738.73
300.12	1726.44
300.33	1775.59
300.55	1658.85
300.76	1681.38
300.98	1605.61
301.19	1724.39
301.40	1689.57
301.62	1691.62
301.83	1681.38
302.05	1648.61
302.26	1732.58
302.47	1728.49
302.69	1662.95
302.90	1732.58
303.12	1642.47
303.33	1748.97
303.54	1783.78
303.76	1585.13
303.97	1822.69
304.19	1828.84
304.40	1654.76
304.61	1755.11
304.83	1751.01
305.04	1736.68
305.26	1744.87
305.47	1679.33
305.68	1720.29
305.90	1667.05
306.11	1720.29
306.33	1660.90
306.54	1689.57
306.75	1640.42
306.97	1626.09
307.18	1638.38
307.39	1708.01
307.61	1751.01
307.82	1648.61
308.04	1673.19
308.25	1685.48
308.46	1744.87
308.68	1730.53
308.89	1673.19
309.10	1761.25
309.32	1726.44
309.53	1687.53
309.74	1718.25
309.96	1578.98
310.17	1667.05
310.39	1718.25
310.60	1691.62
310.81	1681.38
311.03	1615.85
311.24	1796.07
311.45	1724.39
311.67	1865.70
311.88	1738.73
312.09	1687.53
312.31	1642.47
312.52	1753.06
312.73	1681.38
312.95	1656.81
313.16	1638.38
313.37	1662.95
313.59	1730.53
313.80	1716.20
314.01	1746.92
314.23	1619.94
314.44	1658.85
314.65	1671.14
314.87	1646.57
315.08	1624.04
315.29	1683.43
315.51	1701.86
315.72	1699.81
315.93	1853.41
316.15	1800.16
316.36	1681.38
316.57	1718.25
316.79	1716.20
317.00	1628.14
317.21	1769.44
317.43	1751.01
317.64	1689.57
317.85	1673.19
318.07	1675.24
318.28	1720.29
318.49	1763.30
318.70	1923.04
318.92	1841.12
319.13	1794.02
319.34	1906.66
319.56	1791.97
319.77	1800.16
319.98	1777.64
320.20	1779.68
320.41	1720.29
320.62	1683.43
320.83	1671.14
321.05	1822.69
321.26	1751.01
321.47	1701.86
321.69	1804.26
321.90	1679.33
322.11	1597.42
322.32	1714.15
322.54	1755.11
322.75	1632.23
322.96	1861.60
323.18	1628.14
323.39	1632.23
323.60	1669.09
323.81	1728.49
324.03	1681.38
324.24	1697.77
324.45	1673.19
324.66	1648.61
324.88	1783.78
325.09	1728.49
325.30	1714.15
325.52	1724.39
325.73	1689.57
325.94	1652.71
326.15	1669.09
326.37	1687.53
326.58	1779.68
326.79	1693.67
327.00	1656.81
327.22	1724.39
327.43	1697.77
327.64	1705.96
327.85	1650.66
328.07	1720.29
328.28	1810.40
328.49	1699.81
328.70	1775.59
328.92	1669.09
329.13	1695.72
329.34	1785.83
329.55	1779.68
329.76	1759.21
329.98	1675.24
330.19	1755.11
330.40	1662.95
330.61	1701.86
330.83	1757.16
331.04	1677.29
331.25	1695.72
331.46	1681.38
331.68	1603.56
331.89	1746.92
332.10	1671.14
332.31	1597.42
332.52	1751.01
332.74	1859.56
332.95	1605.61
333.16	1697.77
333.37	1724.39
333.58	1652.71
333.80	1691.62
334.01	1675.24
334.22	1677.29
334.43	1699.81
334.64	1671.14
334.86	1621.99
335.07	1638.38
335.28	1742.82
335.49	1585.13
335.70	1685.48
335.92	1767.40
336.13	1820.64
336.34	1726.44
336.55	1687.53
336.76	1777.64
336.98	1660.90
337.19	1660.90
337.40	1781.73
337.61	1796.07
337.82	1667.05
338.04	1744.87
338.25	1544.17
338.46	1697.77
338.67	1765.35
338.88	1626.09
339.09	1654.76
339.31	1591.27
339.52	1665.00
339.73	1685.48
339.94	1736.68
340.15	1771.49
340.36	1626.09
340.58	1673.19
340.79	1665.00
341.00	1648.61
341.21	1685.48
341.42	1769.44
341.63	1718.25
341.85	1705.96
342.06	1628.14
342.27	1665.00
342.48	1744.87
342.69	1581.03
342.90	1730.53
343.12	1720.29
343.33	1628.14
343.54	1759.21
343.75	1773.54
343.96	1697.77
344.17	1693.67
344.38	1783.78
344.60	1646.57
344.81	1630.18
345.02	1730.53
345.23	1720.29
345.44	1714.15
345.65	1697.77
345.86	1720.29
346.07	1757.16
346.29	1687.53
346.50	1746.92
346.71	1697.77
346.92	1746.92
347.13	1734.63
347.34	1699.81
347.55	1656.81
347.76	1656.81
347.98	1603.56
348.19	1636.33
348.40	1755.11
348.61	1681.38
348.82	1769.44
349.03	1794.02
349.24	1640.42
349.45	1796.07
349.66	1550.31
349.88	1673.19
350.09	1634.28
350.30	1730.53
350.51	1789.92
350.72	1658.85
350.93	1779.68
351.14	1691.62
351.35	1744.87
351.56	1693.67
351.77	1689.57
351.99	1722.34
352.20	1777.64
352.41	1820.64
352.62	1581.03
352.83	1656.81
353.04	1753.06
353.25	1722.34
353.46	1726.44
353.67	1738.73
353.88	1568.74
354.09	1769.44
354.30	1693.67
354.52	1714.15
354.73	1710.05
354.94	1687.53
355.15	1642.47
355.36	1826.79
355.57	1646.57
355.78	1726.44
355.99	1681.38
356.20	1609.70
356.41	1660.90
356.62	1728.49
356.83	1669.09
357.04	1781.73
357.25	1669.09
357.46	1732.58
357.68	1689.57
357.89	1726.44
358.10	1710.05
358.31	1652.71
358.52	1685.48
358.73	1681.38
358.94	1685.48
359.15	1662.95
359.36	1810.40
359.57	1693.67
359.78	1728.49
359.99	1787.88
360.20	1652.71
360.41	1710.05
360.62	1724.39
360.83	1734.63
361.04	1671.14
361.25	1679.33
361.46	1746.92
361.67	1712.10
361.88	1783.78
362.09	1736.68
362.30	1671.14
362.51	1681.38
362.72	1658.85
362.93	1798.12
363.14	1746.92
363.35	1705.96
363.56	1677.29
363.78	1767.40
363.99	1669.09
364.20	1669.09
364.41	1765.35
364.62	1761.25
364.83	1673.19
365.04	1609.70
365.25	1755.11
365.46	1740.77
365.67	1677.29
365.88	1583.08
366.09	1679.33
366.30	1658.85
366.51	1703.91
366.72	1632.23
366.93	1751.01
367.14	1708.01
367.35	1802.21
367.56	1714.15
367.77	1787.88
367.98	1656.81
368.18	1714.15
368.39	1718.25
368.60	1611.75
368.81	1697.77
369.02	1701.86
369.23	1679.33
369.44	1634.28
369.65	1601.51
369.86	1714.15
370.07	1734.63
370.28	1648.61
370.49	1812.45
370.70	1714.15
370.91	1730.53
371.12	1607.66
371.33	1755.11
371.54	1736.68
371.75	1822.69
371.96	1578.98
372.17	1675.24
372.38	1695.72
372.59	1806.31
372.80	1740.77
373.01	1628.14
373.22	1722.34
373.43	1755.11
373.64	1673.19
373.85	1761.25
374.06	1796.07
374.26	1701.86
374.47	1697.77
374.68	1802.21
374.89	1691.62
375.10	1693.67
375.31	1726.44
375.52	1705.96
375.73	1724.39
375.94	1656.81
376.15	1806.31
376.36	1656.81
376.57	1701.86
376.78	1621.99
376.99	1712.10
377.20	1787.88
377.40	1685.48
377.61	1845.22
377.82	1548.26
378.03	1808.36
378.24	1669.09
378.45	1660.90
378.66	1705.96
378.87	1617.90
379.08	1687.53
379.29	1632.23
379.50	1757.16
379.71	1693.67
379.91	1710.05
380.12	1708.01
380.33	1783.78
380.54	1642.47
380.75	1691.62
380.96	1714.15
381.17	1755.11
381.38	1740.77
381.59	1677.29
381.80	1716.20
382.00	1847.27
382.21	1736.68
382.42	1769.44
382.63	1882.08
382.84	1726.44
383.05	1746.92
383.26	1781.73
383.47	1677.29
383.68	1697.77
383.88	1791.97
384.09	1695.72
384.30	1880.04
384.51	1751.01
384.72	1636.33
384.93	1642.47
385.14	1689.57
385.35	1765.35
385.55	1624.04
385.76	1773.54
385.97	1650.66
386.18	1632.23
386.39	1669.09
386.60	1605.61
386.81	1673.19
387.02	1697.77
387.22	1578.98
387.43	1783.78
387.64	1843.17
387.85	1839.08
388.06	2174.94
388.27	4212.67
388.48	6604.70
388.68	8214.40
388.89	9508.72
389.10	9625.45
389.31	8687.48
389.52	7483.28
389.73	6573.98
389.93	6285.22
390.14	5781.42
390.35	5156.79
390.56	4548.54
390.77	3854.28
390.98	3010.51
391.18	2516.95
391.39	2086.88
391.60	1884.13
391.81	1800.16
392.02	1736.68
392.23	1834.98
392.43	1710.05
392.64	1738.73
392.85	1734.63
393.06	1765.35
393.27	1798.12
393.47	1613.80
393.68	1673.19
393.89	1683.43
394.10	1767.40
394.31	1722.34
394.52	1642.47
394.72	1646.57
394.93	1701.86
395.14	1660.90
395.35	1771.49
395.56	1732.58
395.76	1667.05
395.97	1816.55
396.18	1861.60
396.39	1787.88
396.60	2058.21
396.80	1861.60
397.01	1779.68
397.22	1787.88
397.43	1822.69
397.64	1753.06
397.84	1783.78
398.05	1742.82
398.26	1681.38
398.47	1810.40
398.67	1820.64
398.88	1669.09
399.09	1746.92
399.30	1667.05
399.51	1726.44
399.71	1626.09
399.92	1689.57
400.13	1699.81
400.34	1630.18
400.54	1738.73
400.75	1837.03
400.96	1763.30
401.17	1781.73
401.37	1771.49
401.58	1757.16
401.79	1740.77
402.00	1822.69
402.21	1978.34
402.41	1890.28
402.62	1980.39
402.83	1998.82
403.04	1978.34
403.24	1988.58
403.45	1847.27
403.66	1896.42
403.87	1935.33
404.07	1855.46
404.28	1912.80
404.49	1923.04
404.70	1800.16
404.90	1791.97
405.11	1763.30
405.32	1710.05
405.52	1689.57
405.73	1652.71
405.94	1605.61
406.15	1703.91
406.35	1701.86
406.56	1736.68
406.77	1726.44
406.98	1697.77
407.18	1669.09
407.39	1763.30
407.60	1646.57
407.80	1748.97
408.01	1669.09
408.22	1791.97
408.43	1669.09
408.63	1753.06
408.84	1673.19
409.05	1761.25
409.25	1628.14
409.46	1628.14
409.67	1669.09
409.88	1669.09
410.08	1695.72
410.29	1667.05
410.50	1685.48
410.70	1794.02
410.91	1697.77
411.12	1634.28
411.32	1679.33
411.53	1677.29
411.74	1759.21
411.95	1761.25
412.15	1767.40
412.36	1746.92
412.57	1773.54
412.77	1789.92
412.98	1718.25
413.19	1685.48
413.39	1669.09
413.60	1718.25
413.81	1777.64
414.01	1662.95
414.22	1765.35
414.43	1734.63
414.63	1595.37
414.84	1763.30
415.05	1683.43
415.25	1675.24
415.46	1783.78
415.67	1662.95
415.87	1734.63
416.08	1691.62
416.29	1718.25
416.49	1763.30
416.70	1689.57
416.91	1687.53
417.11	1726.44
417.32	1734.63
417.53	1810.40
417.73	1730.53
417.94	1640.42
418.15	1714.15
418.35	1638.38
418.56	1640.42
418.77	1908.71
418.97	1705.96
419.18	1695.72
419.38	1628.14
419.59	1656.81
419.80	1789.92
420.00	1656.81
420.21	1609.70
420.42	1779.68
420.62	1689.57
420.83	1697.77
421.04	1691.62
421.24	1681.38
421.45	1746.92
421.65	1732.58
421.86	1730.53
422.07	1732.58
422.27	1730.53
422.48	1634.28
422.69	1619.94
422.89	1710.05
423.10	1632.23
423.30	1611.75
423.51	1763.30
423.72	1734.63
423.92	1746.92
424.13	1648.61
424.33	1730.53
424.54	1796.07
424.75	1710.05
424.95	1810.40
425.16	1759.21
425.36	1669.09
425.57	1761.25
425.78	1734.63
425.98	1724.39
426.19	1722.34
426.39	1632.23
426.60	1748.97
426.81	1806.31
427.01	1732.58
427.22	1665.00
427.42	1574.89
427.63	1705.96
427.83	1783.78
428.04	1769.44
428.25	1728.49
428.45	1775.59
428.66	1775.59
428.86	1767.40
429.07	1626.09
429.28	1665.00
429.48	1693.67
429.69	1665.00
429.89	1730.53
430.10	1673.19
430.30	1681.38
430.51	1726.44
430.71	1626.09
430.92	1716.20
431.13	1607.66
431.33	1826.79
431.54	1675.24
431.74	1708.01
431.95	1861.60
432.15	1638.38
432.36	1652.71
432.56	1755.11
432.77	1845.22
432.98	1918.95
433.18	1734.63
433.39	1724.39
433.59	1710.05
433.80	1816.55
434.00	1849.32
434.21	1701.86
434.41	1736.68
434.62	1822.69
434.82	1720.29
435.03	1673.19
435.23	1708.01
435.44	1591.27
435.64	1660.90
435.85	1769.44
436.06	1740.77
436.26	1687.53
436.47	1667.05
436.67	1671.14
436.88	1695.72
437.08	1675.24
437.29	1726.44
437.49	1755.11
437.70	1732.58
437.90	1746.92
438.11	1906.66
438.31	1849.32
438.52	1845.22
438.72	1812.45
438.93	1824.74
439.13	1826.79
439.34	1751.01
439.54	1767.40
439.75	1765.35
439.95	1812.45
440.16	1714.15
440.36	1701.86
440.57	1802.21
440.77	1767.40
440.98	1705.96
441.18	1748.97
441.39	1767.40
441.59	1621.99
441.80	1884.13
442.00	1673.19
442.21	1724.39
442.41	1617.90
442.62	1712.10
442.82	1691.62
443.02	1738.73
443.23	1710.05
443.43	1705.96
443.64	1779.68
443.84	1710.05
444.05	1759.21
444.25	1843.17
444.46	1656.81
444.66	1716.20
444.87	1837.03
445.07	1701.86
445.28	1724.39
445.48	1828.84
445.69	1736.68
445.89	1888.23
446.09	1722.34
446.30	1984.48
446.50	2709.46
446.71	3624.90
446.91	4343.74
447.12	4626.36
447.32	4966.32
447.53	4366.27
447.73	3753.93
447.93	3477.45
448.14	3356.62
448.34	3180.50
448.55	2926.55
448.75	2770.90
448.96	2615.26
449.16	2297.82
449.36	2342.88
449.57	1980.39
449.77	1910.75
449.98	1806.31
450.18	1843.17
450.39	1877.99
450.59	1642.47
450.79	1814.50
451.00	1697.77
451.20	1763.30
451.41	1693.67
451.61	1783.78
451.81	1763.30
452.02	1722.34
452.22	1673.19
452.43	1669.09
452.63	1761.25
