SpectraSuite Data File
++++++++++++++++++++++++++++++++++++
Date: Mon Jun 06 14:11:17 CEST 2016
User: root
Dark Spectrum Present: No
Reference Spectrum Present: No
Number of Sampled Component Spectra: 1
Spectrometers: USB4C02835
Integration Time (usec): 100000 (USB4C02835)
Spectra Averaged: 1 (USB4C02835)
Boxcar Smoothing: 0 (USB4C02835)
Correct for Electrical Dark: No (USB4C02835)
Strobe/Lamp Enabled: No (USB4C02835)
Correct for Detector Non-linearity: No (USB4C02835)
Correct for Stray Light: No (USB4C02835)
Number of Pixels in Processed Spectrum: 3648
>>>>>Begin Processed Spectral Data<<<<<
177.47	1509.35
177.69	1509.35
177.91	1509.35
178.13	1472.49
178.36	1497.07
178.58	1681.38
178.80	1669.09
179.02	1611.75
179.24	1646.57
179.46	1662.95
179.68	1716.20
179.90	1701.86
180.13	1765.35
180.35	1665.00
180.57	1699.81
180.79	1644.52
181.01	1699.81
181.23	1810.40
181.45	1716.20
181.67	1783.78
181.90	1787.88
182.12	1677.29
182.34	1642.47
182.56	1738.73
182.78	1681.38
183.00	1724.39
183.22	1738.73
183.44	1574.89
183.66	1839.08
183.89	1822.69
184.11	1734.63
184.33	1783.78
184.55	1765.35
184.77	1689.57
184.99	1691.62
185.21	1710.05
185.43	1884.13
185.65	1705.96
185.87	1705.96
186.10	1783.78
186.32	1812.45
186.54	1722.34
186.76	1726.44
186.98	1755.11
187.20	1736.68
187.42	1697.77
187.64	1724.39
187.86	1753.06
188.08	1787.88
188.30	1644.52
188.52	1699.81
188.75	1808.36
188.97	1828.84
189.19	1656.81
189.41	1681.38
189.63	1720.29
189.85	1691.62
190.07	1607.66
190.29	1669.09
190.51	1703.91
190.73	1648.61
190.95	1671.14
191.17	1642.47
191.39	1589.22
191.61	1665.00
191.84	1619.94
192.06	1738.73
192.28	1656.81
192.50	1894.37
192.72	1695.72
192.94	1660.90
193.16	1763.30
193.38	1728.49
193.60	1644.52
193.82	1673.19
194.04	1796.07
194.26	1742.82
194.48	1730.53
194.70	1708.01
194.92	1656.81
195.14	1710.05
195.36	1632.23
195.58	1716.20
195.80	1730.53
196.02	1705.96
196.24	1615.85
196.46	1658.85
196.69	1781.73
196.91	1832.93
197.13	1708.01
197.35	1722.34
197.57	1730.53
197.79	1710.05
198.01	1705.96
198.23	1783.78
198.45	1716.20
198.67	1605.61
198.89	1703.91
199.11	1630.18
199.33	1646.57
199.55	1497.07
199.77	1609.70
199.99	1806.31
200.21	1671.14
200.43	1740.77
200.65	1628.14
200.87	1533.93
201.09	1726.44
201.31	1681.38
201.53	1746.92
201.75	1710.05
201.97	1794.02
202.19	1736.68
202.41	1787.88
202.63	1767.40
202.85	1781.73
203.07	1740.77
203.29	1675.24
203.51	1630.18
203.73	1665.00
203.95	1845.22
204.17	1701.86
204.39	1681.38
204.61	1708.01
204.83	1642.47
205.05	1761.25
205.27	1732.58
205.49	1796.07
205.71	1710.05
205.93	1607.66
206.15	1568.74
206.37	1703.91
206.59	1685.48
206.81	1652.71
207.03	1626.09
207.25	1697.77
207.47	1738.73
207.69	1669.09
207.91	1787.88
208.13	1800.16
208.34	1630.18
208.56	1640.42
208.78	1740.77
209.00	1671.14
209.22	1714.15
209.44	1640.42
209.66	1708.01
209.88	1796.07
210.10	1771.49
210.32	1675.24
210.54	1816.55
210.76	1718.25
210.98	1746.92
211.20	1624.04
211.42	1662.95
211.64	1820.64
211.86	1697.77
212.08	1693.67
212.30	1710.05
212.52	1730.53
212.74	1730.53
212.96	1765.35
213.17	1765.35
213.39	1724.39
213.61	1761.25
213.83	1720.29
214.05	1650.66
214.27	1724.39
214.49	1613.80
214.71	1685.48
214.93	1738.73
215.15	1701.86
215.37	1712.10
215.59	1585.13
215.81	1671.14
216.03	1802.21
216.24	1658.85
216.46	1724.39
216.68	1718.25
216.90	1730.53
217.12	1726.44
217.34	1671.14
217.56	1730.53
217.78	1720.29
218.00	1740.77
218.22	1732.58
218.44	1740.77
218.66	1685.48
218.87	1886.18
219.09	1763.30
219.31	1720.29
219.53	1761.25
219.75	1662.95
219.97	1611.75
220.19	1712.10
220.41	1675.24
220.63	1769.44
220.85	1648.61
221.06	1634.28
221.28	1785.83
221.50	1742.82
221.72	1665.00
221.94	1708.01
222.16	1710.05
222.38	1804.26
222.60	1744.87
222.82	1718.25
223.03	1814.50
223.25	1634.28
223.47	1781.73
223.69	1839.08
223.91	1710.05
224.13	1742.82
224.35	1671.14
224.57	1771.49
224.78	1763.30
225.00	1705.96
225.22	1716.20
225.44	1628.14
225.66	1767.40
225.88	1656.81
226.10	1798.12
226.32	1755.11
226.53	1763.30
226.75	1730.53
226.97	1710.05
227.19	1644.52
227.41	1642.47
227.63	1626.09
227.85	1533.93
228.06	1755.11
228.28	1746.92
228.50	1744.87
228.72	1652.71
228.94	1746.92
229.16	1589.22
229.37	1681.38
229.59	1636.33
229.81	1841.12
230.03	1638.38
230.25	1652.71
230.47	1574.89
230.69	1619.94
230.90	1722.34
231.12	1671.14
231.34	1714.15
231.56	1789.92
231.78	1658.85
232.00	1646.57
232.21	1619.94
232.43	1705.96
232.65	1558.50
232.87	1726.44
233.09	1634.28
233.30	1665.00
233.52	1751.01
233.74	1658.85
233.96	1689.57
234.18	1720.29
234.40	1599.46
234.61	1826.79
234.83	1591.27
235.05	1607.66
235.27	1845.22
235.49	1665.00
235.70	1716.20
235.92	1763.30
236.14	1667.05
236.36	1765.35
236.58	1687.53
236.79	1732.58
237.01	1662.95
237.23	1703.91
237.45	1791.97
237.67	1671.14
237.88	1714.15
238.10	1877.99
238.32	1615.85
238.54	1673.19
238.76	1630.18
238.97	1671.14
239.19	1636.33
239.41	1667.05
239.63	1726.44
239.85	1716.20
240.06	1660.90
240.28	1718.25
240.50	1759.21
240.72	1740.77
240.93	1757.16
241.15	1738.73
241.37	1724.39
241.59	1673.19
241.81	1757.16
242.02	1673.19
242.24	1648.61
242.46	1771.49
242.68	1665.00
242.89	1662.95
243.11	1734.63
243.33	1763.30
243.55	1755.11
243.76	1687.53
243.98	1732.58
244.20	1746.92
244.42	1738.73
244.64	1712.10
244.85	1703.91
245.07	1642.47
245.29	1785.83
245.51	1693.67
245.72	1695.72
245.94	1800.16
246.16	1720.29
246.38	1748.97
246.59	1683.43
246.81	1714.15
247.03	1615.85
247.24	1644.52
247.46	1673.19
247.68	1646.57
247.90	1693.67
248.11	1665.00
248.33	1808.36
248.55	1730.53
248.77	1650.66
248.98	1787.88
249.20	1849.32
249.42	1648.61
249.64	1757.16
249.85	1671.14
250.07	1679.33
250.29	1681.38
250.50	1726.44
250.72	1597.42
250.94	1759.21
251.16	1810.40
251.37	1685.48
251.59	1675.24
251.81	1693.67
252.02	1783.78
252.24	1677.29
252.46	1753.06
252.68	1683.43
252.89	1597.42
253.11	1566.70
253.33	1818.60
253.54	1740.77
253.76	1595.37
253.98	1744.87
254.20	1656.81
254.41	1574.89
254.63	1646.57
254.85	1603.56
255.06	1683.43
255.28	1718.25
255.50	1718.25
255.71	1660.90
255.93	1656.81
256.15	1632.23
256.36	1755.11
256.58	1597.42
256.80	1705.96
257.02	1650.66
257.23	1679.33
257.45	1703.91
257.67	1701.86
257.88	1675.24
258.10	1794.02
258.32	1701.86
258.53	1718.25
258.75	1808.36
258.97	1654.76
259.18	1669.09
259.40	1773.54
259.62	1818.60
259.83	1769.44
260.05	1687.53
260.27	1953.76
260.48	1744.87
260.70	1632.23
260.92	1742.82
261.13	1734.63
261.35	1660.90
261.57	1722.34
261.78	1621.99
262.00	1662.95
262.22	1738.73
262.43	1667.05
262.65	1800.16
262.86	1814.50
263.08	1855.46
263.30	1755.11
263.51	1621.99
263.73	1654.76
263.95	1738.73
264.16	1615.85
264.38	1710.05
264.60	1787.88
264.81	1644.52
265.03	1837.03
265.25	1755.11
265.46	1697.77
265.68	1699.81
265.89	1687.53
266.11	1636.33
266.33	1818.60
266.54	1701.86
266.76	1798.12
266.98	1728.49
267.19	1824.74
267.41	1722.34
267.62	1658.85
267.84	1658.85
268.06	1746.92
268.27	1685.48
268.49	1705.96
268.70	1740.77
268.92	1691.62
269.14	1673.19
269.35	1585.13
269.57	1693.67
269.79	1742.82
270.00	1626.09
270.22	1757.16
270.43	1673.19
270.65	1681.38
270.87	1753.06
271.08	1726.44
271.30	1699.81
271.51	1675.24
271.73	1755.11
271.95	1781.73
272.16	1759.21
272.38	1689.57
272.59	1613.80
272.81	1667.05
273.02	1712.10
273.24	1746.92
273.46	1791.97
273.67	1640.42
273.89	1630.18
274.10	1642.47
274.32	1730.53
274.54	1740.77
274.75	1687.53
274.97	1595.37
275.18	1796.07
275.40	1751.01
275.61	1679.33
275.83	1687.53
276.05	1611.75
276.26	1710.05
276.48	1665.00
276.69	1697.77
276.91	1648.61
277.12	1769.44
277.34	1722.34
277.55	1765.35
277.77	1689.57
277.99	1683.43
278.20	1732.58
278.42	1669.09
278.63	1656.81
278.85	1603.56
279.06	1744.87
279.28	1714.15
279.49	1738.73
279.71	1691.62
279.93	1673.19
280.14	1658.85
280.36	1751.01
280.57	1732.58
280.79	1777.64
281.00	1710.05
281.22	1681.38
281.43	1787.88
281.65	1525.74
281.86	1572.84
282.08	1695.72
282.29	1826.79
282.51	1656.81
282.73	1609.70
282.94	1603.56
283.16	1796.07
283.37	1775.59
283.59	1675.24
283.80	1640.42
284.02	1669.09
284.23	1775.59
284.45	1658.85
284.66	1652.71
284.88	1710.05
285.09	1689.57
285.31	1710.05
285.52	1839.08
285.74	1673.19
285.95	1695.72
286.17	1740.77
286.38	1798.12
286.60	1671.14
286.81	1642.47
287.03	1601.51
287.24	1669.09
287.46	1732.58
287.67	1751.01
287.89	1822.69
288.10	1681.38
288.32	1722.34
288.53	1740.77
288.75	1689.57
288.96	1738.73
289.18	1705.96
289.39	1726.44
289.61	1748.97
289.82	1798.12
290.04	1789.92
290.25	1648.61
290.47	1763.30
290.68	1632.23
290.90	1755.11
291.11	1671.14
291.33	1710.05
291.54	1591.27
291.76	1621.99
291.97	1681.38
292.18	1656.81
292.40	1619.94
292.61	1667.05
292.83	1769.44
293.04	1734.63
293.26	1726.44
293.47	1710.05
293.69	1673.19
293.90	1757.16
294.12	1712.10
294.33	1722.34
294.55	1714.15
294.76	1777.64
294.97	1714.15
295.19	1791.97
295.40	1652.71
295.62	1724.39
295.83	1785.83
296.05	1699.81
296.26	1849.32
296.48	1675.24
296.69	1662.95
296.90	1679.33
297.12	1730.53
297.33	1742.82
297.55	1683.43
297.76	1810.40
297.98	1726.44
298.19	1716.20
298.41	1722.34
298.62	1671.14
298.83	1738.73
299.05	1693.67
299.26	1603.56
299.48	1601.51
299.69	1794.02
299.90	1732.58
300.12	1605.61
300.33	1847.27
300.55	1669.09
300.76	1812.45
300.98	1621.99
301.19	1742.82
301.40	1708.01
301.62	1730.53
301.83	1746.92
302.05	1693.67
302.26	1781.73
302.47	1685.48
302.69	1589.22
302.90	1691.62
303.12	1648.61
303.33	1740.77
303.54	1732.58
303.76	1648.61
303.97	1748.97
304.19	1847.27
304.40	1607.66
304.61	1671.14
304.83	1863.65
305.04	1742.82
305.26	1705.96
305.47	1665.00
305.68	1746.92
305.90	1613.80
306.11	1794.02
306.33	1714.15
306.54	1673.19
306.75	1691.62
306.97	1693.67
307.18	1632.23
307.39	1642.47
307.61	1701.86
307.82	1691.62
308.04	1708.01
308.25	1624.04
308.46	1783.78
308.68	1691.62
308.89	1716.20
309.10	1742.82
309.32	1677.29
309.53	1705.96
309.74	1746.92
309.96	1689.57
310.17	1822.69
310.39	1705.96
310.60	1669.09
310.81	1708.01
311.03	1595.37
311.24	1726.44
311.45	1751.01
311.67	1759.21
311.88	1710.05
312.09	1669.09
312.31	1662.95
312.52	1738.73
312.73	1689.57
312.95	1656.81
313.16	1689.57
313.37	1783.78
313.59	1748.97
313.80	1685.48
314.01	1804.26
314.23	1648.61
314.44	1636.33
314.65	1544.17
314.87	1630.18
315.08	1617.90
315.29	1660.90
315.51	1656.81
315.72	1648.61
315.93	1771.49
316.15	1671.14
316.36	1734.63
316.57	1802.21
316.79	1607.66
317.00	1624.04
317.21	1703.91
317.43	1667.05
317.64	1693.67
317.85	1636.33
318.07	1665.00
318.28	1701.86
318.49	1800.16
318.70	1918.95
318.92	1808.36
319.13	1697.77
319.34	1849.32
319.56	1775.59
319.77	1851.36
319.98	1798.12
320.20	1800.16
320.41	1726.44
320.62	1728.49
320.83	1728.49
321.05	1816.55
321.26	1652.71
321.47	1671.14
321.69	1705.96
321.90	1591.27
322.11	1632.23
322.32	1726.44
322.54	1843.17
322.75	1712.10
322.96	1781.73
323.18	1593.32
323.39	1640.42
323.60	1669.09
323.81	1714.15
324.03	1611.75
324.24	1714.15
324.45	1691.62
324.66	1763.30
324.88	1648.61
325.09	1775.59
325.30	1671.14
325.52	1763.30
325.73	1720.29
325.94	1624.04
326.15	1642.47
326.37	1671.14
326.58	1787.88
326.79	1796.07
327.00	1691.62
327.22	1628.14
327.43	1662.95
327.64	1671.14
327.85	1708.01
328.07	1691.62
328.28	1773.54
328.49	1660.90
328.70	1699.81
328.92	1710.05
329.13	1660.90
329.34	1722.34
329.55	1757.16
329.76	1728.49
329.98	1671.14
330.19	1705.96
330.40	1712.10
330.61	1775.59
330.83	1734.63
331.04	1687.53
331.25	1710.05
331.46	1613.80
331.68	1734.63
331.89	1804.26
332.10	1697.77
332.31	1566.70
332.52	1744.87
332.74	1748.97
332.95	1650.66
333.16	1662.95
333.37	1665.00
333.58	1665.00
333.80	1726.44
334.01	1648.61
334.22	1734.63
334.43	1681.38
334.64	1712.10
334.86	1626.09
335.07	1544.17
335.28	1789.92
335.49	1677.29
335.70	1761.25
335.92	1746.92
336.13	1785.83
336.34	1800.16
336.55	1712.10
336.76	1683.43
336.98	1628.14
337.19	1761.25
337.40	1855.46
337.61	1857.51
337.82	1728.49
338.04	1736.68
338.25	1634.28
338.46	1748.97
338.67	1714.15
338.88	1662.95
339.09	1562.60
339.31	1634.28
339.52	1578.98
339.73	1642.47
339.94	1689.57
340.15	1751.01
340.36	1736.68
340.58	1644.52
340.79	1677.29
341.00	1626.09
341.21	1642.47
341.42	1814.50
341.63	1656.81
341.85	1726.44
342.06	1632.23
342.27	1667.05
342.48	1845.22
342.69	1527.78
342.90	1689.57
343.12	1730.53
343.33	1708.01
343.54	1757.16
343.75	1714.15
343.96	1724.39
344.17	1654.76
344.38	1701.86
344.60	1603.56
344.81	1599.46
345.02	1699.81
345.23	1777.64
345.44	1849.32
345.65	1759.21
345.86	1718.25
346.07	1761.25
346.29	1724.39
346.50	1796.07
346.71	1748.97
346.92	1751.01
347.13	1820.64
347.34	1660.90
347.55	1652.71
347.76	1615.85
347.98	1624.04
348.19	1683.43
348.40	1746.92
348.61	1730.53
348.82	1832.93
349.03	1777.64
349.24	1720.29
349.45	1902.56
349.66	1619.94
349.88	1728.49
350.09	1662.95
350.30	1718.25
350.51	1751.01
350.72	1734.63
350.93	1689.57
351.14	1630.18
351.35	1695.72
351.56	1699.81
351.77	1681.38
351.99	1658.85
352.20	1806.31
352.41	1789.92
352.62	1597.42
352.83	1716.20
353.04	1732.58
353.25	1650.66
353.46	1738.73
353.67	1718.25
353.88	1576.94
354.09	1714.15
354.30	1712.10
354.52	1759.21
354.73	1687.53
354.94	1626.09
355.15	1763.30
355.36	1804.26
355.57	1732.58
355.78	1662.95
355.99	1708.01
356.20	1634.28
356.41	1742.82
356.62	1615.85
356.83	1753.06
357.04	1736.68
357.25	1593.32
357.46	1683.43
357.68	1697.77
357.89	1648.61
358.10	1642.47
358.31	1689.57
358.52	1642.47
358.73	1615.85
358.94	1732.58
359.15	1634.28
359.36	1708.01
359.57	1708.01
359.78	1689.57
359.99	1730.53
360.20	1662.95
360.41	1687.53
360.62	1730.53
360.83	1705.96
361.04	1708.01
361.25	1697.77
361.46	1818.60
361.67	1779.68
361.88	1802.21
362.09	1710.05
362.30	1714.15
362.51	1589.22
362.72	1703.91
362.93	1730.53
363.14	1781.73
363.35	1665.00
363.56	1619.94
363.78	1675.24
363.99	1789.92
364.20	1624.04
364.41	1722.34
364.62	1794.02
364.83	1693.67
365.04	1742.82
365.25	1585.13
365.46	1830.88
365.67	1662.95
365.88	1624.04
366.09	1683.43
366.30	1634.28
366.51	1718.25
366.72	1687.53
366.93	1716.20
367.14	1722.34
367.35	1746.92
367.56	1724.39
367.77	1728.49
367.98	1726.44
368.18	1738.73
368.39	1728.49
368.60	1632.23
368.81	1667.05
369.02	1787.88
369.23	1705.96
369.44	1617.90
369.65	1642.47
369.86	1665.00
370.07	1763.30
370.28	1615.85
370.49	1687.53
370.70	1742.82
370.91	1660.90
371.12	1665.00
371.33	1775.59
371.54	1695.72
371.75	1812.45
371.96	1576.94
372.17	1798.12
372.38	1636.33
372.59	1740.77
372.80	1662.95
373.01	1646.57
373.22	1734.63
373.43	1712.10
373.64	1681.38
373.85	1771.49
374.06	1849.32
374.26	1796.07
374.47	1687.53
374.68	1781.73
374.89	1742.82
375.10	1624.04
375.31	1773.54
375.52	1724.39
375.73	1724.39
375.94	1665.00
376.15	1802.21
376.36	1648.61
376.57	1630.18
376.78	1673.19
376.99	1718.25
377.20	1783.78
377.40	1691.62
377.61	1869.80
377.82	1607.66
378.03	1746.92
378.24	1675.24
378.45	1705.96
378.66	1783.78
378.87	1574.89
379.08	1607.66
379.29	1742.82
379.50	1685.48
379.71	1712.10
379.91	1834.98
380.12	1726.44
380.33	1660.90
380.54	1687.53
380.75	1646.57
380.96	1716.20
381.17	1794.02
381.38	1718.25
381.59	1695.72
381.80	1771.49
382.00	1742.82
382.21	1736.68
382.42	1859.56
382.63	1869.80
382.84	1689.57
383.05	1800.16
383.26	1759.21
383.47	1763.30
383.68	1708.01
383.88	1777.64
384.09	1681.38
384.30	1798.12
384.51	1740.77
384.72	1726.44
384.93	1621.99
385.14	1730.53
385.35	1761.25
385.55	1642.47
385.76	1730.53
385.97	1603.56
386.18	1660.90
386.39	1669.09
386.60	1783.78
386.81	1697.77
387.02	1705.96
387.22	1654.76
387.43	1738.73
387.64	1834.98
387.85	1890.28
388.06	2154.46
388.27	4249.54
388.48	6819.74
388.68	7980.93
388.89	9572.21
389.10	9670.51
389.31	8552.32
389.52	7612.30
389.73	6533.02
389.93	6311.84
390.14	5746.60
390.35	5142.45
390.56	4513.72
390.77	3770.31
390.98	3061.71
391.18	2435.03
391.39	2205.66
391.60	1894.37
391.81	1861.60
392.02	1726.44
392.23	1890.28
392.43	1744.87
392.64	1761.25
392.85	1722.34
393.06	1841.12
393.27	1697.77
393.47	1648.61
393.68	1759.21
393.89	1665.00
394.10	1722.34
394.31	1648.61
394.52	1648.61
394.72	1646.57
394.93	1814.50
395.14	1714.15
395.35	1691.62
395.56	1748.97
395.76	1683.43
395.97	1791.97
396.18	1816.55
396.39	1832.93
396.60	2054.11
396.80	1925.09
397.01	1796.07
397.22	1785.83
397.43	1839.08
397.64	1675.24
397.84	1744.87
398.05	1826.79
398.26	1759.21
398.47	1650.66
398.67	1765.35
398.88	1689.57
399.09	1697.77
399.30	1695.72
399.51	1718.25
399.71	1701.86
399.92	1689.57
400.13	1693.67
400.34	1628.14
400.54	1665.00
400.75	1857.51
400.96	1769.44
401.17	1894.37
401.37	1718.25
401.58	1773.54
401.79	1824.74
402.00	1787.88
402.21	1968.10
402.41	1920.99
402.62	2011.11
402.83	2052.06
403.04	1986.53
403.24	2025.44
403.45	1853.41
403.66	1906.66
403.87	1875.94
404.07	1935.33
404.28	1884.13
404.49	1873.89
404.70	1705.96
404.90	1804.26
405.11	1767.40
405.32	1794.02
405.52	1716.20
405.73	1638.38
405.94	1617.90
406.15	1677.29
406.35	1804.26
406.56	1798.12
406.77	1648.61
406.98	1763.30
407.18	1681.38
407.39	1693.67
407.60	1689.57
407.80	1718.25
408.01	1685.48
408.22	1720.29
408.43	1683.43
408.63	1703.91
408.84	1818.60
409.05	1675.24
409.25	1740.77
409.46	1710.05
409.67	1679.33
409.88	1710.05
410.08	1744.87
410.29	1718.25
410.50	1732.58
410.70	1703.91
410.91	1652.71
411.12	1730.53
411.32	1689.57
411.53	1634.28
411.74	1834.98
411.95	1767.40
412.15	1710.05
412.36	1812.45
412.57	1755.11
412.77	1859.56
412.98	1699.81
413.19	1693.67
413.39	1726.44
413.60	1775.59
413.81	1837.03
414.01	1591.27
414.22	1779.68
414.43	1724.39
414.63	1636.33
414.84	1728.49
415.05	1740.77
415.25	1652.71
415.46	1662.95
415.67	1656.81
415.87	1740.77
416.08	1730.53
416.29	1710.05
416.49	1748.97
416.70	1671.14
416.91	1650.66
417.11	1640.42
417.32	1787.88
417.53	1720.29
417.73	1695.72
417.94	1654.76
418.15	1644.52
418.35	1753.06
418.56	1712.10
418.77	1886.18
418.97	1759.21
419.18	1685.48
419.38	1615.85
419.59	1648.61
419.80	1791.97
420.00	1734.63
420.21	1634.28
420.42	1761.25
420.62	1726.44
420.83	1708.01
421.04	1703.91
421.24	1746.92
421.45	1728.49
421.65	1693.67
421.86	1695.72
422.07	1757.16
422.27	1714.15
422.48	1710.05
422.69	1634.28
422.89	1712.10
423.10	1675.24
423.30	1654.76
423.51	1730.53
423.72	1748.97
423.92	1726.44
424.13	1626.09
424.33	1677.29
424.54	1722.34
424.75	1669.09
424.95	1834.98
425.16	1705.96
425.36	1619.94
425.57	1853.41
425.78	1708.01
425.98	1802.21
426.19	1720.29
426.39	1601.51
426.60	1658.85
426.81	1816.55
427.01	1761.25
427.22	1685.48
427.42	1646.57
427.63	1705.96
427.83	1820.64
428.04	1847.27
428.25	1810.40
428.45	1718.25
428.66	1701.86
428.86	1732.58
429.07	1716.20
429.28	1775.59
429.48	1689.57
429.69	1615.85
429.89	1718.25
430.10	1665.00
430.30	1658.85
430.51	1765.35
430.71	1669.09
430.92	1701.86
431.13	1705.96
431.33	1775.59
431.54	1720.29
431.74	1816.55
431.95	1918.95
432.15	1677.29
432.36	1724.39
432.56	1751.01
432.77	1804.26
432.98	1787.88
433.18	1677.29
433.39	1689.57
433.59	1734.63
433.80	1841.12
434.00	1865.70
434.21	1779.68
434.41	1740.77
434.62	1783.78
434.82	1615.85
435.03	1705.96
435.23	1714.15
435.44	1591.27
435.64	1699.81
435.85	1724.39
436.06	1710.05
436.26	1775.59
436.47	1699.81
436.67	1632.23
436.88	1644.52
437.08	1714.15
437.29	1740.77
437.49	1679.33
437.70	1777.64
437.90	1718.25
438.11	1808.36
438.31	1787.88
438.52	1798.12
438.72	1867.75
438.93	1918.95
439.13	1828.84
439.34	1796.07
439.54	1705.96
439.75	1783.78
439.95	1845.22
440.16	1724.39
440.36	1726.44
440.57	1800.16
440.77	1732.58
440.98	1738.73
441.18	1816.55
441.39	1667.05
441.59	1642.47
441.80	1816.55
442.00	1728.49
442.21	1771.49
442.41	1632.23
442.62	1783.78
442.82	1753.06
443.02	1697.77
443.23	1728.49
443.43	1656.81
443.64	1794.02
443.84	1624.04
444.05	1822.69
444.25	1722.34
444.46	1712.10
444.66	1724.39
444.87	1779.68
445.07	1708.01
445.28	1781.73
445.48	1837.03
445.69	1834.98
445.89	1800.16
446.09	1689.57
446.30	2033.63
446.50	2656.22
446.71	3674.06
446.91	4337.60
447.12	4673.46
447.32	4816.82
447.53	4323.26
447.73	3925.96
447.93	3475.40
448.14	3370.96
448.34	3231.69
448.55	2926.55
448.75	2869.20
448.96	2770.90
449.16	2424.80
449.36	2240.48
449.57	2017.25
449.77	1918.95
449.98	1738.73
450.18	1800.16
450.39	1812.45
450.59	1748.97
450.79	1751.01
451.00	1726.44
451.20	1828.84
451.41	1742.82
451.61	1769.44
451.81	1607.66
452.02	1705.96
452.22	1722.34
452.43	1755.11
452.63	1722.34
