SpectraSuite Data File
++++++++++++++++++++++++++++++++++++
Date: Mon Jun 06 15:04:57 CEST 2016
User: root
Dark Spectrum Present: No
Reference Spectrum Present: No
Number of Sampled Component Spectra: 1
Spectrometers: USB4C02835
Integration Time (usec): 100000 (USB4C02835)
Spectra Averaged: 1 (USB4C02835)
Boxcar Smoothing: 0 (USB4C02835)
Correct for Electrical Dark: No (USB4C02835)
Strobe/Lamp Enabled: No (USB4C02835)
Correct for Detector Non-linearity: No (USB4C02835)
Correct for Stray Light: No (USB4C02835)
Number of Pixels in Processed Spectrum: 3648
>>>>>Begin Processed Spectral Data<<<<<
177.47	1404.91
177.69	1404.91
177.91	1404.91
178.13	1449.96
178.36	1470.44
178.58	1703.91
178.80	1769.44
179.02	1607.66
179.24	1681.38
179.46	1693.67
179.68	1738.73
179.90	1673.19
180.13	1646.57
180.35	1693.67
180.57	1640.42
180.79	1753.06
181.01	1671.14
181.23	1742.82
181.45	1722.34
181.67	1775.59
181.90	1724.39
182.12	1652.71
182.34	1621.99
182.56	1638.38
182.78	1689.57
183.00	1667.05
183.22	1785.83
183.44	1609.70
183.66	1798.12
183.89	1789.92
184.11	1703.91
184.33	1779.68
184.55	1748.97
184.77	1642.47
184.99	1742.82
185.21	1732.58
185.43	1800.16
185.65	1744.87
185.87	1718.25
186.10	1783.78
186.32	1769.44
186.54	1705.96
186.76	1724.39
186.98	1800.16
187.20	1693.67
187.42	1689.57
187.64	1738.73
187.86	1740.77
188.08	1724.39
188.30	1708.01
188.52	1693.67
188.75	1812.45
188.97	1726.44
189.19	1693.67
189.41	1691.62
189.63	1755.11
189.85	1646.57
190.07	1685.48
190.29	1609.70
190.51	1671.14
190.73	1683.43
190.95	1769.44
191.17	1802.21
191.39	1626.09
191.61	1667.05
191.84	1691.62
192.06	1740.77
192.28	1638.38
192.50	1847.27
192.72	1689.57
192.94	1718.25
193.16	1832.93
193.38	1701.86
193.60	1642.47
193.82	1638.38
194.04	1798.12
194.26	1703.91
194.48	1681.38
194.70	1701.86
194.92	1597.42
195.14	1798.12
195.36	1718.25
195.58	1624.04
195.80	1648.61
196.02	1751.01
196.24	1636.33
196.46	1646.57
196.69	1640.42
196.91	1849.32
197.13	1673.19
197.35	1669.09
197.57	1826.79
197.79	1742.82
198.01	1751.01
198.23	1734.63
198.45	1718.25
198.67	1705.96
198.89	1603.56
199.11	1751.01
199.33	1732.58
199.55	1576.94
199.77	1683.43
199.99	1757.16
200.21	1611.75
200.43	1699.81
200.65	1603.56
200.87	1617.90
201.09	1701.86
201.31	1667.05
201.53	1732.58
201.75	1738.73
201.97	1705.96
202.19	1763.30
202.41	1791.97
202.63	1808.36
202.85	1703.91
203.07	1773.54
203.29	1695.72
203.51	1589.22
203.73	1665.00
203.95	1855.46
204.17	1652.71
204.39	1697.77
204.61	1636.33
204.83	1710.05
205.05	1791.97
205.27	1712.10
205.49	1841.12
205.71	1746.92
205.93	1673.19
206.15	1765.35
206.37	1744.87
206.59	1681.38
206.81	1615.85
207.03	1734.63
207.25	1662.95
207.47	1673.19
207.69	1689.57
207.91	1820.64
208.13	1802.21
208.34	1658.85
208.56	1671.14
208.78	1767.40
209.00	1681.38
209.22	1673.19
209.44	1644.52
209.66	1714.15
209.88	1656.81
210.10	1662.95
210.32	1679.33
210.54	1765.35
210.76	1646.57
210.98	1763.30
211.20	1595.37
211.42	1646.57
211.64	1753.06
211.86	1689.57
212.08	1697.77
212.30	1691.62
212.52	1691.62
212.74	1693.67
212.96	1701.86
213.17	1771.49
213.39	1724.39
213.61	1781.73
213.83	1667.05
214.05	1632.23
214.27	1689.57
214.49	1708.01
214.71	1708.01
214.93	1779.68
215.15	1746.92
215.37	1691.62
215.59	1648.61
215.81	1746.92
216.03	1728.49
216.24	1769.44
216.46	1710.05
216.68	1736.68
216.90	1685.48
217.12	1736.68
217.34	1714.15
217.56	1751.01
217.78	1785.83
218.00	1779.68
218.22	1691.62
218.44	1726.44
218.66	1695.72
218.87	1869.80
219.09	1773.54
219.31	1724.39
219.53	1689.57
219.75	1695.72
219.97	1710.05
220.19	1646.57
220.41	1728.49
220.63	1777.64
220.85	1685.48
221.06	1619.94
221.28	1755.11
221.50	1705.96
221.72	1699.81
221.94	1712.10
222.16	1742.82
222.38	1718.25
222.60	1667.05
222.82	1685.48
223.03	1771.49
223.25	1632.23
223.47	1732.58
223.69	1820.64
223.91	1757.16
224.13	1667.05
224.35	1712.10
224.57	1769.44
224.78	1816.55
225.00	1630.18
225.22	1697.77
225.44	1767.40
225.66	1658.85
225.88	1621.99
226.10	1759.21
226.32	1648.61
226.53	1740.77
226.75	1728.49
226.97	1656.81
227.19	1609.70
227.41	1736.68
227.63	1595.37
227.85	1546.22
228.06	1656.81
228.28	1744.87
228.50	1796.07
228.72	1669.09
228.94	1660.90
229.16	1570.79
229.37	1587.18
229.59	1638.38
229.81	1718.25
230.03	1705.96
230.25	1611.75
230.47	1656.81
230.69	1728.49
230.90	1730.53
231.12	1632.23
231.34	1720.29
231.56	1771.49
231.78	1595.37
232.00	1714.15
232.21	1656.81
232.43	1658.85
232.65	1667.05
232.87	1699.81
233.09	1697.77
233.30	1630.18
233.52	1757.16
233.74	1718.25
233.96	1744.87
234.18	1773.54
234.40	1718.25
234.61	1849.32
234.83	1644.52
235.05	1613.80
235.27	1822.69
235.49	1791.97
235.70	1724.39
235.92	1822.69
236.14	1728.49
236.36	1822.69
236.58	1660.90
236.79	1753.06
237.01	1683.43
237.23	1695.72
237.45	1781.73
237.67	1699.81
237.88	1654.76
238.10	1781.73
238.32	1705.96
238.54	1691.62
238.76	1767.40
238.97	1665.00
239.19	1605.61
239.41	1718.25
239.63	1724.39
239.85	1636.33
240.06	1652.71
240.28	1695.72
240.50	1763.30
240.72	1671.14
240.93	1732.58
241.15	1724.39
241.37	1734.63
241.59	1767.40
241.81	1654.76
242.02	1691.62
242.24	1669.09
242.46	1767.40
242.68	1654.76
242.89	1781.73
243.11	1718.25
243.33	1728.49
243.55	1695.72
243.76	1685.48
243.98	1691.62
244.20	1718.25
244.42	1705.96
244.64	1667.05
244.85	1599.46
245.07	1644.52
245.29	1726.44
245.51	1634.28
245.72	1683.43
245.94	1701.86
246.16	1648.61
246.38	1771.49
246.59	1644.52
246.81	1652.71
247.03	1671.14
247.24	1619.94
247.46	1648.61
247.68	1644.52
247.90	1718.25
248.11	1705.96
248.33	1767.40
248.55	1697.77
248.77	1720.29
248.98	1763.30
249.20	1753.06
249.42	1783.78
249.64	1757.16
249.85	1667.05
250.07	1628.14
250.29	1791.97
250.50	1712.10
250.72	1611.75
250.94	1763.30
251.16	1832.93
251.37	1753.06
251.59	1730.53
251.81	1683.43
252.02	1779.68
252.24	1720.29
252.46	1722.34
252.68	1605.61
252.89	1642.47
253.11	1638.38
253.33	1765.35
253.54	1783.78
253.76	1601.51
253.98	1611.75
254.20	1763.30
254.41	1671.14
254.63	1755.11
254.85	1646.57
255.06	1679.33
255.28	1695.72
255.50	1654.76
255.71	1652.71
255.93	1636.33
256.15	1679.33
256.36	1748.97
256.58	1593.32
256.80	1804.26
257.02	1722.34
257.23	1681.38
257.45	1716.20
257.67	1781.73
257.88	1677.29
258.10	1697.77
258.32	1736.68
258.53	1785.83
258.75	1787.88
258.97	1634.28
259.18	1718.25
259.40	1712.10
259.62	1775.59
259.83	1751.01
260.05	1755.11
260.27	1910.75
260.48	1740.77
260.70	1593.32
260.92	1705.96
261.13	1714.15
261.35	1738.73
261.57	1751.01
261.78	1585.13
262.00	1660.90
262.22	1763.30
262.43	1624.04
262.65	1615.85
262.86	1734.63
263.08	1886.18
263.30	1757.16
263.51	1681.38
263.73	1669.09
263.95	1751.01
264.16	1658.85
264.38	1689.57
264.60	1693.67
264.81	1720.29
265.03	1734.63
265.25	1730.53
265.46	1650.66
265.68	1834.98
265.89	1708.01
266.11	1621.99
266.33	1796.07
266.54	1736.68
266.76	1802.21
266.98	1732.58
267.19	1832.93
267.41	1771.49
267.62	1693.67
267.84	1613.80
268.06	1714.15
268.27	1718.25
268.49	1757.16
268.70	1777.64
268.92	1718.25
269.14	1669.09
269.35	1648.61
269.57	1753.06
269.79	1746.92
270.00	1681.38
270.22	1769.44
270.43	1703.91
270.65	1595.37
270.87	1630.18
271.08	1710.05
271.30	1771.49
271.51	1767.40
271.73	1701.86
271.95	1765.35
272.16	1703.91
272.38	1755.11
272.59	1695.72
272.81	1667.05
273.02	1726.44
273.24	1757.16
273.46	1701.86
273.67	1687.53
273.89	1660.90
274.10	1699.81
274.32	1773.54
274.54	1714.15
274.75	1773.54
274.97	1681.38
275.18	1716.20
275.40	1697.77
275.61	1685.48
275.83	1740.77
276.05	1591.27
276.26	1665.00
276.48	1710.05
276.69	1621.99
276.91	1667.05
277.12	1771.49
277.34	1732.58
277.55	1783.78
277.77	1769.44
277.99	1689.57
278.20	1714.15
278.42	1650.66
278.63	1658.85
278.85	1619.94
279.06	1591.27
279.28	1671.14
279.49	1798.12
279.71	1759.21
279.93	1679.33
280.14	1714.15
280.36	1773.54
280.57	1726.44
280.79	1740.77
281.00	1742.82
281.22	1605.61
281.43	1767.40
281.65	1560.55
281.86	1650.66
282.08	1656.81
282.29	1818.60
282.51	1583.08
282.73	1562.60
282.94	1705.96
283.16	1744.87
283.37	1771.49
283.59	1804.26
283.80	1679.33
284.02	1712.10
284.23	1705.96
284.45	1683.43
284.66	1687.53
284.88	1693.67
285.09	1705.96
285.31	1806.31
285.52	1697.77
285.74	1710.05
285.95	1722.34
286.17	1767.40
286.38	1718.25
286.60	1615.85
286.81	1628.14
287.03	1671.14
287.24	1730.53
287.46	1746.92
287.67	1781.73
287.89	1828.84
288.10	1730.53
288.32	1699.81
288.53	1783.78
288.75	1718.25
288.96	1730.53
289.18	1703.91
289.39	1724.39
289.61	1763.30
289.82	1859.56
290.04	1849.32
290.25	1585.13
290.47	1708.01
290.68	1675.24
290.90	1714.15
291.11	1671.14
291.33	1689.57
291.54	1619.94
291.76	1591.27
291.97	1601.51
292.18	1703.91
292.40	1701.86
292.61	1648.61
292.83	1732.58
293.04	1695.72
293.26	1699.81
293.47	1705.96
293.69	1699.81
293.90	1662.95
294.12	1771.49
294.33	1763.30
294.55	1667.05
294.76	1705.96
294.97	1837.03
295.19	1847.27
295.40	1679.33
295.62	1730.53
295.83	1753.06
296.05	1640.42
296.26	1716.20
296.48	1714.15
296.69	1646.57
296.90	1673.19
297.12	1730.53
297.33	1746.92
297.55	1746.92
297.76	1695.72
297.98	1708.01
298.19	1677.29
298.41	1642.47
298.62	1718.25
298.83	1853.41
299.05	1726.44
299.26	1710.05
299.48	1669.09
299.69	1722.34
299.90	1699.81
300.12	1681.38
300.33	1812.45
300.55	1708.01
300.76	1738.73
300.98	1644.52
301.19	1761.25
301.40	1652.71
301.62	1671.14
301.83	1683.43
302.05	1761.25
302.26	1705.96
302.47	1701.86
302.69	1634.28
302.90	1748.97
303.12	1611.75
303.33	1722.34
303.54	1748.97
303.76	1675.24
303.97	1775.59
304.19	1849.32
304.40	1611.75
304.61	1736.68
304.83	1867.75
305.04	1787.88
305.26	1748.97
305.47	1701.86
305.68	1708.01
305.90	1593.32
306.11	1724.39
306.33	1675.24
306.54	1736.68
306.75	1669.09
306.97	1617.90
307.18	1662.95
307.39	1740.77
307.61	1716.20
307.82	1654.76
308.04	1654.76
308.25	1716.20
308.46	1740.77
308.68	1701.86
308.89	1703.91
309.10	1810.40
309.32	1738.73
309.53	1703.91
309.74	1753.06
309.96	1685.48
310.17	1773.54
310.39	1621.99
310.60	1763.30
310.81	1693.67
311.03	1660.90
311.24	1726.44
311.45	1716.20
311.67	1773.54
311.88	1705.96
312.09	1742.82
312.31	1712.10
312.52	1673.19
312.73	1712.10
312.95	1636.33
313.16	1732.58
313.37	1767.40
313.59	1759.21
313.80	1789.92
314.01	1787.88
314.23	1697.77
314.44	1695.72
314.65	1611.75
314.87	1675.24
315.08	1648.61
315.29	1673.19
315.51	1636.33
315.72	1619.94
315.93	1798.12
316.15	1724.39
316.36	1677.29
316.57	1789.92
316.79	1742.82
317.00	1677.29
317.21	1775.59
317.43	1630.18
317.64	1730.53
317.85	1624.04
318.07	1665.00
318.28	1763.30
318.49	1800.16
318.70	1875.94
318.92	1832.93
319.13	1818.60
319.34	1914.85
319.56	1757.16
319.77	1777.64
319.98	1779.68
320.20	1781.73
320.41	1703.91
320.62	1683.43
320.83	1634.28
321.05	1751.01
321.26	1701.86
321.47	1683.43
321.69	1751.01
321.90	1652.71
322.11	1681.38
322.32	1701.86
322.54	1783.78
322.75	1716.20
322.96	1845.22
323.18	1638.38
323.39	1640.42
323.60	1677.29
323.81	1746.92
324.03	1642.47
324.24	1683.43
324.45	1730.53
324.66	1609.70
324.88	1716.20
325.09	1828.84
325.30	1705.96
325.52	1748.97
325.73	1693.67
325.94	1632.23
326.15	1585.13
326.37	1722.34
326.58	1830.88
326.79	1742.82
327.00	1685.48
327.22	1740.77
327.43	1697.77
327.64	1656.81
327.85	1734.63
328.07	1742.82
328.28	1808.36
328.49	1665.00
328.70	1636.33
328.92	1695.72
329.13	1665.00
329.34	1710.05
329.55	1785.83
329.76	1763.30
329.98	1730.53
330.19	1816.55
330.40	1789.92
330.61	1763.30
330.83	1771.49
331.04	1658.85
331.25	1763.30
331.46	1669.09
331.68	1689.57
331.89	1775.59
332.10	1714.15
332.31	1640.42
332.52	1669.09
332.74	1759.21
332.95	1613.80
333.16	1742.82
333.37	1695.72
333.58	1693.67
333.80	1728.49
334.01	1640.42
334.22	1683.43
334.43	1632.23
334.64	1701.86
334.86	1697.77
335.07	1705.96
335.28	1802.21
335.49	1644.52
335.70	1722.34
335.92	1724.39
336.13	1884.13
336.34	1744.87
336.55	1726.44
336.76	1665.00
336.98	1589.22
337.19	1759.21
337.40	1849.32
337.61	1849.32
337.82	1642.47
338.04	1703.91
338.25	1587.18
338.46	1718.25
338.67	1777.64
338.88	1710.05
339.09	1595.37
339.31	1640.42
339.52	1599.46
339.73	1710.05
339.94	1691.62
340.15	1738.73
340.36	1660.90
340.58	1724.39
340.79	1669.09
341.00	1724.39
341.21	1624.04
341.42	1775.59
341.63	1734.63
341.85	1736.68
342.06	1654.76
342.27	1626.09
342.48	1746.92
342.69	1566.70
342.90	1722.34
343.12	1730.53
343.33	1705.96
343.54	1730.53
343.75	1826.79
343.96	1619.94
344.17	1558.50
344.38	1730.53
344.60	1714.15
344.81	1609.70
345.02	1724.39
345.23	1665.00
345.44	1765.35
345.65	1769.44
345.86	1753.06
346.07	1693.67
346.29	1609.70
346.50	1722.34
346.71	1757.16
346.92	1746.92
347.13	1785.83
347.34	1697.77
347.55	1734.63
347.76	1765.35
347.98	1628.14
348.19	1660.90
348.40	1834.98
348.61	1689.57
348.82	1751.01
349.03	1744.87
349.24	1701.86
349.45	1904.61
349.66	1656.81
349.88	1722.34
350.09	1669.09
350.30	1724.39
350.51	1726.44
350.72	1699.81
350.93	1640.42
351.14	1656.81
351.35	1708.01
351.56	1685.48
351.77	1746.92
351.99	1726.44
352.20	1783.78
352.41	1652.71
352.62	1685.48
352.83	1687.53
353.04	1642.47
353.25	1628.14
353.46	1740.77
353.67	1726.44
353.88	1628.14
354.09	1796.07
354.30	1722.34
354.52	1708.01
354.73	1699.81
354.94	1681.38
355.15	1656.81
355.36	1734.63
355.57	1636.33
355.78	1763.30
355.99	1652.71
356.20	1722.34
356.41	1742.82
356.62	1732.58
356.83	1683.43
357.04	1808.36
357.25	1632.23
357.46	1738.73
357.68	1591.27
357.89	1665.00
358.10	1734.63
358.31	1730.53
358.52	1779.68
358.73	1650.66
358.94	1593.32
359.15	1648.61
359.36	1751.01
359.57	1708.01
359.78	1658.85
359.99	1736.68
360.20	1654.76
360.41	1646.57
360.62	1716.20
360.83	1679.33
361.04	1656.81
361.25	1785.83
361.46	1794.02
361.67	1734.63
361.88	1769.44
362.09	1734.63
362.30	1722.34
362.51	1693.67
362.72	1726.44
362.93	1755.11
363.14	1810.40
363.35	1665.00
363.56	1714.15
363.78	1796.07
363.99	1689.57
364.20	1619.94
364.41	1728.49
364.62	1880.04
364.83	1734.63
365.04	1662.95
365.25	1658.85
365.46	1820.64
365.67	1648.61
365.88	1626.09
366.09	1708.01
366.30	1734.63
366.51	1736.68
366.72	1693.67
366.93	1681.38
367.14	1646.57
367.35	1767.40
367.56	1695.72
367.77	1761.25
367.98	1720.29
368.18	1710.05
368.39	1746.92
368.60	1609.70
368.81	1822.69
369.02	1724.39
369.23	1714.15
369.44	1531.88
369.65	1734.63
369.86	1771.49
370.07	1773.54
370.28	1613.80
370.49	1687.53
370.70	1652.71
370.91	1714.15
371.12	1695.72
371.33	1763.30
371.54	1691.62
371.75	1783.78
371.96	1560.55
372.17	1777.64
372.38	1705.96
372.59	1685.48
372.80	1705.96
373.01	1640.42
373.22	1701.86
373.43	1708.01
373.64	1621.99
373.85	1845.22
374.06	1839.08
374.26	1714.15
374.47	1728.49
374.68	1701.86
374.89	1654.76
375.10	1671.14
375.31	1796.07
375.52	1654.76
375.73	1701.86
375.94	1646.57
376.15	1808.36
376.36	1691.62
376.57	1691.62
376.78	1619.94
376.99	1714.15
377.20	1789.92
377.40	1714.15
377.61	1839.08
377.82	1595.37
378.03	1789.92
378.24	1689.57
378.45	1650.66
378.66	1703.91
378.87	1542.12
379.08	1621.99
379.29	1646.57
379.50	1736.68
379.71	1642.47
379.91	1726.44
380.12	1656.81
380.33	1740.77
380.54	1697.77
380.75	1722.34
380.96	1693.67
381.17	1779.68
381.38	1660.90
381.59	1732.58
381.80	1753.06
382.00	1791.97
382.21	1708.01
382.42	1816.55
382.63	1818.60
382.84	1806.31
383.05	1742.82
383.26	1767.40
383.47	1703.91
383.68	1746.92
383.88	1695.72
384.09	1730.53
384.30	1812.45
384.51	1781.73
384.72	1638.38
384.93	1667.05
385.14	1734.63
385.35	1665.00
385.55	1687.53
385.76	1808.36
385.97	1705.96
386.18	1705.96
386.39	1685.48
386.60	1695.72
386.81	1718.25
387.02	1665.00
387.22	1644.52
387.43	1773.54
387.64	1714.15
387.85	1818.60
388.06	2209.76
388.27	4237.25
388.48	6530.97
388.68	7948.17
388.89	9226.10
389.10	9533.29
389.31	8376.19
389.52	7409.55
389.73	6471.58
389.93	6047.65
390.14	5554.09
390.35	5035.96
390.56	4452.28
390.77	3700.68
390.98	2906.07
391.18	2439.13
391.39	2084.83
391.60	1888.23
391.81	1769.44
392.02	1726.44
392.23	1959.91
392.43	1777.64
392.64	1816.55
392.85	1722.34
393.06	1789.92
393.27	1804.26
393.47	1677.29
393.68	1703.91
393.89	1656.81
394.10	1767.40
394.31	1646.57
394.52	1613.80
394.72	1638.38
394.93	1832.93
395.14	1673.19
395.35	1724.39
395.56	1683.43
395.76	1804.26
395.97	1738.73
396.18	1855.46
396.39	1820.64
396.60	2021.35
396.80	1867.75
397.01	1826.79
397.22	1771.49
397.43	1849.32
397.64	1763.30
397.84	1812.45
398.05	1830.88
398.26	1734.63
398.47	1755.11
398.67	1798.12
398.88	1722.34
399.09	1785.83
399.30	1691.62
399.51	1763.30
399.71	1648.61
399.92	1626.09
400.13	1742.82
400.34	1701.86
400.54	1722.34
400.75	1808.36
400.96	1701.86
401.17	1837.03
401.37	1773.54
401.58	1693.67
401.79	1656.81
402.00	1806.31
402.21	1996.77
402.41	1896.42
402.62	2015.20
402.83	2045.92
403.04	2004.96
403.24	2009.06
403.45	1746.92
403.66	1947.62
403.87	1810.40
404.07	1865.70
404.28	1964.00
404.49	1839.08
404.70	1748.97
404.90	1785.83
405.11	1718.25
405.32	1658.85
405.52	1660.90
405.73	1650.66
405.94	1568.74
406.15	1732.58
406.35	1738.73
406.56	1769.44
406.77	1783.78
406.98	1763.30
407.18	1638.38
407.39	1796.07
407.60	1687.53
407.80	1755.11
408.01	1734.63
408.22	1732.58
408.43	1662.95
408.63	1808.36
408.84	1728.49
409.05	1759.21
409.25	1673.19
409.46	1650.66
409.67	1722.34
409.88	1720.29
410.08	1748.97
410.29	1665.00
410.50	1716.20
410.70	1798.12
410.91	1658.85
411.12	1781.73
411.32	1656.81
411.53	1705.96
411.74	1683.43
411.95	1744.87
412.15	1708.01
412.36	1757.16
412.57	1771.49
412.77	1748.97
412.98	1722.34
413.19	1724.39
413.39	1755.11
413.60	1785.83
413.81	1830.88
414.01	1753.06
414.22	1691.62
414.43	1742.82
414.63	1757.16
414.84	1787.88
415.05	1730.53
415.25	1640.42
415.46	1689.57
415.67	1681.38
415.87	1736.68
416.08	1681.38
416.29	1632.23
416.49	1720.29
416.70	1705.96
416.91	1671.14
417.11	1644.52
417.32	1798.12
417.53	1800.16
417.73	1751.01
417.94	1650.66
418.15	1697.77
418.35	1656.81
418.56	1673.19
418.77	1818.60
418.97	1714.15
419.18	1675.24
419.38	1564.65
419.59	1703.91
419.80	1734.63
420.00	1730.53
420.21	1701.86
420.42	1785.83
420.62	1673.19
420.83	1685.48
421.04	1675.24
421.24	1720.29
421.45	1779.68
421.65	1761.25
421.86	1705.96
422.07	1736.68
422.27	1730.53
422.48	1738.73
422.69	1619.94
422.89	1775.59
423.10	1671.14
423.30	1597.42
423.51	1724.39
423.72	1746.92
423.92	1718.25
424.13	1628.14
424.33	1732.58
424.54	1738.73
424.75	1708.01
424.95	1859.56
425.16	1753.06
425.36	1628.14
425.57	1759.21
425.78	1744.87
425.98	1734.63
426.19	1755.11
426.39	1730.53
426.60	1665.00
426.81	1751.01
427.01	1687.53
427.22	1636.33
427.42	1599.46
427.63	1671.14
427.83	1789.92
428.04	1773.54
428.25	1753.06
428.45	1767.40
428.66	1796.07
428.86	1740.77
429.07	1650.66
429.28	1740.77
429.48	1683.43
429.69	1658.85
429.89	1697.77
430.10	1636.33
430.30	1769.44
430.51	1773.54
430.71	1648.61
430.92	1619.94
431.13	1679.33
431.33	1779.68
431.54	1636.33
431.74	1757.16
431.95	1822.69
432.15	1746.92
432.36	1712.10
432.56	1732.58
432.77	1779.68
432.98	1865.70
433.18	1800.16
433.39	1636.33
433.59	1730.53
433.80	1814.50
434.00	1865.70
434.21	1693.67
434.41	1656.81
434.62	1773.54
434.82	1665.00
435.03	1697.77
435.23	1681.38
435.44	1656.81
435.64	1736.68
435.85	1736.68
436.06	1765.35
436.26	1783.78
436.47	1632.23
436.67	1636.33
436.88	1708.01
437.08	1746.92
437.29	1849.32
437.49	1667.05
437.70	1837.03
437.90	1681.38
438.11	1900.52
438.31	1759.21
438.52	1880.04
438.72	1820.64
438.93	1869.80
439.13	1798.12
439.34	1738.73
439.54	1738.73
439.75	1779.68
439.95	1781.73
440.16	1742.82
440.36	1699.81
440.57	1730.53
440.77	1796.07
440.98	1714.15
441.18	1724.39
441.39	1738.73
441.59	1695.72
441.80	1769.44
442.00	1716.20
442.21	1781.73
442.41	1695.72
442.62	1771.49
442.82	1703.91
443.02	1701.86
443.23	1722.34
443.43	1755.11
443.64	1791.97
443.84	1667.05
444.05	1843.17
444.25	1718.25
444.46	1787.88
444.66	1789.92
444.87	1908.71
445.07	1669.09
445.28	1708.01
445.48	1865.70
445.69	1787.88
445.89	1871.84
446.09	1705.96
446.30	2025.44
446.50	2588.63
446.71	3622.86
446.91	4151.23
447.12	4593.59
447.32	4673.46
447.53	4263.87
447.73	3674.06
447.93	3491.79
448.14	3131.34
448.34	2947.03
448.55	2838.48
448.75	2754.52
448.96	2658.26
449.16	2480.09
449.36	2271.20
449.57	2099.17
449.77	1902.56
449.98	1802.21
450.18	1861.60
450.39	1812.45
450.59	1777.64
450.79	1689.57
451.00	1730.53
451.20	1794.02
451.41	1685.48
451.61	1822.69
451.81	1738.73
452.02	1705.96
452.22	1685.48
452.43	1677.29
452.63	1705.96
