SpectraSuite Data File
++++++++++++++++++++++++++++++++++++
Date: Mon Jun 06 15:00:57 CEST 2016
User: root
Dark Spectrum Present: No
Reference Spectrum Present: No
Number of Sampled Component Spectra: 1
Spectrometers: USB4C02835
Integration Time (usec): 100000 (USB4C02835)
Spectra Averaged: 1 (USB4C02835)
Boxcar Smoothing: 0 (USB4C02835)
Correct for Electrical Dark: No (USB4C02835)
Strobe/Lamp Enabled: No (USB4C02835)
Correct for Detector Non-linearity: No (USB4C02835)
Correct for Stray Light: No (USB4C02835)
Number of Pixels in Processed Spectrum: 3648
>>>>>Begin Processed Spectral Data<<<<<
177.47	1437.67
177.69	1437.67
177.91	1437.67
178.13	1466.35
178.36	1460.20
178.58	1572.84
178.80	1755.11
179.02	1621.99
179.24	1650.66
179.46	1658.85
179.68	1787.88
179.90	1677.29
180.13	1703.91
180.35	1734.63
180.57	1679.33
180.79	1691.62
181.01	1697.77
181.23	1767.40
181.45	1685.48
181.67	1714.15
181.90	1753.06
182.12	1646.57
182.34	1628.14
182.56	1740.77
182.78	1744.87
183.00	1705.96
183.22	1685.48
183.44	1628.14
183.66	1843.17
183.89	1769.44
184.11	1658.85
184.33	1710.05
184.55	1783.78
184.77	1720.29
184.99	1636.33
185.21	1693.67
185.43	1812.45
185.65	1648.61
185.87	1710.05
186.10	1748.97
186.32	1837.03
186.54	1701.86
186.76	1691.62
186.98	1738.73
187.20	1624.04
187.42	1699.81
187.64	1726.44
187.86	1718.25
188.08	1736.68
188.30	1728.49
188.52	1677.29
188.75	1783.78
188.97	1740.77
189.19	1699.81
189.41	1697.77
189.63	1710.05
189.85	1660.90
190.07	1640.42
190.29	1585.13
190.51	1722.34
190.73	1636.33
190.95	1722.34
191.17	1669.09
191.39	1597.42
191.61	1699.81
191.84	1658.85
192.06	1763.30
192.28	1656.81
192.50	1906.66
192.72	1736.68
192.94	1681.38
193.16	1785.83
193.38	1726.44
193.60	1636.33
193.82	1687.53
194.04	1746.92
194.26	1746.92
194.48	1751.01
194.70	1658.85
194.92	1699.81
195.14	1816.55
195.36	1728.49
195.58	1671.14
195.80	1656.81
196.02	1718.25
196.24	1736.68
196.46	1726.44
196.69	1728.49
196.91	1771.49
197.13	1712.10
197.35	1673.19
197.57	1796.07
197.79	1730.53
198.01	1658.85
198.23	1710.05
198.45	1685.48
198.67	1554.41
198.89	1732.58
199.11	1685.48
199.33	1689.57
199.55	1574.89
199.77	1775.59
199.99	1773.54
200.21	1765.35
200.43	1687.53
200.65	1640.42
200.87	1589.22
201.09	1712.10
201.31	1648.61
201.53	1726.44
201.75	1699.81
201.97	1751.01
202.19	1599.46
202.41	1742.82
202.63	1837.03
202.85	1763.30
203.07	1734.63
203.29	1654.76
203.51	1656.81
203.73	1695.72
203.95	1763.30
204.17	1738.73
204.39	1722.34
204.61	1771.49
204.83	1726.44
205.05	1791.97
205.27	1691.62
205.49	1767.40
205.71	1734.63
205.93	1619.94
206.15	1675.24
206.37	1648.61
206.59	1648.61
206.81	1617.90
207.03	1591.27
207.25	1601.51
207.47	1837.03
207.69	1742.82
207.91	1771.49
208.13	1824.74
208.34	1640.42
208.56	1701.86
208.78	1748.97
209.00	1626.09
209.22	1624.04
209.44	1677.29
209.66	1650.66
209.88	1632.23
210.10	1617.90
210.32	1665.00
210.54	1724.39
210.76	1660.90
210.98	1730.53
211.20	1615.85
211.42	1679.33
211.64	1804.26
211.86	1705.96
212.08	1697.77
212.30	1755.11
212.52	1634.28
212.74	1757.16
212.96	1708.01
213.17	1738.73
213.39	1724.39
213.61	1798.12
213.83	1677.29
214.05	1609.70
214.27	1714.15
214.49	1656.81
214.71	1695.72
214.93	1794.02
215.15	1791.97
215.37	1742.82
215.59	1558.50
215.81	1751.01
216.03	1816.55
216.24	1748.97
216.46	1605.61
216.68	1667.05
216.90	1779.68
217.12	1775.59
217.34	1671.14
217.56	1697.77
217.78	1787.88
218.00	1728.49
218.22	1691.62
218.44	1726.44
218.66	1697.77
218.87	1857.51
219.09	1630.18
219.31	1677.29
219.53	1732.58
219.75	1693.67
219.97	1673.19
220.19	1714.15
220.41	1673.19
220.63	1789.92
220.85	1746.92
221.06	1726.44
221.28	1705.96
221.50	1759.21
221.72	1675.24
221.94	1679.33
222.16	1740.77
222.38	1718.25
222.60	1726.44
222.82	1667.05
223.03	1681.38
223.25	1693.67
223.47	1738.73
223.69	1828.84
223.91	1806.31
224.13	1679.33
224.35	1742.82
224.57	1753.06
224.78	1746.92
225.00	1701.86
225.22	1738.73
225.44	1732.58
225.66	1757.16
225.88	1650.66
226.10	1783.78
226.32	1746.92
226.53	1785.83
226.75	1736.68
226.97	1742.82
227.19	1689.57
227.41	1669.09
227.63	1669.09
227.85	1576.94
228.06	1730.53
228.28	1613.80
228.50	1732.58
228.72	1705.96
228.94	1708.01
229.16	1570.79
229.37	1636.33
229.59	1681.38
229.81	1710.05
230.03	1677.29
230.25	1550.31
230.47	1636.33
230.69	1646.57
230.90	1708.01
231.12	1744.87
231.34	1685.48
231.56	1748.97
231.78	1626.09
232.00	1718.25
232.21	1646.57
232.43	1730.53
232.65	1619.94
232.87	1695.72
233.09	1640.42
233.30	1634.28
233.52	1708.01
233.74	1822.69
233.96	1701.86
234.18	1697.77
234.40	1652.71
234.61	1781.73
234.83	1683.43
235.05	1705.96
235.27	1767.40
235.49	1839.08
235.70	1724.39
235.92	1753.06
236.14	1767.40
236.36	1777.64
236.58	1693.67
236.79	1751.01
237.01	1640.42
237.23	1630.18
237.45	1794.02
237.67	1628.14
237.88	1669.09
238.10	1773.54
238.32	1734.63
238.54	1796.07
238.76	1656.81
238.97	1693.67
239.19	1697.77
239.41	1834.98
239.63	1761.25
239.85	1724.39
240.06	1736.68
240.28	1671.14
240.50	1748.97
240.72	1689.57
240.93	1699.81
241.15	1726.44
241.37	1603.56
241.59	1755.11
241.81	1714.15
242.02	1652.71
242.24	1705.96
242.46	1689.57
242.68	1621.99
242.89	1716.20
243.11	1818.60
243.33	1673.19
243.55	1740.77
243.76	1734.63
243.98	1671.14
244.20	1665.00
244.42	1736.68
244.64	1671.14
244.85	1648.61
245.07	1667.05
245.29	1697.77
245.51	1665.00
245.72	1755.11
245.94	1765.35
246.16	1734.63
246.38	1710.05
246.59	1652.71
246.81	1685.48
247.03	1656.81
247.24	1685.48
247.46	1638.38
247.68	1634.28
247.90	1679.33
248.11	1636.33
248.33	1771.49
248.55	1632.23
248.77	1697.77
248.98	1751.01
249.20	1769.44
249.42	1687.53
249.64	1777.64
249.85	1669.09
250.07	1714.15
250.29	1722.34
250.50	1703.91
250.72	1589.22
250.94	1720.29
251.16	1777.64
251.37	1732.58
251.59	1755.11
251.81	1601.51
252.02	1771.49
252.24	1656.81
252.46	1789.92
252.68	1718.25
252.89	1615.85
253.11	1683.43
253.33	1789.92
253.54	1791.97
253.76	1617.90
253.98	1671.14
254.20	1665.00
254.41	1677.29
254.63	1732.58
254.85	1660.90
255.06	1693.67
255.28	1767.40
255.50	1708.01
255.71	1646.57
255.93	1597.42
256.15	1769.44
256.36	1726.44
256.58	1673.19
256.80	1681.38
257.02	1705.96
257.23	1751.01
257.45	1759.21
257.67	1763.30
257.88	1662.95
258.10	1712.10
258.32	1777.64
258.53	1724.39
258.75	1839.08
258.97	1689.57
259.18	1738.73
259.40	1740.77
259.62	1808.36
259.83	1798.12
260.05	1751.01
260.27	1970.15
260.48	1773.54
260.70	1621.99
260.92	1728.49
261.13	1703.91
261.35	1730.53
261.57	1665.00
261.78	1634.28
262.00	1681.38
262.22	1757.16
262.43	1626.09
262.65	1763.30
262.86	1648.61
263.08	1818.60
263.30	1701.86
263.51	1613.80
263.73	1673.19
263.95	1849.32
264.16	1611.75
264.38	1634.28
264.60	1683.43
264.81	1642.47
265.03	1662.95
265.25	1742.82
265.46	1697.77
265.68	1775.59
265.89	1689.57
266.11	1628.14
266.33	1691.62
266.54	1681.38
266.76	1701.86
266.98	1640.42
267.19	1734.63
267.41	1730.53
267.62	1640.42
267.84	1583.08
268.06	1681.38
268.27	1685.48
268.49	1710.05
268.70	1732.58
268.92	1732.58
269.14	1679.33
269.35	1656.81
269.57	1724.39
269.79	1806.31
270.00	1708.01
270.22	1796.07
270.43	1695.72
270.65	1581.03
270.87	1740.77
271.08	1765.35
271.30	1748.97
271.51	1683.43
271.73	1746.92
271.95	1722.34
272.16	1759.21
272.38	1757.16
272.59	1644.52
272.81	1697.77
273.02	1759.21
273.24	1712.10
273.46	1691.62
273.67	1599.46
273.89	1662.95
274.10	1695.72
274.32	1773.54
274.54	1724.39
274.75	1767.40
274.97	1656.81
275.18	1695.72
275.40	1740.77
275.61	1724.39
275.83	1685.48
276.05	1601.51
276.26	1613.80
276.48	1705.96
276.69	1662.95
276.91	1626.09
277.12	1742.82
277.34	1742.82
277.55	1689.57
277.77	1685.48
277.99	1697.77
278.20	1683.43
278.42	1621.99
278.63	1677.29
278.85	1638.38
279.06	1705.96
279.28	1851.36
279.49	1814.50
279.71	1755.11
279.93	1708.01
280.14	1763.30
280.36	1662.95
280.57	1791.97
280.79	1738.73
281.00	1730.53
281.22	1665.00
281.43	1751.01
281.65	1589.22
281.86	1660.90
282.08	1667.05
282.29	1736.68
282.51	1708.01
282.73	1624.04
282.94	1585.13
283.16	1683.43
283.37	1802.21
283.59	1685.48
283.80	1716.20
284.02	1746.92
284.23	1712.10
284.45	1669.09
284.66	1673.19
284.88	1671.14
285.09	1732.58
285.31	1759.21
285.52	1773.54
285.74	1601.51
285.95	1720.29
286.17	1728.49
286.38	1734.63
286.60	1665.00
286.81	1654.76
287.03	1691.62
287.24	1671.14
287.46	1695.72
287.67	1677.29
287.89	1769.44
288.10	1705.96
288.32	1656.81
288.53	1783.78
288.75	1697.77
288.96	1779.68
289.18	1652.71
289.39	1673.19
289.61	1767.40
289.82	1828.84
290.04	1775.59
290.25	1628.14
290.47	1738.73
290.68	1656.81
290.90	1738.73
291.11	1611.75
291.33	1681.38
291.54	1609.70
291.76	1648.61
291.97	1697.77
292.18	1654.76
292.40	1714.15
292.61	1652.71
292.83	1804.26
293.04	1728.49
293.26	1697.77
293.47	1714.15
293.69	1624.04
293.90	1652.71
294.12	1714.15
294.33	1705.96
294.55	1687.53
294.76	1800.16
294.97	1744.87
295.19	1806.31
295.40	1652.71
295.62	1656.81
295.83	1781.73
296.05	1683.43
296.26	1771.49
296.48	1607.66
296.69	1761.25
296.90	1654.76
297.12	1740.77
297.33	1726.44
297.55	1675.24
297.76	1675.24
297.98	1697.77
298.19	1722.34
298.41	1705.96
298.62	1689.57
298.83	1775.59
299.05	1755.11
299.26	1599.46
299.48	1675.24
299.69	1654.76
299.90	1767.40
300.12	1642.47
300.33	1652.71
300.55	1759.21
300.76	1732.58
300.98	1671.14
301.19	1677.29
301.40	1669.09
301.62	1738.73
301.83	1738.73
302.05	1708.01
302.26	1738.73
302.47	1673.19
302.69	1656.81
302.90	1705.96
303.12	1492.97
303.33	1796.07
303.54	1759.21
303.76	1714.15
303.97	1789.92
304.19	1781.73
304.40	1636.33
304.61	1767.40
304.83	1763.30
305.04	1769.44
305.26	1726.44
305.47	1646.57
305.68	1712.10
305.90	1662.95
306.11	1787.88
306.33	1703.91
306.54	1693.67
306.75	1619.94
306.97	1658.85
307.18	1654.76
307.39	1669.09
307.61	1785.83
307.82	1568.74
308.04	1695.72
308.25	1701.86
308.46	1751.01
308.68	1726.44
308.89	1683.43
309.10	1769.44
309.32	1746.92
309.53	1720.29
309.74	1765.35
309.96	1714.15
310.17	1787.88
310.39	1636.33
310.60	1796.07
310.81	1669.09
311.03	1546.22
311.24	1708.01
311.45	1701.86
311.67	1691.62
311.88	1728.49
312.09	1654.76
312.31	1722.34
312.52	1660.90
312.73	1650.66
312.95	1591.27
313.16	1652.71
313.37	1779.68
313.59	1681.38
313.80	1757.16
314.01	1773.54
314.23	1675.24
314.44	1626.09
314.65	1634.28
314.87	1673.19
315.08	1701.86
315.29	1681.38
315.51	1630.18
315.72	1667.05
315.93	1814.50
316.15	1722.34
316.36	1669.09
316.57	1681.38
316.79	1722.34
317.00	1693.67
317.21	1671.14
317.43	1665.00
317.64	1701.86
317.85	1619.94
318.07	1662.95
318.28	1781.73
318.49	1804.26
318.70	1845.22
318.92	1830.88
319.13	1763.30
319.34	1875.94
319.56	1722.34
319.77	1789.92
319.98	1734.63
320.20	1718.25
320.41	1791.97
320.62	1781.73
320.83	1593.32
321.05	1791.97
321.26	1640.42
321.47	1738.73
321.69	1800.16
321.90	1615.85
322.11	1679.33
322.32	1697.77
322.54	1771.49
322.75	1591.27
322.96	1837.03
323.18	1624.04
323.39	1640.42
323.60	1638.38
323.81	1751.01
324.03	1634.28
324.24	1636.33
324.45	1601.51
324.66	1701.86
324.88	1748.97
325.09	1761.25
325.30	1722.34
325.52	1718.25
325.73	1718.25
325.94	1634.28
326.15	1570.79
326.37	1681.38
326.58	1712.10
326.79	1736.68
327.00	1648.61
327.22	1734.63
327.43	1634.28
327.64	1628.14
327.85	1693.67
328.07	1744.87
328.28	1779.68
328.49	1669.09
328.70	1701.86
328.92	1665.00
329.13	1671.14
329.34	1701.86
329.55	1738.73
329.76	1730.53
329.98	1708.01
330.19	1732.58
330.40	1730.53
330.61	1748.97
330.83	1660.90
331.04	1628.14
331.25	1701.86
331.46	1722.34
331.68	1595.37
331.89	1679.33
332.10	1681.38
332.31	1648.61
332.52	1718.25
332.74	1757.16
332.95	1662.95
333.16	1665.00
333.37	1771.49
333.58	1724.39
333.80	1697.77
334.01	1568.74
334.22	1650.66
334.43	1591.27
334.64	1769.44
334.86	1593.32
335.07	1570.79
335.28	1710.05
335.49	1675.24
335.70	1740.77
335.92	1791.97
336.13	1824.74
336.34	1675.24
336.55	1675.24
336.76	1677.29
336.98	1566.70
337.19	1642.47
337.40	1755.11
337.61	1877.99
337.82	1697.77
338.04	1738.73
338.25	1597.42
338.46	1679.33
338.67	1699.81
338.88	1499.11
339.09	1685.48
339.31	1728.49
339.52	1603.56
339.73	1636.33
339.94	1712.10
340.15	1689.57
340.36	1697.77
340.58	1738.73
340.79	1789.92
341.00	1738.73
341.21	1628.14
341.42	1830.88
341.63	1763.30
341.85	1679.33
342.06	1740.77
342.27	1632.23
342.48	1761.25
342.69	1640.42
342.90	1675.24
343.12	1746.92
343.33	1648.61
343.54	1769.44
343.75	1738.73
343.96	1705.96
344.17	1617.90
344.38	1765.35
344.60	1671.14
344.81	1615.85
345.02	1708.01
345.23	1761.25
345.44	1771.49
345.65	1746.92
345.86	1656.81
346.07	1669.09
346.29	1732.58
346.50	1660.90
346.71	1673.19
346.92	1834.98
347.13	1863.65
347.34	1644.52
347.55	1669.09
347.76	1722.34
347.98	1609.70
348.19	1662.95
348.40	1738.73
348.61	1679.33
348.82	1828.84
349.03	1687.53
349.24	1759.21
349.45	1775.59
349.66	1558.50
349.88	1685.48
350.09	1611.75
350.30	1779.68
350.51	1818.60
350.72	1730.53
350.93	1730.53
351.14	1626.09
351.35	1800.16
351.56	1697.77
351.77	1652.71
351.99	1710.05
352.20	1775.59
352.41	1759.21
352.62	1605.61
352.83	1720.29
353.04	1650.66
353.25	1681.38
353.46	1800.16
353.67	1753.06
353.88	1658.85
354.09	1771.49
354.30	1621.99
354.52	1734.63
354.73	1718.25
354.94	1691.62
355.15	1724.39
355.36	1736.68
355.57	1667.05
355.78	1701.86
355.99	1701.86
356.20	1644.52
356.41	1763.30
356.62	1679.33
356.83	1642.47
357.04	1824.74
357.25	1599.46
357.46	1679.33
357.68	1693.67
357.89	1636.33
358.10	1665.00
358.31	1683.43
358.52	1669.09
358.73	1638.38
358.94	1640.42
359.15	1683.43
359.36	1751.01
359.57	1693.67
359.78	1757.16
359.99	1640.42
360.20	1671.14
360.41	1632.23
360.62	1773.54
360.83	1716.20
361.04	1644.52
361.25	1722.34
361.46	1791.97
361.67	1656.81
361.88	1718.25
362.09	1697.77
362.30	1763.30
362.51	1675.24
362.72	1746.92
362.93	1855.46
363.14	1794.02
363.35	1712.10
363.56	1677.29
363.78	1671.14
363.99	1714.15
364.20	1624.04
364.41	1658.85
364.62	1837.03
364.83	1732.58
365.04	1771.49
365.25	1742.82
365.46	1871.84
365.67	1558.50
365.88	1587.18
366.09	1703.91
366.30	1695.72
366.51	1748.97
366.72	1626.09
366.93	1701.86
367.14	1642.47
367.35	1759.21
367.56	1734.63
367.77	1791.97
367.98	1703.91
368.18	1748.97
368.39	1726.44
368.60	1673.19
368.81	1716.20
369.02	1728.49
369.23	1632.23
369.44	1656.81
369.65	1705.96
369.86	1724.39
370.07	1789.92
370.28	1695.72
370.49	1687.53
370.70	1759.21
370.91	1640.42
371.12	1568.74
371.33	1773.54
371.54	1742.82
371.75	1863.65
371.96	1564.65
372.17	1689.57
372.38	1724.39
372.59	1726.44
372.80	1681.38
373.01	1634.28
373.22	1728.49
373.43	1665.00
373.64	1619.94
373.85	1849.32
374.06	1802.21
374.26	1814.50
374.47	1712.10
374.68	1779.68
374.89	1763.30
375.10	1681.38
375.31	1746.92
375.52	1781.73
375.73	1736.68
375.94	1599.46
376.15	1771.49
376.36	1660.90
376.57	1642.47
376.78	1691.62
376.99	1685.48
377.20	1839.08
377.40	1628.14
377.61	1808.36
377.82	1665.00
378.03	1779.68
378.24	1626.09
378.45	1703.91
378.66	1779.68
378.87	1583.08
379.08	1615.85
379.29	1701.86
379.50	1794.02
379.71	1683.43
379.91	1703.91
380.12	1708.01
380.33	1794.02
380.54	1718.25
380.75	1679.33
380.96	1769.44
381.17	1769.44
381.38	1689.57
381.59	1718.25
381.80	1677.29
382.00	1869.80
382.21	1734.63
382.42	1863.65
382.63	1877.99
382.84	1789.92
383.05	1763.30
383.26	1820.64
383.47	1699.81
383.68	1730.53
383.88	1722.34
384.09	1642.47
384.30	1851.36
384.51	1691.62
384.72	1662.95
384.93	1611.75
385.14	1703.91
385.35	1765.35
385.55	1617.90
385.76	1753.06
385.97	1652.71
386.18	1599.46
386.39	1658.85
386.60	1730.53
386.81	1712.10
387.02	1593.32
387.22	1652.71
387.43	1734.63
387.64	1789.92
387.85	1851.36
388.06	2162.66
388.27	4220.86
388.48	6635.42
388.68	8023.94
388.89	9578.35
389.10	9516.91
389.31	8511.36
389.52	7415.69
389.73	6657.95
389.93	6057.89
390.14	5765.03
390.35	5203.89
390.56	4497.34
390.77	3796.93
390.98	2957.27
391.18	2500.57
391.39	2115.55
391.60	1845.22
391.81	1767.40
392.02	1626.09
392.23	1927.14
392.43	1751.01
392.64	1789.92
392.85	1705.96
393.06	1787.88
393.27	1648.61
393.47	1722.34
393.68	1755.11
393.89	1656.81
394.10	1789.92
394.31	1818.60
394.52	1593.32
394.72	1681.38
394.93	1767.40
395.14	1609.70
395.35	1781.73
395.56	1652.71
395.76	1753.06
395.97	1826.79
396.18	1775.59
396.39	1822.69
396.60	2060.26
396.80	1818.60
397.01	1818.60
397.22	1898.47
397.43	1877.99
397.64	1708.01
397.84	1738.73
398.05	1908.71
398.26	1738.73
398.47	1746.92
398.67	1808.36
398.88	1789.92
399.09	1783.78
399.30	1724.39
399.51	1720.29
399.71	1689.57
399.92	1728.49
400.13	1806.31
400.34	1783.78
400.54	1669.09
400.75	1810.40
400.96	1767.40
401.17	1818.60
401.37	1742.82
401.58	1597.42
401.79	1759.21
402.00	1812.45
402.21	1935.33
402.41	1996.77
402.62	1976.29
402.83	1990.63
403.04	2052.06
403.24	1994.72
403.45	1877.99
403.66	1882.08
403.87	1912.80
404.07	1867.75
404.28	1927.14
404.49	1902.56
404.70	1769.44
404.90	1738.73
405.11	1730.53
405.32	1755.11
405.52	1726.44
405.73	1699.81
405.94	1648.61
406.15	1687.53
406.35	1755.11
406.56	1728.49
406.77	1732.58
406.98	1810.40
407.18	1574.89
407.39	1765.35
407.60	1599.46
407.80	1742.82
408.01	1656.81
408.22	1675.24
408.43	1665.00
408.63	1722.34
408.84	1767.40
409.05	1755.11
409.25	1634.28
409.46	1712.10
409.67	1683.43
409.88	1652.71
410.08	1656.81
410.29	1679.33
410.50	1656.81
410.70	1759.21
410.91	1605.61
411.12	1708.01
411.32	1701.86
411.53	1632.23
411.74	1751.01
411.95	1757.16
412.15	1759.21
412.36	1787.88
412.57	1781.73
412.77	1734.63
412.98	1726.44
413.19	1724.39
413.39	1718.25
413.60	1787.88
413.81	1820.64
414.01	1658.85
414.22	1763.30
414.43	1708.01
414.63	1621.99
414.84	1732.58
415.05	1732.58
415.25	1660.90
415.46	1720.29
415.67	1665.00
415.87	1712.10
416.08	1722.34
416.29	1626.09
416.49	1705.96
416.70	1662.95
416.91	1671.14
417.11	1638.38
417.32	1644.52
417.53	1755.11
417.73	1742.82
417.94	1720.29
418.15	1689.57
418.35	1671.14
418.56	1708.01
418.77	1763.30
418.97	1685.48
419.18	1689.57
419.38	1550.31
419.59	1673.19
419.80	1853.41
420.00	1611.75
420.21	1724.39
420.42	1773.54
420.62	1714.15
420.83	1693.67
421.04	1656.81
421.24	1687.53
421.45	1714.15
421.65	1714.15
421.86	1679.33
422.07	1845.22
422.27	1783.78
422.48	1685.48
422.69	1679.33
422.89	1632.23
423.10	1646.57
423.30	1650.66
423.51	1740.77
423.72	1742.82
423.92	1722.34
424.13	1648.61
424.33	1691.62
424.54	1832.93
424.75	1738.73
424.95	1806.31
425.16	1705.96
425.36	1642.47
425.57	1804.26
425.78	1716.20
425.98	1779.68
426.19	1660.90
426.39	1646.57
426.60	1679.33
426.81	1787.88
427.01	1658.85
427.22	1685.48
427.42	1646.57
427.63	1665.00
427.83	1767.40
428.04	1699.81
428.25	1779.68
428.45	1796.07
428.66	1705.96
428.86	1656.81
429.07	1738.73
429.28	1777.64
429.48	1632.23
429.69	1689.57
429.89	1710.05
430.10	1564.65
430.30	1718.25
430.51	1783.78
430.71	1769.44
430.92	1705.96
431.13	1656.81
431.33	1728.49
431.54	1665.00
431.74	1839.08
431.95	1845.22
432.15	1652.71
432.36	1734.63
432.56	1755.11
432.77	1851.36
432.98	1882.08
433.18	1779.68
433.39	1681.38
433.59	1705.96
433.80	1851.36
434.00	1867.75
434.21	1675.24
434.41	1669.09
434.62	1853.41
434.82	1650.66
435.03	1714.15
435.23	1689.57
435.44	1621.99
435.64	1734.63
435.85	1654.76
436.06	1748.97
436.26	1744.87
436.47	1695.72
436.67	1640.42
436.88	1683.43
437.08	1748.97
437.29	1814.50
437.49	1681.38
437.70	1818.60
437.90	1746.92
438.11	1832.93
438.31	1734.63
438.52	1847.27
438.72	1826.79
438.93	1882.08
439.13	1834.98
439.34	1820.64
439.54	1771.49
439.75	1841.12
439.95	1646.57
440.16	1652.71
440.36	1687.53
440.57	1779.68
440.77	1787.88
440.98	1753.06
441.18	1781.73
441.39	1708.01
441.59	1736.68
441.80	1785.83
442.00	1771.49
442.21	1818.60
442.41	1658.85
442.62	1822.69
442.82	1722.34
443.02	1716.20
443.23	1728.49
443.43	1703.91
443.64	1869.80
443.84	1671.14
444.05	1800.16
444.25	1783.78
444.46	1660.90
444.66	1703.91
444.87	1861.60
445.07	1632.23
445.28	1714.15
445.48	1832.93
445.69	1781.73
445.89	1808.36
446.09	1783.78
446.30	1935.33
446.50	2525.15
446.71	3571.66
446.91	4245.44
447.12	4515.77
447.32	4745.14
447.53	4282.30
447.73	3825.61
447.93	3463.12
448.14	3223.50
448.34	3155.92
448.55	2854.87
448.75	2795.48
448.96	2697.17
449.16	2418.65
449.36	2265.05
449.57	2090.98
449.77	1916.90
449.98	1796.07
450.18	1830.88
450.39	1886.18
450.59	1765.35
450.79	1685.48
451.00	1751.01
451.20	1720.29
451.41	1675.24
451.61	1734.63
451.81	1814.50
452.02	1699.81
452.22	1783.78
452.43	1740.77
452.63	1732.58
