SpectraSuite Data File
++++++++++++++++++++++++++++++++++++
Date: Mon Jun 06 15:47:37 CEST 2016
User: root
Dark Spectrum Present: No
Reference Spectrum Present: No
Number of Sampled Component Spectra: 1
Spectrometers: USB4C02835
Integration Time (usec): 100000 (USB4C02835)
Spectra Averaged: 1 (USB4C02835)
Boxcar Smoothing: 0 (USB4C02835)
Correct for Electrical Dark: No (USB4C02835)
Strobe/Lamp Enabled: No (USB4C02835)
Correct for Detector Non-linearity: No (USB4C02835)
Correct for Stray Light: No (USB4C02835)
Number of Pixels in Processed Spectrum: 3648
>>>>>Begin Processed Spectral Data<<<<<
177.47	1470.44
177.69	1470.44
177.91	1470.44
178.13	1454.06
178.36	1431.53
178.58	1611.75
178.80	1841.12
179.02	1789.92
179.24	1656.81
179.46	1734.63
179.68	1757.16
179.90	1691.62
180.13	1669.09
180.35	1660.90
180.57	1687.53
180.79	1665.00
181.01	1761.25
181.23	1738.73
181.45	1722.34
181.67	1736.68
181.90	1718.25
182.12	1617.90
182.34	1642.47
182.56	1667.05
182.78	1720.29
183.00	1683.43
183.22	1722.34
183.44	1615.85
183.66	1843.17
183.89	1816.55
184.11	1685.48
184.33	1716.20
184.55	1828.84
184.77	1736.68
184.99	1746.92
185.21	1671.14
185.43	1820.64
185.65	1687.53
185.87	1714.15
186.10	1861.60
186.32	1830.88
186.54	1740.77
186.76	1734.63
186.98	1759.21
187.20	1714.15
187.42	1673.19
187.64	1767.40
187.86	1744.87
188.08	1728.49
188.30	1742.82
188.52	1703.91
188.75	1796.07
188.97	1791.97
189.19	1708.01
189.41	1746.92
189.63	1724.39
189.85	1728.49
190.07	1662.95
190.29	1722.34
190.51	1755.11
190.73	1660.90
190.95	1781.73
191.17	1708.01
191.39	1701.86
191.61	1718.25
191.84	1736.68
192.06	1740.77
192.28	1601.51
192.50	1990.63
192.72	1755.11
192.94	1724.39
193.16	1818.60
193.38	1675.24
193.60	1630.18
193.82	1677.29
194.04	1800.16
194.26	1804.26
194.48	1753.06
194.70	1665.00
194.92	1712.10
195.14	1800.16
195.36	1716.20
195.58	1779.68
195.80	1669.09
196.02	1712.10
196.24	1685.48
196.46	1699.81
196.69	1705.96
196.91	1855.46
197.13	1667.05
197.35	1689.57
197.57	1873.89
197.79	1759.21
198.01	1730.53
198.23	1714.15
198.45	1679.33
198.67	1640.42
198.89	1681.38
199.11	1716.20
199.33	1724.39
199.55	1632.23
199.77	1767.40
199.99	1808.36
200.21	1738.73
200.43	1742.82
200.65	1689.57
200.87	1581.03
201.09	1759.21
201.31	1746.92
201.53	1767.40
201.75	1722.34
201.97	1701.86
202.19	1652.71
202.41	1748.97
202.63	1775.59
202.85	1748.97
203.07	1748.97
203.29	1697.77
203.51	1650.66
203.73	1767.40
203.95	1837.03
204.17	1718.25
204.39	1773.54
204.61	1673.19
204.83	1640.42
205.05	1775.59
205.27	1785.83
205.49	1857.51
205.71	1695.72
205.93	1671.14
206.15	1687.53
206.37	1724.39
206.59	1701.86
206.81	1576.94
207.03	1667.05
207.25	1671.14
207.47	1738.73
207.69	1732.58
207.91	1736.68
208.13	1843.17
208.34	1658.85
208.56	1681.38
208.78	1722.34
209.00	1714.15
209.22	1722.34
209.44	1714.15
209.66	1667.05
209.88	1689.57
210.10	1738.73
210.32	1662.95
210.54	1818.60
210.76	1734.63
210.98	1812.45
211.20	1636.33
211.42	1787.88
211.64	1773.54
211.86	1748.97
212.08	1734.63
212.30	1775.59
212.52	1705.96
212.74	1781.73
212.96	1789.92
213.17	1705.96
213.39	1767.40
213.61	1699.81
213.83	1624.04
214.05	1673.19
214.27	1871.84
214.49	1609.70
214.71	1632.23
214.93	1851.36
215.15	1710.05
215.37	1767.40
215.59	1732.58
215.81	1755.11
216.03	1775.59
216.24	1740.77
216.46	1746.92
216.68	1699.81
216.90	1820.64
217.12	1751.01
217.34	1691.62
217.56	1763.30
217.78	1742.82
218.00	1796.07
218.22	1714.15
218.44	1665.00
218.66	1718.25
218.87	1783.78
219.09	1705.96
219.31	1777.64
219.53	1767.40
219.75	1689.57
219.97	1767.40
220.19	1681.38
220.41	1830.88
220.63	1863.65
220.85	1736.68
221.06	1722.34
221.28	1761.25
221.50	1724.39
221.72	1665.00
221.94	1744.87
222.16	1671.14
222.38	1787.88
222.60	1730.53
222.82	1689.57
223.03	1785.83
223.25	1570.79
223.47	1757.16
223.69	1841.12
223.91	1742.82
224.13	1650.66
224.35	1775.59
224.57	1722.34
224.78	1763.30
225.00	1650.66
225.22	1646.57
225.44	1687.53
225.66	1761.25
225.88	1697.77
226.10	1757.16
226.32	1738.73
226.53	1794.02
226.75	1738.73
226.97	1716.20
227.19	1779.68
227.41	1724.39
227.63	1736.68
227.85	1695.72
228.06	1708.01
228.28	1660.90
228.50	1728.49
228.72	1648.61
228.94	1621.99
229.16	1685.48
229.37	1634.28
229.59	1636.33
229.81	1834.98
230.03	1662.95
230.25	1632.23
230.47	1675.24
230.69	1632.23
230.90	1755.11
231.12	1685.48
231.34	1728.49
231.56	1824.74
231.78	1675.24
232.00	1714.15
232.21	1710.05
232.43	1720.29
232.65	1632.23
232.87	1787.88
233.09	1646.57
233.30	1740.77
233.52	1820.64
233.74	1732.58
233.96	1703.91
234.18	1816.55
234.40	1722.34
234.61	1808.36
234.83	1624.04
235.05	1677.29
235.27	1818.60
235.49	1820.64
235.70	1734.63
235.92	1812.45
236.14	1730.53
236.36	1855.46
236.58	1587.18
236.79	1712.10
237.01	1705.96
237.23	1691.62
237.45	1781.73
237.67	1714.15
237.88	1689.57
238.10	1812.45
238.32	1683.43
238.54	1708.01
238.76	1656.81
238.97	1705.96
239.19	1742.82
239.41	1714.15
239.63	1767.40
239.85	1691.62
240.06	1638.38
240.28	1640.42
240.50	1722.34
240.72	1763.30
240.93	1681.38
241.15	1771.49
241.37	1697.77
241.59	1832.93
241.81	1658.85
242.02	1675.24
242.24	1767.40
242.46	1791.97
242.68	1742.82
242.89	1787.88
243.11	1796.07
243.33	1646.57
243.55	1724.39
243.76	1787.88
243.98	1708.01
244.20	1763.30
244.42	1705.96
244.64	1687.53
244.85	1632.23
245.07	1640.42
245.29	1689.57
245.51	1746.92
245.72	1701.86
245.94	1779.68
246.16	1738.73
246.38	1857.51
246.59	1703.91
246.81	1699.81
247.03	1730.53
247.24	1560.55
247.46	1724.39
247.68	1765.35
247.90	1691.62
248.11	1708.01
248.33	1796.07
248.55	1730.53
248.77	1742.82
248.98	1720.29
249.20	1798.12
249.42	1669.09
249.64	1798.12
249.85	1646.57
250.07	1665.00
250.29	1724.39
250.50	1769.44
250.72	1626.09
250.94	1751.01
251.16	1914.85
251.37	1830.88
251.59	1740.77
251.81	1759.21
252.02	1808.36
252.24	1708.01
252.46	1824.74
252.68	1626.09
252.89	1667.05
253.11	1667.05
253.33	1769.44
253.54	1812.45
253.76	1642.47
253.98	1673.19
254.20	1705.96
254.41	1619.94
254.63	1628.14
254.85	1714.15
255.06	1597.42
255.28	1708.01
255.50	1695.72
255.71	1644.52
255.93	1644.52
256.15	1708.01
256.36	1759.21
256.58	1660.90
256.80	1812.45
257.02	1777.64
257.23	1634.28
257.45	1679.33
257.67	1763.30
257.88	1693.67
258.10	1691.62
258.32	1769.44
258.53	1705.96
258.75	1812.45
258.97	1650.66
259.18	1687.53
259.40	1714.15
259.62	1796.07
259.83	1814.50
260.05	1722.34
260.27	1990.63
260.48	1779.68
260.70	1630.18
260.92	1652.71
261.13	1740.77
261.35	1716.20
261.57	1734.63
261.78	1603.56
262.00	1644.52
262.22	1810.40
262.43	1656.81
262.65	1628.14
262.86	1683.43
263.08	1877.99
263.30	1755.11
263.51	1593.32
263.73	1638.38
263.95	1867.75
264.16	1658.85
264.38	1685.48
264.60	1722.34
264.81	1685.48
265.03	1796.07
265.25	1732.58
265.46	1759.21
265.68	1755.11
265.89	1701.86
266.11	1619.94
266.33	1800.16
266.54	1877.99
266.76	1705.96
266.98	1769.44
267.19	1820.64
267.41	1730.53
267.62	1675.24
267.84	1621.99
268.06	1773.54
268.27	1736.68
268.49	1800.16
268.70	1812.45
268.92	1697.77
269.14	1689.57
269.35	1591.27
269.57	1736.68
269.79	1769.44
270.00	1675.24
270.22	1755.11
270.43	1654.76
270.65	1593.32
270.87	1720.29
271.08	1759.21
271.30	1759.21
271.51	1742.82
271.73	1796.07
271.95	1791.97
272.16	1771.49
272.38	1689.57
272.59	1720.29
272.81	1742.82
273.02	1746.92
273.24	1804.26
273.46	1767.40
273.67	1726.44
273.89	1712.10
274.10	1632.23
274.32	1726.44
274.54	1722.34
274.75	1714.15
274.97	1714.15
275.18	1730.53
275.40	1787.88
275.61	1718.25
275.83	1759.21
276.05	1619.94
276.26	1726.44
276.48	1751.01
276.69	1662.95
276.91	1722.34
277.12	1806.31
277.34	1759.21
277.55	1781.73
277.77	1665.00
277.99	1675.24
278.20	1638.38
278.42	1703.91
278.63	1634.28
278.85	1667.05
279.06	1552.36
279.28	1689.57
279.49	1763.30
279.71	1773.54
279.93	1695.72
280.14	1724.39
280.36	1642.47
280.57	1718.25
280.79	1722.34
281.00	1675.24
281.22	1570.79
281.43	1775.59
281.65	1599.46
281.86	1613.80
282.08	1712.10
282.29	1869.80
282.51	1665.00
282.73	1636.33
282.94	1644.52
283.16	1783.78
283.37	1800.16
283.59	1646.57
283.80	1710.05
284.02	1716.20
284.23	1757.16
284.45	1718.25
284.66	1576.94
284.88	1679.33
285.09	1695.72
285.31	1703.91
285.52	1744.87
285.74	1599.46
285.95	1734.63
286.17	1802.21
286.38	1701.86
286.60	1714.15
286.81	1691.62
287.03	1746.92
287.24	1693.67
287.46	1779.68
287.67	1765.35
287.89	1851.36
288.10	1740.77
288.32	1703.91
288.53	1751.01
288.75	1746.92
288.96	1705.96
289.18	1695.72
289.39	1722.34
289.61	1701.86
289.82	1804.26
290.04	1845.22
290.25	1673.19
290.47	1687.53
290.68	1677.29
290.90	1837.03
291.11	1630.18
291.33	1814.50
291.54	1691.62
291.76	1638.38
291.97	1687.53
292.18	1718.25
292.40	1705.96
292.61	1695.72
292.83	1814.50
293.04	1824.74
293.26	1689.57
293.47	1728.49
293.69	1683.43
293.90	1728.49
294.12	1748.97
294.33	1665.00
294.55	1667.05
294.76	1847.27
294.97	1787.88
295.19	1841.12
295.40	1679.33
295.62	1751.01
295.83	1767.40
296.05	1634.28
296.26	1773.54
296.48	1681.38
296.69	1644.52
296.90	1761.25
297.12	1746.92
297.33	1794.02
297.55	1775.59
297.76	1787.88
297.98	1755.11
298.19	1687.53
298.41	1689.57
298.62	1621.99
298.83	1841.12
299.05	1748.97
299.26	1787.88
299.48	1613.80
299.69	1816.55
299.90	1677.29
300.12	1701.86
300.33	1685.48
300.55	1701.86
300.76	1757.16
300.98	1634.28
301.19	1730.53
301.40	1712.10
301.62	1648.61
301.83	1841.12
302.05	1734.63
302.26	1662.95
302.47	1730.53
302.69	1609.70
302.90	1689.57
303.12	1581.03
303.33	1781.73
303.54	1818.60
303.76	1656.81
303.97	1718.25
304.19	1787.88
304.40	1679.33
304.61	1771.49
304.83	1837.03
305.04	1779.68
305.26	1712.10
305.47	1693.67
305.68	1720.29
305.90	1667.05
306.11	1775.59
306.33	1699.81
306.54	1708.01
306.75	1679.33
306.97	1656.81
307.18	1599.46
307.39	1667.05
307.61	1730.53
307.82	1636.33
308.04	1746.92
308.25	1662.95
308.46	1812.45
308.68	1701.86
308.89	1771.49
309.10	1783.78
309.32	1771.49
309.53	1710.05
309.74	1773.54
309.96	1718.25
310.17	1732.58
310.39	1718.25
310.60	1763.30
310.81	1701.86
311.03	1648.61
311.24	1742.82
311.45	1681.38
311.67	1769.44
311.88	1718.25
312.09	1640.42
312.31	1667.05
312.52	1636.33
312.73	1714.15
312.95	1677.29
313.16	1662.95
313.37	1759.21
313.59	1732.58
313.80	1746.92
314.01	1941.47
314.23	1730.53
314.44	1744.87
314.65	1662.95
314.87	1640.42
315.08	1683.43
315.29	1687.53
315.51	1658.85
315.72	1609.70
315.93	1742.82
316.15	1828.84
316.36	1705.96
316.57	1681.38
316.79	1695.72
317.00	1757.16
317.21	1771.49
317.43	1615.85
317.64	1703.91
317.85	1669.09
318.07	1689.57
318.28	1705.96
318.49	1837.03
318.70	1902.56
318.92	1824.74
319.13	1804.26
319.34	1896.42
319.56	1759.21
319.77	1834.98
319.98	1798.12
320.20	1857.51
320.41	1615.85
320.62	1718.25
320.83	1667.05
321.05	1828.84
321.26	1753.06
321.47	1687.53
321.69	1818.60
321.90	1675.24
322.11	1738.73
322.32	1757.16
322.54	1837.03
322.75	1683.43
322.96	1822.69
323.18	1595.37
323.39	1638.38
323.60	1689.57
323.81	1763.30
324.03	1710.05
324.24	1683.43
324.45	1722.34
324.66	1654.76
324.88	1767.40
325.09	1779.68
325.30	1687.53
325.52	1746.92
325.73	1830.88
325.94	1685.48
326.15	1650.66
326.37	1691.62
326.58	1691.62
326.79	1748.97
327.00	1691.62
327.22	1794.02
327.43	1687.53
327.64	1665.00
327.85	1718.25
328.07	1814.50
328.28	1812.45
328.49	1609.70
328.70	1771.49
328.92	1759.21
329.13	1722.34
329.34	1748.97
329.55	1791.97
329.76	1763.30
329.98	1701.86
330.19	1753.06
330.40	1724.39
330.61	1689.57
330.83	1740.77
331.04	1671.14
331.25	1734.63
331.46	1804.26
331.68	1630.18
331.89	1769.44
332.10	1751.01
332.31	1621.99
332.52	1759.21
332.74	1791.97
332.95	1677.29
333.16	1630.18
333.37	1769.44
333.58	1744.87
333.80	1705.96
334.01	1601.51
334.22	1722.34
334.43	1642.47
334.64	1736.68
334.86	1683.43
335.07	1669.09
335.28	1814.50
335.49	1640.42
335.70	1675.24
335.92	1701.86
336.13	1841.12
336.34	1669.09
336.55	1730.53
336.76	1769.44
336.98	1626.09
337.19	1687.53
337.40	1843.17
337.61	1865.70
337.82	1630.18
338.04	1724.39
338.25	1613.80
338.46	1716.20
338.67	1613.80
338.88	1630.18
339.09	1703.91
339.31	1697.77
339.52	1603.56
339.73	1669.09
339.94	1744.87
340.15	1755.11
340.36	1701.86
340.58	1724.39
340.79	1765.35
341.00	1763.30
341.21	1689.57
341.42	1789.92
341.63	1720.29
341.85	1755.11
342.06	1662.95
342.27	1681.38
342.48	1789.92
342.69	1650.66
342.90	1755.11
343.12	1708.01
343.33	1681.38
343.54	1769.44
343.75	1789.92
343.96	1720.29
344.17	1599.46
344.38	1716.20
344.60	1673.19
344.81	1642.47
345.02	1710.05
345.23	1767.40
345.44	1734.63
345.65	1757.16
345.86	1681.38
346.07	1691.62
346.29	1667.05
346.50	1759.21
346.71	1726.44
346.92	1800.16
347.13	1882.08
347.34	1763.30
347.55	1746.92
347.76	1796.07
347.98	1699.81
348.19	1665.00
348.40	1787.88
348.61	1718.25
348.82	1855.46
349.03	1865.70
349.24	1667.05
349.45	1814.50
349.66	1605.61
349.88	1638.38
350.09	1763.30
350.30	1800.16
350.51	1810.40
350.72	1714.15
350.93	1699.81
351.14	1699.81
351.35	1759.21
351.56	1716.20
351.77	1724.39
351.99	1675.24
352.20	1785.83
352.41	1810.40
352.62	1589.22
352.83	1705.96
353.04	1716.20
353.25	1638.38
353.46	1843.17
353.67	1767.40
353.88	1599.46
354.09	1761.25
354.30	1609.70
354.52	1777.64
354.73	1691.62
354.94	1677.29
355.15	1730.53
355.36	1804.26
355.57	1730.53
355.78	1814.50
355.99	1617.90
356.20	1669.09
356.41	1800.16
356.62	1759.21
356.83	1691.62
357.04	1798.12
357.25	1626.09
357.46	1667.05
357.68	1617.90
357.89	1718.25
358.10	1679.33
358.31	1687.53
358.52	1787.88
358.73	1648.61
358.94	1705.96
359.15	1685.48
359.36	1796.07
359.57	1738.73
359.78	1632.23
359.99	1779.68
360.20	1621.99
360.41	1718.25
360.62	1732.58
360.83	1728.49
361.04	1742.82
361.25	1677.29
361.46	1804.26
361.67	1677.29
361.88	1716.20
362.09	1734.63
362.30	1693.67
362.51	1730.53
362.72	1652.71
362.93	1787.88
363.14	1771.49
363.35	1669.09
363.56	1716.20
363.78	1767.40
363.99	1812.45
364.20	1638.38
364.41	1699.81
364.62	1888.23
364.83	1716.20
365.04	1701.86
365.25	1677.29
365.46	1914.85
365.67	1703.91
365.88	1685.48
366.09	1699.81
366.30	1697.77
366.51	1722.34
366.72	1617.90
366.93	1660.90
367.14	1740.77
367.35	1839.08
367.56	1763.30
367.77	1787.88
367.98	1716.20
368.18	1734.63
368.39	1763.30
368.60	1644.52
368.81	1744.87
369.02	1710.05
369.23	1683.43
369.44	1665.00
369.65	1689.57
369.86	1712.10
370.07	1808.36
370.28	1712.10
370.49	1736.68
370.70	1791.97
370.91	1648.61
371.12	1697.77
371.33	1753.06
371.54	1642.47
371.75	1761.25
371.96	1599.46
372.17	1728.49
372.38	1685.48
372.59	1710.05
372.80	1757.16
373.01	1691.62
373.22	1742.82
373.43	1685.48
373.64	1568.74
373.85	1853.41
374.06	1832.93
374.26	1779.68
374.47	1722.34
374.68	1779.68
374.89	1765.35
375.10	1765.35
375.31	1843.17
375.52	1665.00
375.73	1699.81
375.94	1656.81
376.15	1787.88
376.36	1669.09
376.57	1722.34
376.78	1658.85
376.99	1677.29
377.20	1751.01
377.40	1716.20
377.61	1798.12
377.82	1611.75
378.03	1791.97
378.24	1800.16
378.45	1660.90
378.66	1726.44
378.87	1589.22
379.08	1652.71
379.29	1730.53
379.50	1810.40
379.71	1771.49
379.91	1689.57
380.12	1693.67
380.33	1658.85
380.54	1716.20
380.75	1716.20
380.96	1724.39
381.17	1822.69
381.38	1757.16
381.59	1736.68
381.80	1742.82
382.00	1849.32
382.21	1699.81
382.42	1816.55
382.63	1843.17
382.84	1812.45
383.05	1794.02
383.26	1812.45
383.47	1716.20
383.68	1732.58
383.88	1730.53
384.09	1710.05
384.30	1820.64
384.51	1734.63
384.72	1738.73
384.93	1671.14
385.14	1759.21
385.35	1775.59
385.55	1636.33
385.76	1757.16
385.97	1669.09
386.18	1685.48
386.39	1656.81
386.60	1697.77
386.81	1712.10
387.02	1722.34
387.22	1648.61
387.43	1828.84
387.64	1800.16
387.85	1863.65
388.06	2170.85
388.27	4163.52
388.48	6547.36
388.68	8095.62
388.89	9238.39
389.10	9492.34
389.31	8365.95
389.52	7514.00
389.73	6551.45
389.93	6252.45
390.14	5748.65
390.35	5089.20
390.56	4528.06
390.77	3798.98
390.98	2971.60
391.18	2527.19
391.39	2203.61
391.60	1839.08
391.81	1828.84
392.02	1736.68
392.23	1773.54
392.43	1755.11
392.64	1781.73
392.85	1675.24
393.06	1845.22
393.27	1732.58
393.47	1714.15
393.68	1755.11
393.89	1705.96
394.10	1728.49
394.31	1648.61
394.52	1687.53
394.72	1757.16
394.93	1744.87
395.14	1644.52
395.35	1757.16
395.56	1595.37
395.76	1755.11
395.97	1814.50
396.18	1951.71
396.39	1845.22
396.60	2002.91
396.80	1910.75
397.01	1857.51
397.22	1810.40
397.43	1869.80
397.64	1798.12
397.84	1816.55
398.05	1896.42
398.26	1769.44
398.47	1783.78
398.67	1771.49
398.88	1748.97
399.09	1787.88
399.30	1679.33
399.51	1722.34
399.71	1697.77
399.92	1699.81
400.13	1746.92
400.34	1718.25
400.54	1714.15
400.75	1845.22
400.96	1730.53
401.17	1796.07
401.37	1693.67
401.58	1765.35
401.79	1738.73
402.00	1824.74
402.21	2060.26
402.41	1996.77
402.62	2009.06
402.83	1968.10
403.04	1964.00
403.24	2072.54
403.45	1800.16
403.66	1882.08
403.87	1916.90
404.07	1810.40
404.28	1834.98
404.49	1855.46
404.70	1744.87
404.90	1859.56
405.11	1775.59
405.32	1730.53
405.52	1699.81
405.73	1673.19
405.94	1679.33
406.15	1738.73
406.35	1771.49
406.56	1777.64
406.77	1757.16
406.98	1769.44
407.18	1626.09
407.39	1763.30
407.60	1699.81
407.80	1746.92
408.01	1689.57
408.22	1732.58
408.43	1759.21
408.63	1722.34
408.84	1781.73
409.05	1689.57
409.25	1675.24
409.46	1640.42
409.67	1675.24
409.88	1710.05
410.08	1785.83
410.29	1650.66
410.50	1744.87
410.70	1716.20
410.91	1660.90
411.12	1794.02
411.32	1703.91
411.53	1662.95
411.74	1804.26
411.95	1783.78
412.15	1763.30
412.36	1732.58
412.57	1763.30
412.77	1781.73
412.98	1761.25
413.19	1789.92
413.39	1773.54
413.60	1751.01
413.81	1791.97
414.01	1695.72
414.22	1773.54
414.43	1867.75
414.63	1701.86
414.84	1732.58
415.05	1665.00
415.25	1683.43
415.46	1738.73
415.67	1632.23
415.87	1687.53
416.08	1808.36
416.29	1671.14
416.49	1779.68
416.70	1685.48
416.91	1648.61
417.11	1683.43
417.32	1601.51
417.53	1744.87
417.73	1705.96
417.94	1630.18
418.15	1708.01
418.35	1800.16
418.56	1761.25
418.77	1880.04
418.97	1718.25
419.18	1673.19
419.38	1667.05
419.59	1617.90
419.80	1755.11
420.00	1701.86
420.21	1705.96
420.42	1802.21
420.62	1796.07
420.83	1669.09
421.04	1738.73
421.24	1722.34
421.45	1789.92
421.65	1730.53
421.86	1734.63
422.07	1740.77
422.27	1734.63
422.48	1812.45
422.69	1685.48
422.89	1675.24
423.10	1732.58
423.30	1636.33
423.51	1673.19
423.72	1757.16
423.92	1671.14
424.13	1630.18
424.33	1714.15
424.54	1814.50
424.75	1791.97
424.95	1757.16
425.16	1730.53
425.36	1607.66
425.57	1834.98
425.78	1665.00
425.98	1769.44
426.19	1652.71
426.39	1658.85
426.60	1755.11
426.81	1804.26
427.01	1726.44
427.22	1726.44
427.42	1656.81
427.63	1687.53
427.83	1828.84
428.04	1767.40
428.25	1826.79
428.45	1812.45
428.66	1724.39
428.86	1736.68
429.07	1677.29
429.28	1685.48
429.48	1703.91
429.69	1755.11
429.89	1703.91
430.10	1697.77
430.30	1675.24
430.51	1783.78
430.71	1640.42
430.92	1783.78
431.13	1685.48
431.33	1720.29
431.54	1834.98
431.74	1902.56
431.95	1818.60
432.15	1607.66
432.36	1714.15
432.56	1814.50
432.77	1794.02
432.98	1816.55
433.18	1755.11
433.39	1685.48
433.59	1759.21
433.80	1806.31
434.00	1871.84
434.21	1597.42
434.41	1640.42
434.62	1900.52
434.82	1665.00
435.03	1714.15
435.23	1697.77
435.44	1636.33
435.64	1734.63
435.85	1722.34
436.06	1722.34
436.26	1789.92
436.47	1742.82
436.67	1656.81
436.88	1714.15
437.08	1730.53
437.29	1812.45
437.49	1728.49
437.70	1849.32
437.90	1734.63
438.11	1849.32
438.31	1748.97
438.52	1781.73
438.72	1867.75
438.93	1873.89
439.13	1716.20
439.34	1751.01
439.54	1796.07
439.75	1800.16
439.95	1820.64
440.16	1710.05
440.36	1757.16
440.57	1722.34
440.77	1728.49
440.98	1779.68
441.18	1730.53
441.39	1746.92
441.59	1654.76
441.80	1957.86
442.00	1695.72
442.21	1865.70
442.41	1697.77
442.62	1834.98
442.82	1630.18
443.02	1726.44
443.23	1765.35
443.43	1662.95
443.64	1806.31
443.84	1738.73
444.05	1787.88
444.25	1794.02
444.46	1736.68
444.66	1736.68
444.87	1783.78
445.07	1714.15
445.28	1753.06
445.48	1912.80
445.69	1705.96
445.89	1845.22
446.09	1732.58
446.30	1994.72
446.50	2539.48
446.71	3651.53
446.91	4179.90
447.12	4730.81
447.32	4771.77
447.53	4202.43
447.73	3868.61
447.93	3522.51
448.14	3338.19
448.34	3223.50
448.55	2813.91
448.75	2752.47
448.96	2633.69
449.16	2375.64
449.36	2312.16
449.57	1945.57
449.77	1871.84
449.98	1830.88
450.18	1787.88
450.39	1955.81
450.59	1773.54
450.79	1787.88
451.00	1714.15
451.20	1847.27
451.41	1751.01
451.61	1753.06
451.81	1757.16
452.02	1705.96
452.22	1769.44
452.43	1658.85
452.63	1695.72
