SpectraSuite Data File
++++++++++++++++++++++++++++++++++++
Date: Mon Jun 06 16:37:17 CEST 2016
User: root
Dark Spectrum Present: No
Reference Spectrum Present: No
Number of Sampled Component Spectra: 1
Spectrometers: USB4C02835
Integration Time (usec): 100000 (USB4C02835)
Spectra Averaged: 1 (USB4C02835)
Boxcar Smoothing: 0 (USB4C02835)
Correct for Electrical Dark: No (USB4C02835)
Strobe/Lamp Enabled: No (USB4C02835)
Correct for Detector Non-linearity: No (USB4C02835)
Correct for Stray Light: No (USB4C02835)
Number of Pixels in Processed Spectrum: 3648
>>>>>Begin Processed Spectral Data<<<<<
177.47	1456.11
177.69	1456.11
177.91	1456.11
178.13	1415.15
178.36	1503.21
178.58	1701.86
178.80	1667.05
179.02	1609.70
179.24	1720.29
179.46	1753.06
179.68	1718.25
179.90	1755.11
180.13	1689.57
180.35	1714.15
180.57	1697.77
180.79	1773.54
181.01	1705.96
181.23	1775.59
181.45	1710.05
181.67	1785.83
181.90	1773.54
182.12	1554.41
182.34	1624.04
182.56	1724.39
182.78	1720.29
183.00	1722.34
183.22	1691.62
183.44	1576.94
183.66	1865.70
183.89	1804.26
184.11	1683.43
184.33	1779.68
184.55	1761.25
184.77	1728.49
184.99	1742.82
185.21	1656.81
185.43	1851.36
185.65	1689.57
185.87	1714.15
186.10	1804.26
186.32	1845.22
186.54	1732.58
186.76	1767.40
186.98	1877.99
187.20	1785.83
187.42	1685.48
187.64	1736.68
187.86	1708.01
188.08	1785.83
188.30	1673.19
188.52	1742.82
188.75	1843.17
188.97	1683.43
189.19	1734.63
189.41	1732.58
189.63	1796.07
189.85	1767.40
190.07	1689.57
190.29	1626.09
190.51	1703.91
190.73	1681.38
190.95	1769.44
191.17	1693.67
191.39	1648.61
191.61	1777.64
191.84	1599.46
192.06	1775.59
192.28	1677.29
192.50	1888.23
192.72	1734.63
192.94	1759.21
193.16	1763.30
193.38	1769.44
193.60	1673.19
193.82	1675.24
194.04	1761.25
194.26	1613.80
194.48	1730.53
194.70	1732.58
194.92	1708.01
195.14	1679.33
195.36	1630.18
195.58	1748.97
195.80	1736.68
196.02	1720.29
196.24	1648.61
196.46	1763.30
196.69	1675.24
196.91	1861.60
197.13	1558.50
197.35	1714.15
197.57	1834.98
197.79	1755.11
198.01	1695.72
198.23	1757.16
198.45	1718.25
198.67	1578.98
198.89	1748.97
199.11	1734.63
199.33	1712.10
199.55	1619.94
199.77	1761.25
199.99	1767.40
200.21	1607.66
200.43	1779.68
200.65	1662.95
200.87	1644.52
201.09	1728.49
201.31	1673.19
201.53	1826.79
201.75	1677.29
201.97	1658.85
202.19	1677.29
202.41	1746.92
202.63	1781.73
202.85	1751.01
203.07	1714.15
203.29	1701.86
203.51	1705.96
203.73	1679.33
203.95	1869.80
204.17	1748.97
204.39	1773.54
204.61	1767.40
204.83	1708.01
205.05	1755.11
205.27	1763.30
205.49	1794.02
205.71	1714.15
205.93	1617.90
206.15	1697.77
206.37	1726.44
206.59	1650.66
206.81	1669.09
207.03	1677.29
207.25	1675.24
207.47	1681.38
207.69	1699.81
207.91	1775.59
208.13	1744.87
208.34	1693.67
208.56	1642.47
208.78	1773.54
209.00	1751.01
209.22	1691.62
209.44	1734.63
209.66	1701.86
209.88	1689.57
210.10	1636.33
210.32	1634.28
210.54	1734.63
210.76	1759.21
210.98	1617.90
211.20	1554.41
211.42	1689.57
211.64	1763.30
211.86	1748.97
212.08	1718.25
212.30	1703.91
212.52	1650.66
212.74	1685.48
212.96	1705.96
213.17	1785.83
213.39	1769.44
213.61	1873.89
213.83	1695.72
214.05	1650.66
214.27	1744.87
214.49	1681.38
214.71	1652.71
214.93	1738.73
215.15	1652.71
215.37	1732.58
215.59	1632.23
215.81	1796.07
216.03	1748.97
216.24	1748.97
216.46	1755.11
216.68	1703.91
216.90	1738.73
217.12	1775.59
217.34	1736.68
217.56	1753.06
217.78	1837.03
218.00	1730.53
218.22	1740.77
218.44	1652.71
218.66	1777.64
218.87	1808.36
219.09	1677.29
219.31	1779.68
219.53	1677.29
219.75	1744.87
219.97	1738.73
220.19	1689.57
220.41	1763.30
220.63	1757.16
220.85	1744.87
221.06	1617.90
221.28	1826.79
221.50	1769.44
221.72	1744.87
221.94	1716.20
222.16	1665.00
222.38	1796.07
222.60	1763.30
222.82	1714.15
223.03	1767.40
223.25	1648.61
223.47	1708.01
223.69	1810.40
223.91	1755.11
224.13	1638.38
224.35	1693.67
224.57	1773.54
224.78	1779.68
225.00	1648.61
225.22	1660.90
225.44	1693.67
225.66	1765.35
225.88	1710.05
226.10	1726.44
226.32	1722.34
226.53	1798.12
226.75	1734.63
226.97	1734.63
227.19	1726.44
227.41	1644.52
227.63	1640.42
227.85	1716.20
228.06	1734.63
228.28	1720.29
228.50	1771.49
228.72	1619.94
228.94	1751.01
229.16	1712.10
229.37	1609.70
229.59	1738.73
229.81	1718.25
230.03	1673.19
230.25	1634.28
230.47	1693.67
230.69	1646.57
230.90	1736.68
231.12	1689.57
231.34	1701.86
231.56	1771.49
231.78	1683.43
232.00	1720.29
232.21	1630.18
232.43	1699.81
232.65	1685.48
232.87	1814.50
233.09	1646.57
233.30	1624.04
233.52	1732.58
233.74	1720.29
233.96	1734.63
234.18	1636.33
234.40	1683.43
234.61	1740.77
234.83	1644.52
235.05	1640.42
235.27	1812.45
235.49	1800.16
235.70	1679.33
235.92	1787.88
236.14	1814.50
236.36	1839.08
236.58	1642.47
236.79	1798.12
237.01	1697.77
237.23	1632.23
237.45	1816.55
237.67	1677.29
237.88	1689.57
238.10	1751.01
238.32	1732.58
238.54	1701.86
238.76	1779.68
238.97	1621.99
239.19	1658.85
239.41	1736.68
239.63	1773.54
239.85	1679.33
240.06	1705.96
240.28	1671.14
240.50	1726.44
240.72	1730.53
240.93	1748.97
241.15	1763.30
241.37	1660.90
241.59	1769.44
241.81	1652.71
242.02	1671.14
242.24	1705.96
242.46	1738.73
242.68	1640.42
242.89	1738.73
243.11	1699.81
243.33	1734.63
243.55	1691.62
243.76	1773.54
243.98	1691.62
244.20	1714.15
244.42	1779.68
244.64	1738.73
244.85	1660.90
245.07	1667.05
245.29	1732.58
245.51	1660.90
245.72	1673.19
245.94	1806.31
246.16	1712.10
246.38	1775.59
246.59	1640.42
246.81	1695.72
247.03	1669.09
247.24	1693.67
247.46	1667.05
247.68	1705.96
247.90	1722.34
248.11	1638.38
248.33	1808.36
248.55	1796.07
248.77	1681.38
248.98	1767.40
249.20	1810.40
249.42	1761.25
249.64	1726.44
249.85	1681.38
250.07	1673.19
250.29	1718.25
250.50	1681.38
250.72	1685.48
250.94	1779.68
251.16	1816.55
251.37	1705.96
251.59	1722.34
251.81	1724.39
252.02	1806.31
252.24	1728.49
252.46	1777.64
252.68	1677.29
252.89	1714.15
253.11	1611.75
253.33	1814.50
253.54	1834.98
253.76	1681.38
253.98	1693.67
254.20	1703.91
254.41	1648.61
254.63	1691.62
254.85	1617.90
255.06	1783.78
255.28	1736.68
255.50	1697.77
255.71	1662.95
255.93	1671.14
256.15	1681.38
256.36	1787.88
256.58	1724.39
256.80	1722.34
257.02	1667.05
257.23	1667.05
257.45	1701.86
257.67	1730.53
257.88	1691.62
258.10	1794.02
258.32	1742.82
258.53	1701.86
258.75	1781.73
258.97	1748.97
259.18	1701.86
259.40	1689.57
259.62	1869.80
259.83	1800.16
260.05	1728.49
260.27	1933.28
260.48	1759.21
260.70	1681.38
260.92	1703.91
261.13	1697.77
261.35	1665.00
261.57	1773.54
261.78	1632.23
262.00	1693.67
262.22	1810.40
262.43	1656.81
262.65	1603.56
262.86	1671.14
263.08	1787.88
263.30	1669.09
263.51	1566.70
263.73	1689.57
263.95	1791.97
264.16	1712.10
264.38	1673.19
264.60	1710.05
264.81	1587.18
265.03	1796.07
265.25	1632.23
265.46	1771.49
265.68	1722.34
265.89	1701.86
266.11	1599.46
266.33	1738.73
266.54	1761.25
266.76	1722.34
266.98	1742.82
267.19	1863.65
267.41	1841.12
267.62	1708.01
267.84	1589.22
268.06	1701.86
268.27	1769.44
268.49	1818.60
268.70	1808.36
268.92	1740.77
269.14	1710.05
269.35	1656.81
269.57	1689.57
269.79	1697.77
270.00	1595.37
270.22	1796.07
270.43	1746.92
270.65	1603.56
270.87	1787.88
271.08	1742.82
271.30	1761.25
271.51	1708.01
271.73	1705.96
271.95	1804.26
272.16	1771.49
272.38	1783.78
272.59	1669.09
272.81	1728.49
273.02	1748.97
273.24	1783.78
273.46	1732.58
273.67	1722.34
273.89	1759.21
274.10	1761.25
274.32	1757.16
274.54	1746.92
274.75	1701.86
274.97	1656.81
275.18	1849.32
275.40	1775.59
275.61	1773.54
275.83	1720.29
276.05	1703.91
276.26	1681.38
276.48	1738.73
276.69	1689.57
276.91	1632.23
277.12	1781.73
277.34	1734.63
277.55	1789.92
277.77	1658.85
277.99	1652.71
278.20	1665.00
278.42	1705.96
278.63	1605.61
278.85	1642.47
279.06	1636.33
279.28	1726.44
279.49	1769.44
279.71	1800.16
279.93	1738.73
280.14	1748.97
280.36	1693.67
280.57	1832.93
280.79	1814.50
281.00	1677.29
281.22	1710.05
281.43	1781.73
281.65	1619.94
281.86	1693.67
282.08	1781.73
282.29	1906.66
282.51	1632.23
282.73	1654.76
282.94	1619.94
283.16	1802.21
283.37	1767.40
283.59	1779.68
283.80	1732.58
284.02	1708.01
284.23	1728.49
284.45	1679.33
284.66	1673.19
284.88	1736.68
285.09	1730.53
285.31	1710.05
285.52	1763.30
285.74	1570.79
285.95	1806.31
286.17	1710.05
286.38	1714.15
286.60	1644.52
286.81	1673.19
287.03	1691.62
287.24	1650.66
287.46	1783.78
287.67	1755.11
287.89	1853.41
288.10	1667.05
288.32	1744.87
288.53	1763.30
288.75	1697.77
288.96	1783.78
289.18	1658.85
289.39	1753.06
289.61	1726.44
289.82	1796.07
290.04	1794.02
290.25	1638.38
290.47	1685.48
290.68	1718.25
290.90	1748.97
291.11	1605.61
291.33	1730.53
291.54	1722.34
291.76	1652.71
291.97	1718.25
292.18	1767.40
292.40	1609.70
292.61	1662.95
292.83	1957.86
293.04	1757.16
293.26	1730.53
293.47	1714.15
293.69	1615.85
293.90	1665.00
294.12	1734.63
294.33	1701.86
294.55	1693.67
294.76	1808.36
294.97	1781.73
295.19	1783.78
295.40	1687.53
295.62	1751.01
295.83	1791.97
296.05	1652.71
296.26	1699.81
296.48	1742.82
296.69	1755.11
296.90	1673.19
297.12	1804.26
297.33	1771.49
297.55	1691.62
297.76	1720.29
297.98	1794.02
298.19	1699.81
298.41	1781.73
298.62	1683.43
298.83	1732.58
299.05	1691.62
299.26	1716.20
299.48	1695.72
299.69	1802.21
299.90	1691.62
300.12	1769.44
300.33	1773.54
300.55	1667.05
300.76	1763.30
300.98	1556.46
301.19	1732.58
301.40	1763.30
301.62	1687.53
301.83	1753.06
302.05	1724.39
302.26	1695.72
302.47	1726.44
302.69	1693.67
302.90	1742.82
303.12	1626.09
303.33	1718.25
303.54	1826.79
303.76	1685.48
303.97	1644.52
304.19	1757.16
304.40	1636.33
304.61	1685.48
304.83	1740.77
305.04	1755.11
305.26	1746.92
305.47	1722.34
305.68	1728.49
305.90	1667.05
306.11	1779.68
306.33	1714.15
306.54	1734.63
306.75	1648.61
306.97	1591.27
307.18	1705.96
307.39	1656.81
307.61	1726.44
307.82	1628.14
308.04	1767.40
308.25	1714.15
308.46	1640.42
308.68	1724.39
308.89	1710.05
309.10	1777.64
309.32	1742.82
309.53	1742.82
309.74	1660.90
309.96	1697.77
310.17	1736.68
310.39	1755.11
310.60	1740.77
310.81	1746.92
311.03	1724.39
311.24	1712.10
311.45	1732.58
311.67	1773.54
311.88	1720.29
312.09	1660.90
312.31	1757.16
312.52	1734.63
312.73	1716.20
312.95	1656.81
313.16	1615.85
313.37	1783.78
313.59	1777.64
313.80	1767.40
314.01	1740.77
314.23	1687.53
314.44	1679.33
314.65	1652.71
314.87	1722.34
315.08	1712.10
315.29	1701.86
315.51	1615.85
315.72	1630.18
315.93	1751.01
316.15	1796.07
316.36	1589.22
316.57	1769.44
316.79	1775.59
317.00	1650.66
317.21	1748.97
317.43	1583.08
317.64	1677.29
317.85	1738.73
318.07	1677.29
318.28	1748.97
318.49	1869.80
318.70	1927.14
318.92	1800.16
319.13	1798.12
319.34	1806.31
319.56	1757.16
319.77	1771.49
319.98	1832.93
320.20	1791.97
320.41	1804.26
320.62	1828.84
320.83	1718.25
321.05	1775.59
321.26	1732.58
321.47	1716.20
321.69	1765.35
321.90	1665.00
322.11	1742.82
322.32	1705.96
322.54	1710.05
322.75	1662.95
322.96	1871.84
323.18	1609.70
323.39	1607.66
323.60	1687.53
323.81	1828.84
324.03	1705.96
324.24	1691.62
324.45	1753.06
324.66	1660.90
324.88	1736.68
325.09	1818.60
325.30	1679.33
325.52	1738.73
325.73	1740.77
325.94	1656.81
326.15	1597.42
326.37	1710.05
326.58	1689.57
326.79	1888.23
327.00	1695.72
327.22	1656.81
327.43	1650.66
327.64	1673.19
327.85	1763.30
328.07	1701.86
328.28	1802.21
328.49	1681.38
328.70	1705.96
328.92	1718.25
329.13	1617.90
329.34	1675.24
329.55	1771.49
329.76	1812.45
329.98	1701.86
330.19	1787.88
330.40	1673.19
330.61	1669.09
330.83	1757.16
331.04	1724.39
331.25	1716.20
331.46	1671.14
331.68	1607.66
331.89	1855.46
332.10	1761.25
332.31	1632.23
332.52	1710.05
332.74	1779.68
332.95	1669.09
333.16	1693.67
333.37	1800.16
333.58	1658.85
333.80	1708.01
334.01	1656.81
334.22	1724.39
334.43	1652.71
334.64	1660.90
334.86	1546.22
335.07	1658.85
335.28	1849.32
335.49	1634.28
335.70	1718.25
335.92	1814.50
336.13	1779.68
336.34	1732.58
336.55	1714.15
336.76	1689.57
336.98	1656.81
337.19	1689.57
337.40	1816.55
337.61	1804.26
337.82	1718.25
338.04	1746.92
338.25	1693.67
338.46	1646.57
338.67	1673.19
338.88	1665.00
339.09	1685.48
339.31	1740.77
339.52	1619.94
339.73	1640.42
339.94	1730.53
340.15	1714.15
340.36	1658.85
340.58	1773.54
340.79	1720.29
341.00	1671.14
341.21	1650.66
341.42	1722.34
341.63	1705.96
341.85	1757.16
342.06	1755.11
342.27	1669.09
342.48	1763.30
342.69	1671.14
342.90	1757.16
343.12	1703.91
343.33	1689.57
343.54	1734.63
343.75	1755.11
343.96	1683.43
344.17	1634.28
344.38	1712.10
344.60	1714.15
344.81	1687.53
345.02	1603.56
345.23	1734.63
345.44	1794.02
345.65	1742.82
345.86	1705.96
346.07	1738.73
346.29	1761.25
346.50	1757.16
346.71	1742.82
346.92	1781.73
347.13	1822.69
347.34	1708.01
347.55	1695.72
347.76	1724.39
347.98	1662.95
348.19	1669.09
348.40	1748.97
348.61	1656.81
348.82	1771.49
349.03	1689.57
349.24	1652.71
349.45	1798.12
349.66	1601.51
349.88	1726.44
350.09	1615.85
350.30	1824.74
350.51	1769.44
350.72	1726.44
350.93	1695.72
351.14	1671.14
351.35	1685.48
351.56	1812.45
351.77	1652.71
351.99	1765.35
352.20	1769.44
352.41	1812.45
352.62	1615.85
352.83	1744.87
353.04	1699.81
353.25	1669.09
353.46	1681.38
353.67	1779.68
353.88	1562.60
354.09	1757.16
354.30	1679.33
354.52	1708.01
354.73	1748.97
354.94	1687.53
355.15	1853.41
355.36	1871.84
355.57	1705.96
355.78	1665.00
355.99	1697.77
356.20	1726.44
356.41	1779.68
356.62	1703.91
356.83	1708.01
357.04	1796.07
357.25	1640.42
357.46	1687.53
357.68	1621.99
357.89	1597.42
358.10	1728.49
358.31	1730.53
358.52	1615.85
358.73	1617.90
358.94	1660.90
359.15	1658.85
359.36	1796.07
359.57	1740.77
359.78	1699.81
359.99	1769.44
360.20	1691.62
360.41	1634.28
360.62	1728.49
360.83	1722.34
361.04	1738.73
361.25	1753.06
361.46	1908.71
361.67	1708.01
361.88	1732.58
362.09	1746.92
362.30	1738.73
362.51	1701.86
362.72	1710.05
362.93	1736.68
363.14	1728.49
363.35	1679.33
363.56	1673.19
363.78	1767.40
363.99	1804.26
364.20	1726.44
364.41	1732.58
364.62	1873.89
364.83	1761.25
365.04	1701.86
365.25	1726.44
365.46	1767.40
365.67	1671.14
365.88	1654.76
366.09	1767.40
366.30	1679.33
366.51	1656.81
366.72	1669.09
366.93	1705.96
367.14	1775.59
367.35	1716.20
367.56	1722.34
367.77	1787.88
367.98	1769.44
368.18	1720.29
368.39	1785.83
368.60	1615.85
368.81	1732.58
369.02	1736.68
369.23	1683.43
369.44	1628.14
369.65	1642.47
369.86	1744.87
370.07	1710.05
370.28	1654.76
370.49	1728.49
370.70	1812.45
370.91	1636.33
371.12	1644.52
371.33	1796.07
371.54	1716.20
371.75	1791.97
371.96	1542.12
372.17	1730.53
372.38	1701.86
372.59	1724.39
372.80	1730.53
373.01	1693.67
373.22	1767.40
373.43	1689.57
373.64	1693.67
373.85	1742.82
374.06	1882.08
374.26	1720.29
374.47	1722.34
374.68	1822.69
374.89	1714.15
375.10	1685.48
375.31	1771.49
375.52	1798.12
375.73	1679.33
375.94	1617.90
376.15	1775.59
376.36	1632.23
376.57	1662.95
376.78	1640.42
376.99	1691.62
377.20	1789.92
377.40	1615.85
377.61	1810.40
377.82	1624.04
378.03	1771.49
378.24	1691.62
378.45	1621.99
378.66	1722.34
378.87	1601.51
379.08	1617.90
379.29	1628.14
379.50	1804.26
379.71	1748.97
379.91	1779.68
380.12	1751.01
380.33	1730.53
380.54	1619.94
380.75	1761.25
380.96	1728.49
381.17	1748.97
381.38	1771.49
381.59	1755.11
381.80	1726.44
382.00	1875.94
382.21	1767.40
382.42	1865.70
382.63	1861.60
382.84	1746.92
383.05	1722.34
383.26	1808.36
383.47	1748.97
383.68	1767.40
383.88	1718.25
384.09	1730.53
384.30	1814.50
384.51	1683.43
384.72	1669.09
384.93	1705.96
385.14	1744.87
385.35	1708.01
385.55	1703.91
385.76	1765.35
385.97	1720.29
386.18	1658.85
386.39	1685.48
386.60	1722.34
386.81	1683.43
387.02	1681.38
387.22	1673.19
387.43	1818.60
387.64	1738.73
387.85	2031.58
388.06	2142.18
388.27	4143.04
388.48	6838.17
388.68	8036.23
388.89	9400.18
389.10	9523.05
389.31	8531.84
389.52	7468.94
389.73	6852.50
389.93	6199.20
390.14	5767.08
390.35	5185.46
390.56	4493.24
390.77	3678.15
390.98	3162.06
391.18	2574.30
391.39	2162.66
391.60	1923.04
391.81	1804.26
392.02	1736.68
392.23	1863.65
392.43	1722.34
392.64	1810.40
392.85	1648.61
393.06	1783.78
393.27	1714.15
393.47	1748.97
393.68	1796.07
393.89	1712.10
394.10	1736.68
394.31	1662.95
394.52	1675.24
394.72	1703.91
394.93	1820.64
395.14	1662.95
395.35	1730.53
395.56	1701.86
395.76	1771.49
395.97	1832.93
396.18	1853.41
396.39	1851.36
396.60	1994.72
396.80	1961.95
397.01	1828.84
397.22	1828.84
397.43	1939.43
397.64	1787.88
397.84	1779.68
398.05	1900.52
398.26	1761.25
398.47	1775.59
398.67	1779.68
398.88	1767.40
399.09	1708.01
399.30	1714.15
399.51	1722.34
399.71	1693.67
399.92	1693.67
400.13	1794.02
400.34	1732.58
400.54	1662.95
400.75	1818.60
400.96	1705.96
401.17	1855.46
401.37	1675.24
401.58	1660.90
401.79	1718.25
402.00	1920.99
402.21	2000.87
402.41	1935.33
402.62	2037.73
402.83	2060.26
403.04	1992.67
403.24	2045.92
403.45	1816.55
403.66	1935.33
403.87	1855.46
404.07	1894.37
404.28	1880.04
404.49	1796.07
404.70	1845.22
404.90	1787.88
405.11	1687.53
405.32	1806.31
405.52	1609.70
405.73	1638.38
405.94	1683.43
406.15	1677.29
406.35	1791.97
406.56	1667.05
406.77	1697.77
406.98	1712.10
407.18	1740.77
407.39	1740.77
407.60	1615.85
407.80	1738.73
408.01	1751.01
408.22	1755.11
408.43	1703.91
408.63	1685.48
408.84	1744.87
409.05	1753.06
409.25	1693.67
409.46	1689.57
409.67	1703.91
409.88	1665.00
410.08	1771.49
410.29	1693.67
410.50	1712.10
410.70	1798.12
410.91	1683.43
411.12	1751.01
411.32	1705.96
411.53	1652.71
411.74	1837.03
411.95	1765.35
412.15	1787.88
412.36	1841.12
412.57	1746.92
412.77	1802.21
412.98	1734.63
413.19	1687.53
413.39	1796.07
413.60	1763.30
413.81	1765.35
414.01	1697.77
414.22	1789.92
414.43	1738.73
414.63	1699.81
414.84	1767.40
415.05	1660.90
415.25	1562.60
415.46	1736.68
415.67	1708.01
415.87	1732.58
416.08	1722.34
416.29	1607.66
416.49	1695.72
416.70	1810.40
416.91	1755.11
417.11	1652.71
417.32	1751.01
417.53	1775.59
417.73	1808.36
417.94	1738.73
418.15	1648.61
418.35	1724.39
418.56	1695.72
418.77	1847.27
418.97	1753.06
419.18	1787.88
419.38	1640.42
419.59	1669.09
419.80	1783.78
420.00	1710.05
420.21	1714.15
420.42	1820.64
420.62	1736.68
420.83	1656.81
421.04	1726.44
421.24	1658.85
421.45	1832.93
421.65	1849.32
421.86	1660.90
422.07	1683.43
422.27	1681.38
422.48	1720.29
422.69	1683.43
422.89	1687.53
423.10	1681.38
423.30	1720.29
423.51	1650.66
423.72	1673.19
423.92	1703.91
424.13	1679.33
424.33	1751.01
424.54	1773.54
424.75	1732.58
424.95	1771.49
425.16	1763.30
425.36	1677.29
425.57	1722.34
425.78	1705.96
425.98	1791.97
426.19	1648.61
426.39	1697.77
426.60	1726.44
426.81	1800.16
427.01	1712.10
427.22	1701.86
427.42	1617.90
427.63	1679.33
427.83	1738.73
428.04	1783.78
428.25	1816.55
428.45	1757.16
428.66	1785.83
428.86	1730.53
429.07	1742.82
429.28	1757.16
429.48	1742.82
429.69	1660.90
429.89	1738.73
430.10	1710.05
430.30	1763.30
430.51	1804.26
430.71	1703.91
430.92	1677.29
431.13	1699.81
431.33	1695.72
431.54	1703.91
431.74	1828.84
431.95	1849.32
432.15	1669.09
432.36	1718.25
432.56	1834.98
432.77	1861.60
432.98	1744.87
433.18	1685.48
433.39	1675.24
433.59	1740.77
433.80	1826.79
434.00	1867.75
434.21	1736.68
434.41	1693.67
434.62	1841.12
434.82	1648.61
435.03	1724.39
435.23	1699.81
435.44	1591.27
435.64	1763.30
435.85	1773.54
436.06	1740.77
436.26	1779.68
436.47	1681.38
436.67	1636.33
436.88	1697.77
437.08	1783.78
437.29	1857.51
437.49	1677.29
437.70	1763.30
437.90	1798.12
438.11	1931.23
438.31	1789.92
438.52	1845.22
438.72	1773.54
438.93	1863.65
439.13	1755.11
439.34	1824.74
439.54	1736.68
439.75	1830.88
439.95	1777.64
440.16	1730.53
440.36	1718.25
440.57	1773.54
440.77	1744.87
440.98	1759.21
441.18	1710.05
441.39	1734.63
441.59	1658.85
441.80	1783.78
442.00	1730.53
442.21	1794.02
442.41	1640.42
442.62	1757.16
442.82	1718.25
443.02	1765.35
443.23	1789.92
443.43	1675.24
443.64	1779.68
443.84	1652.71
444.05	1851.36
444.25	1746.92
444.46	1697.77
444.66	1734.63
444.87	1798.12
445.07	1665.00
445.28	1759.21
445.48	1800.16
445.69	1685.48
445.89	1791.97
446.09	1824.74
446.30	1996.77
446.50	2615.26
446.71	3760.07
446.91	4341.69
447.12	4761.53
447.32	4669.37
447.53	4231.10
447.73	3780.55
447.93	3499.98
448.14	3352.52
448.34	3231.69
448.55	2822.10
448.75	2897.88
448.96	2656.22
449.16	2402.27
449.36	2369.50
449.57	2109.41
449.77	1910.75
449.98	1773.54
450.18	1767.40
450.39	1841.12
450.59	1861.60
450.79	1738.73
451.00	1732.58
451.20	1830.88
451.41	1734.63
451.61	1736.68
451.81	1794.02
452.02	1746.92
452.22	1740.77
452.43	1726.44
452.63	1701.86
