SpectraSuite Data File
++++++++++++++++++++++++++++++++++++
Date: Mon Jun 06 13:39:17 CEST 2016
User: root
Dark Spectrum Present: No
Reference Spectrum Present: No
Number of Sampled Component Spectra: 1
Spectrometers: USB4C02835
Integration Time (usec): 100000 (USB4C02835)
Spectra Averaged: 1 (USB4C02835)
Boxcar Smoothing: 0 (USB4C02835)
Correct for Electrical Dark: No (USB4C02835)
Strobe/Lamp Enabled: No (USB4C02835)
Correct for Detector Non-linearity: No (USB4C02835)
Correct for Stray Light: No (USB4C02835)
Number of Pixels in Processed Spectrum: 3648
>>>>>Begin Processed Spectral Data<<<<<
177.47	1462.25
177.69	1462.25
177.91	1462.25
178.13	1535.98
178.36	1501.16
178.58	1624.04
178.80	1654.76
179.02	1593.32
179.24	1658.85
179.46	1667.05
179.68	1767.40
179.90	1693.67
180.13	1712.10
180.35	1585.13
180.57	1679.33
180.79	1693.67
181.01	1736.68
181.23	1734.63
181.45	1798.12
181.67	1736.68
181.90	1767.40
182.12	1660.90
182.34	1638.38
182.56	1644.52
182.78	1708.01
183.00	1673.19
183.22	1732.58
183.44	1662.95
183.66	1804.26
183.89	1804.26
184.11	1751.01
184.33	1669.09
184.55	1746.92
184.77	1695.72
184.99	1718.25
185.21	1705.96
185.43	1863.65
185.65	1658.85
185.87	1658.85
186.10	1890.28
186.32	1800.16
186.54	1665.00
186.76	1732.58
186.98	1689.57
187.20	1705.96
187.42	1656.81
187.64	1679.33
187.86	1730.53
188.08	1740.77
188.30	1665.00
188.52	1624.04
188.75	1755.11
188.97	1644.52
189.19	1701.86
189.41	1673.19
189.63	1720.29
189.85	1658.85
190.07	1626.09
190.29	1628.14
190.51	1742.82
190.73	1568.74
190.95	1806.31
191.17	1685.48
191.39	1673.19
191.61	1685.48
191.84	1728.49
192.06	1763.30
192.28	1619.94
192.50	1886.18
192.72	1619.94
192.94	1665.00
193.16	1695.72
193.38	1732.58
193.60	1679.33
193.82	1671.14
194.04	1730.53
194.26	1650.66
194.48	1619.94
194.70	1755.11
194.92	1646.57
195.14	1730.53
195.36	1728.49
195.58	1681.38
195.80	1621.99
196.02	1724.39
196.24	1697.77
196.46	1695.72
196.69	1665.00
196.91	1843.17
197.13	1656.81
197.35	1730.53
197.57	1804.26
197.79	1765.35
198.01	1691.62
198.23	1757.16
198.45	1683.43
198.67	1654.76
198.89	1724.39
199.11	1669.09
199.33	1589.22
199.55	1542.12
199.77	1640.42
199.99	1783.78
200.21	1646.57
200.43	1636.33
200.65	1621.99
200.87	1615.85
201.09	1624.04
201.31	1654.76
201.53	1691.62
201.75	1671.14
201.97	1673.19
202.19	1712.10
202.41	1738.73
202.63	1775.59
202.85	1761.25
203.07	1718.25
203.29	1589.22
203.51	1677.29
203.73	1636.33
203.95	1886.18
204.17	1716.20
204.39	1710.05
204.61	1671.14
204.83	1640.42
205.05	1671.14
205.27	1705.96
205.49	1800.16
205.71	1648.61
205.93	1613.80
206.15	1652.71
206.37	1669.09
206.59	1703.91
206.81	1642.47
207.03	1621.99
207.25	1644.52
207.47	1753.06
207.69	1740.77
207.91	1806.31
208.13	1744.87
208.34	1722.34
208.56	1671.14
208.78	1724.39
209.00	1665.00
209.22	1689.57
209.44	1708.01
209.66	1705.96
209.88	1650.66
210.10	1734.63
210.32	1669.09
210.54	1748.97
210.76	1646.57
210.98	1759.21
211.20	1607.66
211.42	1730.53
211.64	1753.06
211.86	1712.10
212.08	1767.40
212.30	1726.44
212.52	1689.57
212.74	1710.05
212.96	1705.96
213.17	1689.57
213.39	1742.82
213.61	1765.35
213.83	1646.57
214.05	1548.26
214.27	1763.30
214.49	1607.66
214.71	1671.14
214.93	1714.15
215.15	1662.95
215.37	1710.05
215.59	1632.23
215.81	1648.61
216.03	1757.16
216.24	1714.15
216.46	1675.24
216.68	1712.10
216.90	1736.68
217.12	1705.96
217.34	1685.48
217.56	1683.43
217.78	1732.58
218.00	1720.29
218.22	1667.05
218.44	1763.30
218.66	1761.25
218.87	1789.92
219.09	1603.56
219.31	1726.44
219.53	1642.47
219.75	1691.62
219.97	1742.82
220.19	1720.29
220.41	1654.76
220.63	1806.31
220.85	1685.48
221.06	1662.95
221.28	1810.40
221.50	1798.12
221.72	1652.71
221.94	1710.05
222.16	1652.71
222.38	1820.64
222.60	1763.30
222.82	1722.34
223.03	1771.49
223.25	1619.94
223.47	1732.58
223.69	1841.12
223.91	1675.24
224.13	1691.62
224.35	1691.62
224.57	1722.34
224.78	1703.91
225.00	1550.31
225.22	1673.19
225.44	1716.20
225.66	1679.33
225.88	1658.85
226.10	1783.78
226.32	1673.19
226.53	1834.98
226.75	1648.61
226.97	1742.82
227.19	1689.57
227.41	1701.86
227.63	1662.95
227.85	1595.37
228.06	1665.00
228.28	1601.51
228.50	1724.39
228.72	1710.05
228.94	1708.01
229.16	1638.38
229.37	1697.77
229.59	1636.33
229.81	1748.97
230.03	1656.81
230.25	1617.90
230.47	1652.71
230.69	1599.46
230.90	1708.01
231.12	1679.33
231.34	1638.38
231.56	1771.49
231.78	1630.18
232.00	1673.19
232.21	1646.57
232.43	1642.47
232.65	1564.65
232.87	1757.16
233.09	1591.27
233.30	1753.06
233.52	1763.30
233.74	1665.00
233.96	1703.91
234.18	1665.00
234.40	1726.44
234.61	1841.12
234.83	1628.14
235.05	1628.14
235.27	1873.89
235.49	1775.59
235.70	1703.91
235.92	1718.25
236.14	1660.90
236.36	1769.44
236.58	1583.08
236.79	1730.53
237.01	1675.24
237.23	1667.05
237.45	1812.45
237.67	1658.85
237.88	1648.61
238.10	1769.44
238.32	1665.00
238.54	1689.57
238.76	1628.14
238.97	1724.39
239.19	1667.05
239.41	1714.15
239.63	1779.68
239.85	1642.47
240.06	1689.57
240.28	1714.15
240.50	1765.35
240.72	1705.96
240.93	1689.57
241.15	1802.21
241.37	1703.91
241.59	1779.68
241.81	1693.67
242.02	1681.38
242.24	1757.16
242.46	1671.14
242.68	1648.61
242.89	1701.86
243.11	1824.74
243.33	1712.10
243.55	1718.25
243.76	1710.05
243.98	1646.57
244.20	1732.58
244.42	1740.77
244.64	1697.77
244.85	1646.57
245.07	1621.99
245.29	1775.59
245.51	1605.61
245.72	1767.40
245.94	1820.64
246.16	1708.01
246.38	1728.49
246.59	1714.15
246.81	1697.77
247.03	1619.94
247.24	1611.75
247.46	1683.43
247.68	1679.33
247.90	1722.34
248.11	1636.33
248.33	1736.68
248.55	1667.05
248.77	1742.82
248.98	1771.49
249.20	1716.20
249.42	1714.15
249.64	1716.20
249.85	1613.80
250.07	1648.61
250.29	1697.77
250.50	1773.54
250.72	1640.42
250.94	1763.30
251.16	1789.92
251.37	1757.16
251.59	1687.53
251.81	1716.20
252.02	1775.59
252.24	1718.25
252.46	1767.40
252.68	1671.14
252.89	1677.29
253.11	1595.37
253.33	1820.64
253.54	1861.60
253.76	1585.13
253.98	1748.97
254.20	1701.86
254.41	1597.42
254.63	1693.67
254.85	1644.52
255.06	1597.42
255.28	1771.49
255.50	1652.71
255.71	1716.20
255.93	1630.18
256.15	1652.71
256.36	1718.25
256.58	1671.14
256.80	1757.16
257.02	1689.57
257.23	1634.28
257.45	1691.62
257.67	1751.01
257.88	1671.14
258.10	1734.63
258.32	1697.77
258.53	1697.77
258.75	1759.21
258.97	1665.00
259.18	1722.34
259.40	1726.44
259.62	1773.54
259.83	1724.39
260.05	1748.97
260.27	2033.63
260.48	1734.63
260.70	1648.61
260.92	1685.48
261.13	1714.15
261.35	1732.58
261.57	1683.43
261.78	1583.08
262.00	1685.48
262.22	1720.29
262.43	1695.72
262.65	1677.29
262.86	1724.39
263.08	1949.67
263.30	1708.01
263.51	1607.66
263.73	1591.27
263.95	1769.44
264.16	1677.29
264.38	1619.94
264.60	1785.83
264.81	1728.49
265.03	1718.25
265.25	1746.92
265.46	1757.16
265.68	1794.02
265.89	1763.30
266.11	1597.42
266.33	1691.62
266.54	1753.06
266.76	1710.05
266.98	1712.10
267.19	1796.07
267.41	1755.11
267.62	1708.01
267.84	1667.05
268.06	1710.05
268.27	1673.19
268.49	1765.35
268.70	1755.11
268.92	1697.77
269.14	1648.61
269.35	1714.15
269.57	1722.34
269.79	1771.49
270.00	1693.67
270.22	1800.16
270.43	1638.38
270.65	1615.85
270.87	1705.96
271.08	1691.62
271.30	1810.40
271.51	1718.25
271.73	1712.10
271.95	1757.16
272.16	1644.52
272.38	1705.96
272.59	1638.38
272.81	1658.85
273.02	1722.34
273.24	1689.57
273.46	1701.86
273.67	1640.42
273.89	1671.14
274.10	1654.76
274.32	1757.16
274.54	1779.68
274.75	1669.09
274.97	1675.24
275.18	1804.26
275.40	1718.25
275.61	1695.72
275.83	1722.34
276.05	1673.19
276.26	1744.87
276.48	1771.49
276.69	1755.11
276.91	1605.61
277.12	1753.06
277.34	1763.30
277.55	1718.25
277.77	1708.01
277.99	1628.14
278.20	1626.09
278.42	1722.34
278.63	1624.04
278.85	1708.01
279.06	1578.98
279.28	1689.57
279.49	1775.59
279.71	1732.58
279.93	1728.49
280.14	1716.20
280.36	1689.57
280.57	1767.40
280.79	1736.68
281.00	1611.75
281.22	1662.95
281.43	1771.49
281.65	1624.04
281.86	1564.65
282.08	1738.73
282.29	1800.16
282.51	1587.18
282.73	1646.57
282.94	1615.85
283.16	1662.95
283.37	1839.08
283.59	1703.91
283.80	1712.10
284.02	1697.77
284.23	1701.86
284.45	1677.29
284.66	1613.80
284.88	1687.53
285.09	1748.97
285.31	1730.53
285.52	1722.34
285.74	1646.57
285.95	1716.20
286.17	1665.00
286.38	1812.45
286.60	1697.77
286.81	1742.82
287.03	1660.90
287.24	1619.94
287.46	1740.77
287.67	1697.77
287.89	1853.41
288.10	1697.77
288.32	1681.38
288.53	1765.35
288.75	1697.77
288.96	1648.61
289.18	1720.29
289.39	1726.44
289.61	1771.49
289.82	1875.94
290.04	1877.99
290.25	1615.85
290.47	1669.09
290.68	1687.53
290.90	1734.63
291.11	1621.99
291.33	1744.87
291.54	1607.66
291.76	1718.25
291.97	1777.64
292.18	1691.62
292.40	1695.72
292.61	1583.08
292.83	1738.73
293.04	1755.11
293.26	1687.53
293.47	1718.25
293.69	1660.90
293.90	1722.34
294.12	1775.59
294.33	1669.09
294.55	1736.68
294.76	1730.53
294.97	1734.63
295.19	1843.17
295.40	1730.53
295.62	1763.30
295.83	1699.81
296.05	1693.67
296.26	1746.92
296.48	1634.28
296.69	1679.33
296.90	1746.92
297.12	1761.25
297.33	1705.96
297.55	1804.26
297.76	1710.05
297.98	1720.29
298.19	1675.24
298.41	1710.05
298.62	1652.71
298.83	1824.74
299.05	1705.96
299.26	1689.57
299.48	1681.38
299.69	1705.96
299.90	1761.25
300.12	1691.62
300.33	1763.30
300.55	1755.11
300.76	1736.68
300.98	1648.61
301.19	1736.68
301.40	1669.09
301.62	1603.56
301.83	1726.44
302.05	1765.35
302.26	1738.73
302.47	1636.33
302.69	1650.66
302.90	1650.66
303.12	1703.91
303.33	1759.21
303.54	1851.36
303.76	1681.38
303.97	1736.68
304.19	1763.30
304.40	1728.49
304.61	1705.96
304.83	1720.29
305.04	1767.40
305.26	1781.73
305.47	1667.05
305.68	1720.29
305.90	1624.04
306.11	1736.68
306.33	1667.05
306.54	1675.24
306.75	1591.27
306.97	1654.76
307.18	1585.13
307.39	1673.19
307.61	1757.16
307.82	1636.33
308.04	1810.40
308.25	1589.22
308.46	1705.96
308.68	1703.91
308.89	1728.49
309.10	1769.44
309.32	1755.11
309.53	1726.44
309.74	1732.58
309.96	1662.95
310.17	1722.34
310.39	1628.14
310.60	1751.01
310.81	1755.11
311.03	1654.76
311.24	1773.54
311.45	1744.87
311.67	1824.74
311.88	1685.48
312.09	1644.52
312.31	1732.58
312.52	1708.01
312.73	1673.19
312.95	1658.85
313.16	1644.52
313.37	1826.79
313.59	1738.73
313.80	1755.11
314.01	1775.59
314.23	1734.63
314.44	1632.23
314.65	1605.61
314.87	1693.67
315.08	1687.53
315.29	1638.38
315.51	1683.43
315.72	1615.85
315.93	1767.40
316.15	1753.06
316.36	1652.71
316.57	1687.53
316.79	1781.73
317.00	1632.23
317.21	1796.07
317.43	1597.42
317.64	1724.39
317.85	1718.25
318.07	1636.33
318.28	1736.68
318.49	1765.35
318.70	1894.37
318.92	1873.89
319.13	1773.54
319.34	1837.03
319.56	1808.36
319.77	1767.40
319.98	1804.26
320.20	1751.01
320.41	1708.01
320.62	1691.62
320.83	1681.38
321.05	1855.46
321.26	1685.48
321.47	1650.66
321.69	1722.34
321.90	1677.29
322.11	1683.43
322.32	1642.47
322.54	1785.83
322.75	1638.38
322.96	1849.32
323.18	1648.61
323.39	1548.26
323.60	1632.23
323.81	1732.58
324.03	1679.33
324.24	1724.39
324.45	1677.29
324.66	1708.01
324.88	1789.92
325.09	1755.11
325.30	1648.61
325.52	1724.39
325.73	1677.29
325.94	1699.81
326.15	1677.29
326.37	1677.29
326.58	1796.07
326.79	1765.35
327.00	1642.47
327.22	1683.43
327.43	1714.15
327.64	1636.33
327.85	1726.44
328.07	1724.39
328.28	1755.11
328.49	1699.81
328.70	1722.34
328.92	1763.30
329.13	1624.04
329.34	1751.01
329.55	1791.97
329.76	1746.92
329.98	1699.81
330.19	1724.39
330.40	1710.05
330.61	1683.43
330.83	1779.68
331.04	1599.46
331.25	1714.15
331.46	1644.52
331.68	1630.18
331.89	1759.21
332.10	1703.91
332.31	1634.28
332.52	1714.15
332.74	1781.73
332.95	1636.33
333.16	1578.98
333.37	1775.59
333.58	1642.47
333.80	1656.81
334.01	1621.99
334.22	1703.91
334.43	1673.19
334.64	1667.05
334.86	1640.42
335.07	1652.71
335.28	1736.68
335.49	1626.09
335.70	1751.01
335.92	1714.15
336.13	1824.74
336.34	1714.15
336.55	1730.53
336.76	1734.63
336.98	1542.12
337.19	1689.57
337.40	1783.78
337.61	1826.79
337.82	1775.59
338.04	1794.02
338.25	1650.66
338.46	1656.81
338.67	1701.86
338.88	1638.38
339.09	1648.61
339.31	1677.29
339.52	1595.37
339.73	1607.66
339.94	1718.25
340.15	1773.54
340.36	1652.71
340.58	1685.48
340.79	1667.05
341.00	1869.80
341.21	1636.33
341.42	1775.59
341.63	1738.73
341.85	1767.40
342.06	1597.42
342.27	1638.38
342.48	1781.73
342.69	1691.62
342.90	1714.15
343.12	1791.97
343.33	1681.38
343.54	1804.26
343.75	1757.16
343.96	1675.24
344.17	1691.62
344.38	1564.65
344.60	1691.62
344.81	1581.03
345.02	1632.23
345.23	1712.10
345.44	1755.11
345.65	1806.31
345.86	1755.11
346.07	1736.68
346.29	1675.24
346.50	1716.20
346.71	1804.26
346.92	1769.44
347.13	1869.80
347.34	1654.76
347.55	1591.27
347.76	1740.77
347.98	1640.42
348.19	1601.51
348.40	1781.73
348.61	1640.42
348.82	1781.73
349.03	1708.01
349.24	1632.23
349.45	1824.74
349.66	1542.12
349.88	1777.64
350.09	1632.23
350.30	1789.92
350.51	1781.73
350.72	1675.24
350.93	1693.67
351.14	1650.66
351.35	1736.68
351.56	1701.86
351.77	1691.62
351.99	1779.68
352.20	1826.79
352.41	1763.30
352.62	1589.22
352.83	1685.48
353.04	1677.29
353.25	1675.24
353.46	1728.49
353.67	1648.61
353.88	1554.41
354.09	1724.39
354.30	1740.77
354.52	1710.05
354.73	1689.57
354.94	1628.14
355.15	1693.67
355.36	1787.88
355.57	1654.76
355.78	1746.92
355.99	1597.42
356.20	1732.58
356.41	1718.25
356.62	1767.40
356.83	1669.09
357.04	1791.97
357.25	1609.70
357.46	1685.48
357.68	1648.61
357.89	1640.42
358.10	1660.90
358.31	1732.58
358.52	1728.49
358.73	1597.42
358.94	1595.37
359.15	1685.48
359.36	1730.53
359.57	1636.33
359.78	1656.81
359.99	1742.82
360.20	1603.56
360.41	1677.29
360.62	1697.77
360.83	1654.76
361.04	1705.96
361.25	1705.96
361.46	1830.88
361.67	1650.66
361.88	1718.25
362.09	1781.73
362.30	1697.77
362.51	1691.62
362.72	1703.91
362.93	1724.39
363.14	1689.57
363.35	1675.24
363.56	1603.56
363.78	1746.92
363.99	1730.53
364.20	1687.53
364.41	1710.05
364.62	1794.02
364.83	1730.53
365.04	1710.05
365.25	1689.57
365.46	1785.83
365.67	1699.81
365.88	1570.79
366.09	1697.77
366.30	1667.05
366.51	1705.96
366.72	1644.52
366.93	1757.16
367.14	1718.25
367.35	1773.54
367.56	1681.38
367.77	1806.31
367.98	1716.20
368.18	1681.38
368.39	1791.97
368.60	1708.01
368.81	1740.77
369.02	1650.66
369.23	1757.16
369.44	1576.94
369.65	1667.05
369.86	1753.06
370.07	1753.06
370.28	1646.57
370.49	1734.63
370.70	1712.10
370.91	1578.98
371.12	1656.81
371.33	1722.34
371.54	1667.05
371.75	1869.80
371.96	1546.22
372.17	1748.97
372.38	1665.00
372.59	1736.68
372.80	1671.14
373.01	1587.18
373.22	1714.15
373.43	1732.58
373.64	1632.23
373.85	1826.79
374.06	1787.88
374.26	1775.59
374.47	1755.11
374.68	1771.49
374.89	1621.99
375.10	1658.85
375.31	1746.92
375.52	1701.86
375.73	1675.24
375.94	1640.42
376.15	1755.11
376.36	1562.60
376.57	1648.61
376.78	1671.14
376.99	1701.86
377.20	1748.97
377.40	1685.48
377.61	1796.07
377.82	1591.27
378.03	1779.68
378.24	1722.34
378.45	1699.81
378.66	1738.73
378.87	1599.46
379.08	1615.85
379.29	1642.47
379.50	1902.56
379.71	1708.01
379.91	1769.44
380.12	1650.66
380.33	1669.09
380.54	1648.61
380.75	1753.06
380.96	1624.04
381.17	1734.63
381.38	1746.92
381.59	1683.43
381.80	1703.91
382.00	1755.11
382.21	1759.21
382.42	1798.12
382.63	1865.70
382.84	1810.40
383.05	1658.85
383.26	1746.92
383.47	1708.01
383.68	1730.53
383.88	1730.53
384.09	1740.77
384.30	1724.39
384.51	1798.12
384.72	1644.52
384.93	1630.18
385.14	1681.38
385.35	1728.49
385.55	1720.29
385.76	1814.50
385.97	1742.82
386.18	1658.85
386.39	1662.95
386.60	1710.05
386.81	1669.09
387.02	1714.15
387.22	1654.76
387.43	1763.30
387.64	1755.11
387.85	1906.66
388.06	2199.52
388.27	4331.45
388.48	6909.85
388.68	8308.61
388.89	9617.26
389.10	9699.18
389.31	8535.93
389.52	7614.35
389.73	6756.25
389.93	6326.18
390.14	5879.72
390.35	5320.62
390.56	4575.16
390.77	3620.81
390.98	3004.37
391.18	2502.62
391.39	2109.41
391.60	1814.50
391.81	1845.22
392.02	1748.97
392.23	1845.22
392.43	1759.21
392.64	1771.49
392.85	1673.19
393.06	1738.73
393.27	1697.77
393.47	1693.67
393.68	1802.21
393.89	1722.34
394.10	1781.73
394.31	1681.38
394.52	1671.14
394.72	1656.81
394.93	1783.78
395.14	1619.94
395.35	1753.06
395.56	1662.95
395.76	1716.20
395.97	1806.31
396.18	1808.36
396.39	1869.80
396.60	2029.54
396.80	1882.08
397.01	1849.32
397.22	1814.50
397.43	1828.84
397.64	1701.86
397.84	1796.07
398.05	1902.56
398.26	1689.57
398.47	1761.25
398.67	1755.11
398.88	1703.91
399.09	1701.86
399.30	1648.61
399.51	1769.44
399.71	1642.47
399.92	1755.11
400.13	1722.34
400.34	1710.05
400.54	1730.53
400.75	1759.21
400.96	1763.30
401.17	1783.78
401.37	1730.53
401.58	1718.25
401.79	1771.49
402.00	1861.60
402.21	2078.69
402.41	1992.67
402.62	1990.63
402.83	2021.35
403.04	2019.30
403.24	2043.87
403.45	1849.32
403.66	1923.04
403.87	1853.41
404.07	1871.84
404.28	1808.36
404.49	1902.56
404.70	1816.55
404.90	1705.96
405.11	1673.19
405.32	1775.59
405.52	1626.09
405.73	1632.23
405.94	1654.76
406.15	1693.67
406.35	1820.64
406.56	1722.34
406.77	1673.19
406.98	1730.53
407.18	1626.09
407.39	1718.25
407.60	1718.25
407.80	1660.90
408.01	1681.38
408.22	1658.85
408.43	1701.86
408.63	1716.20
408.84	1804.26
409.05	1789.92
409.25	1677.29
409.46	1679.33
409.67	1660.90
409.88	1712.10
410.08	1656.81
410.29	1691.62
410.50	1675.24
410.70	1693.67
410.91	1626.09
411.12	1757.16
411.32	1708.01
411.53	1730.53
411.74	1789.92
411.95	1773.54
412.15	1722.34
412.36	1701.86
412.57	1761.25
412.77	1777.64
412.98	1701.86
413.19	1640.42
413.39	1761.25
413.60	1759.21
413.81	1710.05
414.01	1665.00
414.22	1701.86
414.43	1630.18
414.63	1662.95
414.84	1818.60
415.05	1669.09
415.25	1665.00
415.46	1734.63
415.67	1650.66
415.87	1695.72
416.08	1724.39
416.29	1693.67
416.49	1773.54
416.70	1673.19
416.91	1665.00
417.11	1714.15
417.32	1744.87
417.53	1753.06
417.73	1673.19
417.94	1738.73
418.15	1648.61
418.35	1734.63
418.56	1685.48
418.77	1806.31
418.97	1710.05
419.18	1669.09
419.38	1652.71
419.59	1656.81
419.80	1761.25
420.00	1730.53
420.21	1769.44
420.42	1767.40
420.62	1636.33
420.83	1734.63
421.04	1701.86
421.24	1658.85
421.45	1808.36
421.65	1669.09
421.86	1728.49
422.07	1746.92
422.27	1746.92
422.48	1714.15
422.69	1705.96
422.89	1720.29
423.10	1681.38
423.30	1716.20
423.51	1736.68
423.72	1730.53
423.92	1697.77
424.13	1634.28
424.33	1699.81
424.54	1767.40
424.75	1611.75
424.95	1814.50
425.16	1732.58
425.36	1683.43
425.57	1701.86
425.78	1775.59
425.98	1689.57
426.19	1626.09
426.39	1650.66
426.60	1720.29
426.81	1765.35
427.01	1693.67
427.22	1671.14
427.42	1624.04
427.63	1632.23
427.83	1722.34
428.04	1820.64
428.25	1732.58
428.45	1763.30
428.66	1679.33
428.86	1697.77
429.07	1654.76
429.28	1734.63
429.48	1658.85
429.69	1642.47
429.89	1681.38
430.10	1699.81
430.30	1767.40
430.51	1765.35
430.71	1763.30
430.92	1660.90
431.13	1652.71
431.33	1685.48
431.54	1796.07
431.74	1839.08
431.95	1814.50
432.15	1626.09
432.36	1767.40
432.56	1720.29
432.77	1880.04
432.98	1822.69
433.18	1689.57
433.39	1640.42
433.59	1710.05
433.80	1783.78
434.00	1802.21
434.21	1740.77
434.41	1705.96
434.62	1806.31
434.82	1712.10
435.03	1591.27
435.23	1685.48
435.44	1607.66
435.64	1675.24
435.85	1712.10
436.06	1791.97
436.26	1761.25
436.47	1705.96
436.67	1650.66
436.88	1652.71
437.08	1740.77
437.29	1781.73
437.49	1718.25
437.70	1773.54
437.90	1667.05
438.11	1808.36
438.31	1781.73
438.52	1837.03
438.72	1810.40
438.93	1886.18
439.13	1755.11
439.34	1888.23
439.54	1738.73
439.75	1857.51
439.95	1705.96
440.16	1673.19
440.36	1753.06
440.57	1708.01
440.77	1759.21
440.98	1714.15
441.18	1785.83
441.39	1591.27
441.59	1697.77
441.80	1935.33
442.00	1710.05
442.21	1849.32
442.41	1773.54
442.62	1804.26
442.82	1648.61
443.02	1695.72
443.23	1722.34
443.43	1748.97
443.64	1832.93
443.84	1660.90
444.05	1820.64
444.25	1740.77
444.46	1755.11
444.66	1767.40
444.87	1800.16
445.07	1728.49
445.28	1744.87
445.48	1837.03
445.69	1714.15
445.89	1939.43
446.09	1701.86
446.30	1947.62
446.50	2643.93
446.71	3725.26
446.91	4288.45
447.12	4755.38
447.32	4833.21
447.53	4313.02
447.73	3923.91
447.93	3385.29
448.14	3364.81
448.34	3215.31
448.55	3004.37
448.75	2811.86
448.96	2639.83
449.16	2410.46
449.36	2289.63
449.57	2025.44
449.77	1849.32
449.98	1779.68
450.18	1761.25
450.39	1830.88
450.59	1798.12
450.79	1665.00
451.00	1660.90
451.20	1787.88
451.41	1689.57
451.61	1763.30
451.81	1697.77
452.02	1695.72
452.22	1730.53
452.43	1685.48
452.63	1699.81
