SpectraSuite Data File
++++++++++++++++++++++++++++++++++++
Date: Mon Jun 06 15:58:17 CEST 2016
User: root
Dark Spectrum Present: No
Reference Spectrum Present: No
Number of Sampled Component Spectra: 1
Spectrometers: USB4C02835
Integration Time (usec): 100000 (USB4C02835)
Spectra Averaged: 1 (USB4C02835)
Boxcar Smoothing: 0 (USB4C02835)
Correct for Electrical Dark: No (USB4C02835)
Strobe/Lamp Enabled: No (USB4C02835)
Correct for Detector Non-linearity: No (USB4C02835)
Correct for Stray Light: No (USB4C02835)
Number of Pixels in Processed Spectrum: 3648
>>>>>Begin Processed Spectral Data<<<<<
177.47	1521.64
177.69	1521.64
177.91	1521.64
178.13	1431.53
178.36	1497.07
178.58	1642.47
178.80	1703.91
179.02	1656.81
179.24	1683.43
179.46	1712.10
179.68	1763.30
179.90	1652.71
180.13	1697.77
180.35	1640.42
180.57	1681.38
180.79	1765.35
181.01	1736.68
181.23	1769.44
181.45	1812.45
181.67	1724.39
181.90	1744.87
182.12	1685.48
182.34	1615.85
182.56	1757.16
182.78	1712.10
183.00	1691.62
183.22	1685.48
183.44	1644.52
183.66	1849.32
183.89	1812.45
184.11	1697.77
184.33	1769.44
184.55	1814.50
184.77	1716.20
184.99	1671.14
185.21	1640.42
185.43	1816.55
185.65	1681.38
185.87	1708.01
186.10	1742.82
186.32	1804.26
186.54	1687.53
186.76	1789.92
186.98	1751.01
187.20	1705.96
187.42	1624.04
187.64	1656.81
187.86	1683.43
188.08	1738.73
188.30	1705.96
188.52	1681.38
188.75	1779.68
188.97	1806.31
189.19	1681.38
189.41	1751.01
189.63	1722.34
189.85	1671.14
190.07	1679.33
190.29	1638.38
190.51	1722.34
190.73	1679.33
190.95	1794.02
191.17	1667.05
191.39	1662.95
191.61	1658.85
191.84	1677.29
192.06	1767.40
192.28	1644.52
192.50	1929.19
192.72	1734.63
192.94	1710.05
193.16	1777.64
193.38	1757.16
193.60	1648.61
193.82	1656.81
194.04	1763.30
194.26	1699.81
194.48	1726.44
194.70	1697.77
194.92	1681.38
195.14	1767.40
195.36	1720.29
195.58	1742.82
195.80	1765.35
196.02	1685.48
196.24	1687.53
196.46	1609.70
196.69	1734.63
196.91	1869.80
197.13	1757.16
197.35	1636.33
197.57	1785.83
197.79	1734.63
198.01	1714.15
198.23	1808.36
198.45	1669.09
198.67	1669.09
198.89	1654.76
199.11	1724.39
199.33	1660.90
199.55	1615.85
199.77	1722.34
199.99	1771.49
200.21	1769.44
200.43	1683.43
200.65	1693.67
200.87	1609.70
201.09	1683.43
201.31	1675.24
201.53	1718.25
201.75	1746.92
201.97	1667.05
202.19	1759.21
202.41	1714.15
202.63	1851.36
202.85	1804.26
203.07	1742.82
203.29	1669.09
203.51	1679.33
203.73	1683.43
203.95	1873.89
204.17	1701.86
204.39	1763.30
204.61	1681.38
204.83	1724.39
205.05	1785.83
205.27	1863.65
205.49	1863.65
205.71	1761.25
205.93	1665.00
206.15	1665.00
206.37	1683.43
206.59	1771.49
206.81	1648.61
207.03	1673.19
207.25	1662.95
207.47	1806.31
207.69	1675.24
207.91	1787.88
208.13	1730.53
208.34	1710.05
208.56	1648.61
208.78	1728.49
209.00	1652.71
209.22	1701.86
209.44	1701.86
209.66	1660.90
209.88	1703.91
210.10	1642.47
210.32	1677.29
210.54	1806.31
210.76	1783.78
210.98	1703.91
211.20	1566.70
211.42	1718.25
211.64	1849.32
211.86	1677.29
212.08	1812.45
212.30	1794.02
212.52	1650.66
212.74	1728.49
212.96	1689.57
213.17	1804.26
213.39	1808.36
213.61	1751.01
213.83	1755.11
214.05	1624.04
214.27	1738.73
214.49	1716.20
214.71	1677.29
214.93	1751.01
215.15	1798.12
215.37	1746.92
215.59	1656.81
215.81	1736.68
216.03	1744.87
216.24	1791.97
216.46	1742.82
216.68	1689.57
216.90	1714.15
217.12	1796.07
217.34	1716.20
217.56	1730.53
217.78	1763.30
218.00	1755.11
218.22	1767.40
218.44	1701.86
218.66	1753.06
218.87	1828.84
219.09	1689.57
219.31	1722.34
219.53	1705.96
219.75	1644.52
219.97	1691.62
220.19	1673.19
220.41	1716.20
220.63	1828.84
220.85	1736.68
221.06	1671.14
221.28	1820.64
221.50	1783.78
221.72	1681.38
221.94	1710.05
222.16	1728.49
222.38	1820.64
222.60	1744.87
222.82	1675.24
223.03	1689.57
223.25	1656.81
223.47	1769.44
223.69	1847.27
223.91	1726.44
224.13	1677.29
224.35	1691.62
224.57	1710.05
224.78	1726.44
225.00	1615.85
225.22	1665.00
225.44	1742.82
225.66	1701.86
225.88	1722.34
226.10	1761.25
226.32	1746.92
226.53	1818.60
226.75	1736.68
226.97	1763.30
227.19	1665.00
227.41	1677.29
227.63	1736.68
227.85	1646.57
228.06	1648.61
228.28	1751.01
228.50	1728.49
228.72	1689.57
228.94	1703.91
229.16	1640.42
229.37	1679.33
229.59	1675.24
229.81	1806.31
230.03	1718.25
230.25	1626.09
230.47	1609.70
230.69	1609.70
230.90	1703.91
231.12	1656.81
231.34	1714.15
231.56	1783.78
231.78	1671.14
232.00	1703.91
232.21	1695.72
232.43	1740.77
232.65	1568.74
232.87	1767.40
233.09	1560.55
233.30	1732.58
233.52	1720.29
233.74	1718.25
233.96	1624.04
234.18	1767.40
234.40	1710.05
234.61	1861.60
234.83	1654.76
235.05	1710.05
235.27	1796.07
235.49	1769.44
235.70	1689.57
235.92	1781.73
236.14	1724.39
236.36	1853.41
236.58	1716.20
236.79	1724.39
237.01	1697.77
237.23	1744.87
237.45	1861.60
237.67	1662.95
237.88	1751.01
238.10	1837.03
238.32	1667.05
238.54	1667.05
238.76	1683.43
238.97	1689.57
239.19	1679.33
239.41	1751.01
239.63	1787.88
239.85	1660.90
240.06	1761.25
240.28	1718.25
240.50	1746.92
240.72	1648.61
240.93	1650.66
241.15	1822.69
241.37	1691.62
241.59	1867.75
241.81	1658.85
242.02	1648.61
242.24	1744.87
242.46	1751.01
242.68	1673.19
242.89	1748.97
243.11	1783.78
243.33	1697.77
243.55	1730.53
243.76	1777.64
243.98	1671.14
244.20	1665.00
244.42	1718.25
244.64	1718.25
244.85	1667.05
245.07	1710.05
245.29	1746.92
245.51	1714.15
245.72	1675.24
245.94	1724.39
246.16	1710.05
246.38	1685.48
246.59	1742.82
246.81	1728.49
247.03	1689.57
247.24	1640.42
247.46	1609.70
247.68	1773.54
247.90	1699.81
248.11	1695.72
248.33	1726.44
248.55	1714.15
248.77	1742.82
248.98	1744.87
249.20	1781.73
249.42	1761.25
249.64	1675.24
249.85	1636.33
250.07	1785.83
250.29	1740.77
250.50	1722.34
250.72	1624.04
250.94	1748.97
251.16	1787.88
251.37	1726.44
251.59	1730.53
251.81	1769.44
252.02	1820.64
252.24	1615.85
252.46	1808.36
252.68	1636.33
252.89	1644.52
253.11	1669.09
253.33	1787.88
253.54	1820.64
253.76	1576.94
253.98	1679.33
254.20	1671.14
254.41	1665.00
254.63	1718.25
254.85	1683.43
255.06	1736.68
255.28	1701.86
255.50	1763.30
255.71	1728.49
255.93	1673.19
256.15	1660.90
256.36	1736.68
256.58	1722.34
256.80	1734.63
257.02	1673.19
257.23	1722.34
257.45	1685.48
257.67	1812.45
257.88	1669.09
258.10	1665.00
258.32	1699.81
258.53	1755.11
258.75	1767.40
258.97	1751.01
259.18	1796.07
259.40	1728.49
259.62	1818.60
259.83	1763.30
260.05	1751.01
260.27	1988.58
260.48	1783.78
260.70	1667.05
260.92	1677.29
261.13	1722.34
261.35	1740.77
261.57	1765.35
261.78	1667.05
262.00	1718.25
262.22	1783.78
262.43	1722.34
262.65	1640.42
262.86	1705.96
263.08	1773.54
263.30	1736.68
263.51	1634.28
263.73	1654.76
263.95	1748.97
264.16	1628.14
264.38	1634.28
264.60	1791.97
264.81	1699.81
265.03	1722.34
265.25	1830.88
265.46	1679.33
265.68	1753.06
265.89	1757.16
266.11	1640.42
266.33	1677.29
266.54	1759.21
266.76	1726.44
266.98	1714.15
267.19	1728.49
267.41	1787.88
267.62	1785.83
267.84	1669.09
268.06	1718.25
268.27	1669.09
268.49	1744.87
268.70	1791.97
268.92	1687.53
269.14	1638.38
269.35	1564.65
269.57	1730.53
269.79	1765.35
270.00	1650.66
270.22	1841.12
270.43	1703.91
270.65	1599.46
270.87	1769.44
271.08	1779.68
271.30	1796.07
271.51	1742.82
271.73	1687.53
271.95	1732.58
272.16	1687.53
272.38	1740.77
272.59	1695.72
272.81	1746.92
273.02	1677.29
273.24	1638.38
273.46	1759.21
273.67	1689.57
273.89	1669.09
274.10	1667.05
274.32	1771.49
274.54	1648.61
274.75	1710.05
274.97	1683.43
275.18	1722.34
275.40	1728.49
275.61	1693.67
275.83	1708.01
276.05	1638.38
276.26	1679.33
276.48	1767.40
276.69	1716.20
276.91	1732.58
277.12	1791.97
277.34	1775.59
277.55	1730.53
277.77	1734.63
277.99	1759.21
278.20	1673.19
278.42	1636.33
278.63	1654.76
278.85	1703.91
279.06	1619.94
279.28	1736.68
279.49	1789.92
279.71	1794.02
279.93	1791.97
280.14	1722.34
280.36	1656.81
280.57	1798.12
280.79	1726.44
281.00	1667.05
281.22	1712.10
281.43	1810.40
281.65	1646.57
281.86	1662.95
282.08	1705.96
282.29	1882.08
282.51	1689.57
282.73	1679.33
282.94	1646.57
283.16	1736.68
283.37	1851.36
283.59	1642.47
283.80	1767.40
284.02	1656.81
284.23	1728.49
284.45	1705.96
284.66	1679.33
284.88	1705.96
285.09	1742.82
285.31	1746.92
285.52	1708.01
285.74	1656.81
285.95	1767.40
286.17	1724.39
286.38	1730.53
286.60	1693.67
286.81	1695.72
287.03	1679.33
287.24	1675.24
287.46	1617.90
287.67	1728.49
287.89	1839.08
288.10	1726.44
288.32	1779.68
288.53	1757.16
288.75	1781.73
288.96	1730.53
289.18	1740.77
289.39	1722.34
289.61	1826.79
289.82	1908.71
290.04	1779.68
290.25	1650.66
290.47	1708.01
290.68	1697.77
290.90	1845.22
291.11	1665.00
291.33	1710.05
291.54	1689.57
291.76	1683.43
291.97	1734.63
292.18	1720.29
292.40	1673.19
292.61	1708.01
292.83	1851.36
293.04	1746.92
293.26	1771.49
293.47	1705.96
293.69	1691.62
293.90	1710.05
294.12	1769.44
294.33	1722.34
294.55	1660.90
294.76	1736.68
294.97	1804.26
295.19	1828.84
295.40	1701.86
295.62	1738.73
295.83	1726.44
296.05	1705.96
296.26	1714.15
296.48	1673.19
296.69	1644.52
296.90	1662.95
297.12	1718.25
297.33	1736.68
297.55	1673.19
297.76	1677.29
297.98	1785.83
298.19	1695.72
298.41	1679.33
298.62	1697.77
298.83	1853.41
299.05	1773.54
299.26	1630.18
299.48	1667.05
299.69	1742.82
299.90	1714.15
300.12	1648.61
300.33	1662.95
300.55	1712.10
300.76	1683.43
300.98	1673.19
301.19	1662.95
301.40	1744.87
301.62	1656.81
301.83	1755.11
302.05	1730.53
302.26	1722.34
302.47	1689.57
302.69	1757.16
302.90	1755.11
303.12	1546.22
303.33	1816.55
303.54	1796.07
303.76	1748.97
303.97	1775.59
304.19	1800.16
304.40	1570.79
304.61	1748.97
304.83	1810.40
305.04	1775.59
305.26	1732.58
305.47	1722.34
305.68	1689.57
305.90	1640.42
306.11	1730.53
306.33	1669.09
306.54	1662.95
306.75	1708.01
306.97	1587.18
307.18	1619.94
307.39	1746.92
307.61	1701.86
307.82	1757.16
308.04	1755.11
308.25	1712.10
308.46	1761.25
308.68	1708.01
308.89	1763.30
309.10	1767.40
309.32	1708.01
309.53	1748.97
309.74	1869.80
309.96	1720.29
310.17	1734.63
310.39	1675.24
310.60	1722.34
310.81	1734.63
311.03	1697.77
311.24	1767.40
311.45	1667.05
311.67	1796.07
311.88	1769.44
312.09	1710.05
312.31	1689.57
312.52	1646.57
312.73	1652.71
312.95	1658.85
313.16	1669.09
313.37	1818.60
313.59	1685.48
313.80	1791.97
314.01	1777.64
314.23	1714.15
314.44	1730.53
314.65	1628.14
314.87	1669.09
315.08	1697.77
315.29	1689.57
315.51	1617.90
315.72	1624.04
315.93	1800.16
316.15	1822.69
316.36	1714.15
316.57	1710.05
316.79	1794.02
317.00	1685.48
317.21	1710.05
317.43	1638.38
317.64	1683.43
317.85	1740.77
318.07	1693.67
318.28	1728.49
318.49	1726.44
318.70	1964.00
318.92	1789.92
319.13	1894.37
319.34	1882.08
319.56	1816.55
319.77	1859.56
319.98	1767.40
320.20	1812.45
320.41	1716.20
320.62	1779.68
320.83	1726.44
321.05	1890.28
321.26	1722.34
321.47	1695.72
321.69	1839.08
321.90	1699.81
322.11	1753.06
322.32	1761.25
322.54	1779.68
322.75	1689.57
322.96	1865.70
323.18	1718.25
323.39	1658.85
323.60	1679.33
323.81	1818.60
324.03	1693.67
324.24	1691.62
324.45	1654.76
324.66	1689.57
324.88	1808.36
325.09	1746.92
325.30	1677.29
325.52	1798.12
325.73	1673.19
325.94	1687.53
326.15	1685.48
326.37	1650.66
326.58	1781.73
326.79	1781.73
327.00	1662.95
327.22	1697.77
327.43	1679.33
327.64	1697.77
327.85	1812.45
328.07	1675.24
328.28	1865.70
328.49	1681.38
328.70	1673.19
328.92	1685.48
329.13	1699.81
329.34	1722.34
329.55	1779.68
329.76	1761.25
329.98	1669.09
330.19	1806.31
330.40	1720.29
330.61	1669.09
330.83	1757.16
331.04	1693.67
331.25	1753.06
331.46	1677.29
331.68	1642.47
331.89	1781.73
332.10	1687.53
332.31	1695.72
332.52	1718.25
332.74	1667.05
332.95	1662.95
333.16	1665.00
333.37	1746.92
333.58	1656.81
333.80	1722.34
334.01	1611.75
334.22	1673.19
334.43	1738.73
334.64	1658.85
334.86	1685.48
335.07	1693.67
335.28	1800.16
335.49	1603.56
335.70	1695.72
335.92	1714.15
336.13	1837.03
336.34	1728.49
336.55	1746.92
336.76	1675.24
336.98	1640.42
337.19	1681.38
337.40	1794.02
337.61	1863.65
337.82	1617.90
338.04	1779.68
338.25	1642.47
338.46	1630.18
338.67	1626.09
338.88	1660.90
339.09	1710.05
339.31	1689.57
339.52	1687.53
339.73	1644.52
339.94	1744.87
340.15	1726.44
340.36	1746.92
340.58	1699.81
340.79	1658.85
341.00	1767.40
341.21	1552.36
341.42	1812.45
341.63	1675.24
341.85	1753.06
342.06	1681.38
342.27	1611.75
342.48	1828.84
342.69	1681.38
342.90	1751.01
343.12	1794.02
343.33	1640.42
343.54	1806.31
343.75	1699.81
343.96	1740.77
344.17	1662.95
344.38	1742.82
344.60	1626.09
344.81	1650.66
345.02	1656.81
345.23	1734.63
345.44	1820.64
345.65	1726.44
345.86	1779.68
346.07	1701.86
346.29	1642.47
346.50	1748.97
346.71	1708.01
346.92	1785.83
347.13	1865.70
347.34	1787.88
347.55	1669.09
347.76	1802.21
347.98	1611.75
348.19	1644.52
348.40	1812.45
348.61	1701.86
348.82	1830.88
349.03	1712.10
349.24	1742.82
349.45	1804.26
349.66	1572.84
349.88	1714.15
350.09	1693.67
350.30	1787.88
350.51	1759.21
350.72	1757.16
350.93	1746.92
351.14	1716.20
351.35	1777.64
351.56	1671.14
351.77	1665.00
351.99	1695.72
352.20	1830.88
352.41	1751.01
352.62	1542.12
352.83	1644.52
353.04	1757.16
353.25	1665.00
353.46	1732.58
353.67	1798.12
353.88	1599.46
354.09	1767.40
354.30	1746.92
354.52	1783.78
354.73	1710.05
354.94	1669.09
355.15	1746.92
355.36	1845.22
355.57	1701.86
355.78	1673.19
355.99	1605.61
356.20	1699.81
356.41	1765.35
356.62	1744.87
356.83	1703.91
357.04	1746.92
357.25	1665.00
357.46	1720.29
357.68	1673.19
357.89	1642.47
358.10	1667.05
358.31	1675.24
358.52	1673.19
358.73	1619.94
358.94	1667.05
359.15	1714.15
359.36	1824.74
359.57	1740.77
359.78	1699.81
359.99	1746.92
360.20	1667.05
360.41	1611.75
360.62	1787.88
360.83	1734.63
361.04	1783.78
361.25	1710.05
361.46	1847.27
361.67	1687.53
361.88	1804.26
362.09	1767.40
362.30	1785.83
362.51	1724.39
362.72	1763.30
362.93	1742.82
363.14	1810.40
363.35	1675.24
363.56	1705.96
363.78	1742.82
363.99	1738.73
364.20	1726.44
364.41	1693.67
364.62	1832.93
364.83	1714.15
365.04	1636.33
365.25	1652.71
365.46	1837.03
365.67	1691.62
365.88	1669.09
366.09	1751.01
366.30	1611.75
366.51	1683.43
366.72	1748.97
366.93	1675.24
367.14	1759.21
367.35	1697.77
367.56	1734.63
367.77	1773.54
367.98	1736.68
368.18	1773.54
368.39	1693.67
368.60	1665.00
368.81	1632.23
369.02	1755.11
369.23	1710.05
369.44	1665.00
369.65	1730.53
369.86	1722.34
370.07	1773.54
370.28	1660.90
370.49	1779.68
370.70	1773.54
370.91	1615.85
371.12	1681.38
371.33	1742.82
371.54	1697.77
371.75	1830.88
371.96	1601.51
372.17	1736.68
372.38	1802.21
372.59	1767.40
372.80	1640.42
373.01	1665.00
373.22	1710.05
373.43	1714.15
373.64	1605.61
373.85	1744.87
374.06	1796.07
374.26	1802.21
374.47	1718.25
374.68	1816.55
374.89	1712.10
375.10	1675.24
375.31	1693.67
375.52	1699.81
375.73	1675.24
375.94	1712.10
376.15	1808.36
376.36	1693.67
376.57	1658.85
376.78	1656.81
376.99	1685.48
377.20	1732.58
377.40	1695.72
377.61	1847.27
377.82	1757.16
378.03	1832.93
378.24	1746.92
378.45	1753.06
378.66	1718.25
378.87	1613.80
379.08	1619.94
379.29	1671.14
379.50	1816.55
379.71	1648.61
379.91	1734.63
380.12	1656.81
380.33	1746.92
380.54	1779.68
380.75	1714.15
380.96	1681.38
381.17	1845.22
381.38	1732.58
381.59	1777.64
381.80	1710.05
382.00	1853.41
382.21	1839.08
382.42	1814.50
382.63	1841.12
382.84	1783.78
383.05	1785.83
383.26	1855.46
383.47	1701.86
383.68	1705.96
383.88	1710.05
384.09	1722.34
384.30	1802.21
384.51	1761.25
384.72	1738.73
384.93	1642.47
385.14	1734.63
385.35	1773.54
385.55	1685.48
385.76	1812.45
385.97	1671.14
386.18	1642.47
386.39	1701.86
386.60	1619.94
386.81	1691.62
387.02	1658.85
387.22	1703.91
387.43	1789.92
387.64	1800.16
387.85	1853.41
388.06	2101.22
388.27	4210.62
388.48	6688.67
388.68	8138.63
388.89	9564.01
389.10	9643.88
389.31	8464.25
389.52	7600.01
389.73	6678.43
389.93	6172.58
390.14	5877.67
390.35	5130.16
390.56	4573.11
390.77	3807.17
390.98	2987.99
391.18	2519.00
391.39	2095.07
391.60	1794.02
391.81	1927.14
392.02	1755.11
392.23	1822.69
392.43	1765.35
392.64	1812.45
392.85	1755.11
393.06	1820.64
393.27	1673.19
393.47	1673.19
393.68	1677.29
393.89	1609.70
394.10	1779.68
394.31	1662.95
394.52	1765.35
394.72	1689.57
394.93	1751.01
395.14	1693.67
395.35	1673.19
395.56	1732.58
395.76	1771.49
395.97	1855.46
396.18	1880.04
396.39	1865.70
396.60	2025.44
396.80	1892.32
397.01	1845.22
397.22	1804.26
397.43	1794.02
397.64	1685.48
397.84	1791.97
398.05	1863.65
398.26	1716.20
398.47	1789.92
398.67	1794.02
398.88	1742.82
399.09	1738.73
399.30	1742.82
399.51	1767.40
399.71	1679.33
399.92	1753.06
400.13	1738.73
400.34	1652.71
400.54	1681.38
400.75	1820.64
400.96	1738.73
401.17	1783.78
401.37	1740.77
401.58	1757.16
401.79	1769.44
402.00	1902.56
402.21	2047.97
402.41	1886.18
402.62	1978.34
402.83	1986.53
403.04	1994.72
403.24	2086.88
403.45	1834.98
403.66	1886.18
403.87	1853.41
404.07	1814.50
404.28	1902.56
404.49	1853.41
404.70	1820.64
404.90	1798.12
405.11	1791.97
405.32	1736.68
405.52	1765.35
405.73	1656.81
405.94	1730.53
406.15	1662.95
406.35	1771.49
406.56	1787.88
406.77	1648.61
406.98	1779.68
407.18	1701.86
407.39	1886.18
407.60	1716.20
407.80	1759.21
408.01	1705.96
408.22	1724.39
408.43	1607.66
408.63	1800.16
408.84	1718.25
409.05	1798.12
409.25	1687.53
409.46	1632.23
409.67	1648.61
409.88	1759.21
410.08	1634.28
410.29	1720.29
410.50	1767.40
410.70	1777.64
410.91	1673.19
411.12	1697.77
411.32	1724.39
411.53	1744.87
411.74	1824.74
411.95	1802.21
412.15	1710.05
412.36	1822.69
412.57	1708.01
412.77	1855.46
412.98	1773.54
413.19	1761.25
413.39	1781.73
413.60	1734.63
413.81	1828.84
414.01	1636.33
414.22	1779.68
414.43	1730.53
414.63	1763.30
414.84	1796.07
415.05	1708.01
415.25	1632.23
415.46	1886.18
415.67	1722.34
415.87	1738.73
416.08	1730.53
416.29	1736.68
416.49	1918.95
416.70	1722.34
416.91	1583.08
417.11	1722.34
417.32	1808.36
417.53	1761.25
417.73	1691.62
417.94	1630.18
418.15	1814.50
418.35	1722.34
418.56	1757.16
418.77	1839.08
418.97	1689.57
419.18	1673.19
419.38	1679.33
419.59	1736.68
419.80	1779.68
420.00	1751.01
420.21	1712.10
420.42	1818.60
420.62	1710.05
420.83	1724.39
421.04	1716.20
421.24	1687.53
421.45	1781.73
421.65	1753.06
421.86	1632.23
422.07	1765.35
422.27	1656.81
422.48	1693.67
422.69	1675.24
422.89	1716.20
423.10	1683.43
423.30	1671.14
423.51	1726.44
423.72	1656.81
423.92	1726.44
424.13	1669.09
424.33	1714.15
424.54	1798.12
424.75	1677.29
424.95	1794.02
425.16	1802.21
425.36	1685.48
425.57	1761.25
425.78	1751.01
425.98	1812.45
426.19	1673.19
426.39	1689.57
426.60	1751.01
426.81	1808.36
427.01	1705.96
427.22	1736.68
427.42	1654.76
427.63	1599.46
427.83	1798.12
428.04	1740.77
428.25	1798.12
428.45	1812.45
428.66	1761.25
428.86	1738.73
429.07	1642.47
429.28	1796.07
429.48	1722.34
429.69	1728.49
429.89	1662.95
430.10	1693.67
430.30	1826.79
430.51	1828.84
430.71	1658.85
430.92	1681.38
431.13	1685.48
431.33	1726.44
431.54	1775.59
431.74	1814.50
431.95	1832.93
432.15	1689.57
432.36	1785.83
432.56	1841.12
432.77	1892.32
432.98	1880.04
433.18	1730.53
433.39	1785.83
433.59	1646.57
433.80	1787.88
434.00	1869.80
434.21	1699.81
434.41	1744.87
434.62	1873.89
434.82	1675.24
435.03	1671.14
435.23	1738.73
435.44	1617.90
435.64	1761.25
435.85	1753.06
436.06	1724.39
436.26	1703.91
436.47	1742.82
436.67	1656.81
436.88	1746.92
437.08	1763.30
437.29	1775.59
437.49	1767.40
437.70	1751.01
437.90	1724.39
438.11	1912.80
438.31	1699.81
438.52	1877.99
438.72	1816.55
438.93	1875.94
439.13	1763.30
439.34	1822.69
439.54	1740.77
439.75	1771.49
439.95	1820.64
440.16	1753.06
440.36	1775.59
440.57	1830.88
440.77	1744.87
440.98	1746.92
441.18	1685.48
441.39	1753.06
441.59	1624.04
441.80	1925.09
442.00	1751.01
442.21	1845.22
442.41	1679.33
442.62	1779.68
442.82	1675.24
443.02	1630.18
443.23	1781.73
443.43	1710.05
443.64	1906.66
443.84	1699.81
444.05	1755.11
444.25	1693.67
444.46	1714.15
444.66	1798.12
444.87	1755.11
445.07	1615.85
445.28	1716.20
445.48	1861.60
445.69	1802.21
445.89	1849.32
446.09	1802.21
446.30	1949.67
446.50	2586.58
446.71	3659.72
446.91	4239.30
447.12	4749.24
447.32	4820.92
447.53	4237.25
447.73	3753.93
447.93	3526.60
448.14	3270.61
448.34	3182.54
448.55	2926.55
448.75	2904.02
448.96	2705.37
449.16	2465.75
449.36	2359.26
449.57	2099.17
449.77	1865.70
449.98	1691.62
450.18	1931.23
450.39	1796.07
450.59	1751.01
450.79	1708.01
451.00	1753.06
451.20	1806.31
451.41	1705.96
451.61	1781.73
451.81	1783.78
452.02	1763.30
452.22	1705.96
452.43	1794.02
452.63	1710.05
