SpectraSuite Data File
++++++++++++++++++++++++++++++++++++
Date: Mon Jun 06 15:07:37 CEST 2016
User: root
Dark Spectrum Present: No
Reference Spectrum Present: No
Number of Sampled Component Spectra: 1
Spectrometers: USB4C02835
Integration Time (usec): 100000 (USB4C02835)
Spectra Averaged: 1 (USB4C02835)
Boxcar Smoothing: 0 (USB4C02835)
Correct for Electrical Dark: No (USB4C02835)
Strobe/Lamp Enabled: No (USB4C02835)
Correct for Detector Non-linearity: No (USB4C02835)
Correct for Stray Light: No (USB4C02835)
Number of Pixels in Processed Spectrum: 3648
>>>>>Begin Processed Spectral Data<<<<<
177.47	1447.91
177.69	1447.91
177.91	1447.91
178.13	1513.45
178.36	1472.49
178.58	1677.29
178.80	1705.96
179.02	1654.76
179.24	1660.90
179.46	1665.00
179.68	1726.44
179.90	1695.72
180.13	1648.61
180.35	1669.09
180.57	1667.05
180.79	1728.49
181.01	1687.53
181.23	1759.21
181.45	1830.88
181.67	1673.19
181.90	1720.29
182.12	1738.73
182.34	1640.42
182.56	1742.82
182.78	1726.44
183.00	1632.23
183.22	1738.73
183.44	1593.32
183.66	1802.21
183.89	1818.60
184.11	1720.29
184.33	1718.25
184.55	1742.82
184.77	1728.49
184.99	1681.38
185.21	1630.18
185.43	1783.78
185.65	1642.47
185.87	1820.64
186.10	1812.45
186.32	1859.56
186.54	1677.29
186.76	1730.53
186.98	1751.01
187.20	1699.81
187.42	1648.61
187.64	1599.46
187.86	1685.48
188.08	1746.92
188.30	1712.10
188.52	1701.86
188.75	1734.63
188.97	1853.41
189.19	1660.90
189.41	1703.91
189.63	1722.34
189.85	1648.61
190.07	1554.41
190.29	1640.42
190.51	1722.34
190.73	1607.66
190.95	1736.68
191.17	1675.24
191.39	1660.90
191.61	1634.28
191.84	1679.33
192.06	1720.29
192.28	1652.71
192.50	1746.92
192.72	1658.85
192.94	1724.39
193.16	1787.88
193.38	1636.33
193.60	1583.08
193.82	1699.81
194.04	1724.39
194.26	1691.62
194.48	1638.38
194.70	1675.24
194.92	1710.05
195.14	1722.34
195.36	1685.48
195.58	1718.25
195.80	1689.57
196.02	1607.66
196.24	1765.35
196.46	1753.06
196.69	1660.90
196.91	1892.32
197.13	1695.72
197.35	1566.70
197.57	1767.40
197.79	1681.38
198.01	1632.23
198.23	1660.90
198.45	1677.29
198.67	1683.43
198.89	1687.53
199.11	1697.77
199.33	1640.42
199.55	1634.28
199.77	1744.87
199.99	1808.36
200.21	1683.43
200.43	1673.19
200.65	1656.81
200.87	1585.13
201.09	1718.25
201.31	1669.09
201.53	1767.40
201.75	1751.01
201.97	1722.34
202.19	1767.40
202.41	1718.25
202.63	1771.49
202.85	1722.34
203.07	1642.47
203.29	1652.71
203.51	1675.24
203.73	1607.66
203.95	1884.13
204.17	1746.92
204.39	1714.15
204.61	1665.00
204.83	1720.29
205.05	1789.92
205.27	1697.77
205.49	1847.27
205.71	1699.81
205.93	1642.47
206.15	1662.95
206.37	1736.68
206.59	1699.81
206.81	1624.04
207.03	1576.94
207.25	1701.86
207.47	1710.05
207.69	1710.05
207.91	1724.39
208.13	1777.64
208.34	1714.15
208.56	1574.89
208.78	1728.49
209.00	1636.33
209.22	1638.38
209.44	1683.43
209.66	1710.05
209.88	1681.38
210.10	1685.48
210.32	1609.70
210.54	1773.54
210.76	1767.40
210.98	1761.25
211.20	1638.38
211.42	1683.43
211.64	1763.30
211.86	1753.06
212.08	1679.33
212.30	1744.87
212.52	1728.49
212.74	1755.11
212.96	1730.53
213.17	1791.97
213.39	1730.53
213.61	1847.27
213.83	1667.05
214.05	1615.85
214.27	1751.01
214.49	1632.23
214.71	1656.81
214.93	1798.12
215.15	1697.77
215.37	1730.53
215.59	1615.85
215.81	1701.86
216.03	1787.88
216.24	1693.67
216.46	1695.72
216.68	1642.47
216.90	1787.88
217.12	1751.01
217.34	1650.66
217.56	1718.25
217.78	1798.12
218.00	1730.53
218.22	1738.73
218.44	1714.15
218.66	1724.39
218.87	1814.50
219.09	1687.53
219.31	1734.63
219.53	1708.01
219.75	1671.14
219.97	1673.19
220.19	1689.57
220.41	1705.96
220.63	1720.29
220.85	1728.49
221.06	1644.52
221.28	1753.06
221.50	1718.25
221.72	1679.33
221.94	1689.57
222.16	1708.01
222.38	1689.57
222.60	1771.49
222.82	1658.85
223.03	1691.62
223.25	1589.22
223.47	1771.49
223.69	1832.93
223.91	1769.44
224.13	1722.34
224.35	1697.77
224.57	1771.49
224.78	1785.83
225.00	1665.00
225.22	1763.30
225.44	1667.05
225.66	1718.25
225.88	1695.72
226.10	1724.39
226.32	1701.86
226.53	1802.21
226.75	1675.24
226.97	1650.66
227.19	1669.09
227.41	1576.94
227.63	1753.06
227.85	1621.99
228.06	1765.35
228.28	1636.33
228.50	1753.06
228.72	1652.71
228.94	1673.19
229.16	1583.08
229.37	1640.42
229.59	1703.91
229.81	1771.49
230.03	1703.91
230.25	1570.79
230.47	1617.90
230.69	1632.23
230.90	1691.62
231.12	1695.72
231.34	1757.16
231.56	1791.97
231.78	1675.24
232.00	1681.38
232.21	1763.30
232.43	1572.84
232.65	1648.61
232.87	1716.20
233.09	1632.23
233.30	1660.90
233.52	1703.91
233.74	1722.34
233.96	1695.72
234.18	1718.25
234.40	1613.80
234.61	1861.60
234.83	1689.57
235.05	1667.05
235.27	1902.56
235.49	1787.88
235.70	1683.43
235.92	1767.40
236.14	1773.54
236.36	1849.32
236.58	1677.29
236.79	1728.49
237.01	1705.96
237.23	1648.61
237.45	1832.93
237.67	1697.77
237.88	1759.21
238.10	1796.07
238.32	1644.52
238.54	1691.62
238.76	1640.42
238.97	1654.76
239.19	1689.57
239.41	1791.97
239.63	1787.88
239.85	1605.61
240.06	1703.91
240.28	1695.72
240.50	1722.34
240.72	1742.82
240.93	1673.19
241.15	1736.68
241.37	1691.62
241.59	1761.25
241.81	1660.90
242.02	1710.05
242.24	1724.39
242.46	1796.07
242.68	1726.44
242.89	1681.38
243.11	1685.48
243.33	1720.29
243.55	1718.25
243.76	1718.25
243.98	1675.24
244.20	1697.77
244.42	1701.86
244.64	1716.20
244.85	1605.61
245.07	1677.29
245.29	1728.49
245.51	1712.10
245.72	1796.07
245.94	1685.48
246.16	1744.87
246.38	1697.77
246.59	1634.28
246.81	1617.90
247.03	1744.87
247.24	1634.28
247.46	1796.07
247.68	1718.25
247.90	1767.40
248.11	1593.32
248.33	1763.30
248.55	1689.57
248.77	1742.82
248.98	1798.12
249.20	1738.73
249.42	1742.82
249.64	1724.39
249.85	1667.05
250.07	1673.19
250.29	1708.01
250.50	1746.92
250.72	1681.38
250.94	1654.76
251.16	1832.93
251.37	1775.59
251.59	1703.91
251.81	1705.96
252.02	1740.77
252.24	1703.91
252.46	1767.40
252.68	1601.51
252.89	1640.42
253.11	1587.18
253.33	1800.16
253.54	1730.53
253.76	1683.43
253.98	1660.90
254.20	1667.05
254.41	1703.91
254.63	1681.38
254.85	1654.76
255.06	1718.25
255.28	1759.21
255.50	1701.86
255.71	1691.62
255.93	1591.27
256.15	1761.25
256.36	1742.82
256.58	1671.14
256.80	1746.92
257.02	1654.76
257.23	1703.91
257.45	1650.66
257.67	1753.06
257.88	1650.66
258.10	1732.58
258.32	1730.53
258.53	1644.52
258.75	1820.64
258.97	1632.23
259.18	1699.81
259.40	1681.38
259.62	1832.93
259.83	1820.64
260.05	1695.72
260.27	1992.67
260.48	1712.10
260.70	1732.58
260.92	1673.19
261.13	1705.96
261.35	1689.57
261.57	1720.29
261.78	1646.57
262.00	1683.43
262.22	1742.82
262.43	1644.52
262.65	1720.29
262.86	1607.66
263.08	1787.88
263.30	1728.49
263.51	1624.04
263.73	1679.33
263.95	1787.88
264.16	1576.94
264.38	1746.92
264.60	1685.48
264.81	1701.86
265.03	1675.24
265.25	1767.40
265.46	1734.63
265.68	1824.74
265.89	1714.15
266.11	1601.51
266.33	1712.10
266.54	1738.73
266.76	1742.82
266.98	1675.24
267.19	1759.21
267.41	1820.64
267.62	1710.05
267.84	1693.67
268.06	1708.01
268.27	1736.68
268.49	1818.60
268.70	1748.97
268.92	1724.39
269.14	1677.29
269.35	1581.03
269.57	1615.85
269.79	1763.30
270.00	1740.77
270.22	1814.50
270.43	1683.43
270.65	1611.75
270.87	1665.00
271.08	1730.53
271.30	1755.11
271.51	1646.57
271.73	1730.53
271.95	1779.68
272.16	1669.09
272.38	1708.01
272.59	1673.19
272.81	1685.48
273.02	1693.67
273.24	1742.82
273.46	1683.43
273.67	1685.48
273.89	1669.09
274.10	1624.04
274.32	1785.83
274.54	1650.66
274.75	1755.11
274.97	1648.61
275.18	1779.68
275.40	1697.77
275.61	1738.73
275.83	1685.48
276.05	1671.14
276.26	1722.34
276.48	1777.64
276.69	1667.05
276.91	1681.38
277.12	1791.97
277.34	1771.49
277.55	1746.92
277.77	1728.49
277.99	1697.77
278.20	1628.14
278.42	1628.14
278.63	1667.05
278.85	1736.68
279.06	1650.66
279.28	1726.44
279.49	1710.05
279.71	1796.07
279.93	1703.91
280.14	1746.92
280.36	1714.15
280.57	1716.20
280.79	1726.44
281.00	1705.96
281.22	1722.34
281.43	1757.16
281.65	1593.32
281.86	1710.05
282.08	1738.73
282.29	1791.97
282.51	1660.90
282.73	1636.33
282.94	1640.42
283.16	1703.91
283.37	1771.49
283.59	1619.94
283.80	1714.15
284.02	1726.44
284.23	1812.45
284.45	1660.90
284.66	1689.57
284.88	1652.71
285.09	1669.09
285.31	1751.01
285.52	1681.38
285.74	1566.70
285.95	1736.68
286.17	1779.68
286.38	1763.30
286.60	1648.61
286.81	1763.30
287.03	1652.71
287.24	1710.05
287.46	1742.82
287.67	1804.26
287.89	1779.68
288.10	1689.57
288.32	1732.58
288.53	1779.68
288.75	1689.57
288.96	1771.49
289.18	1656.81
289.39	1716.20
289.61	1755.11
289.82	1759.21
290.04	1880.04
290.25	1722.34
290.47	1683.43
290.68	1693.67
290.90	1779.68
291.11	1615.85
291.33	1726.44
291.54	1779.68
291.76	1636.33
291.97	1648.61
292.18	1724.39
292.40	1658.85
292.61	1675.24
292.83	1904.61
293.04	1777.64
293.26	1742.82
293.47	1656.81
293.69	1640.42
293.90	1703.91
294.12	1812.45
294.33	1783.78
294.55	1697.77
294.76	1681.38
294.97	1744.87
295.19	1834.98
295.40	1705.96
295.62	1765.35
295.83	1710.05
296.05	1656.81
296.26	1742.82
296.48	1665.00
296.69	1656.81
296.90	1640.42
297.12	1738.73
297.33	1738.73
297.55	1724.39
297.76	1669.09
297.98	1757.16
298.19	1771.49
298.41	1701.86
298.62	1644.52
298.83	1800.16
299.05	1710.05
299.26	1685.48
299.48	1656.81
299.69	1740.77
299.90	1609.70
300.12	1683.43
300.33	1695.72
300.55	1648.61
300.76	1734.63
300.98	1665.00
301.19	1650.66
301.40	1748.97
301.62	1769.44
301.83	1800.16
302.05	1611.75
302.26	1708.01
302.47	1808.36
302.69	1644.52
302.90	1703.91
303.12	1654.76
303.33	1705.96
303.54	1810.40
303.76	1660.90
303.97	1777.64
304.19	1775.59
304.40	1636.33
304.61	1724.39
304.83	1732.58
305.04	1724.39
305.26	1810.40
305.47	1675.24
305.68	1720.29
305.90	1636.33
306.11	1742.82
306.33	1689.57
306.54	1658.85
306.75	1656.81
306.97	1617.90
307.18	1675.24
307.39	1671.14
307.61	1775.59
307.82	1687.53
308.04	1703.91
308.25	1701.86
308.46	1681.38
308.68	1759.21
308.89	1673.19
309.10	1791.97
309.32	1705.96
309.53	1665.00
309.74	1699.81
309.96	1705.96
310.17	1779.68
310.39	1701.86
310.60	1712.10
310.81	1705.96
311.03	1667.05
311.24	1695.72
311.45	1654.76
311.67	1751.01
311.88	1718.25
312.09	1734.63
312.31	1619.94
312.52	1675.24
312.73	1705.96
312.95	1624.04
313.16	1675.24
313.37	1751.01
313.59	1689.57
313.80	1761.25
314.01	1736.68
314.23	1644.52
314.44	1660.90
314.65	1687.53
314.87	1660.90
315.08	1716.20
315.29	1732.58
315.51	1665.00
315.72	1699.81
315.93	1734.63
316.15	1691.62
316.36	1744.87
316.57	1746.92
316.79	1769.44
317.00	1699.81
317.21	1740.77
317.43	1611.75
317.64	1751.01
317.85	1720.29
318.07	1677.29
318.28	1787.88
318.49	1798.12
318.70	1890.28
318.92	1785.83
319.13	1845.22
319.34	1828.84
319.56	1736.68
319.77	1785.83
319.98	1722.34
320.20	1865.70
320.41	1710.05
320.62	1783.78
320.83	1687.53
321.05	1820.64
321.26	1744.87
321.47	1705.96
321.69	1767.40
321.90	1693.67
322.11	1699.81
322.32	1677.29
322.54	1751.01
322.75	1671.14
322.96	1820.64
323.18	1624.04
323.39	1646.57
323.60	1603.56
323.81	1767.40
324.03	1632.23
324.24	1728.49
324.45	1679.33
324.66	1685.48
324.88	1734.63
325.09	1785.83
325.30	1761.25
325.52	1738.73
325.73	1660.90
325.94	1615.85
326.15	1593.32
326.37	1732.58
326.58	1683.43
326.79	1773.54
327.00	1665.00
327.22	1710.05
327.43	1669.09
327.64	1603.56
327.85	1765.35
328.07	1769.44
328.28	1785.83
328.49	1644.52
328.70	1681.38
328.92	1677.29
329.13	1724.39
329.34	1789.92
329.55	1843.17
329.76	1800.16
329.98	1632.23
330.19	1738.73
330.40	1675.24
330.61	1712.10
330.83	1730.53
331.04	1634.28
331.25	1652.71
331.46	1693.67
331.68	1621.99
331.89	1769.44
332.10	1722.34
332.31	1583.08
332.52	1787.88
332.74	1808.36
332.95	1548.26
333.16	1626.09
333.37	1755.11
333.58	1619.94
333.80	1759.21
334.01	1585.13
334.22	1646.57
334.43	1675.24
334.64	1763.30
334.86	1648.61
335.07	1652.71
335.28	1767.40
335.49	1652.71
335.70	1742.82
335.92	1718.25
336.13	1832.93
336.34	1718.25
336.55	1671.14
336.76	1699.81
336.98	1624.04
337.19	1691.62
337.40	1812.45
337.61	1798.12
337.82	1642.47
338.04	1734.63
338.25	1587.18
338.46	1671.14
338.67	1675.24
338.88	1687.53
339.09	1589.22
339.31	1730.53
339.52	1652.71
339.73	1640.42
339.94	1681.38
340.15	1722.34
340.36	1675.24
340.58	1714.15
340.79	1685.48
341.00	1806.31
341.21	1607.66
341.42	1832.93
341.63	1650.66
341.85	1648.61
342.06	1671.14
342.27	1636.33
342.48	1730.53
342.69	1652.71
342.90	1783.78
343.12	1718.25
343.33	1708.01
343.54	1791.97
343.75	1845.22
343.96	1658.85
344.17	1619.94
344.38	1677.29
344.60	1656.81
344.81	1583.08
345.02	1681.38
345.23	1732.58
345.44	1800.16
345.65	1820.64
345.86	1781.73
346.07	1665.00
346.29	1673.19
346.50	1703.91
346.71	1728.49
346.92	1701.86
347.13	1832.93
347.34	1660.90
347.55	1712.10
347.76	1697.77
347.98	1658.85
348.19	1691.62
348.40	1783.78
348.61	1732.58
348.82	1787.88
349.03	1773.54
349.24	1712.10
349.45	1822.69
349.66	1613.80
349.88	1701.86
350.09	1605.61
350.30	1712.10
350.51	1767.40
350.72	1703.91
350.93	1771.49
351.14	1726.44
351.35	1679.33
351.56	1761.25
351.77	1710.05
351.99	1648.61
352.20	1726.44
352.41	1767.40
352.62	1648.61
352.83	1767.40
353.04	1708.01
353.25	1636.33
353.46	1740.77
353.67	1767.40
353.88	1656.81
354.09	1767.40
354.30	1634.28
354.52	1734.63
354.73	1755.11
354.94	1687.53
355.15	1685.48
355.36	1812.45
355.57	1714.15
355.78	1691.62
355.99	1726.44
356.20	1675.24
356.41	1679.33
356.62	1736.68
356.83	1634.28
357.04	1769.44
357.25	1619.94
357.46	1621.99
357.68	1665.00
357.89	1722.34
358.10	1728.49
358.31	1685.48
358.52	1710.05
358.73	1638.38
358.94	1640.42
359.15	1648.61
359.36	1748.97
359.57	1730.53
359.78	1703.91
359.99	1716.20
360.20	1628.14
360.41	1691.62
360.62	1748.97
360.83	1765.35
361.04	1687.53
361.25	1691.62
361.46	1787.88
361.67	1757.16
361.88	1718.25
362.09	1771.49
362.30	1755.11
362.51	1714.15
362.72	1685.48
362.93	1759.21
363.14	1724.39
363.35	1806.31
363.56	1656.81
363.78	1818.60
363.99	1722.34
364.20	1662.95
364.41	1679.33
364.62	1763.30
364.83	1812.45
365.04	1753.06
365.25	1712.10
365.46	1769.44
365.67	1601.51
365.88	1611.75
366.09	1640.42
366.30	1687.53
366.51	1691.62
366.72	1603.56
366.93	1722.34
367.14	1724.39
367.35	1828.84
367.56	1671.14
367.77	1767.40
367.98	1718.25
368.18	1695.72
368.39	1751.01
368.60	1583.08
368.81	1714.15
369.02	1785.83
369.23	1693.67
369.44	1638.38
369.65	1693.67
369.86	1693.67
370.07	1779.68
370.28	1638.38
370.49	1712.10
370.70	1800.16
370.91	1640.42
371.12	1587.18
371.33	1699.81
371.54	1691.62
371.75	1798.12
371.96	1591.27
372.17	1722.34
372.38	1640.42
372.59	1751.01
372.80	1673.19
373.01	1671.14
373.22	1742.82
373.43	1652.71
373.64	1689.57
373.85	1781.73
374.06	1763.30
374.26	1689.57
374.47	1742.82
374.68	1751.01
374.89	1656.81
375.10	1611.75
375.31	1716.20
375.52	1699.81
375.73	1722.34
375.94	1648.61
376.15	1771.49
376.36	1642.47
376.57	1689.57
376.78	1640.42
376.99	1703.91
377.20	1826.79
377.40	1689.57
377.61	1828.84
377.82	1656.81
378.03	1843.17
378.24	1785.83
378.45	1718.25
378.66	1787.88
378.87	1591.27
379.08	1615.85
379.29	1781.73
379.50	1765.35
379.71	1679.33
379.91	1812.45
380.12	1710.05
380.33	1695.72
380.54	1658.85
380.75	1681.38
380.96	1677.29
381.17	1751.01
381.38	1763.30
381.59	1691.62
381.80	1656.81
382.00	1814.50
382.21	1685.48
382.42	1785.83
382.63	1826.79
382.84	1767.40
383.05	1767.40
383.26	1845.22
383.47	1669.09
383.68	1701.86
383.88	1710.05
384.09	1763.30
384.30	1787.88
384.51	1691.62
384.72	1777.64
384.93	1636.33
385.14	1656.81
385.35	1742.82
385.55	1665.00
385.76	1853.41
385.97	1759.21
386.18	1656.81
386.39	1619.94
386.60	1677.29
386.81	1656.81
387.02	1650.66
387.22	1683.43
387.43	1820.64
387.64	1738.73
387.85	1877.99
388.06	2170.85
388.27	4272.06
388.48	6590.36
388.68	7919.50
388.89	9367.41
389.10	9465.71
389.31	8218.50
389.52	7393.17
389.73	6414.24
389.93	5889.96
390.14	5650.35
390.35	4997.04
390.56	4429.76
390.77	3651.53
390.98	3008.47
391.18	2490.33
391.39	2123.74
391.60	1853.41
391.81	1847.27
392.02	1748.97
392.23	1841.12
392.43	1738.73
392.64	1738.73
392.85	1746.92
393.06	1820.64
393.27	1712.10
393.47	1722.34
393.68	1703.91
393.89	1658.85
394.10	1800.16
394.31	1660.90
394.52	1681.38
394.72	1656.81
394.93	1742.82
395.14	1593.32
395.35	1724.39
395.56	1699.81
395.76	1785.83
395.97	1734.63
396.18	1759.21
396.39	1875.94
396.60	2023.39
396.80	1880.04
397.01	1839.08
397.22	1837.03
397.43	1763.30
397.64	1783.78
397.84	1777.64
398.05	1855.46
398.26	1783.78
398.47	1828.84
398.67	1814.50
398.88	1751.01
399.09	1777.64
399.30	1716.20
399.51	1624.04
399.71	1568.74
399.92	1740.77
400.13	1767.40
400.34	1697.77
400.54	1736.68
400.75	1800.16
400.96	1763.30
401.17	1775.59
401.37	1685.48
401.58	1660.90
401.79	1703.91
402.00	1830.88
402.21	1998.82
402.41	1943.52
402.62	2021.35
402.83	1998.82
403.04	1955.81
403.24	2066.40
403.45	1851.36
403.66	1976.29
403.87	1820.64
404.07	1970.15
404.28	1916.90
404.49	1929.19
404.70	1783.78
404.90	1722.34
405.11	1669.09
405.32	1773.54
405.52	1644.52
405.73	1656.81
405.94	1716.20
406.15	1763.30
406.35	1773.54
406.56	1798.12
406.77	1720.29
406.98	1724.39
407.18	1646.57
407.39	1734.63
407.60	1685.48
407.80	1652.71
408.01	1644.52
408.22	1804.26
408.43	1613.80
408.63	1769.44
408.84	1697.77
409.05	1837.03
409.25	1597.42
409.46	1619.94
409.67	1660.90
409.88	1673.19
410.08	1775.59
410.29	1701.86
410.50	1767.40
410.70	1675.24
410.91	1607.66
411.12	1726.44
411.32	1687.53
411.53	1705.96
411.74	1759.21
411.95	1759.21
412.15	1714.15
412.36	1697.77
412.57	1742.82
412.77	1806.31
412.98	1712.10
413.19	1736.68
413.39	1734.63
413.60	1746.92
413.81	1800.16
414.01	1681.38
414.22	1779.68
414.43	1730.53
414.63	1650.66
414.84	1718.25
415.05	1761.25
415.25	1613.80
415.46	1748.97
415.67	1673.19
415.87	1691.62
416.08	1708.01
416.29	1628.14
416.49	1771.49
416.70	1697.77
416.91	1638.38
417.11	1671.14
417.32	1814.50
417.53	1658.85
417.73	1691.62
417.94	1691.62
418.15	1734.63
418.35	1716.20
418.56	1732.58
418.77	1834.98
418.97	1708.01
419.18	1744.87
419.38	1615.85
419.59	1681.38
419.80	1820.64
420.00	1687.53
420.21	1703.91
420.42	1730.53
420.62	1712.10
420.83	1642.47
421.04	1613.80
421.24	1734.63
421.45	1701.86
421.65	1724.39
421.86	1648.61
422.07	1796.07
422.27	1671.14
422.48	1763.30
422.69	1628.14
422.89	1757.16
423.10	1705.96
423.30	1648.61
423.51	1697.77
423.72	1724.39
423.92	1730.53
424.13	1642.47
424.33	1736.68
424.54	1785.83
424.75	1738.73
424.95	1779.68
425.16	1740.77
425.36	1730.53
425.57	1794.02
425.78	1734.63
425.98	1720.29
426.19	1714.15
426.39	1632.23
426.60	1697.77
426.81	1773.54
427.01	1742.82
427.22	1617.90
427.42	1634.28
427.63	1628.14
427.83	1732.58
428.04	1732.58
428.25	1748.97
428.45	1837.03
428.66	1785.83
428.86	1746.92
429.07	1611.75
429.28	1665.00
429.48	1718.25
429.69	1650.66
429.89	1712.10
430.10	1662.95
430.30	1738.73
430.51	1740.77
430.71	1660.90
430.92	1734.63
431.13	1734.63
431.33	1771.49
431.54	1662.95
431.74	1814.50
431.95	1826.79
432.15	1632.23
432.36	1720.29
432.56	1751.01
432.77	1777.64
432.98	1869.80
433.18	1748.97
433.39	1705.96
433.59	1761.25
433.80	1847.27
434.00	1898.47
434.21	1740.77
434.41	1691.62
434.62	1761.25
434.82	1671.14
435.03	1675.24
435.23	1771.49
435.44	1621.99
435.64	1689.57
435.85	1722.34
436.06	1701.86
436.26	1761.25
436.47	1687.53
436.67	1669.09
436.88	1757.16
437.08	1718.25
437.29	1777.64
437.49	1724.39
437.70	1685.48
437.90	1697.77
438.11	1832.93
438.31	1789.92
438.52	1832.93
438.72	1796.07
438.93	1910.75
439.13	1775.59
439.34	1898.47
439.54	1775.59
439.75	1763.30
439.95	1779.68
440.16	1615.85
440.36	1740.77
440.57	1714.15
440.77	1744.87
440.98	1689.57
441.18	1849.32
441.39	1689.57
441.59	1685.48
441.80	1834.98
442.00	1804.26
442.21	1798.12
442.41	1662.95
442.62	1773.54
442.82	1755.11
443.02	1699.81
443.23	1869.80
443.43	1687.53
443.64	1804.26
443.84	1665.00
444.05	1837.03
444.25	1677.29
444.46	1677.29
444.66	1705.96
444.87	1806.31
445.07	1689.57
445.28	1662.95
445.48	1728.49
445.69	1804.26
445.89	1818.60
446.09	1791.97
446.30	1998.82
446.50	2568.15
446.71	3680.20
446.91	4200.38
447.12	4691.90
447.32	4728.76
447.53	4270.01
447.73	3827.65
447.93	3487.69
448.14	3282.89
448.34	3100.62
448.55	2807.77
448.75	2744.28
448.96	2619.35
449.16	2365.40
449.36	2299.87
449.57	2076.64
449.77	1896.42
449.98	1800.16
450.18	1877.99
450.39	1871.84
450.59	1798.12
450.79	1726.44
451.00	1720.29
451.20	1824.74
451.41	1705.96
451.61	1693.67
451.81	1699.81
452.02	1640.42
452.22	1746.92
452.43	1632.23
452.63	1734.63
