SpectraSuite Data File
++++++++++++++++++++++++++++++++++++
Date: Mon Jun 06 16:53:57 CEST 2016
User: root
Dark Spectrum Present: No
Reference Spectrum Present: No
Number of Sampled Component Spectra: 1
Spectrometers: USB4C02835
Integration Time (usec): 100000 (USB4C02835)
Spectra Averaged: 1 (USB4C02835)
Boxcar Smoothing: 0 (USB4C02835)
Correct for Electrical Dark: No (USB4C02835)
Strobe/Lamp Enabled: No (USB4C02835)
Correct for Detector Non-linearity: No (USB4C02835)
Correct for Stray Light: No (USB4C02835)
Number of Pixels in Processed Spectrum: 3648
>>>>>Begin Processed Spectral Data<<<<<
177.47	1513.45
177.69	1513.45
177.91	1513.45
178.13	1423.34
178.36	1437.67
178.58	1660.90
178.80	1699.81
179.02	1638.38
179.24	1611.75
179.46	1675.24
179.68	1740.77
179.90	1701.86
180.13	1705.96
180.35	1636.33
180.57	1650.66
180.79	1673.19
181.01	1681.38
181.23	1753.06
181.45	1701.86
181.67	1804.26
181.90	1724.39
182.12	1697.77
182.34	1564.65
182.56	1769.44
182.78	1701.86
183.00	1691.62
183.22	1699.81
183.44	1665.00
183.66	1900.52
183.89	1869.80
184.11	1765.35
184.33	1791.97
184.55	1742.82
184.77	1755.11
184.99	1710.05
185.21	1703.91
185.43	1773.54
185.65	1701.86
185.87	1718.25
186.10	1845.22
186.32	1839.08
186.54	1826.79
186.76	1716.20
186.98	1691.62
187.20	1693.67
187.42	1650.66
187.64	1679.33
187.86	1748.97
188.08	1738.73
188.30	1673.19
188.52	1703.91
188.75	1847.27
188.97	1828.84
189.19	1705.96
189.41	1728.49
189.63	1732.58
189.85	1617.90
190.07	1695.72
190.29	1624.04
190.51	1652.71
190.73	1658.85
190.95	1812.45
191.17	1691.62
191.39	1609.70
191.61	1650.66
191.84	1710.05
192.06	1691.62
192.28	1650.66
192.50	1859.56
192.72	1753.06
192.94	1759.21
193.16	1724.39
193.38	1746.92
193.60	1597.42
193.82	1673.19
194.04	1748.97
194.26	1701.86
194.48	1677.29
194.70	1636.33
194.92	1697.77
195.14	1683.43
195.36	1615.85
195.58	1703.91
195.80	1701.86
196.02	1646.57
196.24	1638.38
196.46	1800.16
196.69	1693.67
196.91	1843.17
197.13	1630.18
197.35	1697.77
197.57	1794.02
197.79	1759.21
198.01	1705.96
198.23	1740.77
198.45	1718.25
198.67	1708.01
198.89	1728.49
199.11	1695.72
199.33	1656.81
199.55	1609.70
199.77	1736.68
199.99	1791.97
200.21	1730.53
200.43	1777.64
200.65	1634.28
200.87	1574.89
201.09	1742.82
201.31	1677.29
201.53	1757.16
201.75	1705.96
201.97	1806.31
202.19	1705.96
202.41	1787.88
202.63	1853.41
202.85	1720.29
203.07	1732.58
203.29	1693.67
203.51	1642.47
203.73	1705.96
203.95	1853.41
204.17	1691.62
204.39	1796.07
204.61	1722.34
204.83	1718.25
205.05	1802.21
205.27	1738.73
205.49	1794.02
205.71	1679.33
205.93	1652.71
206.15	1669.09
206.37	1710.05
206.59	1751.01
206.81	1662.95
207.03	1714.15
207.25	1689.57
207.47	1783.78
207.69	1660.90
207.91	1771.49
208.13	1812.45
208.34	1720.29
208.56	1699.81
208.78	1699.81
209.00	1748.97
209.22	1746.92
209.44	1751.01
209.66	1697.77
209.88	1736.68
210.10	1669.09
210.32	1703.91
210.54	1785.83
210.76	1673.19
210.98	1730.53
211.20	1570.79
211.42	1693.67
211.64	1775.59
211.86	1730.53
212.08	1697.77
212.30	1753.06
212.52	1699.81
212.74	1773.54
212.96	1656.81
213.17	1712.10
213.39	1693.67
213.61	1708.01
213.83	1761.25
214.05	1695.72
214.27	1767.40
214.49	1640.42
214.71	1640.42
214.93	1798.12
215.15	1724.39
215.37	1794.02
215.59	1634.28
215.81	1802.21
216.03	1802.21
216.24	1722.34
216.46	1646.57
216.68	1787.88
216.90	1714.15
217.12	1775.59
217.34	1708.01
217.56	1730.53
217.78	1808.36
218.00	1781.73
218.22	1726.44
218.44	1787.88
218.66	1677.29
218.87	1771.49
219.09	1662.95
219.31	1736.68
219.53	1687.53
219.75	1744.87
219.97	1681.38
220.19	1640.42
220.41	1746.92
220.63	1812.45
220.85	1740.77
221.06	1652.71
221.28	1783.78
221.50	1720.29
221.72	1681.38
221.94	1689.57
222.16	1658.85
222.38	1693.67
222.60	1773.54
222.82	1724.39
223.03	1671.14
223.25	1564.65
223.47	1814.50
223.69	1822.69
223.91	1701.86
224.13	1734.63
224.35	1761.25
224.57	1744.87
224.78	1738.73
225.00	1609.70
225.22	1695.72
225.44	1656.81
225.66	1726.44
225.88	1689.57
226.10	1765.35
226.32	1662.95
226.53	1796.07
226.75	1716.20
226.97	1708.01
227.19	1755.11
227.41	1640.42
227.63	1660.90
227.85	1679.33
228.06	1712.10
228.28	1716.20
228.50	1734.63
228.72	1665.00
228.94	1642.47
229.16	1562.60
229.37	1656.81
229.59	1699.81
229.81	1705.96
230.03	1673.19
230.25	1597.42
230.47	1660.90
230.69	1654.76
230.90	1736.68
231.12	1671.14
231.34	1712.10
231.56	1722.34
231.78	1689.57
232.00	1722.34
232.21	1701.86
232.43	1689.57
232.65	1642.47
232.87	1789.92
233.09	1671.14
233.30	1632.23
233.52	1773.54
233.74	1748.97
233.96	1658.85
234.18	1689.57
234.40	1730.53
234.61	1769.44
234.83	1718.25
235.05	1566.70
235.27	1816.55
235.49	1765.35
235.70	1734.63
235.92	1746.92
236.14	1818.60
236.36	1812.45
236.58	1736.68
236.79	1724.39
237.01	1621.99
237.23	1763.30
237.45	1855.46
237.67	1722.34
237.88	1685.48
238.10	1832.93
238.32	1751.01
238.54	1632.23
238.76	1724.39
238.97	1628.14
239.19	1697.77
239.41	1718.25
239.63	1767.40
239.85	1681.38
240.06	1720.29
240.28	1724.39
240.50	1746.92
240.72	1691.62
240.93	1675.24
241.15	1746.92
241.37	1736.68
241.59	1744.87
241.81	1701.86
242.02	1652.71
242.24	1791.97
242.46	1771.49
242.68	1656.81
242.89	1755.11
243.11	1796.07
243.33	1638.38
243.55	1742.82
243.76	1806.31
243.98	1640.42
244.20	1724.39
244.42	1683.43
244.64	1705.96
244.85	1656.81
245.07	1705.96
245.29	1615.85
245.51	1746.92
245.72	1746.92
245.94	1714.15
246.16	1714.15
246.38	1679.33
246.59	1675.24
246.81	1566.70
247.03	1714.15
247.24	1611.75
247.46	1554.41
247.68	1640.42
247.90	1660.90
248.11	1730.53
248.33	1759.21
248.55	1769.44
248.77	1804.26
248.98	1660.90
249.20	1822.69
249.42	1728.49
249.64	1689.57
249.85	1687.53
250.07	1746.92
250.29	1734.63
250.50	1742.82
250.72	1730.53
250.94	1740.77
251.16	1888.23
251.37	1763.30
251.59	1679.33
251.81	1769.44
252.02	1775.59
252.24	1630.18
252.46	1730.53
252.68	1722.34
252.89	1634.28
253.11	1564.65
253.33	1781.73
253.54	1748.97
253.76	1693.67
253.98	1693.67
254.20	1679.33
254.41	1617.90
254.63	1726.44
254.85	1660.90
255.06	1667.05
255.28	1716.20
255.50	1722.34
255.71	1677.29
255.93	1593.32
256.15	1736.68
256.36	1740.77
256.58	1679.33
256.80	1718.25
257.02	1613.80
257.23	1609.70
257.45	1744.87
257.67	1779.68
257.88	1656.81
258.10	1740.77
258.32	1681.38
258.53	1603.56
258.75	1714.15
258.97	1667.05
259.18	1804.26
259.40	1701.86
259.62	1820.64
259.83	1757.16
260.05	1769.44
260.27	2086.88
260.48	1783.78
260.70	1665.00
260.92	1757.16
261.13	1685.48
261.35	1683.43
261.57	1738.73
261.78	1607.66
262.00	1628.14
262.22	1722.34
262.43	1669.09
262.65	1683.43
262.86	1746.92
263.08	1783.78
263.30	1761.25
263.51	1619.94
263.73	1642.47
263.95	1816.55
264.16	1595.37
264.38	1632.23
264.60	1761.25
264.81	1669.09
265.03	1705.96
265.25	1791.97
265.46	1798.12
265.68	1769.44
265.89	1677.29
266.11	1650.66
266.33	1654.76
266.54	1720.29
266.76	1701.86
266.98	1730.53
267.19	1765.35
267.41	1822.69
267.62	1755.11
267.84	1603.56
268.06	1732.58
268.27	1681.38
268.49	1828.84
268.70	1802.21
268.92	1728.49
269.14	1714.15
269.35	1644.52
269.57	1673.19
269.79	1730.53
270.00	1685.48
270.22	1763.30
270.43	1699.81
270.65	1607.66
270.87	1763.30
271.08	1794.02
271.30	1738.73
271.51	1697.77
271.73	1714.15
271.95	1828.84
272.16	1607.66
272.38	1763.30
272.59	1632.23
272.81	1673.19
273.02	1726.44
273.24	1660.90
273.46	1851.36
273.67	1667.05
273.89	1660.90
274.10	1671.14
274.32	1832.93
274.54	1656.81
274.75	1734.63
274.97	1667.05
275.18	1671.14
275.40	1816.55
275.61	1753.06
275.83	1734.63
276.05	1656.81
276.26	1699.81
276.48	1828.84
276.69	1726.44
276.91	1587.18
277.12	1820.64
277.34	1771.49
277.55	1728.49
277.77	1763.30
277.99	1669.09
278.20	1617.90
278.42	1634.28
278.63	1677.29
278.85	1685.48
279.06	1710.05
279.28	1804.26
279.49	1681.38
279.71	1767.40
279.93	1761.25
280.14	1710.05
280.36	1658.85
280.57	1751.01
280.79	1751.01
281.00	1656.81
281.22	1673.19
281.43	1783.78
281.65	1554.41
281.86	1650.66
282.08	1783.78
282.29	1834.98
282.51	1644.52
282.73	1697.77
282.94	1546.22
283.16	1736.68
283.37	1828.84
283.59	1693.67
283.80	1730.53
284.02	1640.42
284.23	1722.34
284.45	1667.05
284.66	1705.96
284.88	1611.75
285.09	1703.91
285.31	1744.87
285.52	1757.16
285.74	1603.56
285.95	1751.01
286.17	1767.40
286.38	1746.92
286.60	1712.10
286.81	1677.29
287.03	1658.85
287.24	1671.14
287.46	1724.39
287.67	1763.30
287.89	1822.69
288.10	1753.06
288.32	1673.19
288.53	1771.49
288.75	1669.09
288.96	1798.12
289.18	1777.64
289.39	1640.42
289.61	1796.07
289.82	1789.92
290.04	1857.51
290.25	1755.11
290.47	1716.20
290.68	1695.72
290.90	1767.40
291.11	1603.56
291.33	1748.97
291.54	1708.01
291.76	1648.61
291.97	1679.33
292.18	1708.01
292.40	1697.77
292.61	1738.73
292.83	1841.12
293.04	1724.39
293.26	1724.39
293.47	1658.85
293.69	1617.90
293.90	1746.92
294.12	1828.84
294.33	1724.39
294.55	1716.20
294.76	1708.01
294.97	1800.16
295.19	1859.56
295.40	1710.05
295.62	1722.34
295.83	1757.16
296.05	1646.57
296.26	1753.06
296.48	1662.95
296.69	1660.90
296.90	1744.87
297.12	1808.36
297.33	1785.83
297.55	1718.25
297.76	1794.02
297.98	1718.25
298.19	1671.14
298.41	1728.49
298.62	1632.23
298.83	1869.80
299.05	1677.29
299.26	1652.71
299.48	1654.76
299.69	1757.16
299.90	1722.34
300.12	1746.92
300.33	1736.68
300.55	1685.48
300.76	1726.44
300.98	1732.58
301.19	1830.88
301.40	1748.97
301.62	1763.30
301.83	1693.67
302.05	1710.05
302.26	1689.57
302.47	1669.09
302.69	1705.96
302.90	1695.72
303.12	1593.32
303.33	1781.73
303.54	1839.08
303.76	1775.59
303.97	1742.82
304.19	1734.63
304.40	1662.95
304.61	1771.49
304.83	1826.79
305.04	1732.58
305.26	1722.34
305.47	1685.48
305.68	1748.97
305.90	1624.04
306.11	1783.78
306.33	1669.09
306.54	1642.47
306.75	1630.18
306.97	1638.38
307.18	1607.66
307.39	1677.29
307.61	1845.22
307.82	1771.49
308.04	1691.62
308.25	1648.61
308.46	1677.29
308.68	1724.39
308.89	1730.53
309.10	1767.40
309.32	1722.34
309.53	1724.39
309.74	1697.77
309.96	1742.82
310.17	1753.06
310.39	1611.75
310.60	1769.44
310.81	1730.53
311.03	1691.62
311.24	1681.38
311.45	1681.38
311.67	1742.82
311.88	1695.72
312.09	1660.90
312.31	1652.71
312.52	1791.97
312.73	1789.92
312.95	1626.09
313.16	1578.98
313.37	1810.40
313.59	1751.01
313.80	1744.87
314.01	1763.30
314.23	1691.62
314.44	1646.57
314.65	1619.94
314.87	1689.57
315.08	1660.90
315.29	1710.05
315.51	1619.94
315.72	1658.85
315.93	1806.31
316.15	1783.78
316.36	1753.06
316.57	1738.73
316.79	1759.21
317.00	1607.66
317.21	1751.01
317.43	1636.33
317.64	1751.01
317.85	1607.66
318.07	1667.05
318.28	1759.21
318.49	1800.16
318.70	1877.99
318.92	1822.69
319.13	1849.32
319.34	1890.28
319.56	1794.02
319.77	1736.68
319.98	1763.30
320.20	1796.07
320.41	1832.93
320.62	1759.21
320.83	1695.72
321.05	1865.70
321.26	1746.92
321.47	1615.85
321.69	1826.79
321.90	1673.19
322.11	1675.24
322.32	1712.10
322.54	1757.16
322.75	1660.90
322.96	1789.92
323.18	1626.09
323.39	1599.46
323.60	1744.87
323.81	1767.40
324.03	1687.53
324.24	1687.53
324.45	1738.73
324.66	1746.92
324.88	1726.44
325.09	1861.60
325.30	1722.34
325.52	1789.92
325.73	1679.33
325.94	1640.42
326.15	1634.28
326.37	1658.85
326.58	1755.11
326.79	1751.01
327.00	1669.09
327.22	1697.77
327.43	1703.91
327.64	1656.81
327.85	1689.57
328.07	1685.48
328.28	1808.36
328.49	1736.68
328.70	1751.01
328.92	1660.90
329.13	1669.09
329.34	1744.87
329.55	1736.68
329.76	1744.87
329.98	1767.40
330.19	1804.26
330.40	1736.68
330.61	1734.63
330.83	1718.25
331.04	1714.15
331.25	1730.53
331.46	1730.53
331.68	1597.42
331.89	1732.58
332.10	1728.49
332.31	1685.48
332.52	1738.73
332.74	1777.64
332.95	1568.74
333.16	1701.86
333.37	1695.72
333.58	1648.61
333.80	1710.05
334.01	1675.24
334.22	1703.91
334.43	1738.73
334.64	1626.09
334.86	1650.66
335.07	1736.68
335.28	1789.92
335.49	1615.85
335.70	1771.49
335.92	1757.16
336.13	1755.11
336.34	1695.72
336.55	1783.78
336.76	1714.15
336.98	1599.46
337.19	1708.01
337.40	1804.26
337.61	1781.73
337.82	1675.24
338.04	1787.88
338.25	1605.61
338.46	1734.63
338.67	1738.73
338.88	1671.14
339.09	1648.61
339.31	1685.48
339.52	1712.10
339.73	1669.09
339.94	1716.20
340.15	1765.35
340.36	1654.76
340.58	1722.34
340.79	1732.58
341.00	1796.07
341.21	1767.40
341.42	1806.31
341.63	1726.44
341.85	1771.49
342.06	1738.73
342.27	1654.76
342.48	1751.01
342.69	1603.56
342.90	1734.63
343.12	1716.20
343.33	1656.81
343.54	1742.82
343.75	1802.21
343.96	1748.97
344.17	1628.14
344.38	1689.57
344.60	1697.77
344.81	1632.23
345.02	1730.53
345.23	1802.21
345.44	1853.41
345.65	1800.16
345.86	1699.81
346.07	1685.48
346.29	1675.24
346.50	1746.92
346.71	1820.64
346.92	1748.97
347.13	1779.68
347.34	1708.01
347.55	1658.85
347.76	1675.24
347.98	1667.05
348.19	1607.66
348.40	1771.49
348.61	1683.43
348.82	1753.06
349.03	1689.57
349.24	1630.18
349.45	1785.83
349.66	1662.95
349.88	1712.10
350.09	1732.58
350.30	1832.93
350.51	1746.92
350.72	1755.11
350.93	1705.96
351.14	1654.76
351.35	1748.97
351.56	1591.27
351.77	1699.81
351.99	1722.34
352.20	1738.73
352.41	1769.44
352.62	1642.47
352.83	1720.29
353.04	1730.53
353.25	1695.72
353.46	1742.82
353.67	1765.35
353.88	1607.66
354.09	1763.30
354.30	1683.43
354.52	1736.68
354.73	1734.63
354.94	1665.00
355.15	1669.09
355.36	1830.88
355.57	1611.75
355.78	1734.63
355.99	1695.72
356.20	1728.49
356.41	1732.58
356.62	1769.44
356.83	1726.44
357.04	1847.27
357.25	1538.02
357.46	1736.68
357.68	1703.91
357.89	1642.47
358.10	1710.05
358.31	1720.29
358.52	1724.39
358.73	1667.05
358.94	1699.81
359.15	1630.18
359.36	1746.92
359.57	1703.91
359.78	1701.86
359.99	1746.92
360.20	1619.94
360.41	1722.34
360.62	1767.40
360.83	1781.73
361.04	1673.19
361.25	1685.48
361.46	1789.92
361.67	1722.34
361.88	1726.44
362.09	1712.10
362.30	1767.40
362.51	1681.38
362.72	1699.81
362.93	1732.58
363.14	1779.68
363.35	1765.35
363.56	1761.25
363.78	1736.68
363.99	1759.21
364.20	1703.91
364.41	1660.90
364.62	1748.97
364.83	1710.05
365.04	1732.58
365.25	1763.30
365.46	1820.64
365.67	1689.57
365.88	1646.57
366.09	1742.82
366.30	1689.57
366.51	1783.78
366.72	1646.57
366.93	1771.49
367.14	1714.15
367.35	1738.73
367.56	1662.95
367.77	1753.06
367.98	1718.25
368.18	1767.40
368.39	1765.35
368.60	1609.70
368.81	1802.21
369.02	1636.33
369.23	1722.34
369.44	1714.15
369.65	1681.38
369.86	1714.15
370.07	1734.63
370.28	1621.99
370.49	1755.11
370.70	1751.01
370.91	1583.08
371.12	1673.19
371.33	1767.40
371.54	1734.63
371.75	1720.29
371.96	1562.60
372.17	1691.62
372.38	1656.81
372.59	1748.97
372.80	1669.09
373.01	1679.33
373.22	1687.53
373.43	1693.67
373.64	1630.18
373.85	1789.92
374.06	1816.55
374.26	1734.63
374.47	1705.96
374.68	1810.40
374.89	1718.25
375.10	1677.29
375.31	1771.49
375.52	1748.97
375.73	1677.29
375.94	1673.19
376.15	1705.96
376.36	1632.23
376.57	1632.23
376.78	1748.97
376.99	1665.00
377.20	1755.11
377.40	1736.68
377.61	1794.02
377.82	1671.14
378.03	1705.96
378.24	1785.83
378.45	1732.58
378.66	1761.25
378.87	1626.09
379.08	1640.42
379.29	1695.72
379.50	1751.01
379.71	1630.18
379.91	1705.96
380.12	1708.01
380.33	1734.63
380.54	1589.22
380.75	1667.05
380.96	1708.01
381.17	1814.50
381.38	1773.54
381.59	1728.49
381.80	1755.11
382.00	1832.93
382.21	1757.16
382.42	1843.17
382.63	1853.41
382.84	1712.10
383.05	1744.87
383.26	1859.56
383.47	1773.54
383.68	1734.63
383.88	1748.97
384.09	1777.64
384.30	1761.25
384.51	1671.14
384.72	1689.57
384.93	1710.05
385.14	1669.09
385.35	1710.05
385.55	1660.90
385.76	1820.64
385.97	1685.48
386.18	1691.62
386.39	1619.94
386.60	1710.05
386.81	1669.09
387.02	1687.53
387.22	1638.38
387.43	1804.26
387.64	1822.69
387.85	1882.08
388.06	2183.13
388.27	4368.32
388.48	6928.28
388.68	8298.37
388.89	9705.32
389.10	9934.70
389.31	8636.28
389.52	7772.04
389.73	6889.37
389.93	6246.30
390.14	5953.45
390.35	5304.24
390.56	4575.16
390.77	3903.43
390.98	3065.81
391.18	2506.71
391.39	2195.42
391.60	1781.73
391.81	1828.84
392.02	1777.64
392.23	1841.12
392.43	1738.73
392.64	1816.55
392.85	1712.10
393.06	1824.74
393.27	1738.73
393.47	1669.09
393.68	1730.53
393.89	1689.57
394.10	1730.53
394.31	1726.44
394.52	1681.38
394.72	1656.81
394.93	1783.78
395.14	1599.46
395.35	1744.87
395.56	1687.53
395.76	1720.29
395.97	1738.73
396.18	1787.88
396.39	1853.41
396.60	2013.15
396.80	1900.52
397.01	1834.98
397.22	1800.16
397.43	1853.41
397.64	1681.38
397.84	1796.07
398.05	1820.64
398.26	1734.63
398.47	1814.50
398.67	1712.10
398.88	1714.15
399.09	1773.54
399.30	1640.42
399.51	1705.96
399.71	1730.53
399.92	1722.34
400.13	1728.49
400.34	1699.81
400.54	1763.30
400.75	1726.44
400.96	1714.15
401.17	1796.07
401.37	1771.49
401.58	1710.05
401.79	1755.11
402.00	1855.46
402.21	2015.20
402.41	1935.33
402.62	1943.52
402.83	2039.78
403.04	2027.49
403.24	2084.83
403.45	1904.61
403.66	1900.52
403.87	1914.85
404.07	1877.99
404.28	1834.98
404.49	1771.49
404.70	1789.92
404.90	1818.60
405.11	1675.24
405.32	1738.73
405.52	1630.18
405.73	1656.81
405.94	1656.81
406.15	1658.85
406.35	1734.63
406.56	1693.67
406.77	1808.36
406.98	1730.53
407.18	1677.29
407.39	1781.73
407.60	1722.34
407.80	1806.31
408.01	1671.14
408.22	1824.74
408.43	1646.57
408.63	1765.35
408.84	1787.88
409.05	1763.30
409.25	1656.81
409.46	1708.01
409.67	1646.57
409.88	1689.57
410.08	1757.16
410.29	1718.25
410.50	1763.30
410.70	1779.68
410.91	1603.56
411.12	1761.25
411.32	1712.10
411.53	1701.86
411.74	1847.27
411.95	1787.88
412.15	1703.91
412.36	1802.21
412.57	1755.11
412.77	1777.64
412.98	1660.90
413.19	1630.18
413.39	1730.53
413.60	1755.11
413.81	1755.11
414.01	1654.76
414.22	1746.92
414.43	1779.68
414.63	1728.49
414.84	1761.25
415.05	1708.01
415.25	1613.80
415.46	1677.29
415.67	1701.86
415.87	1742.82
416.08	1742.82
416.29	1671.14
416.49	1730.53
416.70	1714.15
416.91	1691.62
417.11	1681.38
417.32	1740.77
417.53	1734.63
417.73	1728.49
417.94	1669.09
418.15	1724.39
418.35	1773.54
418.56	1640.42
418.77	1849.32
418.97	1734.63
419.18	1646.57
419.38	1613.80
419.59	1683.43
419.80	1814.50
420.00	1683.43
420.21	1730.53
420.42	1761.25
420.62	1789.92
420.83	1613.80
421.04	1638.38
421.24	1658.85
421.45	1777.64
421.65	1773.54
421.86	1755.11
422.07	1794.02
422.27	1662.95
422.48	1779.68
422.69	1681.38
422.89	1679.33
423.10	1679.33
423.30	1656.81
423.51	1708.01
423.72	1718.25
423.92	1791.97
424.13	1675.24
424.33	1771.49
424.54	1832.93
424.75	1685.48
424.95	1736.68
425.16	1751.01
425.36	1689.57
425.57	1796.07
425.78	1759.21
425.98	1796.07
426.19	1578.98
426.39	1583.08
426.60	1746.92
426.81	1863.65
427.01	1804.26
427.22	1624.04
427.42	1638.38
427.63	1673.19
427.83	1767.40
428.04	1779.68
428.25	1853.41
428.45	1736.68
428.66	1757.16
428.86	1763.30
429.07	1712.10
429.28	1695.72
429.48	1642.47
429.69	1708.01
429.89	1701.86
430.10	1648.61
430.30	1722.34
430.51	1748.97
430.71	1689.57
430.92	1810.40
431.13	1675.24
431.33	1714.15
431.54	1681.38
431.74	1845.22
431.95	1851.36
432.15	1673.19
432.36	1746.92
432.56	1720.29
432.77	1865.70
432.98	1787.88
433.18	1748.97
433.39	1708.01
433.59	1722.34
433.80	1796.07
434.00	1828.84
434.21	1681.38
434.41	1675.24
434.62	1751.01
434.82	1701.86
435.03	1693.67
435.23	1740.77
435.44	1619.94
435.64	1730.53
435.85	1675.24
436.06	1744.87
436.26	1800.16
436.47	1660.90
436.67	1699.81
436.88	1673.19
437.08	1695.72
437.29	1841.12
437.49	1755.11
437.70	1746.92
437.90	1812.45
438.11	1812.45
438.31	1806.31
438.52	1855.46
438.72	1859.56
438.93	1925.09
439.13	1773.54
439.34	1902.56
439.54	1751.01
439.75	1808.36
439.95	1808.36
440.16	1730.53
440.36	1755.11
440.57	1763.30
440.77	1751.01
440.98	1783.78
441.18	1712.10
441.39	1685.48
441.59	1691.62
441.80	1898.47
442.00	1781.73
442.21	1869.80
442.41	1708.01
442.62	1751.01
442.82	1673.19
443.02	1714.15
443.23	1814.50
443.43	1660.90
443.64	1787.88
443.84	1705.96
444.05	1732.58
444.25	1800.16
444.46	1722.34
444.66	1771.49
444.87	1691.62
445.07	1619.94
445.28	1699.81
445.48	1822.69
445.69	1716.20
445.89	1859.56
446.09	1763.30
446.30	2031.58
446.50	2609.11
446.71	3719.11
446.91	4419.52
447.12	4853.69
447.32	4773.82
447.53	4384.70
447.73	3921.86
447.93	3557.32
448.14	3338.19
448.34	3231.69
448.55	2967.51
448.75	2850.77
448.96	2752.47
449.16	2480.09
449.36	2308.06
449.57	2093.02
449.77	1914.85
449.98	1787.88
450.18	1734.63
450.39	1800.16
450.59	1726.44
450.79	1806.31
451.00	1716.20
451.20	1810.40
451.41	1695.72
451.61	1755.11
451.81	1785.83
452.02	1703.91
452.22	1744.87
452.43	1753.06
452.63	1609.70
