SpectraSuite Data File
++++++++++++++++++++++++++++++++++++
Date: Mon Jun 06 13:37:37 CEST 2016
User: root
Dark Spectrum Present: No
Reference Spectrum Present: No
Number of Sampled Component Spectra: 1
Spectrometers: USB4C02835
Integration Time (usec): 100000 (USB4C02835)
Spectra Averaged: 1 (USB4C02835)
Boxcar Smoothing: 0 (USB4C02835)
Correct for Electrical Dark: No (USB4C02835)
Strobe/Lamp Enabled: No (USB4C02835)
Correct for Detector Non-linearity: No (USB4C02835)
Correct for Stray Light: No (USB4C02835)
Number of Pixels in Processed Spectrum: 3648
>>>>>Begin Processed Spectral Data<<<<<
177.47	1419.24
177.69	1419.24
177.91	1419.24
178.13	1521.64
178.36	1488.87
178.58	1624.04
178.80	1675.24
179.02	1658.85
179.24	1619.94
179.46	1718.25
179.68	1779.68
179.90	1681.38
180.13	1724.39
180.35	1660.90
180.57	1685.48
180.79	1740.77
181.01	1712.10
181.23	1695.72
181.45	1794.02
181.67	1767.40
181.90	1818.60
182.12	1630.18
182.34	1550.31
182.56	1716.20
182.78	1679.33
183.00	1759.21
183.22	1765.35
183.44	1611.75
183.66	1771.49
183.89	1695.72
184.11	1718.25
184.33	1767.40
184.55	1843.17
184.77	1714.15
184.99	1740.77
185.21	1626.09
185.43	1812.45
185.65	1677.29
185.87	1734.63
186.10	1884.13
186.32	1816.55
186.54	1685.48
186.76	1724.39
186.98	1693.67
187.20	1689.57
187.42	1665.00
187.64	1624.04
187.86	1748.97
188.08	1757.16
188.30	1710.05
188.52	1697.77
188.75	1755.11
188.97	1783.78
189.19	1681.38
189.41	1724.39
189.63	1734.63
189.85	1669.09
190.07	1613.80
190.29	1734.63
190.51	1679.33
190.73	1603.56
190.95	1757.16
191.17	1673.19
191.39	1646.57
191.61	1685.48
191.84	1644.52
192.06	1689.57
192.28	1587.18
192.50	1841.12
192.72	1689.57
192.94	1685.48
193.16	1779.68
193.38	1693.67
193.60	1587.18
193.82	1669.09
194.04	1759.21
194.26	1677.29
194.48	1701.86
194.70	1693.67
194.92	1695.72
195.14	1667.05
195.36	1703.91
195.58	1697.77
195.80	1730.53
196.02	1660.90
196.24	1660.90
196.46	1781.73
196.69	1724.39
196.91	1783.78
197.13	1603.56
197.35	1673.19
197.57	1701.86
197.79	1712.10
198.01	1701.86
198.23	1705.96
198.45	1722.34
198.67	1601.51
198.89	1634.28
199.11	1669.09
199.33	1669.09
199.55	1607.66
199.77	1710.05
199.99	1689.57
200.21	1710.05
200.43	1683.43
200.65	1665.00
200.87	1525.74
201.09	1683.43
201.31	1665.00
201.53	1759.21
201.75	1685.48
201.97	1736.68
202.19	1767.40
202.41	1703.91
202.63	1839.08
202.85	1679.33
203.07	1718.25
203.29	1720.29
203.51	1695.72
203.73	1589.22
203.95	1869.80
204.17	1753.06
204.39	1736.68
204.61	1736.68
204.83	1644.52
205.05	1726.44
205.27	1669.09
205.49	1746.92
205.71	1640.42
205.93	1605.61
206.15	1726.44
206.37	1720.29
206.59	1654.76
206.81	1626.09
207.03	1636.33
207.25	1597.42
207.47	1744.87
207.69	1656.81
207.91	1781.73
208.13	1804.26
208.34	1658.85
208.56	1595.37
208.78	1685.48
209.00	1701.86
209.22	1689.57
209.44	1662.95
209.66	1689.57
209.88	1687.53
210.10	1695.72
210.32	1685.48
210.54	1779.68
210.76	1710.05
210.98	1681.38
211.20	1572.84
211.42	1689.57
211.64	1753.06
211.86	1705.96
212.08	1705.96
212.30	1751.01
212.52	1687.53
212.74	1746.92
212.96	1710.05
213.17	1742.82
213.39	1759.21
213.61	1724.39
213.83	1671.14
214.05	1669.09
214.27	1808.36
214.49	1683.43
214.71	1644.52
214.93	1726.44
215.15	1728.49
215.37	1726.44
215.59	1632.23
215.81	1662.95
216.03	1824.74
216.24	1722.34
216.46	1718.25
216.68	1730.53
216.90	1712.10
217.12	1693.67
217.34	1691.62
217.56	1787.88
217.78	1791.97
218.00	1699.81
218.22	1681.38
218.44	1722.34
218.66	1705.96
218.87	1814.50
219.09	1673.19
219.31	1794.02
219.53	1771.49
219.75	1705.96
219.97	1679.33
220.19	1738.73
220.41	1724.39
220.63	1798.12
220.85	1691.62
221.06	1667.05
221.28	1759.21
221.50	1779.68
221.72	1714.15
221.94	1718.25
222.16	1693.67
222.38	1810.40
222.60	1777.64
222.82	1718.25
223.03	1708.01
223.25	1675.24
223.47	1730.53
223.69	1742.82
223.91	1716.20
224.13	1691.62
224.35	1640.42
224.57	1716.20
224.78	1716.20
225.00	1669.09
225.22	1589.22
225.44	1646.57
225.66	1703.91
225.88	1650.66
226.10	1722.34
226.32	1650.66
226.53	1791.97
226.75	1697.77
226.97	1724.39
227.19	1730.53
227.41	1699.81
227.63	1769.44
227.85	1611.75
228.06	1724.39
228.28	1617.90
228.50	1763.30
228.72	1697.77
228.94	1677.29
229.16	1634.28
229.37	1654.76
229.59	1681.38
229.81	1740.77
230.03	1640.42
230.25	1644.52
230.47	1665.00
230.69	1656.81
230.90	1767.40
231.12	1677.29
231.34	1740.77
231.56	1751.01
231.78	1644.52
232.00	1697.77
232.21	1669.09
232.43	1699.81
232.65	1558.50
232.87	1681.38
233.09	1644.52
233.30	1644.52
233.52	1728.49
233.74	1640.42
233.96	1673.19
234.18	1658.85
234.40	1628.14
234.61	1789.92
234.83	1654.76
235.05	1609.70
235.27	1802.21
235.49	1779.68
235.70	1779.68
235.92	1761.25
236.14	1738.73
236.36	1820.64
236.58	1632.23
236.79	1740.77
237.01	1644.52
237.23	1732.58
237.45	1832.93
237.67	1607.66
237.88	1669.09
238.10	1765.35
238.32	1628.14
238.54	1732.58
238.76	1804.26
238.97	1644.52
239.19	1658.85
239.41	1783.78
239.63	1738.73
239.85	1675.24
240.06	1699.81
240.28	1708.01
240.50	1699.81
240.72	1658.85
240.93	1675.24
241.15	1679.33
241.37	1734.63
241.59	1802.21
241.81	1640.42
242.02	1650.66
242.24	1693.67
242.46	1701.86
242.68	1712.10
242.89	1730.53
243.11	1744.87
243.33	1673.19
243.55	1767.40
243.76	1695.72
243.98	1677.29
244.20	1642.47
244.42	1681.38
244.64	1699.81
244.85	1751.01
245.07	1667.05
245.29	1738.73
245.51	1736.68
245.72	1722.34
245.94	1724.39
246.16	1728.49
246.38	1753.06
246.59	1708.01
246.81	1650.66
247.03	1697.77
247.24	1591.27
247.46	1685.48
247.68	1779.68
247.90	1701.86
248.11	1642.47
248.33	1740.77
248.55	1814.50
248.77	1724.39
248.98	1738.73
249.20	1755.11
249.42	1777.64
249.64	1722.34
249.85	1728.49
250.07	1679.33
250.29	1730.53
250.50	1800.16
250.72	1640.42
250.94	1697.77
251.16	1824.74
251.37	1787.88
251.59	1710.05
251.81	1724.39
252.02	1834.98
252.24	1681.38
252.46	1734.63
252.68	1650.66
252.89	1673.19
253.11	1621.99
253.33	1751.01
253.54	1767.40
253.76	1603.56
253.98	1683.43
254.20	1710.05
254.41	1603.56
254.63	1667.05
254.85	1607.66
255.06	1683.43
255.28	1787.88
255.50	1665.00
255.71	1710.05
255.93	1671.14
256.15	1728.49
256.36	1847.27
256.58	1638.38
256.80	1699.81
257.02	1697.77
257.23	1624.04
257.45	1728.49
257.67	1767.40
257.88	1669.09
258.10	1691.62
258.32	1708.01
258.53	1701.86
258.75	1800.16
258.97	1640.42
259.18	1765.35
259.40	1791.97
259.62	1742.82
259.83	1796.07
260.05	1724.39
260.27	2009.06
260.48	1746.92
260.70	1712.10
260.92	1656.81
261.13	1763.30
261.35	1701.86
261.57	1685.48
261.78	1673.19
262.00	1628.14
262.22	1699.81
262.43	1640.42
262.65	1654.76
262.86	1687.53
263.08	1847.27
263.30	1701.86
263.51	1589.22
263.73	1722.34
263.95	1687.53
264.16	1716.20
264.38	1693.67
264.60	1675.24
264.81	1673.19
265.03	1730.53
265.25	1710.05
265.46	1636.33
265.68	1718.25
265.89	1705.96
266.11	1546.22
266.33	1761.25
266.54	1724.39
266.76	1724.39
266.98	1789.92
267.19	1822.69
267.41	1781.73
267.62	1699.81
267.84	1595.37
268.06	1738.73
268.27	1800.16
268.49	1765.35
268.70	1728.49
268.92	1757.16
269.14	1722.34
269.35	1548.26
269.57	1779.68
269.79	1705.96
270.00	1644.52
270.22	1855.46
270.43	1673.19
270.65	1517.54
270.87	1681.38
271.08	1789.92
271.30	1724.39
271.51	1697.77
271.73	1751.01
271.95	1738.73
272.16	1574.89
272.38	1685.48
272.59	1656.81
272.81	1718.25
273.02	1697.77
273.24	1722.34
273.46	1744.87
273.67	1585.13
273.89	1722.34
274.10	1671.14
274.32	1699.81
274.54	1681.38
274.75	1728.49
274.97	1722.34
275.18	1732.58
275.40	1738.73
275.61	1740.77
275.83	1714.15
276.05	1591.27
276.26	1675.24
276.48	1716.20
276.69	1703.91
276.91	1665.00
277.12	1822.69
277.34	1755.11
277.55	1755.11
277.77	1685.48
277.99	1681.38
278.20	1646.57
278.42	1660.90
278.63	1615.85
278.85	1628.14
279.06	1644.52
279.28	1693.67
279.49	1791.97
279.71	1751.01
279.93	1671.14
280.14	1728.49
280.36	1802.21
280.57	1759.21
280.79	1716.20
281.00	1617.90
281.22	1660.90
281.43	1693.67
281.65	1599.46
281.86	1628.14
282.08	1701.86
282.29	1824.74
282.51	1583.08
282.73	1636.33
282.94	1558.50
283.16	1718.25
283.37	1761.25
283.59	1730.53
283.80	1746.92
284.02	1755.11
284.23	1724.39
284.45	1751.01
284.66	1636.33
284.88	1621.99
285.09	1740.77
285.31	1640.42
285.52	1742.82
285.74	1593.32
285.95	1652.71
286.17	1746.92
286.38	1759.21
286.60	1658.85
286.81	1720.29
287.03	1736.68
287.24	1730.53
287.46	1732.58
287.67	1757.16
287.89	1751.01
288.10	1646.57
288.32	1738.73
288.53	1912.80
288.75	1677.29
288.96	1767.40
289.18	1628.14
289.39	1654.76
289.61	1742.82
289.82	1892.32
290.04	1785.83
290.25	1705.96
290.47	1720.29
290.68	1683.43
290.90	1796.07
291.11	1628.14
291.33	1753.06
291.54	1673.19
291.76	1642.47
291.97	1726.44
292.18	1697.77
292.40	1644.52
292.61	1603.56
292.83	1855.46
293.04	1779.68
293.26	1705.96
293.47	1681.38
293.69	1634.28
293.90	1695.72
294.12	1767.40
294.33	1685.48
294.55	1685.48
294.76	1765.35
294.97	1787.88
295.19	1828.84
295.40	1669.09
295.62	1740.77
295.83	1712.10
296.05	1669.09
296.26	1710.05
296.48	1662.95
296.69	1658.85
296.90	1697.77
297.12	1746.92
297.33	1730.53
297.55	1738.73
297.76	1650.66
297.98	1753.06
298.19	1761.25
298.41	1748.97
298.62	1632.23
298.83	1822.69
299.05	1665.00
299.26	1587.18
299.48	1669.09
299.69	1697.77
299.90	1724.39
300.12	1630.18
300.33	1746.92
300.55	1761.25
300.76	1726.44
300.98	1673.19
301.19	1787.88
301.40	1677.29
301.62	1652.71
301.83	1677.29
302.05	1634.28
302.26	1695.72
302.47	1716.20
302.69	1650.66
302.90	1671.14
303.12	1546.22
303.33	1800.16
303.54	1787.88
303.76	1724.39
303.97	1712.10
304.19	1853.41
304.40	1656.81
304.61	1814.50
304.83	1808.36
305.04	1755.11
305.26	1763.30
305.47	1691.62
305.68	1798.12
305.90	1581.03
306.11	1851.36
306.33	1718.25
306.54	1665.00
306.75	1675.24
306.97	1615.85
307.18	1656.81
307.39	1693.67
307.61	1681.38
307.82	1665.00
308.04	1791.97
308.25	1630.18
308.46	1751.01
308.68	1701.86
308.89	1730.53
309.10	1712.10
309.32	1744.87
309.53	1681.38
309.74	1701.86
309.96	1740.77
310.17	1748.97
310.39	1732.58
310.60	1683.43
310.81	1638.38
311.03	1621.99
311.24	1708.01
311.45	1660.90
311.67	1824.74
311.88	1681.38
312.09	1568.74
312.31	1609.70
312.52	1683.43
312.73	1763.30
312.95	1554.41
313.16	1640.42
313.37	1757.16
313.59	1714.15
313.80	1722.34
314.01	1730.53
314.23	1712.10
314.44	1755.11
314.65	1679.33
314.87	1621.99
315.08	1638.38
315.29	1677.29
315.51	1689.57
315.72	1613.80
315.93	1798.12
316.15	1740.77
316.36	1722.34
316.57	1685.48
316.79	1753.06
317.00	1724.39
317.21	1740.77
317.43	1662.95
317.64	1746.92
317.85	1703.91
318.07	1624.04
318.28	1714.15
318.49	1822.69
318.70	1910.75
318.92	1824.74
319.13	1789.92
319.34	1896.42
319.56	1736.68
319.77	1718.25
319.98	1802.21
320.20	1716.20
320.41	1728.49
320.62	1771.49
320.83	1658.85
321.05	1763.30
321.26	1775.59
321.47	1699.81
321.69	1738.73
321.90	1621.99
322.11	1675.24
322.32	1722.34
322.54	1787.88
322.75	1710.05
322.96	1843.17
323.18	1640.42
323.39	1560.55
323.60	1679.33
323.81	1753.06
324.03	1615.85
324.24	1658.85
324.45	1777.64
324.66	1714.15
324.88	1775.59
325.09	1720.29
325.30	1650.66
325.52	1771.49
325.73	1787.88
325.94	1665.00
326.15	1703.91
326.37	1693.67
326.58	1798.12
326.79	1716.20
327.00	1621.99
327.22	1642.47
327.43	1726.44
327.64	1656.81
327.85	1712.10
328.07	1693.67
328.28	1855.46
328.49	1626.09
328.70	1673.19
328.92	1642.47
329.13	1720.29
329.34	1716.20
329.55	1810.40
329.76	1763.30
329.98	1726.44
330.19	1759.21
330.40	1740.77
330.61	1722.34
330.83	1771.49
331.04	1689.57
331.25	1710.05
331.46	1660.90
331.68	1658.85
331.89	1730.53
332.10	1677.29
332.31	1583.08
332.52	1662.95
332.74	1765.35
332.95	1613.80
333.16	1656.81
333.37	1771.49
333.58	1736.68
333.80	1693.67
334.01	1581.03
334.22	1679.33
334.43	1644.52
334.64	1611.75
334.86	1665.00
335.07	1603.56
335.28	1736.68
335.49	1665.00
335.70	1757.16
335.92	1824.74
336.13	1806.31
336.34	1783.78
336.55	1730.53
336.76	1669.09
336.98	1585.13
337.19	1693.67
337.40	1796.07
337.61	1871.84
337.82	1701.86
338.04	1744.87
338.25	1556.46
338.46	1683.43
338.67	1665.00
338.88	1671.14
339.09	1718.25
339.31	1658.85
339.52	1632.23
339.73	1587.18
339.94	1652.71
340.15	1742.82
340.36	1662.95
340.58	1693.67
340.79	1757.16
341.00	1744.87
341.21	1675.24
341.42	1820.64
341.63	1708.01
341.85	1720.29
342.06	1681.38
342.27	1638.38
342.48	1691.62
342.69	1691.62
342.90	1742.82
343.12	1703.91
343.33	1693.67
343.54	1755.11
343.75	1738.73
343.96	1751.01
344.17	1673.19
344.38	1697.77
344.60	1652.71
344.81	1644.52
345.02	1708.01
345.23	1789.92
345.44	1742.82
345.65	1748.97
345.86	1722.34
346.07	1611.75
346.29	1628.14
346.50	1697.77
346.71	1759.21
346.92	1771.49
347.13	1812.45
347.34	1685.48
347.55	1673.19
347.76	1808.36
347.98	1630.18
348.19	1624.04
348.40	1720.29
348.61	1732.58
348.82	1826.79
349.03	1791.97
349.24	1636.33
349.45	1841.12
349.66	1597.42
349.88	1642.47
350.09	1646.57
350.30	1785.83
350.51	1726.44
350.72	1751.01
350.93	1755.11
351.14	1646.57
351.35	1728.49
351.56	1734.63
351.77	1669.09
351.99	1726.44
352.20	1802.21
352.41	1728.49
352.62	1603.56
352.83	1656.81
353.04	1689.57
353.25	1681.38
353.46	1748.97
353.67	1794.02
353.88	1652.71
354.09	1722.34
354.30	1624.04
354.52	1679.33
354.73	1671.14
354.94	1656.81
355.15	1675.24
355.36	1851.36
355.57	1652.71
355.78	1658.85
355.99	1648.61
356.20	1642.47
356.41	1689.57
356.62	1667.05
356.83	1689.57
357.04	1757.16
357.25	1591.27
357.46	1732.58
357.68	1609.70
357.89	1669.09
358.10	1689.57
358.31	1773.54
358.52	1718.25
358.73	1652.71
358.94	1689.57
359.15	1685.48
359.36	1736.68
359.57	1703.91
359.78	1656.81
359.99	1687.53
360.20	1609.70
360.41	1650.66
360.62	1701.86
360.83	1665.00
361.04	1685.48
361.25	1773.54
361.46	1785.83
361.67	1685.48
361.88	1703.91
362.09	1722.34
362.30	1777.64
362.51	1681.38
362.72	1789.92
362.93	1746.92
363.14	1740.77
363.35	1626.09
363.56	1730.53
363.78	1781.73
363.99	1761.25
364.20	1683.43
364.41	1705.96
364.62	1802.21
364.83	1773.54
365.04	1693.67
365.25	1667.05
365.46	1794.02
365.67	1642.47
365.88	1742.82
366.09	1679.33
366.30	1673.19
366.51	1681.38
366.72	1607.66
366.93	1613.80
367.14	1656.81
367.35	1759.21
367.56	1615.85
367.77	1787.88
367.98	1712.10
368.18	1660.90
368.39	1683.43
368.60	1722.34
368.81	1726.44
369.02	1642.47
369.23	1697.77
369.44	1607.66
369.65	1679.33
369.86	1679.33
370.07	1644.52
370.28	1697.77
370.49	1726.44
370.70	1642.47
370.91	1632.23
371.12	1691.62
371.33	1808.36
371.54	1691.62
371.75	1830.88
371.96	1599.46
372.17	1687.53
372.38	1718.25
372.59	1789.92
372.80	1665.00
373.01	1712.10
373.22	1667.05
373.43	1689.57
373.64	1626.09
373.85	1773.54
374.06	1814.50
374.26	1736.68
374.47	1757.16
374.68	1796.07
374.89	1710.05
375.10	1656.81
375.31	1652.71
375.52	1687.53
375.73	1671.14
375.94	1607.66
376.15	1775.59
376.36	1652.71
376.57	1626.09
376.78	1734.63
376.99	1642.47
377.20	1767.40
377.40	1705.96
377.61	1800.16
377.82	1626.09
378.03	1791.97
378.24	1722.34
378.45	1708.01
378.66	1748.97
378.87	1578.98
379.08	1638.38
379.29	1691.62
379.50	1720.29
379.71	1691.62
379.91	1716.20
380.12	1595.37
380.33	1660.90
380.54	1646.57
380.75	1673.19
380.96	1667.05
381.17	1716.20
381.38	1724.39
381.59	1753.06
381.80	1732.58
382.00	1847.27
382.21	1677.29
382.42	1882.08
382.63	1877.99
382.84	1769.44
383.05	1722.34
383.26	1796.07
383.47	1705.96
383.68	1802.21
383.88	1742.82
384.09	1703.91
384.30	1810.40
384.51	1734.63
384.72	1636.33
384.93	1689.57
385.14	1658.85
385.35	1769.44
385.55	1505.26
385.76	1753.06
385.97	1734.63
386.18	1669.09
386.39	1712.10
386.60	1658.85
386.81	1705.96
387.02	1677.29
387.22	1572.84
387.43	1724.39
387.64	1748.97
387.85	1947.62
388.06	2240.48
388.27	4317.12
388.48	6649.75
388.68	8183.68
388.89	9496.43
389.10	9645.93
389.31	8499.07
389.52	7303.06
389.73	6576.03
389.93	6201.25
390.14	5785.51
390.35	5060.53
390.56	4380.61
390.77	3672.01
390.98	2990.03
391.18	2484.19
391.39	2125.79
391.60	1822.69
391.81	1904.61
392.02	1658.85
392.23	1841.12
392.43	1810.40
392.64	1808.36
392.85	1650.66
393.06	1789.92
393.27	1728.49
393.47	1691.62
393.68	1738.73
393.89	1654.76
394.10	1783.78
394.31	1624.04
394.52	1662.95
394.72	1644.52
394.93	1781.73
395.14	1621.99
395.35	1691.62
395.56	1656.81
395.76	1732.58
395.97	1791.97
396.18	1886.18
396.39	1808.36
396.60	2041.82
396.80	1888.23
397.01	1845.22
397.22	1814.50
397.43	1818.60
397.64	1787.88
397.84	1748.97
398.05	1902.56
398.26	1679.33
398.47	1732.58
398.67	1834.98
398.88	1712.10
399.09	1765.35
399.30	1632.23
399.51	1701.86
399.71	1734.63
399.92	1642.47
400.13	1634.28
400.34	1796.07
400.54	1691.62
400.75	1789.92
400.96	1701.86
401.17	1726.44
401.37	1687.53
401.58	1763.30
401.79	1683.43
402.00	1875.94
402.21	1988.58
402.41	1927.14
402.62	1970.15
402.83	2047.97
403.04	2037.73
403.24	2095.07
403.45	1863.65
403.66	1888.23
403.87	1902.56
404.07	1861.60
404.28	1884.13
404.49	1941.47
404.70	1748.97
404.90	1759.21
405.11	1783.78
405.32	1691.62
405.52	1671.14
405.73	1695.72
405.94	1703.91
406.15	1730.53
406.35	1769.44
406.56	1753.06
406.77	1742.82
406.98	1722.34
407.18	1617.90
407.39	1843.17
407.60	1667.05
407.80	1740.77
408.01	1681.38
408.22	1662.95
408.43	1603.56
408.63	1767.40
408.84	1769.44
409.05	1740.77
409.25	1683.43
409.46	1638.38
409.67	1660.90
409.88	1677.29
410.08	1683.43
410.29	1746.92
410.50	1834.98
410.70	1789.92
410.91	1607.66
411.12	1783.78
411.32	1742.82
411.53	1638.38
411.74	1828.84
411.95	1730.53
412.15	1714.15
412.36	1759.21
412.57	1687.53
412.77	1712.10
412.98	1710.05
413.19	1722.34
413.39	1744.87
413.60	1769.44
413.81	1722.34
414.01	1576.94
414.22	1820.64
414.43	1691.62
414.63	1708.01
414.84	1800.16
415.05	1720.29
415.25	1615.85
415.46	1742.82
415.67	1693.67
415.87	1722.34
416.08	1665.00
416.29	1626.09
416.49	1755.11
416.70	1681.38
416.91	1720.29
417.11	1660.90
417.32	1691.62
417.53	1773.54
417.73	1746.92
417.94	1726.44
418.15	1728.49
418.35	1699.81
418.56	1708.01
418.77	1789.92
418.97	1695.72
419.18	1679.33
419.38	1574.89
419.59	1660.90
419.80	1830.88
420.00	1683.43
420.21	1763.30
420.42	1767.40
420.62	1808.36
420.83	1720.29
421.04	1697.77
421.24	1714.15
421.45	1728.49
421.65	1767.40
421.86	1740.77
422.07	1748.97
422.27	1689.57
422.48	1716.20
422.69	1697.77
422.89	1705.96
423.10	1693.67
423.30	1595.37
423.51	1703.91
423.72	1710.05
423.92	1738.73
424.13	1640.42
424.33	1691.62
424.54	1755.11
424.75	1708.01
424.95	1847.27
425.16	1648.61
425.36	1695.72
425.57	1814.50
425.78	1693.67
425.98	1732.58
426.19	1771.49
426.39	1656.81
426.60	1708.01
426.81	1716.20
427.01	1714.15
427.22	1728.49
427.42	1591.27
427.63	1615.85
427.83	1722.34
428.04	1847.27
428.25	1761.25
428.45	1716.20
428.66	1789.92
428.86	1703.91
429.07	1738.73
429.28	1681.38
429.48	1710.05
429.69	1603.56
429.89	1675.24
430.10	1599.46
430.30	1714.15
430.51	1769.44
430.71	1695.72
430.92	1697.77
431.13	1658.85
431.33	1824.74
431.54	1767.40
431.74	1751.01
431.95	1744.87
432.15	1640.42
432.36	1744.87
432.56	1689.57
432.77	1820.64
432.98	1884.13
433.18	1808.36
433.39	1677.29
433.59	1650.66
433.80	1845.22
434.00	1855.46
434.21	1701.86
434.41	1638.38
434.62	1781.73
434.82	1679.33
435.03	1697.77
435.23	1722.34
435.44	1591.27
435.64	1708.01
435.85	1779.68
436.06	1681.38
436.26	1775.59
436.47	1748.97
436.67	1708.01
436.88	1740.77
437.08	1740.77
437.29	1810.40
437.49	1718.25
437.70	1744.87
437.90	1701.86
438.11	1834.98
438.31	1816.55
438.52	1884.13
438.72	1824.74
438.93	1865.70
439.13	1779.68
439.34	1787.88
439.54	1796.07
439.75	1837.03
439.95	1800.16
440.16	1730.53
440.36	1769.44
440.57	1755.11
440.77	1779.68
440.98	1716.20
441.18	1732.58
441.39	1744.87
441.59	1726.44
441.80	1824.74
442.00	1755.11
442.21	1808.36
442.41	1656.81
442.62	1736.68
442.82	1595.37
443.02	1779.68
443.23	1779.68
443.43	1587.18
443.64	1794.02
443.84	1581.03
444.05	1779.68
444.25	1732.58
444.46	1726.44
444.66	1724.39
444.87	1814.50
445.07	1640.42
445.28	1757.16
445.48	1849.32
445.69	1822.69
445.89	1849.32
446.09	1720.29
446.30	2078.69
446.50	2635.74
446.71	3778.50
446.91	4270.01
447.12	4736.95
447.32	4773.82
447.53	4378.56
447.73	3880.90
447.93	3448.78
448.14	3241.93
448.34	3248.08
448.55	2877.40
448.75	2766.81
448.96	2688.98
449.16	2461.66
449.36	2275.29
449.57	2009.06
449.77	1800.16
449.98	1853.41
450.18	1839.08
450.39	1771.49
450.59	1787.88
450.79	1710.05
451.00	1697.77
451.20	1685.48
451.41	1705.96
451.61	1705.96
451.81	1863.65
452.02	1740.77
452.22	1757.16
452.43	1757.16
452.63	1697.77
