SpectraSuite Data File
++++++++++++++++++++++++++++++++++++
Date: Mon Jun 06 13:13:37 CEST 2016
User: root
Dark Spectrum Present: No
Reference Spectrum Present: No
Number of Sampled Component Spectra: 1
Spectrometers: USB4C02835
Integration Time (usec): 100000 (USB4C02835)
Spectra Averaged: 1 (USB4C02835)
Boxcar Smoothing: 0 (USB4C02835)
Correct for Electrical Dark: No (USB4C02835)
Strobe/Lamp Enabled: No (USB4C02835)
Correct for Detector Non-linearity: No (USB4C02835)
Correct for Stray Light: No (USB4C02835)
Number of Pixels in Processed Spectrum: 3648
>>>>>Begin Processed Spectral Data<<<<<
177.47	1402.86
177.69	1402.86
177.91	1402.86
178.13	1480.68
178.36	1480.68
178.58	1699.81
178.80	1689.57
179.02	1705.96
179.24	1638.38
179.46	1740.77
179.68	1755.11
179.90	1662.95
180.13	1681.38
180.35	1660.90
180.57	1695.72
180.79	1765.35
181.01	1734.63
181.23	1740.77
181.45	1697.77
181.67	1746.92
181.90	1775.59
182.12	1550.31
182.34	1624.04
182.56	1732.58
182.78	1746.92
183.00	1699.81
183.22	1751.01
183.44	1601.51
183.66	1841.12
183.89	1798.12
184.11	1701.86
184.33	1771.49
184.55	1746.92
184.77	1751.01
184.99	1724.39
185.21	1650.66
185.43	1863.65
185.65	1677.29
185.87	1742.82
186.10	1804.26
186.32	1814.50
186.54	1712.10
186.76	1734.63
186.98	1800.16
187.20	1636.33
187.42	1642.47
187.64	1677.29
187.86	1705.96
188.08	1728.49
188.30	1798.12
188.52	1691.62
188.75	1732.58
188.97	1695.72
189.19	1665.00
189.41	1746.92
189.63	1681.38
189.85	1714.15
190.07	1568.74
190.29	1642.47
190.51	1753.06
190.73	1636.33
190.95	1763.30
191.17	1765.35
191.39	1660.90
191.61	1669.09
191.84	1636.33
192.06	1669.09
192.28	1560.55
192.50	1861.60
192.72	1734.63
192.94	1718.25
193.16	1734.63
193.38	1677.29
193.60	1619.94
193.82	1691.62
194.04	1794.02
194.26	1779.68
194.48	1695.72
194.70	1708.01
194.92	1728.49
195.14	1759.21
195.36	1619.94
195.58	1808.36
195.80	1695.72
196.02	1710.05
196.24	1650.66
196.46	1736.68
196.69	1660.90
196.91	1863.65
197.13	1718.25
197.35	1593.32
197.57	1802.21
197.79	1740.77
198.01	1748.97
198.23	1691.62
198.45	1763.30
198.67	1646.57
198.89	1718.25
199.11	1730.53
199.33	1669.09
199.55	1636.33
199.77	1699.81
199.99	1732.58
200.21	1728.49
200.43	1689.57
200.65	1660.90
200.87	1619.94
201.09	1705.96
201.31	1701.86
201.53	1683.43
201.75	1665.00
201.97	1748.97
202.19	1716.20
202.41	1748.97
202.63	1771.49
202.85	1812.45
203.07	1738.73
203.29	1789.92
203.51	1640.42
203.73	1634.28
203.95	1857.51
204.17	1710.05
204.39	1755.11
204.61	1654.76
204.83	1660.90
205.05	1744.87
205.27	1800.16
205.49	1849.32
205.71	1755.11
205.93	1636.33
206.15	1660.90
206.37	1746.92
206.59	1693.67
206.81	1607.66
207.03	1617.90
207.25	1626.09
207.47	1697.77
207.69	1710.05
207.91	1771.49
208.13	1736.68
208.34	1628.14
208.56	1654.76
208.78	1701.86
209.00	1671.14
209.22	1699.81
209.44	1722.34
209.66	1710.05
209.88	1675.24
210.10	1656.81
210.32	1710.05
210.54	1787.88
210.76	1718.25
210.98	1683.43
211.20	1611.75
211.42	1773.54
211.64	1777.64
211.86	1765.35
212.08	1722.34
212.30	1773.54
212.52	1650.66
212.74	1673.19
212.96	1757.16
213.17	1730.53
213.39	1791.97
213.61	1767.40
213.83	1820.64
214.05	1660.90
214.27	1712.10
214.49	1716.20
214.71	1685.48
214.93	1763.30
215.15	1656.81
215.37	1740.77
215.59	1634.28
215.81	1775.59
216.03	1783.78
216.24	1685.48
216.46	1669.09
216.68	1705.96
216.90	1763.30
217.12	1726.44
217.34	1722.34
217.56	1732.58
217.78	1751.01
218.00	1755.11
218.22	1751.01
218.44	1738.73
218.66	1720.29
218.87	1753.06
219.09	1703.91
219.31	1712.10
219.53	1705.96
219.75	1650.66
219.97	1673.19
220.19	1710.05
220.41	1683.43
220.63	1810.40
220.85	1691.62
221.06	1687.53
221.28	1720.29
221.50	1783.78
221.72	1708.01
221.94	1775.59
222.16	1705.96
222.38	1714.15
222.60	1681.38
222.82	1751.01
223.03	1746.92
223.25	1652.71
223.47	1808.36
223.69	1851.36
223.91	1787.88
224.13	1701.86
224.35	1679.33
224.57	1712.10
224.78	1763.30
225.00	1675.24
225.22	1650.66
225.44	1748.97
225.66	1687.53
225.88	1716.20
226.10	1732.58
226.32	1648.61
226.53	1804.26
226.75	1640.42
226.97	1722.34
227.19	1759.21
227.41	1765.35
227.63	1681.38
227.85	1587.18
228.06	1708.01
228.28	1677.29
228.50	1718.25
228.72	1714.15
228.94	1634.28
229.16	1634.28
229.37	1587.18
229.59	1601.51
229.81	1740.77
230.03	1652.71
230.25	1636.33
230.47	1677.29
230.69	1626.09
230.90	1753.06
231.12	1599.46
231.34	1726.44
231.56	1714.15
231.78	1624.04
232.00	1626.09
232.21	1671.14
232.43	1693.67
232.65	1564.65
232.87	1660.90
233.09	1726.44
233.30	1691.62
233.52	1775.59
233.74	1699.81
233.96	1658.85
234.18	1675.24
234.40	1687.53
234.61	1751.01
234.83	1599.46
235.05	1685.48
235.27	1845.22
235.49	1796.07
235.70	1679.33
235.92	1767.40
236.14	1720.29
236.36	1777.64
236.58	1587.18
236.79	1708.01
237.01	1708.01
237.23	1708.01
237.45	1882.08
237.67	1724.39
237.88	1738.73
238.10	1824.74
238.32	1609.70
238.54	1722.34
238.76	1642.47
238.97	1613.80
239.19	1689.57
239.41	1722.34
239.63	1722.34
239.85	1667.05
240.06	1658.85
240.28	1730.53
240.50	1708.01
240.72	1648.61
240.93	1687.53
241.15	1738.73
241.37	1673.19
241.59	1744.87
241.81	1669.09
242.02	1718.25
242.24	1701.86
242.46	1685.48
242.68	1642.47
242.89	1689.57
243.11	1675.24
243.33	1691.62
243.55	1656.81
243.76	1705.96
243.98	1648.61
244.20	1630.18
244.42	1738.73
244.64	1785.83
244.85	1654.76
245.07	1640.42
245.29	1710.05
245.51	1728.49
245.72	1753.06
245.94	1767.40
246.16	1699.81
246.38	1781.73
246.59	1675.24
246.81	1738.73
247.03	1710.05
247.24	1609.70
247.46	1626.09
247.68	1728.49
247.90	1734.63
248.11	1638.38
248.33	1787.88
248.55	1652.71
248.77	1646.57
248.98	1777.64
249.20	1771.49
249.42	1683.43
249.64	1665.00
249.85	1691.62
250.07	1716.20
250.29	1665.00
250.50	1734.63
250.72	1613.80
250.94	1712.10
251.16	1810.40
251.37	1771.49
251.59	1748.97
251.81	1726.44
252.02	1839.08
252.24	1693.67
252.46	1755.11
252.68	1630.18
252.89	1634.28
253.11	1675.24
253.33	1798.12
253.54	1800.16
253.76	1636.33
253.98	1730.53
254.20	1728.49
254.41	1591.27
254.63	1722.34
254.85	1572.84
255.06	1697.77
255.28	1679.33
255.50	1669.09
255.71	1669.09
255.93	1652.71
256.15	1697.77
256.36	1720.29
256.58	1736.68
256.80	1736.68
257.02	1716.20
257.23	1640.42
257.45	1708.01
257.67	1738.73
257.88	1650.66
258.10	1652.71
258.32	1783.78
258.53	1732.58
258.75	1703.91
258.97	1783.78
259.18	1691.62
259.40	1771.49
259.62	1779.68
259.83	1794.02
260.05	1759.21
260.27	1912.80
260.48	1751.01
260.70	1710.05
260.92	1691.62
261.13	1794.02
261.35	1636.33
261.57	1650.66
261.78	1646.57
262.00	1685.48
262.22	1769.44
262.43	1619.94
262.65	1689.57
262.86	1724.39
263.08	1724.39
263.30	1701.86
263.51	1662.95
263.73	1607.66
263.95	1775.59
264.16	1658.85
264.38	1619.94
264.60	1716.20
264.81	1701.86
265.03	1789.92
265.25	1683.43
265.46	1689.57
265.68	1703.91
265.89	1781.73
266.11	1662.95
266.33	1751.01
266.54	1767.40
266.76	1687.53
266.98	1759.21
267.19	1847.27
267.41	1726.44
267.62	1697.77
267.84	1675.24
268.06	1755.11
268.27	1671.14
268.49	1738.73
268.70	1753.06
268.92	1671.14
269.14	1648.61
269.35	1587.18
269.57	1667.05
269.79	1626.09
270.00	1628.14
270.22	1802.21
270.43	1673.19
270.65	1527.78
270.87	1714.15
271.08	1742.82
271.30	1660.90
271.51	1779.68
271.73	1695.72
271.95	1771.49
272.16	1662.95
272.38	1726.44
272.59	1660.90
272.81	1724.39
273.02	1695.72
273.24	1654.76
273.46	1771.49
273.67	1658.85
273.89	1677.29
274.10	1621.99
274.32	1699.81
274.54	1769.44
274.75	1695.72
274.97	1669.09
275.18	1759.21
275.40	1748.97
275.61	1736.68
275.83	1701.86
276.05	1636.33
276.26	1677.29
276.48	1732.58
276.69	1693.67
276.91	1560.55
277.12	1773.54
277.34	1730.53
277.55	1691.62
277.77	1748.97
277.99	1675.24
278.20	1611.75
278.42	1570.79
278.63	1626.09
278.85	1695.72
279.06	1671.14
279.28	1658.85
279.49	1753.06
279.71	1681.38
279.93	1689.57
280.14	1697.77
280.36	1669.09
280.57	1751.01
280.79	1769.44
281.00	1619.94
281.22	1556.46
281.43	1703.91
281.65	1587.18
281.86	1718.25
282.08	1679.33
282.29	1869.80
282.51	1640.42
282.73	1628.14
282.94	1628.14
283.16	1722.34
283.37	1847.27
283.59	1703.91
283.80	1734.63
284.02	1710.05
284.23	1697.77
284.45	1634.28
284.66	1591.27
284.88	1757.16
285.09	1703.91
285.31	1742.82
285.52	1744.87
285.74	1648.61
285.95	1726.44
286.17	1736.68
286.38	1779.68
286.60	1673.19
286.81	1648.61
287.03	1609.70
287.24	1742.82
287.46	1650.66
287.67	1722.34
287.89	1888.23
288.10	1728.49
288.32	1714.15
288.53	1796.07
288.75	1648.61
288.96	1648.61
289.18	1701.86
289.39	1654.76
289.61	1740.77
289.82	1834.98
290.04	1759.21
290.25	1722.34
290.47	1660.90
290.68	1693.67
290.90	1779.68
291.11	1613.80
291.33	1753.06
291.54	1689.57
291.76	1685.48
291.97	1720.29
292.18	1714.15
292.40	1660.90
292.61	1705.96
292.83	1800.16
293.04	1681.38
293.26	1636.33
293.47	1708.01
293.69	1638.38
293.90	1710.05
294.12	1757.16
294.33	1744.87
294.55	1693.67
294.76	1763.30
294.97	1746.92
295.19	1830.88
295.40	1718.25
295.62	1767.40
295.83	1722.34
296.05	1701.86
296.26	1802.21
296.48	1679.33
296.69	1665.00
296.90	1669.09
297.12	1783.78
297.33	1705.96
297.55	1681.38
297.76	1738.73
297.98	1802.21
298.19	1753.06
298.41	1703.91
298.62	1640.42
298.83	1751.01
299.05	1716.20
299.26	1753.06
299.48	1609.70
299.69	1669.09
299.90	1697.77
300.12	1759.21
300.33	1732.58
300.55	1642.47
300.76	1718.25
300.98	1630.18
301.19	1718.25
301.40	1716.20
301.62	1677.29
301.83	1677.29
302.05	1660.90
302.26	1703.91
302.47	1730.53
302.69	1576.94
302.90	1646.57
303.12	1624.04
303.33	1728.49
303.54	1857.51
303.76	1718.25
303.97	1640.42
304.19	1796.07
304.40	1630.18
304.61	1783.78
304.83	1718.25
305.04	1763.30
305.26	1714.15
305.47	1669.09
305.68	1693.67
305.90	1552.36
306.11	1763.30
306.33	1677.29
306.54	1630.18
306.75	1689.57
306.97	1626.09
307.18	1671.14
307.39	1685.48
307.61	1716.20
307.82	1755.11
308.04	1810.40
308.25	1615.85
308.46	1679.33
308.68	1636.33
308.89	1665.00
309.10	1742.82
309.32	1685.48
309.53	1687.53
309.74	1742.82
309.96	1744.87
310.17	1779.68
310.39	1634.28
310.60	1673.19
310.81	1724.39
311.03	1624.04
311.24	1654.76
311.45	1683.43
311.67	1822.69
311.88	1722.34
312.09	1726.44
312.31	1712.10
312.52	1767.40
312.73	1708.01
312.95	1708.01
313.16	1660.90
313.37	1732.58
313.59	1771.49
313.80	1746.92
314.01	1759.21
314.23	1714.15
314.44	1650.66
314.65	1632.23
314.87	1601.51
315.08	1691.62
315.29	1673.19
315.51	1658.85
315.72	1624.04
315.93	1796.07
316.15	1746.92
316.36	1701.86
316.57	1691.62
316.79	1714.15
317.00	1603.56
317.21	1679.33
317.43	1652.71
317.64	1642.47
317.85	1646.57
318.07	1669.09
318.28	1759.21
318.49	1796.07
318.70	1861.60
318.92	1738.73
319.13	1828.84
319.34	1746.92
319.56	1826.79
319.77	1789.92
319.98	1740.77
320.20	1759.21
320.41	1726.44
320.62	1626.09
320.83	1615.85
321.05	1834.98
321.26	1742.82
321.47	1667.05
321.69	1779.68
321.90	1552.36
322.11	1658.85
322.32	1787.88
322.54	1699.81
322.75	1712.10
322.96	1929.19
323.18	1628.14
323.39	1568.74
323.60	1710.05
323.81	1763.30
324.03	1611.75
324.24	1771.49
324.45	1738.73
324.66	1665.00
324.88	1681.38
325.09	1808.36
325.30	1708.01
325.52	1669.09
325.73	1716.20
325.94	1611.75
326.15	1650.66
326.37	1628.14
326.58	1689.57
326.79	1751.01
327.00	1667.05
327.22	1726.44
327.43	1697.77
327.64	1595.37
327.85	1695.72
328.07	1644.52
328.28	1755.11
328.49	1665.00
328.70	1699.81
328.92	1701.86
329.13	1734.63
329.34	1746.92
329.55	1789.92
329.76	1796.07
329.98	1669.09
330.19	1787.88
330.40	1687.53
330.61	1763.30
330.83	1722.34
331.04	1636.33
331.25	1632.23
331.46	1687.53
331.68	1628.14
331.89	1769.44
332.10	1740.77
332.31	1601.51
332.52	1675.24
332.74	1798.12
332.95	1685.48
333.16	1716.20
333.37	1716.20
333.58	1677.29
333.80	1681.38
334.01	1595.37
334.22	1654.76
334.43	1626.09
334.64	1632.23
334.86	1642.47
335.07	1646.57
335.28	1708.01
335.49	1492.97
335.70	1681.38
335.92	1714.15
336.13	1861.60
336.34	1693.67
336.55	1712.10
336.76	1687.53
336.98	1605.61
337.19	1679.33
337.40	1800.16
337.61	1804.26
337.82	1656.81
338.04	1765.35
338.25	1708.01
338.46	1732.58
338.67	1646.57
338.88	1652.71
339.09	1609.70
339.31	1671.14
339.52	1601.51
339.73	1609.70
339.94	1710.05
340.15	1705.96
340.36	1636.33
340.58	1720.29
340.79	1681.38
341.00	1814.50
341.21	1683.43
341.42	1810.40
341.63	1720.29
341.85	1730.53
342.06	1712.10
342.27	1697.77
342.48	1738.73
342.69	1626.09
342.90	1681.38
343.12	1685.48
343.33	1644.52
343.54	1849.32
343.75	1789.92
343.96	1656.81
344.17	1632.23
344.38	1712.10
344.60	1638.38
344.81	1654.76
345.02	1771.49
345.23	1810.40
345.44	1748.97
345.65	1779.68
345.86	1708.01
346.07	1722.34
346.29	1726.44
346.50	1785.83
346.71	1757.16
346.92	1832.93
347.13	1837.03
347.34	1783.78
347.55	1665.00
347.76	1794.02
347.98	1597.42
348.19	1687.53
348.40	1753.06
348.61	1679.33
348.82	1744.87
349.03	1755.11
349.24	1728.49
349.45	1703.91
349.66	1601.51
349.88	1689.57
350.09	1673.19
350.30	1769.44
350.51	1783.78
350.72	1644.52
350.93	1605.61
351.14	1611.75
351.35	1779.68
351.56	1632.23
351.77	1726.44
351.99	1675.24
352.20	1705.96
352.41	1763.30
352.62	1560.55
352.83	1687.53
353.04	1697.77
353.25	1589.22
353.46	1718.25
353.67	1759.21
353.88	1583.08
354.09	1714.15
354.30	1708.01
354.52	1746.92
354.73	1642.47
354.94	1732.58
355.15	1669.09
355.36	1832.93
355.57	1669.09
355.78	1708.01
355.99	1701.86
356.20	1656.81
356.41	1789.92
356.62	1701.86
356.83	1699.81
357.04	1746.92
357.25	1632.23
357.46	1648.61
357.68	1632.23
357.89	1675.24
358.10	1732.58
358.31	1669.09
358.52	1726.44
358.73	1673.19
358.94	1632.23
359.15	1638.38
359.36	1718.25
359.57	1648.61
359.78	1718.25
359.99	1671.14
360.20	1607.66
360.41	1710.05
360.62	1751.01
360.83	1646.57
361.04	1767.40
361.25	1730.53
361.46	1757.16
361.67	1650.66
361.88	1785.83
362.09	1730.53
362.30	1681.38
362.51	1593.32
362.72	1712.10
362.93	1728.49
363.14	1681.38
363.35	1685.48
363.56	1693.67
363.78	1732.58
363.99	1695.72
364.20	1603.56
364.41	1736.68
364.62	1802.21
364.83	1716.20
365.04	1644.52
365.25	1650.66
365.46	1796.07
365.67	1660.90
365.88	1609.70
366.09	1626.09
366.30	1675.24
366.51	1667.05
366.72	1603.56
366.93	1710.05
367.14	1652.71
367.35	1847.27
367.56	1699.81
367.77	1765.35
367.98	1669.09
368.18	1787.88
368.39	1662.95
368.60	1658.85
368.81	1695.72
369.02	1681.38
369.23	1669.09
369.44	1630.18
369.65	1632.23
369.86	1695.72
370.07	1724.39
370.28	1669.09
370.49	1791.97
370.70	1687.53
370.91	1665.00
371.12	1628.14
371.33	1642.47
371.54	1656.81
371.75	1834.98
371.96	1589.22
372.17	1714.15
372.38	1679.33
372.59	1712.10
372.80	1638.38
373.01	1722.34
373.22	1683.43
373.43	1691.62
373.64	1695.72
373.85	1714.15
374.06	1828.84
374.26	1765.35
374.47	1697.77
374.68	1796.07
374.89	1675.24
375.10	1662.95
375.31	1796.07
375.52	1734.63
375.73	1636.33
375.94	1648.61
376.15	1773.54
376.36	1669.09
376.57	1669.09
376.78	1720.29
376.99	1691.62
377.20	1765.35
377.40	1638.38
377.61	1800.16
377.82	1710.05
378.03	1740.77
378.24	1771.49
378.45	1656.81
378.66	1689.57
378.87	1607.66
379.08	1626.09
379.29	1675.24
379.50	1773.54
379.71	1685.48
379.91	1710.05
380.12	1720.29
380.33	1665.00
380.54	1665.00
380.75	1685.48
380.96	1734.63
381.17	1779.68
381.38	1767.40
381.59	1765.35
381.80	1683.43
382.00	1796.07
382.21	1726.44
382.42	1806.31
382.63	1875.94
382.84	1744.87
383.05	1785.83
383.26	1783.78
383.47	1751.01
383.68	1789.92
383.88	1669.09
384.09	1665.00
384.30	1824.74
384.51	1708.01
384.72	1683.43
384.93	1671.14
385.14	1703.91
385.35	1812.45
385.55	1615.85
385.76	1834.98
385.97	1695.72
386.18	1667.05
386.39	1693.67
386.60	1662.95
386.81	1691.62
387.02	1685.48
387.22	1685.48
387.43	1708.01
387.64	1761.25
387.85	1843.17
388.06	2213.85
388.27	4390.84
388.48	6666.14
388.68	8144.77
388.89	9658.22
389.10	9645.93
389.31	8509.31
389.52	7425.93
389.73	6748.06
389.93	6272.93
390.14	5685.16
390.35	5031.86
390.56	4464.57
390.77	3688.39
390.98	3067.86
391.18	2553.82
391.39	2107.36
391.60	1849.32
391.81	1814.50
392.02	1691.62
392.23	1785.83
392.43	1685.48
392.64	1751.01
392.85	1695.72
393.06	1771.49
393.27	1781.73
393.47	1673.19
393.68	1681.38
393.89	1642.47
394.10	1718.25
394.31	1628.14
394.52	1611.75
394.72	1726.44
394.93	1736.68
395.14	1619.94
395.35	1789.92
395.56	1675.24
395.76	1728.49
395.97	1787.88
396.18	1871.84
396.39	1814.50
396.60	2033.63
396.80	1837.03
397.01	1791.97
397.22	1855.46
397.43	1845.22
397.64	1755.11
397.84	1869.80
398.05	1855.46
398.26	1718.25
398.47	1820.64
398.67	1708.01
398.88	1804.26
399.09	1697.77
399.30	1708.01
399.51	1798.12
399.71	1671.14
399.92	1720.29
400.13	1703.91
400.34	1640.42
400.54	1695.72
400.75	1740.77
400.96	1718.25
401.17	1710.05
401.37	1744.87
401.58	1695.72
401.79	1658.85
402.00	1839.08
402.21	2013.15
402.41	1951.71
402.62	1935.33
402.83	1976.29
403.04	2004.96
403.24	2086.88
403.45	1863.65
403.66	1933.28
403.87	1861.60
404.07	1964.00
404.28	1888.23
404.49	1890.28
404.70	1748.97
404.90	1748.97
405.11	1673.19
405.32	1785.83
405.52	1665.00
405.73	1621.99
405.94	1691.62
406.15	1734.63
406.35	1734.63
406.56	1730.53
406.77	1755.11
406.98	1726.44
407.18	1714.15
407.39	1773.54
407.60	1755.11
407.80	1769.44
408.01	1644.52
408.22	1751.01
408.43	1665.00
408.63	1689.57
408.84	1798.12
409.05	1767.40
409.25	1710.05
409.46	1689.57
409.67	1701.86
409.88	1708.01
410.08	1693.67
410.29	1701.86
410.50	1718.25
410.70	1656.81
410.91	1685.48
411.12	1705.96
411.32	1703.91
411.53	1708.01
411.74	1849.32
411.95	1791.97
412.15	1714.15
412.36	1787.88
412.57	1759.21
412.77	1736.68
412.98	1691.62
413.19	1673.19
413.39	1732.58
413.60	1751.01
413.81	1804.26
414.01	1783.78
414.22	1681.38
414.43	1794.02
414.63	1648.61
414.84	1779.68
415.05	1695.72
415.25	1607.66
415.46	1738.73
415.67	1634.28
415.87	1816.55
416.08	1669.09
416.29	1738.73
416.49	1697.77
416.70	1669.09
416.91	1683.43
417.11	1728.49
417.32	1781.73
417.53	1746.92
417.73	1705.96
417.94	1693.67
418.15	1665.00
418.35	1716.20
418.56	1742.82
418.77	1863.65
418.97	1636.33
419.18	1751.01
419.38	1576.94
419.59	1681.38
419.80	1732.58
420.00	1638.38
420.21	1718.25
420.42	1845.22
420.62	1699.81
420.83	1697.77
421.04	1724.39
421.24	1740.77
421.45	1820.64
421.65	1714.15
421.86	1646.57
422.07	1751.01
422.27	1697.77
422.48	1742.82
422.69	1656.81
422.89	1773.54
423.10	1687.53
423.30	1679.33
423.51	1632.23
423.72	1716.20
423.92	1751.01
424.13	1609.70
424.33	1654.76
424.54	1765.35
424.75	1732.58
424.95	1765.35
425.16	1789.92
425.36	1673.19
425.57	1830.88
425.78	1748.97
425.98	1785.83
426.19	1689.57
426.39	1630.18
426.60	1685.48
426.81	1751.01
427.01	1660.90
427.22	1574.89
427.42	1634.28
427.63	1628.14
427.83	1683.43
428.04	1794.02
428.25	1751.01
428.45	1751.01
428.66	1818.60
428.86	1738.73
429.07	1605.61
429.28	1705.96
429.48	1748.97
429.69	1669.09
429.89	1705.96
430.10	1667.05
430.30	1685.48
430.51	1843.17
430.71	1642.47
430.92	1644.52
431.13	1638.38
431.33	1705.96
431.54	1648.61
431.74	1765.35
431.95	1816.55
432.15	1660.90
432.36	1744.87
432.56	1773.54
432.77	1826.79
432.98	1742.82
433.18	1685.48
433.39	1757.16
433.59	1687.53
433.80	1804.26
434.00	1789.92
434.21	1681.38
434.41	1646.57
434.62	1845.22
434.82	1667.05
435.03	1693.67
435.23	1736.68
435.44	1640.42
435.64	1693.67
435.85	1791.97
436.06	1748.97
436.26	1710.05
436.47	1732.58
436.67	1675.24
436.88	1691.62
437.08	1701.86
437.29	1728.49
437.49	1718.25
437.70	1796.07
437.90	1724.39
438.11	1787.88
438.31	1757.16
438.52	1775.59
438.72	1802.21
438.93	1908.71
439.13	1753.06
439.34	1785.83
439.54	1744.87
439.75	1865.70
439.95	1738.73
440.16	1714.15
440.36	1720.29
440.57	1734.63
440.77	1787.88
440.98	1777.64
441.18	1705.96
441.39	1671.14
441.59	1714.15
441.80	1757.16
442.00	1746.92
442.21	1814.50
442.41	1712.10
442.62	1777.64
442.82	1724.39
443.02	1738.73
443.23	1804.26
443.43	1705.96
443.64	1810.40
443.84	1640.42
444.05	1800.16
444.25	1759.21
444.46	1636.33
444.66	1736.68
444.87	1800.16
445.07	1648.61
445.28	1636.33
445.48	1738.73
445.69	1806.31
445.89	1914.85
446.09	1736.68
446.30	1945.57
446.50	2625.50
446.71	3766.21
446.91	4241.34
447.12	4726.71
447.32	4853.69
447.53	4270.01
447.73	3794.89
447.93	3532.75
448.14	3282.89
448.34	3178.45
448.55	2985.94
448.75	2893.78
448.96	2662.36
449.16	2361.31
449.36	2303.96
449.57	2011.11
449.77	1914.85
449.98	1820.64
450.18	1814.50
450.39	1767.40
450.59	1736.68
450.79	1746.92
451.00	1753.06
451.20	1732.58
451.41	1804.26
451.61	1820.64
451.81	1683.43
452.02	1732.58
452.22	1681.38
452.43	1687.53
452.63	1695.72
