SpectraSuite Data File
++++++++++++++++++++++++++++++++++++
Date: Mon Jun 06 13:12:37 CEST 2016
User: root
Dark Spectrum Present: No
Reference Spectrum Present: No
Number of Sampled Component Spectra: 1
Spectrometers: USB4C02835
Integration Time (usec): 100000 (USB4C02835)
Spectra Averaged: 1 (USB4C02835)
Boxcar Smoothing: 0 (USB4C02835)
Correct for Electrical Dark: No (USB4C02835)
Strobe/Lamp Enabled: No (USB4C02835)
Correct for Detector Non-linearity: No (USB4C02835)
Correct for Stray Light: No (USB4C02835)
Number of Pixels in Processed Spectrum: 3648
>>>>>Begin Processed Spectral Data<<<<<
177.47	1497.07
177.69	1497.07
177.91	1497.07
178.13	1484.78
178.36	1492.97
178.58	1677.29
178.80	1658.85
179.02	1634.28
179.24	1679.33
179.46	1738.73
179.68	1841.12
179.90	1638.38
180.13	1689.57
180.35	1720.29
180.57	1722.34
180.79	1734.63
181.01	1753.06
181.23	1718.25
181.45	1755.11
181.67	1662.95
181.90	1767.40
182.12	1736.68
182.34	1677.29
182.56	1722.34
182.78	1660.90
183.00	1646.57
183.22	1748.97
183.44	1617.90
183.66	1841.12
183.89	1679.33
184.11	1619.94
184.33	1632.23
184.55	1802.21
184.77	1718.25
184.99	1644.52
185.21	1642.47
185.43	1871.84
185.65	1701.86
185.87	1726.44
186.10	1800.16
186.32	1820.64
186.54	1632.23
186.76	1800.16
186.98	1757.16
187.20	1632.23
187.42	1712.10
187.64	1701.86
187.86	1771.49
188.08	1736.68
188.30	1675.24
188.52	1609.70
188.75	1724.39
188.97	1728.49
189.19	1703.91
189.41	1722.34
189.63	1669.09
189.85	1671.14
190.07	1554.41
190.29	1669.09
190.51	1716.20
190.73	1587.18
190.95	1769.44
191.17	1759.21
191.39	1646.57
191.61	1695.72
191.84	1615.85
192.06	1726.44
192.28	1648.61
192.50	1875.94
192.72	1742.82
192.94	1687.53
193.16	1708.01
193.38	1699.81
193.60	1646.57
193.82	1742.82
194.04	1830.88
194.26	1671.14
194.48	1730.53
194.70	1615.85
194.92	1667.05
195.14	1738.73
195.36	1638.38
195.58	1703.91
195.80	1679.33
196.02	1722.34
196.24	1697.77
196.46	1693.67
196.69	1675.24
196.91	1849.32
197.13	1660.90
197.35	1646.57
197.57	1849.32
197.79	1701.86
198.01	1753.06
198.23	1751.01
198.45	1734.63
198.67	1591.27
198.89	1724.39
199.11	1699.81
199.33	1685.48
199.55	1566.70
199.77	1665.00
199.99	1822.69
200.21	1746.92
200.43	1705.96
200.65	1605.61
200.87	1591.27
201.09	1679.33
201.31	1660.90
201.53	1775.59
201.75	1738.73
201.97	1658.85
202.19	1722.34
202.41	1712.10
202.63	1892.32
202.85	1845.22
203.07	1630.18
203.29	1669.09
203.51	1714.15
203.73	1646.57
203.95	1849.32
204.17	1710.05
204.39	1751.01
204.61	1701.86
204.83	1722.34
205.05	1728.49
205.27	1808.36
205.49	1863.65
205.71	1714.15
205.93	1646.57
206.15	1654.76
206.37	1658.85
206.59	1632.23
206.81	1669.09
207.03	1665.00
207.25	1656.81
207.47	1806.31
207.69	1662.95
207.91	1791.97
208.13	1814.50
208.34	1720.29
208.56	1701.86
208.78	1699.81
209.00	1658.85
209.22	1675.24
209.44	1685.48
209.66	1634.28
209.88	1673.19
210.10	1669.09
210.32	1660.90
210.54	1726.44
210.76	1646.57
210.98	1787.88
211.20	1540.07
211.42	1734.63
211.64	1787.88
211.86	1701.86
212.08	1685.48
212.30	1656.81
212.52	1689.57
212.74	1744.87
212.96	1660.90
213.17	1744.87
213.39	1718.25
213.61	1816.55
213.83	1789.92
214.05	1658.85
214.27	1730.53
214.49	1640.42
214.71	1665.00
214.93	1712.10
215.15	1650.66
215.37	1734.63
215.59	1652.71
215.81	1619.94
216.03	1734.63
216.24	1701.86
216.46	1656.81
216.68	1708.01
216.90	1724.39
217.12	1755.11
217.34	1800.16
217.56	1681.38
217.78	1806.31
218.00	1689.57
218.22	1681.38
218.44	1665.00
218.66	1781.73
218.87	1726.44
219.09	1689.57
219.31	1675.24
219.53	1738.73
219.75	1644.52
219.97	1677.29
220.19	1693.67
220.41	1724.39
220.63	1757.16
220.85	1742.82
221.06	1679.33
221.28	1734.63
221.50	1677.29
221.72	1736.68
221.94	1736.68
222.16	1681.38
222.38	1783.78
222.60	1757.16
222.82	1708.01
223.03	1744.87
223.25	1681.38
223.47	1658.85
223.69	1779.68
223.91	1781.73
224.13	1671.14
224.35	1644.52
224.57	1726.44
224.78	1722.34
225.00	1660.90
225.22	1638.38
225.44	1656.81
225.66	1730.53
225.88	1701.86
226.10	1798.12
226.32	1693.67
226.53	1828.84
226.75	1730.53
226.97	1734.63
227.19	1675.24
227.41	1574.89
227.63	1607.66
227.85	1611.75
228.06	1671.14
228.28	1734.63
228.50	1761.25
228.72	1695.72
228.94	1693.67
229.16	1626.09
229.37	1763.30
229.59	1679.33
229.81	1757.16
230.03	1740.77
230.25	1597.42
230.47	1624.04
230.69	1665.00
230.90	1703.91
231.12	1681.38
231.34	1765.35
231.56	1824.74
231.78	1685.48
232.00	1683.43
232.21	1693.67
232.43	1595.37
232.65	1597.42
232.87	1722.34
233.09	1628.14
233.30	1773.54
233.52	1800.16
233.74	1769.44
233.96	1646.57
234.18	1691.62
234.40	1685.48
234.61	1834.98
234.83	1640.42
235.05	1726.44
235.27	1775.59
235.49	1714.15
235.70	1703.91
235.92	1755.11
236.14	1687.53
236.36	1830.88
236.58	1638.38
236.79	1738.73
237.01	1658.85
237.23	1728.49
237.45	1757.16
237.67	1615.85
237.88	1671.14
238.10	1734.63
238.32	1662.95
238.54	1685.48
238.76	1703.91
238.97	1634.28
239.19	1673.19
239.41	1738.73
239.63	1759.21
239.85	1671.14
240.06	1628.14
240.28	1654.76
240.50	1738.73
240.72	1714.15
240.93	1665.00
241.15	1816.55
241.37	1681.38
241.59	1710.05
241.81	1675.24
242.02	1710.05
242.24	1794.02
242.46	1751.01
242.68	1648.61
242.89	1718.25
243.11	1898.47
243.33	1693.67
243.55	1738.73
243.76	1703.91
243.98	1609.70
244.20	1722.34
244.42	1724.39
244.64	1746.92
244.85	1587.18
245.07	1712.10
245.29	1689.57
245.51	1660.90
245.72	1665.00
245.94	1748.97
246.16	1642.47
246.38	1736.68
246.59	1679.33
246.81	1656.81
247.03	1662.95
247.24	1636.33
247.46	1681.38
247.68	1740.77
247.90	1705.96
248.11	1689.57
248.33	1685.48
248.55	1662.95
248.77	1724.39
248.98	1796.07
249.20	1800.16
249.42	1724.39
249.64	1683.43
249.85	1689.57
250.07	1564.65
250.29	1771.49
250.50	1800.16
250.72	1576.94
250.94	1693.67
251.16	1853.41
251.37	1761.25
251.59	1718.25
251.81	1755.11
252.02	1730.53
252.24	1667.05
252.46	1724.39
252.68	1648.61
252.89	1615.85
253.11	1685.48
253.33	1767.40
253.54	1802.21
253.76	1636.33
253.98	1667.05
254.20	1681.38
254.41	1679.33
254.63	1716.20
254.85	1636.33
255.06	1705.96
255.28	1742.82
255.50	1687.53
255.71	1599.46
255.93	1589.22
256.15	1708.01
256.36	1710.05
256.58	1613.80
256.80	1695.72
257.02	1652.71
257.23	1726.44
257.45	1701.86
257.67	1722.34
257.88	1665.00
258.10	1730.53
258.32	1685.48
258.53	1699.81
258.75	1777.64
258.97	1648.61
259.18	1765.35
259.40	1757.16
259.62	1736.68
259.83	1800.16
260.05	1718.25
260.27	2000.87
260.48	1693.67
260.70	1667.05
260.92	1685.48
261.13	1640.42
261.35	1646.57
261.57	1685.48
261.78	1597.42
262.00	1648.61
262.22	1708.01
262.43	1679.33
262.65	1669.09
262.86	1722.34
263.08	1800.16
263.30	1662.95
263.51	1597.42
263.73	1636.33
263.95	1693.67
264.16	1595.37
264.38	1693.67
264.60	1669.09
264.81	1677.29
265.03	1734.63
265.25	1712.10
265.46	1648.61
265.68	1736.68
265.89	1624.04
266.11	1624.04
266.33	1722.34
266.54	1847.27
266.76	1720.29
266.98	1773.54
267.19	1751.01
267.41	1708.01
267.62	1708.01
267.84	1558.50
268.06	1714.15
268.27	1759.21
268.49	1753.06
268.70	1693.67
268.92	1703.91
269.14	1665.00
269.35	1619.94
269.57	1650.66
269.79	1718.25
270.00	1710.05
270.22	1728.49
270.43	1695.72
270.65	1591.27
270.87	1724.39
271.08	1734.63
271.30	1794.02
271.51	1669.09
271.73	1675.24
271.95	1687.53
272.16	1705.96
272.38	1703.91
272.59	1621.99
272.81	1660.90
273.02	1718.25
273.24	1781.73
273.46	1857.51
273.67	1730.53
273.89	1660.90
274.10	1667.05
274.32	1660.90
274.54	1718.25
274.75	1757.16
274.97	1615.85
275.18	1785.83
275.40	1718.25
275.61	1662.95
275.83	1746.92
276.05	1619.94
276.26	1628.14
276.48	1753.06
276.69	1710.05
276.91	1611.75
277.12	1816.55
277.34	1736.68
277.55	1771.49
277.77	1744.87
277.99	1689.57
278.20	1560.55
278.42	1665.00
278.63	1652.71
278.85	1720.29
279.06	1597.42
279.28	1714.15
279.49	1779.68
279.71	1783.78
279.93	1665.00
280.14	1671.14
280.36	1613.80
280.57	1751.01
280.79	1763.30
281.00	1689.57
281.22	1607.66
281.43	1787.88
281.65	1583.08
281.86	1705.96
282.08	1640.42
282.29	1746.92
282.51	1636.33
282.73	1619.94
282.94	1585.13
283.16	1697.77
283.37	1791.97
283.59	1710.05
283.80	1787.88
284.02	1732.58
284.23	1693.67
284.45	1705.96
284.66	1669.09
284.88	1619.94
285.09	1669.09
285.31	1791.97
285.52	1695.72
285.74	1665.00
285.95	1800.16
286.17	1687.53
286.38	1753.06
286.60	1624.04
286.81	1619.94
287.03	1665.00
287.24	1675.24
287.46	1751.01
287.67	1624.04
287.89	1849.32
288.10	1767.40
288.32	1675.24
288.53	1736.68
288.75	1679.33
288.96	1759.21
289.18	1648.61
289.39	1636.33
289.61	1771.49
289.82	1781.73
290.04	1742.82
290.25	1603.56
290.47	1738.73
290.68	1665.00
290.90	1744.87
291.11	1642.47
291.33	1728.49
291.54	1624.04
291.76	1693.67
291.97	1679.33
292.18	1693.67
292.40	1673.19
292.61	1683.43
292.83	1845.22
293.04	1714.15
293.26	1685.48
293.47	1652.71
293.69	1679.33
293.90	1685.48
294.12	1759.21
294.33	1710.05
294.55	1736.68
294.76	1767.40
294.97	1841.12
295.19	1841.12
295.40	1619.94
295.62	1716.20
295.83	1771.49
296.05	1701.86
296.26	1685.48
296.48	1654.76
296.69	1677.29
296.90	1632.23
297.12	1767.40
297.33	1787.88
297.55	1769.44
297.76	1726.44
297.98	1652.71
298.19	1765.35
298.41	1671.14
298.62	1697.77
298.83	1744.87
299.05	1710.05
299.26	1658.85
299.48	1642.47
299.69	1787.88
299.90	1720.29
300.12	1583.08
300.33	1759.21
300.55	1703.91
300.76	1705.96
300.98	1634.28
301.19	1712.10
301.40	1650.66
301.62	1675.24
301.83	1701.86
302.05	1734.63
302.26	1708.01
302.47	1660.90
302.69	1615.85
302.90	1703.91
303.12	1624.04
303.33	1693.67
303.54	1820.64
303.76	1683.43
303.97	1673.19
304.19	1802.21
304.40	1660.90
304.61	1705.96
304.83	1818.60
305.04	1697.77
305.26	1701.86
305.47	1638.38
305.68	1656.81
305.90	1652.71
306.11	1716.20
306.33	1642.47
306.54	1687.53
306.75	1724.39
306.97	1677.29
307.18	1714.15
307.39	1654.76
307.61	1665.00
307.82	1703.91
308.04	1755.11
308.25	1683.43
308.46	1673.19
308.68	1660.90
308.89	1722.34
309.10	1699.81
309.32	1791.97
309.53	1681.38
309.74	1767.40
309.96	1671.14
310.17	1800.16
310.39	1685.48
310.60	1718.25
310.81	1769.44
311.03	1650.66
311.24	1712.10
311.45	1662.95
311.67	1783.78
311.88	1673.19
312.09	1597.42
312.31	1609.70
312.52	1708.01
312.73	1697.77
312.95	1671.14
313.16	1652.71
313.37	1845.22
313.59	1722.34
313.80	1746.92
314.01	1787.88
314.23	1626.09
314.44	1656.81
314.65	1611.75
314.87	1685.48
315.08	1669.09
315.29	1636.33
315.51	1628.14
315.72	1617.90
315.93	1787.88
316.15	1712.10
316.36	1628.14
316.57	1783.78
316.79	1726.44
317.00	1669.09
317.21	1689.57
317.43	1652.71
317.64	1740.77
317.85	1687.53
318.07	1642.47
318.28	1679.33
318.49	1785.83
318.70	1910.75
318.92	1781.73
319.13	1755.11
319.34	1880.04
319.56	1779.68
319.77	1773.54
319.98	1757.16
320.20	1775.59
320.41	1847.27
320.62	1746.92
320.83	1691.62
321.05	1841.12
321.26	1730.53
321.47	1761.25
321.69	1732.58
321.90	1638.38
322.11	1665.00
322.32	1683.43
322.54	1708.01
322.75	1656.81
322.96	1787.88
323.18	1687.53
323.39	1554.41
323.60	1660.90
323.81	1753.06
324.03	1640.42
324.24	1714.15
324.45	1687.53
324.66	1665.00
324.88	1658.85
325.09	1775.59
325.30	1710.05
325.52	1724.39
325.73	1722.34
325.94	1593.32
326.15	1640.42
326.37	1636.33
326.58	1734.63
326.79	1806.31
327.00	1673.19
327.22	1746.92
327.43	1652.71
327.64	1630.18
327.85	1734.63
328.07	1685.48
328.28	1798.12
328.49	1665.00
328.70	1708.01
328.92	1693.67
329.13	1660.90
329.34	1691.62
329.55	1787.88
329.76	1730.53
329.98	1648.61
330.19	1775.59
330.40	1736.68
330.61	1652.71
330.83	1726.44
331.04	1640.42
331.25	1611.75
331.46	1650.66
331.68	1621.99
331.89	1675.24
332.10	1683.43
332.31	1597.42
332.52	1763.30
332.74	1724.39
332.95	1574.89
333.16	1632.23
333.37	1685.48
333.58	1703.91
333.80	1705.96
334.01	1632.23
334.22	1626.09
334.43	1675.24
334.64	1759.21
334.86	1566.70
335.07	1656.81
335.28	1779.68
335.49	1591.27
335.70	1771.49
335.92	1714.15
336.13	1853.41
336.34	1703.91
336.55	1718.25
336.76	1695.72
336.98	1603.56
337.19	1646.57
337.40	1775.59
337.61	1855.46
337.82	1720.29
338.04	1728.49
338.25	1662.95
338.46	1656.81
338.67	1716.20
338.88	1646.57
339.09	1652.71
339.31	1687.53
339.52	1656.81
339.73	1669.09
339.94	1705.96
340.15	1755.11
340.36	1640.42
340.58	1695.72
340.79	1683.43
341.00	1673.19
341.21	1667.05
341.42	1791.97
341.63	1708.01
341.85	1693.67
342.06	1671.14
342.27	1765.35
342.48	1716.20
342.69	1652.71
342.90	1773.54
343.12	1730.53
343.33	1726.44
343.54	1665.00
343.75	1853.41
343.96	1687.53
344.17	1605.61
344.38	1673.19
344.60	1716.20
344.81	1648.61
345.02	1644.52
345.23	1734.63
345.44	1857.51
345.65	1751.01
345.86	1681.38
346.07	1665.00
346.29	1636.33
346.50	1697.77
346.71	1751.01
346.92	1794.02
347.13	1824.74
347.34	1677.29
347.55	1685.48
347.76	1624.04
347.98	1624.04
348.19	1710.05
348.40	1746.92
348.61	1693.67
348.82	1824.74
349.03	1769.44
349.24	1660.90
349.45	1755.11
349.66	1640.42
349.88	1730.53
350.09	1648.61
350.30	1714.15
350.51	1787.88
350.72	1722.34
350.93	1691.62
351.14	1583.08
351.35	1771.49
351.56	1650.66
351.77	1613.80
351.99	1732.58
352.20	1669.09
352.41	1787.88
352.62	1572.84
352.83	1783.78
353.04	1669.09
353.25	1628.14
353.46	1701.86
353.67	1734.63
353.88	1667.05
354.09	1660.90
354.30	1705.96
354.52	1761.25
354.73	1695.72
354.94	1619.94
355.15	1716.20
355.36	1759.21
355.57	1712.10
355.78	1665.00
355.99	1658.85
356.20	1697.77
356.41	1734.63
356.62	1802.21
356.83	1789.92
357.04	1800.16
357.25	1597.42
357.46	1722.34
357.68	1652.71
357.89	1675.24
358.10	1667.05
358.31	1705.96
358.52	1730.53
358.73	1724.39
358.94	1646.57
359.15	1712.10
359.36	1734.63
359.57	1652.71
359.78	1654.76
359.99	1794.02
360.20	1642.47
360.41	1671.14
360.62	1757.16
360.83	1724.39
361.04	1697.77
361.25	1810.40
361.46	1742.82
361.67	1779.68
361.88	1683.43
362.09	1742.82
362.30	1724.39
362.51	1667.05
362.72	1650.66
362.93	1794.02
363.14	1738.73
363.35	1720.29
363.56	1681.38
363.78	1722.34
363.99	1685.48
364.20	1628.14
364.41	1685.48
364.62	1746.92
364.83	1718.25
365.04	1716.20
365.25	1642.47
365.46	1740.77
365.67	1662.95
365.88	1581.03
366.09	1710.05
366.30	1677.29
366.51	1632.23
366.72	1710.05
366.93	1665.00
367.14	1726.44
367.35	1783.78
367.56	1648.61
367.77	1763.30
367.98	1650.66
368.18	1703.91
368.39	1697.77
368.60	1650.66
368.81	1771.49
369.02	1695.72
369.23	1691.62
369.44	1648.61
369.65	1636.33
369.86	1744.87
370.07	1777.64
370.28	1689.57
370.49	1720.29
370.70	1699.81
370.91	1656.81
371.12	1603.56
371.33	1751.01
371.54	1656.81
371.75	1763.30
371.96	1609.70
372.17	1595.37
372.38	1646.57
372.59	1705.96
372.80	1667.05
373.01	1650.66
373.22	1761.25
373.43	1652.71
373.64	1681.38
373.85	1720.29
374.06	1787.88
374.26	1759.21
374.47	1722.34
374.68	1773.54
374.89	1699.81
375.10	1673.19
375.31	1765.35
375.52	1695.72
375.73	1703.91
375.94	1671.14
376.15	1757.16
376.36	1615.85
376.57	1730.53
376.78	1669.09
376.99	1712.10
377.20	1726.44
377.40	1617.90
377.61	1781.73
377.82	1630.18
378.03	1759.21
378.24	1783.78
378.45	1705.96
378.66	1665.00
378.87	1685.48
379.08	1665.00
379.29	1656.81
379.50	1722.34
379.71	1697.77
379.91	1660.90
380.12	1722.34
380.33	1675.24
380.54	1669.09
380.75	1675.24
380.96	1732.58
381.17	1671.14
381.38	1705.96
381.59	1699.81
381.80	1697.77
382.00	1826.79
382.21	1728.49
382.42	1847.27
382.63	1882.08
382.84	1728.49
383.05	1751.01
383.26	1804.26
383.47	1798.12
383.68	1726.44
383.88	1718.25
384.09	1783.78
384.30	1781.73
384.51	1697.77
384.72	1732.58
384.93	1576.94
385.14	1716.20
385.35	1820.64
385.55	1626.09
385.76	1734.63
385.97	1753.06
386.18	1685.48
386.39	1705.96
386.60	1662.95
386.81	1720.29
387.02	1650.66
387.22	1691.62
387.43	1763.30
387.64	1771.49
387.85	1890.28
388.06	2181.09
388.27	4364.22
388.48	6623.13
388.68	8097.67
388.89	9621.36
389.10	9760.62
389.31	8511.36
389.52	7499.66
389.73	6752.15
389.93	6334.37
390.14	5894.05
390.35	5169.07
390.56	4497.34
390.77	3751.88
390.98	2910.16
391.18	2527.19
391.39	2142.18
391.60	1861.60
391.81	1787.88
392.02	1759.21
392.23	1791.97
392.43	1705.96
392.64	1779.68
392.85	1710.05
393.06	1847.27
393.27	1730.53
393.47	1687.53
393.68	1689.57
393.89	1695.72
394.10	1697.77
394.31	1695.72
394.52	1665.00
394.72	1722.34
394.93	1822.69
395.14	1591.27
395.35	1665.00
395.56	1699.81
395.76	1777.64
395.97	1746.92
396.18	1787.88
396.39	1900.52
396.60	2035.68
396.80	1943.52
397.01	1837.03
397.22	1800.16
397.43	1859.56
397.64	1693.67
397.84	1785.83
398.05	1871.84
398.26	1810.40
398.47	1734.63
398.67	1783.78
398.88	1753.06
399.09	1746.92
399.30	1732.58
399.51	1675.24
399.71	1757.16
399.92	1656.81
400.13	1730.53
400.34	1689.57
400.54	1683.43
400.75	1824.74
400.96	1708.01
401.17	1863.65
401.37	1746.92
401.58	1763.30
401.79	1722.34
402.00	1877.99
402.21	2076.64
402.41	1992.67
402.62	2017.25
402.83	1994.72
403.04	1998.82
403.24	2111.46
403.45	1845.22
403.66	1861.60
403.87	1812.45
404.07	1912.80
404.28	1953.76
404.49	1837.03
404.70	1845.22
404.90	1779.68
405.11	1699.81
405.32	1699.81
405.52	1630.18
405.73	1638.38
405.94	1652.71
406.15	1644.52
406.35	1785.83
406.56	1740.77
406.77	1660.90
406.98	1693.67
407.18	1638.38
407.39	1818.60
407.60	1689.57
407.80	1771.49
408.01	1744.87
408.22	1712.10
408.43	1652.71
408.63	1746.92
408.84	1683.43
409.05	1705.96
409.25	1644.52
409.46	1632.23
409.67	1619.94
409.88	1675.24
410.08	1728.49
410.29	1654.76
410.50	1753.06
410.70	1718.25
410.91	1703.91
411.12	1724.39
411.32	1718.25
411.53	1660.90
411.74	1738.73
411.95	1718.25
412.15	1755.11
412.36	1755.11
412.57	1708.01
412.77	1818.60
412.98	1794.02
413.19	1742.82
413.39	1740.77
413.60	1673.19
413.81	1818.60
414.01	1671.14
414.22	1644.52
414.43	1783.78
414.63	1689.57
414.84	1742.82
415.05	1671.14
415.25	1617.90
415.46	1740.77
415.67	1714.15
415.87	1726.44
416.08	1652.71
416.29	1621.99
416.49	1730.53
416.70	1658.85
416.91	1652.71
417.11	1621.99
417.32	1759.21
417.53	1732.58
417.73	1658.85
417.94	1675.24
418.15	1734.63
418.35	1757.16
418.56	1732.58
418.77	1810.40
418.97	1765.35
419.18	1732.58
419.38	1660.90
419.59	1691.62
419.80	1789.92
420.00	1722.34
420.21	1697.77
420.42	1736.68
420.62	1718.25
420.83	1673.19
421.04	1746.92
421.24	1722.34
421.45	1712.10
421.65	1718.25
421.86	1703.91
422.07	1720.29
422.27	1687.53
422.48	1753.06
422.69	1648.61
422.89	1716.20
423.10	1654.76
423.30	1669.09
423.51	1736.68
423.72	1683.43
423.92	1746.92
424.13	1732.58
424.33	1681.38
424.54	1816.55
424.75	1689.57
424.95	1726.44
425.16	1730.53
425.36	1722.34
425.57	1759.21
425.78	1771.49
425.98	1748.97
426.19	1681.38
426.39	1685.48
426.60	1714.15
426.81	1841.12
427.01	1669.09
427.22	1708.01
427.42	1652.71
427.63	1697.77
427.83	1767.40
428.04	1708.01
428.25	1845.22
428.45	1814.50
428.66	1785.83
428.86	1703.91
429.07	1683.43
429.28	1716.20
429.48	1734.63
429.69	1628.14
429.89	1763.30
430.10	1722.34
430.30	1730.53
430.51	1740.77
430.71	1673.19
430.92	1648.61
431.13	1660.90
431.33	1712.10
431.54	1703.91
431.74	1814.50
431.95	1804.26
432.15	1695.72
432.36	1703.91
432.56	1703.91
432.77	1877.99
432.98	1800.16
433.18	1720.29
433.39	1632.23
433.59	1593.32
433.80	1863.65
434.00	1927.14
434.21	1693.67
434.41	1658.85
434.62	1814.50
434.82	1662.95
435.03	1736.68
435.23	1722.34
435.44	1658.85
435.64	1703.91
435.85	1828.84
436.06	1765.35
436.26	1773.54
436.47	1708.01
436.67	1685.48
436.88	1724.39
437.08	1755.11
437.29	1845.22
437.49	1662.95
437.70	1767.40
437.90	1705.96
438.11	1843.17
438.31	1716.20
438.52	1820.64
438.72	1818.60
438.93	1918.95
439.13	1771.49
439.34	1779.68
439.54	1726.44
439.75	1763.30
439.95	1763.30
440.16	1658.85
440.36	1794.02
440.57	1808.36
440.77	1689.57
440.98	1732.58
441.18	1814.50
441.39	1640.42
441.59	1646.57
441.80	1861.60
442.00	1699.81
442.21	1755.11
442.41	1660.90
442.62	1755.11
442.82	1667.05
443.02	1746.92
443.23	1765.35
443.43	1757.16
443.64	1742.82
443.84	1671.14
444.05	1777.64
444.25	1697.77
444.46	1691.62
444.66	1656.81
444.87	1826.79
445.07	1695.72
445.28	1744.87
445.48	1763.30
445.69	1689.57
445.89	1867.75
446.09	1812.45
446.30	2090.98
446.50	2602.97
446.71	3661.77
446.91	4272.06
447.12	4777.91
447.32	4913.08
447.53	4190.14
447.73	3792.84
447.93	3512.27
448.14	3262.41
448.34	3160.02
448.55	2840.53
448.75	2926.55
448.96	2709.46
449.16	2398.17
449.36	2205.66
449.57	2064.35
449.77	1945.57
449.98	1832.93
450.18	1781.73
450.39	1759.21
450.59	1779.68
450.79	1687.53
451.00	1726.44
451.20	1710.05
451.41	1660.90
451.61	1806.31
451.81	1828.84
452.02	1697.77
452.22	1699.81
452.43	1701.86
452.63	1687.53
