SpectraSuite Data File
++++++++++++++++++++++++++++++++++++
Date: Mon Jun 06 16:05:37 CEST 2016
User: root
Dark Spectrum Present: No
Reference Spectrum Present: No
Number of Sampled Component Spectra: 1
Spectrometers: USB4C02835
Integration Time (usec): 100000 (USB4C02835)
Spectra Averaged: 1 (USB4C02835)
Boxcar Smoothing: 0 (USB4C02835)
Correct for Electrical Dark: No (USB4C02835)
Strobe/Lamp Enabled: No (USB4C02835)
Correct for Detector Non-linearity: No (USB4C02835)
Correct for Stray Light: No (USB4C02835)
Number of Pixels in Processed Spectrum: 3648
>>>>>Begin Processed Spectral Data<<<<<
177.47	1492.97
177.69	1492.97
177.91	1492.97
178.13	1404.91
178.36	1495.02
178.58	1615.85
178.80	1781.73
179.02	1681.38
179.24	1689.57
179.46	1689.57
179.68	1730.53
179.90	1732.58
180.13	1714.15
180.35	1658.85
180.57	1703.91
180.79	1773.54
181.01	1669.09
181.23	1771.49
181.45	1828.84
181.67	1746.92
181.90	1732.58
182.12	1603.56
182.34	1658.85
182.56	1710.05
182.78	1732.58
183.00	1675.24
183.22	1783.78
183.44	1595.37
183.66	1865.70
183.89	1808.36
184.11	1654.76
184.33	1734.63
184.55	1769.44
184.77	1671.14
184.99	1650.66
185.21	1738.73
185.43	1939.43
185.65	1796.07
185.87	1716.20
186.10	1847.27
186.32	1894.37
186.54	1728.49
186.76	1783.78
186.98	1744.87
187.20	1763.30
187.42	1634.28
187.64	1740.77
187.86	1767.40
188.08	1763.30
188.30	1693.67
188.52	1720.29
188.75	1748.97
188.97	1757.16
189.19	1701.86
189.41	1656.81
189.63	1697.77
189.85	1783.78
190.07	1660.90
190.29	1591.27
190.51	1738.73
190.73	1681.38
190.95	1808.36
191.17	1701.86
191.39	1628.14
191.61	1662.95
191.84	1677.29
192.06	1675.24
192.28	1662.95
192.50	1816.55
192.72	1771.49
192.94	1755.11
193.16	1761.25
193.38	1769.44
193.60	1589.22
193.82	1708.01
194.04	1773.54
194.26	1730.53
194.48	1765.35
194.70	1708.01
194.92	1654.76
195.14	1789.92
195.36	1640.42
195.58	1681.38
195.80	1667.05
196.02	1683.43
196.24	1679.33
196.46	1691.62
196.69	1609.70
196.91	1824.74
197.13	1716.20
197.35	1648.61
197.57	1824.74
197.79	1771.49
198.01	1722.34
198.23	1736.68
198.45	1722.34
198.67	1683.43
198.89	1724.39
199.11	1681.38
199.33	1744.87
199.55	1599.46
199.77	1708.01
199.99	1861.60
200.21	1675.24
200.43	1757.16
200.65	1656.81
200.87	1583.08
201.09	1708.01
201.31	1746.92
201.53	1771.49
201.75	1732.58
201.97	1796.07
202.19	1675.24
202.41	1744.87
202.63	1914.85
202.85	1673.19
203.07	1751.01
203.29	1697.77
203.51	1689.57
203.73	1587.18
203.95	1871.84
204.17	1693.67
204.39	1740.77
204.61	1781.73
204.83	1742.82
205.05	1728.49
205.27	1775.59
205.49	1847.27
205.71	1736.68
205.93	1669.09
206.15	1724.39
206.37	1734.63
206.59	1730.53
206.81	1679.33
207.03	1705.96
207.25	1683.43
207.47	1746.92
207.69	1769.44
207.91	1751.01
208.13	1759.21
208.34	1710.05
208.56	1656.81
208.78	1765.35
209.00	1662.95
209.22	1632.23
209.44	1634.28
209.66	1685.48
209.88	1648.61
210.10	1759.21
210.32	1722.34
210.54	1757.16
210.76	1789.92
210.98	1791.97
211.20	1626.09
211.42	1738.73
211.64	1787.88
211.86	1746.92
212.08	1787.88
212.30	1767.40
212.52	1748.97
212.74	1634.28
212.96	1624.04
213.17	1748.97
213.39	1777.64
213.61	1722.34
213.83	1722.34
214.05	1689.57
214.27	1777.64
214.49	1658.85
214.71	1703.91
214.93	1830.88
215.15	1689.57
215.37	1720.29
215.59	1636.33
215.81	1683.43
216.03	1810.40
216.24	1755.11
216.46	1621.99
216.68	1695.72
216.90	1794.02
217.12	1748.97
217.34	1687.53
217.56	1832.93
217.78	1841.12
218.00	1730.53
218.22	1691.62
218.44	1748.97
218.66	1675.24
218.87	1757.16
219.09	1726.44
219.31	1765.35
219.53	1755.11
219.75	1703.91
219.97	1779.68
220.19	1718.25
220.41	1732.58
220.63	1748.97
220.85	1751.01
221.06	1746.92
221.28	1802.21
221.50	1716.20
221.72	1675.24
221.94	1687.53
222.16	1685.48
222.38	1722.34
222.60	1716.20
222.82	1689.57
223.03	1673.19
223.25	1581.03
223.47	1746.92
223.69	1791.97
223.91	1794.02
224.13	1632.23
224.35	1710.05
224.57	1810.40
224.78	1687.53
225.00	1660.90
225.22	1677.29
225.44	1779.68
225.66	1843.17
225.88	1730.53
226.10	1742.82
226.32	1732.58
226.53	1796.07
226.75	1652.71
226.97	1716.20
227.19	1751.01
227.41	1675.24
227.63	1681.38
227.85	1628.14
228.06	1714.15
228.28	1705.96
228.50	1763.30
228.72	1679.33
228.94	1589.22
229.16	1615.85
229.37	1681.38
229.59	1691.62
229.81	1767.40
230.03	1677.29
230.25	1626.09
230.47	1662.95
230.69	1669.09
230.90	1785.83
231.12	1677.29
231.34	1636.33
231.56	1806.31
231.78	1699.81
232.00	1738.73
232.21	1740.77
232.43	1753.06
232.65	1624.04
232.87	1738.73
233.09	1718.25
233.30	1701.86
233.52	1728.49
233.74	1761.25
233.96	1658.85
234.18	1689.57
234.40	1689.57
234.61	1787.88
234.83	1650.66
235.05	1591.27
235.27	1771.49
235.49	1796.07
235.70	1738.73
235.92	1763.30
236.14	1708.01
236.36	1877.99
236.58	1658.85
236.79	1814.50
237.01	1716.20
237.23	1689.57
237.45	1841.12
237.67	1712.10
237.88	1687.53
238.10	1814.50
238.32	1603.56
238.54	1677.29
238.76	1714.15
238.97	1562.60
239.19	1675.24
239.41	1697.77
239.63	1763.30
239.85	1701.86
240.06	1734.63
240.28	1665.00
240.50	1753.06
240.72	1650.66
240.93	1722.34
241.15	1751.01
241.37	1708.01
241.59	1751.01
241.81	1658.85
242.02	1589.22
242.24	1714.15
242.46	1785.83
242.68	1624.04
242.89	1732.58
243.11	1763.30
243.33	1773.54
243.55	1728.49
243.76	1757.16
243.98	1617.90
244.20	1656.81
244.42	1734.63
244.64	1697.77
244.85	1689.57
245.07	1703.91
245.29	1775.59
245.51	1665.00
245.72	1726.44
245.94	1746.92
246.16	1744.87
246.38	1689.57
246.59	1636.33
246.81	1687.53
247.03	1665.00
247.24	1605.61
247.46	1665.00
247.68	1669.09
247.90	1720.29
248.11	1730.53
248.33	1773.54
248.55	1744.87
248.77	1736.68
248.98	1783.78
249.20	1765.35
249.42	1675.24
249.64	1734.63
249.85	1699.81
250.07	1689.57
250.29	1701.86
250.50	1734.63
250.72	1646.57
250.94	1775.59
251.16	1806.31
251.37	1935.33
251.59	1755.11
251.81	1734.63
252.02	1857.51
252.24	1746.92
252.46	1804.26
252.68	1697.77
252.89	1679.33
253.11	1617.90
253.33	1830.88
253.54	1832.93
253.76	1630.18
253.98	1771.49
254.20	1689.57
254.41	1621.99
254.63	1695.72
254.85	1685.48
255.06	1724.39
255.28	1726.44
255.50	1708.01
255.71	1665.00
255.93	1570.79
256.15	1638.38
256.36	1748.97
256.58	1693.67
256.80	1677.29
257.02	1646.57
257.23	1673.19
257.45	1662.95
257.67	1787.88
257.88	1652.71
258.10	1665.00
258.32	1738.73
258.53	1746.92
258.75	1746.92
258.97	1636.33
259.18	1695.72
259.40	1685.48
259.62	1744.87
259.83	1798.12
260.05	1714.15
260.27	1984.48
260.48	1763.30
260.70	1605.61
260.92	1689.57
261.13	1767.40
261.35	1658.85
261.57	1785.83
261.78	1636.33
262.00	1599.46
262.22	1804.26
262.43	1613.80
262.65	1703.91
262.86	1744.87
263.08	1918.95
263.30	1724.39
263.51	1626.09
263.73	1751.01
263.95	1759.21
264.16	1697.77
264.38	1699.81
264.60	1781.73
264.81	1738.73
265.03	1783.78
265.25	1757.16
265.46	1718.25
265.68	1755.11
265.89	1757.16
266.11	1628.14
266.33	1775.59
266.54	1798.12
266.76	1705.96
266.98	1777.64
267.19	1802.21
267.41	1804.26
267.62	1667.05
267.84	1656.81
268.06	1730.53
268.27	1781.73
268.49	1738.73
268.70	1710.05
268.92	1658.85
269.14	1710.05
269.35	1658.85
269.57	1691.62
269.79	1800.16
270.00	1761.25
270.22	1847.27
270.43	1644.52
270.65	1615.85
270.87	1763.30
271.08	1734.63
271.30	1738.73
271.51	1693.67
271.73	1736.68
271.95	1804.26
272.16	1736.68
272.38	1736.68
272.59	1734.63
272.81	1753.06
273.02	1736.68
273.24	1820.64
273.46	1724.39
273.67	1662.95
273.89	1740.77
274.10	1619.94
274.32	1744.87
274.54	1736.68
274.75	1753.06
274.97	1648.61
275.18	1763.30
275.40	1746.92
275.61	1603.56
275.83	1755.11
276.05	1632.23
276.26	1693.67
276.48	1730.53
276.69	1712.10
276.91	1656.81
277.12	1763.30
277.34	1722.34
277.55	1785.83
277.77	1740.77
277.99	1732.58
278.20	1642.47
278.42	1560.55
278.63	1753.06
278.85	1738.73
279.06	1693.67
279.28	1710.05
279.49	1767.40
279.71	1714.15
279.93	1759.21
280.14	1816.55
280.36	1699.81
280.57	1724.39
280.79	1763.30
281.00	1632.23
281.22	1693.67
281.43	1771.49
281.65	1656.81
281.86	1662.95
282.08	1714.15
282.29	1814.50
282.51	1589.22
282.73	1521.64
282.94	1638.38
283.16	1740.77
283.37	1875.94
283.59	1697.77
283.80	1691.62
284.02	1695.72
284.23	1796.07
284.45	1685.48
284.66	1667.05
284.88	1656.81
285.09	1742.82
285.31	1796.07
285.52	1679.33
285.74	1615.85
285.95	1769.44
286.17	1673.19
286.38	1798.12
286.60	1648.61
286.81	1742.82
287.03	1640.42
287.24	1708.01
287.46	1726.44
287.67	1665.00
287.89	1769.44
288.10	1636.33
288.32	1812.45
288.53	1677.29
288.75	1755.11
288.96	1732.58
289.18	1648.61
289.39	1656.81
289.61	1773.54
289.82	1888.23
290.04	1773.54
290.25	1689.57
290.47	1660.90
290.68	1734.63
290.90	1705.96
291.11	1658.85
291.33	1728.49
291.54	1654.76
291.76	1722.34
291.97	1695.72
292.18	1722.34
292.40	1757.16
292.61	1660.90
292.83	1875.94
293.04	1740.77
293.26	1708.01
293.47	1667.05
293.69	1671.14
293.90	1726.44
294.12	1791.97
294.33	1701.86
294.55	1705.96
294.76	1808.36
294.97	1869.80
295.19	1806.31
295.40	1738.73
295.62	1687.53
295.83	1699.81
296.05	1652.71
296.26	1753.06
296.48	1716.20
296.69	1722.34
296.90	1712.10
297.12	1728.49
297.33	1742.82
297.55	1660.90
297.76	1746.92
297.98	1753.06
298.19	1742.82
298.41	1705.96
298.62	1701.86
298.83	1814.50
299.05	1683.43
299.26	1703.91
299.48	1714.15
299.69	1796.07
299.90	1742.82
300.12	1761.25
300.33	1738.73
300.55	1720.29
300.76	1742.82
300.98	1701.86
301.19	1804.26
301.40	1699.81
301.62	1718.25
301.83	1687.53
302.05	1730.53
302.26	1742.82
302.47	1826.79
302.69	1644.52
302.90	1679.33
303.12	1697.77
303.33	1789.92
303.54	1849.32
303.76	1656.81
303.97	1716.20
304.19	1832.93
304.40	1722.34
304.61	1732.58
304.83	1896.42
305.04	1820.64
305.26	1773.54
305.47	1712.10
305.68	1748.97
305.90	1589.22
306.11	1730.53
306.33	1693.67
306.54	1665.00
306.75	1679.33
306.97	1665.00
307.18	1714.15
307.39	1726.44
307.61	1718.25
307.82	1710.05
308.04	1820.64
308.25	1660.90
308.46	1802.21
308.68	1652.71
308.89	1714.15
309.10	1804.26
309.32	1730.53
309.53	1728.49
309.74	1748.97
309.96	1751.01
310.17	1834.98
310.39	1613.80
310.60	1837.03
310.81	1734.63
311.03	1636.33
311.24	1722.34
311.45	1787.88
311.67	1814.50
311.88	1726.44
312.09	1708.01
312.31	1693.67
312.52	1679.33
312.73	1685.48
312.95	1687.53
313.16	1632.23
313.37	1791.97
313.59	1730.53
313.80	1710.05
314.01	1738.73
314.23	1687.53
314.44	1638.38
314.65	1599.46
314.87	1665.00
315.08	1640.42
315.29	1691.62
315.51	1648.61
315.72	1589.22
315.93	1853.41
316.15	1738.73
316.36	1685.48
316.57	1697.77
316.79	1722.34
317.00	1732.58
317.21	1718.25
317.43	1677.29
317.64	1716.20
317.85	1730.53
318.07	1626.09
318.28	1738.73
318.49	1873.89
318.70	1970.15
318.92	1849.32
319.13	1861.60
319.34	1804.26
319.56	1763.30
319.77	1818.60
319.98	1785.83
320.20	1767.40
320.41	1736.68
320.62	1791.97
320.83	1667.05
321.05	1857.51
321.26	1757.16
321.47	1712.10
321.69	1798.12
321.90	1656.81
322.11	1771.49
322.32	1722.34
322.54	1810.40
322.75	1716.20
322.96	1871.84
323.18	1621.99
323.39	1607.66
323.60	1705.96
323.81	1740.77
324.03	1691.62
324.24	1658.85
324.45	1724.39
324.66	1722.34
324.88	1740.77
325.09	1834.98
325.30	1681.38
325.52	1744.87
325.73	1841.12
325.94	1572.84
326.15	1656.81
326.37	1705.96
326.58	1726.44
326.79	1783.78
327.00	1693.67
327.22	1751.01
327.43	1671.14
327.64	1660.90
327.85	1746.92
328.07	1718.25
328.28	1779.68
328.49	1656.81
328.70	1671.14
328.92	1751.01
329.13	1675.24
329.34	1740.77
329.55	1902.56
329.76	1708.01
329.98	1656.81
330.19	1755.11
330.40	1675.24
330.61	1787.88
330.83	1732.58
331.04	1576.94
331.25	1761.25
331.46	1687.53
331.68	1665.00
331.89	1775.59
332.10	1753.06
332.31	1640.42
332.52	1783.78
332.74	1781.73
332.95	1730.53
333.16	1693.67
333.37	1789.92
333.58	1710.05
333.80	1798.12
334.01	1681.38
334.22	1708.01
334.43	1675.24
334.64	1671.14
334.86	1681.38
335.07	1699.81
335.28	1791.97
335.49	1603.56
335.70	1710.05
335.92	1771.49
336.13	1900.52
336.34	1773.54
336.55	1787.88
336.76	1716.20
336.98	1640.42
337.19	1705.96
337.40	1746.92
337.61	1832.93
337.82	1634.28
338.04	1724.39
338.25	1662.95
338.46	1736.68
338.67	1767.40
338.88	1626.09
339.09	1624.04
339.31	1771.49
339.52	1568.74
339.73	1624.04
339.94	1761.25
340.15	1746.92
340.36	1736.68
340.58	1806.31
340.79	1648.61
341.00	1814.50
341.21	1595.37
341.42	1802.21
341.63	1771.49
341.85	1781.73
342.06	1708.01
342.27	1740.77
342.48	1748.97
342.69	1660.90
342.90	1660.90
343.12	1748.97
343.33	1712.10
343.54	1759.21
343.75	1708.01
343.96	1675.24
344.17	1652.71
344.38	1720.29
344.60	1673.19
344.81	1650.66
345.02	1746.92
345.23	1726.44
345.44	1886.18
345.65	1794.02
345.86	1742.82
346.07	1718.25
346.29	1669.09
346.50	1771.49
346.71	1714.15
346.92	1742.82
347.13	1859.56
347.34	1714.15
347.55	1708.01
347.76	1677.29
347.98	1585.13
348.19	1644.52
348.40	1755.11
348.61	1615.85
348.82	1796.07
349.03	1740.77
349.24	1724.39
349.45	1746.92
349.66	1558.50
349.88	1757.16
350.09	1660.90
350.30	1726.44
350.51	1804.26
350.72	1787.88
350.93	1734.63
351.14	1673.19
351.35	1738.73
351.56	1748.97
351.77	1732.58
351.99	1753.06
352.20	1908.71
352.41	1746.92
352.62	1615.85
352.83	1734.63
353.04	1695.72
353.25	1638.38
353.46	1773.54
353.67	1808.36
353.88	1566.70
354.09	1779.68
354.30	1685.48
354.52	1767.40
354.73	1716.20
354.94	1669.09
355.15	1689.57
355.36	1837.03
355.57	1742.82
355.78	1697.77
355.99	1755.11
356.20	1677.29
356.41	1812.45
356.62	1662.95
356.83	1712.10
357.04	1802.21
357.25	1578.98
357.46	1701.86
357.68	1617.90
357.89	1658.85
358.10	1695.72
358.31	1767.40
358.52	1705.96
358.73	1581.03
358.94	1671.14
359.15	1679.33
359.36	1748.97
359.57	1748.97
359.78	1748.97
359.99	1679.33
360.20	1662.95
360.41	1720.29
360.62	1734.63
360.83	1757.16
361.04	1726.44
361.25	1679.33
361.46	1824.74
361.67	1785.83
361.88	1773.54
362.09	1720.29
362.30	1726.44
362.51	1701.86
362.72	1716.20
362.93	1722.34
363.14	1783.78
363.35	1701.86
363.56	1675.24
363.78	1755.11
363.99	1730.53
364.20	1679.33
364.41	1781.73
364.62	1865.70
364.83	1701.86
365.04	1689.57
365.25	1730.53
365.46	1748.97
365.67	1683.43
365.88	1644.52
366.09	1628.14
366.30	1710.05
366.51	1726.44
366.72	1718.25
366.93	1781.73
367.14	1673.19
367.35	1794.02
367.56	1681.38
367.77	1746.92
367.98	1779.68
368.18	1701.86
368.39	1734.63
368.60	1679.33
368.81	1781.73
369.02	1755.11
369.23	1765.35
369.44	1665.00
369.65	1751.01
369.86	1724.39
370.07	1699.81
370.28	1701.86
370.49	1779.68
370.70	1683.43
370.91	1636.33
371.12	1685.48
371.33	1697.77
371.54	1746.92
371.75	1824.74
371.96	1583.08
372.17	1716.20
372.38	1699.81
372.59	1726.44
372.80	1689.57
373.01	1740.77
373.22	1714.15
373.43	1677.29
373.64	1726.44
373.85	1796.07
374.06	1755.11
374.26	1767.40
374.47	1740.77
374.68	1757.16
374.89	1677.29
375.10	1673.19
375.31	1816.55
375.52	1708.01
375.73	1720.29
375.94	1705.96
376.15	1822.69
376.36	1701.86
376.57	1638.38
376.78	1730.53
376.99	1675.24
377.20	1779.68
377.40	1757.16
377.61	1857.51
377.82	1748.97
378.03	1789.92
378.24	1796.07
378.45	1695.72
378.66	1755.11
378.87	1603.56
379.08	1576.94
379.29	1710.05
379.50	1761.25
379.71	1693.67
379.91	1736.68
380.12	1658.85
380.33	1699.81
380.54	1683.43
380.75	1716.20
380.96	1748.97
381.17	1730.53
381.38	1775.59
381.59	1687.53
381.80	1683.43
382.00	1806.31
382.21	1744.87
382.42	1853.41
382.63	1875.94
382.84	1822.69
383.05	1624.04
383.26	1830.88
383.47	1699.81
383.68	1820.64
383.88	1730.53
384.09	1796.07
384.30	1820.64
384.51	1761.25
384.72	1693.67
384.93	1773.54
385.14	1757.16
385.35	1798.12
385.55	1660.90
385.76	1771.49
385.97	1722.34
386.18	1669.09
386.39	1761.25
386.60	1712.10
386.81	1708.01
387.02	1724.39
387.22	1722.34
387.43	1779.68
387.64	1841.12
387.85	1818.60
388.06	2162.66
388.27	4190.14
388.48	6653.85
388.68	8245.12
388.89	9488.24
389.10	9647.98
389.31	8599.42
389.52	7546.76
389.73	6707.10
389.93	6051.75
390.14	5838.76
390.35	5070.77
390.56	4663.22
390.77	3715.02
390.98	3008.47
391.18	2551.77
391.39	2179.04
391.60	1920.99
391.81	1875.94
392.02	1748.97
392.23	1873.89
392.43	1746.92
392.64	1826.79
392.85	1785.83
393.06	1859.56
393.27	1730.53
393.47	1705.96
393.68	1714.15
393.89	1712.10
394.10	1824.74
394.31	1689.57
394.52	1673.19
394.72	1742.82
394.93	1828.84
395.14	1667.05
395.35	1767.40
395.56	1703.91
395.76	1822.69
395.97	1826.79
396.18	1816.55
396.39	1824.74
396.60	2060.26
396.80	1810.40
397.01	1869.80
397.22	1783.78
397.43	1820.64
397.64	1712.10
397.84	1857.51
398.05	1886.18
398.26	1816.55
398.47	1751.01
398.67	1847.27
398.88	1738.73
399.09	1771.49
399.30	1708.01
399.51	1794.02
399.71	1693.67
399.92	1695.72
400.13	1781.73
400.34	1730.53
400.54	1689.57
400.75	1820.64
400.96	1685.48
401.17	1865.70
401.37	1738.73
401.58	1734.63
401.79	1710.05
402.00	1818.60
402.21	1996.77
402.41	1968.10
402.62	2004.96
402.83	2052.06
403.04	2027.49
403.24	2076.64
403.45	1779.68
403.66	1986.53
403.87	1886.18
404.07	1873.89
404.28	1873.89
404.49	1914.85
404.70	1812.45
404.90	1845.22
405.11	1763.30
405.32	1714.15
405.52	1687.53
405.73	1773.54
405.94	1671.14
406.15	1763.30
406.35	1781.73
406.56	1691.62
406.77	1685.48
406.98	1763.30
407.18	1705.96
407.39	1763.30
407.60	1701.86
407.80	1761.25
408.01	1632.23
408.22	1736.68
408.43	1611.75
408.63	1787.88
408.84	1826.79
409.05	1773.54
409.25	1730.53
409.46	1636.33
409.67	1738.73
409.88	1689.57
410.08	1714.15
410.29	1656.81
410.50	1757.16
410.70	1740.77
410.91	1726.44
411.12	1658.85
411.32	1658.85
411.53	1697.77
411.74	1763.30
411.95	1810.40
412.15	1695.72
412.36	1757.16
412.57	1746.92
412.77	1853.41
412.98	1775.59
413.19	1669.09
413.39	1808.36
413.60	1791.97
413.81	1802.21
414.01	1697.77
414.22	1763.30
414.43	1722.34
414.63	1699.81
414.84	1714.15
415.05	1746.92
415.25	1656.81
415.46	1710.05
415.67	1660.90
415.87	1753.06
416.08	1722.34
416.29	1730.53
416.49	1771.49
416.70	1755.11
416.91	1640.42
417.11	1769.44
417.32	1751.01
417.53	1759.21
417.73	1765.35
417.94	1736.68
418.15	1703.91
418.35	1751.01
418.56	1728.49
418.77	1822.69
418.97	1662.95
419.18	1660.90
419.38	1574.89
419.59	1687.53
419.80	1755.11
420.00	1705.96
420.21	1693.67
420.42	1681.38
420.62	1781.73
420.83	1685.48
421.04	1722.34
421.24	1701.86
421.45	1753.06
421.65	1753.06
421.86	1693.67
422.07	1806.31
422.27	1748.97
422.48	1665.00
422.69	1726.44
422.89	1720.29
423.10	1687.53
423.30	1728.49
423.51	1708.01
423.72	1736.68
423.92	1781.73
424.13	1644.52
424.33	1828.84
424.54	1742.82
424.75	1720.29
424.95	1892.32
425.16	1787.88
425.36	1708.01
425.57	1755.11
425.78	1722.34
425.98	1798.12
426.19	1742.82
426.39	1644.52
426.60	1703.91
426.81	1853.41
427.01	1798.12
427.22	1626.09
427.42	1593.32
427.63	1703.91
427.83	1744.87
428.04	1779.68
428.25	1839.08
428.45	1746.92
428.66	1767.40
428.86	1708.01
429.07	1703.91
429.28	1701.86
429.48	1710.05
429.69	1718.25
429.89	1710.05
430.10	1675.24
430.30	1708.01
430.51	1771.49
430.71	1714.15
430.92	1710.05
431.13	1722.34
431.33	1773.54
431.54	1798.12
431.74	1759.21
431.95	1869.80
432.15	1734.63
432.36	1673.19
432.56	1826.79
432.77	1847.27
432.98	1816.55
433.18	1722.34
433.39	1667.05
433.59	1701.86
433.80	1828.84
434.00	1880.04
434.21	1769.44
434.41	1634.28
434.62	1849.32
434.82	1638.38
435.03	1593.32
435.23	1669.09
435.44	1638.38
435.64	1751.01
435.85	1703.91
436.06	1701.86
436.26	1738.73
436.47	1755.11
436.67	1624.04
436.88	1783.78
437.08	1761.25
437.29	1808.36
437.49	1736.68
437.70	1755.11
437.90	1746.92
438.11	1898.47
438.31	1765.35
438.52	1886.18
438.72	1820.64
438.93	1890.28
439.13	1802.21
439.34	1810.40
439.54	1765.35
439.75	1853.41
439.95	1767.40
440.16	1730.53
440.36	1767.40
440.57	1796.07
440.77	1742.82
440.98	1710.05
441.18	1697.77
441.39	1669.09
441.59	1685.48
441.80	1886.18
442.00	1736.68
442.21	1834.98
442.41	1748.97
442.62	1779.68
442.82	1652.71
443.02	1775.59
443.23	1740.77
443.43	1669.09
443.64	1808.36
443.84	1691.62
444.05	1820.64
444.25	1732.58
444.46	1701.86
444.66	1746.92
444.87	1834.98
445.07	1693.67
445.28	1775.59
445.48	1845.22
445.69	1804.26
445.89	1857.51
446.09	1748.97
446.30	2078.69
446.50	2623.45
446.71	3665.86
446.91	4290.49
447.12	4655.03
447.32	4931.51
447.53	4411.32
447.73	3819.46
447.93	3645.38
448.14	3317.71
448.34	3129.30
448.55	2783.19
448.75	2783.19
448.96	2725.85
449.16	2437.08
449.36	2287.58
449.57	2127.84
449.77	1826.79
449.98	1818.60
450.18	1820.64
450.39	1816.55
450.59	1804.26
450.79	1771.49
451.00	1746.92
451.20	1751.01
451.41	1765.35
451.61	1748.97
451.81	1775.59
452.02	1736.68
452.22	1742.82
452.43	1779.68
452.63	1808.36
