SpectraSuite Data File
++++++++++++++++++++++++++++++++++++
Date: Mon Jun 06 15:50:37 CEST 2016
User: root
Dark Spectrum Present: No
Reference Spectrum Present: No
Number of Sampled Component Spectra: 1
Spectrometers: USB4C02835
Integration Time (usec): 100000 (USB4C02835)
Spectra Averaged: 1 (USB4C02835)
Boxcar Smoothing: 0 (USB4C02835)
Correct for Electrical Dark: No (USB4C02835)
Strobe/Lamp Enabled: No (USB4C02835)
Correct for Detector Non-linearity: No (USB4C02835)
Correct for Stray Light: No (USB4C02835)
Number of Pixels in Processed Spectrum: 3648
>>>>>Begin Processed Spectral Data<<<<<
177.47	1497.07
177.69	1497.07
177.91	1497.07
178.13	1507.30
178.36	1417.19
178.58	1675.24
178.80	1791.97
179.02	1677.29
179.24	1710.05
179.46	1675.24
179.68	1746.92
179.90	1665.00
180.13	1687.53
180.35	1632.23
180.57	1716.20
180.79	1730.53
181.01	1695.72
181.23	1814.50
181.45	1785.83
181.67	1775.59
181.90	1701.86
182.12	1673.19
182.34	1679.33
182.56	1740.77
182.78	1701.86
183.00	1642.47
183.22	1722.34
183.44	1617.90
183.66	1855.46
183.89	1779.68
184.11	1640.42
184.33	1730.53
184.55	1751.01
184.77	1673.19
184.99	1718.25
185.21	1646.57
185.43	1941.47
185.65	1646.57
185.87	1738.73
186.10	1751.01
186.32	1861.60
186.54	1677.29
186.76	1695.72
186.98	1789.92
187.20	1738.73
187.42	1705.96
187.64	1708.01
187.86	1828.84
188.08	1808.36
188.30	1660.90
188.52	1703.91
188.75	1910.75
188.97	1740.77
189.19	1642.47
189.41	1689.57
189.63	1767.40
189.85	1701.86
190.07	1624.04
190.29	1626.09
190.51	1777.64
190.73	1679.33
190.95	1751.01
191.17	1742.82
191.39	1607.66
191.61	1679.33
191.84	1718.25
192.06	1738.73
192.28	1646.57
192.50	1832.93
192.72	1701.86
192.94	1675.24
193.16	1697.77
193.38	1726.44
193.60	1634.28
193.82	1679.33
194.04	1791.97
194.26	1808.36
194.48	1785.83
194.70	1675.24
194.92	1648.61
195.14	1751.01
195.36	1695.72
195.58	1732.58
195.80	1687.53
196.02	1665.00
196.24	1767.40
196.46	1785.83
196.69	1660.90
196.91	1830.88
197.13	1621.99
197.35	1636.33
197.57	1853.41
197.79	1697.77
198.01	1755.11
198.23	1722.34
198.45	1691.62
198.67	1671.14
198.89	1673.19
199.11	1728.49
199.33	1681.38
199.55	1576.94
199.77	1665.00
199.99	1804.26
200.21	1722.34
200.43	1800.16
200.65	1691.62
200.87	1634.28
201.09	1748.97
201.31	1714.15
201.53	1712.10
201.75	1744.87
201.97	1777.64
202.19	1732.58
202.41	1763.30
202.63	1839.08
202.85	1734.63
203.07	1685.48
203.29	1708.01
203.51	1679.33
203.73	1634.28
203.95	1896.42
204.17	1712.10
204.39	1724.39
204.61	1621.99
204.83	1710.05
205.05	1640.42
205.27	1695.72
205.49	1847.27
205.71	1662.95
205.93	1617.90
206.15	1650.66
206.37	1728.49
206.59	1728.49
206.81	1667.05
207.03	1593.32
207.25	1607.66
207.47	1773.54
207.69	1722.34
207.91	1771.49
208.13	1736.68
208.34	1673.19
208.56	1662.95
208.78	1769.44
209.00	1701.86
209.22	1624.04
209.44	1701.86
209.66	1644.52
209.88	1734.63
210.10	1669.09
210.32	1730.53
210.54	1806.31
210.76	1703.91
210.98	1787.88
211.20	1605.61
211.42	1724.39
211.64	1712.10
211.86	1660.90
212.08	1714.15
212.30	1771.49
212.52	1693.67
212.74	1724.39
212.96	1722.34
213.17	1832.93
213.39	1722.34
213.61	1798.12
213.83	1736.68
214.05	1642.47
214.27	1869.80
214.49	1650.66
214.71	1531.88
214.93	1804.26
215.15	1675.24
215.37	1759.21
215.59	1646.57
215.81	1767.40
216.03	1787.88
216.24	1779.68
216.46	1728.49
216.68	1761.25
216.90	1806.31
217.12	1787.88
217.34	1708.01
217.56	1744.87
217.78	1748.97
218.00	1724.39
218.22	1751.01
218.44	1705.96
218.66	1726.44
218.87	1820.64
219.09	1689.57
219.31	1693.67
219.53	1726.44
219.75	1642.47
219.97	1718.25
220.19	1781.73
220.41	1679.33
220.63	1748.97
220.85	1699.81
221.06	1783.78
221.28	1830.88
221.50	1742.82
221.72	1691.62
221.94	1765.35
222.16	1714.15
222.38	1779.68
222.60	1662.95
222.82	1730.53
223.03	1808.36
223.25	1603.56
223.47	1785.83
223.69	1796.07
223.91	1712.10
224.13	1642.47
224.35	1685.48
224.57	1679.33
224.78	1671.14
225.00	1714.15
225.22	1693.67
225.44	1667.05
225.66	1759.21
225.88	1718.25
226.10	1791.97
226.32	1634.28
226.53	1830.88
226.75	1656.81
226.97	1751.01
227.19	1679.33
227.41	1726.44
227.63	1665.00
227.85	1654.76
228.06	1732.58
228.28	1673.19
228.50	1820.64
228.72	1615.85
228.94	1728.49
229.16	1660.90
229.37	1683.43
229.59	1695.72
229.81	1781.73
230.03	1632.23
230.25	1718.25
230.47	1652.71
230.69	1699.81
230.90	1746.92
231.12	1712.10
231.34	1652.71
231.56	1691.62
231.78	1662.95
232.00	1738.73
232.21	1712.10
232.43	1665.00
232.65	1628.14
232.87	1740.77
233.09	1599.46
233.30	1683.43
233.52	1775.59
233.74	1730.53
233.96	1669.09
234.18	1701.86
234.40	1656.81
234.61	1892.32
234.83	1658.85
235.05	1656.81
235.27	1804.26
235.49	1759.21
235.70	1736.68
235.92	1804.26
236.14	1679.33
236.36	1861.60
236.58	1646.57
236.79	1679.33
237.01	1695.72
237.23	1746.92
237.45	1791.97
237.67	1660.90
237.88	1656.81
238.10	1869.80
238.32	1746.92
238.54	1654.76
238.76	1718.25
238.97	1605.61
239.19	1638.38
239.41	1808.36
239.63	1824.74
239.85	1695.72
240.06	1759.21
240.28	1708.01
240.50	1726.44
240.72	1705.96
240.93	1718.25
241.15	1783.78
241.37	1724.39
241.59	1783.78
241.81	1587.18
242.02	1671.14
242.24	1699.81
242.46	1746.92
242.68	1662.95
242.89	1681.38
243.11	1763.30
243.33	1812.45
243.55	1767.40
243.76	1740.77
243.98	1640.42
244.20	1730.53
244.42	1808.36
244.64	1652.71
244.85	1738.73
245.07	1679.33
245.29	1767.40
245.51	1675.24
245.72	1753.06
245.94	1757.16
246.16	1718.25
246.38	1728.49
246.59	1726.44
246.81	1646.57
247.03	1710.05
247.24	1570.79
247.46	1636.33
247.68	1697.77
247.90	1742.82
248.11	1751.01
248.33	1818.60
248.55	1728.49
248.77	1763.30
248.98	1714.15
249.20	1777.64
249.42	1669.09
249.64	1638.38
249.85	1687.53
250.07	1669.09
250.29	1722.34
250.50	1740.77
250.72	1626.09
250.94	1751.01
251.16	1824.74
251.37	1716.20
251.59	1726.44
251.81	1722.34
252.02	1773.54
252.24	1621.99
252.46	1839.08
252.68	1621.99
252.89	1626.09
253.11	1638.38
253.33	1824.74
253.54	1771.49
253.76	1691.62
253.98	1751.01
254.20	1685.48
254.41	1603.56
254.63	1673.19
254.85	1665.00
255.06	1630.18
255.28	1755.11
255.50	1740.77
255.71	1621.99
255.93	1681.38
256.15	1697.77
256.36	1814.50
256.58	1705.96
256.80	1755.11
257.02	1736.68
257.23	1640.42
257.45	1746.92
257.67	1753.06
257.88	1669.09
258.10	1740.77
258.32	1691.62
258.53	1730.53
258.75	1753.06
258.97	1648.61
259.18	1705.96
259.40	1669.09
259.62	1816.55
259.83	1746.92
260.05	1703.91
260.27	1994.72
260.48	1763.30
260.70	1591.27
260.92	1714.15
261.13	1769.44
261.35	1685.48
261.57	1816.55
261.78	1601.51
262.00	1648.61
262.22	1783.78
262.43	1624.04
262.65	1703.91
262.86	1650.66
263.08	1789.92
263.30	1628.14
263.51	1677.29
263.73	1642.47
263.95	1775.59
264.16	1644.52
264.38	1673.19
264.60	1734.63
264.81	1769.44
265.03	1705.96
265.25	1757.16
265.46	1746.92
265.68	1771.49
265.89	1732.58
266.11	1656.81
266.33	1697.77
266.54	1814.50
266.76	1740.77
266.98	1705.96
267.19	1818.60
267.41	1798.12
267.62	1716.20
267.84	1595.37
268.06	1714.15
268.27	1712.10
268.49	1773.54
268.70	1791.97
268.92	1671.14
269.14	1652.71
269.35	1624.04
269.57	1812.45
269.79	1695.72
270.00	1726.44
270.22	1794.02
270.43	1591.27
270.65	1587.18
270.87	1720.29
271.08	1751.01
271.30	1765.35
271.51	1740.77
271.73	1656.81
271.95	1787.88
272.16	1687.53
272.38	1714.15
272.59	1722.34
272.81	1691.62
273.02	1724.39
273.24	1753.06
273.46	1673.19
273.67	1701.86
273.89	1687.53
274.10	1689.57
274.32	1775.59
274.54	1746.92
274.75	1804.26
274.97	1691.62
275.18	1771.49
275.40	1802.21
275.61	1748.97
275.83	1695.72
276.05	1640.42
276.26	1697.77
276.48	1736.68
276.69	1603.56
276.91	1640.42
277.12	1822.69
277.34	1769.44
277.55	1771.49
277.77	1746.92
277.99	1712.10
278.20	1656.81
278.42	1673.19
278.63	1701.86
278.85	1632.23
279.06	1675.24
279.28	1740.77
279.49	1714.15
279.71	1738.73
279.93	1779.68
280.14	1810.40
280.36	1722.34
280.57	1736.68
280.79	1722.34
281.00	1675.24
281.22	1662.95
281.43	1740.77
281.65	1581.03
281.86	1736.68
282.08	1720.29
282.29	1832.93
282.51	1636.33
282.73	1617.90
282.94	1656.81
283.16	1777.64
283.37	1847.27
283.59	1675.24
283.80	1763.30
284.02	1656.81
284.23	1679.33
284.45	1638.38
284.66	1597.42
284.88	1662.95
285.09	1697.77
285.31	1697.77
285.52	1712.10
285.74	1632.23
285.95	1685.48
286.17	1683.43
286.38	1830.88
286.60	1685.48
286.81	1755.11
287.03	1675.24
287.24	1691.62
287.46	1708.01
287.67	1683.43
287.89	1761.25
288.10	1730.53
288.32	1755.11
288.53	1726.44
288.75	1654.76
288.96	1781.73
289.18	1667.05
289.39	1660.90
289.61	1789.92
289.82	1808.36
290.04	1832.93
290.25	1658.85
290.47	1693.67
290.68	1728.49
290.90	1771.49
291.11	1597.42
291.33	1685.48
291.54	1624.04
291.76	1656.81
291.97	1697.77
292.18	1748.97
292.40	1650.66
292.61	1701.86
292.83	1837.03
293.04	1732.58
293.26	1740.77
293.47	1781.73
293.69	1642.47
293.90	1716.20
294.12	1742.82
294.33	1683.43
294.55	1716.20
294.76	1755.11
294.97	1691.62
295.19	1869.80
295.40	1712.10
295.62	1748.97
295.83	1736.68
296.05	1730.53
296.26	1812.45
296.48	1656.81
296.69	1675.24
296.90	1634.28
297.12	1697.77
297.33	1699.81
297.55	1644.52
297.76	1796.07
297.98	1822.69
298.19	1738.73
298.41	1720.29
298.62	1685.48
298.83	1818.60
299.05	1716.20
299.26	1669.09
299.48	1681.38
299.69	1845.22
299.90	1769.44
300.12	1742.82
300.33	1685.48
300.55	1669.09
300.76	1810.40
300.98	1640.42
301.19	1751.01
301.40	1732.58
301.62	1714.15
301.83	1703.91
302.05	1808.36
302.26	1781.73
302.47	1748.97
302.69	1705.96
302.90	1794.02
303.12	1611.75
303.33	1708.01
303.54	1837.03
303.76	1699.81
303.97	1779.68
304.19	1808.36
304.40	1660.90
304.61	1689.57
304.83	1859.56
305.04	1744.87
305.26	1773.54
305.47	1642.47
305.68	1628.14
305.90	1611.75
306.11	1771.49
306.33	1751.01
306.54	1671.14
306.75	1662.95
306.97	1642.47
307.18	1609.70
307.39	1638.38
307.61	1748.97
307.82	1667.05
308.04	1755.11
308.25	1730.53
308.46	1685.48
308.68	1710.05
308.89	1718.25
309.10	1703.91
309.32	1744.87
309.53	1677.29
309.74	1730.53
309.96	1703.91
310.17	1765.35
310.39	1673.19
310.60	1736.68
310.81	1722.34
311.03	1542.12
311.24	1742.82
311.45	1759.21
311.67	1779.68
311.88	1726.44
312.09	1726.44
312.31	1673.19
312.52	1677.29
312.73	1675.24
312.95	1673.19
313.16	1687.53
313.37	1738.73
313.59	1742.82
313.80	1708.01
314.01	1787.88
314.23	1640.42
314.44	1562.60
314.65	1595.37
314.87	1660.90
315.08	1689.57
315.29	1685.48
315.51	1744.87
315.72	1697.77
315.93	1882.08
316.15	1820.64
316.36	1689.57
316.57	1718.25
316.79	1849.32
317.00	1744.87
317.21	1775.59
317.43	1701.86
317.64	1714.15
317.85	1744.87
318.07	1669.09
318.28	1751.01
318.49	1828.84
318.70	1935.33
318.92	1812.45
319.13	1912.80
319.34	1853.41
319.56	1826.79
319.77	1746.92
319.98	1871.84
320.20	1812.45
320.41	1730.53
320.62	1773.54
320.83	1685.48
321.05	1832.93
321.26	1744.87
321.47	1722.34
321.69	1744.87
321.90	1650.66
322.11	1714.15
322.32	1691.62
322.54	1783.78
322.75	1650.66
322.96	1748.97
323.18	1607.66
323.39	1595.37
323.60	1665.00
323.81	1722.34
324.03	1685.48
324.24	1753.06
324.45	1705.96
324.66	1734.63
324.88	1736.68
325.09	1800.16
325.30	1695.72
325.52	1710.05
325.73	1687.53
325.94	1742.82
326.15	1656.81
326.37	1679.33
326.58	1757.16
326.79	1839.08
327.00	1675.24
327.22	1679.33
327.43	1689.57
327.64	1679.33
327.85	1742.82
328.07	1755.11
328.28	1791.97
328.49	1699.81
328.70	1730.53
328.92	1802.21
329.13	1701.86
329.34	1746.92
329.55	1810.40
329.76	1722.34
329.98	1693.67
330.19	1767.40
330.40	1796.07
330.61	1755.11
330.83	1722.34
331.04	1574.89
331.25	1740.77
331.46	1705.96
331.68	1689.57
331.89	1808.36
332.10	1673.19
332.31	1638.38
332.52	1728.49
332.74	1800.16
332.95	1755.11
333.16	1705.96
333.37	1701.86
333.58	1638.38
333.80	1726.44
334.01	1570.79
334.22	1675.24
334.43	1708.01
334.64	1693.67
334.86	1605.61
335.07	1712.10
335.28	1781.73
335.49	1755.11
335.70	1693.67
335.92	1853.41
336.13	1900.52
336.34	1710.05
336.55	1705.96
336.76	1763.30
336.98	1642.47
337.19	1748.97
337.40	1861.60
337.61	1957.86
337.82	1730.53
338.04	1761.25
338.25	1529.83
338.46	1681.38
338.67	1712.10
338.88	1685.48
339.09	1665.00
339.31	1691.62
339.52	1658.85
339.73	1710.05
339.94	1695.72
340.15	1679.33
340.36	1665.00
340.58	1716.20
340.79	1673.19
341.00	1832.93
341.21	1648.61
341.42	1814.50
341.63	1751.01
341.85	1761.25
342.06	1742.82
342.27	1566.70
342.48	1734.63
342.69	1599.46
342.90	1667.05
343.12	1781.73
343.33	1767.40
343.54	1722.34
343.75	1771.49
343.96	1708.01
344.17	1611.75
344.38	1687.53
344.60	1660.90
344.81	1738.73
345.02	1697.77
345.23	1785.83
345.44	1828.84
345.65	1751.01
345.86	1748.97
346.07	1710.05
346.29	1656.81
346.50	1751.01
346.71	1708.01
346.92	1851.36
347.13	1861.60
347.34	1738.73
347.55	1640.42
347.76	1783.78
347.98	1624.04
348.19	1693.67
348.40	1800.16
348.61	1701.86
348.82	1783.78
349.03	1736.68
349.24	1665.00
349.45	1748.97
349.66	1574.89
349.88	1693.67
350.09	1648.61
350.30	1794.02
350.51	1855.46
350.72	1693.67
350.93	1757.16
351.14	1624.04
351.35	1730.53
351.56	1652.71
351.77	1630.18
351.99	1718.25
352.20	1728.49
352.41	1810.40
352.62	1560.55
352.83	1732.58
353.04	1681.38
353.25	1693.67
353.46	1755.11
353.67	1734.63
353.88	1662.95
354.09	1845.22
354.30	1658.85
354.52	1834.98
354.73	1722.34
354.94	1675.24
355.15	1740.77
355.36	1794.02
355.57	1685.48
355.78	1748.97
355.99	1652.71
356.20	1679.33
356.41	1787.88
356.62	1693.67
356.83	1736.68
357.04	1800.16
357.25	1593.32
357.46	1646.57
357.68	1665.00
357.89	1648.61
358.10	1626.09
358.31	1710.05
358.52	1720.29
358.73	1677.29
358.94	1597.42
359.15	1665.00
359.36	1712.10
359.57	1705.96
359.78	1665.00
359.99	1789.92
360.20	1626.09
360.41	1656.81
360.62	1734.63
360.83	1660.90
361.04	1777.64
361.25	1734.63
361.46	1794.02
361.67	1751.01
361.88	1763.30
362.09	1714.15
362.30	1738.73
362.51	1703.91
362.72	1736.68
362.93	1783.78
363.14	1708.01
363.35	1777.64
363.56	1677.29
363.78	1710.05
363.99	1722.34
364.20	1693.67
364.41	1683.43
364.62	1761.25
364.83	1789.92
365.04	1755.11
365.25	1740.77
365.46	1773.54
365.67	1630.18
365.88	1632.23
366.09	1695.72
366.30	1742.82
366.51	1718.25
366.72	1697.77
366.93	1724.39
367.14	1763.30
367.35	1806.31
367.56	1662.95
367.77	1789.92
367.98	1687.53
368.18	1716.20
368.39	1718.25
368.60	1619.94
368.81	1759.21
369.02	1722.34
369.23	1710.05
369.44	1630.18
369.65	1699.81
369.86	1724.39
370.07	1775.59
370.28	1681.38
370.49	1656.81
370.70	1781.73
370.91	1593.32
371.12	1658.85
371.33	1796.07
371.54	1691.62
371.75	1855.46
371.96	1572.84
372.17	1710.05
372.38	1742.82
372.59	1800.16
372.80	1626.09
373.01	1681.38
373.22	1658.85
373.43	1777.64
373.64	1648.61
373.85	1710.05
374.06	1804.26
374.26	1697.77
374.47	1740.77
374.68	1742.82
374.89	1755.11
375.10	1687.53
375.31	1812.45
375.52	1755.11
375.73	1728.49
375.94	1691.62
376.15	1826.79
376.36	1636.33
376.57	1648.61
376.78	1777.64
376.99	1798.12
377.20	1808.36
377.40	1660.90
377.61	1830.88
377.82	1671.14
378.03	1839.08
378.24	1796.07
378.45	1583.08
378.66	1724.39
378.87	1718.25
379.08	1613.80
379.29	1751.01
379.50	1757.16
379.71	1675.24
379.91	1800.16
380.12	1656.81
380.33	1705.96
380.54	1753.06
380.75	1677.29
380.96	1693.67
381.17	1763.30
381.38	1671.14
381.59	1845.22
381.80	1677.29
382.00	1961.95
382.21	1744.87
382.42	1896.42
382.63	1865.70
382.84	1767.40
383.05	1787.88
383.26	1794.02
383.47	1703.91
383.68	1767.40
383.88	1673.19
384.09	1800.16
384.30	1837.03
384.51	1771.49
384.72	1681.38
384.93	1609.70
385.14	1755.11
385.35	1808.36
385.55	1636.33
385.76	1744.87
385.97	1773.54
386.18	1667.05
386.39	1681.38
386.60	1591.27
386.81	1687.53
387.02	1687.53
387.22	1646.57
387.43	1769.44
387.64	1777.64
387.85	1904.61
388.06	2172.89
388.27	4167.62
388.48	6680.47
388.68	8007.56
388.89	9428.85
389.10	9619.31
389.31	8292.23
389.52	7425.93
389.73	6506.40
389.93	6076.32
390.14	5728.17
390.35	5212.08
390.56	4485.05
390.77	3794.89
390.98	2955.22
391.18	2439.13
391.39	2011.11
391.60	1869.80
391.81	1900.52
392.02	1767.40
392.23	1894.37
392.43	1767.40
392.64	1791.97
392.85	1734.63
393.06	1738.73
393.27	1691.62
393.47	1697.77
393.68	1789.92
393.89	1777.64
394.10	1789.92
394.31	1611.75
394.52	1675.24
394.72	1671.14
394.93	1730.53
395.14	1658.85
395.35	1738.73
395.56	1691.62
395.76	1808.36
395.97	1767.40
396.18	1845.22
396.39	1845.22
396.60	1974.24
396.80	1890.28
397.01	1796.07
397.22	1859.56
397.43	1873.89
397.64	1783.78
397.84	1843.17
398.05	1980.39
398.26	1837.03
398.47	1791.97
398.67	1763.30
398.88	1775.59
399.09	1689.57
399.30	1720.29
399.51	1781.73
399.71	1720.29
399.92	1724.39
400.13	1824.74
400.34	1697.77
400.54	1730.53
400.75	1740.77
400.96	1765.35
401.17	1853.41
401.37	1767.40
401.58	1705.96
401.79	1685.48
402.00	1875.94
402.21	2002.91
402.41	2009.06
402.62	2017.25
402.83	2050.02
403.04	2009.06
403.24	2103.26
403.45	1722.34
403.66	1890.28
403.87	1945.57
404.07	1910.75
404.28	1927.14
404.49	1859.56
404.70	1812.45
404.90	1791.97
405.11	1765.35
405.32	1761.25
405.52	1677.29
405.73	1665.00
405.94	1656.81
406.15	1665.00
406.35	1753.06
406.56	1718.25
406.77	1759.21
406.98	1771.49
407.18	1714.15
407.39	1771.49
407.60	1689.57
407.80	1728.49
408.01	1652.71
408.22	1769.44
408.43	1736.68
408.63	1665.00
408.84	1826.79
409.05	1714.15
409.25	1705.96
409.46	1650.66
409.67	1705.96
409.88	1722.34
410.08	1679.33
410.29	1652.71
410.50	1740.77
410.70	1720.29
410.91	1714.15
411.12	1732.58
411.32	1716.20
411.53	1691.62
411.74	1818.60
411.95	1837.03
412.15	1775.59
412.36	1843.17
412.57	1712.10
412.77	1841.12
412.98	1658.85
413.19	1703.91
413.39	1847.27
413.60	1804.26
413.81	1816.55
414.01	1734.63
414.22	1771.49
414.43	1771.49
414.63	1724.39
414.84	1794.02
415.05	1740.77
415.25	1628.14
415.46	1771.49
415.67	1710.05
415.87	1769.44
416.08	1763.30
416.29	1746.92
416.49	1746.92
416.70	1718.25
416.91	1667.05
417.11	1697.77
417.32	1785.83
417.53	1791.97
417.73	1755.11
417.94	1755.11
418.15	1671.14
418.35	1771.49
418.56	1710.05
418.77	1834.98
418.97	1814.50
419.18	1728.49
419.38	1640.42
419.59	1714.15
419.80	1812.45
420.00	1624.04
420.21	1730.53
420.42	1822.69
420.62	1712.10
420.83	1628.14
421.04	1708.01
421.24	1636.33
421.45	1789.92
421.65	1701.86
421.86	1734.63
422.07	1669.09
422.27	1669.09
422.48	1708.01
422.69	1763.30
422.89	1660.90
423.10	1673.19
423.30	1673.19
423.51	1771.49
423.72	1730.53
423.92	1746.92
424.13	1656.81
424.33	1722.34
424.54	1783.78
424.75	1779.68
424.95	1857.51
425.16	1730.53
425.36	1779.68
425.57	1742.82
425.78	1769.44
425.98	1775.59
426.19	1697.77
426.39	1654.76
426.60	1753.06
426.81	1816.55
427.01	1763.30
427.22	1648.61
427.42	1611.75
427.63	1701.86
427.83	1759.21
428.04	1828.84
428.25	1798.12
428.45	1789.92
428.66	1822.69
428.86	1755.11
429.07	1628.14
429.28	1753.06
429.48	1705.96
429.69	1613.80
429.89	1685.48
430.10	1685.48
430.30	1775.59
430.51	1761.25
430.71	1720.29
430.92	1699.81
431.13	1685.48
431.33	1775.59
431.54	1679.33
431.74	1853.41
431.95	1843.17
432.15	1685.48
432.36	1785.83
432.56	1800.16
432.77	1796.07
432.98	1857.51
433.18	1800.16
433.39	1699.81
433.59	1693.67
433.80	1853.41
434.00	1834.98
434.21	1705.96
434.41	1595.37
434.62	1845.22
434.82	1607.66
435.03	1673.19
435.23	1726.44
435.44	1675.24
435.64	1753.06
435.85	1775.59
436.06	1734.63
436.26	1818.60
436.47	1763.30
436.67	1726.44
436.88	1757.16
437.08	1740.77
437.29	1794.02
437.49	1708.01
437.70	1712.10
437.90	1658.85
438.11	1882.08
438.31	1847.27
438.52	1908.71
438.72	1906.66
438.93	1920.99
439.13	1814.50
439.34	1851.36
439.54	1812.45
439.75	1753.06
439.95	1798.12
440.16	1757.16
440.36	1740.77
440.57	1767.40
440.77	1808.36
440.98	1751.01
441.18	1732.58
441.39	1712.10
441.59	1638.38
441.80	1816.55
442.00	1765.35
442.21	1843.17
442.41	1640.42
442.62	1802.21
442.82	1669.09
443.02	1738.73
443.23	1744.87
443.43	1677.29
443.64	1882.08
443.84	1673.19
444.05	1787.88
444.25	1722.34
444.46	1740.77
444.66	1710.05
444.87	1816.55
445.07	1673.19
445.28	1681.38
445.48	1845.22
445.69	1845.22
445.89	1841.12
446.09	1736.68
446.30	2017.25
446.50	2590.68
446.71	3694.54
446.91	4216.77
447.12	4689.85
447.32	4724.66
447.53	4253.63
447.73	3813.32
447.93	3614.66
448.14	3350.48
448.34	3137.49
448.55	2897.88
448.75	2836.44
448.96	2678.74
449.16	2342.88
449.36	2330.59
449.57	2062.30
449.77	1908.71
449.98	1806.31
450.18	1757.16
450.39	1869.80
450.59	1779.68
450.79	1714.15
451.00	1669.09
451.20	1832.93
451.41	1730.53
451.61	1699.81
451.81	1820.64
452.02	1767.40
452.22	1748.97
452.43	1685.48
452.63	1732.58
