SpectraSuite Data File
++++++++++++++++++++++++++++++++++++
Date: Mon Jun 06 16:13:17 CEST 2016
User: root
Dark Spectrum Present: No
Reference Spectrum Present: No
Number of Sampled Component Spectra: 1
Spectrometers: USB4C02835
Integration Time (usec): 100000 (USB4C02835)
Spectra Averaged: 1 (USB4C02835)
Boxcar Smoothing: 0 (USB4C02835)
Correct for Electrical Dark: No (USB4C02835)
Strobe/Lamp Enabled: No (USB4C02835)
Correct for Detector Non-linearity: No (USB4C02835)
Correct for Stray Light: No (USB4C02835)
Number of Pixels in Processed Spectrum: 3648
>>>>>Begin Processed Spectral Data<<<<<
177.47	1482.73
177.69	1482.73
177.91	1482.73
178.13	1499.11
178.36	1468.39
178.58	1626.09
178.80	1720.29
179.02	1607.66
179.24	1714.15
179.46	1718.25
179.68	1746.92
179.90	1726.44
180.13	1679.33
180.35	1632.23
180.57	1720.29
180.79	1755.11
181.01	1730.53
181.23	1802.21
181.45	1818.60
181.67	1681.38
181.90	1718.25
182.12	1648.61
182.34	1646.57
182.56	1712.10
182.78	1763.30
183.00	1730.53
183.22	1757.16
183.44	1701.86
183.66	1787.88
183.89	1708.01
184.11	1818.60
184.33	1779.68
184.55	1714.15
184.77	1753.06
184.99	1751.01
185.21	1693.67
185.43	1875.94
185.65	1675.24
185.87	1697.77
186.10	1832.93
186.32	1914.85
186.54	1714.15
186.76	1710.05
186.98	1767.40
187.20	1665.00
187.42	1703.91
187.64	1732.58
187.86	1773.54
188.08	1851.36
188.30	1722.34
188.52	1730.53
188.75	1767.40
188.97	1798.12
189.19	1669.09
189.41	1701.86
189.63	1744.87
189.85	1669.09
190.07	1685.48
190.29	1671.14
190.51	1777.64
190.73	1669.09
190.95	1800.16
191.17	1685.48
191.39	1669.09
191.61	1671.14
191.84	1757.16
192.06	1753.06
192.28	1667.05
192.50	1869.80
192.72	1755.11
192.94	1716.20
193.16	1757.16
193.38	1689.57
193.60	1646.57
193.82	1755.11
194.04	1812.45
194.26	1757.16
194.48	1738.73
194.70	1777.64
194.92	1695.72
195.14	1804.26
195.36	1669.09
195.58	1683.43
195.80	1705.96
196.02	1714.15
196.24	1708.01
196.46	1726.44
196.69	1724.39
196.91	1837.03
197.13	1720.29
197.35	1746.92
197.57	1820.64
197.79	1779.68
198.01	1720.29
198.23	1757.16
198.45	1693.67
198.67	1669.09
198.89	1681.38
199.11	1726.44
199.33	1656.81
199.55	1628.14
199.77	1753.06
199.99	1732.58
200.21	1710.05
200.43	1742.82
200.65	1746.92
200.87	1681.38
201.09	1746.92
201.31	1689.57
201.53	1777.64
201.75	1720.29
201.97	1751.01
202.19	1675.24
202.41	1740.77
202.63	1826.79
202.85	1830.88
203.07	1771.49
203.29	1744.87
203.51	1714.15
203.73	1671.14
203.95	1912.80
204.17	1718.25
204.39	1755.11
204.61	1742.82
204.83	1667.05
205.05	1796.07
205.27	1734.63
205.49	1804.26
205.71	1658.85
205.93	1701.86
206.15	1683.43
206.37	1736.68
206.59	1720.29
206.81	1691.62
207.03	1566.70
207.25	1705.96
207.47	1759.21
207.69	1742.82
207.91	1734.63
208.13	1759.21
208.34	1658.85
208.56	1675.24
208.78	1781.73
209.00	1710.05
209.22	1720.29
209.44	1665.00
209.66	1738.73
209.88	1691.62
210.10	1683.43
210.32	1701.86
210.54	1728.49
210.76	1695.72
210.98	1841.12
211.20	1517.54
211.42	1732.58
211.64	1755.11
211.86	1742.82
212.08	1751.01
212.30	1746.92
212.52	1708.01
212.74	1742.82
212.96	1736.68
213.17	1753.06
213.39	1804.26
213.61	1775.59
213.83	1781.73
214.05	1601.51
214.27	1779.68
214.49	1583.08
214.71	1710.05
214.93	1730.53
215.15	1671.14
215.37	1773.54
215.59	1656.81
215.81	1726.44
216.03	1816.55
216.24	1775.59
216.46	1753.06
216.68	1693.67
216.90	1789.92
217.12	1718.25
217.34	1744.87
217.56	1710.05
217.78	1767.40
218.00	1751.01
218.22	1724.39
218.44	1742.82
218.66	1724.39
218.87	1865.70
219.09	1718.25
219.31	1697.77
219.53	1656.81
219.75	1593.32
219.97	1705.96
220.19	1730.53
220.41	1734.63
220.63	1834.98
220.85	1720.29
221.06	1660.90
221.28	1746.92
221.50	1757.16
221.72	1748.97
221.94	1751.01
222.16	1687.53
222.38	1681.38
222.60	1742.82
222.82	1732.58
223.03	1779.68
223.25	1665.00
223.47	1828.84
223.69	1783.78
223.91	1783.78
224.13	1738.73
224.35	1712.10
224.57	1736.68
224.78	1693.67
225.00	1693.67
225.22	1730.53
225.44	1681.38
225.66	1765.35
225.88	1679.33
226.10	1771.49
226.32	1685.48
226.53	1710.05
226.75	1656.81
226.97	1648.61
227.19	1738.73
227.41	1742.82
227.63	1697.77
227.85	1642.47
228.06	1730.53
228.28	1634.28
228.50	1765.35
228.72	1648.61
228.94	1712.10
229.16	1718.25
229.37	1673.19
229.59	1669.09
229.81	1697.77
230.03	1658.85
230.25	1656.81
230.47	1615.85
230.69	1677.29
230.90	1810.40
231.12	1638.38
231.34	1724.39
231.56	1757.16
231.78	1669.09
232.00	1798.12
232.21	1734.63
232.43	1660.90
232.65	1564.65
232.87	1755.11
233.09	1624.04
233.30	1718.25
233.52	1806.31
233.74	1722.34
233.96	1714.15
234.18	1683.43
234.40	1757.16
234.61	1863.65
234.83	1677.29
235.05	1662.95
235.27	1933.28
235.49	1730.53
235.70	1708.01
235.92	1849.32
236.14	1785.83
236.36	1902.56
236.58	1626.09
236.79	1845.22
237.01	1763.30
237.23	1642.47
237.45	1798.12
237.67	1714.15
237.88	1685.48
238.10	1806.31
238.32	1665.00
238.54	1658.85
238.76	1728.49
238.97	1691.62
239.19	1615.85
239.41	1767.40
239.63	1824.74
239.85	1673.19
240.06	1730.53
240.28	1677.29
240.50	1738.73
240.72	1757.16
240.93	1648.61
241.15	1783.78
241.37	1665.00
241.59	1849.32
241.81	1681.38
242.02	1636.33
242.24	1765.35
242.46	1730.53
242.68	1710.05
242.89	1763.30
243.11	1755.11
243.33	1773.54
243.55	1718.25
243.76	1814.50
243.98	1738.73
244.20	1671.14
244.42	1718.25
244.64	1701.86
244.85	1642.47
245.07	1712.10
245.29	1703.91
245.51	1742.82
245.72	1734.63
245.94	1834.98
246.16	1718.25
246.38	1812.45
246.59	1679.33
246.81	1681.38
247.03	1652.71
247.24	1564.65
247.46	1685.48
247.68	1746.92
247.90	1658.85
248.11	1724.39
248.33	1714.15
248.55	1701.86
248.77	1740.77
248.98	1716.20
249.20	1763.30
249.42	1683.43
249.64	1734.63
249.85	1742.82
250.07	1652.71
250.29	1791.97
250.50	1744.87
250.72	1652.71
250.94	1763.30
251.16	1818.60
251.37	1767.40
251.59	1697.77
251.81	1785.83
252.02	1767.40
252.24	1716.20
252.46	1763.30
252.68	1712.10
252.89	1759.21
253.11	1621.99
253.33	1877.99
253.54	1777.64
253.76	1619.94
253.98	1714.15
254.20	1677.29
254.41	1644.52
254.63	1746.92
254.85	1677.29
255.06	1671.14
255.28	1718.25
255.50	1687.53
255.71	1751.01
255.93	1675.24
256.15	1665.00
256.36	1710.05
256.58	1728.49
256.80	1742.82
257.02	1710.05
257.23	1710.05
257.45	1691.62
257.67	1771.49
257.88	1673.19
258.10	1806.31
258.32	1710.05
258.53	1812.45
258.75	1710.05
258.97	1693.67
259.18	1716.20
259.40	1691.62
259.62	1845.22
259.83	1804.26
260.05	1730.53
260.27	1968.10
260.48	1765.35
260.70	1652.71
260.92	1720.29
261.13	1652.71
261.35	1763.30
261.57	1703.91
261.78	1607.66
262.00	1701.86
262.22	1662.95
262.43	1669.09
262.65	1681.38
262.86	1677.29
263.08	1894.37
263.30	1730.53
263.51	1613.80
263.73	1638.38
263.95	1826.79
264.16	1681.38
264.38	1722.34
264.60	1665.00
264.81	1734.63
265.03	1763.30
265.25	1730.53
265.46	1722.34
265.68	1804.26
265.89	1787.88
266.11	1689.57
266.33	1736.68
266.54	1798.12
266.76	1759.21
266.98	1761.25
267.19	1828.84
267.41	1748.97
267.62	1685.48
267.84	1667.05
268.06	1773.54
268.27	1675.24
268.49	1804.26
268.70	1810.40
268.92	1748.97
269.14	1644.52
269.35	1611.75
269.57	1699.81
269.79	1683.43
270.00	1665.00
270.22	1738.73
270.43	1646.57
270.65	1552.36
270.87	1769.44
271.08	1794.02
271.30	1726.44
271.51	1708.01
271.73	1724.39
271.95	1767.40
272.16	1673.19
272.38	1746.92
272.59	1761.25
272.81	1773.54
273.02	1654.76
273.24	1771.49
273.46	1806.31
273.67	1652.71
273.89	1683.43
274.10	1648.61
274.32	1742.82
274.54	1769.44
274.75	1773.54
274.97	1710.05
275.18	1834.98
275.40	1681.38
275.61	1777.64
275.83	1689.57
276.05	1683.43
276.26	1658.85
276.48	1814.50
276.69	1644.52
276.91	1691.62
277.12	1806.31
277.34	1759.21
277.55	1781.73
277.77	1689.57
277.99	1703.91
278.20	1722.34
278.42	1708.01
278.63	1650.66
278.85	1699.81
279.06	1566.70
279.28	1773.54
279.49	1763.30
279.71	1810.40
279.93	1744.87
280.14	1718.25
280.36	1687.53
280.57	1798.12
280.79	1767.40
281.00	1732.58
281.22	1718.25
281.43	1839.08
281.65	1652.71
281.86	1714.15
282.08	1730.53
282.29	1863.65
282.51	1701.86
282.73	1646.57
282.94	1703.91
283.16	1751.01
283.37	1781.73
283.59	1726.44
283.80	1748.97
284.02	1697.77
284.23	1734.63
284.45	1708.01
284.66	1636.33
284.88	1644.52
285.09	1722.34
285.31	1710.05
285.52	1687.53
285.74	1630.18
285.95	1714.15
286.17	1730.53
286.38	1814.50
286.60	1718.25
286.81	1705.96
287.03	1648.61
287.24	1638.38
287.46	1681.38
287.67	1718.25
287.89	1765.35
288.10	1671.14
288.32	1738.73
288.53	1808.36
288.75	1699.81
288.96	1757.16
289.18	1572.84
289.39	1640.42
289.61	1800.16
289.82	1863.65
290.04	1826.79
290.25	1753.06
290.47	1822.69
290.68	1775.59
290.90	1757.16
291.11	1595.37
291.33	1769.44
291.54	1654.76
291.76	1693.67
291.97	1714.15
292.18	1730.53
292.40	1609.70
292.61	1677.29
292.83	1875.94
293.04	1638.38
293.26	1751.01
293.47	1705.96
293.69	1634.28
293.90	1730.53
294.12	1849.32
294.33	1724.39
294.55	1751.01
294.76	1763.30
294.97	1728.49
295.19	1738.73
295.40	1683.43
295.62	1675.24
295.83	1824.74
296.05	1699.81
296.26	1816.55
296.48	1650.66
296.69	1656.81
296.90	1665.00
297.12	1744.87
297.33	1796.07
297.55	1718.25
297.76	1691.62
297.98	1841.12
298.19	1687.53
298.41	1679.33
298.62	1640.42
298.83	1875.94
299.05	1724.39
299.26	1697.77
299.48	1685.48
299.69	1748.97
299.90	1730.53
300.12	1675.24
300.33	1751.01
300.55	1695.72
300.76	1708.01
300.98	1669.09
301.19	1669.09
301.40	1683.43
301.62	1683.43
301.83	1617.90
302.05	1699.81
302.26	1714.15
302.47	1697.77
302.69	1632.23
302.90	1687.53
303.12	1628.14
303.33	1755.11
303.54	1767.40
303.76	1710.05
303.97	1720.29
304.19	1851.36
304.40	1636.33
304.61	1789.92
304.83	1861.60
305.04	1767.40
305.26	1724.39
305.47	1697.77
305.68	1771.49
305.90	1648.61
306.11	1744.87
306.33	1703.91
306.54	1703.91
306.75	1673.19
306.97	1619.94
307.18	1630.18
307.39	1695.72
307.61	1722.34
307.82	1746.92
308.04	1720.29
308.25	1714.15
308.46	1751.01
308.68	1720.29
308.89	1773.54
309.10	1794.02
309.32	1716.20
309.53	1802.21
309.74	1746.92
309.96	1695.72
310.17	1828.84
310.39	1656.81
310.60	1708.01
310.81	1615.85
311.03	1689.57
311.24	1779.68
311.45	1640.42
311.67	1871.84
311.88	1789.92
312.09	1683.43
312.31	1722.34
312.52	1703.91
312.73	1685.48
312.95	1601.51
313.16	1654.76
313.37	1759.21
313.59	1771.49
313.80	1724.39
314.01	1855.46
314.23	1728.49
314.44	1714.15
314.65	1628.14
314.87	1636.33
315.08	1722.34
315.29	1626.09
315.51	1685.48
315.72	1652.71
315.93	1841.12
316.15	1744.87
316.36	1656.81
316.57	1691.62
316.79	1734.63
317.00	1701.86
317.21	1742.82
317.43	1691.62
317.64	1732.58
317.85	1691.62
318.07	1687.53
318.28	1746.92
318.49	1814.50
318.70	1882.08
318.92	1865.70
319.13	1816.55
319.34	1884.13
319.56	1769.44
319.77	1841.12
319.98	1806.31
320.20	1726.44
320.41	1771.49
320.62	1800.16
320.83	1714.15
321.05	1820.64
321.26	1753.06
321.47	1656.81
321.69	1787.88
321.90	1619.94
322.11	1685.48
322.32	1751.01
322.54	1783.78
322.75	1677.29
322.96	1775.59
323.18	1703.91
323.39	1660.90
323.60	1671.14
323.81	1834.98
324.03	1722.34
324.24	1673.19
324.45	1681.38
324.66	1746.92
324.88	1757.16
325.09	1808.36
325.30	1662.95
325.52	1689.57
325.73	1734.63
325.94	1667.05
326.15	1611.75
326.37	1710.05
326.58	1746.92
326.79	1748.97
327.00	1658.85
327.22	1732.58
327.43	1662.95
327.64	1626.09
327.85	1767.40
328.07	1675.24
328.28	1783.78
328.49	1671.14
328.70	1658.85
328.92	1773.54
329.13	1730.53
329.34	1763.30
329.55	1900.52
329.76	1751.01
329.98	1732.58
330.19	1820.64
330.40	1748.97
330.61	1738.73
330.83	1771.49
331.04	1634.28
331.25	1712.10
331.46	1701.86
331.68	1671.14
331.89	1802.21
332.10	1755.11
332.31	1587.18
332.52	1736.68
332.74	1832.93
332.95	1603.56
333.16	1640.42
333.37	1787.88
333.58	1662.95
333.80	1699.81
334.01	1617.90
334.22	1679.33
334.43	1632.23
334.64	1681.38
334.86	1691.62
335.07	1605.61
335.28	1787.88
335.49	1632.23
335.70	1771.49
335.92	1775.59
336.13	1920.99
336.34	1689.57
336.55	1777.64
336.76	1650.66
336.98	1642.47
337.19	1755.11
337.40	1828.84
337.61	1812.45
337.82	1640.42
338.04	1802.21
338.25	1560.55
338.46	1675.24
338.67	1660.90
338.88	1669.09
339.09	1640.42
339.31	1669.09
339.52	1605.61
339.73	1646.57
339.94	1728.49
340.15	1757.16
340.36	1689.57
340.58	1699.81
340.79	1705.96
341.00	1769.44
341.21	1710.05
341.42	1837.03
341.63	1650.66
341.85	1675.24
342.06	1746.92
342.27	1695.72
342.48	1753.06
342.69	1660.90
342.90	1703.91
343.12	1761.25
343.33	1726.44
343.54	1808.36
343.75	1691.62
343.96	1673.19
344.17	1710.05
344.38	1765.35
344.60	1640.42
344.81	1693.67
345.02	1728.49
345.23	1789.92
345.44	1771.49
345.65	1775.59
345.86	1763.30
346.07	1708.01
346.29	1691.62
346.50	1701.86
346.71	1701.86
346.92	1771.49
347.13	1841.12
347.34	1650.66
347.55	1695.72
347.76	1720.29
347.98	1701.86
348.19	1687.53
348.40	1775.59
348.61	1669.09
348.82	1769.44
349.03	1830.88
349.24	1652.71
349.45	1800.16
349.66	1609.70
349.88	1728.49
350.09	1660.90
350.30	1761.25
350.51	1751.01
350.72	1714.15
350.93	1732.58
351.14	1646.57
351.35	1742.82
351.56	1714.15
351.77	1714.15
351.99	1779.68
352.20	1783.78
352.41	1781.73
352.62	1624.04
352.83	1785.83
353.04	1693.67
353.25	1724.39
353.46	1804.26
353.67	1726.44
353.88	1642.47
354.09	1757.16
354.30	1740.77
354.52	1800.16
354.73	1718.25
354.94	1718.25
355.15	1720.29
355.36	1843.17
355.57	1718.25
355.78	1712.10
355.99	1726.44
356.20	1712.10
356.41	1689.57
356.62	1765.35
356.83	1644.52
357.04	1785.83
357.25	1609.70
357.46	1687.53
357.68	1675.24
357.89	1652.71
358.10	1646.57
358.31	1785.83
358.52	1701.86
358.73	1624.04
358.94	1677.29
359.15	1712.10
359.36	1697.77
359.57	1765.35
359.78	1714.15
359.99	1730.53
360.20	1748.97
360.41	1720.29
360.62	1726.44
360.83	1773.54
361.04	1679.33
361.25	1769.44
361.46	1763.30
361.67	1744.87
361.88	1789.92
362.09	1812.45
362.30	1779.68
362.51	1646.57
362.72	1765.35
362.93	1759.21
363.14	1732.58
363.35	1736.68
363.56	1656.81
363.78	1761.25
363.99	1722.34
364.20	1693.67
364.41	1716.20
364.62	1759.21
364.83	1748.97
365.04	1722.34
365.25	1732.58
365.46	1773.54
365.67	1732.58
365.88	1636.33
366.09	1773.54
366.30	1763.30
366.51	1665.00
366.72	1669.09
366.93	1742.82
367.14	1722.34
367.35	1773.54
367.56	1628.14
367.77	1832.93
367.98	1677.29
368.18	1722.34
368.39	1681.38
368.60	1665.00
368.81	1820.64
369.02	1751.01
369.23	1650.66
369.44	1669.09
369.65	1683.43
369.86	1779.68
370.07	1751.01
370.28	1767.40
370.49	1855.46
370.70	1783.78
370.91	1703.91
371.12	1601.51
371.33	1777.64
371.54	1755.11
371.75	1804.26
371.96	1589.22
372.17	1703.91
372.38	1818.60
372.59	1734.63
372.80	1650.66
373.01	1722.34
373.22	1675.24
373.43	1738.73
373.64	1667.05
373.85	1796.07
374.06	1765.35
374.26	1738.73
374.47	1830.88
374.68	1771.49
374.89	1681.38
375.10	1712.10
375.31	1783.78
375.52	1701.86
375.73	1755.11
375.94	1675.24
376.15	1841.12
376.36	1734.63
376.57	1615.85
376.78	1603.56
376.99	1708.01
377.20	1794.02
377.40	1669.09
377.61	1859.56
377.82	1718.25
378.03	1834.98
378.24	1730.53
378.45	1705.96
378.66	1746.92
378.87	1572.84
379.08	1683.43
379.29	1693.67
379.50	1781.73
379.71	1714.15
379.91	1777.64
380.12	1673.19
380.33	1716.20
380.54	1720.29
380.75	1728.49
380.96	1763.30
381.17	1714.15
381.38	1767.40
381.59	1712.10
381.80	1771.49
382.00	1843.17
382.21	1800.16
382.42	1810.40
382.63	1865.70
382.84	1769.44
383.05	1730.53
383.26	1818.60
383.47	1683.43
383.68	1734.63
383.88	1697.77
384.09	1726.44
384.30	1845.22
384.51	1757.16
384.72	1738.73
384.93	1605.61
385.14	1681.38
385.35	1820.64
385.55	1632.23
385.76	1751.01
385.97	1669.09
386.18	1691.62
386.39	1660.90
386.60	1681.38
386.81	1775.59
387.02	1685.48
387.22	1652.71
387.43	1828.84
387.64	1830.88
387.85	1894.37
388.06	2187.23
388.27	4059.07
388.48	6598.56
388.68	8112.00
388.89	9414.51
389.10	9590.64
389.31	8429.44
389.52	7481.23
389.73	6668.19
389.93	6133.67
390.14	5828.52
390.35	5207.98
390.56	4554.68
390.77	3815.37
390.98	3018.71
391.18	2455.51
391.39	2113.50
391.60	1896.42
391.81	1830.88
392.02	1710.05
392.23	1886.18
392.43	1710.05
392.64	1822.69
392.85	1689.57
393.06	1830.88
393.27	1736.68
393.47	1658.85
393.68	1771.49
393.89	1734.63
394.10	1753.06
394.31	1626.09
394.52	1701.86
394.72	1597.42
394.93	1738.73
395.14	1705.96
395.35	1671.14
395.56	1652.71
395.76	1705.96
395.97	1755.11
396.18	1853.41
396.39	1875.94
396.60	2095.07
396.80	1980.39
397.01	1791.97
397.22	1703.91
397.43	1759.21
397.64	1798.12
397.84	1812.45
398.05	1839.08
398.26	1781.73
398.47	1740.77
398.67	1802.21
398.88	1665.00
399.09	1718.25
399.30	1832.93
399.51	1791.97
399.71	1722.34
399.92	1660.90
400.13	1748.97
400.34	1759.21
400.54	1660.90
400.75	1779.68
400.96	1710.05
401.17	1757.16
401.37	1810.40
401.58	1652.71
401.79	1656.81
402.00	1765.35
402.21	2039.78
402.41	1925.09
402.62	2054.11
402.83	2070.50
403.04	1961.95
403.24	2131.94
403.45	1863.65
403.66	1896.42
403.87	1859.56
404.07	1918.95
404.28	2007.01
404.49	1867.75
404.70	1710.05
404.90	1806.31
405.11	1736.68
405.32	1738.73
405.52	1730.53
405.73	1722.34
405.94	1669.09
406.15	1728.49
406.35	1789.92
406.56	1740.77
406.77	1753.06
406.98	1744.87
407.18	1656.81
407.39	1777.64
407.60	1730.53
407.80	1755.11
408.01	1742.82
408.22	1726.44
408.43	1728.49
408.63	1769.44
408.84	1720.29
409.05	1732.58
409.25	1703.91
409.46	1718.25
409.67	1693.67
409.88	1632.23
410.08	1781.73
410.29	1644.52
410.50	1890.28
410.70	1755.11
410.91	1705.96
411.12	1697.77
411.32	1736.68
411.53	1628.14
411.74	1785.83
411.95	1757.16
412.15	1763.30
412.36	1759.21
412.57	1814.50
412.77	1865.70
412.98	1777.64
413.19	1697.77
413.39	1736.68
413.60	1796.07
413.81	1712.10
414.01	1662.95
414.22	1779.68
414.43	1765.35
414.63	1687.53
414.84	1779.68
415.05	1732.58
415.25	1722.34
415.46	1718.25
415.67	1724.39
415.87	1748.97
416.08	1755.11
416.29	1732.58
416.49	1751.01
416.70	1722.34
416.91	1810.40
417.11	1677.29
417.32	1697.77
417.53	1785.83
417.73	1763.30
417.94	1720.29
418.15	1695.72
418.35	1720.29
418.56	1724.39
418.77	1841.12
418.97	1720.29
419.18	1689.57
419.38	1689.57
419.59	1730.53
419.80	1787.88
420.00	1652.71
420.21	1779.68
420.42	1755.11
420.62	1736.68
420.83	1617.90
421.04	1718.25
421.24	1658.85
421.45	1732.58
421.65	1734.63
421.86	1699.81
422.07	1697.77
422.27	1716.20
422.48	1775.59
422.69	1656.81
422.89	1624.04
423.10	1726.44
423.30	1726.44
423.51	1761.25
423.72	1734.63
423.92	1787.88
424.13	1646.57
424.33	1738.73
424.54	1761.25
424.75	1761.25
424.95	1769.44
425.16	1804.26
425.36	1746.92
425.57	1791.97
425.78	1783.78
425.98	1665.00
426.19	1720.29
426.39	1683.43
426.60	1759.21
426.81	1830.88
427.01	1640.42
427.22	1662.95
427.42	1652.71
427.63	1615.85
427.83	1775.59
428.04	1896.42
428.25	1837.03
428.45	1759.21
428.66	1845.22
428.86	1701.86
429.07	1642.47
429.28	1705.96
429.48	1626.09
429.69	1695.72
429.89	1689.57
430.10	1662.95
430.30	1777.64
430.51	1730.53
430.71	1703.91
430.92	1720.29
431.13	1806.31
431.33	1818.60
431.54	1679.33
431.74	1796.07
431.95	1863.65
432.15	1708.01
432.36	1714.15
432.56	1671.14
432.77	1767.40
432.98	1771.49
433.18	1748.97
433.39	1769.44
433.59	1716.20
433.80	1871.84
434.00	1851.36
434.21	1693.67
434.41	1789.92
434.62	1902.56
434.82	1691.62
435.03	1714.15
435.23	1757.16
435.44	1593.32
435.64	1683.43
435.85	1787.88
436.06	1742.82
436.26	1716.20
436.47	1693.67
436.67	1722.34
436.88	1716.20
437.08	1718.25
437.29	1710.05
437.49	1738.73
437.70	1759.21
437.90	1742.82
438.11	1847.27
438.31	1814.50
438.52	1873.89
438.72	1867.75
438.93	1884.13
439.13	1800.16
439.34	1812.45
439.54	1722.34
439.75	1839.08
439.95	1789.92
440.16	1736.68
440.36	1710.05
440.57	1769.44
440.77	1697.77
440.98	1740.77
441.18	1830.88
441.39	1673.19
441.59	1724.39
441.80	1953.76
442.00	1787.88
442.21	1716.20
442.41	1681.38
442.62	1816.55
442.82	1742.82
443.02	1693.67
443.23	1767.40
443.43	1724.39
443.64	1806.31
443.84	1785.83
444.05	1857.51
444.25	1757.16
444.46	1732.58
444.66	1720.29
444.87	1828.84
445.07	1693.67
445.28	1759.21
445.48	1859.56
445.69	1734.63
445.89	1855.46
446.09	1736.68
446.30	2101.22
446.50	2643.93
446.71	3682.25
446.91	4304.83
447.12	4771.77
447.32	4863.93
447.53	4325.31
447.73	3780.55
447.93	3465.16
448.14	3360.72
448.34	3215.31
448.55	2918.36
448.75	2729.94
448.96	2602.97
449.16	2471.90
449.36	2287.58
449.57	2031.58
449.77	1920.99
449.98	1834.98
450.18	1748.97
450.39	1908.71
450.59	1751.01
450.79	1763.30
451.00	1718.25
451.20	1771.49
451.41	1759.21
451.61	1828.84
451.81	1798.12
452.02	1775.59
452.22	1779.68
452.43	1742.82
452.63	1669.09
