SpectraSuite Data File
++++++++++++++++++++++++++++++++++++
Date: Mon Jun 06 16:19:57 CEST 2016
User: root
Dark Spectrum Present: No
Reference Spectrum Present: No
Number of Sampled Component Spectra: 1
Spectrometers: USB4C02835
Integration Time (usec): 100000 (USB4C02835)
Spectra Averaged: 1 (USB4C02835)
Boxcar Smoothing: 0 (USB4C02835)
Correct for Electrical Dark: No (USB4C02835)
Strobe/Lamp Enabled: No (USB4C02835)
Correct for Detector Non-linearity: No (USB4C02835)
Correct for Stray Light: No (USB4C02835)
Number of Pixels in Processed Spectrum: 3648
>>>>>Begin Processed Spectral Data<<<<<
177.47	1476.59
177.69	1476.59
177.91	1476.59
178.13	1533.93
178.36	1445.87
178.58	1683.43
178.80	1740.77
179.02	1597.42
179.24	1656.81
179.46	1730.53
179.68	1796.07
179.90	1665.00
180.13	1738.73
180.35	1650.66
180.57	1724.39
180.79	1683.43
181.01	1802.21
181.23	1816.55
181.45	1814.50
181.67	1751.01
181.90	1775.59
182.12	1617.90
182.34	1665.00
182.56	1705.96
182.78	1662.95
183.00	1708.01
183.22	1806.31
183.44	1601.51
183.66	1890.28
183.89	1767.40
184.11	1699.81
184.33	1705.96
184.55	1734.63
184.77	1732.58
184.99	1744.87
185.21	1644.52
185.43	1853.41
185.65	1658.85
185.87	1701.86
186.10	1873.89
186.32	1886.18
186.54	1660.90
186.76	1673.19
186.98	1800.16
187.20	1701.86
187.42	1703.91
187.64	1781.73
187.86	1679.33
188.08	1720.29
188.30	1728.49
188.52	1689.57
188.75	1781.73
188.97	1802.21
189.19	1654.76
189.41	1660.90
189.63	1716.20
189.85	1705.96
190.07	1626.09
190.29	1591.27
190.51	1742.82
190.73	1675.24
190.95	1763.30
191.17	1765.35
191.39	1605.61
191.61	1697.77
191.84	1681.38
192.06	1748.97
192.28	1621.99
192.50	1861.60
192.72	1726.44
192.94	1751.01
193.16	1710.05
193.38	1746.92
193.60	1669.09
193.82	1687.53
194.04	1787.88
194.26	1697.77
194.48	1644.52
194.70	1636.33
194.92	1695.72
195.14	1703.91
195.36	1624.04
195.58	1785.83
195.80	1734.63
196.02	1714.15
196.24	1705.96
196.46	1742.82
196.69	1640.42
196.91	1818.60
197.13	1662.95
197.35	1748.97
197.57	1814.50
197.79	1740.77
198.01	1732.58
198.23	1740.77
198.45	1724.39
198.67	1581.03
198.89	1722.34
199.11	1767.40
199.33	1642.47
199.55	1558.50
199.77	1642.47
199.99	1787.88
200.21	1667.05
200.43	1748.97
200.65	1656.81
200.87	1619.94
201.09	1718.25
201.31	1656.81
201.53	1796.07
201.75	1669.09
201.97	1751.01
202.19	1765.35
202.41	1761.25
202.63	1859.56
202.85	1746.92
203.07	1755.11
203.29	1718.25
203.51	1671.14
203.73	1683.43
203.95	1849.32
204.17	1697.77
204.39	1724.39
204.61	1660.90
204.83	1701.86
205.05	1726.44
205.27	1771.49
205.49	1849.32
205.71	1683.43
205.93	1619.94
206.15	1703.91
206.37	1683.43
206.59	1710.05
206.81	1611.75
207.03	1570.79
207.25	1683.43
207.47	1710.05
207.69	1650.66
207.91	1775.59
208.13	1841.12
208.34	1685.48
208.56	1708.01
208.78	1720.29
209.00	1728.49
209.22	1621.99
209.44	1734.63
209.66	1624.04
209.88	1744.87
210.10	1628.14
210.32	1720.29
210.54	1822.69
210.76	1705.96
210.98	1828.84
211.20	1599.46
211.42	1681.38
211.64	1863.65
211.86	1732.58
212.08	1767.40
212.30	1744.87
212.52	1697.77
212.74	1771.49
212.96	1748.97
213.17	1785.83
213.39	1736.68
213.61	1824.74
213.83	1798.12
214.05	1740.77
214.27	1806.31
214.49	1705.96
214.71	1724.39
214.93	1849.32
215.15	1701.86
215.37	1720.29
215.59	1591.27
215.81	1775.59
216.03	1814.50
216.24	1683.43
216.46	1732.58
216.68	1683.43
216.90	1718.25
217.12	1777.64
217.34	1716.20
217.56	1708.01
217.78	1710.05
218.00	1759.21
218.22	1703.91
218.44	1759.21
218.66	1755.11
218.87	1820.64
219.09	1611.75
219.31	1728.49
219.53	1730.53
219.75	1714.15
219.97	1697.77
220.19	1640.42
220.41	1599.46
220.63	1753.06
220.85	1738.73
221.06	1669.09
221.28	1740.77
221.50	1708.01
221.72	1751.01
221.94	1708.01
222.16	1716.20
222.38	1742.82
222.60	1767.40
222.82	1673.19
223.03	1730.53
223.25	1658.85
223.47	1855.46
223.69	1857.51
223.91	1746.92
224.13	1697.77
224.35	1714.15
224.57	1708.01
224.78	1855.46
225.00	1642.47
225.22	1730.53
225.44	1710.05
225.66	1689.57
225.88	1718.25
226.10	1791.97
226.32	1791.97
226.53	1812.45
226.75	1681.38
226.97	1767.40
227.19	1705.96
227.41	1728.49
227.63	1660.90
227.85	1652.71
228.06	1765.35
228.28	1687.53
228.50	1785.83
228.72	1665.00
228.94	1671.14
229.16	1556.46
229.37	1695.72
229.59	1703.91
229.81	1767.40
230.03	1687.53
230.25	1587.18
230.47	1638.38
230.69	1605.61
230.90	1685.48
231.12	1673.19
231.34	1689.57
231.56	1771.49
231.78	1619.94
232.00	1763.30
232.21	1632.23
232.43	1673.19
232.65	1595.37
232.87	1740.77
233.09	1660.90
233.30	1624.04
233.52	1746.92
233.74	1701.86
233.96	1693.67
234.18	1857.51
234.40	1669.09
234.61	1853.41
234.83	1691.62
235.05	1687.53
235.27	1802.21
235.49	1773.54
235.70	1703.91
235.92	1798.12
236.14	1771.49
236.36	1869.80
236.58	1740.77
236.79	1798.12
237.01	1710.05
237.23	1734.63
237.45	1814.50
237.67	1718.25
237.88	1763.30
238.10	1830.88
238.32	1687.53
238.54	1712.10
238.76	1667.05
238.97	1681.38
239.19	1634.28
239.41	1769.44
239.63	1773.54
239.85	1708.01
240.06	1718.25
240.28	1691.62
240.50	1720.29
240.72	1726.44
240.93	1730.53
241.15	1775.59
241.37	1685.48
241.59	1794.02
241.81	1669.09
242.02	1669.09
242.24	1746.92
242.46	1730.53
242.68	1734.63
242.89	1777.64
243.11	1808.36
243.33	1746.92
243.55	1767.40
243.76	1683.43
243.98	1654.76
244.20	1796.07
244.42	1744.87
244.64	1703.91
244.85	1660.90
245.07	1654.76
245.29	1728.49
245.51	1712.10
245.72	1738.73
245.94	1800.16
246.16	1755.11
246.38	1773.54
246.59	1621.99
246.81	1744.87
247.03	1681.38
247.24	1613.80
247.46	1642.47
247.68	1665.00
247.90	1669.09
248.11	1638.38
248.33	1796.07
248.55	1730.53
248.77	1785.83
248.98	1820.64
249.20	1849.32
249.42	1738.73
249.64	1742.82
249.85	1705.96
250.07	1771.49
250.29	1800.16
250.50	1828.84
250.72	1640.42
250.94	1759.21
251.16	1810.40
251.37	1773.54
251.59	1765.35
251.81	1751.01
252.02	1796.07
252.24	1658.85
252.46	1783.78
252.68	1681.38
252.89	1697.77
253.11	1628.14
253.33	1845.22
253.54	1759.21
253.76	1583.08
253.98	1712.10
254.20	1705.96
254.41	1634.28
254.63	1722.34
254.85	1658.85
255.06	1691.62
255.28	1773.54
255.50	1660.90
255.71	1716.20
255.93	1667.05
256.15	1693.67
256.36	1773.54
256.58	1576.94
256.80	1767.40
257.02	1738.73
257.23	1681.38
257.45	1755.11
257.67	1734.63
257.88	1667.05
258.10	1736.68
258.32	1779.68
258.53	1730.53
258.75	1861.60
258.97	1703.91
259.18	1716.20
259.40	1714.15
259.62	1806.31
259.83	1791.97
260.05	1728.49
260.27	1951.71
260.48	1751.01
260.70	1640.42
260.92	1665.00
261.13	1783.78
261.35	1683.43
261.57	1753.06
261.78	1587.18
262.00	1644.52
262.22	1771.49
262.43	1626.09
262.65	1638.38
262.86	1677.29
263.08	1841.12
263.30	1734.63
263.51	1646.57
263.73	1730.53
263.95	1718.25
264.16	1681.38
264.38	1634.28
264.60	1812.45
264.81	1705.96
265.03	1843.17
265.25	1771.49
265.46	1681.38
265.68	1855.46
265.89	1673.19
266.11	1640.42
266.33	1701.86
266.54	1732.58
266.76	1847.27
266.98	1787.88
267.19	1765.35
267.41	1724.39
267.62	1728.49
267.84	1621.99
268.06	1775.59
268.27	1736.68
268.49	1693.67
268.70	1679.33
268.92	1714.15
269.14	1656.81
269.35	1658.85
269.57	1687.53
269.79	1781.73
270.00	1617.90
270.22	1802.21
270.43	1656.81
270.65	1626.09
270.87	1742.82
271.08	1730.53
271.30	1753.06
271.51	1697.77
271.73	1779.68
271.95	1814.50
272.16	1695.72
272.38	1712.10
272.59	1669.09
272.81	1722.34
273.02	1687.53
273.24	1728.49
273.46	1708.01
273.67	1640.42
273.89	1767.40
274.10	1699.81
274.32	1753.06
274.54	1746.92
274.75	1794.02
274.97	1646.57
275.18	1775.59
275.40	1693.67
275.61	1740.77
275.83	1769.44
276.05	1624.04
276.26	1701.86
276.48	1765.35
276.69	1701.86
276.91	1701.86
277.12	1757.16
277.34	1822.69
277.55	1712.10
277.77	1722.34
277.99	1642.47
278.20	1662.95
278.42	1697.77
278.63	1708.01
278.85	1689.57
279.06	1652.71
279.28	1689.57
279.49	1742.82
279.71	1763.30
279.93	1746.92
280.14	1714.15
280.36	1687.53
280.57	1773.54
280.79	1746.92
281.00	1632.23
281.22	1687.53
281.43	1791.97
281.65	1611.75
281.86	1638.38
282.08	1734.63
282.29	1826.79
282.51	1695.72
282.73	1591.27
282.94	1624.04
283.16	1757.16
283.37	1812.45
283.59	1644.52
283.80	1816.55
284.02	1689.57
284.23	1730.53
284.45	1687.53
284.66	1611.75
284.88	1628.14
285.09	1660.90
285.31	1691.62
285.52	1697.77
285.74	1626.09
285.95	1748.97
286.17	1748.97
286.38	1708.01
286.60	1660.90
286.81	1671.14
287.03	1726.44
287.24	1708.01
287.46	1689.57
287.67	1712.10
287.89	1853.41
288.10	1687.53
288.32	1730.53
288.53	1724.39
288.75	1714.15
288.96	1714.15
289.18	1730.53
289.39	1681.38
289.61	1763.30
289.82	1796.07
290.04	1822.69
290.25	1669.09
290.47	1734.63
290.68	1679.33
290.90	1853.41
291.11	1669.09
291.33	1744.87
291.54	1611.75
291.76	1665.00
291.97	1734.63
292.18	1769.44
292.40	1609.70
292.61	1634.28
292.83	1880.04
293.04	1802.21
293.26	1650.66
293.47	1683.43
293.69	1662.95
293.90	1751.01
294.12	1730.53
294.33	1677.29
294.55	1665.00
294.76	1720.29
294.97	1767.40
295.19	1802.21
295.40	1665.00
295.62	1779.68
295.83	1730.53
296.05	1705.96
296.26	1736.68
296.48	1601.51
296.69	1679.33
296.90	1667.05
297.12	1796.07
297.33	1802.21
297.55	1667.05
297.76	1740.77
297.98	1869.80
298.19	1763.30
298.41	1675.24
298.62	1699.81
298.83	1837.03
299.05	1767.40
299.26	1669.09
299.48	1730.53
299.69	1705.96
299.90	1652.71
300.12	1669.09
300.33	1744.87
300.55	1699.81
300.76	1787.88
300.98	1673.19
301.19	1722.34
301.40	1677.29
301.62	1660.90
301.83	1787.88
302.05	1734.63
302.26	1755.11
302.47	1689.57
302.69	1646.57
302.90	1736.68
303.12	1691.62
303.33	1765.35
303.54	1785.83
303.76	1701.86
303.97	1767.40
304.19	1775.59
304.40	1652.71
304.61	1683.43
304.83	1865.70
305.04	1814.50
305.26	1677.29
305.47	1685.48
305.68	1685.48
305.90	1677.29
306.11	1791.97
306.33	1654.76
306.54	1726.44
306.75	1759.21
306.97	1624.04
307.18	1693.67
307.39	1667.05
307.61	1765.35
307.82	1710.05
308.04	1802.21
308.25	1675.24
308.46	1746.92
308.68	1673.19
308.89	1685.48
309.10	1751.01
309.32	1775.59
309.53	1654.76
309.74	1695.72
309.96	1687.53
310.17	1789.92
310.39	1652.71
310.60	1728.49
310.81	1679.33
311.03	1710.05
311.24	1699.81
311.45	1708.01
311.67	1867.75
311.88	1681.38
312.09	1742.82
312.31	1646.57
312.52	1718.25
312.73	1673.19
312.95	1558.50
313.16	1677.29
313.37	1877.99
313.59	1720.29
313.80	1759.21
314.01	1841.12
314.23	1656.81
314.44	1701.86
314.65	1703.91
314.87	1642.47
315.08	1703.91
315.29	1742.82
315.51	1587.18
315.72	1689.57
315.93	1847.27
316.15	1800.16
316.36	1679.33
316.57	1677.29
316.79	1785.83
317.00	1701.86
317.21	1716.20
317.43	1685.48
317.64	1716.20
317.85	1685.48
318.07	1644.52
318.28	1632.23
318.49	1867.75
318.70	1978.34
318.92	1806.31
319.13	1896.42
319.34	1908.71
319.56	1855.46
319.77	1789.92
319.98	1796.07
320.20	1761.25
320.41	1730.53
320.62	1660.90
320.83	1677.29
321.05	1861.60
321.26	1714.15
321.47	1746.92
321.69	1771.49
321.90	1648.61
322.11	1677.29
322.32	1791.97
322.54	1816.55
322.75	1679.33
322.96	1804.26
323.18	1708.01
323.39	1603.56
323.60	1660.90
323.81	1687.53
324.03	1685.48
324.24	1701.86
324.45	1718.25
324.66	1662.95
324.88	1736.68
325.09	1746.92
325.30	1712.10
325.52	1724.39
325.73	1730.53
325.94	1595.37
326.15	1593.32
326.37	1701.86
326.58	1839.08
326.79	1781.73
327.00	1624.04
327.22	1675.24
327.43	1699.81
327.64	1714.15
327.85	1693.67
328.07	1755.11
328.28	1744.87
328.49	1675.24
328.70	1630.18
328.92	1742.82
329.13	1769.44
329.34	1738.73
329.55	1847.27
329.76	1787.88
329.98	1728.49
330.19	1796.07
330.40	1767.40
330.61	1775.59
330.83	1773.54
331.04	1701.86
331.25	1667.05
331.46	1691.62
331.68	1628.14
331.89	1753.06
332.10	1761.25
332.31	1662.95
332.52	1683.43
332.74	1806.31
332.95	1646.57
333.16	1660.90
333.37	1710.05
333.58	1726.44
333.80	1691.62
334.01	1722.34
334.22	1736.68
334.43	1705.96
334.64	1779.68
334.86	1619.94
335.07	1708.01
335.28	1820.64
335.49	1689.57
335.70	1740.77
335.92	1734.63
336.13	1800.16
336.34	1740.77
336.55	1738.73
336.76	1679.33
336.98	1630.18
337.19	1730.53
337.40	1705.96
337.61	1884.13
337.82	1699.81
338.04	1746.92
338.25	1652.71
338.46	1718.25
338.67	1718.25
338.88	1632.23
339.09	1589.22
339.31	1656.81
339.52	1667.05
339.73	1656.81
339.94	1699.81
340.15	1712.10
340.36	1708.01
340.58	1652.71
340.79	1642.47
341.00	1714.15
341.21	1632.23
341.42	1746.92
341.63	1730.53
341.85	1834.98
342.06	1728.49
342.27	1687.53
342.48	1869.80
342.69	1626.09
342.90	1748.97
343.12	1771.49
343.33	1722.34
343.54	1736.68
343.75	1824.74
343.96	1722.34
344.17	1683.43
344.38	1703.91
344.60	1669.09
344.81	1689.57
345.02	1771.49
345.23	1822.69
345.44	1873.89
345.65	1710.05
345.86	1740.77
346.07	1730.53
346.29	1660.90
346.50	1806.31
346.71	1714.15
346.92	1781.73
347.13	1857.51
347.34	1705.96
347.55	1695.72
347.76	1746.92
347.98	1601.51
348.19	1689.57
348.40	1824.74
348.61	1730.53
348.82	1734.63
349.03	1738.73
349.24	1642.47
349.45	1744.87
349.66	1613.80
349.88	1699.81
350.09	1697.77
350.30	1730.53
350.51	1873.89
350.72	1794.02
350.93	1687.53
351.14	1705.96
351.35	1765.35
351.56	1669.09
351.77	1681.38
351.99	1746.92
352.20	1804.26
352.41	1843.17
352.62	1644.52
352.83	1644.52
353.04	1738.73
353.25	1693.67
353.46	1708.01
353.67	1816.55
353.88	1570.79
354.09	1722.34
354.30	1746.92
354.52	1753.06
354.73	1724.39
354.94	1720.29
355.15	1722.34
355.36	1822.69
355.57	1675.24
355.78	1701.86
355.99	1673.19
356.20	1740.77
356.41	1800.16
356.62	1728.49
356.83	1722.34
357.04	1763.30
357.25	1660.90
357.46	1665.00
357.68	1601.51
357.89	1640.42
358.10	1714.15
358.31	1685.48
358.52	1687.53
358.73	1677.29
358.94	1689.57
359.15	1728.49
359.36	1798.12
359.57	1767.40
359.78	1677.29
359.99	1695.72
360.20	1628.14
360.41	1775.59
360.62	1734.63
360.83	1740.77
361.04	1751.01
361.25	1748.97
361.46	1855.46
361.67	1757.16
361.88	1763.30
362.09	1783.78
362.30	1732.58
362.51	1611.75
362.72	1693.67
362.93	1710.05
363.14	1839.08
363.35	1779.68
363.56	1669.09
363.78	1779.68
363.99	1822.69
364.20	1683.43
364.41	1789.92
364.62	1832.93
364.83	1675.24
365.04	1742.82
365.25	1734.63
365.46	1771.49
365.67	1730.53
365.88	1699.81
366.09	1667.05
366.30	1685.48
366.51	1722.34
366.72	1595.37
366.93	1761.25
367.14	1705.96
367.35	1779.68
367.56	1685.48
367.77	1816.55
367.98	1710.05
368.18	1761.25
368.39	1740.77
368.60	1648.61
368.81	1728.49
369.02	1742.82
369.23	1677.29
369.44	1572.84
369.65	1703.91
369.86	1705.96
370.07	1857.51
370.28	1697.77
370.49	1767.40
370.70	1767.40
370.91	1644.52
371.12	1675.24
371.33	1761.25
371.54	1634.28
371.75	1734.63
371.96	1615.85
372.17	1662.95
372.38	1724.39
372.59	1785.83
372.80	1675.24
373.01	1667.05
373.22	1734.63
373.43	1703.91
373.64	1665.00
373.85	1763.30
374.06	1804.26
374.26	1761.25
374.47	1853.41
374.68	1816.55
374.89	1640.42
375.10	1675.24
375.31	1726.44
375.52	1808.36
375.73	1763.30
375.94	1650.66
376.15	1816.55
376.36	1701.86
376.57	1712.10
376.78	1765.35
376.99	1736.68
377.20	1769.44
377.40	1667.05
377.61	1884.13
377.82	1703.91
378.03	1775.59
378.24	1730.53
378.45	1761.25
378.66	1787.88
378.87	1562.60
379.08	1667.05
379.29	1757.16
379.50	1787.88
379.71	1665.00
379.91	1828.84
380.12	1681.38
380.33	1830.88
380.54	1701.86
380.75	1691.62
380.96	1771.49
381.17	1755.11
381.38	1738.73
381.59	1787.88
381.80	1720.29
382.00	1894.37
382.21	1738.73
382.42	1818.60
382.63	1900.52
382.84	1789.92
383.05	1714.15
383.26	1880.04
383.47	1820.64
383.68	1734.63
383.88	1728.49
384.09	1771.49
384.30	1810.40
384.51	1591.27
384.72	1718.25
384.93	1593.32
385.14	1781.73
385.35	1794.02
385.55	1691.62
385.76	1769.44
385.97	1724.39
386.18	1648.61
386.39	1652.71
386.60	1757.16
386.81	1671.14
387.02	1615.85
387.22	1689.57
387.43	1822.69
387.64	1769.44
387.85	1869.80
388.06	2172.89
388.27	4171.71
388.48	6819.74
388.68	8073.09
388.89	9557.87
389.10	9934.70
389.31	8456.06
389.52	7602.06
389.73	6799.26
389.93	6123.43
390.14	5883.81
390.35	5220.27
390.56	4573.11
390.77	3776.45
390.98	2990.03
391.18	2475.99
391.39	2162.66
391.60	1802.21
391.81	1798.12
392.02	1716.20
392.23	1843.17
392.43	1751.01
392.64	1873.89
392.85	1730.53
393.06	1814.50
393.27	1716.20
393.47	1687.53
393.68	1740.77
393.89	1785.83
394.10	1751.01
394.31	1652.71
394.52	1773.54
394.72	1730.53
394.93	1755.11
395.14	1695.72
395.35	1681.38
395.56	1628.14
395.76	1816.55
395.97	1802.21
396.18	1855.46
396.39	1769.44
396.60	2021.35
396.80	1884.13
397.01	1832.93
397.22	1814.50
397.43	1822.69
397.64	1728.49
397.84	1800.16
398.05	1828.84
398.26	1697.77
398.47	1818.60
398.67	1705.96
398.88	1769.44
399.09	1734.63
399.30	1716.20
399.51	1728.49
399.71	1646.57
399.92	1734.63
400.13	1767.40
400.34	1677.29
400.54	1757.16
400.75	1828.84
400.96	1767.40
401.17	1757.16
401.37	1708.01
401.58	1742.82
401.79	1726.44
402.00	1937.38
402.21	2045.92
402.41	1978.34
402.62	2000.87
402.83	2115.55
403.04	2035.68
403.24	2140.13
403.45	1880.04
403.66	1972.19
403.87	1906.66
404.07	1920.99
404.28	1890.28
404.49	1935.33
404.70	1794.02
404.90	1763.30
405.11	1779.68
405.32	1734.63
405.52	1708.01
405.73	1691.62
405.94	1591.27
406.15	1736.68
406.35	1773.54
406.56	1818.60
406.77	1740.77
406.98	1779.68
407.18	1648.61
407.39	1767.40
407.60	1681.38
407.80	1761.25
408.01	1632.23
408.22	1716.20
408.43	1650.66
408.63	1796.07
408.84	1771.49
409.05	1773.54
409.25	1681.38
409.46	1665.00
409.67	1763.30
409.88	1699.81
410.08	1718.25
410.29	1619.94
410.50	1744.87
410.70	1742.82
410.91	1630.18
411.12	1699.81
411.32	1746.92
411.53	1726.44
411.74	1789.92
411.95	1796.07
412.15	1765.35
412.36	1828.84
412.57	1746.92
412.77	1804.26
412.98	1693.67
413.19	1697.77
413.39	1781.73
413.60	1742.82
413.81	1818.60
414.01	1640.42
414.22	1832.93
414.43	1722.34
414.63	1691.62
414.84	1810.40
415.05	1681.38
415.25	1617.90
415.46	1824.74
415.67	1662.95
415.87	1716.20
416.08	1755.11
416.29	1708.01
416.49	1744.87
416.70	1705.96
416.91	1757.16
417.11	1714.15
417.32	1857.51
417.53	1847.27
417.73	1837.03
417.94	1681.38
418.15	1726.44
418.35	1771.49
418.56	1726.44
418.77	1865.70
418.97	1667.05
419.18	1781.73
419.38	1607.66
419.59	1665.00
419.80	1839.08
420.00	1703.91
420.21	1714.15
420.42	1898.47
420.62	1808.36
420.83	1671.14
421.04	1738.73
421.24	1714.15
421.45	1812.45
421.65	1742.82
421.86	1730.53
422.07	1757.16
422.27	1722.34
422.48	1794.02
422.69	1656.81
422.89	1710.05
423.10	1736.68
423.30	1695.72
423.51	1640.42
423.72	1693.67
423.92	1718.25
424.13	1675.24
424.33	1736.68
424.54	1816.55
424.75	1714.15
424.95	1779.68
425.16	1722.34
425.36	1738.73
425.57	1828.84
425.78	1794.02
425.98	1785.83
426.19	1705.96
426.39	1738.73
426.60	1783.78
426.81	1843.17
427.01	1660.90
427.22	1648.61
427.42	1646.57
427.63	1652.71
427.83	1714.15
428.04	1800.16
428.25	1738.73
428.45	1796.07
428.66	1767.40
428.86	1683.43
429.07	1640.42
429.28	1697.77
429.48	1720.29
429.69	1675.24
429.89	1742.82
430.10	1619.94
430.30	1718.25
430.51	1847.27
430.71	1619.94
430.92	1705.96
431.13	1697.77
431.33	1712.10
431.54	1660.90
431.74	1794.02
431.95	1880.04
432.15	1650.66
432.36	1708.01
432.56	1779.68
432.77	1847.27
432.98	1771.49
433.18	1763.30
433.39	1640.42
433.59	1755.11
433.80	1814.50
434.00	1920.99
434.21	1683.43
434.41	1685.48
434.62	1894.37
434.82	1675.24
435.03	1671.14
435.23	1769.44
435.44	1677.29
435.64	1730.53
435.85	1730.53
436.06	1767.40
436.26	1695.72
436.47	1699.81
436.67	1615.85
436.88	1691.62
437.08	1841.12
437.29	1753.06
437.49	1773.54
437.70	1746.92
437.90	1722.34
438.11	1877.99
438.31	1755.11
438.52	1757.16
438.72	1853.41
438.93	1935.33
439.13	1730.53
439.34	1892.32
439.54	1755.11
439.75	1812.45
439.95	1742.82
440.16	1632.23
440.36	1728.49
440.57	1771.49
440.77	1845.22
440.98	1787.88
441.18	1763.30
441.39	1742.82
441.59	1705.96
441.80	1851.36
442.00	1753.06
442.21	1884.13
442.41	1667.05
442.62	1791.97
442.82	1693.67
443.02	1779.68
443.23	1714.15
443.43	1742.82
443.64	1847.27
443.84	1681.38
444.05	1820.64
444.25	1660.90
444.46	1681.38
444.66	1744.87
444.87	1822.69
445.07	1722.34
445.28	1714.15
445.48	1861.60
445.69	1787.88
445.89	1886.18
446.09	1742.82
446.30	2025.44
446.50	2635.74
446.71	3735.50
446.91	4370.37
447.12	4708.28
447.32	4759.48
447.53	4349.89
447.73	3844.04
447.93	3446.73
448.14	3377.10
448.34	3190.74
448.55	2918.36
448.75	2871.25
448.96	2619.35
449.16	2424.80
449.36	2287.58
449.57	2097.12
449.77	1933.28
449.98	1726.44
450.18	1796.07
450.39	1832.93
450.59	1769.44
450.79	1738.73
451.00	1773.54
451.20	1742.82
451.41	1718.25
451.61	1761.25
451.81	1660.90
452.02	1843.17
452.22	1761.25
452.43	1728.49
452.63	1708.01
