SpectraSuite Data File
++++++++++++++++++++++++++++++++++++
Date: Mon Jun 06 15:51:17 CEST 2016
User: root
Dark Spectrum Present: No
Reference Spectrum Present: No
Number of Sampled Component Spectra: 1
Spectrometers: USB4C02835
Integration Time (usec): 100000 (USB4C02835)
Spectra Averaged: 1 (USB4C02835)
Boxcar Smoothing: 0 (USB4C02835)
Correct for Electrical Dark: No (USB4C02835)
Strobe/Lamp Enabled: No (USB4C02835)
Correct for Detector Non-linearity: No (USB4C02835)
Correct for Stray Light: No (USB4C02835)
Number of Pixels in Processed Spectrum: 3648
>>>>>Begin Processed Spectral Data<<<<<
177.47	1437.67
177.69	1437.67
177.91	1437.67
178.13	1464.30
178.36	1466.35
178.58	1695.72
178.80	1730.53
179.02	1710.05
179.24	1710.05
179.46	1648.61
179.68	1697.77
179.90	1697.77
180.13	1738.73
180.35	1685.48
180.57	1771.49
180.79	1730.53
181.01	1640.42
181.23	1777.64
181.45	1722.34
181.67	1701.86
181.90	1769.44
182.12	1650.66
182.34	1689.57
182.56	1748.97
182.78	1777.64
183.00	1789.92
183.22	1665.00
183.44	1638.38
183.66	1808.36
183.89	1828.84
184.11	1759.21
184.33	1759.21
184.55	1828.84
184.77	1812.45
184.99	1718.25
185.21	1693.67
185.43	1814.50
185.65	1705.96
185.87	1710.05
186.10	1832.93
186.32	1724.39
186.54	1722.34
186.76	1693.67
186.98	1796.07
187.20	1628.14
187.42	1703.91
187.64	1791.97
187.86	1660.90
188.08	1742.82
188.30	1787.88
188.52	1665.00
188.75	1757.16
188.97	1773.54
189.19	1636.33
189.41	1712.10
189.63	1697.77
189.85	1722.34
190.07	1624.04
190.29	1640.42
190.51	1710.05
190.73	1681.38
190.95	1832.93
191.17	1718.25
191.39	1597.42
191.61	1679.33
191.84	1693.67
192.06	1740.77
192.28	1640.42
192.50	1880.04
192.72	1621.99
192.94	1638.38
193.16	1787.88
193.38	1748.97
193.60	1705.96
193.82	1705.96
194.04	1775.59
194.26	1722.34
194.48	1650.66
194.70	1763.30
194.92	1675.24
195.14	1777.64
195.36	1746.92
195.58	1767.40
195.80	1662.95
196.02	1673.19
196.24	1693.67
196.46	1710.05
196.69	1673.19
196.91	1857.51
197.13	1701.86
197.35	1611.75
197.57	1796.07
197.79	1771.49
198.01	1675.24
198.23	1814.50
198.45	1771.49
198.67	1699.81
198.89	1697.77
199.11	1736.68
199.33	1679.33
199.55	1607.66
199.77	1640.42
199.99	1757.16
200.21	1654.76
200.43	1755.11
200.65	1662.95
200.87	1562.60
201.09	1693.67
201.31	1728.49
201.53	1779.68
201.75	1761.25
201.97	1746.92
202.19	1714.15
202.41	1757.16
202.63	1779.68
202.85	1718.25
203.07	1718.25
203.29	1691.62
203.51	1644.52
203.73	1632.23
203.95	1947.62
204.17	1716.20
204.39	1746.92
204.61	1730.53
204.83	1705.96
205.05	1748.97
205.27	1742.82
205.49	1808.36
205.71	1656.81
205.93	1642.47
206.15	1728.49
206.37	1654.76
206.59	1683.43
206.81	1714.15
207.03	1697.77
207.25	1703.91
207.47	1691.62
207.69	1689.57
207.91	1761.25
208.13	1765.35
208.34	1705.96
208.56	1681.38
208.78	1783.78
209.00	1693.67
209.22	1734.63
209.44	1732.58
209.66	1644.52
209.88	1693.67
210.10	1710.05
210.32	1652.71
210.54	1742.82
210.76	1665.00
210.98	1712.10
211.20	1638.38
211.42	1714.15
211.64	1796.07
211.86	1787.88
212.08	1732.58
212.30	1755.11
212.52	1660.90
212.74	1742.82
212.96	1703.91
213.17	1826.79
213.39	1816.55
213.61	1808.36
213.83	1687.53
214.05	1636.33
214.27	1800.16
214.49	1644.52
214.71	1671.14
214.93	1773.54
215.15	1736.68
215.37	1734.63
215.59	1603.56
215.81	1736.68
216.03	1677.29
216.24	1751.01
216.46	1736.68
216.68	1781.73
216.90	1740.77
217.12	1716.20
217.34	1744.87
217.56	1720.29
217.78	1796.07
218.00	1730.53
218.22	1681.38
218.44	1722.34
218.66	1679.33
218.87	1871.84
219.09	1669.09
219.31	1740.77
219.53	1736.68
219.75	1677.29
219.97	1785.83
220.19	1708.01
220.41	1687.53
220.63	1710.05
220.85	1708.01
221.06	1689.57
221.28	1804.26
221.50	1701.86
221.72	1718.25
221.94	1730.53
222.16	1636.33
222.38	1755.11
222.60	1783.78
222.82	1734.63
223.03	1794.02
223.25	1648.61
223.47	1734.63
223.69	1849.32
223.91	1738.73
224.13	1673.19
224.35	1673.19
224.57	1746.92
224.78	1781.73
225.00	1652.71
225.22	1718.25
225.44	1720.29
225.66	1755.11
225.88	1681.38
226.10	1767.40
226.32	1730.53
226.53	1771.49
226.75	1693.67
226.97	1703.91
227.19	1720.29
227.41	1697.77
227.63	1601.51
227.85	1619.94
228.06	1687.53
228.28	1691.62
228.50	1867.75
228.72	1626.09
228.94	1687.53
229.16	1632.23
229.37	1714.15
229.59	1601.51
229.81	1816.55
230.03	1708.01
230.25	1624.04
230.47	1689.57
230.69	1687.53
230.90	1734.63
231.12	1648.61
231.34	1755.11
231.56	1808.36
231.78	1699.81
232.00	1806.31
232.21	1742.82
232.43	1681.38
232.65	1570.79
232.87	1677.29
233.09	1673.19
233.30	1728.49
233.52	1705.96
233.74	1773.54
233.96	1716.20
234.18	1734.63
234.40	1703.91
234.61	1851.36
234.83	1695.72
235.05	1658.85
235.27	1798.12
235.49	1804.26
235.70	1675.24
235.92	1740.77
236.14	1689.57
236.36	1789.92
236.58	1648.61
236.79	1761.25
237.01	1710.05
237.23	1685.48
237.45	1777.64
237.67	1685.48
237.88	1734.63
238.10	1826.79
238.32	1683.43
238.54	1699.81
238.76	1751.01
238.97	1673.19
239.19	1679.33
239.41	1708.01
239.63	1716.20
239.85	1638.38
240.06	1728.49
240.28	1648.61
240.50	1748.97
240.72	1751.01
240.93	1697.77
241.15	1751.01
241.37	1671.14
241.59	1826.79
241.81	1710.05
242.02	1738.73
242.24	1658.85
242.46	1677.29
242.68	1662.95
242.89	1712.10
243.11	1703.91
243.33	1679.33
243.55	1761.25
243.76	1681.38
243.98	1648.61
244.20	1748.97
244.42	1794.02
244.64	1712.10
244.85	1652.71
245.07	1650.66
245.29	1820.64
245.51	1714.15
245.72	1841.12
245.94	1695.72
246.16	1765.35
246.38	1816.55
246.59	1742.82
246.81	1736.68
247.03	1783.78
247.24	1599.46
247.46	1636.33
247.68	1691.62
247.90	1660.90
248.11	1712.10
248.33	1722.34
248.55	1642.47
248.77	1662.95
248.98	1802.21
249.20	1734.63
249.42	1751.01
249.64	1751.01
249.85	1654.76
250.07	1697.77
250.29	1806.31
250.50	1755.11
250.72	1693.67
250.94	1660.90
251.16	1853.41
251.37	1802.21
251.59	1753.06
251.81	1781.73
252.02	1880.04
252.24	1685.48
252.46	1832.93
252.68	1665.00
252.89	1665.00
253.11	1566.70
253.33	1783.78
253.54	1738.73
253.76	1677.29
253.98	1691.62
254.20	1751.01
254.41	1656.81
254.63	1685.48
254.85	1681.38
255.06	1742.82
255.28	1681.38
255.50	1724.39
255.71	1679.33
255.93	1658.85
256.15	1685.48
256.36	1728.49
256.58	1665.00
256.80	1718.25
257.02	1787.88
257.23	1681.38
257.45	1720.29
257.67	1773.54
257.88	1640.42
258.10	1777.64
258.32	1708.01
258.53	1755.11
258.75	1839.08
258.97	1660.90
259.18	1708.01
259.40	1736.68
259.62	1800.16
259.83	1738.73
260.05	1734.63
260.27	1972.19
260.48	1695.72
260.70	1656.81
260.92	1693.67
261.13	1718.25
261.35	1730.53
261.57	1712.10
261.78	1654.76
262.00	1628.14
262.22	1734.63
262.43	1673.19
262.65	1722.34
262.86	1724.39
263.08	1873.89
263.30	1693.67
263.51	1660.90
263.73	1695.72
263.95	1791.97
264.16	1714.15
264.38	1685.48
264.60	1775.59
264.81	1748.97
265.03	1681.38
265.25	1757.16
265.46	1689.57
265.68	1845.22
265.89	1677.29
266.11	1662.95
266.33	1751.01
266.54	1837.03
266.76	1771.49
266.98	1751.01
267.19	1777.64
267.41	1712.10
267.62	1722.34
267.84	1681.38
268.06	1722.34
268.27	1730.53
268.49	1744.87
268.70	1773.54
268.92	1697.77
269.14	1675.24
269.35	1640.42
269.57	1742.82
269.79	1665.00
270.00	1669.09
270.22	1820.64
270.43	1662.95
270.65	1574.89
270.87	1712.10
271.08	1798.12
271.30	1730.53
271.51	1703.91
271.73	1759.21
271.95	1794.02
272.16	1796.07
272.38	1683.43
272.59	1646.57
272.81	1685.48
273.02	1767.40
273.24	1751.01
273.46	1685.48
273.67	1746.92
273.89	1705.96
274.10	1628.14
274.32	1771.49
274.54	1765.35
274.75	1779.68
274.97	1652.71
275.18	1765.35
275.40	1734.63
275.61	1736.68
275.83	1732.58
276.05	1656.81
276.26	1667.05
276.48	1787.88
276.69	1617.90
276.91	1701.86
277.12	1771.49
277.34	1742.82
277.55	1779.68
277.77	1705.96
277.99	1691.62
278.20	1644.52
278.42	1681.38
278.63	1699.81
278.85	1677.29
279.06	1564.65
279.28	1626.09
279.49	1783.78
279.71	1708.01
279.93	1736.68
280.14	1667.05
280.36	1638.38
280.57	1738.73
280.79	1671.14
281.00	1595.37
281.22	1638.38
281.43	1757.16
281.65	1558.50
281.86	1613.80
282.08	1757.16
282.29	1853.41
282.51	1603.56
282.73	1615.85
282.94	1638.38
283.16	1789.92
283.37	1845.22
283.59	1738.73
283.80	1656.81
284.02	1755.11
284.23	1710.05
284.45	1736.68
284.66	1683.43
284.88	1689.57
285.09	1761.25
285.31	1701.86
285.52	1658.85
285.74	1636.33
285.95	1724.39
286.17	1730.53
286.38	1783.78
286.60	1728.49
286.81	1675.24
287.03	1740.77
287.24	1714.15
287.46	1763.30
287.67	1656.81
287.89	1861.60
288.10	1599.46
288.32	1751.01
288.53	1847.27
288.75	1699.81
288.96	1724.39
289.18	1716.20
289.39	1662.95
289.61	1699.81
289.82	1775.59
290.04	1869.80
290.25	1611.75
290.47	1667.05
290.68	1693.67
290.90	1759.21
291.11	1652.71
291.33	1769.44
291.54	1587.18
291.76	1570.79
291.97	1613.80
292.18	1742.82
292.40	1714.15
292.61	1646.57
292.83	1863.65
293.04	1769.44
293.26	1705.96
293.47	1751.01
293.69	1662.95
293.90	1691.62
294.12	1699.81
294.33	1738.73
294.55	1705.96
294.76	1703.91
294.97	1734.63
295.19	1822.69
295.40	1667.05
295.62	1757.16
295.83	1761.25
296.05	1691.62
296.26	1777.64
296.48	1720.29
296.69	1679.33
296.90	1705.96
297.12	1710.05
297.33	1824.74
297.55	1685.48
297.76	1656.81
297.98	1755.11
298.19	1703.91
298.41	1783.78
298.62	1634.28
298.83	1855.46
299.05	1746.92
299.26	1697.77
299.48	1697.77
299.69	1703.91
299.90	1697.77
300.12	1656.81
300.33	1843.17
300.55	1771.49
300.76	1722.34
300.98	1724.39
301.19	1769.44
301.40	1685.48
301.62	1650.66
301.83	1761.25
302.05	1679.33
302.26	1714.15
302.47	1720.29
302.69	1654.76
302.90	1669.09
303.12	1636.33
303.33	1820.64
303.54	1800.16
303.76	1724.39
303.97	1775.59
304.19	1791.97
304.40	1732.58
304.61	1714.15
304.83	1888.23
305.04	1783.78
305.26	1806.31
305.47	1656.81
305.68	1716.20
305.90	1697.77
306.11	1753.06
306.33	1755.11
306.54	1685.48
306.75	1724.39
306.97	1601.51
307.18	1630.18
307.39	1677.29
307.61	1820.64
307.82	1648.61
308.04	1736.68
308.25	1687.53
308.46	1710.05
308.68	1689.57
308.89	1656.81
309.10	1816.55
309.32	1748.97
309.53	1816.55
309.74	1767.40
309.96	1763.30
310.17	1716.20
310.39	1724.39
310.60	1769.44
310.81	1753.06
311.03	1642.47
311.24	1695.72
311.45	1738.73
311.67	1734.63
311.88	1687.53
312.09	1738.73
312.31	1761.25
312.52	1718.25
312.73	1757.16
312.95	1636.33
313.16	1708.01
313.37	1853.41
313.59	1757.16
313.80	1761.25
314.01	1796.07
314.23	1667.05
314.44	1701.86
314.65	1654.76
314.87	1669.09
315.08	1724.39
315.29	1689.57
315.51	1650.66
315.72	1671.14
315.93	1843.17
316.15	1742.82
316.36	1710.05
316.57	1708.01
316.79	1744.87
317.00	1658.85
317.21	1757.16
317.43	1742.82
317.64	1673.19
317.85	1689.57
318.07	1644.52
318.28	1755.11
318.49	1820.64
318.70	1898.47
318.92	1818.60
319.13	1837.03
319.34	1863.65
319.56	1761.25
319.77	1796.07
319.98	1912.80
320.20	1775.59
320.41	1755.11
320.62	1755.11
320.83	1697.77
321.05	1794.02
321.26	1755.11
321.47	1693.67
321.69	1822.69
321.90	1689.57
322.11	1667.05
322.32	1746.92
322.54	1736.68
322.75	1644.52
322.96	1839.08
323.18	1587.18
323.39	1708.01
323.60	1650.66
323.81	1802.21
324.03	1716.20
324.24	1722.34
324.45	1677.29
324.66	1642.47
324.88	1787.88
325.09	1783.78
325.30	1652.71
325.52	1763.30
325.73	1734.63
325.94	1710.05
326.15	1656.81
326.37	1640.42
326.58	1730.53
326.79	1757.16
327.00	1656.81
327.22	1746.92
327.43	1654.76
327.64	1689.57
327.85	1773.54
328.07	1697.77
328.28	1832.93
328.49	1673.19
328.70	1751.01
328.92	1761.25
329.13	1611.75
329.34	1708.01
329.55	1822.69
329.76	1697.77
329.98	1599.46
330.19	1722.34
330.40	1710.05
330.61	1742.82
330.83	1810.40
331.04	1671.14
331.25	1716.20
331.46	1624.04
331.68	1640.42
331.89	1820.64
332.10	1740.77
332.31	1611.75
332.52	1708.01
332.74	1783.78
332.95	1632.23
333.16	1673.19
333.37	1728.49
333.58	1685.48
333.80	1755.11
334.01	1591.27
334.22	1595.37
334.43	1693.67
334.64	1667.05
334.86	1587.18
335.07	1695.72
335.28	1771.49
335.49	1587.18
335.70	1720.29
335.92	1806.31
336.13	1865.70
336.34	1697.77
336.55	1796.07
336.76	1656.81
336.98	1642.47
337.19	1738.73
337.40	1777.64
337.61	1877.99
337.82	1759.21
338.04	1773.54
338.25	1595.37
338.46	1777.64
338.67	1755.11
338.88	1611.75
339.09	1673.19
339.31	1726.44
339.52	1656.81
339.73	1656.81
339.94	1695.72
340.15	1730.53
340.36	1742.82
340.58	1634.28
340.79	1671.14
341.00	1718.25
341.21	1632.23
341.42	1804.26
341.63	1714.15
341.85	1763.30
342.06	1781.73
342.27	1673.19
342.48	1794.02
342.69	1681.38
342.90	1763.30
343.12	1751.01
343.33	1722.34
343.54	1648.61
343.75	1796.07
343.96	1636.33
344.17	1705.96
344.38	1691.62
344.60	1675.24
344.81	1697.77
345.02	1732.58
345.23	1777.64
345.44	1718.25
345.65	1763.30
345.86	1726.44
346.07	1656.81
346.29	1658.85
346.50	1783.78
346.71	1722.34
346.92	1789.92
347.13	1839.08
347.34	1738.73
347.55	1773.54
347.76	1742.82
347.98	1646.57
348.19	1714.15
348.40	1738.73
348.61	1726.44
348.82	1789.92
349.03	1804.26
349.24	1683.43
349.45	1837.03
349.66	1581.03
349.88	1720.29
350.09	1689.57
350.30	1787.88
350.51	1810.40
350.72	1677.29
350.93	1644.52
351.14	1615.85
351.35	1763.30
351.56	1671.14
351.77	1720.29
351.99	1757.16
352.20	1812.45
352.41	1771.49
352.62	1638.38
352.83	1722.34
353.04	1714.15
353.25	1695.72
353.46	1763.30
353.67	1783.78
353.88	1638.38
354.09	1705.96
354.30	1646.57
354.52	1783.78
354.73	1697.77
354.94	1748.97
355.15	1648.61
355.36	1779.68
355.57	1763.30
355.78	1755.11
355.99	1730.53
356.20	1683.43
356.41	1855.46
356.62	1720.29
356.83	1714.15
357.04	1867.75
357.25	1675.24
357.46	1695.72
357.68	1650.66
357.89	1677.29
358.10	1701.86
358.31	1718.25
358.52	1718.25
358.73	1650.66
358.94	1681.38
359.15	1654.76
359.36	1693.67
359.57	1714.15
359.78	1681.38
359.99	1755.11
360.20	1744.87
360.41	1671.14
360.62	1697.77
360.83	1742.82
361.04	1746.92
361.25	1753.06
361.46	1791.97
361.67	1640.42
361.88	1787.88
362.09	1777.64
362.30	1665.00
362.51	1628.14
362.72	1726.44
362.93	1769.44
363.14	1785.83
363.35	1732.58
363.56	1732.58
363.78	1808.36
363.99	1714.15
364.20	1767.40
364.41	1738.73
364.62	1718.25
364.83	1695.72
365.04	1748.97
365.25	1691.62
365.46	1824.74
365.67	1746.92
365.88	1701.86
366.09	1732.58
366.30	1744.87
366.51	1677.29
366.72	1583.08
366.93	1632.23
367.14	1773.54
367.35	1755.11
367.56	1785.83
367.77	1845.22
367.98	1695.72
368.18	1691.62
368.39	1718.25
368.60	1718.25
368.81	1777.64
369.02	1691.62
369.23	1671.14
369.44	1665.00
369.65	1654.76
369.86	1705.96
370.07	1746.92
370.28	1677.29
370.49	1652.71
370.70	1738.73
370.91	1617.90
371.12	1673.19
371.33	1808.36
371.54	1701.86
371.75	1812.45
371.96	1607.66
372.17	1722.34
372.38	1748.97
372.59	1705.96
372.80	1722.34
373.01	1677.29
373.22	1787.88
373.43	1695.72
373.64	1740.77
373.85	1726.44
374.06	1839.08
374.26	1789.92
374.47	1703.91
374.68	1785.83
374.89	1644.52
375.10	1734.63
375.31	1732.58
375.52	1669.09
375.73	1671.14
375.94	1669.09
376.15	1791.97
376.36	1638.38
376.57	1718.25
376.78	1697.77
376.99	1734.63
377.20	1755.11
377.40	1689.57
377.61	1779.68
377.82	1671.14
378.03	1769.44
378.24	1710.05
378.45	1703.91
378.66	1705.96
378.87	1673.19
379.08	1624.04
379.29	1662.95
379.50	1789.92
379.71	1697.77
379.91	1783.78
380.12	1636.33
380.33	1816.55
380.54	1728.49
380.75	1705.96
380.96	1699.81
381.17	1761.25
381.38	1765.35
381.59	1689.57
381.80	1710.05
382.00	1779.68
382.21	1769.44
382.42	1845.22
382.63	1820.64
382.84	1775.59
383.05	1683.43
383.26	1820.64
383.47	1675.24
383.68	1697.77
383.88	1820.64
384.09	1769.44
384.30	1779.68
384.51	1687.53
384.72	1662.95
384.93	1753.06
385.14	1708.01
385.35	1802.21
385.55	1597.42
385.76	1800.16
385.97	1720.29
386.18	1681.38
386.39	1746.92
386.60	1746.92
386.81	1679.33
387.02	1671.14
387.22	1679.33
387.43	1841.12
387.64	1812.45
387.85	1925.09
388.06	2168.80
388.27	4134.85
388.48	6657.95
388.68	8071.04
388.89	9514.86
389.10	9656.17
389.31	8472.45
389.52	7550.86
389.73	6594.46
389.93	6229.92
390.14	5838.76
390.35	5050.29
390.56	4542.39
390.77	3663.82
390.98	3051.47
391.18	2535.39
391.39	2019.30
391.60	1900.52
391.81	1877.99
392.02	1718.25
392.23	1857.51
392.43	1826.79
392.64	1800.16
392.85	1740.77
393.06	1816.55
393.27	1689.57
393.47	1718.25
393.68	1765.35
393.89	1644.52
394.10	1751.01
394.31	1757.16
394.52	1640.42
394.72	1703.91
394.93	1785.83
395.14	1701.86
395.35	1779.68
395.56	1597.42
395.76	1796.07
395.97	1828.84
396.18	1830.88
396.39	1763.30
396.60	2078.69
396.80	1923.04
397.01	1824.74
397.22	1830.88
397.43	1804.26
397.64	1689.57
397.84	1839.08
398.05	1873.89
398.26	1783.78
398.47	1742.82
398.67	1773.54
398.88	1767.40
399.09	1818.60
399.30	1632.23
399.51	1812.45
399.71	1677.29
399.92	1705.96
400.13	1746.92
400.34	1785.83
400.54	1718.25
400.75	1728.49
400.96	1689.57
401.17	1816.55
401.37	1685.48
401.58	1759.21
401.79	1791.97
402.00	1863.65
402.21	2058.21
402.41	1970.15
402.62	1959.91
402.83	2045.92
403.04	1972.19
403.24	2070.50
403.45	1925.09
403.66	1949.67
403.87	1834.98
404.07	1935.33
404.28	1976.29
404.49	1886.18
404.70	1787.88
404.90	1845.22
405.11	1773.54
405.32	1714.15
405.52	1720.29
405.73	1624.04
405.94	1667.05
406.15	1720.29
406.35	1843.17
406.56	1740.77
406.77	1775.59
406.98	1746.92
407.18	1699.81
407.39	1787.88
407.60	1667.05
407.80	1740.77
408.01	1695.72
408.22	1736.68
408.43	1636.33
408.63	1693.67
408.84	1761.25
409.05	1748.97
409.25	1669.09
409.46	1677.29
409.67	1675.24
409.88	1665.00
410.08	1767.40
410.29	1708.01
410.50	1818.60
410.70	1738.73
410.91	1642.47
411.12	1759.21
411.32	1728.49
411.53	1630.18
411.74	1742.82
411.95	1787.88
412.15	1753.06
412.36	1746.92
412.57	1773.54
412.77	1783.78
412.98	1755.11
413.19	1777.64
413.39	1828.84
413.60	1763.30
413.81	1791.97
414.01	1683.43
414.22	1650.66
414.43	1763.30
414.63	1695.72
414.84	1767.40
415.05	1691.62
415.25	1626.09
415.46	1828.84
415.67	1675.24
415.87	1779.68
416.08	1693.67
416.29	1699.81
416.49	1816.55
416.70	1693.67
416.91	1669.09
417.11	1730.53
417.32	1785.83
417.53	1843.17
417.73	1742.82
417.94	1744.87
418.15	1779.68
418.35	1730.53
418.56	1730.53
418.77	1939.43
418.97	1740.77
419.18	1677.29
419.38	1687.53
419.59	1742.82
419.80	1804.26
420.00	1708.01
420.21	1656.81
420.42	1787.88
420.62	1804.26
420.83	1679.33
421.04	1699.81
421.24	1701.86
421.45	1738.73
421.65	1785.83
421.86	1607.66
422.07	1724.39
422.27	1732.58
422.48	1718.25
422.69	1693.67
422.89	1718.25
423.10	1681.38
423.30	1652.71
423.51	1732.58
423.72	1789.92
423.92	1781.73
424.13	1658.85
424.33	1763.30
424.54	1720.29
424.75	1794.02
424.95	1738.73
425.16	1742.82
425.36	1615.85
425.57	1769.44
425.78	1800.16
425.98	1785.83
426.19	1724.39
426.39	1712.10
426.60	1681.38
426.81	1775.59
427.01	1669.09
427.22	1673.19
427.42	1624.04
427.63	1689.57
427.83	1685.48
428.04	1798.12
428.25	1796.07
428.45	1769.44
428.66	1789.92
428.86	1738.73
429.07	1697.77
429.28	1796.07
429.48	1697.77
429.69	1673.19
429.89	1759.21
430.10	1656.81
430.30	1724.39
430.51	1796.07
430.71	1689.57
430.92	1673.19
431.13	1656.81
431.33	1734.63
431.54	1746.92
431.74	1871.84
431.95	1877.99
432.15	1748.97
432.36	1695.72
432.56	1714.15
432.77	1773.54
432.98	1812.45
433.18	1812.45
433.39	1660.90
433.59	1728.49
433.80	1855.46
434.00	1929.19
434.21	1787.88
434.41	1662.95
434.62	1904.61
434.82	1613.80
435.03	1632.23
435.23	1761.25
435.44	1671.14
435.64	1683.43
435.85	1720.29
436.06	1751.01
436.26	1771.49
436.47	1630.18
436.67	1619.94
436.88	1716.20
437.08	1765.35
437.29	1775.59
437.49	1693.67
437.70	1757.16
437.90	1640.42
438.11	1873.89
438.31	1785.83
438.52	1855.46
438.72	1849.32
438.93	1927.14
439.13	1767.40
439.34	1773.54
439.54	1689.57
439.75	1759.21
439.95	1742.82
440.16	1697.77
440.36	1779.68
440.57	1710.05
440.77	1683.43
440.98	1744.87
441.18	1753.06
441.39	1746.92
441.59	1697.77
441.80	1849.32
442.00	1714.15
442.21	1808.36
442.41	1701.86
442.62	1759.21
442.82	1665.00
443.02	1767.40
443.23	1785.83
443.43	1712.10
443.64	1867.75
443.84	1683.43
444.05	1789.92
444.25	1728.49
444.46	1673.19
444.66	1753.06
444.87	1822.69
445.07	1634.28
445.28	1730.53
445.48	1841.12
445.69	1855.46
445.89	1906.66
446.09	1710.05
446.30	2058.21
446.50	2658.26
446.71	3629.00
446.91	4304.83
447.12	4716.47
447.32	4718.52
447.53	4294.59
447.73	3872.71
447.93	3446.73
448.14	3368.91
448.34	3172.30
448.55	2844.63
448.75	2846.68
448.96	2707.41
449.16	2389.98
449.36	2295.77
449.57	2082.78
449.77	1853.41
449.98	1814.50
450.18	1882.08
450.39	1898.47
450.59	1769.44
450.79	1712.10
451.00	1765.35
451.20	1822.69
451.41	1701.86
451.61	1853.41
451.81	1769.44
452.02	1751.01
452.22	1730.53
452.43	1769.44
452.63	1746.92
