SpectraSuite Data File
++++++++++++++++++++++++++++++++++++
Date: Mon Jun 06 17:25:37 CEST 2016
User: root
Dark Spectrum Present: No
Reference Spectrum Present: No
Number of Sampled Component Spectra: 1
Spectrometers: USB4C02835
Integration Time (usec): 100000 (USB4C02835)
Spectra Averaged: 1 (USB4C02835)
Boxcar Smoothing: 0 (USB4C02835)
Correct for Electrical Dark: No (USB4C02835)
Strobe/Lamp Enabled: No (USB4C02835)
Correct for Detector Non-linearity: No (USB4C02835)
Correct for Stray Light: No (USB4C02835)
Number of Pixels in Processed Spectrum: 3648
>>>>>Begin Processed Spectral Data<<<<<
177.47	1474.54
177.69	1474.54
177.91	1474.54
178.13	1474.54
178.36	1462.25
178.58	1662.95
178.80	1708.01
179.02	1619.94
179.24	1693.67
179.46	1712.10
179.68	1744.87
179.90	1724.39
180.13	1650.66
180.35	1660.90
180.57	1648.61
180.79	1701.86
181.01	1720.29
181.23	1736.68
181.45	1740.77
181.67	1744.87
181.90	1771.49
182.12	1662.95
182.34	1644.52
182.56	1746.92
182.78	1755.11
183.00	1697.77
183.22	1730.53
183.44	1603.56
183.66	1796.07
183.89	1748.97
184.11	1714.15
184.33	1716.20
184.55	1849.32
184.77	1740.77
184.99	1755.11
185.21	1675.24
185.43	1783.78
185.65	1609.70
185.87	1785.83
186.10	1757.16
186.32	1843.17
186.54	1748.97
186.76	1751.01
186.98	1771.49
187.20	1644.52
187.42	1695.72
187.64	1660.90
187.86	1705.96
188.08	1730.53
188.30	1859.56
188.52	1679.33
188.75	1863.65
188.97	1808.36
189.19	1675.24
189.41	1701.86
189.63	1714.15
189.85	1652.71
190.07	1636.33
190.29	1667.05
190.51	1814.50
190.73	1673.19
190.95	1757.16
191.17	1785.83
191.39	1621.99
191.61	1681.38
191.84	1699.81
192.06	1697.77
192.28	1583.08
192.50	1920.99
192.72	1695.72
192.94	1703.91
193.16	1802.21
193.38	1722.34
193.60	1642.47
193.82	1732.58
194.04	1839.08
194.26	1804.26
194.48	1703.91
194.70	1736.68
194.92	1708.01
195.14	1744.87
195.36	1691.62
195.58	1751.01
195.80	1648.61
196.02	1667.05
196.24	1691.62
196.46	1710.05
196.69	1726.44
196.91	1867.75
197.13	1738.73
197.35	1687.53
197.57	1849.32
197.79	1644.52
198.01	1759.21
198.23	1730.53
198.45	1722.34
198.67	1691.62
198.89	1740.77
199.11	1787.88
199.33	1615.85
199.55	1558.50
199.77	1687.53
199.99	1779.68
200.21	1726.44
200.43	1767.40
200.65	1722.34
200.87	1501.16
201.09	1769.44
201.31	1740.77
201.53	1728.49
201.75	1724.39
201.97	1703.91
202.19	1779.68
202.41	1681.38
202.63	1843.17
202.85	1777.64
203.07	1697.77
203.29	1605.61
203.51	1658.85
203.73	1693.67
203.95	1861.60
204.17	1789.92
204.39	1748.97
204.61	1716.20
204.83	1714.15
205.05	1761.25
205.27	1761.25
205.49	1771.49
205.71	1658.85
205.93	1640.42
206.15	1708.01
206.37	1738.73
206.59	1652.71
206.81	1642.47
207.03	1685.48
207.25	1617.90
207.47	1761.25
207.69	1757.16
207.91	1857.51
208.13	1755.11
208.34	1783.78
208.56	1638.38
208.78	1804.26
209.00	1679.33
209.22	1705.96
209.44	1736.68
209.66	1638.38
209.88	1759.21
210.10	1722.34
210.32	1689.57
210.54	1818.60
210.76	1697.77
210.98	1796.07
211.20	1568.74
211.42	1763.30
211.64	1781.73
211.86	1734.63
212.08	1759.21
212.30	1845.22
212.52	1740.77
212.74	1744.87
212.96	1806.31
213.17	1765.35
213.39	1785.83
213.61	1755.11
213.83	1697.77
214.05	1628.14
214.27	1718.25
214.49	1658.85
214.71	1693.67
214.93	1861.60
215.15	1673.19
215.37	1771.49
215.59	1585.13
215.81	1722.34
216.03	1824.74
216.24	1718.25
216.46	1671.14
216.68	1791.97
216.90	1814.50
217.12	1757.16
217.34	1648.61
217.56	1748.97
217.78	1730.53
218.00	1789.92
218.22	1824.74
218.44	1716.20
218.66	1687.53
218.87	1712.10
219.09	1665.00
219.31	1753.06
219.53	1710.05
219.75	1650.66
219.97	1638.38
220.19	1777.64
220.41	1685.48
220.63	1761.25
220.85	1730.53
221.06	1710.05
221.28	1824.74
221.50	1744.87
221.72	1746.92
221.94	1724.39
222.16	1720.29
222.38	1783.78
222.60	1769.44
222.82	1771.49
223.03	1716.20
223.25	1650.66
223.47	1703.91
223.69	1849.32
223.91	1773.54
224.13	1740.77
224.35	1691.62
224.57	1800.16
224.78	1646.57
225.00	1746.92
225.22	1691.62
225.44	1697.77
225.66	1722.34
225.88	1665.00
226.10	1785.83
226.32	1759.21
226.53	1781.73
226.75	1673.19
226.97	1703.91
227.19	1699.81
227.41	1646.57
227.63	1665.00
227.85	1673.19
228.06	1779.68
228.28	1667.05
228.50	1785.83
228.72	1691.62
228.94	1697.77
229.16	1562.60
229.37	1619.94
229.59	1671.14
229.81	1767.40
230.03	1740.77
230.25	1624.04
230.47	1628.14
230.69	1554.41
230.90	1728.49
231.12	1716.20
231.34	1759.21
231.56	1767.40
231.78	1685.48
232.00	1718.25
232.21	1687.53
232.43	1722.34
232.65	1574.89
232.87	1759.21
233.09	1708.01
233.30	1722.34
233.52	1691.62
233.74	1808.36
233.96	1726.44
234.18	1730.53
234.40	1689.57
234.61	1783.78
234.83	1634.28
235.05	1660.90
235.27	1875.94
235.49	1773.54
235.70	1701.86
235.92	1708.01
236.14	1753.06
236.36	1882.08
236.58	1656.81
236.79	1773.54
237.01	1787.88
237.23	1669.09
237.45	1802.21
237.67	1665.00
237.88	1705.96
238.10	1865.70
238.32	1615.85
238.54	1716.20
238.76	1646.57
238.97	1632.23
239.19	1626.09
239.41	1761.25
239.63	1740.77
239.85	1640.42
240.06	1693.67
240.28	1685.48
240.50	1773.54
240.72	1761.25
240.93	1691.62
241.15	1738.73
241.37	1716.20
241.59	1757.16
241.81	1732.58
242.02	1685.48
242.24	1732.58
242.46	1740.77
242.68	1689.57
242.89	1798.12
243.11	1757.16
243.33	1736.68
243.55	1714.15
243.76	1742.82
243.98	1665.00
244.20	1716.20
244.42	1738.73
244.64	1796.07
244.85	1654.76
245.07	1656.81
245.29	1763.30
245.51	1634.28
245.72	1677.29
245.94	1818.60
246.16	1660.90
246.38	1718.25
246.59	1738.73
246.81	1628.14
247.03	1685.48
247.24	1642.47
247.46	1693.67
247.68	1675.24
247.90	1654.76
248.11	1714.15
248.33	1810.40
248.55	1705.96
248.77	1693.67
248.98	1771.49
249.20	1863.65
249.42	1718.25
249.64	1708.01
249.85	1746.92
250.07	1681.38
250.29	1771.49
250.50	1748.97
250.72	1640.42
250.94	1701.86
251.16	1841.12
251.37	1804.26
251.59	1710.05
251.81	1742.82
252.02	1808.36
252.24	1703.91
252.46	1896.42
252.68	1710.05
252.89	1716.20
253.11	1636.33
253.33	1830.88
253.54	1714.15
253.76	1699.81
253.98	1720.29
254.20	1683.43
254.41	1638.38
254.63	1714.15
254.85	1603.56
255.06	1728.49
255.28	1755.11
255.50	1718.25
255.71	1621.99
255.93	1624.04
256.15	1693.67
256.36	1732.58
256.58	1654.76
256.80	1753.06
257.02	1705.96
257.23	1650.66
257.45	1619.94
257.67	1777.64
257.88	1648.61
258.10	1755.11
258.32	1718.25
258.53	1740.77
258.75	1804.26
258.97	1654.76
259.18	1701.86
259.40	1800.16
259.62	1871.84
259.83	1810.40
260.05	1703.91
260.27	1949.67
260.48	1695.72
260.70	1626.09
260.92	1701.86
261.13	1697.77
261.35	1728.49
261.57	1742.82
261.78	1593.32
262.00	1658.85
262.22	1720.29
262.43	1734.63
262.65	1675.24
262.86	1656.81
263.08	1779.68
263.30	1722.34
263.51	1712.10
263.73	1726.44
263.95	1853.41
264.16	1677.29
264.38	1587.18
264.60	1736.68
264.81	1703.91
265.03	1757.16
265.25	1820.64
265.46	1697.77
265.68	1818.60
265.89	1787.88
266.11	1621.99
266.33	1714.15
266.54	1722.34
266.76	1841.12
266.98	1705.96
267.19	1757.16
267.41	1748.97
267.62	1697.77
267.84	1669.09
268.06	1753.06
268.27	1767.40
268.49	1787.88
268.70	1800.16
268.92	1689.57
269.14	1714.15
269.35	1609.70
269.57	1703.91
269.79	1796.07
270.00	1658.85
270.22	1900.52
270.43	1665.00
270.65	1558.50
270.87	1738.73
271.08	1751.01
271.30	1701.86
271.51	1722.34
271.73	1798.12
271.95	1834.98
272.16	1650.66
272.38	1714.15
272.59	1744.87
272.81	1656.81
273.02	1675.24
273.24	1744.87
273.46	1722.34
273.67	1652.71
273.89	1548.26
274.10	1703.91
274.32	1738.73
274.54	1755.11
274.75	1687.53
274.97	1734.63
275.18	1683.43
275.40	1804.26
275.61	1777.64
275.83	1822.69
276.05	1597.42
276.26	1673.19
276.48	1767.40
276.69	1728.49
276.91	1617.90
277.12	1785.83
277.34	1787.88
277.55	1718.25
277.77	1777.64
277.99	1701.86
278.20	1685.48
278.42	1648.61
278.63	1552.36
278.85	1626.09
279.06	1638.38
279.28	1683.43
279.49	1767.40
279.71	1708.01
279.93	1724.39
280.14	1708.01
280.36	1677.29
280.57	1796.07
280.79	1775.59
281.00	1693.67
281.22	1607.66
281.43	1837.03
281.65	1609.70
281.86	1605.61
282.08	1734.63
282.29	1871.84
282.51	1603.56
282.73	1660.90
282.94	1662.95
283.16	1773.54
283.37	1843.17
283.59	1705.96
283.80	1771.49
284.02	1699.81
284.23	1732.58
284.45	1712.10
284.66	1636.33
284.88	1748.97
285.09	1691.62
285.31	1777.64
285.52	1726.44
285.74	1583.08
285.95	1796.07
286.17	1714.15
286.38	1828.84
286.60	1683.43
286.81	1703.91
287.03	1738.73
287.24	1636.33
287.46	1744.87
287.67	1718.25
287.89	1853.41
288.10	1759.21
288.32	1712.10
288.53	1822.69
288.75	1662.95
288.96	1783.78
289.18	1718.25
289.39	1679.33
289.61	1734.63
289.82	1810.40
290.04	1787.88
290.25	1609.70
290.47	1656.81
290.68	1638.38
290.90	1757.16
291.11	1667.05
291.33	1771.49
291.54	1675.24
291.76	1697.77
291.97	1763.30
292.18	1703.91
292.40	1722.34
292.61	1578.98
292.83	1841.12
293.04	1765.35
293.26	1736.68
293.47	1642.47
293.69	1697.77
293.90	1642.47
294.12	1789.92
294.33	1767.40
294.55	1730.53
294.76	1777.64
294.97	1757.16
295.19	1837.03
295.40	1607.66
295.62	1722.34
295.83	1757.16
296.05	1628.14
296.26	1763.30
296.48	1683.43
296.69	1742.82
296.90	1722.34
297.12	1779.68
297.33	1806.31
297.55	1634.28
297.76	1693.67
297.98	1724.39
298.19	1744.87
298.41	1740.77
298.62	1617.90
298.83	1787.88
299.05	1761.25
299.26	1710.05
299.48	1650.66
299.69	1761.25
299.90	1718.25
300.12	1722.34
300.33	1716.20
300.55	1763.30
300.76	1714.15
300.98	1742.82
301.19	1851.36
301.40	1718.25
301.62	1656.81
301.83	1753.06
302.05	1665.00
302.26	1730.53
302.47	1751.01
302.69	1669.09
302.90	1718.25
303.12	1609.70
303.33	1699.81
303.54	1761.25
303.76	1673.19
303.97	1732.58
304.19	1808.36
304.40	1544.17
304.61	1812.45
304.83	1843.17
305.04	1806.31
305.26	1703.91
305.47	1677.29
305.68	1695.72
305.90	1665.00
306.11	1714.15
306.33	1726.44
306.54	1669.09
306.75	1652.71
306.97	1597.42
307.18	1720.29
307.39	1744.87
307.61	1791.97
307.82	1599.46
308.04	1687.53
308.25	1652.71
308.46	1757.16
308.68	1732.58
308.89	1642.47
309.10	1806.31
309.32	1748.97
309.53	1650.66
309.74	1646.57
309.96	1751.01
310.17	1681.38
310.39	1712.10
310.60	1726.44
310.81	1751.01
311.03	1638.38
311.24	1765.35
311.45	1671.14
311.67	1806.31
311.88	1687.53
312.09	1734.63
312.31	1673.19
312.52	1703.91
312.73	1748.97
312.95	1677.29
313.16	1632.23
313.37	1736.68
313.59	1771.49
313.80	1722.34
314.01	1783.78
314.23	1712.10
314.44	1615.85
314.65	1673.19
314.87	1724.39
315.08	1640.42
315.29	1658.85
315.51	1697.77
315.72	1695.72
315.93	1857.51
316.15	1746.92
316.36	1742.82
316.57	1730.53
316.79	1773.54
317.00	1705.96
317.21	1689.57
317.43	1648.61
317.64	1755.11
317.85	1777.64
318.07	1732.58
318.28	1738.73
318.49	1763.30
318.70	1931.23
318.92	1818.60
319.13	1808.36
319.34	1869.80
319.56	1869.80
319.77	1808.36
319.98	1849.32
320.20	1759.21
320.41	1697.77
320.62	1787.88
320.83	1599.46
321.05	1851.36
321.26	1740.77
321.47	1615.85
321.69	1845.22
321.90	1705.96
322.11	1742.82
322.32	1767.40
322.54	1810.40
322.75	1662.95
322.96	1812.45
323.18	1626.09
323.39	1570.79
323.60	1708.01
323.81	1804.26
324.03	1632.23
324.24	1726.44
324.45	1710.05
324.66	1714.15
324.88	1687.53
325.09	1787.88
325.30	1701.86
325.52	1720.29
325.73	1834.98
325.94	1638.38
326.15	1673.19
326.37	1710.05
326.58	1757.16
326.79	1691.62
327.00	1718.25
327.22	1699.81
327.43	1669.09
327.64	1660.90
327.85	1759.21
328.07	1746.92
328.28	1816.55
328.49	1681.38
328.70	1710.05
328.92	1746.92
329.13	1679.33
329.34	1718.25
329.55	1771.49
329.76	1732.58
329.98	1693.67
330.19	1738.73
330.40	1781.73
330.61	1652.71
330.83	1753.06
331.04	1632.23
331.25	1724.39
331.46	1781.73
331.68	1636.33
331.89	1755.11
332.10	1710.05
332.31	1648.61
332.52	1665.00
332.74	1761.25
332.95	1677.29
333.16	1710.05
333.37	1710.05
333.58	1757.16
333.80	1685.48
334.01	1628.14
334.22	1744.87
334.43	1691.62
334.64	1791.97
334.86	1599.46
335.07	1599.46
335.28	1816.55
335.49	1685.48
335.70	1812.45
335.92	1779.68
336.13	1800.16
336.34	1742.82
336.55	1701.86
336.76	1714.15
336.98	1636.33
337.19	1687.53
337.40	1871.84
337.61	1906.66
337.82	1701.86
338.04	1755.11
338.25	1634.28
338.46	1687.53
338.67	1658.85
338.88	1720.29
339.09	1634.28
339.31	1742.82
339.52	1632.23
339.73	1615.85
339.94	1740.77
340.15	1740.77
340.36	1742.82
340.58	1703.91
340.79	1701.86
341.00	1718.25
341.21	1697.77
341.42	1820.64
341.63	1714.15
341.85	1720.29
342.06	1767.40
342.27	1712.10
342.48	1632.23
342.69	1650.66
342.90	1728.49
343.12	1753.06
343.33	1681.38
343.54	1773.54
343.75	1773.54
343.96	1634.28
344.17	1687.53
344.38	1720.29
344.60	1701.86
344.81	1658.85
345.02	1742.82
345.23	1746.92
345.44	1791.97
345.65	1736.68
345.86	1740.77
346.07	1708.01
346.29	1726.44
346.50	1757.16
346.71	1753.06
346.92	1714.15
347.13	1783.78
347.34	1708.01
347.55	1699.81
347.76	1718.25
347.98	1619.94
348.19	1669.09
348.40	1759.21
348.61	1658.85
348.82	1808.36
349.03	1810.40
349.24	1730.53
349.45	1826.79
349.66	1626.09
349.88	1779.68
350.09	1675.24
350.30	1740.77
350.51	1859.56
350.72	1775.59
350.93	1722.34
351.14	1740.77
351.35	1705.96
351.56	1712.10
351.77	1728.49
351.99	1755.11
352.20	1841.12
352.41	1679.33
352.62	1671.14
352.83	1689.57
353.04	1658.85
353.25	1605.61
353.46	1765.35
353.67	1785.83
353.88	1558.50
354.09	1740.77
354.30	1806.31
354.52	1710.05
354.73	1701.86
354.94	1759.21
355.15	1687.53
355.36	1824.74
355.57	1703.91
355.78	1748.97
355.99	1650.66
356.20	1654.76
356.41	1849.32
356.62	1779.68
356.83	1705.96
357.04	1810.40
357.25	1615.85
357.46	1773.54
357.68	1691.62
357.89	1611.75
358.10	1748.97
358.31	1726.44
358.52	1712.10
358.73	1712.10
358.94	1689.57
359.15	1681.38
359.36	1738.73
359.57	1687.53
359.78	1656.81
359.99	1773.54
360.20	1685.48
360.41	1701.86
360.62	1726.44
360.83	1734.63
361.04	1703.91
361.25	1753.06
361.46	1744.87
361.67	1675.24
361.88	1740.77
362.09	1824.74
362.30	1720.29
362.51	1673.19
362.72	1724.39
362.93	1742.82
363.14	1697.77
363.35	1689.57
363.56	1728.49
363.78	1746.92
363.99	1794.02
364.20	1652.71
364.41	1703.91
364.62	1773.54
364.83	1712.10
365.04	1701.86
365.25	1677.29
365.46	1804.26
365.67	1740.77
365.88	1677.29
366.09	1673.19
366.30	1697.77
366.51	1710.05
366.72	1593.32
366.93	1730.53
367.14	1736.68
367.35	1789.92
367.56	1710.05
367.77	1697.77
367.98	1732.58
368.18	1767.40
368.39	1693.67
368.60	1611.75
368.81	1726.44
369.02	1714.15
369.23	1613.80
369.44	1712.10
369.65	1665.00
369.86	1736.68
370.07	1787.88
370.28	1642.47
370.49	1808.36
370.70	1761.25
370.91	1710.05
371.12	1656.81
371.33	1734.63
371.54	1748.97
371.75	1832.93
371.96	1581.03
372.17	1759.21
372.38	1742.82
372.59	1773.54
372.80	1701.86
373.01	1701.86
373.22	1796.07
373.43	1746.92
373.64	1642.47
373.85	1765.35
374.06	1800.16
374.26	1763.30
374.47	1765.35
374.68	1730.53
374.89	1689.57
375.10	1757.16
375.31	1820.64
375.52	1746.92
375.73	1712.10
375.94	1646.57
376.15	1767.40
376.36	1693.67
376.57	1626.09
376.78	1746.92
376.99	1683.43
377.20	1810.40
377.40	1722.34
377.61	1759.21
377.82	1640.42
378.03	1781.73
378.24	1787.88
378.45	1738.73
378.66	1718.25
378.87	1597.42
379.08	1675.24
379.29	1632.23
379.50	1738.73
379.71	1644.52
379.91	1722.34
380.12	1728.49
380.33	1753.06
380.54	1791.97
380.75	1710.05
380.96	1699.81
381.17	1759.21
381.38	1746.92
381.59	1687.53
381.80	1779.68
382.00	1845.22
382.21	1775.59
382.42	1814.50
382.63	1830.88
382.84	1769.44
383.05	1849.32
383.26	1828.84
383.47	1783.78
383.68	1822.69
383.88	1732.58
384.09	1712.10
384.30	1804.26
384.51	1798.12
384.72	1679.33
384.93	1691.62
385.14	1697.77
385.35	1816.55
385.55	1619.94
385.76	1730.53
385.97	1660.90
386.18	1591.27
386.39	1609.70
386.60	1708.01
386.81	1683.43
387.02	1673.19
387.22	1634.28
387.43	1769.44
387.64	1857.51
387.85	1877.99
388.06	2162.66
388.27	4282.30
388.48	6623.13
388.68	8046.47
388.89	9549.68
389.10	9762.67
389.31	8574.85
389.52	7507.85
389.73	6711.19
389.93	6221.73
390.14	5920.68
390.35	5273.52
390.56	4620.22
390.77	3768.26
390.98	2942.93
391.18	2598.87
391.39	2168.80
391.60	1837.03
391.81	1810.40
392.02	1742.82
392.23	1910.75
392.43	1748.97
392.64	1777.64
392.85	1718.25
393.06	1875.94
393.27	1738.73
393.47	1681.38
393.68	1746.92
393.89	1712.10
394.10	1771.49
394.31	1734.63
394.52	1677.29
394.72	1697.77
394.93	1804.26
395.14	1654.76
395.35	1765.35
395.56	1609.70
395.76	1767.40
395.97	1781.73
396.18	1929.19
396.39	1890.28
396.60	2093.02
396.80	1916.90
397.01	1843.17
397.22	1755.11
397.43	1857.51
397.64	1689.57
397.84	1814.50
398.05	1929.19
398.26	1765.35
398.47	1863.65
398.67	1814.50
398.88	1757.16
399.09	1757.16
399.30	1685.48
399.51	1718.25
399.71	1658.85
399.92	1693.67
400.13	1798.12
400.34	1662.95
400.54	1669.09
400.75	1806.31
400.96	1710.05
401.17	1771.49
401.37	1820.64
401.58	1730.53
401.79	1734.63
402.00	1880.04
402.21	1996.77
402.41	1984.48
402.62	1949.67
402.83	2103.26
403.04	2000.87
403.24	2101.22
403.45	1837.03
403.66	1906.66
403.87	1898.47
404.07	1884.13
404.28	1900.52
404.49	1882.08
404.70	1820.64
404.90	1875.94
405.11	1787.88
405.32	1751.01
405.52	1759.21
405.73	1681.38
405.94	1691.62
406.15	1697.77
406.35	1804.26
406.56	1771.49
406.77	1730.53
406.98	1710.05
407.18	1693.67
407.39	1771.49
407.60	1665.00
407.80	1837.03
408.01	1648.61
408.22	1740.77
408.43	1724.39
408.63	1669.09
408.84	1798.12
409.05	1779.68
409.25	1658.85
409.46	1677.29
409.67	1740.77
409.88	1634.28
410.08	1789.92
410.29	1703.91
410.50	1769.44
410.70	1757.16
410.91	1703.91
411.12	1771.49
411.32	1728.49
411.53	1695.72
411.74	1826.79
411.95	1822.69
412.15	1740.77
412.36	1785.83
412.57	1773.54
412.77	1832.93
412.98	1697.77
413.19	1781.73
413.39	1787.88
413.60	1705.96
413.81	1746.92
414.01	1665.00
414.22	1765.35
414.43	1730.53
414.63	1683.43
414.84	1812.45
415.05	1777.64
415.25	1634.28
415.46	1751.01
415.67	1699.81
415.87	1777.64
416.08	1738.73
416.29	1677.29
416.49	1726.44
416.70	1656.81
416.91	1683.43
417.11	1714.15
417.32	1751.01
417.53	1800.16
417.73	1757.16
417.94	1712.10
418.15	1736.68
418.35	1767.40
418.56	1761.25
418.77	1900.52
418.97	1742.82
419.18	1710.05
419.38	1587.18
419.59	1724.39
419.80	1808.36
420.00	1722.34
420.21	1697.77
420.42	1701.86
420.62	1693.67
420.83	1665.00
421.04	1716.20
421.24	1705.96
421.45	1812.45
421.65	1748.97
421.86	1693.67
422.07	1806.31
422.27	1787.88
422.48	1708.01
422.69	1730.53
422.89	1724.39
423.10	1732.58
423.30	1675.24
423.51	1708.01
423.72	1705.96
423.92	1816.55
424.13	1628.14
424.33	1757.16
424.54	1781.73
424.75	1650.66
424.95	1785.83
425.16	1714.15
425.36	1742.82
425.57	1830.88
425.78	1781.73
425.98	1701.86
426.19	1656.81
426.39	1714.15
426.60	1755.11
426.81	1777.64
427.01	1796.07
427.22	1693.67
427.42	1665.00
427.63	1658.85
427.83	1740.77
428.04	1828.84
428.25	1765.35
428.45	1753.06
428.66	1730.53
428.86	1685.48
429.07	1677.29
429.28	1677.29
429.48	1751.01
429.69	1560.55
429.89	1677.29
430.10	1724.39
430.30	1771.49
430.51	1810.40
430.71	1695.72
430.92	1755.11
431.13	1628.14
431.33	1714.15
431.54	1726.44
431.74	1769.44
431.95	1988.58
432.15	1562.60
432.36	1751.01
432.56	1712.10
432.77	1828.84
432.98	1830.88
433.18	1705.96
433.39	1665.00
433.59	1699.81
433.80	1787.88
434.00	1791.97
434.21	1624.04
434.41	1667.05
434.62	1837.03
434.82	1638.38
435.03	1736.68
435.23	1759.21
435.44	1619.94
435.64	1673.19
435.85	1724.39
436.06	1734.63
436.26	1763.30
436.47	1675.24
436.67	1708.01
436.88	1771.49
437.08	1822.69
437.29	1828.84
437.49	1724.39
437.70	1720.29
437.90	1796.07
438.11	1888.23
438.31	1816.55
438.52	1898.47
438.72	1839.08
438.93	1939.43
439.13	1886.18
439.34	1847.27
439.54	1796.07
439.75	1828.84
439.95	1806.31
440.16	1703.91
440.36	1804.26
440.57	1771.49
440.77	1824.74
440.98	1744.87
441.18	1783.78
441.39	1771.49
441.59	1656.81
441.80	1873.89
442.00	1787.88
442.21	1855.46
442.41	1673.19
442.62	1726.44
442.82	1732.58
443.02	1744.87
443.23	1683.43
443.43	1738.73
443.64	1857.51
443.84	1646.57
444.05	1837.03
444.25	1724.39
444.46	1744.87
444.66	1738.73
444.87	1834.98
445.07	1654.76
445.28	1828.84
445.48	1761.25
445.69	1732.58
445.89	1918.95
446.09	1697.77
446.30	2011.11
446.50	2637.78
446.71	3635.14
446.91	4341.69
447.12	4794.29
447.32	4876.21
447.53	4431.80
447.73	3979.20
447.93	3524.55
448.14	3436.49
448.34	3137.49
448.55	2947.03
448.75	2899.92
448.96	2766.81
449.16	2439.13
449.36	2320.35
449.57	2021.35
449.77	1941.47
449.98	1796.07
450.18	1824.74
450.39	1748.97
450.59	1724.39
450.79	1720.29
451.00	1699.81
451.20	1785.83
451.41	1736.68
451.61	1804.26
451.81	1765.35
452.02	1710.05
452.22	1642.47
452.43	1695.72
452.63	1708.01
