SpectraSuite Data File
++++++++++++++++++++++++++++++++++++
Date: Mon Jun 06 14:33:37 CEST 2016
User: root
Dark Spectrum Present: No
Reference Spectrum Present: No
Number of Sampled Component Spectra: 1
Spectrometers: USB4C02835
Integration Time (usec): 100000 (USB4C02835)
Spectra Averaged: 1 (USB4C02835)
Boxcar Smoothing: 0 (USB4C02835)
Correct for Electrical Dark: No (USB4C02835)
Strobe/Lamp Enabled: No (USB4C02835)
Correct for Detector Non-linearity: No (USB4C02835)
Correct for Stray Light: No (USB4C02835)
Number of Pixels in Processed Spectrum: 3648
>>>>>Begin Processed Spectral Data<<<<<
177.47	1427.43
177.69	1427.43
177.91	1427.43
178.13	1560.55
178.36	1423.34
178.58	1644.52
178.80	1716.20
179.02	1589.22
179.24	1628.14
179.46	1681.38
179.68	1738.73
179.90	1681.38
180.13	1740.77
180.35	1611.75
180.57	1669.09
180.79	1708.01
181.01	1665.00
181.23	1710.05
181.45	1669.09
181.67	1720.29
181.90	1734.63
182.12	1802.21
182.34	1572.84
182.56	1699.81
182.78	1720.29
183.00	1689.57
183.22	1744.87
183.44	1656.81
183.66	1902.56
183.89	1724.39
184.11	1660.90
184.33	1740.77
184.55	1777.64
184.77	1669.09
184.99	1703.91
185.21	1656.81
185.43	1775.59
185.65	1628.14
185.87	1636.33
186.10	1853.41
186.32	1779.68
186.54	1798.12
186.76	1691.62
186.98	1746.92
187.20	1681.38
187.42	1677.29
187.64	1734.63
187.86	1669.09
188.08	1771.49
188.30	1646.57
188.52	1656.81
188.75	1791.97
188.97	1783.78
189.19	1578.98
189.41	1626.09
189.63	1726.44
189.85	1656.81
190.07	1697.77
190.29	1619.94
190.51	1677.29
190.73	1628.14
190.95	1785.83
191.17	1658.85
191.39	1662.95
191.61	1736.68
191.84	1693.67
192.06	1691.62
192.28	1615.85
192.50	1847.27
192.72	1667.05
192.94	1675.24
193.16	1765.35
193.38	1689.57
193.60	1681.38
193.82	1757.16
194.04	1796.07
194.26	1748.97
194.48	1744.87
194.70	1718.25
194.92	1671.14
195.14	1744.87
195.36	1699.81
195.58	1650.66
195.80	1683.43
196.02	1697.77
196.24	1699.81
196.46	1753.06
196.69	1689.57
196.91	1810.40
197.13	1691.62
197.35	1632.23
197.57	1800.16
197.79	1695.72
198.01	1783.78
198.23	1681.38
198.45	1681.38
198.67	1699.81
198.89	1699.81
199.11	1667.05
199.33	1652.71
199.55	1546.22
199.77	1701.86
199.99	1753.06
200.21	1705.96
200.43	1765.35
200.65	1591.27
200.87	1599.46
201.09	1744.87
201.31	1677.29
201.53	1740.77
201.75	1714.15
201.97	1669.09
202.19	1687.53
202.41	1714.15
202.63	1828.84
202.85	1748.97
203.07	1720.29
203.29	1665.00
203.51	1722.34
203.73	1621.99
203.95	1804.26
204.17	1834.98
204.39	1783.78
204.61	1642.47
204.83	1681.38
205.05	1777.64
205.27	1775.59
205.49	1736.68
205.71	1724.39
205.93	1662.95
206.15	1679.33
206.37	1705.96
206.59	1677.29
206.81	1703.91
207.03	1634.28
207.25	1621.99
207.47	1708.01
207.69	1753.06
207.91	1791.97
208.13	1736.68
208.34	1675.24
208.56	1621.99
208.78	1777.64
209.00	1683.43
209.22	1634.28
209.44	1662.95
209.66	1726.44
209.88	1775.59
210.10	1714.15
210.32	1677.29
210.54	1777.64
210.76	1667.05
210.98	1759.21
211.20	1591.27
211.42	1656.81
211.64	1755.11
211.86	1763.30
212.08	1755.11
212.30	1777.64
212.52	1724.39
212.74	1744.87
212.96	1791.97
213.17	1708.01
213.39	1757.16
213.61	1728.49
213.83	1785.83
214.05	1636.33
214.27	1671.14
214.49	1626.09
214.71	1742.82
214.93	1714.15
215.15	1632.23
215.37	1757.16
215.59	1593.32
215.81	1769.44
216.03	1781.73
216.24	1685.48
216.46	1681.38
216.68	1689.57
216.90	1769.44
217.12	1773.54
217.34	1726.44
217.56	1697.77
217.78	1675.24
218.00	1738.73
218.22	1701.86
218.44	1748.97
218.66	1697.77
218.87	1822.69
219.09	1718.25
219.31	1736.68
219.53	1720.29
219.75	1671.14
219.97	1701.86
220.19	1697.77
220.41	1669.09
220.63	1714.15
220.85	1701.86
221.06	1669.09
221.28	1761.25
221.50	1763.30
221.72	1705.96
221.94	1687.53
222.16	1785.83
222.38	1699.81
222.60	1773.54
222.82	1652.71
223.03	1708.01
223.25	1603.56
223.47	1748.97
223.69	1814.50
223.91	1789.92
224.13	1724.39
224.35	1660.90
224.57	1755.11
224.78	1697.77
225.00	1607.66
225.22	1716.20
225.44	1673.19
225.66	1781.73
225.88	1699.81
226.10	1763.30
226.32	1708.01
226.53	1783.78
226.75	1656.81
226.97	1728.49
227.19	1638.38
227.41	1656.81
227.63	1697.77
227.85	1603.56
228.06	1755.11
228.28	1695.72
228.50	1746.92
228.72	1621.99
228.94	1632.23
229.16	1591.27
229.37	1624.04
229.59	1691.62
229.81	1732.58
230.03	1720.29
230.25	1626.09
230.47	1611.75
230.69	1640.42
230.90	1751.01
231.12	1609.70
231.34	1763.30
231.56	1697.77
231.78	1613.80
232.00	1763.30
232.21	1701.86
232.43	1705.96
232.65	1599.46
232.87	1779.68
233.09	1697.77
233.30	1699.81
233.52	1742.82
233.74	1746.92
233.96	1650.66
234.18	1753.06
234.40	1773.54
234.61	1761.25
234.83	1669.09
235.05	1599.46
235.27	1843.17
235.49	1726.44
235.70	1753.06
235.92	1765.35
236.14	1769.44
236.36	1834.98
236.58	1632.23
236.79	1708.01
237.01	1677.29
237.23	1667.05
237.45	1853.41
237.67	1648.61
237.88	1689.57
238.10	1880.04
238.32	1632.23
238.54	1693.67
238.76	1662.95
238.97	1677.29
239.19	1681.38
239.41	1851.36
239.63	1771.49
239.85	1660.90
240.06	1705.96
240.28	1675.24
240.50	1808.36
240.72	1683.43
240.93	1695.72
241.15	1724.39
241.37	1732.58
241.59	1802.21
241.81	1603.56
242.02	1724.39
242.24	1599.46
242.46	1763.30
242.68	1665.00
242.89	1757.16
243.11	1798.12
243.33	1722.34
243.55	1732.58
243.76	1757.16
243.98	1665.00
244.20	1697.77
244.42	1730.53
244.64	1732.58
244.85	1599.46
245.07	1613.80
245.29	1773.54
245.51	1722.34
245.72	1673.19
245.94	1759.21
246.16	1771.49
246.38	1767.40
246.59	1724.39
246.81	1609.70
247.03	1652.71
247.24	1617.90
247.46	1691.62
247.68	1685.48
247.90	1669.09
248.11	1705.96
248.33	1761.25
248.55	1697.77
248.77	1730.53
248.98	1726.44
249.20	1765.35
249.42	1675.24
249.64	1742.82
249.85	1740.77
250.07	1617.90
250.29	1767.40
250.50	1771.49
250.72	1597.42
250.94	1656.81
251.16	1855.46
251.37	1802.21
251.59	1681.38
251.81	1738.73
252.02	1849.32
252.24	1687.53
252.46	1783.78
252.68	1667.05
252.89	1712.10
253.11	1632.23
253.33	1726.44
253.54	1781.73
253.76	1693.67
253.98	1679.33
254.20	1789.92
254.41	1587.18
254.63	1638.38
254.85	1638.38
255.06	1742.82
255.28	1718.25
255.50	1720.29
255.71	1693.67
255.93	1656.81
256.15	1695.72
256.36	1738.73
256.58	1699.81
256.80	1714.15
257.02	1642.47
257.23	1679.33
257.45	1628.14
257.67	1798.12
257.88	1609.70
258.10	1761.25
258.32	1675.24
258.53	1728.49
258.75	1822.69
258.97	1656.81
259.18	1708.01
259.40	1734.63
259.62	1710.05
259.83	1732.58
260.05	1697.77
260.27	2000.87
260.48	1759.21
260.70	1619.94
260.92	1736.68
261.13	1667.05
261.35	1589.22
261.57	1783.78
261.78	1607.66
262.00	1669.09
262.22	1697.77
262.43	1689.57
262.65	1730.53
262.86	1812.45
263.08	1832.93
263.30	1716.20
263.51	1593.32
263.73	1677.29
263.95	1771.49
264.16	1683.43
264.38	1689.57
264.60	1757.16
264.81	1644.52
265.03	1816.55
265.25	1710.05
265.46	1689.57
265.68	1753.06
265.89	1783.78
266.11	1581.03
266.33	1699.81
266.54	1767.40
266.76	1689.57
266.98	1724.39
267.19	1759.21
267.41	1724.39
267.62	1710.05
267.84	1560.55
268.06	1710.05
268.27	1732.58
268.49	1728.49
268.70	1767.40
268.92	1656.81
269.14	1636.33
269.35	1662.95
269.57	1697.77
269.79	1742.82
270.00	1683.43
270.22	1822.69
270.43	1708.01
270.65	1574.89
270.87	1712.10
271.08	1712.10
271.30	1771.49
271.51	1738.73
271.73	1710.05
271.95	1773.54
272.16	1697.77
272.38	1759.21
272.59	1728.49
272.81	1742.82
273.02	1757.16
273.24	1755.11
273.46	1785.83
273.67	1607.66
273.89	1638.38
274.10	1654.76
274.32	1742.82
274.54	1697.77
274.75	1710.05
274.97	1720.29
275.18	1724.39
275.40	1798.12
275.61	1744.87
275.83	1683.43
276.05	1638.38
276.26	1683.43
276.48	1730.53
276.69	1658.85
276.91	1705.96
277.12	1806.31
277.34	1736.68
277.55	1800.16
277.77	1722.34
277.99	1644.52
278.20	1656.81
278.42	1619.94
278.63	1617.90
278.85	1613.80
279.06	1640.42
279.28	1699.81
279.49	1716.20
279.71	1742.82
279.93	1673.19
280.14	1699.81
280.36	1601.51
280.57	1785.83
280.79	1701.86
281.00	1636.33
281.22	1724.39
281.43	1687.53
281.65	1587.18
281.86	1687.53
282.08	1708.01
282.29	1837.03
282.51	1630.18
282.73	1640.42
282.94	1626.09
283.16	1794.02
283.37	1834.98
283.59	1759.21
283.80	1638.38
284.02	1695.72
284.23	1767.40
284.45	1671.14
284.66	1638.38
284.88	1656.81
285.09	1695.72
285.31	1759.21
285.52	1779.68
285.74	1632.23
285.95	1800.16
286.17	1708.01
286.38	1751.01
286.60	1685.48
286.81	1658.85
287.03	1660.90
287.24	1671.14
287.46	1681.38
287.67	1755.11
287.89	1738.73
288.10	1718.25
288.32	1714.15
288.53	1828.84
288.75	1720.29
288.96	1804.26
289.18	1654.76
289.39	1710.05
289.61	1740.77
289.82	1861.60
290.04	1794.02
290.25	1726.44
290.47	1708.01
290.68	1634.28
290.90	1771.49
291.11	1589.22
291.33	1777.64
291.54	1667.05
291.76	1679.33
291.97	1740.77
292.18	1736.68
292.40	1675.24
292.61	1697.77
292.83	1794.02
293.04	1759.21
293.26	1669.09
293.47	1683.43
293.69	1681.38
293.90	1716.20
294.12	1759.21
294.33	1712.10
294.55	1701.86
294.76	1781.73
294.97	1845.22
295.19	1845.22
295.40	1671.14
295.62	1689.57
295.83	1826.79
296.05	1722.34
296.26	1755.11
296.48	1642.47
296.69	1640.42
296.90	1695.72
297.12	1746.92
297.33	1767.40
297.55	1665.00
297.76	1740.77
297.98	1791.97
298.19	1677.29
298.41	1728.49
298.62	1638.38
298.83	1812.45
299.05	1765.35
299.26	1675.24
299.48	1685.48
299.69	1691.62
299.90	1732.58
300.12	1679.33
300.33	1683.43
300.55	1619.94
300.76	1787.88
300.98	1615.85
301.19	1742.82
301.40	1687.53
301.62	1681.38
301.83	1814.50
302.05	1703.91
302.26	1673.19
302.47	1695.72
302.69	1644.52
302.90	1632.23
303.12	1626.09
303.33	1697.77
303.54	1828.84
303.76	1689.57
303.97	1712.10
304.19	1763.30
304.40	1652.71
304.61	1703.91
304.83	1820.64
305.04	1671.14
305.26	1771.49
305.47	1701.86
305.68	1687.53
305.90	1691.62
306.11	1755.11
306.33	1753.06
306.54	1656.81
306.75	1734.63
306.97	1495.02
307.18	1697.77
307.39	1695.72
307.61	1781.73
307.82	1720.29
308.04	1804.26
308.25	1689.57
308.46	1734.63
308.68	1677.29
308.89	1675.24
309.10	1767.40
309.32	1732.58
309.53	1642.47
309.74	1791.97
309.96	1638.38
310.17	1773.54
310.39	1734.63
310.60	1677.29
310.81	1619.94
311.03	1581.03
311.24	1765.35
311.45	1744.87
311.67	1769.44
311.88	1714.15
312.09	1726.44
312.31	1703.91
312.52	1789.92
312.73	1834.98
312.95	1574.89
313.16	1642.47
313.37	1710.05
313.59	1691.62
313.80	1671.14
314.01	1794.02
314.23	1662.95
314.44	1675.24
314.65	1640.42
314.87	1611.75
315.08	1701.86
315.29	1742.82
315.51	1691.62
315.72	1611.75
315.93	1818.60
316.15	1740.77
316.36	1734.63
316.57	1738.73
316.79	1691.62
317.00	1646.57
317.21	1714.15
317.43	1730.53
317.64	1789.92
317.85	1630.18
318.07	1697.77
318.28	1695.72
318.49	1824.74
318.70	1873.89
318.92	1849.32
319.13	1822.69
319.34	1873.89
319.56	1880.04
319.77	1751.01
319.98	1845.22
320.20	1675.24
320.41	1773.54
320.62	1650.66
320.83	1644.52
321.05	1865.70
321.26	1724.39
321.47	1683.43
321.69	1757.16
321.90	1669.09
322.11	1705.96
322.32	1701.86
322.54	1771.49
322.75	1705.96
322.96	1794.02
323.18	1630.18
323.39	1613.80
323.60	1644.52
323.81	1804.26
324.03	1658.85
324.24	1736.68
324.45	1687.53
324.66	1757.16
324.88	1714.15
325.09	1755.11
325.30	1726.44
325.52	1705.96
325.73	1802.21
325.94	1681.38
326.15	1585.13
326.37	1695.72
326.58	1744.87
326.79	1800.16
327.00	1679.33
327.22	1755.11
327.43	1662.95
327.64	1634.28
327.85	1687.53
328.07	1724.39
328.28	1812.45
328.49	1632.23
328.70	1755.11
328.92	1665.00
329.13	1710.05
329.34	1617.90
329.55	1794.02
329.76	1703.91
329.98	1669.09
330.19	1767.40
330.40	1748.97
330.61	1740.77
330.83	1716.20
331.04	1699.81
331.25	1683.43
331.46	1683.43
331.68	1601.51
331.89	1732.58
332.10	1636.33
332.31	1644.52
332.52	1705.96
332.74	1798.12
332.95	1636.33
333.16	1613.80
333.37	1771.49
333.58	1673.19
333.80	1773.54
334.01	1558.50
334.22	1701.86
334.43	1656.81
334.64	1650.66
334.86	1662.95
335.07	1652.71
335.28	1751.01
335.49	1644.52
335.70	1699.81
335.92	1769.44
336.13	1804.26
336.34	1689.57
336.55	1767.40
336.76	1681.38
336.98	1574.89
337.19	1703.91
337.40	1828.84
337.61	1871.84
337.82	1714.15
338.04	1716.20
338.25	1585.13
338.46	1669.09
338.67	1697.77
338.88	1597.42
339.09	1662.95
339.31	1718.25
339.52	1640.42
339.73	1617.90
339.94	1699.81
340.15	1693.67
340.36	1654.76
340.58	1699.81
340.79	1632.23
341.00	1705.96
341.21	1703.91
341.42	1781.73
341.63	1714.15
341.85	1724.39
342.06	1765.35
342.27	1648.61
342.48	1710.05
342.69	1597.42
342.90	1738.73
343.12	1738.73
343.33	1572.84
343.54	1720.29
343.75	1816.55
343.96	1654.76
344.17	1650.66
344.38	1660.90
344.60	1632.23
344.81	1650.66
345.02	1716.20
345.23	1716.20
345.44	1824.74
345.65	1746.92
345.86	1724.39
346.07	1703.91
346.29	1681.38
346.50	1714.15
346.71	1689.57
346.92	1705.96
347.13	1882.08
347.34	1714.15
347.55	1693.67
347.76	1744.87
347.98	1605.61
348.19	1669.09
348.40	1812.45
348.61	1644.52
348.82	1705.96
349.03	1722.34
349.24	1695.72
349.45	1753.06
349.66	1595.37
349.88	1755.11
350.09	1644.52
350.30	1755.11
350.51	1771.49
350.72	1677.29
350.93	1761.25
351.14	1644.52
351.35	1705.96
351.56	1687.53
351.77	1722.34
351.99	1679.33
352.20	1771.49
352.41	1777.64
352.62	1597.42
352.83	1710.05
353.04	1675.24
353.25	1742.82
353.46	1767.40
353.67	1757.16
353.88	1621.99
354.09	1759.21
354.30	1755.11
354.52	1726.44
354.73	1615.85
354.94	1703.91
355.15	1693.67
355.36	1785.83
355.57	1667.05
355.78	1710.05
355.99	1642.47
356.20	1675.24
356.41	1798.12
356.62	1763.30
356.83	1654.76
357.04	1806.31
357.25	1535.98
357.46	1646.57
357.68	1630.18
357.89	1613.80
358.10	1726.44
358.31	1660.90
358.52	1656.81
358.73	1691.62
358.94	1658.85
359.15	1658.85
359.36	1714.15
359.57	1714.15
359.78	1701.86
359.99	1695.72
360.20	1669.09
360.41	1665.00
360.62	1806.31
360.83	1701.86
361.04	1808.36
361.25	1779.68
361.46	1787.88
361.67	1697.77
361.88	1665.00
362.09	1726.44
362.30	1748.97
362.51	1669.09
362.72	1718.25
362.93	1785.83
363.14	1720.29
363.35	1712.10
363.56	1724.39
363.78	1787.88
363.99	1689.57
364.20	1619.94
364.41	1730.53
364.62	1841.12
364.83	1701.86
365.04	1683.43
365.25	1730.53
365.46	1738.73
365.67	1624.04
365.88	1671.14
366.09	1720.29
366.30	1683.43
366.51	1714.15
366.72	1658.85
366.93	1705.96
367.14	1787.88
367.35	1753.06
367.56	1728.49
367.77	1744.87
367.98	1650.66
368.18	1662.95
368.39	1732.58
368.60	1607.66
368.81	1728.49
369.02	1656.81
369.23	1718.25
369.44	1619.94
369.65	1693.67
369.86	1701.86
370.07	1757.16
370.28	1615.85
370.49	1798.12
370.70	1802.21
370.91	1640.42
371.12	1669.09
371.33	1779.68
371.54	1636.33
371.75	1773.54
371.96	1628.14
372.17	1716.20
372.38	1755.11
372.59	1705.96
372.80	1638.38
373.01	1716.20
373.22	1699.81
373.43	1697.77
373.64	1638.38
373.85	1730.53
374.06	1740.77
374.26	1703.91
374.47	1732.58
374.68	1769.44
374.89	1757.16
375.10	1677.29
375.31	1822.69
375.52	1773.54
375.73	1701.86
375.94	1589.22
376.15	1837.03
376.36	1693.67
376.57	1689.57
376.78	1683.43
376.99	1714.15
377.20	1791.97
377.40	1685.48
377.61	1746.92
377.82	1644.52
378.03	1804.26
378.24	1748.97
378.45	1656.81
378.66	1828.84
378.87	1619.94
379.08	1564.65
379.29	1691.62
379.50	1761.25
379.71	1630.18
379.91	1755.11
380.12	1677.29
380.33	1675.24
380.54	1648.61
380.75	1691.62
380.96	1658.85
381.17	1765.35
381.38	1650.66
381.59	1820.64
381.80	1708.01
382.00	1880.04
382.21	1759.21
382.42	1785.83
382.63	1818.60
382.84	1730.53
383.05	1748.97
383.26	1763.30
383.47	1740.77
383.68	1800.16
383.88	1755.11
384.09	1771.49
384.30	1724.39
384.51	1697.77
384.72	1640.42
384.93	1628.14
385.14	1705.96
385.35	1714.15
385.55	1673.19
385.76	1818.60
385.97	1691.62
386.18	1648.61
386.39	1669.09
386.60	1624.04
386.81	1748.97
387.02	1638.38
387.22	1722.34
387.43	1751.01
387.64	1751.01
387.85	1822.69
388.06	2220.00
388.27	4227.01
388.48	6688.67
388.68	8247.17
388.89	9643.88
389.10	9731.95
389.31	8529.79
389.52	7487.37
389.73	6528.92
389.93	6422.43
390.14	5953.45
390.35	5132.21
390.56	4540.35
390.77	3751.88
390.98	3088.34
391.18	2619.35
391.39	2156.51
391.60	1845.22
391.81	1912.80
392.02	1736.68
392.23	1820.64
392.43	1734.63
392.64	1802.21
392.85	1724.39
393.06	1767.40
393.27	1685.48
393.47	1724.39
393.68	1730.53
393.89	1660.90
394.10	1789.92
394.31	1705.96
394.52	1667.05
394.72	1720.29
394.93	1748.97
395.14	1669.09
395.35	1755.11
395.56	1607.66
395.76	1705.96
395.97	1759.21
396.18	1802.21
396.39	1847.27
396.60	1994.72
396.80	1920.99
397.01	1806.31
397.22	1812.45
397.43	1912.80
397.64	1773.54
397.84	1771.49
398.05	1937.38
398.26	1687.53
398.47	1794.02
398.67	1732.58
398.88	1773.54
399.09	1730.53
399.30	1642.47
399.51	1824.74
399.71	1687.53
399.92	1685.48
400.13	1730.53
400.34	1712.10
400.54	1746.92
400.75	1818.60
400.96	1740.77
401.17	1783.78
401.37	1732.58
401.58	1783.78
401.79	1701.86
402.00	1871.84
402.21	1980.39
402.41	1918.95
402.62	1980.39
402.83	1996.77
403.04	1974.24
403.24	2035.68
403.45	1886.18
403.66	1968.10
403.87	1910.75
404.07	1929.19
404.28	1884.13
404.49	1789.92
404.70	1800.16
404.90	1763.30
405.11	1699.81
405.32	1783.78
405.52	1679.33
405.73	1632.23
405.94	1671.14
406.15	1634.28
406.35	1736.68
406.56	1742.82
406.77	1730.53
406.98	1691.62
407.18	1654.76
407.39	1738.73
407.60	1662.95
407.80	1779.68
408.01	1636.33
408.22	1730.53
408.43	1689.57
408.63	1636.33
408.84	1738.73
409.05	1751.01
409.25	1677.29
409.46	1628.14
409.67	1654.76
409.88	1687.53
410.08	1804.26
410.29	1624.04
410.50	1675.24
410.70	1736.68
410.91	1642.47
411.12	1705.96
411.32	1638.38
411.53	1730.53
411.74	1759.21
411.95	1779.68
412.15	1771.49
412.36	1701.86
412.57	1732.58
412.77	1738.73
412.98	1712.10
413.19	1650.66
413.39	1734.63
413.60	1796.07
413.81	1748.97
414.01	1578.98
414.22	1736.68
414.43	1751.01
414.63	1689.57
414.84	1783.78
415.05	1644.52
415.25	1617.90
415.46	1808.36
415.67	1693.67
415.87	1753.06
416.08	1662.95
416.29	1722.34
416.49	1751.01
416.70	1644.52
416.91	1609.70
417.11	1718.25
417.32	1734.63
417.53	1763.30
417.73	1644.52
417.94	1728.49
418.15	1689.57
418.35	1656.81
418.56	1714.15
418.77	1863.65
418.97	1660.90
419.18	1679.33
419.38	1613.80
419.59	1693.67
419.80	1710.05
420.00	1736.68
420.21	1720.29
420.42	1726.44
420.62	1767.40
420.83	1679.33
421.04	1701.86
421.24	1654.76
421.45	1722.34
421.65	1734.63
421.86	1697.77
422.07	1718.25
422.27	1775.59
422.48	1841.12
422.69	1724.39
422.89	1703.91
423.10	1685.48
423.30	1621.99
423.51	1695.72
423.72	1679.33
423.92	1665.00
424.13	1603.56
424.33	1679.33
424.54	1695.72
424.75	1683.43
424.95	1837.03
425.16	1736.68
425.36	1710.05
425.57	1746.92
425.78	1669.09
425.98	1800.16
426.19	1652.71
426.39	1703.91
426.60	1699.81
426.81	1771.49
427.01	1660.90
427.22	1685.48
427.42	1613.80
427.63	1673.19
427.83	1730.53
428.04	1884.13
428.25	1781.73
428.45	1726.44
428.66	1755.11
428.86	1679.33
429.07	1667.05
429.28	1746.92
429.48	1671.14
429.69	1681.38
429.89	1671.14
430.10	1615.85
430.30	1716.20
430.51	1738.73
430.71	1679.33
430.92	1742.82
431.13	1638.38
431.33	1693.67
431.54	1787.88
431.74	1820.64
431.95	1824.74
432.15	1611.75
432.36	1753.06
432.56	1746.92
432.77	1808.36
432.98	1763.30
433.18	1763.30
433.39	1687.53
433.59	1638.38
433.80	1757.16
434.00	1832.93
434.21	1701.86
434.41	1642.47
434.62	1898.47
434.82	1665.00
435.03	1669.09
435.23	1673.19
435.44	1705.96
435.64	1697.77
435.85	1722.34
436.06	1841.12
436.26	1785.83
436.47	1726.44
436.67	1689.57
436.88	1646.57
437.08	1757.16
437.29	1744.87
437.49	1720.29
437.70	1724.39
437.90	1632.23
438.11	1918.95
438.31	1769.44
438.52	1806.31
438.72	1871.84
438.93	1964.00
439.13	1753.06
439.34	1800.16
439.54	1728.49
439.75	1775.59
439.95	1832.93
440.16	1697.77
440.36	1769.44
440.57	1775.59
440.77	1789.92
440.98	1771.49
441.18	1763.30
441.39	1708.01
441.59	1607.66
441.80	1767.40
442.00	1726.44
442.21	1751.01
442.41	1630.18
442.62	1769.44
442.82	1658.85
443.02	1730.53
443.23	1736.68
443.43	1773.54
443.64	1812.45
443.84	1691.62
444.05	1810.40
444.25	1683.43
444.46	1685.48
444.66	1781.73
444.87	1841.12
445.07	1665.00
445.28	1665.00
445.48	1834.98
445.69	1755.11
445.89	1861.60
446.09	1746.92
446.30	1986.53
446.50	2635.74
446.71	3794.89
446.91	4351.93
447.12	4808.63
447.32	4843.45
447.53	4353.98
447.73	3878.85
447.93	3407.82
448.14	3174.35
448.34	3172.30
448.55	2957.27
448.75	2930.64
448.96	2670.55
449.16	2410.46
449.36	2209.76
449.57	2088.93
449.77	1880.04
449.98	1814.50
450.18	1822.69
450.39	1804.26
450.59	1787.88
450.79	1708.01
451.00	1722.34
451.20	1783.78
451.41	1730.53
451.61	1798.12
451.81	1751.01
452.02	1701.86
452.22	1691.62
452.43	1724.39
452.63	1677.29
