SpectraSuite Data File
++++++++++++++++++++++++++++++++++++
Date: Mon Jun 06 12:29:57 CEST 2016
User: root
Dark Spectrum Present: No
Reference Spectrum Present: No
Number of Sampled Component Spectra: 1
Spectrometers: USB4C02835
Integration Time (usec): 100000 (USB4C02835)
Spectra Averaged: 1 (USB4C02835)
Boxcar Smoothing: 0 (USB4C02835)
Correct for Electrical Dark: No (USB4C02835)
Strobe/Lamp Enabled: No (USB4C02835)
Correct for Detector Non-linearity: No (USB4C02835)
Correct for Stray Light: No (USB4C02835)
Number of Pixels in Processed Spectrum: 3648
>>>>>Begin Processed Spectral Data<<<<<
177.47	1480.68
177.69	1480.68
177.91	1480.68
178.13	1443.82
178.36	1427.43
178.58	1624.04
178.80	1734.63
179.02	1687.53
179.24	1687.53
179.46	1646.57
179.68	1748.97
179.90	1656.81
180.13	1697.77
180.35	1691.62
180.57	1675.24
180.79	1773.54
181.01	1681.38
181.23	1701.86
181.45	1701.86
181.67	1751.01
181.90	1714.15
182.12	1714.15
182.34	1671.14
182.56	1767.40
182.78	1746.92
183.00	1734.63
183.22	1665.00
183.44	1583.08
183.66	1773.54
183.89	1812.45
184.11	1665.00
184.33	1699.81
184.55	1748.97
184.77	1685.48
184.99	1767.40
185.21	1621.99
185.43	1904.61
185.65	1644.52
185.87	1628.14
186.10	1824.74
186.32	1904.61
186.54	1738.73
186.76	1742.82
186.98	1738.73
187.20	1675.24
187.42	1683.43
187.64	1740.77
187.86	1669.09
188.08	1765.35
188.30	1691.62
188.52	1652.71
188.75	1740.77
188.97	1763.30
189.19	1650.66
189.41	1769.44
189.63	1802.21
189.85	1726.44
190.07	1613.80
190.29	1636.33
190.51	1671.14
190.73	1626.09
190.95	1751.01
191.17	1683.43
191.39	1658.85
191.61	1632.23
191.84	1617.90
192.06	1685.48
192.28	1636.33
192.50	1845.22
192.72	1753.06
192.94	1710.05
193.16	1746.92
193.38	1732.58
193.60	1619.94
193.82	1712.10
194.04	1748.97
194.26	1728.49
194.48	1712.10
194.70	1675.24
194.92	1642.47
195.14	1712.10
195.36	1660.90
195.58	1630.18
195.80	1693.67
196.02	1697.77
196.24	1671.14
196.46	1759.21
196.69	1665.00
196.91	1751.01
197.13	1669.09
197.35	1681.38
197.57	1755.11
197.79	1761.25
198.01	1716.20
198.23	1755.11
198.45	1753.06
198.67	1611.75
198.89	1691.62
199.11	1781.73
199.33	1697.77
199.55	1611.75
199.77	1722.34
199.99	1673.19
200.21	1675.24
200.43	1796.07
200.65	1652.71
200.87	1589.22
201.09	1669.09
201.31	1677.29
201.53	1712.10
201.75	1693.67
201.97	1722.34
202.19	1714.15
202.41	1742.82
202.63	1781.73
202.85	1671.14
203.07	1689.57
203.29	1685.48
203.51	1648.61
203.73	1654.76
203.95	1789.92
204.17	1761.25
204.39	1767.40
204.61	1652.71
204.83	1652.71
205.05	1720.29
205.27	1699.81
205.49	1855.46
205.71	1683.43
205.93	1621.99
206.15	1675.24
206.37	1660.90
206.59	1724.39
206.81	1689.57
207.03	1630.18
207.25	1646.57
207.47	1724.39
207.69	1679.33
207.91	1779.68
208.13	1761.25
208.34	1701.86
208.56	1634.28
208.78	1716.20
209.00	1665.00
209.22	1701.86
209.44	1673.19
209.66	1722.34
209.88	1636.33
210.10	1703.91
210.32	1703.91
210.54	1796.07
210.76	1755.11
210.98	1710.05
211.20	1562.60
211.42	1677.29
211.64	1742.82
211.86	1695.72
212.08	1708.01
212.30	1667.05
212.52	1667.05
212.74	1738.73
212.96	1708.01
213.17	1740.77
213.39	1751.01
213.61	1777.64
213.83	1662.95
214.05	1628.14
214.27	1769.44
214.49	1585.13
214.71	1662.95
214.93	1804.26
215.15	1714.15
215.37	1697.77
215.59	1570.79
215.81	1812.45
216.03	1761.25
216.24	1740.77
216.46	1662.95
216.68	1708.01
216.90	1720.29
217.12	1757.16
217.34	1746.92
217.56	1748.97
217.78	1708.01
218.00	1722.34
218.22	1660.90
218.44	1658.85
218.66	1701.86
218.87	1769.44
219.09	1701.86
219.31	1691.62
219.53	1689.57
219.75	1671.14
219.97	1716.20
220.19	1687.53
220.41	1642.47
220.63	1802.21
220.85	1738.73
221.06	1677.29
221.28	1673.19
221.50	1681.38
221.72	1708.01
221.94	1681.38
222.16	1665.00
222.38	1771.49
222.60	1767.40
222.82	1708.01
223.03	1687.53
223.25	1638.38
223.47	1658.85
223.69	1765.35
223.91	1798.12
224.13	1619.94
224.35	1699.81
224.57	1765.35
224.78	1677.29
225.00	1632.23
225.22	1619.94
225.44	1652.71
225.66	1789.92
225.88	1603.56
226.10	1732.58
226.32	1796.07
226.53	1730.53
226.75	1665.00
226.97	1679.33
227.19	1677.29
227.41	1710.05
227.63	1665.00
227.85	1605.61
228.06	1736.68
228.28	1767.40
228.50	1718.25
228.72	1660.90
228.94	1744.87
229.16	1591.27
229.37	1621.99
229.59	1714.15
229.81	1677.29
230.03	1628.14
230.25	1658.85
230.47	1681.38
230.69	1646.57
230.90	1712.10
231.12	1601.51
231.34	1716.20
231.56	1730.53
231.78	1632.23
232.00	1736.68
232.21	1652.71
232.43	1697.77
232.65	1652.71
232.87	1685.48
233.09	1597.42
233.30	1742.82
233.52	1751.01
233.74	1652.71
233.96	1667.05
234.18	1773.54
234.40	1726.44
234.61	1837.03
234.83	1619.94
235.05	1609.70
235.27	1857.51
235.49	1683.43
235.70	1701.86
235.92	1810.40
236.14	1712.10
236.36	1904.61
236.58	1560.55
236.79	1757.16
237.01	1673.19
237.23	1662.95
237.45	1759.21
237.67	1624.04
237.88	1665.00
238.10	1841.12
238.32	1665.00
238.54	1722.34
238.76	1587.18
238.97	1697.77
239.19	1675.24
239.41	1724.39
239.63	1800.16
239.85	1681.38
240.06	1644.52
240.28	1642.47
240.50	1781.73
240.72	1699.81
240.93	1669.09
241.15	1720.29
241.37	1712.10
241.59	1728.49
241.81	1597.42
242.02	1693.67
242.24	1708.01
242.46	1714.15
242.68	1636.33
242.89	1671.14
243.11	1681.38
243.33	1699.81
243.55	1734.63
243.76	1716.20
243.98	1632.23
244.20	1607.66
244.42	1701.86
244.64	1662.95
244.85	1689.57
245.07	1599.46
245.29	1787.88
245.51	1634.28
245.72	1673.19
245.94	1746.92
246.16	1689.57
246.38	1812.45
246.59	1671.14
246.81	1640.42
247.03	1718.25
247.24	1535.98
247.46	1671.14
247.68	1665.00
247.90	1544.17
248.11	1665.00
248.33	1777.64
248.55	1587.18
248.77	1632.23
248.98	1763.30
249.20	1818.60
249.42	1730.53
249.64	1701.86
249.85	1697.77
250.07	1677.29
250.29	1732.58
250.50	1767.40
250.72	1611.75
250.94	1701.86
251.16	1802.21
251.37	1779.68
251.59	1673.19
251.81	1677.29
252.02	1800.16
252.24	1587.18
252.46	1755.11
252.68	1574.89
252.89	1652.71
253.11	1595.37
253.33	1738.73
253.54	1757.16
253.76	1552.36
253.98	1701.86
254.20	1744.87
254.41	1550.31
254.63	1658.85
254.85	1654.76
255.06	1656.81
255.28	1718.25
255.50	1730.53
255.71	1652.71
255.93	1611.75
256.15	1671.14
256.36	1658.85
256.58	1652.71
256.80	1724.39
257.02	1665.00
257.23	1646.57
257.45	1701.86
257.67	1789.92
257.88	1660.90
258.10	1665.00
258.32	1693.67
258.53	1724.39
258.75	1705.96
258.97	1615.85
259.18	1708.01
259.40	1712.10
259.62	1824.74
259.83	1714.15
260.05	1685.48
260.27	1984.48
260.48	1812.45
260.70	1617.90
260.92	1712.10
261.13	1705.96
261.35	1744.87
261.57	1687.53
261.78	1642.47
262.00	1685.48
262.22	1734.63
262.43	1685.48
262.65	1624.04
262.86	1775.59
263.08	1834.98
263.30	1665.00
263.51	1638.38
263.73	1665.00
263.95	1765.35
264.16	1642.47
264.38	1665.00
264.60	1769.44
264.81	1730.53
265.03	1785.83
265.25	1714.15
265.46	1722.34
265.68	1791.97
265.89	1687.53
266.11	1646.57
266.33	1677.29
266.54	1689.57
266.76	1669.09
266.98	1800.16
267.19	1742.82
267.41	1765.35
267.62	1705.96
267.84	1619.94
268.06	1689.57
268.27	1730.53
268.49	1824.74
268.70	1751.01
268.92	1691.62
269.14	1665.00
269.35	1609.70
269.57	1746.92
269.79	1716.20
270.00	1697.77
270.22	1816.55
270.43	1624.04
270.65	1603.56
270.87	1714.15
271.08	1740.77
271.30	1748.97
271.51	1658.85
271.73	1683.43
271.95	1767.40
272.16	1724.39
272.38	1724.39
272.59	1609.70
272.81	1746.92
273.02	1736.68
273.24	1701.86
273.46	1796.07
273.67	1660.90
273.89	1589.22
274.10	1658.85
274.32	1765.35
274.54	1689.57
274.75	1697.77
274.97	1679.33
275.18	1767.40
275.40	1705.96
275.61	1726.44
275.83	1746.92
276.05	1593.32
276.26	1671.14
276.48	1771.49
276.69	1736.68
276.91	1642.47
277.12	1730.53
277.34	1736.68
277.55	1712.10
277.77	1718.25
277.99	1722.34
278.20	1576.94
278.42	1650.66
278.63	1681.38
278.85	1646.57
279.06	1624.04
279.28	1765.35
279.49	1718.25
279.71	1689.57
279.93	1724.39
280.14	1730.53
280.36	1681.38
280.57	1722.34
280.79	1755.11
281.00	1710.05
281.22	1636.33
281.43	1730.53
281.65	1617.90
281.86	1671.14
282.08	1720.29
282.29	1763.30
282.51	1613.80
282.73	1665.00
282.94	1611.75
283.16	1779.68
283.37	1789.92
283.59	1683.43
283.80	1662.95
284.02	1683.43
284.23	1720.29
284.45	1720.29
284.66	1689.57
284.88	1708.01
285.09	1679.33
285.31	1658.85
285.52	1691.62
285.74	1574.89
285.95	1714.15
286.17	1753.06
286.38	1781.73
286.60	1697.77
286.81	1662.95
287.03	1656.81
287.24	1710.05
287.46	1787.88
287.67	1677.29
287.89	1828.84
288.10	1689.57
288.32	1669.09
288.53	1703.91
288.75	1712.10
288.96	1736.68
289.18	1578.98
289.39	1703.91
289.61	1701.86
289.82	1853.41
290.04	1763.30
290.25	1617.90
290.47	1630.18
290.68	1648.61
290.90	1740.77
291.11	1636.33
291.33	1763.30
291.54	1699.81
291.76	1615.85
291.97	1763.30
292.18	1734.63
292.40	1587.18
292.61	1650.66
292.83	1800.16
293.04	1787.88
293.26	1730.53
293.47	1662.95
293.69	1695.72
293.90	1683.43
294.12	1689.57
294.33	1689.57
294.55	1599.46
294.76	1730.53
294.97	1781.73
295.19	1832.93
295.40	1734.63
295.62	1779.68
295.83	1789.92
296.05	1583.08
296.26	1804.26
296.48	1560.55
296.69	1783.78
296.90	1699.81
297.12	1720.29
297.33	1771.49
297.55	1697.77
297.76	1724.39
297.98	1742.82
298.19	1746.92
298.41	1671.14
298.62	1644.52
298.83	1744.87
299.05	1656.81
299.26	1605.61
299.48	1703.91
299.69	1740.77
299.90	1708.01
300.12	1714.15
300.33	1660.90
300.55	1687.53
300.76	1660.90
300.98	1615.85
301.19	1773.54
301.40	1724.39
301.62	1665.00
301.83	1669.09
302.05	1710.05
302.26	1634.28
302.47	1722.34
302.69	1695.72
302.90	1708.01
303.12	1578.98
303.33	1710.05
303.54	1779.68
303.76	1720.29
303.97	1705.96
304.19	1789.92
304.40	1681.38
304.61	1681.38
304.83	1783.78
305.04	1738.73
305.26	1734.63
305.47	1683.43
305.68	1665.00
305.90	1630.18
306.11	1652.71
306.33	1695.72
306.54	1771.49
306.75	1619.94
306.97	1644.52
307.18	1601.51
307.39	1624.04
307.61	1705.96
307.82	1693.67
308.04	1693.67
308.25	1613.80
308.46	1751.01
308.68	1685.48
308.89	1714.15
309.10	1787.88
309.32	1724.39
309.53	1734.63
309.74	1689.57
309.96	1730.53
310.17	1802.21
310.39	1652.71
310.60	1675.24
310.81	1732.58
311.03	1642.47
311.24	1710.05
311.45	1669.09
311.67	1818.60
311.88	1697.77
312.09	1615.85
312.31	1660.90
312.52	1681.38
312.73	1689.57
312.95	1642.47
313.16	1636.33
313.37	1769.44
313.59	1685.48
313.80	1744.87
314.01	1789.92
314.23	1699.81
314.44	1648.61
314.65	1595.37
314.87	1624.04
315.08	1736.68
315.29	1726.44
315.51	1603.56
315.72	1724.39
315.93	1724.39
316.15	1763.30
316.36	1642.47
316.57	1689.57
316.79	1724.39
317.00	1652.71
317.21	1738.73
317.43	1634.28
317.64	1714.15
317.85	1656.81
318.07	1669.09
318.28	1656.81
318.49	1830.88
318.70	1853.41
318.92	1808.36
319.13	1822.69
319.34	1937.38
319.56	1763.30
319.77	1845.22
319.98	1763.30
320.20	1767.40
320.41	1685.48
320.62	1687.53
320.83	1617.90
321.05	1808.36
321.26	1796.07
321.47	1665.00
321.69	1720.29
321.90	1652.71
322.11	1687.53
322.32	1738.73
322.54	1806.31
322.75	1685.48
322.96	1794.02
323.18	1681.38
323.39	1626.09
323.60	1634.28
323.81	1695.72
324.03	1751.01
324.24	1652.71
324.45	1773.54
324.66	1679.33
324.88	1767.40
325.09	1824.74
325.30	1640.42
325.52	1714.15
325.73	1744.87
325.94	1615.85
326.15	1533.93
326.37	1615.85
326.58	1693.67
326.79	1824.74
327.00	1718.25
327.22	1718.25
327.43	1669.09
327.64	1636.33
327.85	1781.73
328.07	1671.14
328.28	1832.93
328.49	1615.85
328.70	1665.00
328.92	1744.87
329.13	1667.05
329.34	1726.44
329.55	1755.11
329.76	1806.31
329.98	1693.67
330.19	1820.64
330.40	1757.16
330.61	1669.09
330.83	1748.97
331.04	1683.43
331.25	1675.24
331.46	1673.19
331.68	1599.46
331.89	1814.50
332.10	1642.47
332.31	1628.14
332.52	1726.44
332.74	1853.41
332.95	1546.22
333.16	1646.57
333.37	1673.19
333.58	1714.15
333.80	1716.20
334.01	1624.04
334.22	1681.38
334.43	1656.81
334.64	1636.33
334.86	1591.27
335.07	1693.67
335.28	1814.50
335.49	1679.33
335.70	1714.15
335.92	1753.06
336.13	1755.11
336.34	1730.53
336.55	1695.72
336.76	1703.91
336.98	1636.33
337.19	1662.95
337.40	1812.45
337.61	1773.54
337.82	1632.23
338.04	1808.36
338.25	1632.23
338.46	1669.09
338.67	1648.61
338.88	1564.65
339.09	1662.95
339.31	1673.19
339.52	1693.67
339.73	1662.95
339.94	1685.48
340.15	1677.29
340.36	1697.77
340.58	1716.20
340.79	1650.66
341.00	1708.01
341.21	1628.14
341.42	1849.32
341.63	1730.53
341.85	1722.34
342.06	1675.24
342.27	1634.28
342.48	1642.47
342.69	1621.99
342.90	1732.58
343.12	1693.67
343.33	1658.85
343.54	1681.38
343.75	1775.59
343.96	1662.95
344.17	1652.71
344.38	1626.09
344.60	1693.67
344.81	1626.09
345.02	1726.44
345.23	1787.88
345.44	1798.12
345.65	1724.39
345.86	1695.72
346.07	1644.52
346.29	1642.47
346.50	1681.38
346.71	1685.48
346.92	1748.97
347.13	1867.75
347.34	1658.85
347.55	1767.40
347.76	1748.97
347.98	1533.93
348.19	1675.24
348.40	1748.97
348.61	1624.04
348.82	1824.74
349.03	1789.92
349.24	1634.28
349.45	1763.30
349.66	1705.96
349.88	1697.77
350.09	1640.42
350.30	1791.97
350.51	1761.25
350.72	1728.49
350.93	1724.39
351.14	1716.20
351.35	1654.76
351.56	1712.10
351.77	1767.40
351.99	1722.34
352.20	1748.97
352.41	1730.53
352.62	1615.85
352.83	1685.48
353.04	1650.66
353.25	1736.68
353.46	1716.20
353.67	1734.63
353.88	1552.36
354.09	1667.05
354.30	1640.42
354.52	1767.40
354.73	1638.38
354.94	1681.38
355.15	1732.58
355.36	1837.03
355.57	1636.33
355.78	1689.57
355.99	1607.66
356.20	1628.14
356.41	1814.50
356.62	1703.91
356.83	1730.53
357.04	1832.93
357.25	1535.98
357.46	1621.99
357.68	1558.50
357.89	1673.19
358.10	1740.77
358.31	1656.81
358.52	1744.87
358.73	1689.57
358.94	1652.71
359.15	1654.76
359.36	1683.43
359.57	1656.81
359.78	1617.90
359.99	1689.57
360.20	1611.75
360.41	1650.66
360.62	1746.92
360.83	1755.11
361.04	1763.30
361.25	1671.14
361.46	1740.77
361.67	1728.49
361.88	1662.95
362.09	1812.45
362.30	1734.63
362.51	1656.81
362.72	1716.20
362.93	1804.26
363.14	1703.91
363.35	1708.01
363.56	1642.47
363.78	1726.44
363.99	1767.40
364.20	1662.95
364.41	1675.24
364.62	1779.68
364.83	1665.00
365.04	1703.91
365.25	1675.24
365.46	1826.79
365.67	1626.09
365.88	1624.04
366.09	1634.28
366.30	1712.10
366.51	1609.70
366.72	1624.04
366.93	1665.00
367.14	1677.29
367.35	1736.68
367.56	1724.39
367.77	1744.87
367.98	1695.72
368.18	1710.05
368.39	1738.73
368.60	1685.48
368.81	1734.63
369.02	1740.77
369.23	1751.01
369.44	1662.95
369.65	1656.81
369.86	1722.34
370.07	1689.57
370.28	1648.61
370.49	1771.49
370.70	1703.91
370.91	1615.85
371.12	1615.85
371.33	1779.68
371.54	1648.61
371.75	1853.41
371.96	1585.13
372.17	1599.46
372.38	1671.14
372.59	1703.91
372.80	1791.97
373.01	1681.38
373.22	1722.34
373.43	1708.01
373.64	1607.66
373.85	1740.77
374.06	1761.25
374.26	1722.34
374.47	1746.92
374.68	1658.85
374.89	1730.53
375.10	1597.42
375.31	1660.90
375.52	1718.25
375.73	1654.76
375.94	1683.43
376.15	1773.54
376.36	1730.53
376.57	1646.57
376.78	1681.38
376.99	1687.53
377.20	1744.87
377.40	1705.96
377.61	1812.45
377.82	1689.57
378.03	1748.97
378.24	1714.15
378.45	1759.21
378.66	1683.43
378.87	1701.86
379.08	1576.94
379.29	1681.38
379.50	1814.50
379.71	1714.15
379.91	1785.83
380.12	1671.14
380.33	1759.21
380.54	1695.72
380.75	1771.49
380.96	1677.29
381.17	1662.95
381.38	1703.91
381.59	1777.64
381.80	1705.96
382.00	1818.60
382.21	1771.49
382.42	1812.45
382.63	1888.23
382.84	1751.01
383.05	1771.49
383.26	1722.34
383.47	1650.66
383.68	1726.44
383.88	1705.96
384.09	1701.86
384.30	1785.83
384.51	1701.86
384.72	1751.01
384.93	1638.38
385.14	1693.67
385.35	1714.15
385.55	1630.18
385.76	1808.36
385.97	1732.58
386.18	1685.48
386.39	1652.71
386.60	1691.62
386.81	1644.52
387.02	1640.42
387.22	1679.33
387.43	1720.29
387.64	1699.81
387.85	1824.74
388.06	2207.71
388.27	4286.40
388.48	6854.55
388.68	8150.92
388.89	9752.43
389.10	9828.20
389.31	8642.43
389.52	7554.96
389.73	6795.16
389.93	6289.31
390.14	5867.43
390.35	5242.80
390.56	4626.36
390.77	3768.26
390.98	2959.31
391.18	2508.76
391.39	2039.78
391.60	1839.08
391.81	1861.60
392.02	1673.19
392.23	1892.32
392.43	1687.53
392.64	1845.22
392.85	1759.21
393.06	1736.68
393.27	1675.24
393.47	1695.72
393.68	1701.86
393.89	1691.62
394.10	1744.87
394.31	1689.57
394.52	1751.01
394.72	1724.39
394.93	1818.60
395.14	1734.63
395.35	1732.58
395.56	1712.10
395.76	1740.77
395.97	1701.86
396.18	1925.09
396.39	1796.07
396.60	1961.95
396.80	1847.27
397.01	1853.41
397.22	1820.64
397.43	1826.79
397.64	1726.44
397.84	1808.36
398.05	1869.80
398.26	1728.49
398.47	1779.68
398.67	1722.34
398.88	1744.87
399.09	1716.20
399.30	1636.33
399.51	1757.16
399.71	1634.28
399.92	1718.25
400.13	1685.48
400.34	1701.86
400.54	1757.16
400.75	1765.35
400.96	1751.01
401.17	1863.65
401.37	1710.05
401.58	1714.15
401.79	1703.91
402.00	1834.98
402.21	2013.15
402.41	1918.95
402.62	2002.91
402.83	2029.54
403.04	2037.73
403.24	2033.63
403.45	1902.56
403.66	1839.08
403.87	1824.74
404.07	1824.74
404.28	1968.10
404.49	1933.28
404.70	1791.97
404.90	1773.54
405.11	1720.29
405.32	1775.59
405.52	1648.61
405.73	1654.76
405.94	1685.48
406.15	1722.34
406.35	1753.06
406.56	1763.30
406.77	1765.35
406.98	1703.91
407.18	1632.23
407.39	1816.55
407.60	1695.72
407.80	1791.97
408.01	1681.38
408.22	1705.96
408.43	1669.09
408.63	1804.26
408.84	1753.06
409.05	1771.49
409.25	1662.95
409.46	1652.71
409.67	1683.43
409.88	1673.19
410.08	1744.87
410.29	1650.66
410.50	1724.39
410.70	1691.62
410.91	1636.33
411.12	1703.91
411.32	1794.02
411.53	1673.19
411.74	1800.16
411.95	1791.97
412.15	1722.34
412.36	1744.87
412.57	1769.44
412.77	1851.36
412.98	1665.00
413.19	1697.77
413.39	1734.63
413.60	1755.11
413.81	1708.01
414.01	1607.66
414.22	1785.83
414.43	1779.68
414.63	1621.99
414.84	1806.31
415.05	1724.39
415.25	1613.80
415.46	1681.38
415.67	1626.09
415.87	1771.49
416.08	1748.97
416.29	1644.52
416.49	1775.59
416.70	1638.38
416.91	1720.29
417.11	1662.95
417.32	1708.01
417.53	1689.57
417.73	1669.09
417.94	1689.57
418.15	1697.77
418.35	1671.14
418.56	1710.05
418.77	1814.50
418.97	1669.09
419.18	1738.73
419.38	1560.55
419.59	1689.57
419.80	1718.25
420.00	1689.57
420.21	1751.01
420.42	1787.88
420.62	1718.25
420.83	1736.68
421.04	1716.20
421.24	1679.33
421.45	1681.38
421.65	1802.21
421.86	1648.61
422.07	1841.12
422.27	1652.71
422.48	1800.16
422.69	1679.33
422.89	1644.52
423.10	1710.05
423.30	1693.67
423.51	1687.53
423.72	1740.77
423.92	1767.40
424.13	1632.23
424.33	1679.33
424.54	1798.12
424.75	1652.71
424.95	1798.12
425.16	1667.05
425.36	1716.20
425.57	1742.82
425.78	1744.87
425.98	1714.15
426.19	1677.29
426.39	1615.85
426.60	1757.16
426.81	1777.64
427.01	1714.15
427.22	1703.91
427.42	1634.28
427.63	1648.61
427.83	1751.01
428.04	1869.80
428.25	1722.34
428.45	1726.44
428.66	1703.91
428.86	1748.97
429.07	1662.95
429.28	1677.29
429.48	1638.38
429.69	1660.90
429.89	1689.57
430.10	1679.33
430.30	1771.49
430.51	1802.21
430.71	1615.85
430.92	1724.39
431.13	1675.24
431.33	1738.73
431.54	1689.57
431.74	1765.35
431.95	1771.49
432.15	1669.09
432.36	1656.81
432.56	1769.44
432.77	1742.82
432.98	1855.46
433.18	1701.86
433.39	1701.86
433.59	1673.19
433.80	1828.84
434.00	1845.22
434.21	1701.86
434.41	1615.85
434.62	1863.65
434.82	1669.09
435.03	1658.85
435.23	1712.10
435.44	1611.75
435.64	1701.86
435.85	1701.86
436.06	1753.06
436.26	1689.57
436.47	1726.44
436.67	1677.29
436.88	1701.86
437.08	1703.91
437.29	1761.25
437.49	1718.25
437.70	1728.49
437.90	1652.71
438.11	1826.79
438.31	1814.50
438.52	1898.47
438.72	1851.36
438.93	1880.04
439.13	1751.01
439.34	1824.74
439.54	1714.15
439.75	1742.82
439.95	1843.17
440.16	1710.05
440.36	1800.16
440.57	1746.92
440.77	1746.92
440.98	1673.19
441.18	1734.63
441.39	1748.97
441.59	1605.61
441.80	1867.75
442.00	1695.72
442.21	1794.02
442.41	1697.77
442.62	1708.01
442.82	1693.67
443.02	1675.24
443.23	1755.11
443.43	1669.09
443.64	1837.03
443.84	1662.95
444.05	1824.74
444.25	1765.35
444.46	1699.81
444.66	1689.57
444.87	1814.50
445.07	1589.22
445.28	1683.43
445.48	1851.36
445.69	1824.74
445.89	1837.03
446.09	1716.20
446.30	2035.68
446.50	2701.27
446.71	3696.58
446.91	4278.21
447.12	4722.62
447.32	4790.20
447.53	4310.97
447.73	3923.91
447.93	3557.32
448.14	3385.29
448.34	3233.74
448.55	2869.20
448.75	2852.82
448.96	2633.69
449.16	2346.97
449.36	2250.72
449.57	2088.93
449.77	1937.38
449.98	1744.87
450.18	1802.21
450.39	1812.45
450.59	1714.15
450.79	1695.72
451.00	1687.53
451.20	1845.22
451.41	1716.20
451.61	1685.48
451.81	1734.63
452.02	1828.84
452.22	1683.43
452.43	1644.52
452.63	1740.77
