SpectraSuite Data File
++++++++++++++++++++++++++++++++++++
Date: Mon Jun 06 16:43:17 CEST 2016
User: root
Dark Spectrum Present: No
Reference Spectrum Present: No
Number of Sampled Component Spectra: 1
Spectrometers: USB4C02835
Integration Time (usec): 100000 (USB4C02835)
Spectra Averaged: 1 (USB4C02835)
Boxcar Smoothing: 0 (USB4C02835)
Correct for Electrical Dark: No (USB4C02835)
Strobe/Lamp Enabled: No (USB4C02835)
Correct for Detector Non-linearity: No (USB4C02835)
Correct for Stray Light: No (USB4C02835)
Number of Pixels in Processed Spectrum: 3648
>>>>>Begin Processed Spectral Data<<<<<
177.47	1495.02
177.69	1495.02
177.91	1495.02
178.13	1452.01
178.36	1452.01
178.58	1755.11
178.80	1726.44
179.02	1607.66
179.24	1642.47
179.46	1603.56
179.68	1654.76
179.90	1646.57
180.13	1681.38
180.35	1652.71
180.57	1691.62
180.79	1732.58
181.01	1703.91
181.23	1759.21
181.45	1714.15
181.67	1677.29
181.90	1718.25
182.12	1724.39
182.34	1687.53
182.56	1748.97
182.78	1677.29
183.00	1665.00
183.22	1697.77
183.44	1609.70
183.66	1839.08
183.89	1861.60
184.11	1738.73
184.33	1736.68
184.55	1742.82
184.77	1710.05
184.99	1855.46
185.21	1656.81
185.43	1796.07
185.65	1658.85
185.87	1595.37
186.10	1791.97
186.32	1818.60
186.54	1718.25
186.76	1718.25
186.98	1738.73
187.20	1630.18
187.42	1695.72
187.64	1673.19
187.86	1726.44
188.08	1718.25
188.30	1632.23
188.52	1665.00
188.75	1759.21
188.97	1785.83
189.19	1673.19
189.41	1691.62
189.63	1724.39
189.85	1634.28
190.07	1652.71
190.29	1636.33
190.51	1730.53
190.73	1662.95
190.95	1755.11
191.17	1697.77
191.39	1757.16
191.61	1673.19
191.84	1681.38
192.06	1751.01
192.28	1595.37
192.50	1886.18
192.72	1746.92
192.94	1685.48
193.16	1708.01
193.38	1771.49
193.60	1630.18
193.82	1791.97
194.04	1877.99
194.26	1669.09
194.48	1732.58
194.70	1665.00
194.92	1581.03
195.14	1726.44
195.36	1710.05
195.58	1665.00
195.80	1701.86
196.02	1685.48
196.24	1736.68
196.46	1804.26
196.69	1662.95
196.91	1888.23
197.13	1572.84
197.35	1695.72
197.57	1771.49
197.79	1724.39
198.01	1779.68
198.23	1759.21
198.45	1685.48
198.67	1632.23
198.89	1611.75
199.11	1791.97
199.33	1714.15
199.55	1566.70
199.77	1751.01
199.99	1789.92
200.21	1619.94
200.43	1738.73
200.65	1574.89
200.87	1538.02
201.09	1669.09
201.31	1681.38
201.53	1734.63
201.75	1705.96
201.97	1710.05
202.19	1775.59
202.41	1701.86
202.63	1787.88
202.85	1738.73
203.07	1744.87
203.29	1632.23
203.51	1693.67
203.73	1642.47
203.95	1814.50
204.17	1736.68
204.39	1718.25
204.61	1726.44
204.83	1685.48
205.05	1759.21
205.27	1746.92
205.49	1779.68
205.71	1681.38
205.93	1640.42
206.15	1689.57
206.37	1607.66
206.59	1669.09
206.81	1587.18
207.03	1607.66
207.25	1599.46
207.47	1652.71
207.69	1693.67
207.91	1806.31
208.13	1794.02
208.34	1656.81
208.56	1689.57
208.78	1722.34
209.00	1705.96
209.22	1660.90
209.44	1673.19
209.66	1632.23
209.88	1628.14
210.10	1771.49
210.32	1677.29
210.54	1755.11
210.76	1765.35
210.98	1751.01
211.20	1628.14
211.42	1736.68
211.64	1794.02
211.86	1683.43
212.08	1730.53
212.30	1740.77
212.52	1701.86
212.74	1689.57
212.96	1691.62
213.17	1724.39
213.39	1765.35
213.61	1812.45
213.83	1722.34
214.05	1679.33
214.27	1650.66
214.49	1693.67
214.71	1658.85
214.93	1759.21
215.15	1677.29
215.37	1769.44
215.59	1568.74
215.81	1679.33
216.03	1794.02
216.24	1730.53
216.46	1718.25
216.68	1765.35
216.90	1683.43
217.12	1841.12
217.34	1716.20
217.56	1665.00
217.78	1738.73
218.00	1753.06
218.22	1775.59
218.44	1767.40
218.66	1755.11
218.87	1839.08
219.09	1708.01
219.31	1757.16
219.53	1691.62
219.75	1574.89
219.97	1777.64
220.19	1722.34
220.41	1648.61
220.63	1740.77
220.85	1605.61
221.06	1714.15
221.28	1794.02
221.50	1730.53
221.72	1673.19
221.94	1687.53
222.16	1714.15
222.38	1699.81
222.60	1703.91
222.82	1695.72
223.03	1691.62
223.25	1736.68
223.47	1718.25
223.69	1902.56
223.91	1716.20
224.13	1703.91
224.35	1644.52
224.57	1748.97
224.78	1785.83
225.00	1667.05
225.22	1714.15
225.44	1726.44
225.66	1804.26
225.88	1601.51
226.10	1779.68
226.32	1703.91
226.53	1775.59
226.75	1744.87
226.97	1695.72
227.19	1683.43
227.41	1687.53
227.63	1656.81
227.85	1609.70
228.06	1757.16
228.28	1652.71
228.50	1660.90
228.72	1605.61
228.94	1617.90
229.16	1572.84
229.37	1685.48
229.59	1644.52
229.81	1761.25
230.03	1685.48
230.25	1587.18
230.47	1599.46
230.69	1648.61
230.90	1681.38
231.12	1644.52
231.34	1718.25
231.56	1824.74
231.78	1624.04
232.00	1685.48
232.21	1738.73
232.43	1691.62
232.65	1638.38
232.87	1730.53
233.09	1662.95
233.30	1578.98
233.52	1724.39
233.74	1761.25
233.96	1683.43
234.18	1695.72
234.40	1728.49
234.61	1806.31
234.83	1718.25
235.05	1703.91
235.27	1886.18
235.49	1771.49
235.70	1744.87
235.92	1849.32
236.14	1695.72
236.36	1820.64
236.58	1650.66
236.79	1665.00
237.01	1759.21
237.23	1675.24
237.45	1808.36
237.67	1681.38
237.88	1802.21
238.10	1796.07
238.32	1648.61
238.54	1683.43
238.76	1742.82
238.97	1687.53
239.19	1632.23
239.41	1791.97
239.63	1761.25
239.85	1695.72
240.06	1763.30
240.28	1726.44
240.50	1726.44
240.72	1730.53
240.93	1632.23
241.15	1759.21
241.37	1697.77
241.59	1763.30
241.81	1744.87
242.02	1679.33
242.24	1683.43
242.46	1691.62
242.68	1654.76
242.89	1722.34
243.11	1751.01
243.33	1671.14
243.55	1738.73
243.76	1763.30
243.98	1683.43
244.20	1656.81
244.42	1665.00
244.64	1701.86
244.85	1703.91
245.07	1656.81
245.29	1763.30
245.51	1689.57
245.72	1703.91
245.94	1740.77
246.16	1689.57
246.38	1794.02
246.59	1734.63
246.81	1705.96
247.03	1667.05
247.24	1648.61
247.46	1685.48
247.68	1765.35
247.90	1744.87
248.11	1673.19
248.33	1705.96
248.55	1583.08
248.77	1783.78
248.98	1820.64
249.20	1824.74
249.42	1652.71
249.64	1722.34
249.85	1589.22
250.07	1613.80
250.29	1773.54
250.50	1789.92
250.72	1626.09
250.94	1705.96
251.16	1855.46
251.37	1789.92
251.59	1693.67
251.81	1689.57
252.02	1806.31
252.24	1699.81
252.46	1773.54
252.68	1626.09
252.89	1736.68
253.11	1619.94
253.33	1771.49
253.54	1763.30
253.76	1648.61
253.98	1693.67
254.20	1619.94
254.41	1640.42
254.63	1773.54
254.85	1617.90
255.06	1734.63
255.28	1761.25
255.50	1720.29
255.71	1712.10
255.93	1552.36
256.15	1697.77
256.36	1662.95
256.58	1669.09
256.80	1708.01
257.02	1683.43
257.23	1687.53
257.45	1644.52
257.67	1732.58
257.88	1724.39
258.10	1665.00
258.32	1693.67
258.53	1724.39
258.75	1757.16
258.97	1665.00
259.18	1705.96
259.40	1740.77
259.62	1773.54
259.83	1787.88
260.05	1728.49
260.27	1957.86
260.48	1787.88
260.70	1632.23
260.92	1724.39
261.13	1685.48
261.35	1757.16
261.57	1802.21
261.78	1607.66
262.00	1699.81
262.22	1822.69
262.43	1642.47
262.65	1689.57
262.86	1761.25
263.08	1927.14
263.30	1736.68
263.51	1603.56
263.73	1714.15
263.95	1757.16
264.16	1748.97
264.38	1734.63
264.60	1742.82
264.81	1728.49
265.03	1820.64
265.25	1740.77
265.46	1650.66
265.68	1806.31
265.89	1740.77
266.11	1617.90
266.33	1728.49
266.54	1781.73
266.76	1740.77
266.98	1759.21
267.19	1826.79
267.41	1705.96
267.62	1708.01
267.84	1607.66
268.06	1748.97
268.27	1697.77
268.49	1796.07
268.70	1726.44
268.92	1626.09
269.14	1595.37
269.35	1685.48
269.57	1738.73
269.79	1632.23
270.00	1718.25
270.22	1822.69
270.43	1652.71
270.65	1689.57
270.87	1716.20
271.08	1738.73
271.30	1744.87
271.51	1724.39
271.73	1732.58
271.95	1751.01
272.16	1689.57
272.38	1648.61
272.59	1712.10
272.81	1734.63
273.02	1714.15
273.24	1699.81
273.46	1783.78
273.67	1650.66
273.89	1667.05
274.10	1634.28
274.32	1798.12
274.54	1738.73
274.75	1691.62
274.97	1701.86
275.18	1744.87
275.40	1765.35
275.61	1677.29
275.83	1740.77
276.05	1640.42
276.26	1716.20
276.48	1777.64
276.69	1681.38
276.91	1695.72
277.12	1738.73
277.34	1785.83
277.55	1796.07
277.77	1757.16
277.99	1734.63
278.20	1695.72
278.42	1677.29
278.63	1597.42
278.85	1662.95
279.06	1574.89
279.28	1693.67
279.49	1751.01
279.71	1693.67
279.93	1695.72
280.14	1705.96
280.36	1718.25
280.57	1730.53
280.79	1708.01
281.00	1687.53
281.22	1724.39
281.43	1679.33
281.65	1554.41
281.86	1724.39
282.08	1685.48
282.29	1867.75
282.51	1624.04
282.73	1660.90
282.94	1669.09
283.16	1746.92
283.37	1689.57
283.59	1658.85
283.80	1767.40
284.02	1724.39
284.23	1740.77
284.45	1646.57
284.66	1648.61
284.88	1644.52
285.09	1683.43
285.31	1783.78
285.52	1761.25
285.74	1593.32
285.95	1748.97
286.17	1736.68
286.38	1845.22
286.60	1671.14
286.81	1679.33
287.03	1746.92
287.24	1648.61
287.46	1757.16
287.67	1665.00
287.89	1851.36
288.10	1695.72
288.32	1669.09
288.53	1808.36
288.75	1691.62
288.96	1662.95
289.18	1638.38
289.39	1734.63
289.61	1761.25
289.82	1773.54
290.04	1845.22
290.25	1667.05
290.47	1716.20
290.68	1658.85
290.90	1761.25
291.11	1642.47
291.33	1746.92
291.54	1705.96
291.76	1638.38
291.97	1753.06
292.18	1722.34
292.40	1654.76
292.61	1650.66
292.83	1738.73
293.04	1734.63
293.26	1744.87
293.47	1703.91
293.69	1636.33
293.90	1763.30
294.12	1781.73
294.33	1675.24
294.55	1652.71
294.76	1757.16
294.97	1796.07
295.19	1794.02
295.40	1722.34
295.62	1724.39
295.83	1787.88
296.05	1658.85
296.26	1773.54
296.48	1667.05
296.69	1671.14
296.90	1736.68
297.12	1761.25
297.33	1734.63
297.55	1689.57
297.76	1775.59
297.98	1722.34
298.19	1722.34
298.41	1732.58
298.62	1669.09
298.83	1828.84
299.05	1771.49
299.26	1732.58
299.48	1667.05
299.69	1755.11
299.90	1722.34
300.12	1652.71
300.33	1689.57
300.55	1701.86
300.76	1781.73
300.98	1611.75
301.19	1839.08
301.40	1679.33
301.62	1734.63
301.83	1746.92
302.05	1738.73
302.26	1691.62
302.47	1738.73
302.69	1693.67
302.90	1751.01
303.12	1609.70
303.33	1822.69
303.54	1837.03
303.76	1740.77
303.97	1728.49
304.19	1789.92
304.40	1669.09
304.61	1722.34
304.83	1826.79
305.04	1806.31
305.26	1728.49
305.47	1636.33
305.68	1734.63
305.90	1691.62
306.11	1763.30
306.33	1689.57
306.54	1710.05
306.75	1599.46
306.97	1611.75
307.18	1667.05
307.39	1710.05
307.61	1734.63
307.82	1734.63
308.04	1656.81
308.25	1665.00
308.46	1730.53
308.68	1734.63
308.89	1746.92
309.10	1808.36
309.32	1665.00
309.53	1728.49
309.74	1771.49
309.96	1710.05
310.17	1748.97
310.39	1722.34
310.60	1718.25
310.81	1693.67
311.03	1669.09
311.24	1789.92
311.45	1748.97
311.67	1812.45
311.88	1753.06
312.09	1681.38
312.31	1710.05
312.52	1687.53
312.73	1714.15
312.95	1662.95
313.16	1701.86
313.37	1824.74
313.59	1753.06
313.80	1779.68
314.01	1740.77
314.23	1710.05
314.44	1667.05
314.65	1673.19
314.87	1771.49
315.08	1751.01
315.29	1732.58
315.51	1669.09
315.72	1607.66
315.93	1822.69
316.15	1783.78
316.36	1658.85
316.57	1726.44
316.79	1781.73
317.00	1658.85
317.21	1742.82
317.43	1693.67
317.64	1794.02
317.85	1667.05
318.07	1619.94
318.28	1689.57
318.49	1728.49
318.70	1986.53
318.92	1810.40
319.13	1806.31
319.34	1855.46
319.56	1800.16
319.77	1800.16
319.98	1853.41
320.20	1757.16
320.41	1677.29
320.62	1701.86
320.83	1675.24
321.05	1935.33
321.26	1777.64
321.47	1693.67
321.69	1798.12
321.90	1708.01
322.11	1638.38
322.32	1720.29
322.54	1765.35
322.75	1697.77
322.96	1843.17
323.18	1683.43
323.39	1617.90
323.60	1615.85
323.81	1763.30
324.03	1714.15
324.24	1730.53
324.45	1722.34
324.66	1746.92
324.88	1828.84
325.09	1771.49
325.30	1740.77
325.52	1708.01
325.73	1734.63
325.94	1683.43
326.15	1628.14
326.37	1632.23
326.58	1777.64
326.79	1822.69
327.00	1638.38
327.22	1718.25
327.43	1619.94
327.64	1667.05
327.85	1667.05
328.07	1746.92
328.28	1791.97
328.49	1617.90
328.70	1724.39
328.92	1736.68
329.13	1710.05
329.34	1724.39
329.55	1730.53
329.76	1718.25
329.98	1669.09
330.19	1791.97
330.40	1751.01
330.61	1710.05
330.83	1742.82
331.04	1632.23
331.25	1708.01
331.46	1605.61
331.68	1601.51
331.89	1763.30
332.10	1779.68
332.31	1681.38
332.52	1697.77
332.74	1771.49
332.95	1607.66
333.16	1615.85
333.37	1689.57
333.58	1648.61
333.80	1699.81
334.01	1656.81
334.22	1757.16
334.43	1705.96
334.64	1638.38
334.86	1673.19
335.07	1724.39
335.28	1763.30
335.49	1656.81
335.70	1699.81
335.92	1738.73
336.13	1869.80
336.34	1812.45
336.55	1656.81
336.76	1699.81
336.98	1548.26
337.19	1767.40
337.40	1810.40
337.61	1800.16
337.82	1683.43
338.04	1753.06
338.25	1665.00
338.46	1677.29
338.67	1730.53
338.88	1595.37
339.09	1626.09
339.31	1738.73
339.52	1621.99
339.73	1634.28
339.94	1734.63
340.15	1701.86
340.36	1611.75
340.58	1718.25
340.79	1685.48
341.00	1665.00
341.21	1662.95
341.42	1806.31
341.63	1722.34
341.85	1742.82
342.06	1718.25
342.27	1716.20
342.48	1687.53
342.69	1628.14
342.90	1738.73
343.12	1761.25
343.33	1722.34
343.54	1722.34
343.75	1708.01
343.96	1771.49
344.17	1648.61
344.38	1660.90
344.60	1699.81
344.81	1714.15
345.02	1716.20
345.23	1714.15
345.44	1810.40
345.65	1687.53
345.86	1687.53
346.07	1669.09
346.29	1607.66
346.50	1734.63
346.71	1697.77
346.92	1800.16
347.13	1806.31
347.34	1722.34
347.55	1730.53
347.76	1701.86
347.98	1552.36
348.19	1652.71
348.40	1802.21
348.61	1660.90
348.82	1771.49
349.03	1742.82
349.24	1638.38
349.45	1791.97
349.66	1583.08
349.88	1718.25
350.09	1679.33
350.30	1783.78
350.51	1812.45
350.72	1619.94
350.93	1710.05
351.14	1689.57
351.35	1714.15
351.56	1675.24
351.77	1728.49
351.99	1771.49
352.20	1841.12
352.41	1753.06
352.62	1572.84
352.83	1656.81
353.04	1708.01
353.25	1634.28
353.46	1775.59
353.67	1785.83
353.88	1576.94
354.09	1744.87
354.30	1697.77
354.52	1683.43
354.73	1710.05
354.94	1662.95
355.15	1738.73
355.36	1757.16
355.57	1679.33
355.78	1705.96
355.99	1624.04
356.20	1667.05
356.41	1787.88
356.62	1785.83
356.83	1779.68
357.04	1708.01
357.25	1648.61
357.46	1644.52
357.68	1662.95
357.89	1642.47
358.10	1693.67
358.31	1705.96
358.52	1757.16
358.73	1662.95
358.94	1683.43
359.15	1671.14
359.36	1718.25
359.57	1728.49
359.78	1665.00
359.99	1701.86
360.20	1650.66
360.41	1675.24
360.62	1753.06
360.83	1687.53
361.04	1781.73
361.25	1734.63
361.46	1824.74
361.67	1742.82
361.88	1789.92
362.09	1814.50
362.30	1779.68
362.51	1687.53
362.72	1660.90
362.93	1673.19
363.14	1714.15
363.35	1691.62
363.56	1705.96
363.78	1746.92
363.99	1748.97
364.20	1650.66
364.41	1730.53
364.62	1812.45
364.83	1751.01
365.04	1689.57
365.25	1693.67
365.46	1863.65
365.67	1574.89
365.88	1626.09
366.09	1736.68
366.30	1658.85
366.51	1759.21
366.72	1691.62
366.93	1599.46
367.14	1718.25
367.35	1808.36
367.56	1761.25
367.77	1761.25
367.98	1617.90
368.18	1724.39
368.39	1755.11
368.60	1611.75
368.81	1757.16
369.02	1771.49
369.23	1669.09
369.44	1660.90
369.65	1669.09
369.86	1734.63
370.07	1730.53
370.28	1697.77
370.49	1761.25
370.70	1834.98
370.91	1703.91
371.12	1708.01
371.33	1732.58
371.54	1656.81
371.75	1753.06
371.96	1593.32
372.17	1740.77
372.38	1703.91
372.59	1796.07
372.80	1759.21
373.01	1683.43
373.22	1738.73
373.43	1701.86
373.64	1615.85
373.85	1757.16
374.06	1814.50
374.26	1767.40
374.47	1746.92
374.68	1722.34
374.89	1748.97
375.10	1667.05
375.31	1699.81
375.52	1656.81
375.73	1734.63
375.94	1634.28
376.15	1832.93
376.36	1669.09
376.57	1671.14
376.78	1691.62
376.99	1742.82
377.20	1759.21
377.40	1687.53
377.61	1865.70
377.82	1587.18
378.03	1732.58
378.24	1665.00
378.45	1624.04
378.66	1695.72
378.87	1624.04
379.08	1603.56
379.29	1740.77
379.50	1839.08
379.71	1730.53
379.91	1738.73
380.12	1667.05
380.33	1730.53
380.54	1677.29
380.75	1748.97
380.96	1685.48
381.17	1775.59
381.38	1697.77
381.59	1814.50
381.80	1740.77
382.00	1902.56
382.21	1730.53
382.42	1861.60
382.63	1880.04
382.84	1722.34
383.05	1742.82
383.26	1826.79
383.47	1812.45
383.68	1746.92
383.88	1714.15
384.09	1722.34
384.30	1914.85
384.51	1716.20
384.72	1640.42
384.93	1677.29
385.14	1626.09
385.35	1861.60
385.55	1648.61
385.76	1787.88
385.97	1716.20
386.18	1669.09
386.39	1646.57
386.60	1742.82
386.81	1714.15
387.02	1703.91
387.22	1679.33
387.43	1794.02
387.64	1845.22
387.85	1884.13
388.06	2226.14
388.27	4290.49
388.48	6635.42
388.68	8118.15
388.89	9455.47
389.10	9598.83
389.31	8470.40
389.52	7604.11
389.73	6647.71
389.93	6281.12
390.14	5810.09
390.35	5193.65
390.56	4462.52
390.77	3782.60
390.98	3166.16
391.18	2533.34
391.39	2131.94
391.60	1779.68
391.81	1742.82
392.02	1689.57
392.23	1789.92
392.43	1748.97
392.64	1812.45
392.85	1697.77
393.06	1841.12
393.27	1783.78
393.47	1716.20
393.68	1718.25
393.89	1660.90
394.10	1804.26
394.31	1724.39
394.52	1619.94
394.72	1738.73
394.93	1822.69
395.14	1607.66
395.35	1744.87
395.56	1740.77
395.76	1730.53
395.97	1800.16
396.18	1863.65
396.39	1853.41
396.60	1990.63
396.80	1931.23
397.01	1861.60
397.22	1824.74
397.43	1875.94
397.64	1746.92
397.84	1738.73
398.05	1886.18
398.26	1732.58
398.47	1806.31
398.67	1783.78
398.88	1767.40
399.09	1720.29
399.30	1703.91
399.51	1765.35
399.71	1724.39
399.92	1703.91
400.13	1800.16
400.34	1724.39
400.54	1718.25
400.75	1884.13
400.96	1675.24
401.17	1857.51
401.37	1761.25
401.58	1642.47
401.79	1765.35
402.00	1875.94
402.21	1984.48
402.41	1904.61
402.62	1935.33
402.83	2033.63
403.04	2000.87
403.24	2074.59
403.45	1898.47
403.66	1880.04
403.87	1830.88
404.07	1931.23
404.28	1964.00
404.49	1826.79
404.70	1810.40
404.90	1785.83
405.11	1781.73
405.32	1816.55
405.52	1605.61
405.73	1724.39
405.94	1693.67
406.15	1787.88
406.35	1714.15
406.56	1816.55
406.77	1681.38
406.98	1689.57
407.18	1673.19
407.39	1820.64
407.60	1650.66
407.80	1742.82
408.01	1699.81
408.22	1775.59
408.43	1691.62
408.63	1779.68
408.84	1773.54
409.05	1744.87
409.25	1751.01
409.46	1705.96
409.67	1726.44
409.88	1685.48
410.08	1689.57
410.29	1740.77
410.50	1734.63
410.70	1693.67
410.91	1677.29
411.12	1755.11
411.32	1671.14
411.53	1697.77
411.74	1779.68
411.95	1820.64
412.15	1796.07
412.36	1822.69
412.57	1748.97
412.77	1839.08
412.98	1677.29
413.19	1699.81
413.39	1783.78
413.60	1734.63
413.81	1773.54
414.01	1669.09
414.22	1779.68
414.43	1685.48
414.63	1732.58
414.84	1773.54
415.05	1783.78
415.25	1607.66
415.46	1794.02
415.67	1669.09
415.87	1824.74
416.08	1697.77
416.29	1619.94
416.49	1744.87
416.70	1669.09
416.91	1656.81
417.11	1677.29
417.32	1779.68
417.53	1753.06
417.73	1789.92
417.94	1642.47
418.15	1734.63
418.35	1681.38
418.56	1699.81
418.77	1884.13
418.97	1746.92
419.18	1712.10
419.38	1581.03
419.59	1621.99
419.80	1742.82
420.00	1718.25
420.21	1726.44
420.42	1828.84
420.62	1755.11
420.83	1681.38
421.04	1724.39
421.24	1689.57
421.45	1740.77
421.65	1718.25
421.86	1658.85
422.07	1751.01
422.27	1757.16
422.48	1683.43
422.69	1621.99
422.89	1660.90
423.10	1738.73
423.30	1587.18
423.51	1779.68
423.72	1812.45
423.92	1814.50
424.13	1695.72
424.33	1722.34
424.54	1769.44
424.75	1701.86
424.95	1763.30
425.16	1730.53
425.36	1728.49
425.57	1822.69
425.78	1736.68
425.98	1804.26
426.19	1769.44
426.39	1638.38
426.60	1775.59
426.81	1818.60
427.01	1701.86
427.22	1646.57
427.42	1599.46
427.63	1681.38
427.83	1775.59
428.04	1855.46
428.25	1734.63
428.45	1814.50
428.66	1740.77
428.86	1724.39
429.07	1701.86
429.28	1740.77
429.48	1642.47
429.69	1701.86
429.89	1720.29
430.10	1691.62
430.30	1771.49
430.51	1734.63
430.71	1648.61
430.92	1730.53
431.13	1650.66
431.33	1796.07
431.54	1763.30
431.74	1843.17
431.95	1841.12
432.15	1607.66
432.36	1679.33
432.56	1673.19
432.77	1779.68
432.98	1773.54
433.18	1759.21
433.39	1740.77
433.59	1662.95
433.80	1914.85
434.00	1869.80
434.21	1652.71
434.41	1748.97
434.62	1865.70
434.82	1634.28
435.03	1697.77
435.23	1730.53
435.44	1578.98
435.64	1722.34
435.85	1771.49
436.06	1777.64
436.26	1759.21
436.47	1705.96
436.67	1628.14
436.88	1705.96
437.08	1761.25
437.29	1746.92
437.49	1740.77
437.70	1718.25
437.90	1748.97
438.11	1875.94
438.31	1834.98
438.52	1908.71
438.72	1877.99
438.93	1964.00
439.13	1757.16
439.34	1837.03
439.54	1755.11
439.75	1812.45
439.95	1734.63
440.16	1662.95
440.36	1701.86
440.57	1761.25
440.77	1765.35
440.98	1812.45
441.18	1832.93
441.39	1720.29
441.59	1693.67
441.80	1871.84
442.00	1730.53
442.21	1781.73
442.41	1650.66
442.62	1751.01
442.82	1636.33
443.02	1728.49
443.23	1779.68
443.43	1732.58
443.64	1851.36
443.84	1681.38
444.05	1816.55
444.25	1785.83
444.46	1691.62
444.66	1718.25
444.87	1816.55
445.07	1607.66
445.28	1734.63
445.48	1841.12
445.69	1732.58
445.89	1783.78
446.09	1783.78
446.30	2027.49
446.50	2662.36
446.71	3618.76
446.91	4372.41
447.12	4749.24
447.32	4683.70
447.53	4476.86
447.73	3805.13
447.93	3571.66
448.14	3190.74
448.34	3114.96
448.55	2914.26
448.75	2785.24
448.96	2705.37
449.16	2389.98
449.36	2281.44
449.57	2015.20
449.77	1892.32
449.98	1746.92
450.18	1789.92
450.39	1910.75
450.59	1773.54
450.79	1732.58
451.00	1708.01
451.20	1753.06
451.41	1718.25
451.61	1775.59
451.81	1798.12
452.02	1689.57
452.22	1800.16
452.43	1681.38
452.63	1757.16
