SpectraSuite Data File
++++++++++++++++++++++++++++++++++++
Date: Mon Jun 06 15:42:17 CEST 2016
User: root
Dark Spectrum Present: No
Reference Spectrum Present: No
Number of Sampled Component Spectra: 1
Spectrometers: USB4C02835
Integration Time (usec): 100000 (USB4C02835)
Spectra Averaged: 1 (USB4C02835)
Boxcar Smoothing: 0 (USB4C02835)
Correct for Electrical Dark: No (USB4C02835)
Strobe/Lamp Enabled: No (USB4C02835)
Correct for Detector Non-linearity: No (USB4C02835)
Correct for Stray Light: No (USB4C02835)
Number of Pixels in Processed Spectrum: 3648
>>>>>Begin Processed Spectral Data<<<<<
177.47	1521.64
177.69	1521.64
177.91	1521.64
178.13	1509.35
178.36	1409.00
178.58	1671.14
178.80	1718.25
179.02	1538.02
179.24	1660.90
179.46	1683.43
179.68	1746.92
179.90	1685.48
180.13	1646.57
180.35	1689.57
180.57	1687.53
180.79	1810.40
181.01	1720.29
181.23	1812.45
181.45	1765.35
181.67	1708.01
181.90	1730.53
182.12	1665.00
182.34	1658.85
182.56	1787.88
182.78	1720.29
183.00	1611.75
183.22	1740.77
183.44	1595.37
183.66	1859.56
183.89	1834.98
184.11	1697.77
184.33	1746.92
184.55	1736.68
184.77	1695.72
184.99	1781.73
185.21	1732.58
185.43	1867.75
185.65	1638.38
185.87	1703.91
186.10	1830.88
186.32	1849.32
186.54	1726.44
186.76	1773.54
186.98	1765.35
187.20	1677.29
187.42	1697.77
187.64	1705.96
187.86	1828.84
188.08	1779.68
188.30	1701.86
188.52	1703.91
188.75	1783.78
188.97	1808.36
189.19	1660.90
189.41	1615.85
189.63	1685.48
189.85	1722.34
190.07	1658.85
190.29	1681.38
190.51	1834.98
190.73	1646.57
190.95	1794.02
191.17	1724.39
191.39	1609.70
191.61	1761.25
191.84	1665.00
192.06	1738.73
192.28	1681.38
192.50	1892.32
192.72	1722.34
192.94	1734.63
193.16	1773.54
193.38	1769.44
193.60	1699.81
193.82	1703.91
194.04	1812.45
194.26	1744.87
194.48	1734.63
194.70	1710.05
194.92	1667.05
195.14	1802.21
195.36	1673.19
195.58	1691.62
195.80	1658.85
196.02	1708.01
196.24	1615.85
196.46	1697.77
196.69	1716.20
196.91	1845.22
197.13	1740.77
197.35	1599.46
197.57	1757.16
197.79	1767.40
198.01	1677.29
198.23	1630.18
198.45	1787.88
198.67	1736.68
198.89	1703.91
199.11	1755.11
199.33	1691.62
199.55	1550.31
199.77	1753.06
199.99	1796.07
200.21	1699.81
200.43	1726.44
200.65	1599.46
200.87	1544.17
201.09	1765.35
201.31	1691.62
201.53	1775.59
201.75	1759.21
201.97	1812.45
202.19	1675.24
202.41	1759.21
202.63	1871.84
202.85	1738.73
203.07	1701.86
203.29	1662.95
203.51	1615.85
203.73	1701.86
203.95	1900.52
204.17	1746.92
204.39	1726.44
204.61	1658.85
204.83	1699.81
205.05	1722.34
205.27	1724.39
205.49	1810.40
205.71	1708.01
205.93	1665.00
206.15	1673.19
206.37	1710.05
206.59	1738.73
206.81	1656.81
207.03	1654.76
207.25	1675.24
207.47	1783.78
207.69	1738.73
207.91	1781.73
208.13	1740.77
208.34	1646.57
208.56	1689.57
208.78	1775.59
209.00	1697.77
209.22	1714.15
209.44	1728.49
209.66	1701.86
209.88	1722.34
210.10	1718.25
210.32	1662.95
210.54	1751.01
210.76	1675.24
210.98	1837.03
211.20	1599.46
211.42	1703.91
211.64	1767.40
211.86	1671.14
212.08	1804.26
212.30	1697.77
212.52	1624.04
212.74	1716.20
212.96	1695.72
213.17	1699.81
213.39	1703.91
213.61	1824.74
213.83	1677.29
214.05	1658.85
214.27	1828.84
214.49	1634.28
214.71	1667.05
214.93	1812.45
215.15	1716.20
215.37	1763.30
215.59	1640.42
215.81	1718.25
216.03	1796.07
216.24	1742.82
216.46	1685.48
216.68	1753.06
216.90	1736.68
217.12	1822.69
217.34	1724.39
217.56	1703.91
217.78	1826.79
218.00	1695.72
218.22	1683.43
218.44	1699.81
218.66	1769.44
218.87	1806.31
219.09	1708.01
219.31	1773.54
219.53	1714.15
219.75	1642.47
219.97	1624.04
220.19	1642.47
220.41	1720.29
220.63	1730.53
220.85	1697.77
221.06	1648.61
221.28	1798.12
221.50	1734.63
221.72	1744.87
221.94	1761.25
222.16	1660.90
222.38	1730.53
222.60	1761.25
222.82	1681.38
223.03	1748.97
223.25	1578.98
223.47	1785.83
223.69	1947.62
223.91	1701.86
224.13	1675.24
224.35	1767.40
224.57	1757.16
224.78	1753.06
225.00	1652.71
225.22	1738.73
225.44	1703.91
225.66	1681.38
225.88	1671.14
226.10	1773.54
226.32	1677.29
226.53	1738.73
226.75	1765.35
226.97	1689.57
227.19	1689.57
227.41	1660.90
227.63	1660.90
227.85	1681.38
228.06	1720.29
228.28	1679.33
228.50	1708.01
228.72	1632.23
228.94	1736.68
229.16	1650.66
229.37	1654.76
229.59	1662.95
229.81	1773.54
230.03	1634.28
230.25	1648.61
230.47	1646.57
230.69	1593.32
230.90	1753.06
231.12	1630.18
231.34	1787.88
231.56	1808.36
231.78	1693.67
232.00	1705.96
232.21	1730.53
232.43	1621.99
232.65	1665.00
232.87	1789.92
233.09	1669.09
233.30	1710.05
233.52	1710.05
233.74	1708.01
233.96	1697.77
234.18	1714.15
234.40	1673.19
234.61	1769.44
234.83	1695.72
235.05	1693.67
235.27	1882.08
235.49	1804.26
235.70	1734.63
235.92	1828.84
236.14	1732.58
236.36	1822.69
236.58	1685.48
236.79	1748.97
237.01	1757.16
237.23	1632.23
237.45	1779.68
237.67	1671.14
237.88	1718.25
238.10	1769.44
238.32	1681.38
238.54	1744.87
238.76	1710.05
238.97	1736.68
239.19	1679.33
239.41	1703.91
239.63	1806.31
239.85	1632.23
240.06	1695.72
240.28	1667.05
240.50	1787.88
240.72	1693.67
240.93	1687.53
241.15	1685.48
241.37	1648.61
241.59	1777.64
241.81	1755.11
242.02	1705.96
242.24	1660.90
242.46	1724.39
242.68	1669.09
242.89	1742.82
243.11	1691.62
243.33	1683.43
243.55	1767.40
243.76	1808.36
243.98	1654.76
244.20	1714.15
244.42	1777.64
244.64	1773.54
244.85	1607.66
245.07	1656.81
245.29	1718.25
245.51	1687.53
245.72	1722.34
245.94	1775.59
246.16	1718.25
246.38	1804.26
246.59	1675.24
246.81	1701.86
247.03	1722.34
247.24	1640.42
247.46	1742.82
247.68	1701.86
247.90	1722.34
248.11	1677.29
248.33	1726.44
248.55	1701.86
248.77	1740.77
248.98	1705.96
249.20	1826.79
249.42	1740.77
249.64	1730.53
249.85	1705.96
250.07	1685.48
250.29	1796.07
250.50	1734.63
250.72	1644.52
250.94	1703.91
251.16	1806.31
251.37	1775.59
251.59	1730.53
251.81	1767.40
252.02	1773.54
252.24	1628.14
252.46	1806.31
252.68	1671.14
252.89	1763.30
253.11	1677.29
253.33	1820.64
253.54	1673.19
253.76	1626.09
253.98	1634.28
254.20	1667.05
254.41	1587.18
254.63	1675.24
254.85	1665.00
255.06	1748.97
255.28	1710.05
255.50	1740.77
255.71	1720.29
255.93	1660.90
256.15	1675.24
256.36	1726.44
256.58	1712.10
256.80	1736.68
257.02	1677.29
257.23	1716.20
257.45	1753.06
257.67	1724.39
257.88	1716.20
258.10	1798.12
258.32	1708.01
258.53	1693.67
258.75	1892.32
258.97	1673.19
259.18	1744.87
259.40	1736.68
259.62	1828.84
259.83	1806.31
260.05	1763.30
260.27	1996.77
260.48	1746.92
260.70	1728.49
260.92	1673.19
261.13	1777.64
261.35	1701.86
261.57	1816.55
261.78	1683.43
262.00	1710.05
262.22	1732.58
262.43	1763.30
262.65	1691.62
262.86	1742.82
263.08	1787.88
263.30	1781.73
263.51	1581.03
263.73	1730.53
263.95	1837.03
264.16	1679.33
264.38	1687.53
264.60	1753.06
264.81	1699.81
265.03	1728.49
265.25	1736.68
265.46	1685.48
265.68	1726.44
265.89	1794.02
266.11	1667.05
266.33	1703.91
266.54	1777.64
266.76	1738.73
266.98	1679.33
267.19	1798.12
267.41	1765.35
267.62	1656.81
267.84	1646.57
268.06	1742.82
268.27	1718.25
268.49	1755.11
268.70	1779.68
268.92	1753.06
269.14	1669.09
269.35	1648.61
269.57	1779.68
269.79	1832.93
270.00	1693.67
270.22	1882.08
270.43	1808.36
270.65	1531.88
270.87	1728.49
271.08	1771.49
271.30	1751.01
271.51	1732.58
271.73	1714.15
271.95	1800.16
272.16	1701.86
272.38	1732.58
272.59	1679.33
272.81	1722.34
273.02	1644.52
273.24	1796.07
273.46	1824.74
273.67	1677.29
273.89	1687.53
274.10	1665.00
274.32	1742.82
274.54	1791.97
274.75	1791.97
274.97	1708.01
275.18	1761.25
275.40	1757.16
275.61	1722.34
275.83	1722.34
276.05	1728.49
276.26	1730.53
276.48	1744.87
276.69	1644.52
276.91	1648.61
277.12	1890.28
277.34	1662.95
277.55	1828.84
277.77	1689.57
277.99	1716.20
278.20	1632.23
278.42	1681.38
278.63	1656.81
278.85	1669.09
279.06	1607.66
279.28	1732.58
279.49	1753.06
279.71	1779.68
279.93	1753.06
280.14	1753.06
280.36	1714.15
280.57	1789.92
280.79	1734.63
281.00	1726.44
281.22	1667.05
281.43	1853.41
281.65	1667.05
281.86	1705.96
282.08	1691.62
282.29	1849.32
282.51	1574.89
282.73	1667.05
282.94	1646.57
283.16	1789.92
283.37	1759.21
283.59	1703.91
283.80	1720.29
284.02	1701.86
284.23	1710.05
284.45	1748.97
284.66	1619.94
284.88	1650.66
285.09	1677.29
285.31	1716.20
285.52	1810.40
285.74	1658.85
285.95	1732.58
286.17	1671.14
286.38	1759.21
286.60	1658.85
286.81	1705.96
287.03	1724.39
287.24	1730.53
287.46	1734.63
287.67	1689.57
287.89	1865.70
288.10	1630.18
288.32	1689.57
288.53	1843.17
288.75	1730.53
288.96	1779.68
289.18	1681.38
289.39	1705.96
289.61	1658.85
289.82	1816.55
290.04	1832.93
290.25	1671.14
290.47	1714.15
290.68	1613.80
290.90	1757.16
291.11	1636.33
291.33	1705.96
291.54	1570.79
291.76	1665.00
291.97	1701.86
292.18	1785.83
292.40	1699.81
292.61	1777.64
292.83	1855.46
293.04	1773.54
293.26	1718.25
293.47	1701.86
293.69	1687.53
293.90	1648.61
294.12	1814.50
294.33	1701.86
294.55	1734.63
294.76	1748.97
294.97	1777.64
295.19	1882.08
295.40	1761.25
295.62	1767.40
295.83	1671.14
296.05	1679.33
296.26	1812.45
296.48	1738.73
296.69	1619.94
296.90	1671.14
297.12	1726.44
297.33	1763.30
297.55	1720.29
297.76	1699.81
297.98	1800.16
298.19	1734.63
298.41	1685.48
298.62	1644.52
298.83	1816.55
299.05	1714.15
299.26	1708.01
299.48	1675.24
299.69	1800.16
299.90	1789.92
300.12	1677.29
300.33	1849.32
300.55	1658.85
300.76	1810.40
300.98	1660.90
301.19	1777.64
301.40	1671.14
301.62	1763.30
301.83	1763.30
302.05	1757.16
302.26	1728.49
302.47	1705.96
302.69	1675.24
302.90	1705.96
303.12	1609.70
303.33	1783.78
303.54	1812.45
303.76	1681.38
303.97	1777.64
304.19	1794.02
304.40	1581.03
304.61	1742.82
304.83	1800.16
305.04	1763.30
305.26	1759.21
305.47	1640.42
305.68	1720.29
305.90	1628.14
306.11	1773.54
306.33	1726.44
306.54	1730.53
306.75	1675.24
306.97	1615.85
307.18	1724.39
307.39	1699.81
307.61	1796.07
307.82	1716.20
308.04	1730.53
308.25	1648.61
308.46	1820.64
308.68	1701.86
308.89	1714.15
309.10	1734.63
309.32	1740.77
309.53	1691.62
309.74	1730.53
309.96	1730.53
310.17	1830.88
310.39	1634.28
310.60	1748.97
310.81	1767.40
311.03	1687.53
311.24	1755.11
311.45	1681.38
311.67	1834.98
311.88	1748.97
312.09	1705.96
312.31	1675.24
312.52	1685.48
312.73	1671.14
312.95	1638.38
313.16	1685.48
313.37	1736.68
313.59	1849.32
313.80	1765.35
314.01	1882.08
314.23	1755.11
314.44	1753.06
314.65	1619.94
314.87	1605.61
315.08	1761.25
315.29	1734.63
315.51	1626.09
315.72	1652.71
315.93	1843.17
316.15	1802.21
316.36	1656.81
316.57	1720.29
316.79	1734.63
317.00	1767.40
317.21	1691.62
317.43	1654.76
317.64	1685.48
317.85	1673.19
318.07	1736.68
318.28	1701.86
318.49	1800.16
318.70	1884.13
318.92	1755.11
319.13	1888.23
319.34	1890.28
319.56	1814.50
319.77	1714.15
319.98	1812.45
320.20	1640.42
320.41	1753.06
320.62	1796.07
320.83	1705.96
321.05	1845.22
321.26	1767.40
321.47	1748.97
321.69	1783.78
321.90	1611.75
322.11	1640.42
322.32	1697.77
322.54	1753.06
322.75	1759.21
322.96	1773.54
323.18	1685.48
323.39	1673.19
323.60	1665.00
323.81	1748.97
324.03	1652.71
324.24	1714.15
324.45	1687.53
324.66	1679.33
324.88	1722.34
325.09	1800.16
325.30	1755.11
325.52	1783.78
325.73	1658.85
325.94	1685.48
326.15	1607.66
326.37	1693.67
326.58	1722.34
326.79	1820.64
327.00	1759.21
327.22	1822.69
327.43	1673.19
327.64	1634.28
327.85	1703.91
328.07	1712.10
328.28	1902.56
328.49	1677.29
328.70	1742.82
328.92	1665.00
329.13	1732.58
329.34	1673.19
329.55	1808.36
329.76	1718.25
329.98	1708.01
330.19	1812.45
330.40	1718.25
330.61	1734.63
330.83	1849.32
331.04	1630.18
331.25	1722.34
331.46	1695.72
331.68	1601.51
331.89	1796.07
332.10	1722.34
332.31	1675.24
332.52	1681.38
332.74	1802.21
332.95	1609.70
333.16	1673.19
333.37	1814.50
333.58	1701.86
333.80	1767.40
334.01	1615.85
334.22	1791.97
334.43	1671.14
334.64	1644.52
334.86	1665.00
335.07	1755.11
335.28	1808.36
335.49	1671.14
335.70	1814.50
335.92	1822.69
336.13	1929.19
336.34	1740.77
336.55	1722.34
336.76	1697.77
336.98	1662.95
337.19	1693.67
337.40	1845.22
337.61	1837.03
337.82	1640.42
338.04	1767.40
338.25	1630.18
338.46	1685.48
338.67	1687.53
338.88	1648.61
339.09	1675.24
339.31	1675.24
339.52	1701.86
339.73	1662.95
339.94	1626.09
340.15	1759.21
340.36	1665.00
340.58	1806.31
340.79	1626.09
341.00	1732.58
341.21	1636.33
341.42	1769.44
341.63	1816.55
341.85	1773.54
342.06	1736.68
342.27	1671.14
342.48	1681.38
342.69	1556.46
342.90	1656.81
343.12	1751.01
343.33	1656.81
343.54	1734.63
343.75	1767.40
343.96	1687.53
344.17	1656.81
344.38	1650.66
344.60	1691.62
344.81	1736.68
345.02	1671.14
345.23	1837.03
345.44	1787.88
345.65	1798.12
345.86	1730.53
346.07	1730.53
346.29	1695.72
346.50	1728.49
346.71	1738.73
346.92	1798.12
347.13	1867.75
347.34	1714.15
347.55	1746.92
347.76	1697.77
347.98	1773.54
348.19	1691.62
348.40	1755.11
348.61	1732.58
348.82	1775.59
349.03	1798.12
349.24	1652.71
349.45	1832.93
349.66	1630.18
349.88	1724.39
350.09	1650.66
350.30	1722.34
350.51	1800.16
350.72	1755.11
350.93	1703.91
351.14	1710.05
351.35	1804.26
351.56	1710.05
351.77	1718.25
351.99	1748.97
352.20	1814.50
352.41	1757.16
352.62	1621.99
352.83	1724.39
353.04	1771.49
353.25	1712.10
353.46	1808.36
353.67	1683.43
353.88	1603.56
354.09	1740.77
354.30	1814.50
354.52	1769.44
354.73	1693.67
354.94	1740.77
355.15	1687.53
355.36	1804.26
355.57	1677.29
355.78	1736.68
355.99	1691.62
356.20	1636.33
356.41	1810.40
356.62	1769.44
356.83	1816.55
357.04	1744.87
357.25	1662.95
357.46	1669.09
357.68	1665.00
357.89	1656.81
358.10	1730.53
358.31	1734.63
358.52	1644.52
358.73	1585.13
358.94	1636.33
359.15	1656.81
359.36	1705.96
359.57	1765.35
359.78	1650.66
359.99	1724.39
360.20	1705.96
360.41	1712.10
360.62	1693.67
360.83	1730.53
361.04	1826.79
361.25	1736.68
361.46	1763.30
361.67	1796.07
361.88	1765.35
362.09	1724.39
362.30	1718.25
362.51	1703.91
362.72	1759.21
362.93	1755.11
363.14	1820.64
363.35	1742.82
363.56	1638.38
363.78	1808.36
363.99	1763.30
364.20	1656.81
364.41	1740.77
364.62	1906.66
364.83	1757.16
365.04	1685.48
365.25	1693.67
365.46	1806.31
365.67	1605.61
365.88	1646.57
366.09	1724.39
366.30	1634.28
366.51	1728.49
366.72	1736.68
366.93	1703.91
367.14	1714.15
367.35	1802.21
367.56	1732.58
367.77	1841.12
367.98	1732.58
368.18	1716.20
368.39	1806.31
368.60	1714.15
368.81	1738.73
369.02	1626.09
369.23	1710.05
369.44	1568.74
369.65	1732.58
369.86	1722.34
370.07	1714.15
370.28	1667.05
370.49	1775.59
370.70	1748.97
370.91	1611.75
371.12	1624.04
371.33	1736.68
371.54	1730.53
371.75	1920.99
371.96	1658.85
372.17	1769.44
372.38	1724.39
372.59	1796.07
372.80	1662.95
373.01	1652.71
373.22	1697.77
373.43	1660.90
373.64	1677.29
373.85	1728.49
374.06	1814.50
374.26	1697.77
374.47	1681.38
374.68	1857.51
374.89	1728.49
375.10	1658.85
375.31	1822.69
375.52	1662.95
375.73	1656.81
375.94	1669.09
376.15	1775.59
376.36	1660.90
376.57	1650.66
376.78	1634.28
376.99	1716.20
377.20	1839.08
377.40	1671.14
377.61	1832.93
377.82	1626.09
378.03	1787.88
378.24	1789.92
378.45	1650.66
378.66	1732.58
378.87	1689.57
379.08	1699.81
379.29	1689.57
379.50	1818.60
379.71	1699.81
379.91	1736.68
380.12	1705.96
380.33	1773.54
380.54	1714.15
380.75	1783.78
380.96	1720.29
381.17	1796.07
381.38	1671.14
381.59	1753.06
381.80	1761.25
382.00	1861.60
382.21	1783.78
382.42	1816.55
382.63	1791.97
382.84	1746.92
383.05	1798.12
383.26	1882.08
383.47	1742.82
383.68	1697.77
383.88	1861.60
384.09	1822.69
384.30	1769.44
384.51	1771.49
384.72	1685.48
384.93	1656.81
385.14	1736.68
385.35	1800.16
385.55	1607.66
385.76	1779.68
385.97	1740.77
386.18	1646.57
386.39	1718.25
386.60	1722.34
386.81	1703.91
387.02	1640.42
387.22	1609.70
387.43	1755.11
387.64	1812.45
387.85	1855.46
388.06	2176.99
388.27	4247.49
388.48	6748.06
388.68	8306.56
388.89	9551.73
389.10	9693.04
389.31	8558.46
389.52	7632.78
389.73	6682.52
389.93	6250.40
390.14	5863.33
390.35	5085.11
390.56	4542.39
390.77	3762.12
390.98	3016.66
391.18	2543.58
391.39	2054.11
391.60	1865.70
391.81	1851.36
392.02	1781.73
392.23	1877.99
392.43	1742.82
392.64	1773.54
392.85	1701.86
393.06	1851.36
393.27	1746.92
393.47	1701.86
393.68	1693.67
393.89	1734.63
394.10	1873.89
394.31	1652.71
394.52	1644.52
394.72	1720.29
394.93	1820.64
395.14	1624.04
395.35	1708.01
395.56	1671.14
395.76	1746.92
395.97	1873.89
396.18	1771.49
396.39	1906.66
396.60	2009.06
396.80	1873.89
397.01	1869.80
397.22	1882.08
397.43	1849.32
397.64	1693.67
397.84	1810.40
398.05	1877.99
398.26	1722.34
398.47	1757.16
398.67	1814.50
398.88	1748.97
399.09	1738.73
399.30	1705.96
399.51	1697.77
399.71	1734.63
399.92	1705.96
400.13	1728.49
400.34	1667.05
400.54	1730.53
400.75	1828.84
400.96	1712.10
401.17	1779.68
401.37	1791.97
401.58	1734.63
401.79	1771.49
402.00	1906.66
402.21	1947.62
402.41	2011.11
402.62	1964.00
402.83	2115.55
403.04	1959.91
403.24	2107.36
403.45	1806.31
403.66	1957.86
403.87	1845.22
404.07	1884.13
404.28	1912.80
404.49	1798.12
404.70	1806.31
404.90	1767.40
405.11	1775.59
405.32	1802.21
405.52	1644.52
405.73	1695.72
405.94	1638.38
406.15	1753.06
406.35	1720.29
406.56	1773.54
406.77	1640.42
406.98	1714.15
407.18	1720.29
407.39	1798.12
407.60	1722.34
407.80	1724.39
408.01	1638.38
408.22	1769.44
408.43	1703.91
408.63	1705.96
408.84	1710.05
409.05	1789.92
409.25	1710.05
409.46	1644.52
409.67	1769.44
409.88	1671.14
410.08	1787.88
410.29	1658.85
410.50	1822.69
410.70	1691.62
410.91	1675.24
411.12	1691.62
411.32	1734.63
411.53	1761.25
411.74	1834.98
411.95	1755.11
412.15	1855.46
412.36	1843.17
412.57	1783.78
412.77	1820.64
412.98	1771.49
413.19	1656.81
413.39	1751.01
413.60	1746.92
413.81	1834.98
414.01	1763.30
414.22	1802.21
414.43	1810.40
414.63	1669.09
414.84	1767.40
415.05	1761.25
415.25	1572.84
415.46	1751.01
415.67	1751.01
415.87	1812.45
416.08	1767.40
416.29	1746.92
416.49	1732.58
416.70	1705.96
416.91	1763.30
417.11	1736.68
417.32	1726.44
417.53	1777.64
417.73	1736.68
417.94	1697.77
418.15	1802.21
418.35	1722.34
418.56	1714.15
418.77	1820.64
418.97	1734.63
419.18	1742.82
419.38	1521.64
419.59	1722.34
419.80	1816.55
420.00	1677.29
420.21	1771.49
420.42	1828.84
420.62	1732.58
420.83	1738.73
421.04	1703.91
421.24	1712.10
421.45	1765.35
421.65	1773.54
421.86	1705.96
422.07	1810.40
422.27	1828.84
422.48	1677.29
422.69	1611.75
422.89	1701.86
423.10	1763.30
423.30	1683.43
423.51	1744.87
423.72	1687.53
423.92	1742.82
424.13	1671.14
424.33	1701.86
424.54	1744.87
424.75	1712.10
424.95	1837.03
425.16	1703.91
425.36	1681.38
425.57	1779.68
425.78	1722.34
425.98	1675.24
426.19	1753.06
426.39	1689.57
426.60	1742.82
426.81	1826.79
427.01	1746.92
427.22	1769.44
427.42	1679.33
427.63	1689.57
427.83	1720.29
428.04	1824.74
428.25	1738.73
428.45	1767.40
428.66	1787.88
428.86	1720.29
429.07	1683.43
429.28	1708.01
429.48	1742.82
429.69	1642.47
429.89	1791.97
430.10	1689.57
430.30	1773.54
430.51	1765.35
430.71	1757.16
430.92	1740.77
431.13	1722.34
431.33	1763.30
431.54	1732.58
431.74	1759.21
431.95	1771.49
432.15	1646.57
432.36	1673.19
432.56	1732.58
432.77	1794.02
432.98	1818.60
433.18	1767.40
433.39	1679.33
433.59	1685.48
433.80	1847.27
434.00	1808.36
434.21	1712.10
434.41	1683.43
434.62	1941.47
434.82	1660.90
435.03	1665.00
435.23	1744.87
435.44	1671.14
435.64	1718.25
435.85	1718.25
436.06	1705.96
436.26	1763.30
436.47	1722.34
436.67	1771.49
436.88	1673.19
437.08	1775.59
437.29	1822.69
437.49	1662.95
437.70	1785.83
437.90	1656.81
438.11	1841.12
438.31	1810.40
438.52	1894.37
438.72	1849.32
438.93	1927.14
439.13	1730.53
439.34	1783.78
439.54	1748.97
439.75	1830.88
439.95	1863.65
440.16	1703.91
440.36	1746.92
440.57	1728.49
440.77	1742.82
440.98	1746.92
441.18	1796.07
441.39	1626.09
441.59	1742.82
441.80	1898.47
442.00	1742.82
442.21	1820.64
442.41	1712.10
442.62	1732.58
442.82	1621.99
443.02	1730.53
443.23	1730.53
443.43	1728.49
443.64	1832.93
443.84	1642.47
444.05	1796.07
444.25	1712.10
444.46	1708.01
444.66	1777.64
444.87	1826.79
445.07	1624.04
445.28	1714.15
445.48	1748.97
445.69	1757.16
445.89	1877.99
446.09	1742.82
446.30	2027.49
446.50	2691.03
446.71	3702.73
446.91	4231.10
447.12	4802.49
447.32	4863.93
447.53	4382.65
447.73	3899.33
447.93	3454.92
448.14	3258.32
448.34	3123.15
448.55	2779.09
448.75	2834.39
448.96	2719.70
449.16	2488.28
449.36	2279.39
449.57	2041.82
449.77	1972.19
449.98	1779.68
450.18	1822.69
450.39	1808.36
450.59	1791.97
450.79	1718.25
451.00	1763.30
451.20	1773.54
451.41	1734.63
451.61	1765.35
451.81	1726.44
452.02	1734.63
452.22	1699.81
452.43	1775.59
452.63	1685.48
