SpectraSuite Data File
++++++++++++++++++++++++++++++++++++
Date: Mon Jun 06 12:52:57 CEST 2016
User: root
Dark Spectrum Present: No
Reference Spectrum Present: No
Number of Sampled Component Spectra: 1
Spectrometers: USB4C02835
Integration Time (usec): 100000 (USB4C02835)
Spectra Averaged: 1 (USB4C02835)
Boxcar Smoothing: 0 (USB4C02835)
Correct for Electrical Dark: No (USB4C02835)
Strobe/Lamp Enabled: No (USB4C02835)
Correct for Detector Non-linearity: No (USB4C02835)
Correct for Stray Light: No (USB4C02835)
Number of Pixels in Processed Spectrum: 3648
>>>>>Begin Processed Spectral Data<<<<<
177.47	1447.91
177.69	1447.91
177.91	1447.91
178.13	1486.83
178.36	1396.71
178.58	1681.38
178.80	1691.62
179.02	1662.95
179.24	1640.42
179.46	1720.29
179.68	1796.07
179.90	1566.70
180.13	1730.53
180.35	1636.33
180.57	1673.19
180.79	1787.88
181.01	1564.65
181.23	1802.21
181.45	1796.07
181.67	1724.39
181.90	1787.88
182.12	1574.89
182.34	1679.33
182.56	1765.35
182.78	1759.21
183.00	1624.04
183.22	1689.57
183.44	1611.75
183.66	1863.65
183.89	1806.31
184.11	1716.20
184.33	1755.11
184.55	1751.01
184.77	1716.20
184.99	1740.77
185.21	1652.71
185.43	1851.36
185.65	1675.24
185.87	1652.71
186.10	1832.93
186.32	1830.88
186.54	1744.87
186.76	1716.20
186.98	1701.86
187.20	1697.77
187.42	1675.24
187.64	1691.62
187.86	1777.64
188.08	1744.87
188.30	1669.09
188.52	1708.01
188.75	1734.63
188.97	1767.40
189.19	1685.48
189.41	1679.33
189.63	1662.95
189.85	1689.57
190.07	1699.81
190.29	1658.85
190.51	1705.96
190.73	1697.77
190.95	1742.82
191.17	1691.62
191.39	1619.94
191.61	1677.29
191.84	1660.90
192.06	1695.72
192.28	1701.86
192.50	1824.74
192.72	1724.39
192.94	1650.66
193.16	1716.20
193.38	1714.15
193.60	1646.57
193.82	1675.24
194.04	1724.39
194.26	1744.87
194.48	1701.86
194.70	1691.62
194.92	1716.20
195.14	1746.92
195.36	1611.75
195.58	1708.01
195.80	1732.58
196.02	1601.51
196.24	1656.81
196.46	1736.68
196.69	1679.33
196.91	1839.08
197.13	1597.42
197.35	1699.81
197.57	1765.35
197.79	1759.21
198.01	1744.87
198.23	1714.15
198.45	1703.91
198.67	1638.38
198.89	1712.10
199.11	1708.01
199.33	1628.14
199.55	1613.80
199.77	1640.42
199.99	1703.91
200.21	1652.71
200.43	1720.29
200.65	1677.29
200.87	1656.81
201.09	1724.39
201.31	1714.15
201.53	1703.91
201.75	1755.11
201.97	1728.49
202.19	1658.85
202.41	1673.19
202.63	1880.04
202.85	1812.45
203.07	1671.14
203.29	1746.92
203.51	1662.95
203.73	1636.33
203.95	1904.61
204.17	1763.30
204.39	1724.39
204.61	1677.29
204.83	1699.81
205.05	1777.64
205.27	1767.40
205.49	1763.30
205.71	1681.38
205.93	1574.89
206.15	1697.77
206.37	1675.24
206.59	1728.49
206.81	1615.85
207.03	1628.14
207.25	1597.42
207.47	1742.82
207.69	1767.40
207.91	1820.64
208.13	1734.63
208.34	1660.90
208.56	1730.53
208.78	1728.49
209.00	1677.29
209.22	1665.00
209.44	1656.81
209.66	1679.33
209.88	1675.24
210.10	1755.11
210.32	1722.34
210.54	1777.64
210.76	1757.16
210.98	1746.92
211.20	1570.79
211.42	1669.09
211.64	1726.44
211.86	1755.11
212.08	1746.92
212.30	1675.24
212.52	1652.71
212.74	1671.14
212.96	1705.96
213.17	1728.49
213.39	1718.25
213.61	1822.69
213.83	1648.61
214.05	1634.28
214.27	1728.49
214.49	1628.14
214.71	1699.81
214.93	1708.01
215.15	1650.66
215.37	1701.86
215.59	1621.99
215.81	1783.78
216.03	1804.26
216.24	1710.05
216.46	1691.62
216.68	1734.63
216.90	1746.92
217.12	1624.04
217.34	1654.76
217.56	1755.11
217.78	1777.64
218.00	1705.96
218.22	1769.44
218.44	1695.72
218.66	1767.40
218.87	1822.69
219.09	1658.85
219.31	1689.57
219.53	1755.11
219.75	1746.92
219.97	1693.67
220.19	1699.81
220.41	1679.33
220.63	1753.06
220.85	1689.57
221.06	1681.38
221.28	1796.07
221.50	1689.57
221.72	1662.95
221.94	1738.73
222.16	1624.04
222.38	1714.15
222.60	1697.77
222.82	1699.81
223.03	1767.40
223.25	1630.18
223.47	1734.63
223.69	1834.98
223.91	1794.02
224.13	1656.81
224.35	1640.42
224.57	1771.49
224.78	1708.01
225.00	1615.85
225.22	1689.57
225.44	1675.24
225.66	1763.30
225.88	1701.86
226.10	1736.68
226.32	1751.01
226.53	1808.36
226.75	1628.14
226.97	1689.57
227.19	1744.87
227.41	1613.80
227.63	1667.05
227.85	1634.28
228.06	1779.68
228.28	1718.25
228.50	1767.40
228.72	1599.46
228.94	1705.96
229.16	1578.98
229.37	1646.57
229.59	1636.33
229.81	1777.64
230.03	1671.14
230.25	1658.85
230.47	1632.23
230.69	1599.46
230.90	1687.53
231.12	1634.28
231.34	1705.96
231.56	1724.39
231.78	1613.80
232.00	1777.64
232.21	1701.86
232.43	1652.71
232.65	1603.56
232.87	1771.49
233.09	1628.14
233.30	1652.71
233.52	1761.25
233.74	1724.39
233.96	1718.25
234.18	1748.97
234.40	1716.20
234.61	1759.21
234.83	1628.14
235.05	1650.66
235.27	1738.73
235.49	1740.77
235.70	1796.07
235.92	1738.73
236.14	1667.05
236.36	1828.84
236.58	1630.18
236.79	1751.01
237.01	1716.20
237.23	1677.29
237.45	1759.21
237.67	1673.19
237.88	1675.24
238.10	1816.55
238.32	1648.61
238.54	1656.81
238.76	1714.15
238.97	1669.09
239.19	1712.10
239.41	1728.49
239.63	1822.69
239.85	1673.19
240.06	1734.63
240.28	1738.73
240.50	1775.59
240.72	1746.92
240.93	1757.16
241.15	1779.68
241.37	1693.67
241.59	1787.88
241.81	1742.82
242.02	1722.34
242.24	1769.44
242.46	1720.29
242.68	1730.53
242.89	1722.34
243.11	1753.06
243.33	1693.67
243.55	1722.34
243.76	1722.34
243.98	1630.18
244.20	1730.53
244.42	1755.11
244.64	1730.53
244.85	1683.43
245.07	1652.71
245.29	1726.44
245.51	1681.38
245.72	1744.87
245.94	1724.39
246.16	1744.87
246.38	1724.39
246.59	1642.47
246.81	1675.24
247.03	1644.52
247.24	1646.57
247.46	1726.44
247.68	1648.61
247.90	1675.24
248.11	1701.86
248.33	1777.64
248.55	1662.95
248.77	1687.53
248.98	1802.21
249.20	1781.73
249.42	1675.24
249.64	1791.97
249.85	1652.71
250.07	1671.14
250.29	1677.29
250.50	1820.64
250.72	1587.18
250.94	1736.68
251.16	1808.36
251.37	1783.78
251.59	1705.96
251.81	1742.82
252.02	1736.68
252.24	1714.15
252.46	1849.32
252.68	1681.38
252.89	1632.23
253.11	1566.70
253.33	1757.16
253.54	1787.88
253.76	1617.90
253.98	1650.66
254.20	1710.05
254.41	1624.04
254.63	1689.57
254.85	1615.85
255.06	1755.11
255.28	1759.21
255.50	1632.23
255.71	1654.76
255.93	1550.31
256.15	1683.43
256.36	1669.09
256.58	1667.05
256.80	1779.68
257.02	1697.77
257.23	1681.38
257.45	1697.77
257.67	1732.58
257.88	1646.57
258.10	1705.96
258.32	1689.57
258.53	1730.53
258.75	1804.26
258.97	1603.56
259.18	1730.53
259.40	1650.66
259.62	1779.68
259.83	1781.73
260.05	1708.01
260.27	2009.06
260.48	1742.82
260.70	1673.19
260.92	1742.82
261.13	1726.44
261.35	1677.29
261.57	1728.49
261.78	1601.51
262.00	1656.81
262.22	1816.55
262.43	1634.28
262.65	1718.25
262.86	1691.62
263.08	1742.82
263.30	1726.44
263.51	1583.08
263.73	1673.19
263.95	1845.22
264.16	1585.13
264.38	1662.95
264.60	1755.11
264.81	1669.09
265.03	1736.68
265.25	1755.11
265.46	1673.19
265.68	1763.30
265.89	1724.39
266.11	1626.09
266.33	1783.78
266.54	1751.01
266.76	1738.73
266.98	1708.01
267.19	1730.53
267.41	1736.68
267.62	1718.25
267.84	1599.46
268.06	1681.38
268.27	1726.44
268.49	1710.05
268.70	1744.87
268.92	1693.67
269.14	1617.90
269.35	1650.66
269.57	1646.57
269.79	1744.87
270.00	1626.09
270.22	1748.97
270.43	1710.05
270.65	1658.85
270.87	1693.67
271.08	1697.77
271.30	1738.73
271.51	1599.46
271.73	1779.68
271.95	1783.78
272.16	1656.81
272.38	1726.44
272.59	1681.38
272.81	1691.62
273.02	1703.91
273.24	1746.92
273.46	1708.01
273.67	1615.85
273.89	1628.14
274.10	1644.52
274.32	1761.25
274.54	1669.09
274.75	1740.77
274.97	1726.44
275.18	1677.29
275.40	1779.68
275.61	1701.86
275.83	1708.01
276.05	1585.13
276.26	1699.81
276.48	1777.64
276.69	1685.48
276.91	1640.42
277.12	1830.88
277.34	1755.11
277.55	1816.55
277.77	1644.52
277.99	1636.33
278.20	1669.09
278.42	1644.52
278.63	1648.61
278.85	1736.68
279.06	1638.38
279.28	1744.87
279.49	1785.83
279.71	1816.55
279.93	1701.86
280.14	1658.85
280.36	1658.85
280.57	1710.05
280.79	1658.85
281.00	1636.33
281.22	1744.87
281.43	1703.91
281.65	1538.02
281.86	1640.42
282.08	1710.05
282.29	1812.45
282.51	1564.65
282.73	1603.56
282.94	1621.99
283.16	1720.29
283.37	1828.84
283.59	1771.49
283.80	1705.96
284.02	1689.57
284.23	1761.25
284.45	1742.82
284.66	1568.74
284.88	1701.86
285.09	1748.97
285.31	1751.01
285.52	1681.38
285.74	1607.66
285.95	1742.82
286.17	1726.44
286.38	1691.62
286.60	1630.18
286.81	1624.04
287.03	1677.29
287.24	1665.00
287.46	1658.85
287.67	1679.33
287.89	1783.78
288.10	1763.30
288.32	1697.77
288.53	1699.81
288.75	1624.04
288.96	1775.59
289.18	1757.16
289.39	1705.96
289.61	1771.49
289.82	1714.15
290.04	1714.15
290.25	1611.75
290.47	1640.42
290.68	1665.00
290.90	1826.79
291.11	1652.71
291.33	1740.77
291.54	1679.33
291.76	1626.09
291.97	1681.38
292.18	1652.71
292.40	1677.29
292.61	1658.85
292.83	1808.36
293.04	1746.92
293.26	1662.95
293.47	1669.09
293.69	1613.80
293.90	1714.15
294.12	1746.92
294.33	1644.52
294.55	1656.81
294.76	1705.96
294.97	1759.21
295.19	1736.68
295.40	1712.10
295.62	1746.92
295.83	1755.11
296.05	1626.09
296.26	1773.54
296.48	1632.23
296.69	1714.15
296.90	1718.25
297.12	1757.16
297.33	1738.73
297.55	1787.88
297.76	1699.81
297.98	1791.97
298.19	1716.20
298.41	1761.25
298.62	1591.27
298.83	1755.11
299.05	1746.92
299.26	1630.18
299.48	1626.09
299.69	1763.30
299.90	1681.38
300.12	1611.75
300.33	1716.20
300.55	1691.62
300.76	1687.53
300.98	1660.90
301.19	1720.29
301.40	1755.11
301.62	1708.01
301.83	1779.68
302.05	1732.58
302.26	1652.71
302.47	1669.09
302.69	1662.95
302.90	1652.71
303.12	1619.94
303.33	1763.30
303.54	1779.68
303.76	1699.81
303.97	1689.57
304.19	1783.78
304.40	1615.85
304.61	1757.16
304.83	1712.10
305.04	1759.21
305.26	1761.25
305.47	1691.62
305.68	1734.63
305.90	1667.05
306.11	1773.54
306.33	1714.15
306.54	1730.53
306.75	1613.80
306.97	1628.14
307.18	1669.09
307.39	1662.95
307.61	1781.73
307.82	1691.62
308.04	1716.20
308.25	1689.57
308.46	1767.40
308.68	1728.49
308.89	1787.88
309.10	1703.91
309.32	1697.77
309.53	1796.07
309.74	1691.62
309.96	1652.71
310.17	1746.92
310.39	1665.00
310.60	1714.15
310.81	1701.86
311.03	1650.66
311.24	1779.68
311.45	1673.19
311.67	1812.45
311.88	1718.25
312.09	1642.47
312.31	1634.28
312.52	1720.29
312.73	1710.05
312.95	1576.94
313.16	1632.23
313.37	1789.92
313.59	1675.24
313.80	1738.73
314.01	1884.13
314.23	1679.33
314.44	1621.99
314.65	1591.27
314.87	1605.61
315.08	1628.14
315.29	1734.63
315.51	1677.29
315.72	1648.61
315.93	1755.11
316.15	1726.44
316.36	1632.23
316.57	1708.01
316.79	1810.40
317.00	1646.57
317.21	1710.05
317.43	1669.09
317.64	1742.82
317.85	1665.00
318.07	1697.77
318.28	1701.86
318.49	1828.84
318.70	1916.90
318.92	1865.70
319.13	1834.98
319.34	1806.31
319.56	1734.63
319.77	1781.73
319.98	1757.16
320.20	1773.54
320.41	1779.68
320.62	1732.58
320.83	1665.00
321.05	1779.68
321.26	1755.11
321.47	1724.39
321.69	1843.17
321.90	1642.47
322.11	1695.72
322.32	1757.16
322.54	1779.68
322.75	1665.00
322.96	1822.69
323.18	1673.19
323.39	1613.80
323.60	1599.46
323.81	1724.39
324.03	1734.63
324.24	1667.05
324.45	1722.34
324.66	1658.85
324.88	1701.86
325.09	1785.83
325.30	1703.91
325.52	1738.73
325.73	1671.14
325.94	1648.61
326.15	1626.09
326.37	1619.94
326.58	1779.68
326.79	1746.92
327.00	1603.56
327.22	1681.38
327.43	1691.62
327.64	1699.81
327.85	1675.24
328.07	1746.92
328.28	1904.61
328.49	1738.73
328.70	1644.52
328.92	1703.91
329.13	1642.47
329.34	1771.49
329.55	1822.69
329.76	1763.30
329.98	1708.01
330.19	1726.44
330.40	1748.97
330.61	1718.25
330.83	1748.97
331.04	1599.46
331.25	1777.64
331.46	1654.76
331.68	1673.19
331.89	1822.69
332.10	1734.63
332.31	1640.42
332.52	1693.67
332.74	1746.92
332.95	1550.31
333.16	1712.10
333.37	1697.77
333.58	1626.09
333.80	1787.88
334.01	1652.71
334.22	1660.90
334.43	1677.29
334.64	1693.67
334.86	1544.17
335.07	1650.66
335.28	1689.57
335.49	1656.81
335.70	1693.67
335.92	1703.91
336.13	1898.47
336.34	1759.21
336.55	1722.34
336.76	1738.73
336.98	1576.94
337.19	1693.67
337.40	1753.06
337.61	1851.36
337.82	1683.43
338.04	1767.40
338.25	1648.61
338.46	1644.52
338.67	1652.71
338.88	1607.66
339.09	1650.66
339.31	1730.53
339.52	1640.42
339.73	1615.85
339.94	1746.92
340.15	1822.69
340.36	1648.61
340.58	1705.96
340.79	1722.34
341.00	1724.39
341.21	1638.38
341.42	1853.41
341.63	1738.73
341.85	1744.87
342.06	1718.25
342.27	1654.76
342.48	1708.01
342.69	1662.95
342.90	1705.96
343.12	1656.81
343.33	1705.96
343.54	1724.39
343.75	1720.29
343.96	1685.48
344.17	1632.23
344.38	1697.77
344.60	1714.15
344.81	1705.96
345.02	1710.05
345.23	1789.92
345.44	1773.54
345.65	1630.18
345.86	1708.01
346.07	1650.66
346.29	1689.57
346.50	1703.91
346.71	1722.34
346.92	1720.29
347.13	1834.98
347.34	1636.33
347.55	1714.15
347.76	1716.20
347.98	1593.32
348.19	1693.67
348.40	1863.65
348.61	1667.05
348.82	1798.12
349.03	1689.57
349.24	1679.33
349.45	1865.70
349.66	1617.90
349.88	1654.76
350.09	1738.73
350.30	1718.25
350.51	1705.96
350.72	1677.29
350.93	1671.14
351.14	1667.05
351.35	1759.21
351.56	1632.23
351.77	1632.23
351.99	1671.14
352.20	1742.82
352.41	1708.01
352.62	1583.08
352.83	1689.57
353.04	1695.72
353.25	1732.58
353.46	1804.26
353.67	1761.25
353.88	1587.18
354.09	1728.49
354.30	1652.71
354.52	1759.21
354.73	1708.01
354.94	1730.53
355.15	1693.67
355.36	1755.11
355.57	1669.09
355.78	1740.77
355.99	1656.81
356.20	1652.71
356.41	1777.64
356.62	1667.05
356.83	1710.05
357.04	1779.68
357.25	1529.83
357.46	1685.48
357.68	1626.09
357.89	1685.48
358.10	1693.67
358.31	1677.29
358.52	1699.81
358.73	1611.75
358.94	1644.52
359.15	1640.42
359.36	1730.53
359.57	1724.39
359.78	1671.14
359.99	1689.57
360.20	1652.71
360.41	1675.24
360.62	1726.44
360.83	1722.34
361.04	1779.68
361.25	1755.11
361.46	1845.22
361.67	1673.19
361.88	1789.92
362.09	1746.92
362.30	1740.77
362.51	1677.29
362.72	1763.30
362.93	1791.97
363.14	1650.66
363.35	1658.85
363.56	1654.76
363.78	1708.01
363.99	1748.97
364.20	1617.90
364.41	1796.07
364.62	1783.78
364.83	1701.86
365.04	1671.14
365.25	1656.81
365.46	1826.79
365.67	1673.19
365.88	1595.37
366.09	1710.05
366.30	1708.01
366.51	1708.01
366.72	1527.78
366.93	1617.90
367.14	1681.38
367.35	1814.50
367.56	1728.49
367.77	1757.16
367.98	1724.39
368.18	1714.15
368.39	1691.62
368.60	1689.57
368.81	1773.54
369.02	1775.59
369.23	1724.39
369.44	1591.27
369.65	1660.90
369.86	1669.09
370.07	1662.95
370.28	1665.00
370.49	1662.95
370.70	1740.77
370.91	1681.38
371.12	1624.04
371.33	1746.92
371.54	1642.47
371.75	1742.82
371.96	1585.13
372.17	1597.42
372.38	1748.97
372.59	1705.96
372.80	1699.81
373.01	1683.43
373.22	1724.39
373.43	1716.20
373.64	1624.04
373.85	1714.15
374.06	1837.03
374.26	1740.77
374.47	1662.95
374.68	1869.80
374.89	1734.63
375.10	1675.24
375.31	1701.86
375.52	1699.81
375.73	1724.39
375.94	1646.57
376.15	1810.40
376.36	1673.19
376.57	1658.85
376.78	1673.19
376.99	1691.62
377.20	1791.97
377.40	1677.29
377.61	1794.02
377.82	1628.14
378.03	1775.59
378.24	1705.96
378.45	1712.10
378.66	1628.14
378.87	1669.09
379.08	1607.66
379.29	1652.71
379.50	1783.78
379.71	1681.38
379.91	1767.40
380.12	1660.90
380.33	1699.81
380.54	1712.10
380.75	1779.68
380.96	1701.86
381.17	1757.16
381.38	1757.16
381.59	1751.01
381.80	1701.86
382.00	1779.68
382.21	1656.81
382.42	1857.51
382.63	1886.18
382.84	1748.97
383.05	1738.73
383.26	1802.21
383.47	1738.73
383.68	1720.29
383.88	1755.11
384.09	1691.62
384.30	1869.80
384.51	1730.53
384.72	1667.05
384.93	1597.42
385.14	1611.75
385.35	1779.68
385.55	1685.48
385.76	1742.82
385.97	1693.67
386.18	1652.71
386.39	1656.81
386.60	1667.05
386.81	1716.20
387.02	1724.39
387.22	1675.24
387.43	1746.92
387.64	1841.12
387.85	1830.88
388.06	2166.75
388.27	4302.78
388.48	6883.22
388.68	8302.47
388.89	9877.35
389.10	10151.78
389.31	8810.36
389.52	7780.23
389.73	6809.50
389.93	6328.22
390.14	5775.27
390.35	5406.64
390.56	4458.43
390.77	3901.38
390.98	3067.86
391.18	2617.30
391.39	2185.18
391.60	1910.75
391.81	1845.22
392.02	1710.05
392.23	1839.08
392.43	1708.01
392.64	1736.68
392.85	1714.15
393.06	1728.49
393.27	1677.29
393.47	1644.52
393.68	1732.58
393.89	1703.91
394.10	1773.54
394.31	1677.29
394.52	1599.46
394.72	1671.14
394.93	1828.84
395.14	1648.61
395.35	1785.83
395.56	1660.90
395.76	1697.77
395.97	1861.60
396.18	1843.17
396.39	1804.26
396.60	2058.21
396.80	1949.67
397.01	1802.21
397.22	1787.88
397.43	1890.28
397.64	1689.57
397.84	1771.49
398.05	1841.12
398.26	1761.25
398.47	1746.92
398.67	1910.75
398.88	1724.39
399.09	1763.30
399.30	1701.86
399.51	1689.57
399.71	1648.61
399.92	1681.38
400.13	1751.01
400.34	1689.57
400.54	1677.29
400.75	1787.88
400.96	1724.39
401.17	1767.40
401.37	1738.73
401.58	1624.04
401.79	1703.91
402.00	1908.71
402.21	2011.11
402.41	1992.67
402.62	1947.62
402.83	2076.64
403.04	1982.43
403.24	2121.70
403.45	1822.69
403.66	1939.43
403.87	1867.75
404.07	1865.70
404.28	1880.04
404.49	1853.41
404.70	1837.03
404.90	1736.68
405.11	1810.40
405.32	1753.06
405.52	1681.38
405.73	1632.23
405.94	1687.53
406.15	1710.05
406.35	1701.86
406.56	1804.26
406.77	1714.15
406.98	1689.57
407.18	1683.43
407.39	1714.15
407.60	1757.16
407.80	1726.44
408.01	1671.14
408.22	1777.64
408.43	1728.49
408.63	1748.97
408.84	1736.68
409.05	1812.45
409.25	1662.95
409.46	1779.68
409.67	1652.71
409.88	1738.73
410.08	1705.96
410.29	1679.33
410.50	1767.40
410.70	1712.10
410.91	1685.48
411.12	1769.44
411.32	1740.77
411.53	1634.28
411.74	1753.06
411.95	1779.68
412.15	1794.02
412.36	1826.79
412.57	1710.05
412.77	1742.82
412.98	1746.92
413.19	1656.81
413.39	1742.82
413.60	1765.35
413.81	1865.70
414.01	1640.42
414.22	1849.32
414.43	1675.24
414.63	1660.90
414.84	1738.73
415.05	1708.01
415.25	1644.52
415.46	1763.30
415.67	1685.48
415.87	1761.25
416.08	1718.25
416.29	1728.49
416.49	1689.57
416.70	1636.33
416.91	1646.57
417.11	1740.77
417.32	1814.50
417.53	1785.83
417.73	1652.71
417.94	1703.91
418.15	1746.92
418.35	1746.92
418.56	1781.73
418.77	1875.94
418.97	1642.47
419.18	1687.53
419.38	1570.79
419.59	1693.67
419.80	1830.88
420.00	1687.53
420.21	1701.86
420.42	1765.35
420.62	1675.24
420.83	1603.56
421.04	1673.19
421.24	1654.76
421.45	1757.16
421.65	1796.07
421.86	1673.19
422.07	1710.05
422.27	1691.62
422.48	1775.59
422.69	1576.94
422.89	1683.43
423.10	1761.25
423.30	1652.71
423.51	1751.01
423.72	1744.87
423.92	1722.34
424.13	1621.99
424.33	1681.38
424.54	1748.97
424.75	1705.96
424.95	1787.88
425.16	1736.68
425.36	1693.67
425.57	1767.40
425.78	1875.94
425.98	1798.12
426.19	1689.57
426.39	1697.77
426.60	1748.97
426.81	1816.55
427.01	1746.92
427.22	1669.09
427.42	1644.52
427.63	1630.18
427.83	1877.99
428.04	1804.26
428.25	1732.58
428.45	1738.73
428.66	1779.68
428.86	1705.96
429.07	1726.44
429.28	1724.39
429.48	1609.70
429.69	1673.19
429.89	1662.95
430.10	1611.75
430.30	1744.87
430.51	1755.11
430.71	1628.14
430.92	1699.81
431.13	1687.53
431.33	1714.15
431.54	1681.38
431.74	1783.78
431.95	1810.40
432.15	1652.71
432.36	1689.57
432.56	1648.61
432.77	1818.60
432.98	1783.78
433.18	1703.91
433.39	1679.33
433.59	1761.25
433.80	1812.45
434.00	1785.83
434.21	1771.49
434.41	1611.75
434.62	1886.18
434.82	1691.62
435.03	1658.85
435.23	1761.25
435.44	1554.41
435.64	1632.23
435.85	1742.82
436.06	1761.25
436.26	1779.68
436.47	1724.39
436.67	1652.71
436.88	1660.90
437.08	1712.10
437.29	1802.21
437.49	1767.40
437.70	1738.73
437.90	1755.11
438.11	1769.44
438.31	1759.21
438.52	1882.08
438.72	1845.22
438.93	1875.94
439.13	1771.49
439.34	1882.08
439.54	1761.25
439.75	1697.77
439.95	1812.45
440.16	1712.10
440.36	1812.45
440.57	1798.12
440.77	1751.01
440.98	1759.21
441.18	1710.05
441.39	1695.72
441.59	1673.19
441.80	1841.12
442.00	1730.53
442.21	1908.71
442.41	1732.58
442.62	1736.68
442.82	1599.46
443.02	1671.14
443.23	1722.34
443.43	1689.57
443.64	1740.77
443.84	1757.16
444.05	1755.11
444.25	1716.20
444.46	1748.97
444.66	1740.77
444.87	1763.30
445.07	1658.85
445.28	1679.33
445.48	1738.73
445.69	1800.16
445.89	1804.26
446.09	1775.59
446.30	1990.63
446.50	2754.52
446.71	3745.73
446.91	4401.08
447.12	4749.24
447.32	4868.02
447.53	4413.37
447.73	3844.04
447.93	3510.22
448.14	3321.81
448.34	3309.52
448.55	2953.17
448.75	2828.24
448.96	2746.33
449.16	2437.08
449.36	2189.28
449.57	1964.00
449.77	1939.43
449.98	1720.29
450.18	1783.78
450.39	1830.88
450.59	1775.59
450.79	1765.35
451.00	1767.40
451.20	1785.83
451.41	1701.86
451.61	1779.68
451.81	1732.58
452.02	1705.96
452.22	1714.15
452.43	1669.09
452.63	1662.95
