SpectraSuite Data File
++++++++++++++++++++++++++++++++++++
Date: Mon Jun 06 12:49:17 CEST 2016
User: root
Dark Spectrum Present: No
Reference Spectrum Present: No
Number of Sampled Component Spectra: 1
Spectrometers: USB4C02835
Integration Time (usec): 100000 (USB4C02835)
Spectra Averaged: 1 (USB4C02835)
Boxcar Smoothing: 0 (USB4C02835)
Correct for Electrical Dark: No (USB4C02835)
Strobe/Lamp Enabled: No (USB4C02835)
Correct for Detector Non-linearity: No (USB4C02835)
Correct for Stray Light: No (USB4C02835)
Number of Pixels in Processed Spectrum: 3648
>>>>>Begin Processed Spectral Data<<<<<
177.47	1472.49
177.69	1472.49
177.91	1472.49
178.13	1425.39
178.36	1411.05
178.58	1673.19
178.80	1730.53
179.02	1601.51
179.24	1619.94
179.46	1648.61
179.68	1761.25
179.90	1634.28
180.13	1691.62
180.35	1712.10
180.57	1716.20
180.79	1734.63
181.01	1642.47
181.23	1746.92
181.45	1775.59
181.67	1724.39
181.90	1652.71
182.12	1710.05
182.34	1660.90
182.56	1714.15
182.78	1748.97
183.00	1697.77
183.22	1736.68
183.44	1578.98
183.66	1789.92
183.89	1787.88
184.11	1708.01
184.33	1769.44
184.55	1804.26
184.77	1763.30
184.99	1775.59
185.21	1626.09
185.43	1828.84
185.65	1728.49
185.87	1691.62
186.10	1839.08
186.32	1787.88
186.54	1718.25
186.76	1781.73
186.98	1718.25
187.20	1634.28
187.42	1703.91
187.64	1628.14
187.86	1718.25
188.08	1689.57
188.30	1638.38
188.52	1699.81
188.75	1775.59
188.97	1759.21
189.19	1722.34
189.41	1650.66
189.63	1732.58
189.85	1724.39
190.07	1646.57
190.29	1646.57
190.51	1660.90
190.73	1615.85
190.95	1736.68
191.17	1654.76
191.39	1611.75
191.61	1755.11
191.84	1611.75
192.06	1720.29
192.28	1628.14
192.50	1804.26
192.72	1701.86
192.94	1716.20
193.16	1818.60
193.38	1738.73
193.60	1675.24
193.82	1687.53
194.04	1781.73
194.26	1716.20
194.48	1744.87
194.70	1667.05
194.92	1716.20
195.14	1761.25
195.36	1624.04
195.58	1730.53
195.80	1734.63
196.02	1656.81
196.24	1734.63
196.46	1710.05
196.69	1699.81
196.91	1886.18
197.13	1699.81
197.35	1626.09
197.57	1761.25
197.79	1765.35
198.01	1669.09
198.23	1724.39
198.45	1744.87
198.67	1591.27
198.89	1726.44
199.11	1710.05
199.33	1693.67
199.55	1626.09
199.77	1726.44
199.99	1693.67
200.21	1683.43
200.43	1652.71
200.65	1658.85
200.87	1585.13
201.09	1712.10
201.31	1714.15
201.53	1724.39
201.75	1771.49
201.97	1738.73
202.19	1693.67
202.41	1734.63
202.63	1855.46
202.85	1746.92
203.07	1701.86
203.29	1675.24
203.51	1671.14
203.73	1642.47
203.95	1898.47
204.17	1771.49
204.39	1644.52
204.61	1722.34
204.83	1691.62
205.05	1714.15
205.27	1828.84
205.49	1808.36
205.71	1796.07
205.93	1601.51
206.15	1626.09
206.37	1699.81
206.59	1656.81
206.81	1619.94
207.03	1632.23
207.25	1624.04
207.47	1701.86
207.69	1642.47
207.91	1742.82
208.13	1779.68
208.34	1658.85
208.56	1642.47
208.78	1718.25
209.00	1669.09
209.22	1640.42
209.44	1667.05
209.66	1650.66
209.88	1654.76
210.10	1652.71
210.32	1748.97
210.54	1767.40
210.76	1679.33
210.98	1728.49
211.20	1628.14
211.42	1740.77
211.64	1755.11
211.86	1714.15
212.08	1695.72
212.30	1710.05
212.52	1605.61
212.74	1687.53
212.96	1742.82
213.17	1718.25
213.39	1705.96
213.61	1744.87
213.83	1673.19
214.05	1656.81
214.27	1785.83
214.49	1644.52
214.71	1665.00
214.93	1736.68
215.15	1730.53
215.37	1798.12
215.59	1687.53
215.81	1730.53
216.03	1751.01
216.24	1685.48
216.46	1689.57
216.68	1724.39
216.90	1748.97
217.12	1824.74
217.34	1775.59
217.56	1759.21
217.78	1742.82
218.00	1722.34
218.22	1716.20
218.44	1720.29
218.66	1794.02
218.87	1796.07
219.09	1689.57
219.31	1681.38
219.53	1810.40
219.75	1689.57
219.97	1705.96
220.19	1650.66
220.41	1677.29
220.63	1738.73
220.85	1763.30
221.06	1705.96
221.28	1748.97
221.50	1785.83
221.72	1714.15
221.94	1769.44
222.16	1748.97
222.38	1732.58
222.60	1753.06
222.82	1634.28
223.03	1757.16
223.25	1624.04
223.47	1781.73
223.69	1804.26
223.91	1736.68
224.13	1708.01
224.35	1656.81
224.57	1777.64
224.78	1705.96
225.00	1619.94
225.22	1667.05
225.44	1677.29
225.66	1691.62
225.88	1675.24
226.10	1775.59
226.32	1769.44
226.53	1794.02
226.75	1693.67
226.97	1644.52
227.19	1677.29
227.41	1724.39
227.63	1662.95
227.85	1570.79
228.06	1724.39
228.28	1689.57
228.50	1800.16
228.72	1683.43
228.94	1642.47
229.16	1638.38
229.37	1566.70
229.59	1673.19
229.81	1800.16
230.03	1736.68
230.25	1621.99
230.47	1665.00
230.69	1648.61
230.90	1740.77
231.12	1603.56
231.34	1763.30
231.56	1736.68
231.78	1656.81
232.00	1716.20
232.21	1722.34
232.43	1609.70
232.65	1615.85
232.87	1699.81
233.09	1609.70
233.30	1656.81
233.52	1642.47
233.74	1667.05
233.96	1681.38
234.18	1728.49
234.40	1683.43
234.61	1816.55
234.83	1634.28
235.05	1617.90
235.27	1822.69
235.49	1724.39
235.70	1724.39
235.92	1722.34
236.14	1714.15
236.36	1865.70
236.58	1624.04
236.79	1724.39
237.01	1755.11
237.23	1683.43
237.45	1693.67
237.67	1652.71
237.88	1681.38
238.10	1783.78
238.32	1681.38
238.54	1685.48
238.76	1673.19
238.97	1673.19
239.19	1742.82
239.41	1718.25
239.63	1773.54
239.85	1720.29
240.06	1705.96
240.28	1644.52
240.50	1814.50
240.72	1705.96
240.93	1703.91
241.15	1744.87
241.37	1675.24
241.59	1759.21
241.81	1718.25
242.02	1734.63
242.24	1722.34
242.46	1732.58
242.68	1646.57
242.89	1744.87
243.11	1738.73
243.33	1679.33
243.55	1683.43
243.76	1757.16
243.98	1687.53
244.20	1701.86
244.42	1742.82
244.64	1691.62
244.85	1673.19
245.07	1560.55
245.29	1728.49
245.51	1673.19
245.72	1722.34
245.94	1783.78
246.16	1669.09
246.38	1726.44
246.59	1648.61
246.81	1652.71
247.03	1640.42
247.24	1703.91
247.46	1634.28
247.68	1710.05
247.90	1578.98
248.11	1714.15
248.33	1775.59
248.55	1787.88
248.77	1705.96
248.98	1724.39
249.20	1787.88
249.42	1673.19
249.64	1693.67
249.85	1701.86
250.07	1683.43
250.29	1722.34
250.50	1720.29
250.72	1626.09
250.94	1724.39
251.16	1818.60
251.37	1767.40
251.59	1738.73
251.81	1736.68
252.02	1767.40
252.24	1650.66
252.46	1804.26
252.68	1640.42
252.89	1671.14
253.11	1624.04
253.33	1865.70
253.54	1722.34
253.76	1566.70
253.98	1755.11
254.20	1779.68
254.41	1626.09
254.63	1691.62
254.85	1611.75
255.06	1693.67
255.28	1673.19
255.50	1722.34
255.71	1648.61
255.93	1636.33
256.15	1681.38
256.36	1656.81
256.58	1621.99
256.80	1765.35
257.02	1697.77
257.23	1650.66
257.45	1685.48
257.67	1779.68
257.88	1679.33
258.10	1669.09
258.32	1642.47
258.53	1748.97
258.75	1843.17
258.97	1728.49
259.18	1705.96
259.40	1679.33
259.62	1796.07
259.83	1730.53
260.05	1712.10
260.27	1918.95
260.48	1742.82
260.70	1640.42
260.92	1718.25
261.13	1716.20
261.35	1779.68
261.57	1751.01
261.78	1599.46
262.00	1656.81
262.22	1677.29
262.43	1632.23
262.65	1646.57
262.86	1712.10
263.08	1841.12
263.30	1720.29
263.51	1617.90
263.73	1642.47
263.95	1828.84
264.16	1603.56
264.38	1685.48
264.60	1757.16
264.81	1710.05
265.03	1753.06
265.25	1660.90
265.46	1722.34
265.68	1744.87
265.89	1720.29
266.11	1529.83
266.33	1746.92
266.54	1775.59
266.76	1755.11
266.98	1724.39
267.19	1742.82
267.41	1796.07
267.62	1621.99
267.84	1650.66
268.06	1701.86
268.27	1667.05
268.49	1748.97
268.70	1773.54
268.92	1679.33
269.14	1617.90
269.35	1552.36
269.57	1673.19
269.79	1650.66
270.00	1662.95
270.22	1781.73
270.43	1675.24
270.65	1556.46
270.87	1669.09
271.08	1806.31
271.30	1804.26
271.51	1724.39
271.73	1773.54
271.95	1757.16
272.16	1685.48
272.38	1751.01
272.59	1642.47
272.81	1761.25
273.02	1730.53
273.24	1714.15
273.46	1759.21
273.67	1660.90
273.89	1611.75
274.10	1658.85
274.32	1806.31
274.54	1785.83
274.75	1697.77
274.97	1718.25
275.18	1808.36
275.40	1771.49
275.61	1632.23
275.83	1730.53
276.05	1624.04
276.26	1744.87
276.48	1751.01
276.69	1648.61
276.91	1652.71
277.12	1763.30
277.34	1699.81
277.55	1757.16
277.77	1710.05
277.99	1624.04
278.20	1669.09
278.42	1681.38
278.63	1722.34
278.85	1748.97
279.06	1630.18
279.28	1734.63
279.49	1736.68
279.71	1693.67
279.93	1712.10
280.14	1691.62
280.36	1646.57
280.57	1812.45
280.79	1748.97
281.00	1656.81
281.22	1632.23
281.43	1740.77
281.65	1615.85
281.86	1558.50
282.08	1644.52
282.29	1806.31
282.51	1665.00
282.73	1624.04
282.94	1607.66
283.16	1691.62
283.37	1820.64
283.59	1644.52
283.80	1744.87
284.02	1701.86
284.23	1746.92
284.45	1673.19
284.66	1673.19
284.88	1683.43
285.09	1681.38
285.31	1734.63
285.52	1755.11
285.74	1689.57
285.95	1796.07
286.17	1787.88
286.38	1734.63
286.60	1603.56
286.81	1669.09
287.03	1699.81
287.24	1697.77
287.46	1662.95
287.67	1697.77
287.89	1761.25
288.10	1783.78
288.32	1714.15
288.53	1789.92
288.75	1644.52
288.96	1744.87
289.18	1728.49
289.39	1714.15
289.61	1722.34
289.82	1794.02
290.04	1769.44
290.25	1665.00
290.47	1699.81
290.68	1560.55
290.90	1726.44
291.11	1626.09
291.33	1851.36
291.54	1705.96
291.76	1609.70
291.97	1740.77
292.18	1746.92
292.40	1724.39
292.61	1640.42
292.83	1851.36
293.04	1755.11
293.26	1681.38
293.47	1611.75
293.69	1667.05
293.90	1714.15
294.12	1720.29
294.33	1716.20
294.55	1658.85
294.76	1740.77
294.97	1689.57
295.19	1830.88
295.40	1722.34
295.62	1665.00
295.83	1734.63
296.05	1765.35
296.26	1728.49
296.48	1685.48
296.69	1730.53
296.90	1654.76
297.12	1787.88
297.33	1636.33
297.55	1673.19
297.76	1685.48
297.98	1761.25
298.19	1736.68
298.41	1693.67
298.62	1621.99
298.83	1810.40
299.05	1675.24
299.26	1740.77
299.48	1681.38
299.69	1703.91
299.90	1683.43
300.12	1654.76
300.33	1730.53
300.55	1724.39
300.76	1724.39
300.98	1724.39
301.19	1765.35
301.40	1681.38
301.62	1703.91
301.83	1746.92
302.05	1759.21
302.26	1671.14
302.47	1679.33
302.69	1646.57
302.90	1736.68
303.12	1619.94
303.33	1718.25
303.54	1742.82
303.76	1738.73
303.97	1773.54
304.19	1816.55
304.40	1599.46
304.61	1716.20
304.83	1816.55
305.04	1742.82
305.26	1767.40
305.47	1640.42
305.68	1734.63
305.90	1542.12
306.11	1830.88
306.33	1669.09
306.54	1693.67
306.75	1619.94
306.97	1609.70
307.18	1667.05
307.39	1675.24
307.61	1716.20
307.82	1685.48
308.04	1724.39
308.25	1585.13
308.46	1726.44
308.68	1724.39
308.89	1748.97
309.10	1781.73
309.32	1714.15
309.53	1703.91
309.74	1773.54
309.96	1724.39
310.17	1808.36
310.39	1689.57
310.60	1669.09
310.81	1675.24
311.03	1611.75
311.24	1742.82
311.45	1703.91
311.67	1818.60
311.88	1767.40
312.09	1632.23
312.31	1658.85
312.52	1712.10
312.73	1648.61
312.95	1607.66
313.16	1650.66
313.37	1794.02
313.59	1720.29
313.80	1740.77
314.01	1804.26
314.23	1726.44
314.44	1675.24
314.65	1640.42
314.87	1636.33
315.08	1667.05
315.29	1689.57
315.51	1646.57
315.72	1626.09
315.93	1746.92
316.15	1732.58
316.36	1714.15
316.57	1673.19
316.79	1767.40
317.00	1722.34
317.21	1683.43
317.43	1708.01
317.64	1685.48
317.85	1665.00
318.07	1683.43
318.28	1730.53
318.49	1794.02
318.70	1904.61
318.92	1771.49
319.13	1800.16
319.34	1849.32
319.56	1863.65
319.77	1789.92
319.98	1810.40
320.20	1806.31
320.41	1802.21
320.62	1726.44
320.83	1751.01
321.05	1865.70
321.26	1695.72
321.47	1718.25
321.69	1767.40
321.90	1673.19
322.11	1685.48
322.32	1673.19
322.54	1763.30
322.75	1611.75
322.96	1789.92
323.18	1650.66
323.39	1581.03
323.60	1685.48
323.81	1746.92
324.03	1656.81
324.24	1630.18
324.45	1705.96
324.66	1724.39
324.88	1753.06
325.09	1800.16
325.30	1697.77
325.52	1665.00
325.73	1697.77
325.94	1634.28
326.15	1603.56
326.37	1626.09
326.58	1759.21
326.79	1843.17
327.00	1665.00
327.22	1705.96
327.43	1677.29
327.64	1599.46
327.85	1742.82
328.07	1714.15
328.28	1765.35
328.49	1650.66
328.70	1640.42
328.92	1744.87
329.13	1642.47
329.34	1718.25
329.55	1718.25
329.76	1744.87
329.98	1669.09
330.19	1738.73
330.40	1644.52
330.61	1748.97
330.83	1740.77
331.04	1693.67
331.25	1722.34
331.46	1710.05
331.68	1562.60
331.89	1722.34
332.10	1646.57
332.31	1605.61
332.52	1742.82
332.74	1828.84
332.95	1605.61
333.16	1652.71
333.37	1673.19
333.58	1626.09
333.80	1697.77
334.01	1685.48
334.22	1656.81
334.43	1714.15
334.64	1665.00
334.86	1714.15
335.07	1660.90
335.28	1716.20
335.49	1650.66
335.70	1746.92
335.92	1675.24
336.13	1837.03
336.34	1705.96
336.55	1671.14
336.76	1693.67
336.98	1566.70
337.19	1753.06
337.40	1794.02
337.61	1828.84
337.82	1636.33
338.04	1722.34
338.25	1689.57
338.46	1660.90
338.67	1724.39
338.88	1671.14
339.09	1654.76
339.31	1716.20
339.52	1585.13
339.73	1673.19
339.94	1689.57
340.15	1744.87
340.36	1722.34
340.58	1685.48
340.79	1697.77
341.00	1742.82
341.21	1646.57
341.42	1789.92
341.63	1693.67
341.85	1734.63
342.06	1767.40
342.27	1609.70
342.48	1708.01
342.69	1546.22
342.90	1744.87
343.12	1755.11
343.33	1658.85
343.54	1781.73
343.75	1728.49
343.96	1681.38
344.17	1673.19
344.38	1718.25
344.60	1669.09
344.81	1605.61
345.02	1705.96
345.23	1714.15
345.44	1773.54
345.65	1740.77
345.86	1740.77
346.07	1671.14
346.29	1669.09
346.50	1785.83
346.71	1757.16
346.92	1697.77
347.13	1714.15
347.34	1626.09
347.55	1701.86
347.76	1742.82
347.98	1599.46
348.19	1681.38
348.40	1847.27
348.61	1701.86
348.82	1695.72
349.03	1699.81
349.24	1675.24
349.45	1851.36
349.66	1593.32
349.88	1726.44
350.09	1601.51
350.30	1849.32
350.51	1748.97
350.72	1699.81
350.93	1744.87
351.14	1697.77
351.35	1742.82
351.56	1695.72
351.77	1667.05
351.99	1669.09
352.20	1843.17
352.41	1800.16
352.62	1665.00
352.83	1705.96
353.04	1730.53
353.25	1714.15
353.46	1714.15
353.67	1765.35
353.88	1624.04
354.09	1734.63
354.30	1742.82
354.52	1726.44
354.73	1740.77
354.94	1734.63
355.15	1691.62
355.36	1834.98
355.57	1624.04
355.78	1673.19
355.99	1624.04
356.20	1722.34
356.41	1816.55
356.62	1744.87
356.83	1734.63
357.04	1802.21
357.25	1607.66
357.46	1693.67
357.68	1638.38
357.89	1652.71
358.10	1656.81
358.31	1705.96
358.52	1718.25
358.73	1703.91
358.94	1642.47
359.15	1683.43
359.36	1722.34
359.57	1718.25
359.78	1757.16
359.99	1642.47
360.20	1648.61
360.41	1695.72
360.62	1781.73
360.83	1701.86
361.04	1693.67
361.25	1796.07
361.46	1791.97
361.67	1712.10
361.88	1683.43
362.09	1685.48
362.30	1724.39
362.51	1673.19
362.72	1712.10
362.93	1724.39
363.14	1675.24
363.35	1628.14
363.56	1652.71
363.78	1748.97
363.99	1730.53
364.20	1628.14
364.41	1656.81
364.62	1785.83
364.83	1669.09
365.04	1644.52
365.25	1687.53
365.46	1834.98
365.67	1693.67
365.88	1587.18
366.09	1693.67
366.30	1646.57
366.51	1730.53
366.72	1644.52
366.93	1751.01
367.14	1595.37
367.35	1722.34
367.56	1691.62
367.77	1732.58
367.98	1673.19
368.18	1722.34
368.39	1767.40
368.60	1597.42
368.81	1761.25
369.02	1695.72
369.23	1708.01
369.44	1603.56
369.65	1654.76
369.86	1736.68
370.07	1783.78
370.28	1599.46
370.49	1771.49
370.70	1779.68
370.91	1603.56
371.12	1642.47
371.33	1708.01
371.54	1738.73
371.75	1751.01
371.96	1728.49
372.17	1708.01
372.38	1728.49
372.59	1761.25
372.80	1732.58
373.01	1611.75
373.22	1720.29
373.43	1808.36
373.64	1615.85
373.85	1736.68
374.06	1888.23
374.26	1705.96
374.47	1683.43
374.68	1800.16
374.89	1820.64
375.10	1691.62
375.31	1726.44
375.52	1734.63
375.73	1701.86
375.94	1611.75
376.15	1746.92
376.36	1681.38
376.57	1705.96
376.78	1712.10
376.99	1679.33
377.20	1755.11
377.40	1599.46
377.61	1796.07
377.82	1726.44
378.03	1812.45
378.24	1660.90
378.45	1669.09
378.66	1724.39
378.87	1591.27
379.08	1617.90
379.29	1714.15
379.50	1800.16
379.71	1677.29
379.91	1738.73
380.12	1683.43
380.33	1660.90
380.54	1681.38
380.75	1691.62
380.96	1597.42
381.17	1767.40
381.38	1716.20
381.59	1789.92
381.80	1748.97
382.00	1806.31
382.21	1710.05
382.42	1775.59
382.63	1888.23
382.84	1800.16
383.05	1777.64
383.26	1806.31
383.47	1761.25
383.68	1755.11
383.88	1775.59
384.09	1669.09
384.30	1875.94
384.51	1763.30
384.72	1712.10
384.93	1722.34
385.14	1675.24
385.35	1787.88
385.55	1634.28
385.76	1746.92
385.97	1652.71
386.18	1665.00
386.39	1697.77
386.60	1624.04
386.81	1607.66
387.02	1708.01
387.22	1710.05
387.43	1714.15
387.64	1775.59
387.85	1888.23
388.06	2166.75
388.27	4306.88
388.48	6762.39
388.68	8501.12
388.89	9840.49
389.10	9959.27
389.31	8720.25
389.52	7669.64
389.73	6868.89
389.93	6137.76
390.14	5912.49
390.35	5093.30
390.56	4632.51
390.77	3753.93
390.98	3061.71
391.18	2455.51
391.39	2172.89
391.60	1869.80
391.81	1787.88
392.02	1699.81
392.23	1839.08
392.43	1728.49
392.64	1816.55
392.85	1746.92
393.06	1808.36
393.27	1675.24
393.47	1609.70
393.68	1673.19
393.89	1681.38
394.10	1763.30
394.31	1726.44
394.52	1628.14
394.72	1755.11
394.93	1734.63
395.14	1701.86
395.35	1800.16
395.56	1617.90
395.76	1728.49
395.97	1865.70
396.18	1867.75
396.39	1843.17
396.60	2013.15
396.80	1898.47
397.01	1798.12
397.22	1783.78
397.43	1773.54
397.64	1779.68
397.84	1794.02
398.05	1857.51
398.26	1769.44
398.47	1800.16
398.67	1789.92
398.88	1746.92
399.09	1689.57
399.30	1720.29
399.51	1742.82
399.71	1591.27
399.92	1736.68
400.13	1701.86
400.34	1660.90
400.54	1765.35
400.75	1779.68
400.96	1718.25
401.17	1859.56
401.37	1742.82
401.58	1773.54
401.79	1718.25
402.00	1822.69
402.21	1984.48
402.41	1888.23
402.62	2074.59
402.83	2025.44
403.04	1929.19
403.24	2111.46
403.45	1843.17
403.66	1918.95
403.87	1814.50
404.07	1863.65
404.28	1880.04
404.49	1828.84
404.70	1769.44
404.90	1742.82
405.11	1734.63
405.32	1646.57
405.52	1738.73
405.73	1650.66
405.94	1689.57
406.15	1685.48
406.35	1763.30
406.56	1669.09
406.77	1773.54
406.98	1748.97
407.18	1693.67
407.39	1843.17
407.60	1652.71
407.80	1740.77
408.01	1671.14
408.22	1699.81
408.43	1642.47
408.63	1748.97
408.84	1751.01
409.05	1722.34
409.25	1726.44
409.46	1611.75
409.67	1687.53
409.88	1654.76
410.08	1714.15
410.29	1724.39
410.50	1730.53
410.70	1828.84
410.91	1646.57
411.12	1697.77
411.32	1751.01
411.53	1703.91
411.74	1824.74
411.95	1822.69
412.15	1718.25
412.36	1771.49
412.57	1814.50
412.77	1798.12
412.98	1751.01
413.19	1728.49
413.39	1710.05
413.60	1826.79
413.81	1787.88
414.01	1665.00
414.22	1781.73
414.43	1736.68
414.63	1716.20
414.84	1738.73
415.05	1712.10
415.25	1677.29
415.46	1779.68
415.67	1611.75
415.87	1753.06
416.08	1753.06
416.29	1681.38
416.49	1808.36
416.70	1634.28
416.91	1753.06
417.11	1726.44
417.32	1746.92
417.53	1753.06
417.73	1677.29
417.94	1652.71
418.15	1757.16
418.35	1675.24
418.56	1697.77
418.77	1822.69
418.97	1732.58
419.18	1751.01
419.38	1611.75
419.59	1681.38
419.80	1781.73
420.00	1632.23
420.21	1728.49
420.42	1736.68
420.62	1757.16
420.83	1718.25
421.04	1683.43
421.24	1693.67
421.45	1751.01
421.65	1746.92
421.86	1652.71
422.07	1771.49
422.27	1673.19
422.48	1705.96
422.69	1724.39
422.89	1751.01
423.10	1728.49
423.30	1679.33
423.51	1722.34
423.72	1703.91
423.92	1685.48
424.13	1615.85
424.33	1667.05
424.54	1736.68
424.75	1728.49
424.95	1781.73
425.16	1804.26
425.36	1685.48
425.57	1775.59
425.78	1771.49
425.98	1785.83
426.19	1755.11
426.39	1619.94
426.60	1665.00
426.81	1847.27
427.01	1763.30
427.22	1718.25
427.42	1693.67
427.63	1701.86
427.83	1730.53
428.04	1814.50
428.25	1732.58
428.45	1816.55
428.66	1710.05
428.86	1665.00
429.07	1714.15
429.28	1744.87
429.48	1656.81
429.69	1640.42
429.89	1744.87
430.10	1642.47
430.30	1761.25
430.51	1779.68
430.71	1746.92
430.92	1724.39
431.13	1628.14
431.33	1785.83
431.54	1691.62
431.74	1802.21
431.95	1744.87
432.15	1673.19
432.36	1687.53
432.56	1691.62
432.77	1771.49
432.98	1839.08
433.18	1753.06
433.39	1714.15
433.59	1730.53
433.80	1767.40
434.00	1804.26
434.21	1728.49
434.41	1662.95
434.62	1785.83
434.82	1636.33
435.03	1583.08
435.23	1726.44
435.44	1689.57
435.64	1726.44
435.85	1798.12
436.06	1781.73
436.26	1722.34
436.47	1757.16
436.67	1763.30
436.88	1665.00
437.08	1787.88
437.29	1746.92
437.49	1724.39
437.70	1759.21
437.90	1742.82
438.11	1890.28
438.31	1734.63
438.52	1791.97
438.72	1853.41
438.93	1828.84
439.13	1800.16
439.34	1759.21
439.54	1759.21
439.75	1753.06
439.95	1804.26
440.16	1642.47
440.36	1714.15
440.57	1802.21
440.77	1783.78
440.98	1769.44
441.18	1748.97
441.39	1656.81
441.59	1685.48
441.80	1847.27
442.00	1673.19
442.21	1773.54
442.41	1609.70
442.62	1742.82
442.82	1638.38
443.02	1644.52
443.23	1794.02
443.43	1695.72
443.64	1837.03
443.84	1699.81
444.05	1779.68
444.25	1726.44
444.46	1765.35
444.66	1746.92
444.87	1746.92
445.07	1624.04
445.28	1732.58
445.48	1820.64
445.69	1794.02
445.89	1908.71
446.09	1791.97
446.30	2029.54
446.50	2719.70
446.71	3723.21
446.91	4401.08
447.12	4702.14
447.32	4984.76
447.53	4356.03
447.73	3841.99
447.93	3545.03
448.14	3446.73
448.34	3250.13
448.55	2932.69
448.75	2914.26
448.96	2713.56
449.16	2363.36
449.36	2172.89
449.57	2039.78
449.77	1828.84
449.98	1738.73
450.18	1787.88
450.39	1861.60
450.59	1822.69
450.79	1685.48
451.00	1726.44
451.20	1837.03
451.41	1703.91
451.61	1697.77
451.81	1714.15
452.02	1718.25
452.22	1675.24
452.43	1695.72
452.63	1634.28
