SpectraSuite Data File
++++++++++++++++++++++++++++++++++++
Date: Mon Jun 06 13:53:37 CEST 2016
User: root
Dark Spectrum Present: No
Reference Spectrum Present: No
Number of Sampled Component Spectra: 1
Spectrometers: USB4C02835
Integration Time (usec): 100000 (USB4C02835)
Spectra Averaged: 1 (USB4C02835)
Boxcar Smoothing: 0 (USB4C02835)
Correct for Electrical Dark: No (USB4C02835)
Strobe/Lamp Enabled: No (USB4C02835)
Correct for Detector Non-linearity: No (USB4C02835)
Correct for Stray Light: No (USB4C02835)
Number of Pixels in Processed Spectrum: 3648
>>>>>Begin Processed Spectral Data<<<<<
177.47	1452.01
177.69	1452.01
177.91	1452.01
178.13	1449.96
178.36	1484.78
178.58	1648.61
178.80	1648.61
179.02	1621.99
179.24	1619.94
179.46	1693.67
179.68	1757.16
179.90	1773.54
180.13	1695.72
180.35	1662.95
180.57	1656.81
180.79	1677.29
181.01	1601.51
181.23	1740.77
181.45	1736.68
181.67	1665.00
181.90	1730.53
182.12	1755.11
182.34	1630.18
182.56	1716.20
182.78	1673.19
183.00	1732.58
183.22	1701.86
183.44	1595.37
183.66	1845.22
183.89	1738.73
184.11	1734.63
184.33	1689.57
184.55	1787.88
184.77	1732.58
184.99	1738.73
185.21	1671.14
185.43	1771.49
185.65	1675.24
185.87	1628.14
186.10	1830.88
186.32	1806.31
186.54	1806.31
186.76	1759.21
186.98	1697.77
187.20	1685.48
187.42	1644.52
187.64	1615.85
187.86	1673.19
188.08	1724.39
188.30	1650.66
188.52	1748.97
188.75	1736.68
188.97	1783.78
189.19	1689.57
189.41	1679.33
189.63	1730.53
189.85	1636.33
190.07	1665.00
190.29	1568.74
190.51	1767.40
190.73	1615.85
190.95	1785.83
191.17	1679.33
191.39	1650.66
191.61	1615.85
191.84	1640.42
192.06	1691.62
192.28	1675.24
192.50	1863.65
192.72	1710.05
192.94	1787.88
193.16	1769.44
193.38	1683.43
193.60	1667.05
193.82	1665.00
194.04	1765.35
194.26	1800.16
194.48	1677.29
194.70	1656.81
194.92	1615.85
195.14	1716.20
195.36	1652.71
195.58	1710.05
195.80	1593.32
196.02	1601.51
196.24	1673.19
196.46	1732.58
196.69	1642.47
196.91	1785.83
197.13	1718.25
197.35	1650.66
197.57	1771.49
197.79	1681.38
198.01	1679.33
198.23	1759.21
198.45	1763.30
198.67	1634.28
198.89	1654.76
199.11	1730.53
199.33	1710.05
199.55	1615.85
199.77	1669.09
199.99	1781.73
200.21	1693.67
200.43	1656.81
200.65	1656.81
200.87	1638.38
201.09	1769.44
201.31	1683.43
201.53	1753.06
201.75	1720.29
201.97	1708.01
202.19	1667.05
202.41	1705.96
202.63	1822.69
202.85	1720.29
203.07	1689.57
203.29	1669.09
203.51	1624.04
203.73	1652.71
203.95	1794.02
204.17	1619.94
204.39	1716.20
204.61	1718.25
204.83	1669.09
205.05	1796.07
205.27	1724.39
205.49	1832.93
205.71	1769.44
205.93	1613.80
206.15	1697.77
206.37	1736.68
206.59	1718.25
206.81	1607.66
207.03	1566.70
207.25	1697.77
207.47	1714.15
207.69	1710.05
207.91	1720.29
208.13	1757.16
208.34	1689.57
208.56	1677.29
208.78	1775.59
209.00	1730.53
209.22	1619.94
209.44	1730.53
209.66	1648.61
209.88	1626.09
210.10	1744.87
210.32	1638.38
210.54	1755.11
210.76	1710.05
210.98	1767.40
211.20	1615.85
211.42	1746.92
211.64	1771.49
211.86	1755.11
212.08	1673.19
212.30	1708.01
212.52	1675.24
212.74	1650.66
212.96	1691.62
213.17	1757.16
213.39	1757.16
213.61	1673.19
213.83	1708.01
214.05	1630.18
214.27	1804.26
214.49	1660.90
214.71	1708.01
214.93	1779.68
215.15	1681.38
215.37	1744.87
215.59	1617.90
215.81	1703.91
216.03	1710.05
216.24	1769.44
216.46	1673.19
216.68	1787.88
216.90	1759.21
217.12	1736.68
217.34	1699.81
217.56	1703.91
217.78	1783.78
218.00	1730.53
218.22	1597.42
218.44	1685.48
218.66	1701.86
218.87	1714.15
219.09	1687.53
219.31	1736.68
219.53	1736.68
219.75	1632.23
219.97	1683.43
220.19	1734.63
220.41	1708.01
220.63	1837.03
220.85	1742.82
221.06	1630.18
221.28	1773.54
221.50	1701.86
221.72	1656.81
221.94	1730.53
222.16	1652.71
222.38	1751.01
222.60	1851.36
222.82	1748.97
223.03	1732.58
223.25	1611.75
223.47	1759.21
223.69	1814.50
223.91	1791.97
224.13	1712.10
224.35	1687.53
224.57	1703.91
224.78	1828.84
225.00	1626.09
225.22	1703.91
225.44	1740.77
225.66	1685.48
225.88	1718.25
226.10	1789.92
226.32	1742.82
226.53	1628.14
226.75	1683.43
226.97	1677.29
227.19	1689.57
227.41	1687.53
227.63	1648.61
227.85	1673.19
228.06	1710.05
228.28	1673.19
228.50	1757.16
228.72	1681.38
228.94	1734.63
229.16	1667.05
229.37	1626.09
229.59	1656.81
229.81	1777.64
230.03	1669.09
230.25	1603.56
230.47	1662.95
230.69	1658.85
230.90	1771.49
231.12	1675.24
231.34	1681.38
231.56	1734.63
231.78	1607.66
232.00	1716.20
232.21	1763.30
232.43	1681.38
232.65	1574.89
232.87	1722.34
233.09	1601.51
233.30	1681.38
233.52	1732.58
233.74	1665.00
233.96	1644.52
234.18	1708.01
234.40	1683.43
234.61	1832.93
234.83	1566.70
235.05	1628.14
235.27	1779.68
235.49	1724.39
235.70	1722.34
235.92	1789.92
236.14	1761.25
236.36	1771.49
236.58	1617.90
236.79	1714.15
237.01	1705.96
237.23	1693.67
237.45	1812.45
237.67	1730.53
237.88	1705.96
238.10	1783.78
238.32	1634.28
238.54	1632.23
238.76	1720.29
238.97	1591.27
239.19	1650.66
239.41	1771.49
239.63	1679.33
239.85	1667.05
240.06	1701.86
240.28	1710.05
240.50	1746.92
240.72	1728.49
240.93	1642.47
241.15	1746.92
241.37	1734.63
241.59	1841.12
241.81	1642.47
242.02	1705.96
242.24	1738.73
242.46	1677.29
242.68	1689.57
242.89	1703.91
243.11	1718.25
243.33	1685.48
243.55	1712.10
243.76	1736.68
243.98	1726.44
244.20	1744.87
244.42	1695.72
244.64	1726.44
244.85	1728.49
245.07	1667.05
245.29	1681.38
245.51	1654.76
245.72	1675.24
245.94	1679.33
246.16	1681.38
246.38	1765.35
246.59	1669.09
246.81	1708.01
247.03	1603.56
247.24	1587.18
247.46	1708.01
247.68	1689.57
247.90	1665.00
248.11	1603.56
248.33	1787.88
248.55	1720.29
248.77	1689.57
248.98	1767.40
249.20	1775.59
249.42	1640.42
249.64	1738.73
249.85	1652.71
250.07	1679.33
250.29	1744.87
250.50	1789.92
250.72	1632.23
250.94	1697.77
251.16	1802.21
251.37	1722.34
251.59	1734.63
251.81	1732.58
252.02	1814.50
252.24	1558.50
252.46	1806.31
252.68	1673.19
252.89	1677.29
253.11	1638.38
253.33	1753.06
253.54	1744.87
253.76	1587.18
253.98	1724.39
254.20	1699.81
254.41	1617.90
254.63	1687.53
254.85	1644.52
255.06	1681.38
255.28	1701.86
255.50	1714.15
255.71	1601.51
255.93	1669.09
256.15	1626.09
256.36	1730.53
256.58	1726.44
256.80	1710.05
257.02	1628.14
257.23	1679.33
257.45	1675.24
257.67	1744.87
257.88	1660.90
258.10	1810.40
258.32	1671.14
258.53	1753.06
258.75	1775.59
258.97	1615.85
259.18	1632.23
259.40	1705.96
259.62	1779.68
259.83	1828.84
260.05	1714.15
260.27	2025.44
260.48	1794.02
260.70	1689.57
260.92	1640.42
261.13	1734.63
261.35	1734.63
261.57	1787.88
261.78	1628.14
262.00	1665.00
262.22	1724.39
262.43	1636.33
262.65	1660.90
262.86	1701.86
263.08	1843.17
263.30	1720.29
263.51	1615.85
263.73	1718.25
263.95	1759.21
264.16	1679.33
264.38	1652.71
264.60	1751.01
264.81	1708.01
265.03	1755.11
265.25	1828.84
265.46	1740.77
265.68	1728.49
265.89	1757.16
266.11	1636.33
266.33	1722.34
266.54	1759.21
266.76	1783.78
266.98	1740.77
267.19	1787.88
267.41	1863.65
267.62	1654.76
267.84	1615.85
268.06	1708.01
268.27	1736.68
268.49	1734.63
268.70	1683.43
268.92	1699.81
269.14	1705.96
269.35	1564.65
269.57	1660.90
269.79	1703.91
270.00	1574.89
270.22	1794.02
270.43	1648.61
270.65	1638.38
270.87	1718.25
271.08	1796.07
271.30	1726.44
271.51	1679.33
271.73	1775.59
271.95	1730.53
272.16	1765.35
272.38	1730.53
272.59	1542.12
272.81	1740.77
273.02	1779.68
273.24	1722.34
273.46	1800.16
273.67	1691.62
273.89	1687.53
274.10	1615.85
274.32	1759.21
274.54	1708.01
274.75	1705.96
274.97	1705.96
275.18	1748.97
275.40	1724.39
275.61	1683.43
275.83	1708.01
276.05	1667.05
276.26	1626.09
276.48	1857.51
276.69	1669.09
276.91	1675.24
277.12	1726.44
277.34	1845.22
277.55	1673.19
277.77	1699.81
277.99	1683.43
278.20	1652.71
278.42	1722.34
278.63	1656.81
278.85	1710.05
279.06	1720.29
279.28	1722.34
279.49	1726.44
279.71	1785.83
279.93	1695.72
280.14	1708.01
280.36	1617.90
280.57	1734.63
280.79	1716.20
281.00	1699.81
281.22	1638.38
281.43	1757.16
281.65	1540.07
281.86	1548.26
282.08	1644.52
282.29	1849.32
282.51	1628.14
282.73	1630.18
282.94	1595.37
283.16	1689.57
283.37	1771.49
283.59	1763.30
283.80	1710.05
284.02	1677.29
284.23	1787.88
284.45	1646.57
284.66	1687.53
284.88	1624.04
285.09	1720.29
285.31	1767.40
285.52	1705.96
285.74	1679.33
285.95	1804.26
286.17	1714.15
286.38	1843.17
286.60	1681.38
286.81	1632.23
287.03	1699.81
287.24	1628.14
287.46	1779.68
287.67	1767.40
287.89	1763.30
288.10	1675.24
288.32	1685.48
288.53	1822.69
288.75	1697.77
288.96	1839.08
289.18	1681.38
289.39	1728.49
289.61	1722.34
289.82	1791.97
290.04	1789.92
290.25	1581.03
290.47	1708.01
290.68	1689.57
290.90	1783.78
291.11	1550.31
291.33	1802.21
291.54	1624.04
291.76	1601.51
291.97	1716.20
292.18	1662.95
292.40	1714.15
292.61	1726.44
292.83	1849.32
293.04	1703.91
293.26	1726.44
293.47	1675.24
293.69	1716.20
293.90	1693.67
294.12	1810.40
294.33	1595.37
294.55	1705.96
294.76	1738.73
294.97	1779.68
295.19	1812.45
295.40	1658.85
295.62	1697.77
295.83	1789.92
296.05	1642.47
296.26	1738.73
296.48	1697.77
296.69	1716.20
296.90	1675.24
297.12	1789.92
297.33	1751.01
297.55	1722.34
297.76	1708.01
297.98	1746.92
298.19	1648.61
298.41	1712.10
298.62	1679.33
298.83	1751.01
299.05	1712.10
299.26	1624.04
299.48	1607.66
299.69	1730.53
299.90	1632.23
300.12	1667.05
300.33	1716.20
300.55	1718.25
300.76	1740.77
300.98	1626.09
301.19	1746.92
301.40	1660.90
301.62	1667.05
301.83	1683.43
302.05	1748.97
302.26	1644.52
302.47	1763.30
302.69	1648.61
302.90	1691.62
303.12	1636.33
303.33	1769.44
303.54	1804.26
303.76	1685.48
303.97	1726.44
304.19	1796.07
304.40	1681.38
304.61	1710.05
304.83	1894.37
305.04	1673.19
305.26	1685.48
305.47	1615.85
305.68	1656.81
305.90	1603.56
306.11	1759.21
306.33	1689.57
306.54	1660.90
306.75	1660.90
306.97	1662.95
307.18	1673.19
307.39	1701.86
307.61	1722.34
307.82	1720.29
308.04	1718.25
308.25	1726.44
308.46	1648.61
308.68	1628.14
308.89	1738.73
309.10	1765.35
309.32	1746.92
309.53	1720.29
309.74	1755.11
309.96	1796.07
310.17	1685.48
310.39	1634.28
310.60	1738.73
310.81	1757.16
311.03	1681.38
311.24	1751.01
311.45	1646.57
311.67	1783.78
311.88	1783.78
312.09	1658.85
312.31	1742.82
312.52	1605.61
312.73	1597.42
312.95	1583.08
313.16	1667.05
313.37	1734.63
313.59	1751.01
313.80	1718.25
314.01	1826.79
314.23	1712.10
314.44	1705.96
314.65	1662.95
314.87	1673.19
315.08	1746.92
315.29	1648.61
315.51	1642.47
315.72	1626.09
315.93	1826.79
316.15	1783.78
316.36	1687.53
316.57	1693.67
316.79	1703.91
317.00	1677.29
317.21	1751.01
317.43	1656.81
317.64	1683.43
317.85	1638.38
318.07	1644.52
318.28	1734.63
318.49	1781.73
318.70	1910.75
318.92	1755.11
319.13	1777.64
319.34	1841.12
319.56	1775.59
319.77	1806.31
319.98	1775.59
320.20	1794.02
320.41	1812.45
320.62	1798.12
320.83	1636.33
321.05	1808.36
321.26	1722.34
321.47	1755.11
321.69	1794.02
321.90	1652.71
322.11	1665.00
322.32	1794.02
322.54	1820.64
322.75	1705.96
322.96	1800.16
323.18	1566.70
323.39	1611.75
323.60	1660.90
323.81	1783.78
324.03	1697.77
324.24	1755.11
324.45	1689.57
324.66	1671.14
324.88	1781.73
325.09	1775.59
325.30	1609.70
325.52	1779.68
325.73	1677.29
325.94	1654.76
326.15	1632.23
326.37	1658.85
326.58	1748.97
326.79	1822.69
327.00	1630.18
327.22	1757.16
327.43	1740.77
327.64	1658.85
327.85	1789.92
328.07	1701.86
328.28	1871.84
328.49	1640.42
328.70	1726.44
328.92	1687.53
329.13	1699.81
329.34	1759.21
329.55	1748.97
329.76	1730.53
329.98	1773.54
330.19	1755.11
330.40	1738.73
330.61	1681.38
330.83	1697.77
331.04	1681.38
331.25	1697.77
331.46	1665.00
331.68	1634.28
331.89	1785.83
332.10	1662.95
332.31	1648.61
332.52	1679.33
332.74	1746.92
332.95	1603.56
333.16	1722.34
333.37	1742.82
333.58	1685.48
333.80	1742.82
334.01	1630.18
334.22	1677.29
334.43	1710.05
334.64	1736.68
334.86	1619.94
335.07	1648.61
335.28	1732.58
335.49	1583.08
335.70	1830.88
335.92	1705.96
336.13	1839.08
336.34	1728.49
336.55	1671.14
336.76	1736.68
336.98	1630.18
337.19	1669.09
337.40	1751.01
337.61	1892.32
337.82	1624.04
338.04	1746.92
338.25	1628.14
338.46	1638.38
338.67	1718.25
338.88	1613.80
339.09	1650.66
339.31	1695.72
339.52	1605.61
339.73	1603.56
339.94	1660.90
340.15	1767.40
340.36	1642.47
340.58	1701.86
340.79	1632.23
341.00	1785.83
341.21	1593.32
341.42	1740.77
341.63	1714.15
341.85	1777.64
342.06	1775.59
342.27	1738.73
342.48	1738.73
342.69	1624.04
342.90	1708.01
343.12	1708.01
343.33	1693.67
343.54	1763.30
343.75	1740.77
343.96	1621.99
344.17	1581.03
344.38	1691.62
344.60	1658.85
344.81	1632.23
345.02	1607.66
345.23	1757.16
345.44	1837.03
345.65	1734.63
345.86	1714.15
346.07	1703.91
346.29	1568.74
346.50	1675.24
346.71	1675.24
346.92	1806.31
347.13	1751.01
347.34	1693.67
347.55	1638.38
347.76	1740.77
347.98	1611.75
348.19	1665.00
348.40	1697.77
348.61	1724.39
348.82	1781.73
349.03	1746.92
349.24	1613.80
349.45	1730.53
349.66	1548.26
349.88	1748.97
350.09	1685.48
350.30	1816.55
350.51	1705.96
350.72	1708.01
350.93	1705.96
351.14	1726.44
351.35	1751.01
351.56	1771.49
351.77	1624.04
351.99	1736.68
352.20	1714.15
352.41	1785.83
352.62	1617.90
352.83	1736.68
353.04	1736.68
353.25	1710.05
353.46	1779.68
353.67	1810.40
353.88	1626.09
354.09	1710.05
354.30	1746.92
354.52	1679.33
354.73	1658.85
354.94	1654.76
355.15	1691.62
355.36	1845.22
355.57	1597.42
355.78	1734.63
355.99	1624.04
356.20	1748.97
356.41	1734.63
356.62	1640.42
356.83	1640.42
357.04	1808.36
357.25	1662.95
357.46	1599.46
357.68	1615.85
357.89	1660.90
358.10	1683.43
358.31	1673.19
358.52	1714.15
358.73	1566.70
358.94	1652.71
359.15	1724.39
359.36	1703.91
359.57	1691.62
359.78	1705.96
359.99	1761.25
360.20	1591.27
360.41	1646.57
360.62	1699.81
360.83	1779.68
361.04	1718.25
361.25	1728.49
361.46	1791.97
361.67	1734.63
361.88	1742.82
362.09	1708.01
362.30	1703.91
362.51	1640.42
362.72	1746.92
362.93	1683.43
363.14	1785.83
363.35	1644.52
363.56	1677.29
363.78	1710.05
363.99	1781.73
364.20	1654.76
364.41	1738.73
364.62	1748.97
364.83	1757.16
365.04	1708.01
365.25	1718.25
365.46	1763.30
365.67	1652.71
365.88	1560.55
366.09	1734.63
366.30	1607.66
366.51	1708.01
366.72	1763.30
366.93	1703.91
367.14	1755.11
367.35	1834.98
367.56	1736.68
367.77	1779.68
367.98	1722.34
368.18	1808.36
368.39	1753.06
368.60	1714.15
368.81	1708.01
369.02	1716.20
369.23	1624.04
369.44	1705.96
369.65	1705.96
369.86	1742.82
370.07	1785.83
370.28	1656.81
370.49	1736.68
370.70	1630.18
370.91	1673.19
371.12	1542.12
371.33	1777.64
371.54	1642.47
371.75	1769.44
371.96	1603.56
372.17	1681.38
372.38	1708.01
372.59	1744.87
372.80	1673.19
373.01	1632.23
373.22	1656.81
373.43	1685.48
373.64	1710.05
373.85	1822.69
374.06	1804.26
374.26	1722.34
374.47	1681.38
374.68	1761.25
374.89	1722.34
375.10	1669.09
375.31	1748.97
375.52	1695.72
375.73	1730.53
375.94	1683.43
376.15	1744.87
376.36	1695.72
376.57	1665.00
376.78	1603.56
376.99	1587.18
377.20	1744.87
377.40	1669.09
377.61	1767.40
377.82	1681.38
378.03	1773.54
378.24	1726.44
378.45	1703.91
378.66	1738.73
378.87	1669.09
379.08	1652.71
379.29	1632.23
379.50	1773.54
379.71	1656.81
379.91	1677.29
380.12	1697.77
380.33	1648.61
380.54	1730.53
380.75	1597.42
380.96	1677.29
381.17	1773.54
381.38	1683.43
381.59	1705.96
381.80	1716.20
382.00	1824.74
382.21	1800.16
382.42	1837.03
382.63	1863.65
382.84	1738.73
383.05	1796.07
383.26	1767.40
383.47	1746.92
383.68	1751.01
383.88	1736.68
384.09	1658.85
384.30	1834.98
384.51	1777.64
384.72	1689.57
384.93	1652.71
385.14	1701.86
385.35	1748.97
385.55	1607.66
385.76	1816.55
385.97	1738.73
386.18	1638.38
386.39	1703.91
386.60	1632.23
386.81	1626.09
387.02	1658.85
387.22	1748.97
387.43	1824.74
387.64	1761.25
387.85	1839.08
388.06	2250.72
388.27	4227.01
388.48	6860.70
388.68	8472.45
388.89	9486.19
389.10	9777.00
389.31	8542.08
389.52	7491.47
389.73	6860.70
389.93	6219.68
390.14	5910.44
390.35	5121.97
390.56	4593.59
390.77	3631.05
390.98	3059.67
391.18	2506.71
391.39	2099.17
391.60	1845.22
391.81	1787.88
392.02	1716.20
392.23	1865.70
392.43	1767.40
392.64	1791.97
392.85	1763.30
393.06	1796.07
393.27	1767.40
393.47	1632.23
393.68	1734.63
393.89	1669.09
394.10	1800.16
394.31	1658.85
394.52	1603.56
394.72	1644.52
394.93	1800.16
395.14	1673.19
395.35	1679.33
395.56	1607.66
395.76	1675.24
395.97	1771.49
396.18	1912.80
396.39	1759.21
396.60	2056.16
396.80	1851.36
397.01	1820.64
397.22	1816.55
397.43	1873.89
397.64	1789.92
397.84	1798.12
398.05	1849.32
398.26	1783.78
398.47	1828.84
398.67	1708.01
398.88	1748.97
399.09	1808.36
399.30	1705.96
399.51	1710.05
399.71	1662.95
399.92	1687.53
400.13	1755.11
400.34	1677.29
400.54	1619.94
400.75	1816.55
400.96	1773.54
401.17	1763.30
401.37	1740.77
401.58	1699.81
401.79	1697.77
402.00	1912.80
402.21	2011.11
402.41	1826.79
402.62	1939.43
402.83	2021.35
403.04	1988.58
403.24	2148.32
403.45	1845.22
403.66	1859.56
403.87	1818.60
404.07	1816.55
404.28	1851.36
404.49	1902.56
404.70	1736.68
404.90	1802.21
405.11	1751.01
405.32	1734.63
405.52	1753.06
405.73	1689.57
405.94	1722.34
406.15	1720.29
406.35	1742.82
406.56	1769.44
406.77	1730.53
406.98	1714.15
407.18	1677.29
407.39	1757.16
407.60	1646.57
407.80	1724.39
408.01	1644.52
408.22	1736.68
408.43	1640.42
408.63	1720.29
408.84	1796.07
409.05	1777.64
409.25	1669.09
409.46	1673.19
409.67	1599.46
409.88	1632.23
410.08	1738.73
410.29	1718.25
410.50	1734.63
410.70	1775.59
410.91	1681.38
411.12	1791.97
411.32	1798.12
411.53	1681.38
411.74	1771.49
411.95	1787.88
412.15	1701.86
412.36	1701.86
412.57	1767.40
412.77	1853.41
412.98	1722.34
413.19	1658.85
413.39	1728.49
413.60	1781.73
413.81	1744.87
414.01	1605.61
414.22	1708.01
414.43	1773.54
414.63	1791.97
414.84	1753.06
415.05	1697.77
415.25	1693.67
415.46	1783.78
415.67	1734.63
415.87	1665.00
416.08	1708.01
416.29	1763.30
416.49	1665.00
416.70	1654.76
416.91	1640.42
417.11	1718.25
417.32	1710.05
417.53	1755.11
417.73	1712.10
417.94	1671.14
418.15	1763.30
418.35	1626.09
418.56	1708.01
418.77	1781.73
418.97	1669.09
419.18	1720.29
419.38	1611.75
419.59	1673.19
419.80	1826.79
420.00	1626.09
420.21	1705.96
420.42	1738.73
420.62	1671.14
420.83	1687.53
421.04	1697.77
421.24	1673.19
421.45	1642.47
421.65	1689.57
421.86	1662.95
422.07	1732.58
422.27	1763.30
422.48	1724.39
422.69	1595.37
422.89	1746.92
423.10	1740.77
423.30	1607.66
423.51	1708.01
423.72	1720.29
423.92	1724.39
424.13	1560.55
424.33	1730.53
424.54	1751.01
424.75	1689.57
424.95	1703.91
425.16	1773.54
425.36	1695.72
425.57	1738.73
425.78	1724.39
425.98	1775.59
426.19	1679.33
426.39	1652.71
426.60	1650.66
426.81	1757.16
427.01	1726.44
427.22	1650.66
427.42	1574.89
427.63	1656.81
427.83	1705.96
428.04	1853.41
428.25	1761.25
428.45	1839.08
428.66	1804.26
428.86	1708.01
429.07	1679.33
429.28	1662.95
429.48	1630.18
429.69	1673.19
429.89	1675.24
430.10	1689.57
430.30	1787.88
430.51	1724.39
430.71	1652.71
430.92	1669.09
431.13	1638.38
431.33	1722.34
431.54	1710.05
431.74	1781.73
431.95	1785.83
432.15	1677.29
432.36	1755.11
432.56	1771.49
432.77	1814.50
432.98	1800.16
433.18	1724.39
433.39	1718.25
433.59	1644.52
433.80	1802.21
434.00	1751.01
434.21	1695.72
434.41	1673.19
434.62	1806.31
434.82	1693.67
435.03	1626.09
435.23	1693.67
435.44	1632.23
435.64	1769.44
435.85	1652.71
436.06	1730.53
436.26	1759.21
436.47	1681.38
436.67	1630.18
436.88	1738.73
437.08	1632.23
437.29	1812.45
437.49	1767.40
437.70	1736.68
437.90	1751.01
438.11	1859.56
438.31	1798.12
438.52	1882.08
438.72	1906.66
438.93	1896.42
439.13	1822.69
439.34	1796.07
439.54	1746.92
439.75	1818.60
439.95	1828.84
440.16	1753.06
440.36	1703.91
440.57	1748.97
440.77	1726.44
440.98	1708.01
441.18	1800.16
441.39	1681.38
441.59	1578.98
441.80	1886.18
442.00	1705.96
442.21	1779.68
442.41	1648.61
442.62	1785.83
442.82	1742.82
443.02	1652.71
443.23	1671.14
443.43	1646.57
443.64	1771.49
443.84	1673.19
444.05	1845.22
444.25	1705.96
444.46	1753.06
444.66	1763.30
444.87	1853.41
445.07	1665.00
445.28	1658.85
445.48	1800.16
445.69	1781.73
445.89	1957.86
446.09	1691.62
446.30	1996.77
446.50	2611.16
446.71	3700.68
446.91	4376.51
447.12	4782.01
447.32	4851.64
447.53	4276.16
447.73	3878.85
447.93	3549.13
448.14	3432.40
448.34	3246.03
448.55	2791.38
448.75	2861.01
448.96	2688.98
449.16	2478.04
449.36	2287.58
449.57	1982.43
449.77	1880.04
449.98	1828.84
450.18	1791.97
450.39	1861.60
450.59	1738.73
450.79	1751.01
451.00	1697.77
451.20	1791.97
451.41	1751.01
451.61	1767.40
451.81	1701.86
452.02	1685.48
452.22	1701.86
452.43	1679.33
452.63	1730.53
