SpectraSuite Data File
++++++++++++++++++++++++++++++++++++
Date: Mon Jun 06 12:56:17 CEST 2016
User: root
Dark Spectrum Present: No
Reference Spectrum Present: No
Number of Sampled Component Spectra: 1
Spectrometers: USB4C02835
Integration Time (usec): 100000 (USB4C02835)
Spectra Averaged: 1 (USB4C02835)
Boxcar Smoothing: 0 (USB4C02835)
Correct for Electrical Dark: No (USB4C02835)
Strobe/Lamp Enabled: No (USB4C02835)
Correct for Detector Non-linearity: No (USB4C02835)
Correct for Stray Light: No (USB4C02835)
Number of Pixels in Processed Spectrum: 3648
>>>>>Begin Processed Spectral Data<<<<<
177.47	1503.21
177.69	1503.21
177.91	1503.21
178.13	1449.96
178.36	1449.96
178.58	1587.18
178.80	1746.92
179.02	1583.08
179.24	1728.49
179.46	1765.35
179.68	1804.26
179.90	1724.39
180.13	1679.33
180.35	1628.14
180.57	1687.53
180.79	1775.59
181.01	1742.82
181.23	1734.63
181.45	1712.10
181.67	1736.68
181.90	1740.77
182.12	1595.37
182.34	1716.20
182.56	1738.73
182.78	1720.29
183.00	1654.76
183.22	1718.25
183.44	1609.70
183.66	1918.95
183.89	1820.64
184.11	1685.48
184.33	1773.54
184.55	1773.54
184.77	1732.58
184.99	1724.39
185.21	1652.71
185.43	1779.68
185.65	1669.09
185.87	1708.01
186.10	1828.84
186.32	1939.43
186.54	1748.97
186.76	1685.48
186.98	1800.16
187.20	1691.62
187.42	1720.29
187.64	1740.77
187.86	1679.33
188.08	1834.98
188.30	1621.99
188.52	1742.82
188.75	1789.92
188.97	1816.55
189.19	1599.46
189.41	1697.77
189.63	1724.39
189.85	1656.81
190.07	1685.48
190.29	1716.20
190.51	1724.39
190.73	1593.32
190.95	1761.25
191.17	1681.38
191.39	1687.53
191.61	1716.20
191.84	1738.73
192.06	1746.92
192.28	1613.80
192.50	1812.45
192.72	1708.01
192.94	1726.44
193.16	1783.78
193.38	1699.81
193.60	1673.19
193.82	1638.38
194.04	1759.21
194.26	1718.25
194.48	1714.15
194.70	1611.75
194.92	1685.48
195.14	1767.40
195.36	1763.30
195.58	1724.39
195.80	1634.28
196.02	1638.38
196.24	1757.16
196.46	1701.86
196.69	1660.90
196.91	1898.47
197.13	1697.77
197.35	1640.42
197.57	1855.46
197.79	1685.48
198.01	1697.77
198.23	1736.68
198.45	1701.86
198.67	1656.81
198.89	1687.53
199.11	1746.92
199.33	1689.57
199.55	1587.18
199.77	1687.53
199.99	1812.45
200.21	1656.81
200.43	1728.49
200.65	1673.19
200.87	1603.56
201.09	1673.19
201.31	1724.39
201.53	1697.77
201.75	1800.16
201.97	1742.82
202.19	1640.42
202.41	1781.73
202.63	1767.40
202.85	1746.92
203.07	1708.01
203.29	1632.23
203.51	1550.31
203.73	1595.37
203.95	1859.56
204.17	1652.71
204.39	1726.44
204.61	1669.09
204.83	1755.11
205.05	1755.11
205.27	1787.88
205.49	1808.36
205.71	1691.62
205.93	1660.90
206.15	1683.43
206.37	1740.77
206.59	1697.77
206.81	1611.75
207.03	1626.09
207.25	1677.29
207.47	1740.77
207.69	1693.67
207.91	1830.88
208.13	1794.02
208.34	1607.66
208.56	1708.01
208.78	1726.44
209.00	1662.95
209.22	1638.38
209.44	1660.90
209.66	1660.90
209.88	1751.01
210.10	1615.85
210.32	1701.86
210.54	1779.68
210.76	1650.66
210.98	1767.40
211.20	1624.04
211.42	1730.53
211.64	1769.44
211.86	1759.21
212.08	1746.92
212.30	1656.81
212.52	1665.00
212.74	1738.73
212.96	1736.68
213.17	1718.25
213.39	1693.67
213.61	1746.92
213.83	1742.82
214.05	1652.71
214.27	1755.11
214.49	1656.81
214.71	1724.39
214.93	1789.92
215.15	1677.29
215.37	1820.64
215.59	1560.55
215.81	1705.96
216.03	1789.92
216.24	1705.96
216.46	1669.09
216.68	1691.62
216.90	1714.15
217.12	1740.77
217.34	1722.34
217.56	1732.58
217.78	1808.36
218.00	1718.25
218.22	1718.25
218.44	1687.53
218.66	1783.78
218.87	1810.40
219.09	1669.09
219.31	1767.40
219.53	1691.62
219.75	1718.25
219.97	1691.62
220.19	1708.01
220.41	1705.96
220.63	1685.48
220.85	1691.62
221.06	1662.95
221.28	1806.31
221.50	1695.72
221.72	1681.38
221.94	1744.87
222.16	1658.85
222.38	1716.20
222.60	1728.49
222.82	1665.00
223.03	1708.01
223.25	1640.42
223.47	1740.77
223.69	1818.60
223.91	1841.12
224.13	1681.38
224.35	1658.85
224.57	1734.63
224.78	1724.39
225.00	1630.18
225.22	1648.61
225.44	1656.81
225.66	1812.45
225.88	1708.01
226.10	1773.54
226.32	1669.09
226.53	1720.29
226.75	1722.34
226.97	1650.66
227.19	1722.34
227.41	1679.33
227.63	1662.95
227.85	1656.81
228.06	1738.73
228.28	1730.53
228.50	1744.87
228.72	1646.57
228.94	1701.86
229.16	1484.78
229.37	1585.13
229.59	1671.14
229.81	1773.54
230.03	1685.48
230.25	1656.81
230.47	1662.95
230.69	1624.04
230.90	1755.11
231.12	1671.14
231.34	1703.91
231.56	1826.79
231.78	1677.29
232.00	1716.20
232.21	1746.92
232.43	1695.72
232.65	1605.61
232.87	1757.16
233.09	1689.57
233.30	1650.66
233.52	1771.49
233.74	1687.53
233.96	1699.81
234.18	1744.87
234.40	1634.28
234.61	1867.75
234.83	1621.99
235.05	1603.56
235.27	1861.60
235.49	1761.25
235.70	1691.62
235.92	1673.19
236.14	1722.34
236.36	1800.16
236.58	1626.09
236.79	1687.53
237.01	1669.09
237.23	1695.72
237.45	1832.93
237.67	1624.04
237.88	1681.38
238.10	1818.60
238.32	1701.86
238.54	1697.77
238.76	1683.43
238.97	1693.67
239.19	1652.71
239.41	1689.57
239.63	1832.93
239.85	1732.58
240.06	1691.62
240.28	1662.95
240.50	1738.73
240.72	1642.47
240.93	1679.33
241.15	1775.59
241.37	1656.81
241.59	1800.16
241.81	1656.81
242.02	1730.53
242.24	1654.76
242.46	1660.90
242.68	1701.86
242.89	1742.82
243.11	1740.77
243.33	1691.62
243.55	1755.11
243.76	1812.45
243.98	1673.19
244.20	1759.21
244.42	1751.01
244.64	1613.80
244.85	1601.51
245.07	1681.38
245.29	1753.06
245.51	1673.19
245.72	1683.43
245.94	1773.54
246.16	1751.01
246.38	1710.05
246.59	1642.47
246.81	1595.37
247.03	1734.63
247.24	1585.13
247.46	1648.61
247.68	1689.57
247.90	1679.33
248.11	1665.00
248.33	1701.86
248.55	1703.91
248.77	1744.87
248.98	1675.24
249.20	1767.40
249.42	1765.35
249.64	1658.85
249.85	1677.29
250.07	1675.24
250.29	1660.90
250.50	1775.59
250.72	1587.18
250.94	1794.02
251.16	1882.08
251.37	1738.73
251.59	1677.29
251.81	1726.44
252.02	1800.16
252.24	1728.49
252.46	1796.07
252.68	1595.37
252.89	1667.05
253.11	1587.18
253.33	1834.98
253.54	1771.49
253.76	1589.22
253.98	1683.43
254.20	1751.01
254.41	1601.51
254.63	1726.44
254.85	1613.80
255.06	1703.91
255.28	1789.92
255.50	1675.24
255.71	1574.89
255.93	1689.57
256.15	1691.62
256.36	1640.42
256.58	1665.00
256.80	1773.54
257.02	1617.90
257.23	1687.53
257.45	1679.33
257.67	1759.21
257.88	1667.05
258.10	1767.40
258.32	1710.05
258.53	1748.97
258.75	1751.01
258.97	1722.34
259.18	1738.73
259.40	1732.58
259.62	1779.68
259.83	1785.83
260.05	1689.57
260.27	2000.87
260.48	1818.60
260.70	1583.08
260.92	1699.81
261.13	1740.77
261.35	1761.25
261.57	1667.05
261.78	1679.33
262.00	1638.38
262.22	1718.25
262.43	1617.90
262.65	1660.90
262.86	1636.33
263.08	1865.70
263.30	1718.25
263.51	1615.85
263.73	1607.66
263.95	1767.40
264.16	1634.28
264.38	1755.11
264.60	1683.43
264.81	1683.43
265.03	1695.72
265.25	1730.53
265.46	1669.09
265.68	1681.38
265.89	1748.97
266.11	1562.60
266.33	1673.19
266.54	1773.54
266.76	1748.97
266.98	1808.36
267.19	1773.54
267.41	1718.25
267.62	1703.91
267.84	1710.05
268.06	1742.82
268.27	1677.29
268.49	1757.16
268.70	1818.60
268.92	1671.14
269.14	1615.85
269.35	1669.09
269.57	1654.76
269.79	1763.30
270.00	1685.48
270.22	1818.60
270.43	1640.42
270.65	1644.52
270.87	1746.92
271.08	1742.82
271.30	1703.91
271.51	1691.62
271.73	1820.64
271.95	1748.97
272.16	1667.05
272.38	1732.58
272.59	1714.15
272.81	1710.05
273.02	1759.21
273.24	1695.72
273.46	1777.64
273.67	1611.75
273.89	1712.10
274.10	1650.66
274.32	1779.68
274.54	1730.53
274.75	1673.19
274.97	1687.53
275.18	1687.53
275.40	1671.14
275.61	1728.49
275.83	1650.66
276.05	1593.32
276.26	1689.57
276.48	1714.15
276.69	1693.67
276.91	1607.66
277.12	1734.63
277.34	1730.53
277.55	1708.01
277.77	1683.43
277.99	1714.15
278.20	1691.62
278.42	1648.61
278.63	1660.90
278.85	1679.33
279.06	1611.75
279.28	1644.52
279.49	1773.54
279.71	1718.25
279.93	1689.57
280.14	1669.09
280.36	1642.47
280.57	1689.57
280.79	1730.53
281.00	1732.58
281.22	1624.04
281.43	1685.48
281.65	1673.19
281.86	1660.90
282.08	1796.07
282.29	1869.80
282.51	1689.57
282.73	1621.99
282.94	1638.38
283.16	1695.72
283.37	1859.56
283.59	1701.86
283.80	1716.20
284.02	1722.34
284.23	1722.34
284.45	1636.33
284.66	1628.14
284.88	1697.77
285.09	1736.68
285.31	1652.71
285.52	1697.77
285.74	1615.85
285.95	1814.50
286.17	1658.85
286.38	1753.06
286.60	1636.33
286.81	1609.70
287.03	1681.38
287.24	1681.38
287.46	1705.96
287.67	1683.43
287.89	1814.50
288.10	1708.01
288.32	1654.76
288.53	1798.12
288.75	1738.73
288.96	1730.53
289.18	1746.92
289.39	1689.57
289.61	1710.05
289.82	1767.40
290.04	1857.51
290.25	1562.60
290.47	1699.81
290.68	1697.77
290.90	1791.97
291.11	1603.56
291.33	1794.02
291.54	1675.24
291.76	1650.66
291.97	1722.34
292.18	1693.67
292.40	1718.25
292.61	1634.28
292.83	1812.45
293.04	1777.64
293.26	1667.05
293.47	1683.43
293.69	1572.84
293.90	1734.63
294.12	1859.56
294.33	1720.29
294.55	1710.05
294.76	1763.30
294.97	1689.57
295.19	1806.31
295.40	1673.19
295.62	1734.63
295.83	1765.35
296.05	1677.29
296.26	1734.63
296.48	1624.04
296.69	1646.57
296.90	1685.48
297.12	1802.21
297.33	1757.16
297.55	1699.81
297.76	1738.73
297.98	1708.01
298.19	1757.16
298.41	1660.90
298.62	1628.14
298.83	1759.21
299.05	1624.04
299.26	1685.48
299.48	1701.86
299.69	1722.34
299.90	1697.77
300.12	1681.38
300.33	1775.59
300.55	1759.21
300.76	1665.00
300.98	1636.33
301.19	1695.72
301.40	1732.58
301.62	1742.82
301.83	1673.19
302.05	1701.86
302.26	1683.43
302.47	1757.16
302.69	1654.76
302.90	1695.72
303.12	1587.18
303.33	1714.15
303.54	1806.31
303.76	1718.25
303.97	1705.96
304.19	1699.81
304.40	1656.81
304.61	1691.62
304.83	1824.74
305.04	1806.31
305.26	1724.39
305.47	1650.66
305.68	1658.85
305.90	1660.90
306.11	1716.20
306.33	1636.33
306.54	1705.96
306.75	1683.43
306.97	1675.24
307.18	1656.81
307.39	1593.32
307.61	1650.66
307.82	1677.29
308.04	1665.00
308.25	1660.90
308.46	1800.16
308.68	1697.77
308.89	1695.72
309.10	1769.44
309.32	1705.96
309.53	1734.63
309.74	1808.36
309.96	1726.44
310.17	1789.92
310.39	1669.09
310.60	1730.53
310.81	1660.90
311.03	1660.90
311.24	1787.88
311.45	1714.15
311.67	1791.97
311.88	1597.42
312.09	1626.09
312.31	1669.09
312.52	1769.44
312.73	1621.99
312.95	1652.71
313.16	1652.71
313.37	1718.25
313.59	1603.56
313.80	1679.33
314.01	1759.21
314.23	1656.81
314.44	1624.04
314.65	1677.29
314.87	1648.61
315.08	1679.33
315.29	1667.05
315.51	1677.29
315.72	1658.85
315.93	1761.25
316.15	1751.01
316.36	1738.73
316.57	1685.48
316.79	1691.62
317.00	1724.39
317.21	1695.72
317.43	1693.67
317.64	1708.01
317.85	1634.28
318.07	1660.90
318.28	1730.53
318.49	1808.36
318.70	1880.04
318.92	1796.07
319.13	1765.35
319.34	1904.61
319.56	1787.88
319.77	1804.26
319.98	1787.88
320.20	1757.16
320.41	1730.53
320.62	1765.35
320.83	1660.90
321.05	1832.93
321.26	1761.25
321.47	1681.38
321.69	1787.88
321.90	1597.42
322.11	1619.94
322.32	1640.42
322.54	1896.42
322.75	1742.82
322.96	1867.75
323.18	1656.81
323.39	1697.77
323.60	1685.48
323.81	1804.26
324.03	1708.01
324.24	1708.01
324.45	1734.63
324.66	1740.77
324.88	1691.62
325.09	1769.44
325.30	1667.05
325.52	1722.34
325.73	1736.68
325.94	1738.73
326.15	1701.86
326.37	1718.25
326.58	1746.92
326.79	1841.12
327.00	1642.47
327.22	1763.30
327.43	1634.28
327.64	1615.85
327.85	1771.49
328.07	1732.58
328.28	1820.64
328.49	1648.61
328.70	1685.48
328.92	1708.01
329.13	1775.59
329.34	1796.07
329.55	1773.54
329.76	1789.92
329.98	1679.33
330.19	1798.12
330.40	1679.33
330.61	1751.01
330.83	1753.06
331.04	1646.57
331.25	1734.63
331.46	1691.62
331.68	1658.85
331.89	1787.88
332.10	1718.25
332.31	1683.43
332.52	1667.05
332.74	1732.58
332.95	1628.14
333.16	1734.63
333.37	1701.86
333.58	1617.90
333.80	1759.21
334.01	1564.65
334.22	1732.58
334.43	1679.33
334.64	1624.04
334.86	1617.90
335.07	1624.04
335.28	1796.07
335.49	1640.42
335.70	1783.78
335.92	1695.72
336.13	1789.92
336.34	1693.67
336.55	1730.53
336.76	1705.96
336.98	1644.52
337.19	1712.10
337.40	1892.32
337.61	1849.32
337.82	1593.32
338.04	1656.81
338.25	1587.18
338.46	1652.71
338.67	1771.49
338.88	1675.24
339.09	1597.42
339.31	1677.29
339.52	1675.24
339.73	1714.15
339.94	1685.48
340.15	1714.15
340.36	1734.63
340.58	1699.81
340.79	1689.57
341.00	1658.85
341.21	1644.52
341.42	1769.44
341.63	1593.32
341.85	1697.77
342.06	1718.25
342.27	1648.61
342.48	1777.64
342.69	1509.35
342.90	1693.67
343.12	1634.28
343.33	1771.49
343.54	1800.16
343.75	1730.53
343.96	1665.00
344.17	1738.73
344.38	1675.24
344.60	1699.81
344.81	1687.53
345.02	1722.34
345.23	1710.05
345.44	1732.58
345.65	1771.49
345.86	1705.96
346.07	1757.16
346.29	1615.85
346.50	1748.97
346.71	1703.91
346.92	1755.11
347.13	1869.80
347.34	1718.25
347.55	1761.25
347.76	1714.15
347.98	1677.29
348.19	1677.29
348.40	1783.78
348.61	1718.25
348.82	1843.17
349.03	1753.06
349.24	1691.62
349.45	1785.83
349.66	1619.94
349.88	1773.54
350.09	1638.38
350.30	1714.15
350.51	1851.36
350.72	1716.20
350.93	1816.55
351.14	1720.29
351.35	1742.82
351.56	1744.87
351.77	1744.87
351.99	1730.53
352.20	1830.88
352.41	1777.64
352.62	1552.36
352.83	1634.28
353.04	1740.77
353.25	1734.63
353.46	1810.40
353.67	1785.83
353.88	1603.56
354.09	1769.44
354.30	1740.77
354.52	1765.35
354.73	1742.82
354.94	1710.05
355.15	1658.85
355.36	1855.46
355.57	1671.14
355.78	1705.96
355.99	1685.48
356.20	1632.23
356.41	1787.88
356.62	1685.48
356.83	1753.06
357.04	1779.68
357.25	1568.74
357.46	1660.90
357.68	1705.96
357.89	1701.86
358.10	1814.50
358.31	1615.85
358.52	1640.42
358.73	1640.42
358.94	1644.52
359.15	1642.47
359.36	1765.35
359.57	1660.90
359.78	1667.05
359.99	1775.59
360.20	1642.47
360.41	1665.00
360.62	1685.48
360.83	1654.76
361.04	1705.96
361.25	1693.67
361.46	1837.03
361.67	1703.91
361.88	1740.77
362.09	1701.86
362.30	1650.66
362.51	1679.33
362.72	1675.24
362.93	1712.10
363.14	1734.63
363.35	1755.11
363.56	1673.19
363.78	1755.11
363.99	1789.92
364.20	1648.61
364.41	1660.90
364.62	1837.03
364.83	1755.11
365.04	1689.57
365.25	1738.73
365.46	1814.50
365.67	1669.09
365.88	1624.04
366.09	1724.39
366.30	1593.32
366.51	1675.24
366.72	1611.75
366.93	1714.15
367.14	1734.63
367.35	1810.40
367.56	1759.21
367.77	1781.73
367.98	1689.57
368.18	1757.16
368.39	1730.53
368.60	1697.77
368.81	1757.16
369.02	1728.49
369.23	1667.05
369.44	1570.79
369.65	1626.09
369.86	1722.34
370.07	1703.91
370.28	1607.66
370.49	1722.34
370.70	1763.30
370.91	1652.71
371.12	1585.13
371.33	1748.97
371.54	1609.70
371.75	1802.21
371.96	1576.94
372.17	1755.11
372.38	1724.39
372.59	1757.16
372.80	1642.47
373.01	1732.58
373.22	1656.81
373.43	1712.10
373.64	1609.70
373.85	1814.50
374.06	1785.83
374.26	1761.25
374.47	1726.44
374.68	1742.82
374.89	1685.48
375.10	1660.90
375.31	1740.77
375.52	1673.19
375.73	1736.68
375.94	1572.84
376.15	1771.49
376.36	1640.42
376.57	1722.34
376.78	1638.38
376.99	1751.01
377.20	1730.53
377.40	1701.86
377.61	1751.01
377.82	1597.42
378.03	1787.88
378.24	1705.96
378.45	1753.06
378.66	1718.25
378.87	1587.18
379.08	1611.75
379.29	1656.81
379.50	1771.49
379.71	1630.18
379.91	1722.34
380.12	1730.53
380.33	1650.66
380.54	1714.15
380.75	1732.58
380.96	1605.61
381.17	1724.39
381.38	1685.48
381.59	1742.82
381.80	1724.39
382.00	1787.88
382.21	1742.82
382.42	1859.56
382.63	1861.60
382.84	1812.45
383.05	1791.97
383.26	1794.02
383.47	1724.39
383.68	1740.77
383.88	1732.58
384.09	1767.40
384.30	1863.65
384.51	1730.53
384.72	1687.53
384.93	1621.99
385.14	1681.38
385.35	1746.92
385.55	1685.48
385.76	1763.30
385.97	1683.43
386.18	1662.95
386.39	1615.85
386.60	1712.10
386.81	1714.15
387.02	1654.76
387.22	1650.66
387.43	1730.53
387.64	1753.06
387.85	1845.22
388.06	2174.94
388.27	4261.82
388.48	6780.82
388.68	8208.26
388.89	9729.90
389.10	9785.19
389.31	8572.80
389.52	7636.88
389.73	6760.34
389.93	6225.82
390.14	5935.01
390.35	5236.66
390.56	4405.18
390.77	3821.51
390.98	3014.61
391.18	2478.04
391.39	2201.57
391.60	1828.84
391.81	1832.93
392.02	1656.81
392.23	1865.70
392.43	1718.25
392.64	1816.55
392.85	1703.91
393.06	1748.97
393.27	1732.58
393.47	1673.19
393.68	1669.09
393.89	1693.67
394.10	1775.59
394.31	1695.72
394.52	1617.90
394.72	1626.09
394.93	1816.55
395.14	1607.66
395.35	1808.36
395.56	1736.68
395.76	1689.57
395.97	1804.26
396.18	1851.36
396.39	1828.84
396.60	2072.54
396.80	1906.66
397.01	1882.08
397.22	1796.07
397.43	1806.31
397.64	1738.73
397.84	1763.30
398.05	1841.12
398.26	1755.11
398.47	1763.30
398.67	1714.15
398.88	1701.86
399.09	1769.44
399.30	1697.77
399.51	1656.81
399.71	1675.24
399.92	1603.56
400.13	1714.15
400.34	1656.81
400.54	1665.00
400.75	1726.44
400.96	1730.53
401.17	1888.23
401.37	1726.44
401.58	1665.00
401.79	1796.07
402.00	1918.95
402.21	1980.39
402.41	2015.20
402.62	1959.91
402.83	2062.30
403.04	1986.53
403.24	1947.62
403.45	1884.13
403.66	1880.04
403.87	1875.94
404.07	1953.76
404.28	1888.23
404.49	1865.70
404.70	1730.53
404.90	1771.49
405.11	1728.49
405.32	1759.21
405.52	1728.49
405.73	1755.11
405.94	1636.33
406.15	1757.16
406.35	1732.58
406.56	1755.11
406.77	1673.19
406.98	1765.35
407.18	1652.71
407.39	1843.17
407.60	1699.81
407.80	1812.45
408.01	1705.96
408.22	1730.53
408.43	1671.14
408.63	1679.33
408.84	1828.84
409.05	1837.03
409.25	1562.60
409.46	1640.42
409.67	1628.14
409.88	1642.47
410.08	1708.01
410.29	1599.46
410.50	1781.73
410.70	1681.38
410.91	1652.71
411.12	1658.85
411.32	1759.21
411.53	1714.15
411.74	1773.54
411.95	1837.03
412.15	1681.38
412.36	1826.79
412.57	1828.84
412.77	1812.45
412.98	1621.99
413.19	1669.09
413.39	1738.73
413.60	1820.64
413.81	1828.84
414.01	1613.80
414.22	1814.50
414.43	1753.06
414.63	1619.94
414.84	1757.16
415.05	1746.92
415.25	1628.14
415.46	1751.01
415.67	1669.09
415.87	1742.82
416.08	1734.63
416.29	1697.77
416.49	1724.39
416.70	1591.27
416.91	1769.44
417.11	1691.62
417.32	1705.96
417.53	1791.97
417.73	1716.20
417.94	1673.19
418.15	1675.24
418.35	1716.20
418.56	1683.43
418.77	1865.70
418.97	1652.71
419.18	1718.25
419.38	1597.42
419.59	1708.01
419.80	1824.74
420.00	1662.95
420.21	1746.92
420.42	1728.49
420.62	1765.35
420.83	1583.08
421.04	1683.43
421.24	1669.09
421.45	1724.39
421.65	1734.63
421.86	1699.81
422.07	1834.98
422.27	1767.40
422.48	1734.63
422.69	1619.94
422.89	1693.67
423.10	1716.20
423.30	1607.66
423.51	1738.73
423.72	1675.24
423.92	1728.49
424.13	1617.90
424.33	1701.86
424.54	1716.20
424.75	1644.52
424.95	1820.64
425.16	1699.81
425.36	1665.00
425.57	1822.69
425.78	1789.92
425.98	1787.88
426.19	1716.20
426.39	1619.94
426.60	1705.96
426.81	1787.88
427.01	1777.64
427.22	1714.15
427.42	1683.43
427.63	1660.90
427.83	1765.35
428.04	1839.08
428.25	1787.88
428.45	1773.54
428.66	1767.40
428.86	1730.53
429.07	1722.34
429.28	1572.84
429.48	1726.44
429.69	1771.49
429.89	1753.06
430.10	1681.38
430.30	1763.30
430.51	1822.69
430.71	1691.62
430.92	1701.86
431.13	1587.18
431.33	1724.39
431.54	1728.49
431.74	1748.97
431.95	1791.97
432.15	1632.23
432.36	1681.38
432.56	1796.07
432.77	1837.03
432.98	1773.54
433.18	1718.25
433.39	1728.49
433.59	1662.95
433.80	1796.07
434.00	1839.08
434.21	1669.09
434.41	1689.57
434.62	1763.30
434.82	1679.33
435.03	1720.29
435.23	1714.15
435.44	1654.76
435.64	1665.00
435.85	1718.25
436.06	1800.16
436.26	1757.16
436.47	1695.72
436.67	1611.75
436.88	1740.77
437.08	1714.15
437.29	1802.21
437.49	1714.15
437.70	1726.44
437.90	1722.34
438.11	1880.04
438.31	1775.59
438.52	1877.99
438.72	1701.86
438.93	1902.56
439.13	1796.07
439.34	1853.41
439.54	1744.87
439.75	1748.97
439.95	1783.78
440.16	1701.86
440.36	1667.05
440.57	1818.60
440.77	1671.14
440.98	1744.87
441.18	1744.87
441.39	1636.33
441.59	1662.95
441.80	1816.55
442.00	1685.48
442.21	1785.83
442.41	1638.38
442.62	1755.11
442.82	1646.57
443.02	1777.64
443.23	1699.81
443.43	1699.81
443.64	1769.44
443.84	1660.90
444.05	1882.08
444.25	1708.01
444.46	1714.15
444.66	1806.31
444.87	1851.36
445.07	1597.42
445.28	1783.78
445.48	1781.73
445.69	1767.40
445.89	1873.89
446.09	1751.01
446.30	1945.57
446.50	2666.46
446.71	3760.07
446.91	4270.01
447.12	4808.63
447.32	4677.56
447.53	4245.44
447.73	3909.57
447.93	3547.08
448.14	3319.76
448.34	3192.78
448.55	2869.20
448.75	2805.72
448.96	2830.29
449.16	2453.47
449.36	2287.58
449.57	2017.25
449.77	1941.47
449.98	1791.97
450.18	1800.16
450.39	1802.21
450.59	1705.96
450.79	1796.07
451.00	1699.81
451.20	1753.06
451.41	1660.90
451.61	1736.68
451.81	1769.44
452.02	1691.62
452.22	1660.90
452.43	1689.57
452.63	1665.00
