SpectraSuite Data File
++++++++++++++++++++++++++++++++++++
Date: Mon Jun 06 16:47:37 CEST 2016
User: root
Dark Spectrum Present: No
Reference Spectrum Present: No
Number of Sampled Component Spectra: 1
Spectrometers: USB4C02835
Integration Time (usec): 100000 (USB4C02835)
Spectra Averaged: 1 (USB4C02835)
Boxcar Smoothing: 0 (USB4C02835)
Correct for Electrical Dark: No (USB4C02835)
Strobe/Lamp Enabled: No (USB4C02835)
Correct for Detector Non-linearity: No (USB4C02835)
Correct for Stray Light: No (USB4C02835)
Number of Pixels in Processed Spectrum: 3648
>>>>>Begin Processed Spectral Data<<<<<
177.47	1472.49
177.69	1472.49
177.91	1472.49
178.13	1468.39
178.36	1492.97
178.58	1634.28
178.80	1783.78
179.02	1550.31
179.24	1636.33
179.46	1689.57
179.68	1755.11
179.90	1662.95
180.13	1746.92
180.35	1714.15
180.57	1746.92
180.79	1763.30
181.01	1687.53
181.23	1740.77
181.45	1794.02
181.67	1691.62
181.90	1757.16
182.12	1675.24
182.34	1581.03
182.56	1769.44
182.78	1740.77
183.00	1777.64
183.22	1708.01
183.44	1611.75
183.66	1808.36
183.89	1859.56
184.11	1646.57
184.33	1724.39
184.55	1724.39
184.77	1703.91
184.99	1794.02
185.21	1646.57
185.43	1796.07
185.65	1751.01
185.87	1644.52
186.10	1834.98
186.32	1902.56
186.54	1724.39
186.76	1718.25
186.98	1740.77
187.20	1761.25
187.42	1644.52
187.64	1724.39
187.86	1798.12
188.08	1722.34
188.30	1683.43
188.52	1714.15
188.75	1732.58
188.97	1751.01
189.19	1675.24
189.41	1740.77
189.63	1722.34
189.85	1699.81
190.07	1658.85
190.29	1615.85
190.51	1751.01
190.73	1646.57
190.95	1738.73
191.17	1732.58
191.39	1613.80
191.61	1669.09
191.84	1712.10
192.06	1777.64
192.28	1652.71
192.50	1902.56
192.72	1679.33
192.94	1652.71
193.16	1751.01
193.38	1734.63
193.60	1591.27
193.82	1644.52
194.04	1789.92
194.26	1775.59
194.48	1777.64
194.70	1677.29
194.92	1642.47
195.14	1787.88
195.36	1693.67
195.58	1753.06
195.80	1693.67
196.02	1683.43
196.24	1736.68
196.46	1693.67
196.69	1691.62
196.91	1871.84
197.13	1677.29
197.35	1710.05
197.57	1824.74
197.79	1667.05
198.01	1757.16
198.23	1742.82
198.45	1656.81
198.67	1644.52
198.89	1689.57
199.11	1689.57
199.33	1710.05
199.55	1595.37
199.77	1722.34
199.99	1763.30
200.21	1724.39
200.43	1736.68
200.65	1642.47
200.87	1605.61
201.09	1687.53
201.31	1718.25
201.53	1755.11
201.75	1708.01
201.97	1738.73
202.19	1689.57
202.41	1787.88
202.63	1781.73
202.85	1726.44
203.07	1742.82
203.29	1746.92
203.51	1705.96
203.73	1626.09
203.95	1828.84
204.17	1693.67
204.39	1730.53
204.61	1648.61
204.83	1656.81
205.05	1773.54
205.27	1722.34
205.49	1814.50
205.71	1695.72
205.93	1638.38
206.15	1648.61
206.37	1769.44
206.59	1730.53
206.81	1701.86
207.03	1572.84
207.25	1611.75
207.47	1810.40
207.69	1703.91
207.91	1798.12
208.13	1837.03
208.34	1660.90
208.56	1751.01
208.78	1742.82
209.00	1607.66
209.22	1687.53
209.44	1681.38
209.66	1650.66
209.88	1806.31
210.10	1640.42
210.32	1710.05
210.54	1787.88
210.76	1732.58
210.98	1748.97
211.20	1628.14
211.42	1667.05
211.64	1818.60
211.86	1732.58
212.08	1695.72
212.30	1662.95
212.52	1710.05
212.74	1683.43
212.96	1720.29
213.17	1769.44
213.39	1816.55
213.61	1849.32
213.83	1683.43
214.05	1679.33
214.27	1820.64
214.49	1665.00
214.71	1636.33
214.93	1781.73
215.15	1667.05
215.37	1759.21
215.59	1650.66
215.81	1724.39
216.03	1761.25
216.24	1650.66
216.46	1662.95
216.68	1751.01
216.90	1751.01
217.12	1738.73
217.34	1716.20
217.56	1742.82
217.78	1794.02
218.00	1730.53
218.22	1683.43
218.44	1701.86
218.66	1746.92
218.87	1798.12
219.09	1736.68
219.31	1794.02
219.53	1839.08
219.75	1599.46
219.97	1677.29
220.19	1734.63
220.41	1665.00
220.63	1802.21
220.85	1679.33
221.06	1691.62
221.28	1716.20
221.50	1738.73
221.72	1679.33
221.94	1746.92
222.16	1673.19
222.38	1759.21
222.60	1748.97
222.82	1708.01
223.03	1783.78
223.25	1685.48
223.47	1724.39
223.69	1798.12
223.91	1753.06
224.13	1609.70
224.35	1691.62
224.57	1806.31
224.78	1746.92
225.00	1656.81
225.22	1617.90
225.44	1724.39
225.66	1705.96
225.88	1646.57
226.10	1810.40
226.32	1650.66
226.53	1732.58
226.75	1681.38
226.97	1705.96
227.19	1677.29
227.41	1673.19
227.63	1597.42
227.85	1697.77
228.06	1726.44
228.28	1703.91
228.50	1695.72
228.72	1673.19
228.94	1665.00
229.16	1544.17
229.37	1615.85
229.59	1673.19
229.81	1785.83
230.03	1695.72
230.25	1673.19
230.47	1642.47
230.69	1642.47
230.90	1681.38
231.12	1675.24
231.34	1685.48
231.56	1724.39
231.78	1658.85
232.00	1669.09
232.21	1601.51
232.43	1697.77
232.65	1556.46
232.87	1703.91
233.09	1681.38
233.30	1652.71
233.52	1736.68
233.74	1677.29
233.96	1632.23
234.18	1650.66
234.40	1640.42
234.61	1830.88
234.83	1648.61
235.05	1681.38
235.27	1867.75
235.49	1761.25
235.70	1679.33
235.92	1816.55
236.14	1662.95
236.36	1859.56
236.58	1640.42
236.79	1730.53
237.01	1642.47
237.23	1675.24
237.45	1865.70
237.67	1689.57
237.88	1705.96
238.10	1812.45
238.32	1691.62
238.54	1732.58
238.76	1734.63
238.97	1662.95
239.19	1617.90
239.41	1767.40
239.63	1800.16
239.85	1656.81
240.06	1779.68
240.28	1712.10
240.50	1691.62
240.72	1716.20
240.93	1660.90
241.15	1787.88
241.37	1671.14
241.59	1816.55
241.81	1703.91
242.02	1734.63
242.24	1681.38
242.46	1761.25
242.68	1708.01
242.89	1714.15
243.11	1791.97
243.33	1726.44
243.55	1734.63
243.76	1734.63
243.98	1665.00
244.20	1726.44
244.42	1763.30
244.64	1679.33
244.85	1648.61
245.07	1705.96
245.29	1660.90
245.51	1701.86
245.72	1716.20
245.94	1716.20
246.16	1767.40
246.38	1773.54
246.59	1734.63
246.81	1687.53
247.03	1705.96
247.24	1615.85
247.46	1705.96
247.68	1763.30
247.90	1789.92
248.11	1652.71
248.33	1767.40
248.55	1732.58
248.77	1734.63
248.98	1787.88
249.20	1759.21
249.42	1675.24
249.64	1767.40
249.85	1718.25
250.07	1660.90
250.29	1708.01
250.50	1744.87
250.72	1744.87
250.94	1683.43
251.16	1808.36
251.37	1800.16
251.59	1773.54
251.81	1767.40
252.02	1818.60
252.24	1679.33
252.46	1800.16
252.68	1720.29
252.89	1689.57
253.11	1677.29
253.33	1787.88
253.54	1814.50
253.76	1572.84
253.98	1656.81
254.20	1593.32
254.41	1591.27
254.63	1642.47
254.85	1669.09
255.06	1714.15
255.28	1724.39
255.50	1636.33
255.71	1644.52
255.93	1611.75
256.15	1669.09
256.36	1826.79
256.58	1624.04
256.80	1765.35
257.02	1665.00
257.23	1753.06
257.45	1693.67
257.67	1763.30
257.88	1667.05
258.10	1693.67
258.32	1705.96
258.53	1736.68
258.75	1787.88
258.97	1624.04
259.18	1738.73
259.40	1695.72
259.62	1773.54
259.83	1771.49
260.05	1685.48
260.27	1923.04
260.48	1785.83
260.70	1628.14
260.92	1720.29
261.13	1742.82
261.35	1722.34
261.57	1718.25
261.78	1607.66
262.00	1667.05
262.22	1865.70
262.43	1691.62
262.65	1658.85
262.86	1732.58
263.08	1767.40
263.30	1722.34
263.51	1591.27
263.73	1615.85
263.95	1763.30
264.16	1687.53
264.38	1607.66
264.60	1746.92
264.81	1714.15
265.03	1755.11
265.25	1640.42
265.46	1689.57
265.68	1765.35
265.89	1798.12
266.11	1617.90
266.33	1837.03
266.54	1738.73
266.76	1746.92
266.98	1679.33
267.19	1757.16
267.41	1845.22
267.62	1665.00
267.84	1578.98
268.06	1722.34
268.27	1716.20
268.49	1763.30
268.70	1789.92
268.92	1728.49
269.14	1716.20
269.35	1624.04
269.57	1708.01
269.79	1724.39
270.00	1609.70
270.22	1783.78
270.43	1689.57
270.65	1648.61
270.87	1736.68
271.08	1720.29
271.30	1701.86
271.51	1724.39
271.73	1712.10
271.95	1751.01
272.16	1726.44
272.38	1689.57
272.59	1685.48
272.81	1779.68
273.02	1761.25
273.24	1697.77
273.46	1675.24
273.67	1646.57
273.89	1662.95
274.10	1718.25
274.32	1763.30
274.54	1744.87
274.75	1665.00
274.97	1726.44
275.18	1748.97
275.40	1734.63
275.61	1732.58
275.83	1722.34
276.05	1603.56
276.26	1779.68
276.48	1708.01
276.69	1742.82
276.91	1656.81
277.12	1726.44
277.34	1724.39
277.55	1744.87
277.77	1800.16
277.99	1705.96
278.20	1601.51
278.42	1675.24
278.63	1675.24
278.85	1560.55
279.06	1605.61
279.28	1607.66
279.49	1738.73
279.71	1736.68
279.93	1832.93
280.14	1705.96
280.36	1656.81
280.57	1814.50
280.79	1662.95
281.00	1693.67
281.22	1591.27
281.43	1779.68
281.65	1638.38
281.86	1609.70
282.08	1646.57
282.29	1863.65
282.51	1679.33
282.73	1642.47
282.94	1642.47
283.16	1714.15
283.37	1816.55
283.59	1689.57
283.80	1654.76
284.02	1685.48
284.23	1728.49
284.45	1701.86
284.66	1613.80
284.88	1699.81
285.09	1648.61
285.31	1705.96
285.52	1775.59
285.74	1544.17
285.95	1685.48
286.17	1718.25
286.38	1812.45
286.60	1673.19
286.81	1687.53
287.03	1656.81
287.24	1611.75
287.46	1681.38
287.67	1748.97
287.89	1804.26
288.10	1751.01
288.32	1722.34
288.53	1767.40
288.75	1744.87
288.96	1800.16
289.18	1652.71
289.39	1695.72
289.61	1822.69
289.82	1808.36
290.04	1808.36
290.25	1595.37
290.47	1691.62
290.68	1673.19
290.90	1791.97
291.11	1648.61
291.33	1787.88
291.54	1667.05
291.76	1652.71
291.97	1808.36
292.18	1716.20
292.40	1669.09
292.61	1673.19
292.83	1818.60
293.04	1691.62
293.26	1697.77
293.47	1687.53
293.69	1626.09
293.90	1662.95
294.12	1751.01
294.33	1714.15
294.55	1726.44
294.76	1751.01
294.97	1812.45
295.19	1853.41
295.40	1730.53
295.62	1671.14
295.83	1742.82
296.05	1603.56
296.26	1765.35
296.48	1587.18
296.69	1681.38
296.90	1644.52
297.12	1882.08
297.33	1824.74
297.55	1693.67
297.76	1734.63
297.98	1796.07
298.19	1791.97
298.41	1701.86
298.62	1632.23
298.83	1796.07
299.05	1736.68
299.26	1722.34
299.48	1675.24
299.69	1820.64
299.90	1650.66
300.12	1724.39
300.33	1722.34
300.55	1751.01
300.76	1763.30
300.98	1646.57
301.19	1691.62
301.40	1689.57
301.62	1642.47
301.83	1699.81
302.05	1644.52
302.26	1748.97
302.47	1753.06
302.69	1650.66
302.90	1714.15
303.12	1556.46
303.33	1757.16
303.54	1787.88
303.76	1667.05
303.97	1781.73
304.19	1824.74
304.40	1703.91
304.61	1736.68
304.83	1816.55
305.04	1726.44
305.26	1708.01
305.47	1667.05
305.68	1732.58
305.90	1642.47
306.11	1708.01
306.33	1710.05
306.54	1730.53
306.75	1671.14
306.97	1669.09
307.18	1646.57
307.39	1681.38
307.61	1722.34
307.82	1738.73
308.04	1794.02
308.25	1728.49
308.46	1658.85
308.68	1654.76
308.89	1730.53
309.10	1796.07
309.32	1757.16
309.53	1742.82
309.74	1644.52
309.96	1767.40
310.17	1740.77
310.39	1654.76
310.60	1738.73
310.81	1654.76
311.03	1714.15
311.24	1744.87
311.45	1705.96
311.67	1759.21
311.88	1751.01
312.09	1734.63
312.31	1703.91
312.52	1712.10
312.73	1736.68
312.95	1611.75
313.16	1716.20
313.37	1753.06
313.59	1765.35
313.80	1732.58
314.01	1808.36
314.23	1708.01
314.44	1718.25
314.65	1583.08
314.87	1648.61
315.08	1697.77
315.29	1714.15
315.51	1640.42
315.72	1566.70
315.93	1824.74
316.15	1697.77
316.36	1638.38
316.57	1734.63
316.79	1746.92
317.00	1697.77
317.21	1691.62
317.43	1673.19
317.64	1699.81
317.85	1742.82
318.07	1681.38
318.28	1716.20
318.49	1796.07
318.70	1923.04
318.92	1847.27
319.13	1814.50
319.34	1865.70
319.56	1796.07
319.77	1773.54
319.98	1779.68
320.20	1730.53
320.41	1808.36
320.62	1767.40
320.83	1740.77
321.05	1859.56
321.26	1728.49
321.47	1724.39
321.69	1779.68
321.90	1513.45
322.11	1677.29
322.32	1738.73
322.54	1796.07
322.75	1656.81
322.96	1824.74
323.18	1578.98
323.39	1570.79
323.60	1693.67
323.81	1773.54
324.03	1642.47
324.24	1722.34
324.45	1720.29
324.66	1701.86
324.88	1802.21
325.09	1814.50
325.30	1751.01
325.52	1667.05
325.73	1669.09
325.94	1628.14
326.15	1660.90
326.37	1767.40
326.58	1830.88
326.79	1767.40
327.00	1662.95
327.22	1751.01
327.43	1681.38
327.64	1619.94
327.85	1765.35
328.07	1734.63
328.28	1806.31
328.49	1630.18
328.70	1695.72
328.92	1705.96
329.13	1691.62
329.34	1746.92
329.55	1798.12
329.76	1722.34
329.98	1703.91
330.19	1765.35
330.40	1761.25
330.61	1708.01
330.83	1736.68
331.04	1636.33
331.25	1701.86
331.46	1724.39
331.68	1640.42
331.89	1785.83
332.10	1716.20
332.31	1634.28
332.52	1646.57
332.74	1699.81
332.95	1642.47
333.16	1652.71
333.37	1705.96
333.58	1705.96
333.80	1673.19
334.01	1665.00
334.22	1708.01
334.43	1628.14
334.64	1695.72
334.86	1591.27
335.07	1687.53
335.28	1746.92
335.49	1695.72
335.70	1720.29
335.92	1757.16
336.13	1871.84
336.34	1697.77
336.55	1755.11
336.76	1742.82
336.98	1542.12
337.19	1679.33
337.40	1761.25
337.61	1843.17
337.82	1736.68
338.04	1740.77
338.25	1605.61
338.46	1615.85
338.67	1751.01
338.88	1642.47
339.09	1593.32
339.31	1716.20
339.52	1599.46
339.73	1581.03
339.94	1691.62
340.15	1767.40
340.36	1763.30
340.58	1720.29
340.79	1775.59
341.00	1779.68
341.21	1687.53
341.42	1853.41
341.63	1660.90
341.85	1789.92
342.06	1773.54
342.27	1714.15
342.48	1746.92
342.69	1609.70
342.90	1818.60
343.12	1734.63
343.33	1712.10
343.54	1808.36
343.75	1822.69
343.96	1751.01
344.17	1691.62
344.38	1689.57
344.60	1613.80
344.81	1677.29
345.02	1738.73
345.23	1800.16
345.44	1880.04
345.65	1767.40
345.86	1712.10
346.07	1660.90
346.29	1640.42
346.50	1757.16
346.71	1703.91
346.92	1730.53
347.13	1828.84
347.34	1646.57
347.55	1679.33
347.76	1697.77
347.98	1613.80
348.19	1681.38
348.40	1771.49
348.61	1638.38
348.82	1839.08
349.03	1755.11
349.24	1697.77
349.45	1820.64
349.66	1615.85
349.88	1738.73
350.09	1712.10
350.30	1818.60
350.51	1789.92
350.72	1693.67
350.93	1787.88
351.14	1689.57
351.35	1730.53
351.56	1744.87
351.77	1710.05
351.99	1767.40
352.20	1746.92
352.41	1761.25
352.62	1552.36
352.83	1697.77
353.04	1724.39
353.25	1607.66
353.46	1791.97
353.67	1730.53
353.88	1605.61
354.09	1722.34
354.30	1726.44
354.52	1798.12
354.73	1650.66
354.94	1628.14
355.15	1763.30
355.36	1755.11
355.57	1644.52
355.78	1759.21
355.99	1734.63
356.20	1665.00
356.41	1789.92
356.62	1697.77
356.83	1748.97
357.04	1769.44
357.25	1634.28
357.46	1683.43
357.68	1611.75
357.89	1634.28
358.10	1759.21
358.31	1734.63
358.52	1617.90
358.73	1628.14
358.94	1677.29
359.15	1644.52
359.36	1789.92
359.57	1640.42
359.78	1767.40
359.99	1724.39
360.20	1708.01
360.41	1751.01
360.62	1738.73
360.83	1720.29
361.04	1769.44
361.25	1755.11
361.46	1806.31
361.67	1816.55
361.88	1740.77
362.09	1800.16
362.30	1816.55
362.51	1646.57
362.72	1732.58
362.93	1697.77
363.14	1814.50
363.35	1714.15
363.56	1673.19
363.78	1826.79
363.99	1689.57
364.20	1701.86
364.41	1748.97
364.62	1847.27
364.83	1689.57
365.04	1714.15
365.25	1660.90
365.46	1855.46
365.67	1648.61
365.88	1665.00
366.09	1714.15
366.30	1693.67
366.51	1718.25
366.72	1716.20
366.93	1732.58
367.14	1802.21
367.35	1804.26
367.56	1714.15
367.77	1759.21
367.98	1748.97
368.18	1705.96
368.39	1746.92
368.60	1665.00
368.81	1730.53
369.02	1691.62
369.23	1771.49
369.44	1574.89
369.65	1673.19
369.86	1771.49
370.07	1781.73
370.28	1652.71
370.49	1662.95
370.70	1751.01
370.91	1638.38
371.12	1693.67
371.33	1781.73
371.54	1669.09
371.75	1777.64
371.96	1667.05
372.17	1650.66
372.38	1624.04
372.59	1787.88
372.80	1642.47
373.01	1683.43
373.22	1695.72
373.43	1699.81
373.64	1683.43
373.85	1810.40
374.06	1822.69
374.26	1748.97
374.47	1771.49
374.68	1775.59
374.89	1695.72
375.10	1701.86
375.31	1804.26
375.52	1697.77
375.73	1757.16
375.94	1644.52
376.15	1787.88
376.36	1648.61
376.57	1671.14
376.78	1669.09
376.99	1728.49
377.20	1777.64
377.40	1640.42
377.61	1779.68
377.82	1671.14
378.03	1798.12
378.24	1728.49
378.45	1705.96
378.66	1734.63
378.87	1509.35
379.08	1660.90
379.29	1656.81
379.50	1769.44
379.71	1677.29
379.91	1775.59
380.12	1677.29
380.33	1748.97
380.54	1671.14
380.75	1732.58
380.96	1716.20
381.17	1744.87
381.38	1789.92
381.59	1748.97
381.80	1759.21
382.00	1849.32
382.21	1722.34
382.42	1832.93
382.63	1769.44
382.84	1751.01
383.05	1771.49
383.26	1828.84
383.47	1804.26
383.68	1746.92
383.88	1779.68
384.09	1740.77
384.30	1832.93
384.51	1722.34
384.72	1656.81
384.93	1619.94
385.14	1660.90
385.35	1787.88
385.55	1591.27
385.76	1777.64
385.97	1808.36
386.18	1621.99
386.39	1691.62
386.60	1658.85
386.81	1763.30
387.02	1665.00
387.22	1585.13
387.43	1800.16
387.64	1814.50
387.85	1853.41
388.06	2260.96
388.27	4083.65
388.48	6739.87
388.68	8101.76
388.89	9420.66
389.10	9670.51
389.31	8515.45
389.52	7325.58
389.73	6678.43
389.93	6176.67
390.14	5949.35
390.35	5183.41
390.56	4456.38
390.77	3669.96
390.98	3057.62
391.18	2570.20
391.39	2127.84
391.60	1832.93
391.81	1929.19
392.02	1755.11
392.23	1920.99
392.43	1708.01
392.64	1816.55
392.85	1679.33
393.06	1843.17
393.27	1738.73
393.47	1687.53
393.68	1734.63
393.89	1722.34
394.10	1841.12
394.31	1761.25
394.52	1656.81
394.72	1658.85
394.93	1783.78
395.14	1705.96
395.35	1755.11
395.56	1679.33
395.76	1710.05
395.97	1785.83
396.18	1920.99
396.39	1820.64
396.60	2025.44
396.80	1820.64
397.01	1810.40
397.22	1796.07
397.43	1822.69
397.64	1712.10
397.84	1851.36
398.05	1837.03
398.26	1718.25
398.47	1728.49
398.67	1683.43
398.88	1695.72
399.09	1769.44
399.30	1619.94
399.51	1812.45
399.71	1611.75
399.92	1632.23
400.13	1732.58
400.34	1685.48
400.54	1656.81
400.75	1822.69
400.96	1681.38
401.17	1800.16
401.37	1699.81
401.58	1755.11
401.79	1763.30
402.00	1918.95
402.21	2090.98
402.41	1959.91
402.62	1982.43
402.83	1984.48
403.04	1970.15
403.24	2023.39
403.45	1927.14
403.66	1890.28
403.87	1931.23
404.07	1875.94
404.28	1865.70
404.49	1927.14
404.70	1785.83
404.90	1732.58
405.11	1726.44
405.32	1734.63
405.52	1681.38
405.73	1673.19
405.94	1673.19
406.15	1718.25
406.35	1746.92
406.56	1826.79
406.77	1671.14
406.98	1757.16
407.18	1687.53
407.39	1787.88
407.60	1636.33
407.80	1691.62
408.01	1615.85
408.22	1777.64
408.43	1714.15
408.63	1746.92
408.84	1771.49
409.05	1796.07
409.25	1677.29
409.46	1769.44
409.67	1710.05
409.88	1740.77
410.08	1744.87
410.29	1716.20
410.50	1732.58
410.70	1761.25
410.91	1646.57
411.12	1755.11
411.32	1730.53
411.53	1685.48
411.74	1763.30
411.95	1736.68
412.15	1761.25
412.36	1697.77
412.57	1837.03
412.77	1818.60
412.98	1693.67
413.19	1673.19
413.39	1740.77
413.60	1714.15
413.81	1796.07
414.01	1724.39
414.22	1710.05
414.43	1789.92
414.63	1742.82
414.84	1740.77
415.05	1697.77
415.25	1656.81
415.46	1767.40
415.67	1714.15
415.87	1658.85
416.08	1728.49
416.29	1677.29
416.49	1705.96
416.70	1740.77
416.91	1724.39
417.11	1732.58
417.32	1746.92
417.53	1724.39
417.73	1767.40
417.94	1718.25
418.15	1732.58
418.35	1761.25
418.56	1695.72
418.77	1832.93
418.97	1691.62
419.18	1675.24
419.38	1558.50
419.59	1726.44
419.80	1701.86
420.00	1658.85
420.21	1673.19
420.42	1812.45
420.62	1734.63
420.83	1652.71
421.04	1730.53
421.24	1689.57
421.45	1806.31
421.65	1738.73
421.86	1738.73
422.07	1734.63
422.27	1689.57
422.48	1734.63
422.69	1687.53
422.89	1763.30
423.10	1679.33
423.30	1703.91
423.51	1720.29
423.72	1787.88
423.92	1804.26
424.13	1685.48
424.33	1646.57
424.54	1796.07
424.75	1744.87
424.95	1814.50
425.16	1763.30
425.36	1662.95
425.57	1787.88
425.78	1726.44
425.98	1748.97
426.19	1705.96
426.39	1644.52
426.60	1736.68
426.81	1818.60
427.01	1748.97
427.22	1689.57
427.42	1578.98
427.63	1673.19
427.83	1810.40
428.04	1828.84
428.25	1810.40
428.45	1812.45
428.66	1785.83
428.86	1689.57
429.07	1703.91
429.28	1773.54
429.48	1675.24
429.69	1718.25
429.89	1732.58
430.10	1634.28
430.30	1791.97
430.51	1861.60
430.71	1652.71
430.92	1728.49
431.13	1734.63
431.33	1755.11
431.54	1746.92
431.74	1789.92
431.95	1820.64
432.15	1675.24
432.36	1681.38
432.56	1705.96
432.77	1851.36
432.98	1814.50
433.18	1767.40
433.39	1728.49
433.59	1701.86
433.80	1779.68
434.00	1927.14
434.21	1679.33
434.41	1689.57
434.62	1785.83
434.82	1736.68
435.03	1724.39
435.23	1683.43
435.44	1652.71
435.64	1703.91
435.85	1718.25
436.06	1738.73
436.26	1845.22
436.47	1740.77
436.67	1648.61
436.88	1720.29
437.08	1783.78
437.29	1738.73
437.49	1669.09
437.70	1796.07
437.90	1652.71
438.11	1869.80
438.31	1777.64
438.52	1851.36
438.72	1855.46
438.93	1920.99
439.13	1761.25
439.34	1783.78
439.54	1779.68
439.75	1783.78
439.95	1816.55
440.16	1671.14
440.36	1726.44
440.57	1736.68
440.77	1691.62
440.98	1789.92
441.18	1791.97
441.39	1652.71
441.59	1689.57
441.80	1800.16
442.00	1728.49
442.21	1814.50
442.41	1681.38
442.62	1679.33
442.82	1708.01
443.02	1693.67
443.23	1757.16
443.43	1601.51
443.64	1779.68
443.84	1710.05
444.05	1791.97
444.25	1818.60
444.46	1767.40
444.66	1757.16
444.87	1771.49
445.07	1748.97
445.28	1693.67
445.48	1742.82
445.69	1837.03
445.89	1830.88
446.09	1757.16
446.30	2095.07
446.50	2684.89
446.71	3643.34
446.91	4327.36
447.12	4710.33
447.32	4820.92
447.53	4159.42
447.73	3864.52
447.93	3512.27
448.14	3235.79
448.34	3229.65
448.55	2947.03
448.75	2772.95
448.96	2725.85
449.16	2428.89
449.36	2293.72
449.57	2088.93
449.77	1841.12
449.98	1751.01
450.18	1779.68
450.39	1812.45
450.59	1748.97
450.79	1751.01
451.00	1681.38
451.20	1816.55
451.41	1691.62
451.61	1804.26
451.81	1699.81
452.02	1669.09
452.22	1703.91
452.43	1710.05
452.63	1699.81
