SpectraSuite Data File
++++++++++++++++++++++++++++++++++++
Date: Mon Jun 06 14:20:17 CEST 2016
User: root
Dark Spectrum Present: No
Reference Spectrum Present: No
Number of Sampled Component Spectra: 1
Spectrometers: USB4C02835
Integration Time (usec): 100000 (USB4C02835)
Spectra Averaged: 1 (USB4C02835)
Boxcar Smoothing: 0 (USB4C02835)
Correct for Electrical Dark: No (USB4C02835)
Strobe/Lamp Enabled: No (USB4C02835)
Correct for Detector Non-linearity: No (USB4C02835)
Correct for Stray Light: No (USB4C02835)
Number of Pixels in Processed Spectrum: 3648
>>>>>Begin Processed Spectral Data<<<<<
177.47	1501.16
177.69	1501.16
177.91	1501.16
178.13	1464.30
178.36	1443.82
178.58	1640.42
178.80	1806.31
179.02	1650.66
179.24	1619.94
179.46	1640.42
179.68	1726.44
179.90	1722.34
180.13	1697.77
180.35	1560.55
180.57	1705.96
180.79	1806.31
181.01	1687.53
181.23	1726.44
181.45	1744.87
181.67	1693.67
181.90	1765.35
182.12	1738.73
182.34	1656.81
182.56	1763.30
182.78	1746.92
183.00	1675.24
183.22	1683.43
183.44	1624.04
183.66	1873.89
183.89	1769.44
184.11	1720.29
184.33	1718.25
184.55	1722.34
184.77	1652.71
184.99	1757.16
185.21	1640.42
185.43	1828.84
185.65	1662.95
185.87	1724.39
186.10	1791.97
186.32	1832.93
186.54	1693.67
186.76	1699.81
186.98	1746.92
187.20	1712.10
187.42	1656.81
187.64	1714.15
187.86	1726.44
188.08	1746.92
188.30	1591.27
188.52	1695.72
188.75	1759.21
188.97	1834.98
189.19	1695.72
189.41	1679.33
189.63	1726.44
189.85	1771.49
190.07	1656.81
190.29	1585.13
190.51	1755.11
190.73	1615.85
190.95	1744.87
191.17	1714.15
191.39	1636.33
191.61	1685.48
191.84	1665.00
192.06	1738.73
192.28	1677.29
192.50	1927.14
192.72	1740.77
192.94	1681.38
193.16	1683.43
193.38	1722.34
193.60	1630.18
193.82	1611.75
194.04	1779.68
194.26	1753.06
194.48	1624.04
194.70	1669.09
194.92	1662.95
195.14	1800.16
195.36	1767.40
195.58	1718.25
195.80	1699.81
196.02	1613.80
196.24	1703.91
196.46	1742.82
196.69	1658.85
196.91	1867.75
197.13	1609.70
197.35	1718.25
197.57	1816.55
197.79	1757.16
198.01	1736.68
198.23	1703.91
198.45	1740.77
198.67	1673.19
198.89	1708.01
199.11	1769.44
199.33	1617.90
199.55	1593.32
199.77	1632.23
199.99	1718.25
200.21	1769.44
200.43	1728.49
200.65	1636.33
200.87	1701.86
201.09	1673.19
201.31	1660.90
201.53	1816.55
201.75	1677.29
201.97	1679.33
202.19	1683.43
202.41	1730.53
202.63	1828.84
202.85	1726.44
203.07	1691.62
203.29	1693.67
203.51	1679.33
203.73	1642.47
203.95	1937.38
204.17	1667.05
204.39	1693.67
204.61	1654.76
204.83	1689.57
205.05	1779.68
205.27	1765.35
205.49	1779.68
205.71	1751.01
205.93	1591.27
206.15	1638.38
206.37	1667.05
206.59	1685.48
206.81	1718.25
207.03	1634.28
207.25	1636.33
207.47	1736.68
207.69	1699.81
207.91	1808.36
208.13	1845.22
208.34	1593.32
208.56	1632.23
208.78	1667.05
209.00	1763.30
209.22	1638.38
209.44	1677.29
209.66	1642.47
209.88	1683.43
210.10	1673.19
210.32	1632.23
210.54	1771.49
210.76	1679.33
210.98	1736.68
211.20	1595.37
211.42	1683.43
211.64	1769.44
211.86	1728.49
212.08	1669.09
212.30	1638.38
212.52	1652.71
212.74	1730.53
212.96	1675.24
213.17	1705.96
213.39	1740.77
213.61	1761.25
213.83	1660.90
214.05	1611.75
214.27	1736.68
214.49	1603.56
214.71	1712.10
214.93	1722.34
215.15	1695.72
215.37	1728.49
215.59	1683.43
215.81	1738.73
216.03	1730.53
216.24	1710.05
216.46	1705.96
216.68	1691.62
216.90	1738.73
217.12	1724.39
217.34	1728.49
217.56	1744.87
217.78	1814.50
218.00	1742.82
218.22	1730.53
218.44	1726.44
218.66	1744.87
218.87	1771.49
219.09	1605.61
219.31	1677.29
219.53	1697.77
219.75	1654.76
219.97	1689.57
220.19	1697.77
220.41	1755.11
220.63	1767.40
220.85	1722.34
221.06	1689.57
221.28	1763.30
221.50	1671.14
221.72	1689.57
221.94	1708.01
222.16	1751.01
222.38	1732.58
222.60	1691.62
222.82	1722.34
223.03	1720.29
223.25	1595.37
223.47	1783.78
223.69	1867.75
223.91	1693.67
224.13	1708.01
224.35	1665.00
224.57	1828.84
224.78	1710.05
225.00	1630.18
225.22	1656.81
225.44	1693.67
225.66	1748.97
225.88	1658.85
226.10	1761.25
226.32	1757.16
226.53	1736.68
226.75	1681.38
226.97	1720.29
227.19	1683.43
227.41	1607.66
227.63	1650.66
227.85	1644.52
228.06	1630.18
228.28	1654.76
228.50	1791.97
228.72	1619.94
228.94	1716.20
229.16	1628.14
229.37	1665.00
229.59	1716.20
229.81	1773.54
230.03	1697.77
230.25	1646.57
230.47	1593.32
230.69	1615.85
230.90	1810.40
231.12	1626.09
231.34	1720.29
231.56	1849.32
231.78	1652.71
232.00	1628.14
232.21	1722.34
232.43	1732.58
232.65	1619.94
232.87	1648.61
233.09	1599.46
233.30	1718.25
233.52	1728.49
233.74	1658.85
233.96	1681.38
234.18	1714.15
234.40	1705.96
234.61	1763.30
234.83	1593.32
235.05	1591.27
235.27	1828.84
235.49	1843.17
235.70	1718.25
235.92	1769.44
236.14	1773.54
236.36	1843.17
236.58	1644.52
236.79	1744.87
237.01	1683.43
237.23	1646.57
237.45	1732.58
237.67	1705.96
237.88	1658.85
238.10	1781.73
238.32	1644.52
238.54	1673.19
238.76	1720.29
238.97	1613.80
239.19	1701.86
239.41	1687.53
239.63	1775.59
239.85	1673.19
240.06	1673.19
240.28	1710.05
240.50	1785.83
240.72	1683.43
240.93	1613.80
241.15	1804.26
241.37	1732.58
241.59	1742.82
241.81	1701.86
242.02	1673.19
242.24	1732.58
242.46	1740.77
242.68	1710.05
242.89	1722.34
243.11	1748.97
243.33	1662.95
243.55	1665.00
243.76	1777.64
243.98	1667.05
244.20	1718.25
244.42	1626.09
244.64	1650.66
244.85	1648.61
245.07	1626.09
245.29	1763.30
245.51	1816.55
245.72	1753.06
245.94	1748.97
246.16	1736.68
246.38	1708.01
246.59	1607.66
246.81	1652.71
247.03	1654.76
247.24	1601.51
247.46	1644.52
247.68	1714.15
247.90	1683.43
248.11	1693.67
248.33	1763.30
248.55	1724.39
248.77	1724.39
248.98	1757.16
249.20	1761.25
249.42	1703.91
249.64	1718.25
249.85	1736.68
250.07	1712.10
250.29	1658.85
250.50	1699.81
250.72	1640.42
250.94	1708.01
251.16	1806.31
251.37	1718.25
251.59	1685.48
251.81	1773.54
252.02	1738.73
252.24	1644.52
252.46	1763.30
252.68	1669.09
252.89	1736.68
253.11	1650.66
253.33	1865.70
253.54	1755.11
253.76	1683.43
253.98	1677.29
254.20	1695.72
254.41	1503.21
254.63	1714.15
254.85	1615.85
255.06	1673.19
255.28	1636.33
255.50	1687.53
255.71	1718.25
255.93	1701.86
256.15	1667.05
256.36	1783.78
256.58	1730.53
256.80	1679.33
257.02	1714.15
257.23	1656.81
257.45	1671.14
257.67	1693.67
257.88	1654.76
258.10	1701.86
258.32	1769.44
258.53	1724.39
258.75	1800.16
258.97	1691.62
259.18	1726.44
259.40	1703.91
259.62	1843.17
259.83	1785.83
260.05	1710.05
260.27	1916.90
260.48	1810.40
260.70	1660.90
260.92	1736.68
261.13	1791.97
261.35	1695.72
261.57	1714.15
261.78	1585.13
262.00	1642.47
262.22	1689.57
262.43	1630.18
262.65	1687.53
262.86	1697.77
263.08	1863.65
263.30	1734.63
263.51	1665.00
263.73	1640.42
263.95	1701.86
264.16	1624.04
264.38	1648.61
264.60	1714.15
264.81	1703.91
265.03	1724.39
265.25	1728.49
265.46	1757.16
265.68	1802.21
265.89	1714.15
266.11	1648.61
266.33	1802.21
266.54	1716.20
266.76	1720.29
266.98	1732.58
267.19	1746.92
267.41	1746.92
267.62	1681.38
267.84	1570.79
268.06	1759.21
268.27	1679.33
268.49	1798.12
268.70	1736.68
268.92	1689.57
269.14	1658.85
269.35	1640.42
269.57	1724.39
269.79	1712.10
270.00	1660.90
270.22	1804.26
270.43	1691.62
270.65	1673.19
270.87	1703.91
271.08	1791.97
271.30	1763.30
271.51	1712.10
271.73	1798.12
271.95	1832.93
272.16	1716.20
272.38	1769.44
272.59	1718.25
272.81	1621.99
273.02	1705.96
273.24	1718.25
273.46	1681.38
273.67	1632.23
273.89	1687.53
274.10	1656.81
274.32	1771.49
274.54	1742.82
274.75	1710.05
274.97	1654.76
275.18	1734.63
275.40	1714.15
275.61	1693.67
275.83	1744.87
276.05	1644.52
276.26	1621.99
276.48	1804.26
276.69	1669.09
276.91	1656.81
277.12	1724.39
277.34	1742.82
277.55	1738.73
277.77	1662.95
277.99	1675.24
278.20	1646.57
278.42	1615.85
278.63	1654.76
278.85	1695.72
279.06	1636.33
279.28	1691.62
279.49	1763.30
279.71	1718.25
279.93	1755.11
280.14	1714.15
280.36	1685.48
280.57	1695.72
280.79	1753.06
281.00	1607.66
281.22	1669.09
281.43	1712.10
281.65	1624.04
281.86	1609.70
282.08	1736.68
282.29	1789.92
282.51	1566.70
282.73	1648.61
282.94	1597.42
283.16	1791.97
283.37	1861.60
283.59	1615.85
283.80	1730.53
284.02	1640.42
284.23	1730.53
284.45	1599.46
284.66	1677.29
284.88	1679.33
285.09	1722.34
285.31	1675.24
285.52	1724.39
285.74	1662.95
285.95	1681.38
286.17	1710.05
286.38	1699.81
286.60	1644.52
286.81	1660.90
287.03	1677.29
287.24	1712.10
287.46	1691.62
287.67	1730.53
287.89	1796.07
288.10	1585.13
288.32	1689.57
288.53	1757.16
288.75	1705.96
288.96	1742.82
289.18	1624.04
289.39	1748.97
289.61	1755.11
289.82	1771.49
290.04	1789.92
290.25	1650.66
290.47	1673.19
290.68	1640.42
290.90	1755.11
291.11	1548.26
291.33	1785.83
291.54	1697.77
291.76	1656.81
291.97	1718.25
292.18	1732.58
292.40	1599.46
292.61	1673.19
292.83	1843.17
293.04	1708.01
293.26	1765.35
293.47	1695.72
293.69	1621.99
293.90	1742.82
294.12	1767.40
294.33	1718.25
294.55	1665.00
294.76	1746.92
294.97	1755.11
295.19	1773.54
295.40	1675.24
295.62	1755.11
295.83	1714.15
296.05	1699.81
296.26	1771.49
296.48	1660.90
296.69	1669.09
296.90	1718.25
297.12	1722.34
297.33	1753.06
297.55	1740.77
297.76	1783.78
297.98	1738.73
298.19	1693.67
298.41	1665.00
298.62	1652.71
298.83	1814.50
299.05	1699.81
299.26	1603.56
299.48	1675.24
299.69	1789.92
299.90	1656.81
300.12	1562.60
300.33	1800.16
300.55	1714.15
300.76	1697.77
300.98	1662.95
301.19	1732.58
301.40	1720.29
301.62	1658.85
301.83	1757.16
302.05	1724.39
302.26	1683.43
302.47	1617.90
302.69	1654.76
302.90	1671.14
303.12	1628.14
303.33	1738.73
303.54	1816.55
303.76	1642.47
303.97	1705.96
304.19	1757.16
304.40	1665.00
304.61	1722.34
304.83	1753.06
305.04	1767.40
305.26	1746.92
305.47	1587.18
305.68	1640.42
305.90	1652.71
306.11	1777.64
306.33	1675.24
306.54	1689.57
306.75	1636.33
306.97	1658.85
307.18	1636.33
307.39	1689.57
307.61	1798.12
307.82	1738.73
308.04	1742.82
308.25	1605.61
308.46	1722.34
308.68	1687.53
308.89	1718.25
309.10	1689.57
309.32	1652.71
309.53	1683.43
309.74	1777.64
309.96	1660.90
310.17	1781.73
310.39	1671.14
310.60	1771.49
310.81	1716.20
311.03	1632.23
311.24	1775.59
311.45	1722.34
311.67	1771.49
311.88	1767.40
312.09	1640.42
312.31	1658.85
312.52	1775.59
312.73	1642.47
312.95	1642.47
313.16	1656.81
313.37	1757.16
313.59	1789.92
313.80	1763.30
314.01	1746.92
314.23	1681.38
314.44	1693.67
314.65	1578.98
314.87	1636.33
315.08	1624.04
315.29	1677.29
315.51	1642.47
315.72	1646.57
315.93	1791.97
316.15	1703.91
316.36	1640.42
316.57	1742.82
316.79	1726.44
317.00	1595.37
317.21	1779.68
317.43	1685.48
317.64	1667.05
317.85	1687.53
318.07	1587.18
318.28	1732.58
318.49	1845.22
318.70	1988.58
318.92	1841.12
319.13	1873.89
319.34	1882.08
319.56	1882.08
319.77	1777.64
319.98	1810.40
320.20	1710.05
320.41	1751.01
320.62	1708.01
320.83	1624.04
321.05	1816.55
321.26	1714.15
321.47	1720.29
321.69	1789.92
321.90	1597.42
322.11	1687.53
322.32	1675.24
322.54	1746.92
322.75	1687.53
322.96	1837.03
323.18	1644.52
323.39	1599.46
323.60	1642.47
323.81	1746.92
324.03	1660.90
324.24	1691.62
324.45	1718.25
324.66	1566.70
324.88	1722.34
325.09	1669.09
325.30	1671.14
325.52	1660.90
325.73	1677.29
325.94	1583.08
326.15	1587.18
326.37	1689.57
326.58	1693.67
326.79	1728.49
327.00	1677.29
327.22	1699.81
327.43	1632.23
327.64	1736.68
327.85	1691.62
328.07	1726.44
328.28	1814.50
328.49	1681.38
328.70	1691.62
328.92	1634.28
329.13	1732.58
329.34	1740.77
329.55	1736.68
329.76	1753.06
329.98	1705.96
330.19	1777.64
330.40	1703.91
330.61	1636.33
330.83	1675.24
331.04	1667.05
331.25	1771.49
331.46	1689.57
331.68	1617.90
331.89	1763.30
332.10	1728.49
332.31	1576.94
332.52	1673.19
332.74	1841.12
332.95	1574.89
333.16	1677.29
333.37	1699.81
333.58	1703.91
333.80	1716.20
334.01	1685.48
334.22	1628.14
334.43	1644.52
334.64	1685.48
334.86	1603.56
335.07	1593.32
335.28	1828.84
335.49	1632.23
335.70	1665.00
335.92	1742.82
336.13	1767.40
336.34	1755.11
336.55	1708.01
336.76	1773.54
336.98	1599.46
337.19	1781.73
337.40	1740.77
337.61	1814.50
337.82	1628.14
338.04	1650.66
338.25	1589.22
338.46	1708.01
338.67	1667.05
338.88	1634.28
339.09	1658.85
339.31	1683.43
339.52	1759.21
339.73	1646.57
339.94	1712.10
340.15	1775.59
340.36	1714.15
340.58	1763.30
340.79	1648.61
341.00	1708.01
341.21	1626.09
341.42	1812.45
341.63	1701.86
341.85	1740.77
342.06	1632.23
342.27	1658.85
342.48	1667.05
342.69	1640.42
342.90	1708.01
343.12	1710.05
343.33	1634.28
343.54	1718.25
343.75	1734.63
343.96	1691.62
344.17	1665.00
344.38	1683.43
344.60	1689.57
344.81	1660.90
345.02	1644.52
345.23	1779.68
345.44	1820.64
345.65	1720.29
345.86	1724.39
346.07	1669.09
346.29	1624.04
346.50	1720.29
346.71	1765.35
346.92	1761.25
347.13	1796.07
347.34	1660.90
347.55	1751.01
347.76	1697.77
347.98	1572.84
348.19	1662.95
348.40	1816.55
348.61	1699.81
348.82	1810.40
349.03	1759.21
349.24	1650.66
349.45	1812.45
349.66	1636.33
349.88	1742.82
350.09	1736.68
350.30	1787.88
350.51	1779.68
350.72	1701.86
350.93	1785.83
351.14	1656.81
351.35	1693.67
351.56	1697.77
351.77	1718.25
351.99	1712.10
352.20	1814.50
352.41	1720.29
352.62	1615.85
352.83	1667.05
353.04	1691.62
353.25	1599.46
353.46	1714.15
353.67	1753.06
353.88	1558.50
354.09	1718.25
354.30	1718.25
354.52	1775.59
354.73	1742.82
354.94	1681.38
355.15	1718.25
355.36	1673.19
355.57	1644.52
355.78	1757.16
355.99	1611.75
356.20	1638.38
356.41	1771.49
356.62	1757.16
356.83	1716.20
357.04	1851.36
357.25	1638.38
357.46	1695.72
357.68	1607.66
357.89	1619.94
358.10	1722.34
358.31	1720.29
358.52	1708.01
358.73	1636.33
358.94	1636.33
359.15	1634.28
359.36	1693.67
359.57	1650.66
359.78	1638.38
359.99	1798.12
360.20	1599.46
360.41	1665.00
360.62	1701.86
360.83	1742.82
361.04	1708.01
361.25	1767.40
361.46	1865.70
361.67	1703.91
361.88	1757.16
362.09	1738.73
362.30	1712.10
362.51	1671.14
362.72	1724.39
362.93	1710.05
363.14	1785.83
363.35	1751.01
363.56	1738.73
363.78	1722.34
363.99	1685.48
364.20	1562.60
364.41	1730.53
364.62	1738.73
364.83	1685.48
365.04	1656.81
365.25	1650.66
365.46	1814.50
365.67	1617.90
365.88	1597.42
366.09	1644.52
366.30	1669.09
366.51	1703.91
366.72	1650.66
366.93	1687.53
367.14	1658.85
367.35	1757.16
367.56	1687.53
367.77	1853.41
367.98	1710.05
368.18	1714.15
368.39	1791.97
368.60	1591.27
368.81	1748.97
369.02	1697.77
369.23	1734.63
369.44	1607.66
369.65	1687.53
369.86	1691.62
370.07	1726.44
370.28	1654.76
370.49	1687.53
370.70	1730.53
370.91	1628.14
371.12	1652.71
371.33	1708.01
371.54	1714.15
371.75	1724.39
371.96	1599.46
372.17	1693.67
372.38	1683.43
372.59	1701.86
372.80	1695.72
373.01	1687.53
373.22	1720.29
373.43	1636.33
373.64	1607.66
373.85	1828.84
374.06	1779.68
374.26	1718.25
374.47	1693.67
374.68	1755.11
374.89	1744.87
375.10	1718.25
375.31	1759.21
375.52	1679.33
375.73	1669.09
375.94	1636.33
376.15	1822.69
376.36	1683.43
376.57	1728.49
376.78	1712.10
376.99	1726.44
377.20	1744.87
377.40	1691.62
377.61	1767.40
377.82	1644.52
378.03	1787.88
378.24	1736.68
378.45	1662.95
378.66	1794.02
378.87	1589.22
379.08	1615.85
379.29	1699.81
379.50	1705.96
379.71	1738.73
379.91	1773.54
380.12	1705.96
380.33	1675.24
380.54	1683.43
380.75	1673.19
380.96	1699.81
381.17	1773.54
381.38	1738.73
381.59	1775.59
381.80	1730.53
382.00	1837.03
382.21	1675.24
382.42	1787.88
382.63	1927.14
382.84	1769.44
383.05	1679.33
383.26	1765.35
383.47	1759.21
383.68	1773.54
383.88	1761.25
384.09	1683.43
384.30	1761.25
384.51	1855.46
384.72	1681.38
384.93	1642.47
385.14	1695.72
385.35	1738.73
385.55	1585.13
385.76	1714.15
385.97	1691.62
386.18	1675.24
386.39	1613.80
386.60	1703.91
386.81	1646.57
387.02	1689.57
387.22	1632.23
387.43	1773.54
387.64	1732.58
387.85	1906.66
388.06	2242.53
388.27	4335.55
388.48	6817.69
388.68	8392.58
388.89	9574.25
389.10	9660.27
389.31	8593.28
389.52	7593.87
389.73	6770.58
389.93	6240.16
390.14	5920.68
390.35	5203.89
390.56	4435.90
390.77	3737.54
390.98	2965.46
391.18	2502.62
391.39	2156.51
391.60	1816.55
391.81	1841.12
392.02	1746.92
392.23	1796.07
392.43	1724.39
392.64	1781.73
392.85	1591.27
393.06	1820.64
393.27	1722.34
393.47	1689.57
393.68	1703.91
393.89	1757.16
394.10	1765.35
394.31	1646.57
394.52	1607.66
394.72	1652.71
394.93	1753.06
395.14	1607.66
395.35	1712.10
395.56	1675.24
395.76	1730.53
395.97	1812.45
396.18	1929.19
396.39	1867.75
396.60	2000.87
396.80	1906.66
397.01	1834.98
397.22	1818.60
397.43	1804.26
397.64	1816.55
397.84	1787.88
398.05	1832.93
398.26	1785.83
398.47	1785.83
398.67	1736.68
398.88	1802.21
399.09	1724.39
399.30	1693.67
399.51	1685.48
399.71	1665.00
399.92	1699.81
400.13	1771.49
400.34	1708.01
400.54	1785.83
400.75	1875.94
400.96	1767.40
401.17	1783.78
401.37	1785.83
401.58	1720.29
401.79	1718.25
402.00	1832.93
402.21	1982.43
402.41	1902.56
402.62	1945.57
402.83	2041.82
403.04	1998.82
403.24	2072.54
403.45	1834.98
403.66	1873.89
403.87	1843.17
404.07	1884.13
404.28	1937.38
404.49	1837.03
404.70	1753.06
404.90	1865.70
405.11	1701.86
405.32	1773.54
405.52	1650.66
405.73	1728.49
405.94	1642.47
406.15	1681.38
406.35	1669.09
406.56	1736.68
406.77	1789.92
406.98	1781.73
407.18	1648.61
407.39	1705.96
407.60	1714.15
407.80	1804.26
408.01	1640.42
408.22	1777.64
408.43	1689.57
408.63	1738.73
408.84	1726.44
409.05	1814.50
409.25	1691.62
409.46	1654.76
409.67	1671.14
409.88	1599.46
410.08	1736.68
410.29	1701.86
410.50	1759.21
410.70	1781.73
410.91	1636.33
411.12	1732.58
411.32	1638.38
411.53	1665.00
411.74	1787.88
411.95	1787.88
412.15	1808.36
412.36	1767.40
412.57	1806.31
412.77	1820.64
412.98	1703.91
413.19	1732.58
413.39	1773.54
413.60	1820.64
413.81	1794.02
414.01	1708.01
414.22	1693.67
414.43	1665.00
414.63	1767.40
414.84	1755.11
415.05	1716.20
415.25	1681.38
415.46	1818.60
415.67	1701.86
415.87	1671.14
416.08	1734.63
416.29	1685.48
416.49	1771.49
416.70	1662.95
416.91	1624.04
417.11	1697.77
417.32	1767.40
417.53	1736.68
417.73	1691.62
417.94	1697.77
418.15	1724.39
418.35	1685.48
418.56	1734.63
418.77	1863.65
418.97	1656.81
419.18	1624.04
419.38	1523.69
419.59	1734.63
419.80	1804.26
420.00	1613.80
420.21	1796.07
420.42	1794.02
420.62	1730.53
420.83	1689.57
421.04	1697.77
421.24	1716.20
421.45	1712.10
421.65	1773.54
421.86	1724.39
422.07	1703.91
422.27	1718.25
422.48	1773.54
422.69	1683.43
422.89	1730.53
423.10	1699.81
423.30	1605.61
423.51	1738.73
423.72	1705.96
423.92	1791.97
424.13	1574.89
424.33	1673.19
424.54	1808.36
424.75	1710.05
424.95	1820.64
425.16	1714.15
425.36	1644.52
425.57	1736.68
425.78	1757.16
425.98	1705.96
426.19	1748.97
426.39	1597.42
426.60	1716.20
426.81	1839.08
427.01	1650.66
427.22	1701.86
427.42	1687.53
427.63	1658.85
427.83	1798.12
428.04	1837.03
428.25	1796.07
428.45	1716.20
428.66	1767.40
428.86	1720.29
429.07	1660.90
429.28	1769.44
429.48	1683.43
429.69	1708.01
429.89	1687.53
430.10	1587.18
430.30	1746.92
430.51	1742.82
430.71	1662.95
430.92	1730.53
431.13	1667.05
431.33	1742.82
431.54	1724.39
431.74	1820.64
431.95	1828.84
432.15	1722.34
432.36	1673.19
432.56	1744.87
432.77	1828.84
432.98	1798.12
433.18	1767.40
433.39	1689.57
433.59	1685.48
433.80	1832.93
434.00	1882.08
434.21	1658.85
434.41	1671.14
434.62	1834.98
434.82	1648.61
435.03	1681.38
435.23	1681.38
435.44	1607.66
435.64	1753.06
435.85	1701.86
436.06	1800.16
436.26	1763.30
436.47	1701.86
436.67	1662.95
436.88	1650.66
437.08	1767.40
437.29	1791.97
437.49	1710.05
437.70	1761.25
437.90	1767.40
438.11	1802.21
438.31	1808.36
438.52	1837.03
438.72	1851.36
438.93	1800.16
439.13	1816.55
439.34	1849.32
439.54	1724.39
439.75	1791.97
439.95	1703.91
440.16	1679.33
440.36	1693.67
440.57	1722.34
440.77	1703.91
440.98	1695.72
441.18	1785.83
441.39	1716.20
441.59	1691.62
441.80	1789.92
442.00	1761.25
442.21	1791.97
442.41	1673.19
442.62	1810.40
442.82	1693.67
443.02	1683.43
443.23	1806.31
443.43	1708.01
443.64	1798.12
443.84	1671.14
444.05	1759.21
444.25	1771.49
444.46	1722.34
444.66	1703.91
444.87	1830.88
445.07	1615.85
445.28	1710.05
445.48	1773.54
445.69	1837.03
445.89	1918.95
446.09	1697.77
446.30	2004.96
446.50	2617.30
446.71	3745.73
446.91	4399.04
447.12	4810.68
447.32	4837.30
447.53	4364.22
447.73	3911.62
447.93	3557.32
448.14	3350.48
448.34	3229.65
448.55	3004.37
448.75	2740.18
448.96	2670.55
449.16	2418.65
449.36	2254.81
449.57	2037.73
449.77	1937.38
449.98	1738.73
450.18	1753.06
450.39	1824.74
450.59	1775.59
450.79	1763.30
451.00	1724.39
451.20	1753.06
451.41	1740.77
451.61	1755.11
451.81	1718.25
452.02	1759.21
452.22	1673.19
452.43	1667.05
452.63	1714.15
