SpectraSuite Data File
++++++++++++++++++++++++++++++++++++
Date: Mon Jun 06 16:51:37 CEST 2016
User: root
Dark Spectrum Present: No
Reference Spectrum Present: No
Number of Sampled Component Spectra: 1
Spectrometers: USB4C02835
Integration Time (usec): 100000 (USB4C02835)
Spectra Averaged: 1 (USB4C02835)
Boxcar Smoothing: 0 (USB4C02835)
Correct for Electrical Dark: No (USB4C02835)
Strobe/Lamp Enabled: No (USB4C02835)
Correct for Detector Non-linearity: No (USB4C02835)
Correct for Stray Light: No (USB4C02835)
Number of Pixels in Processed Spectrum: 3648
>>>>>Begin Processed Spectral Data<<<<<
177.47	1492.97
177.69	1492.97
177.91	1492.97
178.13	1482.73
178.36	1437.67
178.58	1705.96
178.80	1705.96
179.02	1644.52
179.24	1687.53
179.46	1662.95
179.68	1779.68
179.90	1658.85
180.13	1613.80
180.35	1708.01
180.57	1652.71
180.79	1765.35
181.01	1726.44
181.23	1822.69
181.45	1818.60
181.67	1646.57
181.90	1763.30
182.12	1660.90
182.34	1626.09
182.56	1685.48
182.78	1808.36
183.00	1652.71
183.22	1636.33
183.44	1634.28
183.66	1857.51
183.89	1755.11
184.11	1708.01
184.33	1697.77
184.55	1761.25
184.77	1716.20
184.99	1740.77
185.21	1689.57
185.43	1902.56
185.65	1728.49
185.87	1783.78
186.10	1828.84
186.32	1869.80
186.54	1757.16
186.76	1740.77
186.98	1759.21
187.20	1716.20
187.42	1740.77
187.64	1697.77
187.86	1779.68
188.08	1687.53
188.30	1679.33
188.52	1755.11
188.75	1724.39
188.97	1726.44
189.19	1697.77
189.41	1710.05
189.63	1748.97
189.85	1736.68
190.07	1636.33
190.29	1673.19
190.51	1673.19
190.73	1652.71
190.95	1804.26
191.17	1710.05
191.39	1667.05
191.61	1615.85
191.84	1662.95
192.06	1753.06
192.28	1583.08
192.50	1890.28
192.72	1695.72
192.94	1695.72
193.16	1755.11
193.38	1773.54
193.60	1632.23
193.82	1683.43
194.04	1755.11
194.26	1693.67
194.48	1689.57
194.70	1611.75
194.92	1638.38
195.14	1767.40
195.36	1679.33
195.58	1710.05
195.80	1722.34
196.02	1734.63
196.24	1685.48
196.46	1787.88
196.69	1726.44
196.91	1927.14
197.13	1585.13
197.35	1771.49
197.57	1857.51
197.79	1787.88
198.01	1800.16
198.23	1740.77
198.45	1753.06
198.67	1615.85
198.89	1742.82
199.11	1771.49
199.33	1695.72
199.55	1613.80
199.77	1652.71
199.99	1851.36
200.21	1652.71
200.43	1656.81
200.65	1640.42
200.87	1566.70
201.09	1691.62
201.31	1697.77
201.53	1742.82
201.75	1658.85
201.97	1683.43
202.19	1708.01
202.41	1697.77
202.63	1845.22
202.85	1771.49
203.07	1763.30
203.29	1769.44
203.51	1619.94
203.73	1593.32
203.95	1824.74
204.17	1712.10
204.39	1701.86
204.61	1697.77
204.83	1675.24
205.05	1748.97
205.27	1798.12
205.49	1853.41
205.71	1753.06
205.93	1597.42
206.15	1679.33
206.37	1660.90
206.59	1708.01
206.81	1626.09
207.03	1699.81
207.25	1662.95
207.47	1710.05
207.69	1667.05
207.91	1851.36
208.13	1757.16
208.34	1693.67
208.56	1734.63
208.78	1771.49
209.00	1705.96
209.22	1687.53
209.44	1705.96
209.66	1673.19
209.88	1742.82
210.10	1703.91
210.32	1644.52
210.54	1804.26
210.76	1763.30
210.98	1689.57
211.20	1619.94
211.42	1746.92
211.64	1796.07
211.86	1738.73
212.08	1736.68
212.30	1787.88
212.52	1667.05
212.74	1691.62
212.96	1679.33
213.17	1808.36
213.39	1767.40
213.61	1855.46
213.83	1646.57
214.05	1662.95
214.27	1804.26
214.49	1683.43
214.71	1630.18
214.93	1771.49
215.15	1720.29
215.37	1796.07
215.59	1613.80
215.81	1734.63
216.03	1775.59
216.24	1767.40
216.46	1732.58
216.68	1708.01
216.90	1744.87
217.12	1685.48
217.34	1675.24
217.56	1667.05
217.78	1746.92
218.00	1660.90
218.22	1775.59
218.44	1693.67
218.66	1734.63
218.87	1837.03
219.09	1720.29
219.31	1724.39
219.53	1644.52
219.75	1685.48
219.97	1667.05
220.19	1720.29
220.41	1703.91
220.63	1800.16
220.85	1798.12
221.06	1675.24
221.28	1757.16
221.50	1728.49
221.72	1740.77
221.94	1712.10
222.16	1632.23
222.38	1675.24
222.60	1824.74
222.82	1685.48
223.03	1816.55
223.25	1634.28
223.47	1753.06
223.69	1808.36
223.91	1716.20
224.13	1730.53
224.35	1716.20
224.57	1847.27
224.78	1800.16
225.00	1650.66
225.22	1669.09
225.44	1779.68
225.66	1724.39
225.88	1673.19
226.10	1710.05
226.32	1714.15
226.53	1847.27
226.75	1671.14
226.97	1687.53
227.19	1722.34
227.41	1621.99
227.63	1617.90
227.85	1658.85
228.06	1710.05
228.28	1751.01
228.50	1769.44
228.72	1660.90
228.94	1677.29
229.16	1648.61
229.37	1662.95
229.59	1685.48
229.81	1814.50
230.03	1771.49
230.25	1675.24
230.47	1675.24
230.69	1632.23
230.90	1740.77
231.12	1683.43
231.34	1712.10
231.56	1787.88
231.78	1775.59
232.00	1732.58
232.21	1632.23
232.43	1738.73
232.65	1601.51
232.87	1802.21
233.09	1658.85
233.30	1693.67
233.52	1798.12
233.74	1744.87
233.96	1683.43
234.18	1705.96
234.40	1687.53
234.61	1785.83
234.83	1656.81
235.05	1665.00
235.27	1898.47
235.49	1853.41
235.70	1683.43
235.92	1732.58
236.14	1703.91
236.36	1769.44
236.58	1654.76
236.79	1751.01
237.01	1705.96
237.23	1724.39
237.45	1816.55
237.67	1679.33
237.88	1675.24
238.10	1863.65
238.32	1646.57
238.54	1714.15
238.76	1691.62
238.97	1691.62
239.19	1705.96
239.41	1785.83
239.63	1808.36
239.85	1714.15
240.06	1714.15
240.28	1755.11
240.50	1769.44
240.72	1757.16
240.93	1665.00
241.15	1705.96
241.37	1730.53
241.59	1705.96
241.81	1773.54
242.02	1714.15
242.24	1675.24
242.46	1769.44
242.68	1681.38
242.89	1761.25
243.11	1687.53
243.33	1691.62
243.55	1761.25
243.76	1777.64
243.98	1693.67
244.20	1705.96
244.42	1646.57
244.64	1671.14
244.85	1685.48
245.07	1667.05
245.29	1714.15
245.51	1753.06
245.72	1716.20
245.94	1794.02
246.16	1648.61
246.38	1736.68
246.59	1687.53
246.81	1683.43
247.03	1642.47
247.24	1662.95
247.46	1677.29
247.68	1701.86
247.90	1679.33
248.11	1718.25
248.33	1710.05
248.55	1667.05
248.77	1736.68
248.98	1761.25
249.20	1765.35
249.42	1732.58
249.64	1808.36
249.85	1714.15
250.07	1734.63
250.29	1781.73
250.50	1771.49
250.72	1632.23
250.94	1730.53
251.16	1886.18
251.37	1679.33
251.59	1771.49
251.81	1771.49
252.02	1779.68
252.24	1617.90
252.46	1812.45
252.68	1691.62
252.89	1705.96
253.11	1587.18
253.33	1851.36
253.54	1783.78
253.76	1599.46
253.98	1736.68
254.20	1693.67
254.41	1671.14
254.63	1771.49
254.85	1699.81
255.06	1648.61
255.28	1728.49
255.50	1738.73
255.71	1665.00
255.93	1648.61
256.15	1673.19
256.36	1705.96
256.58	1665.00
256.80	1771.49
257.02	1695.72
257.23	1716.20
257.45	1710.05
257.67	1812.45
257.88	1671.14
258.10	1677.29
258.32	1681.38
258.53	1716.20
258.75	1810.40
258.97	1697.77
259.18	1710.05
259.40	1720.29
259.62	1798.12
259.83	1746.92
260.05	1742.82
260.27	1976.29
260.48	1769.44
260.70	1587.18
260.92	1658.85
261.13	1744.87
261.35	1640.42
261.57	1757.16
261.78	1611.75
262.00	1591.27
262.22	1800.16
262.43	1587.18
262.65	1671.14
262.86	1685.48
263.08	1812.45
263.30	1746.92
263.51	1587.18
263.73	1708.01
263.95	1873.89
264.16	1660.90
264.38	1724.39
264.60	1730.53
264.81	1736.68
265.03	1800.16
265.25	1734.63
265.46	1669.09
265.68	1763.30
265.89	1738.73
266.11	1726.44
266.33	1730.53
266.54	1787.88
266.76	1681.38
266.98	1748.97
267.19	1849.32
267.41	1765.35
267.62	1718.25
267.84	1591.27
268.06	1710.05
268.27	1722.34
268.49	1794.02
268.70	1839.08
268.92	1656.81
269.14	1568.74
269.35	1595.37
269.57	1697.77
269.79	1771.49
270.00	1609.70
270.22	1771.49
270.43	1689.57
270.65	1548.26
270.87	1734.63
271.08	1742.82
271.30	1716.20
271.51	1671.14
271.73	1755.11
271.95	1773.54
272.16	1693.67
272.38	1720.29
272.59	1732.58
272.81	1730.53
273.02	1691.62
273.24	1751.01
273.46	1779.68
273.67	1681.38
273.89	1730.53
274.10	1677.29
274.32	1703.91
274.54	1697.77
274.75	1703.91
274.97	1660.90
275.18	1708.01
275.40	1726.44
275.61	1673.19
275.83	1685.48
276.05	1632.23
276.26	1656.81
276.48	1779.68
276.69	1630.18
276.91	1640.42
277.12	1796.07
277.34	1718.25
277.55	1789.92
277.77	1650.66
277.99	1695.72
278.20	1697.77
278.42	1650.66
278.63	1583.08
278.85	1654.76
279.06	1595.37
279.28	1773.54
279.49	1693.67
279.71	1689.57
279.93	1755.11
280.14	1685.48
280.36	1679.33
280.57	1769.44
280.79	1777.64
281.00	1734.63
281.22	1722.34
281.43	1763.30
281.65	1589.22
281.86	1656.81
282.08	1767.40
282.29	1859.56
282.51	1695.72
282.73	1720.29
282.94	1611.75
283.16	1654.76
283.37	1853.41
283.59	1718.25
283.80	1738.73
284.02	1652.71
284.23	1761.25
284.45	1679.33
284.66	1685.48
284.88	1689.57
285.09	1773.54
285.31	1763.30
285.52	1757.16
285.74	1640.42
285.95	1787.88
286.17	1759.21
286.38	1681.38
286.60	1671.14
286.81	1617.90
287.03	1728.49
287.24	1701.86
287.46	1787.88
287.67	1667.05
287.89	1808.36
288.10	1669.09
288.32	1734.63
288.53	1783.78
288.75	1685.48
288.96	1734.63
289.18	1705.96
289.39	1720.29
289.61	1798.12
289.82	1841.12
290.04	1818.60
290.25	1628.14
290.47	1677.29
290.68	1624.04
290.90	1779.68
291.11	1648.61
291.33	1705.96
291.54	1660.90
291.76	1685.48
291.97	1775.59
292.18	1748.97
292.40	1669.09
292.61	1640.42
292.83	1783.78
293.04	1689.57
293.26	1701.86
293.47	1693.67
293.69	1695.72
293.90	1710.05
294.12	1785.83
294.33	1708.01
294.55	1734.63
294.76	1771.49
294.97	1740.77
295.19	1822.69
295.40	1656.81
295.62	1689.57
295.83	1744.87
296.05	1585.13
296.26	1767.40
296.48	1673.19
296.69	1652.71
296.90	1658.85
297.12	1804.26
297.33	1779.68
297.55	1742.82
297.76	1753.06
297.98	1687.53
298.19	1699.81
298.41	1734.63
298.62	1730.53
298.83	1816.55
299.05	1701.86
299.26	1683.43
299.48	1675.24
299.69	1660.90
299.90	1732.58
300.12	1671.14
300.33	1718.25
300.55	1724.39
300.76	1753.06
300.98	1703.91
301.19	1816.55
301.40	1691.62
301.62	1626.09
301.83	1687.53
302.05	1671.14
302.26	1683.43
302.47	1789.92
302.69	1685.48
302.90	1757.16
303.12	1585.13
303.33	1732.58
303.54	1800.16
303.76	1730.53
303.97	1654.76
304.19	1722.34
304.40	1703.91
304.61	1726.44
304.83	1777.64
305.04	1794.02
305.26	1746.92
305.47	1640.42
305.68	1765.35
305.90	1640.42
306.11	1781.73
306.33	1705.96
306.54	1689.57
306.75	1640.42
306.97	1734.63
307.18	1636.33
307.39	1675.24
307.61	1687.53
307.82	1689.57
308.04	1734.63
308.25	1720.29
308.46	1724.39
308.68	1642.47
308.89	1732.58
309.10	1789.92
309.32	1736.68
309.53	1763.30
309.74	1705.96
309.96	1687.53
310.17	1787.88
310.39	1638.38
310.60	1718.25
310.81	1751.01
311.03	1591.27
311.24	1714.15
311.45	1761.25
311.67	1806.31
311.88	1767.40
312.09	1718.25
312.31	1648.61
312.52	1630.18
312.73	1671.14
312.95	1695.72
313.16	1724.39
313.37	1716.20
313.59	1763.30
313.80	1765.35
314.01	1853.41
314.23	1673.19
314.44	1677.29
314.65	1585.13
314.87	1689.57
315.08	1716.20
315.29	1652.71
315.51	1538.02
315.72	1544.17
315.93	1857.51
316.15	1710.05
316.36	1648.61
316.57	1662.95
316.79	1783.78
317.00	1636.33
317.21	1734.63
317.43	1578.98
317.64	1677.29
317.85	1685.48
318.07	1671.14
318.28	1658.85
318.49	1884.13
318.70	1929.19
318.92	1787.88
319.13	1853.41
319.34	1896.42
319.56	1824.74
319.77	1742.82
319.98	1757.16
320.20	1818.60
320.41	1730.53
320.62	1746.92
320.83	1683.43
321.05	1882.08
321.26	1841.12
321.47	1763.30
321.69	1779.68
321.90	1628.14
322.11	1746.92
322.32	1724.39
322.54	1804.26
322.75	1695.72
322.96	1824.74
323.18	1636.33
323.39	1697.77
323.60	1632.23
323.81	1763.30
324.03	1757.16
324.24	1703.91
324.45	1662.95
324.66	1650.66
324.88	1763.30
325.09	1796.07
325.30	1744.87
325.52	1755.11
325.73	1734.63
325.94	1703.91
326.15	1638.38
326.37	1697.77
326.58	1728.49
326.79	1789.92
327.00	1718.25
327.22	1746.92
327.43	1658.85
327.64	1617.90
327.85	1742.82
328.07	1744.87
328.28	1787.88
328.49	1726.44
328.70	1738.73
328.92	1767.40
329.13	1714.15
329.34	1714.15
329.55	1791.97
329.76	1775.59
329.98	1673.19
330.19	1839.08
330.40	1724.39
330.61	1714.15
330.83	1708.01
331.04	1722.34
331.25	1699.81
331.46	1722.34
331.68	1730.53
331.89	1767.40
332.10	1720.29
332.31	1642.47
332.52	1693.67
332.74	1787.88
332.95	1624.04
333.16	1714.15
333.37	1757.16
333.58	1689.57
333.80	1761.25
334.01	1689.57
334.22	1671.14
334.43	1619.94
334.64	1746.92
334.86	1642.47
335.07	1667.05
335.28	1794.02
335.49	1669.09
335.70	1667.05
335.92	1773.54
336.13	1832.93
336.34	1714.15
336.55	1714.15
336.76	1740.77
336.98	1533.93
337.19	1722.34
337.40	1740.77
337.61	1738.73
337.82	1705.96
338.04	1689.57
338.25	1728.49
338.46	1734.63
338.67	1697.77
338.88	1681.38
339.09	1652.71
339.31	1675.24
339.52	1689.57
339.73	1634.28
339.94	1683.43
340.15	1677.29
340.36	1718.25
340.58	1656.81
340.79	1626.09
341.00	1681.38
341.21	1689.57
341.42	1787.88
341.63	1755.11
341.85	1746.92
342.06	1701.86
342.27	1654.76
342.48	1751.01
342.69	1619.94
342.90	1738.73
343.12	1699.81
343.33	1630.18
343.54	1763.30
343.75	1789.92
343.96	1734.63
344.17	1640.42
344.38	1669.09
344.60	1617.90
344.81	1576.94
345.02	1703.91
345.23	1720.29
345.44	1839.08
345.65	1767.40
345.86	1691.62
346.07	1705.96
346.29	1660.90
346.50	1751.01
346.71	1748.97
346.92	1857.51
347.13	1873.89
347.34	1740.77
347.55	1710.05
347.76	1736.68
347.98	1673.19
348.19	1673.19
348.40	1832.93
348.61	1675.24
348.82	1748.97
349.03	1800.16
349.24	1695.72
349.45	1828.84
349.66	1718.25
349.88	1710.05
350.09	1683.43
350.30	1757.16
350.51	1746.92
350.72	1746.92
350.93	1705.96
351.14	1638.38
351.35	1708.01
351.56	1665.00
351.77	1648.61
351.99	1689.57
352.20	1724.39
352.41	1787.88
352.62	1583.08
352.83	1677.29
353.04	1658.85
353.25	1634.28
353.46	1787.88
353.67	1712.10
353.88	1640.42
354.09	1722.34
354.30	1761.25
354.52	1744.87
354.73	1794.02
354.94	1654.76
355.15	1695.72
355.36	1845.22
355.57	1650.66
355.78	1724.39
355.99	1632.23
356.20	1761.25
356.41	1783.78
356.62	1726.44
356.83	1761.25
357.04	1787.88
357.25	1605.61
357.46	1679.33
357.68	1599.46
357.89	1603.56
358.10	1685.48
358.31	1730.53
358.52	1726.44
358.73	1662.95
358.94	1634.28
359.15	1662.95
359.36	1732.58
359.57	1714.15
359.78	1689.57
359.99	1755.11
360.20	1742.82
360.41	1732.58
360.62	1748.97
360.83	1689.57
361.04	1685.48
361.25	1810.40
361.46	1802.21
361.67	1785.83
361.88	1712.10
362.09	1785.83
362.30	1724.39
362.51	1724.39
362.72	1742.82
362.93	1791.97
363.14	1738.73
363.35	1720.29
363.56	1685.48
363.78	1755.11
363.99	1740.77
364.20	1648.61
364.41	1716.20
364.62	1806.31
364.83	1689.57
365.04	1673.19
365.25	1742.82
365.46	1830.88
365.67	1673.19
365.88	1697.77
366.09	1771.49
366.30	1662.95
366.51	1712.10
366.72	1681.38
366.93	1705.96
367.14	1775.59
367.35	1771.49
367.56	1679.33
367.77	1810.40
367.98	1648.61
368.18	1773.54
368.39	1679.33
368.60	1621.99
368.81	1742.82
369.02	1736.68
369.23	1646.57
369.44	1703.91
369.65	1689.57
369.86	1724.39
370.07	1763.30
370.28	1628.14
370.49	1714.15
370.70	1763.30
370.91	1624.04
371.12	1642.47
371.33	1775.59
371.54	1677.29
371.75	1800.16
371.96	1583.08
372.17	1665.00
372.38	1738.73
372.59	1755.11
372.80	1726.44
373.01	1714.15
373.22	1759.21
373.43	1718.25
373.64	1630.18
373.85	1832.93
374.06	1791.97
374.26	1708.01
374.47	1761.25
374.68	1837.03
374.89	1789.92
375.10	1710.05
375.31	1789.92
375.52	1624.04
375.73	1730.53
375.94	1662.95
376.15	1820.64
376.36	1632.23
376.57	1613.80
376.78	1730.53
376.99	1751.01
377.20	1763.30
377.40	1660.90
377.61	1798.12
377.82	1601.51
378.03	1779.68
378.24	1681.38
378.45	1718.25
378.66	1699.81
378.87	1673.19
379.08	1574.89
379.29	1677.29
379.50	1755.11
379.71	1689.57
379.91	1810.40
380.12	1710.05
380.33	1755.11
380.54	1644.52
380.75	1603.56
380.96	1730.53
381.17	1783.78
381.38	1736.68
381.59	1718.25
381.80	1755.11
382.00	1834.98
382.21	1757.16
382.42	1828.84
382.63	1832.93
382.84	1826.79
383.05	1806.31
383.26	1777.64
383.47	1689.57
383.68	1785.83
383.88	1791.97
384.09	1765.35
384.30	1828.84
384.51	1652.71
384.72	1705.96
384.93	1701.86
385.14	1691.62
385.35	1734.63
385.55	1628.14
385.76	1796.07
385.97	1697.77
386.18	1710.05
386.39	1677.29
386.60	1619.94
386.81	1742.82
387.02	1697.77
387.22	1626.09
387.43	1759.21
387.64	1853.41
387.85	1873.89
388.06	2254.81
388.27	4179.90
388.48	6563.74
388.68	8163.20
388.89	9619.31
389.10	10086.25
389.31	8468.35
389.52	7362.45
389.73	6688.67
389.93	6219.68
390.14	5826.47
390.35	5267.38
390.56	4511.68
390.77	3758.02
390.98	2961.36
391.18	2457.56
391.39	2109.41
391.60	1830.88
391.81	1861.60
392.02	1693.67
392.23	1837.03
392.43	1751.01
392.64	1818.60
392.85	1712.10
393.06	1830.88
393.27	1771.49
393.47	1705.96
393.68	1771.49
393.89	1728.49
394.10	1796.07
394.31	1695.72
394.52	1646.57
394.72	1693.67
394.93	1886.18
395.14	1648.61
395.35	1691.62
395.56	1648.61
395.76	1665.00
395.97	1832.93
396.18	1855.46
396.39	1886.18
396.60	2076.64
396.80	1869.80
397.01	1882.08
397.22	1767.40
397.43	1839.08
397.64	1695.72
397.84	1808.36
398.05	1826.79
398.26	1785.83
398.47	1732.58
398.67	1785.83
398.88	1730.53
399.09	1751.01
399.30	1718.25
399.51	1775.59
399.71	1718.25
399.92	1761.25
400.13	1705.96
400.34	1716.20
400.54	1671.14
400.75	1816.55
400.96	1734.63
401.17	1763.30
401.37	1683.43
401.58	1759.21
401.79	1722.34
402.00	1859.56
402.21	2029.54
402.41	1984.48
402.62	2021.35
402.83	2037.73
403.04	2074.59
403.24	2090.98
403.45	1834.98
403.66	1927.14
403.87	1906.66
404.07	1869.80
404.28	1939.43
404.49	1867.75
404.70	1787.88
404.90	1773.54
405.11	1759.21
405.32	1669.09
405.52	1665.00
405.73	1611.75
405.94	1740.77
406.15	1759.21
406.35	1769.44
406.56	1718.25
406.77	1728.49
406.98	1683.43
407.18	1667.05
407.39	1783.78
407.60	1667.05
407.80	1724.39
408.01	1728.49
408.22	1673.19
408.43	1697.77
408.63	1804.26
408.84	1730.53
409.05	1787.88
409.25	1632.23
409.46	1693.67
409.67	1626.09
409.88	1728.49
410.08	1742.82
410.29	1740.77
410.50	1705.96
410.70	1742.82
410.91	1687.53
411.12	1705.96
411.32	1773.54
411.53	1781.73
411.74	1877.99
411.95	1777.64
412.15	1812.45
412.36	1822.69
412.57	1759.21
412.77	1771.49
412.98	1834.98
413.19	1773.54
413.39	1785.83
413.60	1789.92
413.81	1744.87
414.01	1689.57
414.22	1730.53
414.43	1787.88
414.63	1708.01
414.84	1695.72
415.05	1708.01
415.25	1621.99
415.46	1767.40
415.67	1705.96
415.87	1710.05
416.08	1681.38
416.29	1621.99
416.49	1757.16
416.70	1761.25
416.91	1681.38
417.11	1665.00
417.32	1738.73
417.53	1751.01
417.73	1697.77
417.94	1724.39
418.15	1746.92
418.35	1665.00
418.56	1679.33
418.77	1900.52
418.97	1679.33
419.18	1751.01
419.38	1587.18
419.59	1724.39
419.80	1708.01
420.00	1744.87
420.21	1751.01
420.42	1777.64
420.62	1763.30
420.83	1634.28
421.04	1708.01
421.24	1621.99
421.45	1816.55
421.65	1734.63
421.86	1689.57
422.07	1689.57
422.27	1763.30
422.48	1740.77
422.69	1648.61
422.89	1685.48
423.10	1693.67
423.30	1681.38
423.51	1777.64
423.72	1720.29
423.92	1771.49
424.13	1624.04
424.33	1757.16
424.54	1724.39
424.75	1751.01
424.95	1806.31
425.16	1787.88
425.36	1685.48
425.57	1832.93
425.78	1708.01
425.98	1800.16
426.19	1665.00
426.39	1697.77
426.60	1714.15
426.81	1804.26
427.01	1673.19
427.22	1671.14
427.42	1665.00
427.63	1665.00
427.83	1683.43
428.04	1718.25
428.25	1812.45
428.45	1753.06
428.66	1779.68
428.86	1689.57
429.07	1703.91
429.28	1656.81
429.48	1669.09
429.69	1615.85
429.89	1712.10
430.10	1644.52
430.30	1712.10
430.51	1777.64
430.71	1691.62
430.92	1732.58
431.13	1669.09
431.33	1730.53
431.54	1738.73
431.74	1800.16
431.95	1916.90
432.15	1656.81
432.36	1791.97
432.56	1689.57
432.77	1839.08
432.98	1744.87
433.18	1742.82
433.39	1705.96
433.59	1724.39
433.80	1791.97
434.00	1882.08
434.21	1708.01
434.41	1705.96
434.62	1841.12
434.82	1699.81
435.03	1665.00
435.23	1757.16
435.44	1677.29
435.64	1728.49
435.85	1755.11
436.06	1800.16
436.26	1744.87
436.47	1646.57
436.67	1695.72
436.88	1687.53
437.08	1773.54
437.29	1857.51
437.49	1812.45
437.70	1826.79
437.90	1796.07
438.11	1918.95
438.31	1800.16
438.52	1859.56
438.72	1877.99
438.93	1941.47
439.13	1804.26
439.34	1853.41
439.54	1708.01
439.75	1896.42
439.95	1894.37
440.16	1755.11
440.36	1755.11
440.57	1859.56
440.77	1871.84
440.98	1722.34
441.18	1755.11
441.39	1689.57
441.59	1644.52
441.80	1904.61
442.00	1759.21
442.21	1773.54
442.41	1697.77
442.62	1777.64
442.82	1705.96
443.02	1837.03
443.23	1808.36
443.43	1667.05
443.64	1722.34
443.84	1675.24
444.05	1822.69
444.25	1695.72
444.46	1746.92
444.66	1736.68
444.87	1824.74
445.07	1683.43
445.28	1806.31
445.48	1834.98
445.69	1806.31
445.89	1939.43
446.09	1748.97
446.30	2095.07
446.50	2684.89
446.71	3723.21
446.91	4388.80
447.12	4782.01
447.32	4943.80
447.53	4368.32
447.73	3973.06
447.93	3524.55
448.14	3256.27
448.34	3172.30
448.55	2885.59
448.75	2879.44
448.96	2699.22
449.16	2539.48
449.36	2172.89
449.57	1992.67
449.77	1871.84
449.98	1759.21
450.18	1839.08
450.39	1851.36
450.59	1794.02
450.79	1714.15
451.00	1613.80
451.20	1869.80
451.41	1755.11
451.61	1845.22
451.81	1734.63
452.02	1730.53
452.22	1703.91
452.43	1746.92
452.63	1679.33
