SpectraSuite Data File
++++++++++++++++++++++++++++++++++++
Date: Mon Jun 06 14:02:57 CEST 2016
User: root
Dark Spectrum Present: No
Reference Spectrum Present: No
Number of Sampled Component Spectra: 1
Spectrometers: USB4C02835
Integration Time (usec): 100000 (USB4C02835)
Spectra Averaged: 1 (USB4C02835)
Boxcar Smoothing: 0 (USB4C02835)
Correct for Electrical Dark: No (USB4C02835)
Strobe/Lamp Enabled: No (USB4C02835)
Correct for Detector Non-linearity: No (USB4C02835)
Correct for Stray Light: No (USB4C02835)
Number of Pixels in Processed Spectrum: 3648
>>>>>Begin Processed Spectral Data<<<<<
177.47	1454.06
177.69	1454.06
177.91	1454.06
178.13	1513.45
178.36	1441.77
178.58	1648.61
178.80	1738.73
179.02	1648.61
179.24	1578.98
179.46	1738.73
179.68	1658.85
179.90	1679.33
180.13	1693.67
180.35	1644.52
180.57	1611.75
180.79	1757.16
181.01	1757.16
181.23	1746.92
181.45	1769.44
181.67	1687.53
181.90	1705.96
182.12	1570.79
182.34	1660.90
182.56	1703.91
182.78	1730.53
183.00	1705.96
183.22	1730.53
183.44	1638.38
183.66	1814.50
183.89	1753.06
184.11	1810.40
184.33	1783.78
184.55	1757.16
184.77	1761.25
184.99	1642.47
185.21	1732.58
185.43	1865.70
185.65	1693.67
185.87	1701.86
186.10	1830.88
186.32	1728.49
186.54	1832.93
186.76	1730.53
186.98	1746.92
187.20	1732.58
187.42	1656.81
187.64	1648.61
187.86	1640.42
188.08	1773.54
188.30	1675.24
188.52	1644.52
188.75	1828.84
188.97	1761.25
189.19	1689.57
189.41	1697.77
189.63	1654.76
189.85	1710.05
190.07	1523.69
190.29	1611.75
190.51	1671.14
190.73	1640.42
190.95	1746.92
191.17	1693.67
191.39	1595.37
191.61	1642.47
191.84	1607.66
192.06	1597.42
192.28	1599.46
192.50	1820.64
192.72	1712.10
192.94	1675.24
193.16	1761.25
193.38	1734.63
193.60	1701.86
193.82	1695.72
194.04	1761.25
194.26	1765.35
194.48	1691.62
194.70	1671.14
194.92	1636.33
195.14	1701.86
195.36	1667.05
195.58	1642.47
195.80	1671.14
196.02	1591.27
196.24	1701.86
196.46	1703.91
196.69	1693.67
196.91	1804.26
197.13	1656.81
197.35	1677.29
197.57	1804.26
197.79	1689.57
198.01	1796.07
198.23	1785.83
198.45	1736.68
198.67	1568.74
198.89	1599.46
199.11	1730.53
199.33	1621.99
199.55	1581.03
199.77	1695.72
199.99	1763.30
200.21	1705.96
200.43	1718.25
200.65	1644.52
200.87	1572.84
201.09	1751.01
201.31	1691.62
201.53	1716.20
201.75	1732.58
201.97	1644.52
202.19	1689.57
202.41	1753.06
202.63	1800.16
202.85	1685.48
203.07	1791.97
203.29	1695.72
203.51	1658.85
203.73	1656.81
203.95	1816.55
204.17	1728.49
204.39	1662.95
204.61	1646.57
204.83	1673.19
205.05	1757.16
205.27	1740.77
205.49	1824.74
205.71	1740.77
205.93	1652.71
206.15	1662.95
206.37	1691.62
206.59	1699.81
206.81	1689.57
207.03	1640.42
207.25	1648.61
207.47	1753.06
207.69	1748.97
207.91	1708.01
208.13	1828.84
208.34	1695.72
208.56	1658.85
208.78	1695.72
209.00	1597.42
209.22	1691.62
209.44	1718.25
209.66	1697.77
209.88	1693.67
210.10	1761.25
210.32	1742.82
210.54	1761.25
210.76	1669.09
210.98	1712.10
211.20	1619.94
211.42	1689.57
211.64	1771.49
211.86	1722.34
212.08	1783.78
212.30	1681.38
212.52	1740.77
212.74	1697.77
212.96	1679.33
213.17	1738.73
213.39	1796.07
213.61	1765.35
213.83	1738.73
214.05	1613.80
214.27	1730.53
214.49	1697.77
214.71	1740.77
214.93	1783.78
215.15	1736.68
215.37	1769.44
215.59	1615.85
215.81	1718.25
216.03	1775.59
216.24	1652.71
216.46	1679.33
216.68	1708.01
216.90	1734.63
217.12	1796.07
217.34	1716.20
217.56	1669.09
217.78	1732.58
218.00	1679.33
218.22	1675.24
218.44	1738.73
218.66	1708.01
218.87	1783.78
219.09	1599.46
219.31	1744.87
219.53	1669.09
219.75	1667.05
219.97	1701.86
220.19	1734.63
220.41	1601.51
220.63	1804.26
220.85	1765.35
221.06	1693.67
221.28	1787.88
221.50	1740.77
221.72	1718.25
221.94	1712.10
222.16	1687.53
222.38	1714.15
222.60	1624.04
222.82	1681.38
223.03	1718.25
223.25	1628.14
223.47	1699.81
223.69	1847.27
223.91	1669.09
224.13	1718.25
224.35	1581.03
224.57	1808.36
224.78	1722.34
225.00	1617.90
225.22	1683.43
225.44	1740.77
225.66	1683.43
225.88	1716.20
226.10	1740.77
226.32	1679.33
226.53	1781.73
226.75	1671.14
226.97	1730.53
227.19	1714.15
227.41	1685.48
227.63	1771.49
227.85	1650.66
228.06	1748.97
228.28	1636.33
228.50	1660.90
228.72	1656.81
228.94	1679.33
229.16	1562.60
229.37	1646.57
229.59	1593.32
229.81	1830.88
230.03	1718.25
230.25	1632.23
230.47	1705.96
230.69	1595.37
230.90	1726.44
231.12	1562.60
231.34	1730.53
231.56	1763.30
231.78	1699.81
232.00	1689.57
232.21	1705.96
232.43	1656.81
232.65	1603.56
232.87	1673.19
233.09	1583.08
233.30	1615.85
233.52	1705.96
233.74	1736.68
233.96	1708.01
234.18	1714.15
234.40	1695.72
234.61	1875.94
234.83	1677.29
235.05	1689.57
235.27	1773.54
235.49	1787.88
235.70	1726.44
235.92	1767.40
236.14	1759.21
236.36	1884.13
236.58	1621.99
236.79	1734.63
237.01	1777.64
237.23	1695.72
237.45	1755.11
237.67	1628.14
237.88	1712.10
238.10	1871.84
238.32	1613.80
238.54	1689.57
238.76	1767.40
238.97	1640.42
239.19	1656.81
239.41	1814.50
239.63	1806.31
239.85	1671.14
240.06	1687.53
240.28	1716.20
240.50	1744.87
240.72	1634.28
240.93	1665.00
241.15	1748.97
241.37	1755.11
241.59	1679.33
241.81	1779.68
242.02	1671.14
242.24	1710.05
242.46	1769.44
242.68	1605.61
242.89	1742.82
243.11	1748.97
243.33	1730.53
243.55	1730.53
243.76	1714.15
243.98	1662.95
244.20	1683.43
244.42	1675.24
244.64	1722.34
244.85	1609.70
245.07	1658.85
245.29	1759.21
245.51	1660.90
245.72	1720.29
245.94	1781.73
246.16	1630.18
246.38	1783.78
246.59	1619.94
246.81	1716.20
247.03	1695.72
247.24	1593.32
247.46	1714.15
247.68	1728.49
247.90	1605.61
248.11	1714.15
248.33	1751.01
248.55	1685.48
248.77	1669.09
248.98	1761.25
249.20	1746.92
249.42	1765.35
249.64	1742.82
249.85	1695.72
250.07	1710.05
250.29	1806.31
250.50	1675.24
250.72	1597.42
250.94	1656.81
251.16	1832.93
251.37	1736.68
251.59	1748.97
251.81	1740.77
252.02	1847.27
252.24	1687.53
252.46	1839.08
252.68	1636.33
252.89	1728.49
253.11	1621.99
253.33	1771.49
253.54	1804.26
253.76	1662.95
253.98	1665.00
254.20	1757.16
254.41	1644.52
254.63	1665.00
254.85	1658.85
255.06	1701.86
255.28	1755.11
255.50	1636.33
255.71	1665.00
255.93	1654.76
256.15	1671.14
256.36	1755.11
256.58	1691.62
256.80	1744.87
257.02	1722.34
257.23	1667.05
257.45	1736.68
257.67	1740.77
257.88	1665.00
258.10	1781.73
258.32	1677.29
258.53	1681.38
258.75	1794.02
258.97	1677.29
259.18	1689.57
259.40	1628.14
259.62	1806.31
259.83	1783.78
260.05	1773.54
260.27	2029.54
260.48	1744.87
260.70	1607.66
260.92	1642.47
261.13	1769.44
261.35	1652.71
261.57	1675.24
261.78	1611.75
262.00	1611.75
262.22	1701.86
262.43	1662.95
262.65	1705.96
262.86	1693.67
263.08	1806.31
263.30	1726.44
263.51	1576.94
263.73	1748.97
263.95	1693.67
264.16	1685.48
264.38	1601.51
264.60	1744.87
264.81	1716.20
265.03	1781.73
265.25	1753.06
265.46	1683.43
265.68	1820.64
265.89	1718.25
266.11	1640.42
266.33	1699.81
266.54	1769.44
266.76	1722.34
266.98	1714.15
267.19	1783.78
267.41	1771.49
267.62	1701.86
267.84	1570.79
268.06	1779.68
268.27	1681.38
268.49	1753.06
268.70	1779.68
268.92	1710.05
269.14	1710.05
269.35	1632.23
269.57	1677.29
269.79	1722.34
270.00	1636.33
270.22	1632.23
270.43	1703.91
270.65	1658.85
270.87	1677.29
271.08	1746.92
271.30	1794.02
271.51	1673.19
271.73	1691.62
271.95	1738.73
272.16	1728.49
272.38	1724.39
272.59	1654.76
272.81	1734.63
273.02	1722.34
273.24	1675.24
273.46	1740.77
273.67	1646.57
273.89	1763.30
274.10	1675.24
274.32	1753.06
274.54	1658.85
274.75	1732.58
274.97	1632.23
275.18	1701.86
275.40	1714.15
275.61	1630.18
275.83	1773.54
276.05	1626.09
276.26	1658.85
276.48	1652.71
276.69	1746.92
276.91	1716.20
277.12	1755.11
277.34	1757.16
277.55	1769.44
277.77	1716.20
277.99	1611.75
278.20	1681.38
278.42	1605.61
278.63	1595.37
278.85	1656.81
279.06	1660.90
279.28	1730.53
279.49	1787.88
279.71	1742.82
279.93	1673.19
280.14	1697.77
280.36	1613.80
280.57	1724.39
280.79	1794.02
281.00	1634.28
281.22	1656.81
281.43	1775.59
281.65	1640.42
281.86	1669.09
282.08	1765.35
282.29	1857.51
282.51	1601.51
282.73	1626.09
282.94	1609.70
283.16	1773.54
283.37	1775.59
283.59	1738.73
283.80	1771.49
284.02	1636.33
284.23	1693.67
284.45	1697.77
284.66	1697.77
284.88	1550.31
285.09	1708.01
285.31	1708.01
285.52	1714.15
285.74	1630.18
285.95	1765.35
286.17	1687.53
286.38	1748.97
286.60	1697.77
286.81	1673.19
287.03	1740.77
287.24	1699.81
287.46	1675.24
287.67	1767.40
287.89	1767.40
288.10	1703.91
288.32	1691.62
288.53	1744.87
288.75	1683.43
288.96	1708.01
289.18	1624.04
289.39	1712.10
289.61	1705.96
289.82	1742.82
290.04	1851.36
290.25	1658.85
290.47	1742.82
290.68	1671.14
290.90	1724.39
291.11	1640.42
291.33	1740.77
291.54	1591.27
291.76	1654.76
291.97	1775.59
292.18	1759.21
292.40	1675.24
292.61	1652.71
292.83	1857.51
293.04	1730.53
293.26	1751.01
293.47	1632.23
293.69	1710.05
293.90	1701.86
294.12	1820.64
294.33	1708.01
294.55	1677.29
294.76	1851.36
294.97	1763.30
295.19	1810.40
295.40	1738.73
295.62	1708.01
295.83	1675.24
296.05	1615.85
296.26	1708.01
296.48	1619.94
296.69	1697.77
296.90	1732.58
297.12	1724.39
297.33	1812.45
297.55	1714.15
297.76	1699.81
297.98	1767.40
298.19	1738.73
298.41	1671.14
298.62	1601.51
298.83	1808.36
299.05	1642.47
299.26	1650.66
299.48	1626.09
299.69	1808.36
299.90	1667.05
300.12	1710.05
300.33	1751.01
300.55	1654.76
300.76	1763.30
300.98	1671.14
301.19	1708.01
301.40	1693.67
301.62	1652.71
301.83	1710.05
302.05	1753.06
302.26	1697.77
302.47	1773.54
302.69	1556.46
302.90	1734.63
303.12	1570.79
303.33	1705.96
303.54	1771.49
303.76	1677.29
303.97	1695.72
304.19	1763.30
304.40	1681.38
304.61	1763.30
304.83	1804.26
305.04	1755.11
305.26	1689.57
305.47	1671.14
305.68	1701.86
305.90	1607.66
306.11	1685.48
306.33	1665.00
306.54	1613.80
306.75	1572.84
306.97	1615.85
307.18	1658.85
307.39	1665.00
307.61	1734.63
307.82	1753.06
308.04	1726.44
308.25	1665.00
308.46	1681.38
308.68	1724.39
308.89	1726.44
309.10	1718.25
309.32	1822.69
309.53	1863.65
309.74	1738.73
309.96	1744.87
310.17	1736.68
310.39	1705.96
310.60	1773.54
310.81	1757.16
311.03	1603.56
311.24	1681.38
311.45	1710.05
311.67	1787.88
311.88	1621.99
312.09	1675.24
312.31	1673.19
312.52	1742.82
312.73	1673.19
312.95	1654.76
313.16	1621.99
313.37	1791.97
313.59	1734.63
313.80	1746.92
314.01	1779.68
314.23	1638.38
314.44	1705.96
314.65	1624.04
314.87	1667.05
315.08	1703.91
315.29	1638.38
315.51	1638.38
315.72	1630.18
315.93	1785.83
316.15	1728.49
316.36	1675.24
316.57	1669.09
316.79	1703.91
317.00	1656.81
317.21	1722.34
317.43	1691.62
317.64	1669.09
317.85	1607.66
318.07	1642.47
318.28	1683.43
318.49	1894.37
318.70	1984.48
318.92	1767.40
319.13	1783.78
319.34	1867.75
319.56	1800.16
319.77	1867.75
319.98	1767.40
320.20	1765.35
320.41	1665.00
320.62	1751.01
320.83	1697.77
321.05	1804.26
321.26	1730.53
321.47	1695.72
321.69	1763.30
321.90	1689.57
322.11	1716.20
322.32	1693.67
322.54	1773.54
322.75	1626.09
322.96	1853.41
323.18	1558.50
323.39	1660.90
323.60	1595.37
323.81	1746.92
324.03	1634.28
324.24	1677.29
324.45	1665.00
324.66	1675.24
324.88	1751.01
325.09	1718.25
325.30	1695.72
325.52	1738.73
325.73	1716.20
325.94	1667.05
326.15	1624.04
326.37	1636.33
326.58	1726.44
326.79	1708.01
327.00	1671.14
327.22	1720.29
327.43	1716.20
327.64	1626.09
327.85	1738.73
328.07	1726.44
328.28	1839.08
328.49	1677.29
328.70	1783.78
328.92	1746.92
329.13	1691.62
329.34	1730.53
329.55	1794.02
329.76	1748.97
329.98	1722.34
330.19	1847.27
330.40	1746.92
330.61	1775.59
330.83	1726.44
331.04	1662.95
331.25	1665.00
331.46	1728.49
331.68	1603.56
331.89	1765.35
332.10	1675.24
332.31	1677.29
332.52	1728.49
332.74	1724.39
332.95	1591.27
333.16	1693.67
333.37	1738.73
333.58	1681.38
333.80	1683.43
334.01	1593.32
334.22	1548.26
334.43	1738.73
334.64	1644.52
334.86	1619.94
335.07	1691.62
335.28	1806.31
335.49	1693.67
335.70	1687.53
335.92	1769.44
336.13	1855.46
336.34	1693.67
336.55	1742.82
336.76	1671.14
336.98	1656.81
337.19	1697.77
337.40	1841.12
337.61	1871.84
337.82	1669.09
338.04	1763.30
338.25	1648.61
338.46	1683.43
338.67	1679.33
338.88	1648.61
339.09	1640.42
339.31	1607.66
339.52	1652.71
339.73	1611.75
339.94	1683.43
340.15	1734.63
340.36	1646.57
340.58	1667.05
340.79	1640.42
341.00	1748.97
341.21	1683.43
341.42	1791.97
341.63	1677.29
341.85	1781.73
342.06	1681.38
342.27	1636.33
342.48	1697.77
342.69	1556.46
342.90	1726.44
343.12	1718.25
343.33	1703.91
343.54	1849.32
343.75	1732.58
343.96	1712.10
344.17	1677.29
344.38	1693.67
344.60	1656.81
344.81	1621.99
345.02	1669.09
345.23	1705.96
345.44	1734.63
345.65	1671.14
345.86	1783.78
346.07	1669.09
346.29	1675.24
346.50	1730.53
346.71	1681.38
346.92	1724.39
347.13	1808.36
347.34	1673.19
347.55	1701.86
347.76	1738.73
347.98	1552.36
348.19	1644.52
348.40	1804.26
348.61	1656.81
348.82	1804.26
349.03	1794.02
349.24	1658.85
349.45	1783.78
349.66	1615.85
349.88	1640.42
350.09	1730.53
350.30	1746.92
350.51	1740.77
350.72	1708.01
350.93	1718.25
351.14	1734.63
351.35	1755.11
351.56	1714.15
351.77	1667.05
351.99	1732.58
352.20	1746.92
352.41	1755.11
352.62	1601.51
352.83	1746.92
353.04	1699.81
353.25	1701.86
353.46	1785.83
353.67	1763.30
353.88	1544.17
354.09	1662.95
354.30	1724.39
354.52	1775.59
354.73	1701.86
354.94	1695.72
355.15	1691.62
355.36	1798.12
355.57	1644.52
355.78	1744.87
355.99	1619.94
356.20	1636.33
356.41	1714.15
356.62	1773.54
356.83	1624.04
357.04	1753.06
357.25	1607.66
357.46	1734.63
357.68	1583.08
357.89	1693.67
358.10	1681.38
358.31	1681.38
358.52	1748.97
358.73	1662.95
358.94	1703.91
359.15	1693.67
359.36	1740.77
359.57	1656.81
359.78	1705.96
359.99	1712.10
360.20	1714.15
360.41	1689.57
360.62	1781.73
360.83	1755.11
361.04	1697.77
361.25	1771.49
361.46	1773.54
361.67	1796.07
361.88	1744.87
362.09	1728.49
362.30	1689.57
362.51	1650.66
362.72	1687.53
362.93	1804.26
363.14	1638.38
363.35	1693.67
363.56	1611.75
363.78	1757.16
363.99	1755.11
364.20	1724.39
364.41	1730.53
364.62	1767.40
364.83	1728.49
365.04	1710.05
365.25	1722.34
365.46	1888.23
365.67	1660.90
365.88	1628.14
366.09	1656.81
366.30	1624.04
366.51	1720.29
366.72	1675.24
366.93	1714.15
367.14	1640.42
367.35	1777.64
367.56	1689.57
367.77	1802.21
367.98	1724.39
368.18	1703.91
368.39	1740.77
368.60	1615.85
368.81	1738.73
369.02	1763.30
369.23	1779.68
369.44	1591.27
369.65	1619.94
369.86	1705.96
370.07	1769.44
370.28	1615.85
370.49	1744.87
370.70	1753.06
370.91	1671.14
371.12	1634.28
371.33	1728.49
371.54	1708.01
371.75	1820.64
371.96	1548.26
372.17	1665.00
372.38	1693.67
372.59	1781.73
372.80	1681.38
373.01	1669.09
373.22	1726.44
373.43	1787.88
373.64	1675.24
373.85	1777.64
374.06	1837.03
374.26	1783.78
374.47	1689.57
374.68	1714.15
374.89	1665.00
375.10	1671.14
375.31	1716.20
375.52	1689.57
375.73	1722.34
375.94	1705.96
376.15	1798.12
376.36	1638.38
376.57	1615.85
376.78	1611.75
376.99	1703.91
377.20	1693.67
377.40	1687.53
377.61	1757.16
377.82	1605.61
378.03	1849.32
378.24	1679.33
378.45	1728.49
378.66	1708.01
378.87	1593.32
379.08	1597.42
379.29	1720.29
379.50	1697.77
379.71	1695.72
379.91	1736.68
380.12	1746.92
380.33	1734.63
380.54	1751.01
380.75	1714.15
380.96	1677.29
381.17	1765.35
381.38	1662.95
381.59	1773.54
381.80	1710.05
382.00	1877.99
382.21	1714.15
382.42	1808.36
382.63	1865.70
382.84	1763.30
383.05	1730.53
383.26	1849.32
383.47	1740.77
383.68	1736.68
383.88	1773.54
384.09	1789.92
384.30	1769.44
384.51	1705.96
384.72	1703.91
384.93	1644.52
385.14	1660.90
385.35	1761.25
385.55	1556.46
385.76	1794.02
385.97	1791.97
386.18	1578.98
386.39	1779.68
386.60	1609.70
386.81	1671.14
387.02	1689.57
387.22	1656.81
387.43	1816.55
387.64	1802.21
387.85	1855.46
388.06	2146.27
388.27	4333.50
388.48	6666.14
388.68	8327.04
388.89	9705.32
389.10	9584.49
389.31	8603.52
389.52	7425.93
389.73	6821.78
389.93	6250.40
390.14	5855.14
390.35	5167.03
390.56	4632.51
390.77	3751.88
390.98	3074.00
391.18	2537.43
391.39	2185.18
391.60	1812.45
391.81	1830.88
392.02	1671.14
392.23	1892.32
392.43	1765.35
392.64	1763.30
392.85	1724.39
393.06	1771.49
393.27	1665.00
393.47	1697.77
393.68	1761.25
393.89	1646.57
394.10	1703.91
394.31	1665.00
394.52	1615.85
394.72	1609.70
394.93	1746.92
395.14	1652.71
395.35	1677.29
395.56	1681.38
395.76	1724.39
395.97	1820.64
396.18	1859.56
396.39	1855.46
396.60	2060.26
396.80	1861.60
397.01	1796.07
397.22	1755.11
397.43	1822.69
397.64	1771.49
397.84	1810.40
398.05	1804.26
398.26	1787.88
398.47	1755.11
398.67	1794.02
398.88	1701.86
399.09	1830.88
399.30	1642.47
399.51	1757.16
399.71	1734.63
399.92	1714.15
400.13	1730.53
400.34	1705.96
400.54	1720.29
400.75	1714.15
400.96	1701.86
401.17	1812.45
401.37	1701.86
401.58	1734.63
401.79	1681.38
402.00	1906.66
402.21	1976.29
402.41	1931.23
402.62	1978.34
402.83	1941.47
403.04	1986.53
403.24	2144.22
403.45	1783.78
403.66	1898.47
403.87	1916.90
404.07	1904.61
404.28	1884.13
404.49	1939.43
404.70	1814.50
404.90	1834.98
405.11	1757.16
405.32	1726.44
405.52	1568.74
405.73	1654.76
405.94	1705.96
406.15	1679.33
406.35	1695.72
406.56	1773.54
406.77	1759.21
406.98	1724.39
407.18	1687.53
407.39	1746.92
407.60	1695.72
407.80	1734.63
408.01	1650.66
408.22	1689.57
408.43	1677.29
408.63	1759.21
408.84	1685.48
409.05	1806.31
409.25	1681.38
409.46	1640.42
409.67	1650.66
409.88	1656.81
410.08	1742.82
410.29	1636.33
410.50	1785.83
410.70	1691.62
410.91	1734.63
411.12	1712.10
411.32	1714.15
411.53	1671.14
411.74	1724.39
411.95	1808.36
412.15	1724.39
412.36	1761.25
412.57	1814.50
412.77	1757.16
412.98	1693.67
413.19	1662.95
413.39	1789.92
413.60	1759.21
413.81	1812.45
414.01	1720.29
414.22	1763.30
414.43	1804.26
414.63	1695.72
414.84	1822.69
415.05	1671.14
415.25	1613.80
415.46	1794.02
415.67	1660.90
415.87	1720.29
416.08	1701.86
416.29	1685.48
416.49	1783.78
416.70	1656.81
416.91	1710.05
417.11	1685.48
417.32	1679.33
417.53	1789.92
417.73	1755.11
417.94	1734.63
418.15	1703.91
418.35	1705.96
418.56	1683.43
418.77	1861.60
418.97	1695.72
419.18	1636.33
419.38	1540.07
419.59	1689.57
419.80	1869.80
420.00	1613.80
420.21	1753.06
420.42	1734.63
420.62	1732.58
420.83	1681.38
421.04	1697.77
421.24	1710.05
421.45	1796.07
421.65	1716.20
421.86	1677.29
422.07	1746.92
422.27	1740.77
422.48	1722.34
422.69	1626.09
422.89	1697.77
423.10	1685.48
423.30	1626.09
423.51	1767.40
423.72	1685.48
423.92	1724.39
424.13	1650.66
424.33	1681.38
424.54	1773.54
424.75	1642.47
424.95	1845.22
425.16	1667.05
425.36	1744.87
425.57	1757.16
425.78	1726.44
425.98	1798.12
426.19	1646.57
426.39	1644.52
426.60	1722.34
426.81	1755.11
427.01	1613.80
427.22	1648.61
427.42	1603.56
427.63	1679.33
427.83	1763.30
428.04	1748.97
428.25	1826.79
428.45	1726.44
428.66	1755.11
428.86	1718.25
429.07	1701.86
429.28	1718.25
429.48	1765.35
429.69	1675.24
429.89	1742.82
430.10	1683.43
430.30	1669.09
430.51	1775.59
430.71	1632.23
430.92	1695.72
431.13	1697.77
431.33	1796.07
431.54	1751.01
431.74	1757.16
431.95	1810.40
432.15	1644.52
432.36	1710.05
432.56	1771.49
432.77	1808.36
432.98	1779.68
433.18	1693.67
433.39	1673.19
433.59	1638.38
433.80	1847.27
434.00	1853.41
434.21	1675.24
434.41	1669.09
434.62	1839.08
434.82	1693.67
435.03	1640.42
435.23	1630.18
435.44	1677.29
435.64	1712.10
435.85	1730.53
436.06	1777.64
436.26	1791.97
436.47	1701.86
436.67	1691.62
436.88	1681.38
437.08	1738.73
437.29	1761.25
437.49	1773.54
437.70	1789.92
437.90	1728.49
438.11	1908.71
438.31	1777.64
438.52	1810.40
438.72	1933.28
438.93	1912.80
439.13	1843.17
439.34	1808.36
439.54	1746.92
439.75	1820.64
439.95	1800.16
440.16	1695.72
440.36	1785.83
440.57	1697.77
440.77	1685.48
440.98	1720.29
441.18	1761.25
441.39	1697.77
441.59	1656.81
441.80	1847.27
442.00	1753.06
442.21	1769.44
442.41	1660.90
442.62	1775.59
442.82	1722.34
443.02	1720.29
443.23	1675.24
443.43	1757.16
443.64	1787.88
443.84	1656.81
444.05	1738.73
444.25	1720.29
444.46	1648.61
444.66	1728.49
444.87	1755.11
445.07	1566.70
445.28	1716.20
445.48	1710.05
445.69	1853.41
445.89	1877.99
446.09	1781.73
446.30	2035.68
446.50	2596.82
446.71	3778.50
446.91	4257.73
447.12	4695.99
447.32	4792.25
447.53	4308.93
447.73	3809.22
447.93	3526.60
448.14	3370.96
448.34	3182.54
448.55	2949.08
448.75	2807.77
448.96	2584.54
449.16	2387.93
449.36	2340.83
449.57	2115.55
449.77	1900.52
449.98	1832.93
450.18	1771.49
450.39	1898.47
450.59	1738.73
450.79	1746.92
451.00	1726.44
451.20	1789.92
451.41	1671.14
451.61	1791.97
451.81	1798.12
452.02	1738.73
452.22	1738.73
452.43	1677.29
452.63	1722.34
