SpectraSuite Data File
++++++++++++++++++++++++++++++++++++
Date: Mon Jun 06 13:18:37 CEST 2016
User: root
Dark Spectrum Present: No
Reference Spectrum Present: No
Number of Sampled Component Spectra: 1
Spectrometers: USB4C02835
Integration Time (usec): 100000 (USB4C02835)
Spectra Averaged: 1 (USB4C02835)
Boxcar Smoothing: 0 (USB4C02835)
Correct for Electrical Dark: No (USB4C02835)
Strobe/Lamp Enabled: No (USB4C02835)
Correct for Detector Non-linearity: No (USB4C02835)
Correct for Stray Light: No (USB4C02835)
Number of Pixels in Processed Spectrum: 3648
>>>>>Begin Processed Spectral Data<<<<<
177.47	1427.43
177.69	1427.43
177.91	1427.43
178.13	1497.07
178.36	1492.97
178.58	1662.95
178.80	1689.57
179.02	1671.14
179.24	1703.91
179.46	1705.96
179.68	1728.49
179.90	1710.05
180.13	1787.88
180.35	1621.99
180.57	1619.94
180.79	1787.88
181.01	1691.62
181.23	1781.73
181.45	1783.78
181.67	1712.10
181.90	1703.91
182.12	1652.71
182.34	1603.56
182.56	1728.49
182.78	1708.01
183.00	1673.19
183.22	1675.24
183.44	1636.33
183.66	1832.93
183.89	1820.64
184.11	1697.77
184.33	1665.00
184.55	1710.05
184.77	1736.68
184.99	1716.20
185.21	1748.97
185.43	1798.12
185.65	1662.95
185.87	1699.81
186.10	1779.68
186.32	1800.16
186.54	1763.30
186.76	1787.88
186.98	1665.00
187.20	1710.05
187.42	1683.43
187.64	1656.81
187.86	1783.78
188.08	1712.10
188.30	1669.09
188.52	1720.29
188.75	1775.59
188.97	1751.01
189.19	1591.27
189.41	1718.25
189.63	1703.91
189.85	1689.57
190.07	1716.20
190.29	1671.14
190.51	1744.87
190.73	1628.14
190.95	1830.88
191.17	1705.96
191.39	1624.04
191.61	1658.85
191.84	1722.34
192.06	1677.29
192.28	1689.57
192.50	1855.46
192.72	1742.82
192.94	1746.92
193.16	1759.21
193.38	1767.40
193.60	1589.22
193.82	1685.48
194.04	1722.34
194.26	1724.39
194.48	1689.57
194.70	1662.95
194.92	1669.09
195.14	1769.44
195.36	1646.57
195.58	1775.59
195.80	1769.44
196.02	1687.53
196.24	1679.33
196.46	1724.39
196.69	1662.95
196.91	1873.89
197.13	1679.33
197.35	1703.91
197.57	1767.40
197.79	1757.16
198.01	1609.70
198.23	1804.26
198.45	1722.34
198.67	1630.18
198.89	1701.86
199.11	1724.39
199.33	1599.46
199.55	1689.57
199.77	1753.06
199.99	1777.64
200.21	1638.38
200.43	1714.15
200.65	1640.42
200.87	1617.90
201.09	1777.64
201.31	1742.82
201.53	1785.83
201.75	1662.95
201.97	1718.25
202.19	1652.71
202.41	1765.35
202.63	1808.36
202.85	1753.06
203.07	1722.34
203.29	1646.57
203.51	1652.71
203.73	1632.23
203.95	1796.07
204.17	1714.15
204.39	1724.39
204.61	1744.87
204.83	1636.33
205.05	1722.34
205.27	1738.73
205.49	1787.88
205.71	1730.53
205.93	1634.28
206.15	1675.24
206.37	1697.77
206.59	1701.86
206.81	1660.90
207.03	1636.33
207.25	1634.28
207.47	1744.87
207.69	1720.29
207.91	1730.53
208.13	1798.12
208.34	1726.44
208.56	1609.70
208.78	1714.15
209.00	1642.47
209.22	1644.52
209.44	1677.29
209.66	1712.10
209.88	1685.48
210.10	1634.28
210.32	1689.57
210.54	1873.89
210.76	1705.96
210.98	1820.64
211.20	1572.84
211.42	1673.19
211.64	1751.01
211.86	1802.21
212.08	1728.49
212.30	1662.95
212.52	1708.01
212.74	1693.67
212.96	1736.68
213.17	1767.40
213.39	1748.97
213.61	1720.29
213.83	1730.53
214.05	1638.38
214.27	1714.15
214.49	1624.04
214.71	1572.84
214.93	1710.05
215.15	1701.86
215.37	1755.11
215.59	1648.61
215.81	1673.19
216.03	1775.59
216.24	1697.77
216.46	1681.38
216.68	1724.39
216.90	1767.40
217.12	1755.11
217.34	1703.91
217.56	1753.06
217.78	1818.60
218.00	1767.40
218.22	1687.53
218.44	1728.49
218.66	1728.49
218.87	1791.97
219.09	1697.77
219.31	1726.44
219.53	1755.11
219.75	1693.67
219.97	1738.73
220.19	1730.53
220.41	1683.43
220.63	1798.12
220.85	1701.86
221.06	1708.01
221.28	1781.73
221.50	1697.77
221.72	1728.49
221.94	1763.30
222.16	1785.83
222.38	1763.30
222.60	1730.53
222.82	1644.52
223.03	1722.34
223.25	1589.22
223.47	1726.44
223.69	1804.26
223.91	1746.92
224.13	1658.85
224.35	1665.00
224.57	1796.07
224.78	1798.12
225.00	1671.14
225.22	1642.47
225.44	1693.67
225.66	1785.83
225.88	1648.61
226.10	1761.25
226.32	1671.14
226.53	1877.99
226.75	1634.28
226.97	1683.43
227.19	1628.14
227.41	1566.70
227.63	1689.57
227.85	1607.66
228.06	1748.97
228.28	1691.62
228.50	1824.74
228.72	1671.14
228.94	1683.43
229.16	1634.28
229.37	1640.42
229.59	1685.48
229.81	1746.92
230.03	1714.15
230.25	1619.94
230.47	1611.75
230.69	1656.81
230.90	1779.68
231.12	1687.53
231.34	1691.62
231.56	1804.26
231.78	1654.76
232.00	1648.61
232.21	1665.00
232.43	1712.10
232.65	1630.18
232.87	1718.25
233.09	1650.66
233.30	1683.43
233.52	1716.20
233.74	1705.96
233.96	1730.53
234.18	1763.30
234.40	1710.05
234.61	1779.68
234.83	1636.33
235.05	1599.46
235.27	1826.79
235.49	1691.62
235.70	1691.62
235.92	1720.29
236.14	1710.05
236.36	1853.41
236.58	1550.31
236.79	1751.01
237.01	1667.05
237.23	1714.15
237.45	1851.36
237.67	1617.90
237.88	1660.90
238.10	1773.54
238.32	1677.29
238.54	1632.23
238.76	1736.68
238.97	1650.66
239.19	1665.00
239.41	1781.73
239.63	1791.97
239.85	1734.63
240.06	1699.81
240.28	1669.09
240.50	1703.91
240.72	1619.94
240.93	1683.43
241.15	1751.01
241.37	1712.10
241.59	1755.11
241.81	1683.43
242.02	1658.85
242.24	1769.44
242.46	1732.58
242.68	1658.85
242.89	1675.24
243.11	1746.92
243.33	1736.68
243.55	1701.86
243.76	1708.01
243.98	1574.89
244.20	1705.96
244.42	1712.10
244.64	1740.77
244.85	1544.17
245.07	1699.81
245.29	1779.68
245.51	1679.33
245.72	1687.53
245.94	1726.44
246.16	1660.90
246.38	1697.77
246.59	1683.43
246.81	1675.24
247.03	1673.19
247.24	1626.09
247.46	1634.28
247.68	1636.33
247.90	1720.29
248.11	1703.91
248.33	1771.49
248.55	1687.53
248.77	1677.29
248.98	1755.11
249.20	1796.07
249.42	1634.28
249.64	1708.01
249.85	1722.34
250.07	1636.33
250.29	1746.92
250.50	1687.53
250.72	1705.96
250.94	1759.21
251.16	1789.92
251.37	1775.59
251.59	1708.01
251.81	1755.11
252.02	1757.16
252.24	1626.09
252.46	1740.77
252.68	1687.53
252.89	1654.76
253.11	1634.28
253.33	1845.22
253.54	1832.93
253.76	1634.28
253.98	1665.00
254.20	1726.44
254.41	1624.04
254.63	1648.61
254.85	1632.23
255.06	1689.57
255.28	1681.38
255.50	1658.85
255.71	1681.38
255.93	1562.60
256.15	1761.25
256.36	1791.97
256.58	1681.38
256.80	1712.10
257.02	1742.82
257.23	1677.29
257.45	1748.97
257.67	1757.16
257.88	1626.09
258.10	1763.30
258.32	1710.05
258.53	1751.01
258.75	1830.88
258.97	1634.28
259.18	1689.57
259.40	1748.97
259.62	1873.89
259.83	1849.32
260.05	1767.40
260.27	2060.26
260.48	1726.44
260.70	1636.33
260.92	1667.05
261.13	1712.10
261.35	1726.44
261.57	1693.67
261.78	1591.27
262.00	1675.24
262.22	1746.92
262.43	1587.18
262.65	1683.43
262.86	1722.34
263.08	1832.93
263.30	1755.11
263.51	1634.28
263.73	1662.95
263.95	1730.53
264.16	1673.19
264.38	1611.75
264.60	1740.77
264.81	1654.76
265.03	1720.29
265.25	1841.12
265.46	1658.85
265.68	1705.96
265.89	1634.28
266.11	1662.95
266.33	1759.21
266.54	1695.72
266.76	1714.15
266.98	1710.05
267.19	1759.21
267.41	1855.46
267.62	1724.39
267.84	1640.42
268.06	1724.39
268.27	1693.67
268.49	1789.92
268.70	1767.40
268.92	1662.95
269.14	1636.33
269.35	1617.90
269.57	1708.01
269.79	1683.43
270.00	1642.47
270.22	1816.55
270.43	1681.38
270.65	1658.85
270.87	1746.92
271.08	1693.67
271.30	1705.96
271.51	1724.39
271.73	1699.81
271.95	1714.15
272.16	1703.91
272.38	1785.83
272.59	1611.75
272.81	1689.57
273.02	1677.29
273.24	1759.21
273.46	1785.83
273.67	1630.18
273.89	1734.63
274.10	1665.00
274.32	1789.92
274.54	1701.86
274.75	1673.19
274.97	1650.66
275.18	1771.49
275.40	1720.29
275.61	1701.86
275.83	1691.62
276.05	1525.74
276.26	1701.86
276.48	1732.58
276.69	1654.76
276.91	1689.57
277.12	1814.50
277.34	1781.73
277.55	1812.45
277.77	1701.86
277.99	1681.38
278.20	1621.99
278.42	1650.66
278.63	1595.37
278.85	1767.40
279.06	1636.33
279.28	1802.21
279.49	1726.44
279.71	1650.66
279.93	1689.57
280.14	1660.90
280.36	1683.43
280.57	1726.44
280.79	1744.87
281.00	1685.48
281.22	1652.71
281.43	1732.58
281.65	1628.14
281.86	1660.90
282.08	1679.33
282.29	1816.55
282.51	1626.09
282.73	1597.42
282.94	1587.18
283.16	1667.05
283.37	1767.40
283.59	1673.19
283.80	1697.77
284.02	1699.81
284.23	1642.47
284.45	1628.14
284.66	1617.90
284.88	1650.66
285.09	1720.29
285.31	1777.64
285.52	1720.29
285.74	1615.85
285.95	1742.82
286.17	1699.81
286.38	1791.97
286.60	1755.11
286.81	1621.99
287.03	1646.57
287.24	1767.40
287.46	1634.28
287.67	1685.48
287.89	1814.50
288.10	1681.38
288.32	1611.75
288.53	1822.69
288.75	1667.05
288.96	1777.64
289.18	1619.94
289.39	1734.63
289.61	1787.88
289.82	1890.28
290.04	1845.22
290.25	1640.42
290.47	1671.14
290.68	1714.15
290.90	1726.44
291.11	1607.66
291.33	1757.16
291.54	1628.14
291.76	1724.39
291.97	1759.21
292.18	1728.49
292.40	1712.10
292.61	1673.19
292.83	1832.93
293.04	1755.11
293.26	1648.61
293.47	1570.79
293.69	1542.12
293.90	1667.05
294.12	1703.91
294.33	1595.37
294.55	1708.01
294.76	1824.74
294.97	1845.22
295.19	1808.36
295.40	1665.00
295.62	1722.34
295.83	1751.01
296.05	1701.86
296.26	1732.58
296.48	1720.29
296.69	1697.77
296.90	1701.86
297.12	1744.87
297.33	1699.81
297.55	1673.19
297.76	1708.01
297.98	1648.61
298.19	1619.94
298.41	1634.28
298.62	1642.47
298.83	1777.64
299.05	1722.34
299.26	1626.09
299.48	1703.91
299.69	1804.26
299.90	1722.34
300.12	1665.00
300.33	1679.33
300.55	1656.81
300.76	1697.77
300.98	1689.57
301.19	1697.77
301.40	1732.58
301.62	1632.23
301.83	1656.81
302.05	1671.14
302.26	1679.33
302.47	1814.50
302.69	1603.56
302.90	1714.15
303.12	1568.74
303.33	1751.01
303.54	1800.16
303.76	1695.72
303.97	1660.90
304.19	1853.41
304.40	1677.29
304.61	1722.34
304.83	1769.44
305.04	1705.96
305.26	1748.97
305.47	1619.94
305.68	1773.54
305.90	1583.08
306.11	1767.40
306.33	1632.23
306.54	1744.87
306.75	1646.57
306.97	1681.38
307.18	1673.19
307.39	1624.04
307.61	1673.19
307.82	1652.71
308.04	1695.72
308.25	1603.56
308.46	1701.86
308.68	1732.58
308.89	1783.78
309.10	1769.44
309.32	1671.14
309.53	1763.30
309.74	1753.06
309.96	1785.83
310.17	1761.25
310.39	1738.73
310.60	1753.06
310.81	1685.48
311.03	1636.33
311.24	1665.00
311.45	1662.95
311.67	1800.16
311.88	1687.53
312.09	1662.95
312.31	1722.34
312.52	1679.33
312.73	1685.48
312.95	1689.57
313.16	1589.22
313.37	1708.01
313.59	1722.34
313.80	1697.77
314.01	1712.10
314.23	1708.01
314.44	1648.61
314.65	1628.14
314.87	1673.19
315.08	1738.73
315.29	1677.29
315.51	1607.66
315.72	1624.04
315.93	1761.25
316.15	1667.05
316.36	1716.20
316.57	1708.01
316.79	1742.82
317.00	1632.23
317.21	1765.35
317.43	1638.38
317.64	1759.21
317.85	1710.05
318.07	1671.14
318.28	1757.16
318.49	1785.83
318.70	1933.28
318.92	1789.92
319.13	1845.22
319.34	1824.74
319.56	1834.98
319.77	1832.93
319.98	1839.08
320.20	1763.30
320.41	1748.97
320.62	1748.97
320.83	1671.14
321.05	1816.55
321.26	1714.15
321.47	1699.81
321.69	1765.35
321.90	1662.95
322.11	1679.33
322.32	1673.19
322.54	1783.78
322.75	1673.19
322.96	1761.25
323.18	1603.56
323.39	1560.55
323.60	1714.15
323.81	1757.16
324.03	1630.18
324.24	1613.80
324.45	1708.01
324.66	1654.76
324.88	1775.59
325.09	1783.78
325.30	1636.33
325.52	1724.39
325.73	1730.53
325.94	1701.86
326.15	1656.81
326.37	1722.34
326.58	1757.16
326.79	1730.53
327.00	1708.01
327.22	1667.05
327.43	1644.52
327.64	1679.33
327.85	1761.25
328.07	1681.38
328.28	1755.11
328.49	1701.86
328.70	1710.05
328.92	1648.61
329.13	1699.81
329.34	1687.53
329.55	1787.88
329.76	1816.55
329.98	1738.73
330.19	1734.63
330.40	1675.24
330.61	1730.53
330.83	1669.09
331.04	1660.90
331.25	1748.97
331.46	1669.09
331.68	1669.09
331.89	1755.11
332.10	1669.09
332.31	1578.98
332.52	1677.29
332.74	1748.97
332.95	1626.09
333.16	1755.11
333.37	1746.92
333.58	1705.96
333.80	1699.81
334.01	1587.18
334.22	1679.33
334.43	1624.04
334.64	1624.04
334.86	1613.80
335.07	1650.66
335.28	1783.78
335.49	1531.88
335.70	1722.34
335.92	1855.46
336.13	1759.21
336.34	1777.64
336.55	1665.00
336.76	1662.95
336.98	1595.37
337.19	1716.20
337.40	1800.16
337.61	1847.27
337.82	1675.24
338.04	1665.00
338.25	1630.18
338.46	1710.05
338.67	1658.85
338.88	1538.02
339.09	1611.75
339.31	1730.53
339.52	1642.47
339.73	1597.42
339.94	1671.14
340.15	1789.92
340.36	1695.72
340.58	1705.96
340.79	1675.24
341.00	1751.01
341.21	1624.04
341.42	1724.39
341.63	1665.00
341.85	1689.57
342.06	1722.34
342.27	1624.04
342.48	1716.20
342.69	1601.51
342.90	1755.11
343.12	1718.25
343.33	1701.86
343.54	1767.40
343.75	1773.54
343.96	1693.67
344.17	1652.71
344.38	1742.82
344.60	1638.38
344.81	1650.66
345.02	1718.25
345.23	1794.02
345.44	1730.53
345.65	1783.78
345.86	1765.35
346.07	1724.39
346.29	1675.24
346.50	1765.35
346.71	1755.11
346.92	1826.79
347.13	1863.65
347.34	1685.48
347.55	1667.05
347.76	1708.01
347.98	1642.47
348.19	1722.34
348.40	1769.44
348.61	1652.71
348.82	1822.69
349.03	1796.07
349.24	1708.01
349.45	1796.07
349.66	1587.18
349.88	1716.20
350.09	1697.77
350.30	1806.31
350.51	1789.92
350.72	1705.96
350.93	1773.54
351.14	1609.70
351.35	1730.53
351.56	1724.39
351.77	1611.75
351.99	1738.73
352.20	1787.88
352.41	1710.05
352.62	1593.32
352.83	1638.38
353.04	1693.67
353.25	1718.25
353.46	1726.44
353.67	1757.16
353.88	1634.28
354.09	1699.81
354.30	1619.94
354.52	1777.64
354.73	1683.43
354.94	1634.28
355.15	1679.33
355.36	1765.35
355.57	1677.29
355.78	1714.15
355.99	1705.96
356.20	1656.81
356.41	1783.78
356.62	1730.53
356.83	1665.00
357.04	1867.75
357.25	1587.18
357.46	1681.38
357.68	1607.66
357.89	1626.09
358.10	1775.59
358.31	1730.53
358.52	1673.19
358.73	1593.32
358.94	1634.28
359.15	1654.76
359.36	1712.10
359.57	1738.73
359.78	1740.77
359.99	1644.52
360.20	1595.37
360.41	1765.35
360.62	1675.24
360.83	1675.24
361.04	1599.46
361.25	1771.49
361.46	1802.21
361.67	1656.81
361.88	1687.53
362.09	1759.21
362.30	1656.81
362.51	1626.09
362.72	1730.53
362.93	1716.20
363.14	1705.96
363.35	1712.10
363.56	1644.52
363.78	1734.63
363.99	1712.10
364.20	1652.71
364.41	1718.25
364.62	1847.27
364.83	1671.14
365.04	1585.13
365.25	1714.15
365.46	1869.80
365.67	1624.04
365.88	1632.23
366.09	1640.42
366.30	1673.19
366.51	1730.53
366.72	1601.51
366.93	1699.81
367.14	1722.34
367.35	1837.03
367.56	1759.21
367.77	1822.69
367.98	1630.18
368.18	1755.11
368.39	1718.25
368.60	1671.14
368.81	1662.95
369.02	1738.73
369.23	1718.25
369.44	1624.04
369.65	1699.81
369.86	1699.81
370.07	1763.30
370.28	1708.01
370.49	1703.91
370.70	1738.73
370.91	1669.09
371.12	1542.12
371.33	1730.53
371.54	1665.00
371.75	1718.25
371.96	1652.71
372.17	1665.00
372.38	1687.53
372.59	1724.39
372.80	1640.42
373.01	1763.30
373.22	1734.63
373.43	1695.72
373.64	1607.66
373.85	1726.44
374.06	1755.11
374.26	1710.05
374.47	1759.21
374.68	1777.64
374.89	1699.81
375.10	1705.96
375.31	1728.49
375.52	1621.99
375.73	1751.01
375.94	1597.42
376.15	1822.69
376.36	1669.09
376.57	1691.62
376.78	1685.48
376.99	1738.73
377.20	1751.01
377.40	1751.01
377.61	1763.30
377.82	1646.57
378.03	1820.64
378.24	1779.68
378.45	1705.96
378.66	1718.25
378.87	1597.42
379.08	1605.61
379.29	1716.20
379.50	1775.59
379.71	1751.01
379.91	1656.81
380.12	1791.97
380.33	1662.95
380.54	1683.43
380.75	1759.21
380.96	1669.09
381.17	1847.27
381.38	1712.10
381.59	1714.15
381.80	1710.05
382.00	1849.32
382.21	1683.43
382.42	1830.88
382.63	1834.98
382.84	1769.44
383.05	1732.58
383.26	1820.64
383.47	1714.15
383.68	1755.11
383.88	1796.07
384.09	1730.53
384.30	1863.65
384.51	1726.44
384.72	1705.96
384.93	1615.85
385.14	1644.52
385.35	1738.73
385.55	1615.85
385.76	1734.63
385.97	1693.67
386.18	1566.70
386.39	1681.38
386.60	1763.30
386.81	1746.92
387.02	1693.67
387.22	1703.91
387.43	1740.77
387.64	1773.54
387.85	1902.56
388.06	2256.86
388.27	4290.49
388.48	6850.46
388.68	8275.84
388.89	9617.26
389.10	9719.66
389.31	8724.35
389.52	7557.00
389.73	6596.51
389.93	6160.29
390.14	5832.62
390.35	5269.42
390.56	4560.83
390.77	3887.04
390.98	3045.33
391.18	2553.82
391.39	2127.84
391.60	1851.36
391.81	1824.74
392.02	1736.68
392.23	1882.08
392.43	1718.25
392.64	1847.27
392.85	1732.58
393.06	1794.02
393.27	1738.73
393.47	1626.09
393.68	1624.04
393.89	1601.51
394.10	1708.01
394.31	1681.38
394.52	1642.47
394.72	1640.42
394.93	1863.65
395.14	1679.33
395.35	1742.82
395.56	1703.91
395.76	1753.06
395.97	1736.68
396.18	1794.02
396.39	1839.08
396.60	1978.34
396.80	1802.21
397.01	1800.16
397.22	1847.27
397.43	1791.97
397.64	1789.92
397.84	1746.92
398.05	1855.46
398.26	1759.21
398.47	1751.01
398.67	1757.16
398.88	1755.11
399.09	1744.87
399.30	1703.91
399.51	1759.21
399.71	1621.99
399.92	1742.82
400.13	1740.77
400.34	1667.05
400.54	1695.72
400.75	1853.41
400.96	1699.81
401.17	1839.08
401.37	1722.34
401.58	1794.02
401.79	1730.53
402.00	1796.07
402.21	1992.67
402.41	1900.52
402.62	1984.48
402.83	2007.01
403.04	2000.87
403.24	2029.54
403.45	1791.97
403.66	1873.89
403.87	1877.99
404.07	1849.32
404.28	1877.99
404.49	1837.03
404.70	1763.30
404.90	1755.11
405.11	1716.20
405.32	1708.01
405.52	1681.38
405.73	1751.01
405.94	1689.57
406.15	1665.00
406.35	1732.58
406.56	1802.21
406.77	1701.86
406.98	1673.19
407.18	1656.81
407.39	1771.49
407.60	1748.97
407.80	1796.07
408.01	1662.95
408.22	1730.53
408.43	1697.77
408.63	1785.83
408.84	1814.50
409.05	1767.40
409.25	1640.42
409.46	1673.19
409.67	1710.05
409.88	1679.33
410.08	1716.20
410.29	1687.53
410.50	1787.88
410.70	1724.39
410.91	1599.46
411.12	1693.67
411.32	1703.91
411.53	1599.46
411.74	1783.78
411.95	1751.01
412.15	1783.78
412.36	1765.35
412.57	1820.64
412.77	1787.88
412.98	1722.34
413.19	1714.15
413.39	1791.97
413.60	1695.72
413.81	1781.73
414.01	1697.77
414.22	1673.19
414.43	1830.88
414.63	1769.44
414.84	1736.68
415.05	1697.77
415.25	1667.05
415.46	1765.35
415.67	1712.10
415.87	1705.96
416.08	1724.39
416.29	1728.49
416.49	1771.49
416.70	1662.95
416.91	1728.49
417.11	1658.85
417.32	1738.73
417.53	1751.01
417.73	1751.01
417.94	1644.52
418.15	1708.01
418.35	1642.47
418.56	1691.62
418.77	1837.03
418.97	1699.81
419.18	1652.71
419.38	1632.23
419.59	1685.48
419.80	1759.21
420.00	1703.91
420.21	1705.96
420.42	1738.73
420.62	1746.92
420.83	1665.00
421.04	1697.77
421.24	1624.04
421.45	1693.67
421.65	1705.96
421.86	1767.40
422.07	1744.87
422.27	1765.35
422.48	1679.33
422.69	1667.05
422.89	1685.48
423.10	1722.34
423.30	1570.79
423.51	1724.39
423.72	1679.33
423.92	1761.25
424.13	1658.85
424.33	1640.42
424.54	1775.59
424.75	1665.00
424.95	1789.92
425.16	1691.62
425.36	1630.18
425.57	1714.15
425.78	1757.16
425.98	1724.39
426.19	1677.29
426.39	1640.42
426.60	1691.62
426.81	1783.78
427.01	1642.47
427.22	1746.92
427.42	1621.99
427.63	1675.24
427.83	1771.49
428.04	1832.93
428.25	1779.68
428.45	1730.53
428.66	1761.25
428.86	1689.57
429.07	1605.61
429.28	1708.01
429.48	1650.66
429.69	1697.77
429.89	1722.34
430.10	1570.79
430.30	1748.97
430.51	1759.21
430.71	1640.42
430.92	1691.62
431.13	1734.63
431.33	1671.14
431.54	1771.49
431.74	1847.27
431.95	1814.50
432.15	1613.80
432.36	1695.72
432.56	1783.78
432.77	1755.11
432.98	1755.11
433.18	1724.39
433.39	1703.91
433.59	1681.38
433.80	1812.45
434.00	1769.44
434.21	1634.28
434.41	1669.09
434.62	1861.60
434.82	1773.54
435.03	1738.73
435.23	1812.45
435.44	1632.23
435.64	1665.00
435.85	1708.01
436.06	1714.15
436.26	1691.62
436.47	1691.62
436.67	1669.09
436.88	1746.92
437.08	1746.92
437.29	1824.74
437.49	1755.11
437.70	1722.34
437.90	1665.00
438.11	1902.56
438.31	1697.77
438.52	1820.64
438.72	1871.84
438.93	1896.42
439.13	1769.44
439.34	1746.92
439.54	1761.25
439.75	1738.73
439.95	1757.16
440.16	1761.25
440.36	1789.92
440.57	1769.44
440.77	1716.20
440.98	1744.87
441.18	1732.58
441.39	1677.29
441.59	1634.28
441.80	1763.30
442.00	1746.92
442.21	1863.65
442.41	1636.33
442.62	1787.88
442.82	1701.86
443.02	1746.92
443.23	1744.87
443.43	1732.58
443.64	1824.74
443.84	1587.18
444.05	1806.31
444.25	1775.59
444.46	1734.63
444.66	1691.62
444.87	1847.27
445.07	1626.09
445.28	1714.15
445.48	1828.84
445.69	1730.53
445.89	1925.09
446.09	1732.58
446.30	2035.68
446.50	2627.54
446.71	3782.60
446.91	4278.21
447.12	4710.33
447.32	4790.20
447.53	4366.27
447.73	3878.85
447.93	3469.26
448.14	3239.89
448.34	3225.55
448.55	2951.12
448.75	2885.59
448.96	2572.25
449.16	2490.33
449.36	2281.44
449.57	2000.87
449.77	1972.19
449.98	1800.16
450.18	1837.03
450.39	1748.97
450.59	1777.64
450.79	1691.62
451.00	1693.67
451.20	1757.16
451.41	1714.15
451.61	1798.12
451.81	1732.58
452.02	1689.57
452.22	1720.29
452.43	1734.63
452.63	1617.90
