SpectraSuite Data File
++++++++++++++++++++++++++++++++++++
Date: Mon Jun 06 13:28:37 CEST 2016
User: root
Dark Spectrum Present: No
Reference Spectrum Present: No
Number of Sampled Component Spectra: 1
Spectrometers: USB4C02835
Integration Time (usec): 100000 (USB4C02835)
Spectra Averaged: 1 (USB4C02835)
Boxcar Smoothing: 0 (USB4C02835)
Correct for Electrical Dark: No (USB4C02835)
Strobe/Lamp Enabled: No (USB4C02835)
Correct for Detector Non-linearity: No (USB4C02835)
Correct for Stray Light: No (USB4C02835)
Number of Pixels in Processed Spectrum: 3648
>>>>>Begin Processed Spectral Data<<<<<
177.47	1427.43
177.69	1427.43
177.91	1427.43
178.13	1484.78
178.36	1449.96
178.58	1574.89
178.80	1787.88
179.02	1607.66
179.24	1648.61
179.46	1753.06
179.68	1744.87
179.90	1693.67
180.13	1652.71
180.35	1638.38
180.57	1650.66
180.79	1767.40
181.01	1677.29
181.23	1677.29
181.45	1775.59
181.67	1705.96
181.90	1683.43
182.12	1630.18
182.34	1587.18
182.56	1703.91
182.78	1703.91
183.00	1669.09
183.22	1650.66
183.44	1603.56
183.66	1830.88
183.89	1773.54
184.11	1693.67
184.33	1759.21
184.55	1734.63
184.77	1738.73
184.99	1697.77
185.21	1685.48
185.43	1861.60
185.65	1648.61
185.87	1753.06
186.10	1841.12
186.32	1771.49
186.54	1787.88
186.76	1665.00
186.98	1791.97
187.20	1636.33
187.42	1658.85
187.64	1634.28
187.86	1710.05
188.08	1787.88
188.30	1658.85
188.52	1677.29
188.75	1718.25
188.97	1800.16
189.19	1656.81
189.41	1665.00
189.63	1746.92
189.85	1796.07
190.07	1566.70
190.29	1613.80
190.51	1753.06
190.73	1632.23
190.95	1763.30
191.17	1665.00
191.39	1644.52
191.61	1691.62
191.84	1662.95
192.06	1751.01
192.28	1642.47
192.50	1884.13
192.72	1722.34
192.94	1646.57
193.16	1779.68
193.38	1724.39
193.60	1591.27
193.82	1759.21
194.04	1746.92
194.26	1695.72
194.48	1701.86
194.70	1640.42
194.92	1699.81
195.14	1767.40
195.36	1621.99
195.58	1652.71
195.80	1652.71
196.02	1611.75
196.24	1650.66
196.46	1736.68
196.69	1662.95
196.91	1796.07
197.13	1718.25
197.35	1595.37
197.57	1767.40
197.79	1640.42
198.01	1755.11
198.23	1677.29
198.45	1736.68
198.67	1638.38
198.89	1671.14
199.11	1718.25
199.33	1634.28
199.55	1581.03
199.77	1673.19
199.99	1744.87
200.21	1656.81
200.43	1671.14
200.65	1673.19
200.87	1572.84
201.09	1673.19
201.31	1578.98
201.53	1767.40
201.75	1722.34
201.97	1636.33
202.19	1732.58
202.41	1753.06
202.63	1753.06
202.85	1761.25
203.07	1697.77
203.29	1656.81
203.51	1648.61
203.73	1667.05
203.95	1832.93
204.17	1669.09
204.39	1712.10
204.61	1691.62
204.83	1671.14
205.05	1646.57
205.27	1701.86
205.49	1789.92
205.71	1691.62
205.93	1597.42
206.15	1714.15
206.37	1722.34
206.59	1679.33
206.81	1662.95
207.03	1630.18
207.25	1642.47
207.47	1691.62
207.69	1710.05
207.91	1779.68
208.13	1718.25
208.34	1718.25
208.56	1679.33
208.78	1669.09
209.00	1669.09
209.22	1685.48
209.44	1697.77
209.66	1644.52
209.88	1646.57
210.10	1683.43
210.32	1634.28
210.54	1771.49
210.76	1646.57
210.98	1718.25
211.20	1587.18
211.42	1748.97
211.64	1757.16
211.86	1695.72
212.08	1767.40
212.30	1724.39
212.52	1720.29
212.74	1726.44
212.96	1785.83
213.17	1740.77
213.39	1734.63
213.61	1820.64
213.83	1746.92
214.05	1630.18
214.27	1748.97
214.49	1605.61
214.71	1654.76
214.93	1705.96
215.15	1701.86
215.37	1779.68
215.59	1648.61
215.81	1710.05
216.03	1796.07
216.24	1671.14
216.46	1662.95
216.68	1720.29
216.90	1724.39
217.12	1796.07
217.34	1716.20
217.56	1753.06
217.78	1662.95
218.00	1703.91
218.22	1708.01
218.44	1701.86
218.66	1738.73
218.87	1794.02
219.09	1603.56
219.31	1798.12
219.53	1662.95
219.75	1697.77
219.97	1681.38
220.19	1708.01
220.41	1656.81
220.63	1791.97
220.85	1722.34
221.06	1656.81
221.28	1689.57
221.50	1714.15
221.72	1759.21
221.94	1665.00
222.16	1681.38
222.38	1763.30
222.60	1689.57
222.82	1736.68
223.03	1763.30
223.25	1656.81
223.47	1738.73
223.69	1804.26
223.91	1730.53
224.13	1693.67
224.35	1718.25
224.57	1822.69
224.78	1689.57
225.00	1665.00
225.22	1656.81
225.44	1699.81
225.66	1755.11
225.88	1697.77
226.10	1722.34
226.32	1730.53
226.53	1824.74
226.75	1740.77
226.97	1685.48
227.19	1720.29
227.41	1689.57
227.63	1718.25
227.85	1591.27
228.06	1712.10
228.28	1644.52
228.50	1730.53
228.72	1646.57
228.94	1732.58
229.16	1576.94
229.37	1599.46
229.59	1708.01
229.81	1775.59
230.03	1689.57
230.25	1654.76
230.47	1691.62
230.69	1615.85
230.90	1744.87
231.12	1667.05
231.34	1724.39
231.56	1728.49
231.78	1630.18
232.00	1708.01
232.21	1689.57
232.43	1718.25
232.65	1585.13
232.87	1746.92
233.09	1642.47
233.30	1683.43
233.52	1740.77
233.74	1751.01
233.96	1695.72
234.18	1671.14
234.40	1703.91
234.61	1810.40
234.83	1669.09
235.05	1656.81
235.27	1794.02
235.49	1769.44
235.70	1681.38
235.92	1794.02
236.14	1681.38
236.36	1869.80
236.58	1660.90
236.79	1689.57
237.01	1644.52
237.23	1689.57
237.45	1773.54
237.67	1656.81
237.88	1691.62
238.10	1773.54
238.32	1572.84
238.54	1699.81
238.76	1708.01
238.97	1675.24
239.19	1611.75
239.41	1738.73
239.63	1716.20
239.85	1648.61
240.06	1679.33
240.28	1681.38
240.50	1796.07
240.72	1652.71
240.93	1656.81
241.15	1816.55
241.37	1597.42
241.59	1730.53
241.81	1619.94
242.02	1683.43
242.24	1689.57
242.46	1748.97
242.68	1720.29
242.89	1710.05
243.11	1677.29
243.33	1718.25
243.55	1726.44
243.76	1791.97
243.98	1607.66
244.20	1654.76
244.42	1753.06
244.64	1677.29
244.85	1691.62
245.07	1587.18
245.29	1724.39
245.51	1738.73
245.72	1677.29
245.94	1697.77
246.16	1615.85
246.38	1746.92
246.59	1640.42
246.81	1662.95
247.03	1640.42
247.24	1708.01
247.46	1648.61
247.68	1695.72
247.90	1654.76
248.11	1609.70
248.33	1753.06
248.55	1738.73
248.77	1689.57
248.98	1738.73
249.20	1800.16
249.42	1632.23
249.64	1773.54
249.85	1699.81
250.07	1619.94
250.29	1673.19
250.50	1617.90
250.72	1634.28
250.94	1710.05
251.16	1820.64
251.37	1769.44
251.59	1738.73
251.81	1693.67
252.02	1765.35
252.24	1722.34
252.46	1789.92
252.68	1679.33
252.89	1603.56
253.11	1603.56
253.33	1796.07
253.54	1734.63
253.76	1656.81
253.98	1681.38
254.20	1746.92
254.41	1650.66
254.63	1648.61
254.85	1646.57
255.06	1724.39
255.28	1665.00
255.50	1728.49
255.71	1607.66
255.93	1656.81
256.15	1673.19
256.36	1708.01
256.58	1714.15
256.80	1748.97
257.02	1634.28
257.23	1671.14
257.45	1662.95
257.67	1644.52
257.88	1648.61
258.10	1732.58
258.32	1718.25
258.53	1718.25
258.75	1746.92
258.97	1687.53
259.18	1683.43
259.40	1695.72
259.62	1765.35
259.83	1789.92
260.05	1701.86
260.27	1986.53
260.48	1763.30
260.70	1609.70
260.92	1728.49
261.13	1755.11
261.35	1812.45
261.57	1621.99
261.78	1607.66
262.00	1673.19
262.22	1658.85
262.43	1636.33
262.65	1734.63
262.86	1720.29
263.08	1841.12
263.30	1738.73
263.51	1636.33
263.73	1642.47
263.95	1775.59
264.16	1636.33
264.38	1712.10
264.60	1708.01
264.81	1714.15
265.03	1791.97
265.25	1748.97
265.46	1730.53
265.68	1800.16
265.89	1738.73
266.11	1581.03
266.33	1751.01
266.54	1785.83
266.76	1720.29
266.98	1757.16
267.19	1787.88
267.41	1785.83
267.62	1640.42
267.84	1650.66
268.06	1726.44
268.27	1669.09
268.49	1703.91
268.70	1810.40
268.92	1710.05
269.14	1640.42
269.35	1607.66
269.57	1615.85
269.79	1742.82
270.00	1726.44
270.22	1794.02
270.43	1695.72
270.65	1548.26
270.87	1685.48
271.08	1697.77
271.30	1748.97
271.51	1669.09
271.73	1687.53
271.95	1800.16
272.16	1742.82
272.38	1685.48
272.59	1615.85
272.81	1658.85
273.02	1755.11
273.24	1806.31
273.46	1775.59
273.67	1669.09
273.89	1705.96
274.10	1640.42
274.32	1796.07
274.54	1751.01
274.75	1695.72
274.97	1675.24
275.18	1724.39
275.40	1763.30
275.61	1654.76
275.83	1718.25
276.05	1605.61
276.26	1656.81
276.48	1732.58
276.69	1710.05
276.91	1658.85
277.12	1789.92
277.34	1732.58
277.55	1726.44
277.77	1689.57
277.99	1701.86
278.20	1683.43
278.42	1660.90
278.63	1646.57
278.85	1632.23
279.06	1638.38
279.28	1644.52
279.49	1744.87
279.71	1681.38
279.93	1714.15
280.14	1679.33
280.36	1665.00
280.57	1691.62
280.79	1748.97
281.00	1632.23
281.22	1632.23
281.43	1783.78
281.65	1662.95
281.86	1601.51
282.08	1703.91
282.29	1843.17
282.51	1613.80
282.73	1630.18
282.94	1576.94
283.16	1783.78
283.37	1841.12
283.59	1697.77
283.80	1722.34
284.02	1675.24
284.23	1718.25
284.45	1654.76
284.66	1599.46
284.88	1703.91
285.09	1669.09
285.31	1722.34
285.52	1675.24
285.74	1613.80
285.95	1787.88
286.17	1746.92
286.38	1757.16
286.60	1693.67
286.81	1712.10
287.03	1691.62
287.24	1726.44
287.46	1748.97
287.67	1714.15
287.89	1808.36
288.10	1669.09
288.32	1640.42
288.53	1796.07
288.75	1687.53
288.96	1722.34
289.18	1726.44
289.39	1710.05
289.61	1759.21
289.82	1818.60
290.04	1720.29
290.25	1671.14
290.47	1705.96
290.68	1660.90
290.90	1777.64
291.11	1581.03
291.33	1738.73
291.54	1658.85
291.76	1656.81
291.97	1626.09
292.18	1697.77
292.40	1630.18
292.61	1650.66
292.83	1810.40
293.04	1724.39
293.26	1708.01
293.47	1746.92
293.69	1671.14
293.90	1679.33
294.12	1726.44
294.33	1703.91
294.55	1693.67
294.76	1751.01
294.97	1796.07
295.19	1812.45
295.40	1697.77
295.62	1763.30
295.83	1724.39
296.05	1628.14
296.26	1767.40
296.48	1630.18
296.69	1724.39
296.90	1673.19
297.12	1771.49
297.33	1832.93
297.55	1642.47
297.76	1740.77
297.98	1724.39
298.19	1685.48
298.41	1656.81
298.62	1632.23
298.83	1781.73
299.05	1742.82
299.26	1675.24
299.48	1673.19
299.69	1703.91
299.90	1767.40
300.12	1665.00
300.33	1773.54
300.55	1722.34
300.76	1716.20
300.98	1624.04
301.19	1679.33
301.40	1677.29
301.62	1681.38
301.83	1789.92
302.05	1724.39
302.26	1665.00
302.47	1791.97
302.69	1640.42
302.90	1689.57
303.12	1585.13
303.33	1669.09
303.54	1828.84
303.76	1667.05
303.97	1730.53
304.19	1783.78
304.40	1689.57
304.61	1693.67
304.83	1765.35
305.04	1705.96
305.26	1734.63
305.47	1574.89
305.68	1699.81
305.90	1593.32
306.11	1720.29
306.33	1744.87
306.54	1632.23
306.75	1634.28
306.97	1650.66
307.18	1732.58
307.39	1662.95
307.61	1828.84
307.82	1681.38
308.04	1687.53
308.25	1638.38
308.46	1765.35
308.68	1687.53
308.89	1646.57
309.10	1734.63
309.32	1777.64
309.53	1714.15
309.74	1650.66
309.96	1648.61
310.17	1742.82
310.39	1665.00
310.60	1681.38
310.81	1753.06
311.03	1642.47
311.24	1849.32
311.45	1742.82
311.67	1783.78
311.88	1726.44
312.09	1714.15
312.31	1716.20
312.52	1736.68
312.73	1671.14
312.95	1609.70
313.16	1552.36
313.37	1771.49
313.59	1673.19
313.80	1728.49
314.01	1773.54
314.23	1648.61
314.44	1566.70
314.65	1689.57
314.87	1689.57
315.08	1556.46
315.29	1626.09
315.51	1632.23
315.72	1634.28
315.93	1810.40
316.15	1773.54
316.36	1689.57
316.57	1703.91
316.79	1732.58
317.00	1634.28
317.21	1679.33
317.43	1708.01
317.64	1648.61
317.85	1656.81
318.07	1628.14
318.28	1691.62
318.49	1753.06
318.70	1830.88
318.92	1808.36
319.13	1820.64
319.34	1904.61
319.56	1763.30
319.77	1767.40
319.98	1818.60
320.20	1753.06
320.41	1679.33
320.62	1691.62
320.83	1652.71
321.05	1791.97
321.26	1681.38
321.47	1677.29
321.69	1765.35
321.90	1626.09
322.11	1662.95
322.32	1665.00
322.54	1742.82
322.75	1658.85
322.96	1773.54
323.18	1632.23
323.39	1587.18
323.60	1607.66
323.81	1759.21
324.03	1675.24
324.24	1708.01
324.45	1769.44
324.66	1689.57
324.88	1755.11
325.09	1759.21
325.30	1667.05
325.52	1703.91
325.73	1660.90
325.94	1607.66
326.15	1597.42
326.37	1669.09
326.58	1757.16
326.79	1845.22
327.00	1634.28
327.22	1771.49
327.43	1581.03
327.64	1611.75
327.85	1744.87
328.07	1751.01
328.28	1720.29
328.49	1697.77
328.70	1730.53
328.92	1687.53
329.13	1726.44
329.34	1765.35
329.55	1781.73
329.76	1839.08
329.98	1697.77
330.19	1740.77
330.40	1699.81
330.61	1714.15
330.83	1662.95
331.04	1673.19
331.25	1736.68
331.46	1685.48
331.68	1587.18
331.89	1705.96
332.10	1669.09
332.31	1587.18
332.52	1751.01
332.74	1804.26
332.95	1621.99
333.16	1660.90
333.37	1718.25
333.58	1691.62
333.80	1705.96
334.01	1640.42
334.22	1665.00
334.43	1615.85
334.64	1679.33
334.86	1648.61
335.07	1632.23
335.28	1802.21
335.49	1634.28
335.70	1665.00
335.92	1732.58
336.13	1841.12
336.34	1744.87
336.55	1685.48
336.76	1730.53
336.98	1593.32
337.19	1720.29
337.40	1843.17
337.61	1857.51
337.82	1685.48
338.04	1734.63
338.25	1617.90
338.46	1685.48
338.67	1673.19
338.88	1624.04
339.09	1515.50
339.31	1624.04
339.52	1662.95
339.73	1624.04
339.94	1746.92
340.15	1779.68
340.36	1644.52
340.58	1699.81
340.79	1611.75
341.00	1757.16
341.21	1691.62
341.42	1808.36
341.63	1730.53
341.85	1763.30
342.06	1718.25
342.27	1712.10
342.48	1671.14
342.69	1634.28
342.90	1724.39
343.12	1665.00
343.33	1656.81
343.54	1736.68
343.75	1822.69
343.96	1642.47
344.17	1644.52
344.38	1638.38
344.60	1665.00
344.81	1566.70
345.02	1667.05
345.23	1740.77
345.44	1828.84
345.65	1763.30
345.86	1767.40
346.07	1683.43
346.29	1617.90
346.50	1703.91
346.71	1671.14
346.92	1769.44
347.13	1853.41
347.34	1679.33
347.55	1679.33
347.76	1701.86
347.98	1585.13
348.19	1683.43
348.40	1748.97
348.61	1716.20
348.82	1837.03
349.03	1697.77
349.24	1644.52
349.45	1818.60
349.66	1632.23
349.88	1734.63
350.09	1677.29
350.30	1787.88
350.51	1748.97
350.72	1697.77
350.93	1689.57
351.14	1679.33
351.35	1738.73
351.56	1710.05
351.77	1695.72
351.99	1646.57
352.20	1746.92
352.41	1763.30
352.62	1593.32
352.83	1662.95
353.04	1724.39
353.25	1646.57
353.46	1710.05
353.67	1763.30
353.88	1591.27
354.09	1683.43
354.30	1669.09
354.52	1787.88
354.73	1751.01
354.94	1681.38
355.15	1724.39
355.36	1810.40
355.57	1697.77
355.78	1691.62
355.99	1615.85
356.20	1611.75
356.41	1777.64
356.62	1845.22
356.83	1701.86
357.04	1785.83
357.25	1615.85
357.46	1640.42
357.68	1675.24
357.89	1685.48
358.10	1658.85
358.31	1753.06
358.52	1763.30
358.73	1648.61
358.94	1624.04
359.15	1701.86
359.36	1777.64
359.57	1742.82
359.78	1681.38
359.99	1755.11
360.20	1587.18
360.41	1714.15
360.62	1697.77
360.83	1718.25
361.04	1734.63
361.25	1726.44
361.46	1740.77
361.67	1781.73
361.88	1703.91
362.09	1695.72
362.30	1697.77
362.51	1681.38
362.72	1681.38
362.93	1769.44
363.14	1667.05
363.35	1697.77
363.56	1673.19
363.78	1736.68
363.99	1742.82
364.20	1652.71
364.41	1699.81
364.62	1800.16
364.83	1789.92
365.04	1740.77
365.25	1705.96
365.46	1832.93
365.67	1607.66
365.88	1644.52
366.09	1648.61
366.30	1671.14
366.51	1685.48
366.72	1652.71
366.93	1697.77
367.14	1779.68
367.35	1718.25
367.56	1697.77
367.77	1771.49
367.98	1695.72
368.18	1712.10
368.39	1634.28
368.60	1650.66
368.81	1658.85
369.02	1675.24
369.23	1691.62
369.44	1554.41
369.65	1675.24
369.86	1732.58
370.07	1695.72
370.28	1691.62
370.49	1732.58
370.70	1722.34
370.91	1644.52
371.12	1656.81
371.33	1716.20
371.54	1669.09
371.75	1804.26
371.96	1535.98
372.17	1710.05
372.38	1632.23
372.59	1804.26
372.80	1624.04
373.01	1705.96
373.22	1714.15
373.43	1730.53
373.64	1615.85
373.85	1761.25
374.06	1765.35
374.26	1771.49
374.47	1779.68
374.68	1775.59
374.89	1724.39
375.10	1763.30
375.31	1800.16
375.52	1691.62
375.73	1617.90
375.94	1691.62
376.15	1775.59
376.36	1591.27
376.57	1714.15
376.78	1726.44
376.99	1662.95
377.20	1662.95
377.40	1611.75
377.61	1781.73
377.82	1603.56
378.03	1798.12
378.24	1751.01
378.45	1683.43
378.66	1683.43
378.87	1581.03
379.08	1564.65
379.29	1681.38
379.50	1748.97
379.71	1693.67
379.91	1744.87
380.12	1718.25
380.33	1730.53
380.54	1710.05
380.75	1708.01
380.96	1677.29
381.17	1730.53
381.38	1783.78
381.59	1697.77
381.80	1771.49
382.00	1804.26
382.21	1744.87
382.42	1806.31
382.63	1855.46
382.84	1722.34
383.05	1685.48
383.26	1796.07
383.47	1669.09
383.68	1755.11
383.88	1757.16
384.09	1732.58
384.30	1839.08
384.51	1718.25
384.72	1677.29
384.93	1654.76
385.14	1708.01
385.35	1771.49
385.55	1630.18
385.76	1822.69
385.97	1652.71
386.18	1603.56
386.39	1624.04
386.60	1687.53
386.81	1658.85
387.02	1679.33
387.22	1652.71
387.43	1808.36
387.64	1820.64
387.85	1816.55
388.06	2187.23
388.27	4278.21
388.48	6743.96
388.68	8191.88
388.89	9570.16
389.10	9729.90
389.31	8570.75
389.52	7733.13
389.73	6907.80
389.93	6293.41
390.14	5904.29
390.35	5177.26
390.56	4794.29
390.77	3747.78
390.98	3002.32
391.18	2471.90
391.39	2152.42
391.60	1863.65
391.81	1869.80
392.02	1714.15
392.23	1904.61
392.43	1787.88
392.64	1794.02
392.85	1662.95
393.06	1781.73
393.27	1697.77
393.47	1724.39
393.68	1722.34
393.89	1701.86
394.10	1820.64
394.31	1681.38
394.52	1605.61
394.72	1728.49
394.93	1818.60
395.14	1611.75
395.35	1697.77
395.56	1621.99
395.76	1740.77
395.97	1787.88
396.18	1834.98
396.39	1853.41
396.60	1941.47
396.80	1832.93
397.01	1775.59
397.22	1828.84
397.43	1851.36
397.64	1728.49
397.84	1781.73
398.05	1863.65
398.26	1736.68
398.47	1744.87
398.67	1794.02
398.88	1746.92
399.09	1804.26
399.30	1683.43
399.51	1751.01
399.71	1576.94
399.92	1681.38
400.13	1683.43
400.34	1652.71
400.54	1677.29
400.75	1783.78
400.96	1738.73
401.17	1710.05
401.37	1765.35
401.58	1714.15
401.79	1691.62
402.00	1918.95
402.21	1959.91
402.41	1970.15
402.62	1974.24
402.83	2050.02
403.04	1976.29
403.24	2084.83
403.45	1744.87
403.66	1857.51
403.87	1826.79
404.07	1880.04
404.28	1828.84
404.49	1927.14
404.70	1812.45
404.90	1763.30
405.11	1677.29
405.32	1751.01
405.52	1701.86
405.73	1708.01
405.94	1611.75
406.15	1673.19
406.35	1710.05
406.56	1701.86
406.77	1740.77
406.98	1748.97
407.18	1656.81
407.39	1830.88
407.60	1660.90
407.80	1791.97
408.01	1609.70
408.22	1710.05
408.43	1611.75
408.63	1697.77
408.84	1732.58
409.05	1761.25
409.25	1681.38
409.46	1677.29
409.67	1621.99
409.88	1669.09
410.08	1732.58
410.29	1714.15
410.50	1732.58
410.70	1714.15
410.91	1597.42
411.12	1722.34
411.32	1718.25
411.53	1691.62
411.74	1746.92
411.95	1830.88
412.15	1730.53
412.36	1710.05
412.57	1777.64
412.77	1796.07
412.98	1794.02
413.19	1654.76
413.39	1777.64
413.60	1738.73
413.81	1761.25
414.01	1716.20
414.22	1753.06
414.43	1783.78
414.63	1724.39
414.84	1673.19
415.05	1708.01
415.25	1642.47
415.46	1724.39
415.67	1765.35
415.87	1736.68
416.08	1746.92
416.29	1720.29
416.49	1757.16
416.70	1675.24
416.91	1644.52
417.11	1665.00
417.32	1755.11
417.53	1746.92
417.73	1679.33
417.94	1691.62
418.15	1765.35
418.35	1787.88
418.56	1689.57
418.77	1800.16
418.97	1697.77
419.18	1656.81
419.38	1648.61
419.59	1710.05
419.80	1710.05
420.00	1683.43
420.21	1724.39
420.42	1800.16
420.62	1705.96
420.83	1634.28
421.04	1650.66
421.24	1693.67
421.45	1714.15
421.65	1718.25
421.86	1624.04
422.07	1746.92
422.27	1732.58
422.48	1703.91
422.69	1673.19
422.89	1617.90
423.10	1720.29
423.30	1683.43
423.51	1705.96
423.72	1732.58
423.92	1724.39
424.13	1621.99
424.33	1597.42
424.54	1734.63
424.75	1621.99
424.95	1771.49
425.16	1751.01
425.36	1722.34
425.57	1802.21
425.78	1736.68
425.98	1779.68
426.19	1720.29
426.39	1656.81
426.60	1699.81
426.81	1736.68
427.01	1685.48
427.22	1673.19
427.42	1617.90
427.63	1525.74
427.83	1746.92
428.04	1802.21
428.25	1738.73
428.45	1732.58
428.66	1775.59
428.86	1632.23
429.07	1591.27
429.28	1746.92
429.48	1732.58
429.69	1632.23
429.89	1771.49
430.10	1656.81
430.30	1687.53
430.51	1775.59
430.71	1665.00
430.92	1685.48
431.13	1671.14
431.33	1669.09
431.54	1726.44
431.74	1757.16
431.95	1773.54
432.15	1640.42
432.36	1632.23
432.56	1742.82
432.77	1787.88
432.98	1765.35
433.18	1703.91
433.39	1775.59
433.59	1640.42
433.80	1822.69
434.00	1816.55
434.21	1626.09
434.41	1662.95
434.62	1771.49
434.82	1685.48
435.03	1675.24
435.23	1736.68
435.44	1591.27
435.64	1667.05
435.85	1714.15
436.06	1712.10
436.26	1808.36
436.47	1744.87
436.67	1699.81
436.88	1712.10
437.08	1748.97
437.29	1748.97
437.49	1722.34
437.70	1810.40
437.90	1728.49
438.11	1822.69
438.31	1845.22
438.52	1863.65
438.72	1853.41
438.93	1873.89
439.13	1728.49
439.34	1896.42
439.54	1734.63
439.75	1806.31
439.95	1751.01
440.16	1660.90
440.36	1714.15
440.57	1691.62
440.77	1683.43
440.98	1683.43
441.18	1746.92
441.39	1710.05
441.59	1619.94
441.80	1822.69
442.00	1746.92
442.21	1802.21
442.41	1669.09
442.62	1755.11
442.82	1626.09
443.02	1740.77
443.23	1724.39
443.43	1710.05
443.64	1767.40
443.84	1687.53
444.05	1679.33
444.25	1708.01
444.46	1669.09
444.66	1783.78
444.87	1804.26
445.07	1685.48
445.28	1710.05
445.48	1798.12
445.69	1757.16
445.89	1775.59
446.09	1779.68
446.30	2027.49
446.50	2639.83
446.71	3760.07
446.91	4302.78
447.12	4782.01
447.32	4964.28
447.53	4284.35
447.73	3827.65
447.93	3538.89
448.14	3229.65
448.34	3153.87
448.55	2873.30
448.75	2899.92
448.96	2707.41
449.16	2346.97
449.36	2334.68
449.57	2078.69
449.77	1929.19
449.98	1722.34
450.18	1867.75
450.39	1753.06
450.59	1685.48
450.79	1779.68
451.00	1689.57
451.20	1783.78
451.41	1693.67
451.61	1730.53
451.81	1820.64
452.02	1677.29
452.22	1798.12
452.43	1726.44
452.63	1671.14
