SpectraSuite Data File
++++++++++++++++++++++++++++++++++++
Date: Mon Jun 06 17:10:37 CEST 2016
User: root
Dark Spectrum Present: No
Reference Spectrum Present: No
Number of Sampled Component Spectra: 1
Spectrometers: USB4C02835
Integration Time (usec): 100000 (USB4C02835)
Spectra Averaged: 1 (USB4C02835)
Boxcar Smoothing: 0 (USB4C02835)
Correct for Electrical Dark: No (USB4C02835)
Strobe/Lamp Enabled: No (USB4C02835)
Correct for Detector Non-linearity: No (USB4C02835)
Correct for Stray Light: No (USB4C02835)
Number of Pixels in Processed Spectrum: 3648
>>>>>Begin Processed Spectral Data<<<<<
177.47	1456.11
177.69	1456.11
177.91	1456.11
178.13	1413.10
178.36	1466.35
178.58	1671.14
178.80	1746.92
179.02	1603.56
179.24	1671.14
179.46	1744.87
179.68	1775.59
179.90	1665.00
180.13	1722.34
180.35	1769.44
180.57	1671.14
180.79	1787.88
181.01	1730.53
181.23	1708.01
181.45	1847.27
181.67	1781.73
181.90	1617.90
182.12	1624.04
182.34	1568.74
182.56	1779.68
182.78	1693.67
183.00	1755.11
183.22	1718.25
183.44	1601.51
183.66	1859.56
183.89	1812.45
184.11	1648.61
184.33	1775.59
184.55	1785.83
184.77	1730.53
184.99	1742.82
185.21	1689.57
185.43	1861.60
185.65	1640.42
185.87	1683.43
186.10	1794.02
186.32	1822.69
186.54	1744.87
186.76	1771.49
186.98	1783.78
187.20	1714.15
187.42	1640.42
187.64	1701.86
187.86	1697.77
188.08	1767.40
188.30	1701.86
188.52	1687.53
188.75	1847.27
188.97	1839.08
189.19	1751.01
189.41	1673.19
189.63	1781.73
189.85	1703.91
190.07	1699.81
190.29	1628.14
190.51	1609.70
190.73	1699.81
190.95	1794.02
191.17	1681.38
191.39	1632.23
191.61	1679.33
191.84	1720.29
192.06	1740.77
192.28	1613.80
192.50	1865.70
192.72	1710.05
192.94	1765.35
193.16	1826.79
193.38	1785.83
193.60	1677.29
193.82	1632.23
194.04	1753.06
194.26	1712.10
194.48	1689.57
194.70	1701.86
194.92	1644.52
195.14	1736.68
195.36	1732.58
195.58	1777.64
195.80	1738.73
196.02	1716.20
196.24	1695.72
196.46	1648.61
196.69	1708.01
196.91	1839.08
197.13	1673.19
197.35	1705.96
197.57	1828.84
197.79	1746.92
198.01	1812.45
198.23	1773.54
198.45	1726.44
198.67	1599.46
198.89	1701.86
199.11	1724.39
199.33	1695.72
199.55	1671.14
199.77	1785.83
199.99	1746.92
200.21	1689.57
200.43	1726.44
200.65	1703.91
200.87	1599.46
201.09	1742.82
201.31	1701.86
201.53	1755.11
201.75	1665.00
201.97	1728.49
202.19	1699.81
202.41	1755.11
202.63	1865.70
202.85	1722.34
203.07	1689.57
203.29	1697.77
203.51	1705.96
203.73	1703.91
203.95	1763.30
204.17	1744.87
204.39	1736.68
204.61	1720.29
204.83	1759.21
205.05	1753.06
205.27	1761.25
205.49	1781.73
205.71	1665.00
205.93	1632.23
206.15	1714.15
206.37	1703.91
206.59	1677.29
206.81	1669.09
207.03	1603.56
207.25	1650.66
207.47	1783.78
207.69	1740.77
207.91	1767.40
208.13	1769.44
208.34	1714.15
208.56	1626.09
208.78	1742.82
209.00	1671.14
209.22	1673.19
209.44	1646.57
209.66	1660.90
209.88	1703.91
210.10	1710.05
210.32	1734.63
210.54	1757.16
210.76	1683.43
210.98	1812.45
211.20	1718.25
211.42	1673.19
211.64	1888.23
211.86	1683.43
212.08	1783.78
212.30	1701.86
212.52	1689.57
212.74	1800.16
212.96	1695.72
213.17	1765.35
213.39	1736.68
213.61	1832.93
213.83	1804.26
214.05	1652.71
214.27	1771.49
214.49	1619.94
214.71	1665.00
214.93	1773.54
215.15	1683.43
215.37	1761.25
215.59	1621.99
215.81	1679.33
216.03	1708.01
216.24	1691.62
216.46	1691.62
216.68	1722.34
216.90	1814.50
217.12	1753.06
217.34	1732.58
217.56	1818.60
217.78	1779.68
218.00	1763.30
218.22	1763.30
218.44	1689.57
218.66	1720.29
218.87	1837.03
219.09	1695.72
219.31	1695.72
219.53	1669.09
219.75	1722.34
219.97	1720.29
220.19	1730.53
220.41	1705.96
220.63	1783.78
220.85	1765.35
221.06	1673.19
221.28	1837.03
221.50	1761.25
221.72	1796.07
221.94	1660.90
222.16	1679.33
222.38	1796.07
222.60	1746.92
222.82	1685.48
223.03	1767.40
223.25	1658.85
223.47	1675.24
223.69	1791.97
223.91	1748.97
224.13	1669.09
224.35	1669.09
224.57	1789.92
224.78	1800.16
225.00	1636.33
225.22	1712.10
225.44	1691.62
225.66	1740.77
225.88	1730.53
226.10	1794.02
226.32	1744.87
226.53	1794.02
226.75	1658.85
226.97	1720.29
227.19	1712.10
227.41	1654.76
227.63	1628.14
227.85	1619.94
228.06	1708.01
228.28	1701.86
228.50	1675.24
228.72	1603.56
228.94	1781.73
229.16	1613.80
229.37	1642.47
229.59	1673.19
229.81	1757.16
230.03	1673.19
230.25	1609.70
230.47	1726.44
230.69	1644.52
230.90	1808.36
231.12	1691.62
231.34	1724.39
231.56	1787.88
231.78	1636.33
232.00	1732.58
232.21	1697.77
232.43	1642.47
232.65	1654.76
232.87	1705.96
233.09	1705.96
233.30	1697.77
233.52	1755.11
233.74	1701.86
233.96	1738.73
234.18	1652.71
234.40	1732.58
234.61	1796.07
234.83	1697.77
235.05	1687.53
235.27	1794.02
235.49	1769.44
235.70	1675.24
235.92	1804.26
236.14	1710.05
236.36	1763.30
236.58	1667.05
236.79	1714.15
237.01	1714.15
237.23	1724.39
237.45	1800.16
237.67	1644.52
237.88	1748.97
238.10	1771.49
238.32	1695.72
238.54	1644.52
238.76	1718.25
238.97	1697.77
239.19	1673.19
239.41	1751.01
239.63	1736.68
239.85	1685.48
240.06	1738.73
240.28	1730.53
240.50	1681.38
240.72	1708.01
240.93	1695.72
241.15	1720.29
241.37	1714.15
241.59	1763.30
241.81	1748.97
242.02	1738.73
242.24	1718.25
242.46	1726.44
242.68	1679.33
242.89	1722.34
243.11	1828.84
243.33	1746.92
243.55	1734.63
243.76	1757.16
243.98	1685.48
244.20	1681.38
244.42	1738.73
244.64	1751.01
244.85	1609.70
245.07	1679.33
245.29	1753.06
245.51	1642.47
245.72	1660.90
245.94	1796.07
246.16	1681.38
246.38	1748.97
246.59	1732.58
246.81	1673.19
247.03	1693.67
247.24	1642.47
247.46	1730.53
247.68	1765.35
247.90	1650.66
248.11	1673.19
248.33	1769.44
248.55	1751.01
248.77	1734.63
248.98	1767.40
249.20	1746.92
249.42	1722.34
249.64	1755.11
249.85	1691.62
250.07	1687.53
250.29	1740.77
250.50	1728.49
250.72	1558.50
250.94	1777.64
251.16	1824.74
251.37	1746.92
251.59	1701.86
251.81	1699.81
252.02	1806.31
252.24	1701.86
252.46	1773.54
252.68	1689.57
252.89	1638.38
253.11	1621.99
253.33	1804.26
253.54	1751.01
253.76	1660.90
253.98	1736.68
254.20	1769.44
254.41	1595.37
254.63	1685.48
254.85	1669.09
255.06	1685.48
255.28	1642.47
255.50	1685.48
255.71	1697.77
255.93	1658.85
256.15	1652.71
256.36	1712.10
256.58	1662.95
256.80	1675.24
257.02	1669.09
257.23	1673.19
257.45	1699.81
257.67	1759.21
257.88	1644.52
258.10	1787.88
258.32	1687.53
258.53	1767.40
258.75	1777.64
258.97	1730.53
259.18	1705.96
259.40	1705.96
259.62	1767.40
259.83	1763.30
260.05	1771.49
260.27	1937.38
260.48	1781.73
260.70	1746.92
260.92	1845.22
261.13	1699.81
261.35	1744.87
261.57	1753.06
261.78	1656.81
262.00	1677.29
262.22	1732.58
262.43	1718.25
262.65	1714.15
262.86	1665.00
263.08	1892.32
263.30	1753.06
263.51	1587.18
263.73	1673.19
263.95	1796.07
264.16	1652.71
264.38	1701.86
264.60	1685.48
264.81	1734.63
265.03	1810.40
265.25	1759.21
265.46	1662.95
265.68	1785.83
265.89	1671.14
266.11	1611.75
266.33	1783.78
266.54	1734.63
266.76	1736.68
266.98	1753.06
267.19	1826.79
267.41	1761.25
267.62	1718.25
267.84	1609.70
268.06	1724.39
268.27	1720.29
268.49	1783.78
268.70	1753.06
268.92	1730.53
269.14	1660.90
269.35	1689.57
269.57	1730.53
269.79	1839.08
270.00	1722.34
270.22	1830.88
270.43	1658.85
270.65	1630.18
270.87	1699.81
271.08	1736.68
271.30	1761.25
271.51	1693.67
271.73	1712.10
271.95	1753.06
272.16	1716.20
272.38	1728.49
272.59	1601.51
272.81	1753.06
273.02	1679.33
273.24	1658.85
273.46	1753.06
273.67	1693.67
273.89	1681.38
274.10	1759.21
274.32	1834.98
274.54	1722.34
274.75	1757.16
274.97	1681.38
275.18	1814.50
275.40	1837.03
275.61	1701.86
275.83	1718.25
276.05	1652.71
276.26	1673.19
276.48	1751.01
276.69	1673.19
276.91	1718.25
277.12	1716.20
277.34	1789.92
277.55	1808.36
277.77	1691.62
277.99	1701.86
278.20	1718.25
278.42	1611.75
278.63	1654.76
278.85	1716.20
279.06	1675.24
279.28	1769.44
279.49	1759.21
279.71	1771.49
279.93	1697.77
280.14	1722.34
280.36	1619.94
280.57	1693.67
280.79	1763.30
281.00	1701.86
281.22	1642.47
281.43	1787.88
281.65	1638.38
281.86	1665.00
282.08	1732.58
282.29	1794.02
282.51	1636.33
282.73	1683.43
282.94	1603.56
283.16	1744.87
283.37	1845.22
283.59	1656.81
283.80	1718.25
284.02	1710.05
284.23	1708.01
284.45	1691.62
284.66	1636.33
284.88	1638.38
285.09	1695.72
285.31	1705.96
285.52	1708.01
285.74	1574.89
285.95	1683.43
286.17	1685.48
286.38	1816.55
286.60	1644.52
286.81	1652.71
287.03	1677.29
287.24	1710.05
287.46	1718.25
287.67	1779.68
287.89	1834.98
288.10	1769.44
288.32	1794.02
288.53	1742.82
288.75	1718.25
288.96	1708.01
289.18	1648.61
289.39	1740.77
289.61	1738.73
289.82	1822.69
290.04	1763.30
290.25	1687.53
290.47	1718.25
290.68	1730.53
290.90	1755.11
291.11	1621.99
291.33	1751.01
291.54	1683.43
291.76	1679.33
291.97	1787.88
292.18	1689.57
292.40	1693.67
292.61	1722.34
292.83	1867.75
293.04	1777.64
293.26	1691.62
293.47	1681.38
293.69	1697.77
293.90	1699.81
294.12	1773.54
294.33	1736.68
294.55	1703.91
294.76	1771.49
294.97	1800.16
295.19	1804.26
295.40	1654.76
295.62	1712.10
295.83	1767.40
296.05	1689.57
296.26	1763.30
296.48	1650.66
296.69	1675.24
296.90	1710.05
297.12	1722.34
297.33	1785.83
297.55	1728.49
297.76	1781.73
297.98	1740.77
298.19	1710.05
298.41	1746.92
298.62	1681.38
298.83	1755.11
299.05	1834.98
299.26	1708.01
299.48	1638.38
299.69	1775.59
299.90	1705.96
300.12	1671.14
300.33	1740.77
300.55	1685.48
300.76	1728.49
300.98	1732.58
301.19	1787.88
301.40	1652.71
301.62	1691.62
301.83	1753.06
302.05	1720.29
302.26	1759.21
302.47	1720.29
302.69	1685.48
302.90	1740.77
303.12	1595.37
303.33	1732.58
303.54	1798.12
303.76	1691.62
303.97	1738.73
304.19	1755.11
304.40	1746.92
304.61	1763.30
304.83	1841.12
305.04	1843.17
305.26	1757.16
305.47	1685.48
305.68	1730.53
305.90	1728.49
306.11	1804.26
306.33	1734.63
306.54	1703.91
306.75	1679.33
306.97	1695.72
307.18	1679.33
307.39	1703.91
307.61	1765.35
307.82	1685.48
308.04	1695.72
308.25	1685.48
308.46	1810.40
308.68	1708.01
308.89	1714.15
309.10	1718.25
309.32	1705.96
309.53	1701.86
309.74	1689.57
309.96	1662.95
310.17	1783.78
310.39	1738.73
310.60	1746.92
310.81	1720.29
311.03	1611.75
311.24	1730.53
311.45	1820.64
311.67	1828.84
311.88	1697.77
312.09	1677.29
312.31	1691.62
312.52	1712.10
312.73	1677.29
312.95	1691.62
313.16	1724.39
313.37	1748.97
313.59	1705.96
313.80	1726.44
314.01	1791.97
314.23	1662.95
314.44	1656.81
314.65	1683.43
314.87	1736.68
315.08	1658.85
315.29	1691.62
315.51	1609.70
315.72	1662.95
315.93	1802.21
316.15	1828.84
316.36	1638.38
316.57	1791.97
316.79	1767.40
317.00	1703.91
317.21	1740.77
317.43	1660.90
317.64	1685.48
317.85	1681.38
318.07	1656.81
318.28	1767.40
318.49	1730.53
318.70	1935.33
318.92	1798.12
319.13	1914.85
319.34	1910.75
319.56	1746.92
319.77	1914.85
319.98	1779.68
320.20	1802.21
320.41	1820.64
320.62	1757.16
320.83	1640.42
321.05	1834.98
321.26	1751.01
321.47	1728.49
321.69	1773.54
321.90	1632.23
322.11	1648.61
322.32	1787.88
322.54	1859.56
322.75	1658.85
322.96	1869.80
323.18	1593.32
323.39	1601.51
323.60	1736.68
323.81	1753.06
324.03	1734.63
324.24	1732.58
324.45	1683.43
324.66	1734.63
324.88	1767.40
325.09	1789.92
325.30	1736.68
325.52	1732.58
325.73	1751.01
325.94	1675.24
326.15	1619.94
326.37	1701.86
326.58	1718.25
326.79	1798.12
327.00	1685.48
327.22	1699.81
327.43	1595.37
327.64	1701.86
327.85	1804.26
328.07	1728.49
328.28	1734.63
328.49	1726.44
328.70	1732.58
328.92	1714.15
329.13	1677.29
329.34	1705.96
329.55	1791.97
329.76	1755.11
329.98	1628.14
330.19	1763.30
330.40	1730.53
330.61	1773.54
330.83	1802.21
331.04	1597.42
331.25	1695.72
331.46	1658.85
331.68	1648.61
331.89	1800.16
332.10	1734.63
332.31	1640.42
332.52	1722.34
332.74	1783.78
332.95	1683.43
333.16	1722.34
333.37	1746.92
333.58	1679.33
333.80	1722.34
334.01	1708.01
334.22	1691.62
334.43	1732.58
334.64	1652.71
334.86	1705.96
335.07	1609.70
335.28	1812.45
335.49	1685.48
335.70	1746.92
335.92	1734.63
336.13	1814.50
336.34	1798.12
336.55	1691.62
336.76	1751.01
336.98	1603.56
337.19	1732.58
337.40	1834.98
337.61	1800.16
337.82	1697.77
338.04	1742.82
338.25	1710.05
338.46	1671.14
338.67	1667.05
338.88	1687.53
339.09	1634.28
339.31	1677.29
339.52	1640.42
339.73	1734.63
339.94	1677.29
340.15	1812.45
340.36	1718.25
340.58	1759.21
340.79	1621.99
341.00	1789.92
341.21	1619.94
341.42	1857.51
341.63	1728.49
341.85	1738.73
342.06	1646.57
342.27	1658.85
342.48	1816.55
342.69	1611.75
342.90	1656.81
343.12	1667.05
343.33	1685.48
343.54	1783.78
343.75	1775.59
343.96	1691.62
344.17	1679.33
344.38	1734.63
344.60	1607.66
344.81	1648.61
345.02	1705.96
345.23	1722.34
345.44	1816.55
345.65	1787.88
345.86	1708.01
346.07	1769.44
346.29	1724.39
346.50	1791.97
346.71	1800.16
346.92	1820.64
347.13	1925.09
347.34	1751.01
347.55	1650.66
347.76	1728.49
347.98	1687.53
348.19	1724.39
348.40	1859.56
348.61	1646.57
348.82	1820.64
349.03	1742.82
349.24	1593.32
349.45	1875.94
349.66	1644.52
349.88	1691.62
350.09	1679.33
350.30	1824.74
350.51	1812.45
350.72	1718.25
350.93	1697.77
351.14	1626.09
351.35	1714.15
351.56	1812.45
351.77	1714.15
351.99	1652.71
352.20	1763.30
352.41	1730.53
352.62	1587.18
352.83	1710.05
353.04	1685.48
353.25	1669.09
353.46	1796.07
353.67	1689.57
353.88	1669.09
354.09	1703.91
354.30	1679.33
354.52	1783.78
354.73	1691.62
354.94	1718.25
355.15	1759.21
355.36	1771.49
355.57	1738.73
355.78	1730.53
355.99	1681.38
356.20	1650.66
356.41	1814.50
356.62	1697.77
356.83	1677.29
357.04	1761.25
357.25	1658.85
357.46	1640.42
357.68	1605.61
357.89	1673.19
358.10	1730.53
358.31	1703.91
358.52	1736.68
358.73	1734.63
358.94	1665.00
359.15	1628.14
359.36	1832.93
359.57	1673.19
359.78	1662.95
359.99	1742.82
360.20	1673.19
360.41	1703.91
360.62	1675.24
360.83	1693.67
361.04	1708.01
361.25	1732.58
361.46	1783.78
361.67	1718.25
361.88	1722.34
362.09	1687.53
362.30	1773.54
362.51	1677.29
362.72	1708.01
362.93	1814.50
363.14	1675.24
363.35	1703.91
363.56	1673.19
363.78	1834.98
363.99	1820.64
364.20	1613.80
364.41	1701.86
364.62	1808.36
364.83	1771.49
365.04	1693.67
365.25	1736.68
365.46	1853.41
365.67	1644.52
365.88	1662.95
366.09	1691.62
366.30	1732.58
366.51	1689.57
366.72	1615.85
366.93	1736.68
367.14	1787.88
367.35	1761.25
367.56	1691.62
367.77	1718.25
367.98	1626.09
368.18	1740.77
368.39	1818.60
368.60	1656.81
368.81	1712.10
369.02	1746.92
369.23	1781.73
369.44	1667.05
369.65	1650.66
369.86	1740.77
370.07	1814.50
370.28	1673.19
370.49	1791.97
370.70	1732.58
370.91	1683.43
371.12	1624.04
371.33	1732.58
371.54	1685.48
371.75	1775.59
371.96	1599.46
372.17	1660.90
372.38	1712.10
372.59	1740.77
372.80	1660.90
373.01	1714.15
373.22	1652.71
373.43	1806.31
373.64	1574.89
373.85	1724.39
374.06	1861.60
374.26	1734.63
374.47	1720.29
374.68	1773.54
374.89	1710.05
375.10	1748.97
375.31	1841.12
375.52	1718.25
375.73	1675.24
375.94	1638.38
376.15	1853.41
376.36	1701.86
376.57	1654.76
376.78	1683.43
376.99	1720.29
377.20	1834.98
377.40	1712.10
377.61	1806.31
377.82	1689.57
378.03	1781.73
378.24	1765.35
378.45	1748.97
378.66	1812.45
378.87	1603.56
379.08	1697.77
379.29	1724.39
379.50	1796.07
379.71	1720.29
379.91	1746.92
380.12	1683.43
380.33	1732.58
380.54	1642.47
380.75	1746.92
380.96	1648.61
381.17	1773.54
381.38	1734.63
381.59	1746.92
381.80	1728.49
382.00	1849.32
382.21	1802.21
382.42	1859.56
382.63	1867.75
382.84	1796.07
383.05	1677.29
383.26	1826.79
383.47	1740.77
383.68	1744.87
383.88	1724.39
384.09	1746.92
384.30	1818.60
384.51	1701.86
384.72	1748.97
384.93	1691.62
385.14	1714.15
385.35	1789.92
385.55	1615.85
385.76	1759.21
385.97	1675.24
386.18	1701.86
386.39	1720.29
386.60	1720.29
386.81	1705.96
387.02	1683.43
387.22	1619.94
387.43	1775.59
387.64	1779.68
387.85	1900.52
388.06	2238.43
388.27	4257.73
388.48	6797.21
388.68	8308.61
388.89	9725.80
389.10	10037.09
389.31	8859.51
389.52	7880.58
389.73	6711.19
389.93	6150.05
390.14	5941.16
390.35	5078.96
390.56	4618.17
390.77	3829.70
390.98	3012.56
391.18	2490.33
391.39	2150.37
391.60	1822.69
391.81	1800.16
392.02	1714.15
392.23	1863.65
392.43	1746.92
392.64	1810.40
392.85	1759.21
393.06	1798.12
393.27	1759.21
393.47	1699.81
393.68	1757.16
393.89	1626.09
394.10	1828.84
394.31	1675.24
394.52	1783.78
394.72	1683.43
394.93	1751.01
395.14	1730.53
395.35	1685.48
395.56	1710.05
395.76	1720.29
395.97	1787.88
396.18	1888.23
396.39	1800.16
396.60	2009.06
396.80	1877.99
397.01	1798.12
397.22	1820.64
397.43	1830.88
397.64	1689.57
397.84	1763.30
398.05	1837.03
398.26	1708.01
398.47	1804.26
398.67	1812.45
398.88	1755.11
399.09	1724.39
399.30	1681.38
399.51	1720.29
399.71	1695.72
399.92	1689.57
400.13	1791.97
400.34	1687.53
400.54	1677.29
400.75	1824.74
400.96	1759.21
401.17	1851.36
401.37	1771.49
401.58	1630.18
401.79	1724.39
402.00	1822.69
402.21	2027.49
402.41	2000.87
402.62	1961.95
402.83	2002.91
403.04	2095.07
403.24	2068.45
403.45	1796.07
403.66	1849.32
403.87	1886.18
404.07	1961.95
404.28	1931.23
404.49	1900.52
404.70	1771.49
404.90	1806.31
405.11	1681.38
405.32	1701.86
405.52	1650.66
405.73	1689.57
405.94	1705.96
406.15	1705.96
406.35	1775.59
406.56	1779.68
406.77	1681.38
406.98	1732.58
407.18	1675.24
407.39	1818.60
407.60	1744.87
407.80	1716.20
408.01	1673.19
408.22	1671.14
408.43	1675.24
408.63	1626.09
408.84	1765.35
409.05	1769.44
409.25	1732.58
409.46	1685.48
409.67	1708.01
409.88	1718.25
410.08	1791.97
410.29	1681.38
410.50	1755.11
410.70	1761.25
410.91	1693.67
411.12	1804.26
411.32	1761.25
411.53	1765.35
411.74	1820.64
411.95	1767.40
412.15	1785.83
412.36	1804.26
412.57	1763.30
412.77	1800.16
412.98	1742.82
413.19	1669.09
413.39	1796.07
413.60	1820.64
413.81	1783.78
414.01	1640.42
414.22	1683.43
414.43	1714.15
414.63	1624.04
414.84	1775.59
415.05	1781.73
415.25	1607.66
415.46	1697.77
415.67	1654.76
415.87	1775.59
416.08	1681.38
416.29	1779.68
416.49	1728.49
416.70	1722.34
416.91	1650.66
417.11	1703.91
417.32	1744.87
417.53	1783.78
417.73	1726.44
417.94	1630.18
418.15	1753.06
418.35	1679.33
418.56	1751.01
418.77	1894.37
418.97	1642.47
419.18	1599.46
419.38	1593.32
419.59	1732.58
419.80	1789.92
420.00	1640.42
420.21	1720.29
420.42	1841.12
420.62	1759.21
420.83	1603.56
421.04	1787.88
421.24	1712.10
421.45	1734.63
421.65	1759.21
421.86	1703.91
422.07	1732.58
422.27	1693.67
422.48	1775.59
422.69	1691.62
422.89	1708.01
423.10	1716.20
423.30	1689.57
423.51	1742.82
423.72	1726.44
423.92	1789.92
424.13	1681.38
424.33	1759.21
424.54	1763.30
424.75	1751.01
424.95	1869.80
425.16	1665.00
425.36	1724.39
425.57	1695.72
425.78	1738.73
425.98	1796.07
426.19	1736.68
426.39	1669.09
426.60	1734.63
426.81	1763.30
427.01	1710.05
427.22	1701.86
427.42	1628.14
427.63	1642.47
427.83	1800.16
428.04	1796.07
428.25	1806.31
428.45	1839.08
428.66	1740.77
428.86	1794.02
429.07	1705.96
429.28	1751.01
429.48	1687.53
429.69	1677.29
429.89	1654.76
430.10	1691.62
430.30	1748.97
430.51	1708.01
430.71	1660.90
430.92	1730.53
431.13	1681.38
431.33	1765.35
431.54	1710.05
431.74	1884.13
431.95	1839.08
432.15	1695.72
432.36	1740.77
432.56	1740.77
432.77	1779.68
432.98	1771.49
433.18	1765.35
433.39	1720.29
433.59	1765.35
433.80	1804.26
434.00	1824.74
434.21	1675.24
434.41	1658.85
434.62	1859.56
434.82	1708.01
435.03	1658.85
435.23	1714.15
435.44	1660.90
435.64	1724.39
435.85	1796.07
436.06	1736.68
436.26	1769.44
436.47	1775.59
436.67	1673.19
436.88	1751.01
437.08	1738.73
437.29	1814.50
437.49	1767.40
437.70	1716.20
437.90	1781.73
438.11	1822.69
438.31	1710.05
438.52	1822.69
438.72	1845.22
438.93	1923.04
439.13	1851.36
439.34	1857.51
439.54	1808.36
439.75	1808.36
439.95	1824.74
440.16	1654.76
440.36	1771.49
440.57	1728.49
440.77	1757.16
440.98	1806.31
441.18	1828.84
441.39	1687.53
441.59	1673.19
441.80	1886.18
442.00	1736.68
442.21	1837.03
442.41	1628.14
442.62	1789.92
442.82	1755.11
443.02	1722.34
443.23	1744.87
443.43	1718.25
443.64	1736.68
443.84	1701.86
444.05	1851.36
444.25	1789.92
444.46	1708.01
444.66	1675.24
444.87	1765.35
445.07	1736.68
445.28	1779.68
445.48	1822.69
445.69	1859.56
445.89	1841.12
446.09	1718.25
446.30	2099.17
446.50	2596.82
446.71	3733.45
446.91	4351.93
447.12	4880.31
447.32	4853.69
447.53	4327.36
447.73	3762.12
447.93	3647.43
448.14	3303.37
448.34	3211.22
448.55	2951.12
448.75	2899.92
448.96	2727.89
449.16	2385.88
449.36	2389.98
449.57	2047.97
449.77	1816.55
449.98	1779.68
450.18	1820.64
450.39	1822.69
450.59	1822.69
450.79	1791.97
451.00	1681.38
451.20	1832.93
451.41	1771.49
451.61	1794.02
451.81	1783.78
452.02	1667.05
452.22	1708.01
452.43	1734.63
452.63	1740.77
