SpectraSuite Data File
++++++++++++++++++++++++++++++++++++
Date: Mon Jun 06 12:42:57 CEST 2016
User: root
Dark Spectrum Present: No
Reference Spectrum Present: No
Number of Sampled Component Spectra: 1
Spectrometers: USB4C02835
Integration Time (usec): 100000 (USB4C02835)
Spectra Averaged: 1 (USB4C02835)
Boxcar Smoothing: 0 (USB4C02835)
Correct for Electrical Dark: No (USB4C02835)
Strobe/Lamp Enabled: No (USB4C02835)
Correct for Detector Non-linearity: No (USB4C02835)
Correct for Stray Light: No (USB4C02835)
Number of Pixels in Processed Spectrum: 3648
>>>>>Begin Processed Spectral Data<<<<<
177.47	1484.78
177.69	1484.78
177.91	1484.78
178.13	1478.63
178.36	1468.39
178.58	1574.89
178.80	1789.92
179.02	1570.79
179.24	1638.38
179.46	1624.04
179.68	1705.96
179.90	1638.38
180.13	1665.00
180.35	1683.43
180.57	1687.53
180.79	1728.49
181.01	1705.96
181.23	1681.38
181.45	1765.35
181.67	1642.47
181.90	1751.01
182.12	1730.53
182.34	1572.84
182.56	1714.15
182.78	1671.14
183.00	1687.53
183.22	1710.05
183.44	1554.41
183.66	1751.01
183.89	1816.55
184.11	1593.32
184.33	1656.81
184.55	1771.49
184.77	1718.25
184.99	1734.63
185.21	1613.80
185.43	1828.84
185.65	1624.04
185.87	1669.09
186.10	1773.54
186.32	1918.95
186.54	1738.73
186.76	1685.48
186.98	1796.07
187.20	1736.68
187.42	1773.54
187.64	1695.72
187.86	1746.92
188.08	1714.15
188.30	1646.57
188.52	1662.95
188.75	1748.97
188.97	1804.26
189.19	1656.81
189.41	1730.53
189.63	1738.73
189.85	1619.94
190.07	1638.38
190.29	1591.27
190.51	1720.29
190.73	1599.46
190.95	1781.73
191.17	1613.80
191.39	1613.80
191.61	1724.39
191.84	1650.66
192.06	1742.82
192.28	1728.49
192.50	1888.23
192.72	1767.40
192.94	1634.28
193.16	1769.44
193.38	1665.00
193.60	1667.05
193.82	1695.72
194.04	1765.35
194.26	1724.39
194.48	1699.81
194.70	1658.85
194.92	1740.77
195.14	1703.91
195.36	1681.38
195.58	1665.00
195.80	1695.72
196.02	1679.33
196.24	1578.98
196.46	1732.58
196.69	1636.33
196.91	1828.84
197.13	1748.97
197.35	1677.29
197.57	1800.16
197.79	1726.44
198.01	1628.14
198.23	1638.38
198.45	1763.30
198.67	1640.42
198.89	1718.25
199.11	1708.01
199.33	1611.75
199.55	1552.36
199.77	1718.25
199.99	1765.35
200.21	1669.09
200.43	1800.16
200.65	1656.81
200.87	1583.08
201.09	1693.67
201.31	1753.06
201.53	1742.82
201.75	1755.11
201.97	1671.14
202.19	1662.95
202.41	1691.62
202.63	1757.16
202.85	1720.29
203.07	1687.53
203.29	1665.00
203.51	1632.23
203.73	1697.77
203.95	1941.47
204.17	1689.57
204.39	1691.62
204.61	1714.15
204.83	1691.62
205.05	1687.53
205.27	1761.25
205.49	1765.35
205.71	1640.42
205.93	1646.57
206.15	1693.67
206.37	1675.24
206.59	1714.15
206.81	1646.57
207.03	1601.51
207.25	1617.90
207.47	1787.88
207.69	1691.62
207.91	1841.12
208.13	1742.82
208.34	1634.28
208.56	1632.23
208.78	1722.34
209.00	1624.04
209.22	1638.38
209.44	1679.33
209.66	1746.92
209.88	1728.49
210.10	1646.57
210.32	1671.14
210.54	1748.97
210.76	1718.25
210.98	1703.91
211.20	1619.94
211.42	1718.25
211.64	1755.11
211.86	1671.14
212.08	1677.29
212.30	1685.48
212.52	1724.39
212.74	1685.48
212.96	1703.91
213.17	1751.01
213.39	1751.01
213.61	1720.29
213.83	1705.96
214.05	1634.28
214.27	1769.44
214.49	1681.38
214.71	1595.37
214.93	1769.44
215.15	1765.35
215.37	1675.24
215.59	1585.13
215.81	1699.81
216.03	1736.68
216.24	1736.68
216.46	1650.66
216.68	1785.83
216.90	1736.68
217.12	1779.68
217.34	1744.87
217.56	1728.49
217.78	1779.68
218.00	1796.07
218.22	1722.34
218.44	1681.38
218.66	1771.49
218.87	1740.77
219.09	1605.61
219.31	1806.31
219.53	1744.87
219.75	1603.56
219.97	1669.09
220.19	1691.62
220.41	1642.47
220.63	1751.01
220.85	1740.77
221.06	1652.71
221.28	1722.34
221.50	1675.24
221.72	1677.29
221.94	1724.39
222.16	1701.86
222.38	1738.73
222.60	1804.26
222.82	1728.49
223.03	1683.43
223.25	1667.05
223.47	1726.44
223.69	1863.65
223.91	1779.68
224.13	1757.16
224.35	1710.05
224.57	1789.92
224.78	1679.33
225.00	1634.28
225.22	1761.25
225.44	1626.09
225.66	1714.15
225.88	1732.58
226.10	1736.68
226.32	1738.73
226.53	1777.64
226.75	1689.57
226.97	1683.43
227.19	1667.05
227.41	1746.92
227.63	1630.18
227.85	1607.66
228.06	1740.77
228.28	1779.68
228.50	1714.15
228.72	1644.52
228.94	1615.85
229.16	1646.57
229.37	1685.48
229.59	1673.19
229.81	1818.60
230.03	1746.92
230.25	1660.90
230.47	1673.19
230.69	1619.94
230.90	1728.49
231.12	1724.39
231.34	1748.97
231.56	1701.86
231.78	1630.18
232.00	1701.86
232.21	1705.96
232.43	1728.49
232.65	1525.74
232.87	1705.96
233.09	1675.24
233.30	1705.96
233.52	1697.77
233.74	1675.24
233.96	1656.81
234.18	1732.58
234.40	1683.43
234.61	1818.60
234.83	1650.66
235.05	1570.79
235.27	1798.12
235.49	1773.54
235.70	1708.01
235.92	1738.73
236.14	1636.33
236.36	1777.64
236.58	1621.99
236.79	1718.25
237.01	1669.09
237.23	1732.58
237.45	1873.89
237.67	1658.85
237.88	1652.71
238.10	1714.15
238.32	1697.77
238.54	1671.14
238.76	1714.15
238.97	1593.32
239.19	1671.14
239.41	1751.01
239.63	1748.97
239.85	1599.46
240.06	1691.62
240.28	1708.01
240.50	1693.67
240.72	1656.81
240.93	1744.87
241.15	1845.22
241.37	1693.67
241.59	1851.36
241.81	1650.66
242.02	1746.92
242.24	1736.68
242.46	1755.11
242.68	1601.51
242.89	1736.68
243.11	1763.30
243.33	1746.92
243.55	1804.26
243.76	1710.05
243.98	1660.90
244.20	1722.34
244.42	1705.96
244.64	1669.09
244.85	1646.57
245.07	1677.29
245.29	1755.11
245.51	1677.29
245.72	1726.44
245.94	1746.92
246.16	1708.01
246.38	1708.01
246.59	1679.33
246.81	1673.19
247.03	1691.62
247.24	1619.94
247.46	1665.00
247.68	1699.81
247.90	1736.68
248.11	1626.09
248.33	1755.11
248.55	1722.34
248.77	1654.76
248.98	1753.06
249.20	1796.07
249.42	1685.48
249.64	1679.33
249.85	1689.57
250.07	1671.14
250.29	1697.77
250.50	1699.81
250.72	1644.52
250.94	1701.86
251.16	1830.88
251.37	1736.68
251.59	1734.63
251.81	1689.57
252.02	1738.73
252.24	1665.00
252.46	1738.73
252.68	1708.01
252.89	1626.09
253.11	1626.09
253.33	1742.82
253.54	1783.78
253.76	1587.18
253.98	1734.63
254.20	1638.38
254.41	1597.42
254.63	1710.05
254.85	1632.23
255.06	1693.67
255.28	1640.42
255.50	1677.29
255.71	1656.81
255.93	1626.09
256.15	1654.76
256.36	1708.01
256.58	1642.47
256.80	1734.63
257.02	1693.67
257.23	1636.33
257.45	1701.86
257.67	1730.53
257.88	1638.38
258.10	1669.09
258.32	1640.42
258.53	1726.44
258.75	1726.44
258.97	1697.77
259.18	1751.01
259.40	1665.00
259.62	1814.50
259.83	1820.64
260.05	1675.24
260.27	1988.58
260.48	1800.16
260.70	1689.57
260.92	1667.05
261.13	1681.38
261.35	1697.77
261.57	1773.54
261.78	1587.18
262.00	1603.56
262.22	1689.57
262.43	1611.75
262.65	1710.05
262.86	1660.90
263.08	1818.60
263.30	1648.61
263.51	1658.85
263.73	1644.52
263.95	1761.25
264.16	1705.96
264.38	1646.57
264.60	1722.34
264.81	1718.25
265.03	1728.49
265.25	1744.87
265.46	1658.85
265.68	1765.35
265.89	1763.30
266.11	1621.99
266.33	1648.61
266.54	1773.54
266.76	1742.82
266.98	1753.06
267.19	1789.92
267.41	1757.16
267.62	1708.01
267.84	1673.19
268.06	1787.88
268.27	1703.91
268.49	1724.39
268.70	1814.50
268.92	1701.86
269.14	1746.92
269.35	1605.61
269.57	1662.95
269.79	1722.34
270.00	1722.34
270.22	1767.40
270.43	1687.53
270.65	1632.23
270.87	1740.77
271.08	1730.53
271.30	1716.20
271.51	1697.77
271.73	1689.57
271.95	1757.16
272.16	1783.78
272.38	1701.86
272.59	1705.96
272.81	1738.73
273.02	1724.39
273.24	1722.34
273.46	1650.66
273.67	1677.29
273.89	1671.14
274.10	1677.29
274.32	1775.59
274.54	1767.40
274.75	1730.53
274.97	1648.61
275.18	1728.49
275.40	1689.57
275.61	1740.77
275.83	1730.53
276.05	1617.90
276.26	1732.58
276.48	1732.58
276.69	1681.38
276.91	1738.73
277.12	1675.24
277.34	1775.59
277.55	1738.73
277.77	1693.67
277.99	1699.81
278.20	1660.90
278.42	1667.05
278.63	1619.94
278.85	1708.01
279.06	1624.04
279.28	1673.19
279.49	1771.49
279.71	1730.53
279.93	1714.15
280.14	1695.72
280.36	1718.25
280.57	1759.21
280.79	1708.01
281.00	1689.57
281.22	1658.85
281.43	1734.63
281.65	1578.98
281.86	1626.09
282.08	1691.62
282.29	1800.16
282.51	1708.01
282.73	1671.14
282.94	1662.95
283.16	1755.11
283.37	1759.21
283.59	1691.62
283.80	1738.73
284.02	1734.63
284.23	1691.62
284.45	1746.92
284.66	1667.05
284.88	1662.95
285.09	1746.92
285.31	1701.86
285.52	1744.87
285.74	1578.98
285.95	1769.44
286.17	1667.05
286.38	1708.01
286.60	1695.72
286.81	1652.71
287.03	1675.24
287.24	1712.10
287.46	1687.53
287.67	1779.68
287.89	1820.64
288.10	1734.63
288.32	1734.63
288.53	1748.97
288.75	1751.01
288.96	1710.05
289.18	1689.57
289.39	1681.38
289.61	1744.87
289.82	1765.35
290.04	1765.35
290.25	1640.42
290.47	1691.62
290.68	1671.14
290.90	1753.06
291.11	1656.81
291.33	1714.15
291.54	1658.85
291.76	1615.85
291.97	1689.57
292.18	1701.86
292.40	1648.61
292.61	1658.85
292.83	1808.36
293.04	1722.34
293.26	1697.77
293.47	1751.01
293.69	1675.24
293.90	1640.42
294.12	1753.06
294.33	1705.96
294.55	1689.57
294.76	1789.92
294.97	1763.30
295.19	1783.78
295.40	1716.20
295.62	1742.82
295.83	1812.45
296.05	1697.77
296.26	1720.29
296.48	1705.96
296.69	1740.77
296.90	1728.49
297.12	1665.00
297.33	1824.74
297.55	1693.67
297.76	1732.58
297.98	1808.36
298.19	1730.53
298.41	1703.91
298.62	1681.38
298.83	1757.16
299.05	1658.85
299.26	1677.29
299.48	1660.90
299.69	1740.77
299.90	1656.81
300.12	1732.58
300.33	1705.96
300.55	1691.62
300.76	1658.85
300.98	1605.61
301.19	1726.44
301.40	1685.48
301.62	1722.34
301.83	1779.68
302.05	1673.19
302.26	1746.92
302.47	1695.72
302.69	1685.48
302.90	1730.53
303.12	1593.32
303.33	1720.29
303.54	1777.64
303.76	1687.53
303.97	1693.67
304.19	1716.20
304.40	1697.77
304.61	1789.92
304.83	1789.92
305.04	1804.26
305.26	1794.02
305.47	1656.81
305.68	1648.61
305.90	1671.14
306.11	1783.78
306.33	1681.38
306.54	1665.00
306.75	1681.38
306.97	1593.32
307.18	1638.38
307.39	1730.53
307.61	1738.73
307.82	1708.01
308.04	1710.05
308.25	1638.38
308.46	1785.83
308.68	1691.62
308.89	1734.63
309.10	1685.48
309.32	1697.77
309.53	1740.77
309.74	1720.29
309.96	1650.66
310.17	1761.25
310.39	1615.85
310.60	1746.92
310.81	1742.82
311.03	1705.96
311.24	1757.16
311.45	1660.90
311.67	1816.55
311.88	1677.29
312.09	1658.85
312.31	1716.20
312.52	1699.81
312.73	1718.25
312.95	1603.56
313.16	1673.19
313.37	1828.84
313.59	1708.01
313.80	1699.81
314.01	1724.39
314.23	1628.14
314.44	1619.94
314.65	1650.66
314.87	1644.52
315.08	1755.11
315.29	1763.30
315.51	1589.22
315.72	1581.03
315.93	1787.88
316.15	1779.68
316.36	1634.28
316.57	1695.72
316.79	1728.49
317.00	1746.92
317.21	1716.20
317.43	1665.00
317.64	1751.01
317.85	1601.51
318.07	1662.95
318.28	1748.97
318.49	1818.60
318.70	1925.09
318.92	1806.31
319.13	1796.07
319.34	1767.40
319.56	1761.25
319.77	1773.54
319.98	1775.59
320.20	1785.83
320.41	1744.87
320.62	1669.09
320.83	1679.33
321.05	1832.93
321.26	1615.85
321.47	1728.49
321.69	1742.82
321.90	1624.04
322.11	1615.85
322.32	1699.81
322.54	1816.55
322.75	1693.67
322.96	1843.17
323.18	1644.52
323.39	1636.33
323.60	1687.53
323.81	1687.53
324.03	1708.01
324.24	1765.35
324.45	1705.96
324.66	1691.62
324.88	1746.92
325.09	1765.35
325.30	1708.01
325.52	1767.40
325.73	1714.15
325.94	1726.44
326.15	1542.12
326.37	1736.68
326.58	1832.93
326.79	1685.48
327.00	1660.90
327.22	1710.05
327.43	1708.01
327.64	1630.18
327.85	1746.92
328.07	1771.49
328.28	1751.01
328.49	1705.96
328.70	1701.86
328.92	1693.67
329.13	1675.24
329.34	1779.68
329.55	1824.74
329.76	1785.83
329.98	1638.38
330.19	1791.97
330.40	1738.73
330.61	1685.48
330.83	1744.87
331.04	1687.53
331.25	1722.34
331.46	1703.91
331.68	1624.04
331.89	1751.01
332.10	1669.09
332.31	1613.80
332.52	1665.00
332.74	1765.35
332.95	1636.33
333.16	1697.77
333.37	1755.11
333.58	1738.73
333.80	1724.39
334.01	1644.52
334.22	1718.25
334.43	1628.14
334.64	1712.10
334.86	1667.05
335.07	1593.32
335.28	1744.87
335.49	1611.75
335.70	1771.49
335.92	1673.19
336.13	1771.49
336.34	1734.63
336.55	1675.24
336.76	1767.40
336.98	1517.54
337.19	1701.86
337.40	1675.24
337.61	1839.08
337.82	1677.29
338.04	1783.78
338.25	1615.85
338.46	1724.39
338.67	1648.61
338.88	1652.71
339.09	1542.12
339.31	1705.96
339.52	1665.00
339.73	1615.85
339.94	1673.19
340.15	1775.59
340.36	1630.18
340.58	1695.72
340.79	1665.00
341.00	1773.54
341.21	1636.33
341.42	1794.02
341.63	1685.48
341.85	1771.49
342.06	1791.97
342.27	1675.24
342.48	1724.39
342.69	1656.81
342.90	1697.77
343.12	1748.97
343.33	1640.42
343.54	1691.62
343.75	1818.60
343.96	1603.56
344.17	1708.01
344.38	1728.49
344.60	1654.76
344.81	1685.48
345.02	1638.38
345.23	1769.44
345.44	1753.06
345.65	1755.11
345.86	1695.72
346.07	1726.44
346.29	1673.19
346.50	1701.86
346.71	1736.68
346.92	1781.73
347.13	1828.84
347.34	1697.77
347.55	1742.82
347.76	1708.01
347.98	1607.66
348.19	1683.43
348.40	1734.63
348.61	1730.53
348.82	1775.59
349.03	1693.67
349.24	1638.38
349.45	1744.87
349.66	1521.64
349.88	1742.82
350.09	1640.42
350.30	1824.74
350.51	1759.21
350.72	1687.53
350.93	1736.68
351.14	1675.24
351.35	1714.15
351.56	1703.91
351.77	1681.38
351.99	1660.90
352.20	1753.06
352.41	1763.30
352.62	1644.52
352.83	1648.61
353.04	1673.19
353.25	1679.33
353.46	1744.87
353.67	1804.26
353.88	1589.22
354.09	1654.76
354.30	1755.11
354.52	1619.94
354.73	1714.15
354.94	1683.43
355.15	1671.14
355.36	1714.15
355.57	1650.66
355.78	1658.85
355.99	1699.81
356.20	1691.62
356.41	1798.12
356.62	1652.71
356.83	1716.20
357.04	1785.83
357.25	1660.90
357.46	1634.28
357.68	1640.42
357.89	1701.86
358.10	1722.34
358.31	1730.53
358.52	1689.57
358.73	1611.75
358.94	1640.42
359.15	1632.23
359.36	1775.59
359.57	1699.81
359.78	1640.42
359.99	1787.88
360.20	1568.74
360.41	1710.05
360.62	1703.91
360.83	1732.58
361.04	1677.29
361.25	1665.00
361.46	1787.88
361.67	1701.86
361.88	1757.16
362.09	1732.58
362.30	1665.00
362.51	1681.38
362.72	1691.62
362.93	1730.53
363.14	1775.59
363.35	1859.56
363.56	1755.11
363.78	1705.96
363.99	1781.73
364.20	1603.56
364.41	1705.96
364.62	1791.97
364.83	1708.01
365.04	1697.77
365.25	1685.48
365.46	1777.64
365.67	1611.75
365.88	1712.10
366.09	1677.29
366.30	1689.57
366.51	1677.29
366.72	1636.33
366.93	1732.58
367.14	1720.29
367.35	1796.07
367.56	1712.10
367.77	1810.40
367.98	1716.20
368.18	1738.73
368.39	1765.35
368.60	1656.81
368.81	1771.49
369.02	1728.49
369.23	1646.57
369.44	1611.75
369.65	1619.94
369.86	1710.05
370.07	1816.55
370.28	1669.09
370.49	1708.01
370.70	1759.21
370.91	1646.57
371.12	1648.61
371.33	1771.49
371.54	1667.05
371.75	1759.21
371.96	1640.42
372.17	1691.62
372.38	1695.72
372.59	1732.58
372.80	1644.52
373.01	1681.38
373.22	1685.48
373.43	1703.91
373.64	1662.95
373.85	1712.10
374.06	1806.31
374.26	1718.25
374.47	1730.53
374.68	1771.49
374.89	1720.29
375.10	1714.15
375.31	1732.58
375.52	1744.87
375.73	1714.15
375.94	1615.85
376.15	1748.97
376.36	1648.61
376.57	1574.89
376.78	1613.80
376.99	1712.10
377.20	1687.53
377.40	1669.09
377.61	1767.40
377.82	1607.66
378.03	1732.58
378.24	1685.48
378.45	1771.49
378.66	1722.34
378.87	1585.13
379.08	1603.56
379.29	1720.29
379.50	1771.49
379.71	1687.53
379.91	1796.07
380.12	1730.53
380.33	1691.62
380.54	1697.77
380.75	1691.62
380.96	1673.19
381.17	1806.31
381.38	1697.77
381.59	1757.16
381.80	1675.24
382.00	1822.69
382.21	1796.07
382.42	1779.68
382.63	1902.56
382.84	1716.20
383.05	1785.83
383.26	1785.83
383.47	1701.86
383.68	1660.90
383.88	1759.21
384.09	1697.77
384.30	1755.11
384.51	1685.48
384.72	1658.85
384.93	1673.19
385.14	1722.34
385.35	1789.92
385.55	1685.48
385.76	1810.40
385.97	1681.38
386.18	1642.47
386.39	1685.48
386.60	1673.19
386.81	1699.81
387.02	1656.81
387.22	1650.66
387.43	1761.25
387.64	1738.73
387.85	1900.52
388.06	2123.74
388.27	4319.17
388.48	6891.41
388.68	8513.41
388.89	9709.42
389.10	9977.70
389.31	8814.46
389.52	7638.92
389.73	6729.63
389.93	6279.07
390.14	5791.66
390.35	5107.63
390.56	4603.83
390.77	3715.02
390.98	3098.58
391.18	2537.43
391.39	2125.79
391.60	1820.64
391.81	1779.68
392.02	1705.96
392.23	1818.60
392.43	1685.48
392.64	1800.16
392.85	1714.15
393.06	1740.77
393.27	1738.73
393.47	1689.57
393.68	1718.25
393.89	1615.85
394.10	1763.30
394.31	1689.57
394.52	1689.57
394.72	1640.42
394.93	1824.74
395.14	1654.76
395.35	1751.01
395.56	1701.86
395.76	1658.85
395.97	1701.86
396.18	1849.32
396.39	1812.45
396.60	1996.77
396.80	1865.70
397.01	1779.68
397.22	1818.60
397.43	1837.03
397.64	1683.43
397.84	1765.35
398.05	1871.84
398.26	1773.54
398.47	1775.59
398.67	1759.21
398.88	1697.77
399.09	1755.11
399.30	1730.53
399.51	1708.01
399.71	1677.29
399.92	1728.49
400.13	1732.58
400.34	1679.33
400.54	1759.21
400.75	1820.64
400.96	1681.38
401.17	1791.97
401.37	1695.72
401.58	1685.48
401.79	1714.15
402.00	1828.84
402.21	1994.72
402.41	1927.14
402.62	1941.47
402.83	1992.67
403.04	2041.82
403.24	2029.54
403.45	1810.40
403.66	1888.23
403.87	1861.60
404.07	1908.71
404.28	1900.52
404.49	1802.21
404.70	1789.92
404.90	1824.74
405.11	1701.86
405.32	1779.68
405.52	1732.58
405.73	1716.20
405.94	1632.23
406.15	1660.90
406.35	1740.77
406.56	1701.86
406.77	1755.11
406.98	1683.43
407.18	1671.14
407.39	1781.73
407.60	1691.62
407.80	1742.82
408.01	1693.67
408.22	1693.67
408.43	1667.05
408.63	1751.01
408.84	1728.49
409.05	1806.31
409.25	1665.00
409.46	1687.53
409.67	1757.16
409.88	1675.24
410.08	1699.81
410.29	1744.87
410.50	1644.52
410.70	1787.88
410.91	1632.23
411.12	1708.01
411.32	1734.63
411.53	1652.71
411.74	1824.74
411.95	1781.73
412.15	1777.64
412.36	1798.12
412.57	1761.25
412.77	1855.46
412.98	1701.86
413.19	1699.81
413.39	1775.59
413.60	1740.77
413.81	1802.21
414.01	1722.34
414.22	1796.07
414.43	1767.40
414.63	1703.91
414.84	1794.02
415.05	1730.53
415.25	1642.47
415.46	1738.73
415.67	1705.96
415.87	1656.81
416.08	1650.66
416.29	1677.29
416.49	1712.10
416.70	1669.09
416.91	1671.14
417.11	1654.76
417.32	1722.34
417.53	1724.39
417.73	1794.02
417.94	1759.21
418.15	1708.01
418.35	1708.01
418.56	1714.15
418.77	1855.46
418.97	1718.25
419.18	1693.67
419.38	1562.60
419.59	1726.44
419.80	1771.49
420.00	1617.90
420.21	1679.33
420.42	1775.59
420.62	1673.19
420.83	1697.77
421.04	1687.53
421.24	1726.44
421.45	1728.49
421.65	1757.16
421.86	1646.57
422.07	1820.64
422.27	1673.19
422.48	1658.85
422.69	1638.38
422.89	1693.67
423.10	1703.91
423.30	1703.91
423.51	1687.53
423.72	1748.97
423.92	1767.40
424.13	1613.80
424.33	1665.00
424.54	1734.63
424.75	1703.91
424.95	1734.63
425.16	1683.43
425.36	1720.29
425.57	1722.34
425.78	1785.83
425.98	1822.69
426.19	1789.92
426.39	1652.71
426.60	1687.53
426.81	1755.11
427.01	1665.00
427.22	1660.90
427.42	1617.90
427.63	1665.00
427.83	1812.45
428.04	1773.54
428.25	1703.91
428.45	1812.45
428.66	1773.54
428.86	1746.92
429.07	1687.53
429.28	1714.15
429.48	1730.53
429.69	1673.19
429.89	1732.58
430.10	1685.48
430.30	1761.25
430.51	1681.38
430.71	1603.56
430.92	1789.92
431.13	1585.13
431.33	1755.11
431.54	1785.83
431.74	1798.12
431.95	1900.52
432.15	1681.38
432.36	1712.10
432.56	1783.78
432.77	1791.97
432.98	1777.64
433.18	1785.83
433.39	1660.90
433.59	1710.05
433.80	1818.60
434.00	1812.45
434.21	1771.49
434.41	1597.42
434.62	1877.99
434.82	1624.04
435.03	1656.81
435.23	1650.66
435.44	1525.74
435.64	1746.92
435.85	1736.68
436.06	1767.40
436.26	1773.54
436.47	1652.71
436.67	1714.15
436.88	1673.19
437.08	1740.77
437.29	1763.30
437.49	1581.03
437.70	1759.21
437.90	1705.96
438.11	1806.31
438.31	1802.21
438.52	1904.61
438.72	1837.03
438.93	1847.27
439.13	1781.73
439.34	1753.06
439.54	1714.15
439.75	1763.30
439.95	1794.02
440.16	1683.43
440.36	1705.96
440.57	1693.67
440.77	1714.15
440.98	1783.78
441.18	1701.86
441.39	1708.01
441.59	1660.90
441.80	1783.78
442.00	1673.19
442.21	1781.73
442.41	1683.43
442.62	1767.40
442.82	1638.38
443.02	1710.05
443.23	1728.49
443.43	1689.57
443.64	1796.07
443.84	1675.24
444.05	1757.16
444.25	1656.81
444.46	1730.53
444.66	1699.81
444.87	1873.89
445.07	1607.66
445.28	1675.24
445.48	1820.64
445.69	1722.34
445.89	1841.12
446.09	1720.29
446.30	1980.39
446.50	2619.35
446.71	3710.92
446.91	4282.30
447.12	4671.42
447.32	4954.04
447.53	4372.41
447.73	3866.56
447.93	3571.66
448.14	3370.96
448.34	3248.08
448.55	2969.55
448.75	2828.24
448.96	2729.94
449.16	2353.12
449.36	2326.49
449.57	1994.72
449.77	1898.47
449.98	1738.73
450.18	1798.12
450.39	1824.74
450.59	1726.44
450.79	1853.41
451.00	1753.06
451.20	1759.21
451.41	1714.15
451.61	1755.11
451.81	1685.48
452.02	1654.76
452.22	1654.76
452.43	1652.71
452.63	1675.24
