SpectraSuite Data File
++++++++++++++++++++++++++++++++++++
Date: Mon Jun 06 13:41:57 CEST 2016
User: root
Dark Spectrum Present: No
Reference Spectrum Present: No
Number of Sampled Component Spectra: 1
Spectrometers: USB4C02835
Integration Time (usec): 100000 (USB4C02835)
Spectra Averaged: 1 (USB4C02835)
Boxcar Smoothing: 0 (USB4C02835)
Correct for Electrical Dark: No (USB4C02835)
Strobe/Lamp Enabled: No (USB4C02835)
Correct for Detector Non-linearity: No (USB4C02835)
Correct for Stray Light: No (USB4C02835)
Number of Pixels in Processed Spectrum: 3648
>>>>>Begin Processed Spectral Data<<<<<
177.47	1468.39
177.69	1468.39
177.91	1468.39
178.13	1417.19
178.36	1486.83
178.58	1679.33
178.80	1695.72
179.02	1650.66
179.24	1613.80
179.46	1669.09
179.68	1718.25
179.90	1669.09
180.13	1755.11
180.35	1693.67
180.57	1722.34
180.79	1714.15
181.01	1662.95
181.23	1769.44
181.45	1763.30
181.67	1734.63
181.90	1732.58
182.12	1671.14
182.34	1689.57
182.56	1755.11
182.78	1781.73
183.00	1677.29
183.22	1669.09
183.44	1566.70
183.66	1890.28
183.89	1767.40
184.11	1669.09
184.33	1789.92
184.55	1740.77
184.77	1718.25
184.99	1714.15
185.21	1693.67
185.43	1834.98
185.65	1634.28
185.87	1724.39
186.10	1722.34
186.32	1771.49
186.54	1738.73
186.76	1714.15
186.98	1708.01
187.20	1697.77
187.42	1712.10
187.64	1714.15
187.86	1771.49
188.08	1708.01
188.30	1685.48
188.52	1691.62
188.75	1738.73
188.97	1751.01
189.19	1662.95
189.41	1761.25
189.63	1710.05
189.85	1712.10
190.07	1714.15
190.29	1624.04
190.51	1685.48
190.73	1662.95
190.95	1744.87
191.17	1677.29
191.39	1615.85
191.61	1605.61
191.84	1652.71
192.06	1767.40
192.28	1656.81
192.50	1861.60
192.72	1687.53
192.94	1665.00
193.16	1734.63
193.38	1642.47
193.60	1660.90
193.82	1681.38
194.04	1736.68
194.26	1646.57
194.48	1667.05
194.70	1716.20
194.92	1648.61
195.14	1699.81
195.36	1644.52
195.58	1703.91
195.80	1665.00
196.02	1650.66
196.24	1720.29
196.46	1785.83
196.69	1648.61
196.91	1839.08
197.13	1710.05
197.35	1626.09
197.57	1818.60
197.79	1734.63
198.01	1705.96
198.23	1767.40
198.45	1755.11
198.67	1638.38
198.89	1662.95
199.11	1734.63
199.33	1681.38
199.55	1566.70
199.77	1697.77
199.99	1740.77
200.21	1708.01
200.43	1710.05
200.65	1632.23
200.87	1632.23
201.09	1742.82
201.31	1652.71
201.53	1755.11
201.75	1802.21
201.97	1644.52
202.19	1681.38
202.41	1710.05
202.63	1890.28
202.85	1705.96
203.07	1714.15
203.29	1660.90
203.51	1601.51
203.73	1628.14
203.95	1929.19
204.17	1699.81
204.39	1718.25
204.61	1720.29
204.83	1628.14
205.05	1675.24
205.27	1685.48
205.49	1796.07
205.71	1660.90
205.93	1605.61
206.15	1685.48
206.37	1638.38
206.59	1607.66
206.81	1658.85
207.03	1607.66
207.25	1605.61
207.47	1714.15
207.69	1695.72
207.91	1845.22
208.13	1751.01
208.34	1699.81
208.56	1550.31
208.78	1794.02
209.00	1529.83
209.22	1681.38
209.44	1746.92
209.66	1748.97
209.88	1650.66
210.10	1734.63
210.32	1740.77
210.54	1841.12
210.76	1712.10
210.98	1769.44
211.20	1578.98
211.42	1722.34
211.64	1832.93
211.86	1662.95
212.08	1665.00
212.30	1763.30
212.52	1671.14
212.74	1630.18
212.96	1697.77
213.17	1734.63
213.39	1757.16
213.61	1828.84
213.83	1636.33
214.05	1619.94
214.27	1759.21
214.49	1652.71
214.71	1675.24
214.93	1755.11
215.15	1669.09
215.37	1734.63
215.59	1603.56
215.81	1679.33
216.03	1728.49
216.24	1724.39
216.46	1744.87
216.68	1693.67
216.90	1738.73
217.12	1779.68
217.34	1724.39
217.56	1712.10
217.78	1781.73
218.00	1728.49
218.22	1691.62
218.44	1724.39
218.66	1695.72
218.87	1783.78
219.09	1689.57
219.31	1742.82
219.53	1751.01
219.75	1687.53
219.97	1691.62
220.19	1740.77
220.41	1665.00
220.63	1789.92
220.85	1755.11
221.06	1697.77
221.28	1726.44
221.50	1722.34
221.72	1699.81
221.94	1746.92
222.16	1689.57
222.38	1753.06
222.60	1693.67
222.82	1705.96
223.03	1775.59
223.25	1628.14
223.47	1710.05
223.69	1757.16
223.91	1708.01
224.13	1701.86
224.35	1660.90
224.57	1820.64
224.78	1718.25
225.00	1681.38
225.22	1660.90
225.44	1609.70
225.66	1695.72
225.88	1693.67
226.10	1777.64
226.32	1701.86
226.53	1728.49
226.75	1632.23
226.97	1638.38
227.19	1718.25
227.41	1687.53
227.63	1710.05
227.85	1617.90
228.06	1746.92
228.28	1669.09
228.50	1746.92
228.72	1613.80
228.94	1693.67
229.16	1574.89
229.37	1691.62
229.59	1630.18
229.81	1810.40
230.03	1712.10
230.25	1554.41
230.47	1605.61
230.69	1681.38
230.90	1746.92
231.12	1669.09
231.34	1705.96
231.56	1767.40
231.78	1583.08
232.00	1683.43
232.21	1701.86
232.43	1726.44
232.65	1554.41
232.87	1673.19
233.09	1617.90
233.30	1689.57
233.52	1675.24
233.74	1708.01
233.96	1675.24
234.18	1652.71
234.40	1722.34
234.61	1884.13
234.83	1638.38
235.05	1615.85
235.27	1837.03
235.49	1744.87
235.70	1667.05
235.92	1798.12
236.14	1646.57
236.36	1861.60
236.58	1685.48
236.79	1730.53
237.01	1744.87
237.23	1691.62
237.45	1761.25
237.67	1636.33
237.88	1650.66
238.10	1781.73
238.32	1695.72
238.54	1656.81
238.76	1656.81
238.97	1667.05
239.19	1703.91
239.41	1701.86
239.63	1746.92
239.85	1767.40
240.06	1736.68
240.28	1728.49
240.50	1691.62
240.72	1630.18
240.93	1656.81
241.15	1701.86
241.37	1595.37
241.59	1746.92
241.81	1683.43
242.02	1626.09
242.24	1730.53
242.46	1759.21
242.68	1576.94
242.89	1634.28
243.11	1730.53
243.33	1705.96
243.55	1732.58
243.76	1701.86
243.98	1705.96
244.20	1708.01
244.42	1763.30
244.64	1759.21
244.85	1636.33
245.07	1693.67
245.29	1820.64
245.51	1777.64
245.72	1687.53
245.94	1808.36
246.16	1724.39
246.38	1789.92
246.59	1677.29
246.81	1658.85
247.03	1677.29
247.24	1609.70
247.46	1675.24
247.68	1701.86
247.90	1699.81
248.11	1716.20
248.33	1730.53
248.55	1718.25
248.77	1673.19
248.98	1804.26
249.20	1859.56
249.42	1595.37
249.64	1763.30
249.85	1728.49
250.07	1675.24
250.29	1732.58
250.50	1728.49
250.72	1599.46
250.94	1746.92
251.16	1787.88
251.37	1726.44
251.59	1781.73
251.81	1744.87
252.02	1779.68
252.24	1736.68
252.46	1804.26
252.68	1648.61
252.89	1648.61
253.11	1535.98
253.33	1820.64
253.54	1777.64
253.76	1665.00
253.98	1710.05
254.20	1656.81
254.41	1681.38
254.63	1634.28
254.85	1595.37
255.06	1718.25
255.28	1722.34
255.50	1646.57
255.71	1648.61
255.93	1656.81
256.15	1578.98
256.36	1687.53
256.58	1591.27
256.80	1738.73
257.02	1667.05
257.23	1669.09
257.45	1656.81
257.67	1730.53
257.88	1642.47
258.10	1665.00
258.32	1734.63
258.53	1722.34
258.75	1726.44
258.97	1673.19
259.18	1744.87
259.40	1708.01
259.62	1839.08
259.83	1722.34
260.05	1728.49
260.27	1927.14
260.48	1724.39
260.70	1662.95
260.92	1689.57
261.13	1685.48
261.35	1718.25
261.57	1722.34
261.78	1607.66
262.00	1703.91
262.22	1681.38
262.43	1667.05
262.65	1785.83
262.86	1615.85
263.08	1875.94
263.30	1748.97
263.51	1613.80
263.73	1720.29
263.95	1787.88
264.16	1648.61
264.38	1687.53
264.60	1763.30
264.81	1689.57
265.03	1734.63
265.25	1744.87
265.46	1722.34
265.68	1742.82
265.89	1710.05
266.11	1593.32
266.33	1751.01
266.54	1699.81
266.76	1726.44
266.98	1673.19
267.19	1812.45
267.41	1783.78
267.62	1730.53
267.84	1619.94
268.06	1740.77
268.27	1736.68
268.49	1724.39
268.70	1769.44
268.92	1673.19
269.14	1603.56
269.35	1695.72
269.57	1695.72
269.79	1742.82
270.00	1724.39
270.22	1828.84
270.43	1671.14
270.65	1544.17
270.87	1708.01
271.08	1800.16
271.30	1708.01
271.51	1605.61
271.73	1806.31
271.95	1804.26
272.16	1710.05
272.38	1695.72
272.59	1718.25
272.81	1722.34
273.02	1738.73
273.24	1693.67
273.46	1775.59
273.67	1624.04
273.89	1617.90
274.10	1634.28
274.32	1820.64
274.54	1581.03
274.75	1732.58
274.97	1671.14
275.18	1755.11
275.40	1722.34
275.61	1658.85
275.83	1673.19
276.05	1691.62
276.26	1642.47
276.48	1753.06
276.69	1617.90
276.91	1640.42
277.12	1779.68
277.34	1802.21
277.55	1771.49
277.77	1748.97
277.99	1642.47
278.20	1679.33
278.42	1652.71
278.63	1599.46
278.85	1705.96
279.06	1646.57
279.28	1705.96
279.49	1736.68
279.71	1726.44
279.93	1722.34
280.14	1718.25
280.36	1748.97
280.57	1656.81
280.79	1724.39
281.00	1658.85
281.22	1656.81
281.43	1744.87
281.65	1640.42
281.86	1673.19
282.08	1603.56
282.29	1757.16
282.51	1632.23
282.73	1691.62
282.94	1660.90
283.16	1779.68
283.37	1800.16
283.59	1646.57
283.80	1683.43
284.02	1730.53
284.23	1734.63
284.45	1656.81
284.66	1669.09
284.88	1744.87
285.09	1828.84
285.31	1718.25
285.52	1736.68
285.74	1574.89
285.95	1767.40
286.17	1732.58
286.38	1695.72
286.60	1595.37
286.81	1691.62
287.03	1757.16
287.24	1705.96
287.46	1810.40
287.67	1697.77
287.89	1800.16
288.10	1624.04
288.32	1724.39
288.53	1814.50
288.75	1693.67
288.96	1701.86
289.18	1681.38
289.39	1712.10
289.61	1693.67
289.82	1804.26
290.04	1855.46
290.25	1660.90
290.47	1665.00
290.68	1658.85
290.90	1732.58
291.11	1679.33
291.33	1701.86
291.54	1607.66
291.76	1791.97
291.97	1681.38
292.18	1681.38
292.40	1691.62
292.61	1630.18
292.83	1818.60
293.04	1703.91
293.26	1673.19
293.47	1730.53
293.69	1597.42
293.90	1677.29
294.12	1767.40
294.33	1710.05
294.55	1763.30
294.76	1738.73
294.97	1748.97
295.19	1718.25
295.40	1650.66
295.62	1705.96
295.83	1716.20
296.05	1744.87
296.26	1785.83
296.48	1665.00
296.69	1699.81
296.90	1628.14
297.12	1697.77
297.33	1740.77
297.55	1712.10
297.76	1703.91
297.98	1724.39
298.19	1667.05
298.41	1632.23
298.62	1718.25
298.83	1777.64
299.05	1697.77
299.26	1689.57
299.48	1644.52
299.69	1683.43
299.90	1712.10
300.12	1652.71
300.33	1724.39
300.55	1771.49
300.76	1703.91
300.98	1660.90
301.19	1759.21
301.40	1724.39
301.62	1699.81
301.83	1685.48
302.05	1722.34
302.26	1730.53
302.47	1714.15
302.69	1628.14
302.90	1748.97
303.12	1527.78
303.33	1730.53
303.54	1716.20
303.76	1632.23
303.97	1738.73
304.19	1847.27
304.40	1677.29
304.61	1804.26
304.83	1763.30
305.04	1724.39
305.26	1789.92
305.47	1671.14
305.68	1755.11
305.90	1607.66
306.11	1685.48
306.33	1785.83
306.54	1656.81
306.75	1695.72
306.97	1566.70
307.18	1687.53
307.39	1705.96
307.61	1738.73
307.82	1652.71
308.04	1761.25
308.25	1691.62
308.46	1746.92
308.68	1705.96
308.89	1728.49
309.10	1724.39
309.32	1726.44
309.53	1728.49
309.74	1660.90
309.96	1621.99
310.17	1820.64
310.39	1693.67
310.60	1738.73
310.81	1669.09
311.03	1632.23
311.24	1740.77
311.45	1722.34
311.67	1804.26
311.88	1753.06
312.09	1650.66
312.31	1607.66
312.52	1650.66
312.73	1722.34
312.95	1632.23
313.16	1605.61
313.37	1824.74
313.59	1757.16
313.80	1689.57
314.01	1751.01
314.23	1601.51
314.44	1652.71
314.65	1665.00
314.87	1708.01
315.08	1701.86
315.29	1652.71
315.51	1628.14
315.72	1669.09
315.93	1781.73
316.15	1740.77
316.36	1685.48
316.57	1691.62
316.79	1718.25
317.00	1730.53
317.21	1714.15
317.43	1671.14
317.64	1757.16
317.85	1724.39
318.07	1658.85
318.28	1734.63
318.49	1746.92
318.70	1865.70
318.92	1841.12
319.13	1789.92
319.34	1796.07
319.56	1814.50
319.77	1837.03
319.98	1779.68
320.20	1746.92
320.41	1765.35
320.62	1771.49
320.83	1642.47
321.05	1841.12
321.26	1728.49
321.47	1724.39
321.69	1695.72
321.90	1665.00
322.11	1718.25
322.32	1652.71
322.54	1777.64
322.75	1662.95
322.96	1841.12
323.18	1564.65
323.39	1587.18
323.60	1685.48
323.81	1765.35
324.03	1630.18
324.24	1734.63
324.45	1712.10
324.66	1603.56
324.88	1843.17
325.09	1753.06
325.30	1687.53
325.52	1697.77
325.73	1705.96
325.94	1603.56
326.15	1601.51
326.37	1652.71
326.58	1726.44
326.79	1791.97
327.00	1570.79
327.22	1693.67
327.43	1769.44
327.64	1638.38
327.85	1798.12
328.07	1665.00
328.28	1845.22
328.49	1683.43
328.70	1669.09
328.92	1652.71
329.13	1665.00
329.34	1730.53
329.55	1773.54
329.76	1767.40
329.98	1738.73
330.19	1755.11
330.40	1722.34
330.61	1708.01
330.83	1757.16
331.04	1705.96
331.25	1773.54
331.46	1705.96
331.68	1656.81
331.89	1722.34
332.10	1705.96
332.31	1642.47
332.52	1685.48
332.74	1736.68
332.95	1662.95
333.16	1669.09
333.37	1742.82
333.58	1626.09
333.80	1763.30
334.01	1708.01
334.22	1685.48
334.43	1640.42
334.64	1693.67
334.86	1613.80
335.07	1624.04
335.28	1787.88
335.49	1656.81
335.70	1716.20
335.92	1748.97
336.13	1857.51
336.34	1697.77
336.55	1656.81
336.76	1746.92
336.98	1648.61
337.19	1705.96
337.40	1675.24
337.61	1859.56
337.82	1738.73
338.04	1767.40
338.25	1683.43
338.46	1660.90
338.67	1667.05
338.88	1716.20
339.09	1667.05
339.31	1660.90
339.52	1658.85
339.73	1585.13
339.94	1728.49
340.15	1652.71
340.36	1675.24
340.58	1673.19
340.79	1705.96
341.00	1714.15
341.21	1673.19
341.42	1740.77
341.63	1777.64
341.85	1794.02
342.06	1712.10
342.27	1554.41
342.48	1732.58
342.69	1632.23
342.90	1669.09
343.12	1703.91
343.33	1726.44
343.54	1781.73
343.75	1775.59
343.96	1753.06
344.17	1677.29
344.38	1693.67
344.60	1619.94
344.81	1658.85
345.02	1646.57
345.23	1804.26
345.44	1777.64
345.65	1685.48
345.86	1675.24
346.07	1609.70
346.29	1671.14
346.50	1751.01
346.71	1708.01
346.92	1755.11
347.13	1787.88
347.34	1685.48
347.55	1673.19
347.76	1736.68
347.98	1632.23
348.19	1730.53
348.40	1732.58
348.61	1683.43
348.82	1812.45
349.03	1683.43
349.24	1611.75
349.45	1791.97
349.66	1679.33
349.88	1677.29
350.09	1732.58
350.30	1800.16
350.51	1744.87
350.72	1710.05
350.93	1673.19
351.14	1658.85
351.35	1791.97
351.56	1701.86
351.77	1730.53
351.99	1740.77
352.20	1875.94
352.41	1785.83
352.62	1578.98
352.83	1689.57
353.04	1716.20
353.25	1591.27
353.46	1708.01
353.67	1712.10
353.88	1607.66
354.09	1783.78
354.30	1695.72
354.52	1648.61
354.73	1751.01
354.94	1681.38
355.15	1763.30
355.36	1722.34
355.57	1689.57
355.78	1699.81
355.99	1726.44
356.20	1720.29
356.41	1800.16
356.62	1712.10
356.83	1665.00
357.04	1828.84
357.25	1703.91
357.46	1671.14
357.68	1581.03
357.89	1665.00
358.10	1669.09
358.31	1693.67
358.52	1683.43
358.73	1601.51
358.94	1638.38
359.15	1677.29
359.36	1783.78
359.57	1656.81
359.78	1691.62
359.99	1757.16
360.20	1689.57
360.41	1736.68
360.62	1714.15
360.83	1691.62
361.04	1644.52
361.25	1716.20
361.46	1757.16
361.67	1644.52
361.88	1757.16
362.09	1724.39
362.30	1677.29
362.51	1679.33
362.72	1648.61
362.93	1718.25
363.14	1806.31
363.35	1710.05
363.56	1708.01
363.78	1791.97
363.99	1744.87
364.20	1628.14
364.41	1685.48
364.62	1787.88
364.83	1679.33
365.04	1609.70
365.25	1621.99
365.46	1828.84
365.67	1665.00
365.88	1619.94
366.09	1671.14
366.30	1615.85
366.51	1773.54
366.72	1646.57
366.93	1693.67
367.14	1669.09
367.35	1828.84
367.56	1730.53
367.77	1816.55
367.98	1619.94
368.18	1685.48
368.39	1732.58
368.60	1634.28
368.81	1744.87
369.02	1714.15
369.23	1701.86
369.44	1562.60
369.65	1679.33
369.86	1753.06
370.07	1732.58
370.28	1597.42
370.49	1714.15
370.70	1722.34
370.91	1619.94
371.12	1597.42
371.33	1814.50
371.54	1685.48
371.75	1824.74
371.96	1624.04
372.17	1656.81
372.38	1732.58
372.59	1677.29
372.80	1621.99
373.01	1718.25
373.22	1714.15
373.43	1632.23
373.64	1701.86
373.85	1673.19
374.06	1798.12
374.26	1667.05
374.47	1662.95
374.68	1806.31
374.89	1689.57
375.10	1689.57
375.31	1820.64
375.52	1697.77
375.73	1630.18
375.94	1605.61
376.15	1808.36
376.36	1646.57
376.57	1673.19
376.78	1716.20
376.99	1730.53
377.20	1746.92
377.40	1638.38
377.61	1884.13
377.82	1568.74
378.03	1767.40
378.24	1718.25
378.45	1658.85
378.66	1732.58
378.87	1574.89
379.08	1648.61
379.29	1640.42
379.50	1794.02
379.71	1769.44
379.91	1714.15
380.12	1693.67
380.33	1710.05
380.54	1712.10
380.75	1781.73
380.96	1662.95
381.17	1796.07
381.38	1689.57
381.59	1697.77
381.80	1697.77
382.00	1923.04
382.21	1779.68
382.42	1771.49
382.63	1869.80
382.84	1730.53
383.05	1728.49
383.26	1783.78
383.47	1771.49
383.68	1773.54
383.88	1673.19
384.09	1787.88
384.30	1740.77
384.51	1730.53
384.72	1697.77
384.93	1648.61
385.14	1648.61
385.35	1757.16
385.55	1646.57
385.76	1824.74
385.97	1634.28
386.18	1681.38
386.39	1662.95
386.60	1683.43
386.81	1736.68
387.02	1650.66
387.22	1669.09
387.43	1775.59
387.64	1759.21
387.85	1894.37
388.06	2267.10
388.27	4245.44
388.48	6911.89
388.68	8195.97
388.89	9568.11
389.10	9789.29
389.31	8560.51
389.52	7651.21
389.73	6592.41
389.93	6328.22
390.14	5820.33
390.35	5195.70
390.56	4429.76
390.77	3801.03
390.98	2975.70
391.18	2471.90
391.39	2156.51
391.60	1802.21
391.81	1857.51
392.02	1695.72
392.23	1800.16
392.43	1736.68
392.64	1824.74
392.85	1789.92
393.06	1798.12
393.27	1611.75
393.47	1759.21
393.68	1759.21
393.89	1728.49
394.10	1771.49
394.31	1730.53
394.52	1601.51
394.72	1636.33
394.93	1849.32
395.14	1669.09
395.35	1734.63
395.56	1660.90
395.76	1705.96
395.97	1748.97
396.18	1794.02
396.39	1806.31
396.60	2009.06
396.80	1939.43
397.01	1857.51
397.22	1875.94
397.43	1794.02
397.64	1753.06
397.84	1787.88
398.05	1832.93
398.26	1740.77
398.47	1701.86
398.67	1869.80
398.88	1689.57
399.09	1746.92
399.30	1722.34
399.51	1724.39
399.71	1650.66
399.92	1646.57
400.13	1705.96
400.34	1675.24
400.54	1751.01
400.75	1826.79
400.96	1746.92
401.17	1753.06
401.37	1802.21
401.58	1757.16
401.79	1757.16
402.00	1843.17
402.21	1994.72
402.41	1990.63
402.62	1998.82
402.83	2072.54
403.04	1996.77
403.24	2045.92
403.45	1820.64
403.66	1927.14
403.87	1892.32
404.07	1845.22
404.28	1902.56
404.49	1820.64
404.70	1767.40
404.90	1761.25
405.11	1734.63
405.32	1783.78
405.52	1697.77
405.73	1695.72
405.94	1691.62
406.15	1701.86
406.35	1738.73
406.56	1757.16
406.77	1736.68
406.98	1652.71
407.18	1695.72
407.39	1798.12
407.60	1712.10
407.80	1705.96
408.01	1693.67
408.22	1703.91
408.43	1724.39
408.63	1728.49
408.84	1822.69
409.05	1714.15
409.25	1703.91
409.46	1703.91
409.67	1683.43
409.88	1798.12
410.08	1724.39
410.29	1675.24
410.50	1771.49
410.70	1744.87
410.91	1671.14
411.12	1771.49
411.32	1701.86
411.53	1724.39
411.74	1744.87
411.95	1718.25
412.15	1718.25
412.36	1740.77
412.57	1779.68
412.77	1822.69
412.98	1689.57
413.19	1730.53
413.39	1667.05
413.60	1726.44
413.81	1802.21
414.01	1636.33
414.22	1728.49
414.43	1755.11
414.63	1765.35
414.84	1847.27
415.05	1800.16
415.25	1566.70
415.46	1808.36
415.67	1658.85
415.87	1748.97
416.08	1708.01
416.29	1644.52
416.49	1736.68
416.70	1656.81
416.91	1703.91
417.11	1697.77
417.32	1740.77
417.53	1753.06
417.73	1791.97
417.94	1701.86
418.15	1730.53
418.35	1705.96
418.56	1691.62
418.77	1851.36
418.97	1705.96
419.18	1697.77
419.38	1548.26
419.59	1708.01
419.80	1759.21
420.00	1644.52
420.21	1685.48
420.42	1775.59
420.62	1771.49
420.83	1634.28
421.04	1705.96
421.24	1689.57
421.45	1761.25
421.65	1669.09
421.86	1665.00
422.07	1748.97
422.27	1783.78
422.48	1669.09
422.69	1636.33
422.89	1677.29
423.10	1716.20
423.30	1587.18
423.51	1720.29
423.72	1695.72
423.92	1771.49
424.13	1667.05
424.33	1777.64
424.54	1818.60
424.75	1734.63
424.95	1818.60
425.16	1710.05
425.36	1736.68
425.57	1742.82
425.78	1691.62
425.98	1771.49
426.19	1656.81
426.39	1673.19
426.60	1730.53
426.81	1818.60
427.01	1722.34
427.22	1669.09
427.42	1626.09
427.63	1722.34
427.83	1728.49
428.04	1853.41
428.25	1746.92
428.45	1728.49
428.66	1785.83
428.86	1687.53
429.07	1607.66
429.28	1732.58
429.48	1738.73
429.69	1669.09
429.89	1718.25
430.10	1652.71
430.30	1849.32
430.51	1832.93
430.71	1665.00
430.92	1708.01
431.13	1683.43
431.33	1716.20
431.54	1710.05
431.74	1800.16
431.95	1814.50
432.15	1665.00
432.36	1685.48
432.56	1736.68
432.77	1781.73
432.98	1837.03
433.18	1693.67
433.39	1734.63
433.59	1744.87
433.80	1861.60
434.00	1843.17
434.21	1656.81
434.41	1640.42
434.62	1847.27
434.82	1617.90
435.03	1728.49
435.23	1730.53
435.44	1613.80
435.64	1794.02
435.85	1685.48
436.06	1791.97
436.26	1763.30
436.47	1697.77
436.67	1630.18
436.88	1691.62
437.08	1771.49
437.29	1783.78
437.49	1705.96
437.70	1820.64
437.90	1681.38
438.11	1951.71
438.31	1814.50
438.52	1806.31
438.72	1861.60
438.93	1904.61
439.13	1740.77
439.34	1861.60
439.54	1734.63
439.75	1804.26
439.95	1730.53
440.16	1652.71
440.36	1812.45
440.57	1789.92
440.77	1732.58
440.98	1728.49
441.18	1808.36
441.39	1744.87
441.59	1609.70
441.80	1781.73
442.00	1705.96
442.21	1839.08
442.41	1691.62
442.62	1734.63
442.82	1665.00
443.02	1730.53
443.23	1683.43
443.43	1746.92
443.64	1834.98
443.84	1669.09
444.05	1853.41
444.25	1689.57
444.46	1677.29
444.66	1730.53
444.87	1806.31
445.07	1648.61
445.28	1710.05
445.48	1779.68
445.69	1656.81
445.89	1755.11
446.09	1730.53
446.30	1986.53
446.50	2631.64
446.71	3698.63
446.91	4179.90
447.12	4605.88
447.32	4825.01
447.53	4468.67
447.73	3803.08
447.93	3459.02
448.14	3213.26
448.34	3110.86
448.55	2828.24
448.75	2809.81
448.96	2740.18
449.16	2340.83
449.36	2334.68
449.57	2023.39
449.77	1892.32
449.98	1841.12
450.18	1796.07
450.39	1882.08
450.59	1867.75
450.79	1681.38
451.00	1687.53
451.20	1763.30
451.41	1736.68
451.61	1734.63
451.81	1718.25
452.02	1787.88
452.22	1658.85
452.43	1699.81
452.63	1701.86
