SpectraSuite Data File
++++++++++++++++++++++++++++++++++++
Date: Mon Jun 06 17:19:57 CEST 2016
User: root
Dark Spectrum Present: No
Reference Spectrum Present: No
Number of Sampled Component Spectra: 1
Spectrometers: USB4C02835
Integration Time (usec): 100000 (USB4C02835)
Spectra Averaged: 1 (USB4C02835)
Boxcar Smoothing: 0 (USB4C02835)
Correct for Electrical Dark: No (USB4C02835)
Strobe/Lamp Enabled: No (USB4C02835)
Correct for Detector Non-linearity: No (USB4C02835)
Correct for Stray Light: No (USB4C02835)
Number of Pixels in Processed Spectrum: 3648
>>>>>Begin Processed Spectral Data<<<<<
177.47	1458.15
177.69	1458.15
177.91	1458.15
178.13	1505.26
178.36	1447.91
178.58	1695.72
178.80	1703.91
179.02	1708.01
179.24	1636.33
179.46	1757.16
179.68	1841.12
179.90	1660.90
180.13	1800.16
180.35	1701.86
180.57	1734.63
180.79	1726.44
181.01	1734.63
181.23	1722.34
181.45	1785.83
181.67	1697.77
181.90	1763.30
182.12	1738.73
182.34	1587.18
182.56	1769.44
182.78	1738.73
183.00	1662.95
183.22	1699.81
183.44	1685.48
183.66	1839.08
183.89	1791.97
184.11	1677.29
184.33	1685.48
184.55	1705.96
184.77	1701.86
184.99	1779.68
185.21	1675.24
185.43	1828.84
185.65	1703.91
185.87	1699.81
186.10	1787.88
186.32	1828.84
186.54	1734.63
186.76	1710.05
186.98	1720.29
187.20	1742.82
187.42	1687.53
187.64	1697.77
187.86	1769.44
188.08	1781.73
188.30	1642.47
188.52	1722.34
188.75	1720.29
188.97	1828.84
189.19	1660.90
189.41	1730.53
189.63	1726.44
189.85	1687.53
190.07	1683.43
190.29	1591.27
190.51	1757.16
190.73	1648.61
190.95	1775.59
191.17	1648.61
191.39	1638.38
191.61	1665.00
191.84	1765.35
192.06	1761.25
192.28	1617.90
192.50	1890.28
192.72	1761.25
192.94	1685.48
193.16	1785.83
193.38	1740.77
193.60	1615.85
193.82	1708.01
194.04	1800.16
194.26	1777.64
194.48	1767.40
194.70	1701.86
194.92	1624.04
195.14	1800.16
195.36	1662.95
195.58	1753.06
195.80	1693.67
196.02	1654.76
196.24	1716.20
196.46	1802.21
196.69	1617.90
196.91	1871.84
197.13	1755.11
197.35	1636.33
197.57	1701.86
197.79	1701.86
198.01	1716.20
198.23	1751.01
198.45	1730.53
198.67	1607.66
198.89	1763.30
199.11	1785.83
199.33	1708.01
199.55	1628.14
199.77	1695.72
199.99	1771.49
200.21	1742.82
200.43	1818.60
200.65	1646.57
200.87	1546.22
201.09	1718.25
201.31	1658.85
201.53	1767.40
201.75	1652.71
201.97	1787.88
202.19	1708.01
202.41	1769.44
202.63	1826.79
202.85	1820.64
203.07	1791.97
203.29	1665.00
203.51	1587.18
203.73	1658.85
203.95	1865.70
204.17	1722.34
204.39	1775.59
204.61	1701.86
204.83	1748.97
205.05	1855.46
205.27	1769.44
205.49	1834.98
205.71	1658.85
205.93	1699.81
206.15	1701.86
206.37	1775.59
206.59	1628.14
206.81	1593.32
207.03	1679.33
207.25	1677.29
207.47	1708.01
207.69	1738.73
207.91	1771.49
208.13	1839.08
208.34	1654.76
208.56	1658.85
208.78	1779.68
209.00	1613.80
209.22	1609.70
209.44	1742.82
209.66	1642.47
209.88	1691.62
210.10	1691.62
210.32	1826.79
210.54	1773.54
210.76	1685.48
210.98	1746.92
211.20	1646.57
211.42	1757.16
211.64	1716.20
211.86	1718.25
212.08	1687.53
212.30	1718.25
212.52	1740.77
212.74	1712.10
212.96	1777.64
213.17	1751.01
213.39	1798.12
213.61	1789.92
213.83	1777.64
214.05	1630.18
214.27	1822.69
214.49	1677.29
214.71	1658.85
214.93	1771.49
215.15	1662.95
215.37	1751.01
215.59	1685.48
215.81	1660.90
216.03	1767.40
216.24	1806.31
216.46	1624.04
216.68	1761.25
216.90	1806.31
217.12	1730.53
217.34	1718.25
217.56	1722.34
217.78	1767.40
218.00	1744.87
218.22	1736.68
218.44	1667.05
218.66	1742.82
218.87	1812.45
219.09	1624.04
219.31	1740.77
219.53	1708.01
219.75	1765.35
219.97	1718.25
220.19	1824.74
220.41	1595.37
220.63	1785.83
220.85	1613.80
221.06	1656.81
221.28	1800.16
221.50	1718.25
221.72	1681.38
221.94	1689.57
222.16	1673.19
222.38	1751.01
222.60	1771.49
222.82	1738.73
223.03	1730.53
223.25	1714.15
223.47	1744.87
223.69	1777.64
223.91	1769.44
224.13	1738.73
224.35	1691.62
224.57	1765.35
224.78	1744.87
225.00	1724.39
225.22	1611.75
225.44	1693.67
225.66	1724.39
225.88	1718.25
226.10	1759.21
226.32	1740.77
226.53	1808.36
226.75	1652.71
226.97	1730.53
227.19	1693.67
227.41	1728.49
227.63	1695.72
227.85	1654.76
228.06	1673.19
228.28	1648.61
228.50	1748.97
228.72	1595.37
228.94	1699.81
229.16	1630.18
229.37	1665.00
229.59	1736.68
229.81	1849.32
230.03	1669.09
230.25	1681.38
230.47	1691.62
230.69	1636.33
230.90	1730.53
231.12	1644.52
231.34	1669.09
231.56	1685.48
231.78	1710.05
232.00	1783.78
232.21	1716.20
232.43	1722.34
232.65	1558.50
232.87	1773.54
233.09	1626.09
233.30	1626.09
233.52	1744.87
233.74	1650.66
233.96	1689.57
234.18	1730.53
234.40	1675.24
234.61	1810.40
234.83	1691.62
235.05	1617.90
235.27	1763.30
235.49	1812.45
235.70	1718.25
235.92	1789.92
236.14	1775.59
236.36	1865.70
236.58	1714.15
236.79	1806.31
237.01	1708.01
237.23	1763.30
237.45	1851.36
237.67	1691.62
237.88	1753.06
238.10	1728.49
238.32	1701.86
238.54	1730.53
238.76	1751.01
238.97	1679.33
239.19	1701.86
239.41	1802.21
239.63	1763.30
239.85	1652.71
240.06	1742.82
240.28	1695.72
240.50	1814.50
240.72	1710.05
240.93	1734.63
241.15	1693.67
241.37	1693.67
241.59	1849.32
241.81	1665.00
242.02	1789.92
242.24	1722.34
242.46	1665.00
242.68	1624.04
242.89	1765.35
243.11	1751.01
243.33	1667.05
243.55	1705.96
243.76	1626.09
243.98	1669.09
244.20	1691.62
244.42	1714.15
244.64	1726.44
244.85	1685.48
245.07	1662.95
245.29	1783.78
245.51	1669.09
245.72	1732.58
245.94	1834.98
246.16	1759.21
246.38	1796.07
246.59	1720.29
246.81	1683.43
247.03	1640.42
247.24	1691.62
247.46	1730.53
247.68	1697.77
247.90	1656.81
248.11	1589.22
248.33	1771.49
248.55	1675.24
248.77	1765.35
248.98	1740.77
249.20	1851.36
249.42	1767.40
249.64	1722.34
249.85	1746.92
250.07	1630.18
250.29	1705.96
250.50	1753.06
250.72	1587.18
250.94	1689.57
251.16	1785.83
251.37	1794.02
251.59	1714.15
251.81	1718.25
252.02	1779.68
252.24	1716.20
252.46	1798.12
252.68	1628.14
252.89	1648.61
253.11	1693.67
253.33	1816.55
253.54	1802.21
253.76	1587.18
253.98	1734.63
254.20	1730.53
254.41	1656.81
254.63	1630.18
254.85	1695.72
255.06	1642.47
255.28	1677.29
255.50	1720.29
255.71	1701.86
255.93	1708.01
256.15	1630.18
256.36	1736.68
256.58	1699.81
256.80	1722.34
257.02	1667.05
257.23	1724.39
257.45	1662.95
257.67	1736.68
257.88	1710.05
258.10	1730.53
258.32	1736.68
258.53	1714.15
258.75	1763.30
258.97	1601.51
259.18	1806.31
259.40	1644.52
259.62	1800.16
259.83	1761.25
260.05	1769.44
260.27	1957.86
260.48	1775.59
260.70	1722.34
260.92	1734.63
261.13	1738.73
261.35	1710.05
261.57	1742.82
261.78	1628.14
262.00	1744.87
262.22	1834.98
262.43	1665.00
262.65	1691.62
262.86	1720.29
263.08	1828.84
263.30	1675.24
263.51	1677.29
263.73	1662.95
263.95	1742.82
264.16	1685.48
264.38	1689.57
264.60	1667.05
264.81	1726.44
265.03	1822.69
265.25	1767.40
265.46	1689.57
265.68	1763.30
265.89	1769.44
266.11	1646.57
266.33	1697.77
266.54	1779.68
266.76	1787.88
266.98	1777.64
267.19	1720.29
267.41	1781.73
267.62	1728.49
267.84	1658.85
268.06	1796.07
268.27	1734.63
268.49	1736.68
268.70	1740.77
268.92	1669.09
269.14	1685.48
269.35	1585.13
269.57	1732.58
269.79	1753.06
270.00	1687.53
270.22	1785.83
270.43	1687.53
270.65	1626.09
270.87	1755.11
271.08	1640.42
271.30	1800.16
271.51	1677.29
271.73	1828.84
271.95	1828.84
272.16	1662.95
272.38	1738.73
272.59	1667.05
272.81	1726.44
273.02	1720.29
273.24	1726.44
273.46	1767.40
273.67	1646.57
273.89	1685.48
274.10	1660.90
274.32	1814.50
274.54	1738.73
274.75	1687.53
274.97	1685.48
275.18	1767.40
275.40	1742.82
275.61	1718.25
275.83	1732.58
276.05	1642.47
276.26	1669.09
276.48	1703.91
276.69	1628.14
276.91	1646.57
277.12	1812.45
277.34	1857.51
277.55	1773.54
277.77	1748.97
277.99	1703.91
278.20	1652.71
278.42	1617.90
278.63	1673.19
278.85	1601.51
279.06	1642.47
279.28	1748.97
279.49	1734.63
279.71	1757.16
279.93	1738.73
280.14	1693.67
280.36	1652.71
280.57	1767.40
280.79	1746.92
281.00	1662.95
281.22	1617.90
281.43	1767.40
281.65	1640.42
281.86	1683.43
282.08	1755.11
282.29	1744.87
282.51	1611.75
282.73	1744.87
282.94	1621.99
283.16	1755.11
283.37	1783.78
283.59	1724.39
283.80	1753.06
284.02	1705.96
284.23	1710.05
284.45	1708.01
284.66	1681.38
284.88	1656.81
285.09	1736.68
285.31	1781.73
285.52	1693.67
285.74	1665.00
285.95	1771.49
286.17	1746.92
286.38	1789.92
286.60	1626.09
286.81	1638.38
287.03	1695.72
287.24	1738.73
287.46	1695.72
287.67	1648.61
287.89	1804.26
288.10	1767.40
288.32	1726.44
288.53	1814.50
288.75	1791.97
288.96	1765.35
289.18	1748.97
289.39	1744.87
289.61	1699.81
289.82	1773.54
290.04	1849.32
290.25	1638.38
290.47	1714.15
290.68	1681.38
290.90	1708.01
291.11	1595.37
291.33	1789.92
291.54	1689.57
291.76	1691.62
291.97	1710.05
292.18	1648.61
292.40	1636.33
292.61	1703.91
292.83	1822.69
293.04	1708.01
293.26	1732.58
293.47	1685.48
293.69	1669.09
293.90	1658.85
294.12	1763.30
294.33	1726.44
294.55	1728.49
294.76	1689.57
294.97	1800.16
295.19	1849.32
295.40	1685.48
295.62	1742.82
295.83	1746.92
296.05	1652.71
296.26	1859.56
296.48	1679.33
296.69	1671.14
296.90	1718.25
297.12	1701.86
297.33	1849.32
297.55	1738.73
297.76	1681.38
297.98	1761.25
298.19	1689.57
298.41	1638.38
298.62	1699.81
298.83	1769.44
299.05	1685.48
299.26	1699.81
299.48	1726.44
299.69	1693.67
299.90	1705.96
300.12	1658.85
300.33	1804.26
300.55	1773.54
300.76	1724.39
300.98	1701.86
301.19	1728.49
301.40	1687.53
301.62	1771.49
301.83	1755.11
302.05	1701.86
302.26	1681.38
302.47	1673.19
302.69	1652.71
302.90	1724.39
303.12	1609.70
303.33	1740.77
303.54	1826.79
303.76	1703.91
303.97	1785.83
304.19	1812.45
304.40	1605.61
304.61	1789.92
304.83	1839.08
305.04	1828.84
305.26	1710.05
305.47	1675.24
305.68	1681.38
305.90	1646.57
306.11	1787.88
306.33	1665.00
306.54	1716.20
306.75	1683.43
306.97	1621.99
307.18	1603.56
307.39	1759.21
307.61	1742.82
307.82	1722.34
308.04	1755.11
308.25	1681.38
308.46	1695.72
308.68	1656.81
308.89	1718.25
309.10	1826.79
309.32	1746.92
309.53	1826.79
309.74	1691.62
309.96	1658.85
310.17	1785.83
310.39	1693.67
310.60	1759.21
310.81	1683.43
311.03	1648.61
311.24	1732.58
311.45	1728.49
311.67	1802.21
311.88	1689.57
312.09	1679.33
312.31	1665.00
312.52	1681.38
312.73	1677.29
312.95	1652.71
313.16	1697.77
313.37	1734.63
313.59	1746.92
313.80	1755.11
314.01	1841.12
314.23	1818.60
314.44	1685.48
314.65	1607.66
314.87	1699.81
315.08	1701.86
315.29	1601.51
315.51	1662.95
315.72	1550.31
315.93	1744.87
316.15	1800.16
316.36	1697.77
316.57	1722.34
316.79	1746.92
317.00	1679.33
317.21	1689.57
317.43	1726.44
317.64	1679.33
317.85	1626.09
318.07	1716.20
318.28	1767.40
318.49	1726.44
318.70	1931.23
318.92	1808.36
319.13	1865.70
319.34	1898.47
319.56	1757.16
319.77	1742.82
319.98	1757.16
320.20	1763.30
320.41	1742.82
320.62	1736.68
320.83	1701.86
321.05	1843.17
321.26	1779.68
321.47	1687.53
321.69	1755.11
321.90	1644.52
322.11	1665.00
322.32	1767.40
322.54	1853.41
322.75	1765.35
322.96	1847.27
323.18	1605.61
323.39	1656.81
323.60	1691.62
323.81	1765.35
324.03	1634.28
324.24	1693.67
324.45	1705.96
324.66	1740.77
324.88	1767.40
325.09	1794.02
325.30	1714.15
325.52	1814.50
325.73	1775.59
325.94	1617.90
326.15	1695.72
326.37	1677.29
326.58	1679.33
326.79	1771.49
327.00	1730.53
327.22	1708.01
327.43	1732.58
327.64	1677.29
327.85	1708.01
328.07	1751.01
328.28	1781.73
328.49	1626.09
328.70	1697.77
328.92	1701.86
329.13	1667.05
329.34	1716.20
329.55	1849.32
329.76	1814.50
329.98	1726.44
330.19	1726.44
330.40	1722.34
330.61	1759.21
330.83	1689.57
331.04	1728.49
331.25	1767.40
331.46	1656.81
331.68	1595.37
331.89	1816.55
332.10	1728.49
332.31	1638.38
332.52	1708.01
332.74	1720.29
332.95	1642.47
333.16	1769.44
333.37	1722.34
333.58	1708.01
333.80	1744.87
334.01	1632.23
334.22	1675.24
334.43	1650.66
334.64	1779.68
334.86	1683.43
335.07	1654.76
335.28	1828.84
335.49	1652.71
335.70	1767.40
335.92	1734.63
336.13	1849.32
336.34	1783.78
336.55	1738.73
336.76	1771.49
336.98	1628.14
337.19	1626.09
337.40	1767.40
337.61	1898.47
337.82	1732.58
338.04	1769.44
338.25	1619.94
338.46	1802.21
338.67	1685.48
338.88	1646.57
339.09	1705.96
339.31	1656.81
339.52	1734.63
339.73	1665.00
339.94	1687.53
340.15	1755.11
340.36	1669.09
340.58	1636.33
340.79	1669.09
341.00	1726.44
341.21	1634.28
341.42	1894.37
341.63	1738.73
341.85	1724.39
342.06	1720.29
342.27	1628.14
342.48	1681.38
342.69	1591.27
342.90	1724.39
343.12	1779.68
343.33	1681.38
343.54	1740.77
343.75	1818.60
343.96	1673.19
344.17	1722.34
344.38	1767.40
344.60	1728.49
344.81	1609.70
345.02	1746.92
345.23	1751.01
345.44	1775.59
345.65	1751.01
345.86	1703.91
346.07	1689.57
346.29	1681.38
346.50	1742.82
346.71	1757.16
346.92	1794.02
347.13	1849.32
347.34	1724.39
347.55	1734.63
347.76	1777.64
347.98	1632.23
348.19	1675.24
348.40	1769.44
348.61	1714.15
348.82	1791.97
349.03	1730.53
349.24	1634.28
349.45	1773.54
349.66	1644.52
349.88	1767.40
350.09	1640.42
350.30	1783.78
350.51	1759.21
350.72	1697.77
350.93	1714.15
351.14	1630.18
351.35	1730.53
351.56	1742.82
351.77	1724.39
351.99	1757.16
352.20	1853.41
352.41	1765.35
352.62	1652.71
352.83	1740.77
353.04	1720.29
353.25	1714.15
353.46	1726.44
353.67	1853.41
353.88	1619.94
354.09	1658.85
354.30	1671.14
354.52	1755.11
354.73	1710.05
354.94	1628.14
355.15	1705.96
355.36	1816.55
355.57	1667.05
355.78	1738.73
355.99	1642.47
356.20	1662.95
356.41	1789.92
356.62	1787.88
356.83	1685.48
357.04	1845.22
357.25	1701.86
357.46	1665.00
357.68	1607.66
357.89	1746.92
358.10	1656.81
358.31	1718.25
358.52	1695.72
358.73	1628.14
358.94	1673.19
359.15	1679.33
359.36	1804.26
359.57	1693.67
359.78	1681.38
359.99	1822.69
360.20	1660.90
360.41	1763.30
360.62	1767.40
360.83	1667.05
361.04	1755.11
361.25	1769.44
361.46	1867.75
361.67	1703.91
361.88	1724.39
362.09	1730.53
362.30	1755.11
362.51	1630.18
362.72	1714.15
362.93	1773.54
363.14	1765.35
363.35	1665.00
363.56	1667.05
363.78	1763.30
363.99	1757.16
364.20	1665.00
364.41	1722.34
364.62	1810.40
364.83	1775.59
365.04	1679.33
365.25	1660.90
365.46	1849.32
365.67	1585.13
365.88	1660.90
366.09	1636.33
366.30	1730.53
366.51	1753.06
366.72	1656.81
366.93	1695.72
367.14	1759.21
367.35	1814.50
367.56	1701.86
367.77	1716.20
367.98	1728.49
368.18	1697.77
368.39	1681.38
368.60	1665.00
368.81	1759.21
369.02	1751.01
369.23	1753.06
369.44	1591.27
369.65	1748.97
369.86	1716.20
370.07	1691.62
370.28	1697.77
370.49	1763.30
370.70	1658.85
370.91	1697.77
371.12	1650.66
371.33	1771.49
371.54	1595.37
371.75	1880.04
371.96	1638.38
372.17	1693.67
372.38	1783.78
372.59	1787.88
372.80	1693.67
373.01	1681.38
373.22	1759.21
373.43	1710.05
373.64	1615.85
373.85	1767.40
374.06	1759.21
374.26	1730.53
374.47	1816.55
374.68	1818.60
374.89	1728.49
375.10	1650.66
375.31	1718.25
375.52	1775.59
375.73	1742.82
375.94	1669.09
376.15	1746.92
376.36	1701.86
376.57	1724.39
376.78	1665.00
376.99	1673.19
377.20	1761.25
377.40	1642.47
377.61	1759.21
377.82	1665.00
378.03	1851.36
378.24	1761.25
378.45	1761.25
378.66	1748.97
378.87	1638.38
379.08	1658.85
379.29	1753.06
379.50	1841.12
379.71	1679.33
379.91	1728.49
380.12	1705.96
380.33	1769.44
380.54	1716.20
380.75	1712.10
380.96	1742.82
381.17	1736.68
381.38	1724.39
381.59	1773.54
381.80	1716.20
382.00	1912.80
382.21	1742.82
382.42	1798.12
382.63	1865.70
382.84	1710.05
383.05	1644.52
383.26	1853.41
383.47	1718.25
383.68	1751.01
383.88	1783.78
384.09	1779.68
384.30	1869.80
384.51	1710.05
384.72	1701.86
384.93	1718.25
385.14	1798.12
385.35	1851.36
385.55	1611.75
385.76	1781.73
385.97	1808.36
386.18	1658.85
386.39	1685.48
386.60	1742.82
386.81	1683.43
387.02	1677.29
387.22	1654.76
387.43	1824.74
387.64	1818.60
387.85	1898.47
388.06	2226.14
388.27	4224.96
388.48	6703.00
388.68	8218.50
388.89	9723.76
389.10	9701.23
389.31	8685.44
389.52	7593.87
389.73	6737.82
389.93	6170.53
390.14	5709.74
390.35	5277.62
390.56	4595.64
390.77	3833.80
390.98	3041.23
391.18	2576.34
391.39	2148.32
391.60	1841.12
391.81	1818.60
392.02	1687.53
392.23	1841.12
392.43	1800.16
392.64	1728.49
392.85	1697.77
393.06	1863.65
393.27	1669.09
393.47	1677.29
393.68	1746.92
393.89	1716.20
394.10	1781.73
394.31	1705.96
394.52	1712.10
394.72	1742.82
394.93	1796.07
395.14	1718.25
395.35	1689.57
395.56	1650.66
395.76	1771.49
395.97	1769.44
396.18	1834.98
396.39	1783.78
396.60	2025.44
396.80	1933.28
397.01	1779.68
397.22	1834.98
397.43	1816.55
397.64	1691.62
397.84	1757.16
398.05	1849.32
398.26	1732.58
398.47	1837.03
398.67	1798.12
398.88	1763.30
399.09	1722.34
399.30	1669.09
399.51	1742.82
399.71	1691.62
399.92	1767.40
400.13	1730.53
400.34	1673.19
400.54	1628.14
400.75	1837.03
400.96	1710.05
401.17	1763.30
401.37	1734.63
401.58	1656.81
401.79	1714.15
402.00	1865.70
402.21	1996.77
402.41	1861.60
402.62	2029.54
402.83	2066.40
403.04	1964.00
403.24	2148.32
403.45	1886.18
403.66	1880.04
403.87	1939.43
404.07	1886.18
404.28	1957.86
404.49	1869.80
404.70	1798.12
404.90	1824.74
405.11	1791.97
405.32	1738.73
405.52	1699.81
405.73	1738.73
405.94	1675.24
406.15	1718.25
406.35	1804.26
406.56	1828.84
406.77	1634.28
406.98	1771.49
407.18	1701.86
407.39	1755.11
407.60	1718.25
407.80	1777.64
408.01	1640.42
408.22	1806.31
408.43	1677.29
408.63	1763.30
408.84	1728.49
409.05	1726.44
409.25	1675.24
409.46	1746.92
409.67	1705.96
409.88	1738.73
410.08	1734.63
410.29	1703.91
410.50	1777.64
410.70	1679.33
410.91	1671.14
411.12	1714.15
411.32	1693.67
411.53	1703.91
411.74	1816.55
411.95	1771.49
412.15	1724.39
412.36	1800.16
412.57	1791.97
412.77	1804.26
412.98	1708.01
413.19	1671.14
413.39	1742.82
413.60	1791.97
413.81	1761.25
414.01	1658.85
414.22	1751.01
414.43	1718.25
414.63	1734.63
414.84	1820.64
415.05	1734.63
415.25	1652.71
415.46	1763.30
415.67	1712.10
415.87	1693.67
416.08	1693.67
416.29	1714.15
416.49	1724.39
416.70	1654.76
416.91	1675.24
417.11	1710.05
417.32	1732.58
417.53	1703.91
417.73	1816.55
417.94	1720.29
418.15	1689.57
418.35	1798.12
418.56	1789.92
418.77	1857.51
418.97	1730.53
419.18	1746.92
419.38	1550.31
419.59	1632.23
419.80	1783.78
420.00	1650.66
420.21	1701.86
420.42	1806.31
420.62	1736.68
420.83	1697.77
421.04	1685.48
421.24	1669.09
421.45	1746.92
421.65	1705.96
421.86	1705.96
422.07	1785.83
422.27	1740.77
422.48	1763.30
422.69	1613.80
422.89	1714.15
423.10	1665.00
423.30	1697.77
423.51	1785.83
423.72	1738.73
423.92	1689.57
424.13	1687.53
424.33	1689.57
424.54	1777.64
424.75	1755.11
424.95	1843.17
425.16	1777.64
425.36	1685.48
425.57	1791.97
425.78	1830.88
425.98	1810.40
426.19	1665.00
426.39	1578.98
426.60	1740.77
426.81	1779.68
427.01	1714.15
427.22	1708.01
427.42	1636.33
427.63	1681.38
427.83	1763.30
428.04	1822.69
428.25	1798.12
428.45	1753.06
428.66	1757.16
428.86	1755.11
429.07	1708.01
429.28	1773.54
429.48	1755.11
429.69	1619.94
429.89	1697.77
430.10	1697.77
430.30	1769.44
430.51	1755.11
430.71	1619.94
430.92	1763.30
431.13	1687.53
431.33	1791.97
431.54	1738.73
431.74	1726.44
431.95	1886.18
432.15	1691.62
432.36	1705.96
432.56	1812.45
432.77	1828.84
432.98	1812.45
433.18	1697.77
433.39	1722.34
433.59	1734.63
433.80	1863.65
434.00	1859.56
434.21	1691.62
434.41	1705.96
434.62	1853.41
434.82	1724.39
435.03	1683.43
435.23	1712.10
435.44	1722.34
435.64	1751.01
435.85	1628.14
436.06	1773.54
436.26	1685.48
436.47	1710.05
436.67	1755.11
436.88	1748.97
437.08	1724.39
437.29	1742.82
437.49	1757.16
437.70	1804.26
437.90	1744.87
438.11	1923.04
438.31	1828.84
438.52	1918.95
438.72	1902.56
438.93	1886.18
439.13	1746.92
439.34	1841.12
439.54	1755.11
439.75	1734.63
439.95	1794.02
440.16	1705.96
440.36	1781.73
440.57	1742.82
440.77	1748.97
440.98	1703.91
441.18	1701.86
441.39	1728.49
441.59	1728.49
441.80	1882.08
442.00	1765.35
442.21	1748.97
442.41	1619.94
442.62	1832.93
442.82	1779.68
443.02	1759.21
443.23	1767.40
443.43	1755.11
443.64	1804.26
443.84	1673.19
444.05	1765.35
444.25	1796.07
444.46	1697.77
444.66	1665.00
444.87	1822.69
445.07	1648.61
445.28	1689.57
445.48	1800.16
445.69	1742.82
445.89	1951.71
446.09	1748.97
446.30	2086.88
446.50	2590.68
446.71	3669.96
446.91	4349.89
447.12	4773.82
447.32	4767.67
447.53	4433.85
447.73	3966.92
447.93	3571.66
448.14	3399.63
448.34	3254.22
448.55	3016.66
448.75	2922.45
448.96	2693.08
449.16	2490.33
449.36	2387.93
449.57	2099.17
449.77	1886.18
449.98	1755.11
450.18	1832.93
450.39	1738.73
450.59	1824.74
450.79	1751.01
451.00	1785.83
451.20	1775.59
451.41	1751.01
451.61	1787.88
451.81	1742.82
452.02	1710.05
452.22	1730.53
452.43	1742.82
452.63	1718.25
