SpectraSuite Data File
++++++++++++++++++++++++++++++++++++
Date: Mon Jun 06 15:39:37 CEST 2016
User: root
Dark Spectrum Present: No
Reference Spectrum Present: No
Number of Sampled Component Spectra: 1
Spectrometers: USB4C02835
Integration Time (usec): 100000 (USB4C02835)
Spectra Averaged: 1 (USB4C02835)
Boxcar Smoothing: 0 (USB4C02835)
Correct for Electrical Dark: No (USB4C02835)
Strobe/Lamp Enabled: No (USB4C02835)
Correct for Detector Non-linearity: No (USB4C02835)
Correct for Stray Light: No (USB4C02835)
Number of Pixels in Processed Spectrum: 3648
>>>>>Begin Processed Spectral Data<<<<<
177.47	1472.49
177.69	1472.49
177.91	1472.49
178.13	1552.36
178.36	1509.35
178.58	1652.71
178.80	1714.15
179.02	1591.27
179.24	1677.29
179.46	1673.19
179.68	1818.60
179.90	1669.09
180.13	1705.96
180.35	1640.42
180.57	1691.62
180.79	1820.64
181.01	1755.11
181.23	1810.40
181.45	1755.11
181.67	1708.01
181.90	1759.21
182.12	1705.96
182.34	1650.66
182.56	1740.77
182.78	1757.16
183.00	1779.68
183.22	1783.78
183.44	1638.38
183.66	1808.36
183.89	1775.59
184.11	1697.77
184.33	1882.08
184.55	1730.53
184.77	1769.44
184.99	1708.01
185.21	1730.53
185.43	1851.36
185.65	1697.77
185.87	1718.25
186.10	1802.21
186.32	1890.28
186.54	1759.21
186.76	1751.01
186.98	1808.36
187.20	1718.25
187.42	1759.21
187.64	1705.96
187.86	1691.62
188.08	1820.64
188.30	1746.92
188.52	1648.61
188.75	1757.16
188.97	1773.54
189.19	1718.25
189.41	1632.23
189.63	1759.21
189.85	1714.15
190.07	1697.77
190.29	1626.09
190.51	1748.97
190.73	1701.86
190.95	1736.68
191.17	1658.85
191.39	1607.66
191.61	1730.53
191.84	1693.67
192.06	1734.63
192.28	1617.90
192.50	1914.85
192.72	1703.91
192.94	1718.25
193.16	1806.31
193.38	1722.34
193.60	1630.18
193.82	1683.43
194.04	1796.07
194.26	1708.01
194.48	1675.24
194.70	1681.38
194.92	1673.19
195.14	1693.67
195.36	1673.19
195.58	1724.39
195.80	1695.72
196.02	1665.00
196.24	1751.01
196.46	1693.67
196.69	1660.90
196.91	1812.45
197.13	1691.62
197.35	1740.77
197.57	1798.12
197.79	1695.72
198.01	1757.16
198.23	1765.35
198.45	1693.67
198.67	1695.72
198.89	1714.15
199.11	1763.30
199.33	1665.00
199.55	1621.99
199.77	1701.86
199.99	1726.44
200.21	1720.29
200.43	1730.53
200.65	1669.09
200.87	1646.57
201.09	1736.68
201.31	1646.57
201.53	1755.11
201.75	1728.49
201.97	1730.53
202.19	1681.38
202.41	1775.59
202.63	1791.97
202.85	1759.21
203.07	1720.29
203.29	1685.48
203.51	1656.81
203.73	1605.61
203.95	1923.04
204.17	1757.16
204.39	1742.82
204.61	1648.61
204.83	1691.62
205.05	1818.60
205.27	1785.83
205.49	1810.40
205.71	1738.73
205.93	1626.09
206.15	1667.05
206.37	1732.58
206.59	1705.96
206.81	1652.71
207.03	1673.19
207.25	1648.61
207.47	1744.87
207.69	1705.96
207.91	1753.06
208.13	1759.21
208.34	1632.23
208.56	1685.48
208.78	1746.92
209.00	1755.11
209.22	1728.49
209.44	1660.90
209.66	1697.77
209.88	1732.58
210.10	1673.19
210.32	1701.86
210.54	1740.77
210.76	1673.19
210.98	1757.16
211.20	1585.13
211.42	1732.58
211.64	1810.40
211.86	1710.05
212.08	1775.59
212.30	1777.64
212.52	1640.42
212.74	1718.25
212.96	1777.64
213.17	1720.29
213.39	1775.59
213.61	1812.45
213.83	1699.81
214.05	1624.04
214.27	1781.73
214.49	1665.00
214.71	1722.34
214.93	1794.02
215.15	1699.81
215.37	1777.64
215.59	1642.47
215.81	1642.47
216.03	1800.16
216.24	1783.78
216.46	1771.49
216.68	1714.15
216.90	1722.34
217.12	1759.21
217.34	1708.01
217.56	1689.57
217.78	1861.60
218.00	1746.92
218.22	1740.77
218.44	1722.34
218.66	1728.49
218.87	1875.94
219.09	1720.29
219.31	1726.44
219.53	1748.97
219.75	1691.62
219.97	1759.21
220.19	1736.68
220.41	1689.57
220.63	1802.21
220.85	1689.57
221.06	1712.10
221.28	1812.45
221.50	1667.05
221.72	1675.24
221.94	1716.20
222.16	1654.76
222.38	1751.01
222.60	1701.86
222.82	1697.77
223.03	1708.01
223.25	1609.70
223.47	1828.84
223.69	1755.11
223.91	1759.21
224.13	1738.73
224.35	1724.39
224.57	1757.16
224.78	1726.44
225.00	1656.81
225.22	1685.48
225.44	1802.21
225.66	1740.77
225.88	1816.55
226.10	1757.16
226.32	1701.86
226.53	1765.35
226.75	1712.10
226.97	1720.29
227.19	1689.57
227.41	1710.05
227.63	1640.42
227.85	1689.57
228.06	1714.15
228.28	1773.54
228.50	1734.63
228.72	1611.75
228.94	1669.09
229.16	1570.79
229.37	1587.18
229.59	1648.61
229.81	1826.79
230.03	1708.01
230.25	1654.76
230.47	1677.29
230.69	1630.18
230.90	1761.25
231.12	1662.95
231.34	1738.73
231.56	1824.74
231.78	1646.57
232.00	1728.49
232.21	1740.77
232.43	1730.53
232.65	1609.70
232.87	1738.73
233.09	1802.21
233.30	1755.11
233.52	1720.29
233.74	1732.58
233.96	1751.01
234.18	1691.62
234.40	1716.20
234.61	1839.08
234.83	1712.10
235.05	1634.28
235.27	1812.45
235.49	1841.12
235.70	1705.96
235.92	1824.74
236.14	1665.00
236.36	1798.12
236.58	1640.42
236.79	1771.49
237.01	1699.81
237.23	1697.77
237.45	1796.07
237.67	1714.15
237.88	1783.78
238.10	1843.17
238.32	1693.67
238.54	1718.25
238.76	1699.81
238.97	1642.47
239.19	1658.85
239.41	1783.78
239.63	1693.67
239.85	1675.24
240.06	1679.33
240.28	1718.25
240.50	1822.69
240.72	1783.78
240.93	1646.57
241.15	1685.48
241.37	1681.38
241.59	1775.59
241.81	1716.20
242.02	1644.52
242.24	1763.30
242.46	1767.40
242.68	1740.77
242.89	1685.48
243.11	1759.21
243.33	1609.70
243.55	1722.34
243.76	1828.84
243.98	1708.01
244.20	1726.44
244.42	1699.81
244.64	1708.01
244.85	1624.04
245.07	1695.72
245.29	1808.36
245.51	1738.73
245.72	1652.71
245.94	1781.73
246.16	1697.77
246.38	1685.48
246.59	1703.91
246.81	1685.48
247.03	1685.48
247.24	1660.90
247.46	1718.25
247.68	1732.58
247.90	1728.49
248.11	1701.86
248.33	1802.21
248.55	1697.77
248.77	1734.63
248.98	1796.07
249.20	1843.17
249.42	1763.30
249.64	1759.21
249.85	1742.82
250.07	1714.15
250.29	1775.59
250.50	1730.53
250.72	1695.72
250.94	1812.45
251.16	1814.50
251.37	1736.68
251.59	1677.29
251.81	1765.35
252.02	1777.64
252.24	1730.53
252.46	1763.30
252.68	1656.81
252.89	1667.05
253.11	1642.47
253.33	1789.92
253.54	1806.31
253.76	1626.09
253.98	1716.20
254.20	1767.40
254.41	1669.09
254.63	1677.29
254.85	1652.71
255.06	1695.72
255.28	1689.57
255.50	1665.00
255.71	1636.33
255.93	1673.19
256.15	1640.42
256.36	1751.01
256.58	1617.90
256.80	1783.78
257.02	1683.43
257.23	1728.49
257.45	1675.24
257.67	1771.49
257.88	1710.05
258.10	1705.96
258.32	1714.15
258.53	1656.81
258.75	1738.73
258.97	1634.28
259.18	1730.53
259.40	1783.78
259.62	1753.06
259.83	1853.41
260.05	1712.10
260.27	1955.81
260.48	1744.87
260.70	1646.57
260.92	1763.30
261.13	1732.58
261.35	1728.49
261.57	1705.96
261.78	1611.75
262.00	1689.57
262.22	1722.34
262.43	1652.71
262.65	1671.14
262.86	1763.30
263.08	1894.37
263.30	1665.00
263.51	1628.14
263.73	1708.01
263.95	1808.36
264.16	1718.25
264.38	1675.24
264.60	1839.08
264.81	1701.86
265.03	1787.88
265.25	1783.78
265.46	1751.01
265.68	1800.16
265.89	1824.74
266.11	1628.14
266.33	1783.78
266.54	1828.84
266.76	1722.34
266.98	1738.73
267.19	1730.53
267.41	1847.27
267.62	1697.77
267.84	1642.47
268.06	1724.39
268.27	1810.40
268.49	1800.16
268.70	1814.50
268.92	1685.48
269.14	1726.44
269.35	1673.19
269.57	1685.48
269.79	1732.58
270.00	1679.33
270.22	1783.78
270.43	1671.14
270.65	1640.42
270.87	1757.16
271.08	1855.46
271.30	1714.15
271.51	1716.20
271.73	1679.33
271.95	1767.40
272.16	1708.01
272.38	1806.31
272.59	1697.77
272.81	1796.07
273.02	1771.49
273.24	1779.68
273.46	1785.83
273.67	1652.71
273.89	1714.15
274.10	1642.47
274.32	1693.67
274.54	1716.20
274.75	1693.67
274.97	1746.92
275.18	1820.64
275.40	1740.77
275.61	1755.11
275.83	1730.53
276.05	1665.00
276.26	1755.11
276.48	1718.25
276.69	1681.38
276.91	1689.57
277.12	1814.50
277.34	1695.72
277.55	1806.31
277.77	1740.77
277.99	1726.44
278.20	1624.04
278.42	1671.14
278.63	1662.95
278.85	1656.81
279.06	1681.38
279.28	1804.26
279.49	1775.59
279.71	1820.64
279.93	1759.21
280.14	1697.77
280.36	1695.72
280.57	1714.15
280.79	1751.01
281.00	1648.61
281.22	1708.01
281.43	1771.49
281.65	1585.13
281.86	1697.77
282.08	1785.83
282.29	1857.51
282.51	1705.96
282.73	1681.38
282.94	1726.44
283.16	1703.91
283.37	1828.84
283.59	1785.83
283.80	1738.73
284.02	1609.70
284.23	1773.54
284.45	1740.77
284.66	1673.19
284.88	1648.61
285.09	1742.82
285.31	1751.01
285.52	1794.02
285.74	1611.75
285.95	1716.20
286.17	1789.92
286.38	1720.29
286.60	1593.32
286.81	1742.82
287.03	1693.67
287.24	1695.72
287.46	1791.97
287.67	1748.97
287.89	1869.80
288.10	1669.09
288.32	1746.92
288.53	1861.60
288.75	1763.30
288.96	1757.16
289.18	1740.77
289.39	1726.44
289.61	1751.01
289.82	1810.40
290.04	1779.68
290.25	1595.37
290.47	1658.85
290.68	1800.16
290.90	1732.58
291.11	1642.47
291.33	1671.14
291.54	1609.70
291.76	1742.82
291.97	1816.55
292.18	1738.73
292.40	1714.15
292.61	1652.71
292.83	1877.99
293.04	1763.30
293.26	1720.29
293.47	1726.44
293.69	1708.01
293.90	1738.73
294.12	1720.29
294.33	1697.77
294.55	1785.83
294.76	1820.64
294.97	1730.53
295.19	1812.45
295.40	1665.00
295.62	1685.48
295.83	1751.01
296.05	1638.38
296.26	1781.73
296.48	1671.14
296.69	1742.82
296.90	1751.01
297.12	1683.43
297.33	1771.49
297.55	1714.15
297.76	1740.77
297.98	1759.21
298.19	1705.96
298.41	1800.16
298.62	1605.61
298.83	1777.64
299.05	1681.38
299.26	1595.37
299.48	1675.24
299.69	1714.15
299.90	1685.48
300.12	1685.48
300.33	1761.25
300.55	1746.92
300.76	1771.49
300.98	1687.53
301.19	1757.16
301.40	1654.76
301.62	1656.81
301.83	1714.15
302.05	1816.55
302.26	1689.57
302.47	1720.29
302.69	1609.70
302.90	1697.77
303.12	1601.51
303.33	1767.40
303.54	1814.50
303.76	1689.57
303.97	1808.36
304.19	1755.11
304.40	1652.71
304.61	1767.40
304.83	1746.92
305.04	1791.97
305.26	1683.43
305.47	1683.43
305.68	1705.96
305.90	1718.25
306.11	1857.51
306.33	1667.05
306.54	1673.19
306.75	1665.00
306.97	1613.80
307.18	1644.52
307.39	1675.24
307.61	1769.44
307.82	1755.11
308.04	1810.40
308.25	1691.62
308.46	1728.49
308.68	1693.67
308.89	1765.35
309.10	1882.08
309.32	1722.34
309.53	1718.25
309.74	1773.54
309.96	1677.29
310.17	1763.30
310.39	1662.95
310.60	1806.31
310.81	1751.01
311.03	1595.37
311.24	1697.77
311.45	1695.72
311.67	1773.54
311.88	1732.58
312.09	1701.86
312.31	1744.87
312.52	1675.24
312.73	1679.33
312.95	1615.85
313.16	1740.77
313.37	1789.92
313.59	1773.54
313.80	1734.63
314.01	1800.16
314.23	1634.28
314.44	1660.90
314.65	1607.66
314.87	1710.05
315.08	1742.82
315.29	1652.71
315.51	1605.61
315.72	1656.81
315.93	1877.99
316.15	1757.16
316.36	1669.09
316.57	1699.81
316.79	1730.53
317.00	1691.62
317.21	1728.49
317.43	1662.95
317.64	1708.01
317.85	1718.25
318.07	1632.23
318.28	1732.58
318.49	1769.44
318.70	1902.56
318.92	1781.73
319.13	1867.75
319.34	1867.75
319.56	1732.58
319.77	1830.88
319.98	1785.83
320.20	1742.82
320.41	1722.34
320.62	1718.25
320.83	1648.61
321.05	1783.78
321.26	1726.44
321.47	1705.96
321.69	1800.16
321.90	1648.61
322.11	1652.71
322.32	1650.66
322.54	1769.44
322.75	1724.39
322.96	1761.25
323.18	1587.18
323.39	1632.23
323.60	1673.19
323.81	1769.44
324.03	1714.15
324.24	1763.30
324.45	1785.83
324.66	1785.83
324.88	1751.01
325.09	1769.44
325.30	1791.97
325.52	1720.29
325.73	1812.45
325.94	1617.90
326.15	1578.98
326.37	1703.91
326.58	1644.52
326.79	1791.97
327.00	1644.52
327.22	1767.40
327.43	1685.48
327.64	1689.57
327.85	1724.39
328.07	1703.91
328.28	1800.16
328.49	1703.91
328.70	1681.38
328.92	1714.15
329.13	1757.16
329.34	1738.73
329.55	1933.28
329.76	1710.05
329.98	1742.82
330.19	1841.12
330.40	1771.49
330.61	1757.16
330.83	1748.97
331.04	1742.82
331.25	1691.62
331.46	1742.82
331.68	1574.89
331.89	1748.97
332.10	1681.38
332.31	1662.95
332.52	1789.92
332.74	1759.21
332.95	1685.48
333.16	1718.25
333.37	1783.78
333.58	1730.53
333.80	1779.68
334.01	1640.42
334.22	1681.38
334.43	1611.75
334.64	1646.57
334.86	1593.32
335.07	1660.90
335.28	1781.73
335.49	1574.89
335.70	1767.40
335.92	1771.49
336.13	1906.66
336.34	1718.25
336.55	1726.44
336.76	1703.91
336.98	1607.66
337.19	1730.53
337.40	1777.64
337.61	1861.60
337.82	1726.44
338.04	1847.27
338.25	1646.57
338.46	1748.97
338.67	1697.77
338.88	1689.57
339.09	1630.18
339.31	1601.51
339.52	1644.52
339.73	1683.43
339.94	1812.45
340.15	1775.59
340.36	1667.05
340.58	1712.10
340.79	1714.15
341.00	1703.91
341.21	1667.05
341.42	1816.55
341.63	1642.47
341.85	1785.83
342.06	1771.49
342.27	1628.14
342.48	1718.25
342.69	1597.42
342.90	1785.83
343.12	1757.16
343.33	1730.53
343.54	1771.49
343.75	1738.73
343.96	1701.86
344.17	1693.67
344.38	1689.57
344.60	1628.14
344.81	1738.73
345.02	1716.20
345.23	1724.39
345.44	1796.07
345.65	1759.21
345.86	1779.68
346.07	1697.77
346.29	1652.71
346.50	1789.92
346.71	1726.44
346.92	1773.54
347.13	1796.07
347.34	1773.54
347.55	1687.53
347.76	1744.87
347.98	1699.81
348.19	1689.57
348.40	1773.54
348.61	1726.44
348.82	1843.17
349.03	1785.83
349.24	1638.38
349.45	1912.80
349.66	1638.38
349.88	1742.82
350.09	1648.61
350.30	1777.64
350.51	1761.25
350.72	1740.77
350.93	1708.01
351.14	1755.11
351.35	1720.29
351.56	1726.44
351.77	1667.05
351.99	1746.92
352.20	1822.69
352.41	1769.44
352.62	1595.37
352.83	1654.76
353.04	1665.00
353.25	1628.14
353.46	1746.92
353.67	1763.30
353.88	1746.92
354.09	1763.30
354.30	1619.94
354.52	1746.92
354.73	1708.01
354.94	1679.33
355.15	1714.15
355.36	1753.06
355.57	1673.19
355.78	1826.79
355.99	1667.05
356.20	1652.71
356.41	1755.11
356.62	1773.54
356.83	1726.44
357.04	1744.87
357.25	1619.94
357.46	1718.25
357.68	1642.47
357.89	1652.71
358.10	1687.53
358.31	1757.16
358.52	1746.92
358.73	1683.43
358.94	1699.81
359.15	1708.01
359.36	1734.63
359.57	1720.29
359.78	1701.86
359.99	1701.86
360.20	1703.91
360.41	1738.73
360.62	1759.21
360.83	1724.39
361.04	1767.40
361.25	1726.44
361.46	1824.74
361.67	1722.34
361.88	1861.60
362.09	1746.92
362.30	1779.68
362.51	1728.49
362.72	1736.68
362.93	1728.49
363.14	1779.68
363.35	1751.01
363.56	1689.57
363.78	1742.82
363.99	1775.59
364.20	1712.10
364.41	1708.01
364.62	1806.31
364.83	1730.53
365.04	1753.06
365.25	1748.97
365.46	1748.97
365.67	1648.61
365.88	1708.01
366.09	1753.06
366.30	1683.43
366.51	1673.19
366.72	1525.74
366.93	1667.05
367.14	1718.25
367.35	1806.31
367.56	1759.21
367.77	1804.26
367.98	1728.49
368.18	1761.25
368.39	1746.92
368.60	1648.61
368.81	1791.97
369.02	1738.73
369.23	1728.49
369.44	1638.38
369.65	1693.67
369.86	1656.81
370.07	1824.74
370.28	1667.05
370.49	1761.25
370.70	1695.72
370.91	1697.77
371.12	1679.33
371.33	1804.26
371.54	1708.01
371.75	1783.78
371.96	1615.85
372.17	1730.53
372.38	1673.19
372.59	1742.82
372.80	1730.53
373.01	1671.14
373.22	1755.11
373.43	1789.92
373.64	1683.43
373.85	1751.01
374.06	1822.69
374.26	1697.77
374.47	1765.35
374.68	1779.68
374.89	1740.77
375.10	1648.61
375.31	1808.36
375.52	1728.49
375.73	1677.29
375.94	1722.34
376.15	1839.08
376.36	1705.96
376.57	1632.23
376.78	1830.88
376.99	1748.97
377.20	1773.54
377.40	1722.34
377.61	1822.69
377.82	1693.67
378.03	1730.53
378.24	1771.49
378.45	1669.09
378.66	1724.39
378.87	1705.96
379.08	1624.04
379.29	1681.38
379.50	1767.40
379.71	1640.42
379.91	1787.88
380.12	1724.39
380.33	1691.62
380.54	1734.63
380.75	1757.16
380.96	1658.85
381.17	1748.97
381.38	1732.58
381.59	1734.63
381.80	1730.53
382.00	1839.08
382.21	1812.45
382.42	1847.27
382.63	1873.89
382.84	1769.44
383.05	1783.78
383.26	1828.84
383.47	1804.26
383.68	1714.15
383.88	1746.92
384.09	1699.81
384.30	1826.79
384.51	1746.92
384.72	1685.48
384.93	1667.05
385.14	1701.86
385.35	1730.53
385.55	1624.04
385.76	1779.68
385.97	1744.87
386.18	1593.32
386.39	1722.34
386.60	1640.42
386.81	1693.67
387.02	1714.15
387.22	1677.29
387.43	1800.16
387.64	1755.11
387.85	1941.47
388.06	2244.57
388.27	4028.35
388.48	6645.66
388.68	7972.74
388.89	9461.62
389.10	9643.88
389.31	8249.22
389.52	7487.37
389.73	6580.12
389.93	6039.46
390.14	5842.85
390.35	5154.74
390.56	4411.32
390.77	3747.78
390.98	3008.47
391.18	2529.24
391.39	2123.74
391.60	1951.71
391.81	1886.18
392.02	1732.58
392.23	1890.28
392.43	1697.77
392.64	1796.07
392.85	1722.34
393.06	1820.64
393.27	1779.68
393.47	1601.51
393.68	1757.16
393.89	1681.38
394.10	1757.16
394.31	1714.15
394.52	1654.76
394.72	1755.11
394.93	1832.93
395.14	1701.86
395.35	1763.30
395.56	1705.96
395.76	1673.19
395.97	1859.56
396.18	1818.60
396.39	1941.47
396.60	2068.45
396.80	1904.61
397.01	1847.27
397.22	1800.16
397.43	1851.36
397.64	1755.11
397.84	1808.36
398.05	1865.70
398.26	1789.92
398.47	1818.60
398.67	1767.40
398.88	1783.78
399.09	1798.12
399.30	1714.15
399.51	1736.68
399.71	1650.66
399.92	1677.29
400.13	1771.49
400.34	1624.04
400.54	1714.15
400.75	1871.84
400.96	1732.58
401.17	1837.03
401.37	1732.58
401.58	1763.30
401.79	1662.95
402.00	1923.04
402.21	2033.63
402.41	1972.19
402.62	2041.82
402.83	2041.82
403.04	2004.96
403.24	2080.74
403.45	1845.22
403.66	1888.23
403.87	1855.46
404.07	1914.85
404.28	1970.15
404.49	1920.99
404.70	1783.78
404.90	1763.30
405.11	1806.31
405.32	1804.26
405.52	1638.38
405.73	1697.77
405.94	1665.00
406.15	1722.34
406.35	1781.73
406.56	1751.01
406.77	1662.95
406.98	1701.86
407.18	1695.72
407.39	1759.21
407.60	1689.57
407.80	1744.87
408.01	1669.09
408.22	1679.33
408.43	1751.01
408.63	1767.40
408.84	1832.93
409.05	1804.26
409.25	1751.01
409.46	1624.04
409.67	1699.81
409.88	1646.57
410.08	1773.54
410.29	1681.38
410.50	1753.06
410.70	1765.35
410.91	1742.82
411.12	1785.83
411.32	1671.14
411.53	1687.53
411.74	1828.84
411.95	1800.16
412.15	1744.87
412.36	1779.68
412.57	1775.59
412.77	1894.37
412.98	1771.49
413.19	1714.15
413.39	1710.05
413.60	1769.44
413.81	1837.03
414.01	1695.72
414.22	1712.10
414.43	1832.93
414.63	1730.53
414.84	1722.34
415.05	1804.26
415.25	1714.15
415.46	1716.20
415.67	1677.29
415.87	1789.92
416.08	1734.63
416.29	1732.58
416.49	1775.59
416.70	1667.05
416.91	1695.72
417.11	1730.53
417.32	1783.78
417.53	1779.68
417.73	1769.44
417.94	1695.72
418.15	1794.02
418.35	1699.81
418.56	1691.62
418.77	1896.42
418.97	1744.87
419.18	1738.73
419.38	1638.38
419.59	1708.01
419.80	1800.16
420.00	1697.77
420.21	1724.39
420.42	1816.55
420.62	1691.62
420.83	1730.53
421.04	1748.97
421.24	1595.37
421.45	1734.63
421.65	1681.38
421.86	1658.85
422.07	1781.73
422.27	1644.52
422.48	1714.15
422.69	1632.23
422.89	1701.86
423.10	1748.97
423.30	1669.09
423.51	1691.62
423.72	1730.53
423.92	1755.11
424.13	1699.81
424.33	1751.01
424.54	1787.88
424.75	1748.97
424.95	1869.80
425.16	1660.90
425.36	1701.86
425.57	1712.10
425.78	1751.01
425.98	1751.01
426.19	1736.68
426.39	1748.97
426.60	1714.15
426.81	1798.12
427.01	1759.21
427.22	1669.09
427.42	1632.23
427.63	1601.51
427.83	1753.06
428.04	1820.64
428.25	1843.17
428.45	1875.94
428.66	1755.11
428.86	1738.73
429.07	1712.10
429.28	1732.58
429.48	1683.43
429.69	1640.42
429.89	1757.16
430.10	1665.00
430.30	1736.68
430.51	1751.01
430.71	1642.47
430.92	1716.20
431.13	1685.48
431.33	1726.44
431.54	1755.11
431.74	1867.75
431.95	1877.99
432.15	1687.53
432.36	1751.01
432.56	1785.83
432.77	1779.68
432.98	1812.45
433.18	1775.59
433.39	1716.20
433.59	1708.01
433.80	1847.27
434.00	1869.80
434.21	1701.86
434.41	1701.86
434.62	1945.57
434.82	1685.48
435.03	1677.29
435.23	1716.20
435.44	1685.48
435.64	1697.77
435.85	1746.92
436.06	1808.36
436.26	1763.30
436.47	1728.49
436.67	1656.81
436.88	1775.59
437.08	1730.53
437.29	1837.03
437.49	1775.59
437.70	1734.63
437.90	1800.16
438.11	1888.23
438.31	1896.42
438.52	1794.02
438.72	1941.47
438.93	1886.18
439.13	1787.88
439.34	1769.44
439.54	1830.88
439.75	1703.91
439.95	1804.26
440.16	1736.68
440.36	1828.84
440.57	1816.55
440.77	1685.48
440.98	1789.92
441.18	1773.54
441.39	1652.71
441.59	1701.86
441.80	1826.79
442.00	1689.57
442.21	1853.41
442.41	1669.09
442.62	1796.07
442.82	1726.44
443.02	1791.97
443.23	1828.84
443.43	1732.58
443.64	1826.79
443.84	1732.58
444.05	1869.80
444.25	1724.39
444.46	1722.34
444.66	1695.72
444.87	1781.73
445.07	1611.75
445.28	1773.54
445.48	1791.97
445.69	1785.83
445.89	1875.94
446.09	1730.53
446.30	2033.63
446.50	2500.57
446.71	3694.54
446.91	4372.41
447.12	4695.99
447.32	4794.29
447.53	4235.20
447.73	3698.63
447.93	3456.97
448.14	3229.65
448.34	3139.54
448.55	2861.01
448.75	2863.06
448.96	2779.09
449.16	2459.61
449.36	2363.36
449.57	2019.30
449.77	1941.47
449.98	1822.69
450.18	1855.46
450.39	1814.50
450.59	1814.50
450.79	1691.62
451.00	1673.19
451.20	1816.55
451.41	1716.20
451.61	1794.02
451.81	1718.25
452.02	1726.44
452.22	1685.48
452.43	1689.57
452.63	1703.91
