SpectraSuite Data File
++++++++++++++++++++++++++++++++++++
Date: Mon Jun 06 14:35:37 CEST 2016
User: root
Dark Spectrum Present: No
Reference Spectrum Present: No
Number of Sampled Component Spectra: 1
Spectrometers: USB4C02835
Integration Time (usec): 100000 (USB4C02835)
Spectra Averaged: 1 (USB4C02835)
Boxcar Smoothing: 0 (USB4C02835)
Correct for Electrical Dark: No (USB4C02835)
Strobe/Lamp Enabled: No (USB4C02835)
Correct for Detector Non-linearity: No (USB4C02835)
Correct for Stray Light: No (USB4C02835)
Number of Pixels in Processed Spectrum: 3648
>>>>>Begin Processed Spectral Data<<<<<
177.47	1503.21
177.69	1503.21
177.91	1503.21
178.13	1470.44
178.36	1476.59
178.58	1648.61
178.80	1734.63
179.02	1621.99
179.24	1603.56
179.46	1665.00
179.68	1736.68
179.90	1691.62
180.13	1710.05
180.35	1665.00
180.57	1800.16
180.79	1742.82
181.01	1675.24
181.23	1787.88
181.45	1779.68
181.67	1656.81
181.90	1726.44
182.12	1632.23
182.34	1662.95
182.56	1712.10
182.78	1718.25
183.00	1716.20
183.22	1761.25
183.44	1601.51
183.66	1845.22
183.89	1787.88
184.11	1654.76
184.33	1656.81
184.55	1738.73
184.77	1705.96
184.99	1730.53
185.21	1679.33
185.43	1875.94
185.65	1724.39
185.87	1716.20
186.10	1814.50
186.32	1767.40
186.54	1763.30
186.76	1726.44
186.98	1744.87
187.20	1675.24
187.42	1589.22
187.64	1767.40
187.86	1732.58
188.08	1763.30
188.30	1660.90
188.52	1679.33
188.75	1775.59
188.97	1773.54
189.19	1611.75
189.41	1771.49
189.63	1718.25
189.85	1697.77
190.07	1566.70
190.29	1605.61
190.51	1722.34
190.73	1603.56
190.95	1732.58
191.17	1691.62
191.39	1617.90
191.61	1681.38
191.84	1669.09
192.06	1705.96
192.28	1671.14
192.50	1900.52
192.72	1742.82
192.94	1695.72
193.16	1761.25
193.38	1660.90
193.60	1675.24
193.82	1726.44
194.04	1748.97
194.26	1738.73
194.48	1718.25
194.70	1636.33
194.92	1683.43
195.14	1714.15
195.36	1662.95
195.58	1685.48
195.80	1796.07
196.02	1607.66
196.24	1761.25
196.46	1652.71
196.69	1710.05
196.91	1802.21
197.13	1705.96
197.35	1562.60
197.57	1726.44
197.79	1742.82
198.01	1693.67
198.23	1824.74
198.45	1751.01
198.67	1638.38
198.89	1681.38
199.11	1705.96
199.33	1624.04
199.55	1611.75
199.77	1679.33
199.99	1794.02
200.21	1669.09
200.43	1755.11
200.65	1634.28
200.87	1546.22
201.09	1689.57
201.31	1691.62
201.53	1716.20
201.75	1689.57
201.97	1722.34
202.19	1648.61
202.41	1755.11
202.63	1794.02
202.85	1783.78
203.07	1701.86
203.29	1710.05
203.51	1691.62
203.73	1599.46
203.95	1882.08
204.17	1624.04
204.39	1671.14
204.61	1566.70
204.83	1617.90
205.05	1806.31
205.27	1748.97
205.49	1839.08
205.71	1708.01
205.93	1646.57
206.15	1654.76
206.37	1718.25
206.59	1693.67
206.81	1603.56
207.03	1599.46
207.25	1638.38
207.47	1773.54
207.69	1679.33
207.91	1834.98
208.13	1806.31
208.34	1685.48
208.56	1628.14
208.78	1724.39
209.00	1730.53
209.22	1740.77
209.44	1740.77
209.66	1703.91
209.88	1677.29
210.10	1683.43
210.32	1648.61
210.54	1769.44
210.76	1566.70
210.98	1789.92
211.20	1587.18
211.42	1636.33
211.64	1751.01
211.86	1751.01
212.08	1740.77
212.30	1710.05
212.52	1695.72
212.74	1746.92
212.96	1701.86
213.17	1734.63
213.39	1697.77
213.61	1822.69
213.83	1789.92
214.05	1574.89
214.27	1814.50
214.49	1652.71
214.71	1691.62
214.93	1787.88
215.15	1724.39
215.37	1740.77
215.59	1628.14
215.81	1724.39
216.03	1771.49
216.24	1658.85
216.46	1738.73
216.68	1671.14
216.90	1748.97
217.12	1769.44
217.34	1728.49
217.56	1724.39
217.78	1701.86
218.00	1675.24
218.22	1689.57
218.44	1701.86
218.66	1675.24
218.87	1769.44
219.09	1624.04
219.31	1722.34
219.53	1728.49
219.75	1667.05
219.97	1726.44
220.19	1699.81
220.41	1611.75
220.63	1757.16
220.85	1687.53
221.06	1671.14
221.28	1753.06
221.50	1712.10
221.72	1742.82
221.94	1634.28
222.16	1722.34
222.38	1777.64
222.60	1714.15
222.82	1730.53
223.03	1781.73
223.25	1578.98
223.47	1767.40
223.69	1877.99
223.91	1685.48
224.13	1683.43
224.35	1718.25
224.57	1800.16
224.78	1742.82
225.00	1613.80
225.22	1710.05
225.44	1667.05
225.66	1744.87
225.88	1603.56
226.10	1728.49
226.32	1718.25
226.53	1748.97
226.75	1701.86
226.97	1644.52
227.19	1701.86
227.41	1665.00
227.63	1714.15
227.85	1617.90
228.06	1738.73
228.28	1683.43
228.50	1722.34
228.72	1687.53
228.94	1638.38
229.16	1634.28
229.37	1681.38
229.59	1660.90
229.81	1746.92
230.03	1597.42
230.25	1613.80
230.47	1587.18
230.69	1599.46
230.90	1757.16
231.12	1656.81
231.34	1701.86
231.56	1728.49
231.78	1681.38
232.00	1601.51
232.21	1671.14
232.43	1599.46
232.65	1521.64
232.87	1669.09
233.09	1681.38
233.30	1734.63
233.52	1710.05
233.74	1691.62
233.96	1726.44
234.18	1671.14
234.40	1636.33
234.61	1847.27
234.83	1638.38
235.05	1675.24
235.27	1791.97
235.49	1753.06
235.70	1697.77
235.92	1748.97
236.14	1730.53
236.36	1800.16
236.58	1621.99
236.79	1787.88
237.01	1691.62
237.23	1671.14
237.45	1834.98
237.67	1681.38
237.88	1738.73
238.10	1804.26
238.32	1712.10
238.54	1781.73
238.76	1701.86
238.97	1673.19
239.19	1634.28
239.41	1681.38
239.63	1775.59
239.85	1609.70
240.06	1662.95
240.28	1640.42
240.50	1718.25
240.72	1736.68
240.93	1730.53
241.15	1683.43
241.37	1728.49
241.59	1677.29
241.81	1609.70
242.02	1714.15
242.24	1824.74
242.46	1783.78
242.68	1689.57
242.89	1771.49
243.11	1769.44
243.33	1738.73
243.55	1763.30
243.76	1787.88
243.98	1675.24
244.20	1677.29
244.42	1650.66
244.64	1652.71
244.85	1660.90
245.07	1650.66
245.29	1757.16
245.51	1644.52
245.72	1714.15
245.94	1746.92
246.16	1701.86
246.38	1746.92
246.59	1669.09
246.81	1671.14
247.03	1697.77
247.24	1617.90
247.46	1658.85
247.68	1726.44
247.90	1662.95
248.11	1652.71
248.33	1693.67
248.55	1699.81
248.77	1718.25
248.98	1714.15
249.20	1781.73
249.42	1755.11
249.64	1667.05
249.85	1660.90
250.07	1619.94
250.29	1740.77
250.50	1765.35
250.72	1648.61
250.94	1681.38
251.16	1804.26
251.37	1763.30
251.59	1742.82
251.81	1699.81
252.02	1796.07
252.24	1652.71
252.46	1753.06
252.68	1609.70
252.89	1701.86
253.11	1650.66
253.33	1849.32
253.54	1785.83
253.76	1581.03
253.98	1675.24
254.20	1687.53
254.41	1601.51
254.63	1685.48
254.85	1677.29
255.06	1660.90
255.28	1650.66
255.50	1753.06
255.71	1771.49
255.93	1619.94
256.15	1642.47
256.36	1687.53
256.58	1691.62
256.80	1691.62
257.02	1734.63
257.23	1632.23
257.45	1687.53
257.67	1771.49
257.88	1642.47
258.10	1671.14
258.32	1736.68
258.53	1658.85
258.75	1757.16
258.97	1669.09
259.18	1681.38
259.40	1617.90
259.62	1810.40
259.83	1834.98
260.05	1720.29
260.27	1986.53
260.48	1794.02
260.70	1617.90
260.92	1714.15
261.13	1714.15
261.35	1652.71
261.57	1708.01
261.78	1648.61
262.00	1617.90
262.22	1671.14
262.43	1656.81
262.65	1734.63
262.86	1771.49
263.08	1800.16
263.30	1708.01
263.51	1611.75
263.73	1708.01
263.95	1767.40
264.16	1617.90
264.38	1685.48
264.60	1708.01
264.81	1673.19
265.03	1697.77
265.25	1699.81
265.46	1730.53
265.68	1785.83
265.89	1687.53
266.11	1636.33
266.33	1718.25
266.54	1742.82
266.76	1679.33
266.98	1634.28
267.19	1832.93
267.41	1728.49
267.62	1630.18
267.84	1599.46
268.06	1685.48
268.27	1708.01
268.49	1742.82
268.70	1697.77
268.92	1757.16
269.14	1708.01
269.35	1632.23
269.57	1728.49
269.79	1746.92
270.00	1728.49
270.22	1834.98
270.43	1679.33
270.65	1638.38
270.87	1740.77
271.08	1695.72
271.30	1679.33
271.51	1740.77
271.73	1748.97
271.95	1730.53
272.16	1759.21
272.38	1746.92
272.59	1687.53
272.81	1746.92
273.02	1726.44
273.24	1718.25
273.46	1683.43
273.67	1603.56
273.89	1605.61
274.10	1689.57
274.32	1753.06
274.54	1751.01
274.75	1716.20
274.97	1710.05
275.18	1705.96
275.40	1708.01
275.61	1681.38
275.83	1757.16
276.05	1572.84
276.26	1671.14
276.48	1695.72
276.69	1654.76
276.91	1730.53
277.12	1771.49
277.34	1732.58
277.55	1738.73
277.77	1648.61
277.99	1658.85
278.20	1640.42
278.42	1656.81
278.63	1593.32
278.85	1640.42
279.06	1673.19
279.28	1726.44
279.49	1705.96
279.71	1722.34
279.93	1677.29
280.14	1718.25
280.36	1599.46
280.57	1722.34
280.79	1779.68
281.00	1705.96
281.22	1734.63
281.43	1724.39
281.65	1578.98
281.86	1658.85
282.08	1703.91
282.29	1812.45
282.51	1572.84
282.73	1683.43
282.94	1593.32
283.16	1742.82
283.37	1810.40
283.59	1652.71
283.80	1785.83
284.02	1648.61
284.23	1789.92
284.45	1636.33
284.66	1640.42
284.88	1724.39
285.09	1734.63
285.31	1689.57
285.52	1734.63
285.74	1538.02
285.95	1685.48
286.17	1732.58
286.38	1654.76
286.60	1603.56
286.81	1699.81
287.03	1628.14
287.24	1681.38
287.46	1798.12
287.67	1708.01
287.89	1839.08
288.10	1728.49
288.32	1728.49
288.53	1744.87
288.75	1746.92
288.96	1763.30
289.18	1720.29
289.39	1689.57
289.61	1728.49
289.82	1783.78
290.04	1837.03
290.25	1687.53
290.47	1748.97
290.68	1669.09
290.90	1728.49
291.11	1607.66
291.33	1812.45
291.54	1652.71
291.76	1648.61
291.97	1748.97
292.18	1753.06
292.40	1675.24
292.61	1660.90
292.83	1783.78
293.04	1705.96
293.26	1697.77
293.47	1648.61
293.69	1634.28
293.90	1695.72
294.12	1761.25
294.33	1759.21
294.55	1654.76
294.76	1742.82
294.97	1728.49
295.19	1834.98
295.40	1724.39
295.62	1697.77
295.83	1746.92
296.05	1742.82
296.26	1769.44
296.48	1703.91
296.69	1654.76
296.90	1703.91
297.12	1740.77
297.33	1814.50
297.55	1693.67
297.76	1736.68
297.98	1767.40
298.19	1636.33
298.41	1718.25
298.62	1665.00
298.83	1808.36
299.05	1681.38
299.26	1736.68
299.48	1675.24
299.69	1722.34
299.90	1716.20
300.12	1697.77
300.33	1724.39
300.55	1685.48
300.76	1751.01
300.98	1603.56
301.19	1699.81
301.40	1742.82
301.62	1691.62
301.83	1699.81
302.05	1714.15
302.26	1761.25
302.47	1628.14
302.69	1574.89
302.90	1716.20
303.12	1693.67
303.33	1824.74
303.54	1767.40
303.76	1665.00
303.97	1789.92
304.19	1726.44
304.40	1708.01
304.61	1658.85
304.83	1810.40
305.04	1734.63
305.26	1687.53
305.47	1685.48
305.68	1644.52
305.90	1617.90
306.11	1798.12
306.33	1710.05
306.54	1667.05
306.75	1640.42
306.97	1638.38
307.18	1708.01
307.39	1736.68
307.61	1730.53
307.82	1701.86
308.04	1665.00
308.25	1673.19
308.46	1744.87
308.68	1703.91
308.89	1728.49
309.10	1822.69
309.32	1705.96
309.53	1650.66
309.74	1683.43
309.96	1660.90
310.17	1753.06
310.39	1695.72
310.60	1658.85
310.81	1691.62
311.03	1638.38
311.24	1708.01
311.45	1724.39
311.67	1837.03
311.88	1685.48
312.09	1665.00
312.31	1638.38
312.52	1685.48
312.73	1720.29
312.95	1613.80
313.16	1667.05
313.37	1837.03
313.59	1685.48
313.80	1728.49
314.01	1724.39
314.23	1689.57
314.44	1615.85
314.65	1685.48
314.87	1699.81
315.08	1665.00
315.29	1685.48
315.51	1642.47
315.72	1687.53
315.93	1738.73
316.15	1708.01
316.36	1683.43
316.57	1695.72
316.79	1746.92
317.00	1581.03
317.21	1701.86
317.43	1673.19
317.64	1755.11
317.85	1646.57
318.07	1609.70
318.28	1730.53
318.49	1830.88
318.70	1925.09
318.92	1832.93
319.13	1789.92
319.34	1875.94
319.56	1798.12
319.77	1826.79
319.98	1789.92
320.20	1710.05
320.41	1808.36
320.62	1730.53
320.83	1712.10
321.05	1810.40
321.26	1746.92
321.47	1689.57
321.69	1730.53
321.90	1677.29
322.11	1718.25
322.32	1726.44
322.54	1810.40
322.75	1685.48
322.96	1785.83
323.18	1638.38
323.39	1544.17
323.60	1609.70
323.81	1708.01
324.03	1628.14
324.24	1701.86
324.45	1734.63
324.66	1701.86
324.88	1806.31
325.09	1740.77
325.30	1687.53
325.52	1748.97
325.73	1656.81
325.94	1648.61
326.15	1609.70
326.37	1705.96
326.58	1699.81
326.79	1806.31
327.00	1642.47
327.22	1755.11
327.43	1603.56
327.64	1699.81
327.85	1761.25
328.07	1759.21
328.28	1820.64
328.49	1671.14
328.70	1726.44
328.92	1730.53
329.13	1781.73
329.34	1728.49
329.55	1773.54
329.76	1691.62
329.98	1701.86
330.19	1781.73
330.40	1705.96
330.61	1652.71
330.83	1763.30
331.04	1683.43
331.25	1691.62
331.46	1710.05
331.68	1695.72
331.89	1722.34
332.10	1691.62
332.31	1669.09
332.52	1669.09
332.74	1775.59
332.95	1660.90
333.16	1634.28
333.37	1761.25
333.58	1734.63
333.80	1665.00
334.01	1677.29
334.22	1632.23
334.43	1673.19
334.64	1677.29
334.86	1603.56
335.07	1708.01
335.28	1820.64
335.49	1638.38
335.70	1791.97
335.92	1832.93
336.13	1880.04
336.34	1693.67
336.55	1687.53
336.76	1738.73
336.98	1677.29
337.19	1665.00
337.40	1755.11
337.61	1871.84
337.82	1642.47
338.04	1683.43
338.25	1642.47
338.46	1703.91
338.67	1742.82
338.88	1687.53
339.09	1583.08
339.31	1630.18
339.52	1660.90
339.73	1634.28
339.94	1740.77
340.15	1693.67
340.36	1697.77
340.58	1699.81
340.79	1642.47
341.00	1722.34
341.21	1677.29
341.42	1757.16
341.63	1724.39
341.85	1789.92
342.06	1740.77
342.27	1583.08
342.48	1746.92
342.69	1583.08
342.90	1748.97
343.12	1716.20
343.33	1681.38
343.54	1734.63
343.75	1791.97
343.96	1755.11
344.17	1716.20
344.38	1736.68
344.60	1722.34
344.81	1630.18
345.02	1701.86
345.23	1705.96
345.44	1845.22
345.65	1730.53
345.86	1748.97
346.07	1683.43
346.29	1689.57
346.50	1822.69
346.71	1814.50
346.92	1751.01
347.13	1820.64
347.34	1699.81
347.55	1746.92
347.76	1734.63
347.98	1665.00
348.19	1720.29
348.40	1882.08
348.61	1654.76
348.82	1830.88
349.03	1779.68
349.24	1738.73
349.45	1877.99
349.66	1566.70
349.88	1708.01
350.09	1677.29
350.30	1781.73
350.51	1806.31
350.72	1665.00
350.93	1738.73
351.14	1695.72
351.35	1665.00
351.56	1660.90
351.77	1753.06
351.99	1712.10
352.20	1820.64
352.41	1761.25
352.62	1572.84
352.83	1642.47
353.04	1675.24
353.25	1705.96
353.46	1759.21
353.67	1726.44
353.88	1691.62
354.09	1746.92
354.30	1718.25
354.52	1744.87
354.73	1705.96
354.94	1703.91
355.15	1648.61
355.36	1810.40
355.57	1779.68
355.78	1681.38
355.99	1699.81
356.20	1605.61
356.41	1789.92
356.62	1783.78
356.83	1685.48
357.04	1705.96
357.25	1683.43
357.46	1646.57
357.68	1673.19
357.89	1761.25
358.10	1718.25
358.31	1732.58
358.52	1591.27
358.73	1740.77
358.94	1685.48
359.15	1679.33
359.36	1742.82
359.57	1691.62
359.78	1634.28
359.99	1730.53
360.20	1636.33
360.41	1701.86
360.62	1763.30
360.83	1662.95
361.04	1675.24
361.25	1734.63
361.46	1748.97
361.67	1662.95
361.88	1755.11
362.09	1736.68
362.30	1660.90
362.51	1699.81
362.72	1646.57
362.93	1753.06
363.14	1691.62
363.35	1656.81
363.56	1644.52
363.78	1695.72
363.99	1748.97
364.20	1654.76
364.41	1673.19
364.62	1834.98
364.83	1800.16
365.04	1740.77
365.25	1621.99
365.46	1769.44
365.67	1656.81
365.88	1693.67
366.09	1648.61
366.30	1703.91
366.51	1705.96
366.72	1660.90
366.93	1681.38
367.14	1636.33
367.35	1796.07
367.56	1730.53
367.77	1791.97
367.98	1751.01
368.18	1736.68
368.39	1763.30
368.60	1646.57
368.81	1710.05
369.02	1687.53
369.23	1695.72
369.44	1628.14
369.65	1734.63
369.86	1726.44
370.07	1697.77
370.28	1585.13
370.49	1738.73
370.70	1834.98
370.91	1624.04
371.12	1665.00
371.33	1730.53
371.54	1675.24
371.75	1855.46
371.96	1642.47
372.17	1683.43
372.38	1691.62
372.59	1650.66
372.80	1685.48
373.01	1763.30
373.22	1718.25
373.43	1771.49
373.64	1611.75
373.85	1757.16
374.06	1759.21
374.26	1683.43
374.47	1699.81
374.68	1771.49
374.89	1626.09
375.10	1660.90
375.31	1779.68
375.52	1746.92
375.73	1658.85
375.94	1646.57
376.15	1757.16
376.36	1601.51
376.57	1712.10
376.78	1679.33
376.99	1787.88
377.20	1742.82
377.40	1720.29
377.61	1796.07
377.82	1576.94
378.03	1834.98
378.24	1701.86
378.45	1755.11
378.66	1718.25
378.87	1595.37
379.08	1613.80
379.29	1673.19
379.50	1820.64
379.71	1689.57
379.91	1765.35
380.12	1728.49
380.33	1742.82
380.54	1777.64
380.75	1710.05
380.96	1677.29
381.17	1841.12
381.38	1697.77
381.59	1708.01
381.80	1759.21
382.00	1877.99
382.21	1679.33
382.42	1759.21
382.63	1880.04
382.84	1789.92
383.05	1810.40
383.26	1828.84
383.47	1787.88
383.68	1720.29
383.88	1732.58
384.09	1730.53
384.30	1855.46
384.51	1771.49
384.72	1599.46
384.93	1648.61
385.14	1746.92
385.35	1808.36
385.55	1574.89
385.76	1757.16
385.97	1744.87
386.18	1605.61
386.39	1605.61
386.60	1650.66
386.81	1636.33
387.02	1689.57
387.22	1644.52
387.43	1732.58
387.64	1732.58
387.85	1923.04
388.06	2228.19
388.27	4480.96
388.48	6952.85
388.68	8241.03
388.89	9645.93
389.10	9768.81
389.31	8595.32
389.52	7624.59
389.73	6813.59
389.93	6113.19
390.14	5814.18
390.35	5361.58
390.56	4642.75
390.77	3848.13
390.98	3078.10
391.18	2582.49
391.39	2133.98
391.60	1884.13
391.81	1759.21
392.02	1779.68
392.23	1841.12
392.43	1740.77
392.64	1773.54
392.85	1728.49
393.06	1837.03
393.27	1746.92
393.47	1765.35
393.68	1742.82
393.89	1681.38
394.10	1880.04
394.31	1746.92
394.52	1613.80
394.72	1656.81
394.93	1796.07
395.14	1708.01
395.35	1755.11
395.56	1679.33
395.76	1722.34
395.97	1773.54
396.18	1820.64
396.39	1822.69
396.60	2056.16
396.80	1832.93
397.01	1855.46
397.22	1775.59
397.43	1888.23
397.64	1734.63
397.84	1787.88
398.05	1910.75
398.26	1683.43
398.47	1818.60
398.67	1748.97
398.88	1759.21
399.09	1779.68
399.30	1773.54
399.51	1691.62
399.71	1665.00
399.92	1671.14
400.13	1812.45
400.34	1665.00
400.54	1738.73
400.75	1755.11
400.96	1763.30
401.17	1740.77
401.37	1742.82
401.58	1742.82
401.79	1697.77
402.00	1796.07
402.21	2029.54
402.41	1955.81
402.62	1968.10
402.83	2088.93
403.04	1978.34
403.24	2119.65
403.45	1886.18
403.66	1937.38
403.87	1812.45
404.07	1912.80
404.28	1894.37
404.49	1863.65
404.70	1771.49
404.90	1800.16
405.11	1751.01
405.32	1699.81
405.52	1638.38
405.73	1662.95
405.94	1634.28
406.15	1726.44
406.35	1667.05
406.56	1773.54
406.77	1740.77
406.98	1738.73
407.18	1591.27
407.39	1730.53
407.60	1726.44
407.80	1746.92
408.01	1716.20
408.22	1718.25
408.43	1671.14
408.63	1718.25
408.84	1771.49
409.05	1683.43
409.25	1558.50
409.46	1677.29
409.67	1677.29
409.88	1697.77
410.08	1673.19
410.29	1669.09
410.50	1796.07
410.70	1755.11
410.91	1601.51
411.12	1720.29
411.32	1634.28
411.53	1677.29
411.74	1800.16
411.95	1843.17
412.15	1798.12
412.36	1779.68
412.57	1708.01
412.77	1814.50
412.98	1787.88
413.19	1771.49
413.39	1794.02
413.60	1785.83
413.81	1789.92
414.01	1621.99
414.22	1791.97
414.43	1728.49
414.63	1714.15
414.84	1763.30
415.05	1671.14
415.25	1677.29
415.46	1724.39
415.67	1673.19
415.87	1683.43
416.08	1710.05
416.29	1687.53
416.49	1800.16
416.70	1679.33
416.91	1652.71
417.11	1699.81
417.32	1699.81
417.53	1781.73
417.73	1687.53
417.94	1699.81
418.15	1673.19
418.35	1738.73
418.56	1718.25
418.77	1896.42
418.97	1720.29
419.18	1660.90
419.38	1630.18
419.59	1667.05
419.80	1761.25
420.00	1703.91
420.21	1765.35
420.42	1744.87
420.62	1761.25
420.83	1730.53
421.04	1667.05
421.24	1617.90
421.45	1759.21
421.65	1689.57
421.86	1742.82
422.07	1839.08
422.27	1693.67
422.48	1742.82
422.69	1656.81
422.89	1628.14
423.10	1722.34
423.30	1679.33
423.51	1708.01
423.72	1697.77
423.92	1849.32
424.13	1634.28
424.33	1681.38
424.54	1800.16
424.75	1675.24
424.95	1787.88
425.16	1726.44
425.36	1667.05
425.57	1777.64
425.78	1705.96
425.98	1798.12
426.19	1665.00
426.39	1642.47
426.60	1701.86
426.81	1763.30
427.01	1728.49
427.22	1654.76
427.42	1681.38
427.63	1656.81
427.83	1796.07
428.04	1800.16
428.25	1806.31
428.45	1722.34
428.66	1744.87
428.86	1751.01
429.07	1712.10
429.28	1724.39
429.48	1626.09
429.69	1736.68
429.89	1697.77
430.10	1667.05
430.30	1820.64
430.51	1753.06
430.71	1771.49
430.92	1769.44
431.13	1681.38
431.33	1646.57
431.54	1744.87
431.74	1724.39
431.95	1785.83
432.15	1576.94
432.36	1736.68
432.56	1720.29
432.77	1755.11
432.98	1804.26
433.18	1714.15
433.39	1632.23
433.59	1687.53
433.80	1775.59
434.00	1867.75
434.21	1634.28
434.41	1708.01
434.62	1791.97
434.82	1656.81
435.03	1714.15
435.23	1689.57
435.44	1607.66
435.64	1728.49
435.85	1755.11
436.06	1730.53
436.26	1765.35
436.47	1691.62
436.67	1701.86
436.88	1665.00
437.08	1755.11
437.29	1830.88
437.49	1722.34
437.70	1812.45
437.90	1783.78
438.11	1837.03
438.31	1826.79
438.52	1877.99
438.72	1814.50
438.93	1832.93
439.13	1816.55
439.34	1781.73
439.54	1794.02
439.75	1800.16
439.95	1771.49
440.16	1687.53
440.36	1773.54
440.57	1767.40
440.77	1757.16
440.98	1683.43
441.18	1738.73
441.39	1679.33
441.59	1628.14
441.80	1826.79
442.00	1736.68
442.21	1828.84
442.41	1632.23
442.62	1773.54
442.82	1640.42
443.02	1736.68
443.23	1738.73
443.43	1722.34
443.64	1791.97
443.84	1716.20
444.05	1855.46
444.25	1773.54
444.46	1755.11
444.66	1699.81
444.87	1812.45
445.07	1708.01
445.28	1775.59
445.48	1763.30
445.69	1828.84
445.89	1783.78
446.09	1724.39
446.30	2072.54
446.50	2693.08
446.71	3788.74
446.91	4310.97
447.12	4704.18
447.32	4847.54
447.53	4294.59
447.73	3858.37
447.93	3553.23
448.14	3309.52
448.34	3184.59
448.55	2985.94
448.75	2889.68
448.96	2666.46
449.16	2453.47
449.36	2291.68
449.57	1972.19
449.77	1873.89
449.98	1765.35
450.18	1757.16
450.39	1761.25
450.59	1785.83
450.79	1714.15
451.00	1652.71
451.20	1777.64
451.41	1736.68
451.61	1665.00
451.81	1675.24
452.02	1701.86
452.22	1656.81
452.43	1751.01
452.63	1701.86
