SpectraSuite Data File
++++++++++++++++++++++++++++++++++++
Date: Mon Jun 06 16:48:17 CEST 2016
User: root
Dark Spectrum Present: No
Reference Spectrum Present: No
Number of Sampled Component Spectra: 1
Spectrometers: USB4C02835
Integration Time (usec): 100000 (USB4C02835)
Spectra Averaged: 1 (USB4C02835)
Boxcar Smoothing: 0 (USB4C02835)
Correct for Electrical Dark: No (USB4C02835)
Strobe/Lamp Enabled: No (USB4C02835)
Correct for Detector Non-linearity: No (USB4C02835)
Correct for Stray Light: No (USB4C02835)
Number of Pixels in Processed Spectrum: 3648
>>>>>Begin Processed Spectral Data<<<<<
177.47	1503.21
177.69	1503.21
177.91	1503.21
178.13	1546.22
178.36	1513.45
178.58	1591.27
178.80	1681.38
179.02	1650.66
179.24	1660.90
179.46	1757.16
179.68	1777.64
179.90	1671.14
180.13	1689.57
180.35	1705.96
180.57	1746.92
180.79	1767.40
181.01	1732.58
181.23	1787.88
181.45	1738.73
181.67	1679.33
181.90	1687.53
182.12	1677.29
182.34	1601.51
182.56	1781.73
182.78	1742.82
183.00	1701.86
183.22	1677.29
183.44	1656.81
183.66	1820.64
183.89	1814.50
184.11	1765.35
184.33	1724.39
184.55	1765.35
184.77	1746.92
184.99	1654.76
185.21	1699.81
185.43	1816.55
185.65	1656.81
185.87	1708.01
186.10	1787.88
186.32	1843.17
186.54	1794.02
186.76	1751.01
186.98	1783.78
187.20	1603.56
187.42	1626.09
187.64	1769.44
187.86	1824.74
188.08	1681.38
188.30	1656.81
188.52	1646.57
188.75	1820.64
188.97	1822.69
189.19	1689.57
189.41	1742.82
189.63	1716.20
189.85	1716.20
190.07	1613.80
190.29	1599.46
190.51	1716.20
190.73	1697.77
190.95	1828.84
191.17	1716.20
191.39	1636.33
191.61	1759.21
191.84	1730.53
192.06	1734.63
192.28	1626.09
192.50	1841.12
192.72	1744.87
192.94	1714.15
193.16	1771.49
193.38	1720.29
193.60	1662.95
193.82	1693.67
194.04	1789.92
194.26	1689.57
194.48	1738.73
194.70	1648.61
194.92	1640.42
195.14	1802.21
195.36	1671.14
195.58	1757.16
195.80	1646.57
196.02	1767.40
196.24	1646.57
196.46	1769.44
196.69	1603.56
196.91	1796.07
197.13	1720.29
197.35	1642.47
197.57	1757.16
197.79	1771.49
198.01	1656.81
198.23	1734.63
198.45	1705.96
198.67	1658.85
198.89	1665.00
199.11	1742.82
199.33	1693.67
199.55	1681.38
199.77	1740.77
199.99	1732.58
200.21	1761.25
200.43	1697.77
200.65	1632.23
200.87	1628.14
201.09	1652.71
201.31	1708.01
201.53	1775.59
201.75	1730.53
201.97	1728.49
202.19	1712.10
202.41	1773.54
202.63	1853.41
202.85	1773.54
203.07	1748.97
203.29	1632.23
203.51	1665.00
203.73	1710.05
203.95	1808.36
204.17	1665.00
204.39	1730.53
204.61	1689.57
204.83	1675.24
205.05	1804.26
205.27	1738.73
205.49	1830.88
205.71	1714.15
205.93	1638.38
206.15	1693.67
206.37	1742.82
206.59	1726.44
206.81	1654.76
207.03	1652.71
207.25	1638.38
207.47	1808.36
207.69	1701.86
207.91	1785.83
208.13	1755.11
208.34	1660.90
208.56	1613.80
208.78	1691.62
209.00	1660.90
209.22	1726.44
209.44	1742.82
209.66	1621.99
209.88	1714.15
210.10	1644.52
210.32	1646.57
210.54	1738.73
210.76	1720.29
210.98	1755.11
211.20	1558.50
211.42	1748.97
211.64	1699.81
211.86	1746.92
212.08	1769.44
212.30	1730.53
212.52	1675.24
212.74	1757.16
212.96	1708.01
213.17	1744.87
213.39	1738.73
213.61	1791.97
213.83	1677.29
214.05	1710.05
214.27	1742.82
214.49	1640.42
214.71	1624.04
214.93	1763.30
215.15	1712.10
215.37	1681.38
215.59	1630.18
215.81	1728.49
216.03	1765.35
216.24	1722.34
216.46	1708.01
216.68	1748.97
216.90	1759.21
217.12	1785.83
217.34	1636.33
217.56	1794.02
217.78	1779.68
218.00	1673.19
218.22	1675.24
218.44	1730.53
218.66	1730.53
218.87	1783.78
219.09	1593.32
219.31	1675.24
219.53	1755.11
219.75	1734.63
219.97	1656.81
220.19	1744.87
220.41	1736.68
220.63	1851.36
220.85	1667.05
221.06	1619.94
221.28	1705.96
221.50	1712.10
221.72	1683.43
221.94	1697.77
222.16	1736.68
222.38	1767.40
222.60	1808.36
222.82	1675.24
223.03	1662.95
223.25	1640.42
223.47	1693.67
223.69	1798.12
223.91	1810.40
224.13	1656.81
224.35	1648.61
224.57	1812.45
224.78	1748.97
225.00	1675.24
225.22	1667.05
225.44	1722.34
225.66	1720.29
225.88	1732.58
226.10	1718.25
226.32	1679.33
226.53	1787.88
226.75	1640.42
226.97	1681.38
227.19	1648.61
227.41	1765.35
227.63	1638.38
227.85	1562.60
228.06	1718.25
228.28	1714.15
228.50	1767.40
228.72	1677.29
228.94	1665.00
229.16	1615.85
229.37	1632.23
229.59	1687.53
229.81	1734.63
230.03	1744.87
230.25	1695.72
230.47	1652.71
230.69	1701.86
230.90	1814.50
231.12	1722.34
231.34	1701.86
231.56	1746.92
231.78	1634.28
232.00	1753.06
232.21	1712.10
232.43	1757.16
232.65	1628.14
232.87	1693.67
233.09	1710.05
233.30	1736.68
233.52	1757.16
233.74	1673.19
233.96	1642.47
234.18	1669.09
234.40	1689.57
234.61	1832.93
234.83	1628.14
235.05	1540.07
235.27	1804.26
235.49	1875.94
235.70	1708.01
235.92	1775.59
236.14	1667.05
236.36	1884.13
236.58	1644.52
236.79	1732.58
237.01	1740.77
237.23	1718.25
237.45	1814.50
237.67	1591.27
237.88	1685.48
238.10	1849.32
238.32	1759.21
238.54	1722.34
238.76	1652.71
238.97	1660.90
239.19	1607.66
239.41	1757.16
239.63	1845.22
239.85	1648.61
240.06	1689.57
240.28	1665.00
240.50	1734.63
240.72	1736.68
240.93	1630.18
241.15	1726.44
241.37	1669.09
241.59	1757.16
241.81	1705.96
242.02	1662.95
242.24	1726.44
242.46	1769.44
242.68	1646.57
242.89	1722.34
243.11	1701.86
243.33	1705.96
243.55	1761.25
243.76	1640.42
243.98	1697.77
244.20	1701.86
244.42	1740.77
244.64	1693.67
244.85	1667.05
245.07	1650.66
245.29	1724.39
245.51	1691.62
245.72	1722.34
245.94	1798.12
246.16	1687.53
246.38	1722.34
246.59	1601.51
246.81	1617.90
247.03	1714.15
247.24	1583.08
247.46	1603.56
247.68	1755.11
247.90	1710.05
248.11	1765.35
248.33	1763.30
248.55	1693.67
248.77	1660.90
248.98	1808.36
249.20	1867.75
249.42	1650.66
249.64	1804.26
249.85	1714.15
250.07	1628.14
250.29	1783.78
250.50	1714.15
250.72	1576.94
250.94	1720.29
251.16	1814.50
251.37	1798.12
251.59	1769.44
251.81	1746.92
252.02	1816.55
252.24	1642.47
252.46	1806.31
252.68	1621.99
252.89	1634.28
253.11	1685.48
253.33	1853.41
253.54	1812.45
253.76	1716.20
253.98	1746.92
254.20	1742.82
254.41	1652.71
254.63	1632.23
254.85	1634.28
255.06	1734.63
255.28	1703.91
255.50	1718.25
255.71	1728.49
255.93	1665.00
256.15	1662.95
256.36	1693.67
256.58	1660.90
256.80	1718.25
257.02	1767.40
257.23	1681.38
257.45	1714.15
257.67	1767.40
257.88	1689.57
258.10	1660.90
258.32	1716.20
258.53	1630.18
258.75	1763.30
258.97	1638.38
259.18	1757.16
259.40	1648.61
259.62	1875.94
259.83	1753.06
260.05	1681.38
260.27	1939.43
260.48	1779.68
260.70	1652.71
260.92	1705.96
261.13	1716.20
261.35	1769.44
261.57	1771.49
261.78	1662.95
262.00	1673.19
262.22	1658.85
262.43	1619.94
262.65	1708.01
262.86	1617.90
263.08	1834.98
263.30	1681.38
263.51	1644.52
263.73	1685.48
263.95	1804.26
264.16	1652.71
264.38	1679.33
264.60	1693.67
264.81	1701.86
265.03	1771.49
265.25	1732.58
265.46	1685.48
265.68	1689.57
265.89	1787.88
266.11	1611.75
266.33	1787.88
266.54	1759.21
266.76	1740.77
266.98	1755.11
267.19	1722.34
267.41	1841.12
267.62	1740.77
267.84	1675.24
268.06	1705.96
268.27	1724.39
268.49	1818.60
268.70	1736.68
268.92	1681.38
269.14	1593.32
269.35	1605.61
269.57	1671.14
269.79	1751.01
270.00	1689.57
270.22	1847.27
270.43	1634.28
270.65	1607.66
270.87	1736.68
271.08	1732.58
271.30	1769.44
271.51	1755.11
271.73	1740.77
271.95	1736.68
272.16	1738.73
272.38	1681.38
272.59	1697.77
272.81	1818.60
273.02	1636.33
273.24	1748.97
273.46	1753.06
273.67	1640.42
273.89	1656.81
274.10	1714.15
274.32	1726.44
274.54	1734.63
274.75	1624.04
274.97	1712.10
275.18	1691.62
275.40	1734.63
275.61	1728.49
275.83	1728.49
276.05	1724.39
276.26	1699.81
276.48	1804.26
276.69	1718.25
276.91	1726.44
277.12	1769.44
277.34	1763.30
277.55	1662.95
277.77	1716.20
277.99	1691.62
278.20	1630.18
278.42	1644.52
278.63	1656.81
278.85	1671.14
279.06	1658.85
279.28	1771.49
279.49	1765.35
279.71	1738.73
279.93	1689.57
280.14	1722.34
280.36	1646.57
280.57	1753.06
280.79	1738.73
281.00	1681.38
281.22	1669.09
281.43	1775.59
281.65	1617.90
281.86	1718.25
282.08	1736.68
282.29	1759.21
282.51	1646.57
282.73	1599.46
282.94	1644.52
283.16	1800.16
283.37	1822.69
283.59	1789.92
283.80	1675.24
284.02	1701.86
284.23	1726.44
284.45	1601.51
284.66	1605.61
284.88	1681.38
285.09	1708.01
285.31	1665.00
285.52	1728.49
285.74	1546.22
285.95	1767.40
286.17	1673.19
286.38	1767.40
286.60	1724.39
286.81	1677.29
287.03	1753.06
287.24	1677.29
287.46	1751.01
287.67	1765.35
287.89	1839.08
288.10	1734.63
288.32	1699.81
288.53	1826.79
288.75	1705.96
288.96	1677.29
289.18	1728.49
289.39	1710.05
289.61	1742.82
289.82	1867.75
290.04	1822.69
290.25	1691.62
290.47	1748.97
290.68	1650.66
290.90	1732.58
291.11	1669.09
291.33	1769.44
291.54	1685.48
291.76	1718.25
291.97	1763.30
292.18	1703.91
292.40	1681.38
292.61	1662.95
292.83	1880.04
293.04	1781.73
293.26	1738.73
293.47	1689.57
293.69	1628.14
293.90	1791.97
294.12	1800.16
294.33	1746.92
294.55	1677.29
294.76	1726.44
294.97	1755.11
295.19	1834.98
295.40	1650.66
295.62	1703.91
295.83	1703.91
296.05	1726.44
296.26	1773.54
296.48	1687.53
296.69	1708.01
296.90	1683.43
297.12	1757.16
297.33	1718.25
297.55	1662.95
297.76	1748.97
297.98	1771.49
298.19	1763.30
298.41	1730.53
298.62	1701.86
298.83	1773.54
299.05	1671.14
299.26	1681.38
299.48	1574.89
299.69	1767.40
299.90	1722.34
300.12	1642.47
300.33	1699.81
300.55	1703.91
300.76	1730.53
300.98	1687.53
301.19	1732.58
301.40	1665.00
301.62	1662.95
301.83	1763.30
302.05	1673.19
302.26	1718.25
302.47	1710.05
302.69	1658.85
302.90	1689.57
303.12	1621.99
303.33	1853.41
303.54	1875.94
303.76	1640.42
303.97	1705.96
304.19	1810.40
304.40	1632.23
304.61	1693.67
304.83	1841.12
305.04	1771.49
305.26	1775.59
305.47	1634.28
305.68	1718.25
305.90	1658.85
306.11	1800.16
306.33	1644.52
306.54	1769.44
306.75	1671.14
306.97	1689.57
307.18	1699.81
307.39	1683.43
307.61	1800.16
307.82	1716.20
308.04	1767.40
308.25	1716.20
308.46	1722.34
308.68	1689.57
308.89	1679.33
309.10	1832.93
309.32	1699.81
309.53	1685.48
309.74	1746.92
309.96	1673.19
310.17	1794.02
310.39	1689.57
310.60	1826.79
310.81	1648.61
311.03	1685.48
311.24	1746.92
311.45	1742.82
311.67	1744.87
311.88	1699.81
312.09	1560.55
312.31	1724.39
312.52	1697.77
312.73	1665.00
312.95	1652.71
313.16	1730.53
313.37	1705.96
313.59	1732.58
313.80	1755.11
314.01	1769.44
314.23	1611.75
314.44	1624.04
314.65	1677.29
314.87	1697.77
315.08	1683.43
315.29	1771.49
315.51	1628.14
315.72	1607.66
315.93	1806.31
316.15	1785.83
316.36	1675.24
316.57	1705.96
316.79	1726.44
317.00	1714.15
317.21	1685.48
317.43	1689.57
317.64	1718.25
317.85	1617.90
318.07	1730.53
318.28	1689.57
318.49	1857.51
318.70	1939.43
318.92	1859.56
319.13	1808.36
319.34	1873.89
319.56	1796.07
319.77	1863.65
319.98	1738.73
320.20	1767.40
320.41	1701.86
320.62	1798.12
320.83	1624.04
321.05	1796.07
321.26	1751.01
321.47	1667.05
321.69	1775.59
321.90	1634.28
322.11	1712.10
322.32	1695.72
322.54	1763.30
322.75	1703.91
322.96	1818.60
323.18	1632.23
323.39	1656.81
323.60	1671.14
323.81	1746.92
324.03	1710.05
324.24	1667.05
324.45	1777.64
324.66	1693.67
324.88	1759.21
325.09	1779.68
325.30	1748.97
325.52	1681.38
325.73	1734.63
325.94	1697.77
326.15	1624.04
326.37	1652.71
326.58	1812.45
326.79	1755.11
327.00	1671.14
327.22	1716.20
327.43	1716.20
327.64	1619.94
327.85	1767.40
328.07	1751.01
328.28	1755.11
328.49	1628.14
328.70	1736.68
328.92	1765.35
329.13	1701.86
329.34	1794.02
329.55	1822.69
329.76	1773.54
329.98	1787.88
330.19	1757.16
330.40	1744.87
330.61	1656.81
330.83	1800.16
331.04	1658.85
331.25	1656.81
331.46	1673.19
331.68	1621.99
331.89	1789.92
332.10	1691.62
332.31	1607.66
332.52	1697.77
332.74	1882.08
332.95	1640.42
333.16	1755.11
333.37	1734.63
333.58	1624.04
333.80	1789.92
334.01	1615.85
334.22	1689.57
334.43	1617.90
334.64	1691.62
334.86	1667.05
335.07	1703.91
335.28	1830.88
335.49	1642.47
335.70	1789.92
335.92	1777.64
336.13	1910.75
336.34	1697.77
336.55	1738.73
336.76	1712.10
336.98	1558.50
337.19	1673.19
337.40	1767.40
337.61	1867.75
337.82	1701.86
338.04	1796.07
338.25	1564.65
338.46	1695.72
338.67	1677.29
338.88	1693.67
339.09	1728.49
339.31	1714.15
339.52	1720.29
339.73	1724.39
339.94	1738.73
340.15	1748.97
340.36	1671.14
340.58	1675.24
340.79	1656.81
341.00	1734.63
341.21	1615.85
341.42	1818.60
341.63	1738.73
341.85	1734.63
342.06	1683.43
342.27	1679.33
342.48	1765.35
342.69	1621.99
342.90	1865.70
343.12	1705.96
343.33	1671.14
343.54	1746.92
343.75	1763.30
343.96	1699.81
344.17	1685.48
344.38	1763.30
344.60	1695.72
344.81	1677.29
345.02	1734.63
345.23	1740.77
345.44	1718.25
345.65	1746.92
345.86	1708.01
346.07	1642.47
346.29	1677.29
346.50	1708.01
346.71	1708.01
346.92	1800.16
347.13	1755.11
347.34	1751.01
347.55	1724.39
347.76	1728.49
347.98	1585.13
348.19	1716.20
348.40	1783.78
348.61	1628.14
348.82	1767.40
349.03	1705.96
349.24	1722.34
349.45	1806.31
349.66	1568.74
349.88	1722.34
350.09	1675.24
350.30	1830.88
350.51	1804.26
350.72	1740.77
350.93	1742.82
351.14	1673.19
351.35	1734.63
351.56	1681.38
351.77	1669.09
351.99	1703.91
352.20	1859.56
352.41	1812.45
352.62	1591.27
352.83	1656.81
353.04	1732.58
353.25	1699.81
353.46	1744.87
353.67	1708.01
353.88	1650.66
354.09	1751.01
354.30	1718.25
354.52	1742.82
354.73	1732.58
354.94	1632.23
355.15	1636.33
355.36	1796.07
355.57	1648.61
355.78	1748.97
355.99	1718.25
356.20	1673.19
356.41	1775.59
356.62	1720.29
356.83	1710.05
357.04	1722.34
357.25	1673.19
357.46	1691.62
357.68	1642.47
357.89	1716.20
358.10	1687.53
358.31	1609.70
358.52	1720.29
358.73	1613.80
358.94	1658.85
359.15	1683.43
359.36	1732.58
359.57	1751.01
359.78	1701.86
359.99	1753.06
360.20	1640.42
360.41	1685.48
360.62	1757.16
360.83	1710.05
361.04	1769.44
361.25	1826.79
361.46	1820.64
361.67	1667.05
361.88	1759.21
362.09	1728.49
362.30	1687.53
362.51	1634.28
362.72	1650.66
362.93	1767.40
363.14	1740.77
363.35	1640.42
363.56	1605.61
363.78	1824.74
363.99	1728.49
364.20	1650.66
364.41	1683.43
364.62	1781.73
364.83	1730.53
365.04	1681.38
365.25	1703.91
365.46	1781.73
365.67	1607.66
365.88	1660.90
366.09	1708.01
366.30	1656.81
366.51	1699.81
366.72	1712.10
366.93	1751.01
367.14	1695.72
367.35	1763.30
367.56	1714.15
367.77	1759.21
367.98	1751.01
368.18	1746.92
368.39	1679.33
368.60	1644.52
368.81	1732.58
369.02	1718.25
369.23	1665.00
369.44	1650.66
369.65	1689.57
369.86	1732.58
370.07	1818.60
370.28	1650.66
370.49	1800.16
370.70	1746.92
370.91	1638.38
371.12	1636.33
371.33	1705.96
371.54	1701.86
371.75	1814.50
371.96	1568.74
372.17	1746.92
372.38	1662.95
372.59	1771.49
372.80	1619.94
373.01	1705.96
373.22	1660.90
373.43	1744.87
373.64	1689.57
373.85	1771.49
374.06	1798.12
374.26	1796.07
374.47	1746.92
374.68	1804.26
374.89	1665.00
375.10	1767.40
375.31	1843.17
375.52	1759.21
375.73	1738.73
375.94	1728.49
376.15	1775.59
376.36	1718.25
376.57	1648.61
376.78	1710.05
376.99	1722.34
377.20	1767.40
377.40	1730.53
377.61	1845.22
377.82	1701.86
378.03	1800.16
378.24	1769.44
378.45	1660.90
378.66	1765.35
378.87	1677.29
379.08	1597.42
379.29	1636.33
379.50	1751.01
379.71	1755.11
379.91	1746.92
380.12	1619.94
380.33	1740.77
380.54	1714.15
380.75	1718.25
380.96	1687.53
381.17	1787.88
381.38	1662.95
381.59	1800.16
381.80	1669.09
382.00	1925.09
382.21	1693.67
382.42	1806.31
382.63	1845.22
382.84	1763.30
383.05	1742.82
383.26	1814.50
383.47	1679.33
383.68	1769.44
383.88	1730.53
384.09	1728.49
384.30	1804.26
384.51	1783.78
384.72	1673.19
384.93	1675.24
385.14	1660.90
385.35	1765.35
385.55	1589.22
385.76	1849.32
385.97	1708.01
386.18	1695.72
386.39	1679.33
386.60	1640.42
386.81	1769.44
387.02	1648.61
387.22	1677.29
387.43	1787.88
387.64	1775.59
387.85	1853.41
388.06	2168.80
388.27	4296.64
388.48	6684.57
388.68	8060.80
388.89	9537.39
389.10	9555.82
389.31	8484.73
389.52	7413.65
389.73	6739.87
389.93	6162.34
390.14	5871.53
390.35	5140.40
390.56	4489.15
390.77	3887.04
390.98	2971.60
391.18	2557.91
391.39	2080.74
391.60	1896.42
391.81	1771.49
392.02	1734.63
392.23	1843.17
392.43	1673.19
392.64	1796.07
392.85	1740.77
393.06	1834.98
393.27	1675.24
393.47	1654.76
393.68	1767.40
393.89	1759.21
394.10	1849.32
394.31	1621.99
394.52	1656.81
394.72	1662.95
394.93	1849.32
395.14	1708.01
395.35	1736.68
395.56	1705.96
395.76	1742.82
395.97	1771.49
396.18	1828.84
396.39	1777.64
396.60	2013.15
396.80	1867.75
397.01	1945.57
397.22	1808.36
397.43	1912.80
397.64	1744.87
397.84	1759.21
398.05	1890.28
398.26	1796.07
398.47	1767.40
398.67	1759.21
398.88	1689.57
399.09	1710.05
399.30	1695.72
399.51	1738.73
399.71	1712.10
399.92	1767.40
400.13	1746.92
400.34	1757.16
400.54	1759.21
400.75	1814.50
400.96	1748.97
401.17	1828.84
401.37	1728.49
401.58	1658.85
401.79	1710.05
402.00	1880.04
402.21	1896.42
402.41	2013.15
402.62	1988.58
402.83	2009.06
403.04	2031.58
403.24	2047.97
403.45	1884.13
403.66	1943.52
403.87	1871.84
404.07	1882.08
404.28	1877.99
404.49	1925.09
404.70	1748.97
404.90	1779.68
405.11	1708.01
405.32	1769.44
405.52	1689.57
405.73	1607.66
405.94	1628.14
406.15	1724.39
406.35	1812.45
406.56	1691.62
406.77	1773.54
406.98	1648.61
407.18	1630.18
407.39	1703.91
407.60	1763.30
407.80	1712.10
408.01	1650.66
408.22	1767.40
408.43	1730.53
408.63	1796.07
408.84	1744.87
409.05	1728.49
409.25	1685.48
409.46	1599.46
409.67	1683.43
409.88	1732.58
410.08	1689.57
410.29	1701.86
410.50	1736.68
410.70	1669.09
410.91	1662.95
411.12	1748.97
411.32	1673.19
411.53	1716.20
411.74	1822.69
411.95	1769.44
412.15	1791.97
412.36	1808.36
412.57	1796.07
412.77	1873.89
412.98	1714.15
413.19	1693.67
413.39	1773.54
413.60	1726.44
413.81	1832.93
414.01	1697.77
414.22	1791.97
414.43	1708.01
414.63	1751.01
414.84	1757.16
415.05	1683.43
415.25	1624.04
415.46	1800.16
415.67	1628.14
415.87	1773.54
416.08	1695.72
416.29	1671.14
416.49	1783.78
416.70	1685.48
416.91	1644.52
417.11	1669.09
417.32	1787.88
417.53	1781.73
417.73	1769.44
417.94	1767.40
418.15	1701.86
418.35	1734.63
418.56	1660.90
418.77	1867.75
418.97	1759.21
419.18	1714.15
419.38	1603.56
419.59	1683.43
419.80	1777.64
420.00	1767.40
420.21	1724.39
420.42	1740.77
420.62	1755.11
420.83	1695.72
421.04	1757.16
421.24	1736.68
421.45	1855.46
421.65	1718.25
421.86	1648.61
422.07	1722.34
422.27	1691.62
422.48	1683.43
422.69	1652.71
422.89	1757.16
423.10	1703.91
423.30	1693.67
423.51	1695.72
423.72	1720.29
423.92	1759.21
424.13	1687.53
424.33	1708.01
424.54	1742.82
424.75	1742.82
424.95	1718.25
425.16	1751.01
425.36	1640.42
425.57	1722.34
425.78	1800.16
425.98	1771.49
426.19	1710.05
426.39	1650.66
426.60	1759.21
426.81	1701.86
427.01	1693.67
427.22	1687.53
427.42	1638.38
427.63	1642.47
427.83	1771.49
428.04	1775.59
428.25	1779.68
428.45	1810.40
428.66	1820.64
428.86	1755.11
429.07	1683.43
429.28	1800.16
429.48	1724.39
429.69	1642.47
429.89	1789.92
430.10	1617.90
430.30	1730.53
430.51	1738.73
430.71	1669.09
430.92	1794.02
431.13	1724.39
431.33	1734.63
431.54	1757.16
431.74	1751.01
431.95	1869.80
432.15	1609.70
432.36	1705.96
432.56	1734.63
432.77	1791.97
432.98	1869.80
433.18	1708.01
433.39	1710.05
433.59	1714.15
433.80	1812.45
434.00	1896.42
434.21	1722.34
434.41	1648.61
434.62	1800.16
434.82	1652.71
435.03	1583.08
435.23	1744.87
435.44	1609.70
435.64	1730.53
435.85	1708.01
436.06	1751.01
436.26	1742.82
436.47	1791.97
436.67	1728.49
436.88	1699.81
437.08	1804.26
437.29	1748.97
437.49	1691.62
437.70	1773.54
437.90	1714.15
438.11	1753.06
438.31	1875.94
438.52	1925.09
438.72	1873.89
438.93	1855.46
439.13	1708.01
439.34	1857.51
439.54	1783.78
439.75	1744.87
439.95	1742.82
440.16	1705.96
440.36	1773.54
440.57	1812.45
440.77	1777.64
440.98	1738.73
441.18	1789.92
441.39	1705.96
441.59	1683.43
441.80	1902.56
442.00	1800.16
442.21	1820.64
442.41	1673.19
442.62	1822.69
442.82	1734.63
443.02	1728.49
443.23	1748.97
443.43	1701.86
443.64	1818.60
443.84	1720.29
444.05	1806.31
444.25	1687.53
444.46	1755.11
444.66	1736.68
444.87	1918.95
445.07	1648.61
445.28	1716.20
445.48	1888.23
445.69	1783.78
445.89	1929.19
446.09	1849.32
446.30	2011.11
446.50	2586.58
446.71	3688.39
446.91	4198.34
447.12	4706.23
447.32	4845.49
447.53	4325.31
447.73	3928.00
447.93	3422.16
448.14	3256.27
448.34	3274.70
448.55	2877.40
448.75	2813.91
448.96	2693.08
449.16	2553.82
449.36	2258.91
449.57	2047.97
449.77	1886.18
449.98	1732.58
450.18	1769.44
450.39	1886.18
450.59	1734.63
450.79	1779.68
451.00	1728.49
451.20	1775.59
451.41	1765.35
451.61	1716.20
451.81	1720.29
452.02	1800.16
452.22	1751.01
452.43	1716.20
452.63	1736.68
