SpectraSuite Data File
++++++++++++++++++++++++++++++++++++
Date: Mon Jun 06 12:20:37 CEST 2016
User: root
Dark Spectrum Present: No
Reference Spectrum Present: No
Number of Sampled Component Spectra: 1
Spectrometers: USB4C02835
Integration Time (usec): 100000 (USB4C02835)
Spectra Averaged: 1 (USB4C02835)
Boxcar Smoothing: 0 (USB4C02835)
Correct for Electrical Dark: No (USB4C02835)
Strobe/Lamp Enabled: No (USB4C02835)
Correct for Detector Non-linearity: No (USB4C02835)
Correct for Stray Light: No (USB4C02835)
Number of Pixels in Processed Spectrum: 3648
>>>>>Begin Processed Spectral Data<<<<<
177.47	1466.35
177.69	1466.35
177.91	1466.35
178.13	1462.25
178.36	1472.49
178.58	1714.15
178.80	1724.39
179.02	1591.27
179.24	1669.09
179.46	1642.47
179.68	1769.44
179.90	1695.72
180.13	1634.28
180.35	1673.19
180.57	1695.72
180.79	1714.15
181.01	1611.75
181.23	1746.92
181.45	1800.16
181.67	1613.80
181.90	1689.57
182.12	1595.37
182.34	1587.18
182.56	1738.73
182.78	1650.66
183.00	1691.62
183.22	1660.90
183.44	1611.75
183.66	1755.11
183.89	1742.82
184.11	1685.48
184.33	1738.73
184.55	1820.64
184.77	1669.09
184.99	1724.39
185.21	1648.61
185.43	1853.41
185.65	1630.18
185.87	1777.64
186.10	1841.12
186.32	1820.64
186.54	1730.53
186.76	1714.15
186.98	1718.25
187.20	1689.57
187.42	1712.10
187.64	1730.53
187.86	1726.44
188.08	1687.53
188.30	1665.00
188.52	1667.05
188.75	1724.39
188.97	1791.97
189.19	1624.04
189.41	1714.15
189.63	1708.01
189.85	1646.57
190.07	1591.27
190.29	1568.74
190.51	1685.48
190.73	1611.75
190.95	1787.88
191.17	1685.48
191.39	1669.09
191.61	1632.23
191.84	1708.01
192.06	1693.67
192.28	1562.60
192.50	1869.80
192.72	1757.16
192.94	1730.53
193.16	1791.97
193.38	1697.77
193.60	1613.80
193.82	1687.53
194.04	1720.29
194.26	1691.62
194.48	1763.30
194.70	1669.09
194.92	1675.24
195.14	1710.05
195.36	1626.09
195.58	1665.00
195.80	1673.19
196.02	1652.71
196.24	1681.38
196.46	1665.00
196.69	1716.20
196.91	1869.80
197.13	1677.29
197.35	1673.19
197.57	1669.09
197.79	1687.53
198.01	1699.81
198.23	1710.05
198.45	1650.66
198.67	1640.42
198.89	1738.73
199.11	1779.68
199.33	1677.29
199.55	1695.72
199.77	1734.63
199.99	1753.06
200.21	1710.05
200.43	1724.39
200.65	1603.56
200.87	1521.64
201.09	1693.67
201.31	1613.80
201.53	1724.39
201.75	1720.29
201.97	1740.77
202.19	1710.05
202.41	1753.06
202.63	1787.88
202.85	1810.40
203.07	1695.72
203.29	1703.91
203.51	1564.65
203.73	1644.52
203.95	1865.70
204.17	1746.92
204.39	1748.97
204.61	1636.33
204.83	1681.38
205.05	1757.16
205.27	1738.73
205.49	1761.25
205.71	1609.70
205.93	1617.90
206.15	1648.61
206.37	1689.57
206.59	1615.85
206.81	1583.08
207.03	1648.61
207.25	1648.61
207.47	1769.44
207.69	1636.33
207.91	1751.01
208.13	1753.06
208.34	1710.05
208.56	1656.81
208.78	1794.02
209.00	1624.04
209.22	1673.19
209.44	1675.24
209.66	1646.57
209.88	1669.09
210.10	1710.05
210.32	1652.71
210.54	1804.26
210.76	1656.81
210.98	1718.25
211.20	1560.55
211.42	1751.01
211.64	1691.62
211.86	1757.16
212.08	1648.61
212.30	1722.34
212.52	1654.76
212.74	1699.81
212.96	1673.19
213.17	1751.01
213.39	1705.96
213.61	1761.25
213.83	1820.64
214.05	1628.14
214.27	1730.53
214.49	1595.37
214.71	1640.42
214.93	1744.87
215.15	1705.96
215.37	1728.49
215.59	1615.85
215.81	1697.77
216.03	1767.40
216.24	1748.97
216.46	1650.66
216.68	1708.01
216.90	1724.39
217.12	1673.19
217.34	1720.29
217.56	1751.01
217.78	1744.87
218.00	1652.71
218.22	1730.53
218.44	1775.59
218.66	1665.00
218.87	1787.88
219.09	1636.33
219.31	1656.81
219.53	1693.67
219.75	1730.53
219.97	1679.33
220.19	1685.48
220.41	1636.33
220.63	1755.11
220.85	1728.49
221.06	1660.90
221.28	1789.92
221.50	1708.01
221.72	1710.05
221.94	1714.15
222.16	1783.78
222.38	1722.34
222.60	1718.25
222.82	1685.48
223.03	1746.92
223.25	1597.42
223.47	1802.21
223.69	1796.07
223.91	1837.03
224.13	1656.81
224.35	1710.05
224.57	1732.58
224.78	1673.19
225.00	1701.86
225.22	1710.05
225.44	1726.44
225.66	1703.91
225.88	1609.70
226.10	1697.77
226.32	1718.25
226.53	1765.35
226.75	1689.57
226.97	1665.00
227.19	1687.53
227.41	1656.81
227.63	1640.42
227.85	1624.04
228.06	1710.05
228.28	1771.49
228.50	1781.73
228.72	1607.66
228.94	1681.38
229.16	1564.65
229.37	1654.76
229.59	1673.19
229.81	1798.12
230.03	1660.90
230.25	1628.14
230.47	1671.14
230.69	1660.90
230.90	1685.48
231.12	1705.96
231.34	1765.35
231.56	1705.96
231.78	1699.81
232.00	1671.14
232.21	1734.63
232.43	1656.81
232.65	1589.22
232.87	1722.34
233.09	1662.95
233.30	1593.32
233.52	1710.05
233.74	1751.01
233.96	1603.56
234.18	1705.96
234.40	1697.77
234.61	1765.35
234.83	1607.66
235.05	1611.75
235.27	1839.08
235.49	1724.39
235.70	1744.87
235.92	1773.54
236.14	1748.97
236.36	1839.08
236.58	1626.09
236.79	1691.62
237.01	1675.24
237.23	1699.81
237.45	1789.92
237.67	1628.14
237.88	1738.73
238.10	1802.21
238.32	1656.81
238.54	1722.34
238.76	1757.16
238.97	1615.85
239.19	1671.14
239.41	1751.01
239.63	1726.44
239.85	1587.18
240.06	1673.19
240.28	1667.05
240.50	1791.97
240.72	1683.43
240.93	1703.91
241.15	1703.91
241.37	1699.81
241.59	1759.21
241.81	1572.84
242.02	1652.71
242.24	1693.67
242.46	1695.72
242.68	1718.25
242.89	1691.62
243.11	1714.15
243.33	1662.95
243.55	1734.63
243.76	1714.15
243.98	1685.48
244.20	1626.09
244.42	1701.86
244.64	1730.53
244.85	1730.53
245.07	1662.95
245.29	1632.23
245.51	1705.96
245.72	1714.15
245.94	1773.54
246.16	1591.27
246.38	1689.57
246.59	1599.46
246.81	1660.90
247.03	1710.05
247.24	1593.32
247.46	1642.47
247.68	1681.38
247.90	1693.67
248.11	1632.23
248.33	1791.97
248.55	1683.43
248.77	1699.81
248.98	1683.43
249.20	1777.64
249.42	1691.62
249.64	1685.48
249.85	1714.15
250.07	1660.90
250.29	1689.57
250.50	1712.10
250.72	1634.28
250.94	1714.15
251.16	1728.49
251.37	1738.73
251.59	1767.40
251.81	1710.05
252.02	1697.77
252.24	1654.76
252.46	1740.77
252.68	1675.24
252.89	1667.05
253.11	1640.42
253.33	1787.88
253.54	1808.36
253.76	1619.94
253.98	1652.71
254.20	1581.03
254.41	1624.04
254.63	1652.71
254.85	1607.66
255.06	1667.05
255.28	1820.64
255.50	1738.73
255.71	1613.80
255.93	1605.61
256.15	1667.05
256.36	1636.33
256.58	1644.52
256.80	1738.73
257.02	1669.09
257.23	1587.18
257.45	1665.00
257.67	1734.63
257.88	1581.03
258.10	1644.52
258.32	1708.01
258.53	1697.77
258.75	1746.92
258.97	1693.67
259.18	1779.68
259.40	1675.24
259.62	1787.88
259.83	1746.92
260.05	1742.82
260.27	1945.57
260.48	1701.86
260.70	1669.09
260.92	1656.81
261.13	1683.43
261.35	1699.81
261.57	1742.82
261.78	1671.14
262.00	1642.47
262.22	1687.53
262.43	1624.04
262.65	1638.38
262.86	1755.11
263.08	1783.78
263.30	1679.33
263.51	1671.14
263.73	1642.47
263.95	1708.01
264.16	1640.42
264.38	1665.00
264.60	1699.81
264.81	1656.81
265.03	1734.63
265.25	1736.68
265.46	1777.64
265.68	1693.67
265.89	1755.11
266.11	1599.46
266.33	1732.58
266.54	1769.44
266.76	1716.20
266.98	1769.44
267.19	1708.01
267.41	1716.20
267.62	1646.57
267.84	1650.66
268.06	1736.68
268.27	1652.71
268.49	1781.73
268.70	1634.28
268.92	1599.46
269.14	1697.77
269.35	1646.57
269.57	1660.90
269.79	1708.01
270.00	1685.48
270.22	1769.44
270.43	1669.09
270.65	1609.70
270.87	1746.92
271.08	1658.85
271.30	1775.59
271.51	1701.86
271.73	1679.33
271.95	1820.64
272.16	1691.62
272.38	1638.38
272.59	1621.99
272.81	1673.19
273.02	1710.05
273.24	1697.77
273.46	1697.77
273.67	1597.42
273.89	1652.71
274.10	1693.67
274.32	1654.76
274.54	1746.92
274.75	1689.57
274.97	1570.79
275.18	1728.49
275.40	1665.00
275.61	1701.86
275.83	1652.71
276.05	1624.04
276.26	1771.49
276.48	1716.20
276.69	1763.30
276.91	1685.48
277.12	1724.39
277.34	1746.92
277.55	1767.40
277.77	1718.25
277.99	1697.77
278.20	1595.37
278.42	1654.76
278.63	1681.38
278.85	1675.24
279.06	1574.89
279.28	1742.82
279.49	1724.39
279.71	1785.83
279.93	1644.52
280.14	1665.00
280.36	1669.09
280.57	1767.40
280.79	1724.39
281.00	1640.42
281.22	1662.95
281.43	1746.92
281.65	1599.46
281.86	1640.42
282.08	1720.29
282.29	1814.50
282.51	1585.13
282.73	1619.94
282.94	1638.38
283.16	1720.29
283.37	1824.74
283.59	1673.19
283.80	1630.18
284.02	1652.71
284.23	1695.72
284.45	1587.18
284.66	1603.56
284.88	1615.85
285.09	1689.57
285.31	1714.15
285.52	1701.86
285.74	1599.46
285.95	1714.15
286.17	1726.44
286.38	1742.82
286.60	1613.80
286.81	1671.14
287.03	1705.96
287.24	1673.19
287.46	1714.15
287.67	1628.14
287.89	1746.92
288.10	1667.05
288.32	1658.85
288.53	1773.54
288.75	1691.62
288.96	1697.77
289.18	1640.42
289.39	1675.24
289.61	1763.30
289.82	1746.92
290.04	1765.35
290.25	1667.05
290.47	1683.43
290.68	1605.61
290.90	1767.40
291.11	1695.72
291.33	1685.48
291.54	1568.74
291.76	1681.38
291.97	1669.09
292.18	1742.82
292.40	1691.62
292.61	1665.00
292.83	1822.69
293.04	1755.11
293.26	1681.38
293.47	1708.01
293.69	1632.23
293.90	1624.04
294.12	1763.30
294.33	1683.43
294.55	1642.47
294.76	1759.21
294.97	1710.05
295.19	1839.08
295.40	1667.05
295.62	1699.81
295.83	1728.49
296.05	1576.94
296.26	1703.91
296.48	1660.90
296.69	1656.81
296.90	1683.43
297.12	1742.82
297.33	1718.25
297.55	1728.49
297.76	1658.85
297.98	1753.06
298.19	1675.24
298.41	1693.67
298.62	1671.14
298.83	1753.06
299.05	1714.15
299.26	1638.38
299.48	1599.46
299.69	1759.21
299.90	1658.85
300.12	1683.43
300.33	1718.25
300.55	1638.38
300.76	1716.20
300.98	1642.47
301.19	1732.58
301.40	1656.81
301.62	1648.61
301.83	1685.48
302.05	1701.86
302.26	1624.04
302.47	1673.19
302.69	1564.65
302.90	1695.72
303.12	1626.09
303.33	1748.97
303.54	1791.97
303.76	1613.80
303.97	1697.77
304.19	1781.73
304.40	1648.61
304.61	1757.16
304.83	1857.51
305.04	1736.68
305.26	1736.68
305.47	1658.85
305.68	1746.92
305.90	1587.18
306.11	1699.81
306.33	1558.50
306.54	1677.29
306.75	1650.66
306.97	1595.37
307.18	1595.37
307.39	1578.98
307.61	1732.58
307.82	1665.00
308.04	1697.77
308.25	1609.70
308.46	1732.58
308.68	1673.19
308.89	1718.25
309.10	1742.82
309.32	1695.72
309.53	1677.29
309.74	1775.59
309.96	1667.05
310.17	1710.05
310.39	1665.00
310.60	1708.01
310.81	1646.57
311.03	1591.27
311.24	1767.40
311.45	1648.61
311.67	1814.50
311.88	1632.23
312.09	1681.38
312.31	1693.67
312.52	1619.94
312.73	1677.29
312.95	1660.90
313.16	1652.71
313.37	1816.55
313.59	1763.30
313.80	1791.97
314.01	1822.69
314.23	1634.28
314.44	1677.29
314.65	1568.74
314.87	1640.42
315.08	1687.53
315.29	1695.72
315.51	1648.61
315.72	1617.90
315.93	1755.11
316.15	1677.29
316.36	1669.09
316.57	1701.86
316.79	1697.77
317.00	1638.38
317.21	1724.39
317.43	1624.04
317.64	1787.88
317.85	1648.61
318.07	1718.25
318.28	1738.73
318.49	1777.64
318.70	1830.88
318.92	1804.26
319.13	1871.84
319.34	1855.46
319.56	1751.01
319.77	1732.58
319.98	1734.63
320.20	1851.36
320.41	1718.25
320.62	1708.01
320.83	1593.32
321.05	1859.56
321.26	1734.63
321.47	1609.70
321.69	1736.68
321.90	1626.09
322.11	1570.79
322.32	1728.49
322.54	1759.21
322.75	1656.81
322.96	1845.22
323.18	1617.90
323.39	1601.51
323.60	1626.09
323.81	1806.31
324.03	1636.33
324.24	1714.15
324.45	1583.08
324.66	1673.19
324.88	1771.49
325.09	1765.35
325.30	1689.57
325.52	1738.73
325.73	1615.85
325.94	1595.37
326.15	1640.42
326.37	1636.33
326.58	1781.73
326.79	1828.84
327.00	1648.61
327.22	1701.86
327.43	1712.10
327.64	1615.85
327.85	1722.34
328.07	1701.86
328.28	1761.25
328.49	1669.09
328.70	1710.05
328.92	1714.15
329.13	1677.29
329.34	1619.94
329.55	1716.20
329.76	1671.14
329.98	1689.57
330.19	1789.92
330.40	1675.24
330.61	1732.58
330.83	1738.73
331.04	1687.53
331.25	1656.81
331.46	1648.61
331.68	1619.94
331.89	1755.11
332.10	1667.05
332.31	1691.62
332.52	1679.33
332.74	1730.53
332.95	1597.42
333.16	1748.97
333.37	1720.29
333.58	1646.57
333.80	1724.39
334.01	1568.74
334.22	1718.25
334.43	1609.70
334.64	1689.57
334.86	1652.71
335.07	1669.09
335.28	1740.77
335.49	1576.94
335.70	1773.54
335.92	1771.49
336.13	1796.07
336.34	1691.62
336.55	1748.97
336.76	1708.01
336.98	1599.46
337.19	1705.96
337.40	1726.44
337.61	1800.16
337.82	1732.58
338.04	1675.24
338.25	1609.70
338.46	1665.00
338.67	1648.61
338.88	1669.09
339.09	1640.42
339.31	1652.71
339.52	1638.38
339.73	1697.77
339.94	1701.86
340.15	1796.07
340.36	1681.38
340.58	1595.37
340.79	1648.61
341.00	1710.05
341.21	1599.46
341.42	1785.83
341.63	1716.20
341.85	1787.88
342.06	1703.91
342.27	1679.33
342.48	1748.97
342.69	1624.04
342.90	1761.25
343.12	1814.50
343.33	1669.09
343.54	1697.77
343.75	1689.57
343.96	1695.72
344.17	1660.90
344.38	1585.13
344.60	1626.09
344.81	1605.61
345.02	1701.86
345.23	1751.01
345.44	1832.93
345.65	1708.01
345.86	1652.71
346.07	1658.85
346.29	1581.03
346.50	1724.39
346.71	1732.58
346.92	1755.11
347.13	1820.64
347.34	1687.53
347.55	1685.48
347.76	1755.11
347.98	1609.70
348.19	1685.48
348.40	1732.58
348.61	1642.47
348.82	1791.97
349.03	1695.72
349.24	1679.33
349.45	1814.50
349.66	1529.83
349.88	1703.91
350.09	1669.09
350.30	1775.59
350.51	1787.88
350.72	1691.62
350.93	1681.38
351.14	1654.76
351.35	1705.96
351.56	1621.99
351.77	1708.01
351.99	1751.01
352.20	1779.68
352.41	1773.54
352.62	1568.74
352.83	1718.25
353.04	1693.67
353.25	1615.85
353.46	1787.88
353.67	1675.24
353.88	1634.28
354.09	1746.92
354.30	1570.79
354.52	1681.38
354.73	1673.19
354.94	1615.85
355.15	1634.28
355.36	1765.35
355.57	1705.96
355.78	1656.81
355.99	1589.22
356.20	1621.99
356.41	1703.91
356.62	1646.57
356.83	1710.05
357.04	1794.02
357.25	1658.85
357.46	1628.14
357.68	1611.75
357.89	1652.71
358.10	1677.29
358.31	1703.91
358.52	1742.82
358.73	1658.85
358.94	1644.52
359.15	1624.04
359.36	1726.44
359.57	1710.05
359.78	1683.43
359.99	1740.77
360.20	1705.96
360.41	1714.15
360.62	1796.07
360.83	1697.77
361.04	1689.57
361.25	1748.97
361.46	1767.40
361.67	1773.54
361.88	1785.83
362.09	1767.40
362.30	1781.73
362.51	1781.73
362.72	1693.67
362.93	1755.11
363.14	1744.87
363.35	1705.96
363.56	1648.61
363.78	1748.97
363.99	1748.97
364.20	1634.28
364.41	1726.44
364.62	1744.87
364.83	1669.09
365.04	1667.05
365.25	1634.28
365.46	1781.73
365.67	1687.53
365.88	1593.32
366.09	1708.01
366.30	1697.77
366.51	1687.53
366.72	1619.94
366.93	1652.71
367.14	1730.53
367.35	1722.34
367.56	1675.24
367.77	1722.34
367.98	1642.47
368.18	1722.34
368.39	1693.67
368.60	1632.23
368.81	1738.73
369.02	1712.10
369.23	1708.01
369.44	1613.80
369.65	1693.67
369.86	1783.78
370.07	1689.57
370.28	1613.80
370.49	1703.91
370.70	1728.49
370.91	1628.14
371.12	1642.47
371.33	1748.97
371.54	1636.33
371.75	1812.45
371.96	1531.88
372.17	1673.19
372.38	1681.38
372.59	1722.34
372.80	1603.56
373.01	1732.58
373.22	1685.48
373.43	1691.62
373.64	1599.46
373.85	1705.96
374.06	1822.69
374.26	1763.30
374.47	1751.01
374.68	1841.12
374.89	1697.77
375.10	1671.14
375.31	1710.05
375.52	1638.38
375.73	1746.92
375.94	1617.90
376.15	1834.98
376.36	1703.91
376.57	1712.10
376.78	1658.85
376.99	1673.19
377.20	1763.30
377.40	1718.25
377.61	1724.39
377.82	1677.29
378.03	1800.16
378.24	1738.73
378.45	1673.19
378.66	1767.40
378.87	1558.50
379.08	1576.94
379.29	1677.29
379.50	1720.29
379.71	1732.58
379.91	1796.07
380.12	1648.61
380.33	1640.42
380.54	1615.85
380.75	1736.68
380.96	1650.66
381.17	1763.30
381.38	1665.00
381.59	1769.44
381.80	1683.43
382.00	1779.68
382.21	1814.50
382.42	1748.97
382.63	1873.89
382.84	1746.92
383.05	1804.26
383.26	1693.67
383.47	1740.77
383.68	1736.68
383.88	1771.49
384.09	1710.05
384.30	1824.74
384.51	1755.11
384.72	1677.29
384.93	1634.28
385.14	1734.63
385.35	1693.67
385.55	1634.28
385.76	1802.21
385.97	1722.34
386.18	1628.14
386.39	1656.81
386.60	1662.95
386.81	1689.57
387.02	1665.00
387.22	1660.90
387.43	1789.92
387.64	1718.25
387.85	1871.84
388.06	2193.37
388.27	4396.99
388.48	6940.57
388.68	8382.34
388.89	9572.21
389.10	9930.60
389.31	8732.54
389.52	7636.88
389.73	6735.77
389.93	6373.28
390.14	6002.60
390.35	5267.38
390.56	4710.33
390.77	3856.33
390.98	3010.51
391.18	2549.72
391.39	2183.13
391.60	1841.12
391.81	1808.36
392.02	1724.39
392.23	1830.88
392.43	1691.62
392.64	1703.91
392.85	1662.95
393.06	1806.31
393.27	1634.28
393.47	1675.24
393.68	1722.34
393.89	1701.86
394.10	1751.01
394.31	1695.72
394.52	1599.46
394.72	1753.06
394.93	1673.19
395.14	1634.28
395.35	1726.44
395.56	1710.05
395.76	1767.40
395.97	1773.54
396.18	1812.45
396.39	1771.49
396.60	1974.24
396.80	1906.66
397.01	1789.92
397.22	1779.68
397.43	1816.55
397.64	1767.40
397.84	1796.07
398.05	1851.36
398.26	1742.82
398.47	1767.40
398.67	1755.11
398.88	1728.49
399.09	1746.92
399.30	1705.96
399.51	1771.49
399.71	1626.09
399.92	1675.24
400.13	1769.44
400.34	1638.38
400.54	1673.19
400.75	1730.53
400.96	1708.01
401.17	1791.97
401.37	1726.44
401.58	1753.06
401.79	1734.63
402.00	1894.37
402.21	2000.87
402.41	1964.00
402.62	1978.34
402.83	2058.21
403.04	1920.99
403.24	2072.54
403.45	1886.18
403.66	1904.61
403.87	1824.74
404.07	1955.81
404.28	1898.47
404.49	1884.13
404.70	1724.39
404.90	1785.83
405.11	1675.24
405.32	1742.82
405.52	1685.48
405.73	1640.42
405.94	1646.57
406.15	1753.06
406.35	1783.78
406.56	1748.97
406.77	1652.71
406.98	1796.07
407.18	1630.18
407.39	1751.01
407.60	1695.72
407.80	1673.19
408.01	1638.38
408.22	1671.14
408.43	1662.95
408.63	1767.40
408.84	1771.49
409.05	1757.16
409.25	1646.57
409.46	1671.14
409.67	1652.71
409.88	1685.48
410.08	1681.38
410.29	1665.00
410.50	1718.25
410.70	1732.58
410.91	1699.81
411.12	1675.24
411.32	1746.92
411.53	1726.44
411.74	1837.03
411.95	1796.07
412.15	1699.81
412.36	1740.77
412.57	1812.45
412.77	1845.22
412.98	1732.58
413.19	1683.43
413.39	1777.64
413.60	1765.35
413.81	1757.16
414.01	1705.96
414.22	1742.82
414.43	1675.24
414.63	1681.38
414.84	1716.20
415.05	1691.62
415.25	1654.76
415.46	1755.11
415.67	1701.86
415.87	1763.30
416.08	1724.39
416.29	1669.09
416.49	1720.29
416.70	1689.57
416.91	1665.00
417.11	1640.42
417.32	1714.15
417.53	1804.26
417.73	1677.29
417.94	1642.47
418.15	1746.92
418.35	1718.25
418.56	1712.10
418.77	1746.92
418.97	1662.95
419.18	1603.56
419.38	1621.99
419.59	1691.62
419.80	1785.83
420.00	1656.81
420.21	1667.05
420.42	1765.35
420.62	1714.15
420.83	1673.19
421.04	1746.92
421.24	1675.24
421.45	1769.44
421.65	1720.29
421.86	1683.43
422.07	1755.11
422.27	1746.92
422.48	1771.49
422.69	1605.61
422.89	1714.15
423.10	1683.43
423.30	1581.03
423.51	1710.05
423.72	1712.10
423.92	1759.21
424.13	1642.47
424.33	1785.83
424.54	1736.68
424.75	1691.62
424.95	1740.77
425.16	1691.62
425.36	1636.33
425.57	1689.57
425.78	1746.92
425.98	1808.36
426.19	1632.23
426.39	1578.98
426.60	1716.20
426.81	1665.00
427.01	1642.47
427.22	1652.71
427.42	1603.56
427.63	1611.75
427.83	1753.06
428.04	1746.92
428.25	1738.73
428.45	1732.58
428.66	1748.97
428.86	1693.67
429.07	1613.80
429.28	1718.25
429.48	1652.71
429.69	1646.57
429.89	1746.92
430.10	1595.37
430.30	1773.54
430.51	1734.63
430.71	1746.92
430.92	1650.66
431.13	1634.28
431.33	1734.63
431.54	1710.05
431.74	1814.50
431.95	1808.36
432.15	1662.95
432.36	1710.05
432.56	1748.97
432.77	1830.88
432.98	1779.68
433.18	1732.58
433.39	1705.96
433.59	1654.76
433.80	1755.11
434.00	1822.69
434.21	1693.67
434.41	1652.71
434.62	1871.84
434.82	1714.15
435.03	1609.70
435.23	1679.33
435.44	1726.44
435.64	1689.57
435.85	1718.25
436.06	1779.68
436.26	1779.68
436.47	1708.01
436.67	1595.37
436.88	1791.97
437.08	1748.97
437.29	1845.22
437.49	1732.58
437.70	1724.39
437.90	1744.87
438.11	1804.26
438.31	1791.97
438.52	1804.26
438.72	1828.84
438.93	1746.92
439.13	1755.11
439.34	1757.16
439.54	1812.45
439.75	1849.32
439.95	1779.68
440.16	1748.97
440.36	1744.87
440.57	1820.64
440.77	1755.11
440.98	1697.77
441.18	1820.64
441.39	1628.14
441.59	1638.38
441.80	1873.89
442.00	1697.77
442.21	1773.54
442.41	1617.90
442.62	1757.16
442.82	1681.38
443.02	1759.21
443.23	1738.73
443.43	1675.24
443.64	1771.49
443.84	1667.05
444.05	1828.84
444.25	1804.26
444.46	1753.06
444.66	1697.77
444.87	1763.30
445.07	1646.57
445.28	1662.95
445.48	1824.74
445.69	1718.25
445.89	1734.63
446.09	1687.53
446.30	2084.83
446.50	2764.76
446.71	3864.52
446.91	4315.07
447.12	4878.26
447.32	4898.74
447.53	4253.63
447.73	3889.09
447.93	3592.14
448.14	3426.25
448.34	3184.59
448.55	2975.70
448.75	2875.35
448.96	2674.65
449.16	2365.40
449.36	2256.86
449.57	2058.21
449.77	1931.23
449.98	1779.68
450.18	1800.16
450.39	1810.40
450.59	1802.21
450.79	1720.29
451.00	1757.16
451.20	1734.63
451.41	1736.68
451.61	1771.49
451.81	1730.53
452.02	1726.44
452.22	1761.25
452.43	1677.29
452.63	1689.57
