SpectraSuite Data File
++++++++++++++++++++++++++++++++++++
Date: Mon Jun 06 14:04:17 CEST 2016
User: root
Dark Spectrum Present: No
Reference Spectrum Present: No
Number of Sampled Component Spectra: 1
Spectrometers: USB4C02835
Integration Time (usec): 100000 (USB4C02835)
Spectra Averaged: 1 (USB4C02835)
Boxcar Smoothing: 0 (USB4C02835)
Correct for Electrical Dark: No (USB4C02835)
Strobe/Lamp Enabled: No (USB4C02835)
Correct for Detector Non-linearity: No (USB4C02835)
Correct for Stray Light: No (USB4C02835)
Number of Pixels in Processed Spectrum: 3648
>>>>>Begin Processed Spectral Data<<<<<
177.47	1447.91
177.69	1447.91
177.91	1447.91
178.13	1476.59
178.36	1513.45
178.58	1646.57
178.80	1660.90
179.02	1669.09
179.24	1675.24
179.46	1822.69
179.68	1740.77
179.90	1716.20
180.13	1765.35
180.35	1574.89
180.57	1732.58
180.79	1755.11
181.01	1593.32
181.23	1794.02
181.45	1699.81
181.67	1710.05
181.90	1665.00
182.12	1701.86
182.34	1619.94
182.56	1701.86
182.78	1683.43
183.00	1738.73
183.22	1826.79
183.44	1619.94
183.66	1796.07
183.89	1802.21
184.11	1722.34
184.33	1777.64
184.55	1730.53
184.77	1720.29
184.99	1712.10
185.21	1673.19
185.43	1890.28
185.65	1648.61
185.87	1656.81
186.10	1794.02
186.32	1828.84
186.54	1771.49
186.76	1779.68
186.98	1681.38
187.20	1722.34
187.42	1679.33
187.64	1687.53
187.86	1665.00
188.08	1681.38
188.30	1679.33
188.52	1714.15
188.75	1761.25
188.97	1728.49
189.19	1644.52
189.41	1761.25
189.63	1808.36
189.85	1691.62
190.07	1675.24
190.29	1665.00
190.51	1742.82
190.73	1587.18
190.95	1785.83
191.17	1779.68
191.39	1634.28
191.61	1665.00
191.84	1683.43
192.06	1769.44
192.28	1574.89
192.50	1861.60
192.72	1736.68
192.94	1648.61
193.16	1757.16
193.38	1716.20
193.60	1656.81
193.82	1648.61
194.04	1787.88
194.26	1732.58
194.48	1738.73
194.70	1699.81
194.92	1626.09
195.14	1718.25
195.36	1665.00
195.58	1705.96
195.80	1605.61
196.02	1636.33
196.24	1763.30
196.46	1685.48
196.69	1701.86
196.91	1822.69
197.13	1626.09
197.35	1621.99
197.57	1787.88
197.79	1769.44
198.01	1724.39
198.23	1720.29
198.45	1787.88
198.67	1640.42
198.89	1705.96
199.11	1769.44
199.33	1732.58
199.55	1652.71
199.77	1693.67
199.99	1740.77
200.21	1687.53
200.43	1691.62
200.65	1605.61
200.87	1560.55
201.09	1722.34
201.31	1644.52
201.53	1728.49
201.75	1773.54
201.97	1755.11
202.19	1699.81
202.41	1769.44
202.63	1789.92
202.85	1787.88
203.07	1712.10
203.29	1636.33
203.51	1648.61
203.73	1652.71
203.95	1798.12
204.17	1767.40
204.39	1738.73
204.61	1748.97
204.83	1581.03
205.05	1757.16
205.27	1716.20
205.49	1812.45
205.71	1697.77
205.93	1691.62
206.15	1681.38
206.37	1642.47
206.59	1771.49
206.81	1681.38
207.03	1660.90
207.25	1648.61
207.47	1738.73
207.69	1677.29
207.91	1740.77
208.13	1734.63
208.34	1656.81
208.56	1732.58
208.78	1665.00
209.00	1708.01
209.22	1626.09
209.44	1724.39
209.66	1650.66
209.88	1617.90
210.10	1679.33
210.32	1644.52
210.54	1787.88
210.76	1722.34
210.98	1718.25
211.20	1605.61
211.42	1681.38
211.64	1763.30
211.86	1757.16
212.08	1722.34
212.30	1703.91
212.52	1673.19
212.74	1783.78
212.96	1708.01
213.17	1740.77
213.39	1789.92
213.61	1712.10
213.83	1763.30
214.05	1671.14
214.27	1703.91
214.49	1585.13
214.71	1705.96
214.93	1806.31
215.15	1740.77
215.37	1712.10
215.59	1609.70
215.81	1742.82
216.03	1724.39
216.24	1665.00
216.46	1714.15
216.68	1705.96
216.90	1738.73
217.12	1738.73
217.34	1753.06
217.56	1746.92
217.78	1751.01
218.00	1755.11
218.22	1746.92
218.44	1718.25
218.66	1699.81
218.87	1769.44
219.09	1675.24
219.31	1771.49
219.53	1718.25
219.75	1740.77
219.97	1751.01
220.19	1681.38
220.41	1738.73
220.63	1751.01
220.85	1730.53
221.06	1611.75
221.28	1701.86
221.50	1710.05
221.72	1775.59
221.94	1701.86
222.16	1677.29
222.38	1767.40
222.60	1705.96
222.82	1693.67
223.03	1730.53
223.25	1632.23
223.47	1695.72
223.69	1746.92
223.91	1732.58
224.13	1693.67
224.35	1658.85
224.57	1810.40
224.78	1744.87
225.00	1658.85
225.22	1665.00
225.44	1708.01
225.66	1783.78
225.88	1642.47
226.10	1779.68
226.32	1714.15
226.53	1734.63
226.75	1652.71
226.97	1634.28
227.19	1648.61
227.41	1613.80
227.63	1691.62
227.85	1630.18
228.06	1656.81
228.28	1689.57
228.50	1714.15
228.72	1617.90
228.94	1679.33
229.16	1613.80
229.37	1611.75
229.59	1660.90
229.81	1787.88
230.03	1667.05
230.25	1615.85
230.47	1646.57
230.69	1634.28
230.90	1753.06
231.12	1611.75
231.34	1675.24
231.56	1726.44
231.78	1667.05
232.00	1722.34
232.21	1716.20
232.43	1609.70
232.65	1615.85
232.87	1730.53
233.09	1667.05
233.30	1611.75
233.52	1708.01
233.74	1660.90
233.96	1650.66
234.18	1724.39
234.40	1656.81
234.61	1845.22
234.83	1652.71
235.05	1665.00
235.27	1861.60
235.49	1720.29
235.70	1669.09
235.92	1748.97
236.14	1701.86
236.36	1871.84
236.58	1617.90
236.79	1689.57
237.01	1681.38
237.23	1675.24
237.45	1720.29
237.67	1597.42
237.88	1705.96
238.10	1726.44
238.32	1660.90
238.54	1712.10
238.76	1800.16
238.97	1656.81
239.19	1595.37
239.41	1740.77
239.63	1751.01
239.85	1685.48
240.06	1708.01
240.28	1689.57
240.50	1738.73
240.72	1746.92
240.93	1677.29
241.15	1716.20
241.37	1683.43
241.59	1730.53
241.81	1785.83
242.02	1718.25
242.24	1775.59
242.46	1748.97
242.68	1583.08
242.89	1783.78
243.11	1769.44
243.33	1728.49
243.55	1683.43
243.76	1740.77
243.98	1701.86
244.20	1699.81
244.42	1708.01
244.64	1660.90
244.85	1585.13
245.07	1636.33
245.29	1730.53
245.51	1677.29
245.72	1732.58
245.94	1787.88
246.16	1738.73
246.38	1712.10
246.59	1681.38
246.81	1646.57
247.03	1767.40
247.24	1558.50
247.46	1529.83
247.68	1669.09
247.90	1791.97
248.11	1722.34
248.33	1783.78
248.55	1656.81
248.77	1701.86
248.98	1699.81
249.20	1759.21
249.42	1726.44
249.64	1669.09
249.85	1722.34
250.07	1685.48
250.29	1757.16
250.50	1765.35
250.72	1634.28
250.94	1673.19
251.16	1861.60
251.37	1794.02
251.59	1734.63
251.81	1697.77
252.02	1751.01
252.24	1683.43
252.46	1785.83
252.68	1693.67
252.89	1693.67
253.11	1656.81
253.33	1773.54
253.54	1779.68
253.76	1607.66
253.98	1679.33
254.20	1724.39
254.41	1609.70
254.63	1787.88
254.85	1585.13
255.06	1744.87
255.28	1789.92
255.50	1705.96
255.71	1691.62
255.93	1646.57
256.15	1755.11
256.36	1695.72
256.58	1662.95
256.80	1648.61
257.02	1693.67
257.23	1681.38
257.45	1675.24
257.67	1791.97
257.88	1640.42
258.10	1705.96
258.32	1724.39
258.53	1787.88
258.75	1730.53
258.97	1742.82
259.18	1705.96
259.40	1738.73
259.62	1839.08
259.83	1808.36
260.05	1751.01
260.27	2029.54
260.48	1767.40
260.70	1607.66
260.92	1769.44
261.13	1724.39
261.35	1710.05
261.57	1779.68
261.78	1650.66
262.00	1615.85
262.22	1751.01
262.43	1601.51
262.65	1705.96
262.86	1720.29
263.08	1804.26
263.30	1683.43
263.51	1699.81
263.73	1685.48
263.95	1818.60
264.16	1656.81
264.38	1636.33
264.60	1746.92
264.81	1740.77
265.03	1816.55
265.25	1712.10
265.46	1748.97
265.68	1785.83
265.89	1673.19
266.11	1554.41
266.33	1765.35
266.54	1763.30
266.76	1761.25
266.98	1757.16
267.19	1804.26
267.41	1800.16
267.62	1726.44
267.84	1660.90
268.06	1736.68
268.27	1660.90
268.49	1763.30
268.70	1753.06
268.92	1642.47
269.14	1605.61
269.35	1595.37
269.57	1646.57
269.79	1671.14
270.00	1679.33
270.22	1855.46
270.43	1720.29
270.65	1591.27
270.87	1703.91
271.08	1744.87
271.30	1767.40
271.51	1703.91
271.73	1712.10
271.95	1753.06
272.16	1779.68
272.38	1742.82
272.59	1773.54
272.81	1714.15
273.02	1697.77
273.24	1761.25
273.46	1767.40
273.67	1724.39
273.89	1650.66
274.10	1693.67
274.32	1812.45
274.54	1722.34
274.75	1679.33
274.97	1763.30
275.18	1837.03
275.40	1677.29
275.61	1705.96
275.83	1701.86
276.05	1681.38
276.26	1671.14
276.48	1822.69
276.69	1693.67
276.91	1656.81
277.12	1757.16
277.34	1728.49
277.55	1777.64
277.77	1718.25
277.99	1724.39
278.20	1667.05
278.42	1642.47
278.63	1619.94
278.85	1630.18
279.06	1615.85
279.28	1736.68
279.49	1742.82
279.71	1884.13
279.93	1714.15
280.14	1679.33
280.36	1701.86
280.57	1718.25
280.79	1781.73
281.00	1652.71
281.22	1675.24
281.43	1767.40
281.65	1640.42
281.86	1667.05
282.08	1691.62
282.29	1814.50
282.51	1628.14
282.73	1660.90
282.94	1615.85
283.16	1777.64
283.37	1818.60
283.59	1710.05
283.80	1759.21
284.02	1693.67
284.23	1736.68
284.45	1705.96
284.66	1675.24
284.88	1626.09
285.09	1714.15
285.31	1746.92
285.52	1732.58
285.74	1619.94
285.95	1753.06
286.17	1761.25
286.38	1726.44
286.60	1658.85
286.81	1669.09
287.03	1640.42
287.24	1714.15
287.46	1665.00
287.67	1746.92
287.89	1867.75
288.10	1685.48
288.32	1689.57
288.53	1800.16
288.75	1718.25
288.96	1607.66
289.18	1691.62
289.39	1662.95
289.61	1726.44
289.82	1771.49
290.04	1732.58
290.25	1658.85
290.47	1656.81
290.68	1679.33
290.90	1787.88
291.11	1644.52
291.33	1738.73
291.54	1644.52
291.76	1662.95
291.97	1767.40
292.18	1736.68
292.40	1742.82
292.61	1660.90
292.83	1808.36
293.04	1718.25
293.26	1748.97
293.47	1730.53
293.69	1644.52
293.90	1646.57
294.12	1765.35
294.33	1677.29
294.55	1689.57
294.76	1671.14
294.97	1804.26
295.19	1812.45
295.40	1675.24
295.62	1736.68
295.83	1701.86
296.05	1660.90
296.26	1785.83
296.48	1728.49
296.69	1679.33
296.90	1671.14
297.12	1679.33
297.33	1767.40
297.55	1728.49
297.76	1697.77
297.98	1736.68
298.19	1675.24
298.41	1705.96
298.62	1699.81
298.83	1796.07
299.05	1683.43
299.26	1708.01
299.48	1675.24
299.69	1730.53
299.90	1767.40
300.12	1632.23
300.33	1667.05
300.55	1660.90
300.76	1720.29
300.98	1621.99
301.19	1708.01
301.40	1705.96
301.62	1693.67
301.83	1691.62
302.05	1677.29
302.26	1681.38
302.47	1726.44
302.69	1644.52
302.90	1691.62
303.12	1652.71
303.33	1722.34
303.54	1789.92
303.76	1722.34
303.97	1660.90
304.19	1806.31
304.40	1716.20
304.61	1738.73
304.83	1832.93
305.04	1763.30
305.26	1718.25
305.47	1730.53
305.68	1705.96
305.90	1617.90
306.11	1724.39
306.33	1665.00
306.54	1671.14
306.75	1687.53
306.97	1527.78
307.18	1669.09
307.39	1705.96
307.61	1742.82
307.82	1679.33
308.04	1748.97
308.25	1683.43
308.46	1689.57
308.68	1710.05
308.89	1716.20
309.10	1810.40
309.32	1732.58
309.53	1689.57
309.74	1714.15
309.96	1685.48
310.17	1730.53
310.39	1671.14
310.60	1640.42
310.81	1673.19
311.03	1611.75
311.24	1697.77
311.45	1699.81
311.67	1828.84
311.88	1765.35
312.09	1691.62
312.31	1697.77
312.52	1746.92
312.73	1716.20
312.95	1669.09
313.16	1640.42
313.37	1763.30
313.59	1736.68
313.80	1802.21
314.01	1787.88
314.23	1662.95
314.44	1697.77
314.65	1640.42
314.87	1638.38
315.08	1687.53
315.29	1710.05
315.51	1617.90
315.72	1667.05
315.93	1820.64
316.15	1779.68
316.36	1595.37
316.57	1746.92
316.79	1695.72
317.00	1759.21
317.21	1691.62
317.43	1673.19
317.64	1736.68
317.85	1673.19
318.07	1703.91
318.28	1673.19
318.49	1857.51
318.70	1884.13
318.92	1849.32
319.13	1806.31
319.34	1877.99
319.56	1820.64
319.77	1814.50
319.98	1798.12
320.20	1740.77
320.41	1806.31
320.62	1734.63
320.83	1673.19
321.05	1853.41
321.26	1701.86
321.47	1712.10
321.69	1789.92
321.90	1673.19
322.11	1683.43
322.32	1773.54
322.54	1867.75
322.75	1705.96
322.96	1796.07
323.18	1554.41
323.39	1689.57
323.60	1679.33
323.81	1820.64
324.03	1746.92
324.24	1667.05
324.45	1732.58
324.66	1701.86
324.88	1726.44
325.09	1820.64
325.30	1759.21
325.52	1730.53
325.73	1767.40
325.94	1642.47
326.15	1615.85
326.37	1624.04
326.58	1691.62
326.79	1763.30
327.00	1683.43
327.22	1662.95
327.43	1638.38
327.64	1654.76
327.85	1683.43
328.07	1697.77
328.28	1832.93
328.49	1636.33
328.70	1652.71
328.92	1611.75
329.13	1619.94
329.34	1710.05
329.55	1794.02
329.76	1777.64
329.98	1615.85
330.19	1742.82
330.40	1705.96
330.61	1656.81
330.83	1736.68
331.04	1656.81
331.25	1646.57
331.46	1681.38
331.68	1667.05
331.89	1787.88
332.10	1753.06
332.31	1669.09
332.52	1710.05
332.74	1818.60
332.95	1619.94
333.16	1730.53
333.37	1740.77
333.58	1693.67
333.80	1728.49
334.01	1591.27
334.22	1744.87
334.43	1652.71
334.64	1689.57
334.86	1662.95
335.07	1601.51
335.28	1748.97
335.49	1611.75
335.70	1740.77
335.92	1701.86
336.13	1814.50
336.34	1675.24
336.55	1734.63
336.76	1683.43
336.98	1570.79
337.19	1734.63
337.40	1757.16
337.61	1822.69
337.82	1708.01
338.04	1736.68
338.25	1599.46
338.46	1755.11
338.67	1738.73
338.88	1705.96
339.09	1658.85
339.31	1595.37
339.52	1650.66
339.73	1691.62
339.94	1687.53
340.15	1728.49
340.36	1654.76
340.58	1763.30
340.79	1624.04
341.00	1671.14
341.21	1632.23
341.42	1783.78
341.63	1697.77
341.85	1679.33
342.06	1730.53
342.27	1611.75
342.48	1746.92
342.69	1581.03
342.90	1718.25
343.12	1767.40
343.33	1726.44
343.54	1705.96
343.75	1708.01
343.96	1712.10
344.17	1660.90
344.38	1699.81
344.60	1722.34
344.81	1660.90
345.02	1667.05
345.23	1771.49
345.44	1759.21
345.65	1757.16
345.86	1722.34
346.07	1630.18
346.29	1607.66
346.50	1769.44
346.71	1660.90
346.92	1869.80
347.13	1886.18
347.34	1722.34
347.55	1689.57
347.76	1746.92
347.98	1665.00
348.19	1691.62
348.40	1732.58
348.61	1730.53
348.82	1830.88
349.03	1718.25
349.24	1675.24
349.45	1843.17
349.66	1636.33
349.88	1626.09
350.09	1607.66
350.30	1779.68
350.51	1757.16
350.72	1699.81
350.93	1701.86
351.14	1728.49
351.35	1693.67
351.56	1728.49
351.77	1665.00
351.99	1718.25
352.20	1753.06
352.41	1646.57
352.62	1589.22
352.83	1628.14
353.04	1675.24
353.25	1656.81
353.46	1761.25
353.67	1773.54
353.88	1628.14
354.09	1701.86
354.30	1705.96
354.52	1701.86
354.73	1740.77
354.94	1738.73
355.15	1724.39
355.36	1767.40
355.57	1679.33
355.78	1705.96
355.99	1677.29
356.20	1767.40
356.41	1632.23
356.62	1691.62
356.83	1714.15
357.04	1753.06
357.25	1685.48
357.46	1632.23
357.68	1621.99
357.89	1685.48
358.10	1687.53
358.31	1718.25
358.52	1609.70
358.73	1595.37
358.94	1654.76
359.15	1656.81
359.36	1722.34
359.57	1691.62
359.78	1722.34
359.99	1726.44
360.20	1621.99
360.41	1718.25
360.62	1708.01
360.83	1673.19
361.04	1765.35
361.25	1644.52
361.46	1667.05
361.67	1763.30
361.88	1708.01
362.09	1769.44
362.30	1724.39
362.51	1701.86
362.72	1748.97
362.93	1834.98
363.14	1771.49
363.35	1687.53
363.56	1646.57
363.78	1812.45
363.99	1787.88
364.20	1671.14
364.41	1705.96
364.62	1744.87
364.83	1671.14
365.04	1681.38
365.25	1701.86
365.46	1791.97
365.67	1677.29
365.88	1693.67
366.09	1646.57
366.30	1693.67
366.51	1751.01
366.72	1650.66
366.93	1730.53
367.14	1744.87
367.35	1779.68
367.56	1677.29
367.77	1757.16
367.98	1691.62
368.18	1769.44
368.39	1652.71
368.60	1662.95
368.81	1705.96
369.02	1646.57
369.23	1748.97
369.44	1636.33
369.65	1656.81
369.86	1751.01
370.07	1789.92
370.28	1650.66
370.49	1703.91
370.70	1699.81
370.91	1636.33
371.12	1687.53
371.33	1742.82
371.54	1738.73
371.75	1812.45
371.96	1599.46
372.17	1656.81
372.38	1732.58
372.59	1701.86
372.80	1648.61
373.01	1662.95
373.22	1748.97
373.43	1724.39
373.64	1718.25
373.85	1761.25
374.06	1828.84
374.26	1757.16
374.47	1697.77
374.68	1759.21
374.89	1697.77
375.10	1662.95
375.31	1740.77
375.52	1712.10
375.73	1691.62
375.94	1660.90
376.15	1755.11
376.36	1736.68
376.57	1652.71
376.78	1691.62
376.99	1773.54
377.20	1800.16
377.40	1642.47
377.61	1794.02
377.82	1665.00
378.03	1734.63
378.24	1693.67
378.45	1730.53
378.66	1730.53
378.87	1685.48
379.08	1640.42
379.29	1710.05
379.50	1781.73
379.71	1712.10
379.91	1746.92
380.12	1671.14
380.33	1718.25
380.54	1755.11
380.75	1718.25
380.96	1640.42
381.17	1683.43
381.38	1609.70
381.59	1773.54
381.80	1720.29
382.00	1855.46
382.21	1730.53
382.42	1877.99
382.63	1869.80
382.84	1763.30
383.05	1785.83
383.26	1822.69
383.47	1720.29
383.68	1728.49
383.88	1755.11
384.09	1720.29
384.30	1769.44
384.51	1736.68
384.72	1628.14
384.93	1689.57
385.14	1722.34
385.35	1779.68
385.55	1683.43
385.76	1816.55
385.97	1699.81
386.18	1679.33
386.39	1621.99
386.60	1648.61
386.81	1761.25
387.02	1681.38
387.22	1628.14
387.43	1718.25
387.64	1744.87
387.85	1894.37
388.06	2209.76
388.27	4265.92
388.48	6746.01
388.68	8251.27
388.89	9594.73
389.10	9871.21
389.31	8697.72
389.52	7610.25
389.73	6819.74
389.93	6328.22
390.14	5914.53
390.35	5285.81
390.56	4655.03
390.77	3827.65
390.98	3129.30
391.18	2592.73
391.39	2211.81
391.60	1761.25
391.81	1765.35
392.02	1755.11
392.23	1820.64
392.43	1791.97
392.64	1710.05
392.85	1755.11
393.06	1753.06
393.27	1763.30
393.47	1669.09
393.68	1703.91
393.89	1687.53
394.10	1832.93
394.31	1699.81
394.52	1699.81
394.72	1626.09
394.93	1779.68
395.14	1652.71
395.35	1726.44
395.56	1681.38
395.76	1757.16
395.97	1810.40
396.18	1804.26
396.39	1740.77
396.60	2068.45
396.80	1791.97
397.01	1853.41
397.22	1808.36
397.43	1841.12
397.64	1746.92
397.84	1767.40
398.05	1929.19
398.26	1744.87
398.47	1740.77
398.67	1789.92
398.88	1693.67
399.09	1769.44
399.30	1740.77
399.51	1744.87
399.71	1640.42
399.92	1714.15
400.13	1808.36
400.34	1710.05
400.54	1675.24
400.75	1773.54
400.96	1681.38
401.17	1820.64
401.37	1687.53
401.58	1746.92
401.79	1736.68
402.00	1875.94
402.21	2029.54
402.41	1949.67
402.62	1957.86
402.83	1994.72
403.04	1992.67
403.24	2158.56
403.45	1777.64
403.66	1880.04
403.87	1951.71
404.07	1904.61
404.28	1902.56
404.49	1839.08
404.70	1822.69
404.90	1779.68
405.11	1736.68
405.32	1769.44
405.52	1710.05
405.73	1726.44
405.94	1613.80
406.15	1669.09
406.35	1744.87
406.56	1753.06
406.77	1738.73
406.98	1681.38
407.18	1658.85
407.39	1806.31
407.60	1705.96
407.80	1755.11
408.01	1667.05
408.22	1746.92
408.43	1728.49
408.63	1751.01
408.84	1771.49
409.05	1687.53
409.25	1613.80
409.46	1667.05
409.67	1775.59
409.88	1652.71
410.08	1671.14
410.29	1619.94
410.50	1773.54
410.70	1773.54
410.91	1724.39
411.12	1693.67
411.32	1660.90
411.53	1703.91
411.74	1847.27
411.95	1910.75
412.15	1703.91
412.36	1751.01
412.57	1697.77
412.77	1783.78
412.98	1726.44
413.19	1652.71
413.39	1767.40
413.60	1734.63
413.81	1802.21
414.01	1611.75
414.22	1806.31
414.43	1738.73
414.63	1712.10
414.84	1767.40
415.05	1726.44
415.25	1624.04
415.46	1705.96
415.67	1699.81
415.87	1701.86
416.08	1660.90
416.29	1558.50
416.49	1753.06
416.70	1654.76
416.91	1671.14
417.11	1685.48
417.32	1730.53
417.53	1787.88
417.73	1751.01
417.94	1757.16
418.15	1732.58
418.35	1771.49
418.56	1775.59
418.77	1843.17
418.97	1665.00
419.18	1716.20
419.38	1560.55
419.59	1728.49
419.80	1837.03
420.00	1632.23
420.21	1660.90
420.42	1773.54
420.62	1728.49
420.83	1650.66
421.04	1722.34
421.24	1693.67
421.45	1730.53
421.65	1724.39
421.86	1748.97
422.07	1705.96
422.27	1724.39
422.48	1728.49
422.69	1632.23
422.89	1646.57
423.10	1654.76
423.30	1603.56
423.51	1742.82
423.72	1701.86
423.92	1744.87
424.13	1751.01
424.33	1732.58
424.54	1714.15
424.75	1740.77
424.95	1896.42
425.16	1771.49
425.36	1638.38
425.57	1671.14
425.78	1769.44
425.98	1652.71
426.19	1705.96
426.39	1601.51
426.60	1632.23
426.81	1849.32
427.01	1632.23
427.22	1658.85
427.42	1695.72
427.63	1615.85
427.83	1658.85
428.04	1800.16
428.25	1705.96
428.45	1798.12
428.66	1779.68
428.86	1720.29
429.07	1738.73
429.28	1722.34
429.48	1748.97
429.69	1685.48
429.89	1652.71
430.10	1685.48
430.30	1781.73
430.51	1781.73
430.71	1708.01
430.92	1708.01
431.13	1699.81
431.33	1751.01
431.54	1708.01
431.74	1775.59
431.95	1892.32
432.15	1636.33
432.36	1787.88
432.56	1771.49
432.77	1808.36
432.98	1863.65
433.18	1826.79
433.39	1710.05
433.59	1720.29
433.80	1710.05
434.00	1845.22
434.21	1636.33
434.41	1691.62
434.62	1875.94
434.82	1601.51
435.03	1599.46
435.23	1705.96
435.44	1624.04
435.64	1660.90
435.85	1755.11
436.06	1740.77
436.26	1751.01
436.47	1689.57
436.67	1763.30
436.88	1697.77
437.08	1722.34
437.29	1753.06
437.49	1755.11
437.70	1841.12
437.90	1634.28
438.11	1787.88
438.31	1761.25
438.52	1892.32
438.72	1904.61
438.93	1873.89
439.13	1796.07
439.34	1820.64
439.54	1783.78
439.75	1783.78
439.95	1765.35
440.16	1755.11
440.36	1773.54
440.57	1732.58
440.77	1759.21
440.98	1787.88
441.18	1763.30
441.39	1720.29
441.59	1716.20
441.80	1810.40
442.00	1726.44
442.21	1800.16
442.41	1685.48
442.62	1742.82
442.82	1613.80
443.02	1738.73
443.23	1751.01
443.43	1683.43
443.64	1853.41
443.84	1716.20
444.05	1730.53
444.25	1689.57
444.46	1712.10
444.66	1697.77
444.87	1867.75
445.07	1634.28
445.28	1679.33
445.48	1794.02
445.69	1873.89
445.89	1867.75
446.09	1855.46
446.30	2009.06
446.50	2635.74
446.71	3659.72
446.91	4356.03
447.12	4698.04
447.32	4857.78
447.53	4298.69
447.73	3696.58
447.93	3561.42
448.14	3348.43
448.34	3262.41
448.55	2932.69
448.75	2858.96
448.96	2682.84
449.16	2451.42
449.36	2289.63
449.57	2013.15
449.77	1943.52
449.98	1847.27
450.18	1882.08
450.39	1800.16
450.59	1708.01
450.79	1724.39
451.00	1728.49
451.20	1832.93
451.41	1669.09
451.61	1783.78
451.81	1722.34
452.02	1734.63
452.22	1763.30
452.43	1687.53
452.63	1755.11
