SpectraSuite Data File
++++++++++++++++++++++++++++++++++++
Date: Mon Jun 06 17:11:37 CEST 2016
User: root
Dark Spectrum Present: No
Reference Spectrum Present: No
Number of Sampled Component Spectra: 1
Spectrometers: USB4C02835
Integration Time (usec): 100000 (USB4C02835)
Spectra Averaged: 1 (USB4C02835)
Boxcar Smoothing: 0 (USB4C02835)
Correct for Electrical Dark: No (USB4C02835)
Strobe/Lamp Enabled: No (USB4C02835)
Correct for Detector Non-linearity: No (USB4C02835)
Correct for Stray Light: No (USB4C02835)
Number of Pixels in Processed Spectrum: 3648
>>>>>Begin Processed Spectral Data<<<<<
177.47	1480.68
177.69	1480.68
177.91	1480.68
178.13	1441.77
178.36	1484.78
178.58	1648.61
178.80	1728.49
179.02	1634.28
179.24	1677.29
179.46	1722.34
179.68	1710.05
179.90	1685.48
180.13	1757.16
180.35	1691.62
180.57	1644.52
180.79	1761.25
181.01	1675.24
181.23	1779.68
181.45	1824.74
181.67	1744.87
181.90	1732.58
182.12	1730.53
182.34	1644.52
182.56	1759.21
182.78	1718.25
183.00	1683.43
183.22	1722.34
183.44	1638.38
183.66	1857.51
183.89	1691.62
184.11	1697.77
184.33	1757.16
184.55	1812.45
184.77	1763.30
184.99	1697.77
185.21	1658.85
185.43	1810.40
185.65	1673.19
185.87	1665.00
186.10	1869.80
186.32	1892.32
186.54	1687.53
186.76	1724.39
186.98	1716.20
187.20	1800.16
187.42	1636.33
187.64	1771.49
187.86	1716.20
188.08	1771.49
188.30	1726.44
188.52	1697.77
188.75	1771.49
188.97	1781.73
189.19	1658.85
189.41	1734.63
189.63	1722.34
189.85	1714.15
190.07	1656.81
190.29	1603.56
190.51	1691.62
190.73	1587.18
190.95	1822.69
191.17	1673.19
191.39	1593.32
191.61	1687.53
191.84	1640.42
192.06	1648.61
192.28	1599.46
192.50	1834.98
192.72	1751.01
192.94	1712.10
193.16	1734.63
193.38	1705.96
193.60	1581.03
193.82	1699.81
194.04	1751.01
194.26	1759.21
194.48	1767.40
194.70	1648.61
194.92	1679.33
195.14	1759.21
195.36	1744.87
195.58	1716.20
195.80	1714.15
196.02	1687.53
196.24	1693.67
196.46	1757.16
196.69	1648.61
196.91	1847.27
197.13	1722.34
197.35	1611.75
197.57	1820.64
197.79	1781.73
198.01	1726.44
198.23	1710.05
198.45	1753.06
198.67	1642.47
198.89	1617.90
199.11	1794.02
199.33	1626.09
199.55	1624.04
199.77	1730.53
199.99	1746.92
200.21	1644.52
200.43	1644.52
200.65	1628.14
200.87	1583.08
201.09	1650.66
201.31	1640.42
201.53	1746.92
201.75	1728.49
201.97	1697.77
202.19	1712.10
202.41	1755.11
202.63	1734.63
202.85	1845.22
203.07	1765.35
203.29	1710.05
203.51	1683.43
203.73	1675.24
203.95	1906.66
204.17	1650.66
204.39	1718.25
204.61	1736.68
204.83	1658.85
205.05	1718.25
205.27	1738.73
205.49	1855.46
205.71	1748.97
205.93	1642.47
206.15	1621.99
206.37	1787.88
206.59	1714.15
206.81	1615.85
207.03	1718.25
207.25	1740.77
207.47	1791.97
207.69	1679.33
207.91	1847.27
208.13	1818.60
208.34	1710.05
208.56	1642.47
208.78	1783.78
209.00	1617.90
209.22	1685.48
209.44	1736.68
209.66	1722.34
209.88	1787.88
210.10	1708.01
210.32	1638.38
210.54	1757.16
210.76	1753.06
210.98	1728.49
211.20	1626.09
211.42	1665.00
211.64	1781.73
211.86	1689.57
212.08	1701.86
212.30	1722.34
212.52	1708.01
212.74	1722.34
212.96	1789.92
213.17	1773.54
213.39	1732.58
213.61	1765.35
213.83	1673.19
214.05	1677.29
214.27	1757.16
214.49	1599.46
214.71	1648.61
214.93	1804.26
215.15	1769.44
215.37	1730.53
215.59	1601.51
215.81	1753.06
216.03	1765.35
216.24	1726.44
216.46	1650.66
216.68	1794.02
216.90	1791.97
217.12	1736.68
217.34	1718.25
217.56	1732.58
217.78	1775.59
218.00	1730.53
218.22	1767.40
218.44	1714.15
218.66	1720.29
218.87	1773.54
219.09	1726.44
219.31	1746.92
219.53	1691.62
219.75	1656.81
219.97	1699.81
220.19	1832.93
220.41	1771.49
220.63	1783.78
220.85	1650.66
221.06	1732.58
221.28	1804.26
221.50	1767.40
221.72	1693.67
221.94	1771.49
222.16	1708.01
222.38	1703.91
222.60	1789.92
222.82	1662.95
223.03	1775.59
223.25	1632.23
223.47	1734.63
223.69	1787.88
223.91	1769.44
224.13	1703.91
224.35	1632.23
224.57	1732.58
224.78	1738.73
225.00	1650.66
225.22	1710.05
225.44	1693.67
225.66	1714.15
225.88	1689.57
226.10	1722.34
226.32	1796.07
226.53	1834.98
226.75	1642.47
226.97	1771.49
227.19	1724.39
227.41	1695.72
227.63	1658.85
227.85	1597.42
228.06	1730.53
228.28	1834.98
228.50	1716.20
228.72	1742.82
228.94	1671.14
229.16	1589.22
229.37	1624.04
229.59	1630.18
229.81	1730.53
230.03	1615.85
230.25	1615.85
230.47	1640.42
230.69	1613.80
230.90	1773.54
231.12	1593.32
231.34	1695.72
231.56	1728.49
231.78	1589.22
232.00	1687.53
232.21	1708.01
232.43	1738.73
232.65	1589.22
232.87	1675.24
233.09	1667.05
233.30	1722.34
233.52	1783.78
233.74	1742.82
233.96	1630.18
234.18	1667.05
234.40	1675.24
234.61	1890.28
234.83	1669.09
235.05	1673.19
235.27	1845.22
235.49	1789.92
235.70	1697.77
235.92	1791.97
236.14	1669.09
236.36	1869.80
236.58	1638.38
236.79	1787.88
237.01	1648.61
237.23	1742.82
237.45	1798.12
237.67	1638.38
237.88	1767.40
238.10	1751.01
238.32	1681.38
238.54	1708.01
238.76	1781.73
238.97	1681.38
239.19	1667.05
239.41	1828.84
239.63	1806.31
239.85	1779.68
240.06	1699.81
240.28	1705.96
240.50	1697.77
240.72	1757.16
240.93	1665.00
241.15	1796.07
241.37	1665.00
241.59	1834.98
241.81	1716.20
242.02	1658.85
242.24	1746.92
242.46	1781.73
242.68	1730.53
242.89	1724.39
243.11	1765.35
243.33	1708.01
243.55	1726.44
243.76	1665.00
243.98	1773.54
244.20	1677.29
244.42	1687.53
244.64	1660.90
244.85	1597.42
245.07	1603.56
245.29	1732.58
245.51	1757.16
245.72	1722.34
245.94	1769.44
246.16	1734.63
246.38	1794.02
246.59	1718.25
246.81	1667.05
247.03	1708.01
247.24	1605.61
247.46	1656.81
247.68	1710.05
247.90	1736.68
248.11	1710.05
248.33	1746.92
248.55	1789.92
248.77	1767.40
248.98	1761.25
249.20	1667.05
249.42	1742.82
249.64	1740.77
249.85	1673.19
250.07	1683.43
250.29	1722.34
250.50	1765.35
250.72	1646.57
250.94	1695.72
251.16	1796.07
251.37	1748.97
251.59	1875.94
251.81	1703.91
252.02	1791.97
252.24	1667.05
252.46	1828.84
252.68	1642.47
252.89	1658.85
253.11	1632.23
253.33	1816.55
253.54	1757.16
253.76	1636.33
253.98	1738.73
254.20	1736.68
254.41	1669.09
254.63	1697.77
254.85	1683.43
255.06	1679.33
255.28	1667.05
255.50	1697.77
255.71	1689.57
255.93	1607.66
256.15	1701.86
256.36	1759.21
256.58	1642.47
256.80	1759.21
257.02	1628.14
257.23	1771.49
257.45	1665.00
257.67	1777.64
257.88	1658.85
258.10	1687.53
258.32	1701.86
258.53	1710.05
258.75	1832.93
258.97	1689.57
259.18	1734.63
259.40	1796.07
259.62	1845.22
259.83	1802.21
260.05	1804.26
260.27	1964.00
260.48	1683.43
260.70	1634.28
260.92	1669.09
261.13	1730.53
261.35	1679.33
261.57	1697.77
261.78	1630.18
262.00	1675.24
262.22	1728.49
262.43	1624.04
262.65	1714.15
262.86	1685.48
263.08	1775.59
263.30	1722.34
263.51	1609.70
263.73	1679.33
263.95	1785.83
264.16	1587.18
264.38	1689.57
264.60	1683.43
264.81	1695.72
265.03	1757.16
265.25	1748.97
265.46	1697.77
265.68	1767.40
265.89	1785.83
266.11	1587.18
266.33	1732.58
266.54	1847.27
266.76	1656.81
266.98	1759.21
267.19	1791.97
267.41	1712.10
267.62	1697.77
267.84	1675.24
268.06	1730.53
268.27	1800.16
268.49	1855.46
268.70	1763.30
268.92	1773.54
269.14	1615.85
269.35	1691.62
269.57	1693.67
269.79	1763.30
270.00	1665.00
270.22	1738.73
270.43	1619.94
270.65	1585.13
270.87	1722.34
271.08	1771.49
271.30	1771.49
271.51	1685.48
271.73	1787.88
271.95	1738.73
272.16	1705.96
272.38	1660.90
272.59	1697.77
272.81	1636.33
273.02	1773.54
273.24	1718.25
273.46	1783.78
273.67	1662.95
273.89	1632.23
274.10	1652.71
274.32	1701.86
274.54	1681.38
274.75	1714.15
274.97	1656.81
275.18	1775.59
275.40	1734.63
275.61	1683.43
275.83	1687.53
276.05	1712.10
276.26	1773.54
276.48	1742.82
276.69	1691.62
276.91	1665.00
277.12	1785.83
277.34	1730.53
277.55	1771.49
277.77	1716.20
277.99	1726.44
278.20	1640.42
278.42	1689.57
278.63	1593.32
278.85	1654.76
279.06	1730.53
279.28	1705.96
279.49	1781.73
279.71	1763.30
279.93	1736.68
280.14	1642.47
280.36	1648.61
280.57	1765.35
280.79	1714.15
281.00	1675.24
281.22	1712.10
281.43	1755.11
281.65	1562.60
281.86	1681.38
282.08	1716.20
282.29	1757.16
282.51	1634.28
282.73	1654.76
282.94	1646.57
283.16	1763.30
283.37	1785.83
283.59	1736.68
283.80	1746.92
284.02	1701.86
284.23	1691.62
284.45	1681.38
284.66	1640.42
284.88	1775.59
285.09	1720.29
285.31	1726.44
285.52	1751.01
285.74	1570.79
285.95	1787.88
286.17	1730.53
286.38	1732.58
286.60	1761.25
286.81	1669.09
287.03	1669.09
287.24	1691.62
287.46	1718.25
287.67	1736.68
287.89	1828.84
288.10	1726.44
288.32	1771.49
288.53	1779.68
288.75	1746.92
288.96	1781.73
289.18	1654.76
289.39	1646.57
289.61	1767.40
289.82	1863.65
290.04	1798.12
290.25	1626.09
290.47	1757.16
290.68	1720.29
290.90	1718.25
291.11	1673.19
291.33	1705.96
291.54	1583.08
291.76	1693.67
291.97	1708.01
292.18	1748.97
292.40	1638.38
292.61	1695.72
292.83	1796.07
293.04	1669.09
293.26	1718.25
293.47	1726.44
293.69	1693.67
293.90	1615.85
294.12	1806.31
294.33	1699.81
294.55	1736.68
294.76	1667.05
294.97	1767.40
295.19	1751.01
295.40	1644.52
295.62	1757.16
295.83	1828.84
296.05	1701.86
296.26	1783.78
296.48	1642.47
296.69	1726.44
296.90	1703.91
297.12	1726.44
297.33	1767.40
297.55	1759.21
297.76	1714.15
297.98	1765.35
298.19	1724.39
298.41	1718.25
298.62	1576.94
298.83	1732.58
299.05	1726.44
299.26	1738.73
299.48	1718.25
299.69	1812.45
299.90	1689.57
300.12	1703.91
300.33	1769.44
300.55	1701.86
300.76	1775.59
300.98	1667.05
301.19	1806.31
301.40	1716.20
301.62	1677.29
301.83	1763.30
302.05	1619.94
302.26	1705.96
302.47	1714.15
302.69	1675.24
302.90	1662.95
303.12	1609.70
303.33	1830.88
303.54	1748.97
303.76	1726.44
303.97	1736.68
304.19	1759.21
304.40	1593.32
304.61	1691.62
304.83	1824.74
305.04	1839.08
305.26	1785.83
305.47	1578.98
305.68	1730.53
305.90	1630.18
306.11	1744.87
306.33	1677.29
306.54	1732.58
306.75	1705.96
306.97	1611.75
307.18	1675.24
307.39	1640.42
307.61	1779.68
307.82	1636.33
308.04	1796.07
308.25	1615.85
308.46	1730.53
308.68	1808.36
308.89	1689.57
309.10	1765.35
309.32	1748.97
309.53	1693.67
309.74	1699.81
309.96	1689.57
310.17	1820.64
310.39	1718.25
310.60	1722.34
310.81	1724.39
311.03	1660.90
311.24	1730.53
311.45	1695.72
311.67	1810.40
311.88	1699.81
312.09	1667.05
312.31	1685.48
312.52	1724.39
312.73	1630.18
312.95	1619.94
313.16	1714.15
313.37	1789.92
313.59	1701.86
313.80	1726.44
314.01	1845.22
314.23	1710.05
314.44	1746.92
314.65	1648.61
314.87	1693.67
315.08	1689.57
315.29	1650.66
315.51	1642.47
315.72	1640.42
315.93	1839.08
316.15	1757.16
316.36	1681.38
316.57	1701.86
316.79	1767.40
317.00	1736.68
317.21	1761.25
317.43	1728.49
317.64	1712.10
317.85	1632.23
318.07	1634.28
318.28	1742.82
318.49	1783.78
318.70	1939.43
318.92	1755.11
319.13	1816.55
319.34	1810.40
319.56	1765.35
319.77	1753.06
319.98	1773.54
320.20	1841.12
320.41	1724.39
320.62	1777.64
320.83	1677.29
321.05	1820.64
321.26	1722.34
321.47	1748.97
321.69	1757.16
321.90	1595.37
322.11	1634.28
322.32	1699.81
322.54	1763.30
322.75	1722.34
322.96	1828.84
323.18	1609.70
323.39	1611.75
323.60	1724.39
323.81	1777.64
324.03	1654.76
324.24	1687.53
324.45	1730.53
324.66	1726.44
324.88	1755.11
325.09	1787.88
325.30	1701.86
325.52	1763.30
325.73	1669.09
325.94	1697.77
326.15	1599.46
326.37	1642.47
326.58	1751.01
326.79	1810.40
327.00	1718.25
327.22	1738.73
327.43	1726.44
327.64	1583.08
327.85	1726.44
328.07	1697.77
328.28	1800.16
328.49	1689.57
328.70	1765.35
328.92	1755.11
329.13	1726.44
329.34	1804.26
329.55	1857.51
329.76	1794.02
329.98	1691.62
330.19	1753.06
330.40	1767.40
330.61	1658.85
330.83	1759.21
331.04	1630.18
331.25	1744.87
331.46	1701.86
331.68	1617.90
331.89	1771.49
332.10	1693.67
332.31	1693.67
332.52	1720.29
332.74	1789.92
332.95	1685.48
333.16	1673.19
333.37	1794.02
333.58	1638.38
333.80	1814.50
334.01	1611.75
334.22	1720.29
334.43	1646.57
334.64	1677.29
334.86	1617.90
335.07	1630.18
335.28	1673.19
335.49	1685.48
335.70	1796.07
335.92	1681.38
336.13	1830.88
336.34	1720.29
336.55	1710.05
336.76	1767.40
336.98	1560.55
337.19	1769.44
337.40	1771.49
337.61	1849.32
337.82	1724.39
338.04	1759.21
338.25	1654.76
338.46	1732.58
338.67	1648.61
338.88	1687.53
339.09	1624.04
339.31	1683.43
339.52	1546.22
339.73	1621.99
339.94	1730.53
340.15	1812.45
340.36	1726.44
340.58	1681.38
340.79	1658.85
341.00	1732.58
341.21	1744.87
341.42	1837.03
341.63	1740.77
341.85	1783.78
342.06	1681.38
342.27	1683.43
342.48	1734.63
342.69	1607.66
342.90	1695.72
343.12	1773.54
343.33	1761.25
343.54	1726.44
343.75	1742.82
343.96	1736.68
344.17	1675.24
344.38	1730.53
344.60	1746.92
344.81	1617.90
345.02	1714.15
345.23	1689.57
345.44	1787.88
345.65	1767.40
345.86	1648.61
346.07	1755.11
346.29	1638.38
346.50	1732.58
346.71	1718.25
346.92	1730.53
347.13	1861.60
347.34	1677.29
347.55	1640.42
347.76	1718.25
347.98	1597.42
348.19	1705.96
348.40	1748.97
348.61	1765.35
348.82	1880.04
349.03	1726.44
349.24	1689.57
349.45	1843.17
349.66	1603.56
349.88	1734.63
350.09	1665.00
350.30	1695.72
350.51	1773.54
350.72	1710.05
350.93	1755.11
351.14	1679.33
351.35	1722.34
351.56	1759.21
351.77	1734.63
351.99	1720.29
352.20	1841.12
352.41	1834.98
352.62	1587.18
352.83	1683.43
353.04	1714.15
353.25	1675.24
353.46	1798.12
353.67	1755.11
353.88	1619.94
354.09	1701.86
354.30	1693.67
354.52	1708.01
354.73	1740.77
354.94	1699.81
355.15	1636.33
355.36	1791.97
355.57	1683.43
355.78	1757.16
355.99	1640.42
356.20	1671.14
356.41	1732.58
356.62	1716.20
356.83	1652.71
357.04	1796.07
357.25	1634.28
357.46	1710.05
357.68	1630.18
357.89	1626.09
358.10	1757.16
358.31	1636.33
358.52	1722.34
358.73	1607.66
358.94	1693.67
359.15	1658.85
359.36	1802.21
359.57	1732.58
359.78	1718.25
359.99	1761.25
360.20	1554.41
360.41	1734.63
360.62	1785.83
360.83	1714.15
361.04	1656.81
361.25	1751.01
361.46	1757.16
361.67	1726.44
361.88	1763.30
362.09	1810.40
362.30	1703.91
362.51	1687.53
362.72	1703.91
362.93	1769.44
363.14	1724.39
363.35	1759.21
363.56	1728.49
363.78	1865.70
363.99	1746.92
364.20	1640.42
364.41	1660.90
364.62	1834.98
364.83	1757.16
365.04	1708.01
365.25	1746.92
365.46	1785.83
365.67	1583.08
365.88	1570.79
366.09	1673.19
366.30	1644.52
366.51	1675.24
366.72	1644.52
366.93	1705.96
367.14	1748.97
367.35	1783.78
367.56	1742.82
367.77	1785.83
367.98	1677.29
368.18	1800.16
368.39	1814.50
368.60	1656.81
368.81	1804.26
369.02	1787.88
369.23	1671.14
369.44	1642.47
369.65	1578.98
369.86	1687.53
370.07	1796.07
370.28	1665.00
370.49	1701.86
370.70	1699.81
370.91	1677.29
371.12	1646.57
371.33	1773.54
371.54	1691.62
371.75	1828.84
371.96	1550.31
372.17	1736.68
372.38	1701.86
372.59	1751.01
372.80	1714.15
373.01	1636.33
373.22	1714.15
373.43	1624.04
373.64	1624.04
373.85	1806.31
374.06	1808.36
374.26	1855.46
374.47	1708.01
374.68	1814.50
374.89	1665.00
375.10	1656.81
375.31	1826.79
375.52	1746.92
375.73	1667.05
375.94	1673.19
376.15	1812.45
376.36	1660.90
376.57	1705.96
376.78	1687.53
376.99	1669.09
377.20	1730.53
377.40	1708.01
377.61	1740.77
377.82	1693.67
378.03	1738.73
378.24	1767.40
378.45	1716.20
378.66	1748.97
378.87	1624.04
379.08	1648.61
379.29	1658.85
379.50	1826.79
379.71	1685.48
379.91	1732.58
380.12	1720.29
380.33	1757.16
380.54	1675.24
380.75	1654.76
380.96	1714.15
381.17	1798.12
381.38	1714.15
381.59	1765.35
381.80	1794.02
382.00	1908.71
382.21	1796.07
382.42	1884.13
382.63	1933.28
382.84	1689.57
383.05	1771.49
383.26	1851.36
383.47	1736.68
383.68	1746.92
383.88	1802.21
384.09	1710.05
384.30	1900.52
384.51	1759.21
384.72	1662.95
384.93	1642.47
385.14	1734.63
385.35	1763.30
385.55	1738.73
385.76	1806.31
385.97	1705.96
386.18	1634.28
386.39	1740.77
386.60	1716.20
386.81	1667.05
387.02	1671.14
387.22	1751.01
387.43	1804.26
387.64	1806.31
387.85	1955.81
388.06	2211.81
388.27	4304.83
388.48	6809.50
388.68	8183.68
388.89	9803.63
389.10	9875.31
389.31	8677.24
389.52	7573.39
389.73	6723.48
389.93	6326.18
390.14	5955.49
390.35	5212.08
390.56	4442.04
390.77	3868.61
390.98	3110.86
391.18	2482.14
391.39	2172.89
391.60	1837.03
391.81	1828.84
392.02	1695.72
392.23	1902.56
392.43	1736.68
392.64	1869.80
392.85	1673.19
393.06	1841.12
393.27	1718.25
393.47	1732.58
393.68	1753.06
393.89	1726.44
394.10	1734.63
394.31	1677.29
394.52	1691.62
394.72	1685.48
394.93	1837.03
395.14	1716.20
395.35	1789.92
395.56	1691.62
395.76	1789.92
395.97	1796.07
396.18	1882.08
396.39	1806.31
396.60	2050.02
396.80	1865.70
397.01	1880.04
397.22	1751.01
397.43	1890.28
397.64	1738.73
397.84	1873.89
398.05	1906.66
398.26	1742.82
398.47	1736.68
398.67	1820.64
398.88	1775.59
399.09	1789.92
399.30	1716.20
399.51	1701.86
399.71	1724.39
399.92	1724.39
400.13	1767.40
400.34	1660.90
400.54	1671.14
400.75	1738.73
400.96	1748.97
401.17	1773.54
401.37	1681.38
401.58	1701.86
401.79	1695.72
402.00	1841.12
402.21	2064.35
402.41	1882.08
402.62	2043.87
402.83	2017.25
403.04	1982.43
403.24	2058.21
403.45	1820.64
403.66	1941.47
403.87	1800.16
404.07	1888.23
404.28	1894.37
404.49	1882.08
404.70	1787.88
404.90	1771.49
405.11	1738.73
405.32	1724.39
405.52	1646.57
405.73	1701.86
405.94	1687.53
406.15	1705.96
406.35	1808.36
406.56	1783.78
406.77	1767.40
406.98	1751.01
407.18	1665.00
407.39	1757.16
407.60	1759.21
407.80	1738.73
408.01	1611.75
408.22	1773.54
408.43	1683.43
408.63	1718.25
408.84	1742.82
409.05	1744.87
409.25	1644.52
409.46	1681.38
409.67	1675.24
409.88	1710.05
410.08	1746.92
410.29	1662.95
410.50	1804.26
410.70	1742.82
410.91	1675.24
411.12	1724.39
411.32	1716.20
411.53	1677.29
411.74	1816.55
411.95	1802.21
412.15	1783.78
412.36	1794.02
412.57	1783.78
412.77	1773.54
412.98	1718.25
413.19	1693.67
413.39	1761.25
413.60	1748.97
413.81	1834.98
414.01	1669.09
414.22	1751.01
414.43	1794.02
414.63	1689.57
414.84	1800.16
415.05	1642.47
415.25	1593.32
415.46	1716.20
415.67	1701.86
415.87	1728.49
416.08	1742.82
416.29	1726.44
416.49	1769.44
416.70	1769.44
416.91	1691.62
417.11	1697.77
417.32	1787.88
417.53	1783.78
417.73	1701.86
417.94	1742.82
418.15	1765.35
418.35	1804.26
418.56	1705.96
418.77	1841.12
418.97	1738.73
419.18	1646.57
419.38	1673.19
419.59	1689.57
419.80	1767.40
420.00	1611.75
420.21	1703.91
420.42	1751.01
420.62	1789.92
420.83	1703.91
421.04	1679.33
421.24	1757.16
421.45	1753.06
421.65	1779.68
421.86	1613.80
422.07	1697.77
422.27	1746.92
422.48	1746.92
422.69	1667.05
422.89	1665.00
423.10	1681.38
423.30	1697.77
423.51	1714.15
423.72	1728.49
423.92	1773.54
424.13	1619.94
424.33	1757.16
424.54	1746.92
424.75	1761.25
424.95	1834.98
425.16	1830.88
425.36	1662.95
425.57	1751.01
425.78	1773.54
425.98	1716.20
426.19	1755.11
426.39	1652.71
426.60	1789.92
426.81	1783.78
427.01	1673.19
427.22	1591.27
427.42	1644.52
427.63	1726.44
427.83	1751.01
428.04	1894.37
428.25	1839.08
428.45	1751.01
428.66	1730.53
428.86	1693.67
429.07	1691.62
429.28	1798.12
429.48	1656.81
429.69	1691.62
429.89	1738.73
430.10	1634.28
430.30	1740.77
430.51	1796.07
430.71	1712.10
430.92	1650.66
431.13	1722.34
431.33	1767.40
431.54	1732.58
431.74	1804.26
431.95	1785.83
432.15	1617.90
432.36	1777.64
432.56	1753.06
432.77	1828.84
432.98	1779.68
433.18	1732.58
433.39	1699.81
433.59	1738.73
433.80	1902.56
434.00	1843.17
434.21	1665.00
434.41	1689.57
434.62	1873.89
434.82	1665.00
435.03	1642.47
435.23	1791.97
435.44	1560.55
435.64	1708.01
435.85	1632.23
436.06	1763.30
436.26	1718.25
436.47	1720.29
436.67	1714.15
436.88	1757.16
437.08	1759.21
437.29	1791.97
437.49	1734.63
437.70	1755.11
437.90	1753.06
438.11	1910.75
438.31	1810.40
438.52	1845.22
438.72	1855.46
438.93	1910.75
439.13	1847.27
439.34	1810.40
439.54	1751.01
439.75	1832.93
439.95	1837.03
440.16	1708.01
440.36	1695.72
440.57	1830.88
440.77	1787.88
440.98	1638.38
441.18	1781.73
441.39	1732.58
441.59	1703.91
441.80	1923.04
442.00	1699.81
442.21	1861.60
442.41	1714.15
442.62	1771.49
442.82	1826.79
443.02	1771.49
443.23	1755.11
443.43	1619.94
443.64	1832.93
443.84	1550.31
444.05	1789.92
444.25	1732.58
444.46	1607.66
444.66	1665.00
444.87	1843.17
445.07	1677.29
445.28	1681.38
445.48	1802.21
445.69	1744.87
445.89	1923.04
446.09	1796.07
446.30	2041.82
446.50	2725.85
446.71	3649.48
446.91	4335.55
447.12	4765.62
447.32	4759.48
447.53	4259.78
447.73	3962.82
447.93	3653.58
448.14	3317.71
448.34	3176.40
448.55	2951.12
448.75	2877.40
448.96	2752.47
449.16	2410.46
449.36	2183.13
449.57	1994.72
449.77	1990.63
449.98	1855.46
450.18	1837.03
450.39	1781.73
450.59	1718.25
450.79	1779.68
451.00	1640.42
451.20	1826.79
451.41	1724.39
451.61	1683.43
451.81	1669.09
452.02	1742.82
452.22	1679.33
452.43	1734.63
452.63	1712.10
