SpectraSuite Data File
++++++++++++++++++++++++++++++++++++
Date: Mon Jun 06 12:13:37 CEST 2016
User: root
Dark Spectrum Present: No
Reference Spectrum Present: No
Number of Sampled Component Spectra: 1
Spectrometers: USB4C02835
Integration Time (usec): 100000 (USB4C02835)
Spectra Averaged: 1 (USB4C02835)
Boxcar Smoothing: 0 (USB4C02835)
Correct for Electrical Dark: No (USB4C02835)
Strobe/Lamp Enabled: No (USB4C02835)
Correct for Detector Non-linearity: No (USB4C02835)
Correct for Stray Light: No (USB4C02835)
Number of Pixels in Processed Spectrum: 3648
>>>>>Begin Processed Spectral Data<<<<<
177.47	1480.68
177.69	1480.68
177.91	1480.68
178.13	1464.30
178.36	1392.62
178.58	1660.90
178.80	1703.91
179.02	1605.61
179.24	1638.38
179.46	1640.42
179.68	1748.97
179.90	1693.67
180.13	1701.86
180.35	1613.80
180.57	1742.82
180.79	1757.16
181.01	1660.90
181.23	1693.67
181.45	1744.87
181.67	1675.24
181.90	1714.15
182.12	1701.86
182.34	1640.42
182.56	1675.24
182.78	1691.62
183.00	1689.57
183.22	1728.49
183.44	1613.80
183.66	1902.56
183.89	1744.87
184.11	1646.57
184.33	1697.77
184.55	1751.01
184.77	1703.91
184.99	1718.25
185.21	1675.24
185.43	1785.83
185.65	1683.43
185.87	1705.96
186.10	1834.98
186.32	1841.12
186.54	1779.68
186.76	1718.25
186.98	1742.82
187.20	1646.57
187.42	1748.97
187.64	1714.15
187.86	1679.33
188.08	1744.87
188.30	1660.90
188.52	1671.14
188.75	1751.01
188.97	1783.78
189.19	1718.25
189.41	1685.48
189.63	1759.21
189.85	1726.44
190.07	1650.66
190.29	1665.00
190.51	1679.33
190.73	1640.42
190.95	1779.68
191.17	1765.35
191.39	1595.37
191.61	1583.08
191.84	1677.29
192.06	1660.90
192.28	1591.27
192.50	1763.30
192.72	1675.24
192.94	1710.05
193.16	1720.29
193.38	1753.06
193.60	1671.14
193.82	1718.25
194.04	1746.92
194.26	1718.25
194.48	1708.01
194.70	1650.66
194.92	1738.73
195.14	1712.10
195.36	1671.14
195.58	1753.06
195.80	1662.95
196.02	1689.57
196.24	1718.25
196.46	1724.39
196.69	1683.43
196.91	1816.55
197.13	1599.46
197.35	1691.62
197.57	1845.22
197.79	1671.14
198.01	1769.44
198.23	1748.97
198.45	1828.84
198.67	1552.36
198.89	1714.15
199.11	1763.30
199.33	1626.09
199.55	1601.51
199.77	1619.94
199.99	1718.25
200.21	1667.05
200.43	1769.44
200.65	1599.46
200.87	1595.37
201.09	1759.21
201.31	1626.09
201.53	1669.09
201.75	1734.63
201.97	1697.77
202.19	1695.72
202.41	1763.30
202.63	1779.68
202.85	1689.57
203.07	1701.86
203.29	1628.14
203.51	1621.99
203.73	1652.71
203.95	1849.32
204.17	1751.01
204.39	1708.01
204.61	1683.43
204.83	1624.04
205.05	1800.16
205.27	1714.15
205.49	1853.41
205.71	1658.85
205.93	1613.80
206.15	1689.57
206.37	1703.91
206.59	1726.44
206.81	1617.90
207.03	1697.77
207.25	1671.14
207.47	1652.71
207.69	1691.62
207.91	1755.11
208.13	1738.73
208.34	1632.23
208.56	1724.39
208.78	1687.53
209.00	1705.96
209.22	1718.25
209.44	1695.72
209.66	1615.85
209.88	1826.79
210.10	1681.38
210.32	1701.86
210.54	1808.36
210.76	1677.29
210.98	1783.78
211.20	1673.19
211.42	1677.29
211.64	1744.87
211.86	1632.23
212.08	1755.11
212.30	1648.61
212.52	1630.18
212.74	1746.92
212.96	1794.02
213.17	1708.01
213.39	1693.67
213.61	1740.77
213.83	1736.68
214.05	1601.51
214.27	1701.86
214.49	1673.19
214.71	1693.67
214.93	1775.59
215.15	1687.53
215.37	1761.25
215.59	1665.00
215.81	1699.81
216.03	1763.30
216.24	1675.24
216.46	1716.20
216.68	1701.86
216.90	1695.72
217.12	1810.40
217.34	1734.63
217.56	1708.01
217.78	1814.50
218.00	1734.63
218.22	1656.81
218.44	1681.38
218.66	1693.67
218.87	1853.41
219.09	1673.19
219.31	1705.96
219.53	1781.73
219.75	1665.00
219.97	1720.29
220.19	1654.76
220.41	1687.53
220.63	1765.35
220.85	1626.09
221.06	1601.51
221.28	1738.73
221.50	1685.48
221.72	1652.71
221.94	1710.05
222.16	1601.51
222.38	1753.06
222.60	1775.59
222.82	1675.24
223.03	1665.00
223.25	1691.62
223.47	1712.10
223.69	1785.83
223.91	1693.67
224.13	1675.24
224.35	1724.39
224.57	1775.59
224.78	1681.38
225.00	1652.71
225.22	1650.66
225.44	1751.01
225.66	1681.38
225.88	1710.05
226.10	1691.62
226.32	1718.25
226.53	1832.93
226.75	1595.37
226.97	1656.81
227.19	1665.00
227.41	1654.76
227.63	1708.01
227.85	1609.70
228.06	1722.34
228.28	1705.96
228.50	1699.81
228.72	1665.00
228.94	1708.01
229.16	1589.22
229.37	1538.02
229.59	1726.44
229.81	1759.21
230.03	1578.98
230.25	1615.85
230.47	1693.67
230.69	1581.03
230.90	1710.05
231.12	1675.24
231.34	1683.43
231.56	1738.73
231.78	1619.94
232.00	1732.58
232.21	1630.18
232.43	1669.09
232.65	1646.57
232.87	1681.38
233.09	1601.51
233.30	1726.44
233.52	1671.14
233.74	1609.70
233.96	1695.72
234.18	1759.21
234.40	1671.14
234.61	1746.92
234.83	1634.28
235.05	1603.56
235.27	1781.73
235.49	1804.26
235.70	1642.47
235.92	1751.01
236.14	1701.86
236.36	1785.83
236.58	1685.48
236.79	1693.67
237.01	1640.42
237.23	1630.18
237.45	1779.68
237.67	1587.18
237.88	1640.42
238.10	1814.50
238.32	1665.00
238.54	1673.19
238.76	1708.01
238.97	1697.77
239.19	1628.14
239.41	1722.34
239.63	1798.12
239.85	1599.46
240.06	1669.09
240.28	1714.15
240.50	1777.64
240.72	1691.62
240.93	1658.85
241.15	1765.35
241.37	1703.91
241.59	1701.86
241.81	1636.33
242.02	1681.38
242.24	1712.10
242.46	1738.73
242.68	1675.24
242.89	1718.25
243.11	1751.01
243.33	1683.43
243.55	1728.49
243.76	1714.15
243.98	1658.85
244.20	1667.05
244.42	1658.85
244.64	1691.62
244.85	1703.91
245.07	1656.81
245.29	1714.15
245.51	1685.48
245.72	1673.19
245.94	1755.11
246.16	1667.05
246.38	1701.86
246.59	1613.80
246.81	1681.38
247.03	1646.57
247.24	1595.37
247.46	1665.00
247.68	1691.62
247.90	1722.34
248.11	1644.52
248.33	1757.16
248.55	1701.86
248.77	1691.62
248.98	1767.40
249.20	1748.97
249.42	1644.52
249.64	1728.49
249.85	1681.38
250.07	1624.04
250.29	1736.68
250.50	1757.16
250.72	1638.38
250.94	1716.20
251.16	1820.64
251.37	1740.77
251.59	1681.38
251.81	1744.87
252.02	1789.92
252.24	1667.05
252.46	1798.12
252.68	1660.90
252.89	1593.32
253.11	1587.18
253.33	1861.60
253.54	1814.50
253.76	1621.99
253.98	1697.77
254.20	1744.87
254.41	1591.27
254.63	1650.66
254.85	1595.37
255.06	1677.29
255.28	1708.01
255.50	1624.04
255.71	1648.61
255.93	1722.34
256.15	1669.09
256.36	1734.63
256.58	1681.38
256.80	1687.53
257.02	1685.48
257.23	1708.01
257.45	1736.68
257.67	1708.01
257.88	1656.81
258.10	1697.77
258.32	1642.47
258.53	1822.69
258.75	1773.54
258.97	1665.00
259.18	1738.73
259.40	1705.96
259.62	1789.92
259.83	1687.53
260.05	1710.05
260.27	2002.91
260.48	1744.87
260.70	1656.81
260.92	1693.67
261.13	1658.85
261.35	1671.14
261.57	1705.96
261.78	1673.19
262.00	1695.72
262.22	1734.63
262.43	1732.58
262.65	1720.29
262.86	1675.24
263.08	1837.03
263.30	1673.19
263.51	1599.46
263.73	1658.85
263.95	1816.55
264.16	1615.85
264.38	1662.95
264.60	1716.20
264.81	1685.48
265.03	1732.58
265.25	1783.78
265.46	1658.85
265.68	1726.44
265.89	1728.49
266.11	1607.66
266.33	1755.11
266.54	1681.38
266.76	1730.53
266.98	1763.30
267.19	1699.81
267.41	1783.78
267.62	1624.04
267.84	1630.18
268.06	1761.25
268.27	1718.25
268.49	1712.10
268.70	1703.91
268.92	1722.34
269.14	1683.43
269.35	1560.55
269.57	1660.90
269.79	1769.44
270.00	1662.95
270.22	1751.01
270.43	1619.94
270.65	1566.70
270.87	1681.38
271.08	1716.20
271.30	1736.68
271.51	1720.29
271.73	1701.86
271.95	1697.77
272.16	1714.15
272.38	1738.73
272.59	1677.29
272.81	1665.00
273.02	1728.49
273.24	1742.82
273.46	1744.87
273.67	1624.04
273.89	1636.33
274.10	1673.19
274.32	1759.21
274.54	1697.77
274.75	1693.67
274.97	1638.38
275.18	1802.21
275.40	1701.86
275.61	1652.71
275.83	1681.38
276.05	1626.09
276.26	1665.00
276.48	1714.15
276.69	1599.46
276.91	1669.09
277.12	1816.55
277.34	1720.29
277.55	1728.49
277.77	1650.66
277.99	1732.58
278.20	1673.19
278.42	1630.18
278.63	1595.37
278.85	1714.15
279.06	1693.67
279.28	1673.19
279.49	1744.87
279.71	1677.29
279.93	1720.29
280.14	1695.72
280.36	1613.80
280.57	1724.39
280.79	1751.01
281.00	1673.19
281.22	1699.81
281.43	1759.21
281.65	1675.24
281.86	1642.47
282.08	1765.35
282.29	1820.64
282.51	1619.94
282.73	1677.29
282.94	1624.04
283.16	1744.87
283.37	1814.50
283.59	1667.05
283.80	1746.92
284.02	1732.58
284.23	1718.25
284.45	1665.00
284.66	1626.09
284.88	1648.61
285.09	1697.77
285.31	1691.62
285.52	1726.44
285.74	1689.57
285.95	1740.77
286.17	1748.97
286.38	1781.73
286.60	1755.11
286.81	1691.62
287.03	1736.68
287.24	1652.71
287.46	1751.01
287.67	1691.62
287.89	1710.05
288.10	1677.29
288.32	1642.47
288.53	1728.49
288.75	1748.97
288.96	1755.11
289.18	1738.73
289.39	1724.39
289.61	1771.49
289.82	1769.44
290.04	1816.55
290.25	1570.79
290.47	1775.59
290.68	1695.72
290.90	1701.86
291.11	1654.76
291.33	1687.53
291.54	1648.61
291.76	1646.57
291.97	1720.29
292.18	1755.11
292.40	1591.27
292.61	1705.96
292.83	1808.36
293.04	1673.19
293.26	1685.48
293.47	1728.49
293.69	1669.09
293.90	1710.05
294.12	1744.87
294.33	1712.10
294.55	1634.28
294.76	1669.09
294.97	1794.02
295.19	1794.02
295.40	1671.14
295.62	1761.25
295.83	1730.53
296.05	1599.46
296.26	1759.21
296.48	1675.24
296.69	1718.25
296.90	1746.92
297.12	1800.16
297.33	1697.77
297.55	1730.53
297.76	1681.38
297.98	1722.34
298.19	1718.25
298.41	1746.92
298.62	1658.85
298.83	1769.44
299.05	1742.82
299.26	1615.85
299.48	1626.09
299.69	1703.91
299.90	1681.38
300.12	1613.80
300.33	1683.43
300.55	1665.00
300.76	1771.49
300.98	1650.66
301.19	1722.34
301.40	1658.85
301.62	1673.19
301.83	1724.39
302.05	1699.81
302.26	1667.05
302.47	1687.53
302.69	1644.52
302.90	1630.18
303.12	1640.42
303.33	1710.05
303.54	1796.07
303.76	1673.19
303.97	1785.83
304.19	1726.44
304.40	1759.21
304.61	1681.38
304.83	1826.79
305.04	1730.53
305.26	1630.18
305.47	1730.53
305.68	1673.19
305.90	1667.05
306.11	1763.30
306.33	1632.23
306.54	1636.33
306.75	1748.97
306.97	1722.34
307.18	1609.70
307.39	1650.66
307.61	1744.87
307.82	1617.90
308.04	1718.25
308.25	1626.09
308.46	1658.85
308.68	1687.53
308.89	1708.01
309.10	1761.25
309.32	1695.72
309.53	1638.38
309.74	1691.62
309.96	1632.23
310.17	1738.73
310.39	1675.24
310.60	1665.00
310.81	1781.73
311.03	1621.99
311.24	1685.48
311.45	1748.97
311.67	1853.41
311.88	1802.21
312.09	1662.95
312.31	1681.38
312.52	1771.49
312.73	1730.53
312.95	1601.51
313.16	1589.22
313.37	1697.77
313.59	1685.48
313.80	1701.86
314.01	1746.92
314.23	1779.68
314.44	1675.24
314.65	1583.08
314.87	1636.33
315.08	1710.05
315.29	1738.73
315.51	1689.57
315.72	1662.95
315.93	1812.45
316.15	1697.77
316.36	1650.66
316.57	1703.91
316.79	1744.87
317.00	1673.19
317.21	1703.91
317.43	1699.81
317.64	1701.86
317.85	1603.56
318.07	1726.44
318.28	1636.33
318.49	1828.84
318.70	1906.66
318.92	1914.85
319.13	1871.84
319.34	1794.02
319.56	1746.92
319.77	1761.25
319.98	1806.31
320.20	1732.58
320.41	1751.01
320.62	1705.96
320.83	1689.57
321.05	1830.88
321.26	1730.53
321.47	1726.44
321.69	1724.39
321.90	1583.08
322.11	1685.48
322.32	1691.62
322.54	1755.11
322.75	1656.81
322.96	1820.64
323.18	1619.94
323.39	1566.70
323.60	1662.95
323.81	1685.48
324.03	1691.62
324.24	1724.39
324.45	1650.66
324.66	1632.23
324.88	1701.86
325.09	1740.77
325.30	1621.99
325.52	1763.30
325.73	1753.06
325.94	1644.52
326.15	1619.94
326.37	1681.38
326.58	1730.53
326.79	1765.35
327.00	1665.00
327.22	1683.43
327.43	1601.51
327.64	1640.42
327.85	1738.73
328.07	1757.16
328.28	1791.97
328.49	1646.57
328.70	1693.67
328.92	1705.96
329.13	1714.15
329.34	1728.49
329.55	1748.97
329.76	1728.49
329.98	1681.38
330.19	1734.63
330.40	1714.15
330.61	1642.47
330.83	1687.53
331.04	1605.61
331.25	1746.92
331.46	1673.19
331.68	1621.99
331.89	1746.92
332.10	1673.19
332.31	1583.08
332.52	1646.57
332.74	1783.78
332.95	1648.61
333.16	1642.47
333.37	1665.00
333.58	1730.53
333.80	1693.67
334.01	1632.23
334.22	1654.76
334.43	1665.00
334.64	1695.72
334.86	1605.61
335.07	1665.00
335.28	1722.34
335.49	1595.37
335.70	1738.73
335.92	1804.26
336.13	1834.98
336.34	1748.97
336.55	1691.62
336.76	1636.33
336.98	1630.18
337.19	1673.19
337.40	1781.73
337.61	1834.98
337.82	1652.71
338.04	1804.26
338.25	1611.75
338.46	1681.38
338.67	1718.25
338.88	1660.90
339.09	1630.18
339.31	1730.53
339.52	1572.84
339.73	1701.86
339.94	1722.34
340.15	1712.10
340.36	1667.05
340.58	1695.72
340.79	1632.23
341.00	1720.29
341.21	1714.15
341.42	1734.63
341.63	1617.90
341.85	1726.44
342.06	1591.27
342.27	1630.18
342.48	1693.67
342.69	1603.56
342.90	1640.42
343.12	1716.20
343.33	1628.14
343.54	1718.25
343.75	1773.54
343.96	1685.48
344.17	1617.90
344.38	1634.28
344.60	1640.42
344.81	1642.47
345.02	1683.43
345.23	1687.53
345.44	1773.54
345.65	1677.29
345.86	1791.97
346.07	1628.14
346.29	1679.33
346.50	1732.58
346.71	1679.33
346.92	1689.57
347.13	1847.27
347.34	1611.75
347.55	1677.29
347.76	1652.71
347.98	1583.08
348.19	1632.23
348.40	1705.96
348.61	1724.39
348.82	1812.45
349.03	1740.77
349.24	1732.58
349.45	1802.21
349.66	1562.60
349.88	1708.01
350.09	1689.57
350.30	1804.26
350.51	1767.40
350.72	1609.70
350.93	1757.16
351.14	1703.91
351.35	1714.15
351.56	1689.57
351.77	1662.95
351.99	1722.34
352.20	1773.54
352.41	1685.48
352.62	1681.38
352.83	1699.81
353.04	1699.81
353.25	1624.04
353.46	1656.81
353.67	1775.59
353.88	1648.61
354.09	1734.63
354.30	1660.90
354.52	1744.87
354.73	1699.81
354.94	1740.77
355.15	1742.82
355.36	1716.20
355.57	1642.47
355.78	1720.29
355.99	1644.52
356.20	1693.67
356.41	1812.45
356.62	1726.44
356.83	1681.38
357.04	1851.36
357.25	1558.50
357.46	1654.76
357.68	1613.80
357.89	1656.81
358.10	1640.42
358.31	1689.57
358.52	1701.86
358.73	1619.94
358.94	1634.28
359.15	1710.05
359.36	1722.34
359.57	1734.63
359.78	1665.00
359.99	1730.53
360.20	1650.66
360.41	1687.53
360.62	1730.53
360.83	1746.92
361.04	1685.48
361.25	1740.77
361.46	1828.84
361.67	1781.73
361.88	1710.05
362.09	1765.35
362.30	1665.00
362.51	1615.85
362.72	1697.77
362.93	1708.01
363.14	1757.16
363.35	1671.14
363.56	1652.71
363.78	1716.20
363.99	1806.31
364.20	1685.48
364.41	1728.49
364.62	1800.16
364.83	1691.62
365.04	1718.25
365.25	1746.92
365.46	1791.97
365.67	1656.81
365.88	1621.99
366.09	1583.08
366.30	1656.81
366.51	1740.77
366.72	1605.61
366.93	1755.11
367.14	1708.01
367.35	1748.97
367.56	1675.24
367.77	1814.50
367.98	1759.21
368.18	1714.15
368.39	1708.01
368.60	1585.13
368.81	1695.72
369.02	1722.34
369.23	1732.58
369.44	1591.27
369.65	1656.81
369.86	1748.97
370.07	1755.11
370.28	1650.66
370.49	1656.81
370.70	1701.86
370.91	1615.85
371.12	1656.81
371.33	1751.01
371.54	1689.57
371.75	1785.83
371.96	1560.55
372.17	1728.49
372.38	1671.14
372.59	1771.49
372.80	1705.96
373.01	1652.71
373.22	1671.14
373.43	1673.19
373.64	1656.81
373.85	1771.49
374.06	1734.63
374.26	1763.30
374.47	1648.61
374.68	1744.87
374.89	1722.34
375.10	1626.09
375.31	1763.30
375.52	1665.00
375.73	1703.91
375.94	1624.04
376.15	1730.53
376.36	1640.42
376.57	1601.51
376.78	1685.48
376.99	1714.15
377.20	1716.20
377.40	1685.48
377.61	1824.74
377.82	1665.00
378.03	1765.35
378.24	1658.85
378.45	1779.68
378.66	1710.05
378.87	1638.38
379.08	1624.04
379.29	1687.53
379.50	1744.87
379.71	1615.85
379.91	1683.43
380.12	1615.85
380.33	1617.90
380.54	1701.86
380.75	1714.15
380.96	1669.09
381.17	1718.25
381.38	1753.06
381.59	1748.97
381.80	1738.73
382.00	1822.69
382.21	1724.39
382.42	1837.03
382.63	1849.32
382.84	1638.38
383.05	1742.82
383.26	1722.34
383.47	1738.73
383.68	1697.77
383.88	1693.67
384.09	1697.77
384.30	1679.33
384.51	1796.07
384.72	1673.19
384.93	1675.24
385.14	1675.24
385.35	1771.49
385.55	1656.81
385.76	1773.54
385.97	1689.57
386.18	1599.46
386.39	1667.05
386.60	1687.53
386.81	1644.52
387.02	1730.53
387.22	1628.14
387.43	1771.49
387.64	1726.44
387.85	1828.84
388.06	2215.90
388.27	4362.17
388.48	6991.77
388.68	8443.78
388.89	9926.50
389.10	10035.05
389.31	8832.89
389.52	7700.36
389.73	6872.98
389.93	6418.33
390.14	6002.60
390.35	5433.26
390.56	4626.36
390.77	3766.21
390.98	3233.74
391.18	2502.62
391.39	2115.55
391.60	1867.75
391.81	1855.46
392.02	1738.73
392.23	1912.80
392.43	1751.01
392.64	1789.92
392.85	1652.71
393.06	1841.12
393.27	1712.10
393.47	1677.29
393.68	1753.06
393.89	1662.95
394.10	1722.34
394.31	1710.05
394.52	1611.75
394.72	1617.90
394.93	1759.21
395.14	1638.38
395.35	1775.59
395.56	1605.61
395.76	1740.77
395.97	1757.16
396.18	1751.01
396.39	1900.52
396.60	1955.81
396.80	1869.80
397.01	1859.56
397.22	1796.07
397.43	1857.51
397.64	1712.10
397.84	1826.79
398.05	1855.46
398.26	1726.44
398.47	1738.73
398.67	1755.11
398.88	1687.53
399.09	1701.86
399.30	1630.18
399.51	1814.50
399.71	1693.67
399.92	1681.38
400.13	1673.19
400.34	1656.81
400.54	1683.43
400.75	1763.30
400.96	1701.86
401.17	1722.34
401.37	1708.01
401.58	1646.57
401.79	1705.96
402.00	1869.80
402.21	2009.06
402.41	1894.37
402.62	1931.23
402.83	2062.30
403.04	1957.86
403.24	2148.32
403.45	1812.45
403.66	1918.95
403.87	1900.52
404.07	1873.89
404.28	1888.23
404.49	1863.65
404.70	1726.44
404.90	1824.74
405.11	1781.73
405.32	1738.73
405.52	1603.56
405.73	1599.46
405.94	1671.14
406.15	1714.15
406.35	1736.68
406.56	1718.25
406.77	1656.81
406.98	1695.72
407.18	1681.38
407.39	1701.86
407.60	1658.85
407.80	1734.63
408.01	1646.57
408.22	1769.44
408.43	1613.80
408.63	1771.49
408.84	1783.78
409.05	1759.21
409.25	1667.05
409.46	1652.71
409.67	1673.19
409.88	1636.33
410.08	1689.57
410.29	1624.04
410.50	1710.05
410.70	1685.48
410.91	1605.61
411.12	1703.91
411.32	1734.63
411.53	1644.52
411.74	1822.69
411.95	1742.82
412.15	1722.34
412.36	1736.68
412.57	1685.48
412.77	1708.01
412.98	1710.05
413.19	1669.09
413.39	1732.58
413.60	1658.85
413.81	1794.02
414.01	1701.86
414.22	1787.88
414.43	1638.38
414.63	1660.90
414.84	1808.36
415.05	1708.01
415.25	1640.42
415.46	1724.39
415.67	1671.14
415.87	1728.49
416.08	1671.14
416.29	1640.42
416.49	1634.28
416.70	1665.00
416.91	1640.42
417.11	1669.09
417.32	1730.53
417.53	1742.82
417.73	1626.09
417.94	1697.77
418.15	1714.15
418.35	1732.58
418.56	1701.86
418.77	1869.80
418.97	1665.00
419.18	1761.25
419.38	1589.22
419.59	1669.09
419.80	1847.27
420.00	1695.72
420.21	1691.62
420.42	1853.41
420.62	1665.00
420.83	1619.94
421.04	1648.61
421.24	1677.29
421.45	1781.73
421.65	1742.82
421.86	1732.58
422.07	1785.83
422.27	1658.85
422.48	1718.25
422.69	1607.66
422.89	1695.72
423.10	1593.32
423.30	1662.95
423.51	1687.53
423.72	1712.10
423.92	1730.53
424.13	1628.14
424.33	1710.05
424.54	1693.67
424.75	1722.34
424.95	1767.40
425.16	1820.64
425.36	1703.91
425.57	1755.11
425.78	1757.16
425.98	1693.67
426.19	1710.05
426.39	1626.09
426.60	1701.86
426.81	1802.21
427.01	1728.49
427.22	1632.23
427.42	1640.42
427.63	1574.89
427.83	1722.34
428.04	1765.35
428.25	1798.12
428.45	1722.34
428.66	1820.64
428.86	1638.38
429.07	1705.96
429.28	1662.95
429.48	1677.29
429.69	1665.00
429.89	1652.71
430.10	1624.04
430.30	1746.92
430.51	1773.54
430.71	1646.57
430.92	1671.14
431.13	1710.05
431.33	1779.68
431.54	1695.72
431.74	1757.16
431.95	1884.13
432.15	1632.23
432.36	1660.90
432.56	1771.49
432.77	1816.55
432.98	1816.55
433.18	1636.33
433.39	1658.85
433.59	1767.40
433.80	1832.93
434.00	1714.15
434.21	1705.96
434.41	1685.48
434.62	1867.75
434.82	1601.51
435.03	1652.71
435.23	1677.29
435.44	1591.27
435.64	1730.53
435.85	1671.14
436.06	1759.21
436.26	1714.15
436.47	1722.34
436.67	1669.09
436.88	1689.57
437.08	1710.05
437.29	1787.88
437.49	1740.77
437.70	1681.38
437.90	1718.25
438.11	1783.78
438.31	1761.25
438.52	1867.75
438.72	1849.32
438.93	1843.17
439.13	1783.78
439.34	1705.96
439.54	1736.68
439.75	1691.62
439.95	1767.40
440.16	1679.33
440.36	1775.59
440.57	1732.58
440.77	1724.39
440.98	1644.52
441.18	1773.54
441.39	1691.62
441.59	1642.47
441.80	1808.36
442.00	1710.05
442.21	1718.25
442.41	1662.95
442.62	1718.25
442.82	1628.14
443.02	1628.14
443.23	1775.59
443.43	1636.33
443.64	1777.64
443.84	1640.42
444.05	1761.25
444.25	1708.01
444.46	1701.86
444.66	1773.54
444.87	1808.36
445.07	1662.95
445.28	1699.81
445.48	1818.60
445.69	1783.78
445.89	1855.46
446.09	1828.84
446.30	2045.92
446.50	2674.65
446.71	3760.07
446.91	4278.21
447.12	4822.97
447.32	4808.63
447.53	4317.12
447.73	3878.85
447.93	3620.81
448.14	3299.28
448.34	3182.54
448.55	2953.17
448.75	2795.48
448.96	2654.17
449.16	2369.50
449.36	2310.11
449.57	2074.59
449.77	1988.58
449.98	1789.92
450.18	1816.55
450.39	1773.54
450.59	1755.11
450.79	1720.29
451.00	1624.04
451.20	1746.92
451.41	1665.00
451.61	1767.40
451.81	1679.33
452.02	1699.81
452.22	1740.77
452.43	1714.15
452.63	1660.90
