SpectraSuite Data File
++++++++++++++++++++++++++++++++++++
Date: Mon Jun 06 13:54:57 CEST 2016
User: root
Dark Spectrum Present: No
Reference Spectrum Present: No
Number of Sampled Component Spectra: 1
Spectrometers: USB4C02835
Integration Time (usec): 100000 (USB4C02835)
Spectra Averaged: 1 (USB4C02835)
Boxcar Smoothing: 0 (USB4C02835)
Correct for Electrical Dark: No (USB4C02835)
Strobe/Lamp Enabled: No (USB4C02835)
Correct for Detector Non-linearity: No (USB4C02835)
Correct for Stray Light: No (USB4C02835)
Number of Pixels in Processed Spectrum: 3648
>>>>>Begin Processed Spectral Data<<<<<
177.47	1499.11
177.69	1499.11
177.91	1499.11
178.13	1490.92
178.36	1443.82
178.58	1613.80
178.80	1740.77
179.02	1550.31
179.24	1591.27
179.46	1660.90
179.68	1763.30
179.90	1648.61
180.13	1720.29
180.35	1667.05
180.57	1736.68
180.79	1734.63
181.01	1708.01
181.23	1691.62
181.45	1763.30
181.67	1630.18
181.90	1767.40
182.12	1652.71
182.34	1652.71
182.56	1746.92
182.78	1810.40
183.00	1646.57
183.22	1685.48
183.44	1605.61
183.66	1888.23
183.89	1742.82
184.11	1683.43
184.33	1630.18
184.55	1761.25
184.77	1703.91
184.99	1673.19
185.21	1660.90
185.43	1812.45
185.65	1662.95
185.87	1648.61
186.10	1816.55
186.32	1849.32
186.54	1712.10
186.76	1679.33
186.98	1785.83
187.20	1665.00
187.42	1656.81
187.64	1730.53
187.86	1681.38
188.08	1726.44
188.30	1689.57
188.52	1665.00
188.75	1738.73
188.97	1705.96
189.19	1648.61
189.41	1671.14
189.63	1669.09
189.85	1701.86
190.07	1636.33
190.29	1638.38
190.51	1785.83
190.73	1642.47
190.95	1783.78
191.17	1693.67
191.39	1581.03
191.61	1724.39
191.84	1671.14
192.06	1775.59
192.28	1617.90
192.50	1906.66
192.72	1712.10
192.94	1693.67
193.16	1757.16
193.38	1689.57
193.60	1681.38
193.82	1722.34
194.04	1789.92
194.26	1669.09
194.48	1665.00
194.70	1683.43
194.92	1585.13
195.14	1783.78
195.36	1626.09
195.58	1718.25
195.80	1787.88
196.02	1650.66
196.24	1705.96
196.46	1740.77
196.69	1669.09
196.91	1822.69
197.13	1718.25
197.35	1605.61
197.57	1767.40
197.79	1773.54
198.01	1742.82
198.23	1724.39
198.45	1681.38
198.67	1648.61
198.89	1630.18
199.11	1701.86
199.33	1597.42
199.55	1638.38
199.77	1638.38
199.99	1755.11
200.21	1589.22
200.43	1736.68
200.65	1621.99
200.87	1560.55
201.09	1693.67
201.31	1689.57
201.53	1757.16
201.75	1734.63
201.97	1740.77
202.19	1701.86
202.41	1689.57
202.63	1839.08
202.85	1687.53
203.07	1667.05
203.29	1677.29
203.51	1701.86
203.73	1703.91
203.95	1855.46
204.17	1685.48
204.39	1714.15
204.61	1765.35
204.83	1726.44
205.05	1710.05
205.27	1724.39
205.49	1763.30
205.71	1738.73
205.93	1619.94
206.15	1697.77
206.37	1652.71
206.59	1703.91
206.81	1613.80
207.03	1685.48
207.25	1710.05
207.47	1701.86
207.69	1736.68
207.91	1765.35
208.13	1808.36
208.34	1591.27
208.56	1705.96
208.78	1667.05
209.00	1689.57
209.22	1650.66
209.44	1687.53
209.66	1683.43
209.88	1658.85
210.10	1687.53
210.32	1675.24
210.54	1759.21
210.76	1644.52
210.98	1787.88
211.20	1583.08
211.42	1722.34
211.64	1748.97
211.86	1699.81
212.08	1669.09
212.30	1777.64
212.52	1746.92
212.74	1677.29
212.96	1646.57
213.17	1759.21
213.39	1714.15
213.61	1753.06
213.83	1769.44
214.05	1683.43
214.27	1697.77
214.49	1673.19
214.71	1716.20
214.93	1824.74
215.15	1728.49
215.37	1705.96
215.59	1695.72
215.81	1724.39
216.03	1800.16
216.24	1671.14
216.46	1689.57
216.68	1742.82
216.90	1757.16
217.12	1701.86
217.34	1665.00
217.56	1718.25
217.78	1716.20
218.00	1714.15
218.22	1701.86
218.44	1705.96
218.66	1644.52
218.87	1761.25
219.09	1683.43
219.31	1665.00
219.53	1716.20
219.75	1636.33
219.97	1640.42
220.19	1728.49
220.41	1669.09
220.63	1785.83
220.85	1662.95
221.06	1710.05
221.28	1689.57
221.50	1705.96
221.72	1722.34
221.94	1691.62
222.16	1681.38
222.38	1697.77
222.60	1759.21
222.82	1640.42
223.03	1781.73
223.25	1632.23
223.47	1765.35
223.69	1767.40
223.91	1767.40
224.13	1703.91
224.35	1695.72
224.57	1763.30
224.78	1683.43
225.00	1656.81
225.22	1650.66
225.44	1681.38
225.66	1746.92
225.88	1658.85
226.10	1794.02
226.32	1757.16
226.53	1724.39
226.75	1720.29
226.97	1701.86
227.19	1697.77
227.41	1781.73
227.63	1710.05
227.85	1691.62
228.06	1685.48
228.28	1689.57
228.50	1775.59
228.72	1607.66
228.94	1626.09
229.16	1644.52
229.37	1673.19
229.59	1675.24
229.81	1794.02
230.03	1683.43
230.25	1593.32
230.47	1628.14
230.69	1630.18
230.90	1648.61
231.12	1660.90
231.34	1720.29
231.56	1730.53
231.78	1593.32
232.00	1716.20
232.21	1722.34
232.43	1628.14
232.65	1603.56
232.87	1718.25
233.09	1683.43
233.30	1724.39
233.52	1695.72
233.74	1687.53
233.96	1660.90
234.18	1757.16
234.40	1687.53
234.61	1880.04
234.83	1677.29
235.05	1675.24
235.27	1832.93
235.49	1802.21
235.70	1697.77
235.92	1767.40
236.14	1665.00
236.36	1734.63
236.58	1595.37
236.79	1667.05
237.01	1634.28
237.23	1673.19
237.45	1814.50
237.67	1685.48
237.88	1769.44
238.10	1789.92
238.32	1609.70
238.54	1742.82
238.76	1785.83
238.97	1611.75
239.19	1667.05
239.41	1857.51
239.63	1689.57
239.85	1638.38
240.06	1652.71
240.28	1673.19
240.50	1763.30
240.72	1767.40
240.93	1654.76
241.15	1773.54
241.37	1742.82
241.59	1787.88
241.81	1697.77
242.02	1669.09
242.24	1701.86
242.46	1673.19
242.68	1595.37
242.89	1767.40
243.11	1687.53
243.33	1740.77
243.55	1708.01
243.76	1841.12
243.98	1710.05
244.20	1673.19
244.42	1683.43
244.64	1710.05
244.85	1654.76
245.07	1650.66
245.29	1720.29
245.51	1581.03
245.72	1683.43
245.94	1712.10
246.16	1683.43
246.38	1693.67
246.59	1701.86
246.81	1656.81
247.03	1578.98
247.24	1630.18
247.46	1646.57
247.68	1699.81
247.90	1667.05
248.11	1691.62
248.33	1791.97
248.55	1648.61
248.77	1744.87
248.98	1757.16
249.20	1777.64
249.42	1677.29
249.64	1689.57
249.85	1665.00
250.07	1624.04
250.29	1742.82
250.50	1759.21
250.72	1667.05
250.94	1728.49
251.16	1796.07
251.37	1734.63
251.59	1769.44
251.81	1718.25
252.02	1734.63
252.24	1640.42
252.46	1800.16
252.68	1736.68
252.89	1724.39
253.11	1533.93
253.33	1796.07
253.54	1800.16
253.76	1544.17
253.98	1677.29
254.20	1720.29
254.41	1669.09
254.63	1785.83
254.85	1660.90
255.06	1753.06
255.28	1746.92
255.50	1714.15
255.71	1636.33
255.93	1644.52
256.15	1652.71
256.36	1689.57
256.58	1710.05
256.80	1761.25
257.02	1705.96
257.23	1720.29
257.45	1755.11
257.67	1810.40
257.88	1669.09
258.10	1755.11
258.32	1679.33
258.53	1732.58
258.75	1789.92
258.97	1648.61
259.18	1740.77
259.40	1746.92
259.62	1820.64
259.83	1841.12
260.05	1775.59
260.27	1947.62
260.48	1740.77
260.70	1636.33
260.92	1611.75
261.13	1738.73
261.35	1716.20
261.57	1697.77
261.78	1583.08
262.00	1640.42
262.22	1767.40
262.43	1685.48
262.65	1710.05
262.86	1683.43
263.08	1812.45
263.30	1665.00
263.51	1634.28
263.73	1677.29
263.95	1802.21
264.16	1646.57
264.38	1677.29
264.60	1658.85
264.81	1687.53
265.03	1763.30
265.25	1648.61
265.46	1710.05
265.68	1791.97
265.89	1693.67
266.11	1597.42
266.33	1710.05
266.54	1708.01
266.76	1693.67
266.98	1705.96
267.19	1791.97
267.41	1728.49
267.62	1785.83
267.84	1673.19
268.06	1697.77
268.27	1701.86
268.49	1732.58
268.70	1744.87
268.92	1609.70
269.14	1636.33
269.35	1621.99
269.57	1689.57
269.79	1708.01
270.00	1669.09
270.22	1724.39
270.43	1626.09
270.65	1581.03
270.87	1624.04
271.08	1697.77
271.30	1761.25
271.51	1738.73
271.73	1794.02
271.95	1810.40
272.16	1658.85
272.38	1681.38
272.59	1613.80
272.81	1710.05
273.02	1732.58
273.24	1746.92
273.46	1767.40
273.67	1615.85
273.89	1714.15
274.10	1701.86
274.32	1728.49
274.54	1683.43
274.75	1710.05
274.97	1722.34
275.18	1716.20
275.40	1734.63
275.61	1705.96
275.83	1675.24
276.05	1638.38
276.26	1736.68
276.48	1695.72
276.69	1673.19
276.91	1652.71
277.12	1869.80
277.34	1806.31
277.55	1845.22
277.77	1757.16
277.99	1607.66
278.20	1634.28
278.42	1746.92
278.63	1599.46
278.85	1673.19
279.06	1593.32
279.28	1742.82
279.49	1742.82
279.71	1685.48
279.93	1716.20
280.14	1665.00
280.36	1642.47
280.57	1771.49
280.79	1744.87
281.00	1701.86
281.22	1642.47
281.43	1734.63
281.65	1544.17
281.86	1699.81
282.08	1736.68
282.29	1900.52
282.51	1587.18
282.73	1656.81
282.94	1611.75
283.16	1720.29
283.37	1834.98
283.59	1693.67
283.80	1712.10
284.02	1705.96
284.23	1763.30
284.45	1665.00
284.66	1671.14
284.88	1615.85
285.09	1771.49
285.31	1744.87
285.52	1648.61
285.74	1597.42
285.95	1800.16
286.17	1681.38
286.38	1744.87
286.60	1650.66
286.81	1642.47
287.03	1619.94
287.24	1673.19
287.46	1755.11
287.67	1773.54
287.89	1826.79
288.10	1722.34
288.32	1648.61
288.53	1781.73
288.75	1679.33
288.96	1753.06
289.18	1644.52
289.39	1736.68
289.61	1732.58
289.82	1841.12
290.04	1820.64
290.25	1693.67
290.47	1765.35
290.68	1615.85
290.90	1671.14
291.11	1593.32
291.33	1730.53
291.54	1652.71
291.76	1671.14
291.97	1654.76
292.18	1677.29
292.40	1605.61
292.61	1621.99
292.83	1755.11
293.04	1644.52
293.26	1667.05
293.47	1615.85
293.69	1701.86
293.90	1642.47
294.12	1759.21
294.33	1667.05
294.55	1658.85
294.76	1667.05
294.97	1763.30
295.19	1789.92
295.40	1669.09
295.62	1730.53
295.83	1687.53
296.05	1681.38
296.26	1837.03
296.48	1644.52
296.69	1611.75
296.90	1755.11
297.12	1730.53
297.33	1763.30
297.55	1718.25
297.76	1697.77
297.98	1744.87
298.19	1697.77
298.41	1744.87
298.62	1669.09
298.83	1804.26
299.05	1685.48
299.26	1671.14
299.48	1732.58
299.69	1660.90
299.90	1703.91
300.12	1638.38
300.33	1798.12
300.55	1765.35
300.76	1761.25
300.98	1701.86
301.19	1716.20
301.40	1652.71
301.62	1685.48
301.83	1757.16
302.05	1720.29
302.26	1724.39
302.47	1689.57
302.69	1626.09
302.90	1611.75
303.12	1701.86
303.33	1796.07
303.54	1757.16
303.76	1642.47
303.97	1714.15
304.19	1832.93
304.40	1650.66
304.61	1789.92
304.83	1755.11
305.04	1708.01
305.26	1701.86
305.47	1656.81
305.68	1671.14
305.90	1568.74
306.11	1804.26
306.33	1724.39
306.54	1640.42
306.75	1621.99
306.97	1636.33
307.18	1619.94
307.39	1632.23
307.61	1759.21
307.82	1746.92
308.04	1681.38
308.25	1591.27
308.46	1699.81
308.68	1697.77
308.89	1621.99
309.10	1779.68
309.32	1765.35
309.53	1662.95
309.74	1699.81
309.96	1728.49
310.17	1781.73
310.39	1665.00
310.60	1746.92
310.81	1730.53
311.03	1630.18
311.24	1787.88
311.45	1687.53
311.67	1863.65
311.88	1767.40
312.09	1679.33
312.31	1763.30
312.52	1695.72
312.73	1714.15
312.95	1736.68
313.16	1681.38
313.37	1773.54
313.59	1738.73
313.80	1755.11
314.01	1818.60
314.23	1691.62
314.44	1640.42
314.65	1601.51
314.87	1585.13
315.08	1679.33
315.29	1673.19
315.51	1611.75
315.72	1564.65
315.93	1767.40
316.15	1820.64
316.36	1658.85
316.57	1697.77
316.79	1804.26
317.00	1626.09
317.21	1691.62
317.43	1763.30
317.64	1644.52
317.85	1654.76
318.07	1605.61
318.28	1724.39
318.49	1826.79
318.70	1894.37
318.92	1894.37
319.13	1839.08
319.34	1845.22
319.56	1775.59
319.77	1748.97
319.98	1837.03
320.20	1804.26
320.41	1718.25
320.62	1695.72
320.83	1613.80
321.05	1841.12
321.26	1716.20
321.47	1724.39
321.69	1857.51
321.90	1626.09
322.11	1714.15
322.32	1703.91
322.54	1773.54
322.75	1722.34
322.96	1857.51
323.18	1642.47
323.39	1632.23
323.60	1619.94
323.81	1779.68
324.03	1677.29
324.24	1652.71
324.45	1705.96
324.66	1667.05
324.88	1679.33
325.09	1746.92
325.30	1724.39
325.52	1705.96
325.73	1738.73
325.94	1650.66
326.15	1562.60
326.37	1675.24
326.58	1734.63
326.79	1796.07
327.00	1603.56
327.22	1708.01
327.43	1660.90
327.64	1687.53
327.85	1720.29
328.07	1775.59
328.28	1789.92
328.49	1624.04
328.70	1748.97
328.92	1619.94
329.13	1705.96
329.34	1791.97
329.55	1759.21
329.76	1841.12
329.98	1671.14
330.19	1755.11
330.40	1652.71
330.61	1728.49
330.83	1781.73
331.04	1679.33
331.25	1665.00
331.46	1726.44
331.68	1753.06
331.89	1767.40
332.10	1734.63
332.31	1650.66
332.52	1693.67
332.74	1779.68
332.95	1583.08
333.16	1632.23
333.37	1736.68
333.58	1660.90
333.80	1722.34
334.01	1576.94
334.22	1687.53
334.43	1652.71
334.64	1681.38
334.86	1638.38
335.07	1679.33
335.28	1748.97
335.49	1621.99
335.70	1705.96
335.92	1693.67
336.13	1869.80
336.34	1785.83
336.55	1603.56
336.76	1675.24
336.98	1576.94
337.19	1701.86
337.40	1763.30
337.61	1898.47
337.82	1691.62
338.04	1732.58
338.25	1601.51
338.46	1734.63
338.67	1699.81
338.88	1636.33
339.09	1697.77
339.31	1644.52
339.52	1642.47
339.73	1662.95
339.94	1636.33
340.15	1781.73
340.36	1712.10
340.58	1685.48
340.79	1677.29
341.00	1751.01
341.21	1644.52
341.42	1832.93
341.63	1710.05
341.85	1753.06
342.06	1722.34
342.27	1621.99
342.48	1755.11
342.69	1671.14
342.90	1726.44
343.12	1761.25
343.33	1681.38
343.54	1773.54
343.75	1757.16
343.96	1636.33
344.17	1609.70
344.38	1720.29
344.60	1689.57
344.81	1581.03
345.02	1730.53
345.23	1695.72
345.44	1755.11
345.65	1722.34
345.86	1771.49
346.07	1720.29
346.29	1630.18
346.50	1689.57
346.71	1744.87
346.92	1746.92
347.13	1787.88
347.34	1677.29
347.55	1683.43
347.76	1773.54
347.98	1624.04
348.19	1714.15
348.40	1781.73
348.61	1681.38
348.82	1808.36
349.03	1761.25
349.24	1613.80
349.45	1834.98
349.66	1632.23
349.88	1693.67
350.09	1656.81
350.30	1763.30
350.51	1728.49
350.72	1757.16
350.93	1753.06
351.14	1728.49
351.35	1675.24
351.56	1677.29
351.77	1714.15
351.99	1689.57
352.20	1820.64
352.41	1720.29
352.62	1697.77
352.83	1646.57
353.04	1691.62
353.25	1748.97
353.46	1685.48
353.67	1742.82
353.88	1570.79
354.09	1726.44
354.30	1658.85
354.52	1789.92
354.73	1654.76
354.94	1691.62
355.15	1730.53
355.36	1834.98
355.57	1730.53
355.78	1701.86
355.99	1720.29
356.20	1736.68
356.41	1763.30
356.62	1726.44
356.83	1740.77
357.04	1789.92
357.25	1677.29
357.46	1624.04
357.68	1675.24
357.89	1609.70
358.10	1660.90
358.31	1679.33
358.52	1660.90
358.73	1554.41
358.94	1585.13
359.15	1714.15
359.36	1744.87
359.57	1693.67
359.78	1734.63
359.99	1742.82
360.20	1628.14
360.41	1669.09
360.62	1716.20
360.83	1728.49
361.04	1650.66
361.25	1740.77
361.46	1746.92
361.67	1710.05
361.88	1791.97
362.09	1734.63
362.30	1757.16
362.51	1681.38
362.72	1665.00
362.93	1755.11
363.14	1710.05
363.35	1718.25
363.56	1613.80
363.78	1710.05
363.99	1714.15
364.20	1662.95
364.41	1640.42
364.62	1746.92
364.83	1632.23
365.04	1771.49
365.25	1628.14
365.46	1851.36
365.67	1609.70
365.88	1642.47
366.09	1708.01
366.30	1710.05
366.51	1705.96
366.72	1687.53
366.93	1624.04
367.14	1714.15
367.35	1712.10
367.56	1669.09
367.77	1796.07
367.98	1671.14
368.18	1763.30
368.39	1755.11
368.60	1658.85
368.81	1783.78
369.02	1728.49
369.23	1718.25
369.44	1648.61
369.65	1644.52
369.86	1726.44
370.07	1712.10
370.28	1712.10
370.49	1728.49
370.70	1667.05
370.91	1658.85
371.12	1605.61
371.33	1691.62
371.54	1691.62
371.75	1714.15
371.96	1581.03
372.17	1701.86
372.38	1679.33
372.59	1738.73
372.80	1677.29
373.01	1681.38
373.22	1634.28
373.43	1693.67
373.64	1640.42
373.85	1814.50
374.06	1796.07
374.26	1765.35
374.47	1681.38
374.68	1755.11
374.89	1757.16
375.10	1726.44
375.31	1787.88
375.52	1636.33
375.73	1687.53
375.94	1591.27
376.15	1886.18
376.36	1677.29
376.57	1669.09
376.78	1644.52
376.99	1763.30
377.20	1751.01
377.40	1617.90
377.61	1904.61
377.82	1665.00
378.03	1820.64
378.24	1724.39
378.45	1701.86
378.66	1685.48
378.87	1599.46
379.08	1667.05
379.29	1738.73
379.50	1724.39
379.71	1665.00
379.91	1748.97
380.12	1632.23
380.33	1748.97
380.54	1642.47
380.75	1632.23
380.96	1677.29
381.17	1726.44
381.38	1710.05
381.59	1779.68
381.80	1681.38
382.00	1861.60
382.21	1728.49
382.42	1802.21
382.63	1853.41
382.84	1767.40
383.05	1781.73
383.26	1794.02
383.47	1767.40
383.68	1757.16
383.88	1697.77
384.09	1748.97
384.30	1800.16
384.51	1751.01
384.72	1736.68
384.93	1628.14
385.14	1757.16
385.35	1798.12
385.55	1730.53
385.76	1722.34
385.97	1701.86
386.18	1691.62
386.39	1626.09
386.60	1640.42
386.81	1734.63
387.02	1630.18
387.22	1673.19
387.43	1812.45
387.64	1847.27
387.85	1828.84
388.06	2230.24
388.27	4300.73
388.48	6770.58
388.68	8279.94
388.89	9650.03
389.10	9676.65
389.31	8814.46
389.52	7538.57
389.73	6635.42
389.93	6238.11
390.14	5863.33
390.35	5169.07
390.56	4556.73
390.77	3903.43
390.98	3022.80
391.18	2541.53
391.39	2123.74
391.60	1824.74
391.81	1896.42
392.02	1744.87
392.23	1783.78
392.43	1732.58
392.64	1759.21
392.85	1673.19
393.06	1843.17
393.27	1757.16
393.47	1650.66
393.68	1695.72
393.89	1679.33
394.10	1812.45
394.31	1687.53
394.52	1687.53
394.72	1712.10
394.93	1728.49
395.14	1748.97
395.35	1687.53
395.56	1755.11
395.76	1794.02
395.97	1791.97
396.18	1798.12
396.39	1787.88
396.60	1959.91
396.80	1923.04
397.01	1804.26
397.22	1804.26
397.43	1753.06
397.64	1734.63
397.84	1671.14
398.05	1873.89
398.26	1726.44
398.47	1775.59
398.67	1703.91
398.88	1699.81
399.09	1710.05
399.30	1705.96
399.51	1761.25
399.71	1701.86
399.92	1671.14
400.13	1748.97
400.34	1728.49
400.54	1716.20
400.75	1736.68
400.96	1738.73
401.17	1726.44
401.37	1679.33
401.58	1685.48
401.79	1701.86
402.00	1894.37
402.21	2013.15
402.41	1871.84
402.62	1986.53
402.83	2093.02
403.04	1920.99
403.24	2019.30
403.45	1867.75
403.66	1906.66
403.87	1916.90
404.07	1845.22
404.28	1804.26
404.49	1843.17
404.70	1767.40
404.90	1740.77
405.11	1718.25
405.32	1701.86
405.52	1738.73
405.73	1669.09
405.94	1687.53
406.15	1683.43
406.35	1677.29
406.56	1714.15
406.77	1730.53
406.98	1763.30
407.18	1619.94
407.39	1783.78
407.60	1689.57
407.80	1714.15
408.01	1685.48
408.22	1736.68
408.43	1660.90
408.63	1736.68
408.84	1736.68
409.05	1814.50
409.25	1662.95
409.46	1660.90
409.67	1675.24
409.88	1697.77
410.08	1708.01
410.29	1640.42
410.50	1718.25
410.70	1757.16
410.91	1671.14
411.12	1716.20
411.32	1662.95
411.53	1640.42
411.74	1802.21
411.95	1771.49
412.15	1746.92
412.36	1689.57
412.57	1701.86
412.77	1814.50
412.98	1669.09
413.19	1708.01
413.39	1722.34
413.60	1746.92
413.81	1804.26
414.01	1660.90
414.22	1710.05
414.43	1724.39
414.63	1665.00
414.84	1724.39
415.05	1638.38
415.25	1624.04
415.46	1816.55
415.67	1697.77
415.87	1726.44
416.08	1683.43
416.29	1689.57
416.49	1755.11
416.70	1716.20
416.91	1683.43
417.11	1660.90
417.32	1716.20
417.53	1820.64
417.73	1720.29
417.94	1820.64
418.15	1779.68
418.35	1726.44
418.56	1689.57
418.77	1814.50
418.97	1632.23
419.18	1626.09
419.38	1574.89
419.59	1617.90
419.80	1757.16
420.00	1644.52
420.21	1765.35
420.42	1818.60
420.62	1699.81
420.83	1665.00
421.04	1701.86
421.24	1685.48
421.45	1722.34
421.65	1746.92
421.86	1650.66
422.07	1732.58
422.27	1738.73
422.48	1695.72
422.69	1650.66
422.89	1716.20
423.10	1636.33
423.30	1574.89
423.51	1730.53
423.72	1722.34
423.92	1759.21
424.13	1687.53
424.33	1757.16
424.54	1738.73
424.75	1767.40
424.95	1806.31
425.16	1679.33
425.36	1744.87
425.57	1763.30
425.78	1681.38
425.98	1722.34
426.19	1660.90
426.39	1714.15
426.60	1755.11
426.81	1757.16
427.01	1669.09
427.22	1630.18
427.42	1601.51
427.63	1652.71
427.83	1724.39
428.04	1814.50
428.25	1771.49
428.45	1779.68
428.66	1796.07
428.86	1798.12
429.07	1617.90
429.28	1619.94
429.48	1699.81
429.69	1587.18
429.89	1708.01
430.10	1669.09
430.30	1753.06
430.51	1812.45
430.71	1697.77
430.92	1665.00
431.13	1679.33
431.33	1751.01
431.54	1705.96
431.74	1837.03
431.95	1812.45
432.15	1574.89
432.36	1683.43
432.56	1714.15
432.77	1806.31
432.98	1744.87
433.18	1705.96
433.39	1701.86
433.59	1689.57
433.80	1781.73
434.00	1834.98
434.21	1681.38
434.41	1648.61
434.62	1796.07
434.82	1683.43
435.03	1630.18
435.23	1671.14
435.44	1607.66
435.64	1712.10
435.85	1703.91
436.06	1716.20
436.26	1837.03
436.47	1722.34
436.67	1689.57
436.88	1718.25
437.08	1755.11
437.29	1794.02
437.49	1738.73
437.70	1759.21
437.90	1683.43
438.11	1798.12
438.31	1794.02
438.52	1810.40
438.72	1857.51
438.93	1966.05
439.13	1791.97
439.34	1751.01
439.54	1787.88
439.75	1763.30
439.95	1718.25
440.16	1683.43
440.36	1714.15
440.57	1751.01
440.77	1773.54
440.98	1669.09
441.18	1794.02
441.39	1632.23
441.59	1687.53
441.80	1779.68
442.00	1724.39
442.21	1781.73
442.41	1701.86
442.62	1765.35
442.82	1673.19
443.02	1812.45
443.23	1683.43
443.43	1703.91
443.64	1765.35
443.84	1734.63
444.05	1775.59
444.25	1791.97
444.46	1673.19
444.66	1718.25
444.87	1806.31
445.07	1630.18
445.28	1718.25
445.48	1769.44
445.69	1734.63
445.89	1800.16
446.09	1740.77
446.30	1961.95
446.50	2500.57
446.71	3631.05
446.91	4325.31
447.12	4777.91
447.32	4759.48
447.53	4392.89
447.73	3932.10
447.93	3540.94
448.14	3276.75
448.34	3248.08
448.55	2926.55
448.75	2828.24
448.96	2633.69
449.16	2461.66
449.36	2234.33
449.57	2009.06
449.77	1810.40
449.98	1767.40
450.18	1808.36
450.39	1822.69
450.59	1734.63
450.79	1708.01
451.00	1705.96
451.20	1816.55
451.41	1734.63
451.61	1775.59
451.81	1755.11
452.02	1701.86
452.22	1701.86
452.43	1673.19
452.63	1681.38
