SpectraSuite Data File
++++++++++++++++++++++++++++++++++++
Date: Mon Jun 06 14:18:17 CEST 2016
User: root
Dark Spectrum Present: No
Reference Spectrum Present: No
Number of Sampled Component Spectra: 1
Spectrometers: USB4C02835
Integration Time (usec): 100000 (USB4C02835)
Spectra Averaged: 1 (USB4C02835)
Boxcar Smoothing: 0 (USB4C02835)
Correct for Electrical Dark: No (USB4C02835)
Strobe/Lamp Enabled: No (USB4C02835)
Correct for Detector Non-linearity: No (USB4C02835)
Correct for Stray Light: No (USB4C02835)
Number of Pixels in Processed Spectrum: 3648
>>>>>Begin Processed Spectral Data<<<<<
177.47	1492.97
177.69	1492.97
177.91	1492.97
178.13	1499.11
178.36	1458.15
178.58	1640.42
178.80	1720.29
179.02	1687.53
179.24	1667.05
179.46	1642.47
179.68	1748.97
179.90	1677.29
180.13	1695.72
180.35	1671.14
180.57	1648.61
180.79	1740.77
181.01	1746.92
181.23	1742.82
181.45	1816.55
181.67	1701.86
181.90	1722.34
182.12	1619.94
182.34	1615.85
182.56	1798.12
182.78	1744.87
183.00	1730.53
183.22	1714.15
183.44	1611.75
183.66	1804.26
183.89	1775.59
184.11	1736.68
184.33	1703.91
184.55	1781.73
184.77	1781.73
184.99	1783.78
185.21	1656.81
185.43	1849.32
185.65	1681.38
185.87	1699.81
186.10	1822.69
186.32	1867.75
186.54	1740.77
186.76	1738.73
186.98	1775.59
187.20	1730.53
187.42	1650.66
187.64	1751.01
187.86	1693.67
188.08	1742.82
188.30	1728.49
188.52	1753.06
188.75	1738.73
188.97	1757.16
189.19	1665.00
189.41	1646.57
189.63	1726.44
189.85	1591.27
190.07	1611.75
190.29	1540.07
190.51	1748.97
190.73	1638.38
190.95	1722.34
191.17	1755.11
191.39	1572.84
191.61	1730.53
191.84	1722.34
192.06	1783.78
192.28	1638.38
192.50	1863.65
192.72	1734.63
192.94	1726.44
193.16	1759.21
193.38	1701.86
193.60	1628.14
193.82	1624.04
194.04	1798.12
194.26	1748.97
194.48	1746.92
194.70	1585.13
194.92	1708.01
195.14	1734.63
195.36	1621.99
195.58	1703.91
195.80	1654.76
196.02	1673.19
196.24	1621.99
196.46	1699.81
196.69	1669.09
196.91	1839.08
197.13	1658.85
197.35	1640.42
197.57	1763.30
197.79	1753.06
198.01	1753.06
198.23	1687.53
198.45	1779.68
198.67	1716.20
198.89	1726.44
199.11	1705.96
199.33	1689.57
199.55	1609.70
199.77	1714.15
199.99	1751.01
200.21	1687.53
200.43	1777.64
200.65	1574.89
200.87	1593.32
201.09	1722.34
201.31	1685.48
201.53	1705.96
201.75	1656.81
201.97	1742.82
202.19	1638.38
202.41	1755.11
202.63	1765.35
202.85	1697.77
203.07	1699.81
203.29	1673.19
203.51	1632.23
203.73	1599.46
203.95	1826.79
204.17	1771.49
204.39	1681.38
204.61	1773.54
204.83	1636.33
205.05	1748.97
205.27	1728.49
205.49	1865.70
205.71	1685.48
205.93	1615.85
206.15	1765.35
206.37	1615.85
206.59	1697.77
206.81	1607.66
207.03	1581.03
207.25	1673.19
207.47	1810.40
207.69	1744.87
207.91	1802.21
208.13	1746.92
208.34	1718.25
208.56	1665.00
208.78	1753.06
209.00	1591.27
209.22	1679.33
209.44	1675.24
209.66	1705.96
209.88	1697.77
210.10	1636.33
210.32	1728.49
210.54	1791.97
210.76	1673.19
210.98	1724.39
211.20	1587.18
211.42	1687.53
211.64	1748.97
211.86	1673.19
212.08	1738.73
212.30	1695.72
212.52	1683.43
212.74	1710.05
212.96	1748.97
213.17	1767.40
213.39	1691.62
213.61	1806.31
213.83	1732.58
214.05	1673.19
214.27	1734.63
214.49	1730.53
214.71	1662.95
214.93	1771.49
215.15	1708.01
215.37	1730.53
215.59	1578.98
215.81	1736.68
216.03	1877.99
216.24	1638.38
216.46	1722.34
216.68	1699.81
216.90	1708.01
217.12	1714.15
217.34	1654.76
217.56	1685.48
217.78	1689.57
218.00	1685.48
218.22	1767.40
218.44	1734.63
218.66	1751.01
218.87	1808.36
219.09	1671.14
219.31	1714.15
219.53	1675.24
219.75	1736.68
219.97	1699.81
220.19	1708.01
220.41	1710.05
220.63	1716.20
220.85	1740.77
221.06	1638.38
221.28	1798.12
221.50	1722.34
221.72	1714.15
221.94	1673.19
222.16	1771.49
222.38	1800.16
222.60	1757.16
222.82	1697.77
223.03	1714.15
223.25	1656.81
223.47	1781.73
223.69	1849.32
223.91	1828.84
224.13	1765.35
224.35	1673.19
224.57	1781.73
224.78	1714.15
225.00	1738.73
225.22	1714.15
225.44	1675.24
225.66	1695.72
225.88	1689.57
226.10	1732.58
226.32	1677.29
226.53	1761.25
226.75	1656.81
226.97	1685.48
227.19	1740.77
227.41	1669.09
227.63	1675.24
227.85	1574.89
228.06	1701.86
228.28	1693.67
228.50	1791.97
228.72	1714.15
228.94	1644.52
229.16	1662.95
229.37	1638.38
229.59	1615.85
229.81	1763.30
230.03	1705.96
230.25	1607.66
230.47	1624.04
230.69	1595.37
230.90	1701.86
231.12	1667.05
231.34	1736.68
231.56	1748.97
231.78	1599.46
232.00	1683.43
232.21	1714.15
232.43	1701.86
232.65	1611.75
232.87	1681.38
233.09	1683.43
233.30	1732.58
233.52	1800.16
233.74	1736.68
233.96	1673.19
234.18	1669.09
234.40	1619.94
234.61	1800.16
234.83	1578.98
235.05	1724.39
235.27	1763.30
235.49	1818.60
235.70	1726.44
235.92	1847.27
236.14	1701.86
236.36	1740.77
236.58	1656.81
236.79	1775.59
237.01	1685.48
237.23	1665.00
237.45	1857.51
237.67	1640.42
237.88	1714.15
238.10	1832.93
238.32	1599.46
238.54	1691.62
238.76	1665.00
238.97	1677.29
239.19	1624.04
239.41	1738.73
239.63	1751.01
239.85	1726.44
240.06	1701.86
240.28	1632.23
240.50	1742.82
240.72	1718.25
240.93	1716.20
241.15	1785.83
241.37	1656.81
241.59	1748.97
241.81	1728.49
242.02	1615.85
242.24	1759.21
242.46	1724.39
242.68	1691.62
242.89	1779.68
243.11	1714.15
243.33	1665.00
243.55	1703.91
243.76	1789.92
243.98	1728.49
244.20	1681.38
244.42	1687.53
244.64	1646.57
244.85	1660.90
245.07	1667.05
245.29	1734.63
245.51	1724.39
245.72	1693.67
245.94	1744.87
246.16	1628.14
246.38	1728.49
246.59	1675.24
246.81	1640.42
247.03	1669.09
247.24	1544.17
247.46	1667.05
247.68	1757.16
247.90	1687.53
248.11	1705.96
248.33	1722.34
248.55	1705.96
248.77	1665.00
248.98	1712.10
249.20	1777.64
249.42	1708.01
249.64	1773.54
249.85	1648.61
250.07	1697.77
250.29	1773.54
250.50	1826.79
250.72	1656.81
250.94	1744.87
251.16	1857.51
251.37	1753.06
251.59	1701.86
251.81	1681.38
252.02	1744.87
252.24	1660.90
252.46	1767.40
252.68	1658.85
252.89	1728.49
253.11	1591.27
253.33	1875.94
253.54	1851.36
253.76	1603.56
253.98	1677.29
254.20	1726.44
254.41	1595.37
254.63	1644.52
254.85	1605.61
255.06	1728.49
255.28	1810.40
255.50	1665.00
255.71	1660.90
255.93	1591.27
256.15	1677.29
256.36	1673.19
256.58	1613.80
256.80	1724.39
257.02	1722.34
257.23	1681.38
257.45	1640.42
257.67	1697.77
257.88	1607.66
258.10	1722.34
258.32	1722.34
258.53	1775.59
258.75	1771.49
258.97	1705.96
259.18	1757.16
259.40	1722.34
259.62	1847.27
259.83	1734.63
260.05	1820.64
260.27	2052.06
260.48	1751.01
260.70	1619.94
260.92	1691.62
261.13	1687.53
261.35	1812.45
261.57	1681.38
261.78	1615.85
262.00	1595.37
262.22	1708.01
262.43	1593.32
262.65	1681.38
262.86	1665.00
263.08	1814.50
263.30	1738.73
263.51	1607.66
263.73	1681.38
263.95	1796.07
264.16	1671.14
264.38	1615.85
264.60	1738.73
264.81	1695.72
265.03	1847.27
265.25	1759.21
265.46	1730.53
265.68	1689.57
265.89	1738.73
266.11	1638.38
266.33	1746.92
266.54	1779.68
266.76	1724.39
266.98	1710.05
267.19	1810.40
267.41	1800.16
267.62	1708.01
267.84	1644.52
268.06	1767.40
268.27	1705.96
268.49	1773.54
268.70	1710.05
268.92	1802.21
269.14	1638.38
269.35	1650.66
269.57	1652.71
269.79	1640.42
270.00	1667.05
270.22	1714.15
270.43	1714.15
270.65	1599.46
270.87	1650.66
271.08	1691.62
271.30	1742.82
271.51	1679.33
271.73	1693.67
271.95	1755.11
272.16	1759.21
272.38	1683.43
272.59	1685.48
272.81	1722.34
273.02	1679.33
273.24	1669.09
273.46	1720.29
273.67	1621.99
273.89	1644.52
274.10	1632.23
274.32	1703.91
274.54	1744.87
274.75	1716.20
274.97	1703.91
275.18	1771.49
275.40	1759.21
275.61	1689.57
275.83	1656.81
276.05	1595.37
276.26	1656.81
276.48	1730.53
276.69	1714.15
276.91	1652.71
277.12	1787.88
277.34	1748.97
277.55	1716.20
277.77	1720.29
277.99	1636.33
278.20	1632.23
278.42	1695.72
278.63	1675.24
278.85	1720.29
279.06	1667.05
279.28	1669.09
279.49	1763.30
279.71	1714.15
279.93	1722.34
280.14	1687.53
280.36	1615.85
280.57	1818.60
280.79	1746.92
281.00	1628.14
281.22	1632.23
281.43	1843.17
281.65	1583.08
281.86	1708.01
282.08	1726.44
282.29	1796.07
282.51	1613.80
282.73	1675.24
282.94	1617.90
283.16	1779.68
283.37	1769.44
283.59	1699.81
283.80	1667.05
284.02	1632.23
284.23	1722.34
284.45	1665.00
284.66	1650.66
284.88	1677.29
285.09	1734.63
285.31	1669.09
285.52	1742.82
285.74	1638.38
285.95	1740.77
286.17	1681.38
286.38	1816.55
286.60	1679.33
286.81	1742.82
287.03	1695.72
287.24	1722.34
287.46	1783.78
287.67	1691.62
287.89	1812.45
288.10	1718.25
288.32	1710.05
288.53	1751.01
288.75	1699.81
288.96	1755.11
289.18	1677.29
289.39	1718.25
289.61	1839.08
289.82	1785.83
290.04	1726.44
290.25	1660.90
290.47	1695.72
290.68	1734.63
290.90	1714.15
291.11	1667.05
291.33	1843.17
291.54	1628.14
291.76	1669.09
291.97	1736.68
292.18	1730.53
292.40	1654.76
292.61	1595.37
292.83	1771.49
293.04	1751.01
293.26	1687.53
293.47	1626.09
293.69	1578.98
293.90	1781.73
294.12	1812.45
294.33	1705.96
294.55	1679.33
294.76	1765.35
294.97	1728.49
295.19	1769.44
295.40	1578.98
295.62	1703.91
295.83	1740.77
296.05	1677.29
296.26	1642.47
296.48	1705.96
296.69	1673.19
296.90	1726.44
297.12	1722.34
297.33	1796.07
297.55	1634.28
297.76	1744.87
297.98	1783.78
298.19	1646.57
298.41	1765.35
298.62	1640.42
298.83	1736.68
299.05	1640.42
299.26	1714.15
299.48	1619.94
299.69	1716.20
299.90	1798.12
300.12	1609.70
300.33	1687.53
300.55	1738.73
300.76	1826.79
300.98	1693.67
301.19	1687.53
301.40	1671.14
301.62	1609.70
301.83	1720.29
302.05	1710.05
302.26	1599.46
302.47	1699.81
302.69	1640.42
302.90	1720.29
303.12	1652.71
303.33	1656.81
303.54	1767.40
303.76	1689.57
303.97	1734.63
304.19	1722.34
304.40	1619.94
304.61	1630.18
304.83	1800.16
305.04	1759.21
305.26	1718.25
305.47	1669.09
305.68	1677.29
305.90	1673.19
306.11	1720.29
306.33	1748.97
306.54	1714.15
306.75	1675.24
306.97	1667.05
307.18	1587.18
307.39	1691.62
307.61	1734.63
307.82	1734.63
308.04	1781.73
308.25	1728.49
308.46	1701.86
308.68	1630.18
308.89	1728.49
309.10	1785.83
309.32	1697.77
309.53	1646.57
309.74	1705.96
309.96	1621.99
310.17	1841.12
310.39	1667.05
310.60	1673.19
310.81	1783.78
311.03	1642.47
311.24	1751.01
311.45	1669.09
311.67	1873.89
311.88	1826.79
312.09	1720.29
312.31	1671.14
312.52	1710.05
312.73	1648.61
312.95	1564.65
313.16	1632.23
313.37	1800.16
313.59	1796.07
313.80	1771.49
314.01	1812.45
314.23	1687.53
314.44	1636.33
314.65	1638.38
314.87	1648.61
315.08	1607.66
315.29	1714.15
315.51	1648.61
315.72	1626.09
315.93	1804.26
316.15	1689.57
316.36	1658.85
316.57	1697.77
316.79	1746.92
317.00	1681.38
317.21	1714.15
317.43	1640.42
317.64	1773.54
317.85	1646.57
318.07	1662.95
318.28	1705.96
318.49	1816.55
318.70	1916.90
318.92	1757.16
319.13	1888.23
319.34	1912.80
319.56	1789.92
319.77	1781.73
319.98	1800.16
320.20	1720.29
320.41	1800.16
320.62	1753.06
320.83	1587.18
321.05	1789.92
321.26	1658.85
321.47	1662.95
321.69	1714.15
321.90	1626.09
322.11	1734.63
322.32	1728.49
322.54	1847.27
322.75	1746.92
322.96	1787.88
323.18	1599.46
323.39	1607.66
323.60	1648.61
323.81	1703.91
324.03	1650.66
324.24	1695.72
324.45	1734.63
324.66	1730.53
324.88	1757.16
325.09	1794.02
325.30	1656.81
325.52	1742.82
325.73	1736.68
325.94	1619.94
326.15	1613.80
326.37	1683.43
326.58	1773.54
326.79	1718.25
327.00	1714.15
327.22	1714.15
327.43	1667.05
327.64	1560.55
327.85	1740.77
328.07	1785.83
328.28	1816.55
328.49	1701.86
328.70	1679.33
328.92	1671.14
329.13	1669.09
329.34	1673.19
329.55	1834.98
329.76	1699.81
329.98	1642.47
330.19	1798.12
330.40	1742.82
330.61	1783.78
330.83	1716.20
331.04	1691.62
331.25	1767.40
331.46	1650.66
331.68	1656.81
331.89	1734.63
332.10	1679.33
332.31	1624.04
332.52	1705.96
332.74	1757.16
332.95	1548.26
333.16	1722.34
333.37	1742.82
333.58	1603.56
333.80	1722.34
334.01	1593.32
334.22	1658.85
334.43	1658.85
334.64	1697.77
334.86	1648.61
335.07	1669.09
335.28	1839.08
335.49	1619.94
335.70	1689.57
335.92	1710.05
336.13	1892.32
336.34	1738.73
336.55	1634.28
336.76	1773.54
336.98	1630.18
337.19	1837.03
337.40	1761.25
337.61	1769.44
337.82	1665.00
338.04	1884.13
338.25	1632.23
338.46	1675.24
338.67	1640.42
338.88	1722.34
339.09	1693.67
339.31	1656.81
339.52	1656.81
339.73	1658.85
339.94	1673.19
340.15	1730.53
340.36	1656.81
340.58	1669.09
340.79	1683.43
341.00	1761.25
341.21	1658.85
341.42	1943.52
341.63	1642.47
341.85	1783.78
342.06	1763.30
342.27	1671.14
342.48	1761.25
342.69	1685.48
342.90	1726.44
343.12	1832.93
343.33	1673.19
343.54	1765.35
343.75	1771.49
343.96	1665.00
344.17	1595.37
344.38	1679.33
344.60	1718.25
344.81	1624.04
345.02	1642.47
345.23	1712.10
345.44	1808.36
345.65	1753.06
345.86	1748.97
346.07	1728.49
346.29	1609.70
346.50	1671.14
346.71	1753.06
346.92	1751.01
347.13	1820.64
347.34	1701.86
347.55	1718.25
347.76	1681.38
347.98	1609.70
348.19	1734.63
348.40	1808.36
348.61	1644.52
348.82	1810.40
349.03	1785.83
349.24	1691.62
349.45	1818.60
349.66	1652.71
349.88	1724.39
350.09	1636.33
350.30	1767.40
350.51	1748.97
350.72	1722.34
350.93	1757.16
351.14	1687.53
351.35	1714.15
351.56	1732.58
351.77	1681.38
351.99	1714.15
352.20	1806.31
352.41	1765.35
352.62	1681.38
352.83	1726.44
353.04	1607.66
353.25	1669.09
353.46	1755.11
353.67	1783.78
353.88	1601.51
354.09	1763.30
354.30	1773.54
354.52	1720.29
354.73	1777.64
354.94	1669.09
355.15	1667.05
355.36	1882.08
355.57	1662.95
355.78	1751.01
355.99	1675.24
356.20	1691.62
356.41	1834.98
356.62	1732.58
356.83	1738.73
357.04	1763.30
357.25	1576.94
357.46	1755.11
357.68	1667.05
357.89	1630.18
358.10	1705.96
358.31	1742.82
358.52	1667.05
358.73	1681.38
358.94	1591.27
359.15	1617.90
359.36	1798.12
359.57	1624.04
359.78	1665.00
359.99	1699.81
360.20	1636.33
360.41	1675.24
360.62	1697.77
360.83	1730.53
361.04	1710.05
361.25	1646.57
361.46	1779.68
361.67	1785.83
361.88	1761.25
362.09	1775.59
362.30	1789.92
362.51	1759.21
362.72	1638.38
362.93	1718.25
363.14	1751.01
363.35	1728.49
363.56	1671.14
363.78	1691.62
363.99	1738.73
364.20	1703.91
364.41	1656.81
364.62	1839.08
364.83	1769.44
365.04	1785.83
365.25	1652.71
365.46	1748.97
365.67	1730.53
365.88	1662.95
366.09	1730.53
366.30	1718.25
366.51	1714.15
366.72	1677.29
366.93	1703.91
367.14	1712.10
367.35	1794.02
367.56	1755.11
367.77	1767.40
367.98	1703.91
368.18	1660.90
368.39	1691.62
368.60	1697.77
368.81	1845.22
369.02	1689.57
369.23	1626.09
369.44	1642.47
369.65	1656.81
369.86	1722.34
370.07	1767.40
370.28	1738.73
370.49	1777.64
370.70	1742.82
370.91	1632.23
371.12	1603.56
371.33	1783.78
371.54	1722.34
371.75	1734.63
371.96	1509.35
372.17	1693.67
372.38	1693.67
372.59	1722.34
372.80	1662.95
373.01	1763.30
373.22	1656.81
373.43	1730.53
373.64	1669.09
373.85	1777.64
374.06	1824.74
374.26	1742.82
374.47	1718.25
374.68	1753.06
374.89	1699.81
375.10	1732.58
375.31	1773.54
375.52	1708.01
375.73	1693.67
375.94	1667.05
376.15	1695.72
376.36	1693.67
376.57	1626.09
376.78	1724.39
376.99	1806.31
377.20	1665.00
377.40	1619.94
377.61	1810.40
377.82	1687.53
378.03	1757.16
378.24	1624.04
378.45	1689.57
378.66	1748.97
378.87	1595.37
379.08	1626.09
379.29	1724.39
379.50	1724.39
379.71	1753.06
379.91	1757.16
380.12	1665.00
380.33	1703.91
380.54	1638.38
380.75	1632.23
380.96	1681.38
381.17	1714.15
381.38	1689.57
381.59	1730.53
381.80	1611.75
382.00	1791.97
382.21	1738.73
382.42	1798.12
382.63	1775.59
382.84	1744.87
383.05	1761.25
383.26	1787.88
383.47	1681.38
383.68	1771.49
383.88	1728.49
384.09	1736.68
384.30	1748.97
384.51	1712.10
384.72	1650.66
384.93	1683.43
385.14	1730.53
385.35	1722.34
385.55	1683.43
385.76	1812.45
385.97	1734.63
386.18	1595.37
386.39	1687.53
386.60	1677.29
386.81	1673.19
387.02	1685.48
387.22	1724.39
387.43	1800.16
387.64	1789.92
387.85	1884.13
388.06	2267.10
388.27	4249.54
388.48	6836.12
388.68	8421.25
388.89	9707.37
389.10	9975.66
389.31	8748.92
389.52	7774.09
389.73	6750.10
389.93	6279.07
390.14	5930.92
390.35	5277.62
390.56	4634.55
390.77	3901.38
390.98	3008.47
391.18	2516.95
391.39	2123.74
391.60	1834.98
391.81	1892.32
392.02	1705.96
392.23	1892.32
392.43	1714.15
392.64	1773.54
392.85	1652.71
393.06	1837.03
393.27	1685.48
393.47	1703.91
393.68	1708.01
393.89	1683.43
394.10	1742.82
394.31	1732.58
394.52	1722.34
394.72	1673.19
394.93	1783.78
395.14	1683.43
395.35	1697.77
395.56	1675.24
395.76	1720.29
395.97	1812.45
396.18	1814.50
396.39	1886.18
396.60	2047.97
396.80	1955.81
397.01	1951.71
397.22	1791.97
397.43	1822.69
397.64	1810.40
397.84	1767.40
398.05	1855.46
398.26	1701.86
398.47	1726.44
398.67	1718.25
398.88	1818.60
399.09	1722.34
399.30	1667.05
399.51	1791.97
399.71	1697.77
399.92	1691.62
400.13	1689.57
400.34	1693.67
400.54	1716.20
400.75	1783.78
400.96	1708.01
401.17	1804.26
401.37	1740.77
401.58	1693.67
401.79	1716.20
402.00	1855.46
402.21	2050.02
402.41	1882.08
402.62	1988.58
402.83	2070.50
403.04	1990.63
403.24	2123.74
403.45	1916.90
403.66	1910.75
403.87	1904.61
404.07	1794.02
404.28	1867.75
404.49	1873.89
404.70	1740.77
404.90	1771.49
405.11	1755.11
405.32	1710.05
405.52	1656.81
405.73	1601.51
405.94	1619.94
406.15	1693.67
406.35	1699.81
406.56	1773.54
406.77	1765.35
406.98	1728.49
407.18	1679.33
407.39	1763.30
407.60	1736.68
407.80	1753.06
408.01	1763.30
408.22	1687.53
408.43	1671.14
408.63	1759.21
408.84	1802.21
409.05	1738.73
409.25	1658.85
409.46	1615.85
409.67	1751.01
409.88	1656.81
410.08	1777.64
410.29	1699.81
410.50	1751.01
410.70	1757.16
410.91	1607.66
411.12	1744.87
411.32	1705.96
411.53	1724.39
411.74	1882.08
411.95	1830.88
412.15	1685.48
412.36	1724.39
412.57	1791.97
412.77	1718.25
412.98	1689.57
413.19	1628.14
413.39	1689.57
413.60	1767.40
413.81	1816.55
414.01	1687.53
414.22	1742.82
414.43	1769.44
414.63	1681.38
414.84	1775.59
415.05	1751.01
415.25	1621.99
415.46	1757.16
415.67	1638.38
415.87	1763.30
416.08	1744.87
416.29	1705.96
416.49	1703.91
416.70	1724.39
416.91	1628.14
417.11	1769.44
417.32	1736.68
417.53	1689.57
417.73	1779.68
417.94	1693.67
418.15	1726.44
418.35	1724.39
418.56	1550.31
418.77	1869.80
418.97	1652.71
419.18	1771.49
419.38	1564.65
419.59	1687.53
419.80	1753.06
420.00	1695.72
420.21	1705.96
420.42	1785.83
420.62	1779.68
420.83	1669.09
421.04	1658.85
421.24	1734.63
421.45	1759.21
421.65	1658.85
421.86	1726.44
422.07	1757.16
422.27	1689.57
422.48	1748.97
422.69	1691.62
422.89	1695.72
423.10	1683.43
423.30	1621.99
423.51	1738.73
423.72	1701.86
423.92	1769.44
424.13	1773.54
424.33	1732.58
424.54	1710.05
424.75	1738.73
424.95	1849.32
425.16	1751.01
425.36	1669.09
425.57	1734.63
425.78	1820.64
425.98	1675.24
426.19	1613.80
426.39	1697.77
426.60	1777.64
426.81	1841.12
427.01	1736.68
427.22	1705.96
427.42	1654.76
427.63	1681.38
427.83	1751.01
428.04	1738.73
428.25	1771.49
428.45	1763.30
428.66	1787.88
428.86	1658.85
429.07	1669.09
429.28	1757.16
429.48	1701.86
429.69	1730.53
429.89	1669.09
430.10	1728.49
430.30	1761.25
430.51	1708.01
430.71	1673.19
430.92	1716.20
431.13	1632.23
431.33	1800.16
431.54	1753.06
431.74	1761.25
431.95	1808.36
432.15	1703.91
432.36	1648.61
432.56	1824.74
432.77	1791.97
432.98	1839.08
433.18	1720.29
433.39	1695.72
433.59	1675.24
433.80	1787.88
434.00	1791.97
434.21	1714.15
434.41	1677.29
434.62	1861.60
434.82	1642.47
435.03	1669.09
435.23	1757.16
435.44	1619.94
435.64	1732.58
435.85	1724.39
436.06	1703.91
436.26	1755.11
436.47	1753.06
436.67	1650.66
436.88	1767.40
437.08	1703.91
437.29	1822.69
437.49	1753.06
437.70	1826.79
437.90	1642.47
438.11	1806.31
438.31	1705.96
438.52	1845.22
438.72	1849.32
438.93	1888.23
439.13	1798.12
439.34	1808.36
439.54	1751.01
439.75	1806.31
439.95	1712.10
440.16	1693.67
440.36	1791.97
440.57	1791.97
440.77	1785.83
440.98	1675.24
441.18	1726.44
441.39	1681.38
441.59	1697.77
441.80	1814.50
442.00	1730.53
442.21	1816.55
442.41	1720.29
442.62	1814.50
442.82	1681.38
443.02	1728.49
443.23	1777.64
443.43	1738.73
443.64	1791.97
443.84	1667.05
444.05	1855.46
444.25	1695.72
444.46	1681.38
444.66	1718.25
444.87	1837.03
445.07	1570.79
445.28	1644.52
445.48	1837.03
445.69	1751.01
445.89	1798.12
446.09	1767.40
446.30	2025.44
446.50	2574.30
446.71	3762.12
446.91	4263.87
447.12	4685.75
447.32	4845.49
447.53	4419.52
447.73	3737.54
447.93	3438.54
448.14	3303.37
448.34	3178.45
448.55	2975.70
448.75	2811.86
448.96	2697.17
449.16	2424.80
449.36	2408.41
449.57	1968.10
449.77	1957.86
449.98	1789.92
450.18	1775.59
450.39	1781.73
450.59	1763.30
450.79	1736.68
451.00	1734.63
451.20	1794.02
451.41	1730.53
451.61	1826.79
451.81	1693.67
452.02	1691.62
452.22	1662.95
452.43	1689.57
452.63	1671.14
