SpectraSuite Data File
++++++++++++++++++++++++++++++++++++
Date: Mon Jun 06 14:23:37 CEST 2016
User: root
Dark Spectrum Present: No
Reference Spectrum Present: No
Number of Sampled Component Spectra: 1
Spectrometers: USB4C02835
Integration Time (usec): 100000 (USB4C02835)
Spectra Averaged: 1 (USB4C02835)
Boxcar Smoothing: 0 (USB4C02835)
Correct for Electrical Dark: No (USB4C02835)
Strobe/Lamp Enabled: No (USB4C02835)
Correct for Detector Non-linearity: No (USB4C02835)
Correct for Stray Light: No (USB4C02835)
Number of Pixels in Processed Spectrum: 3648
>>>>>Begin Processed Spectral Data<<<<<
177.47	1468.39
177.69	1468.39
177.91	1468.39
178.13	1427.43
178.36	1486.83
178.58	1665.00
178.80	1716.20
179.02	1617.90
179.24	1665.00
179.46	1791.97
179.68	1804.26
179.90	1705.96
180.13	1714.15
180.35	1644.52
180.57	1646.57
180.79	1763.30
181.01	1738.73
181.23	1796.07
181.45	1746.92
181.67	1718.25
181.90	1705.96
182.12	1656.81
182.34	1632.23
182.56	1705.96
182.78	1648.61
183.00	1671.14
183.22	1730.53
183.44	1589.22
183.66	1818.60
183.89	1740.77
184.11	1738.73
184.33	1718.25
184.55	1673.19
184.77	1841.12
184.99	1656.81
185.21	1699.81
185.43	1898.47
185.65	1705.96
185.87	1746.92
186.10	1808.36
186.32	1830.88
186.54	1712.10
186.76	1712.10
186.98	1716.20
187.20	1726.44
187.42	1648.61
187.64	1726.44
187.86	1753.06
188.08	1773.54
188.30	1603.56
188.52	1630.18
188.75	1798.12
188.97	1877.99
189.19	1675.24
189.41	1703.91
189.63	1771.49
189.85	1705.96
190.07	1640.42
190.29	1677.29
190.51	1734.63
190.73	1658.85
190.95	1798.12
191.17	1656.81
191.39	1646.57
191.61	1720.29
191.84	1736.68
192.06	1705.96
192.28	1675.24
192.50	1832.93
192.72	1728.49
192.94	1685.48
193.16	1730.53
193.38	1732.58
193.60	1624.04
193.82	1683.43
194.04	1783.78
194.26	1812.45
194.48	1724.39
194.70	1599.46
194.92	1679.33
195.14	1753.06
195.36	1658.85
195.58	1695.72
195.80	1726.44
196.02	1726.44
196.24	1693.67
196.46	1708.01
196.69	1630.18
196.91	1761.25
197.13	1683.43
197.35	1722.34
197.57	1724.39
197.79	1662.95
198.01	1759.21
198.23	1763.30
198.45	1687.53
198.67	1665.00
198.89	1660.90
199.11	1652.71
199.33	1669.09
199.55	1560.55
199.77	1710.05
199.99	1771.49
200.21	1683.43
200.43	1751.01
200.65	1597.42
200.87	1540.07
201.09	1650.66
201.31	1617.90
201.53	1734.63
201.75	1697.77
201.97	1712.10
202.19	1708.01
202.41	1730.53
202.63	1822.69
202.85	1660.90
203.07	1665.00
203.29	1632.23
203.51	1665.00
203.73	1681.38
203.95	1847.27
204.17	1732.58
204.39	1748.97
204.61	1695.72
204.83	1689.57
205.05	1787.88
205.27	1724.39
205.49	1880.04
205.71	1734.63
205.93	1624.04
206.15	1705.96
206.37	1681.38
206.59	1691.62
206.81	1630.18
207.03	1583.08
207.25	1671.14
207.47	1730.53
207.69	1736.68
207.91	1785.83
208.13	1744.87
208.34	1636.33
208.56	1667.05
208.78	1722.34
209.00	1628.14
209.22	1708.01
209.44	1628.14
209.66	1691.62
209.88	1681.38
210.10	1710.05
210.32	1646.57
210.54	1775.59
210.76	1695.72
210.98	1697.77
211.20	1615.85
211.42	1652.71
211.64	1787.88
211.86	1685.48
212.08	1771.49
212.30	1673.19
212.52	1736.68
212.74	1669.09
212.96	1695.72
213.17	1736.68
213.39	1771.49
213.61	1767.40
213.83	1671.14
214.05	1597.42
214.27	1746.92
214.49	1646.57
214.71	1650.66
214.93	1734.63
215.15	1677.29
215.37	1791.97
215.59	1626.09
215.81	1822.69
216.03	1695.72
216.24	1697.77
216.46	1615.85
216.68	1705.96
216.90	1746.92
217.12	1759.21
217.34	1705.96
217.56	1716.20
217.78	1820.64
218.00	1687.53
218.22	1703.91
218.44	1738.73
218.66	1687.53
218.87	1794.02
219.09	1665.00
219.31	1765.35
219.53	1751.01
219.75	1667.05
219.97	1771.49
220.19	1714.15
220.41	1667.05
220.63	1802.21
220.85	1796.07
221.06	1667.05
221.28	1781.73
221.50	1763.30
221.72	1718.25
221.94	1751.01
222.16	1673.19
222.38	1703.91
222.60	1736.68
222.82	1675.24
223.03	1740.77
223.25	1710.05
223.47	1712.10
223.69	1791.97
223.91	1755.11
224.13	1624.04
224.35	1628.14
224.57	1683.43
224.78	1726.44
225.00	1679.33
225.22	1726.44
225.44	1730.53
225.66	1728.49
225.88	1675.24
226.10	1798.12
226.32	1718.25
226.53	1898.47
226.75	1654.76
226.97	1660.90
227.19	1662.95
227.41	1701.86
227.63	1701.86
227.85	1626.09
228.06	1728.49
228.28	1742.82
228.50	1769.44
228.72	1644.52
228.94	1726.44
229.16	1535.98
229.37	1675.24
229.59	1691.62
229.81	1759.21
230.03	1634.28
230.25	1644.52
230.47	1628.14
230.69	1679.33
230.90	1718.25
231.12	1650.66
231.34	1695.72
231.56	1744.87
231.78	1648.61
232.00	1769.44
232.21	1732.58
232.43	1697.77
232.65	1558.50
232.87	1771.49
233.09	1689.57
233.30	1693.67
233.52	1775.59
233.74	1644.52
233.96	1699.81
234.18	1722.34
234.40	1671.14
234.61	1814.50
234.83	1615.85
235.05	1566.70
235.27	1869.80
235.49	1804.26
235.70	1744.87
235.92	1787.88
236.14	1718.25
236.36	1783.78
236.58	1599.46
236.79	1771.49
237.01	1656.81
237.23	1714.15
237.45	1794.02
237.67	1671.14
237.88	1705.96
238.10	1814.50
238.32	1652.71
238.54	1783.78
238.76	1691.62
238.97	1671.14
239.19	1652.71
239.41	1763.30
239.63	1746.92
239.85	1773.54
240.06	1716.20
240.28	1683.43
240.50	1726.44
240.72	1712.10
240.93	1660.90
241.15	1769.44
241.37	1732.58
241.59	1789.92
241.81	1665.00
242.02	1689.57
242.24	1634.28
242.46	1697.77
242.68	1718.25
242.89	1712.10
243.11	1775.59
243.33	1730.53
243.55	1738.73
243.76	1730.53
243.98	1642.47
244.20	1712.10
244.42	1677.29
244.64	1779.68
244.85	1650.66
245.07	1646.57
245.29	1791.97
245.51	1601.51
245.72	1683.43
245.94	1740.77
246.16	1724.39
246.38	1779.68
246.59	1708.01
246.81	1679.33
247.03	1777.64
247.24	1669.09
247.46	1732.58
247.68	1722.34
247.90	1675.24
248.11	1699.81
248.33	1695.72
248.55	1808.36
248.77	1652.71
248.98	1662.95
249.20	1892.32
249.42	1689.57
249.64	1714.15
249.85	1718.25
250.07	1652.71
250.29	1724.39
250.50	1810.40
250.72	1681.38
250.94	1738.73
251.16	1785.83
251.37	1755.11
251.59	1765.35
251.81	1691.62
252.02	1759.21
252.24	1617.90
252.46	1798.12
252.68	1632.23
252.89	1654.76
253.11	1589.22
253.33	1730.53
253.54	1746.92
253.76	1609.70
253.98	1687.53
254.20	1671.14
254.41	1611.75
254.63	1703.91
254.85	1693.67
255.06	1675.24
255.28	1728.49
255.50	1689.57
255.71	1683.43
255.93	1708.01
256.15	1654.76
256.36	1675.24
256.58	1697.77
256.80	1742.82
257.02	1628.14
257.23	1638.38
257.45	1775.59
257.67	1767.40
257.88	1636.33
258.10	1755.11
258.32	1746.92
258.53	1740.77
258.75	1763.30
258.97	1701.86
259.18	1775.59
259.40	1720.29
259.62	1843.17
259.83	1785.83
260.05	1779.68
260.27	1998.82
260.48	1798.12
260.70	1630.18
260.92	1650.66
261.13	1703.91
261.35	1714.15
261.57	1705.96
261.78	1681.38
262.00	1683.43
262.22	1734.63
262.43	1687.53
262.65	1660.90
262.86	1689.57
263.08	1826.79
263.30	1728.49
263.51	1654.76
263.73	1675.24
263.95	1759.21
264.16	1619.94
264.38	1703.91
264.60	1740.77
264.81	1751.01
265.03	1724.39
265.25	1791.97
265.46	1724.39
265.68	1794.02
265.89	1724.39
266.11	1619.94
266.33	1783.78
266.54	1714.15
266.76	1802.21
266.98	1738.73
267.19	1808.36
267.41	1701.86
267.62	1751.01
267.84	1574.89
268.06	1726.44
268.27	1656.81
268.49	1765.35
268.70	1693.67
268.92	1761.25
269.14	1646.57
269.35	1595.37
269.57	1626.09
269.79	1761.25
270.00	1683.43
270.22	1699.81
270.43	1650.66
270.65	1585.13
270.87	1665.00
271.08	1705.96
271.30	1705.96
271.51	1730.53
271.73	1724.39
271.95	1771.49
272.16	1669.09
272.38	1751.01
272.59	1712.10
272.81	1785.83
273.02	1693.67
273.24	1732.58
273.46	1785.83
273.67	1581.03
273.89	1746.92
274.10	1648.61
274.32	1779.68
274.54	1714.15
274.75	1718.25
274.97	1619.94
275.18	1763.30
275.40	1689.57
275.61	1669.09
275.83	1724.39
276.05	1646.57
276.26	1710.05
276.48	1753.06
276.69	1648.61
276.91	1767.40
277.12	1777.64
277.34	1730.53
277.55	1703.91
277.77	1800.16
277.99	1734.63
278.20	1644.52
278.42	1642.47
278.63	1613.80
278.85	1642.47
279.06	1726.44
279.28	1757.16
279.49	1660.90
279.71	1777.64
279.93	1673.19
280.14	1669.09
280.36	1607.66
280.57	1773.54
280.79	1740.77
281.00	1669.09
281.22	1626.09
281.43	1765.35
281.65	1564.65
281.86	1621.99
282.08	1718.25
282.29	1828.84
282.51	1611.75
282.73	1683.43
282.94	1658.85
283.16	1775.59
283.37	1775.59
283.59	1640.42
283.80	1800.16
284.02	1673.19
284.23	1708.01
284.45	1644.52
284.66	1703.91
284.88	1593.32
285.09	1742.82
285.31	1722.34
285.52	1673.19
285.74	1605.61
285.95	1802.21
286.17	1726.44
286.38	1751.01
286.60	1628.14
286.81	1665.00
287.03	1689.57
287.24	1619.94
287.46	1822.69
287.67	1708.01
287.89	1771.49
288.10	1679.33
288.32	1695.72
288.53	1771.49
288.75	1714.15
288.96	1681.38
289.18	1681.38
289.39	1605.61
289.61	1800.16
289.82	1804.26
290.04	1722.34
290.25	1646.57
290.47	1701.86
290.68	1699.81
290.90	1726.44
291.11	1621.99
291.33	1757.16
291.54	1619.94
291.76	1671.14
291.97	1757.16
292.18	1828.84
292.40	1691.62
292.61	1658.85
292.83	1775.59
293.04	1689.57
293.26	1740.77
293.47	1685.48
293.69	1650.66
293.90	1652.71
294.12	1757.16
294.33	1718.25
294.55	1701.86
294.76	1748.97
294.97	1732.58
295.19	1783.78
295.40	1644.52
295.62	1710.05
295.83	1656.81
296.05	1675.24
296.26	1761.25
296.48	1714.15
296.69	1699.81
296.90	1708.01
297.12	1769.44
297.33	1675.24
297.55	1697.77
297.76	1695.72
297.98	1736.68
298.19	1755.11
298.41	1708.01
298.62	1701.86
298.83	1869.80
299.05	1699.81
299.26	1742.82
299.48	1589.22
299.69	1783.78
299.90	1783.78
300.12	1632.23
300.33	1677.29
300.55	1720.29
300.76	1732.58
300.98	1593.32
301.19	1757.16
301.40	1642.47
301.62	1699.81
301.83	1687.53
302.05	1798.12
302.26	1703.91
302.47	1681.38
302.69	1624.04
302.90	1695.72
303.12	1589.22
303.33	1689.57
303.54	1761.25
303.76	1667.05
303.97	1744.87
304.19	1804.26
304.40	1630.18
304.61	1738.73
304.83	1818.60
305.04	1759.21
305.26	1677.29
305.47	1634.28
305.68	1615.85
305.90	1685.48
306.11	1755.11
306.33	1697.77
306.54	1624.04
306.75	1628.14
306.97	1587.18
307.18	1671.14
307.39	1687.53
307.61	1763.30
307.82	1697.77
308.04	1740.77
308.25	1691.62
308.46	1738.73
308.68	1710.05
308.89	1742.82
309.10	1837.03
309.32	1761.25
309.53	1722.34
309.74	1740.77
309.96	1726.44
310.17	1869.80
310.39	1685.48
310.60	1744.87
310.81	1681.38
311.03	1665.00
311.24	1665.00
311.45	1757.16
311.67	1808.36
311.88	1681.38
312.09	1718.25
312.31	1667.05
312.52	1740.77
312.73	1740.77
312.95	1603.56
313.16	1722.34
313.37	1796.07
313.59	1718.25
313.80	1748.97
314.01	1865.70
314.23	1650.66
314.44	1654.76
314.65	1619.94
314.87	1673.19
315.08	1699.81
315.29	1621.99
315.51	1720.29
315.72	1632.23
315.93	1810.40
316.15	1798.12
316.36	1677.29
316.57	1746.92
316.79	1738.73
317.00	1654.76
317.21	1683.43
317.43	1763.30
317.64	1705.96
317.85	1681.38
318.07	1701.86
318.28	1771.49
318.49	1695.72
318.70	1869.80
318.92	1834.98
319.13	1816.55
319.34	1957.86
319.56	1814.50
319.77	1816.55
319.98	1804.26
320.20	1834.98
320.41	1738.73
320.62	1759.21
320.83	1693.67
321.05	1877.99
321.26	1738.73
321.47	1730.53
321.69	1775.59
321.90	1665.00
322.11	1656.81
322.32	1681.38
322.54	1802.21
322.75	1642.47
322.96	1837.03
323.18	1667.05
323.39	1560.55
323.60	1683.43
323.81	1839.08
324.03	1681.38
324.24	1660.90
324.45	1767.40
324.66	1693.67
324.88	1796.07
325.09	1783.78
325.30	1669.09
325.52	1675.24
325.73	1839.08
325.94	1593.32
326.15	1548.26
326.37	1673.19
326.58	1697.77
326.79	1798.12
327.00	1677.29
327.22	1701.86
327.43	1650.66
327.64	1662.95
327.85	1665.00
328.07	1720.29
328.28	1726.44
328.49	1660.90
328.70	1675.24
328.92	1773.54
329.13	1689.57
329.34	1693.67
329.55	1871.84
329.76	1667.05
329.98	1673.19
330.19	1771.49
330.40	1722.34
330.61	1755.11
330.83	1732.58
331.04	1716.20
331.25	1746.92
331.46	1677.29
331.68	1726.44
331.89	1732.58
332.10	1740.77
332.31	1597.42
332.52	1710.05
332.74	1755.11
332.95	1617.90
333.16	1697.77
333.37	1624.04
333.58	1650.66
333.80	1755.11
334.01	1587.18
334.22	1738.73
334.43	1771.49
334.64	1662.95
334.86	1640.42
335.07	1587.18
335.28	1777.64
335.49	1650.66
335.70	1732.58
335.92	1621.99
336.13	1804.26
336.34	1714.15
336.55	1681.38
336.76	1691.62
336.98	1632.23
337.19	1705.96
337.40	1744.87
337.61	1849.32
337.82	1701.86
338.04	1730.53
338.25	1558.50
338.46	1712.10
338.67	1665.00
338.88	1683.43
339.09	1644.52
339.31	1619.94
339.52	1695.72
339.73	1693.67
339.94	1673.19
340.15	1669.09
340.36	1693.67
340.58	1769.44
340.79	1660.90
341.00	1669.09
341.21	1644.52
341.42	1851.36
341.63	1679.33
341.85	1708.01
342.06	1705.96
342.27	1638.38
342.48	1742.82
342.69	1636.33
342.90	1679.33
343.12	1740.77
343.33	1669.09
343.54	1712.10
343.75	1769.44
343.96	1640.42
344.17	1585.13
344.38	1667.05
344.60	1611.75
344.81	1652.71
345.02	1697.77
345.23	1771.49
345.44	1832.93
345.65	1746.92
345.86	1687.53
346.07	1703.91
346.29	1703.91
346.50	1665.00
346.71	1748.97
346.92	1837.03
347.13	1882.08
347.34	1677.29
347.55	1685.48
347.76	1726.44
347.98	1632.23
348.19	1624.04
348.40	1644.52
348.61	1722.34
348.82	1812.45
349.03	1740.77
349.24	1619.94
349.45	1789.92
349.66	1681.38
349.88	1740.77
350.09	1640.42
350.30	1802.21
350.51	1841.12
350.72	1781.73
350.93	1744.87
351.14	1634.28
351.35	1751.01
351.56	1679.33
351.77	1675.24
351.99	1710.05
352.20	1808.36
352.41	1757.16
352.62	1583.08
352.83	1716.20
353.04	1740.77
353.25	1679.33
353.46	1761.25
353.67	1687.53
353.88	1624.04
354.09	1726.44
354.30	1697.77
354.52	1720.29
354.73	1691.62
354.94	1673.19
355.15	1689.57
355.36	1830.88
355.57	1642.47
355.78	1746.92
355.99	1669.09
356.20	1685.48
356.41	1728.49
356.62	1734.63
356.83	1697.77
357.04	1802.21
357.25	1634.28
357.46	1636.33
357.68	1578.98
357.89	1654.76
358.10	1718.25
358.31	1714.15
358.52	1636.33
358.73	1634.28
358.94	1714.15
359.15	1689.57
359.36	1720.29
359.57	1714.15
359.78	1757.16
359.99	1675.24
360.20	1589.22
360.41	1712.10
360.62	1777.64
360.83	1650.66
361.04	1736.68
361.25	1689.57
361.46	1787.88
361.67	1734.63
361.88	1722.34
362.09	1789.92
362.30	1697.77
362.51	1665.00
362.72	1722.34
362.93	1810.40
363.14	1738.73
363.35	1785.83
363.56	1615.85
363.78	1697.77
363.99	1787.88
364.20	1753.06
364.41	1755.11
364.62	1779.68
364.83	1773.54
365.04	1716.20
365.25	1679.33
365.46	1806.31
365.67	1689.57
365.88	1611.75
366.09	1755.11
366.30	1712.10
366.51	1726.44
366.72	1599.46
366.93	1669.09
367.14	1751.01
367.35	1765.35
367.56	1703.91
367.77	1753.06
367.98	1712.10
368.18	1626.09
368.39	1695.72
368.60	1599.46
368.81	1718.25
369.02	1767.40
369.23	1665.00
369.44	1665.00
369.65	1757.16
369.86	1699.81
370.07	1716.20
370.28	1648.61
370.49	1775.59
370.70	1681.38
370.91	1640.42
371.12	1609.70
371.33	1777.64
371.54	1656.81
371.75	1789.92
371.96	1640.42
372.17	1632.23
372.38	1722.34
372.59	1785.83
372.80	1763.30
373.01	1695.72
373.22	1705.96
373.43	1736.68
373.64	1693.67
373.85	1796.07
374.06	1740.77
374.26	1730.53
374.47	1626.09
374.68	1755.11
374.89	1748.97
375.10	1685.48
375.31	1695.72
375.52	1708.01
375.73	1685.48
375.94	1626.09
376.15	1662.95
376.36	1578.98
376.57	1689.57
376.78	1689.57
376.99	1701.86
377.20	1777.64
377.40	1638.38
377.61	1785.83
377.82	1607.66
378.03	1691.62
378.24	1708.01
378.45	1685.48
378.66	1736.68
378.87	1591.27
379.08	1679.33
379.29	1773.54
379.50	1783.78
379.71	1658.85
379.91	1759.21
380.12	1667.05
380.33	1699.81
380.54	1701.86
380.75	1648.61
380.96	1665.00
381.17	1759.21
381.38	1695.72
381.59	1695.72
381.80	1751.01
382.00	1824.74
382.21	1775.59
382.42	1851.36
382.63	1816.55
382.84	1771.49
383.05	1820.64
383.26	1753.06
383.47	1742.82
383.68	1779.68
383.88	1710.05
384.09	1691.62
384.30	1765.35
384.51	1746.92
384.72	1712.10
384.93	1591.27
385.14	1734.63
385.35	1751.01
385.55	1681.38
385.76	1732.58
385.97	1761.25
386.18	1673.19
386.39	1705.96
386.60	1636.33
386.81	1677.29
387.02	1636.33
387.22	1595.37
387.43	1812.45
387.64	1849.32
387.85	1865.70
388.06	2197.47
388.27	4288.45
388.48	6852.50
388.68	8112.00
388.89	9586.54
389.10	9781.10
389.31	8601.47
389.52	7726.99
389.73	6703.00
389.93	6246.30
390.14	5791.66
390.35	5263.28
390.56	4601.79
390.77	3825.61
390.98	3092.43
391.18	2590.68
391.39	2146.27
391.60	1894.37
391.81	1877.99
392.02	1781.73
392.23	1923.04
392.43	1683.43
392.64	1740.77
392.85	1703.91
393.06	1771.49
393.27	1722.34
393.47	1683.43
393.68	1708.01
393.89	1689.57
394.10	1767.40
394.31	1716.20
394.52	1693.67
394.72	1662.95
394.93	1753.06
395.14	1689.57
395.35	1722.34
395.56	1638.38
395.76	1728.49
395.97	1777.64
396.18	1841.12
396.39	1777.64
396.60	2011.11
396.80	1865.70
397.01	1810.40
397.22	1837.03
397.43	1900.52
397.64	1736.68
397.84	1777.64
398.05	1832.93
398.26	1738.73
398.47	1734.63
398.67	1742.82
398.88	1738.73
399.09	1763.30
399.30	1695.72
399.51	1740.77
399.71	1597.42
399.92	1703.91
400.13	1847.27
400.34	1660.90
400.54	1734.63
400.75	1769.44
400.96	1712.10
401.17	1888.23
401.37	1708.01
401.58	1781.73
401.79	1769.44
402.00	1820.64
402.21	1972.19
402.41	1982.43
402.62	1908.71
402.83	2052.06
403.04	2054.11
403.24	2019.30
403.45	1855.46
403.66	1898.47
403.87	1892.32
404.07	1939.43
404.28	1916.90
404.49	1896.42
404.70	1734.63
404.90	1722.34
405.11	1755.11
405.32	1761.25
405.52	1662.95
405.73	1646.57
405.94	1632.23
406.15	1722.34
406.35	1685.48
406.56	1751.01
406.77	1685.48
406.98	1677.29
407.18	1634.28
407.39	1834.98
407.60	1689.57
407.80	1818.60
408.01	1695.72
408.22	1781.73
408.43	1656.81
408.63	1642.47
408.84	1757.16
409.05	1728.49
409.25	1603.56
409.46	1652.71
409.67	1695.72
409.88	1673.19
410.08	1746.92
410.29	1716.20
410.50	1769.44
410.70	1726.44
410.91	1640.42
411.12	1748.97
411.32	1734.63
411.53	1695.72
411.74	1847.27
411.95	1824.74
412.15	1640.42
412.36	1730.53
412.57	1736.68
412.77	1773.54
412.98	1679.33
413.19	1689.57
413.39	1761.25
413.60	1714.15
413.81	1722.34
414.01	1705.96
414.22	1800.16
414.43	1748.97
414.63	1611.75
414.84	1755.11
415.05	1681.38
415.25	1587.18
415.46	1705.96
415.67	1734.63
415.87	1695.72
416.08	1710.05
416.29	1759.21
416.49	1722.34
416.70	1751.01
416.91	1697.77
417.11	1703.91
417.32	1705.96
417.53	1759.21
417.73	1689.57
417.94	1708.01
418.15	1738.73
418.35	1705.96
418.56	1673.19
418.77	1865.70
418.97	1771.49
419.18	1730.53
419.38	1533.93
419.59	1685.48
419.80	1804.26
420.00	1683.43
420.21	1736.68
420.42	1787.88
420.62	1791.97
420.83	1642.47
421.04	1671.14
421.24	1726.44
421.45	1771.49
421.65	1658.85
421.86	1662.95
422.07	1742.82
422.27	1720.29
422.48	1703.91
422.69	1667.05
422.89	1632.23
423.10	1773.54
423.30	1607.66
423.51	1646.57
423.72	1656.81
423.92	1697.77
424.13	1703.91
424.33	1759.21
424.54	1722.34
424.75	1693.67
424.95	1845.22
425.16	1767.40
425.36	1669.09
425.57	1759.21
425.78	1718.25
425.98	1816.55
426.19	1701.86
426.39	1685.48
426.60	1660.90
426.81	1759.21
427.01	1675.24
427.22	1673.19
427.42	1650.66
427.63	1718.25
427.83	1791.97
428.04	1755.11
428.25	1804.26
428.45	1796.07
428.66	1759.21
428.86	1751.01
429.07	1734.63
429.28	1712.10
429.48	1697.77
429.69	1619.94
429.89	1693.67
430.10	1632.23
430.30	1763.30
430.51	1783.78
430.71	1697.77
430.92	1740.77
431.13	1587.18
431.33	1757.16
431.54	1652.71
431.74	1804.26
431.95	1806.31
432.15	1703.91
432.36	1665.00
432.56	1646.57
432.77	1796.07
432.98	1794.02
433.18	1695.72
433.39	1675.24
433.59	1730.53
433.80	1761.25
434.00	1843.17
434.21	1714.15
434.41	1656.81
434.62	1839.08
434.82	1656.81
435.03	1738.73
435.23	1685.48
435.44	1601.51
435.64	1710.05
435.85	1740.77
436.06	1800.16
436.26	1755.11
436.47	1705.96
436.67	1667.05
436.88	1591.27
437.08	1720.29
437.29	1812.45
437.49	1763.30
437.70	1779.68
437.90	1724.39
438.11	1804.26
438.31	1785.83
438.52	1853.41
438.72	1820.64
438.93	1843.17
439.13	1732.58
439.34	1769.44
439.54	1730.53
439.75	1828.84
439.95	1759.21
440.16	1640.42
440.36	1695.72
440.57	1763.30
440.77	1644.52
440.98	1730.53
441.18	1693.67
441.39	1669.09
441.59	1665.00
441.80	1900.52
442.00	1738.73
442.21	1757.16
442.41	1677.29
442.62	1802.21
442.82	1742.82
443.02	1640.42
443.23	1740.77
443.43	1753.06
443.64	1820.64
443.84	1634.28
444.05	1800.16
444.25	1673.19
444.46	1673.19
444.66	1708.01
444.87	1863.65
445.07	1748.97
445.28	1724.39
445.48	1804.26
445.69	1722.34
445.89	1884.13
446.09	1832.93
446.30	2123.74
446.50	2672.60
446.71	3729.35
446.91	4241.34
447.12	4634.55
447.32	4898.74
447.53	4349.89
447.73	3946.44
447.93	3524.55
448.14	3356.62
448.34	3200.98
448.55	2981.84
448.75	2877.40
448.96	2736.09
449.16	2426.84
449.36	2346.97
449.57	2066.40
449.77	1888.23
449.98	1847.27
450.18	1806.31
450.39	1791.97
450.59	1740.77
450.79	1685.48
451.00	1665.00
451.20	1804.26
451.41	1712.10
451.61	1714.15
451.81	1738.73
452.02	1697.77
452.22	1681.38
452.43	1757.16
452.63	1697.77
