SpectraSuite Data File
++++++++++++++++++++++++++++++++++++
Date: Mon Jun 06 16:26:17 CEST 2016
User: root
Dark Spectrum Present: No
Reference Spectrum Present: No
Number of Sampled Component Spectra: 1
Spectrometers: USB4C02835
Integration Time (usec): 100000 (USB4C02835)
Spectra Averaged: 1 (USB4C02835)
Boxcar Smoothing: 0 (USB4C02835)
Correct for Electrical Dark: No (USB4C02835)
Strobe/Lamp Enabled: No (USB4C02835)
Correct for Detector Non-linearity: No (USB4C02835)
Correct for Stray Light: No (USB4C02835)
Number of Pixels in Processed Spectrum: 3648
>>>>>Begin Processed Spectral Data<<<<<
177.47	1503.21
177.69	1503.21
177.91	1503.21
178.13	1443.82
178.36	1478.63
178.58	1638.38
178.80	1689.57
179.02	1628.14
179.24	1703.91
179.46	1708.01
179.68	1781.73
179.90	1683.43
180.13	1732.58
180.35	1665.00
180.57	1642.47
180.79	1658.85
181.01	1665.00
181.23	1769.44
181.45	1751.01
181.67	1755.11
181.90	1828.84
182.12	1732.58
182.34	1677.29
182.56	1716.20
182.78	1753.06
183.00	1648.61
183.22	1693.67
183.44	1644.52
183.66	1867.75
183.89	1722.34
184.11	1732.58
184.33	1746.92
184.55	1837.03
184.77	1701.86
184.99	1691.62
185.21	1650.66
185.43	1877.99
185.65	1615.85
185.87	1685.48
186.10	1888.23
186.32	1796.07
186.54	1759.21
186.76	1716.20
186.98	1791.97
187.20	1746.92
187.42	1738.73
187.64	1601.51
187.86	1746.92
188.08	1794.02
188.30	1687.53
188.52	1771.49
188.75	1794.02
188.97	1781.73
189.19	1728.49
189.41	1708.01
189.63	1703.91
189.85	1738.73
190.07	1638.38
190.29	1714.15
190.51	1720.29
190.73	1613.80
190.95	1748.97
191.17	1748.97
191.39	1642.47
191.61	1652.71
191.84	1742.82
192.06	1771.49
192.28	1671.14
192.50	1882.08
192.72	1718.25
192.94	1777.64
193.16	1791.97
193.38	1740.77
193.60	1609.70
193.82	1716.20
194.04	1736.68
194.26	1800.16
194.48	1763.30
194.70	1609.70
194.92	1630.18
195.14	1761.25
195.36	1656.81
195.58	1689.57
195.80	1656.81
196.02	1734.63
196.24	1730.53
196.46	1689.57
196.69	1638.38
196.91	1853.41
197.13	1669.09
197.35	1691.62
197.57	1753.06
197.79	1705.96
198.01	1767.40
198.23	1732.58
198.45	1777.64
198.67	1671.14
198.89	1728.49
199.11	1671.14
199.33	1640.42
199.55	1630.18
199.77	1708.01
199.99	1804.26
200.21	1701.86
200.43	1771.49
200.65	1718.25
200.87	1601.51
201.09	1681.38
201.31	1718.25
201.53	1738.73
201.75	1763.30
201.97	1736.68
202.19	1667.05
202.41	1759.21
202.63	1832.93
202.85	1757.16
203.07	1722.34
203.29	1755.11
203.51	1640.42
203.73	1644.52
203.95	1837.03
204.17	1695.72
204.39	1703.91
204.61	1744.87
204.83	1703.91
205.05	1761.25
205.27	1822.69
205.49	1791.97
205.71	1654.76
205.93	1609.70
206.15	1626.09
206.37	1673.19
206.59	1646.57
206.81	1632.23
207.03	1626.09
207.25	1689.57
207.47	1742.82
207.69	1728.49
207.91	1705.96
208.13	1775.59
208.34	1667.05
208.56	1673.19
208.78	1769.44
209.00	1662.95
209.22	1710.05
209.44	1714.15
209.66	1646.57
209.88	1728.49
210.10	1667.05
210.32	1730.53
210.54	1779.68
210.76	1697.77
210.98	1673.19
211.20	1611.75
211.42	1722.34
211.64	1769.44
211.86	1740.77
212.08	1781.73
212.30	1718.25
212.52	1775.59
212.74	1691.62
212.96	1712.10
213.17	1634.28
213.39	1714.15
213.61	1798.12
213.83	1757.16
214.05	1576.94
214.27	1800.16
214.49	1550.31
214.71	1665.00
214.93	1736.68
215.15	1769.44
215.37	1716.20
215.59	1538.02
215.81	1701.86
216.03	1816.55
216.24	1755.11
216.46	1710.05
216.68	1658.85
216.90	1763.30
217.12	1812.45
217.34	1734.63
217.56	1777.64
217.78	1816.55
218.00	1675.24
218.22	1736.68
218.44	1640.42
218.66	1728.49
218.87	1755.11
219.09	1718.25
219.31	1755.11
219.53	1775.59
219.75	1636.33
219.97	1738.73
220.19	1705.96
220.41	1630.18
220.63	1740.77
220.85	1804.26
221.06	1728.49
221.28	1757.16
221.50	1730.53
221.72	1732.58
221.94	1730.53
222.16	1691.62
222.38	1808.36
222.60	1718.25
222.82	1697.77
223.03	1759.21
223.25	1705.96
223.47	1822.69
223.69	1834.98
223.91	1716.20
224.13	1742.82
224.35	1644.52
224.57	1820.64
224.78	1734.63
225.00	1667.05
225.22	1693.67
225.44	1738.73
225.66	1759.21
225.88	1722.34
226.10	1806.31
226.32	1718.25
226.53	1816.55
226.75	1748.97
226.97	1722.34
227.19	1714.15
227.41	1626.09
227.63	1689.57
227.85	1632.23
228.06	1681.38
228.28	1714.15
228.50	1787.88
228.72	1734.63
228.94	1699.81
229.16	1630.18
229.37	1617.90
229.59	1652.71
229.81	1871.84
230.03	1748.97
230.25	1560.55
230.47	1687.53
230.69	1619.94
230.90	1800.16
231.12	1619.94
231.34	1775.59
231.56	1734.63
231.78	1687.53
232.00	1757.16
232.21	1771.49
232.43	1695.72
232.65	1665.00
232.87	1734.63
233.09	1652.71
233.30	1640.42
233.52	1748.97
233.74	1773.54
233.96	1738.73
234.18	1744.87
234.40	1746.92
234.61	1828.84
234.83	1662.95
235.05	1593.32
235.27	1822.69
235.49	1830.88
235.70	1757.16
235.92	1773.54
236.14	1677.29
236.36	1871.84
236.58	1654.76
236.79	1728.49
237.01	1677.29
237.23	1665.00
237.45	1914.85
237.67	1572.84
237.88	1689.57
238.10	1820.64
238.32	1660.90
238.54	1677.29
238.76	1648.61
238.97	1705.96
239.19	1665.00
239.41	1765.35
239.63	1767.40
239.85	1679.33
240.06	1691.62
240.28	1775.59
240.50	1701.86
240.72	1726.44
240.93	1654.76
241.15	1794.02
241.37	1705.96
241.59	1759.21
241.81	1693.67
242.02	1697.77
242.24	1689.57
242.46	1767.40
242.68	1748.97
242.89	1800.16
243.11	1722.34
243.33	1677.29
243.55	1740.77
243.76	1726.44
243.98	1697.77
244.20	1652.71
244.42	1724.39
244.64	1677.29
244.85	1564.65
245.07	1714.15
245.29	1808.36
245.51	1724.39
245.72	1738.73
245.94	1742.82
246.16	1730.53
246.38	1839.08
246.59	1781.73
246.81	1587.18
247.03	1734.63
247.24	1611.75
247.46	1753.06
247.68	1771.49
247.90	1697.77
248.11	1714.15
248.33	1751.01
248.55	1708.01
248.77	1728.49
248.98	1808.36
249.20	1783.78
249.42	1755.11
249.64	1705.96
249.85	1646.57
250.07	1691.62
250.29	1779.68
250.50	1802.21
250.72	1650.66
250.94	1716.20
251.16	1841.12
251.37	1742.82
251.59	1679.33
251.81	1789.92
252.02	1781.73
252.24	1669.09
252.46	1787.88
252.68	1605.61
252.89	1595.37
253.11	1669.09
253.33	1767.40
253.54	1777.64
253.76	1660.90
253.98	1654.76
254.20	1660.90
254.41	1703.91
254.63	1689.57
254.85	1546.22
255.06	1775.59
255.28	1728.49
255.50	1716.20
255.71	1703.91
255.93	1605.61
256.15	1673.19
256.36	1748.97
256.58	1730.53
256.80	1816.55
257.02	1699.81
257.23	1697.77
257.45	1755.11
257.67	1689.57
257.88	1732.58
258.10	1767.40
258.32	1724.39
258.53	1722.34
258.75	1791.97
258.97	1673.19
259.18	1665.00
259.40	1714.15
259.62	1779.68
259.83	1796.07
260.05	1789.92
260.27	1984.48
260.48	1705.96
260.70	1660.90
260.92	1654.76
261.13	1681.38
261.35	1740.77
261.57	1791.97
261.78	1595.37
262.00	1626.09
262.22	1775.59
262.43	1703.91
262.65	1654.76
262.86	1730.53
263.08	1861.60
263.30	1691.62
263.51	1624.04
263.73	1697.77
263.95	1796.07
264.16	1660.90
264.38	1685.48
264.60	1736.68
264.81	1658.85
265.03	1763.30
265.25	1789.92
265.46	1761.25
265.68	1798.12
265.89	1863.65
266.11	1646.57
266.33	1728.49
266.54	1779.68
266.76	1710.05
266.98	1773.54
267.19	1822.69
267.41	1802.21
267.62	1789.92
267.84	1628.14
268.06	1746.92
268.27	1695.72
268.49	1742.82
268.70	1757.16
268.92	1703.91
269.14	1642.47
269.35	1656.81
269.57	1669.09
269.79	1771.49
270.00	1677.29
270.22	1859.56
270.43	1673.19
270.65	1591.27
270.87	1767.40
271.08	1761.25
271.30	1748.97
271.51	1820.64
271.73	1753.06
271.95	1779.68
272.16	1687.53
272.38	1742.82
272.59	1744.87
272.81	1722.34
273.02	1701.86
273.24	1662.95
273.46	1714.15
273.67	1640.42
273.89	1683.43
274.10	1722.34
274.32	1718.25
274.54	1699.81
274.75	1746.92
274.97	1638.38
275.18	1769.44
275.40	1722.34
275.61	1712.10
275.83	1656.81
276.05	1642.47
276.26	1679.33
276.48	1718.25
276.69	1697.77
276.91	1660.90
277.12	1798.12
277.34	1757.16
277.55	1800.16
277.77	1656.81
277.99	1714.15
278.20	1646.57
278.42	1691.62
278.63	1693.67
278.85	1644.52
279.06	1646.57
279.28	1720.29
279.49	1705.96
279.71	1804.26
279.93	1685.48
280.14	1701.86
280.36	1665.00
280.57	1814.50
280.79	1781.73
281.00	1679.33
281.22	1640.42
281.43	1779.68
281.65	1611.75
281.86	1593.32
282.08	1777.64
282.29	1828.84
282.51	1630.18
282.73	1619.94
282.94	1585.13
283.16	1746.92
283.37	1808.36
283.59	1740.77
283.80	1730.53
284.02	1689.57
284.23	1816.55
284.45	1771.49
284.66	1671.14
284.88	1626.09
285.09	1759.21
285.31	1681.38
285.52	1810.40
285.74	1669.09
285.95	1802.21
286.17	1757.16
286.38	1791.97
286.60	1724.39
286.81	1640.42
287.03	1705.96
287.24	1691.62
287.46	1671.14
287.67	1730.53
287.89	1816.55
288.10	1671.14
288.32	1652.71
288.53	1869.80
288.75	1697.77
288.96	1808.36
289.18	1710.05
289.39	1650.66
289.61	1722.34
289.82	1892.32
290.04	1828.84
290.25	1677.29
290.47	1669.09
290.68	1681.38
290.90	1755.11
291.11	1705.96
291.33	1763.30
291.54	1650.66
291.76	1689.57
291.97	1701.86
292.18	1736.68
292.40	1746.92
292.61	1695.72
292.83	1855.46
293.04	1730.53
293.26	1767.40
293.47	1703.91
293.69	1636.33
293.90	1673.19
294.12	1818.60
294.33	1667.05
294.55	1675.24
294.76	1740.77
294.97	1796.07
295.19	1832.93
295.40	1667.05
295.62	1826.79
295.83	1744.87
296.05	1705.96
296.26	1748.97
296.48	1701.86
296.69	1746.92
296.90	1679.33
297.12	1732.58
297.33	1783.78
297.55	1681.38
297.76	1703.91
297.98	1744.87
298.19	1699.81
298.41	1751.01
298.62	1667.05
298.83	1753.06
299.05	1667.05
299.26	1746.92
299.48	1568.74
299.69	1665.00
299.90	1697.77
300.12	1705.96
300.33	1726.44
300.55	1732.58
300.76	1759.21
300.98	1693.67
301.19	1724.39
301.40	1677.29
301.62	1751.01
301.83	1794.02
302.05	1593.32
302.26	1705.96
302.47	1714.15
302.69	1652.71
302.90	1654.76
303.12	1619.94
303.33	1738.73
303.54	1755.11
303.76	1677.29
303.97	1687.53
304.19	1830.88
304.40	1716.20
304.61	1722.34
304.83	1785.83
305.04	1773.54
305.26	1718.25
305.47	1708.01
305.68	1718.25
305.90	1632.23
306.11	1808.36
306.33	1730.53
306.54	1701.86
306.75	1746.92
306.97	1687.53
307.18	1695.72
307.39	1689.57
307.61	1734.63
307.82	1687.53
308.04	1775.59
308.25	1609.70
308.46	1755.11
308.68	1714.15
308.89	1685.48
309.10	1865.70
309.32	1685.48
309.53	1796.07
309.74	1761.25
309.96	1722.34
310.17	1804.26
310.39	1716.20
310.60	1779.68
310.81	1767.40
311.03	1583.08
311.24	1736.68
311.45	1708.01
311.67	1791.97
311.88	1697.77
312.09	1748.97
312.31	1669.09
312.52	1718.25
312.73	1767.40
312.95	1738.73
313.16	1677.29
313.37	1851.36
313.59	1769.44
313.80	1863.65
314.01	1859.56
314.23	1730.53
314.44	1669.09
314.65	1673.19
314.87	1697.77
315.08	1753.06
315.29	1687.53
315.51	1617.90
315.72	1662.95
315.93	1794.02
316.15	1763.30
316.36	1753.06
316.57	1650.66
316.79	1775.59
317.00	1746.92
317.21	1710.05
317.43	1775.59
317.64	1691.62
317.85	1675.24
318.07	1689.57
318.28	1767.40
318.49	1808.36
318.70	1918.95
318.92	1828.84
319.13	1871.84
319.34	1822.69
319.56	1794.02
319.77	1705.96
319.98	1806.31
320.20	1705.96
320.41	1740.77
320.62	1753.06
320.83	1642.47
321.05	1873.89
321.26	1759.21
321.47	1646.57
321.69	1824.74
321.90	1665.00
322.11	1691.62
322.32	1781.73
322.54	1806.31
322.75	1716.20
322.96	1794.02
323.18	1671.14
323.39	1624.04
323.60	1695.72
323.81	1740.77
324.03	1642.47
324.24	1708.01
324.45	1820.64
324.66	1683.43
324.88	1757.16
325.09	1800.16
325.30	1746.92
325.52	1738.73
325.73	1746.92
325.94	1734.63
326.15	1628.14
326.37	1597.42
326.58	1751.01
326.79	1771.49
327.00	1671.14
327.22	1693.67
327.43	1673.19
327.64	1617.90
327.85	1771.49
328.07	1794.02
328.28	1816.55
328.49	1740.77
328.70	1669.09
328.92	1656.81
329.13	1705.96
329.34	1748.97
329.55	1740.77
329.76	1697.77
329.98	1703.91
330.19	1773.54
330.40	1732.58
330.61	1720.29
330.83	1697.77
331.04	1613.80
331.25	1689.57
331.46	1718.25
331.68	1742.82
331.89	1746.92
332.10	1734.63
332.31	1630.18
332.52	1738.73
332.74	1816.55
332.95	1648.61
333.16	1746.92
333.37	1689.57
333.58	1660.90
333.80	1761.25
334.01	1544.17
334.22	1742.82
334.43	1738.73
334.64	1681.38
334.86	1607.66
335.07	1646.57
335.28	1779.68
335.49	1607.66
335.70	1755.11
335.92	1755.11
336.13	1906.66
336.34	1722.34
336.55	1787.88
336.76	1798.12
336.98	1560.55
337.19	1722.34
337.40	1703.91
337.61	1806.31
337.82	1695.72
338.04	1759.21
338.25	1644.52
338.46	1798.12
338.67	1703.91
338.88	1632.23
339.09	1626.09
339.31	1710.05
339.52	1660.90
339.73	1697.77
339.94	1771.49
340.15	1771.49
340.36	1648.61
340.58	1724.39
340.79	1632.23
341.00	1730.53
341.21	1640.42
341.42	1894.37
341.63	1775.59
341.85	1785.83
342.06	1685.48
342.27	1683.43
342.48	1769.44
342.69	1673.19
342.90	1746.92
343.12	1783.78
343.33	1665.00
343.54	1732.58
343.75	1767.40
343.96	1697.77
344.17	1687.53
344.38	1714.15
344.60	1693.67
344.81	1593.32
345.02	1693.67
345.23	1837.03
345.44	1716.20
345.65	1736.68
345.86	1744.87
346.07	1687.53
346.29	1722.34
346.50	1740.77
346.71	1714.15
346.92	1791.97
347.13	1845.22
347.34	1761.25
347.55	1718.25
347.76	1701.86
347.98	1642.47
348.19	1730.53
348.40	1769.44
348.61	1675.24
348.82	1751.01
349.03	1755.11
349.24	1746.92
349.45	1712.10
349.66	1624.04
349.88	1701.86
350.09	1624.04
350.30	1787.88
350.51	1787.88
350.72	1734.63
350.93	1677.29
351.14	1724.39
351.35	1710.05
351.56	1628.14
351.77	1748.97
351.99	1732.58
352.20	1746.92
352.41	1822.69
352.62	1660.90
352.83	1652.71
353.04	1740.77
353.25	1679.33
353.46	1804.26
353.67	1779.68
353.88	1542.12
354.09	1691.62
354.30	1767.40
354.52	1808.36
354.73	1671.14
354.94	1742.82
355.15	1728.49
355.36	1771.49
355.57	1636.33
355.78	1738.73
355.99	1607.66
356.20	1679.33
356.41	1773.54
356.62	1685.48
356.83	1703.91
357.04	1769.44
357.25	1599.46
357.46	1679.33
357.68	1667.05
357.89	1593.32
358.10	1724.39
358.31	1697.77
358.52	1695.72
358.73	1652.71
358.94	1648.61
359.15	1630.18
359.36	1796.07
359.57	1712.10
359.78	1673.19
359.99	1716.20
360.20	1667.05
360.41	1607.66
360.62	1763.30
360.83	1697.77
361.04	1648.61
361.25	1699.81
361.46	1808.36
361.67	1697.77
361.88	1740.77
362.09	1775.59
362.30	1712.10
362.51	1734.63
362.72	1753.06
362.93	1816.55
363.14	1816.55
363.35	1689.57
363.56	1683.43
363.78	1695.72
363.99	1761.25
364.20	1699.81
364.41	1730.53
364.62	1820.64
364.83	1826.79
365.04	1722.34
365.25	1660.90
365.46	1820.64
365.67	1673.19
365.88	1615.85
366.09	1724.39
366.30	1720.29
366.51	1740.77
366.72	1648.61
366.93	1734.63
367.14	1718.25
367.35	1755.11
367.56	1689.57
367.77	1802.21
367.98	1787.88
368.18	1847.27
368.39	1726.44
368.60	1724.39
368.81	1775.59
369.02	1738.73
369.23	1652.71
369.44	1654.76
369.65	1646.57
369.86	1767.40
370.07	1779.68
370.28	1673.19
370.49	1800.16
370.70	1738.73
370.91	1691.62
371.12	1626.09
371.33	1714.15
371.54	1724.39
371.75	1791.97
371.96	1679.33
372.17	1701.86
372.38	1820.64
372.59	1693.67
372.80	1701.86
373.01	1675.24
373.22	1689.57
373.43	1722.34
373.64	1689.57
373.85	1798.12
374.06	1822.69
374.26	1646.57
374.47	1800.16
374.68	1796.07
374.89	1714.15
375.10	1640.42
375.31	1732.58
375.52	1650.66
375.73	1742.82
375.94	1695.72
376.15	1789.92
376.36	1693.67
376.57	1738.73
376.78	1693.67
376.99	1679.33
377.20	1800.16
377.40	1708.01
377.61	1837.03
377.82	1730.53
378.03	1763.30
378.24	1759.21
378.45	1736.68
378.66	1791.97
378.87	1673.19
379.08	1681.38
379.29	1732.58
379.50	1861.60
379.71	1677.29
379.91	1818.60
380.12	1800.16
380.33	1691.62
380.54	1705.96
380.75	1740.77
380.96	1636.33
381.17	1761.25
381.38	1730.53
381.59	1716.20
381.80	1656.81
382.00	1910.75
382.21	1716.20
382.42	1777.64
382.63	1927.14
382.84	1728.49
383.05	1771.49
383.26	1812.45
383.47	1785.83
383.68	1773.54
383.88	1757.16
384.09	1802.21
384.30	1824.74
384.51	1699.81
384.72	1624.04
384.93	1624.04
385.14	1781.73
385.35	1708.01
385.55	1705.96
385.76	1783.78
385.97	1742.82
386.18	1658.85
386.39	1628.14
386.60	1681.38
386.81	1728.49
387.02	1681.38
387.22	1710.05
387.43	1855.46
387.64	1791.97
387.85	1787.88
388.06	2265.05
388.27	4288.45
388.48	6717.34
388.68	8279.94
388.89	9709.42
389.10	9901.93
389.31	8646.52
389.52	7432.08
389.73	6762.39
389.93	6098.85
390.14	5857.19
390.35	5265.33
390.56	4640.70
390.77	3899.33
390.98	3008.47
391.18	2473.95
391.39	2140.13
391.60	1867.75
391.81	1837.03
392.02	1757.16
392.23	1861.60
392.43	1714.15
392.64	1869.80
392.85	1677.29
393.06	1753.06
393.27	1816.55
393.47	1675.24
393.68	1755.11
393.89	1701.86
394.10	1814.50
394.31	1728.49
394.52	1724.39
394.72	1732.58
394.93	1816.55
395.14	1642.47
395.35	1791.97
395.56	1685.48
395.76	1695.72
395.97	1714.15
396.18	1789.92
396.39	1859.56
396.60	2047.97
396.80	1882.08
397.01	1822.69
397.22	1771.49
397.43	1929.19
397.64	1775.59
397.84	1783.78
398.05	1857.51
398.26	1751.01
398.47	1738.73
398.67	1785.83
398.88	1763.30
399.09	1777.64
399.30	1720.29
399.51	1746.92
399.71	1740.77
399.92	1716.20
400.13	1841.12
400.34	1730.53
400.54	1761.25
400.75	1798.12
400.96	1812.45
401.17	1783.78
401.37	1755.11
401.58	1724.39
401.79	1757.16
402.00	1877.99
402.21	2058.21
402.41	1976.29
402.62	1970.15
402.83	2052.06
403.04	1988.58
403.24	2027.49
403.45	1945.57
403.66	1890.28
403.87	1877.99
404.07	1873.89
404.28	1877.99
404.49	1820.64
404.70	1808.36
404.90	1791.97
405.11	1796.07
405.32	1734.63
405.52	1685.48
405.73	1662.95
405.94	1638.38
406.15	1675.24
406.35	1812.45
406.56	1775.59
406.77	1814.50
406.98	1763.30
407.18	1689.57
407.39	1781.73
407.60	1679.33
407.80	1742.82
408.01	1679.33
408.22	1742.82
408.43	1642.47
408.63	1748.97
408.84	1652.71
409.05	1779.68
409.25	1757.16
409.46	1660.90
409.67	1689.57
409.88	1642.47
410.08	1800.16
410.29	1759.21
410.50	1820.64
410.70	1732.58
410.91	1746.92
411.12	1730.53
411.32	1730.53
411.53	1701.86
411.74	1812.45
411.95	1781.73
412.15	1689.57
412.36	1859.56
412.57	1820.64
412.77	1818.60
412.98	1740.77
413.19	1742.82
413.39	1791.97
413.60	1785.83
413.81	1810.40
414.01	1677.29
414.22	1685.48
414.43	1771.49
414.63	1689.57
414.84	1769.44
415.05	1724.39
415.25	1593.32
415.46	1705.96
415.67	1714.15
415.87	1757.16
416.08	1705.96
416.29	1630.18
416.49	1712.10
416.70	1615.85
416.91	1734.63
417.11	1697.77
417.32	1714.15
417.53	1671.14
417.73	1732.58
417.94	1736.68
418.15	1812.45
418.35	1773.54
418.56	1804.26
418.77	1886.18
418.97	1697.77
419.18	1724.39
419.38	1679.33
419.59	1734.63
419.80	1845.22
420.00	1693.67
420.21	1730.53
420.42	1785.83
420.62	1720.29
420.83	1673.19
421.04	1681.38
421.24	1679.33
421.45	1773.54
421.65	1808.36
421.86	1728.49
422.07	1814.50
422.27	1673.19
422.48	1789.92
422.69	1626.09
422.89	1652.71
423.10	1652.71
423.30	1722.34
423.51	1755.11
423.72	1742.82
423.92	1804.26
424.13	1726.44
424.33	1785.83
424.54	1767.40
424.75	1720.29
424.95	1812.45
425.16	1806.31
425.36	1701.86
425.57	1763.30
425.78	1742.82
425.98	1804.26
426.19	1665.00
426.39	1609.70
426.60	1697.77
426.81	1808.36
427.01	1728.49
427.22	1716.20
427.42	1591.27
427.63	1683.43
427.83	1769.44
428.04	1886.18
428.25	1757.16
428.45	1769.44
428.66	1779.68
428.86	1695.72
429.07	1665.00
429.28	1701.86
429.48	1724.39
429.69	1648.61
429.89	1748.97
430.10	1656.81
430.30	1779.68
430.51	1742.82
430.71	1746.92
430.92	1751.01
431.13	1796.07
431.33	1742.82
431.54	1740.77
431.74	1763.30
431.95	1818.60
432.15	1712.10
432.36	1718.25
432.56	1783.78
432.77	1818.60
432.98	1830.88
433.18	1794.02
433.39	1701.86
433.59	1730.53
433.80	1875.94
434.00	1826.79
434.21	1718.25
434.41	1689.57
434.62	1945.57
434.82	1669.09
435.03	1691.62
435.23	1714.15
435.44	1607.66
435.64	1796.07
435.85	1730.53
436.06	1798.12
436.26	1732.58
436.47	1705.96
436.67	1718.25
436.88	1734.63
437.08	1800.16
437.29	1826.79
437.49	1765.35
437.70	1798.12
437.90	1757.16
438.11	1875.94
438.31	1834.98
438.52	1896.42
438.72	1867.75
438.93	1880.04
439.13	1812.45
439.34	1812.45
439.54	1701.86
439.75	1746.92
439.95	1888.23
440.16	1736.68
440.36	1775.59
440.57	1736.68
440.77	1763.30
440.98	1771.49
441.18	1742.82
441.39	1759.21
441.59	1652.71
441.80	1785.83
442.00	1730.53
442.21	1837.03
442.41	1718.25
442.62	1746.92
442.82	1705.96
443.02	1708.01
443.23	1763.30
443.43	1687.53
443.64	1800.16
443.84	1607.66
444.05	1814.50
444.25	1742.82
444.46	1710.05
444.66	1699.81
444.87	1843.17
445.07	1646.57
445.28	1738.73
445.48	1822.69
445.69	1771.49
445.89	1888.23
446.09	1785.83
446.30	1964.00
446.50	2617.30
446.71	3624.90
446.91	4270.01
447.12	4773.82
447.32	4851.64
447.53	4431.80
447.73	3876.80
447.93	3534.79
448.14	3340.24
448.34	3157.97
448.55	2897.88
448.75	2863.06
448.96	2709.46
449.16	2437.08
449.36	2322.40
449.57	2117.60
449.77	1914.85
449.98	1789.92
450.18	1800.16
450.39	1804.26
450.59	1775.59
450.79	1751.01
451.00	1716.20
451.20	1781.73
451.41	1626.09
451.61	1787.88
451.81	1712.10
452.02	1716.20
452.22	1761.25
452.43	1693.67
452.63	1724.39
