SpectraSuite Data File
++++++++++++++++++++++++++++++++++++
Date: Mon Jun 06 16:34:37 CEST 2016
User: root
Dark Spectrum Present: No
Reference Spectrum Present: No
Number of Sampled Component Spectra: 1
Spectrometers: USB4C02835
Integration Time (usec): 100000 (USB4C02835)
Spectra Averaged: 1 (USB4C02835)
Boxcar Smoothing: 0 (USB4C02835)
Correct for Electrical Dark: No (USB4C02835)
Strobe/Lamp Enabled: No (USB4C02835)
Correct for Detector Non-linearity: No (USB4C02835)
Correct for Stray Light: No (USB4C02835)
Number of Pixels in Processed Spectrum: 3648
>>>>>Begin Processed Spectral Data<<<<<
177.47	1484.78
177.69	1484.78
177.91	1484.78
178.13	1558.50
178.36	1488.87
178.58	1701.86
178.80	1705.96
179.02	1656.81
179.24	1607.66
179.46	1646.57
179.68	1796.07
179.90	1736.68
180.13	1740.77
180.35	1642.47
180.57	1693.67
180.79	1695.72
181.01	1701.86
181.23	1771.49
181.45	1798.12
181.67	1697.77
181.90	1740.77
182.12	1738.73
182.34	1578.98
182.56	1718.25
182.78	1751.01
183.00	1705.96
183.22	1708.01
183.44	1665.00
183.66	1904.61
183.89	1730.53
184.11	1712.10
184.33	1726.44
184.55	1708.01
184.77	1769.44
184.99	1787.88
185.21	1748.97
185.43	1787.88
185.65	1701.86
185.87	1724.39
186.10	1832.93
186.32	1877.99
186.54	1722.34
186.76	1748.97
186.98	1718.25
187.20	1699.81
187.42	1658.85
187.64	1746.92
187.86	1701.86
188.08	1753.06
188.30	1693.67
188.52	1716.20
188.75	1726.44
188.97	1771.49
189.19	1679.33
189.41	1740.77
189.63	1732.58
189.85	1759.21
190.07	1665.00
190.29	1652.71
190.51	1742.82
190.73	1679.33
190.95	1798.12
191.17	1632.23
191.39	1574.89
191.61	1624.04
191.84	1734.63
192.06	1738.73
192.28	1613.80
192.50	1871.84
192.72	1720.29
192.94	1642.47
193.16	1777.64
193.38	1718.25
193.60	1656.81
193.82	1730.53
194.04	1806.31
194.26	1722.34
194.48	1689.57
194.70	1697.77
194.92	1742.82
195.14	1726.44
195.36	1660.90
195.58	1763.30
195.80	1705.96
196.02	1714.15
196.24	1708.01
196.46	1708.01
196.69	1693.67
196.91	1914.85
197.13	1779.68
197.35	1695.72
197.57	1736.68
197.79	1656.81
198.01	1630.18
198.23	1871.84
198.45	1736.68
198.67	1611.75
198.89	1695.72
199.11	1687.53
199.33	1726.44
199.55	1628.14
199.77	1636.33
199.99	1714.15
200.21	1681.38
200.43	1734.63
200.65	1738.73
200.87	1574.89
201.09	1720.29
201.31	1714.15
201.53	1759.21
201.75	1738.73
201.97	1724.39
202.19	1746.92
202.41	1728.49
202.63	1804.26
202.85	1765.35
203.07	1755.11
203.29	1656.81
203.51	1648.61
203.73	1591.27
203.95	1910.75
204.17	1691.62
204.39	1718.25
204.61	1730.53
204.83	1673.19
205.05	1791.97
205.27	1712.10
205.49	1806.31
205.71	1665.00
205.93	1650.66
206.15	1667.05
206.37	1738.73
206.59	1722.34
206.81	1624.04
207.03	1607.66
207.25	1650.66
207.47	1763.30
207.69	1673.19
207.91	1777.64
208.13	1767.40
208.34	1681.38
208.56	1677.29
208.78	1794.02
209.00	1740.77
209.22	1691.62
209.44	1689.57
209.66	1654.76
209.88	1658.85
210.10	1665.00
210.32	1734.63
210.54	1742.82
210.76	1720.29
210.98	1716.20
211.20	1599.46
211.42	1697.77
211.64	1798.12
211.86	1697.77
212.08	1732.58
212.30	1673.19
212.52	1701.86
212.74	1675.24
212.96	1742.82
213.17	1771.49
213.39	1703.91
213.61	1767.40
213.83	1646.57
214.05	1599.46
214.27	1710.05
214.49	1683.43
214.71	1585.13
214.93	1777.64
215.15	1738.73
215.37	1791.97
215.59	1644.52
215.81	1699.81
216.03	1691.62
216.24	1742.82
216.46	1705.96
216.68	1675.24
216.90	1798.12
217.12	1767.40
217.34	1681.38
217.56	1738.73
217.78	1751.01
218.00	1730.53
218.22	1669.09
218.44	1732.58
218.66	1669.09
218.87	1859.56
219.09	1710.05
219.31	1660.90
219.53	1771.49
219.75	1775.59
219.97	1691.62
220.19	1716.20
220.41	1732.58
220.63	1800.16
220.85	1742.82
221.06	1714.15
221.28	1771.49
221.50	1755.11
221.72	1648.61
221.94	1714.15
222.16	1716.20
222.38	1783.78
222.60	1834.98
222.82	1665.00
223.03	1650.66
223.25	1667.05
223.47	1746.92
223.69	1843.17
223.91	1730.53
224.13	1728.49
224.35	1677.29
224.57	1773.54
224.78	1730.53
225.00	1611.75
225.22	1689.57
225.44	1730.53
225.66	1812.45
225.88	1675.24
226.10	1742.82
226.32	1781.73
226.53	1765.35
226.75	1658.85
226.97	1697.77
227.19	1710.05
227.41	1574.89
227.63	1693.67
227.85	1675.24
228.06	1755.11
228.28	1667.05
228.50	1820.64
228.72	1716.20
228.94	1685.48
229.16	1628.14
229.37	1722.34
229.59	1671.14
229.81	1746.92
230.03	1748.97
230.25	1632.23
230.47	1675.24
230.69	1591.27
230.90	1728.49
231.12	1656.81
231.34	1734.63
231.56	1791.97
231.78	1652.71
232.00	1689.57
232.21	1718.25
232.43	1644.52
232.65	1605.61
232.87	1765.35
233.09	1624.04
233.30	1626.09
233.52	1695.72
233.74	1744.87
233.96	1730.53
234.18	1730.53
234.40	1671.14
234.61	1812.45
234.83	1556.46
235.05	1671.14
235.27	1843.17
235.49	1781.73
235.70	1691.62
235.92	1789.92
236.14	1820.64
236.36	1798.12
236.58	1595.37
236.79	1697.77
237.01	1732.58
237.23	1650.66
237.45	1763.30
237.67	1558.50
237.88	1626.09
238.10	1755.11
238.32	1607.66
238.54	1658.85
238.76	1662.95
238.97	1650.66
239.19	1714.15
239.41	1783.78
239.63	1767.40
239.85	1691.62
240.06	1748.97
240.28	1710.05
240.50	1779.68
240.72	1712.10
240.93	1759.21
241.15	1814.50
241.37	1771.49
241.59	1753.06
241.81	1597.42
242.02	1738.73
242.24	1712.10
242.46	1796.07
242.68	1660.90
242.89	1708.01
243.11	1757.16
243.33	1755.11
243.55	1730.53
243.76	1753.06
243.98	1781.73
244.20	1716.20
244.42	1701.86
244.64	1773.54
244.85	1636.33
245.07	1693.67
245.29	1765.35
245.51	1699.81
245.72	1771.49
245.94	1746.92
246.16	1748.97
246.38	1714.15
246.59	1753.06
246.81	1644.52
247.03	1718.25
247.24	1636.33
247.46	1665.00
247.68	1734.63
247.90	1699.81
248.11	1687.53
248.33	1738.73
248.55	1669.09
248.77	1667.05
248.98	1757.16
249.20	1822.69
249.42	1763.30
249.64	1732.58
249.85	1646.57
250.07	1624.04
250.29	1732.58
250.50	1742.82
250.72	1619.94
250.94	1783.78
251.16	1822.69
251.37	1853.41
251.59	1722.34
251.81	1687.53
252.02	1796.07
252.24	1603.56
252.46	1763.30
252.68	1685.48
252.89	1640.42
253.11	1619.94
253.33	1810.40
253.54	1738.73
253.76	1617.90
253.98	1775.59
254.20	1738.73
254.41	1716.20
254.63	1689.57
254.85	1730.53
255.06	1665.00
255.28	1734.63
255.50	1777.64
255.71	1628.14
255.93	1640.42
256.15	1744.87
256.36	1755.11
256.58	1626.09
256.80	1773.54
257.02	1669.09
257.23	1708.01
257.45	1732.58
257.67	1736.68
257.88	1738.73
258.10	1746.92
258.32	1738.73
258.53	1697.77
258.75	1794.02
258.97	1675.24
259.18	1757.16
259.40	1726.44
259.62	1794.02
259.83	1779.68
260.05	1751.01
260.27	1951.71
260.48	1765.35
260.70	1640.42
260.92	1746.92
261.13	1621.99
261.35	1720.29
261.57	1804.26
261.78	1621.99
262.00	1691.62
262.22	1724.39
262.43	1673.19
262.65	1740.77
262.86	1658.85
263.08	1871.84
263.30	1779.68
263.51	1640.42
263.73	1626.09
263.95	1763.30
264.16	1613.80
264.38	1679.33
264.60	1812.45
264.81	1689.57
265.03	1769.44
265.25	1775.59
265.46	1693.67
265.68	1849.32
265.89	1693.67
266.11	1574.89
266.33	1769.44
266.54	1693.67
266.76	1705.96
266.98	1714.15
267.19	1812.45
267.41	1710.05
267.62	1724.39
267.84	1658.85
268.06	1798.12
268.27	1744.87
268.49	1751.01
268.70	1736.68
268.92	1751.01
269.14	1615.85
269.35	1636.33
269.57	1636.33
269.79	1773.54
270.00	1789.92
270.22	1775.59
270.43	1679.33
270.65	1552.36
270.87	1736.68
271.08	1845.22
271.30	1800.16
271.51	1714.15
271.73	1775.59
271.95	1720.29
272.16	1687.53
272.38	1767.40
272.59	1724.39
272.81	1757.16
273.02	1765.35
273.24	1660.90
273.46	1808.36
273.67	1656.81
273.89	1677.29
274.10	1685.48
274.32	1728.49
274.54	1757.16
274.75	1740.77
274.97	1699.81
275.18	1753.06
275.40	1757.16
275.61	1693.67
275.83	1771.49
276.05	1650.66
276.26	1652.71
276.48	1710.05
276.69	1669.09
276.91	1681.38
277.12	1697.77
277.34	1734.63
277.55	1720.29
277.77	1714.15
277.99	1689.57
278.20	1626.09
278.42	1648.61
278.63	1705.96
278.85	1677.29
279.06	1677.29
279.28	1732.58
279.49	1660.90
279.71	1722.34
279.93	1744.87
280.14	1728.49
280.36	1675.24
280.57	1701.86
280.79	1716.20
281.00	1624.04
281.22	1689.57
281.43	1716.20
281.65	1595.37
281.86	1626.09
282.08	1714.15
282.29	1800.16
282.51	1628.14
282.73	1617.90
282.94	1581.03
283.16	1773.54
283.37	1820.64
283.59	1693.67
283.80	1851.36
284.02	1742.82
284.23	1699.81
284.45	1734.63
284.66	1656.81
284.88	1796.07
285.09	1695.72
285.31	1677.29
285.52	1738.73
285.74	1699.81
285.95	1753.06
286.17	1697.77
286.38	1740.77
286.60	1701.86
286.81	1738.73
287.03	1691.62
287.24	1695.72
287.46	1789.92
287.67	1781.73
287.89	1763.30
288.10	1777.64
288.32	1718.25
288.53	1714.15
288.75	1785.83
288.96	1834.98
289.18	1671.14
289.39	1671.14
289.61	1755.11
289.82	1834.98
290.04	1859.56
290.25	1685.48
290.47	1787.88
290.68	1628.14
290.90	1746.92
291.11	1626.09
291.33	1679.33
291.54	1656.81
291.76	1734.63
291.97	1695.72
292.18	1708.01
292.40	1681.38
292.61	1660.90
292.83	1814.50
293.04	1712.10
293.26	1701.86
293.47	1822.69
293.69	1656.81
293.90	1712.10
294.12	1755.11
294.33	1691.62
294.55	1718.25
294.76	1730.53
294.97	1775.59
295.19	1853.41
295.40	1714.15
295.62	1775.59
295.83	1800.16
296.05	1681.38
296.26	1703.91
296.48	1730.53
296.69	1654.76
296.90	1677.29
297.12	1773.54
297.33	1796.07
297.55	1665.00
297.76	1701.86
297.98	1779.68
298.19	1654.76
298.41	1726.44
298.62	1654.76
298.83	1753.06
299.05	1714.15
299.26	1658.85
299.48	1691.62
299.69	1712.10
299.90	1798.12
300.12	1677.29
300.33	1714.15
300.55	1748.97
300.76	1800.16
300.98	1673.19
301.19	1699.81
301.40	1673.19
301.62	1683.43
301.83	1779.68
302.05	1767.40
302.26	1724.39
302.47	1718.25
302.69	1640.42
302.90	1636.33
303.12	1722.34
303.33	1724.39
303.54	1837.03
303.76	1734.63
303.97	1742.82
304.19	1841.12
304.40	1644.52
304.61	1714.15
304.83	1781.73
305.04	1796.07
305.26	1697.77
305.47	1576.94
305.68	1665.00
305.90	1667.05
306.11	1798.12
306.33	1714.15
306.54	1693.67
306.75	1662.95
306.97	1673.19
307.18	1699.81
307.39	1734.63
307.61	1736.68
307.82	1677.29
308.04	1767.40
308.25	1769.44
308.46	1791.97
308.68	1738.73
308.89	1658.85
309.10	1775.59
309.32	1751.01
309.53	1681.38
309.74	1757.16
309.96	1689.57
310.17	1718.25
310.39	1673.19
310.60	1683.43
310.81	1679.33
311.03	1611.75
311.24	1738.73
311.45	1720.29
311.67	1826.79
311.88	1738.73
312.09	1554.41
312.31	1708.01
312.52	1734.63
312.73	1691.62
312.95	1703.91
313.16	1738.73
313.37	1779.68
313.59	1748.97
313.80	1761.25
314.01	1744.87
314.23	1734.63
314.44	1615.85
314.65	1730.53
314.87	1648.61
315.08	1701.86
315.29	1736.68
315.51	1685.48
315.72	1656.81
315.93	1834.98
316.15	1718.25
316.36	1744.87
316.57	1691.62
316.79	1734.63
317.00	1646.57
317.21	1736.68
317.43	1671.14
317.64	1693.67
317.85	1716.20
318.07	1681.38
318.28	1734.63
318.49	1798.12
318.70	1990.63
318.92	1748.97
319.13	1755.11
319.34	1757.16
319.56	1828.84
319.77	1789.92
319.98	1843.17
320.20	1800.16
320.41	1742.82
320.62	1785.83
320.83	1693.67
321.05	1904.61
321.26	1722.34
321.47	1693.67
321.69	1773.54
321.90	1638.38
322.11	1691.62
322.32	1771.49
322.54	1763.30
322.75	1673.19
322.96	1837.03
323.18	1599.46
323.39	1667.05
323.60	1693.67
323.81	1789.92
324.03	1722.34
324.24	1701.86
324.45	1677.29
324.66	1722.34
324.88	1753.06
325.09	1820.64
325.30	1718.25
325.52	1701.86
325.73	1689.57
325.94	1603.56
326.15	1671.14
326.37	1693.67
326.58	1810.40
326.79	1773.54
327.00	1714.15
327.22	1726.44
327.43	1681.38
327.64	1603.56
327.85	1763.30
328.07	1746.92
328.28	1812.45
328.49	1652.71
328.70	1744.87
328.92	1734.63
329.13	1683.43
329.34	1732.58
329.55	1804.26
329.76	1861.60
329.98	1628.14
330.19	1773.54
330.40	1671.14
330.61	1640.42
330.83	1716.20
331.04	1597.42
331.25	1685.48
331.46	1617.90
331.68	1628.14
331.89	1744.87
332.10	1724.39
332.31	1665.00
332.52	1724.39
332.74	1765.35
332.95	1595.37
333.16	1699.81
333.37	1751.01
333.58	1689.57
333.80	1693.67
334.01	1638.38
334.22	1656.81
334.43	1605.61
334.64	1615.85
334.86	1613.80
335.07	1658.85
335.28	1847.27
335.49	1615.85
335.70	1757.16
335.92	1802.21
336.13	1810.40
336.34	1732.58
336.55	1685.48
336.76	1701.86
336.98	1628.14
337.19	1730.53
337.40	1837.03
337.61	1794.02
337.82	1667.05
338.04	1724.39
338.25	1667.05
338.46	1669.09
338.67	1703.91
338.88	1648.61
339.09	1593.32
339.31	1742.82
339.52	1628.14
339.73	1646.57
339.94	1820.64
340.15	1767.40
340.36	1648.61
340.58	1755.11
340.79	1689.57
341.00	1701.86
341.21	1681.38
341.42	1791.97
341.63	1693.67
341.85	1826.79
342.06	1779.68
342.27	1605.61
342.48	1779.68
342.69	1722.34
342.90	1705.96
343.12	1755.11
343.33	1703.91
343.54	1703.91
343.75	1765.35
343.96	1744.87
344.17	1746.92
344.38	1771.49
344.60	1718.25
344.81	1687.53
345.02	1687.53
345.23	1779.68
345.44	1755.11
345.65	1732.58
345.86	1708.01
346.07	1718.25
346.29	1757.16
346.50	1718.25
346.71	1746.92
346.92	1705.96
347.13	1880.04
347.34	1703.91
347.55	1703.91
347.76	1781.73
347.98	1638.38
348.19	1662.95
348.40	1732.58
348.61	1656.81
348.82	1818.60
349.03	1656.81
349.24	1681.38
349.45	1791.97
349.66	1624.04
349.88	1681.38
350.09	1603.56
350.30	1755.11
350.51	1775.59
350.72	1701.86
350.93	1787.88
351.14	1714.15
351.35	1693.67
351.56	1724.39
351.77	1697.77
351.99	1757.16
352.20	1871.84
352.41	1802.21
352.62	1640.42
352.83	1714.15
353.04	1705.96
353.25	1695.72
353.46	1730.53
353.67	1816.55
353.88	1632.23
354.09	1771.49
354.30	1714.15
354.52	1832.93
354.73	1761.25
354.94	1722.34
355.15	1634.28
355.36	1900.52
355.57	1699.81
355.78	1785.83
355.99	1619.94
356.20	1677.29
356.41	1783.78
356.62	1685.48
356.83	1718.25
357.04	1785.83
357.25	1634.28
357.46	1761.25
357.68	1673.19
357.89	1708.01
358.10	1703.91
358.31	1730.53
358.52	1710.05
358.73	1599.46
358.94	1640.42
359.15	1662.95
359.36	1789.92
359.57	1734.63
359.78	1621.99
359.99	1724.39
360.20	1642.47
360.41	1683.43
360.62	1746.92
360.83	1712.10
361.04	1677.29
361.25	1683.43
361.46	1804.26
361.67	1701.86
361.88	1761.25
362.09	1675.24
362.30	1802.21
362.51	1669.09
362.72	1759.21
362.93	1794.02
363.14	1785.83
363.35	1730.53
363.56	1615.85
363.78	1787.88
363.99	1761.25
364.20	1681.38
364.41	1683.43
364.62	1892.32
364.83	1689.57
365.04	1751.01
365.25	1775.59
365.46	1832.93
365.67	1693.67
365.88	1689.57
366.09	1624.04
366.30	1665.00
366.51	1746.92
366.72	1626.09
366.93	1798.12
367.14	1681.38
367.35	1757.16
367.56	1652.71
367.77	1800.16
367.98	1669.09
368.18	1751.01
368.39	1726.44
368.60	1689.57
368.81	1757.16
369.02	1675.24
369.23	1699.81
369.44	1685.48
369.65	1718.25
369.86	1695.72
370.07	1734.63
370.28	1650.66
370.49	1748.97
370.70	1740.77
370.91	1568.74
371.12	1617.90
371.33	1718.25
371.54	1613.80
371.75	1781.73
371.96	1638.38
372.17	1701.86
372.38	1638.38
372.59	1734.63
372.80	1673.19
373.01	1689.57
373.22	1738.73
373.43	1724.39
373.64	1699.81
373.85	1777.64
374.06	1830.88
374.26	1783.78
374.47	1777.64
374.68	1834.98
374.89	1728.49
375.10	1685.48
375.31	1720.29
375.52	1779.68
375.73	1683.43
375.94	1699.81
376.15	1841.12
376.36	1671.14
376.57	1693.67
376.78	1652.71
376.99	1708.01
377.20	1787.88
377.40	1722.34
377.61	1800.16
377.82	1734.63
378.03	1796.07
378.24	1701.86
378.45	1744.87
378.66	1755.11
378.87	1642.47
379.08	1626.09
379.29	1667.05
379.50	1736.68
379.71	1685.48
379.91	1812.45
380.12	1734.63
380.33	1734.63
380.54	1710.05
380.75	1718.25
380.96	1738.73
381.17	1798.12
381.38	1660.90
381.59	1763.30
381.80	1708.01
382.00	1787.88
382.21	1738.73
382.42	1822.69
382.63	1865.70
382.84	1757.16
383.05	1726.44
383.26	1771.49
383.47	1705.96
383.68	1746.92
383.88	1742.82
384.09	1759.21
384.30	1771.49
384.51	1746.92
384.72	1718.25
384.93	1644.52
385.14	1705.96
385.35	1816.55
385.55	1701.86
385.76	1757.16
385.97	1724.39
386.18	1724.39
386.39	1697.77
386.60	1718.25
386.81	1648.61
387.02	1673.19
387.22	1673.19
387.43	1837.03
387.64	1800.16
387.85	1845.22
388.06	2238.43
388.27	4347.84
388.48	6582.17
388.68	8140.68
388.89	9432.94
389.10	9701.23
389.31	8425.34
389.52	7475.09
389.73	6561.69
389.93	6098.85
390.14	5715.88
390.35	5343.15
390.56	4501.44
390.77	3743.69
390.98	3028.95
391.18	2439.13
391.39	2127.84
391.60	1816.55
391.81	1839.08
392.02	1681.38
392.23	1851.36
392.43	1703.91
392.64	1759.21
392.85	1714.15
393.06	1826.79
393.27	1667.05
393.47	1755.11
393.68	1759.21
393.89	1708.01
394.10	1781.73
394.31	1691.62
394.52	1705.96
394.72	1726.44
394.93	1785.83
395.14	1665.00
395.35	1757.16
395.56	1638.38
395.76	1740.77
395.97	1757.16
396.18	1927.14
396.39	1873.89
396.60	1994.72
396.80	1847.27
397.01	1865.70
397.22	1796.07
397.43	1865.70
397.64	1816.55
397.84	1828.84
398.05	1957.86
398.26	1746.92
398.47	1802.21
398.67	1732.58
398.88	1665.00
399.09	1732.58
399.30	1691.62
399.51	1738.73
399.71	1578.98
399.92	1658.85
400.13	1716.20
400.34	1755.11
400.54	1710.05
400.75	1791.97
400.96	1705.96
401.17	1849.32
401.37	1771.49
401.58	1712.10
401.79	1705.96
402.00	1871.84
402.21	2056.16
402.41	1986.53
402.62	2027.49
402.83	2105.31
403.04	1959.91
403.24	2074.59
403.45	1853.41
403.66	1968.10
403.87	1865.70
404.07	1912.80
404.28	1886.18
404.49	1839.08
404.70	1775.59
404.90	1783.78
405.11	1781.73
405.32	1755.11
405.52	1648.61
405.73	1667.05
405.94	1714.15
406.15	1722.34
406.35	1761.25
406.56	1804.26
406.77	1779.68
406.98	1714.15
407.18	1691.62
407.39	1845.22
407.60	1732.58
407.80	1822.69
408.01	1665.00
408.22	1779.68
408.43	1712.10
408.63	1779.68
408.84	1765.35
409.05	1712.10
409.25	1658.85
409.46	1628.14
409.67	1675.24
409.88	1607.66
410.08	1759.21
410.29	1667.05
410.50	1794.02
410.70	1734.63
410.91	1736.68
411.12	1718.25
411.32	1738.73
411.53	1654.76
411.74	1810.40
411.95	1759.21
412.15	1769.44
412.36	1779.68
412.57	1843.17
412.77	1740.77
412.98	1697.77
413.19	1740.77
413.39	1730.53
413.60	1779.68
413.81	1751.01
414.01	1626.09
414.22	1861.60
414.43	1765.35
414.63	1671.14
414.84	1779.68
415.05	1677.29
415.25	1619.94
415.46	1691.62
415.67	1681.38
415.87	1771.49
416.08	1763.30
416.29	1658.85
416.49	1753.06
416.70	1724.39
416.91	1726.44
417.11	1693.67
417.32	1712.10
417.53	1761.25
417.73	1779.68
417.94	1708.01
418.15	1736.68
418.35	1699.81
418.56	1761.25
418.77	1822.69
418.97	1771.49
419.18	1794.02
419.38	1585.13
419.59	1712.10
419.80	1847.27
420.00	1693.67
420.21	1695.72
420.42	1775.59
420.62	1691.62
420.83	1662.95
421.04	1689.57
421.24	1693.67
421.45	1730.53
421.65	1748.97
421.86	1652.71
422.07	1697.77
422.27	1781.73
422.48	1761.25
422.69	1648.61
422.89	1730.53
423.10	1738.73
423.30	1595.37
423.51	1660.90
423.72	1691.62
423.92	1802.21
424.13	1681.38
424.33	1683.43
424.54	1738.73
424.75	1757.16
424.95	1851.36
425.16	1847.27
425.36	1779.68
425.57	1722.34
425.78	1703.91
425.98	1779.68
426.19	1642.47
426.39	1736.68
426.60	1685.48
426.81	1769.44
427.01	1755.11
427.22	1685.48
427.42	1615.85
427.63	1642.47
427.83	1712.10
428.04	1845.22
428.25	1732.58
428.45	1638.38
428.66	1822.69
428.86	1701.86
429.07	1687.53
429.28	1724.39
429.48	1656.81
429.69	1675.24
429.89	1712.10
430.10	1638.38
430.30	1740.77
430.51	1724.39
430.71	1578.98
430.92	1652.71
431.13	1687.53
431.33	1775.59
431.54	1767.40
431.74	1685.48
431.95	1808.36
432.15	1566.70
432.36	1794.02
432.56	1843.17
432.77	1783.78
432.98	1839.08
433.18	1738.73
433.39	1720.29
433.59	1701.86
433.80	1824.74
434.00	1841.12
434.21	1755.11
434.41	1685.48
434.62	1855.46
434.82	1656.81
435.03	1642.47
435.23	1708.01
435.44	1634.28
435.64	1697.77
435.85	1685.48
436.06	1763.30
436.26	1796.07
436.47	1722.34
436.67	1607.66
436.88	1761.25
437.08	1812.45
437.29	1877.99
437.49	1746.92
437.70	1839.08
437.90	1732.58
438.11	1832.93
438.31	1755.11
438.52	1914.85
438.72	1773.54
438.93	1845.22
439.13	1789.92
439.34	1834.98
439.54	1789.92
439.75	1804.26
439.95	1781.73
440.16	1771.49
440.36	1716.20
440.57	1738.73
440.77	1722.34
440.98	1765.35
441.18	1759.21
441.39	1703.91
441.59	1638.38
441.80	1875.94
442.00	1722.34
442.21	1777.64
442.41	1640.42
442.62	1781.73
442.82	1753.06
443.02	1824.74
443.23	1703.91
443.43	1681.38
443.64	1742.82
443.84	1705.96
444.05	1845.22
444.25	1730.53
444.46	1734.63
444.66	1699.81
444.87	1871.84
445.07	1679.33
445.28	1697.77
445.48	1775.59
445.69	1796.07
445.89	1816.55
446.09	1683.43
446.30	2062.30
446.50	2643.93
446.71	3729.35
446.91	4358.08
447.12	4724.66
447.32	4689.85
447.53	4282.30
447.73	4024.26
447.93	3459.02
448.14	3225.55
448.34	3207.12
448.55	2957.27
448.75	2807.77
448.96	2654.17
449.16	2389.98
449.36	2291.68
449.57	1988.58
449.77	1918.95
449.98	1798.12
450.18	1814.50
450.39	1796.07
450.59	1734.63
450.79	1763.30
451.00	1697.77
451.20	1767.40
451.41	1748.97
451.61	1753.06
451.81	1722.34
452.02	1712.10
452.22	1804.26
452.43	1665.00
452.63	1730.53
