SpectraSuite Data File
++++++++++++++++++++++++++++++++++++
Date: Mon Jun 06 14:56:37 CEST 2016
User: root
Dark Spectrum Present: No
Reference Spectrum Present: No
Number of Sampled Component Spectra: 1
Spectrometers: USB4C02835
Integration Time (usec): 100000 (USB4C02835)
Spectra Averaged: 1 (USB4C02835)
Boxcar Smoothing: 0 (USB4C02835)
Correct for Electrical Dark: No (USB4C02835)
Strobe/Lamp Enabled: No (USB4C02835)
Correct for Detector Non-linearity: No (USB4C02835)
Correct for Stray Light: No (USB4C02835)
Number of Pixels in Processed Spectrum: 3648
>>>>>Begin Processed Spectral Data<<<<<
177.47	1495.02
177.69	1495.02
177.91	1495.02
178.13	1449.96
178.36	1490.92
178.58	1679.33
178.80	1689.57
179.02	1652.71
179.24	1673.19
179.46	1644.52
179.68	1681.38
179.90	1638.38
180.13	1796.07
180.35	1654.76
180.57	1701.86
180.79	1685.48
181.01	1714.15
181.23	1751.01
181.45	1726.44
181.67	1771.49
181.90	1736.68
182.12	1662.95
182.34	1632.23
182.56	1708.01
182.78	1736.68
183.00	1718.25
183.22	1724.39
183.44	1583.08
183.66	1900.52
183.89	1769.44
184.11	1658.85
184.33	1724.39
184.55	1751.01
184.77	1779.68
184.99	1740.77
185.21	1708.01
185.43	1906.66
185.65	1675.24
185.87	1701.86
186.10	1816.55
186.32	1929.19
186.54	1665.00
186.76	1720.29
186.98	1791.97
187.20	1652.71
187.42	1671.14
187.64	1708.01
187.86	1662.95
188.08	1732.58
188.30	1675.24
188.52	1656.81
188.75	1785.83
188.97	1779.68
189.19	1673.19
189.41	1673.19
189.63	1812.45
189.85	1691.62
190.07	1619.94
190.29	1728.49
190.51	1751.01
190.73	1615.85
190.95	1847.27
191.17	1697.77
191.39	1638.38
191.61	1697.77
191.84	1644.52
192.06	1740.77
192.28	1597.42
192.50	1806.31
192.72	1726.44
192.94	1710.05
193.16	1759.21
193.38	1740.77
193.60	1697.77
193.82	1669.09
194.04	1765.35
194.26	1665.00
194.48	1673.19
194.70	1650.66
194.92	1660.90
195.14	1755.11
195.36	1638.38
195.58	1720.29
195.80	1716.20
196.02	1660.90
196.24	1714.15
196.46	1667.05
196.69	1640.42
196.91	1896.42
197.13	1759.21
197.35	1677.29
197.57	1740.77
197.79	1714.15
198.01	1710.05
198.23	1722.34
198.45	1742.82
198.67	1675.24
198.89	1744.87
199.11	1681.38
199.33	1662.95
199.55	1560.55
199.77	1730.53
199.99	1759.21
200.21	1677.29
200.43	1767.40
200.65	1613.80
200.87	1558.50
201.09	1810.40
201.31	1660.90
201.53	1769.44
201.75	1734.63
201.97	1732.58
202.19	1681.38
202.41	1763.30
202.63	1816.55
202.85	1720.29
203.07	1732.58
203.29	1669.09
203.51	1656.81
203.73	1669.09
203.95	1847.27
204.17	1746.92
204.39	1708.01
204.61	1712.10
204.83	1660.90
205.05	1738.73
205.27	1718.25
205.49	1767.40
205.71	1640.42
205.93	1626.09
206.15	1636.33
206.37	1628.14
206.59	1699.81
206.81	1626.09
207.03	1634.28
207.25	1650.66
207.47	1761.25
207.69	1736.68
207.91	1802.21
208.13	1765.35
208.34	1658.85
208.56	1605.61
208.78	1736.68
209.00	1658.85
209.22	1607.66
209.44	1693.67
209.66	1716.20
209.88	1646.57
210.10	1726.44
210.32	1724.39
210.54	1734.63
210.76	1685.48
210.98	1695.72
211.20	1583.08
211.42	1761.25
211.64	1847.27
211.86	1736.68
212.08	1771.49
212.30	1744.87
212.52	1669.09
212.74	1699.81
212.96	1693.67
213.17	1732.58
213.39	1751.01
213.61	1705.96
213.83	1679.33
214.05	1652.71
214.27	1753.06
214.49	1599.46
214.71	1632.23
214.93	1701.86
215.15	1697.77
215.37	1712.10
215.59	1624.04
215.81	1705.96
216.03	1812.45
216.24	1724.39
216.46	1699.81
216.68	1751.01
216.90	1683.43
217.12	1738.73
217.34	1656.81
217.56	1660.90
217.78	1882.08
218.00	1804.26
218.22	1634.28
218.44	1710.05
218.66	1712.10
218.87	1775.59
219.09	1669.09
219.31	1675.24
219.53	1695.72
219.75	1732.58
219.97	1712.10
220.19	1691.62
220.41	1689.57
220.63	1804.26
220.85	1753.06
221.06	1634.28
221.28	1765.35
221.50	1697.77
221.72	1675.24
221.94	1689.57
222.16	1699.81
222.38	1746.92
222.60	1662.95
222.82	1665.00
223.03	1783.78
223.25	1605.61
223.47	1738.73
223.69	1859.56
223.91	1712.10
224.13	1693.67
224.35	1673.19
224.57	1818.60
224.78	1748.97
225.00	1648.61
225.22	1658.85
225.44	1742.82
225.66	1687.53
225.88	1734.63
226.10	1755.11
226.32	1650.66
226.53	1806.31
226.75	1656.81
226.97	1732.58
227.19	1687.53
227.41	1669.09
227.63	1615.85
227.85	1646.57
228.06	1710.05
228.28	1740.77
228.50	1718.25
228.72	1652.71
228.94	1658.85
229.16	1611.75
229.37	1673.19
229.59	1691.62
229.81	1798.12
230.03	1667.05
230.25	1628.14
230.47	1587.18
230.69	1656.81
230.90	1708.01
231.12	1634.28
231.34	1718.25
231.56	1697.77
231.78	1587.18
232.00	1712.10
232.21	1720.29
232.43	1669.09
232.65	1560.55
232.87	1705.96
233.09	1673.19
233.30	1761.25
233.52	1689.57
233.74	1662.95
233.96	1746.92
234.18	1695.72
234.40	1648.61
234.61	1798.12
234.83	1560.55
235.05	1509.35
235.27	1722.34
235.49	1796.07
235.70	1689.57
235.92	1787.88
236.14	1687.53
236.36	1816.55
236.58	1646.57
236.79	1738.73
237.01	1710.05
237.23	1665.00
237.45	1875.94
237.67	1626.09
237.88	1669.09
238.10	1832.93
238.32	1611.75
238.54	1736.68
238.76	1646.57
238.97	1660.90
239.19	1660.90
239.41	1812.45
239.63	1751.01
239.85	1740.77
240.06	1683.43
240.28	1705.96
240.50	1767.40
240.72	1644.52
240.93	1720.29
241.15	1808.36
241.37	1755.11
241.59	1822.69
241.81	1716.20
242.02	1677.29
242.24	1769.44
242.46	1718.25
242.68	1673.19
242.89	1716.20
243.11	1771.49
243.33	1662.95
243.55	1751.01
243.76	1730.53
243.98	1718.25
244.20	1681.38
244.42	1685.48
244.64	1699.81
244.85	1652.71
245.07	1609.70
245.29	1744.87
245.51	1703.91
245.72	1726.44
245.94	1763.30
246.16	1671.14
246.38	1695.72
246.59	1660.90
246.81	1656.81
247.03	1689.57
247.24	1675.24
247.46	1755.11
247.68	1636.33
247.90	1708.01
248.11	1679.33
248.33	1693.67
248.55	1705.96
248.77	1701.86
248.98	1718.25
249.20	1722.34
249.42	1669.09
249.64	1636.33
249.85	1656.81
250.07	1636.33
250.29	1738.73
250.50	1730.53
250.72	1593.32
250.94	1744.87
251.16	1765.35
251.37	1769.44
251.59	1751.01
251.81	1785.83
252.02	1740.77
252.24	1673.19
252.46	1724.39
252.68	1638.38
252.89	1703.91
253.11	1638.38
253.33	1757.16
253.54	1767.40
253.76	1566.70
253.98	1734.63
254.20	1660.90
254.41	1677.29
254.63	1636.33
254.85	1632.23
255.06	1722.34
255.28	1814.50
255.50	1601.51
255.71	1677.29
255.93	1640.42
256.15	1783.78
256.36	1744.87
256.58	1636.33
256.80	1740.77
257.02	1687.53
257.23	1613.80
257.45	1718.25
257.67	1771.49
257.88	1699.81
258.10	1683.43
258.32	1751.01
258.53	1685.48
258.75	1712.10
258.97	1628.14
259.18	1738.73
259.40	1685.48
259.62	1812.45
259.83	1693.67
260.05	1708.01
260.27	1880.04
260.48	1796.07
260.70	1648.61
260.92	1697.77
261.13	1699.81
261.35	1689.57
261.57	1722.34
261.78	1576.94
262.00	1691.62
262.22	1693.67
262.43	1609.70
262.65	1673.19
262.86	1734.63
263.08	1888.23
263.30	1626.09
263.51	1640.42
263.73	1677.29
263.95	1810.40
264.16	1683.43
264.38	1638.38
264.60	1730.53
264.81	1681.38
265.03	1724.39
265.25	1769.44
265.46	1714.15
265.68	1712.10
265.89	1671.14
266.11	1652.71
266.33	1837.03
266.54	1763.30
266.76	1751.01
266.98	1744.87
267.19	1777.64
267.41	1685.48
267.62	1701.86
267.84	1624.04
268.06	1714.15
268.27	1771.49
268.49	1785.83
268.70	1769.44
268.92	1673.19
269.14	1671.14
269.35	1621.99
269.57	1730.53
269.79	1746.92
270.00	1722.34
270.22	1873.89
270.43	1636.33
270.65	1634.28
270.87	1738.73
271.08	1796.07
271.30	1744.87
271.51	1679.33
271.73	1683.43
271.95	1794.02
272.16	1667.05
272.38	1757.16
272.59	1718.25
272.81	1669.09
273.02	1669.09
273.24	1777.64
273.46	1724.39
273.67	1605.61
273.89	1683.43
274.10	1648.61
274.32	1710.05
274.54	1681.38
274.75	1667.05
274.97	1681.38
275.18	1757.16
275.40	1742.82
275.61	1753.06
275.83	1728.49
276.05	1683.43
276.26	1662.95
276.48	1769.44
276.69	1679.33
276.91	1667.05
277.12	1763.30
277.34	1787.88
277.55	1740.77
277.77	1746.92
277.99	1730.53
278.20	1636.33
278.42	1728.49
278.63	1675.24
278.85	1662.95
279.06	1660.90
279.28	1718.25
279.49	1716.20
279.71	1714.15
279.93	1724.39
280.14	1728.49
280.36	1636.33
280.57	1740.77
280.79	1757.16
281.00	1632.23
281.22	1675.24
281.43	1830.88
281.65	1587.18
281.86	1595.37
282.08	1763.30
282.29	1814.50
282.51	1605.61
282.73	1621.99
282.94	1630.18
283.16	1730.53
283.37	1810.40
283.59	1726.44
283.80	1708.01
284.02	1718.25
284.23	1736.68
284.45	1591.27
284.66	1652.71
284.88	1619.94
285.09	1734.63
285.31	1787.88
285.52	1748.97
285.74	1568.74
285.95	1744.87
286.17	1812.45
286.38	1755.11
286.60	1634.28
286.81	1673.19
287.03	1697.77
287.24	1603.56
287.46	1720.29
287.67	1667.05
287.89	1828.84
288.10	1654.76
288.32	1720.29
288.53	1763.30
288.75	1720.29
288.96	1763.30
289.18	1568.74
289.39	1722.34
289.61	1810.40
289.82	1748.97
290.04	1794.02
290.25	1656.81
290.47	1712.10
290.68	1609.70
290.90	1759.21
291.11	1603.56
291.33	1732.58
291.54	1734.63
291.76	1613.80
291.97	1712.10
292.18	1775.59
292.40	1640.42
292.61	1615.85
292.83	1769.44
293.04	1621.99
293.26	1740.77
293.47	1708.01
293.69	1646.57
293.90	1662.95
294.12	1804.26
294.33	1701.86
294.55	1699.81
294.76	1740.77
294.97	1861.60
295.19	1802.21
295.40	1593.32
295.62	1757.16
295.83	1734.63
296.05	1632.23
296.26	1812.45
296.48	1619.94
296.69	1621.99
296.90	1718.25
297.12	1779.68
297.33	1732.58
297.55	1693.67
297.76	1705.96
297.98	1789.92
298.19	1679.33
298.41	1722.34
298.62	1642.47
298.83	1791.97
299.05	1748.97
299.26	1669.09
299.48	1656.81
299.69	1693.67
299.90	1662.95
300.12	1591.27
300.33	1783.78
300.55	1693.67
300.76	1787.88
300.98	1630.18
301.19	1740.77
301.40	1681.38
301.62	1662.95
301.83	1716.20
302.05	1691.62
302.26	1728.49
302.47	1718.25
302.69	1660.90
302.90	1708.01
303.12	1562.60
303.33	1724.39
303.54	1791.97
303.76	1652.71
303.97	1728.49
304.19	1751.01
304.40	1662.95
304.61	1732.58
304.83	1849.32
305.04	1757.16
305.26	1732.58
305.47	1615.85
305.68	1669.09
305.90	1636.33
306.11	1814.50
306.33	1705.96
306.54	1671.14
306.75	1640.42
306.97	1591.27
307.18	1642.47
307.39	1742.82
307.61	1718.25
307.82	1697.77
308.04	1671.14
308.25	1703.91
308.46	1769.44
308.68	1716.20
308.89	1734.63
309.10	1751.01
309.32	1755.11
309.53	1720.29
309.74	1751.01
309.96	1679.33
310.17	1697.77
310.39	1683.43
310.60	1748.97
310.81	1640.42
311.03	1615.85
311.24	1685.48
311.45	1656.81
311.67	1804.26
311.88	1671.14
312.09	1687.53
312.31	1585.13
312.52	1738.73
312.73	1673.19
312.95	1634.28
313.16	1673.19
313.37	1769.44
313.59	1763.30
313.80	1740.77
314.01	1804.26
314.23	1642.47
314.44	1667.05
314.65	1673.19
314.87	1611.75
315.08	1669.09
315.29	1669.09
315.51	1665.00
315.72	1685.48
315.93	1873.89
316.15	1708.01
316.36	1632.23
316.57	1703.91
316.79	1746.92
317.00	1691.62
317.21	1667.05
317.43	1658.85
317.64	1685.48
317.85	1611.75
318.07	1656.81
318.28	1689.57
318.49	1789.92
318.70	1855.46
318.92	1769.44
319.13	1824.74
319.34	1777.64
319.56	1802.21
319.77	1771.49
319.98	1775.59
320.20	1746.92
320.41	1748.97
320.62	1724.39
320.83	1646.57
321.05	1855.46
321.26	1673.19
321.47	1685.48
321.69	1755.11
321.90	1644.52
322.11	1621.99
322.32	1746.92
322.54	1757.16
322.75	1662.95
322.96	1882.08
323.18	1632.23
323.39	1566.70
323.60	1681.38
323.81	1773.54
324.03	1652.71
324.24	1697.77
324.45	1767.40
324.66	1740.77
324.88	1746.92
325.09	1810.40
325.30	1761.25
325.52	1685.48
325.73	1785.83
325.94	1632.23
326.15	1601.51
326.37	1652.71
326.58	1765.35
326.79	1861.60
327.00	1689.57
327.22	1626.09
327.43	1617.90
327.64	1685.48
327.85	1746.92
328.07	1738.73
328.28	1818.60
328.49	1660.90
328.70	1646.57
328.92	1638.38
329.13	1656.81
329.34	1697.77
329.55	1761.25
329.76	1789.92
329.98	1638.38
330.19	1781.73
330.40	1732.58
330.61	1708.01
330.83	1755.11
331.04	1648.61
331.25	1730.53
331.46	1669.09
331.68	1642.47
331.89	1732.58
332.10	1705.96
332.31	1593.32
332.52	1730.53
332.74	1808.36
332.95	1638.38
333.16	1660.90
333.37	1699.81
333.58	1691.62
333.80	1746.92
334.01	1617.90
334.22	1675.24
334.43	1703.91
334.64	1685.48
334.86	1560.55
335.07	1640.42
335.28	1808.36
335.49	1609.70
335.70	1691.62
335.92	1851.36
336.13	1763.30
336.34	1658.85
336.55	1683.43
336.76	1753.06
336.98	1632.23
337.19	1724.39
337.40	1802.21
337.61	1837.03
337.82	1654.76
338.04	1730.53
338.25	1636.33
338.46	1687.53
338.67	1732.58
338.88	1644.52
339.09	1693.67
339.31	1624.04
339.52	1638.38
339.73	1658.85
339.94	1671.14
340.15	1751.01
340.36	1673.19
340.58	1705.96
340.79	1722.34
341.00	1726.44
341.21	1667.05
341.42	1769.44
341.63	1658.85
341.85	1714.15
342.06	1730.53
342.27	1640.42
342.48	1720.29
342.69	1632.23
342.90	1705.96
343.12	1791.97
343.33	1716.20
343.54	1767.40
343.75	1753.06
343.96	1665.00
344.17	1675.24
344.38	1677.29
344.60	1656.81
344.81	1660.90
345.02	1646.57
345.23	1781.73
345.44	1783.78
345.65	1716.20
345.86	1732.58
346.07	1755.11
346.29	1656.81
346.50	1712.10
346.71	1728.49
346.92	1773.54
347.13	1822.69
347.34	1656.81
347.55	1734.63
347.76	1734.63
347.98	1697.77
348.19	1701.86
348.40	1804.26
348.61	1681.38
348.82	1822.69
349.03	1718.25
349.24	1693.67
349.45	1824.74
349.66	1566.70
349.88	1654.76
350.09	1718.25
350.30	1808.36
350.51	1832.93
350.72	1689.57
350.93	1781.73
351.14	1705.96
351.35	1802.21
351.56	1728.49
351.77	1701.86
351.99	1687.53
352.20	1734.63
352.41	1779.68
352.62	1558.50
352.83	1695.72
353.04	1642.47
353.25	1769.44
353.46	1652.71
353.67	1675.24
353.88	1624.04
354.09	1726.44
354.30	1675.24
354.52	1716.20
354.73	1697.77
354.94	1714.15
355.15	1701.86
355.36	1814.50
355.57	1726.44
355.78	1705.96
355.99	1669.09
356.20	1695.72
356.41	1736.68
356.62	1751.01
356.83	1669.09
357.04	1800.16
357.25	1607.66
357.46	1708.01
357.68	1724.39
357.89	1619.94
358.10	1632.23
358.31	1767.40
358.52	1787.88
358.73	1648.61
358.94	1710.05
359.15	1652.71
359.36	1775.59
359.57	1714.15
359.78	1648.61
359.99	1787.88
360.20	1611.75
360.41	1695.72
360.62	1654.76
360.83	1740.77
361.04	1671.14
361.25	1751.01
361.46	1871.84
361.67	1734.63
361.88	1818.60
362.09	1816.55
362.30	1718.25
362.51	1640.42
362.72	1763.30
362.93	1763.30
363.14	1710.05
363.35	1726.44
363.56	1714.15
363.78	1710.05
363.99	1761.25
364.20	1646.57
364.41	1697.77
364.62	1847.27
364.83	1710.05
365.04	1677.29
365.25	1581.03
365.46	1798.12
365.67	1636.33
365.88	1667.05
366.09	1656.81
366.30	1724.39
366.51	1724.39
366.72	1695.72
366.93	1681.38
367.14	1701.86
367.35	1724.39
367.56	1675.24
367.77	1818.60
367.98	1697.77
368.18	1691.62
368.39	1765.35
368.60	1636.33
368.81	1734.63
369.02	1703.91
369.23	1761.25
369.44	1605.61
369.65	1755.11
369.86	1703.91
370.07	1689.57
370.28	1685.48
370.49	1746.92
370.70	1718.25
370.91	1673.19
371.12	1619.94
371.33	1746.92
371.54	1677.29
371.75	1837.03
371.96	1617.90
372.17	1648.61
372.38	1650.66
372.59	1705.96
372.80	1689.57
373.01	1722.34
373.22	1710.05
373.43	1705.96
373.64	1734.63
373.85	1740.77
374.06	1830.88
374.26	1769.44
374.47	1738.73
374.68	1763.30
374.89	1644.52
375.10	1662.95
375.31	1705.96
375.52	1677.29
375.73	1724.39
375.94	1603.56
376.15	1789.92
376.36	1689.57
376.57	1724.39
376.78	1695.72
376.99	1746.92
377.20	1777.64
377.40	1665.00
377.61	1867.75
377.82	1646.57
378.03	1781.73
378.24	1718.25
378.45	1660.90
378.66	1746.92
378.87	1621.99
379.08	1613.80
379.29	1578.98
379.50	1814.50
379.71	1662.95
379.91	1748.97
380.12	1728.49
380.33	1681.38
380.54	1722.34
380.75	1710.05
380.96	1619.94
381.17	1757.16
381.38	1710.05
381.59	1740.77
381.80	1697.77
382.00	1808.36
382.21	1814.50
382.42	1859.56
382.63	1816.55
382.84	1691.62
383.05	1804.26
383.26	1855.46
383.47	1773.54
383.68	1746.92
383.88	1726.44
384.09	1621.99
384.30	1751.01
384.51	1722.34
384.72	1667.05
384.93	1675.24
385.14	1640.42
385.35	1845.22
385.55	1562.60
385.76	1769.44
385.97	1687.53
386.18	1632.23
386.39	1638.38
386.60	1771.49
386.81	1726.44
387.02	1679.33
387.22	1615.85
387.43	1822.69
387.64	1812.45
387.85	1882.08
388.06	2205.66
388.27	4073.41
388.48	6528.92
388.68	8105.86
388.89	9402.22
389.10	9553.77
389.31	8482.69
389.52	7452.56
389.73	6481.82
389.93	6008.74
390.14	5658.54
390.35	5087.15
390.56	4587.45
390.77	3635.14
390.98	2914.26
391.18	2488.28
391.39	2054.11
391.60	1828.84
391.81	1802.21
392.02	1775.59
392.23	1873.89
392.43	1761.25
392.64	1824.74
392.85	1695.72
393.06	1769.44
393.27	1705.96
393.47	1640.42
393.68	1695.72
393.89	1708.01
394.10	1810.40
394.31	1669.09
394.52	1722.34
394.72	1697.77
394.93	1753.06
395.14	1630.18
395.35	1773.54
395.56	1675.24
395.76	1701.86
395.97	1781.73
396.18	1869.80
396.39	1882.08
396.60	1980.39
396.80	1820.64
397.01	1794.02
397.22	1822.69
397.43	1845.22
397.64	1675.24
397.84	1759.21
398.05	1920.99
398.26	1773.54
398.47	1687.53
398.67	1791.97
398.88	1712.10
399.09	1765.35
399.30	1714.15
399.51	1787.88
399.71	1705.96
399.92	1687.53
400.13	1675.24
400.34	1677.29
400.54	1744.87
400.75	1820.64
400.96	1724.39
401.17	1820.64
401.37	1775.59
401.58	1730.53
401.79	1714.15
402.00	1861.60
402.21	1992.67
402.41	1945.57
402.62	2025.44
402.83	2002.91
403.04	1994.72
403.24	2015.20
403.45	1837.03
403.66	1832.93
403.87	1810.40
404.07	1861.60
404.28	1941.47
404.49	1918.95
404.70	1773.54
404.90	1822.69
405.11	1822.69
405.32	1691.62
405.52	1669.09
405.73	1617.90
405.94	1656.81
406.15	1751.01
406.35	1753.06
406.56	1773.54
406.77	1691.62
406.98	1726.44
407.18	1722.34
407.39	1761.25
407.60	1691.62
407.80	1718.25
408.01	1701.86
408.22	1734.63
408.43	1703.91
408.63	1697.77
408.84	1757.16
409.05	1701.86
409.25	1662.95
409.46	1630.18
409.67	1716.20
409.88	1724.39
410.08	1720.29
410.29	1628.14
410.50	1751.01
410.70	1677.29
410.91	1607.66
411.12	1748.97
411.32	1744.87
411.53	1705.96
411.74	1828.84
411.95	1734.63
412.15	1810.40
412.36	1710.05
412.57	1689.57
412.77	1798.12
412.98	1716.20
413.19	1699.81
413.39	1800.16
413.60	1771.49
413.81	1802.21
414.01	1730.53
414.22	1783.78
414.43	1742.82
414.63	1714.15
414.84	1779.68
415.05	1665.00
415.25	1605.61
415.46	1804.26
415.67	1603.56
415.87	1679.33
416.08	1671.14
416.29	1673.19
416.49	1759.21
416.70	1673.19
416.91	1710.05
417.11	1693.67
417.32	1685.48
417.53	1718.25
417.73	1732.58
417.94	1681.38
418.15	1687.53
418.35	1642.47
418.56	1660.90
418.77	1824.74
418.97	1665.00
419.18	1681.38
419.38	1519.59
419.59	1763.30
419.80	1853.41
420.00	1675.24
420.21	1699.81
420.42	1812.45
420.62	1697.77
420.83	1599.46
421.04	1683.43
421.24	1626.09
421.45	1767.40
421.65	1714.15
421.86	1755.11
422.07	1742.82
422.27	1722.34
422.48	1781.73
422.69	1673.19
422.89	1691.62
423.10	1722.34
423.30	1675.24
423.51	1685.48
423.72	1718.25
423.92	1697.77
424.13	1669.09
424.33	1726.44
424.54	1746.92
424.75	1716.20
424.95	1787.88
425.16	1781.73
425.36	1679.33
425.57	1767.40
425.78	1714.15
425.98	1751.01
426.19	1705.96
426.39	1644.52
426.60	1710.05
426.81	1728.49
427.01	1722.34
427.22	1662.95
427.42	1599.46
427.63	1640.42
427.83	1755.11
428.04	1791.97
428.25	1728.49
428.45	1841.12
428.66	1796.07
428.86	1712.10
429.07	1685.48
429.28	1683.43
429.48	1671.14
429.69	1638.38
429.89	1636.33
430.10	1669.09
430.30	1794.02
430.51	1822.69
430.71	1660.90
430.92	1669.09
431.13	1621.99
431.33	1708.01
431.54	1687.53
431.74	1849.32
431.95	1806.31
432.15	1705.96
432.36	1658.85
432.56	1728.49
432.77	1818.60
432.98	1814.50
433.18	1769.44
433.39	1736.68
433.59	1685.48
433.80	1791.97
434.00	1863.65
434.21	1546.22
434.41	1705.96
434.62	1810.40
434.82	1699.81
435.03	1699.81
435.23	1755.11
435.44	1593.32
435.64	1644.52
435.85	1689.57
436.06	1837.03
436.26	1794.02
436.47	1742.82
436.67	1654.76
436.88	1665.00
437.08	1779.68
437.29	1757.16
437.49	1746.92
437.70	1652.71
437.90	1626.09
438.11	1843.17
438.31	1765.35
438.52	1808.36
438.72	1830.88
438.93	1873.89
439.13	1730.53
439.34	1849.32
439.54	1744.87
439.75	1761.25
439.95	1794.02
440.16	1671.14
440.36	1724.39
440.57	1675.24
440.77	1724.39
440.98	1724.39
441.18	1701.86
441.39	1697.77
441.59	1634.28
441.80	1789.92
442.00	1722.34
442.21	1759.21
442.41	1650.66
442.62	1789.92
442.82	1634.28
443.02	1695.72
443.23	1748.97
443.43	1617.90
443.64	1802.21
443.84	1714.15
444.05	1773.54
444.25	1812.45
444.46	1718.25
444.66	1726.44
444.87	1837.03
445.07	1640.42
445.28	1759.21
445.48	1796.07
445.69	1744.87
445.89	1867.75
446.09	1738.73
446.30	2002.91
446.50	2615.26
446.71	3592.14
446.91	4216.77
447.12	4581.31
447.32	4712.38
447.53	4202.43
447.73	3794.89
447.93	3430.35
448.14	3227.60
448.34	3100.62
448.55	2842.58
448.75	2807.77
448.96	2660.31
449.16	2439.13
449.36	2322.40
449.57	1992.67
449.77	1935.33
449.98	1814.50
450.18	1802.21
450.39	1828.84
450.59	1677.29
450.79	1748.97
451.00	1751.01
451.20	1755.11
451.41	1673.19
451.61	1779.68
451.81	1761.25
452.02	1662.95
452.22	1697.77
452.43	1667.05
452.63	1636.33
