SpectraSuite Data File
++++++++++++++++++++++++++++++++++++
Date: Mon Jun 06 17:07:17 CEST 2016
User: root
Dark Spectrum Present: No
Reference Spectrum Present: No
Number of Sampled Component Spectra: 1
Spectrometers: USB4C02835
Integration Time (usec): 100000 (USB4C02835)
Spectra Averaged: 1 (USB4C02835)
Boxcar Smoothing: 0 (USB4C02835)
Correct for Electrical Dark: No (USB4C02835)
Strobe/Lamp Enabled: No (USB4C02835)
Correct for Detector Non-linearity: No (USB4C02835)
Correct for Stray Light: No (USB4C02835)
Number of Pixels in Processed Spectrum: 3648
>>>>>Begin Processed Spectral Data<<<<<
177.47	1474.54
177.69	1474.54
177.91	1474.54
178.13	1462.25
178.36	1478.63
178.58	1683.43
178.80	1742.82
179.02	1619.94
179.24	1699.81
179.46	1687.53
179.68	1806.31
179.90	1757.16
180.13	1773.54
180.35	1742.82
180.57	1722.34
180.79	1693.67
181.01	1753.06
181.23	1761.25
181.45	1689.57
181.67	1785.83
181.90	1689.57
182.12	1677.29
182.34	1605.61
182.56	1732.58
182.78	1708.01
183.00	1681.38
183.22	1773.54
183.44	1603.56
183.66	1902.56
183.89	1742.82
184.11	1699.81
184.33	1712.10
184.55	1732.58
184.77	1697.77
184.99	1765.35
185.21	1687.53
185.43	1863.65
185.65	1605.61
185.87	1744.87
186.10	1849.32
186.32	1822.69
186.54	1640.42
186.76	1732.58
186.98	1767.40
187.20	1726.44
187.42	1677.29
187.64	1689.57
187.86	1669.09
188.08	1796.07
188.30	1728.49
188.52	1714.15
188.75	1808.36
188.97	1746.92
189.19	1601.51
189.41	1730.53
189.63	1775.59
189.85	1738.73
190.07	1648.61
190.29	1636.33
190.51	1757.16
190.73	1695.72
190.95	1736.68
191.17	1722.34
191.39	1599.46
191.61	1722.34
191.84	1746.92
192.06	1701.86
192.28	1601.51
192.50	1806.31
192.72	1783.78
192.94	1652.71
193.16	1820.64
193.38	1787.88
193.60	1705.96
193.82	1671.14
194.04	1767.40
194.26	1728.49
194.48	1699.81
194.70	1695.72
194.92	1599.46
195.14	1714.15
195.36	1697.77
195.58	1654.76
195.80	1734.63
196.02	1716.20
196.24	1710.05
196.46	1781.73
196.69	1597.42
196.91	1898.47
197.13	1658.85
197.35	1677.29
197.57	1841.12
197.79	1773.54
198.01	1597.42
198.23	1787.88
198.45	1718.25
198.67	1619.94
198.89	1771.49
199.11	1705.96
199.33	1703.91
199.55	1566.70
199.77	1667.05
199.99	1767.40
200.21	1654.76
200.43	1810.40
200.65	1628.14
200.87	1603.56
201.09	1716.20
201.31	1734.63
201.53	1767.40
201.75	1708.01
201.97	1669.09
202.19	1609.70
202.41	1746.92
202.63	1877.99
202.85	1783.78
203.07	1697.77
203.29	1781.73
203.51	1660.90
203.73	1669.09
203.95	1804.26
204.17	1724.39
204.39	1740.77
204.61	1716.20
204.83	1679.33
205.05	1851.36
205.27	1718.25
205.49	1816.55
205.71	1693.67
205.93	1652.71
206.15	1687.53
206.37	1744.87
206.59	1658.85
206.81	1671.14
207.03	1716.20
207.25	1683.43
207.47	1804.26
207.69	1699.81
207.91	1783.78
208.13	1873.89
208.34	1665.00
208.56	1712.10
208.78	1710.05
209.00	1693.67
209.22	1740.77
209.44	1646.57
209.66	1677.29
209.88	1669.09
210.10	1648.61
210.32	1650.66
210.54	1804.26
210.76	1763.30
210.98	1748.97
211.20	1628.14
211.42	1681.38
211.64	1785.83
211.86	1740.77
212.08	1718.25
212.30	1732.58
212.52	1710.05
212.74	1740.77
212.96	1724.39
213.17	1814.50
213.39	1738.73
213.61	1748.97
213.83	1695.72
214.05	1697.77
214.27	1767.40
214.49	1705.96
214.71	1681.38
214.93	1734.63
215.15	1720.29
215.37	1718.25
215.59	1671.14
215.81	1710.05
216.03	1718.25
216.24	1724.39
216.46	1701.86
216.68	1751.01
216.90	1798.12
217.12	1697.77
217.34	1675.24
217.56	1740.77
217.78	1800.16
218.00	1685.48
218.22	1697.77
218.44	1763.30
218.66	1665.00
218.87	1834.98
219.09	1679.33
219.31	1708.01
219.53	1744.87
219.75	1640.42
219.97	1677.29
220.19	1718.25
220.41	1755.11
220.63	1773.54
220.85	1728.49
221.06	1699.81
221.28	1798.12
221.50	1705.96
221.72	1740.77
221.94	1669.09
222.16	1732.58
222.38	1681.38
222.60	1732.58
222.82	1695.72
223.03	1728.49
223.25	1632.23
223.47	1798.12
223.69	1738.73
223.91	1691.62
224.13	1718.25
224.35	1683.43
224.57	1779.68
224.78	1632.23
225.00	1607.66
225.22	1701.86
225.44	1662.95
225.66	1757.16
225.88	1703.91
226.10	1814.50
226.32	1765.35
226.53	1849.32
226.75	1648.61
226.97	1708.01
227.19	1679.33
227.41	1730.53
227.63	1675.24
227.85	1578.98
228.06	1755.11
228.28	1689.57
228.50	1787.88
228.72	1665.00
228.94	1652.71
229.16	1617.90
229.37	1669.09
229.59	1648.61
229.81	1828.84
230.03	1644.52
230.25	1656.81
230.47	1693.67
230.69	1724.39
230.90	1751.01
231.12	1736.68
231.34	1789.92
231.56	1738.73
231.78	1701.86
232.00	1767.40
232.21	1726.44
232.43	1703.91
232.65	1634.28
232.87	1718.25
233.09	1677.29
233.30	1628.14
233.52	1767.40
233.74	1712.10
233.96	1705.96
234.18	1708.01
234.40	1671.14
234.61	1849.32
234.83	1669.09
235.05	1611.75
235.27	1865.70
235.49	1798.12
235.70	1796.07
235.92	1763.30
236.14	1703.91
236.36	1777.64
236.58	1644.52
236.79	1691.62
237.01	1740.77
237.23	1665.00
237.45	1859.56
237.67	1648.61
237.88	1697.77
238.10	1773.54
238.32	1640.42
238.54	1753.06
238.76	1736.68
238.97	1710.05
239.19	1726.44
239.41	1832.93
239.63	1828.84
239.85	1742.82
240.06	1703.91
240.28	1683.43
240.50	1826.79
240.72	1730.53
240.93	1734.63
241.15	1787.88
241.37	1658.85
241.59	1767.40
241.81	1681.38
242.02	1763.30
242.24	1703.91
242.46	1763.30
242.68	1689.57
242.89	1761.25
243.11	1771.49
243.33	1755.11
243.55	1777.64
243.76	1781.73
243.98	1634.28
244.20	1677.29
244.42	1701.86
244.64	1677.29
244.85	1615.85
245.07	1693.67
245.29	1695.72
245.51	1669.09
245.72	1751.01
245.94	1773.54
246.16	1751.01
246.38	1687.53
246.59	1632.23
246.81	1650.66
247.03	1722.34
247.24	1654.76
247.46	1699.81
247.68	1718.25
247.90	1777.64
248.11	1656.81
248.33	1787.88
248.55	1632.23
248.77	1775.59
248.98	1751.01
249.20	1779.68
249.42	1695.72
249.64	1791.97
249.85	1681.38
250.07	1779.68
250.29	1822.69
250.50	1693.67
250.72	1667.05
250.94	1779.68
251.16	1820.64
251.37	1816.55
251.59	1781.73
251.81	1730.53
252.02	1730.53
252.24	1656.81
252.46	1808.36
252.68	1611.75
252.89	1660.90
253.11	1636.33
253.33	1830.88
253.54	1744.87
253.76	1652.71
253.98	1644.52
254.20	1667.05
254.41	1632.23
254.63	1628.14
254.85	1660.90
255.06	1665.00
255.28	1734.63
255.50	1703.91
255.71	1720.29
255.93	1669.09
256.15	1624.04
256.36	1736.68
256.58	1675.24
256.80	1763.30
257.02	1689.57
257.23	1687.53
257.45	1669.09
257.67	1730.53
257.88	1638.38
258.10	1681.38
258.32	1728.49
258.53	1699.81
258.75	1732.58
258.97	1665.00
259.18	1718.25
259.40	1691.62
259.62	1822.69
259.83	1765.35
260.05	1722.34
260.27	1996.77
260.48	1785.83
260.70	1662.95
260.92	1605.61
261.13	1769.44
261.35	1785.83
261.57	1695.72
261.78	1650.66
262.00	1640.42
262.22	1779.68
262.43	1693.67
262.65	1574.89
262.86	1667.05
263.08	1875.94
263.30	1751.01
263.51	1681.38
263.73	1611.75
263.95	1910.75
264.16	1554.41
264.38	1679.33
264.60	1806.31
264.81	1656.81
265.03	1789.92
265.25	1714.15
265.46	1736.68
265.68	1742.82
265.89	1693.67
266.11	1615.85
266.33	1722.34
266.54	1691.62
266.76	1703.91
266.98	1812.45
267.19	1753.06
267.41	1730.53
267.62	1693.67
267.84	1638.38
268.06	1699.81
268.27	1734.63
268.49	1748.97
268.70	1798.12
268.92	1769.44
269.14	1628.14
269.35	1619.94
269.57	1722.34
269.79	1812.45
270.00	1669.09
270.22	1873.89
270.43	1732.58
270.65	1652.71
270.87	1800.16
271.08	1710.05
271.30	1724.39
271.51	1667.05
271.73	1746.92
271.95	1839.08
272.16	1689.57
272.38	1712.10
272.59	1673.19
272.81	1734.63
273.02	1757.16
273.24	1640.42
273.46	1757.16
273.67	1667.05
273.89	1691.62
274.10	1662.95
274.32	1761.25
274.54	1748.97
274.75	1677.29
274.97	1687.53
275.18	1759.21
275.40	1714.15
275.61	1742.82
275.83	1681.38
276.05	1648.61
276.26	1726.44
276.48	1746.92
276.69	1683.43
276.91	1720.29
277.12	1851.36
277.34	1800.16
277.55	1767.40
277.77	1662.95
277.99	1679.33
278.20	1677.29
278.42	1669.09
278.63	1640.42
278.85	1613.80
279.06	1599.46
279.28	1716.20
279.49	1722.34
279.71	1714.15
279.93	1712.10
280.14	1654.76
280.36	1703.91
280.57	1720.29
280.79	1740.77
281.00	1607.66
281.22	1642.47
281.43	1849.32
281.65	1595.37
281.86	1656.81
282.08	1767.40
282.29	1820.64
282.51	1634.28
282.73	1605.61
282.94	1644.52
283.16	1744.87
283.37	1740.77
283.59	1689.57
283.80	1787.88
284.02	1755.11
284.23	1689.57
284.45	1660.90
284.66	1679.33
284.88	1681.38
285.09	1767.40
285.31	1722.34
285.52	1632.23
285.74	1646.57
285.95	1710.05
286.17	1662.95
286.38	1757.16
286.60	1626.09
286.81	1718.25
287.03	1730.53
287.24	1773.54
287.46	1728.49
287.67	1701.86
287.89	1853.41
288.10	1753.06
288.32	1718.25
288.53	1761.25
288.75	1679.33
288.96	1705.96
289.18	1669.09
289.39	1722.34
289.61	1789.92
289.82	1873.89
290.04	1771.49
290.25	1640.42
290.47	1640.42
290.68	1687.53
290.90	1761.25
291.11	1570.79
291.33	1806.31
291.54	1611.75
291.76	1699.81
291.97	1796.07
292.18	1722.34
292.40	1642.47
292.61	1697.77
292.83	1843.17
293.04	1763.30
293.26	1763.30
293.47	1638.38
293.69	1669.09
293.90	1691.62
294.12	1736.68
294.33	1742.82
294.55	1712.10
294.76	1787.88
294.97	1712.10
295.19	1869.80
295.40	1671.14
295.62	1746.92
295.83	1769.44
296.05	1617.90
296.26	1759.21
296.48	1681.38
296.69	1667.05
296.90	1667.05
297.12	1777.64
297.33	1726.44
297.55	1759.21
297.76	1818.60
297.98	1781.73
298.19	1705.96
298.41	1607.66
298.62	1705.96
298.83	1765.35
299.05	1751.01
299.26	1724.39
299.48	1652.71
299.69	1763.30
299.90	1728.49
300.12	1724.39
300.33	1748.97
300.55	1746.92
300.76	1753.06
300.98	1626.09
301.19	1794.02
301.40	1642.47
301.62	1734.63
301.83	1720.29
302.05	1701.86
302.26	1691.62
302.47	1718.25
302.69	1578.98
302.90	1740.77
303.12	1699.81
303.33	1761.25
303.54	1751.01
303.76	1609.70
303.97	1730.53
304.19	1781.73
304.40	1708.01
304.61	1775.59
304.83	1798.12
305.04	1828.84
305.26	1751.01
305.47	1708.01
305.68	1759.21
305.90	1640.42
306.11	1732.58
306.33	1716.20
306.54	1724.39
306.75	1740.77
306.97	1615.85
307.18	1660.90
307.39	1681.38
307.61	1828.84
307.82	1685.48
308.04	1765.35
308.25	1665.00
308.46	1763.30
308.68	1681.38
308.89	1710.05
309.10	1761.25
309.32	1693.67
309.53	1712.10
309.74	1798.12
309.96	1712.10
310.17	1671.14
310.39	1689.57
310.60	1804.26
310.81	1751.01
311.03	1640.42
311.24	1777.64
311.45	1708.01
311.67	1779.68
311.88	1679.33
312.09	1744.87
312.31	1687.53
312.52	1781.73
312.73	1726.44
312.95	1605.61
313.16	1671.14
313.37	1748.97
313.59	1716.20
313.80	1736.68
314.01	1761.25
314.23	1714.15
314.44	1626.09
314.65	1646.57
314.87	1599.46
315.08	1677.29
315.29	1650.66
315.51	1599.46
315.72	1644.52
315.93	1816.55
316.15	1767.40
316.36	1769.44
316.57	1671.14
316.79	1746.92
317.00	1648.61
317.21	1718.25
317.43	1685.48
317.64	1796.07
317.85	1708.01
318.07	1656.81
318.28	1832.93
318.49	1830.88
318.70	1929.19
318.92	1746.92
319.13	1849.32
319.34	1912.80
319.56	1837.03
319.77	1771.49
319.98	1794.02
320.20	1759.21
320.41	1775.59
320.62	1785.83
320.83	1597.42
321.05	1834.98
321.26	1705.96
321.47	1765.35
321.69	1746.92
321.90	1685.48
322.11	1726.44
322.32	1718.25
322.54	1744.87
322.75	1697.77
322.96	1861.60
323.18	1691.62
323.39	1609.70
323.60	1628.14
323.81	1718.25
324.03	1730.53
324.24	1757.16
324.45	1681.38
324.66	1701.86
324.88	1812.45
325.09	1769.44
325.30	1818.60
325.52	1701.86
325.73	1697.77
325.94	1681.38
326.15	1640.42
326.37	1652.71
326.58	1734.63
326.79	1767.40
327.00	1615.85
327.22	1738.73
327.43	1681.38
327.64	1710.05
327.85	1693.67
328.07	1718.25
328.28	1869.80
328.49	1697.77
328.70	1673.19
328.92	1638.38
329.13	1716.20
329.34	1759.21
329.55	1804.26
329.76	1763.30
329.98	1685.48
330.19	1820.64
330.40	1755.11
330.61	1681.38
330.83	1798.12
331.04	1626.09
331.25	1761.25
331.46	1697.77
331.68	1667.05
331.89	1740.77
332.10	1705.96
332.31	1646.57
332.52	1755.11
332.74	1718.25
332.95	1669.09
333.16	1679.33
333.37	1728.49
333.58	1691.62
333.80	1781.73
334.01	1583.08
334.22	1753.06
334.43	1632.23
334.64	1710.05
334.86	1607.66
335.07	1685.48
335.28	1851.36
335.49	1648.61
335.70	1734.63
335.92	1800.16
336.13	1787.88
336.34	1697.77
336.55	1681.38
336.76	1621.99
336.98	1578.98
337.19	1689.57
337.40	1779.68
337.61	1808.36
337.82	1683.43
338.04	1816.55
338.25	1619.94
338.46	1681.38
338.67	1667.05
338.88	1652.71
339.09	1640.42
339.31	1730.53
339.52	1673.19
339.73	1644.52
339.94	1701.86
340.15	1763.30
340.36	1708.01
340.58	1751.01
340.79	1671.14
341.00	1783.78
341.21	1603.56
341.42	1867.75
341.63	1691.62
341.85	1740.77
342.06	1726.44
342.27	1644.52
342.48	1775.59
342.69	1583.08
342.90	1697.77
343.12	1804.26
343.33	1699.81
343.54	1726.44
343.75	1767.40
343.96	1689.57
344.17	1685.48
344.38	1656.81
344.60	1677.29
344.81	1617.90
345.02	1656.81
345.23	1802.21
345.44	1828.84
345.65	1658.85
345.86	1771.49
346.07	1689.57
346.29	1671.14
346.50	1738.73
346.71	1746.92
346.92	1695.72
347.13	1871.84
347.34	1687.53
347.55	1757.16
347.76	1736.68
347.98	1581.03
348.19	1730.53
348.40	1798.12
348.61	1667.05
348.82	1855.46
349.03	1742.82
349.24	1662.95
349.45	1824.74
349.66	1654.76
349.88	1779.68
350.09	1669.09
350.30	1769.44
350.51	1818.60
350.72	1767.40
350.93	1730.53
351.14	1679.33
351.35	1755.11
351.56	1669.09
351.77	1699.81
351.99	1679.33
352.20	1812.45
352.41	1751.01
352.62	1636.33
352.83	1685.48
353.04	1667.05
353.25	1718.25
353.46	1814.50
353.67	1771.49
353.88	1679.33
354.09	1771.49
354.30	1722.34
354.52	1779.68
354.73	1667.05
354.94	1591.27
355.15	1738.73
355.36	1839.08
355.57	1665.00
355.78	1753.06
355.99	1667.05
356.20	1701.86
356.41	1810.40
356.62	1703.91
356.83	1767.40
357.04	1834.98
357.25	1665.00
357.46	1597.42
357.68	1609.70
357.89	1658.85
358.10	1779.68
358.31	1691.62
358.52	1714.15
358.73	1609.70
358.94	1640.42
359.15	1685.48
359.36	1791.97
359.57	1628.14
359.78	1693.67
359.99	1732.58
360.20	1742.82
360.41	1738.73
360.62	1781.73
360.83	1669.09
361.04	1705.96
361.25	1791.97
361.46	1775.59
361.67	1771.49
361.88	1681.38
362.09	1699.81
362.30	1775.59
362.51	1683.43
362.72	1730.53
362.93	1738.73
363.14	1708.01
363.35	1712.10
363.56	1648.61
363.78	1832.93
363.99	1728.49
364.20	1738.73
364.41	1777.64
364.62	1816.55
364.83	1691.62
365.04	1642.47
365.25	1755.11
365.46	1884.13
365.67	1669.09
365.88	1710.05
366.09	1794.02
366.30	1669.09
366.51	1757.16
366.72	1646.57
366.93	1660.90
367.14	1740.77
367.35	1716.20
367.56	1746.92
367.77	1800.16
367.98	1732.58
368.18	1759.21
368.39	1712.10
368.60	1716.20
368.81	1810.40
369.02	1689.57
369.23	1695.72
369.44	1607.66
369.65	1693.67
369.86	1732.58
370.07	1794.02
370.28	1681.38
370.49	1689.57
370.70	1705.96
370.91	1662.95
371.12	1712.10
371.33	1730.53
371.54	1720.29
371.75	1759.21
371.96	1601.51
372.17	1685.48
372.38	1712.10
372.59	1787.88
372.80	1691.62
373.01	1652.71
373.22	1714.15
373.43	1652.71
373.64	1677.29
373.85	1814.50
374.06	1777.64
374.26	1775.59
374.47	1710.05
374.68	1798.12
374.89	1677.29
375.10	1648.61
375.31	1787.88
375.52	1656.81
375.73	1716.20
375.94	1712.10
376.15	1755.11
376.36	1703.91
376.57	1744.87
376.78	1755.11
376.99	1751.01
377.20	1757.16
377.40	1771.49
377.61	1796.07
377.82	1665.00
378.03	1841.12
378.24	1738.73
378.45	1740.77
378.66	1761.25
378.87	1605.61
379.08	1640.42
379.29	1740.77
379.50	1789.92
379.71	1761.25
379.91	1710.05
380.12	1703.91
380.33	1671.14
380.54	1705.96
380.75	1722.34
380.96	1730.53
381.17	1759.21
381.38	1662.95
381.59	1800.16
381.80	1742.82
382.00	1824.74
382.21	1828.84
382.42	1789.92
382.63	1910.75
382.84	1810.40
383.05	1845.22
383.26	1863.65
383.47	1777.64
383.68	1767.40
383.88	1691.62
384.09	1691.62
384.30	1771.49
384.51	1738.73
384.72	1679.33
384.93	1591.27
385.14	1697.77
385.35	1865.70
385.55	1691.62
385.76	1783.78
385.97	1726.44
386.18	1675.24
386.39	1675.24
386.60	1691.62
386.81	1746.92
387.02	1701.86
387.22	1630.18
387.43	1796.07
387.64	1814.50
387.85	1822.69
388.06	2152.42
388.27	4114.37
388.48	6756.25
388.68	8089.48
388.89	9639.79
389.10	9684.84
389.31	8679.29
389.52	7423.89
389.73	6641.56
389.93	6006.69
390.14	5771.18
390.35	5103.54
390.56	4628.41
390.77	3790.79
390.98	3100.62
391.18	2564.06
391.39	2140.13
391.60	1853.41
391.81	1837.03
392.02	1675.24
392.23	1882.08
392.43	1744.87
392.64	1701.86
392.85	1722.34
393.06	1808.36
393.27	1755.11
393.47	1681.38
393.68	1744.87
393.89	1779.68
394.10	1779.68
394.31	1658.85
394.52	1644.52
394.72	1779.68
394.93	1712.10
395.14	1613.80
395.35	1775.59
395.56	1656.81
395.76	1753.06
395.97	1812.45
396.18	1798.12
396.39	1820.64
396.60	2029.54
396.80	1877.99
397.01	1828.84
397.22	1853.41
397.43	1900.52
397.64	1800.16
397.84	1918.95
398.05	1826.79
398.26	1728.49
398.47	1761.25
398.67	1738.73
398.88	1779.68
399.09	1712.10
399.30	1681.38
399.51	1763.30
399.71	1695.72
399.92	1716.20
400.13	1746.92
400.34	1759.21
400.54	1724.39
400.75	1855.46
400.96	1753.06
401.17	1851.36
401.37	1710.05
401.58	1714.15
401.79	1675.24
402.00	1832.93
402.21	2052.06
402.41	1927.14
402.62	2017.25
402.83	1972.19
403.04	1966.05
403.24	2025.44
403.45	1808.36
403.66	1904.61
403.87	1834.98
404.07	1933.28
404.28	1994.72
404.49	1927.14
404.70	1785.83
404.90	1708.01
405.11	1748.97
405.32	1779.68
405.52	1767.40
405.73	1716.20
405.94	1628.14
406.15	1699.81
406.35	1765.35
406.56	1660.90
406.77	1742.82
406.98	1693.67
407.18	1677.29
407.39	1865.70
407.60	1679.33
407.80	1742.82
408.01	1695.72
408.22	1736.68
408.43	1677.29
408.63	1693.67
408.84	1767.40
409.05	1779.68
409.25	1667.05
409.46	1689.57
409.67	1693.67
409.88	1757.16
410.08	1720.29
410.29	1658.85
410.50	1724.39
410.70	1755.11
410.91	1658.85
411.12	1791.97
411.32	1679.33
411.53	1714.15
411.74	1761.25
411.95	1796.07
412.15	1806.31
412.36	1787.88
412.57	1720.29
412.77	1849.32
412.98	1734.63
413.19	1736.68
413.39	1837.03
413.60	1730.53
413.81	1810.40
414.01	1740.77
414.22	1775.59
414.43	1814.50
414.63	1708.01
414.84	1818.60
415.05	1708.01
415.25	1632.23
415.46	1724.39
415.67	1787.88
415.87	1810.40
416.08	1667.05
416.29	1757.16
416.49	1720.29
416.70	1677.29
416.91	1648.61
417.11	1734.63
417.32	1718.25
417.53	1800.16
417.73	1767.40
417.94	1724.39
418.15	1716.20
418.35	1718.25
418.56	1755.11
418.77	1798.12
418.97	1640.42
419.18	1738.73
419.38	1593.32
419.59	1746.92
419.80	1826.79
420.00	1697.77
420.21	1771.49
420.42	1763.30
420.62	1855.46
420.83	1669.09
421.04	1712.10
421.24	1671.14
421.45	1806.31
421.65	1761.25
421.86	1642.47
422.07	1701.86
422.27	1710.05
422.48	1677.29
422.69	1757.16
422.89	1798.12
423.10	1738.73
423.30	1656.81
423.51	1671.14
423.72	1691.62
423.92	1769.44
424.13	1615.85
424.33	1697.77
424.54	1703.91
424.75	1742.82
424.95	1830.88
425.16	1728.49
425.36	1652.71
425.57	1828.84
425.78	1714.15
425.98	1746.92
426.19	1699.81
426.39	1689.57
426.60	1673.19
426.81	1787.88
427.01	1779.68
427.22	1716.20
427.42	1632.23
427.63	1656.81
427.83	1791.97
428.04	1712.10
428.25	1761.25
428.45	1763.30
428.66	1759.21
428.86	1722.34
429.07	1818.60
429.28	1705.96
429.48	1736.68
429.69	1699.81
429.89	1734.63
430.10	1677.29
430.30	1816.55
430.51	1751.01
430.71	1689.57
430.92	1748.97
431.13	1646.57
431.33	1765.35
431.54	1685.48
431.74	1822.69
431.95	1826.79
432.15	1677.29
432.36	1710.05
432.56	1773.54
432.77	1783.78
432.98	1855.46
433.18	1726.44
433.39	1705.96
433.59	1693.67
433.80	1832.93
434.00	1834.98
434.21	1701.86
434.41	1679.33
434.62	1851.36
434.82	1718.25
435.03	1640.42
435.23	1767.40
435.44	1665.00
435.64	1730.53
435.85	1730.53
436.06	1808.36
436.26	1746.92
436.47	1798.12
436.67	1705.96
436.88	1791.97
437.08	1710.05
437.29	1814.50
437.49	1726.44
437.70	1787.88
437.90	1728.49
438.11	1802.21
438.31	1796.07
438.52	1812.45
438.72	1869.80
438.93	1865.70
439.13	1798.12
439.34	1888.23
439.54	1773.54
439.75	1814.50
439.95	1789.92
440.16	1722.34
440.36	1722.34
440.57	1820.64
440.77	1769.44
440.98	1724.39
441.18	1798.12
441.39	1669.09
441.59	1701.86
441.80	1861.60
442.00	1724.39
442.21	1783.78
442.41	1658.85
442.62	1755.11
442.82	1669.09
443.02	1689.57
443.23	1771.49
443.43	1755.11
443.64	1816.55
443.84	1732.58
444.05	1886.18
444.25	1785.83
444.46	1681.38
444.66	1734.63
444.87	1931.23
445.07	1675.24
445.28	1746.92
445.48	1779.68
445.69	1771.49
445.89	1839.08
446.09	1757.16
446.30	2060.26
446.50	2598.87
446.71	3700.68
446.91	4392.89
447.12	4679.61
447.32	4949.94
447.53	4253.63
447.73	3899.33
447.93	3526.60
448.14	3370.96
448.34	3225.55
448.55	2877.40
448.75	2844.63
448.96	2670.55
449.16	2484.19
449.36	2263.01
449.57	2121.70
449.77	1914.85
449.98	1800.16
450.18	1744.87
450.39	1832.93
450.59	1806.31
450.79	1755.11
451.00	1710.05
451.20	1757.16
451.41	1857.51
451.61	1771.49
451.81	1697.77
452.02	1781.73
452.22	1763.30
452.43	1658.85
452.63	1705.96
