SpectraSuite Data File
++++++++++++++++++++++++++++++++++++
Date: Mon Jun 06 12:56:57 CEST 2016
User: root
Dark Spectrum Present: No
Reference Spectrum Present: No
Number of Sampled Component Spectra: 1
Spectrometers: USB4C02835
Integration Time (usec): 100000 (USB4C02835)
Spectra Averaged: 1 (USB4C02835)
Boxcar Smoothing: 0 (USB4C02835)
Correct for Electrical Dark: No (USB4C02835)
Strobe/Lamp Enabled: No (USB4C02835)
Correct for Detector Non-linearity: No (USB4C02835)
Correct for Stray Light: No (USB4C02835)
Number of Pixels in Processed Spectrum: 3648
>>>>>Begin Processed Spectral Data<<<<<
177.47	1415.15
177.69	1415.15
177.91	1415.15
178.13	1447.91
178.36	1495.02
178.58	1695.72
178.80	1646.57
179.02	1581.03
179.24	1671.14
179.46	1634.28
179.68	1789.92
179.90	1689.57
180.13	1681.38
180.35	1632.23
180.57	1685.48
180.79	1732.58
181.01	1605.61
181.23	1691.62
181.45	1798.12
181.67	1714.15
181.90	1771.49
182.12	1755.11
182.34	1613.80
182.56	1722.34
182.78	1765.35
183.00	1695.72
183.22	1714.15
183.44	1593.32
183.66	1904.61
183.89	1783.78
184.11	1732.58
184.33	1662.95
184.55	1726.44
184.77	1718.25
184.99	1654.76
185.21	1685.48
185.43	1810.40
185.65	1683.43
185.87	1693.67
186.10	1800.16
186.32	1808.36
186.54	1736.68
186.76	1736.68
186.98	1757.16
187.20	1656.81
187.42	1701.86
187.64	1691.62
187.86	1695.72
188.08	1824.74
188.30	1634.28
188.52	1757.16
188.75	1757.16
188.97	1820.64
189.19	1734.63
189.41	1689.57
189.63	1697.77
189.85	1675.24
190.07	1609.70
190.29	1634.28
190.51	1746.92
190.73	1685.48
190.95	1828.84
191.17	1724.39
191.39	1611.75
191.61	1628.14
191.84	1642.47
192.06	1636.33
192.28	1669.09
192.50	1832.93
192.72	1812.45
192.94	1691.62
193.16	1742.82
193.38	1740.77
193.60	1617.90
193.82	1693.67
194.04	1736.68
194.26	1742.82
194.48	1689.57
194.70	1660.90
194.92	1636.33
195.14	1722.34
195.36	1662.95
195.58	1783.78
195.80	1695.72
196.02	1624.04
196.24	1619.94
196.46	1777.64
196.69	1593.32
196.91	1865.70
197.13	1642.47
197.35	1677.29
197.57	1832.93
197.79	1665.00
198.01	1738.73
198.23	1783.78
198.45	1742.82
198.67	1636.33
198.89	1671.14
199.11	1718.25
199.33	1691.62
199.55	1583.08
199.77	1646.57
199.99	1767.40
200.21	1679.33
200.43	1673.19
200.65	1738.73
200.87	1572.84
201.09	1640.42
201.31	1751.01
201.53	1740.77
201.75	1746.92
201.97	1677.29
202.19	1693.67
202.41	1701.86
202.63	1748.97
202.85	1708.01
203.07	1783.78
203.29	1693.67
203.51	1632.23
203.73	1714.15
203.95	1949.67
204.17	1689.57
204.39	1724.39
204.61	1716.20
204.83	1722.34
205.05	1767.40
205.27	1808.36
205.49	1867.75
205.71	1734.63
205.93	1656.81
206.15	1705.96
206.37	1665.00
206.59	1740.77
206.81	1621.99
207.03	1665.00
207.25	1648.61
207.47	1740.77
207.69	1724.39
207.91	1806.31
208.13	1789.92
208.34	1652.71
208.56	1603.56
208.78	1708.01
209.00	1671.14
209.22	1746.92
209.44	1720.29
209.66	1660.90
209.88	1683.43
210.10	1601.51
210.32	1742.82
210.54	1748.97
210.76	1722.34
210.98	1759.21
211.20	1599.46
211.42	1730.53
211.64	1724.39
211.86	1757.16
212.08	1775.59
212.30	1732.58
212.52	1624.04
212.74	1757.16
212.96	1748.97
213.17	1734.63
213.39	1726.44
213.61	1779.68
213.83	1685.48
214.05	1605.61
214.27	1767.40
214.49	1632.23
214.71	1587.18
214.93	1722.34
215.15	1724.39
215.37	1777.64
215.59	1578.98
215.81	1712.10
216.03	1777.64
216.24	1689.57
216.46	1716.20
216.68	1652.71
216.90	1724.39
217.12	1789.92
217.34	1763.30
217.56	1738.73
217.78	1726.44
218.00	1759.21
218.22	1679.33
218.44	1701.86
218.66	1720.29
218.87	1763.30
219.09	1685.48
219.31	1644.52
219.53	1802.21
219.75	1691.62
219.97	1724.39
220.19	1753.06
220.41	1775.59
220.63	1806.31
220.85	1744.87
221.06	1693.67
221.28	1724.39
221.50	1755.11
221.72	1693.67
221.94	1665.00
222.16	1738.73
222.38	1775.59
222.60	1761.25
222.82	1636.33
223.03	1767.40
223.25	1667.05
223.47	1796.07
223.69	1798.12
223.91	1708.01
224.13	1710.05
224.35	1632.23
224.57	1783.78
224.78	1744.87
225.00	1656.81
225.22	1710.05
225.44	1714.15
225.66	1632.23
225.88	1687.53
226.10	1746.92
226.32	1691.62
226.53	1763.30
226.75	1673.19
226.97	1687.53
227.19	1615.85
227.41	1624.04
227.63	1615.85
227.85	1546.22
228.06	1726.44
228.28	1730.53
228.50	1773.54
228.72	1703.91
228.94	1714.15
229.16	1568.74
229.37	1650.66
229.59	1624.04
229.81	1722.34
230.03	1587.18
230.25	1640.42
230.47	1603.56
230.69	1632.23
230.90	1871.84
231.12	1765.35
231.34	1697.77
231.56	1724.39
231.78	1677.29
232.00	1646.57
232.21	1656.81
232.43	1720.29
232.65	1607.66
232.87	1798.12
233.09	1658.85
233.30	1691.62
233.52	1746.92
233.74	1693.67
233.96	1673.19
234.18	1681.38
234.40	1726.44
234.61	1794.02
234.83	1601.51
235.05	1683.43
235.27	1824.74
235.49	1779.68
235.70	1742.82
235.92	1734.63
236.14	1769.44
236.36	1804.26
236.58	1669.09
236.79	1689.57
237.01	1720.29
237.23	1644.52
237.45	1781.73
237.67	1665.00
237.88	1732.58
238.10	1761.25
238.32	1662.95
238.54	1712.10
238.76	1681.38
238.97	1615.85
239.19	1662.95
239.41	1728.49
239.63	1712.10
239.85	1652.71
240.06	1679.33
240.28	1654.76
240.50	1779.68
240.72	1683.43
240.93	1701.86
241.15	1742.82
241.37	1740.77
241.59	1816.55
241.81	1617.90
242.02	1669.09
242.24	1718.25
242.46	1662.95
242.68	1619.94
242.89	1787.88
243.11	1720.29
243.33	1705.96
243.55	1654.76
243.76	1714.15
243.98	1636.33
244.20	1673.19
244.42	1679.33
244.64	1656.81
244.85	1617.90
245.07	1736.68
245.29	1703.91
245.51	1673.19
245.72	1783.78
245.94	1767.40
246.16	1689.57
246.38	1642.47
246.59	1654.76
246.81	1619.94
247.03	1642.47
247.24	1591.27
247.46	1624.04
247.68	1697.77
247.90	1730.53
248.11	1583.08
248.33	1808.36
248.55	1753.06
248.77	1679.33
248.98	1789.92
249.20	1773.54
249.42	1679.33
249.64	1718.25
249.85	1697.77
250.07	1716.20
250.29	1746.92
250.50	1773.54
250.72	1615.85
250.94	1800.16
251.16	1804.26
251.37	1767.40
251.59	1681.38
251.81	1681.38
252.02	1828.84
252.24	1662.95
252.46	1767.40
252.68	1654.76
252.89	1673.19
253.11	1626.09
253.33	1746.92
253.54	1789.92
253.76	1628.14
253.98	1619.94
254.20	1708.01
254.41	1634.28
254.63	1736.68
254.85	1630.18
255.06	1689.57
255.28	1685.48
255.50	1695.72
255.71	1658.85
255.93	1671.14
256.15	1718.25
256.36	1697.77
256.58	1644.52
256.80	1742.82
257.02	1742.82
257.23	1648.61
257.45	1761.25
257.67	1650.66
257.88	1667.05
258.10	1705.96
258.32	1701.86
258.53	1724.39
258.75	1759.21
258.97	1714.15
259.18	1724.39
259.40	1646.57
259.62	1802.21
259.83	1810.40
260.05	1697.77
260.27	1949.67
260.48	1732.58
260.70	1615.85
260.92	1734.63
261.13	1679.33
261.35	1761.25
261.57	1814.50
261.78	1574.89
262.00	1650.66
262.22	1751.01
262.43	1751.01
262.65	1642.47
262.86	1732.58
263.08	1791.97
263.30	1738.73
263.51	1578.98
263.73	1636.33
263.95	1810.40
264.16	1705.96
264.38	1701.86
264.60	1718.25
264.81	1652.71
265.03	1757.16
265.25	1765.35
265.46	1712.10
265.68	1773.54
265.89	1665.00
266.11	1644.52
266.33	1757.16
266.54	1714.15
266.76	1716.20
266.98	1669.09
267.19	1785.83
267.41	1746.92
267.62	1669.09
267.84	1675.24
268.06	1710.05
268.27	1722.34
268.49	1736.68
268.70	1785.83
268.92	1736.68
269.14	1654.76
269.35	1654.76
269.57	1787.88
269.79	1757.16
270.00	1716.20
270.22	1675.24
270.43	1697.77
270.65	1652.71
270.87	1722.34
271.08	1738.73
271.30	1722.34
271.51	1769.44
271.73	1701.86
271.95	1755.11
272.16	1671.14
272.38	1714.15
272.59	1689.57
272.81	1730.53
273.02	1687.53
273.24	1665.00
273.46	1742.82
273.67	1660.90
273.89	1673.19
274.10	1671.14
274.32	1710.05
274.54	1685.48
274.75	1755.11
274.97	1621.99
275.18	1779.68
275.40	1767.40
275.61	1691.62
275.83	1699.81
276.05	1648.61
276.26	1738.73
276.48	1708.01
276.69	1665.00
276.91	1609.70
277.12	1732.58
277.34	1761.25
277.55	1720.29
277.77	1718.25
277.99	1650.66
278.20	1683.43
278.42	1619.94
278.63	1648.61
278.85	1665.00
279.06	1599.46
279.28	1757.16
279.49	1683.43
279.71	1779.68
279.93	1714.15
280.14	1669.09
280.36	1699.81
280.57	1781.73
280.79	1773.54
281.00	1621.99
281.22	1697.77
281.43	1757.16
281.65	1609.70
281.86	1615.85
282.08	1748.97
282.29	1816.55
282.51	1634.28
282.73	1621.99
282.94	1630.18
283.16	1724.39
283.37	1796.07
283.59	1662.95
283.80	1753.06
284.02	1699.81
284.23	1734.63
284.45	1683.43
284.66	1683.43
284.88	1640.42
285.09	1738.73
285.31	1722.34
285.52	1738.73
285.74	1591.27
285.95	1732.58
286.17	1691.62
286.38	1740.77
286.60	1656.81
286.81	1705.96
287.03	1605.61
287.24	1677.29
287.46	1724.39
287.67	1740.77
287.89	1738.73
288.10	1640.42
288.32	1695.72
288.53	1802.21
288.75	1734.63
288.96	1701.86
289.18	1665.00
289.39	1660.90
289.61	1730.53
289.82	1800.16
290.04	1763.30
290.25	1613.80
290.47	1705.96
290.68	1748.97
290.90	1738.73
291.11	1607.66
291.33	1791.97
291.54	1665.00
291.76	1681.38
291.97	1714.15
292.18	1734.63
292.40	1658.85
292.61	1646.57
292.83	1855.46
293.04	1730.53
293.26	1712.10
293.47	1699.81
293.69	1720.29
293.90	1693.67
294.12	1740.77
294.33	1748.97
294.55	1744.87
294.76	1691.62
294.97	1775.59
295.19	1783.78
295.40	1675.24
295.62	1730.53
295.83	1761.25
296.05	1662.95
296.26	1703.91
296.48	1687.53
296.69	1714.15
296.90	1710.05
297.12	1732.58
297.33	1773.54
297.55	1673.19
297.76	1724.39
297.98	1791.97
298.19	1705.96
298.41	1673.19
298.62	1595.37
298.83	1712.10
299.05	1685.48
299.26	1587.18
299.48	1632.23
299.69	1650.66
299.90	1728.49
300.12	1634.28
300.33	1615.85
300.55	1714.15
300.76	1697.77
300.98	1667.05
301.19	1726.44
301.40	1701.86
301.62	1617.90
301.83	1722.34
302.05	1728.49
302.26	1703.91
302.47	1708.01
302.69	1652.71
302.90	1652.71
303.12	1621.99
303.33	1732.58
303.54	1779.68
303.76	1656.81
303.97	1732.58
304.19	1771.49
304.40	1607.66
304.61	1724.39
304.83	1828.84
305.04	1773.54
305.26	1665.00
305.47	1748.97
305.68	1654.76
305.90	1593.32
306.11	1755.11
306.33	1644.52
306.54	1652.71
306.75	1658.85
306.97	1634.28
307.18	1644.52
307.39	1718.25
307.61	1789.92
307.82	1665.00
308.04	1697.77
308.25	1638.38
308.46	1665.00
308.68	1677.29
308.89	1665.00
309.10	1757.16
309.32	1685.48
309.53	1681.38
309.74	1732.58
309.96	1628.14
310.17	1716.20
310.39	1724.39
310.60	1683.43
310.81	1660.90
311.03	1501.16
311.24	1757.16
311.45	1693.67
311.67	1873.89
311.88	1765.35
312.09	1587.18
312.31	1718.25
312.52	1738.73
312.73	1685.48
312.95	1617.90
313.16	1714.15
313.37	1740.77
313.59	1736.68
313.80	1769.44
314.01	1871.84
314.23	1662.95
314.44	1697.77
314.65	1654.76
314.87	1673.19
315.08	1689.57
315.29	1771.49
315.51	1652.71
315.72	1636.33
315.93	1779.68
316.15	1722.34
316.36	1607.66
316.57	1732.58
316.79	1644.52
317.00	1628.14
317.21	1705.96
317.43	1708.01
317.64	1701.86
317.85	1708.01
318.07	1648.61
318.28	1761.25
318.49	1810.40
318.70	1970.15
318.92	1708.01
319.13	1837.03
319.34	1857.51
319.56	1724.39
319.77	1738.73
319.98	1783.78
320.20	1748.97
320.41	1679.33
320.62	1705.96
320.83	1662.95
321.05	1818.60
321.26	1748.97
321.47	1621.99
321.69	1724.39
321.90	1734.63
322.11	1714.15
322.32	1665.00
322.54	1753.06
322.75	1660.90
322.96	1832.93
323.18	1619.94
323.39	1562.60
323.60	1650.66
323.81	1738.73
324.03	1652.71
324.24	1650.66
324.45	1714.15
324.66	1689.57
324.88	1724.39
325.09	1748.97
325.30	1691.62
325.52	1675.24
325.73	1718.25
325.94	1648.61
326.15	1572.84
326.37	1751.01
326.58	1746.92
326.79	1722.34
327.00	1591.27
327.22	1755.11
327.43	1654.76
327.64	1595.37
327.85	1712.10
328.07	1683.43
328.28	1837.03
328.49	1681.38
328.70	1638.38
328.92	1673.19
329.13	1687.53
329.34	1781.73
329.55	1783.78
329.76	1800.16
329.98	1732.58
330.19	1748.97
330.40	1687.53
330.61	1693.67
330.83	1724.39
331.04	1720.29
331.25	1712.10
331.46	1693.67
331.68	1609.70
331.89	1724.39
332.10	1673.19
332.31	1658.85
332.52	1669.09
332.74	1730.53
332.95	1626.09
333.16	1587.18
333.37	1761.25
333.58	1677.29
333.80	1728.49
334.01	1568.74
334.22	1632.23
334.43	1687.53
334.64	1650.66
334.86	1648.61
335.07	1570.79
335.28	1730.53
335.49	1574.89
335.70	1722.34
335.92	1697.77
336.13	1828.84
336.34	1640.42
336.55	1697.77
336.76	1685.48
336.98	1667.05
337.19	1693.67
337.40	1824.74
337.61	1869.80
337.82	1689.57
338.04	1785.83
338.25	1640.42
338.46	1757.16
338.67	1675.24
338.88	1621.99
339.09	1626.09
339.31	1665.00
339.52	1607.66
339.73	1601.51
339.94	1728.49
340.15	1697.77
340.36	1595.37
340.58	1695.72
340.79	1669.09
341.00	1771.49
341.21	1652.71
341.42	1804.26
341.63	1697.77
341.85	1789.92
342.06	1734.63
342.27	1683.43
342.48	1769.44
342.69	1632.23
342.90	1767.40
343.12	1796.07
343.33	1656.81
343.54	1710.05
343.75	1757.16
343.96	1669.09
344.17	1740.77
344.38	1654.76
344.60	1714.15
344.81	1693.67
345.02	1791.97
345.23	1781.73
345.44	1744.87
345.65	1665.00
345.86	1679.33
346.07	1716.20
346.29	1746.92
346.50	1742.82
346.71	1720.29
346.92	1767.40
347.13	1834.98
347.34	1597.42
347.55	1673.19
347.76	1732.58
347.98	1636.33
348.19	1632.23
348.40	1781.73
348.61	1693.67
348.82	1783.78
349.03	1716.20
349.24	1642.47
349.45	1843.17
349.66	1599.46
349.88	1703.91
350.09	1636.33
350.30	1742.82
350.51	1744.87
350.72	1714.15
350.93	1730.53
351.14	1619.94
351.35	1705.96
351.56	1695.72
351.77	1632.23
351.99	1712.10
352.20	1771.49
352.41	1744.87
352.62	1617.90
352.83	1730.53
353.04	1697.77
353.25	1703.91
353.46	1810.40
353.67	1857.51
353.88	1654.76
354.09	1699.81
354.30	1673.19
354.52	1742.82
354.73	1628.14
354.94	1677.29
355.15	1667.05
355.36	1834.98
355.57	1667.05
355.78	1787.88
355.99	1642.47
356.20	1665.00
356.41	1740.77
356.62	1665.00
356.83	1687.53
357.04	1722.34
357.25	1609.70
357.46	1636.33
357.68	1564.65
357.89	1738.73
358.10	1691.62
358.31	1728.49
358.52	1734.63
358.73	1656.81
358.94	1646.57
359.15	1673.19
359.36	1714.15
359.57	1722.34
359.78	1675.24
359.99	1742.82
360.20	1615.85
360.41	1656.81
360.62	1697.77
360.83	1712.10
361.04	1665.00
361.25	1818.60
361.46	1746.92
361.67	1718.25
361.88	1742.82
362.09	1751.01
362.30	1716.20
362.51	1708.01
362.72	1705.96
362.93	1773.54
363.14	1755.11
363.35	1693.67
363.56	1642.47
363.78	1730.53
363.99	1775.59
364.20	1660.90
364.41	1779.68
364.62	1828.84
364.83	1730.53
365.04	1675.24
365.25	1703.91
365.46	1755.11
365.67	1720.29
365.88	1658.85
366.09	1691.62
366.30	1738.73
366.51	1681.38
366.72	1636.33
366.93	1660.90
367.14	1736.68
367.35	1787.88
367.56	1734.63
367.77	1775.59
367.98	1687.53
368.18	1779.68
368.39	1771.49
368.60	1720.29
368.81	1755.11
369.02	1730.53
369.23	1703.91
369.44	1607.66
369.65	1720.29
369.86	1753.06
370.07	1771.49
370.28	1615.85
370.49	1705.96
370.70	1779.68
370.91	1595.37
371.12	1638.38
371.33	1779.68
371.54	1685.48
371.75	1765.35
371.96	1619.94
372.17	1675.24
372.38	1736.68
372.59	1757.16
372.80	1669.09
373.01	1656.81
373.22	1685.48
373.43	1746.92
373.64	1605.61
373.85	1837.03
374.06	1783.78
374.26	1669.09
374.47	1718.25
374.68	1738.73
374.89	1687.53
375.10	1701.86
375.31	1824.74
375.52	1632.23
375.73	1660.90
375.94	1695.72
376.15	1822.69
376.36	1681.38
376.57	1697.77
376.78	1689.57
376.99	1708.01
377.20	1744.87
377.40	1630.18
377.61	1777.64
377.82	1634.28
378.03	1767.40
378.24	1660.90
378.45	1746.92
378.66	1732.58
378.87	1632.23
379.08	1648.61
379.29	1667.05
379.50	1824.74
379.71	1783.78
379.91	1765.35
380.12	1695.72
380.33	1710.05
380.54	1691.62
380.75	1695.72
380.96	1644.52
381.17	1755.11
381.38	1742.82
381.59	1798.12
381.80	1718.25
382.00	1826.79
382.21	1710.05
382.42	1873.89
382.63	1923.04
382.84	1775.59
383.05	1818.60
383.26	1806.31
383.47	1697.77
383.68	1791.97
383.88	1751.01
384.09	1665.00
384.30	1832.93
384.51	1740.77
384.72	1708.01
384.93	1632.23
385.14	1730.53
385.35	1736.68
385.55	1648.61
385.76	1777.64
385.97	1771.49
386.18	1685.48
386.39	1687.53
386.60	1712.10
386.81	1638.38
387.02	1687.53
387.22	1662.95
387.43	1748.97
387.64	1810.40
387.85	1841.12
388.06	2125.79
388.27	4263.87
388.48	6780.82
388.68	8013.70
388.89	9621.36
389.10	9785.19
389.31	8529.79
389.52	7667.60
389.73	6555.55
389.93	6174.63
390.14	6002.60
390.35	5189.55
390.56	4509.63
390.77	3827.65
390.98	3125.20
391.18	2525.15
391.39	2043.87
391.60	1798.12
391.81	1816.55
392.02	1714.15
392.23	1837.03
392.43	1703.91
392.64	1765.35
392.85	1701.86
393.06	1873.89
393.27	1644.52
393.47	1685.48
393.68	1695.72
393.89	1724.39
394.10	1789.92
394.31	1665.00
394.52	1691.62
394.72	1624.04
394.93	1820.64
395.14	1662.95
395.35	1658.85
395.56	1669.09
395.76	1691.62
395.97	1800.16
396.18	1822.69
396.39	1804.26
396.60	2062.30
396.80	1828.84
397.01	1871.84
397.22	1761.25
397.43	1906.66
397.64	1761.25
397.84	1826.79
398.05	1888.23
398.26	1705.96
398.47	1767.40
398.67	1832.93
398.88	1726.44
399.09	1775.59
399.30	1697.77
399.51	1734.63
399.71	1658.85
399.92	1665.00
400.13	1744.87
400.34	1722.34
400.54	1765.35
400.75	1808.36
400.96	1714.15
401.17	1884.13
401.37	1751.01
401.58	1699.81
401.79	1665.00
402.00	1816.55
402.21	2054.11
402.41	1867.75
402.62	1955.81
402.83	2021.35
403.04	2037.73
403.24	2041.82
403.45	1894.37
403.66	1964.00
403.87	1886.18
404.07	1871.84
404.28	1861.60
404.49	1875.94
404.70	1710.05
404.90	1783.78
405.11	1689.57
405.32	1718.25
405.52	1665.00
405.73	1644.52
405.94	1669.09
406.15	1669.09
406.35	1748.97
406.56	1765.35
406.77	1701.86
406.98	1757.16
407.18	1593.32
407.39	1830.88
407.60	1673.19
407.80	1736.68
408.01	1697.77
408.22	1685.48
408.43	1667.05
408.63	1703.91
408.84	1648.61
409.05	1759.21
409.25	1652.71
409.46	1689.57
409.67	1720.29
409.88	1660.90
410.08	1716.20
410.29	1699.81
410.50	1771.49
410.70	1767.40
410.91	1703.91
411.12	1712.10
411.32	1712.10
411.53	1675.24
411.74	1828.84
411.95	1785.83
412.15	1646.57
412.36	1804.26
412.57	1759.21
412.77	1822.69
412.98	1744.87
413.19	1708.01
413.39	1740.77
413.60	1781.73
413.81	1775.59
414.01	1597.42
414.22	1722.34
414.43	1746.92
414.63	1619.94
414.84	1787.88
415.05	1775.59
415.25	1624.04
415.46	1779.68
415.67	1701.86
415.87	1722.34
416.08	1701.86
416.29	1646.57
416.49	1736.68
416.70	1650.66
416.91	1677.29
417.11	1689.57
417.32	1703.91
417.53	1802.21
417.73	1808.36
417.94	1681.38
418.15	1771.49
418.35	1677.29
418.56	1714.15
418.77	1837.03
418.97	1783.78
419.18	1732.58
419.38	1554.41
419.59	1701.86
419.80	1851.36
420.00	1689.57
420.21	1679.33
420.42	1746.92
420.62	1730.53
420.83	1660.90
421.04	1669.09
421.24	1705.96
421.45	1853.41
421.65	1695.72
421.86	1746.92
422.07	1705.96
422.27	1722.34
422.48	1775.59
422.69	1701.86
422.89	1697.77
423.10	1724.39
423.30	1634.28
423.51	1703.91
423.72	1671.14
423.92	1767.40
424.13	1605.61
424.33	1800.16
424.54	1712.10
424.75	1761.25
424.95	1787.88
425.16	1755.11
425.36	1732.58
425.57	1705.96
425.78	1759.21
425.98	1781.73
426.19	1716.20
426.39	1662.95
426.60	1667.05
426.81	1769.44
427.01	1744.87
427.22	1675.24
427.42	1581.03
427.63	1751.01
427.83	1753.06
428.04	1746.92
428.25	1804.26
428.45	1751.01
428.66	1781.73
428.86	1683.43
429.07	1671.14
429.28	1685.48
429.48	1712.10
429.69	1722.34
429.89	1697.77
430.10	1708.01
430.30	1726.44
430.51	1726.44
430.71	1675.24
430.92	1783.78
431.13	1644.52
431.33	1738.73
431.54	1681.38
431.74	1751.01
431.95	1800.16
432.15	1714.15
432.36	1695.72
432.56	1779.68
432.77	1845.22
432.98	1755.11
433.18	1697.77
433.39	1730.53
433.59	1638.38
433.80	1718.25
434.00	1830.88
434.21	1716.20
434.41	1691.62
434.62	1812.45
434.82	1667.05
435.03	1636.33
435.23	1660.90
435.44	1550.31
435.64	1701.86
435.85	1732.58
436.06	1757.16
436.26	1814.50
436.47	1650.66
436.67	1656.81
436.88	1681.38
437.08	1779.68
437.29	1748.97
437.49	1777.64
437.70	1824.74
437.90	1634.28
438.11	1773.54
438.31	1738.73
438.52	1804.26
438.72	1841.12
438.93	1877.99
439.13	1814.50
439.34	1830.88
439.54	1769.44
439.75	1744.87
439.95	1761.25
440.16	1740.77
440.36	1789.92
440.57	1794.02
440.77	1656.81
440.98	1705.96
441.18	1726.44
441.39	1718.25
441.59	1730.53
441.80	1828.84
442.00	1658.85
442.21	1847.27
442.41	1605.61
442.62	1779.68
442.82	1675.24
443.02	1785.83
443.23	1646.57
443.43	1734.63
443.64	1849.32
443.84	1619.94
444.05	1761.25
444.25	1705.96
444.46	1660.90
444.66	1705.96
444.87	1806.31
445.07	1683.43
445.28	1691.62
445.48	1853.41
445.69	1779.68
445.89	1787.88
446.09	1734.63
446.30	1996.77
446.50	2688.98
446.71	3762.12
446.91	4229.06
447.12	4726.71
447.32	4761.53
447.53	4321.21
447.73	3803.08
447.93	3524.55
448.14	3272.65
448.34	3186.64
448.55	2955.22
448.75	2832.34
448.96	2674.65
449.16	2426.84
449.36	2351.07
449.57	2093.02
449.77	1882.08
449.98	1736.68
450.18	1812.45
450.39	1814.50
450.59	1841.12
450.79	1697.77
451.00	1693.67
451.20	1771.49
451.41	1615.85
451.61	1699.81
451.81	1783.78
452.02	1708.01
452.22	1724.39
452.43	1683.43
452.63	1753.06
