SpectraSuite Data File
++++++++++++++++++++++++++++++++++++
Date: Mon Jun 06 17:12:17 CEST 2016
User: root
Dark Spectrum Present: No
Reference Spectrum Present: No
Number of Sampled Component Spectra: 1
Spectrometers: USB4C02835
Integration Time (usec): 100000 (USB4C02835)
Spectra Averaged: 1 (USB4C02835)
Boxcar Smoothing: 0 (USB4C02835)
Correct for Electrical Dark: No (USB4C02835)
Strobe/Lamp Enabled: No (USB4C02835)
Correct for Detector Non-linearity: No (USB4C02835)
Correct for Stray Light: No (USB4C02835)
Number of Pixels in Processed Spectrum: 3648
>>>>>Begin Processed Spectral Data<<<<<
177.47	1439.72
177.69	1439.72
177.91	1439.72
178.13	1495.02
178.36	1443.82
178.58	1656.81
178.80	1662.95
179.02	1624.04
179.24	1677.29
179.46	1695.72
179.68	1804.26
179.90	1683.43
180.13	1724.39
180.35	1662.95
180.57	1619.94
180.79	1734.63
181.01	1687.53
181.23	1812.45
181.45	1775.59
181.67	1724.39
181.90	1738.73
182.12	1701.86
182.34	1667.05
182.56	1734.63
182.78	1732.58
183.00	1751.01
183.22	1646.57
183.44	1632.23
183.66	1918.95
183.89	1810.40
184.11	1703.91
184.33	1716.20
184.55	1798.12
184.77	1681.38
184.99	1759.21
185.21	1652.71
185.43	1796.07
185.65	1693.67
185.87	1751.01
186.10	1861.60
186.32	1890.28
186.54	1755.11
186.76	1693.67
186.98	1714.15
187.20	1728.49
187.42	1738.73
187.64	1685.48
187.86	1699.81
188.08	1714.15
188.30	1607.66
188.52	1765.35
188.75	1751.01
188.97	1722.34
189.19	1726.44
189.41	1726.44
189.63	1687.53
189.85	1636.33
190.07	1689.57
190.29	1632.23
190.51	1787.88
190.73	1648.61
190.95	1728.49
191.17	1740.77
191.39	1601.51
191.61	1712.10
191.84	1767.40
192.06	1689.57
192.28	1581.03
192.50	1896.42
192.72	1716.20
192.94	1724.39
193.16	1748.97
193.38	1716.20
193.60	1632.23
193.82	1763.30
194.04	1763.30
194.26	1744.87
194.48	1708.01
194.70	1638.38
194.92	1769.44
195.14	1726.44
195.36	1681.38
195.58	1765.35
195.80	1691.62
196.02	1677.29
196.24	1751.01
196.46	1812.45
196.69	1734.63
196.91	1820.64
197.13	1746.92
197.35	1705.96
197.57	1828.84
197.79	1796.07
198.01	1689.57
198.23	1740.77
198.45	1748.97
198.67	1699.81
198.89	1665.00
199.11	1691.62
199.33	1675.24
199.55	1570.79
199.77	1693.67
199.99	1708.01
200.21	1703.91
200.43	1761.25
200.65	1677.29
200.87	1648.61
201.09	1708.01
201.31	1755.11
201.53	1816.55
201.75	1699.81
201.97	1763.30
202.19	1697.77
202.41	1693.67
202.63	1763.30
202.85	1802.21
203.07	1730.53
203.29	1697.77
203.51	1638.38
203.73	1689.57
203.95	1918.95
204.17	1705.96
204.39	1634.28
204.61	1638.38
204.83	1675.24
205.05	1728.49
205.27	1761.25
205.49	1748.97
205.71	1763.30
205.93	1726.44
206.15	1681.38
206.37	1708.01
206.59	1589.22
206.81	1603.56
207.03	1646.57
207.25	1677.29
207.47	1755.11
207.69	1669.09
207.91	1826.79
208.13	1804.26
208.34	1628.14
208.56	1646.57
208.78	1730.53
209.00	1703.91
209.22	1662.95
209.44	1652.71
209.66	1667.05
209.88	1656.81
210.10	1583.08
210.32	1669.09
210.54	1785.83
210.76	1673.19
210.98	1806.31
211.20	1648.61
211.42	1728.49
211.64	1839.08
211.86	1742.82
212.08	1746.92
212.30	1705.96
212.52	1734.63
212.74	1755.11
212.96	1751.01
213.17	1736.68
213.39	1773.54
213.61	1839.08
213.83	1730.53
214.05	1658.85
214.27	1814.50
214.49	1640.42
214.71	1765.35
214.93	1771.49
215.15	1767.40
215.37	1787.88
215.59	1621.99
215.81	1746.92
216.03	1769.44
216.24	1732.58
216.46	1677.29
216.68	1697.77
216.90	1755.11
217.12	1800.16
217.34	1679.33
217.56	1683.43
217.78	1800.16
218.00	1677.29
218.22	1695.72
218.44	1679.33
218.66	1746.92
218.87	1783.78
219.09	1652.71
219.31	1781.73
219.53	1701.86
219.75	1738.73
219.97	1712.10
220.19	1773.54
220.41	1681.38
220.63	1779.68
220.85	1710.05
221.06	1656.81
221.28	1791.97
221.50	1730.53
221.72	1746.92
221.94	1796.07
222.16	1695.72
222.38	1781.73
222.60	1701.86
222.82	1648.61
223.03	1746.92
223.25	1621.99
223.47	1777.64
223.69	1826.79
223.91	1767.40
224.13	1726.44
224.35	1714.15
224.57	1837.03
224.78	1796.07
225.00	1677.29
225.22	1683.43
225.44	1691.62
225.66	1738.73
225.88	1671.14
226.10	1705.96
226.32	1783.78
226.53	1746.92
226.75	1683.43
226.97	1671.14
227.19	1626.09
227.41	1607.66
227.63	1652.71
227.85	1638.38
228.06	1769.44
228.28	1744.87
228.50	1763.30
228.72	1660.90
228.94	1703.91
229.16	1660.90
229.37	1611.75
229.59	1583.08
229.81	1787.88
230.03	1650.66
230.25	1710.05
230.47	1607.66
230.69	1638.38
230.90	1773.54
231.12	1679.33
231.34	1746.92
231.56	1730.53
231.78	1576.94
232.00	1732.58
232.21	1630.18
232.43	1658.85
232.65	1603.56
232.87	1736.68
233.09	1685.48
233.30	1689.57
233.52	1767.40
233.74	1703.91
233.96	1697.77
234.18	1667.05
234.40	1697.77
234.61	1849.32
234.83	1701.86
235.05	1714.15
235.27	1777.64
235.49	1728.49
235.70	1738.73
235.92	1828.84
236.14	1791.97
236.36	1908.71
236.58	1630.18
236.79	1716.20
237.01	1681.38
237.23	1708.01
237.45	1918.95
237.67	1648.61
237.88	1746.92
238.10	1837.03
238.32	1638.38
238.54	1685.48
238.76	1638.38
238.97	1669.09
239.19	1638.38
239.41	1748.97
239.63	1816.55
239.85	1669.09
240.06	1652.71
240.28	1701.86
240.50	1675.24
240.72	1720.29
240.93	1751.01
241.15	1763.30
241.37	1755.11
241.59	1759.21
241.81	1693.67
242.02	1757.16
242.24	1767.40
242.46	1744.87
242.68	1730.53
242.89	1755.11
243.11	1724.39
243.33	1746.92
243.55	1734.63
243.76	1732.58
243.98	1701.86
244.20	1693.67
244.42	1701.86
244.64	1757.16
244.85	1740.77
245.07	1667.05
245.29	1703.91
245.51	1652.71
245.72	1755.11
245.94	1869.80
246.16	1724.39
246.38	1791.97
246.59	1646.57
246.81	1654.76
247.03	1689.57
247.24	1665.00
247.46	1693.67
247.68	1710.05
247.90	1632.23
248.11	1642.47
248.33	1730.53
248.55	1685.48
248.77	1742.82
248.98	1759.21
249.20	1779.68
249.42	1677.29
249.64	1740.77
249.85	1689.57
250.07	1728.49
250.29	1763.30
250.50	1755.11
250.72	1673.19
250.94	1785.83
251.16	1851.36
251.37	1812.45
251.59	1748.97
251.81	1716.20
252.02	1783.78
252.24	1687.53
252.46	1800.16
252.68	1656.81
252.89	1597.42
253.11	1650.66
253.33	1753.06
253.54	1718.25
253.76	1636.33
253.98	1732.58
254.20	1701.86
254.41	1615.85
254.63	1730.53
254.85	1652.71
255.06	1656.81
255.28	1722.34
255.50	1710.05
255.71	1593.32
255.93	1632.23
256.15	1714.15
256.36	1726.44
256.58	1671.14
256.80	1751.01
257.02	1675.24
257.23	1708.01
257.45	1703.91
257.67	1699.81
257.88	1689.57
258.10	1775.59
258.32	1710.05
258.53	1708.01
258.75	1732.58
258.97	1638.38
259.18	1736.68
259.40	1683.43
259.62	1796.07
259.83	1806.31
260.05	1751.01
260.27	1996.77
260.48	1732.58
260.70	1691.62
260.92	1769.44
261.13	1689.57
261.35	1677.29
261.57	1771.49
261.78	1630.18
262.00	1642.47
262.22	1755.11
262.43	1640.42
262.65	1689.57
262.86	1726.44
263.08	1802.21
263.30	1767.40
263.51	1624.04
263.73	1681.38
263.95	1806.31
264.16	1642.47
264.38	1671.14
264.60	1775.59
264.81	1730.53
265.03	1734.63
265.25	1738.73
265.46	1742.82
265.68	1724.39
265.89	1728.49
266.11	1624.04
266.33	1751.01
266.54	1791.97
266.76	1689.57
266.98	1728.49
267.19	1789.92
267.41	1685.48
267.62	1718.25
267.84	1638.38
268.06	1787.88
268.27	1736.68
268.49	1796.07
268.70	1751.01
268.92	1675.24
269.14	1673.19
269.35	1718.25
269.57	1714.15
269.79	1728.49
270.00	1720.29
270.22	1757.16
270.43	1746.92
270.65	1621.99
270.87	1728.49
271.08	1791.97
271.30	1751.01
271.51	1767.40
271.73	1769.44
271.95	1763.30
272.16	1679.33
272.38	1708.01
272.59	1708.01
272.81	1771.49
273.02	1724.39
273.24	1765.35
273.46	1753.06
273.67	1691.62
273.89	1660.90
274.10	1660.90
274.32	1779.68
274.54	1718.25
274.75	1740.77
274.97	1705.96
275.18	1759.21
275.40	1740.77
275.61	1681.38
275.83	1755.11
276.05	1667.05
276.26	1656.81
276.48	1705.96
276.69	1677.29
276.91	1699.81
277.12	1804.26
277.34	1787.88
277.55	1755.11
277.77	1763.30
277.99	1683.43
278.20	1658.85
278.42	1746.92
278.63	1689.57
278.85	1708.01
279.06	1640.42
279.28	1734.63
279.49	1775.59
279.71	1660.90
279.93	1755.11
280.14	1740.77
280.36	1634.28
280.57	1701.86
280.79	1769.44
281.00	1755.11
281.22	1693.67
281.43	1834.98
281.65	1593.32
281.86	1650.66
282.08	1808.36
282.29	1820.64
282.51	1689.57
282.73	1656.81
282.94	1564.65
283.16	1738.73
283.37	1794.02
283.59	1689.57
283.80	1710.05
284.02	1714.15
284.23	1736.68
284.45	1699.81
284.66	1640.42
284.88	1689.57
285.09	1744.87
285.31	1798.12
285.52	1667.05
285.74	1574.89
285.95	1834.98
286.17	1779.68
286.38	1841.12
286.60	1642.47
286.81	1681.38
287.03	1630.18
287.24	1687.53
287.46	1738.73
287.67	1773.54
287.89	1814.50
288.10	1736.68
288.32	1767.40
288.53	1777.64
288.75	1734.63
288.96	1804.26
289.18	1718.25
289.39	1644.52
289.61	1714.15
289.82	1867.75
290.04	1806.31
290.25	1591.27
290.47	1681.38
290.68	1681.38
290.90	1757.16
291.11	1609.70
291.33	1761.25
291.54	1581.03
291.76	1693.67
291.97	1673.19
292.18	1677.29
292.40	1695.72
292.61	1648.61
292.83	1826.79
293.04	1742.82
293.26	1771.49
293.47	1732.58
293.69	1675.24
293.90	1660.90
294.12	1802.21
294.33	1730.53
294.55	1650.66
294.76	1828.84
294.97	1757.16
295.19	1808.36
295.40	1673.19
295.62	1748.97
295.83	1728.49
296.05	1677.29
296.26	1691.62
296.48	1697.77
296.69	1687.53
296.90	1802.21
297.12	1796.07
297.33	1794.02
297.55	1742.82
297.76	1726.44
297.98	1730.53
298.19	1728.49
298.41	1699.81
298.62	1654.76
298.83	1781.73
299.05	1738.73
299.26	1695.72
299.48	1673.19
299.69	1710.05
299.90	1671.14
300.12	1675.24
300.33	1722.34
300.55	1765.35
300.76	1781.73
300.98	1697.77
301.19	1656.81
301.40	1712.10
301.62	1718.25
301.83	1734.63
302.05	1746.92
302.26	1718.25
302.47	1718.25
302.69	1656.81
302.90	1675.24
303.12	1570.79
303.33	1771.49
303.54	1738.73
303.76	1724.39
303.97	1650.66
304.19	1789.92
304.40	1632.23
304.61	1718.25
304.83	1771.49
305.04	1783.78
305.26	1736.68
305.47	1708.01
305.68	1722.34
305.90	1679.33
306.11	1738.73
306.33	1642.47
306.54	1671.14
306.75	1691.62
306.97	1681.38
307.18	1624.04
307.39	1689.57
307.61	1791.97
307.82	1689.57
308.04	1812.45
308.25	1701.86
308.46	1705.96
308.68	1712.10
308.89	1742.82
309.10	1720.29
309.32	1759.21
309.53	1759.21
309.74	1763.30
309.96	1673.19
310.17	1800.16
310.39	1701.86
310.60	1736.68
310.81	1708.01
311.03	1685.48
311.24	1710.05
311.45	1652.71
311.67	1814.50
311.88	1728.49
312.09	1724.39
312.31	1677.29
312.52	1720.29
312.73	1679.33
312.95	1683.43
313.16	1683.43
313.37	1781.73
313.59	1689.57
313.80	1802.21
314.01	1773.54
314.23	1705.96
314.44	1712.10
314.65	1697.77
314.87	1693.67
315.08	1726.44
315.29	1701.86
315.51	1638.38
315.72	1658.85
315.93	1898.47
316.15	1804.26
316.36	1644.52
316.57	1732.58
316.79	1730.53
317.00	1714.15
317.21	1724.39
317.43	1640.42
317.64	1744.87
317.85	1701.86
318.07	1632.23
318.28	1765.35
318.49	1759.21
318.70	1912.80
318.92	1791.97
319.13	1837.03
319.34	1865.70
319.56	1763.30
319.77	1798.12
319.98	1832.93
320.20	1765.35
320.41	1779.68
320.62	1787.88
320.83	1658.85
321.05	1880.04
321.26	1705.96
321.47	1634.28
321.69	1824.74
321.90	1683.43
322.11	1697.77
322.32	1710.05
322.54	1755.11
322.75	1710.05
322.96	1847.27
323.18	1638.38
323.39	1644.52
323.60	1679.33
323.81	1800.16
324.03	1669.09
324.24	1732.58
324.45	1718.25
324.66	1740.77
324.88	1669.09
325.09	1738.73
325.30	1662.95
325.52	1751.01
325.73	1734.63
325.94	1714.15
326.15	1628.14
326.37	1603.56
326.58	1761.25
326.79	1892.32
327.00	1679.33
327.22	1708.01
327.43	1665.00
327.64	1714.15
327.85	1755.11
328.07	1724.39
328.28	1779.68
328.49	1669.09
328.70	1705.96
328.92	1699.81
329.13	1699.81
329.34	1796.07
329.55	1794.02
329.76	1734.63
329.98	1722.34
330.19	1767.40
330.40	1767.40
330.61	1736.68
330.83	1806.31
331.04	1648.61
331.25	1699.81
331.46	1716.20
331.68	1673.19
331.89	1759.21
332.10	1683.43
332.31	1654.76
332.52	1744.87
332.74	1748.97
332.95	1548.26
333.16	1677.29
333.37	1796.07
333.58	1691.62
333.80	1697.77
334.01	1656.81
334.22	1728.49
334.43	1667.05
334.64	1718.25
334.86	1624.04
335.07	1738.73
335.28	1744.87
335.49	1640.42
335.70	1726.44
335.92	1816.55
336.13	1843.17
336.34	1742.82
336.55	1748.97
336.76	1716.20
336.98	1595.37
337.19	1689.57
337.40	1798.12
337.61	1779.68
337.82	1587.18
338.04	1734.63
338.25	1619.94
338.46	1691.62
338.67	1656.81
338.88	1648.61
339.09	1619.94
339.31	1714.15
339.52	1665.00
339.73	1603.56
339.94	1640.42
340.15	1791.97
340.36	1650.66
340.58	1804.26
340.79	1708.01
341.00	1685.48
341.21	1667.05
341.42	1810.40
341.63	1695.72
341.85	1755.11
342.06	1730.53
342.27	1660.90
342.48	1751.01
342.69	1607.66
342.90	1744.87
343.12	1726.44
343.33	1699.81
343.54	1767.40
343.75	1816.55
343.96	1658.85
344.17	1619.94
344.38	1697.77
344.60	1781.73
344.81	1640.42
345.02	1728.49
345.23	1785.83
345.44	1787.88
345.65	1708.01
345.86	1753.06
346.07	1693.67
346.29	1665.00
346.50	1804.26
346.71	1687.53
346.92	1769.44
347.13	1824.74
347.34	1681.38
347.55	1675.24
347.76	1728.49
347.98	1624.04
348.19	1714.15
348.40	1806.31
348.61	1658.85
348.82	1732.58
349.03	1810.40
349.24	1662.95
349.45	1822.69
349.66	1656.81
349.88	1626.09
350.09	1591.27
350.30	1785.83
350.51	1730.53
350.72	1736.68
350.93	1689.57
351.14	1732.58
351.35	1759.21
351.56	1656.81
351.77	1744.87
351.99	1679.33
352.20	1855.46
352.41	1775.59
352.62	1572.84
352.83	1697.77
353.04	1708.01
353.25	1689.57
353.46	1738.73
353.67	1765.35
353.88	1609.70
354.09	1722.34
354.30	1722.34
354.52	1767.40
354.73	1773.54
354.94	1624.04
355.15	1722.34
355.36	1757.16
355.57	1656.81
355.78	1716.20
355.99	1701.86
356.20	1605.61
356.41	1765.35
356.62	1728.49
356.83	1665.00
357.04	1757.16
357.25	1607.66
357.46	1667.05
357.68	1609.70
357.89	1681.38
358.10	1681.38
358.31	1730.53
358.52	1646.57
358.73	1648.61
358.94	1667.05
359.15	1644.52
359.36	1724.39
359.57	1648.61
359.78	1748.97
359.99	1722.34
360.20	1644.52
360.41	1736.68
360.62	1734.63
360.83	1726.44
361.04	1771.49
361.25	1691.62
361.46	1873.89
361.67	1755.11
361.88	1781.73
362.09	1740.77
362.30	1767.40
362.51	1646.57
362.72	1705.96
362.93	1689.57
363.14	1763.30
363.35	1689.57
363.56	1738.73
363.78	1736.68
363.99	1775.59
364.20	1714.15
364.41	1712.10
364.62	1908.71
364.83	1732.58
365.04	1726.44
365.25	1654.76
365.46	1847.27
365.67	1767.40
365.88	1619.94
366.09	1671.14
366.30	1669.09
366.51	1755.11
366.72	1632.23
366.93	1726.44
367.14	1734.63
367.35	1791.97
367.56	1718.25
367.77	1767.40
367.98	1681.38
368.18	1755.11
368.39	1722.34
368.60	1685.48
368.81	1705.96
369.02	1630.18
369.23	1669.09
369.44	1554.41
369.65	1689.57
369.86	1734.63
370.07	1722.34
370.28	1740.77
370.49	1742.82
370.70	1777.64
370.91	1648.61
371.12	1658.85
371.33	1843.17
371.54	1687.53
371.75	1783.78
371.96	1564.65
372.17	1693.67
372.38	1617.90
372.59	1781.73
372.80	1642.47
373.01	1697.77
373.22	1767.40
373.43	1705.96
373.64	1591.27
373.85	1769.44
374.06	1724.39
374.26	1689.57
374.47	1695.72
374.68	1763.30
374.89	1751.01
375.10	1630.18
375.31	1755.11
375.52	1703.91
375.73	1761.25
375.94	1597.42
376.15	1753.06
376.36	1697.77
376.57	1697.77
376.78	1703.91
376.99	1673.19
377.20	1820.64
377.40	1748.97
377.61	1869.80
377.82	1689.57
378.03	1753.06
378.24	1761.25
378.45	1703.91
378.66	1767.40
378.87	1603.56
379.08	1634.28
379.29	1681.38
379.50	1783.78
379.71	1605.61
379.91	1730.53
380.12	1685.48
380.33	1755.11
380.54	1742.82
380.75	1605.61
380.96	1665.00
381.17	1718.25
381.38	1683.43
381.59	1755.11
381.80	1746.92
382.00	1849.32
382.21	1816.55
382.42	1859.56
382.63	1920.99
382.84	1751.01
383.05	1845.22
383.26	1826.79
383.47	1775.59
383.68	1798.12
383.88	1732.58
384.09	1742.82
384.30	1839.08
384.51	1714.15
384.72	1701.86
384.93	1648.61
385.14	1683.43
385.35	1767.40
385.55	1595.37
385.76	1812.45
385.97	1714.15
386.18	1693.67
386.39	1671.14
386.60	1712.10
386.81	1660.90
387.02	1646.57
387.22	1677.29
387.43	1837.03
387.64	1802.21
387.85	1918.95
388.06	2185.18
388.27	4106.18
388.48	6754.20
388.68	8163.20
388.89	9502.58
389.10	9654.12
389.31	8370.05
389.52	7434.13
389.73	6508.44
389.93	6121.38
390.14	5898.15
390.35	5253.04
390.56	4540.35
390.77	3833.80
390.98	3020.75
391.18	2543.58
391.39	2148.32
391.60	1808.36
391.81	1927.14
392.02	1787.88
392.23	1882.08
392.43	1716.20
392.64	1802.21
392.85	1773.54
393.06	1882.08
393.27	1671.14
393.47	1734.63
393.68	1705.96
393.89	1710.05
394.10	1777.64
394.31	1746.92
394.52	1693.67
394.72	1701.86
394.93	1796.07
395.14	1697.77
395.35	1726.44
395.56	1689.57
395.76	1773.54
395.97	1826.79
396.18	1843.17
396.39	1834.98
396.60	2027.49
396.80	1847.27
397.01	1802.21
397.22	1843.17
397.43	1863.65
397.64	1705.96
397.84	1816.55
398.05	1871.84
398.26	1710.05
398.47	1738.73
398.67	1779.68
398.88	1718.25
399.09	1806.31
399.30	1720.29
399.51	1732.58
399.71	1656.81
399.92	1730.53
400.13	1699.81
400.34	1703.91
400.54	1613.80
400.75	1806.31
400.96	1759.21
401.17	1843.17
401.37	1839.08
401.58	1746.92
401.79	1759.21
402.00	1839.08
402.21	1986.53
402.41	1906.66
402.62	2115.55
402.83	2041.82
403.04	2013.15
403.24	2150.37
403.45	1832.93
403.66	1957.86
403.87	1843.17
404.07	1853.41
404.28	1947.62
404.49	1796.07
404.70	1777.64
404.90	1734.63
405.11	1746.92
405.32	1722.34
405.52	1699.81
405.73	1773.54
405.94	1775.59
406.15	1677.29
406.35	1763.30
406.56	1734.63
406.77	1705.96
406.98	1806.31
407.18	1617.90
407.39	1841.12
407.60	1687.53
407.80	1714.15
408.01	1695.72
408.22	1759.21
408.43	1681.38
408.63	1726.44
408.84	1755.11
409.05	1775.59
409.25	1671.14
409.46	1667.05
409.67	1708.01
409.88	1656.81
410.08	1724.39
410.29	1738.73
410.50	1726.44
410.70	1732.58
410.91	1703.91
411.12	1736.68
411.32	1693.67
411.53	1738.73
411.74	1785.83
411.95	1769.44
412.15	1748.97
412.36	1812.45
412.57	1806.31
412.77	1806.31
412.98	1757.16
413.19	1716.20
413.39	1820.64
413.60	1783.78
413.81	1869.80
414.01	1638.38
414.22	1812.45
414.43	1785.83
414.63	1695.72
414.84	1710.05
415.05	1695.72
415.25	1724.39
415.46	1761.25
415.67	1679.33
415.87	1785.83
416.08	1710.05
416.29	1648.61
416.49	1824.74
416.70	1619.94
416.91	1681.38
417.11	1662.95
417.32	1716.20
417.53	1757.16
417.73	1740.77
417.94	1720.29
418.15	1683.43
418.35	1761.25
418.56	1722.34
418.77	1845.22
418.97	1718.25
419.18	1761.25
419.38	1630.18
419.59	1726.44
419.80	1789.92
420.00	1691.62
420.21	1718.25
420.42	1812.45
420.62	1767.40
420.83	1599.46
421.04	1726.44
421.24	1759.21
421.45	1728.49
421.65	1667.05
421.86	1722.34
422.07	1742.82
422.27	1681.38
422.48	1734.63
422.69	1630.18
422.89	1644.52
423.10	1708.01
423.30	1710.05
423.51	1714.15
423.72	1787.88
423.92	1728.49
424.13	1601.51
424.33	1630.18
424.54	1759.21
424.75	1673.19
424.95	1812.45
425.16	1812.45
425.36	1755.11
425.57	1796.07
425.78	1775.59
425.98	1830.88
426.19	1693.67
426.39	1609.70
426.60	1800.16
426.81	1738.73
427.01	1712.10
427.22	1626.09
427.42	1665.00
427.63	1660.90
427.83	1708.01
428.04	1771.49
428.25	1837.03
428.45	1734.63
428.66	1691.62
428.86	1742.82
429.07	1699.81
429.28	1695.72
429.48	1710.05
429.69	1638.38
429.89	1738.73
430.10	1607.66
430.30	1755.11
430.51	1755.11
430.71	1589.22
430.92	1724.39
431.13	1685.48
431.33	1806.31
431.54	1689.57
431.74	1771.49
431.95	1873.89
432.15	1634.28
432.36	1861.60
432.56	1777.64
432.77	1851.36
432.98	1820.64
433.18	1724.39
433.39	1677.29
433.59	1734.63
433.80	1828.84
434.00	1855.46
434.21	1689.57
434.41	1755.11
434.62	1927.14
434.82	1632.23
435.03	1644.52
435.23	1671.14
435.44	1656.81
435.64	1738.73
435.85	1708.01
436.06	1734.63
436.26	1806.31
436.47	1712.10
436.67	1644.52
436.88	1757.16
437.08	1753.06
437.29	1785.83
437.49	1796.07
437.70	1812.45
437.90	1730.53
438.11	1802.21
438.31	1877.99
438.52	1894.37
438.72	1816.55
438.93	1884.13
439.13	1722.34
439.34	1832.93
439.54	1763.30
439.75	1808.36
439.95	1847.27
440.16	1787.88
440.36	1734.63
440.57	1753.06
440.77	1804.26
440.98	1710.05
441.18	1787.88
441.39	1742.82
441.59	1632.23
441.80	1847.27
442.00	1800.16
442.21	1826.79
442.41	1705.96
442.62	1757.16
442.82	1769.44
443.02	1675.24
443.23	1716.20
443.43	1726.44
443.64	1785.83
443.84	1665.00
444.05	1738.73
444.25	1703.91
444.46	1732.58
444.66	1703.91
444.87	1822.69
445.07	1640.42
445.28	1738.73
445.48	1869.80
445.69	1806.31
445.89	1943.52
446.09	1787.88
446.30	2115.55
446.50	2633.69
446.71	3741.64
446.91	4366.27
447.12	4792.25
447.32	4712.38
447.53	4351.93
447.73	3880.90
447.93	3555.27
448.14	3227.60
448.34	3231.69
448.55	2826.20
448.75	2926.55
448.96	2672.60
449.16	2435.03
449.36	2246.62
449.57	2066.40
449.77	1904.61
449.98	1796.07
450.18	1779.68
450.39	1814.50
450.59	1763.30
450.79	1773.54
451.00	1746.92
451.20	1769.44
451.41	1777.64
451.61	1775.59
451.81	1769.44
452.02	1699.81
452.22	1708.01
452.43	1722.34
452.63	1640.42
