SpectraSuite Data File
++++++++++++++++++++++++++++++++++++
Date: Mon Jun 06 13:42:17 CEST 2016
User: root
Dark Spectrum Present: No
Reference Spectrum Present: No
Number of Sampled Component Spectra: 1
Spectrometers: USB4C02835
Integration Time (usec): 100000 (USB4C02835)
Spectra Averaged: 1 (USB4C02835)
Boxcar Smoothing: 0 (USB4C02835)
Correct for Electrical Dark: No (USB4C02835)
Strobe/Lamp Enabled: No (USB4C02835)
Correct for Detector Non-linearity: No (USB4C02835)
Correct for Stray Light: No (USB4C02835)
Number of Pixels in Processed Spectrum: 3648
>>>>>Begin Processed Spectral Data<<<<<
177.47	1421.29
177.69	1421.29
177.91	1421.29
178.13	1427.43
178.36	1495.02
178.58	1658.85
178.80	1689.57
179.02	1611.75
179.24	1732.58
179.46	1654.76
179.68	1787.88
179.90	1755.11
180.13	1652.71
180.35	1658.85
180.57	1689.57
180.79	1794.02
181.01	1599.46
181.23	1742.82
181.45	1755.11
181.67	1736.68
181.90	1722.34
182.12	1619.94
182.34	1591.27
182.56	1761.25
182.78	1681.38
183.00	1718.25
183.22	1650.66
183.44	1675.24
183.66	1857.51
183.89	1849.32
184.11	1677.29
184.33	1724.39
184.55	1742.82
184.77	1675.24
184.99	1687.53
185.21	1726.44
185.43	1820.64
185.65	1621.99
185.87	1669.09
186.10	1837.03
186.32	1812.45
186.54	1683.43
186.76	1712.10
186.98	1744.87
187.20	1716.20
187.42	1652.71
187.64	1771.49
187.86	1785.83
188.08	1699.81
188.30	1652.71
188.52	1744.87
188.75	1748.97
188.97	1738.73
189.19	1679.33
189.41	1722.34
189.63	1722.34
189.85	1665.00
190.07	1593.32
190.29	1634.28
190.51	1832.93
190.73	1566.70
190.95	1720.29
191.17	1730.53
191.39	1630.18
191.61	1597.42
191.84	1619.94
192.06	1783.78
192.28	1550.31
192.50	1931.23
192.72	1697.77
192.94	1644.52
193.16	1742.82
193.38	1695.72
193.60	1652.71
193.82	1675.24
194.04	1789.92
194.26	1708.01
194.48	1740.77
194.70	1636.33
194.92	1640.42
195.14	1726.44
195.36	1636.33
195.58	1673.19
195.80	1632.23
196.02	1697.77
196.24	1658.85
196.46	1705.96
196.69	1646.57
196.91	1798.12
197.13	1720.29
197.35	1648.61
197.57	1796.07
197.79	1753.06
198.01	1644.52
198.23	1716.20
198.45	1718.25
198.67	1665.00
198.89	1701.86
199.11	1705.96
199.33	1656.81
199.55	1570.79
199.77	1703.91
199.99	1742.82
200.21	1736.68
200.43	1697.77
200.65	1589.22
200.87	1570.79
201.09	1646.57
201.31	1693.67
201.53	1779.68
201.75	1609.70
201.97	1796.07
202.19	1773.54
202.41	1736.68
202.63	1740.77
202.85	1753.06
203.07	1648.61
203.29	1683.43
203.51	1656.81
203.73	1632.23
203.95	1861.60
204.17	1658.85
204.39	1771.49
204.61	1675.24
204.83	1679.33
205.05	1816.55
205.27	1730.53
205.49	1822.69
205.71	1718.25
205.93	1677.29
206.15	1701.86
206.37	1675.24
206.59	1624.04
206.81	1621.99
207.03	1640.42
207.25	1613.80
207.47	1714.15
207.69	1607.66
207.91	1748.97
208.13	1712.10
208.34	1675.24
208.56	1640.42
208.78	1667.05
209.00	1708.01
209.22	1726.44
209.44	1697.77
209.66	1746.92
209.88	1644.52
210.10	1699.81
210.32	1677.29
210.54	1783.78
210.76	1654.76
210.98	1748.97
211.20	1576.94
211.42	1669.09
211.64	1746.92
211.86	1755.11
212.08	1820.64
212.30	1738.73
212.52	1703.91
212.74	1615.85
212.96	1673.19
213.17	1722.34
213.39	1822.69
213.61	1806.31
213.83	1730.53
214.05	1656.81
214.27	1783.78
214.49	1578.98
214.71	1607.66
214.93	1771.49
215.15	1679.33
215.37	1783.78
215.59	1589.22
215.81	1718.25
216.03	1695.72
216.24	1708.01
216.46	1593.32
216.68	1718.25
216.90	1771.49
217.12	1720.29
217.34	1673.19
217.56	1736.68
217.78	1775.59
218.00	1708.01
218.22	1703.91
218.44	1689.57
218.66	1640.42
218.87	1722.34
219.09	1673.19
219.31	1748.97
219.53	1720.29
219.75	1685.48
219.97	1746.92
220.19	1740.77
220.41	1628.14
220.63	1796.07
220.85	1710.05
221.06	1665.00
221.28	1834.98
221.50	1665.00
221.72	1720.29
221.94	1714.15
222.16	1679.33
222.38	1755.11
222.60	1773.54
222.82	1728.49
223.03	1796.07
223.25	1677.29
223.47	1775.59
223.69	1798.12
223.91	1726.44
224.13	1681.38
224.35	1755.11
224.57	1683.43
224.78	1738.73
225.00	1705.96
225.22	1636.33
225.44	1681.38
225.66	1695.72
225.88	1611.75
226.10	1751.01
226.32	1726.44
226.53	1906.66
226.75	1675.24
226.97	1734.63
227.19	1613.80
227.41	1665.00
227.63	1683.43
227.85	1615.85
228.06	1765.35
228.28	1726.44
228.50	1693.67
228.72	1599.46
228.94	1683.43
229.16	1660.90
229.37	1654.76
229.59	1654.76
229.81	1769.44
230.03	1730.53
230.25	1599.46
230.47	1693.67
230.69	1689.57
230.90	1714.15
231.12	1656.81
231.34	1693.67
231.56	1746.92
231.78	1634.28
232.00	1681.38
232.21	1710.05
232.43	1660.90
232.65	1560.55
232.87	1726.44
233.09	1736.68
233.30	1681.38
233.52	1703.91
233.74	1677.29
233.96	1675.24
234.18	1656.81
234.40	1765.35
234.61	1816.55
234.83	1626.09
235.05	1634.28
235.27	1847.27
235.49	1742.82
235.70	1662.95
235.92	1812.45
236.14	1703.91
236.36	1859.56
236.58	1705.96
236.79	1669.09
237.01	1691.62
237.23	1714.15
237.45	1771.49
237.67	1619.94
237.88	1759.21
238.10	1800.16
238.32	1683.43
238.54	1656.81
238.76	1615.85
238.97	1677.29
239.19	1662.95
239.41	1746.92
239.63	1763.30
239.85	1691.62
240.06	1705.96
240.28	1697.77
240.50	1718.25
240.72	1718.25
240.93	1710.05
241.15	1769.44
241.37	1759.21
241.59	1734.63
241.81	1699.81
242.02	1601.51
242.24	1769.44
242.46	1765.35
242.68	1652.71
242.89	1720.29
243.11	1798.12
243.33	1687.53
243.55	1742.82
243.76	1769.44
243.98	1710.05
244.20	1669.09
244.42	1730.53
244.64	1738.73
244.85	1607.66
245.07	1617.90
245.29	1767.40
245.51	1716.20
245.72	1718.25
245.94	1808.36
246.16	1673.19
246.38	1736.68
246.59	1699.81
246.81	1689.57
247.03	1703.91
247.24	1564.65
247.46	1667.05
247.68	1765.35
247.90	1708.01
248.11	1648.61
248.33	1751.01
248.55	1712.10
248.77	1675.24
248.98	1775.59
249.20	1751.01
249.42	1697.77
249.64	1718.25
249.85	1736.68
250.07	1658.85
250.29	1685.48
250.50	1765.35
250.72	1615.85
250.94	1656.81
251.16	1775.59
251.37	1814.50
251.59	1665.00
251.81	1755.11
252.02	1830.88
252.24	1632.23
252.46	1789.92
252.68	1603.56
252.89	1724.39
253.11	1656.81
253.33	1837.03
253.54	1736.68
253.76	1583.08
253.98	1755.11
254.20	1722.34
254.41	1570.79
254.63	1730.53
254.85	1644.52
255.06	1665.00
255.28	1775.59
255.50	1658.85
255.71	1683.43
255.93	1658.85
256.15	1718.25
256.36	1775.59
256.58	1658.85
256.80	1740.77
257.02	1687.53
257.23	1654.76
257.45	1701.86
257.67	1736.68
257.88	1722.34
258.10	1687.53
258.32	1771.49
258.53	1744.87
258.75	1742.82
258.97	1728.49
259.18	1660.90
259.40	1626.09
259.62	1722.34
259.83	1740.77
260.05	1689.57
260.27	2031.58
260.48	1769.44
260.70	1679.33
260.92	1718.25
261.13	1724.39
261.35	1667.05
261.57	1746.92
261.78	1665.00
262.00	1691.62
262.22	1734.63
262.43	1585.13
262.65	1669.09
262.86	1658.85
263.08	1853.41
263.30	1722.34
263.51	1669.09
263.73	1665.00
263.95	1759.21
264.16	1687.53
264.38	1701.86
264.60	1728.49
264.81	1679.33
265.03	1738.73
265.25	1759.21
265.46	1716.20
265.68	1746.92
265.89	1710.05
266.11	1646.57
266.33	1740.77
266.54	1765.35
266.76	1695.72
266.98	1728.49
267.19	1673.19
267.41	1724.39
267.62	1697.77
267.84	1591.27
268.06	1740.77
268.27	1800.16
268.49	1722.34
268.70	1671.14
268.92	1624.04
269.14	1638.38
269.35	1638.38
269.57	1679.33
269.79	1650.66
270.00	1656.81
270.22	1880.04
270.43	1634.28
270.65	1603.56
270.87	1722.34
271.08	1718.25
271.30	1824.74
271.51	1693.67
271.73	1697.77
271.95	1744.87
272.16	1744.87
272.38	1716.20
272.59	1695.72
272.81	1638.38
273.02	1718.25
273.24	1708.01
273.46	1787.88
273.67	1626.09
273.89	1738.73
274.10	1671.14
274.32	1763.30
274.54	1722.34
274.75	1658.85
274.97	1667.05
275.18	1703.91
275.40	1718.25
275.61	1755.11
275.83	1751.01
276.05	1613.80
276.26	1759.21
276.48	1742.82
276.69	1705.96
276.91	1689.57
277.12	1775.59
277.34	1736.68
277.55	1787.88
277.77	1740.77
277.99	1673.19
278.20	1589.22
278.42	1624.04
278.63	1703.91
278.85	1658.85
279.06	1587.18
279.28	1724.39
279.49	1730.53
279.71	1642.47
279.93	1746.92
280.14	1716.20
280.36	1619.94
280.57	1759.21
280.79	1734.63
281.00	1718.25
281.22	1671.14
281.43	1691.62
281.65	1648.61
281.86	1644.52
282.08	1722.34
282.29	1826.79
282.51	1597.42
282.73	1652.71
282.94	1599.46
283.16	1798.12
283.37	1816.55
283.59	1687.53
283.80	1787.88
284.02	1667.05
284.23	1767.40
284.45	1701.86
284.66	1646.57
284.88	1699.81
285.09	1751.01
285.31	1662.95
285.52	1673.19
285.74	1624.04
285.95	1796.07
286.17	1679.33
286.38	1714.15
286.60	1628.14
286.81	1658.85
287.03	1667.05
287.24	1730.53
287.46	1765.35
287.67	1726.44
287.89	1710.05
288.10	1689.57
288.32	1746.92
288.53	1779.68
288.75	1691.62
288.96	1753.06
289.18	1626.09
289.39	1630.18
289.61	1789.92
289.82	1796.07
290.04	1714.15
290.25	1640.42
290.47	1708.01
290.68	1769.44
290.90	1804.26
291.11	1636.33
291.33	1771.49
291.54	1669.09
291.76	1619.94
291.97	1665.00
292.18	1751.01
292.40	1667.05
292.61	1662.95
292.83	1853.41
293.04	1656.81
293.26	1650.66
293.47	1597.42
293.69	1654.76
293.90	1689.57
294.12	1787.88
294.33	1718.25
294.55	1685.48
294.76	1837.03
294.97	1800.16
295.19	1853.41
295.40	1710.05
295.62	1683.43
295.83	1683.43
296.05	1697.77
296.26	1781.73
296.48	1628.14
296.69	1650.66
296.90	1695.72
297.12	1671.14
297.33	1798.12
297.55	1748.97
297.76	1781.73
297.98	1744.87
298.19	1669.09
298.41	1718.25
298.62	1722.34
298.83	1746.92
299.05	1759.21
299.26	1650.66
299.48	1646.57
299.69	1710.05
299.90	1734.63
300.12	1662.95
300.33	1730.53
300.55	1693.67
300.76	1789.92
300.98	1634.28
301.19	1701.86
301.40	1599.46
301.62	1656.81
301.83	1730.53
302.05	1714.15
302.26	1654.76
302.47	1697.77
302.69	1628.14
302.90	1771.49
303.12	1558.50
303.33	1816.55
303.54	1773.54
303.76	1667.05
303.97	1734.63
304.19	1718.25
304.40	1589.22
304.61	1738.73
304.83	1826.79
305.04	1761.25
305.26	1779.68
305.47	1648.61
305.68	1662.95
305.90	1634.28
306.11	1794.02
306.33	1662.95
306.54	1677.29
306.75	1703.91
306.97	1548.26
307.18	1669.09
307.39	1617.90
307.61	1722.34
307.82	1621.99
308.04	1656.81
308.25	1646.57
308.46	1675.24
308.68	1740.77
308.89	1613.80
309.10	1736.68
309.32	1755.11
309.53	1662.95
309.74	1699.81
309.96	1603.56
310.17	1755.11
310.39	1652.71
310.60	1742.82
310.81	1767.40
311.03	1671.14
311.24	1710.05
311.45	1712.10
311.67	1773.54
311.88	1691.62
312.09	1671.14
312.31	1570.79
312.52	1716.20
312.73	1634.28
312.95	1693.67
313.16	1630.18
313.37	1822.69
313.59	1722.34
313.80	1785.83
314.01	1816.55
314.23	1576.94
314.44	1632.23
314.65	1628.14
314.87	1685.48
315.08	1736.68
315.29	1689.57
315.51	1624.04
315.72	1675.24
315.93	1802.21
316.15	1843.17
316.36	1654.76
316.57	1703.91
316.79	1734.63
317.00	1708.01
317.21	1732.58
317.43	1658.85
317.64	1683.43
317.85	1654.76
318.07	1714.15
318.28	1699.81
318.49	1744.87
318.70	1896.42
318.92	1845.22
319.13	1802.21
319.34	1837.03
319.56	1828.84
319.77	1832.93
319.98	1779.68
320.20	1789.92
320.41	1751.01
320.62	1728.49
320.83	1609.70
321.05	1873.89
321.26	1648.61
321.47	1730.53
321.69	1787.88
321.90	1644.52
322.11	1714.15
322.32	1744.87
322.54	1683.43
322.75	1738.73
322.96	1853.41
323.18	1677.29
323.39	1595.37
323.60	1634.28
323.81	1753.06
324.03	1605.61
324.24	1767.40
324.45	1603.56
324.66	1624.04
324.88	1730.53
325.09	1810.40
325.30	1746.92
325.52	1763.30
325.73	1765.35
325.94	1693.67
326.15	1673.19
326.37	1675.24
326.58	1779.68
326.79	1736.68
327.00	1687.53
327.22	1753.06
327.43	1665.00
327.64	1636.33
327.85	1757.16
328.07	1728.49
328.28	1751.01
328.49	1656.81
328.70	1771.49
328.92	1730.53
329.13	1705.96
329.34	1656.81
329.55	1781.73
329.76	1771.49
329.98	1728.49
330.19	1822.69
330.40	1701.86
330.61	1675.24
330.83	1736.68
331.04	1628.14
331.25	1726.44
331.46	1632.23
331.68	1685.48
331.89	1722.34
332.10	1708.01
332.31	1601.51
332.52	1732.58
332.74	1703.91
332.95	1642.47
333.16	1683.43
333.37	1736.68
333.58	1660.90
333.80	1775.59
334.01	1662.95
334.22	1644.52
334.43	1667.05
334.64	1634.28
334.86	1599.46
335.07	1650.66
335.28	1775.59
335.49	1605.61
335.70	1687.53
335.92	1746.92
336.13	1820.64
336.34	1626.09
336.55	1748.97
336.76	1769.44
336.98	1662.95
337.19	1662.95
337.40	1845.22
337.61	1824.74
337.82	1621.99
338.04	1783.78
338.25	1597.42
338.46	1716.20
338.67	1710.05
338.88	1654.76
339.09	1607.66
339.31	1714.15
339.52	1697.77
339.73	1585.13
339.94	1751.01
340.15	1660.90
340.36	1626.09
340.58	1779.68
340.79	1714.15
341.00	1691.62
341.21	1644.52
341.42	1859.56
341.63	1699.81
341.85	1769.44
342.06	1695.72
342.27	1714.15
342.48	1736.68
342.69	1613.80
342.90	1771.49
343.12	1728.49
343.33	1667.05
343.54	1779.68
343.75	1744.87
343.96	1650.66
344.17	1675.24
344.38	1656.81
344.60	1671.14
344.81	1626.09
345.02	1640.42
345.23	1732.58
345.44	1742.82
345.65	1791.97
345.86	1716.20
346.07	1638.38
346.29	1669.09
346.50	1724.39
346.71	1648.61
346.92	1740.77
347.13	1779.68
347.34	1669.09
347.55	1601.51
347.76	1740.77
347.98	1566.70
348.19	1740.77
348.40	1816.55
348.61	1677.29
348.82	1757.16
349.03	1863.65
349.24	1677.29
349.45	1865.70
349.66	1650.66
349.88	1632.23
350.09	1648.61
350.30	1744.87
350.51	1789.92
350.72	1716.20
350.93	1685.48
351.14	1636.33
351.35	1779.68
351.56	1687.53
351.77	1734.63
351.99	1738.73
352.20	1744.87
352.41	1789.92
352.62	1626.09
352.83	1714.15
353.04	1779.68
353.25	1609.70
353.46	1771.49
353.67	1775.59
353.88	1648.61
354.09	1716.20
354.30	1691.62
354.52	1679.33
354.73	1617.90
354.94	1599.46
355.15	1703.91
355.36	1742.82
355.57	1644.52
355.78	1697.77
355.99	1636.33
356.20	1607.66
356.41	1746.92
356.62	1722.34
356.83	1687.53
357.04	1796.07
357.25	1660.90
357.46	1699.81
357.68	1583.08
357.89	1665.00
358.10	1777.64
358.31	1638.38
358.52	1656.81
358.73	1613.80
358.94	1566.70
359.15	1660.90
359.36	1742.82
359.57	1697.77
359.78	1738.73
359.99	1736.68
360.20	1662.95
360.41	1699.81
360.62	1689.57
360.83	1718.25
361.04	1703.91
361.25	1687.53
361.46	1828.84
361.67	1689.57
361.88	1765.35
362.09	1808.36
362.30	1744.87
362.51	1751.01
362.72	1714.15
362.93	1759.21
363.14	1765.35
363.35	1697.77
363.56	1591.27
363.78	1769.44
363.99	1673.19
364.20	1665.00
364.41	1724.39
364.62	1820.64
364.83	1720.29
365.04	1712.10
365.25	1685.48
365.46	1810.40
365.67	1673.19
365.88	1632.23
366.09	1703.91
366.30	1718.25
366.51	1691.62
366.72	1748.97
366.93	1689.57
367.14	1648.61
367.35	1724.39
367.56	1716.20
367.77	1732.58
367.98	1751.01
368.18	1722.34
368.39	1740.77
368.60	1701.86
368.81	1679.33
369.02	1705.96
369.23	1669.09
369.44	1626.09
369.65	1626.09
369.86	1740.77
370.07	1736.68
370.28	1654.76
370.49	1730.53
370.70	1773.54
370.91	1613.80
371.12	1587.18
371.33	1771.49
371.54	1691.62
371.75	1798.12
371.96	1597.42
372.17	1656.81
372.38	1695.72
372.59	1712.10
372.80	1681.38
373.01	1683.43
373.22	1693.67
373.43	1681.38
373.64	1665.00
373.85	1791.97
374.06	1751.01
374.26	1720.29
374.47	1640.42
374.68	1785.83
374.89	1693.67
375.10	1712.10
375.31	1726.44
375.52	1681.38
375.73	1658.85
375.94	1650.66
376.15	1771.49
376.36	1609.70
376.57	1685.48
376.78	1695.72
376.99	1736.68
377.20	1789.92
377.40	1607.66
377.61	1767.40
377.82	1583.08
378.03	1808.36
378.24	1761.25
378.45	1767.40
378.66	1654.76
378.87	1634.28
379.08	1624.04
379.29	1572.84
379.50	1804.26
379.71	1720.29
379.91	1755.11
380.12	1652.71
380.33	1656.81
380.54	1742.82
380.75	1699.81
380.96	1658.85
381.17	1726.44
381.38	1699.81
381.59	1708.01
381.80	1748.97
382.00	1812.45
382.21	1689.57
382.42	1794.02
382.63	1798.12
382.84	1779.68
383.05	1791.97
383.26	1753.06
383.47	1665.00
383.68	1798.12
383.88	1742.82
384.09	1748.97
384.30	1767.40
384.51	1785.83
384.72	1677.29
384.93	1587.18
385.14	1687.53
385.35	1755.11
385.55	1654.76
385.76	1773.54
385.97	1730.53
386.18	1626.09
386.39	1636.33
386.60	1644.52
386.81	1722.34
387.02	1624.04
387.22	1658.85
387.43	1734.63
387.64	1748.97
387.85	1949.67
388.06	2164.70
388.27	4368.32
388.48	6825.88
388.68	8157.06
388.89	9762.67
389.10	9914.22
389.31	8595.32
389.52	7636.88
389.73	6721.43
389.93	6115.23
390.14	5767.08
390.35	5175.22
390.56	4644.79
390.77	3751.88
390.98	3084.24
391.18	2533.34
391.39	2174.94
391.60	1898.47
391.81	1761.25
392.02	1742.82
392.23	1818.60
392.43	1771.49
392.64	1726.44
392.85	1656.81
393.06	1832.93
393.27	1675.24
393.47	1595.37
393.68	1781.73
393.89	1718.25
394.10	1765.35
394.31	1687.53
394.52	1654.76
394.72	1697.77
394.93	1777.64
395.14	1669.09
395.35	1669.09
395.56	1728.49
395.76	1738.73
395.97	1812.45
396.18	1828.84
396.39	1820.64
396.60	2023.39
396.80	1873.89
397.01	1877.99
397.22	1806.31
397.43	1789.92
397.64	1798.12
397.84	1783.78
398.05	1716.20
398.26	1773.54
398.47	1826.79
398.67	1802.21
398.88	1669.09
399.09	1716.20
399.30	1689.57
399.51	1779.68
399.71	1669.09
399.92	1673.19
400.13	1748.97
400.34	1730.53
400.54	1699.81
400.75	1796.07
400.96	1681.38
401.17	1871.84
401.37	1650.66
401.58	1689.57
401.79	1642.47
402.00	1834.98
402.21	2011.11
402.41	1937.38
402.62	2011.11
402.83	2029.54
403.04	1955.81
403.24	2017.25
403.45	1791.97
403.66	1888.23
403.87	1892.32
404.07	1818.60
404.28	1935.33
404.49	1865.70
404.70	1771.49
404.90	1759.21
405.11	1781.73
405.32	1738.73
405.52	1640.42
405.73	1746.92
405.94	1675.24
406.15	1675.24
406.35	1675.24
406.56	1746.92
406.77	1732.58
406.98	1728.49
407.18	1710.05
407.39	1800.16
407.60	1714.15
407.80	1726.44
408.01	1660.90
408.22	1689.57
408.43	1699.81
408.63	1642.47
408.84	1724.39
409.05	1742.82
409.25	1677.29
409.46	1742.82
409.67	1650.66
409.88	1738.73
410.08	1669.09
410.29	1607.66
410.50	1710.05
410.70	1751.01
410.91	1607.66
411.12	1746.92
411.32	1716.20
411.53	1691.62
411.74	1740.77
411.95	1726.44
412.15	1703.91
412.36	1816.55
412.57	1796.07
412.77	1771.49
412.98	1744.87
413.19	1710.05
413.39	1736.68
413.60	1810.40
413.81	1742.82
414.01	1632.23
414.22	1679.33
414.43	1798.12
414.63	1802.21
414.84	1765.35
415.05	1796.07
415.25	1644.52
415.46	1734.63
415.67	1646.57
415.87	1744.87
416.08	1751.01
416.29	1652.71
416.49	1777.64
416.70	1757.16
416.91	1650.66
417.11	1705.96
417.32	1705.96
417.53	1787.88
417.73	1683.43
417.94	1665.00
418.15	1697.77
418.35	1687.53
418.56	1691.62
418.77	1814.50
418.97	1771.49
419.18	1628.14
419.38	1595.37
419.59	1697.77
419.80	1773.54
420.00	1748.97
420.21	1701.86
420.42	1736.68
420.62	1753.06
420.83	1667.05
421.04	1685.48
421.24	1667.05
421.45	1757.16
421.65	1734.63
421.86	1718.25
422.07	1767.40
422.27	1796.07
422.48	1701.86
422.69	1619.94
422.89	1673.19
423.10	1697.77
423.30	1591.27
423.51	1732.58
423.72	1720.29
423.92	1701.86
424.13	1673.19
424.33	1693.67
424.54	1714.15
424.75	1714.15
424.95	1757.16
425.16	1720.29
425.36	1626.09
425.57	1689.57
425.78	1804.26
425.98	1740.77
426.19	1660.90
426.39	1691.62
426.60	1728.49
426.81	1794.02
427.01	1689.57
427.22	1634.28
427.42	1642.47
427.63	1673.19
427.83	1730.53
428.04	1853.41
428.25	1742.82
428.45	1755.11
428.66	1763.30
428.86	1746.92
429.07	1675.24
429.28	1722.34
429.48	1734.63
429.69	1630.18
429.89	1693.67
430.10	1665.00
430.30	1724.39
430.51	1761.25
430.71	1679.33
430.92	1757.16
431.13	1689.57
431.33	1675.24
431.54	1691.62
431.74	1779.68
431.95	1845.22
432.15	1767.40
432.36	1703.91
432.56	1718.25
432.77	1824.74
432.98	1751.01
433.18	1705.96
433.39	1691.62
433.59	1714.15
433.80	1818.60
434.00	1855.46
434.21	1746.92
434.41	1619.94
434.62	1806.31
434.82	1697.77
435.03	1740.77
435.23	1656.81
435.44	1617.90
435.64	1689.57
435.85	1677.29
436.06	1732.58
436.26	1791.97
436.47	1662.95
436.67	1691.62
436.88	1714.15
437.08	1757.16
437.29	1814.50
437.49	1714.15
437.70	1738.73
437.90	1689.57
438.11	1875.94
438.31	1828.84
438.52	1861.60
438.72	1789.92
438.93	1873.89
439.13	1812.45
439.34	1828.84
439.54	1839.08
439.75	1705.96
439.95	1769.44
440.16	1677.29
440.36	1765.35
440.57	1794.02
440.77	1753.06
440.98	1722.34
441.18	1677.29
441.39	1665.00
441.59	1691.62
441.80	1824.74
442.00	1730.53
442.21	1714.15
442.41	1624.04
442.62	1763.30
442.82	1685.48
443.02	1798.12
443.23	1787.88
443.43	1728.49
443.64	1742.82
443.84	1673.19
444.05	1841.12
444.25	1714.15
444.46	1730.53
444.66	1740.77
444.87	1787.88
445.07	1558.50
445.28	1732.58
445.48	1757.16
445.69	1818.60
445.89	1834.98
446.09	1748.97
446.30	2052.06
446.50	2650.07
446.71	3813.32
446.91	4294.59
447.12	4634.55
447.32	4736.95
447.53	4286.40
447.73	3778.50
447.93	3614.66
448.14	3330.00
448.34	3237.84
448.55	2828.24
448.75	2744.28
448.96	2693.08
449.16	2402.27
449.36	2369.50
449.57	2090.98
449.77	1902.56
449.98	1769.44
450.18	1787.88
450.39	1767.40
450.59	1804.26
450.79	1773.54
451.00	1755.11
451.20	1775.59
451.41	1691.62
451.61	1730.53
451.81	1761.25
452.02	1699.81
452.22	1746.92
452.43	1609.70
452.63	1581.03
