SpectraSuite Data File
++++++++++++++++++++++++++++++++++++
Date: Mon Jun 06 13:15:57 CEST 2016
User: root
Dark Spectrum Present: No
Reference Spectrum Present: No
Number of Sampled Component Spectra: 1
Spectrometers: USB4C02835
Integration Time (usec): 100000 (USB4C02835)
Spectra Averaged: 1 (USB4C02835)
Boxcar Smoothing: 0 (USB4C02835)
Correct for Electrical Dark: No (USB4C02835)
Strobe/Lamp Enabled: No (USB4C02835)
Correct for Detector Non-linearity: No (USB4C02835)
Correct for Stray Light: No (USB4C02835)
Number of Pixels in Processed Spectrum: 3648
>>>>>Begin Processed Spectral Data<<<<<
177.47	1456.11
177.69	1456.11
177.91	1456.11
178.13	1501.16
178.36	1538.02
178.58	1621.99
178.80	1716.20
179.02	1619.94
179.24	1615.85
179.46	1710.05
179.68	1746.92
179.90	1705.96
180.13	1667.05
180.35	1689.57
180.57	1789.92
180.79	1736.68
181.01	1724.39
181.23	1699.81
181.45	1755.11
181.67	1693.67
181.90	1765.35
182.12	1589.22
182.34	1599.46
182.56	1695.72
182.78	1755.11
183.00	1689.57
183.22	1720.29
183.44	1574.89
183.66	1773.54
183.89	1791.97
184.11	1671.14
184.33	1736.68
184.55	1740.77
184.77	1611.75
184.99	1740.77
185.21	1714.15
185.43	1740.77
185.65	1665.00
185.87	1691.62
186.10	1816.55
186.32	1849.32
186.54	1695.72
186.76	1671.14
186.98	1742.82
187.20	1626.09
187.42	1683.43
187.64	1683.43
187.86	1695.72
188.08	1744.87
188.30	1669.09
188.52	1677.29
188.75	1732.58
188.97	1755.11
189.19	1640.42
189.41	1703.91
189.63	1677.29
189.85	1691.62
190.07	1640.42
190.29	1675.24
190.51	1703.91
190.73	1626.09
190.95	1789.92
191.17	1585.13
191.39	1589.22
191.61	1634.28
191.84	1716.20
192.06	1767.40
192.28	1640.42
192.50	1875.94
192.72	1718.25
192.94	1705.96
193.16	1814.50
193.38	1703.91
193.60	1667.05
193.82	1722.34
194.04	1716.20
194.26	1789.92
194.48	1728.49
194.70	1703.91
194.92	1660.90
195.14	1720.29
195.36	1644.52
195.58	1640.42
195.80	1660.90
196.02	1665.00
196.24	1685.48
196.46	1705.96
196.69	1693.67
196.91	1773.54
197.13	1648.61
197.35	1658.85
197.57	1720.29
197.79	1726.44
198.01	1660.90
198.23	1820.64
198.45	1740.77
198.67	1648.61
198.89	1734.63
199.11	1714.15
199.33	1695.72
199.55	1615.85
199.77	1751.01
199.99	1753.06
200.21	1632.23
200.43	1714.15
200.65	1617.90
200.87	1538.02
201.09	1775.59
201.31	1693.67
201.53	1812.45
201.75	1751.01
201.97	1699.81
202.19	1728.49
202.41	1669.09
202.63	1839.08
202.85	1806.31
203.07	1767.40
203.29	1681.38
203.51	1701.86
203.73	1634.28
203.95	1855.46
204.17	1738.73
204.39	1714.15
204.61	1722.34
204.83	1660.90
205.05	1767.40
205.27	1697.77
205.49	1802.21
205.71	1632.23
205.93	1673.19
206.15	1703.91
206.37	1632.23
206.59	1689.57
206.81	1607.66
207.03	1701.86
207.25	1634.28
207.47	1691.62
207.69	1630.18
207.91	1783.78
208.13	1755.11
208.34	1673.19
208.56	1646.57
208.78	1746.92
209.00	1724.39
209.22	1710.05
209.44	1669.09
209.66	1632.23
209.88	1734.63
210.10	1648.61
210.32	1679.33
210.54	1800.16
210.76	1714.15
210.98	1787.88
211.20	1556.46
211.42	1714.15
211.64	1701.86
211.86	1724.39
212.08	1726.44
212.30	1742.82
212.52	1683.43
212.74	1777.64
212.96	1673.19
213.17	1712.10
213.39	1634.28
213.61	1744.87
213.83	1771.49
214.05	1634.28
214.27	1804.26
214.49	1673.19
214.71	1628.14
214.93	1738.73
215.15	1689.57
215.37	1681.38
215.59	1648.61
215.81	1736.68
216.03	1824.74
216.24	1685.48
216.46	1710.05
216.68	1736.68
216.90	1685.48
217.12	1828.84
217.34	1683.43
217.56	1636.33
217.78	1748.97
218.00	1734.63
218.22	1644.52
218.44	1632.23
218.66	1730.53
218.87	1710.05
219.09	1636.33
219.31	1638.38
219.53	1726.44
219.75	1689.57
219.97	1683.43
220.19	1730.53
220.41	1701.86
220.63	1751.01
220.85	1701.86
221.06	1708.01
221.28	1748.97
221.50	1773.54
221.72	1689.57
221.94	1697.77
222.16	1667.05
222.38	1796.07
222.60	1744.87
222.82	1628.14
223.03	1724.39
223.25	1601.51
223.47	1748.97
223.69	1765.35
223.91	1796.07
224.13	1705.96
224.35	1687.53
224.57	1820.64
224.78	1658.85
225.00	1691.62
225.22	1708.01
225.44	1687.53
225.66	1812.45
225.88	1679.33
226.10	1708.01
226.32	1755.11
226.53	1742.82
226.75	1726.44
226.97	1607.66
227.19	1712.10
227.41	1671.14
227.63	1656.81
227.85	1630.18
228.06	1621.99
228.28	1724.39
228.50	1785.83
228.72	1640.42
228.94	1615.85
229.16	1603.56
229.37	1644.52
229.59	1689.57
229.81	1732.58
230.03	1644.52
230.25	1581.03
230.47	1617.90
230.69	1615.85
230.90	1742.82
231.12	1703.91
231.34	1665.00
231.56	1828.84
231.78	1636.33
232.00	1730.53
232.21	1681.38
232.43	1640.42
232.65	1595.37
232.87	1730.53
233.09	1675.24
233.30	1613.80
233.52	1730.53
233.74	1658.85
233.96	1632.23
234.18	1697.77
234.40	1765.35
234.61	1820.64
234.83	1574.89
235.05	1675.24
235.27	1820.64
235.49	1726.44
235.70	1681.38
235.92	1755.11
236.14	1685.48
236.36	1746.92
236.58	1628.14
236.79	1757.16
237.01	1779.68
237.23	1695.72
237.45	1892.32
237.67	1730.53
237.88	1679.33
238.10	1882.08
238.32	1675.24
238.54	1669.09
238.76	1755.11
238.97	1669.09
239.19	1677.29
239.41	1691.62
239.63	1699.81
239.85	1728.49
240.06	1746.92
240.28	1665.00
240.50	1794.02
240.72	1794.02
240.93	1652.71
241.15	1755.11
241.37	1632.23
241.59	1787.88
241.81	1642.47
242.02	1697.77
242.24	1718.25
242.46	1720.29
242.68	1665.00
242.89	1722.34
243.11	1761.25
243.33	1708.01
243.55	1751.01
243.76	1665.00
243.98	1724.39
244.20	1740.77
244.42	1665.00
244.64	1730.53
244.85	1628.14
245.07	1695.72
245.29	1687.53
245.51	1759.21
245.72	1734.63
245.94	1779.68
246.16	1703.91
246.38	1677.29
246.59	1665.00
246.81	1689.57
247.03	1671.14
247.24	1607.66
247.46	1689.57
247.68	1714.15
247.90	1687.53
248.11	1685.48
248.33	1683.43
248.55	1732.58
248.77	1619.94
248.98	1714.15
249.20	1804.26
249.42	1691.62
249.64	1703.91
249.85	1650.66
250.07	1634.28
250.29	1714.15
250.50	1773.54
250.72	1572.84
250.94	1701.86
251.16	1843.17
251.37	1791.97
251.59	1716.20
251.81	1753.06
252.02	1738.73
252.24	1722.34
252.46	1703.91
252.68	1607.66
252.89	1644.52
253.11	1601.51
253.33	1802.21
253.54	1781.73
253.76	1677.29
253.98	1654.76
254.20	1658.85
254.41	1603.56
254.63	1751.01
254.85	1550.31
255.06	1722.34
255.28	1757.16
255.50	1642.47
255.71	1705.96
255.93	1636.33
256.15	1601.51
256.36	1742.82
256.58	1681.38
256.80	1734.63
257.02	1728.49
257.23	1708.01
257.45	1718.25
257.67	1798.12
257.88	1671.14
258.10	1708.01
258.32	1681.38
258.53	1665.00
258.75	1718.25
258.97	1642.47
259.18	1660.90
259.40	1746.92
259.62	1816.55
259.83	1789.92
260.05	1728.49
260.27	2007.01
260.48	1791.97
260.70	1628.14
260.92	1689.57
261.13	1695.72
261.35	1665.00
261.57	1718.25
261.78	1626.09
262.00	1673.19
262.22	1736.68
262.43	1660.90
262.65	1726.44
262.86	1681.38
263.08	1814.50
263.30	1656.81
263.51	1675.24
263.73	1624.04
263.95	1691.62
264.16	1714.15
264.38	1679.33
264.60	1751.01
264.81	1617.90
265.03	1732.58
265.25	1742.82
265.46	1683.43
265.68	1726.44
265.89	1806.31
266.11	1689.57
266.33	1748.97
266.54	1783.78
266.76	1712.10
266.98	1665.00
267.19	1751.01
267.41	1697.77
267.62	1669.09
267.84	1628.14
268.06	1712.10
268.27	1712.10
268.49	1708.01
268.70	1808.36
268.92	1732.58
269.14	1667.05
269.35	1585.13
269.57	1703.91
269.79	1769.44
270.00	1636.33
270.22	1767.40
270.43	1665.00
270.65	1615.85
270.87	1701.86
271.08	1710.05
271.30	1693.67
271.51	1669.09
271.73	1789.92
271.95	1822.69
272.16	1724.39
272.38	1724.39
272.59	1746.92
272.81	1722.34
273.02	1705.96
273.24	1726.44
273.46	1757.16
273.67	1638.38
273.89	1687.53
274.10	1677.29
274.32	1800.16
274.54	1705.96
274.75	1677.29
274.97	1654.76
275.18	1812.45
275.40	1683.43
275.61	1734.63
275.83	1675.24
276.05	1599.46
276.26	1687.53
276.48	1677.29
276.69	1732.58
276.91	1658.85
277.12	1732.58
277.34	1785.83
277.55	1755.11
277.77	1693.67
277.99	1609.70
278.20	1660.90
278.42	1679.33
278.63	1660.90
278.85	1669.09
279.06	1621.99
279.28	1789.92
279.49	1761.25
279.71	1771.49
279.93	1712.10
280.14	1669.09
280.36	1671.14
280.57	1738.73
280.79	1757.16
281.00	1693.67
281.22	1687.53
281.43	1804.26
281.65	1617.90
281.86	1615.85
282.08	1685.48
282.29	1714.15
282.51	1615.85
282.73	1652.71
282.94	1601.51
283.16	1701.86
283.37	1746.92
283.59	1656.81
283.80	1685.48
284.02	1689.57
284.23	1685.48
284.45	1685.48
284.66	1660.90
284.88	1685.48
285.09	1685.48
285.31	1783.78
285.52	1738.73
285.74	1595.37
285.95	1722.34
286.17	1632.23
286.38	1697.77
286.60	1691.62
286.81	1624.04
287.03	1773.54
287.24	1742.82
287.46	1777.64
287.67	1699.81
287.89	1843.17
288.10	1728.49
288.32	1693.67
288.53	1736.68
288.75	1669.09
288.96	1761.25
289.18	1669.09
289.39	1636.33
289.61	1785.83
289.82	1837.03
290.04	1804.26
290.25	1667.05
290.47	1689.57
290.68	1705.96
290.90	1800.16
291.11	1626.09
291.33	1789.92
291.54	1607.66
291.76	1714.15
291.97	1695.72
292.18	1691.62
292.40	1710.05
292.61	1744.87
292.83	1869.80
293.04	1808.36
293.26	1716.20
293.47	1726.44
293.69	1613.80
293.90	1681.38
294.12	1769.44
294.33	1689.57
294.55	1722.34
294.76	1701.86
294.97	1769.44
295.19	1744.87
295.40	1689.57
295.62	1736.68
295.83	1734.63
296.05	1626.09
296.26	1761.25
296.48	1753.06
296.69	1691.62
296.90	1681.38
297.12	1699.81
297.33	1728.49
297.55	1773.54
297.76	1748.97
297.98	1800.16
298.19	1656.81
298.41	1667.05
298.62	1619.94
298.83	1689.57
299.05	1746.92
299.26	1650.66
299.48	1716.20
299.69	1736.68
299.90	1691.62
300.12	1640.42
300.33	1714.15
300.55	1673.19
300.76	1722.34
300.98	1675.24
301.19	1724.39
301.40	1683.43
301.62	1648.61
301.83	1763.30
302.05	1738.73
302.26	1650.66
302.47	1771.49
302.69	1652.71
302.90	1769.44
303.12	1626.09
303.33	1726.44
303.54	1753.06
303.76	1697.77
303.97	1716.20
304.19	1769.44
304.40	1624.04
304.61	1726.44
304.83	1734.63
305.04	1746.92
305.26	1738.73
305.47	1566.70
305.68	1685.48
305.90	1689.57
306.11	1695.72
306.33	1685.48
306.54	1703.91
306.75	1615.85
306.97	1599.46
307.18	1665.00
307.39	1654.76
307.61	1800.16
307.82	1660.90
308.04	1724.39
308.25	1642.47
308.46	1781.73
308.68	1675.24
308.89	1658.85
309.10	1775.59
309.32	1705.96
309.53	1691.62
309.74	1796.07
309.96	1755.11
310.17	1773.54
310.39	1693.67
310.60	1712.10
310.81	1695.72
311.03	1656.81
311.24	1724.39
311.45	1681.38
311.67	1794.02
311.88	1718.25
312.09	1671.14
312.31	1660.90
312.52	1681.38
312.73	1660.90
312.95	1529.83
313.16	1693.67
313.37	1796.07
313.59	1781.73
313.80	1757.16
314.01	1812.45
314.23	1593.32
314.44	1701.86
314.65	1687.53
314.87	1626.09
315.08	1636.33
315.29	1710.05
315.51	1712.10
315.72	1701.86
315.93	1853.41
316.15	1771.49
316.36	1681.38
316.57	1783.78
316.79	1710.05
317.00	1724.39
317.21	1726.44
317.43	1728.49
317.64	1673.19
317.85	1636.33
318.07	1617.90
318.28	1708.01
318.49	1781.73
318.70	1910.75
318.92	1824.74
319.13	1714.15
319.34	1841.12
319.56	1746.92
319.77	1781.73
319.98	1779.68
320.20	1785.83
320.41	1759.21
320.62	1732.58
320.83	1611.75
321.05	1814.50
321.26	1667.05
321.47	1654.76
321.69	1724.39
321.90	1652.71
322.11	1669.09
322.32	1703.91
322.54	1810.40
322.75	1675.24
322.96	1806.31
323.18	1566.70
323.39	1667.05
323.60	1677.29
323.81	1748.97
324.03	1677.29
324.24	1669.09
324.45	1734.63
324.66	1591.27
324.88	1785.83
325.09	1732.58
325.30	1695.72
325.52	1718.25
325.73	1705.96
325.94	1654.76
326.15	1603.56
326.37	1722.34
326.58	1742.82
326.79	1783.78
327.00	1642.47
327.22	1722.34
327.43	1667.05
327.64	1634.28
327.85	1763.30
328.07	1712.10
328.28	1777.64
328.49	1681.38
328.70	1665.00
328.92	1695.72
329.13	1685.48
329.34	1753.06
329.55	1898.47
329.76	1712.10
329.98	1742.82
330.19	1751.01
330.40	1787.88
330.61	1689.57
330.83	1773.54
331.04	1675.24
331.25	1718.25
331.46	1738.73
331.68	1607.66
331.89	1710.05
332.10	1665.00
332.31	1621.99
332.52	1728.49
332.74	1701.86
332.95	1673.19
333.16	1634.28
333.37	1748.97
333.58	1658.85
333.80	1730.53
334.01	1595.37
334.22	1681.38
334.43	1642.47
334.64	1746.92
334.86	1658.85
335.07	1566.70
335.28	1726.44
335.49	1607.66
335.70	1822.69
335.92	1718.25
336.13	1818.60
336.34	1720.29
336.55	1759.21
336.76	1687.53
336.98	1581.03
337.19	1708.01
337.40	1732.58
337.61	1882.08
337.82	1691.62
338.04	1742.82
338.25	1566.70
338.46	1685.48
338.67	1679.33
338.88	1630.18
339.09	1705.96
339.31	1662.95
339.52	1626.09
339.73	1714.15
339.94	1677.29
340.15	1824.74
340.36	1695.72
340.58	1742.82
340.79	1626.09
341.00	1693.67
341.21	1630.18
341.42	1816.55
341.63	1728.49
341.85	1689.57
342.06	1691.62
342.27	1603.56
342.48	1699.81
342.69	1628.14
342.90	1689.57
343.12	1726.44
343.33	1701.86
343.54	1732.58
343.75	1791.97
343.96	1640.42
344.17	1617.90
344.38	1716.20
344.60	1626.09
344.81	1630.18
345.02	1665.00
345.23	1759.21
345.44	1841.12
345.65	1710.05
345.86	1730.53
346.07	1701.86
346.29	1748.97
346.50	1718.25
346.71	1718.25
346.92	1751.01
347.13	1794.02
347.34	1693.67
347.55	1689.57
347.76	1757.16
347.98	1656.81
348.19	1665.00
348.40	1820.64
348.61	1589.22
348.82	1845.22
349.03	1693.67
349.24	1708.01
349.45	1824.74
349.66	1632.23
349.88	1734.63
350.09	1718.25
350.30	1765.35
350.51	1804.26
350.72	1710.05
350.93	1753.06
351.14	1689.57
351.35	1695.72
351.56	1658.85
351.77	1708.01
351.99	1759.21
352.20	1751.01
352.41	1705.96
352.62	1652.71
352.83	1636.33
353.04	1644.52
353.25	1611.75
353.46	1775.59
353.67	1783.78
353.88	1601.51
354.09	1681.38
354.30	1722.34
354.52	1728.49
354.73	1667.05
354.94	1708.01
355.15	1705.96
355.36	1791.97
355.57	1624.04
355.78	1691.62
355.99	1660.90
356.20	1701.86
356.41	1783.78
356.62	1662.95
356.83	1722.34
357.04	1804.26
357.25	1636.33
357.46	1742.82
357.68	1587.18
357.89	1673.19
358.10	1675.24
358.31	1617.90
358.52	1693.67
358.73	1619.94
358.94	1665.00
359.15	1673.19
359.36	1722.34
359.57	1654.76
359.78	1730.53
359.99	1806.31
360.20	1656.81
360.41	1611.75
360.62	1789.92
360.83	1808.36
361.04	1660.90
361.25	1742.82
361.46	1763.30
361.67	1732.58
361.88	1681.38
362.09	1742.82
362.30	1677.29
362.51	1636.33
362.72	1699.81
362.93	1767.40
363.14	1705.96
363.35	1724.39
363.56	1656.81
363.78	1781.73
363.99	1726.44
364.20	1675.24
364.41	1701.86
364.62	1826.79
364.83	1736.68
365.04	1716.20
365.25	1656.81
365.46	1796.07
365.67	1648.61
365.88	1617.90
366.09	1681.38
366.30	1667.05
366.51	1658.85
366.72	1605.61
366.93	1648.61
367.14	1671.14
367.35	1820.64
367.56	1775.59
367.77	1841.12
367.98	1716.20
368.18	1708.01
368.39	1751.01
368.60	1624.04
368.81	1714.15
369.02	1767.40
369.23	1644.52
369.44	1691.62
369.65	1650.66
369.86	1751.01
370.07	1681.38
370.28	1634.28
370.49	1722.34
370.70	1767.40
370.91	1681.38
371.12	1667.05
371.33	1751.01
371.54	1705.96
371.75	1810.40
371.96	1615.85
372.17	1759.21
372.38	1773.54
372.59	1683.43
372.80	1730.53
373.01	1679.33
373.22	1669.09
373.43	1718.25
373.64	1665.00
373.85	1787.88
374.06	1765.35
374.26	1734.63
374.47	1775.59
374.68	1726.44
374.89	1632.23
375.10	1662.95
375.31	1789.92
375.52	1644.52
375.73	1671.14
375.94	1685.48
376.15	1789.92
376.36	1689.57
376.57	1695.72
376.78	1667.05
376.99	1689.57
377.20	1730.53
377.40	1691.62
377.61	1914.85
377.82	1683.43
378.03	1781.73
378.24	1732.58
378.45	1656.81
378.66	1691.62
378.87	1574.89
379.08	1640.42
379.29	1615.85
379.50	1722.34
379.71	1724.39
379.91	1751.01
380.12	1740.77
380.33	1796.07
380.54	1767.40
380.75	1748.97
380.96	1605.61
381.17	1753.06
381.38	1716.20
381.59	1732.58
381.80	1703.91
382.00	1787.88
382.21	1767.40
382.42	1769.44
382.63	1869.80
382.84	1726.44
383.05	1751.01
383.26	1796.07
383.47	1726.44
383.68	1816.55
383.88	1726.44
384.09	1642.47
384.30	1818.60
384.51	1779.68
384.72	1695.72
384.93	1689.57
385.14	1708.01
385.35	1722.34
385.55	1691.62
385.76	1751.01
385.97	1722.34
386.18	1679.33
386.39	1617.90
386.60	1755.11
386.81	1683.43
387.02	1693.67
387.22	1601.51
387.43	1777.64
387.64	1697.77
387.85	1914.85
388.06	2179.04
388.27	4378.56
388.48	6756.25
388.68	8261.51
388.89	9557.87
389.10	9731.95
389.31	8425.34
389.52	7702.41
389.73	6698.91
389.93	6279.07
390.14	5892.01
390.35	5158.83
390.56	4392.89
390.77	3774.41
390.98	3069.91
391.18	2545.63
391.39	2144.22
391.60	1857.51
391.81	1888.23
392.02	1728.49
392.23	1834.98
392.43	1718.25
392.64	1794.02
392.85	1617.90
393.06	1781.73
393.27	1720.29
393.47	1738.73
393.68	1708.01
393.89	1687.53
394.10	1740.77
394.31	1658.85
394.52	1632.23
394.72	1658.85
394.93	1845.22
395.14	1603.56
395.35	1650.66
395.56	1650.66
395.76	1746.92
395.97	1869.80
396.18	1785.83
396.39	1794.02
396.60	1951.71
396.80	1927.14
397.01	1818.60
397.22	1771.49
397.43	1855.46
397.64	1775.59
397.84	1861.60
398.05	1933.28
398.26	1708.01
398.47	1771.49
398.67	1718.25
398.88	1783.78
399.09	1740.77
399.30	1736.68
399.51	1712.10
399.71	1685.48
399.92	1708.01
400.13	1677.29
400.34	1695.72
400.54	1683.43
400.75	1812.45
400.96	1765.35
401.17	1843.17
401.37	1845.22
401.58	1791.97
401.79	1632.23
402.00	1810.40
402.21	1986.53
402.41	1941.47
402.62	1945.57
402.83	2060.26
403.04	1966.05
403.24	2119.65
403.45	1841.12
403.66	1910.75
403.87	1830.88
404.07	1873.89
404.28	1882.08
404.49	1841.12
404.70	1761.25
404.90	1828.84
405.11	1746.92
405.32	1746.92
405.52	1595.37
405.73	1658.85
405.94	1636.33
406.15	1693.67
406.35	1714.15
406.56	1779.68
406.77	1679.33
406.98	1714.15
407.18	1728.49
407.39	1732.58
407.60	1703.91
407.80	1804.26
408.01	1779.68
408.22	1714.15
408.43	1638.38
408.63	1771.49
408.84	1789.92
409.05	1689.57
409.25	1765.35
409.46	1681.38
409.67	1724.39
409.88	1669.09
410.08	1675.24
410.29	1695.72
410.50	1714.15
410.70	1708.01
410.91	1738.73
411.12	1726.44
411.32	1748.97
411.53	1722.34
411.74	1708.01
411.95	1718.25
412.15	1769.44
412.36	1691.62
412.57	1761.25
412.77	1789.92
412.98	1708.01
413.19	1665.00
413.39	1767.40
413.60	1757.16
413.81	1779.68
414.01	1685.48
414.22	1767.40
414.43	1718.25
414.63	1683.43
414.84	1771.49
415.05	1701.86
415.25	1660.90
415.46	1732.58
415.67	1736.68
415.87	1736.68
416.08	1724.39
416.29	1658.85
416.49	1658.85
416.70	1681.38
416.91	1701.86
417.11	1695.72
417.32	1701.86
417.53	1767.40
417.73	1697.77
417.94	1701.86
418.15	1734.63
418.35	1720.29
418.56	1689.57
418.77	1804.26
418.97	1644.52
419.18	1673.19
419.38	1640.42
419.59	1771.49
419.80	1755.11
420.00	1621.99
420.21	1697.77
420.42	1734.63
420.62	1742.82
420.83	1767.40
421.04	1730.53
421.24	1667.05
421.45	1734.63
421.65	1746.92
421.86	1648.61
422.07	1775.59
422.27	1705.96
422.48	1662.95
422.69	1677.29
422.89	1701.86
423.10	1722.34
423.30	1621.99
423.51	1746.92
423.72	1730.53
423.92	1787.88
424.13	1697.77
424.33	1665.00
424.54	1744.87
424.75	1744.87
424.95	1814.50
425.16	1714.15
425.36	1660.90
425.57	1783.78
425.78	1730.53
425.98	1771.49
426.19	1660.90
426.39	1617.90
426.60	1703.91
426.81	1785.83
427.01	1783.78
427.22	1669.09
427.42	1597.42
427.63	1603.56
427.83	1734.63
428.04	1779.68
428.25	1783.78
428.45	1814.50
428.66	1746.92
428.86	1685.48
429.07	1685.48
429.28	1722.34
429.48	1634.28
429.69	1718.25
429.89	1748.97
430.10	1652.71
430.30	1802.21
430.51	1787.88
430.71	1662.95
430.92	1673.19
431.13	1701.86
431.33	1814.50
431.54	1777.64
431.74	1730.53
431.95	1824.74
432.15	1628.14
432.36	1685.48
432.56	1828.84
432.77	1824.74
432.98	1847.27
433.18	1742.82
433.39	1730.53
433.59	1763.30
433.80	1777.64
434.00	1830.88
434.21	1619.94
434.41	1656.81
434.62	1818.60
434.82	1669.09
435.03	1675.24
435.23	1753.06
435.44	1611.75
435.64	1712.10
435.85	1734.63
436.06	1767.40
436.26	1802.21
436.47	1718.25
436.67	1665.00
436.88	1730.53
437.08	1763.30
437.29	1837.03
437.49	1785.83
437.70	1812.45
437.90	1587.18
438.11	1877.99
438.31	1746.92
438.52	1869.80
438.72	1728.49
438.93	1945.57
439.13	1742.82
439.34	1773.54
439.54	1773.54
439.75	1794.02
439.95	1761.25
440.16	1630.18
440.36	1718.25
440.57	1744.87
440.77	1701.86
440.98	1677.29
441.18	1800.16
441.39	1736.68
441.59	1648.61
441.80	1880.04
442.00	1714.15
442.21	1748.97
442.41	1626.09
442.62	1765.35
442.82	1736.68
443.02	1755.11
443.23	1828.84
443.43	1671.14
443.64	1765.35
443.84	1693.67
444.05	1755.11
444.25	1740.77
444.46	1665.00
444.66	1650.66
444.87	1877.99
445.07	1638.38
445.28	1728.49
445.48	1767.40
445.69	1730.53
445.89	1898.47
446.09	1837.03
446.30	2103.26
446.50	2578.39
446.71	3733.45
446.91	4292.54
447.12	4702.14
447.32	4820.92
447.53	4249.54
447.73	3852.23
447.93	3604.42
448.14	3307.47
448.34	3278.80
448.55	2963.41
448.75	2869.20
448.96	2639.83
449.16	2484.19
449.36	2346.97
449.57	2045.92
449.77	1839.08
449.98	1837.03
450.18	1837.03
450.39	1839.08
450.59	1857.51
450.79	1671.14
451.00	1619.94
451.20	1716.20
451.41	1751.01
451.61	1781.73
451.81	1740.77
452.02	1755.11
452.22	1687.53
452.43	1726.44
452.63	1681.38
