SpectraSuite Data File
++++++++++++++++++++++++++++++++++++
Date: Mon Jun 06 13:39:37 CEST 2016
User: root
Dark Spectrum Present: No
Reference Spectrum Present: No
Number of Sampled Component Spectra: 1
Spectrometers: USB4C02835
Integration Time (usec): 100000 (USB4C02835)
Spectra Averaged: 1 (USB4C02835)
Boxcar Smoothing: 0 (USB4C02835)
Correct for Electrical Dark: No (USB4C02835)
Strobe/Lamp Enabled: No (USB4C02835)
Correct for Detector Non-linearity: No (USB4C02835)
Correct for Stray Light: No (USB4C02835)
Number of Pixels in Processed Spectrum: 3648
>>>>>Begin Processed Spectral Data<<<<<
177.47	1409.00
177.69	1409.00
177.91	1409.00
178.13	1443.82
178.36	1495.02
178.58	1652.71
178.80	1714.15
179.02	1648.61
179.24	1640.42
179.46	1648.61
179.68	1746.92
179.90	1646.57
180.13	1718.25
180.35	1675.24
180.57	1660.90
180.79	1691.62
181.01	1751.01
181.23	1769.44
181.45	1767.40
181.67	1689.57
181.90	1757.16
182.12	1630.18
182.34	1648.61
182.56	1685.48
182.78	1656.81
183.00	1695.72
183.22	1710.05
183.44	1634.28
183.66	1918.95
183.89	1789.92
184.11	1734.63
184.33	1791.97
184.55	1771.49
184.77	1656.81
184.99	1775.59
185.21	1691.62
185.43	1845.22
185.65	1673.19
185.87	1718.25
186.10	1732.58
186.32	1820.64
186.54	1722.34
186.76	1734.63
186.98	1759.21
187.20	1738.73
187.42	1691.62
187.64	1609.70
187.86	1675.24
188.08	1826.79
188.30	1665.00
188.52	1681.38
188.75	1781.73
188.97	1697.77
189.19	1679.33
189.41	1677.29
189.63	1734.63
189.85	1679.33
190.07	1658.85
190.29	1583.08
190.51	1761.25
190.73	1634.28
190.95	1732.58
191.17	1669.09
191.39	1675.24
191.61	1662.95
191.84	1767.40
192.06	1685.48
192.28	1611.75
192.50	1892.32
192.72	1798.12
192.94	1640.42
193.16	1697.77
193.38	1693.67
193.60	1603.56
193.82	1671.14
194.04	1753.06
194.26	1667.05
194.48	1652.71
194.70	1689.57
194.92	1634.28
195.14	1796.07
195.36	1611.75
195.58	1689.57
195.80	1546.22
196.02	1673.19
196.24	1675.24
196.46	1697.77
196.69	1689.57
196.91	1839.08
197.13	1677.29
197.35	1691.62
197.57	1693.67
197.79	1665.00
198.01	1658.85
198.23	1718.25
198.45	1730.53
198.67	1703.91
198.89	1718.25
199.11	1755.11
199.33	1656.81
199.55	1568.74
199.77	1718.25
199.99	1728.49
200.21	1718.25
200.43	1765.35
200.65	1665.00
200.87	1587.18
201.09	1753.06
201.31	1648.61
201.53	1683.43
201.75	1759.21
201.97	1638.38
202.19	1718.25
202.41	1722.34
202.63	1802.21
202.85	1673.19
203.07	1736.68
203.29	1607.66
203.51	1603.56
203.73	1626.09
203.95	1853.41
204.17	1656.81
204.39	1744.87
204.61	1640.42
204.83	1687.53
205.05	1738.73
205.27	1779.68
205.49	1775.59
205.71	1804.26
205.93	1656.81
206.15	1628.14
206.37	1730.53
206.59	1671.14
206.81	1538.02
207.03	1683.43
207.25	1730.53
207.47	1712.10
207.69	1613.80
207.91	1804.26
208.13	1794.02
208.34	1665.00
208.56	1617.90
208.78	1718.25
209.00	1665.00
209.22	1665.00
209.44	1732.58
209.66	1720.29
209.88	1568.74
210.10	1740.77
210.32	1652.71
210.54	1798.12
210.76	1673.19
210.98	1796.07
211.20	1605.61
211.42	1683.43
211.64	1675.24
211.86	1712.10
212.08	1839.08
212.30	1673.19
212.52	1681.38
212.74	1746.92
212.96	1671.14
213.17	1722.34
213.39	1722.34
213.61	1828.84
213.83	1675.24
214.05	1593.32
214.27	1728.49
214.49	1665.00
214.71	1740.77
214.93	1753.06
215.15	1755.11
215.37	1746.92
215.59	1597.42
215.81	1691.62
216.03	1740.77
216.24	1714.15
216.46	1685.48
216.68	1742.82
216.90	1693.67
217.12	1775.59
217.34	1851.36
217.56	1740.77
217.78	1783.78
218.00	1751.01
218.22	1759.21
218.44	1763.30
218.66	1744.87
218.87	1804.26
219.09	1624.04
219.31	1740.77
219.53	1683.43
219.75	1716.20
219.97	1742.82
220.19	1689.57
220.41	1685.48
220.63	1810.40
220.85	1656.81
221.06	1716.20
221.28	1732.58
221.50	1712.10
221.72	1695.72
221.94	1673.19
222.16	1701.86
222.38	1726.44
222.60	1748.97
222.82	1642.47
223.03	1736.68
223.25	1642.47
223.47	1759.21
223.69	1808.36
223.91	1744.87
224.13	1652.71
224.35	1695.72
224.57	1732.58
224.78	1691.62
225.00	1671.14
225.22	1665.00
225.44	1712.10
225.66	1691.62
225.88	1765.35
226.10	1785.83
226.32	1689.57
226.53	1843.17
226.75	1679.33
226.97	1708.01
227.19	1654.76
227.41	1708.01
227.63	1705.96
227.85	1634.28
228.06	1691.62
228.28	1759.21
228.50	1724.39
228.72	1671.14
228.94	1656.81
229.16	1542.12
229.37	1697.77
229.59	1576.94
229.81	1779.68
230.03	1665.00
230.25	1632.23
230.47	1677.29
230.69	1640.42
230.90	1816.55
231.12	1574.89
231.34	1728.49
231.56	1763.30
231.78	1683.43
232.00	1716.20
232.21	1726.44
232.43	1667.05
232.65	1589.22
232.87	1742.82
233.09	1724.39
233.30	1640.42
233.52	1773.54
233.74	1656.81
233.96	1617.90
234.18	1708.01
234.40	1757.16
234.61	1812.45
234.83	1660.90
235.05	1644.52
235.27	1769.44
235.49	1777.64
235.70	1677.29
235.92	1726.44
236.14	1689.57
236.36	1830.88
236.58	1642.47
236.79	1771.49
237.01	1726.44
237.23	1734.63
237.45	1847.27
237.67	1624.04
237.88	1640.42
238.10	1830.88
238.32	1650.66
238.54	1730.53
238.76	1689.57
238.97	1671.14
239.19	1730.53
239.41	1689.57
239.63	1708.01
239.85	1697.77
240.06	1675.24
240.28	1636.33
240.50	1751.01
240.72	1650.66
240.93	1695.72
241.15	1728.49
241.37	1695.72
241.59	1703.91
241.81	1624.04
242.02	1673.19
242.24	1697.77
242.46	1757.16
242.68	1619.94
242.89	1755.11
243.11	1681.38
243.33	1673.19
243.55	1720.29
243.76	1755.11
243.98	1662.95
244.20	1755.11
244.42	1718.25
244.64	1685.48
244.85	1613.80
245.07	1648.61
245.29	1738.73
245.51	1773.54
245.72	1693.67
245.94	1732.58
246.16	1710.05
246.38	1722.34
246.59	1669.09
246.81	1683.43
247.03	1601.51
247.24	1658.85
247.46	1662.95
247.68	1712.10
247.90	1722.34
248.11	1656.81
248.33	1738.73
248.55	1703.91
248.77	1693.67
248.98	1755.11
249.20	1726.44
249.42	1677.29
249.64	1796.07
249.85	1587.18
250.07	1665.00
250.29	1785.83
250.50	1722.34
250.72	1556.46
250.94	1710.05
251.16	1884.13
251.37	1753.06
251.59	1763.30
251.81	1675.24
252.02	1693.67
252.24	1732.58
252.46	1808.36
252.68	1578.98
252.89	1636.33
253.11	1585.13
253.33	1841.12
253.54	1763.30
253.76	1603.56
253.98	1703.91
254.20	1697.77
254.41	1566.70
254.63	1693.67
254.85	1599.46
255.06	1634.28
255.28	1724.39
255.50	1765.35
255.71	1640.42
255.93	1744.87
256.15	1708.01
256.36	1748.97
256.58	1693.67
256.80	1699.81
257.02	1671.14
257.23	1730.53
257.45	1736.68
257.67	1718.25
257.88	1714.15
258.10	1658.85
258.32	1742.82
258.53	1691.62
258.75	1693.67
258.97	1718.25
259.18	1654.76
259.40	1710.05
259.62	1794.02
259.83	1794.02
260.05	1710.05
260.27	2009.06
260.48	1761.25
260.70	1705.96
260.92	1658.85
261.13	1775.59
261.35	1667.05
261.57	1691.62
261.78	1574.89
262.00	1648.61
262.22	1708.01
262.43	1691.62
262.65	1613.80
262.86	1679.33
263.08	1818.60
263.30	1744.87
263.51	1671.14
263.73	1646.57
263.95	1744.87
264.16	1656.81
264.38	1685.48
264.60	1740.77
264.81	1615.85
265.03	1755.11
265.25	1748.97
265.46	1603.56
265.68	1769.44
265.89	1640.42
266.11	1636.33
266.33	1781.73
266.54	1865.70
266.76	1724.39
266.98	1767.40
267.19	1816.55
267.41	1804.26
267.62	1683.43
267.84	1628.14
268.06	1744.87
268.27	1703.91
268.49	1716.20
268.70	1746.92
268.92	1730.53
269.14	1656.81
269.35	1642.47
269.57	1701.86
269.79	1720.29
270.00	1605.61
270.22	1708.01
270.43	1695.72
270.65	1591.27
270.87	1681.38
271.08	1714.15
271.30	1820.64
271.51	1650.66
271.73	1716.20
271.95	1677.29
272.16	1695.72
272.38	1683.43
272.59	1671.14
272.81	1665.00
273.02	1689.57
273.24	1695.72
273.46	1779.68
273.67	1681.38
273.89	1710.05
274.10	1652.71
274.32	1728.49
274.54	1714.15
274.75	1691.62
274.97	1665.00
275.18	1732.58
275.40	1771.49
275.61	1720.29
275.83	1656.81
276.05	1644.52
276.26	1642.47
276.48	1693.67
276.69	1722.34
276.91	1630.18
277.12	1708.01
277.34	1689.57
277.55	1767.40
277.77	1742.82
277.99	1650.66
278.20	1705.96
278.42	1699.81
278.63	1697.77
278.85	1683.43
279.06	1550.31
279.28	1722.34
279.49	1748.97
279.71	1738.73
279.93	1728.49
280.14	1728.49
280.36	1605.61
280.57	1787.88
280.79	1744.87
281.00	1701.86
281.22	1710.05
281.43	1734.63
281.65	1583.08
281.86	1656.81
282.08	1726.44
282.29	1753.06
282.51	1548.26
282.73	1665.00
282.94	1607.66
283.16	1718.25
283.37	1837.03
283.59	1681.38
283.80	1726.44
284.02	1714.15
284.23	1742.82
284.45	1660.90
284.66	1607.66
284.88	1685.48
285.09	1685.48
285.31	1677.29
285.52	1722.34
285.74	1628.14
285.95	1767.40
286.17	1767.40
286.38	1742.82
286.60	1710.05
286.81	1546.22
287.03	1695.72
287.24	1701.86
287.46	1701.86
287.67	1642.47
287.89	1796.07
288.10	1712.10
288.32	1759.21
288.53	1812.45
288.75	1652.71
288.96	1775.59
289.18	1665.00
289.39	1685.48
289.61	1781.73
289.82	1781.73
290.04	1761.25
290.25	1720.29
290.47	1740.77
290.68	1679.33
290.90	1808.36
291.11	1667.05
291.33	1798.12
291.54	1613.80
291.76	1701.86
291.97	1667.05
292.18	1755.11
292.40	1607.66
292.61	1630.18
292.83	1818.60
293.04	1675.24
293.26	1744.87
293.47	1652.71
293.69	1660.90
293.90	1697.77
294.12	1781.73
294.33	1746.92
294.55	1763.30
294.76	1673.19
294.97	1744.87
295.19	1820.64
295.40	1583.08
295.62	1755.11
295.83	1724.39
296.05	1605.61
296.26	1742.82
296.48	1671.14
296.69	1679.33
296.90	1677.29
297.12	1679.33
297.33	1755.11
297.55	1687.53
297.76	1732.58
297.98	1783.78
298.19	1767.40
298.41	1716.20
298.62	1624.04
298.83	1787.88
299.05	1656.81
299.26	1656.81
299.48	1650.66
299.69	1714.15
299.90	1726.44
300.12	1712.10
300.33	1759.21
300.55	1705.96
300.76	1748.97
300.98	1650.66
301.19	1765.35
301.40	1734.63
301.62	1665.00
301.83	1691.62
302.05	1652.71
302.26	1724.39
302.47	1697.77
302.69	1667.05
302.90	1693.67
303.12	1550.31
303.33	1710.05
303.54	1839.08
303.76	1691.62
303.97	1691.62
304.19	1794.02
304.40	1708.01
304.61	1757.16
304.83	1806.31
305.04	1720.29
305.26	1732.58
305.47	1613.80
305.68	1677.29
305.90	1576.94
306.11	1798.12
306.33	1656.81
306.54	1640.42
306.75	1714.15
306.97	1617.90
307.18	1677.29
307.39	1660.90
307.61	1703.91
307.82	1603.56
308.04	1718.25
308.25	1705.96
308.46	1644.52
308.68	1714.15
308.89	1636.33
309.10	1755.11
309.32	1685.48
309.53	1665.00
309.74	1753.06
309.96	1667.05
310.17	1708.01
310.39	1691.62
310.60	1783.78
310.81	1722.34
311.03	1648.61
311.24	1683.43
311.45	1677.29
311.67	1779.68
311.88	1708.01
312.09	1673.19
312.31	1665.00
312.52	1755.11
312.73	1757.16
312.95	1564.65
313.16	1535.98
313.37	1810.40
313.59	1726.44
313.80	1728.49
314.01	1796.07
314.23	1734.63
314.44	1667.05
314.65	1583.08
314.87	1619.94
315.08	1654.76
315.29	1636.33
315.51	1675.24
315.72	1550.31
315.93	1861.60
316.15	1781.73
316.36	1640.42
316.57	1757.16
316.79	1681.38
317.00	1716.20
317.21	1726.44
317.43	1720.29
317.64	1650.66
317.85	1689.57
318.07	1673.19
318.28	1677.29
318.49	1775.59
318.70	1849.32
318.92	1738.73
319.13	1787.88
319.34	1845.22
319.56	1697.77
319.77	1744.87
319.98	1804.26
320.20	1691.62
320.41	1689.57
320.62	1710.05
320.83	1687.53
321.05	1837.03
321.26	1755.11
321.47	1779.68
321.69	1740.77
321.90	1609.70
322.11	1681.38
322.32	1699.81
322.54	1804.26
322.75	1693.67
322.96	1845.22
323.18	1556.46
323.39	1546.22
323.60	1652.71
323.81	1734.63
324.03	1656.81
324.24	1730.53
324.45	1638.38
324.66	1701.86
324.88	1812.45
325.09	1775.59
325.30	1724.39
325.52	1746.92
325.73	1718.25
325.94	1675.24
326.15	1658.85
326.37	1673.19
326.58	1748.97
326.79	1826.79
327.00	1669.09
327.22	1789.92
327.43	1697.77
327.64	1591.27
327.85	1759.21
328.07	1738.73
328.28	1804.26
328.49	1726.44
328.70	1665.00
328.92	1701.86
329.13	1757.16
329.34	1781.73
329.55	1734.63
329.76	1763.30
329.98	1677.29
330.19	1757.16
330.40	1720.29
330.61	1687.53
330.83	1671.14
331.04	1630.18
331.25	1722.34
331.46	1693.67
331.68	1648.61
331.89	1681.38
332.10	1644.52
332.31	1609.70
332.52	1648.61
332.74	1794.02
332.95	1617.90
333.16	1656.81
333.37	1861.60
333.58	1673.19
333.80	1648.61
334.01	1603.56
334.22	1769.44
334.43	1669.09
334.64	1699.81
334.86	1540.07
335.07	1724.39
335.28	1789.92
335.49	1583.08
335.70	1779.68
335.92	1820.64
336.13	1837.03
336.34	1652.71
336.55	1726.44
336.76	1681.38
336.98	1613.80
337.19	1638.38
337.40	1798.12
337.61	1851.36
337.82	1710.05
338.04	1775.59
338.25	1599.46
338.46	1671.14
338.67	1662.95
338.88	1621.99
339.09	1687.53
339.31	1689.57
339.52	1669.09
339.73	1710.05
339.94	1617.90
340.15	1728.49
340.36	1697.77
340.58	1712.10
340.79	1660.90
341.00	1748.97
341.21	1615.85
341.42	1863.65
341.63	1648.61
341.85	1773.54
342.06	1673.19
342.27	1669.09
342.48	1732.58
342.69	1646.57
342.90	1697.77
343.12	1695.72
343.33	1732.58
343.54	1705.96
343.75	1812.45
343.96	1648.61
344.17	1691.62
344.38	1705.96
344.60	1734.63
344.81	1578.98
345.02	1722.34
345.23	1705.96
345.44	1804.26
345.65	1708.01
345.86	1701.86
346.07	1697.77
346.29	1650.66
346.50	1646.57
346.71	1716.20
346.92	1814.50
347.13	1877.99
347.34	1691.62
347.55	1744.87
347.76	1660.90
347.98	1644.52
348.19	1689.57
348.40	1755.11
348.61	1746.92
348.82	1724.39
349.03	1742.82
349.24	1665.00
349.45	1787.88
349.66	1644.52
349.88	1755.11
350.09	1648.61
350.30	1789.92
350.51	1738.73
350.72	1646.57
350.93	1660.90
351.14	1714.15
351.35	1763.30
351.56	1689.57
351.77	1650.66
351.99	1683.43
352.20	1759.21
352.41	1841.12
352.62	1519.59
352.83	1742.82
353.04	1732.58
353.25	1636.33
353.46	1791.97
353.67	1857.51
353.88	1751.01
354.09	1685.48
354.30	1708.01
354.52	1701.86
354.73	1652.71
354.94	1679.33
355.15	1650.66
355.36	1746.92
355.57	1636.33
355.78	1710.05
355.99	1689.57
356.20	1619.94
356.41	1775.59
356.62	1621.99
356.83	1685.48
357.04	1734.63
357.25	1619.94
357.46	1650.66
357.68	1591.27
357.89	1619.94
358.10	1705.96
358.31	1652.71
358.52	1718.25
358.73	1640.42
358.94	1656.81
359.15	1771.49
359.36	1738.73
359.57	1679.33
359.78	1697.77
359.99	1705.96
360.20	1638.38
360.41	1660.90
360.62	1718.25
360.83	1708.01
361.04	1705.96
361.25	1701.86
361.46	1873.89
361.67	1699.81
361.88	1763.30
362.09	1732.58
362.30	1648.61
362.51	1626.09
362.72	1667.05
362.93	1718.25
363.14	1667.05
363.35	1699.81
363.56	1701.86
363.78	1736.68
363.99	1724.39
364.20	1636.33
364.41	1722.34
364.62	1824.74
364.83	1697.77
365.04	1695.72
365.25	1722.34
365.46	1839.08
365.67	1652.71
365.88	1658.85
366.09	1658.85
366.30	1724.39
366.51	1730.53
366.72	1624.04
366.93	1630.18
367.14	1753.06
367.35	1791.97
367.56	1669.09
367.77	1744.87
367.98	1591.27
368.18	1732.58
368.39	1724.39
368.60	1650.66
368.81	1757.16
369.02	1697.77
369.23	1695.72
369.44	1599.46
369.65	1738.73
369.86	1742.82
370.07	1773.54
370.28	1613.80
370.49	1683.43
370.70	1767.40
370.91	1689.57
371.12	1656.81
371.33	1738.73
371.54	1718.25
371.75	1683.43
371.96	1648.61
372.17	1705.96
372.38	1710.05
372.59	1853.41
372.80	1646.57
373.01	1662.95
373.22	1665.00
373.43	1681.38
373.64	1689.57
373.85	1765.35
374.06	1775.59
374.26	1728.49
374.47	1714.15
374.68	1796.07
374.89	1677.29
375.10	1771.49
375.31	1802.21
375.52	1708.01
375.73	1681.38
375.94	1636.33
376.15	1779.68
376.36	1683.43
376.57	1681.38
376.78	1673.19
376.99	1714.15
377.20	1742.82
377.40	1765.35
377.61	1865.70
377.82	1581.03
378.03	1794.02
378.24	1691.62
378.45	1718.25
378.66	1714.15
378.87	1595.37
379.08	1642.47
379.29	1656.81
379.50	1755.11
379.71	1693.67
379.91	1785.83
380.12	1781.73
380.33	1675.24
380.54	1718.25
380.75	1691.62
380.96	1742.82
381.17	1806.31
381.38	1701.86
381.59	1679.33
381.80	1697.77
382.00	1869.80
382.21	1763.30
382.42	1843.17
382.63	1849.32
382.84	1767.40
383.05	1816.55
383.26	1826.79
383.47	1734.63
383.68	1722.34
383.88	1726.44
384.09	1779.68
384.30	1826.79
384.51	1708.01
384.72	1673.19
384.93	1652.71
385.14	1718.25
385.35	1794.02
385.55	1636.33
385.76	1804.26
385.97	1705.96
386.18	1613.80
386.39	1705.96
386.60	1638.38
386.81	1679.33
387.02	1619.94
387.22	1689.57
387.43	1779.68
387.64	1832.93
387.85	1912.80
388.06	2244.57
388.27	4288.45
388.48	6588.32
388.68	8214.40
388.89	9500.53
389.10	9809.77
389.31	8595.32
389.52	7397.26
389.73	6526.88
389.93	6082.47
390.14	5779.37
390.35	5146.55
390.56	4552.63
390.77	3663.82
390.98	3078.10
391.18	2527.19
391.39	2058.21
391.60	1812.45
391.81	1794.02
392.02	1773.54
392.23	1853.41
392.43	1746.92
392.64	1794.02
392.85	1722.34
393.06	1773.54
393.27	1765.35
393.47	1724.39
393.68	1734.63
393.89	1691.62
394.10	1777.64
394.31	1656.81
394.52	1685.48
394.72	1710.05
394.93	1771.49
395.14	1751.01
395.35	1746.92
395.56	1714.15
395.76	1800.16
395.97	1816.55
396.18	1796.07
396.39	1812.45
396.60	2074.59
396.80	1918.95
397.01	1837.03
397.22	1806.31
397.43	1828.84
397.64	1722.34
397.84	1816.55
398.05	1796.07
398.26	1742.82
398.47	1783.78
398.67	1722.34
398.88	1734.63
399.09	1718.25
399.30	1638.38
399.51	1720.29
399.71	1636.33
399.92	1675.24
400.13	1660.90
400.34	1660.90
400.54	1759.21
400.75	1794.02
400.96	1710.05
401.17	1843.17
401.37	1658.85
401.58	1705.96
401.79	1757.16
402.00	1884.13
402.21	2066.40
402.41	1935.33
402.62	1927.14
402.83	2000.87
403.04	1914.85
403.24	2058.21
403.45	1857.51
403.66	1882.08
403.87	1925.09
404.07	1890.28
404.28	1959.91
404.49	1800.16
404.70	1806.31
404.90	1791.97
405.11	1748.97
405.32	1779.68
405.52	1660.90
405.73	1712.10
405.94	1724.39
406.15	1675.24
406.35	1734.63
406.56	1716.20
406.77	1710.05
406.98	1681.38
407.18	1679.33
407.39	1779.68
407.60	1732.58
407.80	1673.19
408.01	1644.52
408.22	1734.63
408.43	1681.38
408.63	1771.49
408.84	1765.35
409.05	1722.34
409.25	1685.48
409.46	1751.01
409.67	1624.04
409.88	1677.29
410.08	1693.67
410.29	1646.57
410.50	1705.96
410.70	1687.53
410.91	1662.95
411.12	1802.21
411.32	1628.14
411.53	1763.30
411.74	1826.79
411.95	1789.92
412.15	1732.58
412.36	1802.21
412.57	1791.97
412.77	1755.11
412.98	1712.10
413.19	1669.09
413.39	1751.01
413.60	1705.96
413.81	1703.91
414.01	1710.05
414.22	1759.21
414.43	1777.64
414.63	1683.43
414.84	1771.49
415.05	1738.73
415.25	1648.61
415.46	1718.25
415.67	1705.96
415.87	1687.53
416.08	1779.68
416.29	1689.57
416.49	1794.02
416.70	1703.91
416.91	1650.66
417.11	1634.28
417.32	1757.16
417.53	1730.53
417.73	1787.88
417.94	1736.68
418.15	1738.73
418.35	1689.57
418.56	1701.86
418.77	1808.36
418.97	1687.53
419.18	1675.24
419.38	1570.79
419.59	1716.20
419.80	1751.01
420.00	1726.44
420.21	1765.35
420.42	1789.92
420.62	1646.57
420.83	1665.00
421.04	1753.06
421.24	1650.66
421.45	1748.97
421.65	1626.09
421.86	1626.09
422.07	1701.86
422.27	1722.34
422.48	1744.87
422.69	1652.71
422.89	1673.19
423.10	1724.39
423.30	1611.75
423.51	1751.01
423.72	1716.20
423.92	1677.29
424.13	1617.90
424.33	1755.11
424.54	1800.16
424.75	1771.49
424.95	1789.92
425.16	1736.68
425.36	1712.10
425.57	1816.55
425.78	1650.66
425.98	1724.39
426.19	1626.09
426.39	1605.61
426.60	1703.91
426.81	1816.55
427.01	1658.85
427.22	1679.33
427.42	1648.61
427.63	1652.71
427.83	1736.68
428.04	1855.46
428.25	1722.34
428.45	1738.73
428.66	1812.45
428.86	1646.57
429.07	1671.14
429.28	1728.49
429.48	1783.78
429.69	1712.10
429.89	1751.01
430.10	1609.70
430.30	1701.86
430.51	1796.07
430.71	1648.61
430.92	1671.14
431.13	1673.19
431.33	1705.96
431.54	1736.68
431.74	1783.78
431.95	1800.16
432.15	1748.97
432.36	1697.77
432.56	1695.72
432.77	1767.40
432.98	1873.89
433.18	1720.29
433.39	1718.25
433.59	1716.20
433.80	1818.60
434.00	1859.56
434.21	1665.00
434.41	1646.57
434.62	1802.21
434.82	1624.04
435.03	1619.94
435.23	1679.33
435.44	1587.18
435.64	1781.73
435.85	1834.98
436.06	1753.06
436.26	1767.40
436.47	1699.81
436.67	1712.10
436.88	1708.01
437.08	1783.78
437.29	1738.73
437.49	1757.16
437.70	1720.29
437.90	1718.25
438.11	1859.56
438.31	1806.31
438.52	1882.08
438.72	1841.12
438.93	1865.70
439.13	1828.84
439.34	1804.26
439.54	1791.97
439.75	1767.40
439.95	1828.84
440.16	1609.70
440.36	1716.20
440.57	1796.07
440.77	1693.67
440.98	1724.39
441.18	1798.12
441.39	1740.77
441.59	1685.48
441.80	1884.13
442.00	1740.77
442.21	1765.35
442.41	1681.38
442.62	1789.92
442.82	1630.18
443.02	1718.25
443.23	1714.15
443.43	1695.72
443.64	1789.92
443.84	1652.71
444.05	1820.64
444.25	1703.91
444.46	1701.86
444.66	1732.58
444.87	1804.26
445.07	1640.42
445.28	1718.25
445.48	1726.44
445.69	1820.64
445.89	1882.08
446.09	1746.92
446.30	1959.91
446.50	2631.64
446.71	3790.79
446.91	4206.53
447.12	4757.43
447.32	4792.25
447.53	4282.30
447.73	3784.65
447.93	3432.40
448.14	3381.20
448.34	3157.97
448.55	2887.64
448.75	2844.63
448.96	2648.02
449.16	2367.45
449.36	2263.01
449.57	1941.47
449.77	1873.89
449.98	1779.68
450.18	1773.54
450.39	1826.79
450.59	1837.03
450.79	1769.44
451.00	1697.77
451.20	1738.73
451.41	1679.33
451.61	1806.31
451.81	1708.01
452.02	1689.57
452.22	1714.15
452.43	1740.77
452.63	1724.39
