SpectraSuite Data File
++++++++++++++++++++++++++++++++++++
Date: Mon Jun 06 16:13:57 CEST 2016
User: root
Dark Spectrum Present: No
Reference Spectrum Present: No
Number of Sampled Component Spectra: 1
Spectrometers: USB4C02835
Integration Time (usec): 100000 (USB4C02835)
Spectra Averaged: 1 (USB4C02835)
Boxcar Smoothing: 0 (USB4C02835)
Correct for Electrical Dark: No (USB4C02835)
Strobe/Lamp Enabled: No (USB4C02835)
Correct for Detector Non-linearity: No (USB4C02835)
Correct for Stray Light: No (USB4C02835)
Number of Pixels in Processed Spectrum: 3648
>>>>>Begin Processed Spectral Data<<<<<
177.47	1509.35
177.69	1509.35
177.91	1509.35
178.13	1525.74
178.36	1492.97
178.58	1599.46
178.80	1732.58
179.02	1718.25
179.24	1697.77
179.46	1708.01
179.68	1773.54
179.90	1689.57
180.13	1738.73
180.35	1753.06
180.57	1660.90
180.79	1703.91
181.01	1794.02
181.23	1777.64
181.45	1732.58
181.67	1775.59
181.90	1732.58
182.12	1708.01
182.34	1619.94
182.56	1751.01
182.78	1681.38
183.00	1697.77
183.22	1728.49
183.44	1632.23
183.66	1834.98
183.89	1798.12
184.11	1736.68
184.33	1724.39
184.55	1695.72
184.77	1763.30
184.99	1691.62
185.21	1755.11
185.43	1834.98
185.65	1691.62
185.87	1708.01
186.10	1755.11
186.32	1851.36
186.54	1710.05
186.76	1708.01
186.98	1785.83
187.20	1650.66
187.42	1736.68
187.64	1714.15
187.86	1677.29
188.08	1779.68
188.30	1640.42
188.52	1748.97
188.75	1753.06
188.97	1816.55
189.19	1650.66
189.41	1753.06
189.63	1710.05
189.85	1734.63
190.07	1636.33
190.29	1624.04
190.51	1746.92
190.73	1640.42
190.95	1763.30
191.17	1675.24
191.39	1554.41
191.61	1689.57
191.84	1726.44
192.06	1783.78
192.28	1683.43
192.50	1890.28
192.72	1746.92
192.94	1699.81
193.16	1769.44
193.38	1708.01
193.60	1779.68
193.82	1714.15
194.04	1765.35
194.26	1751.01
194.48	1691.62
194.70	1722.34
194.92	1726.44
195.14	1816.55
195.36	1753.06
195.58	1718.25
195.80	1716.20
196.02	1656.81
196.24	1746.92
196.46	1753.06
196.69	1753.06
196.91	1877.99
197.13	1794.02
197.35	1636.33
197.57	1806.31
197.79	1697.77
198.01	1748.97
198.23	1697.77
198.45	1718.25
198.67	1583.08
198.89	1705.96
199.11	1746.92
199.33	1701.86
199.55	1605.61
199.77	1691.62
199.99	1794.02
200.21	1712.10
200.43	1738.73
200.65	1652.71
200.87	1562.60
201.09	1734.63
201.31	1652.71
201.53	1730.53
201.75	1759.21
201.97	1771.49
202.19	1642.47
202.41	1763.30
202.63	1861.60
202.85	1705.96
203.07	1710.05
203.29	1775.59
203.51	1685.48
203.73	1658.85
203.95	1918.95
204.17	1740.77
204.39	1728.49
204.61	1689.57
204.83	1619.94
205.05	1751.01
205.27	1730.53
205.49	1841.12
205.71	1738.73
205.93	1570.79
206.15	1738.73
206.37	1730.53
206.59	1677.29
206.81	1646.57
207.03	1656.81
207.25	1683.43
207.47	1791.97
207.69	1665.00
207.91	1806.31
208.13	1751.01
208.34	1716.20
208.56	1644.52
208.78	1761.25
209.00	1648.61
209.22	1763.30
209.44	1726.44
209.66	1738.73
209.88	1710.05
210.10	1701.86
210.32	1710.05
210.54	1824.74
210.76	1689.57
210.98	1763.30
211.20	1599.46
211.42	1751.01
211.64	1746.92
211.86	1732.58
212.08	1708.01
212.30	1732.58
212.52	1708.01
212.74	1785.83
212.96	1716.20
213.17	1751.01
213.39	1789.92
213.61	1712.10
213.83	1705.96
214.05	1687.53
214.27	1822.69
214.49	1642.47
214.71	1693.67
214.93	1732.58
215.15	1761.25
215.37	1787.88
215.59	1677.29
215.81	1724.39
216.03	1775.59
216.24	1783.78
216.46	1646.57
216.68	1732.58
216.90	1759.21
217.12	1689.57
217.34	1716.20
217.56	1673.19
217.78	1732.58
218.00	1705.96
218.22	1728.49
218.44	1779.68
218.66	1681.38
218.87	1830.88
219.09	1644.52
219.31	1775.59
219.53	1763.30
219.75	1691.62
219.97	1683.43
220.19	1662.95
220.41	1679.33
220.63	1789.92
220.85	1804.26
221.06	1656.81
221.28	1755.11
221.50	1722.34
221.72	1679.33
221.94	1738.73
222.16	1673.19
222.38	1812.45
222.60	1814.50
222.82	1732.58
223.03	1751.01
223.25	1654.76
223.47	1695.72
223.69	1783.78
223.91	1734.63
224.13	1665.00
224.35	1683.43
224.57	1751.01
224.78	1689.57
225.00	1662.95
225.22	1679.33
225.44	1683.43
225.66	1753.06
225.88	1671.14
226.10	1816.55
226.32	1738.73
226.53	1757.16
226.75	1617.90
226.97	1701.86
227.19	1705.96
227.41	1681.38
227.63	1654.76
227.85	1607.66
228.06	1726.44
228.28	1708.01
228.50	1800.16
228.72	1683.43
228.94	1722.34
229.16	1603.56
229.37	1621.99
229.59	1624.04
229.81	1775.59
230.03	1718.25
230.25	1603.56
230.47	1675.24
230.69	1619.94
230.90	1697.77
231.12	1675.24
231.34	1765.35
231.56	1738.73
231.78	1685.48
232.00	1701.86
232.21	1746.92
232.43	1673.19
232.65	1634.28
232.87	1726.44
233.09	1712.10
233.30	1689.57
233.52	1763.30
233.74	1683.43
233.96	1687.53
234.18	1716.20
234.40	1669.09
234.61	1800.16
234.83	1578.98
235.05	1658.85
235.27	1900.52
235.49	1783.78
235.70	1695.72
235.92	1787.88
236.14	1757.16
236.36	1798.12
236.58	1630.18
236.79	1773.54
237.01	1720.29
237.23	1656.81
237.45	1845.22
237.67	1695.72
237.88	1662.95
238.10	1851.36
238.32	1656.81
238.54	1701.86
238.76	1636.33
238.97	1689.57
239.19	1689.57
239.41	1757.16
239.63	1769.44
239.85	1667.05
240.06	1656.81
240.28	1697.77
240.50	1767.40
240.72	1716.20
240.93	1703.91
241.15	1779.68
241.37	1669.09
241.59	1781.73
241.81	1677.29
242.02	1660.90
242.24	1746.92
242.46	1742.82
242.68	1691.62
242.89	1761.25
243.11	1671.14
243.33	1734.63
243.55	1779.68
243.76	1759.21
243.98	1601.51
244.20	1748.97
244.42	1720.29
244.64	1683.43
244.85	1662.95
245.07	1638.38
245.29	1650.66
245.51	1705.96
245.72	1773.54
245.94	1705.96
246.16	1730.53
246.38	1748.97
246.59	1654.76
246.81	1695.72
247.03	1669.09
247.24	1642.47
247.46	1581.03
247.68	1734.63
247.90	1714.15
248.11	1626.09
248.33	1779.68
248.55	1621.99
248.77	1697.77
248.98	1783.78
249.20	1820.64
249.42	1748.97
249.64	1705.96
249.85	1658.85
250.07	1615.85
250.29	1710.05
250.50	1818.60
250.72	1601.51
250.94	1742.82
251.16	1806.31
251.37	1781.73
251.59	1757.16
251.81	1703.91
252.02	1802.21
252.24	1685.48
252.46	1800.16
252.68	1710.05
252.89	1726.44
253.11	1572.84
253.33	1796.07
253.54	1763.30
253.76	1679.33
253.98	1669.09
254.20	1722.34
254.41	1621.99
254.63	1642.47
254.85	1617.90
255.06	1720.29
255.28	1718.25
255.50	1728.49
255.71	1667.05
255.93	1662.95
256.15	1755.11
256.36	1683.43
256.58	1763.30
256.80	1775.59
257.02	1669.09
257.23	1771.49
257.45	1726.44
257.67	1763.30
257.88	1619.94
258.10	1718.25
258.32	1652.71
258.53	1662.95
258.75	1771.49
258.97	1681.38
259.18	1718.25
259.40	1765.35
259.62	1828.84
259.83	1800.16
260.05	1730.53
260.27	2015.20
260.48	1740.77
260.70	1671.14
260.92	1757.16
261.13	1748.97
261.35	1751.01
261.57	1710.05
261.78	1632.23
262.00	1673.19
262.22	1732.58
262.43	1687.53
262.65	1685.48
262.86	1763.30
263.08	1888.23
263.30	1695.72
263.51	1578.98
263.73	1701.86
263.95	1798.12
264.16	1724.39
264.38	1624.04
264.60	1703.91
264.81	1691.62
265.03	1718.25
265.25	1736.68
265.46	1701.86
265.68	1746.92
265.89	1730.53
266.11	1611.75
266.33	1787.88
266.54	1734.63
266.76	1832.93
266.98	1732.58
267.19	1763.30
267.41	1759.21
267.62	1781.73
267.84	1695.72
268.06	1660.90
268.27	1718.25
268.49	1769.44
268.70	1853.41
268.92	1611.75
269.14	1714.15
269.35	1578.98
269.57	1693.67
269.79	1808.36
270.00	1720.29
270.22	1843.17
270.43	1630.18
270.65	1628.14
270.87	1642.47
271.08	1841.12
271.30	1794.02
271.51	1705.96
271.73	1742.82
271.95	1800.16
272.16	1779.68
272.38	1746.92
272.59	1701.86
272.81	1785.83
273.02	1755.11
273.24	1742.82
273.46	1695.72
273.67	1738.73
273.89	1665.00
274.10	1705.96
274.32	1791.97
274.54	1728.49
274.75	1861.60
274.97	1740.77
275.18	1734.63
275.40	1818.60
275.61	1689.57
275.83	1757.16
276.05	1654.76
276.26	1701.86
276.48	1773.54
276.69	1687.53
276.91	1697.77
277.12	1853.41
277.34	1767.40
277.55	1763.30
277.77	1734.63
277.99	1658.85
278.20	1605.61
278.42	1587.18
278.63	1667.05
278.85	1673.19
279.06	1570.79
279.28	1714.15
279.49	1720.29
279.71	1767.40
279.93	1767.40
280.14	1732.58
280.36	1675.24
280.57	1728.49
280.79	1761.25
281.00	1714.15
281.22	1667.05
281.43	1769.44
281.65	1552.36
281.86	1656.81
282.08	1742.82
282.29	1779.68
282.51	1687.53
282.73	1638.38
282.94	1628.14
283.16	1736.68
283.37	1898.47
283.59	1714.15
283.80	1730.53
284.02	1695.72
284.23	1791.97
284.45	1667.05
284.66	1699.81
284.88	1675.24
285.09	1759.21
285.31	1738.73
285.52	1656.81
285.74	1654.76
285.95	1804.26
286.17	1628.14
286.38	1718.25
286.60	1779.68
286.81	1650.66
287.03	1656.81
287.24	1703.91
287.46	1843.17
287.67	1656.81
287.89	1777.64
288.10	1658.85
288.32	1716.20
288.53	1742.82
288.75	1691.62
288.96	1722.34
289.18	1693.67
289.39	1699.81
289.61	1734.63
289.82	1810.40
290.04	1837.03
290.25	1654.76
290.47	1728.49
290.68	1726.44
290.90	1832.93
291.11	1699.81
291.33	1757.16
291.54	1677.29
291.76	1697.77
291.97	1763.30
292.18	1748.97
292.40	1691.62
292.61	1744.87
292.83	1796.07
293.04	1728.49
293.26	1697.77
293.47	1773.54
293.69	1644.52
293.90	1722.34
294.12	1791.97
294.33	1724.39
294.55	1701.86
294.76	1746.92
294.97	1843.17
295.19	1849.32
295.40	1632.23
295.62	1744.87
295.83	1744.87
296.05	1724.39
296.26	1728.49
296.48	1726.44
296.69	1669.09
296.90	1740.77
297.12	1748.97
297.33	1777.64
297.55	1744.87
297.76	1740.77
297.98	1773.54
298.19	1667.05
298.41	1767.40
298.62	1714.15
298.83	1886.18
299.05	1773.54
299.26	1742.82
299.48	1642.47
299.69	1759.21
299.90	1763.30
300.12	1708.01
300.33	1798.12
300.55	1681.38
300.76	1671.14
300.98	1648.61
301.19	1708.01
301.40	1726.44
301.62	1705.96
301.83	1714.15
302.05	1695.72
302.26	1771.49
302.47	1712.10
302.69	1677.29
302.90	1654.76
303.12	1660.90
303.33	1839.08
303.54	1781.73
303.76	1677.29
303.97	1734.63
304.19	1812.45
304.40	1656.81
304.61	1744.87
304.83	1763.30
305.04	1757.16
305.26	1812.45
305.47	1632.23
305.68	1714.15
305.90	1644.52
306.11	1779.68
306.33	1685.48
306.54	1679.33
306.75	1746.92
306.97	1681.38
307.18	1632.23
307.39	1613.80
307.61	1771.49
307.82	1658.85
308.04	1683.43
308.25	1685.48
308.46	1716.20
308.68	1734.63
308.89	1839.08
309.10	1816.55
309.32	1712.10
309.53	1714.15
309.74	1736.68
309.96	1648.61
310.17	1767.40
310.39	1732.58
310.60	1730.53
310.81	1779.68
311.03	1665.00
311.24	1716.20
311.45	1640.42
311.67	1812.45
311.88	1716.20
312.09	1656.81
312.31	1732.58
312.52	1640.42
312.73	1724.39
312.95	1669.09
313.16	1642.47
313.37	1761.25
313.59	1724.39
313.80	1785.83
314.01	1802.21
314.23	1621.99
314.44	1697.77
314.65	1695.72
314.87	1738.73
315.08	1650.66
315.29	1712.10
315.51	1642.47
315.72	1695.72
315.93	1839.08
316.15	1781.73
316.36	1689.57
316.57	1722.34
316.79	1734.63
317.00	1697.77
317.21	1720.29
317.43	1697.77
317.64	1669.09
317.85	1660.90
318.07	1720.29
318.28	1705.96
318.49	1789.92
318.70	1910.75
318.92	1802.21
319.13	1751.01
319.34	1941.47
319.56	1669.09
319.77	1834.98
319.98	1798.12
320.20	1806.31
320.41	1763.30
320.62	1771.49
320.83	1681.38
321.05	1927.14
321.26	1718.25
321.47	1724.39
321.69	1761.25
321.90	1626.09
322.11	1720.29
322.32	1671.14
322.54	1812.45
322.75	1646.57
322.96	1828.84
323.18	1607.66
323.39	1611.75
323.60	1640.42
323.81	1849.32
324.03	1675.24
324.24	1722.34
324.45	1800.16
324.66	1718.25
324.88	1658.85
325.09	1841.12
325.30	1679.33
325.52	1724.39
325.73	1771.49
325.94	1734.63
326.15	1701.86
326.37	1681.38
326.58	1742.82
326.79	1724.39
327.00	1705.96
327.22	1699.81
327.43	1695.72
327.64	1630.18
327.85	1794.02
328.07	1763.30
328.28	1826.79
328.49	1730.53
328.70	1748.97
328.92	1738.73
329.13	1720.29
329.34	1761.25
329.55	1800.16
329.76	1652.71
329.98	1705.96
330.19	1738.73
330.40	1744.87
330.61	1740.77
330.83	1675.24
331.04	1640.42
331.25	1728.49
331.46	1669.09
331.68	1705.96
331.89	1808.36
332.10	1673.19
332.31	1677.29
332.52	1634.28
332.74	1751.01
332.95	1701.86
333.16	1732.58
333.37	1787.88
333.58	1705.96
333.80	1673.19
334.01	1656.81
334.22	1683.43
334.43	1732.58
334.64	1697.77
334.86	1638.38
335.07	1656.81
335.28	1718.25
335.49	1636.33
335.70	1775.59
335.92	1785.83
336.13	1847.27
336.34	1757.16
336.55	1695.72
336.76	1757.16
336.98	1587.18
337.19	1671.14
337.40	1820.64
337.61	1834.98
337.82	1619.94
338.04	1761.25
338.25	1667.05
338.46	1685.48
338.67	1724.39
338.88	1638.38
339.09	1656.81
339.31	1689.57
339.52	1642.47
339.73	1656.81
339.94	1791.97
340.15	1746.92
340.36	1802.21
340.58	1755.11
340.79	1658.85
341.00	1748.97
341.21	1681.38
341.42	1828.84
341.63	1644.52
341.85	1722.34
342.06	1705.96
342.27	1714.15
342.48	1773.54
342.69	1648.61
342.90	1738.73
343.12	1732.58
343.33	1691.62
343.54	1761.25
343.75	1767.40
343.96	1660.90
344.17	1687.53
344.38	1714.15
344.60	1665.00
344.81	1728.49
345.02	1673.19
345.23	1832.93
345.44	1834.98
345.65	1738.73
345.86	1740.77
346.07	1767.40
346.29	1691.62
346.50	1708.01
346.71	1789.92
346.92	1771.49
347.13	1834.98
347.34	1740.77
347.55	1746.92
347.76	1740.77
347.98	1615.85
348.19	1650.66
348.40	1769.44
348.61	1662.95
348.82	1802.21
349.03	1699.81
349.24	1693.67
349.45	1800.16
349.66	1595.37
349.88	1703.91
350.09	1654.76
350.30	1798.12
350.51	1787.88
350.72	1658.85
350.93	1650.66
351.14	1781.73
351.35	1712.10
351.56	1724.39
351.77	1708.01
351.99	1734.63
352.20	1769.44
352.41	1832.93
352.62	1562.60
352.83	1736.68
353.04	1748.97
353.25	1665.00
353.46	1761.25
353.67	1712.10
353.88	1535.98
354.09	1695.72
354.30	1755.11
354.52	1724.39
354.73	1685.48
354.94	1695.72
355.15	1650.66
355.36	1810.40
355.57	1755.11
355.78	1761.25
355.99	1644.52
356.20	1710.05
356.41	1701.86
356.62	1656.81
356.83	1691.62
357.04	1794.02
357.25	1679.33
357.46	1755.11
357.68	1601.51
357.89	1681.38
358.10	1716.20
358.31	1699.81
358.52	1783.78
358.73	1646.57
358.94	1681.38
359.15	1679.33
359.36	1771.49
359.57	1720.29
359.78	1675.24
359.99	1716.20
360.20	1757.16
360.41	1712.10
360.62	1740.77
360.83	1789.92
361.04	1691.62
361.25	1775.59
361.46	1783.78
361.67	1730.53
361.88	1703.91
362.09	1736.68
362.30	1673.19
362.51	1710.05
362.72	1751.01
362.93	1775.59
363.14	1761.25
363.35	1691.62
363.56	1640.42
363.78	1753.06
363.99	1791.97
364.20	1642.47
364.41	1761.25
364.62	1775.59
364.83	1708.01
365.04	1685.48
365.25	1738.73
365.46	1841.12
365.67	1632.23
365.88	1624.04
366.09	1679.33
366.30	1746.92
366.51	1708.01
366.72	1687.53
366.93	1765.35
367.14	1775.59
367.35	1812.45
367.56	1748.97
367.77	1820.64
367.98	1761.25
368.18	1681.38
368.39	1669.09
368.60	1724.39
368.81	1726.44
369.02	1634.28
369.23	1689.57
369.44	1636.33
369.65	1703.91
369.86	1755.11
370.07	1787.88
370.28	1619.94
370.49	1689.57
370.70	1818.60
370.91	1624.04
371.12	1589.22
371.33	1796.07
371.54	1730.53
371.75	1712.10
371.96	1558.50
372.17	1685.48
372.38	1755.11
372.59	1755.11
372.80	1685.48
373.01	1718.25
373.22	1732.58
373.43	1701.86
373.64	1677.29
373.85	1873.89
374.06	1775.59
374.26	1728.49
374.47	1738.73
374.68	1759.21
374.89	1726.44
375.10	1691.62
375.31	1736.68
375.52	1714.15
375.73	1689.57
375.94	1660.90
376.15	1877.99
376.36	1681.38
376.57	1660.90
376.78	1685.48
376.99	1746.92
377.20	1771.49
377.40	1705.96
377.61	1796.07
377.82	1605.61
378.03	1828.84
378.24	1730.53
378.45	1751.01
378.66	1703.91
378.87	1640.42
379.08	1667.05
379.29	1689.57
379.50	1726.44
379.71	1701.86
379.91	1755.11
380.12	1753.06
380.33	1855.46
380.54	1732.58
380.75	1738.73
380.96	1683.43
381.17	1789.92
381.38	1740.77
381.59	1742.82
381.80	1757.16
382.00	1888.23
382.21	1742.82
382.42	1892.32
382.63	1841.12
382.84	1634.28
383.05	1789.92
383.26	1816.55
383.47	1708.01
383.68	1765.35
383.88	1722.34
384.09	1728.49
384.30	1875.94
384.51	1732.58
384.72	1599.46
384.93	1621.99
385.14	1701.86
385.35	1771.49
385.55	1583.08
385.76	1855.46
385.97	1701.86
386.18	1646.57
386.39	1701.86
386.60	1742.82
386.81	1675.24
387.02	1638.38
387.22	1634.28
387.43	1773.54
387.64	1865.70
387.85	1935.33
388.06	2193.37
388.27	4097.99
388.48	6557.60
388.68	7989.13
388.89	9164.66
389.10	9484.14
389.31	8195.97
389.52	7468.94
389.73	6657.95
389.93	6033.32
390.14	5734.31
390.35	5044.15
390.56	4419.52
390.77	3645.38
390.98	3047.38
391.18	2430.94
391.39	2033.63
391.60	1869.80
391.81	1832.93
392.02	1773.54
392.23	1843.17
392.43	1794.02
392.64	1873.89
392.85	1714.15
393.06	1789.92
393.27	1755.11
393.47	1665.00
393.68	1730.53
393.89	1718.25
394.10	1755.11
394.31	1626.09
394.52	1624.04
394.72	1634.28
394.93	1812.45
395.14	1644.52
395.35	1730.53
395.56	1671.14
395.76	1734.63
395.97	1771.49
396.18	1861.60
396.39	1779.68
396.60	2031.58
396.80	1955.81
397.01	1818.60
397.22	1847.27
397.43	1841.12
397.64	1789.92
397.84	1736.68
398.05	1818.60
398.26	1763.30
398.47	1867.75
398.67	1794.02
398.88	1697.77
399.09	1777.64
399.30	1761.25
399.51	1812.45
399.71	1656.81
399.92	1687.53
400.13	1712.10
400.34	1722.34
400.54	1720.29
400.75	1851.36
400.96	1710.05
401.17	1898.47
401.37	1710.05
401.58	1736.68
401.79	1724.39
402.00	1863.65
402.21	2066.40
402.41	2004.96
402.62	1998.82
402.83	2072.54
403.04	1947.62
403.24	2072.54
403.45	1880.04
403.66	1978.34
403.87	1912.80
404.07	1851.36
404.28	1855.46
404.49	1904.61
404.70	1722.34
404.90	1804.26
405.11	1755.11
405.32	1675.24
405.52	1679.33
405.73	1718.25
405.94	1695.72
406.15	1722.34
406.35	1814.50
406.56	1763.30
406.77	1660.90
406.98	1763.30
407.18	1712.10
407.39	1779.68
407.60	1722.34
407.80	1763.30
408.01	1693.67
408.22	1720.29
408.43	1648.61
408.63	1724.39
408.84	1720.29
409.05	1775.59
409.25	1710.05
409.46	1771.49
409.67	1742.82
409.88	1648.61
410.08	1658.85
410.29	1695.72
410.50	1759.21
410.70	1773.54
410.91	1705.96
411.12	1712.10
411.32	1740.77
411.53	1667.05
411.74	1785.83
411.95	1757.16
412.15	1802.21
412.36	1791.97
412.57	1751.01
412.77	1845.22
412.98	1726.44
413.19	1630.18
413.39	1722.34
413.60	1828.84
413.81	1794.02
414.01	1679.33
414.22	1636.33
414.43	1751.01
414.63	1646.57
414.84	1736.68
415.05	1732.58
415.25	1634.28
415.46	1748.97
415.67	1748.97
415.87	1720.29
416.08	1804.26
416.29	1789.92
416.49	1691.62
416.70	1722.34
416.91	1703.91
417.11	1646.57
417.32	1775.59
417.53	1812.45
417.73	1720.29
417.94	1751.01
418.15	1757.16
418.35	1734.63
418.56	1730.53
418.77	1822.69
418.97	1775.59
419.18	1669.09
419.38	1617.90
419.59	1689.57
419.80	1826.79
420.00	1722.34
420.21	1763.30
420.42	1781.73
420.62	1714.15
420.83	1724.39
421.04	1673.19
421.24	1748.97
421.45	1728.49
421.65	1751.01
421.86	1718.25
422.07	1753.06
422.27	1687.53
422.48	1679.33
422.69	1695.72
422.89	1656.81
423.10	1697.77
423.30	1652.71
423.51	1763.30
423.72	1722.34
423.92	1763.30
424.13	1654.76
424.33	1693.67
424.54	1808.36
424.75	1779.68
424.95	1787.88
425.16	1724.39
425.36	1765.35
425.57	1841.12
425.78	1722.34
425.98	1765.35
426.19	1722.34
426.39	1667.05
426.60	1697.77
426.81	1804.26
427.01	1738.73
427.22	1687.53
427.42	1638.38
427.63	1714.15
427.83	1755.11
428.04	1841.12
428.25	1722.34
428.45	1806.31
428.66	1763.30
428.86	1779.68
429.07	1789.92
429.28	1708.01
429.48	1677.29
429.69	1654.76
429.89	1769.44
430.10	1644.52
430.30	1775.59
430.51	1804.26
430.71	1724.39
430.92	1730.53
431.13	1703.91
431.33	1738.73
431.54	1751.01
431.74	1814.50
431.95	1767.40
432.15	1642.47
432.36	1724.39
432.56	1759.21
432.77	1828.84
432.98	1822.69
433.18	1748.97
433.39	1775.59
433.59	1703.91
433.80	1796.07
434.00	1867.75
434.21	1701.86
434.41	1705.96
434.62	1888.23
434.82	1697.77
435.03	1671.14
435.23	1722.34
435.44	1589.22
435.64	1708.01
435.85	1775.59
436.06	1701.86
436.26	1726.44
436.47	1708.01
436.67	1665.00
436.88	1800.16
437.08	1791.97
437.29	1716.20
437.49	1734.63
437.70	1796.07
437.90	1734.63
438.11	1918.95
438.31	1763.30
438.52	1933.28
438.72	1814.50
438.93	1906.66
439.13	1822.69
439.34	1796.07
439.54	1738.73
439.75	1748.97
439.95	1814.50
440.16	1716.20
440.36	1767.40
440.57	1755.11
440.77	1718.25
440.98	1748.97
441.18	1765.35
441.39	1726.44
441.59	1685.48
441.80	1845.22
442.00	1638.38
442.21	1796.07
442.41	1681.38
442.62	1724.39
442.82	1787.88
443.02	1763.30
443.23	1781.73
443.43	1763.30
443.64	1818.60
443.84	1759.21
444.05	1755.11
444.25	1718.25
444.46	1728.49
444.66	1744.87
444.87	1796.07
445.07	1628.14
445.28	1693.67
445.48	1867.75
445.69	1714.15
445.89	1871.84
446.09	1845.22
446.30	2015.20
446.50	2621.40
446.71	3690.44
446.91	4239.30
447.12	4710.33
447.32	4745.14
447.53	4196.29
447.73	3870.66
447.93	3506.12
448.14	3182.54
448.34	3098.58
448.55	2820.05
448.75	2863.06
448.96	2613.21
449.16	2410.46
449.36	2187.23
449.57	2027.49
449.77	1920.99
449.98	1785.83
450.18	1775.59
450.39	1828.84
450.59	1757.16
450.79	1796.07
451.00	1705.96
451.20	1771.49
451.41	1755.11
451.61	1736.68
451.81	1710.05
452.02	1734.63
452.22	1746.92
452.43	1716.20
452.63	1787.88
