SpectraSuite Data File
++++++++++++++++++++++++++++++++++++
Date: Mon Jun 06 12:39:37 CEST 2016
User: root
Dark Spectrum Present: No
Reference Spectrum Present: No
Number of Sampled Component Spectra: 1
Spectrometers: USB4C02835
Integration Time (usec): 100000 (USB4C02835)
Spectra Averaged: 1 (USB4C02835)
Boxcar Smoothing: 0 (USB4C02835)
Correct for Electrical Dark: No (USB4C02835)
Strobe/Lamp Enabled: No (USB4C02835)
Correct for Detector Non-linearity: No (USB4C02835)
Correct for Stray Light: No (USB4C02835)
Number of Pixels in Processed Spectrum: 3648
>>>>>Begin Processed Spectral Data<<<<<
177.47	1470.44
177.69	1470.44
177.91	1470.44
178.13	1415.15
178.36	1466.35
178.58	1603.56
178.80	1671.14
179.02	1638.38
179.24	1603.56
179.46	1726.44
179.68	1800.16
179.90	1613.80
180.13	1716.20
180.35	1617.90
180.57	1673.19
180.79	1777.64
181.01	1681.38
181.23	1769.44
181.45	1785.83
181.67	1710.05
181.90	1759.21
182.12	1578.98
182.34	1648.61
182.56	1638.38
182.78	1701.86
183.00	1708.01
183.22	1617.90
183.44	1634.28
183.66	1808.36
183.89	1744.87
184.11	1677.29
184.33	1683.43
184.55	1714.15
184.77	1759.21
184.99	1775.59
185.21	1632.23
185.43	1882.08
185.65	1675.24
185.87	1652.71
186.10	1882.08
186.32	1884.13
186.54	1767.40
186.76	1705.96
186.98	1757.16
187.20	1732.58
187.42	1699.81
187.64	1705.96
187.86	1726.44
188.08	1701.86
188.30	1738.73
188.52	1611.75
188.75	1759.21
188.97	1753.06
189.19	1701.86
189.41	1720.29
189.63	1767.40
189.85	1699.81
190.07	1644.52
190.29	1593.32
190.51	1669.09
190.73	1591.27
190.95	1773.54
191.17	1697.77
191.39	1667.05
191.61	1736.68
191.84	1652.71
192.06	1730.53
192.28	1589.22
192.50	1896.42
192.72	1708.01
192.94	1675.24
193.16	1720.29
193.38	1794.02
193.60	1562.60
193.82	1595.37
194.04	1787.88
194.26	1701.86
194.48	1740.77
194.70	1624.04
194.92	1687.53
195.14	1730.53
195.36	1681.38
195.58	1783.78
195.80	1603.56
196.02	1708.01
196.24	1751.01
196.46	1691.62
196.69	1578.98
196.91	1828.84
197.13	1710.05
197.35	1624.04
197.57	1757.16
197.79	1767.40
198.01	1685.48
198.23	1703.91
198.45	1738.73
198.67	1630.18
198.89	1730.53
199.11	1708.01
199.33	1638.38
199.55	1607.66
199.77	1621.99
199.99	1763.30
200.21	1669.09
200.43	1732.58
200.65	1665.00
200.87	1521.64
201.09	1667.05
201.31	1667.05
201.53	1734.63
201.75	1744.87
201.97	1705.96
202.19	1689.57
202.41	1675.24
202.63	1757.16
202.85	1716.20
203.07	1728.49
203.29	1638.38
203.51	1683.43
203.73	1630.18
203.95	1802.21
204.17	1673.19
204.39	1691.62
204.61	1697.77
204.83	1730.53
205.05	1724.39
205.27	1761.25
205.49	1785.83
205.71	1738.73
205.93	1601.51
206.15	1648.61
206.37	1718.25
206.59	1710.05
206.81	1630.18
207.03	1685.48
207.25	1695.72
207.47	1759.21
207.69	1773.54
207.91	1738.73
208.13	1800.16
208.34	1701.86
208.56	1640.42
208.78	1759.21
209.00	1681.38
209.22	1695.72
209.44	1771.49
209.66	1736.68
209.88	1720.29
210.10	1660.90
210.32	1681.38
210.54	1728.49
210.76	1746.92
210.98	1658.85
211.20	1640.42
211.42	1687.53
211.64	1773.54
211.86	1714.15
212.08	1683.43
212.30	1714.15
212.52	1650.66
212.74	1689.57
212.96	1679.33
213.17	1740.77
213.39	1748.97
213.61	1781.73
213.83	1775.59
214.05	1648.61
214.27	1710.05
214.49	1705.96
214.71	1710.05
214.93	1736.68
215.15	1734.63
215.37	1718.25
215.59	1568.74
215.81	1728.49
216.03	1800.16
216.24	1611.75
216.46	1681.38
216.68	1673.19
216.90	1802.21
217.12	1779.68
217.34	1767.40
217.56	1718.25
217.78	1816.55
218.00	1710.05
218.22	1738.73
218.44	1705.96
218.66	1716.20
218.87	1740.77
219.09	1656.81
219.31	1753.06
219.53	1644.52
219.75	1675.24
219.97	1654.76
220.19	1685.48
220.41	1718.25
220.63	1779.68
220.85	1710.05
221.06	1646.57
221.28	1773.54
221.50	1777.64
221.72	1642.47
221.94	1673.19
222.16	1681.38
222.38	1714.15
222.60	1802.21
222.82	1751.01
223.03	1734.63
223.25	1609.70
223.47	1773.54
223.69	1783.78
223.91	1775.59
224.13	1773.54
224.35	1675.24
224.57	1753.06
224.78	1736.68
225.00	1662.95
225.22	1691.62
225.44	1699.81
225.66	1677.29
225.88	1748.97
226.10	1732.58
226.32	1730.53
226.53	1779.68
226.75	1710.05
226.97	1677.29
227.19	1652.71
227.41	1697.77
227.63	1693.67
227.85	1583.08
228.06	1736.68
228.28	1701.86
228.50	1718.25
228.72	1691.62
228.94	1714.15
229.16	1566.70
229.37	1624.04
229.59	1705.96
229.81	1728.49
230.03	1660.90
230.25	1617.90
230.47	1669.09
230.69	1683.43
230.90	1759.21
231.12	1624.04
231.34	1691.62
231.56	1720.29
231.78	1660.90
232.00	1679.33
232.21	1710.05
232.43	1644.52
232.65	1640.42
232.87	1716.20
233.09	1607.66
233.30	1687.53
233.52	1720.29
233.74	1669.09
233.96	1656.81
234.18	1730.53
234.40	1654.76
234.61	1800.16
234.83	1609.70
235.05	1624.04
235.27	1841.12
235.49	1759.21
235.70	1669.09
235.92	1806.31
236.14	1714.15
236.36	1910.75
236.58	1640.42
236.79	1677.29
237.01	1712.10
237.23	1681.38
237.45	1785.83
237.67	1728.49
237.88	1787.88
238.10	1720.29
238.32	1673.19
238.54	1755.11
238.76	1753.06
238.97	1617.90
239.19	1652.71
239.41	1791.97
239.63	1732.58
239.85	1699.81
240.06	1656.81
240.28	1665.00
240.50	1714.15
240.72	1677.29
240.93	1718.25
241.15	1767.40
241.37	1654.76
241.59	1779.68
241.81	1677.29
242.02	1665.00
242.24	1705.96
242.46	1714.15
242.68	1714.15
242.89	1720.29
243.11	1753.06
243.33	1658.85
243.55	1728.49
243.76	1787.88
243.98	1658.85
244.20	1683.43
244.42	1650.66
244.64	1669.09
244.85	1591.27
245.07	1591.27
245.29	1728.49
245.51	1779.68
245.72	1761.25
245.94	1834.98
246.16	1673.19
246.38	1708.01
246.59	1617.90
246.81	1619.94
247.03	1632.23
247.24	1624.04
247.46	1609.70
247.68	1718.25
247.90	1621.99
248.11	1691.62
248.33	1703.91
248.55	1585.13
248.77	1748.97
248.98	1730.53
249.20	1814.50
249.42	1689.57
249.64	1751.01
249.85	1619.94
250.07	1679.33
250.29	1734.63
250.50	1714.15
250.72	1619.94
250.94	1658.85
251.16	1898.47
251.37	1732.58
251.59	1746.92
251.81	1705.96
252.02	1746.92
252.24	1708.01
252.46	1751.01
252.68	1615.85
252.89	1673.19
253.11	1642.47
253.33	1859.56
253.54	1820.64
253.76	1669.09
253.98	1613.80
254.20	1693.67
254.41	1585.13
254.63	1648.61
254.85	1564.65
255.06	1648.61
255.28	1763.30
255.50	1748.97
255.71	1578.98
255.93	1701.86
256.15	1673.19
256.36	1742.82
256.58	1621.99
256.80	1701.86
257.02	1658.85
257.23	1648.61
257.45	1753.06
257.67	1730.53
257.88	1613.80
258.10	1767.40
258.32	1658.85
258.53	1701.86
258.75	1744.87
258.97	1703.91
259.18	1730.53
259.40	1718.25
259.62	1812.45
259.83	1824.74
260.05	1804.26
260.27	1920.99
260.48	1744.87
260.70	1662.95
260.92	1708.01
261.13	1697.77
261.35	1708.01
261.57	1796.07
261.78	1693.67
262.00	1642.47
262.22	1777.64
262.43	1642.47
262.65	1675.24
262.86	1652.71
263.08	1800.16
263.30	1619.94
263.51	1695.72
263.73	1619.94
263.95	1773.54
264.16	1603.56
264.38	1634.28
264.60	1705.96
264.81	1689.57
265.03	1699.81
265.25	1675.24
265.46	1638.38
265.68	1828.84
265.89	1728.49
266.11	1658.85
266.33	1779.68
266.54	1757.16
266.76	1646.57
266.98	1742.82
267.19	1794.02
267.41	1763.30
267.62	1609.70
267.84	1710.05
268.06	1695.72
268.27	1652.71
268.49	1738.73
268.70	1775.59
268.92	1673.19
269.14	1695.72
269.35	1595.37
269.57	1652.71
269.79	1624.04
270.00	1710.05
270.22	1812.45
270.43	1714.15
270.65	1562.60
270.87	1712.10
271.08	1787.88
271.30	1720.29
271.51	1701.86
271.73	1755.11
271.95	1751.01
272.16	1689.57
272.38	1710.05
272.59	1607.66
272.81	1779.68
273.02	1630.18
273.24	1763.30
273.46	1783.78
273.67	1673.19
273.89	1613.80
274.10	1638.38
274.32	1779.68
274.54	1724.39
274.75	1675.24
274.97	1718.25
275.18	1703.91
275.40	1769.44
275.61	1726.44
275.83	1681.38
276.05	1662.95
276.26	1669.09
276.48	1742.82
276.69	1648.61
276.91	1613.80
277.12	1714.15
277.34	1763.30
277.55	1675.24
277.77	1683.43
277.99	1589.22
278.20	1654.76
278.42	1634.28
278.63	1652.71
278.85	1599.46
279.06	1685.48
279.28	1759.21
279.49	1781.73
279.71	1722.34
279.93	1736.68
280.14	1703.91
280.36	1681.38
280.57	1708.01
280.79	1794.02
281.00	1669.09
281.22	1660.90
281.43	1757.16
281.65	1589.22
281.86	1720.29
282.08	1748.97
282.29	1765.35
282.51	1597.42
282.73	1632.23
282.94	1660.90
283.16	1775.59
283.37	1826.79
283.59	1738.73
283.80	1710.05
284.02	1654.76
284.23	1642.47
284.45	1767.40
284.66	1689.57
284.88	1734.63
285.09	1746.92
285.31	1740.77
285.52	1689.57
285.74	1601.51
285.95	1761.25
286.17	1771.49
286.38	1775.59
286.60	1642.47
286.81	1710.05
287.03	1665.00
287.24	1673.19
287.46	1703.91
287.67	1712.10
287.89	1771.49
288.10	1638.38
288.32	1681.38
288.53	1783.78
288.75	1726.44
288.96	1742.82
289.18	1671.14
289.39	1710.05
289.61	1794.02
289.82	1751.01
290.04	1884.13
290.25	1658.85
290.47	1667.05
290.68	1732.58
290.90	1703.91
291.11	1576.94
291.33	1763.30
291.54	1634.28
291.76	1630.18
291.97	1742.82
292.18	1781.73
292.40	1648.61
292.61	1699.81
292.83	1849.32
293.04	1730.53
293.26	1701.86
293.47	1667.05
293.69	1660.90
293.90	1757.16
294.12	1794.02
294.33	1740.77
294.55	1742.82
294.76	1814.50
294.97	1763.30
295.19	1763.30
295.40	1667.05
295.62	1714.15
295.83	1730.53
296.05	1609.70
296.26	1679.33
296.48	1642.47
296.69	1802.21
296.90	1613.80
297.12	1677.29
297.33	1714.15
297.55	1693.67
297.76	1689.57
297.98	1775.59
298.19	1738.73
298.41	1697.77
298.62	1652.71
298.83	1724.39
299.05	1757.16
299.26	1662.95
299.48	1615.85
299.69	1787.88
299.90	1710.05
300.12	1611.75
300.33	1736.68
300.55	1646.57
300.76	1802.21
300.98	1665.00
301.19	1648.61
301.40	1687.53
301.62	1738.73
301.83	1697.77
302.05	1755.11
302.26	1687.53
302.47	1576.94
302.69	1599.46
302.90	1617.90
303.12	1613.80
303.33	1699.81
303.54	1859.56
303.76	1730.53
303.97	1724.39
304.19	1738.73
304.40	1603.56
304.61	1619.94
304.83	1740.77
305.04	1742.82
305.26	1693.67
305.47	1621.99
305.68	1693.67
305.90	1642.47
306.11	1769.44
306.33	1724.39
306.54	1652.71
306.75	1640.42
306.97	1587.18
307.18	1638.38
307.39	1687.53
307.61	1720.29
307.82	1701.86
308.04	1701.86
308.25	1673.19
308.46	1679.33
308.68	1675.24
308.89	1699.81
309.10	1718.25
309.32	1746.92
309.53	1748.97
309.74	1718.25
309.96	1712.10
310.17	1740.77
310.39	1693.67
310.60	1671.14
310.81	1699.81
311.03	1644.52
311.24	1757.16
311.45	1710.05
311.67	1783.78
311.88	1703.91
312.09	1574.89
312.31	1656.81
312.52	1624.04
312.73	1728.49
312.95	1630.18
313.16	1609.70
313.37	1697.77
313.59	1730.53
313.80	1742.82
314.01	1794.02
314.23	1675.24
314.44	1636.33
314.65	1642.47
314.87	1720.29
315.08	1710.05
315.29	1624.04
315.51	1671.14
315.72	1658.85
315.93	1757.16
316.15	1740.77
316.36	1722.34
316.57	1656.81
316.79	1734.63
317.00	1734.63
317.21	1734.63
317.43	1673.19
317.64	1679.33
317.85	1677.29
318.07	1650.66
318.28	1683.43
318.49	1728.49
318.70	1894.37
318.92	1773.54
319.13	1800.16
319.34	1800.16
319.56	1810.40
319.77	1781.73
319.98	1755.11
320.20	1771.49
320.41	1771.49
320.62	1746.92
320.83	1673.19
321.05	1853.41
321.26	1679.33
321.47	1710.05
321.69	1738.73
321.90	1632.23
322.11	1675.24
322.32	1720.29
322.54	1804.26
322.75	1761.25
322.96	1824.74
323.18	1601.51
323.39	1601.51
323.60	1615.85
323.81	1716.20
324.03	1611.75
324.24	1724.39
324.45	1712.10
324.66	1656.81
324.88	1759.21
325.09	1732.58
325.30	1687.53
325.52	1765.35
325.73	1769.44
325.94	1701.86
326.15	1581.03
326.37	1685.48
326.58	1812.45
326.79	1794.02
327.00	1687.53
327.22	1701.86
327.43	1701.86
327.64	1689.57
327.85	1710.05
328.07	1722.34
328.28	1802.21
328.49	1710.05
328.70	1695.72
328.92	1660.90
329.13	1662.95
329.34	1728.49
329.55	1822.69
329.76	1681.38
329.98	1628.14
330.19	1820.64
330.40	1748.97
330.61	1730.53
330.83	1736.68
331.04	1679.33
331.25	1726.44
331.46	1802.21
331.68	1603.56
331.89	1794.02
332.10	1724.39
332.31	1679.33
332.52	1714.15
332.74	1834.98
332.95	1624.04
333.16	1675.24
333.37	1755.11
333.58	1638.38
333.80	1724.39
334.01	1578.98
334.22	1763.30
334.43	1632.23
334.64	1685.48
334.86	1607.66
335.07	1671.14
335.28	1751.01
335.49	1665.00
335.70	1677.29
335.92	1716.20
336.13	1794.02
336.34	1738.73
336.55	1697.77
336.76	1722.34
336.98	1550.31
337.19	1751.01
337.40	1800.16
337.61	1753.06
337.82	1722.34
338.04	1796.07
338.25	1648.61
338.46	1726.44
338.67	1677.29
338.88	1648.61
339.09	1652.71
339.31	1576.94
339.52	1646.57
339.73	1603.56
339.94	1781.73
340.15	1716.20
340.36	1730.53
340.58	1714.15
340.79	1597.42
341.00	1712.10
341.21	1595.37
341.42	1736.68
341.63	1611.75
341.85	1720.29
342.06	1771.49
342.27	1691.62
342.48	1751.01
342.69	1644.52
342.90	1667.05
343.12	1722.34
343.33	1665.00
343.54	1734.63
343.75	1822.69
343.96	1697.77
344.17	1624.04
344.38	1630.18
344.60	1640.42
344.81	1724.39
345.02	1791.97
345.23	1787.88
345.44	1832.93
345.65	1785.83
345.86	1712.10
346.07	1654.76
346.29	1636.33
346.50	1759.21
346.71	1693.67
346.92	1814.50
347.13	1783.78
347.34	1683.43
347.55	1681.38
347.76	1667.05
347.98	1587.18
348.19	1658.85
348.40	1757.16
348.61	1640.42
348.82	1779.68
349.03	1708.01
349.24	1654.76
349.45	1755.11
349.66	1562.60
349.88	1689.57
350.09	1640.42
350.30	1714.15
350.51	1841.12
350.72	1796.07
350.93	1714.15
351.14	1669.09
351.35	1624.04
351.56	1648.61
351.77	1665.00
351.99	1703.91
352.20	1777.64
352.41	1742.82
352.62	1619.94
352.83	1658.85
353.04	1671.14
353.25	1660.90
353.46	1740.77
353.67	1751.01
353.88	1597.42
354.09	1722.34
354.30	1699.81
354.52	1656.81
354.73	1615.85
354.94	1626.09
355.15	1617.90
355.36	1839.08
355.57	1730.53
355.78	1771.49
355.99	1650.66
356.20	1605.61
356.41	1802.21
356.62	1728.49
356.83	1710.05
357.04	1789.92
357.25	1615.85
357.46	1691.62
357.68	1617.90
357.89	1607.66
358.10	1701.86
358.31	1673.19
358.52	1722.34
358.73	1646.57
358.94	1593.32
359.15	1675.24
359.36	1665.00
359.57	1689.57
359.78	1687.53
359.99	1714.15
360.20	1632.23
360.41	1671.14
360.62	1726.44
360.83	1665.00
361.04	1748.97
361.25	1763.30
361.46	1800.16
361.67	1712.10
361.88	1730.53
362.09	1673.19
362.30	1708.01
362.51	1636.33
362.72	1746.92
362.93	1775.59
363.14	1722.34
363.35	1728.49
363.56	1648.61
363.78	1759.21
363.99	1787.88
364.20	1691.62
364.41	1763.30
364.62	1765.35
364.83	1740.77
365.04	1656.81
365.25	1714.15
365.46	1861.60
365.67	1726.44
365.88	1605.61
366.09	1744.87
366.30	1660.90
366.51	1693.67
366.72	1722.34
366.93	1683.43
367.14	1769.44
367.35	1748.97
367.56	1720.29
367.77	1771.49
367.98	1685.48
368.18	1785.83
368.39	1699.81
368.60	1652.71
368.81	1685.48
369.02	1689.57
369.23	1677.29
369.44	1630.18
369.65	1693.67
369.86	1757.16
370.07	1738.73
370.28	1636.33
370.49	1773.54
370.70	1767.40
370.91	1624.04
371.12	1617.90
371.33	1759.21
371.54	1665.00
371.75	1722.34
371.96	1599.46
372.17	1697.77
372.38	1718.25
372.59	1746.92
372.80	1652.71
373.01	1624.04
373.22	1718.25
373.43	1636.33
373.64	1624.04
373.85	1787.88
374.06	1826.79
374.26	1712.10
374.47	1685.48
374.68	1777.64
374.89	1720.29
375.10	1789.92
375.31	1685.48
375.52	1701.86
375.73	1630.18
375.94	1601.51
376.15	1777.64
376.36	1599.46
376.57	1677.29
376.78	1658.85
376.99	1755.11
377.20	1738.73
377.40	1656.81
377.61	1834.98
377.82	1689.57
378.03	1802.21
378.24	1732.58
378.45	1691.62
378.66	1685.48
378.87	1667.05
379.08	1624.04
379.29	1644.52
379.50	1740.77
379.71	1738.73
379.91	1724.39
380.12	1667.05
380.33	1681.38
380.54	1724.39
380.75	1658.85
380.96	1597.42
381.17	1859.56
381.38	1712.10
381.59	1726.44
381.80	1693.67
382.00	1894.37
382.21	1810.40
382.42	1775.59
382.63	1931.23
382.84	1771.49
383.05	1865.70
383.26	1808.36
383.47	1705.96
383.68	1775.59
383.88	1798.12
384.09	1724.39
384.30	1837.03
384.51	1800.16
384.72	1724.39
384.93	1652.71
385.14	1724.39
385.35	1677.29
385.55	1660.90
385.76	1763.30
385.97	1691.62
386.18	1650.66
386.39	1753.06
386.60	1640.42
386.81	1712.10
387.02	1638.38
387.22	1619.94
387.43	1789.92
387.64	1857.51
387.85	1837.03
388.06	2242.53
388.27	4239.30
388.48	6973.33
388.68	8333.18
388.89	9789.29
389.10	9867.11
389.31	8736.63
389.52	7653.26
389.73	6893.46
389.93	6369.18
390.14	6045.60
390.35	5177.26
390.56	4517.82
390.77	3831.75
390.98	2983.89
391.18	2564.06
391.39	2093.02
391.60	1822.69
391.81	1820.64
392.02	1695.72
392.23	1888.23
392.43	1681.38
392.64	1810.40
392.85	1656.81
393.06	1847.27
393.27	1710.05
393.47	1621.99
393.68	1656.81
393.89	1728.49
394.10	1781.73
394.31	1716.20
394.52	1638.38
394.72	1660.90
394.93	1853.41
395.14	1638.38
395.35	1767.40
395.56	1665.00
395.76	1726.44
395.97	1720.29
396.18	1900.52
396.39	1771.49
396.60	2050.02
396.80	1837.03
397.01	1888.23
397.22	1820.64
397.43	1861.60
397.64	1679.33
397.84	1798.12
398.05	1929.19
398.26	1665.00
398.47	1787.88
398.67	1824.74
398.88	1775.59
399.09	1744.87
399.30	1705.96
399.51	1736.68
399.71	1660.90
399.92	1767.40
400.13	1644.52
400.34	1624.04
400.54	1746.92
400.75	1765.35
400.96	1765.35
401.17	1753.06
401.37	1798.12
401.58	1681.38
401.79	1673.19
402.00	1839.08
402.21	1949.67
402.41	1900.52
402.62	2021.35
402.83	1920.99
403.04	1951.71
403.24	1980.39
403.45	1826.79
403.66	1943.52
403.87	1935.33
404.07	1853.41
404.28	1896.42
404.49	1882.08
404.70	1832.93
404.90	1763.30
405.11	1722.34
405.32	1728.49
405.52	1605.61
405.73	1636.33
405.94	1675.24
406.15	1636.33
406.35	1761.25
406.56	1693.67
406.77	1662.95
406.98	1665.00
407.18	1669.09
407.39	1742.82
407.60	1718.25
407.80	1691.62
408.01	1669.09
408.22	1742.82
408.43	1650.66
408.63	1714.15
408.84	1677.29
409.05	1691.62
409.25	1652.71
409.46	1736.68
409.67	1697.77
409.88	1648.61
410.08	1681.38
410.29	1712.10
410.50	1689.57
410.70	1665.00
410.91	1595.37
411.12	1708.01
411.32	1720.29
411.53	1705.96
411.74	1761.25
411.95	1755.11
412.15	1720.29
412.36	1757.16
412.57	1697.77
412.77	1812.45
412.98	1785.83
413.19	1658.85
413.39	1796.07
413.60	1787.88
413.81	1794.02
414.01	1650.66
414.22	1724.39
414.43	1773.54
414.63	1669.09
414.84	1695.72
415.05	1775.59
415.25	1728.49
415.46	1671.14
415.67	1714.15
415.87	1724.39
416.08	1628.14
416.29	1685.48
416.49	1761.25
416.70	1599.46
416.91	1734.63
417.11	1691.62
417.32	1794.02
417.53	1751.01
417.73	1722.34
417.94	1677.29
418.15	1730.53
418.35	1656.81
418.56	1779.68
418.77	1837.03
418.97	1689.57
419.18	1689.57
419.38	1642.47
419.59	1708.01
419.80	1767.40
420.00	1615.85
420.21	1697.77
420.42	1759.21
420.62	1685.48
420.83	1679.33
421.04	1669.09
421.24	1691.62
421.45	1738.73
421.65	1693.67
421.86	1759.21
422.07	1687.53
422.27	1712.10
422.48	1718.25
422.69	1708.01
422.89	1728.49
423.10	1683.43
423.30	1638.38
423.51	1699.81
423.72	1787.88
423.92	1728.49
424.13	1691.62
424.33	1722.34
424.54	1703.91
424.75	1705.96
424.95	1789.92
425.16	1712.10
425.36	1634.28
425.57	1687.53
425.78	1718.25
425.98	1675.24
426.19	1650.66
426.39	1671.14
426.60	1697.77
426.81	1824.74
427.01	1708.01
427.22	1765.35
427.42	1681.38
427.63	1669.09
427.83	1826.79
428.04	1755.11
428.25	1802.21
428.45	1789.92
428.66	1748.97
428.86	1648.61
429.07	1673.19
429.28	1646.57
429.48	1652.71
429.69	1619.94
429.89	1724.39
430.10	1632.23
430.30	1845.22
430.51	1779.68
430.71	1660.90
430.92	1601.51
431.13	1683.43
431.33	1687.53
431.54	1714.15
431.74	1708.01
431.95	1865.70
432.15	1716.20
432.36	1861.60
432.56	1740.77
432.77	1820.64
432.98	1832.93
433.18	1748.97
433.39	1783.78
433.59	1703.91
433.80	1851.36
434.00	1869.80
434.21	1660.90
434.41	1619.94
434.62	1845.22
434.82	1624.04
435.03	1607.66
435.23	1701.86
435.44	1708.01
435.64	1763.30
435.85	1742.82
436.06	1724.39
436.26	1765.35
436.47	1732.58
436.67	1685.48
436.88	1654.76
437.08	1775.59
437.29	1789.92
437.49	1681.38
437.70	1677.29
437.90	1718.25
438.11	1841.12
438.31	1726.44
438.52	1845.22
438.72	1847.27
438.93	1820.64
439.13	1781.73
439.34	1847.27
439.54	1738.73
439.75	1820.64
439.95	1751.01
440.16	1665.00
440.36	1628.14
440.57	1771.49
440.77	1751.01
440.98	1779.68
441.18	1746.92
441.39	1763.30
441.59	1658.85
441.80	1857.51
442.00	1720.29
442.21	1808.36
442.41	1669.09
442.62	1759.21
442.82	1621.99
443.02	1654.76
443.23	1769.44
443.43	1667.05
443.64	1783.78
443.84	1660.90
444.05	1849.32
444.25	1710.05
444.46	1642.47
444.66	1757.16
444.87	1820.64
445.07	1640.42
445.28	1687.53
445.48	1757.16
445.69	1765.35
445.89	1853.41
446.09	1765.35
446.30	2054.11
446.50	2668.50
446.71	3753.93
446.91	4259.78
447.12	4726.71
447.32	4851.64
447.53	4429.76
447.73	3891.14
447.93	3555.27
448.14	3284.94
448.34	3110.86
448.55	2969.55
448.75	2865.11
448.96	2709.46
449.16	2502.62
449.36	2246.62
449.57	2062.30
449.77	1880.04
449.98	1812.45
450.18	1775.59
450.39	1751.01
450.59	1722.34
450.79	1765.35
451.00	1697.77
451.20	1826.79
451.41	1673.19
451.61	1753.06
451.81	1718.25
452.02	1714.15
452.22	1718.25
452.43	1630.18
452.63	1720.29
