SpectraSuite Data File
++++++++++++++++++++++++++++++++++++
Date: Mon Jun 06 12:41:57 CEST 2016
User: root
Dark Spectrum Present: No
Reference Spectrum Present: No
Number of Sampled Component Spectra: 1
Spectrometers: USB4C02835
Integration Time (usec): 100000 (USB4C02835)
Spectra Averaged: 1 (USB4C02835)
Boxcar Smoothing: 0 (USB4C02835)
Correct for Electrical Dark: No (USB4C02835)
Strobe/Lamp Enabled: No (USB4C02835)
Correct for Detector Non-linearity: No (USB4C02835)
Correct for Stray Light: No (USB4C02835)
Number of Pixels in Processed Spectrum: 3648
>>>>>Begin Processed Spectral Data<<<<<
177.47	1423.34
177.69	1423.34
177.91	1423.34
178.13	1511.40
178.36	1476.59
178.58	1587.18
178.80	1732.58
179.02	1605.61
179.24	1648.61
179.46	1785.83
179.68	1791.97
179.90	1665.00
180.13	1738.73
180.35	1701.86
180.57	1619.94
180.79	1689.57
181.01	1701.86
181.23	1761.25
181.45	1683.43
181.67	1718.25
181.90	1693.67
182.12	1677.29
182.34	1585.13
182.56	1716.20
182.78	1757.16
183.00	1669.09
183.22	1748.97
183.44	1574.89
183.66	1865.70
183.89	1701.86
184.11	1665.00
184.33	1798.12
184.55	1726.44
184.77	1685.48
184.99	1710.05
185.21	1742.82
185.43	1812.45
185.65	1644.52
185.87	1724.39
186.10	1791.97
186.32	1894.37
186.54	1689.57
186.76	1757.16
186.98	1742.82
187.20	1714.15
187.42	1675.24
187.64	1710.05
187.86	1658.85
188.08	1746.92
188.30	1683.43
188.52	1701.86
188.75	1705.96
188.97	1714.15
189.19	1611.75
189.41	1689.57
189.63	1740.77
189.85	1646.57
190.07	1587.18
190.29	1599.46
190.51	1695.72
190.73	1617.90
190.95	1781.73
191.17	1640.42
191.39	1578.98
191.61	1689.57
191.84	1632.23
192.06	1705.96
192.28	1566.70
192.50	1822.69
192.72	1667.05
192.94	1685.48
193.16	1716.20
193.38	1658.85
193.60	1697.77
193.82	1705.96
194.04	1714.15
194.26	1697.77
194.48	1677.29
194.70	1671.14
194.92	1656.81
195.14	1757.16
195.36	1665.00
195.58	1697.77
195.80	1644.52
196.02	1677.29
196.24	1722.34
196.46	1763.30
196.69	1677.29
196.91	1839.08
197.13	1708.01
197.35	1671.14
197.57	1814.50
197.79	1796.07
198.01	1802.21
198.23	1710.05
198.45	1689.57
198.67	1621.99
198.89	1718.25
199.11	1665.00
199.33	1669.09
199.55	1535.98
199.77	1705.96
199.99	1714.15
200.21	1740.77
200.43	1720.29
200.65	1648.61
200.87	1554.41
201.09	1683.43
201.31	1603.56
201.53	1746.92
201.75	1708.01
201.97	1716.20
202.19	1656.81
202.41	1718.25
202.63	1896.42
202.85	1755.11
203.07	1658.85
203.29	1716.20
203.51	1667.05
203.73	1607.66
203.95	1898.47
204.17	1689.57
204.39	1738.73
204.61	1636.33
204.83	1728.49
205.05	1701.86
205.27	1787.88
205.49	1775.59
205.71	1697.77
205.93	1624.04
206.15	1699.81
206.37	1699.81
206.59	1699.81
206.81	1673.19
207.03	1621.99
207.25	1656.81
207.47	1685.48
207.69	1626.09
207.91	1818.60
208.13	1718.25
208.34	1697.77
208.56	1677.29
208.78	1701.86
209.00	1621.99
209.22	1665.00
209.44	1693.67
209.66	1677.29
209.88	1697.77
210.10	1662.95
210.32	1718.25
210.54	1773.54
210.76	1718.25
210.98	1730.53
211.20	1599.46
211.42	1640.42
211.64	1716.20
211.86	1746.92
212.08	1705.96
212.30	1716.20
212.52	1679.33
212.74	1705.96
212.96	1701.86
213.17	1738.73
213.39	1716.20
213.61	1722.34
213.83	1683.43
214.05	1716.20
214.27	1708.01
214.49	1691.62
214.71	1689.57
214.93	1736.68
215.15	1726.44
215.37	1691.62
215.59	1679.33
215.81	1689.57
216.03	1738.73
216.24	1728.49
216.46	1679.33
216.68	1689.57
216.90	1751.01
217.12	1794.02
217.34	1722.34
217.56	1742.82
217.78	1796.07
218.00	1673.19
218.22	1738.73
218.44	1681.38
218.66	1697.77
218.87	1785.83
219.09	1652.71
219.31	1751.01
219.53	1669.09
219.75	1675.24
219.97	1730.53
220.19	1652.71
220.41	1677.29
220.63	1769.44
220.85	1703.91
221.06	1607.66
221.28	1771.49
221.50	1726.44
221.72	1677.29
221.94	1748.97
222.16	1695.72
222.38	1828.84
222.60	1781.73
222.82	1650.66
223.03	1615.85
223.25	1638.38
223.47	1730.53
223.69	1855.46
223.91	1701.86
224.13	1697.77
224.35	1632.23
224.57	1742.82
224.78	1689.57
225.00	1701.86
225.22	1726.44
225.44	1701.86
225.66	1701.86
225.88	1699.81
226.10	1712.10
226.32	1714.15
226.53	1853.41
226.75	1621.99
226.97	1656.81
227.19	1656.81
227.41	1685.48
227.63	1667.05
227.85	1658.85
228.06	1740.77
228.28	1656.81
228.50	1757.16
228.72	1677.29
228.94	1681.38
229.16	1669.09
229.37	1677.29
229.59	1693.67
229.81	1675.24
230.03	1634.28
230.25	1630.18
230.47	1650.66
230.69	1615.85
230.90	1748.97
231.12	1632.23
231.34	1665.00
231.56	1810.40
231.78	1689.57
232.00	1843.17
232.21	1691.62
232.43	1648.61
232.65	1578.98
232.87	1693.67
233.09	1669.09
233.30	1648.61
233.52	1775.59
233.74	1703.91
233.96	1701.86
234.18	1679.33
234.40	1738.73
234.61	1808.36
234.83	1499.11
235.05	1638.38
235.27	1834.98
235.49	1742.82
235.70	1744.87
235.92	1757.16
236.14	1689.57
236.36	1736.68
236.58	1644.52
236.79	1779.68
237.01	1673.19
237.23	1724.39
237.45	1865.70
237.67	1691.62
237.88	1716.20
238.10	1763.30
238.32	1724.39
238.54	1703.91
238.76	1716.20
238.97	1607.66
239.19	1705.96
239.41	1701.86
239.63	1734.63
239.85	1726.44
240.06	1732.58
240.28	1642.47
240.50	1730.53
240.72	1624.04
240.93	1650.66
241.15	1767.40
241.37	1656.81
241.59	1763.30
241.81	1732.58
242.02	1677.29
242.24	1720.29
242.46	1691.62
242.68	1677.29
242.89	1751.01
243.11	1781.73
243.33	1722.34
243.55	1662.95
243.76	1724.39
243.98	1705.96
244.20	1748.97
244.42	1648.61
244.64	1734.63
244.85	1728.49
245.07	1722.34
245.29	1828.84
245.51	1755.11
245.72	1656.81
245.94	1769.44
246.16	1755.11
246.38	1757.16
246.59	1724.39
246.81	1681.38
247.03	1683.43
247.24	1646.57
247.46	1712.10
247.68	1722.34
247.90	1687.53
248.11	1679.33
248.33	1658.85
248.55	1644.52
248.77	1734.63
248.98	1730.53
249.20	1740.77
249.42	1716.20
249.64	1667.05
249.85	1710.05
250.07	1595.37
250.29	1681.38
250.50	1728.49
250.72	1677.29
250.94	1671.14
251.16	1882.08
251.37	1710.05
251.59	1705.96
251.81	1650.66
252.02	1742.82
252.24	1617.90
252.46	1822.69
252.68	1673.19
252.89	1771.49
253.11	1564.65
253.33	1802.21
253.54	1775.59
253.76	1572.84
253.98	1695.72
254.20	1656.81
254.41	1630.18
254.63	1673.19
254.85	1628.14
255.06	1708.01
255.28	1742.82
255.50	1771.49
255.71	1650.66
255.93	1607.66
256.15	1683.43
256.36	1738.73
256.58	1656.81
256.80	1791.97
257.02	1689.57
257.23	1636.33
257.45	1656.81
257.67	1757.16
257.88	1607.66
258.10	1714.15
258.32	1705.96
258.53	1654.76
258.75	1701.86
258.97	1667.05
259.18	1699.81
259.40	1736.68
259.62	1804.26
259.83	1738.73
260.05	1814.50
260.27	1990.63
260.48	1730.53
260.70	1710.05
260.92	1685.48
261.13	1751.01
261.35	1636.33
261.57	1773.54
261.78	1640.42
262.00	1585.13
262.22	1751.01
262.43	1677.29
262.65	1712.10
262.86	1701.86
263.08	1744.87
263.30	1675.24
263.51	1677.29
263.73	1642.47
263.95	1736.68
264.16	1632.23
264.38	1710.05
264.60	1742.82
264.81	1685.48
265.03	1708.01
265.25	1773.54
265.46	1712.10
265.68	1779.68
265.89	1740.77
266.11	1531.88
266.33	1716.20
266.54	1791.97
266.76	1736.68
266.98	1710.05
267.19	1755.11
267.41	1730.53
267.62	1681.38
267.84	1597.42
268.06	1683.43
268.27	1685.48
268.49	1701.86
268.70	1710.05
268.92	1681.38
269.14	1654.76
269.35	1677.29
269.57	1650.66
269.79	1794.02
270.00	1589.22
270.22	1740.77
270.43	1634.28
270.65	1589.22
270.87	1673.19
271.08	1703.91
271.30	1701.86
271.51	1650.66
271.73	1646.57
271.95	1718.25
272.16	1689.57
272.38	1718.25
272.59	1708.01
272.81	1677.29
273.02	1683.43
273.24	1773.54
273.46	1742.82
273.67	1728.49
273.89	1660.90
274.10	1609.70
274.32	1738.73
274.54	1695.72
274.75	1714.15
274.97	1656.81
275.18	1699.81
275.40	1798.12
275.61	1712.10
275.83	1691.62
276.05	1652.71
276.26	1681.38
276.48	1734.63
276.69	1685.48
276.91	1611.75
277.12	1798.12
277.34	1796.07
277.55	1765.35
277.77	1787.88
277.99	1650.66
278.20	1714.15
278.42	1685.48
278.63	1650.66
278.85	1724.39
279.06	1705.96
279.28	1712.10
279.49	1740.77
279.71	1691.62
279.93	1677.29
280.14	1691.62
280.36	1611.75
280.57	1740.77
280.79	1757.16
281.00	1718.25
281.22	1689.57
281.43	1765.35
281.65	1576.94
281.86	1619.94
282.08	1781.73
282.29	1775.59
282.51	1544.17
282.73	1642.47
282.94	1630.18
283.16	1648.61
283.37	1849.32
283.59	1708.01
283.80	1804.26
284.02	1665.00
284.23	1703.91
284.45	1650.66
284.66	1587.18
284.88	1718.25
285.09	1748.97
285.31	1697.77
285.52	1669.09
285.74	1597.42
285.95	1695.72
286.17	1705.96
286.38	1724.39
286.60	1644.52
286.81	1632.23
287.03	1656.81
287.24	1689.57
287.46	1722.34
287.67	1679.33
287.89	1826.79
288.10	1691.62
288.32	1714.15
288.53	1808.36
288.75	1687.53
288.96	1710.05
289.18	1638.38
289.39	1644.52
289.61	1732.58
289.82	1847.27
290.04	1714.15
290.25	1587.18
290.47	1650.66
290.68	1673.19
290.90	1718.25
291.11	1705.96
291.33	1759.21
291.54	1665.00
291.76	1609.70
291.97	1679.33
292.18	1679.33
292.40	1597.42
292.61	1667.05
292.83	1779.68
293.04	1718.25
293.26	1800.16
293.47	1658.85
293.69	1697.77
293.90	1744.87
294.12	1736.68
294.33	1640.42
294.55	1703.91
294.76	1738.73
294.97	1759.21
295.19	1820.64
295.40	1652.71
295.62	1728.49
295.83	1683.43
296.05	1675.24
296.26	1779.68
296.48	1687.53
296.69	1701.86
296.90	1779.68
297.12	1742.82
297.33	1812.45
297.55	1636.33
297.76	1705.96
297.98	1724.39
298.19	1767.40
298.41	1740.77
298.62	1601.51
298.83	1890.28
299.05	1691.62
299.26	1701.86
299.48	1652.71
299.69	1736.68
299.90	1677.29
300.12	1683.43
300.33	1650.66
300.55	1730.53
300.76	1716.20
300.98	1621.99
301.19	1779.68
301.40	1660.90
301.62	1718.25
301.83	1734.63
302.05	1656.81
302.26	1644.52
302.47	1695.72
302.69	1632.23
302.90	1718.25
303.12	1587.18
303.33	1751.01
303.54	1761.25
303.76	1740.77
303.97	1720.29
304.19	1804.26
304.40	1566.70
304.61	1728.49
304.83	1822.69
305.04	1742.82
305.26	1734.63
305.47	1705.96
305.68	1632.23
305.90	1607.66
306.11	1710.05
306.33	1595.37
306.54	1636.33
306.75	1734.63
306.97	1591.27
307.18	1697.77
307.39	1642.47
307.61	1763.30
307.82	1658.85
308.04	1724.39
308.25	1665.00
308.46	1716.20
308.68	1716.20
308.89	1740.77
309.10	1763.30
309.32	1736.68
309.53	1736.68
309.74	1665.00
309.96	1734.63
310.17	1744.87
310.39	1621.99
310.60	1710.05
310.81	1679.33
311.03	1638.38
311.24	1740.77
311.45	1644.52
311.67	1744.87
311.88	1691.62
312.09	1634.28
312.31	1687.53
312.52	1705.96
312.73	1695.72
312.95	1605.61
313.16	1644.52
313.37	1824.74
313.59	1693.67
313.80	1728.49
314.01	1832.93
314.23	1634.28
314.44	1712.10
314.65	1632.23
314.87	1677.29
315.08	1728.49
315.29	1652.71
315.51	1640.42
315.72	1628.14
315.93	1798.12
316.15	1769.44
316.36	1697.77
316.57	1648.61
316.79	1728.49
317.00	1642.47
317.21	1658.85
317.43	1689.57
317.64	1746.92
317.85	1732.58
318.07	1697.77
318.28	1656.81
318.49	1759.21
318.70	1927.14
318.92	1824.74
319.13	1814.50
319.34	1742.82
319.56	1785.83
319.77	1820.64
319.98	1812.45
320.20	1720.29
320.41	1785.83
320.62	1716.20
320.83	1710.05
321.05	1853.41
321.26	1705.96
321.47	1699.81
321.69	1779.68
321.90	1621.99
322.11	1722.34
322.32	1677.29
322.54	1697.77
322.75	1636.33
322.96	1873.89
323.18	1587.18
323.39	1656.81
323.60	1730.53
323.81	1775.59
324.03	1585.13
324.24	1732.58
324.45	1685.48
324.66	1644.52
324.88	1763.30
325.09	1796.07
325.30	1724.39
325.52	1736.68
325.73	1718.25
325.94	1689.57
326.15	1662.95
326.37	1669.09
326.58	1796.07
326.79	1755.11
327.00	1585.13
327.22	1767.40
327.43	1673.19
327.64	1630.18
327.85	1779.68
328.07	1697.77
328.28	1816.55
328.49	1642.47
328.70	1710.05
328.92	1689.57
329.13	1640.42
329.34	1753.06
329.55	1818.60
329.76	1777.64
329.98	1691.62
330.19	1800.16
330.40	1667.05
330.61	1673.19
330.83	1779.68
331.04	1654.76
331.25	1681.38
331.46	1689.57
331.68	1636.33
331.89	1699.81
332.10	1671.14
332.31	1566.70
332.52	1656.81
332.74	1738.73
332.95	1634.28
333.16	1662.95
333.37	1781.73
333.58	1603.56
333.80	1732.58
334.01	1626.09
334.22	1626.09
334.43	1632.23
334.64	1689.57
334.86	1687.53
335.07	1652.71
335.28	1746.92
335.49	1658.85
335.70	1744.87
335.92	1791.97
336.13	1824.74
336.34	1665.00
336.55	1724.39
336.76	1734.63
336.98	1619.94
337.19	1724.39
337.40	1867.75
337.61	1783.78
337.82	1636.33
338.04	1722.34
338.25	1638.38
338.46	1726.44
338.67	1767.40
338.88	1726.44
339.09	1607.66
339.31	1636.33
339.52	1644.52
339.73	1724.39
339.94	1669.09
340.15	1765.35
340.36	1757.16
340.58	1693.67
340.79	1650.66
341.00	1753.06
341.21	1677.29
341.42	1785.83
341.63	1689.57
341.85	1763.30
342.06	1718.25
342.27	1644.52
342.48	1667.05
342.69	1648.61
342.90	1738.73
343.12	1646.57
343.33	1732.58
343.54	1742.82
343.75	1822.69
343.96	1673.19
344.17	1648.61
344.38	1669.09
344.60	1681.38
344.81	1656.81
345.02	1636.33
345.23	1712.10
345.44	1769.44
345.65	1701.86
345.86	1785.83
346.07	1681.38
346.29	1705.96
346.50	1728.49
346.71	1734.63
346.92	1716.20
347.13	1816.55
347.34	1726.44
347.55	1724.39
347.76	1847.27
347.98	1587.18
348.19	1677.29
348.40	1736.68
348.61	1566.70
348.82	1808.36
349.03	1742.82
349.24	1619.94
349.45	1828.84
349.66	1480.68
349.88	1654.76
350.09	1650.66
350.30	1869.80
350.51	1642.47
350.72	1783.78
350.93	1810.40
351.14	1630.18
351.35	1751.01
351.56	1712.10
351.77	1679.33
351.99	1703.91
352.20	1804.26
352.41	1798.12
352.62	1568.74
352.83	1679.33
353.04	1681.38
353.25	1677.29
353.46	1755.11
353.67	1740.77
353.88	1515.50
354.09	1705.96
354.30	1701.86
354.52	1714.15
354.73	1615.85
354.94	1681.38
355.15	1708.01
355.36	1812.45
355.57	1621.99
355.78	1695.72
355.99	1644.52
356.20	1669.09
356.41	1708.01
356.62	1755.11
356.83	1689.57
357.04	1808.36
357.25	1630.18
357.46	1662.95
357.68	1560.55
357.89	1650.66
358.10	1626.09
358.31	1619.94
358.52	1646.57
358.73	1581.03
358.94	1591.27
359.15	1632.23
359.36	1746.92
359.57	1697.77
359.78	1624.04
359.99	1712.10
360.20	1732.58
360.41	1701.86
360.62	1708.01
360.83	1738.73
361.04	1712.10
361.25	1710.05
361.46	1728.49
361.67	1695.72
361.88	1753.06
362.09	1751.01
362.30	1640.42
362.51	1671.14
362.72	1722.34
362.93	1669.09
363.14	1742.82
363.35	1636.33
363.56	1691.62
363.78	1734.63
363.99	1775.59
364.20	1642.47
364.41	1724.39
364.62	1718.25
364.83	1732.58
365.04	1761.25
365.25	1613.80
365.46	1789.92
365.67	1726.44
365.88	1652.71
366.09	1591.27
366.30	1630.18
366.51	1640.42
366.72	1632.23
366.93	1658.85
367.14	1708.01
367.35	1775.59
367.56	1693.67
367.77	1730.53
367.98	1705.96
368.18	1710.05
368.39	1726.44
368.60	1679.33
368.81	1710.05
369.02	1714.15
369.23	1701.86
369.44	1607.66
369.65	1669.09
369.86	1767.40
370.07	1714.15
370.28	1632.23
370.49	1785.83
370.70	1708.01
370.91	1671.14
371.12	1628.14
371.33	1740.77
371.54	1710.05
371.75	1777.64
371.96	1615.85
372.17	1710.05
372.38	1699.81
372.59	1728.49
372.80	1634.28
373.01	1712.10
373.22	1681.38
373.43	1724.39
373.64	1689.57
373.85	1712.10
374.06	1812.45
374.26	1753.06
374.47	1669.09
374.68	1738.73
374.89	1628.14
375.10	1667.05
375.31	1755.11
375.52	1689.57
375.73	1722.34
375.94	1593.32
376.15	1783.78
376.36	1589.22
376.57	1728.49
376.78	1642.47
376.99	1724.39
377.20	1806.31
377.40	1718.25
377.61	1785.83
377.82	1626.09
378.03	1759.21
378.24	1665.00
378.45	1718.25
378.66	1794.02
378.87	1574.89
379.08	1656.81
379.29	1699.81
379.50	1781.73
379.71	1705.96
379.91	1730.53
380.12	1665.00
380.33	1673.19
380.54	1689.57
380.75	1759.21
380.96	1609.70
381.17	1755.11
381.38	1740.77
381.59	1716.20
381.80	1748.97
382.00	1863.65
382.21	1742.82
382.42	1810.40
382.63	1851.36
382.84	1800.16
383.05	1804.26
383.26	1732.58
383.47	1746.92
383.68	1812.45
383.88	1744.87
384.09	1730.53
384.30	1748.97
384.51	1757.16
384.72	1677.29
384.93	1660.90
385.14	1705.96
385.35	1689.57
385.55	1656.81
385.76	1740.77
385.97	1720.29
386.18	1630.18
386.39	1722.34
386.60	1728.49
386.81	1708.01
387.02	1660.90
387.22	1665.00
387.43	1808.36
387.64	1765.35
387.85	1849.32
388.06	2230.24
388.27	4294.59
388.48	6827.93
388.68	8144.77
388.89	9635.69
389.10	9662.32
389.31	8574.85
389.52	7448.46
389.73	6842.26
389.93	6330.27
390.14	5863.33
390.35	5117.87
390.56	4581.31
390.77	3745.73
390.98	3051.47
391.18	2559.96
391.39	2088.93
391.60	1845.22
391.81	1877.99
392.02	1697.77
392.23	1900.52
392.43	1753.06
392.64	1773.54
392.85	1724.39
393.06	1837.03
393.27	1718.25
393.47	1677.29
393.68	1753.06
393.89	1681.38
394.10	1845.22
394.31	1736.68
394.52	1712.10
394.72	1652.71
394.93	1755.11
395.14	1656.81
395.35	1665.00
395.56	1716.20
395.76	1740.77
395.97	1781.73
396.18	1843.17
396.39	1824.74
396.60	1968.10
396.80	1877.99
397.01	1839.08
397.22	1832.93
397.43	1820.64
397.64	1738.73
397.84	1798.12
398.05	1818.60
398.26	1785.83
398.47	1763.30
398.67	1779.68
398.88	1728.49
399.09	1654.76
399.30	1710.05
399.51	1730.53
399.71	1660.90
399.92	1701.86
400.13	1740.77
400.34	1605.61
400.54	1755.11
400.75	1650.66
400.96	1771.49
401.17	1748.97
401.37	1755.11
401.58	1671.14
401.79	1718.25
402.00	1902.56
402.21	2045.92
402.41	1935.33
402.62	1968.10
402.83	1984.48
403.04	2056.16
403.24	2039.78
403.45	1806.31
403.66	1941.47
403.87	1798.12
404.07	1947.62
404.28	1935.33
404.49	1863.65
404.70	1738.73
404.90	1748.97
405.11	1718.25
405.32	1722.34
405.52	1701.86
405.73	1673.19
405.94	1636.33
406.15	1693.67
406.35	1687.53
406.56	1720.29
406.77	1679.33
406.98	1734.63
407.18	1673.19
407.39	1796.07
407.60	1638.38
407.80	1724.39
408.01	1712.10
408.22	1779.68
408.43	1665.00
408.63	1796.07
408.84	1740.77
409.05	1798.12
409.25	1665.00
409.46	1691.62
409.67	1695.72
409.88	1679.33
410.08	1748.97
410.29	1693.67
410.50	1763.30
410.70	1751.01
410.91	1679.33
411.12	1722.34
411.32	1738.73
411.53	1656.81
411.74	1834.98
411.95	1777.64
412.15	1685.48
412.36	1724.39
412.57	1675.24
412.77	1714.15
412.98	1705.96
413.19	1691.62
413.39	1808.36
413.60	1785.83
413.81	1753.06
414.01	1728.49
414.22	1724.39
414.43	1755.11
414.63	1705.96
414.84	1751.01
415.05	1689.57
415.25	1705.96
415.46	1789.92
415.67	1652.71
415.87	1638.38
416.08	1732.58
416.29	1683.43
416.49	1779.68
416.70	1730.53
416.91	1738.73
417.11	1705.96
417.32	1705.96
417.53	1712.10
417.73	1783.78
417.94	1626.09
418.15	1740.77
418.35	1789.92
418.56	1722.34
418.77	1810.40
418.97	1673.19
419.18	1640.42
419.38	1570.79
419.59	1708.01
419.80	1843.17
420.00	1665.00
420.21	1771.49
420.42	1767.40
420.62	1781.73
420.83	1644.52
421.04	1695.72
421.24	1712.10
421.45	1767.40
421.65	1748.97
421.86	1730.53
422.07	1697.77
422.27	1724.39
422.48	1736.68
422.69	1636.33
422.89	1708.01
423.10	1673.19
423.30	1619.94
423.51	1705.96
423.72	1757.16
423.92	1759.21
424.13	1636.33
424.33	1675.24
424.54	1851.36
424.75	1703.91
424.95	1861.60
425.16	1761.25
425.36	1626.09
425.57	1683.43
425.78	1681.38
425.98	1771.49
426.19	1671.14
426.39	1599.46
426.60	1646.57
426.81	1732.58
427.01	1730.53
427.22	1599.46
427.42	1597.42
427.63	1607.66
427.83	1720.29
428.04	1820.64
428.25	1789.92
428.45	1734.63
428.66	1742.82
428.86	1697.77
429.07	1701.86
429.28	1701.86
429.48	1656.81
429.69	1665.00
429.89	1755.11
430.10	1656.81
430.30	1769.44
430.51	1757.16
430.71	1722.34
430.92	1687.53
431.13	1675.24
431.33	1775.59
431.54	1824.74
431.74	1708.01
431.95	1873.89
432.15	1685.48
432.36	1783.78
432.56	1775.59
432.77	1832.93
432.98	1761.25
433.18	1732.58
433.39	1701.86
433.59	1714.15
433.80	1775.59
434.00	1855.46
434.21	1695.72
434.41	1710.05
434.62	1771.49
434.82	1701.86
435.03	1701.86
435.23	1699.81
435.44	1632.23
435.64	1765.35
435.85	1718.25
436.06	1761.25
436.26	1710.05
436.47	1593.32
436.67	1761.25
436.88	1677.29
437.08	1726.44
437.29	1775.59
437.49	1800.16
437.70	1757.16
437.90	1677.29
438.11	1808.36
438.31	1828.84
438.52	1886.18
438.72	1849.32
438.93	1910.75
439.13	1740.77
439.34	1843.17
439.54	1632.23
439.75	1785.83
439.95	1828.84
440.16	1669.09
440.36	1714.15
440.57	1771.49
440.77	1693.67
440.98	1710.05
441.18	1714.15
441.39	1656.81
441.59	1644.52
441.80	1796.07
442.00	1771.49
442.21	1775.59
442.41	1691.62
442.62	1734.63
442.82	1722.34
443.02	1746.92
443.23	1759.21
443.43	1781.73
443.64	1689.57
443.84	1644.52
444.05	1869.80
444.25	1818.60
444.46	1673.19
444.66	1740.77
444.87	1847.27
445.07	1632.23
445.28	1705.96
445.48	1744.87
445.69	1814.50
445.89	1914.85
446.09	1748.97
446.30	2054.11
446.50	2617.30
446.71	3760.07
446.91	4353.98
447.12	4739.00
447.32	4859.83
447.53	4331.45
447.73	3686.34
447.93	3553.23
448.14	3330.00
448.34	3268.56
448.55	2899.92
448.75	2777.05
448.96	2592.73
449.16	2416.60
449.36	2248.67
449.57	2099.17
449.77	1884.13
449.98	1787.88
450.18	1787.88
450.39	1800.16
450.59	1796.07
450.79	1708.01
451.00	1705.96
451.20	1759.21
451.41	1701.86
451.61	1722.34
451.81	1763.30
452.02	1738.73
452.22	1705.96
452.43	1734.63
452.63	1695.72
