SpectraSuite Data File
++++++++++++++++++++++++++++++++++++
Date: Mon Jun 06 14:26:57 CEST 2016
User: root
Dark Spectrum Present: No
Reference Spectrum Present: No
Number of Sampled Component Spectra: 1
Spectrometers: USB4C02835
Integration Time (usec): 100000 (USB4C02835)
Spectra Averaged: 1 (USB4C02835)
Boxcar Smoothing: 0 (USB4C02835)
Correct for Electrical Dark: No (USB4C02835)
Strobe/Lamp Enabled: No (USB4C02835)
Correct for Detector Non-linearity: No (USB4C02835)
Correct for Stray Light: No (USB4C02835)
Number of Pixels in Processed Spectrum: 3648
>>>>>Begin Processed Spectral Data<<<<<
177.47	1462.25
177.69	1462.25
177.91	1462.25
178.13	1486.83
178.36	1515.50
178.58	1630.18
178.80	1718.25
179.02	1654.76
179.24	1650.66
179.46	1742.82
179.68	1697.77
179.90	1691.62
180.13	1705.96
180.35	1644.52
180.57	1689.57
180.79	1726.44
181.01	1724.39
181.23	1755.11
181.45	1796.07
181.67	1718.25
181.90	1820.64
182.12	1665.00
182.34	1570.79
182.56	1691.62
182.78	1769.44
183.00	1675.24
183.22	1744.87
183.44	1646.57
183.66	1822.69
183.89	1884.13
184.11	1789.92
184.33	1712.10
184.55	1755.11
184.77	1769.44
184.99	1665.00
185.21	1755.11
185.43	1904.61
185.65	1636.33
185.87	1794.02
186.10	1791.97
186.32	1814.50
186.54	1843.17
186.76	1779.68
186.98	1789.92
187.20	1718.25
187.42	1683.43
187.64	1705.96
187.86	1705.96
188.08	1742.82
188.30	1689.57
188.52	1681.38
188.75	1785.83
188.97	1773.54
189.19	1677.29
189.41	1667.05
189.63	1607.66
189.85	1654.76
190.07	1687.53
190.29	1585.13
190.51	1689.57
190.73	1595.37
190.95	1798.12
191.17	1687.53
191.39	1646.57
191.61	1755.11
191.84	1712.10
192.06	1687.53
192.28	1644.52
192.50	1896.42
192.72	1728.49
192.94	1677.29
193.16	1746.92
193.38	1740.77
193.60	1673.19
193.82	1640.42
194.04	1812.45
194.26	1714.15
194.48	1691.62
194.70	1646.57
194.92	1748.97
195.14	1771.49
195.36	1609.70
195.58	1718.25
195.80	1699.81
196.02	1734.63
196.24	1695.72
196.46	1718.25
196.69	1683.43
196.91	1898.47
197.13	1701.86
197.35	1658.85
197.57	1826.79
197.79	1798.12
198.01	1705.96
198.23	1748.97
198.45	1720.29
198.67	1693.67
198.89	1734.63
199.11	1718.25
199.33	1650.66
199.55	1527.78
199.77	1699.81
199.99	1687.53
200.21	1568.74
200.43	1710.05
200.65	1695.72
200.87	1650.66
201.09	1703.91
201.31	1660.90
201.53	1771.49
201.75	1693.67
201.97	1679.33
202.19	1744.87
202.41	1761.25
202.63	1787.88
202.85	1691.62
203.07	1708.01
203.29	1701.86
203.51	1589.22
203.73	1650.66
203.95	1791.97
204.17	1722.34
204.39	1722.34
204.61	1648.61
204.83	1695.72
205.05	1783.78
205.27	1773.54
205.49	1775.59
205.71	1650.66
205.93	1603.56
206.15	1681.38
206.37	1693.67
206.59	1724.39
206.81	1642.47
207.03	1621.99
207.25	1619.94
207.47	1726.44
207.69	1638.38
207.91	1755.11
208.13	1734.63
208.34	1703.91
208.56	1597.42
208.78	1738.73
209.00	1656.81
209.22	1603.56
209.44	1728.49
209.66	1699.81
209.88	1626.09
210.10	1693.67
210.32	1679.33
210.54	1796.07
210.76	1685.48
210.98	1716.20
211.20	1611.75
211.42	1761.25
211.64	1726.44
211.86	1665.00
212.08	1796.07
212.30	1689.57
212.52	1656.81
212.74	1632.23
212.96	1767.40
213.17	1765.35
213.39	1730.53
213.61	1791.97
213.83	1665.00
214.05	1689.57
214.27	1728.49
214.49	1665.00
214.71	1710.05
214.93	1785.83
215.15	1734.63
215.37	1767.40
215.59	1615.85
215.81	1701.86
216.03	1738.73
216.24	1689.57
216.46	1742.82
216.68	1720.29
216.90	1718.25
217.12	1675.24
217.34	1744.87
217.56	1732.58
217.78	1800.16
218.00	1697.77
218.22	1617.90
218.44	1724.39
218.66	1673.19
218.87	1814.50
219.09	1732.58
219.31	1722.34
219.53	1730.53
219.75	1656.81
219.97	1673.19
220.19	1693.67
220.41	1642.47
220.63	1781.73
220.85	1722.34
221.06	1738.73
221.28	1837.03
221.50	1763.30
221.72	1718.25
221.94	1728.49
222.16	1677.29
222.38	1742.82
222.60	1779.68
222.82	1697.77
223.03	1769.44
223.25	1585.13
223.47	1724.39
223.69	1896.42
223.91	1687.53
224.13	1751.01
224.35	1669.09
224.57	1763.30
224.78	1738.73
225.00	1716.20
225.22	1785.83
225.44	1609.70
225.66	1701.86
225.88	1701.86
226.10	1734.63
226.32	1734.63
226.53	1718.25
226.75	1652.71
226.97	1673.19
227.19	1626.09
227.41	1632.23
227.63	1718.25
227.85	1597.42
228.06	1705.96
228.28	1712.10
228.50	1759.21
228.72	1626.09
228.94	1720.29
229.16	1624.04
229.37	1648.61
229.59	1632.23
229.81	1777.64
230.03	1642.47
230.25	1638.38
230.47	1685.48
230.69	1636.33
230.90	1761.25
231.12	1710.05
231.34	1665.00
231.56	1789.92
231.78	1699.81
232.00	1712.10
232.21	1648.61
232.43	1656.81
232.65	1560.55
232.87	1673.19
233.09	1652.71
233.30	1656.81
233.52	1634.28
233.74	1779.68
233.96	1669.09
234.18	1689.57
234.40	1701.86
234.61	1839.08
234.83	1636.33
235.05	1517.54
235.27	1939.43
235.49	1755.11
235.70	1738.73
235.92	1759.21
236.14	1771.49
236.36	1906.66
236.58	1646.57
236.79	1779.68
237.01	1703.91
237.23	1681.38
237.45	1765.35
237.67	1677.29
237.88	1675.24
238.10	1830.88
238.32	1630.18
238.54	1695.72
238.76	1669.09
238.97	1648.61
239.19	1658.85
239.41	1785.83
239.63	1779.68
239.85	1714.15
240.06	1738.73
240.28	1628.14
240.50	1669.09
240.72	1689.57
240.93	1734.63
241.15	1820.64
241.37	1746.92
241.59	1814.50
241.81	1761.25
242.02	1730.53
242.24	1695.72
242.46	1791.97
242.68	1640.42
242.89	1650.66
243.11	1748.97
243.33	1679.33
243.55	1640.42
243.76	1732.58
243.98	1662.95
244.20	1763.30
244.42	1695.72
244.64	1773.54
244.85	1583.08
245.07	1681.38
245.29	1794.02
245.51	1775.59
245.72	1683.43
245.94	1699.81
246.16	1685.48
246.38	1810.40
246.59	1701.86
246.81	1669.09
247.03	1667.05
247.24	1662.95
247.46	1628.14
247.68	1748.97
247.90	1728.49
248.11	1732.58
248.33	1681.38
248.55	1720.29
248.77	1687.53
248.98	1734.63
249.20	1730.53
249.42	1751.01
249.64	1679.33
249.85	1660.90
250.07	1693.67
250.29	1755.11
250.50	1759.21
250.72	1609.70
250.94	1712.10
251.16	1849.32
251.37	1802.21
251.59	1695.72
251.81	1640.42
252.02	1755.11
252.24	1642.47
252.46	1708.01
252.68	1630.18
252.89	1689.57
253.11	1593.32
253.33	1763.30
253.54	1693.67
253.76	1695.72
253.98	1662.95
254.20	1673.19
254.41	1669.09
254.63	1685.48
254.85	1644.52
255.06	1701.86
255.28	1767.40
255.50	1634.28
255.71	1621.99
255.93	1693.67
256.15	1640.42
256.36	1812.45
256.58	1716.20
256.80	1738.73
257.02	1738.73
257.23	1679.33
257.45	1732.58
257.67	1787.88
257.88	1695.72
258.10	1720.29
258.32	1693.67
258.53	1685.48
258.75	1814.50
258.97	1716.20
259.18	1740.77
259.40	1693.67
259.62	1796.07
259.83	1816.55
260.05	1796.07
260.27	2013.15
260.48	1728.49
260.70	1689.57
260.92	1685.48
261.13	1710.05
261.35	1748.97
261.57	1726.44
261.78	1599.46
262.00	1640.42
262.22	1808.36
262.43	1703.91
262.65	1732.58
262.86	1703.91
263.08	1865.70
263.30	1734.63
263.51	1619.94
263.73	1710.05
263.95	1771.49
264.16	1689.57
264.38	1701.86
264.60	1693.67
264.81	1669.09
265.03	1781.73
265.25	1779.68
265.46	1736.68
265.68	1740.77
265.89	1705.96
266.11	1619.94
266.33	1673.19
266.54	1808.36
266.76	1771.49
266.98	1724.39
267.19	1814.50
267.41	1771.49
267.62	1683.43
267.84	1628.14
268.06	1699.81
268.27	1716.20
268.49	1701.86
268.70	1755.11
268.92	1699.81
269.14	1675.24
269.35	1626.09
269.57	1787.88
269.79	1751.01
270.00	1603.56
270.22	1763.30
270.43	1687.53
270.65	1574.89
270.87	1705.96
271.08	1812.45
271.30	1757.16
271.51	1705.96
271.73	1740.77
271.95	1761.25
272.16	1718.25
272.38	1671.14
272.59	1648.61
272.81	1681.38
273.02	1716.20
273.24	1687.53
273.46	1726.44
273.67	1613.80
273.89	1578.98
274.10	1740.77
274.32	1746.92
274.54	1726.44
274.75	1763.30
274.97	1656.81
275.18	1714.15
275.40	1787.88
275.61	1656.81
275.83	1671.14
276.05	1607.66
276.26	1673.19
276.48	1767.40
276.69	1640.42
276.91	1644.52
277.12	1755.11
277.34	1732.58
277.55	1730.53
277.77	1724.39
277.99	1710.05
278.20	1605.61
278.42	1640.42
278.63	1689.57
278.85	1591.27
279.06	1667.05
279.28	1722.34
279.49	1736.68
279.71	1804.26
279.93	1742.82
280.14	1693.67
280.36	1714.15
280.57	1757.16
280.79	1730.53
281.00	1624.04
281.22	1703.91
281.43	1748.97
281.65	1599.46
281.86	1662.95
282.08	1728.49
282.29	1796.07
282.51	1578.98
282.73	1646.57
282.94	1568.74
283.16	1757.16
283.37	1777.64
283.59	1667.05
283.80	1736.68
284.02	1726.44
284.23	1738.73
284.45	1619.94
284.66	1638.38
284.88	1718.25
285.09	1677.29
285.31	1726.44
285.52	1720.29
285.74	1644.52
285.95	1699.81
286.17	1730.53
286.38	1816.55
286.60	1697.77
286.81	1683.43
287.03	1671.14
287.24	1673.19
287.46	1742.82
287.67	1695.72
287.89	1751.01
288.10	1701.86
288.32	1697.77
288.53	1783.78
288.75	1609.70
288.96	1732.58
289.18	1710.05
289.39	1796.07
289.61	1726.44
289.82	1875.94
290.04	1759.21
290.25	1716.20
290.47	1705.96
290.68	1699.81
290.90	1800.16
291.11	1581.03
291.33	1734.63
291.54	1621.99
291.76	1730.53
291.97	1740.77
292.18	1740.77
292.40	1632.23
292.61	1671.14
292.83	1789.92
293.04	1744.87
293.26	1701.86
293.47	1654.76
293.69	1687.53
293.90	1642.47
294.12	1765.35
294.33	1699.81
294.55	1705.96
294.76	1824.74
294.97	1769.44
295.19	1800.16
295.40	1683.43
295.62	1738.73
295.83	1785.83
296.05	1734.63
296.26	1724.39
296.48	1654.76
296.69	1705.96
296.90	1617.90
297.12	1787.88
297.33	1718.25
297.55	1724.39
297.76	1726.44
297.98	1761.25
298.19	1687.53
298.41	1742.82
298.62	1681.38
298.83	1800.16
299.05	1755.11
299.26	1718.25
299.48	1675.24
299.69	1759.21
299.90	1669.09
300.12	1671.14
300.33	1757.16
300.55	1677.29
300.76	1769.44
300.98	1638.38
301.19	1681.38
301.40	1718.25
301.62	1691.62
301.83	1669.09
302.05	1677.29
302.26	1669.09
302.47	1681.38
302.69	1574.89
302.90	1646.57
303.12	1619.94
303.33	1675.24
303.54	1869.80
303.76	1734.63
303.97	1730.53
304.19	1779.68
304.40	1619.94
304.61	1679.33
304.83	1824.74
305.04	1783.78
305.26	1787.88
305.47	1660.90
305.68	1691.62
305.90	1595.37
306.11	1798.12
306.33	1736.68
306.54	1722.34
306.75	1636.33
306.97	1624.04
307.18	1597.42
307.39	1595.37
307.61	1751.01
307.82	1767.40
308.04	1746.92
308.25	1669.09
308.46	1732.58
308.68	1755.11
308.89	1636.33
309.10	1714.15
309.32	1728.49
309.53	1611.75
309.74	1708.01
309.96	1652.71
310.17	1740.77
310.39	1662.95
310.60	1716.20
310.81	1673.19
311.03	1607.66
311.24	1753.06
311.45	1720.29
311.67	1779.68
311.88	1730.53
312.09	1636.33
312.31	1689.57
312.52	1660.90
312.73	1708.01
312.95	1615.85
313.16	1673.19
313.37	1818.60
313.59	1779.68
313.80	1753.06
314.01	1796.07
314.23	1638.38
314.44	1722.34
314.65	1638.38
314.87	1708.01
315.08	1738.73
315.29	1654.76
315.51	1624.04
315.72	1665.00
315.93	1763.30
316.15	1806.31
316.36	1665.00
316.57	1640.42
316.79	1699.81
317.00	1720.29
317.21	1746.92
317.43	1609.70
317.64	1767.40
317.85	1685.48
318.07	1722.34
318.28	1644.52
318.49	1775.59
318.70	1931.23
318.92	1853.41
319.13	1839.08
319.34	1783.78
319.56	1779.68
319.77	1867.75
319.98	1773.54
320.20	1845.22
320.41	1765.35
320.62	1746.92
320.83	1675.24
321.05	1865.70
321.26	1785.83
321.47	1746.92
321.69	1744.87
321.90	1611.75
322.11	1705.96
322.32	1722.34
322.54	1779.68
322.75	1740.77
322.96	1744.87
323.18	1656.81
323.39	1599.46
323.60	1648.61
323.81	1751.01
324.03	1773.54
324.24	1679.33
324.45	1791.97
324.66	1705.96
324.88	1714.15
325.09	1826.79
325.30	1728.49
325.52	1691.62
325.73	1736.68
325.94	1652.71
326.15	1562.60
326.37	1720.29
326.58	1726.44
326.79	1802.21
327.00	1710.05
327.22	1751.01
327.43	1662.95
327.64	1648.61
327.85	1736.68
328.07	1736.68
328.28	1761.25
328.49	1648.61
328.70	1640.42
328.92	1718.25
329.13	1671.14
329.34	1689.57
329.55	1843.17
329.76	1781.73
329.98	1611.75
330.19	1791.97
330.40	1777.64
330.61	1753.06
330.83	1763.30
331.04	1617.90
331.25	1703.91
331.46	1705.96
331.68	1626.09
331.89	1771.49
332.10	1689.57
332.31	1691.62
332.52	1716.20
332.74	1759.21
332.95	1638.38
333.16	1656.81
333.37	1691.62
333.58	1697.77
333.80	1787.88
334.01	1609.70
334.22	1730.53
334.43	1673.19
334.64	1681.38
334.86	1693.67
335.07	1662.95
335.28	1708.01
335.49	1697.77
335.70	1679.33
335.92	1781.73
336.13	1800.16
336.34	1732.58
336.55	1701.86
336.76	1771.49
336.98	1599.46
337.19	1667.05
337.40	1771.49
337.61	1824.74
337.82	1630.18
338.04	1765.35
338.25	1576.94
338.46	1705.96
338.67	1607.66
338.88	1636.33
339.09	1617.90
339.31	1720.29
339.52	1675.24
339.73	1646.57
339.94	1699.81
340.15	1728.49
340.36	1699.81
340.58	1677.29
340.79	1708.01
341.00	1775.59
341.21	1673.19
341.42	1712.10
341.63	1734.63
341.85	1744.87
342.06	1732.58
342.27	1656.81
342.48	1767.40
342.69	1671.14
342.90	1726.44
343.12	1787.88
343.33	1652.71
343.54	1816.55
343.75	1781.73
343.96	1640.42
344.17	1624.04
344.38	1662.95
344.60	1599.46
344.81	1697.77
345.02	1648.61
345.23	1740.77
345.44	1738.73
345.65	1787.88
345.86	1699.81
346.07	1708.01
346.29	1652.71
346.50	1710.05
346.71	1720.29
346.92	1726.44
347.13	1820.64
347.34	1703.91
347.55	1697.77
347.76	1773.54
347.98	1581.03
348.19	1650.66
348.40	1814.50
348.61	1632.23
348.82	1777.64
349.03	1744.87
349.24	1718.25
349.45	1791.97
349.66	1574.89
349.88	1757.16
350.09	1746.92
350.30	1740.77
350.51	1755.11
350.72	1728.49
350.93	1691.62
351.14	1662.95
351.35	1714.15
351.56	1726.44
351.77	1697.77
351.99	1742.82
352.20	1730.53
352.41	1757.16
352.62	1667.05
352.83	1708.01
353.04	1660.90
353.25	1699.81
353.46	1699.81
353.67	1732.58
353.88	1587.18
354.09	1705.96
354.30	1648.61
354.52	1880.04
354.73	1746.92
354.94	1730.53
355.15	1675.24
355.36	1845.22
355.57	1673.19
355.78	1744.87
355.99	1619.94
356.20	1683.43
356.41	1705.96
356.62	1710.05
356.83	1701.86
357.04	1779.68
357.25	1589.22
357.46	1648.61
357.68	1640.42
357.89	1679.33
358.10	1683.43
358.31	1738.73
358.52	1728.49
358.73	1665.00
358.94	1701.86
359.15	1826.79
359.36	1777.64
359.57	1679.33
359.78	1679.33
359.99	1732.58
360.20	1642.47
360.41	1767.40
360.62	1769.44
360.83	1724.39
361.04	1671.14
361.25	1701.86
361.46	1826.79
361.67	1726.44
361.88	1712.10
362.09	1769.44
362.30	1777.64
362.51	1669.09
362.72	1697.77
362.93	1763.30
363.14	1730.53
363.35	1726.44
363.56	1744.87
363.78	1708.01
363.99	1730.53
364.20	1703.91
364.41	1736.68
364.62	1751.01
364.83	1740.77
365.04	1699.81
365.25	1699.81
365.46	1816.55
365.67	1642.47
365.88	1574.89
366.09	1714.15
366.30	1593.32
366.51	1718.25
366.72	1681.38
366.93	1687.53
367.14	1665.00
367.35	1755.11
367.56	1689.57
367.77	1779.68
367.98	1656.81
368.18	1769.44
368.39	1798.12
368.60	1583.08
368.81	1775.59
369.02	1689.57
369.23	1578.98
369.44	1525.74
369.65	1724.39
369.86	1746.92
370.07	1753.06
370.28	1673.19
370.49	1738.73
370.70	1697.77
370.91	1728.49
371.12	1599.46
371.33	1724.39
371.54	1701.86
371.75	1708.01
371.96	1632.23
372.17	1736.68
372.38	1675.24
372.59	1732.58
372.80	1681.38
373.01	1671.14
373.22	1748.97
373.43	1703.91
373.64	1667.05
373.85	1734.63
374.06	1755.11
374.26	1834.98
374.47	1675.24
374.68	1783.78
374.89	1591.27
375.10	1695.72
375.31	1757.16
375.52	1650.66
375.73	1724.39
375.94	1624.04
376.15	1787.88
376.36	1638.38
376.57	1628.14
376.78	1779.68
376.99	1738.73
377.20	1708.01
377.40	1697.77
377.61	1861.60
377.82	1656.81
378.03	1808.36
378.24	1767.40
378.45	1628.14
378.66	1751.01
378.87	1621.99
379.08	1628.14
379.29	1669.09
379.50	1736.68
379.71	1654.76
379.91	1720.29
380.12	1791.97
380.33	1701.86
380.54	1691.62
380.75	1716.20
380.96	1751.01
381.17	1730.53
381.38	1708.01
381.59	1675.24
381.80	1658.85
382.00	1839.08
382.21	1791.97
382.42	1767.40
382.63	1873.89
382.84	1677.29
383.05	1726.44
383.26	1853.41
383.47	1730.53
383.68	1830.88
383.88	1742.82
384.09	1783.78
384.30	1728.49
384.51	1646.57
384.72	1671.14
384.93	1671.14
385.14	1716.20
385.35	1744.87
385.55	1636.33
385.76	1798.12
385.97	1736.68
386.18	1638.38
386.39	1640.42
386.60	1701.86
386.81	1726.44
387.02	1681.38
387.22	1640.42
387.43	1738.73
387.64	1814.50
387.85	1904.61
388.06	2191.33
388.27	4366.27
388.48	6737.82
388.68	8267.65
388.89	9578.35
389.10	9885.55
389.31	8748.92
389.52	7622.54
389.73	6862.74
389.93	6336.42
390.14	5986.21
390.35	5300.14
390.56	4609.98
390.77	3880.90
390.98	3129.30
391.18	2437.08
391.39	2101.22
391.60	1787.88
391.81	1894.37
392.02	1730.53
392.23	1890.28
392.43	1738.73
392.64	1763.30
392.85	1730.53
393.06	1818.60
393.27	1767.40
393.47	1746.92
393.68	1773.54
393.89	1646.57
394.10	1761.25
394.31	1673.19
394.52	1699.81
394.72	1667.05
394.93	1755.11
395.14	1650.66
395.35	1746.92
395.56	1691.62
395.76	1699.81
395.97	1816.55
396.18	1759.21
396.39	1802.21
396.60	2011.11
396.80	1931.23
397.01	1744.87
397.22	1771.49
397.43	1853.41
397.64	1757.16
397.84	1812.45
398.05	1884.13
398.26	1699.81
398.47	1779.68
398.67	1763.30
398.88	1726.44
399.09	1759.21
399.30	1697.77
399.51	1740.77
399.71	1699.81
399.92	1681.38
400.13	1800.16
400.34	1667.05
400.54	1656.81
400.75	1841.12
400.96	1642.47
401.17	1867.75
401.37	1695.72
401.58	1722.34
401.79	1769.44
402.00	1900.52
402.21	2033.63
402.41	1925.09
402.62	2011.11
402.83	1980.39
403.04	2000.87
403.24	2062.30
403.45	1886.18
403.66	1892.32
403.87	1892.32
404.07	1875.94
404.28	1875.94
404.49	1863.65
404.70	1765.35
404.90	1800.16
405.11	1716.20
405.32	1796.07
405.52	1718.25
405.73	1656.81
405.94	1630.18
406.15	1716.20
406.35	1716.20
406.56	1738.73
406.77	1650.66
406.98	1732.58
407.18	1673.19
407.39	1804.26
407.60	1710.05
407.80	1779.68
408.01	1619.94
408.22	1734.63
408.43	1671.14
408.63	1669.09
408.84	1734.63
409.05	1748.97
409.25	1642.47
409.46	1701.86
409.67	1638.38
409.88	1697.77
410.08	1728.49
410.29	1697.77
410.50	1763.30
410.70	1751.01
410.91	1689.57
411.12	1759.21
411.32	1699.81
411.53	1650.66
411.74	1787.88
411.95	1742.82
412.15	1794.02
412.36	1820.64
412.57	1779.68
412.77	1796.07
412.98	1697.77
413.19	1787.88
413.39	1697.77
413.60	1781.73
413.81	1767.40
414.01	1724.39
414.22	1714.15
414.43	1748.97
414.63	1695.72
414.84	1699.81
415.05	1726.44
415.25	1705.96
415.46	1730.53
415.67	1681.38
415.87	1673.19
416.08	1783.78
416.29	1699.81
416.49	1740.77
416.70	1673.19
416.91	1718.25
417.11	1636.33
417.32	1740.77
417.53	1703.91
417.73	1732.58
417.94	1705.96
418.15	1757.16
418.35	1738.73
418.56	1701.86
418.77	1818.60
418.97	1814.50
419.18	1632.23
419.38	1574.89
419.59	1665.00
419.80	1802.21
420.00	1724.39
420.21	1677.29
420.42	1765.35
420.62	1730.53
420.83	1603.56
421.04	1683.43
421.24	1740.77
421.45	1722.34
421.65	1701.86
421.86	1689.57
422.07	1787.88
422.27	1716.20
422.48	1748.97
422.69	1732.58
422.89	1628.14
423.10	1806.31
423.30	1599.46
423.51	1722.34
423.72	1746.92
423.92	1732.58
424.13	1691.62
424.33	1714.15
424.54	1728.49
424.75	1808.36
424.95	1834.98
425.16	1685.48
425.36	1679.33
425.57	1728.49
425.78	1738.73
425.98	1816.55
426.19	1691.62
426.39	1675.24
426.60	1716.20
426.81	1791.97
427.01	1730.53
427.22	1607.66
427.42	1562.60
427.63	1660.90
427.83	1826.79
428.04	1796.07
428.25	1730.53
428.45	1781.73
428.66	1812.45
428.86	1744.87
429.07	1646.57
429.28	1746.92
429.48	1646.57
429.69	1671.14
429.89	1726.44
430.10	1587.18
430.30	1783.78
430.51	1755.11
430.71	1650.66
430.92	1734.63
431.13	1712.10
431.33	1761.25
431.54	1712.10
431.74	1820.64
431.95	1826.79
432.15	1636.33
432.36	1683.43
432.56	1724.39
432.77	1859.56
432.98	1849.32
433.18	1699.81
433.39	1619.94
433.59	1681.38
433.80	1880.04
434.00	1902.56
434.21	1660.90
434.41	1685.48
434.62	1896.42
434.82	1695.72
435.03	1730.53
435.23	1755.11
435.44	1624.04
435.64	1720.29
435.85	1701.86
436.06	1693.67
436.26	1677.29
436.47	1730.53
436.67	1708.01
436.88	1701.86
437.08	1761.25
437.29	1814.50
437.49	1708.01
437.70	1710.05
437.90	1746.92
438.11	1763.30
438.31	1796.07
438.52	1855.46
438.72	1873.89
438.93	1849.32
439.13	1800.16
439.34	1789.92
439.54	1808.36
439.75	1734.63
439.95	1708.01
440.16	1687.53
440.36	1812.45
440.57	1806.31
440.77	1773.54
440.98	1738.73
441.18	1775.59
441.39	1634.28
441.59	1714.15
441.80	1839.08
442.00	1695.72
442.21	1826.79
442.41	1716.20
442.62	1808.36
442.82	1658.85
443.02	1710.05
443.23	1806.31
443.43	1652.71
443.64	1857.51
443.84	1746.92
444.05	1712.10
444.25	1755.11
444.46	1693.67
444.66	1712.10
444.87	1734.63
445.07	1712.10
445.28	1699.81
445.48	1802.21
445.69	1779.68
445.89	1912.80
446.09	1712.10
446.30	2041.82
446.50	2584.54
446.71	3729.35
446.91	4270.01
447.12	4745.14
447.32	4911.03
447.53	4423.61
447.73	3841.99
447.93	3487.69
448.14	3319.76
448.34	3168.21
448.55	2836.44
448.75	2775.00
448.96	2705.37
449.16	2443.23
449.36	2254.81
449.57	2109.41
449.77	1947.62
449.98	1769.44
450.18	1845.22
450.39	1798.12
450.59	1796.07
450.79	1783.78
451.00	1660.90
451.20	1832.93
451.41	1638.38
451.61	1671.14
451.81	1724.39
452.02	1728.49
452.22	1755.11
452.43	1779.68
452.63	1675.24
