SpectraSuite Data File
++++++++++++++++++++++++++++++++++++
Date: Mon Jun 06 12:51:17 CEST 2016
User: root
Dark Spectrum Present: No
Reference Spectrum Present: No
Number of Sampled Component Spectra: 1
Spectrometers: USB4C02835
Integration Time (usec): 100000 (USB4C02835)
Spectra Averaged: 1 (USB4C02835)
Boxcar Smoothing: 0 (USB4C02835)
Correct for Electrical Dark: No (USB4C02835)
Strobe/Lamp Enabled: No (USB4C02835)
Correct for Detector Non-linearity: No (USB4C02835)
Correct for Stray Light: No (USB4C02835)
Number of Pixels in Processed Spectrum: 3648
>>>>>Begin Processed Spectral Data<<<<<
177.47	1478.63
177.69	1478.63
177.91	1478.63
178.13	1452.01
178.36	1513.45
178.58	1669.09
178.80	1681.38
179.02	1628.14
179.24	1675.24
179.46	1673.19
179.68	1746.92
179.90	1630.18
180.13	1722.34
180.35	1589.22
180.57	1728.49
180.79	1775.59
181.01	1656.81
181.23	1746.92
181.45	1757.16
181.67	1828.84
181.90	1697.77
182.12	1697.77
182.34	1611.75
182.56	1779.68
182.78	1695.72
183.00	1718.25
183.22	1669.09
183.44	1613.80
183.66	1882.08
183.89	1789.92
184.11	1699.81
184.33	1675.24
184.55	1718.25
184.77	1669.09
184.99	1746.92
185.21	1632.23
185.43	1900.52
185.65	1652.71
185.87	1660.90
186.10	1773.54
186.32	1804.26
186.54	1710.05
186.76	1708.01
186.98	1744.87
187.20	1716.20
187.42	1736.68
187.64	1693.67
187.86	1730.53
188.08	1681.38
188.30	1669.09
188.52	1669.09
188.75	1660.90
188.97	1722.34
189.19	1720.29
189.41	1712.10
189.63	1728.49
189.85	1683.43
190.07	1591.27
190.29	1607.66
190.51	1712.10
190.73	1595.37
190.95	1748.97
191.17	1736.68
191.39	1587.18
191.61	1685.48
191.84	1712.10
192.06	1769.44
192.28	1599.46
192.50	1867.75
192.72	1730.53
192.94	1708.01
193.16	1771.49
193.38	1755.11
193.60	1695.72
193.82	1638.38
194.04	1814.50
194.26	1691.62
194.48	1777.64
194.70	1658.85
194.92	1697.77
195.14	1730.53
195.36	1656.81
195.58	1685.48
195.80	1662.95
196.02	1667.05
196.24	1716.20
196.46	1705.96
196.69	1699.81
196.91	1808.36
197.13	1775.59
197.35	1642.47
197.57	1779.68
197.79	1665.00
198.01	1703.91
198.23	1689.57
198.45	1701.86
198.67	1587.18
198.89	1703.91
199.11	1705.96
199.33	1673.19
199.55	1619.94
199.77	1705.96
199.99	1740.77
200.21	1593.32
200.43	1789.92
200.65	1578.98
200.87	1572.84
201.09	1660.90
201.31	1648.61
201.53	1775.59
201.75	1665.00
201.97	1732.58
202.19	1656.81
202.41	1722.34
202.63	1798.12
202.85	1779.68
203.07	1687.53
203.29	1687.53
203.51	1658.85
203.73	1701.86
203.95	1830.88
204.17	1767.40
204.39	1710.05
204.61	1636.33
204.83	1687.53
205.05	1716.20
205.27	1699.81
205.49	1775.59
205.71	1708.01
205.93	1687.53
206.15	1654.76
206.37	1703.91
206.59	1693.67
206.81	1648.61
207.03	1656.81
207.25	1634.28
207.47	1791.97
207.69	1724.39
207.91	1771.49
208.13	1748.97
208.34	1724.39
208.56	1652.71
208.78	1718.25
209.00	1683.43
209.22	1609.70
209.44	1607.66
209.66	1673.19
209.88	1697.77
210.10	1669.09
210.32	1718.25
210.54	1728.49
210.76	1691.62
210.98	1740.77
211.20	1538.02
211.42	1740.77
211.64	1785.83
211.86	1732.58
212.08	1714.15
212.30	1677.29
212.52	1578.98
212.74	1720.29
212.96	1787.88
213.17	1738.73
213.39	1710.05
213.61	1820.64
213.83	1740.77
214.05	1691.62
214.27	1658.85
214.49	1681.38
214.71	1705.96
214.93	1800.16
215.15	1703.91
215.37	1759.21
215.59	1603.56
215.81	1658.85
216.03	1759.21
216.24	1687.53
216.46	1724.39
216.68	1787.88
216.90	1755.11
217.12	1722.34
217.34	1712.10
217.56	1705.96
217.78	1757.16
218.00	1708.01
218.22	1740.77
218.44	1771.49
218.66	1740.77
218.87	1828.84
219.09	1589.22
219.31	1816.55
219.53	1773.54
219.75	1675.24
219.97	1708.01
220.19	1816.55
220.41	1677.29
220.63	1753.06
220.85	1656.81
221.06	1708.01
221.28	1730.53
221.50	1773.54
221.72	1638.38
221.94	1705.96
222.16	1665.00
222.38	1763.30
222.60	1779.68
222.82	1650.66
223.03	1753.06
223.25	1652.71
223.47	1808.36
223.69	1744.87
223.91	1632.23
224.13	1738.73
224.35	1665.00
224.57	1869.80
224.78	1746.92
225.00	1607.66
225.22	1705.96
225.44	1724.39
225.66	1683.43
225.88	1679.33
226.10	1757.16
226.32	1681.38
226.53	1828.84
226.75	1691.62
226.97	1662.95
227.19	1656.81
227.41	1603.56
227.63	1615.85
227.85	1628.14
228.06	1691.62
228.28	1701.86
228.50	1726.44
228.72	1650.66
228.94	1673.19
229.16	1679.33
229.37	1642.47
229.59	1681.38
229.81	1714.15
230.03	1681.38
230.25	1589.22
230.47	1646.57
230.69	1619.94
230.90	1734.63
231.12	1683.43
231.34	1765.35
231.56	1777.64
231.78	1671.14
232.00	1658.85
232.21	1732.58
232.43	1675.24
232.65	1589.22
232.87	1796.07
233.09	1693.67
233.30	1724.39
233.52	1662.95
233.74	1710.05
233.96	1767.40
234.18	1720.29
234.40	1683.43
234.61	1824.74
234.83	1646.57
235.05	1638.38
235.27	1769.44
235.49	1781.73
235.70	1722.34
235.92	1660.90
236.14	1724.39
236.36	1877.99
236.58	1605.61
236.79	1712.10
237.01	1640.42
237.23	1755.11
237.45	1839.08
237.67	1775.59
237.88	1775.59
238.10	1746.92
238.32	1667.05
238.54	1650.66
238.76	1718.25
238.97	1683.43
239.19	1673.19
239.41	1710.05
239.63	1783.78
239.85	1714.15
240.06	1679.33
240.28	1705.96
240.50	1828.84
240.72	1734.63
240.93	1685.48
241.15	1730.53
241.37	1771.49
241.59	1757.16
241.81	1677.29
242.02	1695.72
242.24	1695.72
242.46	1753.06
242.68	1619.94
242.89	1730.53
243.11	1748.97
243.33	1701.86
243.55	1697.77
243.76	1722.34
243.98	1718.25
244.20	1755.11
244.42	1744.87
244.64	1705.96
244.85	1603.56
245.07	1683.43
245.29	1695.72
245.51	1685.48
245.72	1669.09
245.94	1728.49
246.16	1746.92
246.38	1734.63
246.59	1712.10
246.81	1607.66
247.03	1673.19
247.24	1660.90
247.46	1624.04
247.68	1757.16
247.90	1667.05
248.11	1718.25
248.33	1742.82
248.55	1734.63
248.77	1722.34
248.98	1798.12
249.20	1824.74
249.42	1699.81
249.64	1722.34
249.85	1724.39
250.07	1714.15
250.29	1769.44
250.50	1783.78
250.72	1632.23
250.94	1683.43
251.16	1783.78
251.37	1744.87
251.59	1693.67
251.81	1732.58
252.02	1736.68
252.24	1728.49
252.46	1722.34
252.68	1640.42
252.89	1660.90
253.11	1677.29
253.33	1837.03
253.54	1796.07
253.76	1621.99
253.98	1689.57
254.20	1646.57
254.41	1660.90
254.63	1685.48
254.85	1626.09
255.06	1640.42
255.28	1771.49
255.50	1675.24
255.71	1712.10
255.93	1673.19
256.15	1673.19
256.36	1701.86
256.58	1650.66
256.80	1699.81
257.02	1675.24
257.23	1656.81
257.45	1697.77
257.67	1667.05
257.88	1624.04
258.10	1703.91
258.32	1648.61
258.53	1665.00
258.75	1759.21
258.97	1697.77
259.18	1687.53
259.40	1660.90
259.62	1722.34
259.83	1789.92
260.05	1773.54
260.27	1976.29
260.48	1708.01
260.70	1665.00
260.92	1775.59
261.13	1714.15
261.35	1708.01
261.57	1777.64
261.78	1669.09
262.00	1634.28
262.22	1699.81
262.43	1617.90
262.65	1578.98
262.86	1777.64
263.08	1730.53
263.30	1769.44
263.51	1591.27
263.73	1671.14
263.95	1712.10
264.16	1609.70
264.38	1689.57
264.60	1722.34
264.81	1628.14
265.03	1771.49
265.25	1730.53
265.46	1722.34
265.68	1771.49
265.89	1669.09
266.11	1640.42
266.33	1779.68
266.54	1828.84
266.76	1691.62
266.98	1759.21
267.19	1765.35
267.41	1781.73
267.62	1656.81
267.84	1693.67
268.06	1671.14
268.27	1773.54
268.49	1806.31
268.70	1812.45
268.92	1781.73
269.14	1671.14
269.35	1636.33
269.57	1656.81
269.79	1777.64
270.00	1628.14
270.22	1757.16
270.43	1638.38
270.65	1595.37
270.87	1665.00
271.08	1789.92
271.30	1736.68
271.51	1724.39
271.73	1814.50
271.95	1802.21
272.16	1705.96
272.38	1734.63
272.59	1732.58
272.81	1642.47
273.02	1654.76
273.24	1761.25
273.46	1675.24
273.67	1621.99
273.89	1658.85
274.10	1671.14
274.32	1837.03
274.54	1669.09
274.75	1710.05
274.97	1705.96
275.18	1763.30
275.40	1732.58
275.61	1658.85
275.83	1757.16
276.05	1593.32
276.26	1615.85
276.48	1703.91
276.69	1626.09
276.91	1634.28
277.12	1787.88
277.34	1730.53
277.55	1765.35
277.77	1714.15
277.99	1751.01
278.20	1636.33
278.42	1667.05
278.63	1611.75
278.85	1671.14
279.06	1660.90
279.28	1679.33
279.49	1785.83
279.71	1716.20
279.93	1701.86
280.14	1660.90
280.36	1705.96
280.57	1718.25
280.79	1722.34
281.00	1656.81
281.22	1630.18
281.43	1896.42
281.65	1624.04
281.86	1562.60
282.08	1755.11
282.29	1820.64
282.51	1619.94
282.73	1640.42
282.94	1640.42
283.16	1751.01
283.37	1796.07
283.59	1716.20
283.80	1742.82
284.02	1675.24
284.23	1728.49
284.45	1683.43
284.66	1658.85
284.88	1665.00
285.09	1691.62
285.31	1734.63
285.52	1671.14
285.74	1632.23
285.95	1679.33
286.17	1746.92
286.38	1712.10
286.60	1574.89
286.81	1699.81
287.03	1740.77
287.24	1642.47
287.46	1732.58
287.67	1636.33
287.89	1771.49
288.10	1712.10
288.32	1708.01
288.53	1746.92
288.75	1632.23
288.96	1818.60
289.18	1746.92
289.39	1683.43
289.61	1691.62
289.82	1824.74
290.04	1818.60
290.25	1736.68
290.47	1726.44
290.68	1656.81
290.90	1697.77
291.11	1648.61
291.33	1816.55
291.54	1619.94
291.76	1648.61
291.97	1679.33
292.18	1746.92
292.40	1650.66
292.61	1671.14
292.83	1908.71
293.04	1724.39
293.26	1699.81
293.47	1662.95
293.69	1611.75
293.90	1687.53
294.12	1742.82
294.33	1708.01
294.55	1652.71
294.76	1775.59
294.97	1767.40
295.19	1871.84
295.40	1716.20
295.62	1722.34
295.83	1710.05
296.05	1720.29
296.26	1771.49
296.48	1632.23
296.69	1708.01
296.90	1738.73
297.12	1753.06
297.33	1738.73
297.55	1708.01
297.76	1675.24
297.98	1783.78
298.19	1669.09
298.41	1640.42
298.62	1646.57
298.83	1824.74
299.05	1714.15
299.26	1626.09
299.48	1728.49
299.69	1742.82
299.90	1667.05
300.12	1611.75
300.33	1820.64
300.55	1708.01
300.76	1796.07
300.98	1613.80
301.19	1740.77
301.40	1714.15
301.62	1755.11
301.83	1779.68
302.05	1669.09
302.26	1716.20
302.47	1658.85
302.69	1636.33
302.90	1734.63
303.12	1640.42
303.33	1738.73
303.54	1812.45
303.76	1669.09
303.97	1650.66
304.19	1769.44
304.40	1697.77
304.61	1724.39
304.83	1777.64
305.04	1691.62
305.26	1658.85
305.47	1677.29
305.68	1673.19
305.90	1652.71
306.11	1775.59
306.33	1746.92
306.54	1710.05
306.75	1656.81
306.97	1671.14
307.18	1609.70
307.39	1705.96
307.61	1742.82
307.82	1687.53
308.04	1759.21
308.25	1591.27
308.46	1679.33
308.68	1785.83
308.89	1675.24
309.10	1869.80
309.32	1693.67
309.53	1732.58
309.74	1808.36
309.96	1681.38
310.17	1785.83
310.39	1607.66
310.60	1765.35
310.81	1693.67
311.03	1699.81
311.24	1789.92
311.45	1665.00
311.67	1765.35
311.88	1697.77
312.09	1703.91
312.31	1687.53
312.52	1753.06
312.73	1695.72
312.95	1650.66
313.16	1632.23
313.37	1785.83
313.59	1689.57
313.80	1701.86
314.01	1755.11
314.23	1671.14
314.44	1617.90
314.65	1636.33
314.87	1595.37
315.08	1701.86
315.29	1658.85
315.51	1617.90
315.72	1695.72
315.93	1751.01
316.15	1771.49
316.36	1636.33
316.57	1759.21
316.79	1765.35
317.00	1718.25
317.21	1662.95
317.43	1593.32
317.64	1689.57
317.85	1712.10
318.07	1677.29
318.28	1755.11
318.49	1757.16
318.70	1855.46
318.92	1808.36
319.13	1753.06
319.34	1796.07
319.56	1734.63
319.77	1761.25
319.98	1755.11
320.20	1775.59
320.41	1732.58
320.62	1806.31
320.83	1732.58
321.05	1779.68
321.26	1763.30
321.47	1695.72
321.69	1716.20
321.90	1640.42
322.11	1728.49
322.32	1656.81
322.54	1738.73
322.75	1665.00
322.96	1796.07
323.18	1665.00
323.39	1603.56
323.60	1640.42
323.81	1736.68
324.03	1652.71
324.24	1738.73
324.45	1689.57
324.66	1671.14
324.88	1771.49
325.09	1863.65
325.30	1720.29
325.52	1716.20
325.73	1714.15
325.94	1609.70
326.15	1673.19
326.37	1689.57
326.58	1736.68
326.79	1708.01
327.00	1759.21
327.22	1712.10
327.43	1671.14
327.64	1599.46
327.85	1730.53
328.07	1640.42
328.28	1742.82
328.49	1712.10
328.70	1619.94
328.92	1697.77
329.13	1699.81
329.34	1765.35
329.55	1796.07
329.76	1726.44
329.98	1738.73
330.19	1791.97
330.40	1746.92
330.61	1687.53
330.83	1759.21
331.04	1638.38
331.25	1720.29
331.46	1656.81
331.68	1669.09
331.89	1771.49
332.10	1679.33
332.31	1636.33
332.52	1693.67
332.74	1718.25
332.95	1583.08
333.16	1708.01
333.37	1726.44
333.58	1656.81
333.80	1757.16
334.01	1671.14
334.22	1791.97
334.43	1703.91
334.64	1679.33
334.86	1656.81
335.07	1646.57
335.28	1787.88
335.49	1630.18
335.70	1773.54
335.92	1726.44
336.13	1800.16
336.34	1716.20
336.55	1626.09
336.76	1744.87
336.98	1568.74
337.19	1755.11
337.40	1837.03
337.61	1728.49
337.82	1673.19
338.04	1810.40
338.25	1581.03
338.46	1658.85
338.67	1705.96
338.88	1705.96
339.09	1691.62
339.31	1665.00
339.52	1578.98
339.73	1689.57
339.94	1671.14
340.15	1742.82
340.36	1689.57
340.58	1654.76
340.79	1662.95
341.00	1689.57
341.21	1677.29
341.42	1841.12
341.63	1683.43
341.85	1746.92
342.06	1736.68
342.27	1634.28
342.48	1812.45
342.69	1656.81
342.90	1695.72
343.12	1701.86
343.33	1689.57
343.54	1757.16
343.75	1789.92
343.96	1689.57
344.17	1591.27
344.38	1673.19
344.60	1646.57
344.81	1648.61
345.02	1716.20
345.23	1773.54
345.44	1812.45
345.65	1685.48
345.86	1740.77
346.07	1687.53
346.29	1685.48
346.50	1705.96
346.71	1705.96
346.92	1753.06
347.13	1882.08
347.34	1708.01
347.55	1652.71
347.76	1755.11
347.98	1650.66
348.19	1675.24
348.40	1748.97
348.61	1716.20
348.82	1834.98
349.03	1734.63
349.24	1597.42
349.45	1816.55
349.66	1615.85
349.88	1703.91
350.09	1665.00
350.30	1787.88
350.51	1775.59
350.72	1720.29
350.93	1689.57
351.14	1699.81
351.35	1746.92
351.56	1705.96
351.77	1681.38
351.99	1685.48
352.20	1824.74
352.41	1779.68
352.62	1562.60
352.83	1640.42
353.04	1701.86
353.25	1632.23
353.46	1738.73
353.67	1748.97
353.88	1621.99
354.09	1658.85
354.30	1660.90
354.52	1699.81
354.73	1726.44
354.94	1683.43
355.15	1644.52
355.36	1673.19
355.57	1669.09
355.78	1775.59
355.99	1660.90
356.20	1626.09
356.41	1779.68
356.62	1683.43
356.83	1722.34
357.04	1777.64
357.25	1611.75
357.46	1699.81
357.68	1640.42
357.89	1644.52
358.10	1665.00
358.31	1683.43
358.52	1644.52
358.73	1650.66
358.94	1683.43
359.15	1695.72
359.36	1722.34
359.57	1730.53
359.78	1650.66
359.99	1716.20
360.20	1673.19
360.41	1740.77
360.62	1755.11
360.83	1699.81
361.04	1683.43
361.25	1687.53
361.46	1830.88
361.67	1726.44
361.88	1740.77
362.09	1767.40
362.30	1783.78
362.51	1638.38
362.72	1685.48
362.93	1796.07
363.14	1665.00
363.35	1646.57
363.56	1691.62
363.78	1720.29
363.99	1757.16
364.20	1716.20
364.41	1689.57
364.62	1822.69
364.83	1744.87
365.04	1650.66
365.25	1654.76
365.46	1810.40
365.67	1621.99
365.88	1708.01
366.09	1720.29
366.30	1650.66
366.51	1701.86
366.72	1550.31
366.93	1636.33
367.14	1697.77
367.35	1812.45
367.56	1703.91
367.77	1699.81
367.98	1621.99
368.18	1794.02
368.39	1734.63
368.60	1644.52
368.81	1746.92
369.02	1691.62
369.23	1673.19
369.44	1626.09
369.65	1677.29
369.86	1732.58
370.07	1751.01
370.28	1650.66
370.49	1751.01
370.70	1687.53
370.91	1576.94
371.12	1697.77
371.33	1857.51
371.54	1656.81
371.75	1703.91
371.96	1558.50
372.17	1669.09
372.38	1728.49
372.59	1638.38
372.80	1683.43
373.01	1621.99
373.22	1628.14
373.43	1662.95
373.64	1665.00
373.85	1751.01
374.06	1837.03
374.26	1642.47
374.47	1746.92
374.68	1787.88
374.89	1679.33
375.10	1740.77
375.31	1769.44
375.52	1740.77
375.73	1642.47
375.94	1652.71
376.15	1732.58
376.36	1658.85
376.57	1638.38
376.78	1621.99
376.99	1724.39
377.20	1744.87
377.40	1626.09
377.61	1816.55
377.82	1624.04
378.03	1751.01
378.24	1667.05
378.45	1708.01
378.66	1748.97
378.87	1677.29
379.08	1654.76
379.29	1785.83
379.50	1730.53
379.71	1689.57
379.91	1697.77
380.12	1667.05
380.33	1710.05
380.54	1703.91
380.75	1697.77
380.96	1744.87
381.17	1730.53
381.38	1681.38
381.59	1742.82
381.80	1691.62
382.00	1789.92
382.21	1742.82
382.42	1914.85
382.63	1978.34
382.84	1777.64
383.05	1794.02
383.26	1808.36
383.47	1767.40
383.68	1789.92
383.88	1751.01
384.09	1650.66
384.30	1787.88
384.51	1757.16
384.72	1753.06
384.93	1605.61
385.14	1714.15
385.35	1771.49
385.55	1665.00
385.76	1714.15
385.97	1683.43
386.18	1634.28
386.39	1624.04
386.60	1720.29
386.81	1714.15
387.02	1660.90
387.22	1654.76
387.43	1763.30
387.64	1763.30
387.85	1902.56
388.06	2215.90
388.27	4310.97
388.48	6739.87
388.68	8339.33
388.89	9633.64
389.10	9969.51
389.31	8820.60
389.52	7597.96
389.73	6713.24
389.93	6350.75
390.14	5846.95
390.35	5179.31
390.56	4521.92
390.77	3831.75
390.98	2979.79
391.18	2484.19
391.39	2078.69
391.60	1849.32
391.81	1808.36
392.02	1673.19
392.23	1832.93
392.43	1785.83
392.64	1767.40
392.85	1718.25
393.06	1796.07
393.27	1787.88
393.47	1681.38
393.68	1656.81
393.89	1708.01
394.10	1789.92
394.31	1687.53
394.52	1716.20
394.72	1798.12
394.93	1763.30
395.14	1646.57
395.35	1708.01
395.56	1662.95
395.76	1685.48
395.97	1863.65
396.18	1861.60
396.39	1824.74
396.60	1941.47
396.80	1861.60
397.01	1863.65
397.22	1771.49
397.43	1783.78
397.64	1685.48
397.84	1830.88
398.05	1822.69
398.26	1761.25
398.47	1769.44
398.67	1732.58
398.88	1722.34
399.09	1728.49
399.30	1699.81
399.51	1753.06
399.71	1675.24
399.92	1759.21
400.13	1769.44
400.34	1703.91
400.54	1689.57
400.75	1830.88
400.96	1730.53
401.17	1861.60
401.37	1726.44
401.58	1712.10
401.79	1683.43
402.00	1857.51
402.21	1947.62
402.41	1935.33
402.62	2062.30
402.83	2103.26
403.04	2011.11
403.24	2054.11
403.45	1869.80
403.66	1918.95
403.87	1941.47
404.07	1886.18
404.28	1847.27
404.49	1787.88
404.70	1785.83
404.90	1845.22
405.11	1732.58
405.32	1695.72
405.52	1701.86
405.73	1710.05
405.94	1628.14
406.15	1744.87
406.35	1765.35
406.56	1742.82
406.77	1697.77
406.98	1751.01
407.18	1617.90
407.39	1828.84
407.60	1646.57
407.80	1730.53
408.01	1660.90
408.22	1798.12
408.43	1650.66
408.63	1785.83
408.84	1740.77
409.05	1802.21
409.25	1650.66
409.46	1705.96
409.67	1675.24
409.88	1697.77
410.08	1697.77
410.29	1689.57
410.50	1734.63
410.70	1789.92
410.91	1607.66
411.12	1742.82
411.32	1656.81
411.53	1660.90
411.74	1775.59
411.95	1830.88
412.15	1816.55
412.36	1765.35
412.57	1828.84
412.77	1767.40
412.98	1722.34
413.19	1708.01
413.39	1748.97
413.60	1755.11
413.81	1820.64
414.01	1699.81
414.22	1742.82
414.43	1722.34
414.63	1652.71
414.84	1740.77
415.05	1701.86
415.25	1667.05
415.46	1691.62
415.67	1767.40
415.87	1656.81
416.08	1757.16
416.29	1728.49
416.49	1746.92
416.70	1726.44
416.91	1705.96
417.11	1642.47
417.32	1699.81
417.53	1789.92
417.73	1748.97
417.94	1712.10
418.15	1685.48
418.35	1667.05
418.56	1767.40
418.77	1769.44
418.97	1667.05
419.18	1687.53
419.38	1558.50
419.59	1607.66
419.80	1755.11
420.00	1636.33
420.21	1724.39
420.42	1763.30
420.62	1781.73
420.83	1660.90
421.04	1710.05
421.24	1609.70
421.45	1769.44
421.65	1722.34
421.86	1691.62
422.07	1763.30
422.27	1744.87
422.48	1701.86
422.69	1665.00
422.89	1789.92
423.10	1724.39
423.30	1687.53
423.51	1746.92
423.72	1771.49
423.92	1730.53
424.13	1734.63
424.33	1701.86
424.54	1783.78
424.75	1789.92
424.95	1812.45
425.16	1710.05
425.36	1697.77
425.57	1740.77
425.78	1755.11
425.98	1691.62
426.19	1722.34
426.39	1646.57
426.60	1689.57
426.81	1744.87
427.01	1740.77
427.22	1634.28
427.42	1583.08
427.63	1624.04
427.83	1771.49
428.04	1839.08
428.25	1734.63
428.45	1830.88
428.66	1796.07
428.86	1716.20
429.07	1652.71
429.28	1738.73
429.48	1658.85
429.69	1681.38
429.89	1746.92
430.10	1695.72
430.30	1681.38
430.51	1775.59
430.71	1617.90
430.92	1736.68
431.13	1617.90
431.33	1789.92
431.54	1662.95
431.74	1742.82
431.95	1837.03
432.15	1673.19
432.36	1753.06
432.56	1675.24
432.77	1783.78
432.98	1824.74
433.18	1800.16
433.39	1677.29
433.59	1716.20
433.80	1806.31
434.00	1775.59
434.21	1671.14
434.41	1669.09
434.62	1886.18
434.82	1652.71
435.03	1609.70
435.23	1679.33
435.44	1574.89
435.64	1724.39
435.85	1681.38
436.06	1753.06
436.26	1712.10
436.47	1705.96
436.67	1724.39
436.88	1748.97
437.08	1742.82
437.29	1781.73
437.49	1744.87
437.70	1683.43
437.90	1716.20
438.11	1880.04
438.31	1787.88
438.52	1857.51
438.72	1837.03
438.93	1902.56
439.13	1763.30
439.34	1843.17
439.54	1804.26
439.75	1701.86
439.95	1802.21
440.16	1757.16
440.36	1759.21
440.57	1763.30
440.77	1757.16
440.98	1767.40
441.18	1728.49
441.39	1697.77
441.59	1619.94
441.80	1824.74
442.00	1722.34
442.21	1832.93
442.41	1595.37
442.62	1785.83
442.82	1605.61
443.02	1794.02
443.23	1748.97
443.43	1683.43
443.64	1814.50
443.84	1705.96
444.05	1789.92
444.25	1755.11
444.46	1722.34
444.66	1738.73
444.87	1775.59
445.07	1665.00
445.28	1808.36
445.48	1896.42
445.69	1769.44
445.89	1918.95
446.09	1759.21
446.30	2004.96
446.50	2557.91
446.71	3758.02
446.91	4237.25
447.12	4749.24
447.32	4818.87
447.53	4427.71
447.73	3786.69
447.93	3639.24
448.14	3205.07
448.34	3147.73
448.55	2848.72
448.75	2861.01
448.96	2639.83
449.16	2422.75
449.36	2303.96
449.57	2052.06
449.77	1929.19
449.98	1812.45
450.18	1789.92
450.39	1843.17
450.59	1685.48
450.79	1726.44
451.00	1708.01
451.20	1722.34
451.41	1738.73
451.61	1685.48
451.81	1695.72
452.02	1677.29
452.22	1716.20
452.43	1675.24
452.63	1755.11
