SpectraSuite Data File
++++++++++++++++++++++++++++++++++++
Date: Mon Jun 06 16:18:37 CEST 2016
User: root
Dark Spectrum Present: No
Reference Spectrum Present: No
Number of Sampled Component Spectra: 1
Spectrometers: USB4C02835
Integration Time (usec): 100000 (USB4C02835)
Spectra Averaged: 1 (USB4C02835)
Boxcar Smoothing: 0 (USB4C02835)
Correct for Electrical Dark: No (USB4C02835)
Strobe/Lamp Enabled: No (USB4C02835)
Correct for Detector Non-linearity: No (USB4C02835)
Correct for Stray Light: No (USB4C02835)
Number of Pixels in Processed Spectrum: 3648
>>>>>Begin Processed Spectral Data<<<<<
177.47	1458.15
177.69	1458.15
177.91	1458.15
178.13	1456.11
178.36	1499.11
178.58	1626.09
178.80	1642.47
179.02	1642.47
179.24	1617.90
179.46	1705.96
179.68	1779.68
179.90	1693.67
180.13	1665.00
180.35	1624.04
180.57	1734.63
180.79	1771.49
181.01	1646.57
181.23	1716.20
181.45	1730.53
181.67	1736.68
181.90	1757.16
182.12	1628.14
182.34	1656.81
182.56	1779.68
182.78	1697.77
183.00	1714.15
183.22	1728.49
183.44	1681.38
183.66	1861.60
183.89	1781.73
184.11	1722.34
184.33	1736.68
184.55	1785.83
184.77	1759.21
184.99	1683.43
185.21	1658.85
185.43	1845.22
185.65	1644.52
185.87	1753.06
186.10	1898.47
186.32	1806.31
186.54	1759.21
186.76	1726.44
186.98	1736.68
187.20	1652.71
187.42	1658.85
187.64	1722.34
187.86	1726.44
188.08	1714.15
188.30	1675.24
188.52	1732.58
188.75	1740.77
188.97	1783.78
189.19	1648.61
189.41	1667.05
189.63	1736.68
189.85	1689.57
190.07	1593.32
190.29	1619.94
190.51	1769.44
190.73	1667.05
190.95	1800.16
191.17	1732.58
191.39	1576.94
191.61	1753.06
191.84	1714.15
192.06	1761.25
192.28	1671.14
192.50	1886.18
192.72	1759.21
192.94	1746.92
193.16	1753.06
193.38	1691.62
193.60	1646.57
193.82	1665.00
194.04	1744.87
194.26	1759.21
194.48	1669.09
194.70	1724.39
194.92	1599.46
195.14	1742.82
195.36	1671.14
195.58	1732.58
195.80	1705.96
196.02	1675.24
196.24	1689.57
196.46	1775.59
196.69	1654.76
196.91	1853.41
197.13	1777.64
197.35	1728.49
197.57	1787.88
197.79	1753.06
198.01	1724.39
198.23	1828.84
198.45	1685.48
198.67	1652.71
198.89	1726.44
199.11	1675.24
199.33	1654.76
199.55	1630.18
199.77	1697.77
199.99	1775.59
200.21	1660.90
200.43	1763.30
200.65	1626.09
200.87	1615.85
201.09	1742.82
201.31	1632.23
201.53	1744.87
201.75	1705.96
201.97	1757.16
202.19	1761.25
202.41	1761.25
202.63	1828.84
202.85	1810.40
203.07	1777.64
203.29	1617.90
203.51	1677.29
203.73	1697.77
203.95	1865.70
204.17	1714.15
204.39	1753.06
204.61	1740.77
204.83	1646.57
205.05	1804.26
205.27	1673.19
205.49	1898.47
205.71	1724.39
205.93	1681.38
206.15	1628.14
206.37	1679.33
206.59	1744.87
206.81	1642.47
207.03	1634.28
207.25	1777.64
207.47	1757.16
207.69	1652.71
207.91	1800.16
208.13	1775.59
208.34	1683.43
208.56	1673.19
208.78	1740.77
209.00	1636.33
209.22	1757.16
209.44	1794.02
209.66	1701.86
209.88	1716.20
210.10	1705.96
210.32	1615.85
210.54	1726.44
210.76	1712.10
210.98	1787.88
211.20	1578.98
211.42	1697.77
211.64	1789.92
211.86	1726.44
212.08	1777.64
212.30	1816.55
212.52	1691.62
212.74	1798.12
212.96	1730.53
213.17	1689.57
213.39	1767.40
213.61	1781.73
213.83	1751.01
214.05	1593.32
214.27	1798.12
214.49	1705.96
214.71	1603.56
214.93	1693.67
215.15	1701.86
215.37	1759.21
215.59	1681.38
215.81	1814.50
216.03	1759.21
216.24	1722.34
216.46	1640.42
216.68	1687.53
216.90	1800.16
217.12	1808.36
217.34	1644.52
217.56	1738.73
217.78	1812.45
218.00	1759.21
218.22	1669.09
218.44	1701.86
218.66	1726.44
218.87	1724.39
219.09	1771.49
219.31	1765.35
219.53	1701.86
219.75	1660.90
219.97	1681.38
220.19	1708.01
220.41	1730.53
220.63	1751.01
220.85	1740.77
221.06	1697.77
221.28	1765.35
221.50	1740.77
221.72	1726.44
221.94	1685.48
222.16	1728.49
222.38	1806.31
222.60	1785.83
222.82	1746.92
223.03	1650.66
223.25	1601.51
223.47	1779.68
223.69	1812.45
223.91	1798.12
224.13	1708.01
224.35	1716.20
224.57	1755.11
224.78	1724.39
225.00	1656.81
225.22	1636.33
225.44	1699.81
225.66	1658.85
225.88	1720.29
226.10	1712.10
226.32	1730.53
226.53	1822.69
226.75	1673.19
226.97	1714.15
227.19	1705.96
227.41	1714.15
227.63	1578.98
227.85	1675.24
228.06	1667.05
228.28	1708.01
228.50	1765.35
228.72	1591.27
228.94	1683.43
229.16	1669.09
229.37	1710.05
229.59	1636.33
229.81	1820.64
230.03	1726.44
230.25	1714.15
230.47	1658.85
230.69	1570.79
230.90	1787.88
231.12	1697.77
231.34	1703.91
231.56	1822.69
231.78	1628.14
232.00	1783.78
232.21	1660.90
232.43	1648.61
232.65	1613.80
232.87	1800.16
233.09	1738.73
233.30	1677.29
233.52	1791.97
233.74	1746.92
233.96	1689.57
234.18	1677.29
234.40	1656.81
234.61	1822.69
234.83	1546.22
235.05	1677.29
235.27	1837.03
235.49	1810.40
235.70	1693.67
235.92	1804.26
236.14	1665.00
236.36	1834.98
236.58	1583.08
236.79	1800.16
237.01	1652.71
237.23	1730.53
237.45	1781.73
237.67	1581.03
237.88	1775.59
238.10	1787.88
238.32	1693.67
238.54	1732.58
238.76	1675.24
238.97	1644.52
239.19	1761.25
239.41	1757.16
239.63	1818.60
239.85	1656.81
240.06	1652.71
240.28	1677.29
240.50	1753.06
240.72	1644.52
240.93	1703.91
241.15	1824.74
241.37	1769.44
241.59	1828.84
241.81	1730.53
242.02	1665.00
242.24	1699.81
242.46	1742.82
242.68	1724.39
242.89	1722.34
243.11	1724.39
243.33	1660.90
243.55	1751.01
243.76	1765.35
243.98	1695.72
244.20	1656.81
244.42	1763.30
244.64	1697.77
244.85	1671.14
245.07	1607.66
245.29	1767.40
245.51	1626.09
245.72	1732.58
245.94	1779.68
246.16	1728.49
246.38	1705.96
246.59	1656.81
246.81	1656.81
247.03	1642.47
247.24	1626.09
247.46	1712.10
247.68	1738.73
247.90	1708.01
248.11	1802.21
248.33	1789.92
248.55	1726.44
248.77	1763.30
248.98	1769.44
249.20	1781.73
249.42	1714.15
249.64	1740.77
249.85	1759.21
250.07	1660.90
250.29	1691.62
250.50	1763.30
250.72	1630.18
250.94	1808.36
251.16	1820.64
251.37	1720.29
251.59	1791.97
251.81	1730.53
252.02	1716.20
252.24	1673.19
252.46	1779.68
252.68	1708.01
252.89	1697.77
253.11	1650.66
253.33	1822.69
253.54	1812.45
253.76	1691.62
253.98	1656.81
254.20	1777.64
254.41	1662.95
254.63	1718.25
254.85	1566.70
255.06	1646.57
255.28	1753.06
255.50	1685.48
255.71	1658.85
255.93	1611.75
256.15	1734.63
256.36	1816.55
256.58	1740.77
256.80	1730.53
257.02	1714.15
257.23	1691.62
257.45	1703.91
257.67	1742.82
257.88	1667.05
258.10	1679.33
258.32	1712.10
258.53	1724.39
258.75	1828.84
258.97	1710.05
259.18	1662.95
259.40	1767.40
259.62	1789.92
259.83	1871.84
260.05	1708.01
260.27	1900.52
260.48	1724.39
260.70	1628.14
260.92	1744.87
261.13	1714.15
261.35	1779.68
261.57	1726.44
261.78	1673.19
262.00	1677.29
262.22	1779.68
262.43	1642.47
262.65	1636.33
262.86	1669.09
263.08	1834.98
263.30	1726.44
263.51	1687.53
263.73	1646.57
263.95	1839.08
264.16	1732.58
264.38	1658.85
264.60	1757.16
264.81	1671.14
265.03	1763.30
265.25	1843.17
265.46	1728.49
265.68	1751.01
265.89	1800.16
266.11	1621.99
266.33	1703.91
266.54	1804.26
266.76	1730.53
266.98	1705.96
267.19	1832.93
267.41	1753.06
267.62	1724.39
267.84	1660.90
268.06	1806.31
268.27	1726.44
268.49	1746.92
268.70	1753.06
268.92	1675.24
269.14	1658.85
269.35	1681.38
269.57	1736.68
269.79	1820.64
270.00	1689.57
270.22	1718.25
270.43	1718.25
270.65	1656.81
270.87	1753.06
271.08	1755.11
271.30	1703.91
271.51	1781.73
271.73	1824.74
271.95	1753.06
272.16	1761.25
272.38	1615.85
272.59	1718.25
272.81	1763.30
273.02	1806.31
273.24	1746.92
273.46	1820.64
273.67	1640.42
273.89	1691.62
274.10	1675.24
274.32	1779.68
274.54	1759.21
274.75	1753.06
274.97	1665.00
275.18	1744.87
275.40	1763.30
275.61	1677.29
275.83	1679.33
276.05	1658.85
276.26	1697.77
276.48	1742.82
276.69	1714.15
276.91	1658.85
277.12	1765.35
277.34	1769.44
277.55	1820.64
277.77	1746.92
277.99	1705.96
278.20	1685.48
278.42	1673.19
278.63	1648.61
278.85	1658.85
279.06	1677.29
279.28	1687.53
279.49	1710.05
279.71	1753.06
279.93	1714.15
280.14	1650.66
280.36	1624.04
280.57	1789.92
280.79	1814.50
281.00	1708.01
281.22	1683.43
281.43	1763.30
281.65	1585.13
281.86	1673.19
282.08	1705.96
282.29	1910.75
282.51	1667.05
282.73	1679.33
282.94	1665.00
283.16	1800.16
283.37	1837.03
283.59	1628.14
283.80	1742.82
284.02	1693.67
284.23	1767.40
284.45	1648.61
284.66	1705.96
284.88	1665.00
285.09	1685.48
285.31	1722.34
285.52	1722.34
285.74	1626.09
285.95	1740.77
286.17	1683.43
286.38	1738.73
286.60	1660.90
286.81	1671.14
287.03	1718.25
287.24	1765.35
287.46	1730.53
287.67	1675.24
287.89	1773.54
288.10	1722.34
288.32	1765.35
288.53	1773.54
288.75	1730.53
288.96	1771.49
289.18	1609.70
289.39	1665.00
289.61	1708.01
289.82	1865.70
290.04	1810.40
290.25	1673.19
290.47	1724.39
290.68	1673.19
290.90	1730.53
291.11	1732.58
291.33	1734.63
291.54	1648.61
291.76	1669.09
291.97	1742.82
292.18	1757.16
292.40	1642.47
292.61	1681.38
292.83	1824.74
293.04	1677.29
293.26	1796.07
293.47	1648.61
293.69	1689.57
293.90	1710.05
294.12	1810.40
294.33	1744.87
294.55	1677.29
294.76	1738.73
294.97	1787.88
295.19	1839.08
295.40	1701.86
295.62	1738.73
295.83	1830.88
296.05	1726.44
296.26	1785.83
296.48	1712.10
296.69	1712.10
296.90	1656.81
297.12	1755.11
297.33	1839.08
297.55	1800.16
297.76	1722.34
297.98	1802.21
298.19	1755.11
298.41	1691.62
298.62	1667.05
298.83	1802.21
299.05	1759.21
299.26	1722.34
299.48	1665.00
299.69	1693.67
299.90	1718.25
300.12	1673.19
300.33	1740.77
300.55	1773.54
300.76	1718.25
300.98	1605.61
301.19	1714.15
301.40	1744.87
301.62	1724.39
301.83	1779.68
302.05	1798.12
302.26	1759.21
302.47	1746.92
302.69	1644.52
302.90	1769.44
303.12	1619.94
303.33	1751.01
303.54	1816.55
303.76	1644.52
303.97	1675.24
304.19	1802.21
304.40	1650.66
304.61	1732.58
304.83	1767.40
305.04	1781.73
305.26	1794.02
305.47	1722.34
305.68	1744.87
305.90	1685.48
306.11	1732.58
306.33	1771.49
306.54	1685.48
306.75	1656.81
306.97	1650.66
307.18	1681.38
307.39	1697.77
307.61	1818.60
307.82	1693.67
308.04	1804.26
308.25	1636.33
308.46	1789.92
308.68	1763.30
308.89	1662.95
309.10	1873.89
309.32	1699.81
309.53	1671.14
309.74	1718.25
309.96	1650.66
310.17	1832.93
310.39	1681.38
310.60	1755.11
310.81	1748.97
311.03	1640.42
311.24	1742.82
311.45	1693.67
311.67	1802.21
311.88	1824.74
312.09	1638.38
312.31	1687.53
312.52	1804.26
312.73	1740.77
312.95	1669.09
313.16	1665.00
313.37	1753.06
313.59	1755.11
313.80	1783.78
314.01	1869.80
314.23	1687.53
314.44	1660.90
314.65	1665.00
314.87	1650.66
315.08	1697.77
315.29	1746.92
315.51	1716.20
315.72	1644.52
315.93	1718.25
316.15	1771.49
316.36	1728.49
316.57	1767.40
316.79	1687.53
317.00	1673.19
317.21	1744.87
317.43	1695.72
317.64	1720.29
317.85	1662.95
318.07	1650.66
318.28	1746.92
318.49	1779.68
318.70	1953.76
318.92	1861.60
319.13	1820.64
319.34	1841.12
319.56	1834.98
319.77	1880.04
319.98	1806.31
320.20	1806.31
320.41	1751.01
320.62	1855.46
320.83	1693.67
321.05	1810.40
321.26	1728.49
321.47	1742.82
321.69	1763.30
321.90	1634.28
322.11	1673.19
322.32	1783.78
322.54	1736.68
322.75	1642.47
322.96	1884.13
323.18	1644.52
323.39	1613.80
323.60	1646.57
323.81	1718.25
324.03	1685.48
324.24	1748.97
324.45	1730.53
324.66	1798.12
324.88	1808.36
325.09	1834.98
325.30	1720.29
325.52	1794.02
325.73	1742.82
325.94	1685.48
326.15	1607.66
326.37	1644.52
326.58	1718.25
326.79	1732.58
327.00	1683.43
327.22	1744.87
327.43	1624.04
327.64	1665.00
327.85	1718.25
328.07	1712.10
328.28	1761.25
328.49	1751.01
328.70	1671.14
328.92	1726.44
329.13	1714.15
329.34	1785.83
329.55	1816.55
329.76	1738.73
329.98	1671.14
330.19	1767.40
330.40	1734.63
330.61	1734.63
330.83	1748.97
331.04	1656.81
331.25	1701.86
331.46	1761.25
331.68	1619.94
331.89	1701.86
332.10	1640.42
332.31	1665.00
332.52	1742.82
332.74	1834.98
332.95	1595.37
333.16	1667.05
333.37	1763.30
333.58	1621.99
333.80	1720.29
334.01	1558.50
334.22	1771.49
334.43	1738.73
334.64	1693.67
334.86	1660.90
335.07	1650.66
335.28	1791.97
335.49	1613.80
335.70	1724.39
335.92	1798.12
336.13	1923.04
336.34	1783.78
336.55	1697.77
336.76	1791.97
336.98	1626.09
337.19	1660.90
337.40	1759.21
337.61	1800.16
337.82	1730.53
338.04	1777.64
338.25	1652.71
338.46	1724.39
338.67	1652.71
338.88	1748.97
339.09	1669.09
339.31	1675.24
339.52	1603.56
339.73	1656.81
339.94	1691.62
340.15	1687.53
340.36	1699.81
340.58	1779.68
340.79	1644.52
341.00	1869.80
341.21	1611.75
341.42	1867.75
341.63	1710.05
341.85	1722.34
342.06	1681.38
342.27	1691.62
342.48	1791.97
342.69	1621.99
342.90	1705.96
343.12	1775.59
343.33	1638.38
343.54	1777.64
343.75	1779.68
343.96	1755.11
344.17	1679.33
344.38	1708.01
344.60	1746.92
344.81	1671.14
345.02	1746.92
345.23	1744.87
345.44	1738.73
345.65	1738.73
345.86	1761.25
346.07	1701.86
346.29	1699.81
346.50	1699.81
346.71	1757.16
346.92	1732.58
347.13	1828.84
347.34	1720.29
347.55	1665.00
347.76	1744.87
347.98	1624.04
348.19	1697.77
348.40	1824.74
348.61	1683.43
348.82	1769.44
349.03	1767.40
349.24	1667.05
349.45	1812.45
349.66	1601.51
349.88	1738.73
350.09	1673.19
350.30	1767.40
350.51	1775.59
350.72	1798.12
350.93	1703.91
351.14	1673.19
351.35	1751.01
351.56	1759.21
351.77	1656.81
351.99	1720.29
352.20	1794.02
352.41	1751.01
352.62	1650.66
352.83	1724.39
353.04	1642.47
353.25	1601.51
353.46	1779.68
353.67	1767.40
353.88	1615.85
354.09	1718.25
354.30	1712.10
354.52	1783.78
354.73	1748.97
354.94	1677.29
355.15	1677.29
355.36	1820.64
355.57	1740.77
355.78	1744.87
355.99	1714.15
356.20	1669.09
356.41	1859.56
356.62	1734.63
356.83	1734.63
357.04	1781.73
357.25	1599.46
357.46	1773.54
357.68	1603.56
357.89	1669.09
358.10	1791.97
358.31	1695.72
358.52	1699.81
358.73	1677.29
358.94	1656.81
359.15	1683.43
359.36	1744.87
359.57	1703.91
359.78	1673.19
359.99	1736.68
360.20	1568.74
360.41	1615.85
360.62	1755.11
360.83	1775.59
361.04	1742.82
361.25	1710.05
361.46	1857.51
361.67	1785.83
361.88	1839.08
362.09	1757.16
362.30	1751.01
362.51	1665.00
362.72	1699.81
362.93	1796.07
363.14	1802.21
363.35	1804.26
363.56	1667.05
363.78	1763.30
363.99	1738.73
364.20	1705.96
364.41	1728.49
364.62	1828.84
364.83	1687.53
365.04	1640.42
365.25	1693.67
365.46	1873.89
365.67	1699.81
365.88	1679.33
366.09	1699.81
366.30	1615.85
366.51	1724.39
366.72	1656.81
366.93	1742.82
367.14	1728.49
367.35	1679.33
367.56	1669.09
367.77	1818.60
367.98	1746.92
368.18	1796.07
368.39	1794.02
368.60	1699.81
368.81	1681.38
369.02	1757.16
369.23	1710.05
369.44	1615.85
369.65	1695.72
369.86	1710.05
370.07	1732.58
370.28	1701.86
370.49	1726.44
370.70	1662.95
370.91	1667.05
371.12	1632.23
371.33	1849.32
371.54	1720.29
371.75	1843.17
371.96	1587.18
372.17	1712.10
372.38	1705.96
372.59	1679.33
372.80	1648.61
373.01	1771.49
373.22	1773.54
373.43	1695.72
373.64	1689.57
373.85	1703.91
374.06	1855.46
374.26	1746.92
374.47	1736.68
374.68	1765.35
374.89	1828.84
375.10	1652.71
375.31	1767.40
375.52	1695.72
375.73	1658.85
375.94	1636.33
376.15	1785.83
376.36	1714.15
376.57	1673.19
376.78	1693.67
376.99	1730.53
377.20	1820.64
377.40	1681.38
377.61	1787.88
377.82	1671.14
378.03	1789.92
378.24	1843.17
378.45	1681.38
378.66	1765.35
378.87	1646.57
379.08	1646.57
379.29	1693.67
379.50	1732.58
379.71	1763.30
379.91	1744.87
380.12	1671.14
380.33	1656.81
380.54	1736.68
380.75	1703.91
380.96	1675.24
381.17	1779.68
381.38	1744.87
381.59	1734.63
381.80	1732.58
382.00	1822.69
382.21	1755.11
382.42	1773.54
382.63	1900.52
382.84	1767.40
383.05	1853.41
383.26	1822.69
383.47	1759.21
383.68	1767.40
383.88	1763.30
384.09	1669.09
384.30	1773.54
384.51	1814.50
384.72	1744.87
384.93	1703.91
385.14	1734.63
385.35	1800.16
385.55	1660.90
385.76	1869.80
385.97	1626.09
386.18	1634.28
386.39	1648.61
386.60	1683.43
386.81	1730.53
387.02	1671.14
387.22	1638.38
387.43	1871.84
387.64	1775.59
387.85	1830.88
388.06	2191.33
388.27	4206.53
388.48	6813.59
388.68	8236.93
388.89	9762.67
389.10	9854.83
389.31	8722.30
389.52	7669.64
389.73	6668.19
389.93	6170.53
390.14	5875.62
390.35	5222.32
390.56	4630.46
390.77	3696.58
390.98	2967.51
391.18	2523.10
391.39	2154.46
391.60	1865.70
391.81	1791.97
392.02	1753.06
392.23	1902.56
392.43	1695.72
392.64	1841.12
392.85	1851.36
393.06	1804.26
393.27	1726.44
393.47	1654.76
393.68	1732.58
393.89	1728.49
394.10	1791.97
394.31	1720.29
394.52	1628.14
394.72	1722.34
394.93	1763.30
395.14	1632.23
395.35	1773.54
395.56	1718.25
395.76	1742.82
395.97	1816.55
396.18	1877.99
396.39	1863.65
396.60	2111.46
396.80	1869.80
397.01	1890.28
397.22	1775.59
397.43	1837.03
397.64	1753.06
397.84	1779.68
398.05	1890.28
398.26	1748.97
398.47	1818.60
398.67	1816.55
398.88	1738.73
399.09	1705.96
399.30	1681.38
399.51	1794.02
399.71	1732.58
399.92	1732.58
400.13	1685.48
400.34	1742.82
400.54	1720.29
400.75	1761.25
400.96	1722.34
401.17	1798.12
401.37	1632.23
401.58	1679.33
401.79	1744.87
402.00	1804.26
402.21	1988.58
402.41	1904.61
402.62	1970.15
402.83	2088.93
403.04	2015.20
403.24	2074.59
403.45	1787.88
403.66	1951.71
403.87	1877.99
404.07	1875.94
404.28	1916.90
404.49	1861.60
404.70	1771.49
404.90	1796.07
405.11	1710.05
405.32	1812.45
405.52	1712.10
405.73	1681.38
405.94	1665.00
406.15	1710.05
406.35	1785.83
406.56	1794.02
406.77	1738.73
406.98	1765.35
407.18	1722.34
407.39	1814.50
407.60	1748.97
407.80	1718.25
408.01	1685.48
408.22	1748.97
408.43	1603.56
408.63	1699.81
408.84	1685.48
409.05	1755.11
409.25	1703.91
409.46	1751.01
409.67	1736.68
409.88	1761.25
410.08	1765.35
410.29	1648.61
410.50	1705.96
410.70	1730.53
410.91	1679.33
411.12	1726.44
411.32	1738.73
411.53	1632.23
411.74	1755.11
411.95	1824.74
412.15	1744.87
412.36	1802.21
412.57	1777.64
412.77	1708.01
412.98	1744.87
413.19	1705.96
413.39	1847.27
413.60	1761.25
413.81	1820.64
414.01	1634.28
414.22	1783.78
414.43	1785.83
414.63	1751.01
414.84	1771.49
415.05	1708.01
415.25	1695.72
415.46	1800.16
415.67	1693.67
415.87	1722.34
416.08	1714.15
416.29	1662.95
416.49	1705.96
416.70	1689.57
416.91	1714.15
417.11	1697.77
417.32	1728.49
417.53	1767.40
417.73	1726.44
417.94	1730.53
418.15	1738.73
418.35	1677.29
418.56	1716.20
418.77	1781.73
418.97	1677.29
419.18	1779.68
419.38	1570.79
419.59	1642.47
419.80	1892.32
420.00	1740.77
420.21	1724.39
420.42	1693.67
420.62	1730.53
420.83	1683.43
421.04	1746.92
421.24	1660.90
421.45	1755.11
421.65	1791.97
421.86	1703.91
422.07	1746.92
422.27	1734.63
422.48	1808.36
422.69	1621.99
422.89	1746.92
423.10	1656.81
423.30	1699.81
423.51	1683.43
423.72	1710.05
423.92	1814.50
424.13	1718.25
424.33	1757.16
424.54	1716.20
424.75	1689.57
424.95	1814.50
425.16	1765.35
425.36	1697.77
425.57	1779.68
425.78	1742.82
425.98	1742.82
426.19	1679.33
426.39	1755.11
426.60	1683.43
426.81	1814.50
427.01	1697.77
427.22	1689.57
427.42	1642.47
427.63	1638.38
427.83	1751.01
428.04	1763.30
428.25	1779.68
428.45	1771.49
428.66	1787.88
428.86	1681.38
429.07	1740.77
429.28	1738.73
429.48	1738.73
429.69	1703.91
429.89	1777.64
430.10	1685.48
430.30	1779.68
430.51	1714.15
430.71	1689.57
430.92	1736.68
431.13	1716.20
431.33	1746.92
431.54	1753.06
431.74	1804.26
431.95	1841.12
432.15	1724.39
432.36	1757.16
432.56	1677.29
432.77	1877.99
432.98	1751.01
433.18	1783.78
433.39	1705.96
433.59	1728.49
433.80	1830.88
434.00	1894.37
434.21	1710.05
434.41	1677.29
434.62	1888.23
434.82	1687.53
435.03	1671.14
435.23	1740.77
435.44	1609.70
435.64	1769.44
435.85	1724.39
436.06	1761.25
436.26	1755.11
436.47	1730.53
436.67	1708.01
436.88	1753.06
437.08	1748.97
437.29	1812.45
437.49	1718.25
437.70	1771.49
437.90	1748.97
438.11	1871.84
438.31	1791.97
438.52	1976.29
438.72	1869.80
438.93	1980.39
439.13	1796.07
439.34	1789.92
439.54	1865.70
439.75	1800.16
439.95	1796.07
440.16	1800.16
440.36	1730.53
440.57	1777.64
440.77	1787.88
440.98	1705.96
441.18	1722.34
441.39	1734.63
441.59	1644.52
441.80	1837.03
442.00	1722.34
442.21	1839.08
442.41	1687.53
442.62	1865.70
442.82	1708.01
443.02	1718.25
443.23	1734.63
443.43	1759.21
443.64	1800.16
443.84	1718.25
444.05	1843.17
444.25	1724.39
444.46	1720.29
444.66	1763.30
444.87	1837.03
445.07	1689.57
445.28	1767.40
445.48	1781.73
445.69	1781.73
445.89	1902.56
446.09	1763.30
446.30	1951.71
446.50	2615.26
446.71	3774.41
446.91	4310.97
447.12	4708.28
447.32	4966.32
447.53	4302.78
447.73	3878.85
447.93	3557.32
448.14	3373.00
448.34	3221.45
448.55	3004.37
448.75	2926.55
448.96	2758.61
449.16	2371.55
449.36	2232.29
449.57	2115.55
449.77	1931.23
449.98	1804.26
450.18	1775.59
450.39	1834.98
450.59	1787.88
450.79	1730.53
451.00	1812.45
451.20	1826.79
451.41	1708.01
451.61	1761.25
451.81	1775.59
452.02	1720.29
452.22	1726.44
452.43	1712.10
452.63	1757.16
