SpectraSuite Data File
++++++++++++++++++++++++++++++++++++
Date: Mon Jun 06 14:37:57 CEST 2016
User: root
Dark Spectrum Present: No
Reference Spectrum Present: No
Number of Sampled Component Spectra: 1
Spectrometers: USB4C02835
Integration Time (usec): 100000 (USB4C02835)
Spectra Averaged: 1 (USB4C02835)
Boxcar Smoothing: 0 (USB4C02835)
Correct for Electrical Dark: No (USB4C02835)
Strobe/Lamp Enabled: No (USB4C02835)
Correct for Detector Non-linearity: No (USB4C02835)
Correct for Stray Light: No (USB4C02835)
Number of Pixels in Processed Spectrum: 3648
>>>>>Begin Processed Spectral Data<<<<<
177.47	1466.35
177.69	1466.35
177.91	1466.35
178.13	1452.01
178.36	1488.87
178.58	1673.19
178.80	1693.67
179.02	1644.52
179.24	1650.66
179.46	1640.42
179.68	1730.53
179.90	1695.72
180.13	1728.49
180.35	1652.71
180.57	1685.48
180.79	1722.34
181.01	1785.83
181.23	1724.39
181.45	1800.16
181.67	1724.39
181.90	1654.76
182.12	1662.95
182.34	1591.27
182.56	1642.47
182.78	1724.39
183.00	1714.15
183.22	1701.86
183.44	1564.65
183.66	1818.60
183.89	1746.92
184.11	1765.35
184.33	1712.10
184.55	1787.88
184.77	1751.01
184.99	1665.00
185.21	1722.34
185.43	1824.74
185.65	1683.43
185.87	1654.76
186.10	1806.31
186.32	1855.46
186.54	1718.25
186.76	1699.81
186.98	1837.03
187.20	1759.21
187.42	1705.96
187.64	1693.67
187.86	1724.39
188.08	1761.25
188.30	1710.05
188.52	1708.01
188.75	1810.40
188.97	1804.26
189.19	1683.43
189.41	1681.38
189.63	1708.01
189.85	1701.86
190.07	1714.15
190.29	1677.29
190.51	1732.58
190.73	1701.86
190.95	1832.93
191.17	1695.72
191.39	1671.14
191.61	1675.24
191.84	1654.76
192.06	1701.86
192.28	1574.89
192.50	1843.17
192.72	1693.67
192.94	1740.77
193.16	1738.73
193.38	1705.96
193.60	1626.09
193.82	1716.20
194.04	1761.25
194.26	1683.43
194.48	1656.81
194.70	1718.25
194.92	1667.05
195.14	1697.77
195.36	1716.20
195.58	1685.48
195.80	1703.91
196.02	1638.38
196.24	1669.09
196.46	1757.16
196.69	1656.81
196.91	1873.89
197.13	1732.58
197.35	1689.57
197.57	1798.12
197.79	1757.16
198.01	1767.40
198.23	1667.05
198.45	1675.24
198.67	1683.43
198.89	1687.53
199.11	1697.77
199.33	1587.18
199.55	1535.98
199.77	1673.19
199.99	1794.02
200.21	1671.14
200.43	1691.62
200.65	1640.42
200.87	1673.19
201.09	1744.87
201.31	1722.34
201.53	1720.29
201.75	1722.34
201.97	1677.29
202.19	1740.77
202.41	1708.01
202.63	1783.78
202.85	1691.62
203.07	1691.62
203.29	1689.57
203.51	1640.42
203.73	1630.18
203.95	1877.99
204.17	1718.25
204.39	1691.62
204.61	1667.05
204.83	1681.38
205.05	1660.90
205.27	1773.54
205.49	1787.88
205.71	1798.12
205.93	1710.05
206.15	1607.66
206.37	1697.77
206.59	1689.57
206.81	1683.43
207.03	1681.38
207.25	1693.67
207.47	1744.87
207.69	1652.71
207.91	1777.64
208.13	1779.68
208.34	1716.20
208.56	1708.01
208.78	1728.49
209.00	1652.71
209.22	1667.05
209.44	1628.14
209.66	1693.67
209.88	1691.62
210.10	1626.09
210.32	1671.14
210.54	1695.72
210.76	1734.63
210.98	1802.21
211.20	1591.27
211.42	1757.16
211.64	1775.59
211.86	1804.26
212.08	1689.57
212.30	1667.05
212.52	1734.63
212.74	1673.19
212.96	1714.15
213.17	1796.07
213.39	1746.92
213.61	1802.21
213.83	1671.14
214.05	1601.51
214.27	1775.59
214.49	1662.95
214.71	1716.20
214.93	1787.88
215.15	1716.20
215.37	1789.92
215.59	1587.18
215.81	1695.72
216.03	1798.12
216.24	1665.00
216.46	1652.71
216.68	1767.40
216.90	1736.68
217.12	1724.39
217.34	1685.48
217.56	1732.58
217.78	1763.30
218.00	1781.73
218.22	1851.36
218.44	1628.14
218.66	1732.58
218.87	1847.27
219.09	1699.81
219.31	1732.58
219.53	1681.38
219.75	1654.76
219.97	1683.43
220.19	1681.38
220.41	1660.90
220.63	1738.73
220.85	1689.57
221.06	1695.72
221.28	1738.73
221.50	1789.92
221.72	1626.09
221.94	1648.61
222.16	1730.53
222.38	1757.16
222.60	1773.54
222.82	1677.29
223.03	1746.92
223.25	1601.51
223.47	1814.50
223.69	1791.97
223.91	1701.86
224.13	1673.19
224.35	1761.25
224.57	1789.92
224.78	1773.54
225.00	1630.18
225.22	1665.00
225.44	1689.57
225.66	1724.39
225.88	1699.81
226.10	1748.97
226.32	1779.68
226.53	1798.12
226.75	1699.81
226.97	1701.86
227.19	1740.77
227.41	1771.49
227.63	1673.19
227.85	1617.90
228.06	1814.50
228.28	1671.14
228.50	1751.01
228.72	1683.43
228.94	1615.85
229.16	1605.61
229.37	1751.01
229.59	1667.05
229.81	1779.68
230.03	1673.19
230.25	1624.04
230.47	1624.04
230.69	1617.90
230.90	1765.35
231.12	1667.05
231.34	1779.68
231.56	1818.60
231.78	1626.09
232.00	1673.19
232.21	1722.34
232.43	1667.05
232.65	1548.26
232.87	1699.81
233.09	1679.33
233.30	1714.15
233.52	1751.01
233.74	1705.96
233.96	1718.25
234.18	1712.10
234.40	1681.38
234.61	1810.40
234.83	1671.14
235.05	1621.99
235.27	1763.30
235.49	1785.83
235.70	1722.34
235.92	1800.16
236.14	1767.40
236.36	1808.36
236.58	1720.29
236.79	1703.91
237.01	1705.96
237.23	1636.33
237.45	1800.16
237.67	1699.81
237.88	1732.58
238.10	1779.68
238.32	1628.14
238.54	1705.96
238.76	1589.22
238.97	1697.77
239.19	1648.61
239.41	1738.73
239.63	1781.73
239.85	1703.91
240.06	1759.21
240.28	1611.75
240.50	1714.15
240.72	1738.73
240.93	1642.47
241.15	1783.78
241.37	1621.99
241.59	1796.07
241.81	1781.73
242.02	1693.67
242.24	1755.11
242.46	1751.01
242.68	1650.66
242.89	1673.19
243.11	1722.34
243.33	1718.25
243.55	1746.92
243.76	1695.72
243.98	1660.90
244.20	1755.11
244.42	1636.33
244.64	1675.24
244.85	1599.46
245.07	1624.04
245.29	1689.57
245.51	1660.90
245.72	1695.72
245.94	1730.53
246.16	1720.29
246.38	1738.73
246.59	1656.81
246.81	1701.86
247.03	1714.15
247.24	1667.05
247.46	1718.25
247.68	1771.49
247.90	1642.47
248.11	1753.06
248.33	1679.33
248.55	1722.34
248.77	1753.06
248.98	1738.73
249.20	1746.92
249.42	1759.21
249.64	1740.77
249.85	1691.62
250.07	1689.57
250.29	1724.39
250.50	1765.35
250.72	1621.99
250.94	1632.23
251.16	1814.50
251.37	1722.34
251.59	1714.15
251.81	1746.92
252.02	1804.26
252.24	1728.49
252.46	1724.39
252.68	1687.53
252.89	1640.42
253.11	1626.09
253.33	1818.60
253.54	1742.82
253.76	1671.14
253.98	1597.42
254.20	1646.57
254.41	1671.14
254.63	1726.44
254.85	1617.90
255.06	1753.06
255.28	1687.53
255.50	1759.21
255.71	1660.90
255.93	1675.24
256.15	1689.57
256.36	1699.81
256.58	1638.38
256.80	1763.30
257.02	1630.18
257.23	1624.04
257.45	1771.49
257.67	1812.45
257.88	1718.25
258.10	1677.29
258.32	1728.49
258.53	1740.77
258.75	1820.64
258.97	1703.91
259.18	1681.38
259.40	1636.33
259.62	1816.55
259.83	1742.82
260.05	1726.44
260.27	1966.05
260.48	1703.91
260.70	1675.24
260.92	1685.48
261.13	1753.06
261.35	1597.42
261.57	1734.63
261.78	1613.80
262.00	1609.70
262.22	1705.96
262.43	1656.81
262.65	1798.12
262.86	1656.81
263.08	1843.17
263.30	1701.86
263.51	1548.26
263.73	1693.67
263.95	1800.16
264.16	1732.58
264.38	1576.94
264.60	1705.96
264.81	1722.34
265.03	1759.21
265.25	1734.63
265.46	1658.85
265.68	1814.50
265.89	1697.77
266.11	1595.37
266.33	1738.73
266.54	1806.31
266.76	1665.00
266.98	1775.59
267.19	1804.26
267.41	1769.44
267.62	1703.91
267.84	1681.38
268.06	1714.15
268.27	1693.67
268.49	1787.88
268.70	1732.58
268.92	1718.25
269.14	1660.90
269.35	1648.61
269.57	1611.75
269.79	1689.57
270.00	1665.00
270.22	1777.64
270.43	1652.71
270.65	1554.41
270.87	1681.38
271.08	1771.49
271.30	1728.49
271.51	1712.10
271.73	1789.92
271.95	1716.20
272.16	1669.09
272.38	1720.29
272.59	1681.38
272.81	1787.88
273.02	1736.68
273.24	1710.05
273.46	1796.07
273.67	1652.71
273.89	1681.38
274.10	1624.04
274.32	1722.34
274.54	1683.43
274.75	1683.43
274.97	1681.38
275.18	1681.38
275.40	1730.53
275.61	1660.90
275.83	1624.04
276.05	1626.09
276.26	1681.38
276.48	1687.53
276.69	1695.72
276.91	1675.24
277.12	1785.83
277.34	1771.49
277.55	1755.11
277.77	1748.97
277.99	1689.57
278.20	1644.52
278.42	1560.55
278.63	1714.15
278.85	1689.57
279.06	1716.20
279.28	1691.62
279.49	1785.83
279.71	1755.11
279.93	1697.77
280.14	1654.76
280.36	1652.71
280.57	1697.77
280.79	1744.87
281.00	1669.09
281.22	1665.00
281.43	1724.39
281.65	1611.75
281.86	1638.38
282.08	1748.97
282.29	1746.92
282.51	1630.18
282.73	1679.33
282.94	1654.76
283.16	1751.01
283.37	1822.69
283.59	1708.01
283.80	1669.09
284.02	1660.90
284.23	1722.34
284.45	1693.67
284.66	1632.23
284.88	1585.13
285.09	1693.67
285.31	1746.92
285.52	1699.81
285.74	1665.00
285.95	1765.35
286.17	1601.51
286.38	1789.92
286.60	1595.37
286.81	1679.33
287.03	1681.38
287.24	1699.81
287.46	1699.81
287.67	1708.01
287.89	1861.60
288.10	1634.28
288.32	1710.05
288.53	1667.05
288.75	1644.52
288.96	1722.34
289.18	1630.18
289.39	1755.11
289.61	1779.68
289.82	1791.97
290.04	1828.84
290.25	1658.85
290.47	1722.34
290.68	1740.77
290.90	1736.68
291.11	1630.18
291.33	1751.01
291.54	1683.43
291.76	1613.80
291.97	1697.77
292.18	1765.35
292.40	1656.81
292.61	1656.81
292.83	1853.41
293.04	1730.53
293.26	1742.82
293.47	1736.68
293.69	1652.71
293.90	1712.10
294.12	1761.25
294.33	1667.05
294.55	1658.85
294.76	1818.60
294.97	1783.78
295.19	1857.51
295.40	1644.52
295.62	1679.33
295.83	1753.06
296.05	1613.80
296.26	1802.21
296.48	1669.09
296.69	1669.09
296.90	1677.29
297.12	1777.64
297.33	1746.92
297.55	1650.66
297.76	1714.15
297.98	1701.86
298.19	1693.67
298.41	1757.16
298.62	1667.05
298.83	1728.49
299.05	1726.44
299.26	1568.74
299.48	1652.71
299.69	1769.44
299.90	1732.58
300.12	1660.90
300.33	1703.91
300.55	1753.06
300.76	1726.44
300.98	1636.33
301.19	1816.55
301.40	1695.72
301.62	1681.38
301.83	1697.77
302.05	1679.33
302.26	1669.09
302.47	1730.53
302.69	1724.39
302.90	1699.81
303.12	1589.22
303.33	1687.53
303.54	1791.97
303.76	1714.15
303.97	1767.40
304.19	1751.01
304.40	1695.72
304.61	1718.25
304.83	1812.45
305.04	1722.34
305.26	1738.73
305.47	1669.09
305.68	1638.38
305.90	1656.81
306.11	1765.35
306.33	1667.05
306.54	1791.97
306.75	1740.77
306.97	1587.18
307.18	1636.33
307.39	1687.53
307.61	1722.34
307.82	1712.10
308.04	1726.44
308.25	1572.84
308.46	1701.86
308.68	1755.11
308.89	1751.01
309.10	1783.78
309.32	1691.62
309.53	1748.97
309.74	1744.87
309.96	1718.25
310.17	1839.08
310.39	1695.72
310.60	1724.39
310.81	1789.92
311.03	1648.61
311.24	1726.44
311.45	1701.86
311.67	1781.73
311.88	1730.53
312.09	1636.33
312.31	1679.33
312.52	1767.40
312.73	1695.72
312.95	1656.81
313.16	1558.50
313.37	1757.16
313.59	1779.68
313.80	1734.63
314.01	1806.31
314.23	1665.00
314.44	1697.77
314.65	1640.42
314.87	1685.48
315.08	1730.53
315.29	1734.63
315.51	1660.90
315.72	1626.09
315.93	1742.82
316.15	1828.84
316.36	1683.43
316.57	1728.49
316.79	1728.49
317.00	1683.43
317.21	1763.30
317.43	1697.77
317.64	1710.05
317.85	1654.76
318.07	1667.05
318.28	1705.96
318.49	1865.70
318.70	1906.66
318.92	1830.88
319.13	1796.07
319.34	1863.65
319.56	1763.30
319.77	1863.65
319.98	1789.92
320.20	1798.12
320.41	1775.59
320.62	1761.25
320.83	1742.82
321.05	1824.74
321.26	1734.63
321.47	1697.77
321.69	1763.30
321.90	1687.53
322.11	1675.24
322.32	1699.81
322.54	1794.02
322.75	1658.85
322.96	1744.87
323.18	1632.23
323.39	1630.18
323.60	1628.14
323.81	1787.88
324.03	1652.71
324.24	1722.34
324.45	1648.61
324.66	1640.42
324.88	1765.35
325.09	1787.88
325.30	1722.34
325.52	1767.40
325.73	1710.05
325.94	1689.57
326.15	1619.94
326.37	1687.53
326.58	1736.68
326.79	1826.79
327.00	1621.99
327.22	1681.38
327.43	1632.23
327.64	1640.42
327.85	1673.19
328.07	1753.06
328.28	1837.03
328.49	1648.61
328.70	1796.07
328.92	1587.18
329.13	1724.39
329.34	1791.97
329.55	1847.27
329.76	1808.36
329.98	1744.87
330.19	1767.40
330.40	1677.29
330.61	1738.73
330.83	1763.30
331.04	1667.05
331.25	1710.05
331.46	1640.42
331.68	1665.00
331.89	1806.31
332.10	1667.05
332.31	1619.94
332.52	1683.43
332.74	1699.81
332.95	1703.91
333.16	1718.25
333.37	1734.63
333.58	1654.76
333.80	1693.67
334.01	1593.32
334.22	1697.77
334.43	1669.09
334.64	1720.29
334.86	1656.81
335.07	1556.46
335.28	1796.07
335.49	1560.55
335.70	1746.92
335.92	1673.19
336.13	1814.50
336.34	1632.23
336.55	1724.39
336.76	1755.11
336.98	1621.99
337.19	1673.19
337.40	1710.05
337.61	1888.23
337.82	1699.81
338.04	1734.63
338.25	1626.09
338.46	1716.20
338.67	1724.39
338.88	1654.76
339.09	1607.66
339.31	1671.14
339.52	1605.61
339.73	1687.53
339.94	1710.05
340.15	1765.35
340.36	1681.38
340.58	1671.14
340.79	1683.43
341.00	1832.93
341.21	1685.48
341.42	1832.93
341.63	1648.61
341.85	1757.16
342.06	1650.66
342.27	1728.49
342.48	1759.21
342.69	1634.28
342.90	1695.72
343.12	1759.21
343.33	1667.05
343.54	1697.77
343.75	1705.96
343.96	1662.95
344.17	1730.53
344.38	1673.19
344.60	1587.18
344.81	1650.66
345.02	1634.28
345.23	1757.16
345.44	1791.97
345.65	1740.77
345.86	1722.34
346.07	1640.42
346.29	1691.62
346.50	1761.25
346.71	1724.39
346.92	1802.21
347.13	1884.13
347.34	1714.15
347.55	1638.38
347.76	1775.59
347.98	1617.90
348.19	1738.73
348.40	1775.59
348.61	1642.47
348.82	1777.64
349.03	1742.82
349.24	1679.33
349.45	1800.16
349.66	1607.66
349.88	1673.19
350.09	1630.18
350.30	1800.16
350.51	1794.02
350.72	1675.24
350.93	1740.77
351.14	1650.66
351.35	1675.24
351.56	1685.48
351.77	1648.61
351.99	1681.38
352.20	1826.79
352.41	1734.63
352.62	1669.09
352.83	1722.34
353.04	1665.00
353.25	1628.14
353.46	1718.25
353.67	1714.15
353.88	1589.22
354.09	1728.49
354.30	1683.43
354.52	1753.06
354.73	1730.53
354.94	1689.57
355.15	1697.77
355.36	1722.34
355.57	1675.24
355.78	1746.92
355.99	1601.51
356.20	1689.57
356.41	1757.16
356.62	1701.86
356.83	1705.96
357.04	1785.83
357.25	1658.85
357.46	1628.14
357.68	1685.48
357.89	1734.63
358.10	1701.86
358.31	1650.66
358.52	1687.53
358.73	1662.95
358.94	1660.90
359.15	1720.29
359.36	1701.86
359.57	1681.38
359.78	1708.01
359.99	1761.25
360.20	1652.71
360.41	1687.53
360.62	1755.11
360.83	1763.30
361.04	1722.34
361.25	1740.77
361.46	1746.92
361.67	1767.40
361.88	1705.96
362.09	1751.01
362.30	1773.54
362.51	1611.75
362.72	1753.06
362.93	1718.25
363.14	1755.11
363.35	1638.38
363.56	1634.28
363.78	1765.35
363.99	1677.29
364.20	1644.52
364.41	1740.77
364.62	1796.07
364.83	1777.64
365.04	1738.73
365.25	1671.14
365.46	1789.92
365.67	1681.38
365.88	1615.85
366.09	1681.38
366.30	1675.24
366.51	1714.15
366.72	1640.42
366.93	1730.53
367.14	1640.42
367.35	1771.49
367.56	1662.95
367.77	1746.92
367.98	1677.29
368.18	1667.05
368.39	1763.30
368.60	1689.57
368.81	1804.26
369.02	1718.25
369.23	1685.48
369.44	1589.22
369.65	1685.48
369.86	1771.49
370.07	1714.15
370.28	1673.19
370.49	1632.23
370.70	1742.82
370.91	1617.90
371.12	1585.13
371.33	1783.78
371.54	1716.20
371.75	1798.12
371.96	1570.79
372.17	1634.28
372.38	1722.34
372.59	1716.20
372.80	1716.20
373.01	1746.92
373.22	1644.52
373.43	1667.05
373.64	1677.29
373.85	1777.64
374.06	1742.82
374.26	1728.49
374.47	1724.39
374.68	1785.83
374.89	1740.77
375.10	1673.19
375.31	1697.77
375.52	1718.25
375.73	1703.91
375.94	1603.56
376.15	1798.12
376.36	1677.29
376.57	1753.06
376.78	1626.09
376.99	1675.24
377.20	1714.15
377.40	1617.90
377.61	1800.16
377.82	1652.71
378.03	1806.31
378.24	1730.53
378.45	1724.39
378.66	1624.04
378.87	1636.33
379.08	1538.02
379.29	1710.05
379.50	1738.73
379.71	1673.19
379.91	1714.15
380.12	1746.92
380.33	1662.95
380.54	1677.29
380.75	1734.63
380.96	1722.34
381.17	1746.92
381.38	1681.38
381.59	1800.16
381.80	1759.21
382.00	1787.88
382.21	1789.92
382.42	1773.54
382.63	1789.92
382.84	1730.53
383.05	1630.18
383.26	1757.16
383.47	1751.01
383.68	1734.63
383.88	1828.84
384.09	1736.68
384.30	1781.73
384.51	1789.92
384.72	1669.09
384.93	1615.85
385.14	1683.43
385.35	1759.21
385.55	1685.48
385.76	1781.73
385.97	1617.90
386.18	1695.72
386.39	1693.67
386.60	1687.53
386.81	1703.91
387.02	1683.43
387.22	1708.01
387.43	1757.16
387.64	1769.44
387.85	1867.75
388.06	2160.61
388.27	4276.16
388.48	6870.94
388.68	8212.35
388.89	9670.51
389.10	9807.72
389.31	8576.89
389.52	7620.49
389.73	6670.23
389.93	6225.82
390.14	5871.53
390.35	5310.38
390.56	4552.63
390.77	3854.28
390.98	3020.75
391.18	2396.12
391.39	2117.60
391.60	1898.47
391.81	1822.69
392.02	1726.44
392.23	1818.60
392.43	1761.25
392.64	1802.21
392.85	1701.86
393.06	1822.69
393.27	1730.53
393.47	1640.42
393.68	1697.77
393.89	1683.43
394.10	1769.44
394.31	1699.81
394.52	1650.66
394.72	1794.02
394.93	1841.12
395.14	1605.61
395.35	1796.07
395.56	1691.62
395.76	1714.15
395.97	1855.46
396.18	1853.41
396.39	1916.90
396.60	2000.87
396.80	1890.28
397.01	1796.07
397.22	1871.84
397.43	1816.55
397.64	1744.87
397.84	1832.93
398.05	1853.41
398.26	1705.96
398.47	1787.88
398.67	1716.20
398.88	1755.11
399.09	1724.39
399.30	1673.19
399.51	1771.49
399.71	1607.66
399.92	1650.66
400.13	1759.21
400.34	1656.81
400.54	1677.29
400.75	1804.26
400.96	1769.44
401.17	1765.35
401.37	1755.11
401.58	1695.72
401.79	1757.16
402.00	1873.89
402.21	1998.82
402.41	1877.99
402.62	1978.34
402.83	2093.02
403.04	2009.06
403.24	2082.78
403.45	1824.74
403.66	1929.19
403.87	1910.75
404.07	1976.29
404.28	1865.70
404.49	1845.22
404.70	1806.31
404.90	1837.03
405.11	1765.35
405.32	1718.25
405.52	1679.33
405.73	1652.71
405.94	1654.76
406.15	1785.83
406.35	1744.87
406.56	1734.63
406.77	1673.19
406.98	1763.30
407.18	1693.67
407.39	1794.02
407.60	1671.14
407.80	1724.39
408.01	1665.00
408.22	1699.81
408.43	1650.66
408.63	1763.30
408.84	1794.02
409.05	1759.21
409.25	1605.61
409.46	1708.01
409.67	1705.96
409.88	1720.29
410.08	1738.73
410.29	1728.49
410.50	1755.11
410.70	1703.91
410.91	1693.67
411.12	1689.57
411.32	1724.39
411.53	1755.11
411.74	1812.45
411.95	1695.72
412.15	1736.68
412.36	1785.83
412.57	1742.82
412.77	1771.49
412.98	1791.97
413.19	1611.75
413.39	1736.68
413.60	1873.89
413.81	1816.55
414.01	1714.15
414.22	1648.61
414.43	1791.97
414.63	1796.07
414.84	1751.01
415.05	1771.49
415.25	1624.04
415.46	1779.68
415.67	1665.00
415.87	1712.10
416.08	1691.62
416.29	1701.86
416.49	1822.69
416.70	1648.61
416.91	1687.53
417.11	1740.77
417.32	1822.69
417.53	1726.44
417.73	1665.00
417.94	1705.96
418.15	1746.92
418.35	1716.20
418.56	1665.00
418.77	1824.74
418.97	1609.70
419.18	1763.30
419.38	1587.18
419.59	1730.53
419.80	1806.31
420.00	1734.63
420.21	1699.81
420.42	1726.44
420.62	1703.91
420.83	1708.01
421.04	1697.77
421.24	1630.18
421.45	1757.16
421.65	1763.30
421.86	1669.09
422.07	1794.02
422.27	1796.07
422.48	1677.29
422.69	1652.71
422.89	1791.97
423.10	1634.28
423.30	1677.29
423.51	1775.59
423.72	1697.77
423.92	1720.29
424.13	1660.90
424.33	1703.91
424.54	1759.21
424.75	1621.99
424.95	1718.25
425.16	1718.25
425.36	1638.38
425.57	1748.97
425.78	1765.35
425.98	1650.66
426.19	1628.14
426.39	1650.66
426.60	1703.91
426.81	1834.98
427.01	1634.28
427.22	1701.86
427.42	1613.80
427.63	1634.28
427.83	1804.26
428.04	1771.49
428.25	1794.02
428.45	1759.21
428.66	1671.14
428.86	1740.77
429.07	1675.24
429.28	1722.34
429.48	1693.67
429.69	1642.47
429.89	1714.15
430.10	1681.38
430.30	1714.15
430.51	1781.73
430.71	1660.90
430.92	1613.80
431.13	1710.05
431.33	1796.07
431.54	1701.86
431.74	1894.37
431.95	1877.99
432.15	1693.67
432.36	1732.58
432.56	1818.60
432.77	1822.69
432.98	1812.45
433.18	1728.49
433.39	1730.53
433.59	1650.66
433.80	1837.03
434.00	1810.40
434.21	1683.43
434.41	1712.10
434.62	1837.03
434.82	1621.99
435.03	1710.05
435.23	1720.29
435.44	1591.27
435.64	1632.23
435.85	1673.19
436.06	1673.19
436.26	1800.16
436.47	1689.57
436.67	1648.61
436.88	1681.38
437.08	1701.86
437.29	1845.22
437.49	1710.05
437.70	1769.44
437.90	1705.96
438.11	1839.08
438.31	1832.93
438.52	1914.85
438.72	1869.80
438.93	1900.52
439.13	1859.56
439.34	1798.12
439.54	1730.53
439.75	1845.22
439.95	1742.82
440.16	1789.92
440.36	1769.44
440.57	1751.01
440.77	1710.05
440.98	1771.49
441.18	1726.44
441.39	1607.66
441.59	1689.57
441.80	1902.56
442.00	1732.58
442.21	1802.21
442.41	1712.10
442.62	1783.78
442.82	1699.81
443.02	1753.06
443.23	1726.44
443.43	1728.49
443.64	1830.88
443.84	1632.23
444.05	1794.02
444.25	1755.11
444.46	1675.24
444.66	1767.40
444.87	1839.08
445.07	1658.85
445.28	1771.49
445.48	1787.88
445.69	1767.40
445.89	1869.80
446.09	1787.88
446.30	2017.25
446.50	2633.69
446.71	3704.78
446.91	4362.17
447.12	4755.38
447.32	4841.40
447.53	4403.13
447.73	3921.86
447.93	3643.34
448.14	3295.18
448.34	3162.06
448.55	2861.01
448.75	2852.82
448.96	2674.65
449.16	2422.75
449.36	2324.44
449.57	2058.21
449.77	1859.56
449.98	1755.11
450.18	1781.73
450.39	1818.60
450.59	1798.12
450.79	1763.30
451.00	1759.21
451.20	1734.63
451.41	1732.58
451.61	1736.68
451.81	1816.55
452.02	1705.96
452.22	1736.68
452.43	1708.01
452.63	1712.10
