SpectraSuite Data File
++++++++++++++++++++++++++++++++++++
Date: Mon Jun 06 12:30:17 CEST 2016
User: root
Dark Spectrum Present: No
Reference Spectrum Present: No
Number of Sampled Component Spectra: 1
Spectrometers: USB4C02835
Integration Time (usec): 100000 (USB4C02835)
Spectra Averaged: 1 (USB4C02835)
Boxcar Smoothing: 0 (USB4C02835)
Correct for Electrical Dark: No (USB4C02835)
Strobe/Lamp Enabled: No (USB4C02835)
Correct for Detector Non-linearity: No (USB4C02835)
Correct for Stray Light: No (USB4C02835)
Number of Pixels in Processed Spectrum: 3648
>>>>>Begin Processed Spectral Data<<<<<
177.47	1423.34
177.69	1423.34
177.91	1423.34
178.13	1394.67
178.36	1435.63
178.58	1642.47
178.80	1705.96
179.02	1636.33
179.24	1578.98
179.46	1691.62
179.68	1703.91
179.90	1681.38
180.13	1740.77
180.35	1613.80
180.57	1675.24
180.79	1679.33
181.01	1697.77
181.23	1761.25
181.45	1822.69
181.67	1679.33
181.90	1763.30
182.12	1705.96
182.34	1665.00
182.56	1720.29
182.78	1720.29
183.00	1677.29
183.22	1724.39
183.44	1646.57
183.66	1822.69
183.89	1783.78
184.11	1685.48
184.33	1755.11
184.55	1734.63
184.77	1673.19
184.99	1697.77
185.21	1675.24
185.43	1824.74
185.65	1710.05
185.87	1671.14
186.10	1794.02
186.32	1816.55
186.54	1710.05
186.76	1769.44
186.98	1714.15
187.20	1705.96
187.42	1658.85
187.64	1738.73
187.86	1738.73
188.08	1753.06
188.30	1708.01
188.52	1714.15
188.75	1712.10
188.97	1697.77
189.19	1718.25
189.41	1687.53
189.63	1771.49
189.85	1669.09
190.07	1722.34
190.29	1611.75
190.51	1693.67
190.73	1617.90
190.95	1646.57
191.17	1710.05
191.39	1654.76
191.61	1667.05
191.84	1626.09
192.06	1738.73
192.28	1644.52
192.50	1867.75
192.72	1726.44
192.94	1673.19
193.16	1734.63
193.38	1642.47
193.60	1671.14
193.82	1632.23
194.04	1806.31
194.26	1712.10
194.48	1695.72
194.70	1667.05
194.92	1665.00
195.14	1755.11
195.36	1628.14
195.58	1656.81
195.80	1634.28
196.02	1687.53
196.24	1648.61
196.46	1695.72
196.69	1630.18
196.91	1736.68
197.13	1681.38
197.35	1685.48
197.57	1763.30
197.79	1677.29
198.01	1714.15
198.23	1746.92
198.45	1722.34
198.67	1665.00
198.89	1736.68
199.11	1763.30
199.33	1599.46
199.55	1611.75
199.77	1701.86
199.99	1810.40
200.21	1699.81
200.43	1675.24
200.65	1642.47
200.87	1568.74
201.09	1693.67
201.31	1648.61
201.53	1744.87
201.75	1714.15
201.97	1679.33
202.19	1626.09
202.41	1693.67
202.63	1826.79
202.85	1658.85
203.07	1722.34
203.29	1701.86
203.51	1687.53
203.73	1644.52
203.95	1914.85
204.17	1697.77
204.39	1765.35
204.61	1636.33
204.83	1658.85
205.05	1675.24
205.27	1744.87
205.49	1775.59
205.71	1710.05
205.93	1634.28
206.15	1656.81
206.37	1667.05
206.59	1724.39
206.81	1705.96
207.03	1632.23
207.25	1576.94
207.47	1722.34
207.69	1726.44
207.91	1748.97
208.13	1771.49
208.34	1615.85
208.56	1599.46
208.78	1796.07
209.00	1718.25
209.22	1689.57
209.44	1665.00
209.66	1699.81
209.88	1701.86
210.10	1679.33
210.32	1705.96
210.54	1716.20
210.76	1654.76
210.98	1701.86
211.20	1609.70
211.42	1763.30
211.64	1722.34
211.86	1722.34
212.08	1677.29
212.30	1740.77
212.52	1652.71
212.74	1759.21
212.96	1701.86
213.17	1742.82
213.39	1683.43
213.61	1751.01
213.83	1673.19
214.05	1640.42
214.27	1785.83
214.49	1566.70
214.71	1673.19
214.93	1822.69
215.15	1730.53
215.37	1689.57
215.59	1638.38
215.81	1640.42
216.03	1816.55
216.24	1665.00
216.46	1652.71
216.68	1705.96
216.90	1771.49
217.12	1765.35
217.34	1677.29
217.56	1718.25
217.78	1798.12
218.00	1708.01
218.22	1701.86
218.44	1720.29
218.66	1722.34
218.87	1826.79
219.09	1632.23
219.31	1689.57
219.53	1701.86
219.75	1628.14
219.97	1662.95
220.19	1718.25
220.41	1619.94
220.63	1779.68
220.85	1746.92
221.06	1605.61
221.28	1701.86
221.50	1755.11
221.72	1642.47
221.94	1687.53
222.16	1705.96
222.38	1763.30
222.60	1742.82
222.82	1693.67
223.03	1624.04
223.25	1656.81
223.47	1724.39
223.69	1767.40
223.91	1744.87
224.13	1714.15
224.35	1640.42
224.57	1777.64
224.78	1732.58
225.00	1605.61
225.22	1665.00
225.44	1689.57
225.66	1701.86
225.88	1667.05
226.10	1691.62
226.32	1677.29
226.53	1732.58
226.75	1673.19
226.97	1687.53
227.19	1720.29
227.41	1630.18
227.63	1671.14
227.85	1572.84
228.06	1724.39
228.28	1720.29
228.50	1746.92
228.72	1601.51
228.94	1644.52
229.16	1609.70
229.37	1626.09
229.59	1685.48
229.81	1824.74
230.03	1644.52
230.25	1703.91
230.47	1636.33
230.69	1652.71
230.90	1712.10
231.12	1673.19
231.34	1652.71
231.56	1685.48
231.78	1642.47
232.00	1705.96
232.21	1726.44
232.43	1738.73
232.65	1591.27
232.87	1724.39
233.09	1621.99
233.30	1656.81
233.52	1683.43
233.74	1638.38
233.96	1624.04
234.18	1697.77
234.40	1683.43
234.61	1794.02
234.83	1619.94
235.05	1677.29
235.27	1820.64
235.49	1820.64
235.70	1667.05
235.92	1701.86
236.14	1767.40
236.36	1789.92
236.58	1574.89
236.79	1773.54
237.01	1689.57
237.23	1599.46
237.45	1830.88
237.67	1734.63
237.88	1705.96
238.10	1851.36
238.32	1693.67
238.54	1675.24
238.76	1603.56
238.97	1679.33
239.19	1660.90
239.41	1693.67
239.63	1718.25
239.85	1658.85
240.06	1710.05
240.28	1665.00
240.50	1619.94
240.72	1708.01
240.93	1726.44
241.15	1779.68
241.37	1701.86
241.59	1736.68
241.81	1757.16
242.02	1669.09
242.24	1675.24
242.46	1767.40
242.68	1691.62
242.89	1804.26
243.11	1853.41
243.33	1718.25
243.55	1763.30
243.76	1757.16
243.98	1619.94
244.20	1718.25
244.42	1642.47
244.64	1726.44
244.85	1617.90
245.07	1675.24
245.29	1734.63
245.51	1705.96
245.72	1744.87
245.94	1757.16
246.16	1728.49
246.38	1744.87
246.59	1728.49
246.81	1652.71
247.03	1689.57
247.24	1607.66
247.46	1650.66
247.68	1654.76
247.90	1671.14
248.11	1697.77
248.33	1769.44
248.55	1708.01
248.77	1665.00
248.98	1734.63
249.20	1724.39
249.42	1738.73
249.64	1689.57
249.85	1615.85
250.07	1599.46
250.29	1718.25
250.50	1765.35
250.72	1595.37
250.94	1710.05
251.16	1822.69
251.37	1798.12
251.59	1755.11
251.81	1660.90
252.02	1722.34
252.24	1656.81
252.46	1746.92
252.68	1683.43
252.89	1656.81
253.11	1626.09
253.33	1759.21
253.54	1851.36
253.76	1572.84
253.98	1730.53
254.20	1691.62
254.41	1597.42
254.63	1652.71
254.85	1697.77
255.06	1662.95
255.28	1701.86
255.50	1703.91
255.71	1671.14
255.93	1667.05
256.15	1685.48
256.36	1691.62
256.58	1689.57
256.80	1726.44
257.02	1759.21
257.23	1712.10
257.45	1748.97
257.67	1781.73
257.88	1628.14
258.10	1710.05
258.32	1691.62
258.53	1681.38
258.75	1775.59
258.97	1615.85
259.18	1718.25
259.40	1656.81
259.62	1771.49
259.83	1812.45
260.05	1687.53
260.27	2052.06
260.48	1658.85
260.70	1648.61
260.92	1636.33
261.13	1671.14
261.35	1675.24
261.57	1716.20
261.78	1636.33
262.00	1656.81
262.22	1673.19
262.43	1658.85
262.65	1640.42
262.86	1601.51
263.08	1783.78
263.30	1656.81
263.51	1583.08
263.73	1652.71
263.95	1691.62
264.16	1617.90
264.38	1603.56
264.60	1718.25
264.81	1662.95
265.03	1701.86
265.25	1798.12
265.46	1644.52
265.68	1712.10
265.89	1665.00
266.11	1617.90
266.33	1736.68
266.54	1748.97
266.76	1679.33
266.98	1673.19
267.19	1865.70
267.41	1763.30
267.62	1744.87
267.84	1644.52
268.06	1730.53
268.27	1681.38
268.49	1779.68
268.70	1722.34
268.92	1714.15
269.14	1578.98
269.35	1638.38
269.57	1691.62
269.79	1796.07
270.00	1624.04
270.22	1751.01
270.43	1675.24
270.65	1615.85
270.87	1726.44
271.08	1716.20
271.30	1738.73
271.51	1683.43
271.73	1724.39
271.95	1753.06
272.16	1724.39
272.38	1654.76
272.59	1697.77
272.81	1767.40
273.02	1648.61
273.24	1718.25
273.46	1697.77
273.67	1689.57
273.89	1619.94
274.10	1654.76
274.32	1763.30
274.54	1695.72
274.75	1621.99
274.97	1738.73
275.18	1726.44
275.40	1734.63
275.61	1585.13
275.83	1746.92
276.05	1642.47
276.26	1671.14
276.48	1791.97
276.69	1708.01
276.91	1611.75
277.12	1718.25
277.34	1650.66
277.55	1781.73
277.77	1730.53
277.99	1695.72
278.20	1658.85
278.42	1644.52
278.63	1646.57
278.85	1636.33
279.06	1578.98
279.28	1665.00
279.49	1787.88
279.71	1746.92
279.93	1734.63
280.14	1685.48
280.36	1601.51
280.57	1738.73
280.79	1779.68
281.00	1720.29
281.22	1617.90
281.43	1757.16
281.65	1499.11
281.86	1673.19
282.08	1693.67
282.29	1816.55
282.51	1632.23
282.73	1693.67
282.94	1617.90
283.16	1744.87
283.37	1755.11
283.59	1751.01
283.80	1716.20
284.02	1734.63
284.23	1763.30
284.45	1714.15
284.66	1662.95
284.88	1669.09
285.09	1724.39
285.31	1734.63
285.52	1699.81
285.74	1595.37
285.95	1757.16
286.17	1732.58
286.38	1746.92
286.60	1675.24
286.81	1718.25
287.03	1691.62
287.24	1699.81
287.46	1757.16
287.67	1728.49
287.89	1771.49
288.10	1724.39
288.32	1722.34
288.53	1746.92
288.75	1687.53
288.96	1744.87
289.18	1697.77
289.39	1705.96
289.61	1712.10
289.82	1826.79
290.04	1789.92
290.25	1626.09
290.47	1675.24
290.68	1640.42
290.90	1742.82
291.11	1609.70
291.33	1722.34
291.54	1683.43
291.76	1753.06
291.97	1748.97
292.18	1779.68
292.40	1601.51
292.61	1667.05
292.83	1787.88
293.04	1718.25
293.26	1757.16
293.47	1667.05
293.69	1550.31
293.90	1722.34
294.12	1697.77
294.33	1734.63
294.55	1665.00
294.76	1665.00
294.97	1769.44
295.19	1822.69
295.40	1632.23
295.62	1744.87
295.83	1796.07
296.05	1607.66
296.26	1818.60
296.48	1617.90
296.69	1705.96
296.90	1685.48
297.12	1761.25
297.33	1785.83
297.55	1730.53
297.76	1744.87
297.98	1701.86
298.19	1660.90
298.41	1697.77
298.62	1628.14
298.83	1785.83
299.05	1734.63
299.26	1681.38
299.48	1718.25
299.69	1728.49
299.90	1716.20
300.12	1697.77
300.33	1701.86
300.55	1703.91
300.76	1740.77
300.98	1675.24
301.19	1746.92
301.40	1695.72
301.62	1619.94
301.83	1714.15
302.05	1636.33
302.26	1701.86
302.47	1763.30
302.69	1699.81
302.90	1697.77
303.12	1615.85
303.33	1728.49
303.54	1728.49
303.76	1697.77
303.97	1732.58
304.19	1810.40
304.40	1634.28
304.61	1673.19
304.83	1775.59
305.04	1720.29
305.26	1697.77
305.47	1660.90
305.68	1708.01
305.90	1607.66
306.11	1714.15
306.33	1683.43
306.54	1634.28
306.75	1609.70
306.97	1619.94
307.18	1621.99
307.39	1681.38
307.61	1748.97
307.82	1630.18
308.04	1724.39
308.25	1681.38
308.46	1738.73
308.68	1781.73
308.89	1691.62
309.10	1697.77
309.32	1757.16
309.53	1691.62
309.74	1705.96
309.96	1652.71
310.17	1802.21
310.39	1665.00
310.60	1675.24
310.81	1751.01
311.03	1595.37
311.24	1742.82
311.45	1726.44
311.67	1767.40
311.88	1736.68
312.09	1701.86
312.31	1681.38
312.52	1665.00
312.73	1744.87
312.95	1583.08
313.16	1650.66
313.37	1753.06
313.59	1744.87
313.80	1732.58
314.01	1804.26
314.23	1628.14
314.44	1615.85
314.65	1669.09
314.87	1673.19
315.08	1703.91
315.29	1693.67
315.51	1654.76
315.72	1667.05
315.93	1796.07
316.15	1779.68
316.36	1650.66
316.57	1656.81
316.79	1781.73
317.00	1665.00
317.21	1632.23
317.43	1640.42
317.64	1710.05
317.85	1603.56
318.07	1701.86
318.28	1716.20
318.49	1779.68
318.70	1937.38
318.92	1771.49
319.13	1812.45
319.34	1853.41
319.56	1775.59
319.77	1785.83
319.98	1773.54
320.20	1765.35
320.41	1722.34
320.62	1732.58
320.83	1621.99
321.05	1757.16
321.26	1710.05
321.47	1632.23
321.69	1759.21
321.90	1628.14
322.11	1703.91
322.32	1675.24
322.54	1783.78
322.75	1728.49
322.96	1845.22
323.18	1626.09
323.39	1574.89
323.60	1578.98
323.81	1689.57
324.03	1665.00
324.24	1658.85
324.45	1628.14
324.66	1728.49
324.88	1677.29
325.09	1767.40
325.30	1697.77
325.52	1718.25
325.73	1710.05
325.94	1650.66
326.15	1601.51
326.37	1673.19
326.58	1738.73
326.79	1740.77
327.00	1648.61
327.22	1689.57
327.43	1636.33
327.64	1677.29
327.85	1777.64
328.07	1644.52
328.28	1755.11
328.49	1679.33
328.70	1689.57
328.92	1757.16
329.13	1699.81
329.34	1730.53
329.55	1755.11
329.76	1724.39
329.98	1693.67
330.19	1744.87
330.40	1708.01
330.61	1662.95
330.83	1824.74
331.04	1628.14
331.25	1671.14
331.46	1716.20
331.68	1603.56
331.89	1681.38
332.10	1648.61
332.31	1587.18
332.52	1673.19
332.74	1722.34
332.95	1652.71
333.16	1724.39
333.37	1714.15
333.58	1685.48
333.80	1656.81
334.01	1624.04
334.22	1703.91
334.43	1701.86
334.64	1642.47
334.86	1685.48
335.07	1593.32
335.28	1757.16
335.49	1599.46
335.70	1722.34
335.92	1789.92
336.13	1845.22
336.34	1746.92
336.55	1681.38
336.76	1701.86
336.98	1599.46
337.19	1677.29
337.40	1828.84
337.61	1824.74
337.82	1640.42
338.04	1759.21
338.25	1642.47
338.46	1699.81
338.67	1689.57
338.88	1712.10
339.09	1636.33
339.31	1683.43
339.52	1632.23
339.73	1712.10
339.94	1665.00
340.15	1718.25
340.36	1628.14
340.58	1714.15
340.79	1626.09
341.00	1703.91
341.21	1554.41
341.42	1824.74
341.63	1662.95
341.85	1775.59
342.06	1714.15
342.27	1615.85
342.48	1697.77
342.69	1699.81
342.90	1695.72
343.12	1695.72
343.33	1683.43
343.54	1783.78
343.75	1820.64
343.96	1671.14
344.17	1529.83
344.38	1619.94
344.60	1687.53
344.81	1626.09
345.02	1734.63
345.23	1791.97
345.44	1734.63
345.65	1722.34
345.86	1763.30
346.07	1708.01
346.29	1710.05
346.50	1736.68
346.71	1734.63
346.92	1710.05
347.13	1826.79
347.34	1675.24
347.55	1740.77
347.76	1777.64
347.98	1708.01
348.19	1683.43
348.40	1697.77
348.61	1708.01
348.82	1796.07
349.03	1757.16
349.24	1611.75
349.45	1812.45
349.66	1638.38
349.88	1714.15
350.09	1673.19
350.30	1748.97
350.51	1677.29
350.72	1654.76
350.93	1691.62
351.14	1677.29
351.35	1691.62
351.56	1689.57
351.77	1669.09
351.99	1726.44
352.20	1800.16
352.41	1751.01
352.62	1632.23
352.83	1652.71
353.04	1675.24
353.25	1617.90
353.46	1708.01
353.67	1708.01
353.88	1570.79
354.09	1689.57
354.30	1748.97
354.52	1755.11
354.73	1681.38
354.94	1671.14
355.15	1677.29
355.36	1791.97
355.57	1687.53
355.78	1763.30
355.99	1701.86
356.20	1757.16
356.41	1748.97
356.62	1753.06
356.83	1685.48
357.04	1781.73
357.25	1630.18
357.46	1722.34
357.68	1656.81
357.89	1615.85
358.10	1697.77
358.31	1597.42
358.52	1675.24
358.73	1667.05
358.94	1615.85
359.15	1675.24
359.36	1708.01
359.57	1714.15
359.78	1673.19
359.99	1689.57
360.20	1683.43
360.41	1669.09
360.62	1736.68
360.83	1769.44
361.04	1665.00
361.25	1634.28
361.46	1769.44
361.67	1724.39
361.88	1691.62
362.09	1777.64
362.30	1673.19
362.51	1710.05
362.72	1732.58
362.93	1697.77
363.14	1755.11
363.35	1726.44
363.56	1679.33
363.78	1759.21
363.99	1734.63
364.20	1720.29
364.41	1738.73
364.62	1759.21
364.83	1722.34
365.04	1632.23
365.25	1681.38
365.46	1783.78
365.67	1632.23
365.88	1640.42
366.09	1669.09
366.30	1650.66
366.51	1689.57
366.72	1658.85
366.93	1685.48
367.14	1767.40
367.35	1763.30
367.56	1705.96
367.77	1714.15
367.98	1677.29
368.18	1744.87
368.39	1763.30
368.60	1691.62
368.81	1703.91
369.02	1718.25
369.23	1697.77
369.44	1617.90
369.65	1609.70
369.86	1738.73
370.07	1695.72
370.28	1701.86
370.49	1761.25
370.70	1671.14
370.91	1630.18
371.12	1615.85
371.33	1732.58
371.54	1656.81
371.75	1779.68
371.96	1587.18
372.17	1767.40
372.38	1708.01
372.59	1730.53
372.80	1669.09
373.01	1654.76
373.22	1626.09
373.43	1751.01
373.64	1679.33
373.85	1787.88
374.06	1773.54
374.26	1814.50
374.47	1734.63
374.68	1853.41
374.89	1710.05
375.10	1665.00
375.31	1718.25
375.52	1652.71
375.73	1748.97
375.94	1615.85
376.15	1765.35
376.36	1601.51
376.57	1665.00
376.78	1624.04
376.99	1720.29
377.20	1755.11
377.40	1685.48
377.61	1851.36
377.82	1609.70
378.03	1734.63
378.24	1681.38
378.45	1689.57
378.66	1675.24
378.87	1621.99
379.08	1673.19
379.29	1701.86
379.50	1703.91
379.71	1636.33
379.91	1742.82
380.12	1730.53
380.33	1755.11
380.54	1736.68
380.75	1718.25
380.96	1646.57
381.17	1757.16
381.38	1695.72
381.59	1689.57
381.80	1712.10
382.00	1820.64
382.21	1722.34
382.42	1808.36
382.63	1894.37
382.84	1708.01
383.05	1789.92
383.26	1812.45
383.47	1748.97
383.68	1763.30
383.88	1728.49
384.09	1722.34
384.30	1779.68
384.51	1693.67
384.72	1650.66
384.93	1691.62
385.14	1718.25
385.35	1722.34
385.55	1628.14
385.76	1751.01
385.97	1632.23
386.18	1685.48
386.39	1710.05
386.60	1683.43
386.81	1673.19
387.02	1671.14
387.22	1630.18
387.43	1765.35
387.64	1779.68
387.85	1869.80
388.06	2369.50
388.27	4224.96
388.48	6803.35
388.68	8372.10
388.89	9842.54
389.10	9899.88
389.31	8716.16
389.52	7759.75
389.73	6915.99
389.93	6457.25
390.14	5935.01
390.35	5259.18
390.56	4661.18
390.77	3862.47
390.98	3084.24
391.18	2543.58
391.39	2158.56
391.60	1869.80
391.81	1791.97
392.02	1656.81
392.23	1820.64
392.43	1746.92
392.64	1744.87
392.85	1683.43
393.06	1802.21
393.27	1683.43
393.47	1652.71
393.68	1689.57
393.89	1660.90
394.10	1722.34
394.31	1710.05
394.52	1734.63
394.72	1699.81
394.93	1759.21
395.14	1662.95
395.35	1740.77
395.56	1621.99
395.76	1757.16
395.97	1806.31
396.18	1759.21
396.39	1851.36
396.60	2021.35
396.80	1939.43
397.01	1787.88
397.22	1886.18
397.43	1753.06
397.64	1748.97
397.84	1740.77
398.05	1884.13
398.26	1718.25
398.47	1759.21
398.67	1738.73
398.88	1728.49
399.09	1710.05
399.30	1662.95
399.51	1783.78
399.71	1656.81
399.92	1650.66
400.13	1685.48
400.34	1699.81
400.54	1710.05
400.75	1796.07
400.96	1765.35
401.17	1816.55
401.37	1740.77
401.58	1640.42
401.79	1658.85
402.00	1826.79
402.21	1910.75
402.41	1910.75
402.62	2029.54
402.83	2168.80
403.04	2009.06
403.24	2131.94
403.45	1794.02
403.66	1902.56
403.87	1906.66
404.07	1904.61
404.28	1839.08
404.49	1855.46
404.70	1734.63
404.90	1726.44
405.11	1746.92
405.32	1722.34
405.52	1728.49
405.73	1642.47
405.94	1699.81
406.15	1673.19
406.35	1779.68
406.56	1843.17
406.77	1689.57
406.98	1740.77
407.18	1626.09
407.39	1753.06
407.60	1755.11
407.80	1679.33
408.01	1624.04
408.22	1703.91
408.43	1705.96
408.63	1697.77
408.84	1763.30
409.05	1802.21
409.25	1642.47
409.46	1681.38
409.67	1609.70
409.88	1677.29
410.08	1746.92
410.29	1665.00
410.50	1718.25
410.70	1693.67
410.91	1626.09
411.12	1705.96
411.32	1748.97
411.53	1662.95
411.74	1830.88
411.95	1765.35
412.15	1759.21
412.36	1746.92
412.57	1808.36
412.77	1798.12
412.98	1787.88
413.19	1658.85
413.39	1755.11
413.60	1740.77
413.81	1808.36
414.01	1658.85
414.22	1769.44
414.43	1869.80
414.63	1726.44
414.84	1785.83
415.05	1685.48
415.25	1632.23
415.46	1726.44
415.67	1665.00
415.87	1716.20
416.08	1677.29
416.29	1665.00
416.49	1746.92
416.70	1687.53
416.91	1644.52
417.11	1685.48
417.32	1740.77
417.53	1794.02
417.73	1728.49
417.94	1699.81
418.15	1599.46
418.35	1728.49
418.56	1746.92
418.77	1820.64
418.97	1728.49
419.18	1693.67
419.38	1619.94
419.59	1683.43
419.80	1765.35
420.00	1705.96
420.21	1695.72
420.42	1744.87
420.62	1691.62
420.83	1669.09
421.04	1667.05
421.24	1640.42
421.45	1734.63
421.65	1769.44
421.86	1591.27
422.07	1712.10
422.27	1738.73
422.48	1761.25
422.69	1673.19
422.89	1603.56
423.10	1693.67
423.30	1552.36
423.51	1712.10
423.72	1716.20
423.92	1703.91
424.13	1640.42
424.33	1757.16
424.54	1718.25
424.75	1687.53
424.95	1927.14
425.16	1697.77
425.36	1656.81
425.57	1757.16
425.78	1759.21
425.98	1722.34
426.19	1654.76
426.39	1642.47
426.60	1742.82
426.81	1732.58
427.01	1673.19
427.22	1624.04
427.42	1587.18
427.63	1595.37
427.83	1720.29
428.04	1730.53
428.25	1820.64
428.45	1746.92
428.66	1757.16
428.86	1746.92
429.07	1665.00
429.28	1751.01
429.48	1712.10
429.69	1671.14
429.89	1710.05
430.10	1658.85
430.30	1718.25
430.51	1771.49
430.71	1640.42
430.92	1744.87
431.13	1652.71
431.33	1763.30
431.54	1722.34
431.74	1798.12
431.95	1822.69
432.15	1701.86
432.36	1769.44
432.56	1744.87
432.77	1771.49
432.98	1794.02
433.18	1734.63
433.39	1736.68
433.59	1673.19
433.80	1843.17
434.00	1826.79
434.21	1685.48
434.41	1656.81
434.62	1798.12
434.82	1681.38
435.03	1671.14
435.23	1691.62
435.44	1632.23
435.64	1732.58
435.85	1691.62
436.06	1769.44
436.26	1705.96
436.47	1712.10
436.67	1640.42
436.88	1714.15
437.08	1722.34
437.29	1777.64
437.49	1732.58
437.70	1839.08
437.90	1763.30
438.11	1857.51
438.31	1759.21
438.52	1880.04
438.72	1882.08
438.93	1888.23
439.13	1757.16
439.34	1828.84
439.54	1757.16
439.75	1810.40
439.95	1677.29
440.16	1652.71
440.36	1746.92
440.57	1765.35
440.77	1755.11
440.98	1695.72
441.18	1669.09
441.39	1759.21
441.59	1748.97
441.80	1771.49
442.00	1644.52
442.21	1773.54
442.41	1710.05
442.62	1812.45
442.82	1724.39
443.02	1656.81
443.23	1714.15
443.43	1609.70
443.64	1806.31
443.84	1658.85
444.05	1787.88
444.25	1787.88
444.46	1648.61
444.66	1730.53
444.87	1861.60
445.07	1632.23
445.28	1773.54
445.48	1789.92
445.69	1806.31
445.89	1828.84
446.09	1761.25
446.30	2043.87
446.50	2590.68
446.71	3719.11
446.91	4550.59
447.12	4708.28
447.32	4835.25
447.53	4497.34
447.73	3891.14
447.93	3522.51
448.14	3325.90
448.34	3215.31
448.55	2947.03
448.75	2879.44
448.96	2727.89
449.16	2492.38
449.36	2291.68
449.57	1992.67
449.77	1898.47
449.98	1785.83
450.18	1869.80
450.39	1779.68
450.59	1720.29
450.79	1746.92
451.00	1708.01
451.20	1828.84
451.41	1705.96
451.61	1779.68
451.81	1742.82
452.02	1730.53
452.22	1652.71
452.43	1789.92
452.63	1656.81
