SpectraSuite Data File
++++++++++++++++++++++++++++++++++++
Date: Mon Jun 06 17:12:37 CEST 2016
User: root
Dark Spectrum Present: No
Reference Spectrum Present: No
Number of Sampled Component Spectra: 1
Spectrometers: USB4C02835
Integration Time (usec): 100000 (USB4C02835)
Spectra Averaged: 1 (USB4C02835)
Boxcar Smoothing: 0 (USB4C02835)
Correct for Electrical Dark: No (USB4C02835)
Strobe/Lamp Enabled: No (USB4C02835)
Correct for Detector Non-linearity: No (USB4C02835)
Correct for Stray Light: No (USB4C02835)
Number of Pixels in Processed Spectrum: 3648
>>>>>Begin Processed Spectral Data<<<<<
177.47	1435.63
177.69	1435.63
177.91	1435.63
178.13	1452.01
178.36	1454.06
178.58	1656.81
178.80	1658.85
179.02	1615.85
179.24	1621.99
179.46	1609.70
179.68	1746.92
179.90	1705.96
180.13	1728.49
180.35	1675.24
180.57	1734.63
180.79	1769.44
181.01	1773.54
181.23	1716.20
181.45	1773.54
181.67	1794.02
181.90	1757.16
182.12	1718.25
182.34	1626.09
182.56	1685.48
182.78	1806.31
183.00	1738.73
183.22	1730.53
183.44	1632.23
183.66	1980.39
183.89	1771.49
184.11	1611.75
184.33	1806.31
184.55	1769.44
184.77	1748.97
184.99	1685.48
185.21	1751.01
185.43	1822.69
185.65	1685.48
185.87	1744.87
186.10	1810.40
186.32	1828.84
186.54	1767.40
186.76	1714.15
186.98	1791.97
187.20	1742.82
187.42	1701.86
187.64	1710.05
187.86	1775.59
188.08	1720.29
188.30	1703.91
188.52	1693.67
188.75	1820.64
188.97	1814.50
189.19	1708.01
189.41	1705.96
189.63	1748.97
189.85	1746.92
190.07	1708.01
190.29	1675.24
190.51	1759.21
190.73	1669.09
190.95	1767.40
191.17	1734.63
191.39	1603.56
191.61	1656.81
191.84	1728.49
192.06	1736.68
192.28	1630.18
192.50	1873.89
192.72	1853.41
192.94	1718.25
193.16	1781.73
193.38	1767.40
193.60	1673.19
193.82	1710.05
194.04	1714.15
194.26	1665.00
194.48	1736.68
194.70	1660.90
194.92	1699.81
195.14	1697.77
195.36	1701.86
195.58	1759.21
195.80	1665.00
196.02	1648.61
196.24	1755.11
196.46	1669.09
196.69	1648.61
196.91	1822.69
197.13	1665.00
197.35	1675.24
197.57	1775.59
197.79	1705.96
198.01	1730.53
198.23	1728.49
198.45	1665.00
198.67	1708.01
198.89	1691.62
199.11	1691.62
199.33	1642.47
199.55	1568.74
199.77	1685.48
199.99	1828.84
200.21	1662.95
200.43	1710.05
200.65	1624.04
200.87	1601.51
201.09	1781.73
201.31	1740.77
201.53	1751.01
201.75	1769.44
201.97	1710.05
202.19	1779.68
202.41	1746.92
202.63	1826.79
202.85	1763.30
203.07	1732.58
203.29	1621.99
203.51	1644.52
203.73	1658.85
203.95	1873.89
204.17	1736.68
204.39	1822.69
204.61	1695.72
204.83	1665.00
205.05	1748.97
205.27	1691.62
205.49	1755.11
205.71	1703.91
205.93	1671.14
206.15	1671.14
206.37	1689.57
206.59	1712.10
206.81	1695.72
207.03	1726.44
207.25	1691.62
207.47	1796.07
207.69	1654.76
207.91	1767.40
208.13	1781.73
208.34	1677.29
208.56	1671.14
208.78	1708.01
209.00	1685.48
209.22	1673.19
209.44	1687.53
209.66	1624.04
209.88	1699.81
210.10	1646.57
210.32	1763.30
210.54	1890.28
210.76	1740.77
210.98	1804.26
211.20	1550.31
211.42	1677.29
211.64	1714.15
211.86	1701.86
212.08	1769.44
212.30	1767.40
212.52	1738.73
212.74	1746.92
212.96	1656.81
213.17	1730.53
213.39	1687.53
213.61	1828.84
213.83	1789.92
214.05	1695.72
214.27	1658.85
214.49	1632.23
214.71	1624.04
214.93	1767.40
215.15	1683.43
215.37	1751.01
215.59	1636.33
215.81	1810.40
216.03	1810.40
216.24	1671.14
216.46	1699.81
216.68	1693.67
216.90	1751.01
217.12	1746.92
217.34	1621.99
217.56	1695.72
217.78	1753.06
218.00	1767.40
218.22	1691.62
218.44	1746.92
218.66	1718.25
218.87	1751.01
219.09	1679.33
219.31	1763.30
219.53	1693.67
219.75	1667.05
219.97	1726.44
220.19	1673.19
220.41	1714.15
220.63	1785.83
220.85	1771.49
221.06	1671.14
221.28	1746.92
221.50	1763.30
221.72	1705.96
221.94	1687.53
222.16	1691.62
222.38	1726.44
222.60	1839.08
222.82	1734.63
223.03	1671.14
223.25	1572.84
223.47	1771.49
223.69	1802.21
223.91	1738.73
224.13	1753.06
224.35	1685.48
224.57	1761.25
224.78	1732.58
225.00	1744.87
225.22	1675.24
225.44	1689.57
225.66	1742.82
225.88	1708.01
226.10	1720.29
226.32	1789.92
226.53	1814.50
226.75	1742.82
226.97	1757.16
227.19	1726.44
227.41	1701.86
227.63	1675.24
227.85	1703.91
228.06	1767.40
228.28	1742.82
228.50	1767.40
228.72	1732.58
228.94	1736.68
229.16	1630.18
229.37	1671.14
229.59	1677.29
229.81	1794.02
230.03	1751.01
230.25	1652.71
230.47	1634.28
230.69	1671.14
230.90	1738.73
231.12	1660.90
231.34	1744.87
231.56	1751.01
231.78	1705.96
232.00	1722.34
232.21	1646.57
232.43	1693.67
232.65	1607.66
232.87	1685.48
233.09	1718.25
233.30	1591.27
233.52	1800.16
233.74	1677.29
233.96	1648.61
234.18	1781.73
234.40	1703.91
234.61	1781.73
234.83	1632.23
235.05	1720.29
235.27	1806.31
235.49	1847.27
235.70	1716.20
235.92	1765.35
236.14	1779.68
236.36	1871.84
236.58	1654.76
236.79	1742.82
237.01	1617.90
237.23	1763.30
237.45	1787.88
237.67	1718.25
237.88	1755.11
238.10	1806.31
238.32	1613.80
238.54	1646.57
238.76	1714.15
238.97	1712.10
239.19	1638.38
239.41	1820.64
239.63	1771.49
239.85	1679.33
240.06	1839.08
240.28	1687.53
240.50	1812.45
240.72	1701.86
240.93	1779.68
241.15	1773.54
241.37	1687.53
241.59	1773.54
241.81	1746.92
242.02	1673.19
242.24	1722.34
242.46	1769.44
242.68	1615.85
242.89	1697.77
243.11	1722.34
243.33	1697.77
243.55	1755.11
243.76	1769.44
243.98	1626.09
244.20	1691.62
244.42	1740.77
244.64	1679.33
244.85	1589.22
245.07	1658.85
245.29	1783.78
245.51	1722.34
245.72	1759.21
245.94	1757.16
246.16	1738.73
246.38	1724.39
246.59	1685.48
246.81	1691.62
247.03	1587.18
247.24	1611.75
247.46	1751.01
247.68	1722.34
247.90	1681.38
248.11	1753.06
248.33	1765.35
248.55	1787.88
248.77	1740.77
248.98	1714.15
249.20	1708.01
249.42	1757.16
249.64	1773.54
249.85	1695.72
250.07	1607.66
250.29	1824.74
250.50	1718.25
250.72	1665.00
250.94	1679.33
251.16	1794.02
251.37	1724.39
251.59	1830.88
251.81	1746.92
252.02	1826.79
252.24	1650.66
252.46	1781.73
252.68	1603.56
252.89	1683.43
253.11	1626.09
253.33	1800.16
253.54	1785.83
253.76	1652.71
253.98	1685.48
254.20	1701.86
254.41	1644.52
254.63	1685.48
254.85	1603.56
255.06	1705.96
255.28	1681.38
255.50	1738.73
255.71	1689.57
255.93	1591.27
256.15	1677.29
256.36	1810.40
256.58	1646.57
256.80	1812.45
257.02	1759.21
257.23	1714.15
257.45	1656.81
257.67	1742.82
257.88	1656.81
258.10	1757.16
258.32	1748.97
258.53	1705.96
258.75	1849.32
258.97	1730.53
259.18	1646.57
259.40	1646.57
259.62	1755.11
259.83	1777.64
260.05	1751.01
260.27	1959.91
260.48	1826.79
260.70	1636.33
260.92	1683.43
261.13	1679.33
261.35	1724.39
261.57	1675.24
261.78	1615.85
262.00	1626.09
262.22	1781.73
262.43	1742.82
262.65	1677.29
262.86	1697.77
263.08	1826.79
263.30	1738.73
263.51	1691.62
263.73	1691.62
263.95	1857.51
264.16	1611.75
264.38	1691.62
264.60	1658.85
264.81	1683.43
265.03	1789.92
265.25	1705.96
265.46	1761.25
265.68	1789.92
265.89	1699.81
266.11	1636.33
266.33	1806.31
266.54	1757.16
266.76	1806.31
266.98	1732.58
267.19	1755.11
267.41	1785.83
267.62	1763.30
267.84	1613.80
268.06	1769.44
268.27	1751.01
268.49	1779.68
268.70	1787.88
268.92	1716.20
269.14	1716.20
269.35	1660.90
269.57	1632.23
269.79	1730.53
270.00	1685.48
270.22	1771.49
270.43	1667.05
270.65	1613.80
270.87	1791.97
271.08	1787.88
271.30	1742.82
271.51	1693.67
271.73	1779.68
271.95	1740.77
272.16	1675.24
272.38	1742.82
272.59	1732.58
272.81	1677.29
273.02	1730.53
273.24	1705.96
273.46	1759.21
273.67	1632.23
273.89	1628.14
274.10	1685.48
274.32	1761.25
274.54	1691.62
274.75	1710.05
274.97	1685.48
275.18	1775.59
275.40	1681.38
275.61	1710.05
275.83	1757.16
276.05	1658.85
276.26	1710.05
276.48	1726.44
276.69	1738.73
276.91	1730.53
277.12	1892.32
277.34	1767.40
277.55	1730.53
277.77	1697.77
277.99	1683.43
278.20	1607.66
278.42	1671.14
278.63	1650.66
278.85	1665.00
279.06	1656.81
279.28	1722.34
279.49	1701.86
279.71	1820.64
279.93	1722.34
280.14	1699.81
280.36	1708.01
280.57	1753.06
280.79	1740.77
281.00	1658.85
281.22	1681.38
281.43	1742.82
281.65	1605.61
281.86	1656.81
282.08	1660.90
282.29	1812.45
282.51	1677.29
282.73	1646.57
282.94	1570.79
283.16	1746.92
283.37	1771.49
283.59	1730.53
283.80	1767.40
284.02	1693.67
284.23	1767.40
284.45	1665.00
284.66	1697.77
284.88	1654.76
285.09	1697.77
285.31	1718.25
285.52	1767.40
285.74	1615.85
285.95	1781.73
286.17	1777.64
286.38	1724.39
286.60	1693.67
286.81	1724.39
287.03	1671.14
287.24	1646.57
287.46	1765.35
287.67	1746.92
287.89	1785.83
288.10	1744.87
288.32	1642.47
288.53	1730.53
288.75	1703.91
288.96	1695.72
289.18	1697.77
289.39	1701.86
289.61	1806.31
289.82	1857.51
290.04	1869.80
290.25	1714.15
290.47	1759.21
290.68	1732.58
290.90	1777.64
291.11	1648.61
291.33	1732.58
291.54	1654.76
291.76	1695.72
291.97	1746.92
292.18	1783.78
292.40	1751.01
292.61	1708.01
292.83	1908.71
293.04	1718.25
293.26	1810.40
293.47	1687.53
293.69	1630.18
293.90	1701.86
294.12	1720.29
294.33	1806.31
294.55	1714.15
294.76	1755.11
294.97	1810.40
295.19	1867.75
295.40	1736.68
295.62	1689.57
295.83	1738.73
296.05	1648.61
296.26	1748.97
296.48	1650.66
296.69	1724.39
296.90	1734.63
297.12	1732.58
297.33	1757.16
297.55	1759.21
297.76	1757.16
297.98	1710.05
298.19	1787.88
298.41	1646.57
298.62	1714.15
298.83	1759.21
299.05	1679.33
299.26	1687.53
299.48	1681.38
299.69	1767.40
299.90	1718.25
300.12	1693.67
300.33	1767.40
300.55	1714.15
300.76	1742.82
300.98	1726.44
301.19	1720.29
301.40	1665.00
301.62	1710.05
301.83	1705.96
302.05	1804.26
302.26	1765.35
302.47	1726.44
302.69	1636.33
302.90	1703.91
303.12	1581.03
303.33	1787.88
303.54	1775.59
303.76	1648.61
303.97	1779.68
304.19	1755.11
304.40	1601.51
304.61	1738.73
304.83	1832.93
305.04	1808.36
305.26	1781.73
305.47	1632.23
305.68	1751.01
305.90	1652.71
306.11	1740.77
306.33	1714.15
306.54	1742.82
306.75	1730.53
306.97	1603.56
307.18	1660.90
307.39	1636.33
307.61	1746.92
307.82	1746.92
308.04	1794.02
308.25	1640.42
308.46	1775.59
308.68	1665.00
308.89	1679.33
309.10	1761.25
309.32	1730.53
309.53	1673.19
309.74	1705.96
309.96	1628.14
310.17	1746.92
310.39	1617.90
310.60	1732.58
310.81	1740.77
311.03	1587.18
311.24	1787.88
311.45	1730.53
311.67	1734.63
311.88	1722.34
312.09	1656.81
312.31	1626.09
312.52	1746.92
312.73	1775.59
312.95	1662.95
313.16	1658.85
313.37	1804.26
313.59	1675.24
313.80	1697.77
314.01	1880.04
314.23	1669.09
314.44	1705.96
314.65	1591.27
314.87	1722.34
315.08	1708.01
315.29	1671.14
315.51	1689.57
315.72	1734.63
315.93	1918.95
316.15	1806.31
316.36	1648.61
316.57	1837.03
316.79	1710.05
317.00	1681.38
317.21	1748.97
317.43	1734.63
317.64	1673.19
317.85	1660.90
318.07	1669.09
318.28	1732.58
318.49	1794.02
318.70	1935.33
318.92	1748.97
319.13	1830.88
319.34	1853.41
319.56	1877.99
319.77	1791.97
319.98	1781.73
320.20	1785.83
320.41	1830.88
320.62	1679.33
320.83	1595.37
321.05	1873.89
321.26	1761.25
321.47	1742.82
321.69	1769.44
321.90	1660.90
322.11	1652.71
322.32	1591.27
322.54	1734.63
322.75	1654.76
322.96	1837.03
323.18	1609.70
323.39	1587.18
323.60	1708.01
323.81	1712.10
324.03	1753.06
324.24	1685.48
324.45	1732.58
324.66	1671.14
324.88	1820.64
325.09	1804.26
325.30	1662.95
325.52	1708.01
325.73	1751.01
325.94	1660.90
326.15	1636.33
326.37	1675.24
326.58	1804.26
326.79	1738.73
327.00	1732.58
327.22	1640.42
327.43	1669.09
327.64	1693.67
327.85	1703.91
328.07	1697.77
328.28	1794.02
328.49	1705.96
328.70	1654.76
328.92	1746.92
329.13	1703.91
329.34	1773.54
329.55	1806.31
329.76	1820.64
329.98	1738.73
330.19	1673.19
330.40	1724.39
330.61	1697.77
330.83	1759.21
331.04	1634.28
331.25	1708.01
331.46	1662.95
331.68	1611.75
331.89	1857.51
332.10	1748.97
332.31	1660.90
332.52	1658.85
332.74	1761.25
332.95	1693.67
333.16	1736.68
333.37	1722.34
333.58	1681.38
333.80	1697.77
334.01	1601.51
334.22	1794.02
334.43	1699.81
334.64	1710.05
334.86	1673.19
335.07	1667.05
335.28	1834.98
335.49	1699.81
335.70	1708.01
335.92	1853.41
336.13	1781.73
336.34	1832.93
336.55	1705.96
336.76	1742.82
336.98	1587.18
337.19	1695.72
337.40	1748.97
337.61	1873.89
337.82	1722.34
338.04	1744.87
338.25	1632.23
338.46	1730.53
338.67	1708.01
338.88	1652.71
339.09	1708.01
339.31	1652.71
339.52	1587.18
339.73	1642.47
339.94	1658.85
340.15	1783.78
340.36	1640.42
340.58	1730.53
340.79	1634.28
341.00	1746.92
341.21	1621.99
341.42	1849.32
341.63	1714.15
341.85	1806.31
342.06	1726.44
342.27	1617.90
342.48	1761.25
342.69	1693.67
342.90	1763.30
343.12	1755.11
343.33	1742.82
343.54	1757.16
343.75	1755.11
343.96	1738.73
344.17	1638.38
344.38	1720.29
344.60	1679.33
344.81	1679.33
345.02	1755.11
345.23	1771.49
345.44	1783.78
345.65	1718.25
345.86	1671.14
346.07	1638.38
346.29	1644.52
346.50	1732.58
346.71	1761.25
346.92	1841.12
347.13	1808.36
347.34	1654.76
347.55	1730.53
347.76	1656.81
347.98	1718.25
348.19	1732.58
348.40	1726.44
348.61	1742.82
348.82	1773.54
349.03	1783.78
349.24	1677.29
349.45	1785.83
349.66	1593.32
349.88	1734.63
350.09	1677.29
350.30	1806.31
350.51	1697.77
350.72	1693.67
350.93	1777.64
351.14	1662.95
351.35	1718.25
351.56	1697.77
351.77	1685.48
351.99	1730.53
352.20	1781.73
352.41	1781.73
352.62	1658.85
352.83	1775.59
353.04	1732.58
353.25	1697.77
353.46	1748.97
353.67	1830.88
353.88	1632.23
354.09	1736.68
354.30	1697.77
354.52	1726.44
354.73	1736.68
354.94	1669.09
355.15	1757.16
355.36	1830.88
355.57	1650.66
355.78	1710.05
355.99	1619.94
356.20	1615.85
356.41	1787.88
356.62	1740.77
356.83	1730.53
357.04	1853.41
357.25	1607.66
357.46	1697.77
357.68	1619.94
357.89	1724.39
358.10	1771.49
358.31	1654.76
358.52	1740.77
358.73	1701.86
358.94	1660.90
359.15	1607.66
359.36	1734.63
359.57	1677.29
359.78	1687.53
359.99	1832.93
360.20	1685.48
360.41	1718.25
360.62	1761.25
360.83	1804.26
361.04	1748.97
361.25	1716.20
361.46	1789.92
361.67	1746.92
361.88	1722.34
362.09	1722.34
362.30	1753.06
362.51	1687.53
362.72	1679.33
362.93	1787.88
363.14	1798.12
363.35	1705.96
363.56	1615.85
363.78	1802.21
363.99	1722.34
364.20	1681.38
364.41	1705.96
364.62	1826.79
364.83	1771.49
365.04	1718.25
365.25	1726.44
365.46	1779.68
365.67	1689.57
365.88	1624.04
366.09	1732.58
366.30	1642.47
366.51	1726.44
366.72	1705.96
366.93	1804.26
367.14	1679.33
367.35	1740.77
367.56	1765.35
367.77	1783.78
367.98	1710.05
368.18	1738.73
368.39	1703.91
368.60	1703.91
368.81	1734.63
369.02	1701.86
369.23	1726.44
369.44	1708.01
369.65	1660.90
369.86	1828.84
370.07	1716.20
370.28	1679.33
370.49	1679.33
370.70	1755.11
370.91	1636.33
371.12	1603.56
371.33	1781.73
371.54	1746.92
371.75	1789.92
371.96	1544.17
372.17	1703.91
372.38	1673.19
372.59	1724.39
372.80	1724.39
373.01	1726.44
373.22	1689.57
373.43	1726.44
373.64	1683.43
373.85	1720.29
374.06	1814.50
374.26	1787.88
374.47	1740.77
374.68	1765.35
374.89	1755.11
375.10	1705.96
375.31	1785.83
375.52	1742.82
375.73	1738.73
375.94	1603.56
376.15	1886.18
376.36	1720.29
376.57	1578.98
376.78	1691.62
376.99	1767.40
377.20	1767.40
377.40	1714.15
377.61	1742.82
377.82	1636.33
378.03	1779.68
378.24	1806.31
378.45	1722.34
378.66	1802.21
378.87	1630.18
379.08	1613.80
379.29	1755.11
379.50	1773.54
379.71	1591.27
379.91	1667.05
380.12	1800.16
380.33	1720.29
380.54	1652.71
380.75	1708.01
380.96	1681.38
381.17	1767.40
381.38	1718.25
381.59	1757.16
381.80	1712.10
382.00	1851.36
382.21	1759.21
382.42	1857.51
382.63	1884.13
382.84	1767.40
383.05	1695.72
383.26	1804.26
383.47	1777.64
383.68	1691.62
383.88	1814.50
384.09	1789.92
384.30	1800.16
384.51	1775.59
384.72	1677.29
384.93	1683.43
385.14	1753.06
385.35	1746.92
385.55	1589.22
385.76	1757.16
385.97	1693.67
386.18	1648.61
386.39	1730.53
386.60	1716.20
386.81	1673.19
387.02	1697.77
387.22	1636.33
387.43	1787.88
387.64	1875.94
387.85	1849.32
388.06	2187.23
388.27	4239.30
388.48	6784.92
388.68	8011.65
388.89	9500.53
389.10	9723.76
389.31	8583.04
389.52	7550.86
389.73	6764.44
389.93	6131.62
390.14	5963.68
390.35	5083.06
390.56	4677.56
390.77	3887.04
390.98	3155.92
391.18	2516.95
391.39	2113.50
391.60	1877.99
391.81	1949.67
392.02	1722.34
392.23	1820.64
392.43	1724.39
392.64	1853.41
392.85	1703.91
393.06	1810.40
393.27	1718.25
393.47	1652.71
393.68	1767.40
393.89	1738.73
394.10	1746.92
394.31	1665.00
394.52	1685.48
394.72	1597.42
394.93	1757.16
395.14	1615.85
395.35	1757.16
395.56	1609.70
395.76	1726.44
395.97	1800.16
396.18	1755.11
396.39	1787.88
396.60	2035.68
396.80	1855.46
397.01	1804.26
397.22	1859.56
397.43	1851.36
397.64	1720.29
397.84	1755.11
398.05	1861.60
398.26	1806.31
398.47	1804.26
398.67	1751.01
398.88	1781.73
399.09	1720.29
399.30	1656.81
399.51	1697.77
399.71	1646.57
399.92	1703.91
400.13	1771.49
400.34	1718.25
400.54	1708.01
400.75	1763.30
400.96	1751.01
401.17	1834.98
401.37	1785.83
401.58	1718.25
401.79	1820.64
402.00	1875.94
402.21	2047.97
402.41	1931.23
402.62	1996.77
402.83	2029.54
403.04	2019.30
403.24	2068.45
403.45	1826.79
403.66	1886.18
403.87	1906.66
404.07	1853.41
404.28	1867.75
404.49	1832.93
404.70	1839.08
404.90	1808.36
405.11	1718.25
405.32	1810.40
405.52	1701.86
405.73	1759.21
405.94	1673.19
406.15	1673.19
406.35	1779.68
406.56	1812.45
406.77	1697.77
406.98	1726.44
407.18	1716.20
407.39	1800.16
407.60	1689.57
407.80	1751.01
408.01	1708.01
408.22	1771.49
408.43	1685.48
408.63	1783.78
408.84	1744.87
409.05	1720.29
409.25	1581.03
409.46	1665.00
409.67	1669.09
409.88	1609.70
410.08	1642.47
410.29	1708.01
410.50	1708.01
410.70	1712.10
410.91	1693.67
411.12	1746.92
411.32	1697.77
411.53	1660.90
411.74	1824.74
411.95	1751.01
412.15	1755.11
412.36	1783.78
412.57	1714.15
412.77	1906.66
412.98	1685.48
413.19	1724.39
413.39	1669.09
413.60	1677.29
413.81	1843.17
414.01	1669.09
414.22	1695.72
414.43	1703.91
414.63	1642.47
414.84	1779.68
415.05	1679.33
415.25	1660.90
415.46	1685.48
415.67	1728.49
415.87	1662.95
416.08	1669.09
416.29	1667.05
416.49	1757.16
416.70	1671.14
416.91	1675.24
417.11	1718.25
417.32	1738.73
417.53	1791.97
417.73	1775.59
417.94	1689.57
418.15	1748.97
418.35	1785.83
418.56	1710.05
418.77	1824.74
418.97	1685.48
419.18	1724.39
419.38	1621.99
419.59	1679.33
419.80	1759.21
420.00	1675.24
420.21	1726.44
420.42	1812.45
420.62	1763.30
420.83	1665.00
421.04	1718.25
421.24	1710.05
421.45	1736.68
421.65	1757.16
421.86	1699.81
422.07	1675.24
422.27	1740.77
422.48	1658.85
422.69	1710.05
422.89	1683.43
423.10	1728.49
423.30	1632.23
423.51	1701.86
423.72	1716.20
423.92	1714.15
424.13	1671.14
424.33	1748.97
424.54	1708.01
424.75	1734.63
424.95	1882.08
425.16	1800.16
425.36	1748.97
425.57	1757.16
425.78	1722.34
425.98	1755.11
426.19	1755.11
426.39	1679.33
426.60	1740.77
426.81	1773.54
427.01	1712.10
427.22	1710.05
427.42	1677.29
427.63	1658.85
427.83	1794.02
428.04	1796.07
428.25	1804.26
428.45	1794.02
428.66	1730.53
428.86	1740.77
429.07	1697.77
429.28	1683.43
429.48	1646.57
429.69	1714.15
429.89	1732.58
430.10	1685.48
430.30	1839.08
430.51	1761.25
430.71	1679.33
430.92	1763.30
431.13	1642.47
431.33	1810.40
431.54	1716.20
431.74	1828.84
431.95	1794.02
432.15	1638.38
432.36	1738.73
432.56	1767.40
432.77	1804.26
432.98	1937.38
433.18	1726.44
433.39	1656.81
433.59	1634.28
433.80	1753.06
434.00	1841.12
434.21	1660.90
434.41	1673.19
434.62	1914.85
434.82	1656.81
435.03	1628.14
435.23	1675.24
435.44	1570.79
435.64	1773.54
435.85	1732.58
436.06	1794.02
436.26	1732.58
436.47	1736.68
436.67	1669.09
436.88	1730.53
437.08	1824.74
437.29	1791.97
437.49	1738.73
437.70	1726.44
437.90	1701.86
438.11	1806.31
438.31	1828.84
438.52	1918.95
438.72	1837.03
438.93	1925.09
439.13	1798.12
439.34	1888.23
439.54	1732.58
439.75	1757.16
439.95	1820.64
440.16	1671.14
440.36	1767.40
440.57	1822.69
440.77	1777.64
440.98	1761.25
441.18	1785.83
441.39	1746.92
441.59	1726.44
441.80	1886.18
442.00	1714.15
442.21	1865.70
442.41	1703.91
442.62	1716.20
442.82	1732.58
443.02	1726.44
443.23	1675.24
443.43	1744.87
443.64	1791.97
443.84	1716.20
444.05	1820.64
444.25	1769.44
444.46	1697.77
444.66	1705.96
444.87	1767.40
445.07	1621.99
445.28	1697.77
445.48	1769.44
445.69	1746.92
445.89	1873.89
446.09	1722.34
446.30	2070.50
446.50	2650.07
446.71	3803.08
446.91	4392.89
447.12	4841.40
447.32	4865.97
447.53	4341.69
447.73	3862.47
447.93	3538.89
448.14	3203.02
448.34	3178.45
448.55	2975.70
448.75	2836.44
448.96	2668.50
449.16	2426.84
449.36	2289.63
449.57	2050.02
449.77	1976.29
449.98	1789.92
450.18	1783.78
450.39	1830.88
450.59	1757.16
450.79	1734.63
451.00	1828.84
451.20	1785.83
451.41	1759.21
451.61	1822.69
451.81	1767.40
452.02	1744.87
452.22	1673.19
452.43	1712.10
452.63	1703.91
