SpectraSuite Data File
++++++++++++++++++++++++++++++++++++
Date: Mon Jun 06 16:04:57 CEST 2016
User: root
Dark Spectrum Present: No
Reference Spectrum Present: No
Number of Sampled Component Spectra: 1
Spectrometers: USB4C02835
Integration Time (usec): 100000 (USB4C02835)
Spectra Averaged: 1 (USB4C02835)
Boxcar Smoothing: 0 (USB4C02835)
Correct for Electrical Dark: No (USB4C02835)
Strobe/Lamp Enabled: No (USB4C02835)
Correct for Detector Non-linearity: No (USB4C02835)
Correct for Stray Light: No (USB4C02835)
Number of Pixels in Processed Spectrum: 3648
>>>>>Begin Processed Spectral Data<<<<<
177.47	1435.63
177.69	1435.63
177.91	1435.63
178.13	1464.30
178.36	1445.87
178.58	1626.09
178.80	1808.36
179.02	1568.74
179.24	1691.62
179.46	1671.14
179.68	1744.87
179.90	1701.86
180.13	1720.29
180.35	1693.67
180.57	1667.05
180.79	1736.68
181.01	1701.86
181.23	1808.36
181.45	1804.26
181.67	1728.49
181.90	1738.73
182.12	1673.19
182.34	1689.57
182.56	1705.96
182.78	1703.91
183.00	1689.57
183.22	1701.86
183.44	1636.33
183.66	1855.46
183.89	1746.92
184.11	1714.15
184.33	1744.87
184.55	1789.92
184.77	1687.53
184.99	1771.49
185.21	1730.53
185.43	1806.31
185.65	1691.62
185.87	1691.62
186.10	1806.31
186.32	1841.12
186.54	1716.20
186.76	1732.58
186.98	1828.84
187.20	1705.96
187.42	1662.95
187.64	1671.14
187.86	1730.53
188.08	1738.73
188.30	1683.43
188.52	1710.05
188.75	1748.97
188.97	1814.50
189.19	1714.15
189.41	1777.64
189.63	1771.49
189.85	1701.86
190.07	1636.33
190.29	1683.43
190.51	1753.06
190.73	1730.53
190.95	1783.78
191.17	1738.73
191.39	1587.18
191.61	1732.58
191.84	1738.73
192.06	1689.57
192.28	1652.71
192.50	1880.04
192.72	1734.63
192.94	1687.53
193.16	1787.88
193.38	1687.53
193.60	1695.72
193.82	1746.92
194.04	1853.41
194.26	1693.67
194.48	1728.49
194.70	1699.81
194.92	1708.01
195.14	1742.82
195.36	1607.66
195.58	1767.40
195.80	1695.72
196.02	1740.77
196.24	1775.59
196.46	1763.30
196.69	1730.53
196.91	1820.64
197.13	1695.72
197.35	1634.28
197.57	1839.08
197.79	1705.96
198.01	1673.19
198.23	1728.49
198.45	1830.88
198.67	1675.24
198.89	1671.14
199.11	1621.99
199.33	1644.52
199.55	1669.09
199.77	1621.99
199.99	1767.40
200.21	1740.77
200.43	1748.97
200.65	1656.81
200.87	1605.61
201.09	1695.72
201.31	1662.95
201.53	1742.82
201.75	1703.91
201.97	1621.99
202.19	1673.19
202.41	1746.92
202.63	1787.88
202.85	1808.36
203.07	1726.44
203.29	1695.72
203.51	1650.66
203.73	1660.90
203.95	1902.56
204.17	1728.49
204.39	1746.92
204.61	1656.81
204.83	1695.72
205.05	1771.49
205.27	1722.34
205.49	1773.54
205.71	1683.43
205.93	1617.90
206.15	1660.90
206.37	1761.25
206.59	1687.53
206.81	1619.94
207.03	1689.57
207.25	1583.08
207.47	1751.01
207.69	1722.34
207.91	1724.39
208.13	1689.57
208.34	1665.00
208.56	1613.80
208.78	1695.72
209.00	1736.68
209.22	1714.15
209.44	1677.29
209.66	1736.68
209.88	1669.09
210.10	1667.05
210.32	1718.25
210.54	1828.84
210.76	1615.85
210.98	1714.15
211.20	1564.65
211.42	1718.25
211.64	1808.36
211.86	1722.34
212.08	1773.54
212.30	1712.10
212.52	1705.96
212.74	1697.77
212.96	1691.62
213.17	1761.25
213.39	1767.40
213.61	1763.30
213.83	1748.97
214.05	1642.47
214.27	1818.60
214.49	1683.43
214.71	1679.33
214.93	1779.68
215.15	1671.14
215.37	1789.92
215.59	1638.38
215.81	1761.25
216.03	1791.97
216.24	1714.15
216.46	1693.67
216.68	1701.86
216.90	1705.96
217.12	1730.53
217.34	1748.97
217.56	1665.00
217.78	1769.44
218.00	1830.88
218.22	1767.40
218.44	1710.05
218.66	1753.06
218.87	1841.12
219.09	1714.15
219.31	1769.44
219.53	1730.53
219.75	1630.18
219.97	1699.81
220.19	1699.81
220.41	1701.86
220.63	1828.84
220.85	1734.63
221.06	1675.24
221.28	1830.88
221.50	1800.16
221.72	1751.01
221.94	1732.58
222.16	1695.72
222.38	1751.01
222.60	1677.29
222.82	1619.94
223.03	1742.82
223.25	1720.29
223.47	1693.67
223.69	1863.65
223.91	1687.53
224.13	1609.70
224.35	1667.05
224.57	1777.64
224.78	1822.69
225.00	1681.38
225.22	1775.59
225.44	1746.92
225.66	1804.26
225.88	1665.00
226.10	1736.68
226.32	1693.67
226.53	1810.40
226.75	1656.81
226.97	1658.85
227.19	1640.42
227.41	1656.81
227.63	1718.25
227.85	1615.85
228.06	1656.81
228.28	1732.58
228.50	1667.05
228.72	1628.14
228.94	1681.38
229.16	1585.13
229.37	1638.38
229.59	1693.67
229.81	1718.25
230.03	1771.49
230.25	1724.39
230.47	1695.72
230.69	1583.08
230.90	1773.54
231.12	1660.90
231.34	1730.53
231.56	1761.25
231.78	1640.42
232.00	1742.82
232.21	1712.10
232.43	1630.18
232.65	1617.90
232.87	1697.77
233.09	1630.18
233.30	1693.67
233.52	1767.40
233.74	1656.81
233.96	1712.10
234.18	1632.23
234.40	1650.66
234.61	1853.41
234.83	1574.89
235.05	1570.79
235.27	1869.80
235.49	1896.42
235.70	1746.92
235.92	1789.92
236.14	1798.12
236.36	1888.23
236.58	1634.28
236.79	1767.40
237.01	1671.14
237.23	1832.93
237.45	1839.08
237.67	1689.57
237.88	1742.82
238.10	1812.45
238.32	1632.23
238.54	1697.77
238.76	1708.01
238.97	1650.66
239.19	1658.85
239.41	1783.78
239.63	1767.40
239.85	1603.56
240.06	1667.05
240.28	1691.62
240.50	1705.96
240.72	1763.30
240.93	1683.43
241.15	1761.25
241.37	1738.73
241.59	1755.11
241.81	1714.15
242.02	1730.53
242.24	1775.59
242.46	1736.68
242.68	1687.53
242.89	1753.06
243.11	1767.40
243.33	1656.81
243.55	1718.25
243.76	1800.16
243.98	1794.02
244.20	1665.00
244.42	1660.90
244.64	1724.39
244.85	1726.44
245.07	1642.47
245.29	1800.16
245.51	1755.11
245.72	1691.62
245.94	1738.73
246.16	1697.77
246.38	1716.20
246.59	1708.01
246.81	1697.77
247.03	1746.92
247.24	1570.79
247.46	1736.68
247.68	1810.40
247.90	1640.42
248.11	1632.23
248.33	1775.59
248.55	1730.53
248.77	1724.39
248.98	1673.19
249.20	1845.22
249.42	1730.53
249.64	1777.64
249.85	1722.34
250.07	1701.86
250.29	1746.92
250.50	1759.21
250.72	1681.38
250.94	1681.38
251.16	1861.60
251.37	1703.91
251.59	1720.29
251.81	1703.91
252.02	1800.16
252.24	1669.09
252.46	1748.97
252.68	1628.14
252.89	1658.85
253.11	1609.70
253.33	1822.69
253.54	1826.79
253.76	1716.20
253.98	1687.53
254.20	1665.00
254.41	1570.79
254.63	1744.87
254.85	1607.66
255.06	1710.05
255.28	1736.68
255.50	1687.53
255.71	1603.56
255.93	1644.52
256.15	1697.77
256.36	1689.57
256.58	1669.09
256.80	1722.34
257.02	1650.66
257.23	1714.15
257.45	1740.77
257.67	1734.63
257.88	1640.42
258.10	1830.88
258.32	1705.96
258.53	1683.43
258.75	1734.63
258.97	1656.81
259.18	1732.58
259.40	1699.81
259.62	1863.65
259.83	1849.32
260.05	1693.67
260.27	1986.53
260.48	1826.79
260.70	1617.90
260.92	1742.82
261.13	1703.91
261.35	1746.92
261.57	1744.87
261.78	1699.81
262.00	1726.44
262.22	1730.53
262.43	1691.62
262.65	1710.05
262.86	1621.99
263.08	1927.14
263.30	1703.91
263.51	1599.46
263.73	1697.77
263.95	1794.02
264.16	1714.15
264.38	1685.48
264.60	1695.72
264.81	1675.24
265.03	1810.40
265.25	1757.16
265.46	1726.44
265.68	1806.31
265.89	1746.92
266.11	1621.99
266.33	1689.57
266.54	1808.36
266.76	1765.35
266.98	1732.58
267.19	1796.07
267.41	1804.26
267.62	1757.16
267.84	1685.48
268.06	1695.72
268.27	1714.15
268.49	1783.78
268.70	1757.16
268.92	1712.10
269.14	1632.23
269.35	1593.32
269.57	1724.39
269.79	1730.53
270.00	1677.29
270.22	1753.06
270.43	1683.43
270.65	1593.32
270.87	1703.91
271.08	1759.21
271.30	1746.92
271.51	1660.90
271.73	1791.97
271.95	1757.16
272.16	1751.01
272.38	1718.25
272.59	1673.19
272.81	1751.01
273.02	1742.82
273.24	1716.20
273.46	1724.39
273.67	1638.38
273.89	1652.71
274.10	1656.81
274.32	1812.45
274.54	1751.01
274.75	1759.21
274.97	1632.23
275.18	1746.92
275.40	1736.68
275.61	1648.61
275.83	1675.24
276.05	1656.81
276.26	1728.49
276.48	1710.05
276.69	1636.33
276.91	1767.40
277.12	1755.11
277.34	1773.54
277.55	1740.77
277.77	1703.91
277.99	1656.81
278.20	1665.00
278.42	1730.53
278.63	1681.38
278.85	1724.39
279.06	1660.90
279.28	1714.15
279.49	1773.54
279.71	1755.11
279.93	1697.77
280.14	1685.48
280.36	1695.72
280.57	1779.68
280.79	1728.49
281.00	1701.86
281.22	1665.00
281.43	1775.59
281.65	1638.38
281.86	1609.70
282.08	1744.87
282.29	1751.01
282.51	1673.19
282.73	1699.81
282.94	1681.38
283.16	1794.02
283.37	1880.04
283.59	1734.63
283.80	1718.25
284.02	1587.18
284.23	1759.21
284.45	1742.82
284.66	1726.44
284.88	1675.24
285.09	1757.16
285.31	1822.69
285.52	1757.16
285.74	1599.46
285.95	1738.73
286.17	1689.57
286.38	1726.44
286.60	1716.20
286.81	1638.38
287.03	1710.05
287.24	1728.49
287.46	1738.73
287.67	1683.43
287.89	1810.40
288.10	1671.14
288.32	1763.30
288.53	1800.16
288.75	1624.04
288.96	1693.67
289.18	1746.92
289.39	1599.46
289.61	1718.25
289.82	1791.97
290.04	1859.56
290.25	1683.43
290.47	1705.96
290.68	1695.72
290.90	1732.58
291.11	1636.33
291.33	1759.21
291.54	1615.85
291.76	1601.51
291.97	1658.85
292.18	1787.88
292.40	1699.81
292.61	1742.82
292.83	1810.40
293.04	1669.09
293.26	1691.62
293.47	1728.49
293.69	1609.70
293.90	1738.73
294.12	1783.78
294.33	1753.06
294.55	1753.06
294.76	1800.16
294.97	1728.49
295.19	1804.26
295.40	1703.91
295.62	1753.06
295.83	1837.03
296.05	1697.77
296.26	1810.40
296.48	1718.25
296.69	1734.63
296.90	1701.86
297.12	1804.26
297.33	1789.92
297.55	1720.29
297.76	1740.77
297.98	1716.20
298.19	1693.67
298.41	1742.82
298.62	1658.85
298.83	1777.64
299.05	1701.86
299.26	1652.71
299.48	1642.47
299.69	1777.64
299.90	1646.57
300.12	1703.91
300.33	1730.53
300.55	1718.25
300.76	1816.55
300.98	1673.19
301.19	1726.44
301.40	1710.05
301.62	1724.39
301.83	1648.61
302.05	1738.73
302.26	1669.09
302.47	1742.82
302.69	1593.32
302.90	1757.16
303.12	1585.13
303.33	1765.35
303.54	1724.39
303.76	1683.43
303.97	1716.20
304.19	1753.06
304.40	1599.46
304.61	1746.92
304.83	1861.60
305.04	1753.06
305.26	1703.91
305.47	1650.66
305.68	1697.77
305.90	1656.81
306.11	1738.73
306.33	1708.01
306.54	1714.15
306.75	1632.23
306.97	1675.24
307.18	1736.68
307.39	1632.23
307.61	1730.53
307.82	1701.86
308.04	1767.40
308.25	1646.57
308.46	1724.39
308.68	1759.21
308.89	1748.97
309.10	1699.81
309.32	1703.91
309.53	1738.73
309.74	1732.58
309.96	1697.77
310.17	1779.68
310.39	1722.34
310.60	1785.83
310.81	1763.30
311.03	1662.95
311.24	1734.63
311.45	1798.12
311.67	1818.60
311.88	1742.82
312.09	1677.29
312.31	1732.58
312.52	1751.01
312.73	1609.70
312.95	1650.66
313.16	1656.81
313.37	1767.40
313.59	1736.68
313.80	1730.53
314.01	1796.07
314.23	1689.57
314.44	1669.09
314.65	1701.86
314.87	1718.25
315.08	1691.62
315.29	1632.23
315.51	1617.90
315.72	1658.85
315.93	1804.26
316.15	1716.20
316.36	1730.53
316.57	1710.05
316.79	1740.77
317.00	1701.86
317.21	1740.77
317.43	1699.81
317.64	1718.25
317.85	1720.29
318.07	1753.06
318.28	1771.49
318.49	1806.31
318.70	1906.66
318.92	1894.37
319.13	1824.74
319.34	1880.04
319.56	1775.59
319.77	1742.82
319.98	1812.45
320.20	1771.49
320.41	1814.50
320.62	1730.53
320.83	1734.63
321.05	1804.26
321.26	1828.84
321.47	1761.25
321.69	1808.36
321.90	1599.46
322.11	1728.49
322.32	1699.81
322.54	1785.83
322.75	1748.97
322.96	1820.64
323.18	1619.94
323.39	1667.05
323.60	1646.57
323.81	1718.25
324.03	1630.18
324.24	1726.44
324.45	1728.49
324.66	1751.01
324.88	1742.82
325.09	1767.40
325.30	1640.42
325.52	1791.97
325.73	1701.86
325.94	1646.57
326.15	1595.37
326.37	1693.67
326.58	1660.90
326.79	1812.45
327.00	1654.76
327.22	1728.49
327.43	1697.77
327.64	1703.91
327.85	1761.25
328.07	1683.43
328.28	1804.26
328.49	1679.33
328.70	1714.15
328.92	1755.11
329.13	1720.29
329.34	1847.27
329.55	1779.68
329.76	1773.54
329.98	1730.53
330.19	1783.78
330.40	1775.59
330.61	1677.29
330.83	1744.87
331.04	1669.09
331.25	1734.63
331.46	1660.90
331.68	1722.34
331.89	1808.36
332.10	1697.77
332.31	1656.81
332.52	1648.61
332.74	1853.41
332.95	1630.18
333.16	1740.77
333.37	1650.66
333.58	1658.85
333.80	1724.39
334.01	1634.28
334.22	1710.05
334.43	1708.01
334.64	1673.19
334.86	1617.90
335.07	1712.10
335.28	1703.91
335.49	1634.28
335.70	1744.87
335.92	1857.51
336.13	1837.03
336.34	1726.44
336.55	1691.62
336.76	1744.87
336.98	1615.85
337.19	1705.96
337.40	1812.45
337.61	1890.28
337.82	1708.01
338.04	1771.49
338.25	1626.09
338.46	1744.87
338.67	1755.11
338.88	1669.09
339.09	1599.46
339.31	1689.57
339.52	1720.29
339.73	1652.71
339.94	1734.63
340.15	1773.54
340.36	1675.24
340.58	1718.25
340.79	1732.58
341.00	1789.92
341.21	1646.57
341.42	1830.88
341.63	1718.25
341.85	1802.21
342.06	1697.77
342.27	1693.67
342.48	1718.25
342.69	1734.63
342.90	1800.16
343.12	1791.97
343.33	1687.53
343.54	1722.34
343.75	1748.97
343.96	1800.16
344.17	1679.33
344.38	1677.29
344.60	1634.28
344.81	1703.91
345.02	1687.53
345.23	1751.01
345.44	1839.08
345.65	1742.82
345.86	1744.87
346.07	1734.63
346.29	1740.77
346.50	1779.68
346.71	1742.82
346.92	1832.93
347.13	1767.40
347.34	1691.62
347.55	1751.01
347.76	1712.10
347.98	1708.01
348.19	1667.05
348.40	1763.30
348.61	1724.39
348.82	1855.46
349.03	1814.50
349.24	1646.57
349.45	1828.84
349.66	1527.78
349.88	1689.57
350.09	1669.09
350.30	1677.29
350.51	1796.07
350.72	1818.60
350.93	1722.34
351.14	1693.67
351.35	1771.49
351.56	1673.19
351.77	1685.48
351.99	1708.01
352.20	1783.78
352.41	1824.74
352.62	1660.90
352.83	1626.09
353.04	1689.57
353.25	1699.81
353.46	1763.30
353.67	1816.55
353.88	1542.12
354.09	1742.82
354.30	1738.73
354.52	1757.16
354.73	1687.53
354.94	1705.96
355.15	1708.01
355.36	1794.02
355.57	1632.23
355.78	1767.40
355.99	1697.77
356.20	1708.01
356.41	1812.45
356.62	1804.26
356.83	1740.77
357.04	1794.02
357.25	1638.38
357.46	1718.25
357.68	1632.23
357.89	1671.14
358.10	1748.97
358.31	1847.27
358.52	1708.01
358.73	1644.52
358.94	1638.38
359.15	1632.23
359.36	1740.77
359.57	1683.43
359.78	1619.94
359.99	1722.34
360.20	1646.57
360.41	1662.95
360.62	1673.19
360.83	1708.01
361.04	1710.05
361.25	1775.59
361.46	1746.92
361.67	1708.01
361.88	1732.58
362.09	1728.49
362.30	1765.35
362.51	1671.14
362.72	1689.57
362.93	1751.01
363.14	1765.35
363.35	1720.29
363.56	1675.24
363.78	1757.16
363.99	1810.40
364.20	1683.43
364.41	1748.97
364.62	1877.99
364.83	1662.95
365.04	1701.86
365.25	1636.33
365.46	1798.12
365.67	1660.90
365.88	1658.85
366.09	1708.01
366.30	1705.96
366.51	1732.58
366.72	1689.57
366.93	1710.05
367.14	1705.96
367.35	1800.16
367.56	1765.35
367.77	1771.49
367.98	1624.04
368.18	1701.86
368.39	1779.68
368.60	1679.33
368.81	1808.36
369.02	1697.77
369.23	1781.73
369.44	1538.02
369.65	1722.34
369.86	1740.77
370.07	1775.59
370.28	1658.85
370.49	1748.97
370.70	1712.10
370.91	1665.00
371.12	1673.19
371.33	1728.49
371.54	1710.05
371.75	1783.78
371.96	1581.03
372.17	1765.35
372.38	1708.01
372.59	1759.21
372.80	1658.85
373.01	1726.44
373.22	1656.81
373.43	1703.91
373.64	1656.81
373.85	1785.83
374.06	1785.83
374.26	1742.82
374.47	1681.38
374.68	1871.84
374.89	1730.53
375.10	1677.29
375.31	1783.78
375.52	1753.06
375.73	1738.73
375.94	1589.22
376.15	1794.02
376.36	1660.90
376.57	1695.72
376.78	1697.77
376.99	1757.16
377.20	1806.31
377.40	1634.28
377.61	1818.60
377.82	1681.38
378.03	1808.36
378.24	1724.39
378.45	1824.74
378.66	1734.63
378.87	1630.18
379.08	1603.56
379.29	1736.68
379.50	1722.34
379.71	1697.77
379.91	1748.97
380.12	1720.29
380.33	1722.34
380.54	1761.25
380.75	1714.15
380.96	1685.48
381.17	1779.68
381.38	1689.57
381.59	1796.07
381.80	1755.11
382.00	1873.89
382.21	1781.73
382.42	1822.69
382.63	1867.75
382.84	1746.92
383.05	1708.01
383.26	1751.01
383.47	1767.40
383.68	1681.38
383.88	1761.25
384.09	1716.20
384.30	1839.08
384.51	1697.77
384.72	1736.68
384.93	1656.81
385.14	1701.86
385.35	1755.11
385.55	1658.85
385.76	1806.31
385.97	1695.72
386.18	1730.53
386.39	1634.28
386.60	1701.86
386.81	1734.63
387.02	1724.39
387.22	1685.48
387.43	1773.54
387.64	1796.07
387.85	1912.80
388.06	2201.57
388.27	4198.34
388.48	6676.38
388.68	8030.09
388.89	9365.36
389.10	9521.01
389.31	8419.20
389.52	7339.92
389.73	6555.55
389.93	6092.71
390.14	5760.94
390.35	5050.29
390.56	4509.63
390.77	3669.96
390.98	2959.31
391.18	2557.91
391.39	2170.85
391.60	1859.56
391.81	1865.70
392.02	1710.05
392.23	1808.36
392.43	1712.10
392.64	1810.40
392.85	1665.00
393.06	1841.12
393.27	1734.63
393.47	1808.36
393.68	1699.81
393.89	1687.53
394.10	1726.44
394.31	1697.77
394.52	1650.66
394.72	1638.38
394.93	1818.60
395.14	1673.19
395.35	1740.77
395.56	1699.81
395.76	1734.63
395.97	1816.55
396.18	1851.36
396.39	1806.31
396.60	2029.54
396.80	1925.09
397.01	1804.26
397.22	1880.04
397.43	1896.42
397.64	1751.01
397.84	1796.07
398.05	1918.95
398.26	1828.84
398.47	1841.12
398.67	1722.34
398.88	1787.88
399.09	1820.64
399.30	1683.43
399.51	1730.53
399.71	1648.61
399.92	1734.63
400.13	1802.21
400.34	1685.48
400.54	1679.33
400.75	1789.92
400.96	1716.20
401.17	1865.70
401.37	1742.82
401.58	1771.49
401.79	1775.59
402.00	1861.60
402.21	1984.48
402.41	1955.81
402.62	2021.35
402.83	2060.26
403.04	1974.24
403.24	2099.17
403.45	1851.36
403.66	1964.00
403.87	1894.37
404.07	1920.99
404.28	1937.38
404.49	1779.68
404.70	1755.11
404.90	1691.62
405.11	1736.68
405.32	1742.82
405.52	1779.68
405.73	1683.43
405.94	1708.01
406.15	1718.25
406.35	1822.69
406.56	1783.78
406.77	1773.54
406.98	1746.92
407.18	1722.34
407.39	1798.12
407.60	1660.90
407.80	1785.83
408.01	1740.77
408.22	1685.48
408.43	1667.05
408.63	1757.16
408.84	1759.21
409.05	1691.62
409.25	1705.96
409.46	1732.58
409.67	1603.56
409.88	1667.05
410.08	1785.83
410.29	1720.29
410.50	1751.01
410.70	1681.38
410.91	1693.67
411.12	1779.68
411.32	1621.99
411.53	1689.57
411.74	1753.06
411.95	1808.36
412.15	1728.49
412.36	1789.92
412.57	1791.97
412.77	1791.97
412.98	1775.59
413.19	1681.38
413.39	1818.60
413.60	1783.78
413.81	1804.26
414.01	1648.61
414.22	1806.31
414.43	1822.69
414.63	1736.68
414.84	1851.36
415.05	1765.35
415.25	1679.33
415.46	1769.44
415.67	1675.24
415.87	1734.63
416.08	1689.57
416.29	1695.72
416.49	1765.35
416.70	1738.73
416.91	1751.01
417.11	1746.92
417.32	1742.82
417.53	1796.07
417.73	1736.68
417.94	1685.48
418.15	1697.77
418.35	1761.25
418.56	1693.67
418.77	1769.44
418.97	1660.90
419.18	1693.67
419.38	1585.13
419.59	1673.19
419.80	1816.55
420.00	1640.42
420.21	1697.77
420.42	1847.27
420.62	1767.40
420.83	1581.03
421.04	1722.34
421.24	1722.34
421.45	1718.25
421.65	1775.59
421.86	1697.77
422.07	1730.53
422.27	1746.92
422.48	1736.68
422.69	1673.19
422.89	1701.86
423.10	1755.11
423.30	1667.05
423.51	1699.81
423.72	1767.40
423.92	1724.39
424.13	1705.96
424.33	1740.77
424.54	1843.17
424.75	1722.34
424.95	1845.22
425.16	1767.40
425.36	1703.91
425.57	1787.88
425.78	1781.73
425.98	1744.87
426.19	1744.87
426.39	1677.29
426.60	1724.39
426.81	1783.78
427.01	1660.90
427.22	1665.00
427.42	1714.15
427.63	1699.81
427.83	1716.20
428.04	1810.40
428.25	1703.91
428.45	1898.47
428.66	1742.82
428.86	1646.57
429.07	1669.09
429.28	1757.16
429.48	1669.09
429.69	1697.77
429.89	1751.01
430.10	1677.29
430.30	1822.69
430.51	1810.40
430.71	1650.66
430.92	1757.16
431.13	1730.53
431.33	1740.77
431.54	1716.20
431.74	1832.93
431.95	1888.23
432.15	1656.81
432.36	1708.01
432.56	1822.69
432.77	1775.59
432.98	1779.68
433.18	1767.40
433.39	1671.14
433.59	1689.57
433.80	1869.80
434.00	1871.84
434.21	1685.48
434.41	1675.24
434.62	1920.99
434.82	1681.38
435.03	1759.21
435.23	1708.01
435.44	1679.33
435.64	1681.38
435.85	1775.59
436.06	1779.68
436.26	1746.92
436.47	1734.63
436.67	1703.91
436.88	1787.88
437.08	1767.40
437.29	1742.82
437.49	1681.38
437.70	1796.07
437.90	1794.02
438.11	1843.17
438.31	1761.25
438.52	1880.04
438.72	1898.47
438.93	1931.23
439.13	1757.16
439.34	1808.36
439.54	1736.68
439.75	1853.41
439.95	1837.03
440.16	1732.58
440.36	1779.68
440.57	1779.68
440.77	1767.40
440.98	1804.26
441.18	1740.77
441.39	1714.15
441.59	1665.00
441.80	1871.84
442.00	1671.14
442.21	1753.06
442.41	1689.57
442.62	1775.59
442.82	1732.58
443.02	1761.25
443.23	1691.62
443.43	1740.77
443.64	1822.69
443.84	1648.61
444.05	1791.97
444.25	1738.73
444.46	1765.35
444.66	1697.77
444.87	1720.29
445.07	1636.33
445.28	1744.87
445.48	1798.12
445.69	1718.25
445.89	1914.85
446.09	1753.06
446.30	2066.40
446.50	2668.50
446.71	3758.02
446.91	4206.53
447.12	4728.76
447.32	4775.86
447.53	4288.45
447.73	3770.31
447.93	3530.70
448.14	3215.31
448.34	3188.69
448.55	2828.24
448.75	2877.40
448.96	2693.08
449.16	2426.84
449.36	2322.40
449.57	2103.26
449.77	1964.00
449.98	1837.03
450.18	1849.32
450.39	1789.92
450.59	1689.57
450.79	1662.95
451.00	1730.53
451.20	1791.97
451.41	1685.48
451.61	1785.83
451.81	1759.21
452.02	1787.88
452.22	1775.59
452.43	1685.48
452.63	1712.10
