SpectraSuite Data File
++++++++++++++++++++++++++++++++++++
Date: Mon Jun 06 13:48:57 CEST 2016
User: root
Dark Spectrum Present: No
Reference Spectrum Present: No
Number of Sampled Component Spectra: 1
Spectrometers: USB4C02835
Integration Time (usec): 100000 (USB4C02835)
Spectra Averaged: 1 (USB4C02835)
Boxcar Smoothing: 0 (USB4C02835)
Correct for Electrical Dark: No (USB4C02835)
Strobe/Lamp Enabled: No (USB4C02835)
Correct for Detector Non-linearity: No (USB4C02835)
Correct for Stray Light: No (USB4C02835)
Number of Pixels in Processed Spectrum: 3648
>>>>>Begin Processed Spectral Data<<<<<
177.47	1486.83
177.69	1486.83
177.91	1486.83
178.13	1454.06
178.36	1501.16
178.58	1669.09
178.80	1736.68
179.02	1683.43
179.24	1656.81
179.46	1683.43
179.68	1734.63
179.90	1744.87
180.13	1773.54
180.35	1720.29
180.57	1708.01
180.79	1787.88
181.01	1681.38
181.23	1730.53
181.45	1781.73
181.67	1703.91
181.90	1701.86
182.12	1697.77
182.34	1595.37
182.56	1746.92
182.78	1718.25
183.00	1714.15
183.22	1701.86
183.44	1619.94
183.66	1804.26
183.89	1789.92
184.11	1738.73
184.33	1646.57
184.55	1755.11
184.77	1703.91
184.99	1755.11
185.21	1740.77
185.43	1781.73
185.65	1652.71
185.87	1652.71
186.10	1785.83
186.32	1847.27
186.54	1658.85
186.76	1763.30
186.98	1621.99
187.20	1689.57
187.42	1691.62
187.64	1689.57
187.86	1728.49
188.08	1738.73
188.30	1628.14
188.52	1615.85
188.75	1785.83
188.97	1789.92
189.19	1597.42
189.41	1654.76
189.63	1671.14
189.85	1681.38
190.07	1619.94
190.29	1757.16
190.51	1767.40
190.73	1609.70
190.95	1791.97
191.17	1703.91
191.39	1632.23
191.61	1619.94
191.84	1689.57
192.06	1732.58
192.28	1662.95
192.50	1857.51
192.72	1746.92
192.94	1697.77
193.16	1753.06
193.38	1796.07
193.60	1650.66
193.82	1681.38
194.04	1685.48
194.26	1671.14
194.48	1722.34
194.70	1658.85
194.92	1671.14
195.14	1718.25
195.36	1708.01
195.58	1732.58
195.80	1656.81
196.02	1691.62
196.24	1726.44
196.46	1746.92
196.69	1656.81
196.91	1773.54
197.13	1689.57
197.35	1630.18
197.57	1738.73
197.79	1697.77
198.01	1677.29
198.23	1673.19
198.45	1755.11
198.67	1652.71
198.89	1662.95
199.11	1662.95
199.33	1617.90
199.55	1607.66
199.77	1691.62
199.99	1736.68
200.21	1730.53
200.43	1726.44
200.65	1701.86
200.87	1509.35
201.09	1779.68
201.31	1722.34
201.53	1662.95
201.75	1742.82
201.97	1740.77
202.19	1716.20
202.41	1701.86
202.63	1814.50
202.85	1677.29
203.07	1718.25
203.29	1757.16
203.51	1652.71
203.73	1724.39
203.95	1851.36
204.17	1632.23
204.39	1662.95
204.61	1673.19
204.83	1751.01
205.05	1734.63
205.27	1761.25
205.49	1787.88
205.71	1722.34
205.93	1648.61
206.15	1681.38
206.37	1677.29
206.59	1738.73
206.81	1632.23
207.03	1617.90
207.25	1652.71
207.47	1714.15
207.69	1740.77
207.91	1771.49
208.13	1761.25
208.34	1665.00
208.56	1656.81
208.78	1685.48
209.00	1665.00
209.22	1650.66
209.44	1740.77
209.66	1634.28
209.88	1640.42
210.10	1642.47
210.32	1626.09
210.54	1683.43
210.76	1722.34
210.98	1777.64
211.20	1521.64
211.42	1705.96
211.64	1812.45
211.86	1656.81
212.08	1660.90
212.30	1726.44
212.52	1656.81
212.74	1728.49
212.96	1759.21
213.17	1757.16
213.39	1689.57
213.61	1800.16
213.83	1650.66
214.05	1572.84
214.27	1779.68
214.49	1640.42
214.71	1728.49
214.93	1708.01
215.15	1638.38
215.37	1685.48
215.59	1603.56
215.81	1783.78
216.03	1798.12
216.24	1742.82
216.46	1695.72
216.68	1761.25
216.90	1751.01
217.12	1771.49
217.34	1689.57
217.56	1714.15
217.78	1781.73
218.00	1773.54
218.22	1693.67
218.44	1716.20
218.66	1777.64
218.87	1812.45
219.09	1701.86
219.31	1775.59
219.53	1650.66
219.75	1648.61
219.97	1722.34
220.19	1734.63
220.41	1740.77
220.63	1806.31
220.85	1734.63
221.06	1615.85
221.28	1781.73
221.50	1734.63
221.72	1695.72
221.94	1703.91
222.16	1736.68
222.38	1777.64
222.60	1763.30
222.82	1621.99
223.03	1767.40
223.25	1607.66
223.47	1777.64
223.69	1769.44
223.91	1751.01
224.13	1767.40
224.35	1574.89
224.57	1689.57
224.78	1738.73
225.00	1630.18
225.22	1689.57
225.44	1638.38
225.66	1728.49
225.88	1626.09
226.10	1714.15
226.32	1742.82
226.53	1804.26
226.75	1763.30
226.97	1703.91
227.19	1736.68
227.41	1701.86
227.63	1695.72
227.85	1597.42
228.06	1834.98
228.28	1748.97
228.50	1718.25
228.72	1669.09
228.94	1660.90
229.16	1566.70
229.37	1675.24
229.59	1683.43
229.81	1769.44
230.03	1671.14
230.25	1644.52
230.47	1726.44
230.69	1617.90
230.90	1763.30
231.12	1636.33
231.34	1662.95
231.56	1751.01
231.78	1599.46
232.00	1748.97
232.21	1728.49
232.43	1611.75
232.65	1558.50
232.87	1720.29
233.09	1626.09
233.30	1667.05
233.52	1736.68
233.74	1722.34
233.96	1693.67
234.18	1761.25
234.40	1732.58
234.61	1779.68
234.83	1634.28
235.05	1613.80
235.27	1849.32
235.49	1708.01
235.70	1673.19
235.92	1673.19
236.14	1675.24
236.36	1794.02
236.58	1681.38
236.79	1671.14
237.01	1648.61
237.23	1746.92
237.45	1806.31
237.67	1683.43
237.88	1738.73
238.10	1796.07
238.32	1587.18
238.54	1654.76
238.76	1695.72
238.97	1626.09
239.19	1632.23
239.41	1728.49
239.63	1808.36
239.85	1607.66
240.06	1708.01
240.28	1724.39
240.50	1695.72
240.72	1703.91
240.93	1685.48
241.15	1714.15
241.37	1718.25
241.59	1767.40
241.81	1681.38
242.02	1748.97
242.24	1687.53
242.46	1712.10
242.68	1703.91
242.89	1712.10
243.11	1759.21
243.33	1732.58
243.55	1677.29
243.76	1740.77
243.98	1673.19
244.20	1701.86
244.42	1634.28
244.64	1691.62
244.85	1685.48
245.07	1652.71
245.29	1656.81
245.51	1634.28
245.72	1628.14
245.94	1787.88
246.16	1699.81
246.38	1734.63
246.59	1660.90
246.81	1681.38
247.03	1634.28
247.24	1613.80
247.46	1695.72
247.68	1763.30
247.90	1669.09
248.11	1654.76
248.33	1705.96
248.55	1703.91
248.77	1699.81
248.98	1730.53
249.20	1691.62
249.42	1726.44
249.64	1687.53
249.85	1748.97
250.07	1609.70
250.29	1685.48
250.50	1736.68
250.72	1603.56
250.94	1712.10
251.16	1781.73
251.37	1744.87
251.59	1699.81
251.81	1714.15
252.02	1816.55
252.24	1712.10
252.46	1796.07
252.68	1650.66
252.89	1691.62
253.11	1636.33
253.33	1791.97
253.54	1798.12
253.76	1560.55
253.98	1646.57
254.20	1667.05
254.41	1658.85
254.63	1755.11
254.85	1550.31
255.06	1679.33
255.28	1763.30
255.50	1675.24
255.71	1662.95
255.93	1626.09
256.15	1693.67
256.36	1740.77
256.58	1660.90
256.80	1759.21
257.02	1632.23
257.23	1687.53
257.45	1683.43
257.67	1722.34
257.88	1640.42
258.10	1771.49
258.32	1726.44
258.53	1671.14
258.75	1812.45
258.97	1652.71
259.18	1679.33
259.40	1740.77
259.62	1791.97
259.83	1787.88
260.05	1691.62
260.27	1968.10
260.48	1763.30
260.70	1609.70
260.92	1646.57
261.13	1763.30
261.35	1730.53
261.57	1761.25
261.78	1626.09
262.00	1552.36
262.22	1804.26
262.43	1701.86
262.65	1615.85
262.86	1712.10
263.08	1787.88
263.30	1744.87
263.51	1662.95
263.73	1650.66
263.95	1763.30
264.16	1548.26
264.38	1648.61
264.60	1687.53
264.81	1734.63
265.03	1759.21
265.25	1789.92
265.46	1732.58
265.68	1765.35
265.89	1783.78
266.11	1593.32
266.33	1677.29
266.54	1738.73
266.76	1656.81
266.98	1701.86
267.19	1789.92
267.41	1796.07
267.62	1701.86
267.84	1583.08
268.06	1751.01
268.27	1665.00
268.49	1771.49
268.70	1816.55
268.92	1708.01
269.14	1656.81
269.35	1673.19
269.57	1775.59
269.79	1732.58
270.00	1687.53
270.22	1849.32
270.43	1646.57
270.65	1609.70
270.87	1671.14
271.08	1738.73
271.30	1679.33
271.51	1728.49
271.73	1759.21
271.95	1722.34
272.16	1689.57
272.38	1763.30
272.59	1658.85
272.81	1751.01
273.02	1716.20
273.24	1834.98
273.46	1728.49
273.67	1716.20
273.89	1648.61
274.10	1632.23
274.32	1781.73
274.54	1640.42
274.75	1705.96
274.97	1644.52
275.18	1742.82
275.40	1740.77
275.61	1734.63
275.83	1714.15
276.05	1689.57
276.26	1685.48
276.48	1708.01
276.69	1669.09
276.91	1613.80
277.12	1730.53
277.34	1730.53
277.55	1783.78
277.77	1718.25
277.99	1699.81
278.20	1662.95
278.42	1619.94
278.63	1626.09
278.85	1699.81
279.06	1660.90
279.28	1671.14
279.49	1720.29
279.71	1701.86
279.93	1722.34
280.14	1716.20
280.36	1673.19
280.57	1710.05
280.79	1763.30
281.00	1656.81
281.22	1613.80
281.43	1701.86
281.65	1544.17
281.86	1640.42
282.08	1697.77
282.29	1808.36
282.51	1681.38
282.73	1615.85
282.94	1552.36
283.16	1730.53
283.37	1800.16
283.59	1726.44
283.80	1722.34
284.02	1748.97
284.23	1665.00
284.45	1675.24
284.66	1613.80
284.88	1730.53
285.09	1703.91
285.31	1701.86
285.52	1746.92
285.74	1607.66
285.95	1763.30
286.17	1746.92
286.38	1773.54
286.60	1650.66
286.81	1665.00
287.03	1681.38
287.24	1667.05
287.46	1798.12
287.67	1689.57
287.89	1777.64
288.10	1689.57
288.32	1773.54
288.53	1722.34
288.75	1681.38
288.96	1736.68
289.18	1689.57
289.39	1632.23
289.61	1736.68
289.82	1800.16
290.04	1877.99
290.25	1673.19
290.47	1611.75
290.68	1611.75
290.90	1785.83
291.11	1613.80
291.33	1732.58
291.54	1652.71
291.76	1699.81
291.97	1669.09
292.18	1785.83
292.40	1621.99
292.61	1708.01
292.83	1757.16
293.04	1701.86
293.26	1691.62
293.47	1669.09
293.69	1619.94
293.90	1705.96
294.12	1789.92
294.33	1632.23
294.55	1644.52
294.76	1720.29
294.97	1712.10
295.19	1804.26
295.40	1703.91
295.62	1751.01
295.83	1798.12
296.05	1640.42
296.26	1695.72
296.48	1693.67
296.69	1728.49
296.90	1683.43
297.12	1777.64
297.33	1804.26
297.55	1722.34
297.76	1759.21
297.98	1710.05
298.19	1675.24
298.41	1701.86
298.62	1720.29
298.83	1781.73
299.05	1726.44
299.26	1642.47
299.48	1667.05
299.69	1708.01
299.90	1667.05
300.12	1720.29
300.33	1824.74
300.55	1708.01
300.76	1738.73
300.98	1683.43
301.19	1759.21
301.40	1675.24
301.62	1687.53
301.83	1671.14
302.05	1675.24
302.26	1662.95
302.47	1732.58
302.69	1607.66
302.90	1634.28
303.12	1601.51
303.33	1759.21
303.54	1775.59
303.76	1669.09
303.97	1748.97
304.19	1736.68
304.40	1613.80
304.61	1638.38
304.83	1736.68
305.04	1763.30
305.26	1722.34
305.47	1615.85
305.68	1615.85
305.90	1619.94
306.11	1714.15
306.33	1685.48
306.54	1722.34
306.75	1681.38
306.97	1652.71
307.18	1667.05
307.39	1656.81
307.61	1779.68
307.82	1740.77
308.04	1699.81
308.25	1642.47
308.46	1703.91
308.68	1656.81
308.89	1638.38
309.10	1841.12
309.32	1746.92
309.53	1738.73
309.74	1757.16
309.96	1587.18
310.17	1812.45
310.39	1679.33
310.60	1703.91
310.81	1722.34
311.03	1624.04
311.24	1761.25
311.45	1714.15
311.67	1763.30
311.88	1654.76
312.09	1624.04
312.31	1697.77
312.52	1701.86
312.73	1640.42
312.95	1708.01
313.16	1671.14
313.37	1781.73
313.59	1730.53
313.80	1757.16
314.01	1755.11
314.23	1685.48
314.44	1603.56
314.65	1583.08
314.87	1644.52
315.08	1652.71
315.29	1621.99
315.51	1611.75
315.72	1634.28
315.93	1853.41
316.15	1785.83
316.36	1646.57
316.57	1689.57
316.79	1742.82
317.00	1650.66
317.21	1716.20
317.43	1658.85
317.64	1744.87
317.85	1611.75
318.07	1662.95
318.28	1654.76
318.49	1791.97
318.70	1943.52
318.92	1837.03
319.13	1824.74
319.34	1812.45
319.56	1757.16
319.77	1828.84
319.98	1910.75
320.20	1779.68
320.41	1740.77
320.62	1806.31
320.83	1642.47
321.05	1863.65
321.26	1714.15
321.47	1753.06
321.69	1791.97
321.90	1644.52
322.11	1632.23
322.32	1718.25
322.54	1796.07
322.75	1591.27
322.96	1781.73
323.18	1673.19
323.39	1615.85
323.60	1660.90
323.81	1671.14
324.03	1599.46
324.24	1697.77
324.45	1695.72
324.66	1632.23
324.88	1687.53
325.09	1791.97
325.30	1722.34
325.52	1687.53
325.73	1701.86
325.94	1595.37
326.15	1642.47
326.37	1710.05
326.58	1744.87
326.79	1759.21
327.00	1687.53
327.22	1654.76
327.43	1650.66
327.64	1697.77
327.85	1636.33
328.07	1740.77
328.28	1802.21
328.49	1640.42
328.70	1775.59
328.92	1746.92
329.13	1660.90
329.34	1726.44
329.55	1783.78
329.76	1751.01
329.98	1738.73
330.19	1730.53
330.40	1660.90
330.61	1673.19
330.83	1796.07
331.04	1609.70
331.25	1722.34
331.46	1720.29
331.68	1603.56
331.89	1783.78
332.10	1718.25
332.31	1636.33
332.52	1742.82
332.74	1810.40
332.95	1630.18
333.16	1689.57
333.37	1691.62
333.58	1740.77
333.80	1685.48
334.01	1650.66
334.22	1742.82
334.43	1640.42
334.64	1677.29
334.86	1683.43
335.07	1695.72
335.28	1757.16
335.49	1671.14
335.70	1738.73
335.92	1732.58
336.13	1910.75
336.34	1755.11
336.55	1712.10
336.76	1703.91
336.98	1632.23
337.19	1681.38
337.40	1755.11
337.61	1787.88
337.82	1720.29
338.04	1675.24
338.25	1630.18
338.46	1705.96
338.67	1671.14
338.88	1685.48
339.09	1599.46
339.31	1636.33
339.52	1705.96
339.73	1671.14
339.94	1732.58
340.15	1777.64
340.36	1640.42
340.58	1669.09
340.79	1751.01
341.00	1732.58
341.21	1705.96
341.42	1789.92
341.63	1701.86
341.85	1759.21
342.06	1665.00
342.27	1638.38
342.48	1734.63
342.69	1628.14
342.90	1789.92
343.12	1738.73
343.33	1687.53
343.54	1695.72
343.75	1738.73
343.96	1703.91
344.17	1697.77
344.38	1693.67
344.60	1646.57
344.81	1636.33
345.02	1638.38
345.23	1744.87
345.44	1832.93
345.65	1802.21
345.86	1665.00
346.07	1730.53
346.29	1656.81
346.50	1712.10
346.71	1787.88
346.92	1705.96
347.13	1781.73
347.34	1675.24
347.55	1681.38
347.76	1783.78
347.98	1656.81
348.19	1701.86
348.40	1755.11
348.61	1628.14
348.82	1804.26
349.03	1744.87
349.24	1705.96
349.45	1710.05
349.66	1640.42
349.88	1748.97
350.09	1669.09
350.30	1781.73
350.51	1783.78
350.72	1681.38
350.93	1726.44
351.14	1644.52
351.35	1732.58
351.56	1701.86
351.77	1646.57
351.99	1615.85
352.20	1746.92
352.41	1755.11
352.62	1615.85
352.83	1763.30
353.04	1720.29
353.25	1595.37
353.46	1773.54
353.67	1726.44
353.88	1654.76
354.09	1773.54
354.30	1779.68
354.52	1646.57
354.73	1742.82
354.94	1568.74
355.15	1648.61
355.36	1869.80
355.57	1665.00
355.78	1763.30
355.99	1628.14
356.20	1673.19
356.41	1740.77
356.62	1679.33
356.83	1742.82
357.04	1810.40
357.25	1632.23
357.46	1695.72
357.68	1628.14
357.89	1718.25
358.10	1787.88
358.31	1677.29
358.52	1691.62
358.73	1621.99
358.94	1640.42
359.15	1683.43
359.36	1767.40
359.57	1681.38
359.78	1681.38
359.99	1681.38
360.20	1642.47
360.41	1720.29
360.62	1667.05
360.83	1728.49
361.04	1619.94
361.25	1695.72
361.46	1779.68
361.67	1665.00
361.88	1693.67
362.09	1802.21
362.30	1753.06
362.51	1705.96
362.72	1806.31
362.93	1791.97
363.14	1703.91
363.35	1679.33
363.56	1583.08
363.78	1759.21
363.99	1798.12
364.20	1679.33
364.41	1742.82
364.62	1808.36
364.83	1689.57
365.04	1671.14
365.25	1728.49
365.46	1798.12
365.67	1615.85
365.88	1699.81
366.09	1708.01
366.30	1742.82
366.51	1755.11
366.72	1638.38
366.93	1716.20
367.14	1632.23
367.35	1771.49
367.56	1714.15
367.77	1789.92
367.98	1607.66
368.18	1681.38
368.39	1705.96
368.60	1626.09
368.81	1765.35
369.02	1757.16
369.23	1650.66
369.44	1601.51
369.65	1638.38
369.86	1677.29
370.07	1751.01
370.28	1656.81
370.49	1759.21
370.70	1816.55
370.91	1642.47
371.12	1689.57
371.33	1720.29
371.54	1734.63
371.75	1785.83
371.96	1630.18
372.17	1638.38
372.38	1675.24
372.59	1712.10
372.80	1609.70
373.01	1695.72
373.22	1624.04
373.43	1685.48
373.64	1679.33
373.85	1759.21
374.06	1818.60
374.26	1755.11
374.47	1720.29
374.68	1718.25
374.89	1617.90
375.10	1648.61
375.31	1806.31
375.52	1648.61
375.73	1748.97
375.94	1581.03
376.15	1783.78
376.36	1667.05
376.57	1679.33
376.78	1640.42
376.99	1710.05
377.20	1761.25
377.40	1699.81
377.61	1834.98
377.82	1687.53
378.03	1771.49
378.24	1703.91
378.45	1742.82
378.66	1755.11
378.87	1638.38
379.08	1640.42
379.29	1728.49
379.50	1753.06
379.71	1746.92
379.91	1695.72
380.12	1640.42
380.33	1636.33
380.54	1734.63
380.75	1652.71
380.96	1726.44
381.17	1779.68
381.38	1726.44
381.59	1693.67
381.80	1748.97
382.00	1808.36
382.21	1703.91
382.42	1773.54
382.63	1857.51
382.84	1742.82
383.05	1718.25
383.26	1775.59
383.47	1710.05
383.68	1783.78
383.88	1705.96
384.09	1708.01
384.30	1822.69
384.51	1720.29
384.72	1648.61
384.93	1656.81
385.14	1669.09
385.35	1742.82
385.55	1646.57
385.76	1763.30
385.97	1685.48
386.18	1703.91
386.39	1728.49
386.60	1734.63
386.81	1617.90
387.02	1687.53
387.22	1646.57
387.43	1677.29
387.64	1859.56
387.85	1808.36
388.06	2199.52
388.27	4227.01
388.48	6834.07
388.68	8286.08
388.89	9762.67
389.10	9916.26
389.31	8673.15
389.52	7530.38
389.73	6793.11
389.93	6270.88
390.14	5799.85
390.35	5205.94
390.56	4591.55
390.77	3874.76
390.98	3016.66
391.18	2562.01
391.39	2093.02
391.60	1918.95
391.81	1822.69
392.02	1705.96
392.23	1873.89
392.43	1755.11
392.64	1705.96
392.85	1662.95
393.06	1804.26
393.27	1759.21
393.47	1677.29
393.68	1634.28
393.89	1699.81
394.10	1812.45
394.31	1638.38
394.52	1634.28
394.72	1691.62
394.93	1853.41
395.14	1656.81
395.35	1667.05
395.56	1677.29
395.76	1644.52
395.97	1753.06
396.18	1832.93
396.39	1777.64
396.60	2019.30
396.80	1884.13
397.01	1816.55
397.22	1841.12
397.43	1791.97
397.64	1757.16
397.84	1787.88
398.05	1812.45
398.26	1714.15
398.47	1812.45
398.67	1816.55
398.88	1753.06
399.09	1751.01
399.30	1695.72
399.51	1822.69
399.71	1693.67
399.92	1613.80
400.13	1740.77
400.34	1697.77
400.54	1693.67
400.75	1814.50
400.96	1730.53
401.17	1834.98
401.37	1669.09
401.58	1630.18
401.79	1726.44
402.00	1791.97
402.21	2017.25
402.41	1937.38
402.62	1992.67
402.83	2021.35
403.04	2009.06
403.24	2062.30
403.45	1791.97
403.66	1925.09
403.87	1802.21
404.07	1902.56
404.28	1972.19
404.49	1863.65
404.70	1771.49
404.90	1789.92
405.11	1753.06
405.32	1705.96
405.52	1748.97
405.73	1675.24
405.94	1654.76
406.15	1703.91
406.35	1681.38
406.56	1734.63
406.77	1665.00
406.98	1732.58
407.18	1673.19
407.39	1718.25
407.60	1718.25
407.80	1722.34
408.01	1720.29
408.22	1697.77
408.43	1673.19
408.63	1716.20
408.84	1826.79
409.05	1804.26
409.25	1693.67
409.46	1740.77
409.67	1687.53
409.88	1615.85
410.08	1783.78
410.29	1691.62
410.50	1761.25
410.70	1779.68
410.91	1667.05
411.12	1794.02
411.32	1716.20
411.53	1708.01
411.74	1771.49
411.95	1705.96
412.15	1822.69
412.36	1767.40
412.57	1806.31
412.77	1818.60
412.98	1757.16
413.19	1681.38
413.39	1794.02
413.60	1816.55
413.81	1880.04
414.01	1615.85
414.22	1806.31
414.43	1777.64
414.63	1683.43
414.84	1726.44
415.05	1695.72
415.25	1744.87
415.46	1718.25
415.67	1742.82
415.87	1781.73
416.08	1724.39
416.29	1728.49
416.49	1716.20
416.70	1699.81
416.91	1716.20
417.11	1572.84
417.32	1681.38
417.53	1808.36
417.73	1751.01
417.94	1710.05
418.15	1699.81
418.35	1777.64
418.56	1619.94
418.77	1791.97
418.97	1687.53
419.18	1685.48
419.38	1619.94
419.59	1638.38
419.80	1734.63
420.00	1705.96
420.21	1708.01
420.42	1757.16
420.62	1757.16
420.83	1574.89
421.04	1691.62
421.24	1638.38
421.45	1763.30
421.65	1679.33
421.86	1642.47
422.07	1683.43
422.27	1720.29
422.48	1742.82
422.69	1673.19
422.89	1603.56
423.10	1646.57
423.30	1718.25
423.51	1759.21
423.72	1712.10
423.92	1820.64
424.13	1593.32
424.33	1667.05
424.54	1718.25
424.75	1744.87
424.95	1828.84
425.16	1740.77
425.36	1724.39
425.57	1734.63
425.78	1722.34
425.98	1785.83
426.19	1689.57
426.39	1646.57
426.60	1718.25
426.81	1796.07
427.01	1738.73
427.22	1593.32
427.42	1626.09
427.63	1665.00
427.83	1689.57
428.04	1798.12
428.25	1851.36
428.45	1796.07
428.66	1738.73
428.86	1632.23
429.07	1599.46
429.28	1718.25
429.48	1638.38
429.69	1669.09
429.89	1757.16
430.10	1632.23
430.30	1732.58
430.51	1726.44
430.71	1673.19
430.92	1708.01
431.13	1658.85
431.33	1812.45
431.54	1730.53
431.74	1820.64
431.95	1800.16
432.15	1687.53
432.36	1691.62
432.56	1689.57
432.77	1695.72
432.98	1816.55
433.18	1710.05
433.39	1773.54
433.59	1753.06
433.80	1736.68
434.00	1796.07
434.21	1714.15
434.41	1640.42
434.62	1931.23
434.82	1581.03
435.03	1701.86
435.23	1718.25
435.44	1632.23
435.64	1689.57
435.85	1699.81
436.06	1734.63
436.26	1738.73
436.47	1687.53
436.67	1593.32
436.88	1740.77
437.08	1703.91
437.29	1740.77
437.49	1748.97
437.70	1769.44
437.90	1787.88
438.11	1906.66
438.31	1759.21
438.52	1796.07
438.72	1845.22
438.93	1896.42
439.13	1730.53
439.34	1843.17
439.54	1677.29
439.75	1798.12
439.95	1779.68
440.16	1714.15
440.36	1761.25
440.57	1771.49
440.77	1730.53
440.98	1671.14
441.18	1724.39
441.39	1656.81
441.59	1732.58
441.80	1824.74
442.00	1689.57
442.21	1806.31
442.41	1722.34
442.62	1789.92
442.82	1724.39
443.02	1726.44
443.23	1773.54
443.43	1681.38
443.64	1837.03
443.84	1689.57
444.05	1810.40
444.25	1714.15
444.46	1705.96
444.66	1728.49
444.87	1824.74
445.07	1669.09
445.28	1787.88
445.48	1857.51
445.69	1718.25
445.89	1837.03
446.09	1740.77
446.30	1980.39
446.50	2740.18
446.71	3674.06
446.91	4200.38
447.12	4759.48
447.32	4855.73
447.53	4331.45
447.73	3981.25
447.93	3540.94
448.14	3231.69
448.34	3229.65
448.55	2967.51
448.75	2811.86
448.96	2688.98
449.16	2459.61
449.36	2314.20
449.57	2084.83
449.77	1939.43
449.98	1779.68
450.18	1818.60
450.39	1789.92
450.59	1695.72
450.79	1779.68
451.00	1660.90
451.20	1771.49
451.41	1720.29
451.61	1751.01
451.81	1728.49
452.02	1736.68
452.22	1730.53
452.43	1757.16
452.63	1724.39
