SpectraSuite Data File
++++++++++++++++++++++++++++++++++++
Date: Mon Jun 06 15:26:57 CEST 2016
User: root
Dark Spectrum Present: No
Reference Spectrum Present: No
Number of Sampled Component Spectra: 1
Spectrometers: USB4C02835
Integration Time (usec): 100000 (USB4C02835)
Spectra Averaged: 1 (USB4C02835)
Boxcar Smoothing: 0 (USB4C02835)
Correct for Electrical Dark: No (USB4C02835)
Strobe/Lamp Enabled: No (USB4C02835)
Correct for Detector Non-linearity: No (USB4C02835)
Correct for Stray Light: No (USB4C02835)
Number of Pixels in Processed Spectrum: 3648
>>>>>Begin Processed Spectral Data<<<<<
177.47	1470.44
177.69	1470.44
177.91	1470.44
178.13	1476.59
178.36	1462.25
178.58	1605.61
178.80	1656.81
179.02	1595.37
179.24	1632.23
179.46	1791.97
179.68	1724.39
179.90	1687.53
180.13	1724.39
180.35	1603.56
180.57	1742.82
180.79	1822.69
181.01	1708.01
181.23	1742.82
181.45	1841.12
181.67	1751.01
181.90	1753.06
182.12	1710.05
182.34	1644.52
182.56	1767.40
182.78	1746.92
183.00	1703.91
183.22	1691.62
183.44	1648.61
183.66	1898.47
183.89	1798.12
184.11	1791.97
184.33	1783.78
184.55	1781.73
184.77	1738.73
184.99	1660.90
185.21	1720.29
185.43	1886.18
185.65	1681.38
185.87	1722.34
186.10	1855.46
186.32	1845.22
186.54	1660.90
186.76	1755.11
186.98	1746.92
187.20	1638.38
187.42	1660.90
187.64	1695.72
187.86	1779.68
188.08	1708.01
188.30	1716.20
188.52	1640.42
188.75	1808.36
188.97	1871.84
189.19	1708.01
189.41	1640.42
189.63	1800.16
189.85	1689.57
190.07	1708.01
190.29	1718.25
190.51	1775.59
190.73	1648.61
190.95	1757.16
191.17	1830.88
191.39	1578.98
191.61	1697.77
191.84	1642.47
192.06	1767.40
192.28	1597.42
192.50	1853.41
192.72	1736.68
192.94	1714.15
193.16	1834.98
193.38	1798.12
193.60	1695.72
193.82	1667.05
194.04	1865.70
194.26	1769.44
194.48	1732.58
194.70	1671.14
194.92	1716.20
195.14	1765.35
195.36	1722.34
195.58	1705.96
195.80	1736.68
196.02	1605.61
196.24	1748.97
196.46	1701.86
196.69	1626.09
196.91	1900.52
197.13	1718.25
197.35	1708.01
197.57	1787.88
197.79	1757.16
198.01	1681.38
198.23	1804.26
198.45	1781.73
198.67	1642.47
198.89	1679.33
199.11	1724.39
199.33	1636.33
199.55	1607.66
199.77	1736.68
199.99	1763.30
200.21	1695.72
200.43	1732.58
200.65	1685.48
200.87	1593.32
201.09	1724.39
201.31	1724.39
201.53	1746.92
201.75	1748.97
201.97	1652.71
202.19	1669.09
202.41	1667.05
202.63	1845.22
202.85	1738.73
203.07	1738.73
203.29	1677.29
203.51	1685.48
203.73	1685.48
203.95	1898.47
204.17	1779.68
204.39	1791.97
204.61	1644.52
204.83	1687.53
205.05	1685.48
205.27	1783.78
205.49	1902.56
205.71	1816.55
205.93	1701.86
206.15	1675.24
206.37	1630.18
206.59	1685.48
206.81	1714.15
207.03	1726.44
207.25	1630.18
207.47	1751.01
207.69	1693.67
207.91	1769.44
208.13	1808.36
208.34	1667.05
208.56	1697.77
208.78	1740.77
209.00	1685.48
209.22	1660.90
209.44	1628.14
209.66	1615.85
209.88	1742.82
210.10	1705.96
210.32	1667.05
210.54	1794.02
210.76	1738.73
210.98	1720.29
211.20	1578.98
211.42	1677.29
211.64	1818.60
211.86	1699.81
212.08	1753.06
212.30	1746.92
212.52	1701.86
212.74	1796.07
212.96	1802.21
213.17	1773.54
213.39	1701.86
213.61	1810.40
213.83	1720.29
214.05	1679.33
214.27	1755.11
214.49	1671.14
214.71	1699.81
214.93	1701.86
215.15	1722.34
215.37	1738.73
215.59	1648.61
215.81	1851.36
216.03	1701.86
216.24	1742.82
216.46	1710.05
216.68	1705.96
216.90	1767.40
217.12	1785.83
217.34	1665.00
217.56	1689.57
217.78	1808.36
218.00	1738.73
218.22	1759.21
218.44	1683.43
218.66	1767.40
218.87	1773.54
219.09	1714.15
219.31	1720.29
219.53	1765.35
219.75	1722.34
219.97	1767.40
220.19	1734.63
220.41	1701.86
220.63	1687.53
220.85	1658.85
221.06	1716.20
221.28	1746.92
221.50	1728.49
221.72	1689.57
221.94	1701.86
222.16	1751.01
222.38	1640.42
222.60	1693.67
222.82	1687.53
223.03	1734.63
223.25	1691.62
223.47	1783.78
223.69	1859.56
223.91	1751.01
224.13	1701.86
224.35	1710.05
224.57	1806.31
224.78	1699.81
225.00	1677.29
225.22	1705.96
225.44	1730.53
225.66	1779.68
225.88	1642.47
226.10	1714.15
226.32	1722.34
226.53	1824.74
226.75	1753.06
226.97	1742.82
227.19	1722.34
227.41	1644.52
227.63	1712.10
227.85	1701.86
228.06	1673.19
228.28	1724.39
228.50	1853.41
228.72	1660.90
228.94	1697.77
229.16	1689.57
229.37	1710.05
229.59	1648.61
229.81	1771.49
230.03	1578.98
230.25	1652.71
230.47	1669.09
230.69	1667.05
230.90	1841.12
231.12	1689.57
231.34	1679.33
231.56	1767.40
231.78	1599.46
232.00	1703.91
232.21	1716.20
232.43	1720.29
232.65	1648.61
232.87	1701.86
233.09	1638.38
233.30	1644.52
233.52	1828.84
233.74	1753.06
233.96	1673.19
234.18	1720.29
234.40	1705.96
234.61	1812.45
234.83	1671.14
235.05	1566.70
235.27	1900.52
235.49	1736.68
235.70	1746.92
235.92	1820.64
236.14	1712.10
236.36	1816.55
236.58	1673.19
236.79	1787.88
237.01	1681.38
237.23	1712.10
237.45	1746.92
237.67	1632.23
237.88	1681.38
238.10	1888.23
238.32	1624.04
238.54	1695.72
238.76	1712.10
238.97	1716.20
239.19	1601.51
239.41	1783.78
239.63	1722.34
239.85	1646.57
240.06	1650.66
240.28	1759.21
240.50	1808.36
240.72	1695.72
240.93	1742.82
241.15	1785.83
241.37	1677.29
241.59	1787.88
241.81	1685.48
242.02	1683.43
242.24	1683.43
242.46	1767.40
242.68	1636.33
242.89	1714.15
243.11	1705.96
243.33	1697.77
243.55	1677.29
243.76	1658.85
243.98	1693.67
244.20	1746.92
244.42	1740.77
244.64	1789.92
244.85	1624.04
245.07	1675.24
245.29	1720.29
245.51	1632.23
245.72	1662.95
245.94	1730.53
246.16	1751.01
246.38	1695.72
246.59	1671.14
246.81	1574.89
247.03	1652.71
247.24	1607.66
247.46	1714.15
247.68	1687.53
247.90	1705.96
248.11	1662.95
248.33	1765.35
248.55	1748.97
248.77	1701.86
248.98	1791.97
249.20	1712.10
249.42	1742.82
249.64	1732.58
249.85	1738.73
250.07	1689.57
250.29	1730.53
250.50	1714.15
250.72	1656.81
250.94	1724.39
251.16	1810.40
251.37	1746.92
251.59	1742.82
251.81	1789.92
252.02	1808.36
252.24	1675.24
252.46	1820.64
252.68	1671.14
252.89	1683.43
253.11	1632.23
253.33	1763.30
253.54	1779.68
253.76	1648.61
253.98	1714.15
254.20	1689.57
254.41	1673.19
254.63	1716.20
254.85	1685.48
255.06	1779.68
255.28	1697.77
255.50	1628.14
255.71	1667.05
255.93	1685.48
256.15	1689.57
256.36	1714.15
256.58	1640.42
256.80	1708.01
257.02	1689.57
257.23	1665.00
257.45	1716.20
257.67	1830.88
257.88	1685.48
258.10	1767.40
258.32	1759.21
258.53	1814.50
258.75	1822.69
258.97	1665.00
259.18	1744.87
259.40	1705.96
259.62	1818.60
259.83	1732.58
260.05	1800.16
260.27	1992.67
260.48	1826.79
260.70	1689.57
260.92	1742.82
261.13	1740.77
261.35	1800.16
261.57	1697.77
261.78	1638.38
262.00	1716.20
262.22	1767.40
262.43	1589.22
262.65	1761.25
262.86	1689.57
263.08	1822.69
263.30	1693.67
263.51	1634.28
263.73	1660.90
263.95	1884.13
264.16	1617.90
264.38	1697.77
264.60	1751.01
264.81	1679.33
265.03	1785.83
265.25	1763.30
265.46	1685.48
265.68	1765.35
265.89	1724.39
266.11	1578.98
266.33	1714.15
266.54	1771.49
266.76	1791.97
266.98	1757.16
267.19	1841.12
267.41	1734.63
267.62	1656.81
267.84	1687.53
268.06	1746.92
268.27	1689.57
268.49	1806.31
268.70	1791.97
268.92	1730.53
269.14	1683.43
269.35	1669.09
269.57	1712.10
269.79	1767.40
270.00	1658.85
270.22	1763.30
270.43	1714.15
270.65	1562.60
270.87	1738.73
271.08	1716.20
271.30	1779.68
271.51	1718.25
271.73	1757.16
271.95	1849.32
272.16	1753.06
272.38	1769.44
272.59	1646.57
272.81	1724.39
273.02	1763.30
273.24	1830.88
273.46	1806.31
273.67	1652.71
273.89	1736.68
274.10	1656.81
274.32	1748.97
274.54	1757.16
274.75	1748.97
274.97	1658.85
275.18	1791.97
275.40	1744.87
275.61	1710.05
275.83	1675.24
276.05	1697.77
276.26	1673.19
276.48	1701.86
276.69	1691.62
276.91	1738.73
277.12	1853.41
277.34	1722.34
277.55	1855.46
277.77	1724.39
277.99	1763.30
278.20	1621.99
278.42	1699.81
278.63	1705.96
278.85	1662.95
279.06	1726.44
279.28	1689.57
279.49	1763.30
279.71	1755.11
279.93	1734.63
280.14	1763.30
280.36	1669.09
280.57	1744.87
280.79	1796.07
281.00	1630.18
281.22	1605.61
281.43	1785.83
281.65	1587.18
281.86	1648.61
282.08	1697.77
282.29	1824.74
282.51	1744.87
282.73	1634.28
282.94	1542.12
283.16	1730.53
283.37	1830.88
283.59	1759.21
283.80	1724.39
284.02	1701.86
284.23	1740.77
284.45	1671.14
284.66	1679.33
284.88	1740.77
285.09	1710.05
285.31	1783.78
285.52	1781.73
285.74	1677.29
285.95	1783.78
286.17	1658.85
286.38	1736.68
286.60	1724.39
286.81	1611.75
287.03	1699.81
287.24	1648.61
287.46	1787.88
287.67	1673.19
287.89	1814.50
288.10	1720.29
288.32	1714.15
288.53	1804.26
288.75	1695.72
288.96	1791.97
289.18	1656.81
289.39	1716.20
289.61	1804.26
289.82	1814.50
290.04	1738.73
290.25	1656.81
290.47	1689.57
290.68	1667.05
290.90	1759.21
291.11	1681.38
291.33	1763.30
291.54	1675.24
291.76	1689.57
291.97	1761.25
292.18	1714.15
292.40	1738.73
292.61	1689.57
292.83	1843.17
293.04	1708.01
293.26	1751.01
293.47	1662.95
293.69	1599.46
293.90	1671.14
294.12	1855.46
294.33	1734.63
294.55	1695.72
294.76	1757.16
294.97	1726.44
295.19	1802.21
295.40	1640.42
295.62	1748.97
295.83	1722.34
296.05	1656.81
296.26	1753.06
296.48	1689.57
296.69	1718.25
296.90	1779.68
297.12	1716.20
297.33	1804.26
297.55	1828.84
297.76	1728.49
297.98	1753.06
298.19	1718.25
298.41	1724.39
298.62	1716.20
298.83	1826.79
299.05	1845.22
299.26	1701.86
299.48	1648.61
299.69	1714.15
299.90	1685.48
300.12	1701.86
300.33	1703.91
300.55	1755.11
300.76	1800.16
300.98	1644.52
301.19	1755.11
301.40	1671.14
301.62	1740.77
301.83	1738.73
302.05	1763.30
302.26	1714.15
302.47	1804.26
302.69	1695.72
302.90	1730.53
303.12	1673.19
303.33	1771.49
303.54	1753.06
303.76	1685.48
303.97	1742.82
304.19	1806.31
304.40	1740.77
304.61	1697.77
304.83	1806.31
305.04	1812.45
305.26	1744.87
305.47	1695.72
305.68	1669.09
305.90	1685.48
306.11	1722.34
306.33	1685.48
306.54	1701.86
306.75	1644.52
306.97	1603.56
307.18	1697.77
307.39	1683.43
307.61	1796.07
307.82	1773.54
308.04	1763.30
308.25	1679.33
308.46	1771.49
308.68	1753.06
308.89	1710.05
309.10	1789.92
309.32	1748.97
309.53	1769.44
309.74	1787.88
309.96	1730.53
310.17	1843.17
310.39	1697.77
310.60	1712.10
310.81	1693.67
311.03	1658.85
311.24	1736.68
311.45	1726.44
311.67	1828.84
311.88	1767.40
312.09	1662.95
312.31	1708.01
312.52	1665.00
312.73	1718.25
312.95	1599.46
313.16	1562.60
313.37	1814.50
313.59	1755.11
313.80	1810.40
314.01	1839.08
314.23	1673.19
314.44	1603.56
314.65	1611.75
314.87	1724.39
315.08	1705.96
315.29	1675.24
315.51	1638.38
315.72	1687.53
315.93	1877.99
316.15	1748.97
316.36	1767.40
316.57	1691.62
316.79	1742.82
317.00	1671.14
317.21	1714.15
317.43	1755.11
317.64	1660.90
317.85	1689.57
318.07	1685.48
318.28	1734.63
318.49	1834.98
318.70	1863.65
318.92	1740.77
319.13	1886.18
319.34	1888.23
319.56	1779.68
319.77	1748.97
319.98	1722.34
320.20	1765.35
320.41	1828.84
320.62	1839.08
320.83	1710.05
321.05	1906.66
321.26	1693.67
321.47	1746.92
321.69	1877.99
321.90	1630.18
322.11	1726.44
322.32	1748.97
322.54	1691.62
322.75	1671.14
322.96	1787.88
323.18	1656.81
323.39	1650.66
323.60	1660.90
323.81	1732.58
324.03	1724.39
324.24	1726.44
324.45	1740.77
324.66	1675.24
324.88	1705.96
325.09	1740.77
325.30	1710.05
325.52	1744.87
325.73	1742.82
325.94	1617.90
326.15	1734.63
326.37	1677.29
326.58	1794.02
326.79	1777.64
327.00	1697.77
327.22	1705.96
327.43	1660.90
327.64	1648.61
327.85	1697.77
328.07	1740.77
328.28	1859.56
328.49	1642.47
328.70	1693.67
328.92	1712.10
329.13	1685.48
329.34	1732.58
329.55	1767.40
329.76	1779.68
329.98	1652.71
330.19	1785.83
330.40	1763.30
330.61	1746.92
330.83	1812.45
331.04	1638.38
331.25	1804.26
331.46	1703.91
331.68	1665.00
331.89	1705.96
332.10	1658.85
332.31	1646.57
332.52	1722.34
332.74	1722.34
332.95	1724.39
333.16	1816.55
333.37	1701.86
333.58	1716.20
333.80	1787.88
334.01	1574.89
334.22	1734.63
334.43	1685.48
334.64	1687.53
334.86	1632.23
335.07	1642.47
335.28	1806.31
335.49	1677.29
335.70	1689.57
335.92	1814.50
336.13	1839.08
336.34	1671.14
336.55	1773.54
336.76	1703.91
336.98	1527.78
337.19	1697.77
337.40	1775.59
337.61	1824.74
337.82	1724.39
338.04	1748.97
338.25	1589.22
338.46	1671.14
338.67	1648.61
338.88	1701.86
339.09	1656.81
339.31	1722.34
339.52	1595.37
339.73	1679.33
339.94	1681.38
340.15	1742.82
340.36	1681.38
340.58	1718.25
340.79	1689.57
341.00	1744.87
341.21	1603.56
341.42	1802.21
341.63	1716.20
341.85	1798.12
342.06	1742.82
342.27	1681.38
342.48	1781.73
342.69	1654.76
342.90	1701.86
343.12	1759.21
343.33	1681.38
343.54	1769.44
343.75	1798.12
343.96	1703.91
344.17	1705.96
344.38	1710.05
344.60	1726.44
344.81	1660.90
345.02	1724.39
345.23	1693.67
345.44	1814.50
345.65	1802.21
345.86	1732.58
346.07	1744.87
346.29	1669.09
346.50	1714.15
346.71	1716.20
346.92	1783.78
347.13	1841.12
347.34	1691.62
347.55	1771.49
347.76	1728.49
347.98	1601.51
348.19	1658.85
348.40	1777.64
348.61	1748.97
348.82	1816.55
349.03	1722.34
349.24	1638.38
349.45	1787.88
349.66	1570.79
349.88	1671.14
350.09	1734.63
350.30	1736.68
350.51	1775.59
350.72	1671.14
350.93	1732.58
351.14	1603.56
351.35	1816.55
351.56	1753.06
351.77	1732.58
351.99	1773.54
352.20	1794.02
352.41	1691.62
352.62	1628.14
352.83	1714.15
353.04	1632.23
353.25	1718.25
353.46	1722.34
353.67	1794.02
353.88	1544.17
354.09	1732.58
354.30	1642.47
354.52	1742.82
354.73	1681.38
354.94	1748.97
355.15	1742.82
355.36	1796.07
355.57	1689.57
355.78	1687.53
355.99	1726.44
356.20	1669.09
356.41	1814.50
356.62	1736.68
356.83	1654.76
357.04	1769.44
357.25	1720.29
357.46	1722.34
357.68	1632.23
357.89	1716.20
358.10	1763.30
358.31	1718.25
358.52	1708.01
358.73	1652.71
358.94	1646.57
359.15	1677.29
359.36	1740.77
359.57	1759.21
359.78	1724.39
359.99	1699.81
360.20	1667.05
360.41	1648.61
360.62	1744.87
360.83	1611.75
361.04	1714.15
361.25	1773.54
361.46	1832.93
361.67	1718.25
361.88	1736.68
362.09	1775.59
362.30	1751.01
362.51	1615.85
362.72	1755.11
362.93	1791.97
363.14	1767.40
363.35	1648.61
363.56	1685.48
363.78	1755.11
363.99	1804.26
364.20	1691.62
364.41	1775.59
364.62	1802.21
364.83	1755.11
365.04	1691.62
365.25	1644.52
365.46	1755.11
365.67	1673.19
365.88	1658.85
366.09	1677.29
366.30	1658.85
366.51	1681.38
366.72	1642.47
366.93	1714.15
367.14	1748.97
367.35	1748.97
367.56	1628.14
367.77	1849.32
367.98	1673.19
368.18	1800.16
368.39	1740.77
368.60	1640.42
368.81	1812.45
369.02	1679.33
369.23	1640.42
369.44	1587.18
369.65	1734.63
369.86	1662.95
370.07	1710.05
370.28	1685.48
370.49	1677.29
370.70	1814.50
370.91	1673.19
371.12	1705.96
371.33	1791.97
371.54	1685.48
371.75	1781.73
371.96	1564.65
372.17	1714.15
372.38	1738.73
372.59	1732.58
372.80	1699.81
373.01	1693.67
373.22	1730.53
373.43	1738.73
373.64	1687.53
373.85	1789.92
374.06	1839.08
374.26	1744.87
374.47	1812.45
374.68	1771.49
374.89	1667.05
375.10	1697.77
375.31	1738.73
375.52	1738.73
375.73	1708.01
375.94	1613.80
376.15	1748.97
376.36	1685.48
376.57	1599.46
376.78	1677.29
376.99	1703.91
377.20	1802.21
377.40	1650.66
377.61	1863.65
377.82	1689.57
378.03	1767.40
378.24	1765.35
378.45	1679.33
378.66	1673.19
378.87	1593.32
379.08	1642.47
379.29	1669.09
379.50	1769.44
379.71	1720.29
379.91	1779.68
380.12	1726.44
380.33	1734.63
380.54	1691.62
380.75	1763.30
380.96	1740.77
381.17	1798.12
381.38	1667.05
381.59	1783.78
381.80	1681.38
382.00	1804.26
382.21	1734.63
382.42	1810.40
382.63	1837.03
382.84	1740.77
383.05	1822.69
383.26	1761.25
383.47	1775.59
383.68	1826.79
383.88	1757.16
384.09	1763.30
384.30	1787.88
384.51	1701.86
384.72	1656.81
384.93	1654.76
385.14	1746.92
385.35	1812.45
385.55	1695.72
385.76	1755.11
385.97	1718.25
386.18	1669.09
386.39	1724.39
386.60	1681.38
386.81	1751.01
387.02	1599.46
387.22	1656.81
387.43	1787.88
387.64	1806.31
387.85	1877.99
388.06	2263.01
388.27	4114.37
388.48	6686.62
388.68	8183.68
388.89	9482.10
389.10	9811.82
389.31	8542.08
389.52	7485.33
389.73	6670.23
389.93	6182.82
390.14	5799.85
390.35	5167.03
390.56	4796.34
390.77	3786.69
390.98	3057.62
391.18	2559.96
391.39	2113.50
391.60	1820.64
391.81	1892.32
392.02	1744.87
392.23	1869.80
392.43	1681.38
392.64	1857.51
392.85	1726.44
393.06	1810.40
393.27	1814.50
393.47	1650.66
393.68	1796.07
393.89	1617.90
394.10	1748.97
394.31	1630.18
394.52	1685.48
394.72	1708.01
394.93	1814.50
395.14	1660.90
395.35	1722.34
395.56	1665.00
395.76	1697.77
395.97	1755.11
396.18	1767.40
396.39	1755.11
396.60	2041.82
396.80	1914.85
397.01	1851.36
397.22	1822.69
397.43	1882.08
397.64	1685.48
397.84	1781.73
398.05	1822.69
398.26	1746.92
398.47	1761.25
398.67	1798.12
398.88	1665.00
399.09	1783.78
399.30	1697.77
399.51	1777.64
399.71	1675.24
399.92	1656.81
400.13	1736.68
400.34	1683.43
400.54	1705.96
400.75	1847.27
400.96	1732.58
401.17	1736.68
401.37	1730.53
401.58	1755.11
401.79	1730.53
402.00	1863.65
402.21	1986.53
402.41	2000.87
402.62	2000.87
402.83	2009.06
403.04	2084.83
403.24	2068.45
403.45	1810.40
403.66	1912.80
403.87	1951.71
404.07	1941.47
404.28	1900.52
404.49	1843.17
404.70	1779.68
404.90	1761.25
405.11	1843.17
405.32	1744.87
405.52	1714.15
405.73	1646.57
405.94	1648.61
406.15	1681.38
406.35	1718.25
406.56	1656.81
406.77	1757.16
406.98	1765.35
407.18	1652.71
407.39	1791.97
407.60	1685.48
407.80	1716.20
408.01	1654.76
408.22	1798.12
408.43	1665.00
408.63	1746.92
408.84	1740.77
409.05	1777.64
409.25	1681.38
409.46	1632.23
409.67	1732.58
409.88	1673.19
410.08	1722.34
410.29	1658.85
410.50	1771.49
410.70	1753.06
410.91	1636.33
411.12	1787.88
411.32	1689.57
411.53	1701.86
411.74	1877.99
411.95	1779.68
412.15	1746.92
412.36	1763.30
412.57	1767.40
412.77	1861.60
412.98	1665.00
413.19	1693.67
413.39	1796.07
413.60	1751.01
413.81	1734.63
414.01	1626.09
414.22	1837.03
414.43	1812.45
414.63	1771.49
414.84	1708.01
415.05	1755.11
415.25	1667.05
415.46	1804.26
415.67	1703.91
415.87	1839.08
416.08	1681.38
416.29	1656.81
416.49	1763.30
416.70	1675.24
416.91	1677.29
417.11	1730.53
417.32	1718.25
417.53	1787.88
417.73	1646.57
417.94	1673.19
418.15	1759.21
418.35	1687.53
418.56	1789.92
418.77	1853.41
418.97	1687.53
419.18	1796.07
419.38	1615.85
419.59	1759.21
419.80	1863.65
420.00	1763.30
420.21	1763.30
420.42	1798.12
420.62	1755.11
420.83	1665.00
421.04	1769.44
421.24	1691.62
421.45	1718.25
421.65	1816.55
421.86	1673.19
422.07	1708.01
422.27	1740.77
422.48	1781.73
422.69	1751.01
422.89	1724.39
423.10	1697.77
423.30	1656.81
423.51	1730.53
423.72	1755.11
423.92	1757.16
424.13	1613.80
424.33	1716.20
424.54	1755.11
424.75	1804.26
424.95	1834.98
425.16	1679.33
425.36	1685.48
425.57	1742.82
425.78	1751.01
425.98	1804.26
426.19	1718.25
426.39	1628.14
426.60	1748.97
426.81	1886.18
427.01	1734.63
427.22	1662.95
427.42	1628.14
427.63	1687.53
427.83	1765.35
428.04	1873.89
428.25	1730.53
428.45	1816.55
428.66	1791.97
428.86	1718.25
429.07	1691.62
429.28	1724.39
429.48	1705.96
429.69	1810.40
429.89	1669.09
430.10	1671.14
430.30	1765.35
430.51	1751.01
430.71	1638.38
430.92	1697.77
431.13	1681.38
431.33	1769.44
431.54	1710.05
431.74	1804.26
431.95	1761.25
432.15	1697.77
432.36	1777.64
432.56	1767.40
432.77	1820.64
432.98	1820.64
433.18	1714.15
433.39	1665.00
433.59	1740.77
433.80	1816.55
434.00	1830.88
434.21	1730.53
434.41	1669.09
434.62	1853.41
434.82	1581.03
435.03	1683.43
435.23	1673.19
435.44	1697.77
435.64	1679.33
435.85	1679.33
436.06	1691.62
436.26	1757.16
436.47	1685.48
436.67	1675.24
436.88	1677.29
437.08	1794.02
437.29	1871.84
437.49	1677.29
437.70	1851.36
437.90	1705.96
438.11	1859.56
438.31	1857.51
438.52	1877.99
438.72	1880.04
438.93	1892.32
439.13	1804.26
439.34	1806.31
439.54	1757.16
439.75	1794.02
439.95	1796.07
440.16	1724.39
440.36	1746.92
440.57	1736.68
440.77	1755.11
440.98	1722.34
441.18	1791.97
441.39	1667.05
441.59	1669.09
441.80	1753.06
442.00	1777.64
442.21	1822.69
442.41	1652.71
442.62	1767.40
442.82	1615.85
443.02	1736.68
443.23	1769.44
443.43	1746.92
443.64	1796.07
443.84	1691.62
444.05	1828.84
444.25	1736.68
444.46	1699.81
444.66	1693.67
444.87	1845.22
445.07	1617.90
445.28	1812.45
445.48	1839.08
445.69	1722.34
445.89	1804.26
446.09	1755.11
446.30	1982.43
446.50	2658.26
446.71	3739.59
446.91	4337.60
447.12	4665.27
447.32	4779.96
447.53	4280.25
447.73	3833.80
447.93	3438.54
448.14	3327.95
448.34	3123.15
448.55	2990.03
448.75	2805.72
448.96	2729.94
449.16	2400.22
449.36	2260.96
449.57	1968.10
449.77	1900.52
449.98	1875.94
450.18	1787.88
450.39	1773.54
450.59	1738.73
450.79	1761.25
451.00	1701.86
451.20	1812.45
451.41	1705.96
451.61	1888.23
451.81	1779.68
452.02	1681.38
452.22	1726.44
452.43	1675.24
452.63	1714.15
