SpectraSuite Data File
++++++++++++++++++++++++++++++++++++
Date: Mon Jun 06 13:31:37 CEST 2016
User: root
Dark Spectrum Present: No
Reference Spectrum Present: No
Number of Sampled Component Spectra: 1
Spectrometers: USB4C02835
Integration Time (usec): 100000 (USB4C02835)
Spectra Averaged: 1 (USB4C02835)
Boxcar Smoothing: 0 (USB4C02835)
Correct for Electrical Dark: No (USB4C02835)
Strobe/Lamp Enabled: No (USB4C02835)
Correct for Detector Non-linearity: No (USB4C02835)
Correct for Stray Light: No (USB4C02835)
Number of Pixels in Processed Spectrum: 3648
>>>>>Begin Processed Spectral Data<<<<<
177.47	1546.22
177.69	1546.22
177.91	1546.22
178.13	1421.29
178.36	1443.82
178.58	1636.33
178.80	1691.62
179.02	1658.85
179.24	1632.23
179.46	1687.53
179.68	1744.87
179.90	1710.05
180.13	1738.73
180.35	1665.00
180.57	1626.09
180.79	1697.77
181.01	1761.25
181.23	1748.97
181.45	1781.73
181.67	1708.01
181.90	1691.62
182.12	1632.23
182.34	1646.57
182.56	1677.29
182.78	1681.38
183.00	1705.96
183.22	1726.44
183.44	1621.99
183.66	1859.56
183.89	1791.97
184.11	1773.54
184.33	1697.77
184.55	1796.07
184.77	1710.05
184.99	1724.39
185.21	1695.72
185.43	1744.87
185.65	1683.43
185.87	1753.06
186.10	1863.65
186.32	1855.46
186.54	1697.77
186.76	1683.43
186.98	1703.91
187.20	1667.05
187.42	1665.00
187.64	1718.25
187.86	1777.64
188.08	1732.58
188.30	1683.43
188.52	1640.42
188.75	1714.15
188.97	1773.54
189.19	1708.01
189.41	1708.01
189.63	1732.58
189.85	1660.90
190.07	1603.56
190.29	1628.14
190.51	1767.40
190.73	1617.90
190.95	1775.59
191.17	1748.97
191.39	1601.51
191.61	1636.33
191.84	1642.47
192.06	1722.34
192.28	1640.42
192.50	1843.17
192.72	1742.82
192.94	1710.05
193.16	1732.58
193.38	1677.29
193.60	1673.19
193.82	1669.09
194.04	1769.44
194.26	1730.53
194.48	1689.57
194.70	1648.61
194.92	1615.85
195.14	1806.31
195.36	1615.85
195.58	1679.33
195.80	1615.85
196.02	1748.97
196.24	1742.82
196.46	1751.01
196.69	1697.77
196.91	1865.70
197.13	1642.47
197.35	1669.09
197.57	1796.07
197.79	1675.24
198.01	1681.38
198.23	1773.54
198.45	1685.48
198.67	1593.32
198.89	1652.71
199.11	1642.47
199.33	1650.66
199.55	1560.55
199.77	1607.66
199.99	1763.30
200.21	1673.19
200.43	1689.57
200.65	1619.94
200.87	1712.10
201.09	1810.40
201.31	1648.61
201.53	1785.83
201.75	1642.47
201.97	1708.01
202.19	1665.00
202.41	1689.57
202.63	1796.07
202.85	1712.10
203.07	1640.42
203.29	1697.77
203.51	1697.77
203.73	1662.95
203.95	1865.70
204.17	1751.01
204.39	1699.81
204.61	1714.15
204.83	1628.14
205.05	1755.11
205.27	1755.11
205.49	1810.40
205.71	1718.25
205.93	1583.08
206.15	1685.48
206.37	1683.43
206.59	1652.71
206.81	1570.79
207.03	1634.28
207.25	1667.05
207.47	1695.72
207.69	1566.70
207.91	1779.68
208.13	1785.83
208.34	1644.52
208.56	1679.33
208.78	1705.96
209.00	1615.85
209.22	1609.70
209.44	1665.00
209.66	1656.81
209.88	1693.67
210.10	1652.71
210.32	1683.43
210.54	1802.21
210.76	1591.27
210.98	1771.49
211.20	1615.85
211.42	1701.86
211.64	1746.92
211.86	1615.85
212.08	1763.30
212.30	1779.68
212.52	1658.85
212.74	1677.29
212.96	1722.34
213.17	1746.92
213.39	1767.40
213.61	1791.97
213.83	1695.72
214.05	1697.77
214.27	1744.87
214.49	1648.61
214.71	1701.86
214.93	1753.06
215.15	1734.63
215.37	1748.97
215.59	1535.98
215.81	1689.57
216.03	1783.78
216.24	1714.15
216.46	1687.53
216.68	1683.43
216.90	1718.25
217.12	1728.49
217.34	1683.43
217.56	1771.49
217.78	1718.25
218.00	1746.92
218.22	1710.05
218.44	1798.12
218.66	1687.53
218.87	1724.39
219.09	1730.53
219.31	1685.48
219.53	1722.34
219.75	1677.29
219.97	1652.71
220.19	1689.57
220.41	1710.05
220.63	1751.01
220.85	1755.11
221.06	1583.08
221.28	1783.78
221.50	1724.39
221.72	1665.00
221.94	1679.33
222.16	1738.73
222.38	1748.97
222.60	1761.25
222.82	1685.48
223.03	1722.34
223.25	1617.90
223.47	1763.30
223.69	1804.26
223.91	1794.02
224.13	1820.64
224.35	1724.39
224.57	1787.88
224.78	1767.40
225.00	1638.38
225.22	1712.10
225.44	1673.19
225.66	1734.63
225.88	1708.01
226.10	1779.68
226.32	1646.57
226.53	1791.97
226.75	1658.85
226.97	1589.22
227.19	1722.34
227.41	1710.05
227.63	1665.00
227.85	1578.98
228.06	1691.62
228.28	1662.95
228.50	1802.21
228.72	1697.77
228.94	1697.77
229.16	1677.29
229.37	1597.42
229.59	1662.95
229.81	1738.73
230.03	1701.86
230.25	1626.09
230.47	1632.23
230.69	1642.47
230.90	1775.59
231.12	1695.72
231.34	1734.63
231.56	1734.63
231.78	1630.18
232.00	1665.00
232.21	1660.90
232.43	1615.85
232.65	1552.36
232.87	1648.61
233.09	1599.46
233.30	1599.46
233.52	1767.40
233.74	1689.57
233.96	1722.34
234.18	1718.25
234.40	1703.91
234.61	1765.35
234.83	1570.79
235.05	1630.18
235.27	1806.31
235.49	1740.77
235.70	1650.66
235.92	1757.16
236.14	1679.33
236.36	1832.93
236.58	1587.18
236.79	1720.29
237.01	1699.81
237.23	1613.80
237.45	1781.73
237.67	1656.81
237.88	1701.86
238.10	1746.92
238.32	1697.77
238.54	1716.20
238.76	1685.48
238.97	1583.08
239.19	1615.85
239.41	1751.01
239.63	1800.16
239.85	1667.05
240.06	1660.90
240.28	1652.71
240.50	1769.44
240.72	1673.19
240.93	1681.38
241.15	1765.35
241.37	1630.18
241.59	1769.44
241.81	1677.29
242.02	1689.57
242.24	1712.10
242.46	1789.92
242.68	1693.67
242.89	1687.53
243.11	1736.68
243.33	1757.16
243.55	1738.73
243.76	1654.76
243.98	1675.24
244.20	1685.48
244.42	1691.62
244.64	1619.94
244.85	1675.24
245.07	1576.94
245.29	1802.21
245.51	1648.61
245.72	1726.44
245.94	1740.77
246.16	1740.77
246.38	1812.45
246.59	1619.94
246.81	1601.51
247.03	1681.38
247.24	1638.38
247.46	1671.14
247.68	1728.49
247.90	1677.29
248.11	1705.96
248.33	1734.63
248.55	1697.77
248.77	1708.01
248.98	1751.01
249.20	1783.78
249.42	1779.68
249.64	1806.31
249.85	1712.10
250.07	1705.96
250.29	1724.39
250.50	1789.92
250.72	1607.66
250.94	1720.29
251.16	1839.08
251.37	1789.92
251.59	1699.81
251.81	1701.86
252.02	1779.68
252.24	1634.28
252.46	1658.85
252.68	1634.28
252.89	1632.23
253.11	1613.80
253.33	1759.21
253.54	1820.64
253.76	1683.43
253.98	1679.33
254.20	1724.39
254.41	1621.99
254.63	1730.53
254.85	1683.43
255.06	1683.43
255.28	1681.38
255.50	1687.53
255.71	1624.04
255.93	1652.71
256.15	1667.05
256.36	1773.54
256.58	1642.47
256.80	1761.25
257.02	1693.67
257.23	1708.01
257.45	1650.66
257.67	1781.73
257.88	1671.14
258.10	1736.68
258.32	1708.01
258.53	1744.87
258.75	1812.45
258.97	1658.85
259.18	1699.81
259.40	1617.90
259.62	1746.92
259.83	1751.01
260.05	1753.06
260.27	1968.10
260.48	1716.20
260.70	1652.71
260.92	1710.05
261.13	1734.63
261.35	1726.44
261.57	1740.77
261.78	1562.60
262.00	1605.61
262.22	1734.63
262.43	1628.14
262.65	1677.29
262.86	1712.10
263.08	1767.40
263.30	1699.81
263.51	1599.46
263.73	1642.47
263.95	1773.54
264.16	1626.09
264.38	1632.23
264.60	1646.57
264.81	1695.72
265.03	1636.33
265.25	1732.58
265.46	1656.81
265.68	1857.51
265.89	1763.30
266.11	1673.19
266.33	1767.40
266.54	1773.54
266.76	1697.77
266.98	1726.44
267.19	1734.63
267.41	1834.98
267.62	1673.19
267.84	1658.85
268.06	1753.06
268.27	1701.86
268.49	1732.58
268.70	1802.21
268.92	1703.91
269.14	1667.05
269.35	1654.76
269.57	1624.04
269.79	1771.49
270.00	1673.19
270.22	1882.08
270.43	1626.09
270.65	1628.14
270.87	1621.99
271.08	1714.15
271.30	1757.16
271.51	1646.57
271.73	1708.01
271.95	1775.59
272.16	1677.29
272.38	1679.33
272.59	1683.43
272.81	1757.16
273.02	1685.48
273.24	1695.72
273.46	1771.49
273.67	1722.34
273.89	1650.66
274.10	1603.56
274.32	1785.83
274.54	1681.38
274.75	1699.81
274.97	1681.38
275.18	1685.48
275.40	1724.39
275.61	1748.97
275.83	1748.97
276.05	1693.67
276.26	1662.95
276.48	1650.66
276.69	1691.62
276.91	1605.61
277.12	1755.11
277.34	1765.35
277.55	1746.92
277.77	1712.10
277.99	1699.81
278.20	1665.00
278.42	1617.90
278.63	1605.61
278.85	1751.01
279.06	1687.53
279.28	1648.61
279.49	1767.40
279.71	1683.43
279.93	1695.72
280.14	1697.77
280.36	1681.38
280.57	1724.39
280.79	1798.12
281.00	1667.05
281.22	1640.42
281.43	1744.87
281.65	1626.09
281.86	1607.66
282.08	1757.16
282.29	1841.12
282.51	1626.09
282.73	1624.04
282.94	1665.00
283.16	1771.49
283.37	1798.12
283.59	1714.15
283.80	1714.15
284.02	1708.01
284.23	1740.77
284.45	1652.71
284.66	1583.08
284.88	1626.09
285.09	1673.19
285.31	1746.92
285.52	1730.53
285.74	1650.66
285.95	1765.35
286.17	1718.25
286.38	1683.43
286.60	1626.09
286.81	1626.09
287.03	1658.85
287.24	1746.92
287.46	1697.77
287.67	1732.58
287.89	1783.78
288.10	1601.51
288.32	1728.49
288.53	1746.92
288.75	1720.29
288.96	1757.16
289.18	1677.29
289.39	1679.33
289.61	1712.10
289.82	1802.21
290.04	1894.37
290.25	1542.12
290.47	1703.91
290.68	1646.57
290.90	1722.34
291.11	1599.46
291.33	1740.77
291.54	1593.32
291.76	1656.81
291.97	1656.81
292.18	1726.44
292.40	1548.26
292.61	1652.71
292.83	1775.59
293.04	1740.77
293.26	1724.39
293.47	1632.23
293.69	1636.33
293.90	1753.06
294.12	1718.25
294.33	1671.14
294.55	1697.77
294.76	1822.69
294.97	1822.69
295.19	1861.60
295.40	1675.24
295.62	1732.58
295.83	1818.60
296.05	1636.33
296.26	1728.49
296.48	1671.14
296.69	1720.29
296.90	1699.81
297.12	1730.53
297.33	1701.86
297.55	1710.05
297.76	1751.01
297.98	1742.82
298.19	1796.07
298.41	1652.71
298.62	1624.04
298.83	1796.07
299.05	1681.38
299.26	1652.71
299.48	1601.51
299.69	1718.25
299.90	1718.25
300.12	1656.81
300.33	1712.10
300.55	1708.01
300.76	1687.53
300.98	1687.53
301.19	1705.96
301.40	1611.75
301.62	1640.42
301.83	1681.38
302.05	1691.62
302.26	1652.71
302.47	1720.29
302.69	1669.09
302.90	1724.39
303.12	1548.26
303.33	1753.06
303.54	1812.45
303.76	1673.19
303.97	1691.62
304.19	1845.22
304.40	1648.61
304.61	1675.24
304.83	1849.32
305.04	1753.06
305.26	1757.16
305.47	1665.00
305.68	1724.39
305.90	1710.05
306.11	1769.44
306.33	1601.51
306.54	1617.90
306.75	1617.90
306.97	1638.38
307.18	1697.77
307.39	1701.86
307.61	1808.36
307.82	1705.96
308.04	1697.77
308.25	1724.39
308.46	1693.67
308.68	1740.77
308.89	1701.86
309.10	1781.73
309.32	1708.01
309.53	1771.49
309.74	1740.77
309.96	1726.44
310.17	1804.26
310.39	1626.09
310.60	1730.53
310.81	1687.53
311.03	1599.46
311.24	1665.00
311.45	1658.85
311.67	1800.16
311.88	1765.35
312.09	1632.23
312.31	1671.14
312.52	1648.61
312.73	1705.96
312.95	1636.33
313.16	1595.37
313.37	1761.25
313.59	1755.11
313.80	1755.11
314.01	1804.26
314.23	1665.00
314.44	1644.52
314.65	1572.84
314.87	1613.80
315.08	1660.90
315.29	1681.38
315.51	1531.88
315.72	1595.37
315.93	1800.16
316.15	1753.06
316.36	1613.80
316.57	1701.86
316.79	1722.34
317.00	1628.14
317.21	1724.39
317.43	1599.46
317.64	1679.33
317.85	1640.42
318.07	1677.29
318.28	1759.21
318.49	1847.27
318.70	1888.23
318.92	1777.64
319.13	1820.64
319.34	1869.80
319.56	1769.44
319.77	1775.59
319.98	1697.77
320.20	1810.40
320.41	1656.81
320.62	1755.11
320.83	1660.90
321.05	1773.54
321.26	1712.10
321.47	1765.35
321.69	1779.68
321.90	1628.14
322.11	1640.42
322.32	1642.47
322.54	1804.26
322.75	1681.38
322.96	1853.41
323.18	1673.19
323.39	1607.66
323.60	1665.00
323.81	1744.87
324.03	1697.77
324.24	1714.15
324.45	1708.01
324.66	1667.05
324.88	1693.67
325.09	1742.82
325.30	1693.67
325.52	1714.15
325.73	1650.66
325.94	1642.47
326.15	1617.90
326.37	1601.51
326.58	1767.40
326.79	1757.16
327.00	1699.81
327.22	1734.63
327.43	1605.61
327.64	1665.00
327.85	1812.45
328.07	1710.05
328.28	1824.74
328.49	1695.72
328.70	1773.54
328.92	1703.91
329.13	1597.42
329.34	1714.15
329.55	1744.87
329.76	1695.72
329.98	1740.77
330.19	1794.02
330.40	1691.62
330.61	1671.14
330.83	1787.88
331.04	1730.53
331.25	1697.77
331.46	1703.91
331.68	1624.04
331.89	1751.01
332.10	1681.38
332.31	1624.04
332.52	1648.61
332.74	1763.30
332.95	1613.80
333.16	1712.10
333.37	1708.01
333.58	1687.53
333.80	1710.05
334.01	1691.62
334.22	1634.28
334.43	1705.96
334.64	1611.75
334.86	1648.61
335.07	1648.61
335.28	1740.77
335.49	1701.86
335.70	1787.88
335.92	1804.26
336.13	1808.36
336.34	1662.95
336.55	1738.73
336.76	1757.16
336.98	1605.61
337.19	1669.09
337.40	1775.59
337.61	1820.64
337.82	1624.04
338.04	1705.96
338.25	1656.81
338.46	1679.33
338.67	1576.94
338.88	1689.57
339.09	1667.05
339.31	1705.96
339.52	1578.98
339.73	1685.48
339.94	1628.14
340.15	1769.44
340.36	1675.24
340.58	1624.04
340.79	1683.43
341.00	1701.86
341.21	1626.09
341.42	1804.26
341.63	1650.66
341.85	1730.53
342.06	1648.61
342.27	1632.23
342.48	1849.32
342.69	1591.27
342.90	1767.40
343.12	1738.73
343.33	1691.62
343.54	1708.01
343.75	1796.07
343.96	1701.86
344.17	1701.86
344.38	1652.71
344.60	1671.14
344.81	1650.66
345.02	1624.04
345.23	1714.15
345.44	1781.73
345.65	1697.77
345.86	1744.87
346.07	1705.96
346.29	1730.53
346.50	1734.63
346.71	1730.53
346.92	1763.30
347.13	1781.73
347.34	1703.91
347.55	1722.34
347.76	1720.29
347.98	1632.23
348.19	1724.39
348.40	1748.97
348.61	1726.44
348.82	1769.44
349.03	1746.92
349.24	1691.62
349.45	1779.68
349.66	1595.37
349.88	1630.18
350.09	1638.38
350.30	1777.64
350.51	1734.63
350.72	1646.57
350.93	1787.88
351.14	1636.33
351.35	1767.40
351.56	1695.72
351.77	1703.91
351.99	1665.00
352.20	1812.45
352.41	1753.06
352.62	1599.46
352.83	1638.38
353.04	1703.91
353.25	1693.67
353.46	1755.11
353.67	1722.34
353.88	1609.70
354.09	1689.57
354.30	1697.77
354.52	1773.54
354.73	1722.34
354.94	1691.62
355.15	1628.14
355.36	1777.64
355.57	1632.23
355.78	1808.36
355.99	1583.08
356.20	1691.62
356.41	1765.35
356.62	1761.25
356.83	1685.48
357.04	1789.92
357.25	1542.12
357.46	1640.42
357.68	1587.18
357.89	1648.61
358.10	1650.66
358.31	1742.82
358.52	1714.15
358.73	1621.99
358.94	1615.85
359.15	1630.18
359.36	1742.82
359.57	1619.94
359.78	1730.53
359.99	1722.34
360.20	1673.19
360.41	1685.48
360.62	1771.49
360.83	1667.05
361.04	1757.16
361.25	1767.40
361.46	1822.69
361.67	1775.59
361.88	1646.57
362.09	1708.01
362.30	1755.11
362.51	1650.66
362.72	1742.82
362.93	1755.11
363.14	1767.40
363.35	1703.91
363.56	1587.18
363.78	1761.25
363.99	1757.16
364.20	1728.49
364.41	1724.39
364.62	1826.79
364.83	1720.29
365.04	1730.53
365.25	1673.19
365.46	1886.18
365.67	1599.46
365.88	1644.52
366.09	1640.42
366.30	1693.67
366.51	1726.44
366.72	1671.14
366.93	1681.38
367.14	1744.87
367.35	1773.54
367.56	1728.49
367.77	1806.31
367.98	1679.33
368.18	1839.08
368.39	1724.39
368.60	1640.42
368.81	1693.67
369.02	1697.77
369.23	1693.67
369.44	1658.85
369.65	1716.20
369.86	1769.44
370.07	1755.11
370.28	1648.61
370.49	1695.72
370.70	1730.53
370.91	1640.42
371.12	1589.22
371.33	1806.31
371.54	1640.42
371.75	1734.63
371.96	1511.40
372.17	1693.67
372.38	1662.95
372.59	1771.49
372.80	1660.90
373.01	1656.81
373.22	1679.33
373.43	1705.96
373.64	1673.19
373.85	1705.96
374.06	1769.44
374.26	1761.25
374.47	1683.43
374.68	1705.96
374.89	1667.05
375.10	1738.73
375.31	1722.34
375.52	1722.34
375.73	1748.97
375.94	1607.66
376.15	1716.20
376.36	1673.19
376.57	1640.42
376.78	1638.38
376.99	1662.95
377.20	1781.73
377.40	1685.48
377.61	1771.49
377.82	1722.34
378.03	1763.30
378.24	1689.57
378.45	1695.72
378.66	1710.05
378.87	1615.85
379.08	1638.38
379.29	1681.38
379.50	1783.78
379.71	1677.29
379.91	1732.58
380.12	1765.35
380.33	1626.09
380.54	1681.38
380.75	1730.53
380.96	1665.00
381.17	1779.68
381.38	1736.68
381.59	1683.43
381.80	1730.53
382.00	1853.41
382.21	1789.92
382.42	1757.16
382.63	1863.65
382.84	1775.59
383.05	1759.21
383.26	1773.54
383.47	1742.82
383.68	1748.97
383.88	1716.20
384.09	1691.62
384.30	1804.26
384.51	1738.73
384.72	1665.00
384.93	1718.25
385.14	1742.82
385.35	1722.34
385.55	1675.24
385.76	1820.64
385.97	1695.72
386.18	1628.14
386.39	1705.96
386.60	1685.48
386.81	1685.48
387.02	1591.27
387.22	1644.52
387.43	1773.54
387.64	1794.02
387.85	1781.73
388.06	2226.14
388.27	4356.03
388.48	6588.32
388.68	8281.99
388.89	9555.82
389.10	9516.91
389.31	8613.76
389.52	7458.70
389.73	6707.10
389.93	6221.73
390.14	5775.27
390.35	5140.40
390.56	4562.87
390.77	3758.02
390.98	3014.61
391.18	2492.38
391.39	2086.88
391.60	1875.94
391.81	1800.16
392.02	1705.96
392.23	1816.55
392.43	1744.87
392.64	1791.97
392.85	1740.77
393.06	1822.69
393.27	1722.34
393.47	1720.29
393.68	1708.01
393.89	1718.25
394.10	1769.44
394.31	1673.19
394.52	1673.19
394.72	1654.76
394.93	1755.11
395.14	1589.22
395.35	1654.76
395.56	1609.70
395.76	1781.73
395.97	1742.82
396.18	1910.75
396.39	1826.79
396.60	2080.74
396.80	1853.41
397.01	1861.60
397.22	1791.97
397.43	1841.12
397.64	1808.36
397.84	1787.88
398.05	1837.03
398.26	1744.87
398.47	1757.16
398.67	1824.74
398.88	1705.96
399.09	1701.86
399.30	1671.14
399.51	1804.26
399.71	1638.38
399.92	1732.58
400.13	1734.63
400.34	1638.38
400.54	1685.48
400.75	1718.25
400.96	1783.78
401.17	1724.39
401.37	1734.63
401.58	1683.43
401.79	1753.06
402.00	1861.60
402.21	1996.77
402.41	1910.75
402.62	1904.61
402.83	2025.44
403.04	1953.76
403.24	2088.93
403.45	1771.49
403.66	1916.90
403.87	1824.74
404.07	1906.66
404.28	1910.75
404.49	1841.12
404.70	1796.07
404.90	1781.73
405.11	1746.92
405.32	1691.62
405.52	1689.57
405.73	1683.43
405.94	1673.19
406.15	1681.38
406.35	1669.09
406.56	1701.86
406.77	1724.39
406.98	1755.11
407.18	1710.05
407.39	1742.82
407.60	1677.29
407.80	1712.10
408.01	1638.38
408.22	1701.86
408.43	1703.91
408.63	1751.01
408.84	1808.36
409.05	1753.06
409.25	1691.62
409.46	1685.48
409.67	1611.75
409.88	1755.11
410.08	1746.92
410.29	1685.48
410.50	1718.25
410.70	1738.73
410.91	1681.38
411.12	1611.75
411.32	1628.14
411.53	1755.11
411.74	1765.35
411.95	1787.88
412.15	1734.63
412.36	1738.73
412.57	1755.11
412.77	1708.01
412.98	1728.49
413.19	1630.18
413.39	1808.36
413.60	1751.01
413.81	1767.40
414.01	1607.66
414.22	1732.58
414.43	1755.11
414.63	1681.38
414.84	1753.06
415.05	1773.54
415.25	1617.90
415.46	1748.97
415.67	1681.38
415.87	1755.11
416.08	1755.11
416.29	1611.75
416.49	1726.44
416.70	1660.90
416.91	1642.47
417.11	1703.91
417.32	1787.88
417.53	1718.25
417.73	1699.81
417.94	1593.32
418.15	1742.82
418.35	1687.53
418.56	1642.47
418.77	1830.88
418.97	1738.73
419.18	1759.21
419.38	1560.55
419.59	1677.29
419.80	1800.16
420.00	1763.30
420.21	1679.33
420.42	1773.54
420.62	1708.01
420.83	1626.09
421.04	1693.67
421.24	1650.66
421.45	1769.44
421.65	1658.85
421.86	1632.23
422.07	1751.01
422.27	1705.96
422.48	1763.30
422.69	1703.91
422.89	1720.29
423.10	1648.61
423.30	1646.57
423.51	1714.15
423.72	1759.21
423.92	1705.96
424.13	1660.90
424.33	1658.85
424.54	1675.24
424.75	1757.16
424.95	1826.79
425.16	1665.00
425.36	1751.01
425.57	1718.25
425.78	1656.81
425.98	1761.25
426.19	1720.29
426.39	1638.38
426.60	1681.38
426.81	1753.06
427.01	1699.81
427.22	1710.05
427.42	1603.56
427.63	1646.57
427.83	1740.77
428.04	1837.03
428.25	1703.91
428.45	1662.95
428.66	1787.88
428.86	1697.77
429.07	1728.49
429.28	1681.38
429.48	1644.52
429.69	1728.49
429.89	1748.97
430.10	1621.99
430.30	1689.57
430.51	1722.34
430.71	1697.77
430.92	1611.75
431.13	1679.33
431.33	1675.24
431.54	1712.10
431.74	1796.07
431.95	1824.74
432.15	1699.81
432.36	1681.38
432.56	1683.43
432.77	1751.01
432.98	1755.11
433.18	1748.97
433.39	1720.29
433.59	1654.76
433.80	1800.16
434.00	1855.46
434.21	1687.53
434.41	1679.33
434.62	1884.13
434.82	1624.04
435.03	1656.81
435.23	1714.15
435.44	1667.05
435.64	1755.11
435.85	1685.48
436.06	1759.21
436.26	1697.77
436.47	1615.85
436.67	1681.38
436.88	1681.38
437.08	1714.15
437.29	1761.25
437.49	1656.81
437.70	1783.78
437.90	1669.09
438.11	1857.51
438.31	1775.59
438.52	1839.08
438.72	1869.80
438.93	1849.32
439.13	1779.68
439.34	1884.13
439.54	1806.31
439.75	1812.45
439.95	1804.26
440.16	1654.76
440.36	1796.07
440.57	1775.59
440.77	1724.39
440.98	1630.18
441.18	1646.57
441.39	1640.42
441.59	1673.19
441.80	1851.36
442.00	1648.61
442.21	1769.44
442.41	1640.42
442.62	1728.49
442.82	1748.97
443.02	1787.88
443.23	1822.69
443.43	1738.73
443.64	1837.03
443.84	1689.57
444.05	1798.12
444.25	1685.48
444.46	1722.34
444.66	1734.63
444.87	1787.88
445.07	1628.14
445.28	1695.72
445.48	1748.97
445.69	1734.63
445.89	1853.41
446.09	1738.73
446.30	2050.02
446.50	2711.51
446.71	3688.39
446.91	4288.45
447.12	4708.28
447.32	4755.38
447.53	4358.08
447.73	3782.60
447.93	3479.50
448.14	3391.44
448.34	3155.92
448.55	2928.60
448.75	2791.38
448.96	2754.52
449.16	2367.45
449.36	2246.62
449.57	2056.16
449.77	1910.75
449.98	1773.54
450.18	1724.39
450.39	1787.88
450.59	1767.40
450.79	1748.97
451.00	1691.62
451.20	1779.68
451.41	1728.49
451.61	1845.22
451.81	1716.20
452.02	1697.77
452.22	1718.25
452.43	1716.20
452.63	1681.38
