SpectraSuite Data File
++++++++++++++++++++++++++++++++++++
Date: Mon Jun 06 16:39:57 CEST 2016
User: root
Dark Spectrum Present: No
Reference Spectrum Present: No
Number of Sampled Component Spectra: 1
Spectrometers: USB4C02835
Integration Time (usec): 100000 (USB4C02835)
Spectra Averaged: 1 (USB4C02835)
Boxcar Smoothing: 0 (USB4C02835)
Correct for Electrical Dark: No (USB4C02835)
Strobe/Lamp Enabled: No (USB4C02835)
Correct for Detector Non-linearity: No (USB4C02835)
Correct for Stray Light: No (USB4C02835)
Number of Pixels in Processed Spectrum: 3648
>>>>>Begin Processed Spectral Data<<<<<
177.47	1468.39
177.69	1468.39
177.91	1468.39
178.13	1470.44
178.36	1511.40
178.58	1644.52
178.80	1673.19
179.02	1607.66
179.24	1693.67
179.46	1683.43
179.68	1853.41
179.90	1691.62
180.13	1748.97
180.35	1677.29
180.57	1736.68
180.79	1708.01
181.01	1708.01
181.23	1800.16
181.45	1806.31
181.67	1722.34
181.90	1783.78
182.12	1617.90
182.34	1597.42
182.56	1716.20
182.78	1734.63
183.00	1689.57
183.22	1656.81
183.44	1638.38
183.66	1845.22
183.89	1841.12
184.11	1736.68
184.33	1744.87
184.55	1732.58
184.77	1730.53
184.99	1738.73
185.21	1703.91
185.43	1863.65
185.65	1656.81
185.87	1669.09
186.10	1763.30
186.32	1783.78
186.54	1716.20
186.76	1673.19
186.98	1705.96
187.20	1708.01
187.42	1736.68
187.64	1720.29
187.86	1738.73
188.08	1779.68
188.30	1677.29
188.52	1734.63
188.75	1800.16
188.97	1781.73
189.19	1605.61
189.41	1658.85
189.63	1742.82
189.85	1683.43
190.07	1665.00
190.29	1708.01
190.51	1734.63
190.73	1667.05
190.95	1759.21
191.17	1658.85
191.39	1732.58
191.61	1730.53
191.84	1718.25
192.06	1687.53
192.28	1587.18
192.50	1867.75
192.72	1767.40
192.94	1673.19
193.16	1802.21
193.38	1687.53
193.60	1609.70
193.82	1671.14
194.04	1763.30
194.26	1775.59
194.48	1669.09
194.70	1689.57
194.92	1665.00
195.14	1710.05
195.36	1654.76
195.58	1738.73
195.80	1742.82
196.02	1679.33
196.24	1662.95
196.46	1771.49
196.69	1687.53
196.91	1775.59
197.13	1669.09
197.35	1722.34
197.57	1796.07
197.79	1753.06
198.01	1787.88
198.23	1726.44
198.45	1730.53
198.67	1671.14
198.89	1722.34
199.11	1740.77
199.33	1665.00
199.55	1587.18
199.77	1695.72
199.99	1751.01
200.21	1699.81
200.43	1685.48
200.65	1671.14
200.87	1568.74
201.09	1742.82
201.31	1724.39
201.53	1738.73
201.75	1763.30
201.97	1773.54
202.19	1683.43
202.41	1734.63
202.63	1804.26
202.85	1765.35
203.07	1779.68
203.29	1761.25
203.51	1683.43
203.73	1740.77
203.95	1929.19
204.17	1708.01
204.39	1708.01
204.61	1609.70
204.83	1693.67
205.05	1818.60
205.27	1787.88
205.49	1794.02
205.71	1691.62
205.93	1662.95
206.15	1650.66
206.37	1687.53
206.59	1642.47
206.81	1699.81
207.03	1697.77
207.25	1632.23
207.47	1771.49
207.69	1726.44
207.91	1808.36
208.13	1732.58
208.34	1693.67
208.56	1626.09
208.78	1689.57
209.00	1726.44
209.22	1640.42
209.44	1685.48
209.66	1665.00
209.88	1650.66
210.10	1710.05
210.32	1705.96
210.54	1796.07
210.76	1691.62
210.98	1802.21
211.20	1624.04
211.42	1753.06
211.64	1802.21
211.86	1710.05
212.08	1748.97
212.30	1765.35
212.52	1699.81
212.74	1697.77
212.96	1751.01
213.17	1806.31
213.39	1667.05
213.61	1814.50
213.83	1763.30
214.05	1640.42
214.27	1789.92
214.49	1656.81
214.71	1650.66
214.93	1767.40
215.15	1736.68
215.37	1751.01
215.59	1669.09
215.81	1726.44
216.03	1822.69
216.24	1751.01
216.46	1640.42
216.68	1742.82
216.90	1808.36
217.12	1716.20
217.34	1705.96
217.56	1689.57
217.78	1789.92
218.00	1730.53
218.22	1740.77
218.44	1783.78
218.66	1736.68
218.87	1865.70
219.09	1656.81
219.31	1736.68
219.53	1751.01
219.75	1748.97
219.97	1763.30
220.19	1748.97
220.41	1673.19
220.63	1773.54
220.85	1705.96
221.06	1628.14
221.28	1777.64
221.50	1767.40
221.72	1771.49
221.94	1634.28
222.16	1697.77
222.38	1748.97
222.60	1798.12
222.82	1705.96
223.03	1777.64
223.25	1697.77
223.47	1787.88
223.69	1886.18
223.91	1742.82
224.13	1583.08
224.35	1630.18
224.57	1789.92
224.78	1720.29
225.00	1714.15
225.22	1705.96
225.44	1691.62
225.66	1736.68
225.88	1710.05
226.10	1767.40
226.32	1779.68
226.53	1796.07
226.75	1703.91
226.97	1710.05
227.19	1685.48
227.41	1660.90
227.63	1679.33
227.85	1648.61
228.06	1716.20
228.28	1728.49
228.50	1748.97
228.72	1671.14
228.94	1708.01
229.16	1599.46
229.37	1576.94
229.59	1626.09
229.81	1744.87
230.03	1652.71
230.25	1632.23
230.47	1734.63
230.69	1644.52
230.90	1830.88
231.12	1654.76
231.34	1767.40
231.56	1746.92
231.78	1648.61
232.00	1755.11
232.21	1732.58
232.43	1730.53
232.65	1599.46
232.87	1806.31
233.09	1632.23
233.30	1675.24
233.52	1714.15
233.74	1693.67
233.96	1681.38
234.18	1720.29
234.40	1724.39
234.61	1839.08
234.83	1650.66
235.05	1609.70
235.27	1855.46
235.49	1779.68
235.70	1736.68
235.92	1812.45
236.14	1710.05
236.36	1822.69
236.58	1642.47
236.79	1685.48
237.01	1708.01
237.23	1746.92
237.45	1822.69
237.67	1603.56
237.88	1712.10
238.10	1822.69
238.32	1624.04
238.54	1693.67
238.76	1759.21
238.97	1685.48
239.19	1658.85
239.41	1804.26
239.63	1771.49
239.85	1642.47
240.06	1744.87
240.28	1673.19
240.50	1671.14
240.72	1638.38
240.93	1708.01
241.15	1839.08
241.37	1695.72
241.59	1761.25
241.81	1673.19
242.02	1685.48
242.24	1753.06
242.46	1718.25
242.68	1710.05
242.89	1765.35
243.11	1701.86
243.33	1658.85
243.55	1753.06
243.76	1785.83
243.98	1712.10
244.20	1697.77
244.42	1673.19
244.64	1761.25
244.85	1624.04
245.07	1685.48
245.29	1726.44
245.51	1820.64
245.72	1761.25
245.94	1724.39
246.16	1693.67
246.38	1726.44
246.59	1667.05
246.81	1662.95
247.03	1740.77
247.24	1654.76
247.46	1648.61
247.68	1695.72
247.90	1699.81
248.11	1687.53
248.33	1804.26
248.55	1630.18
248.77	1701.86
248.98	1759.21
249.20	1822.69
249.42	1738.73
249.64	1746.92
249.85	1771.49
250.07	1679.33
250.29	1751.01
250.50	1796.07
250.72	1607.66
250.94	1716.20
251.16	1773.54
251.37	1818.60
251.59	1771.49
251.81	1724.39
252.02	1787.88
252.24	1679.33
252.46	1787.88
252.68	1683.43
252.89	1671.14
253.11	1587.18
253.33	1777.64
253.54	1755.11
253.76	1599.46
253.98	1699.81
254.20	1726.44
254.41	1667.05
254.63	1699.81
254.85	1525.74
255.06	1701.86
255.28	1708.01
255.50	1701.86
255.71	1718.25
255.93	1650.66
256.15	1718.25
256.36	1763.30
256.58	1677.29
256.80	1662.95
257.02	1656.81
257.23	1652.71
257.45	1685.48
257.67	1742.82
257.88	1636.33
258.10	1722.34
258.32	1699.81
258.53	1767.40
258.75	1720.29
258.97	1699.81
259.18	1724.39
259.40	1787.88
259.62	1779.68
259.83	1746.92
260.05	1759.21
260.27	1982.43
260.48	1773.54
260.70	1714.15
260.92	1685.48
261.13	1757.16
261.35	1730.53
261.57	1738.73
261.78	1599.46
262.00	1730.53
262.22	1675.24
262.43	1628.14
262.65	1681.38
262.86	1617.90
263.08	1824.74
263.30	1689.57
263.51	1699.81
263.73	1665.00
263.95	1767.40
264.16	1595.37
264.38	1640.42
264.60	1765.35
264.81	1716.20
265.03	1681.38
265.25	1714.15
265.46	1648.61
265.68	1787.88
265.89	1808.36
266.11	1679.33
266.33	1769.44
266.54	1730.53
266.76	1789.92
266.98	1746.92
267.19	1730.53
267.41	1812.45
267.62	1720.29
267.84	1660.90
268.06	1708.01
268.27	1718.25
268.49	1861.60
268.70	1767.40
268.92	1742.82
269.14	1671.14
269.35	1609.70
269.57	1701.86
269.79	1646.57
270.00	1679.33
270.22	1779.68
270.43	1632.23
270.65	1656.81
270.87	1714.15
271.08	1736.68
271.30	1687.53
271.51	1736.68
271.73	1783.78
271.95	1726.44
272.16	1732.58
272.38	1712.10
272.59	1679.33
272.81	1687.53
273.02	1802.21
273.24	1759.21
273.46	1832.93
273.67	1677.29
273.89	1681.38
274.10	1650.66
274.32	1736.68
274.54	1783.78
274.75	1742.82
274.97	1699.81
275.18	1714.15
275.40	1755.11
275.61	1697.77
275.83	1759.21
276.05	1640.42
276.26	1687.53
276.48	1671.14
276.69	1763.30
276.91	1705.96
277.12	1781.73
277.34	1753.06
277.55	1738.73
277.77	1693.67
277.99	1714.15
278.20	1685.48
278.42	1736.68
278.63	1673.19
278.85	1642.47
279.06	1685.48
279.28	1748.97
279.49	1761.25
279.71	1771.49
279.93	1687.53
280.14	1710.05
280.36	1740.77
280.57	1761.25
280.79	1761.25
281.00	1628.14
281.22	1626.09
281.43	1779.68
281.65	1599.46
281.86	1619.94
282.08	1746.92
282.29	1802.21
282.51	1595.37
282.73	1634.28
282.94	1677.29
283.16	1769.44
283.37	1806.31
283.59	1712.10
283.80	1839.08
284.02	1740.77
284.23	1695.72
284.45	1660.90
284.66	1613.80
284.88	1626.09
285.09	1705.96
285.31	1740.77
285.52	1765.35
285.74	1658.85
285.95	1695.72
286.17	1765.35
286.38	1794.02
286.60	1644.52
286.81	1724.39
287.03	1748.97
287.24	1701.86
287.46	1716.20
287.67	1751.01
287.89	1771.49
288.10	1658.85
288.32	1689.57
288.53	1847.27
288.75	1679.33
288.96	1734.63
289.18	1699.81
289.39	1662.95
289.61	1798.12
289.82	1847.27
290.04	1822.69
290.25	1695.72
290.47	1740.77
290.68	1687.53
290.90	1734.63
291.11	1714.15
291.33	1740.77
291.54	1646.57
291.76	1697.77
291.97	1746.92
292.18	1798.12
292.40	1667.05
292.61	1632.23
292.83	1837.03
293.04	1785.83
293.26	1665.00
293.47	1759.21
293.69	1724.39
293.90	1708.01
294.12	1771.49
294.33	1699.81
294.55	1736.68
294.76	1771.49
294.97	1753.06
295.19	1863.65
295.40	1667.05
295.62	1693.67
295.83	1794.02
296.05	1724.39
296.26	1777.64
296.48	1656.81
296.69	1759.21
296.90	1671.14
297.12	1761.25
297.33	1759.21
297.55	1710.05
297.76	1732.58
297.98	1746.92
298.19	1697.77
298.41	1699.81
298.62	1681.38
298.83	1687.53
299.05	1751.01
299.26	1652.71
299.48	1665.00
299.69	1757.16
299.90	1751.01
300.12	1658.85
300.33	1757.16
300.55	1744.87
300.76	1683.43
300.98	1710.05
301.19	1687.53
301.40	1701.86
301.62	1689.57
301.83	1705.96
302.05	1763.30
302.26	1726.44
302.47	1699.81
302.69	1607.66
302.90	1726.44
303.12	1595.37
303.33	1722.34
303.54	1863.65
303.76	1728.49
303.97	1771.49
304.19	1863.65
304.40	1634.28
304.61	1757.16
304.83	1802.21
305.04	1779.68
305.26	1765.35
305.47	1626.09
305.68	1691.62
305.90	1732.58
306.11	1746.92
306.33	1669.09
306.54	1673.19
306.75	1681.38
306.97	1681.38
307.18	1673.19
307.39	1742.82
307.61	1716.20
307.82	1755.11
308.04	1714.15
308.25	1687.53
308.46	1757.16
308.68	1691.62
308.89	1701.86
309.10	1771.49
309.32	1753.06
309.53	1724.39
309.74	1826.79
309.96	1654.76
310.17	1712.10
310.39	1675.24
310.60	1685.48
310.81	1730.53
311.03	1642.47
311.24	1691.62
311.45	1652.71
311.67	1822.69
311.88	1730.53
312.09	1703.91
312.31	1681.38
312.52	1726.44
312.73	1677.29
312.95	1689.57
313.16	1671.14
313.37	1771.49
313.59	1777.64
313.80	1722.34
314.01	1755.11
314.23	1646.57
314.44	1718.25
314.65	1662.95
314.87	1638.38
315.08	1710.05
315.29	1615.85
315.51	1652.71
315.72	1662.95
315.93	1906.66
316.15	1742.82
316.36	1742.82
316.57	1703.91
316.79	1796.07
317.00	1685.48
317.21	1626.09
317.43	1632.23
317.64	1773.54
317.85	1632.23
318.07	1652.71
318.28	1748.97
318.49	1757.16
318.70	1931.23
318.92	1710.05
319.13	1765.35
319.34	1849.32
319.56	1851.36
319.77	1763.30
319.98	1742.82
320.20	1759.21
320.41	1791.97
320.62	1744.87
320.83	1632.23
321.05	1867.75
321.26	1781.73
321.47	1734.63
321.69	1771.49
321.90	1640.42
322.11	1703.91
322.32	1779.68
322.54	1765.35
322.75	1712.10
322.96	1818.60
323.18	1644.52
323.39	1630.18
323.60	1667.05
323.81	1673.19
324.03	1675.24
324.24	1710.05
324.45	1763.30
324.66	1667.05
324.88	1726.44
325.09	1871.84
325.30	1673.19
325.52	1720.29
325.73	1714.15
325.94	1644.52
326.15	1632.23
326.37	1621.99
326.58	1765.35
326.79	1738.73
327.00	1667.05
327.22	1685.48
327.43	1718.25
327.64	1595.37
327.85	1687.53
328.07	1748.97
328.28	1810.40
328.49	1681.38
328.70	1748.97
328.92	1677.29
329.13	1714.15
329.34	1710.05
329.55	1814.50
329.76	1746.92
329.98	1691.62
330.19	1791.97
330.40	1724.39
330.61	1804.26
330.83	1763.30
331.04	1687.53
331.25	1783.78
331.46	1710.05
331.68	1652.71
331.89	1794.02
332.10	1681.38
332.31	1689.57
332.52	1757.16
332.74	1767.40
332.95	1632.23
333.16	1705.96
333.37	1783.78
333.58	1753.06
333.80	1757.16
334.01	1675.24
334.22	1673.19
334.43	1685.48
334.64	1681.38
334.86	1652.71
335.07	1619.94
335.28	1794.02
335.49	1685.48
335.70	1669.09
335.92	1701.86
336.13	1843.17
336.34	1722.34
336.55	1734.63
336.76	1824.74
336.98	1638.38
337.19	1763.30
337.40	1824.74
337.61	1839.08
337.82	1648.61
338.04	1777.64
338.25	1595.37
338.46	1732.58
338.67	1685.48
338.88	1681.38
339.09	1615.85
339.31	1642.47
339.52	1652.71
339.73	1658.85
339.94	1708.01
340.15	1785.83
340.36	1675.24
340.58	1636.33
340.79	1626.09
341.00	1751.01
341.21	1599.46
341.42	1857.51
341.63	1689.57
341.85	1738.73
342.06	1708.01
342.27	1681.38
342.48	1765.35
342.69	1640.42
342.90	1769.44
343.12	1814.50
343.33	1654.76
343.54	1726.44
343.75	1734.63
343.96	1699.81
344.17	1714.15
344.38	1662.95
344.60	1724.39
344.81	1644.52
345.02	1734.63
345.23	1767.40
345.44	1824.74
345.65	1789.92
345.86	1669.09
346.07	1689.57
346.29	1675.24
346.50	1755.11
346.71	1681.38
346.92	1808.36
347.13	1810.40
347.34	1744.87
347.55	1748.97
347.76	1718.25
347.98	1621.99
348.19	1695.72
348.40	1751.01
348.61	1628.14
348.82	1837.03
349.03	1681.38
349.24	1665.00
349.45	1808.36
349.66	1519.59
349.88	1685.48
350.09	1689.57
350.30	1796.07
350.51	1746.92
350.72	1748.97
350.93	1671.14
351.14	1665.00
351.35	1665.00
351.56	1712.10
351.77	1703.91
351.99	1744.87
352.20	1820.64
352.41	1646.57
352.62	1595.37
352.83	1701.86
353.04	1767.40
353.25	1693.67
353.46	1761.25
353.67	1804.26
353.88	1601.51
354.09	1734.63
354.30	1656.81
354.52	1779.68
354.73	1714.15
354.94	1634.28
355.15	1722.34
355.36	1837.03
355.57	1687.53
355.78	1763.30
355.99	1654.76
356.20	1658.85
356.41	1787.88
356.62	1703.91
356.83	1746.92
357.04	1734.63
357.25	1679.33
357.46	1712.10
357.68	1638.38
357.89	1669.09
358.10	1751.01
358.31	1697.77
358.52	1730.53
358.73	1679.33
358.94	1710.05
359.15	1718.25
359.36	1785.83
359.57	1708.01
359.78	1681.38
359.99	1773.54
360.20	1683.43
360.41	1646.57
360.62	1789.92
360.83	1693.67
361.04	1730.53
361.25	1753.06
361.46	1884.13
361.67	1753.06
361.88	1710.05
362.09	1779.68
362.30	1722.34
362.51	1675.24
362.72	1726.44
362.93	1712.10
363.14	1726.44
363.35	1716.20
363.56	1656.81
363.78	1742.82
363.99	1777.64
364.20	1636.33
364.41	1763.30
364.62	1847.27
364.83	1722.34
365.04	1751.01
365.25	1619.94
365.46	1834.98
365.67	1685.48
365.88	1677.29
366.09	1662.95
366.30	1701.86
366.51	1744.87
366.72	1669.09
366.93	1673.19
367.14	1714.15
367.35	1808.36
367.56	1712.10
367.77	1820.64
367.98	1716.20
368.18	1751.01
368.39	1732.58
368.60	1648.61
368.81	1757.16
369.02	1679.33
369.23	1738.73
369.44	1626.09
369.65	1734.63
369.86	1724.39
370.07	1685.48
370.28	1705.96
370.49	1837.03
370.70	1656.81
370.91	1673.19
371.12	1652.71
371.33	1787.88
371.54	1738.73
371.75	1728.49
371.96	1595.37
372.17	1656.81
372.38	1689.57
372.59	1781.73
372.80	1611.75
373.01	1697.77
373.22	1669.09
373.43	1669.09
373.64	1656.81
373.85	1699.81
374.06	1751.01
374.26	1697.77
374.47	1628.14
374.68	1808.36
374.89	1701.86
375.10	1701.86
375.31	1748.97
375.52	1679.33
375.73	1761.25
375.94	1679.33
376.15	1763.30
376.36	1685.48
376.57	1662.95
376.78	1718.25
376.99	1736.68
377.20	1779.68
377.40	1710.05
377.61	1759.21
377.82	1675.24
378.03	1808.36
378.24	1777.64
378.45	1710.05
378.66	1675.24
378.87	1611.75
379.08	1675.24
379.29	1726.44
379.50	1804.26
379.71	1703.91
379.91	1724.39
380.12	1710.05
380.33	1642.47
380.54	1708.01
380.75	1720.29
380.96	1665.00
381.17	1746.92
381.38	1701.86
381.59	1779.68
381.80	1730.53
382.00	1925.09
382.21	1822.69
382.42	1771.49
382.63	1902.56
382.84	1851.36
383.05	1757.16
383.26	1765.35
383.47	1728.49
383.68	1744.87
383.88	1783.78
384.09	1611.75
384.30	1783.78
384.51	1695.72
384.72	1714.15
384.93	1570.79
385.14	1652.71
385.35	1705.96
385.55	1703.91
385.76	1800.16
385.97	1734.63
386.18	1613.80
386.39	1687.53
386.60	1708.01
386.81	1687.53
387.02	1681.38
387.22	1708.01
387.43	1820.64
387.64	1789.92
387.85	1898.47
388.06	2174.94
388.27	4503.48
388.48	6707.10
388.68	8361.86
388.89	9758.57
389.10	9779.05
389.31	8589.18
389.52	7749.51
389.73	6684.57
389.93	6182.82
390.14	5961.64
390.35	5269.42
390.56	4734.90
390.77	3753.93
390.98	3030.99
391.18	2510.81
391.39	2138.08
391.60	1951.71
391.81	1845.22
392.02	1773.54
392.23	1877.99
392.43	1775.59
392.64	1800.16
392.85	1701.86
393.06	1802.21
393.27	1689.57
393.47	1648.61
393.68	1798.12
393.89	1681.38
394.10	1787.88
394.31	1712.10
394.52	1665.00
394.72	1701.86
394.93	1789.92
395.14	1658.85
395.35	1738.73
395.56	1617.90
395.76	1718.25
395.97	1728.49
396.18	1748.97
396.39	1757.16
396.60	2035.68
396.80	1943.52
397.01	1845.22
397.22	1918.95
397.43	1800.16
397.64	1710.05
397.84	1839.08
398.05	1910.75
398.26	1740.77
398.47	1767.40
398.67	1785.83
398.88	1751.01
399.09	1703.91
399.30	1718.25
399.51	1810.40
399.71	1681.38
399.92	1699.81
400.13	1755.11
400.34	1740.77
400.54	1624.04
400.75	1759.21
400.96	1742.82
401.17	1791.97
401.37	1796.07
401.58	1716.20
401.79	1681.38
402.00	1892.32
402.21	2052.06
402.41	2009.06
402.62	1875.94
402.83	2088.93
403.04	1957.86
403.24	2109.41
403.45	1851.36
403.66	1861.60
403.87	1845.22
404.07	1933.28
404.28	1873.89
404.49	1877.99
404.70	1861.60
404.90	1832.93
405.11	1771.49
405.32	1759.21
405.52	1642.47
405.73	1712.10
405.94	1685.48
406.15	1722.34
406.35	1718.25
406.56	1796.07
406.77	1710.05
406.98	1712.10
407.18	1650.66
407.39	1843.17
407.60	1757.16
407.80	1775.59
408.01	1697.77
408.22	1808.36
408.43	1693.67
408.63	1767.40
408.84	1767.40
409.05	1681.38
409.25	1738.73
409.46	1656.81
409.67	1660.90
409.88	1685.48
410.08	1748.97
410.29	1669.09
410.50	1802.21
410.70	1746.92
410.91	1683.43
411.12	1730.53
411.32	1720.29
411.53	1656.81
411.74	1779.68
411.95	1763.30
412.15	1781.73
412.36	1767.40
412.57	1736.68
412.77	1867.75
412.98	1726.44
413.19	1744.87
413.39	1783.78
413.60	1724.39
413.81	1789.92
414.01	1624.04
414.22	1675.24
414.43	1746.92
414.63	1742.82
414.84	1791.97
415.05	1720.29
415.25	1665.00
415.46	1824.74
415.67	1697.77
415.87	1738.73
416.08	1699.81
416.29	1564.65
416.49	1689.57
416.70	1669.09
416.91	1652.71
417.11	1738.73
417.32	1683.43
417.53	1751.01
417.73	1656.81
417.94	1708.01
418.15	1693.67
418.35	1736.68
418.56	1759.21
418.77	1804.26
418.97	1689.57
419.18	1753.06
419.38	1671.14
419.59	1640.42
419.80	1830.88
420.00	1652.71
420.21	1689.57
420.42	1775.59
420.62	1722.34
420.83	1662.95
421.04	1748.97
421.24	1636.33
421.45	1697.77
421.65	1699.81
421.86	1677.29
422.07	1757.16
422.27	1685.48
422.48	1701.86
422.69	1667.05
422.89	1722.34
423.10	1734.63
423.30	1648.61
423.51	1789.92
423.72	1714.15
423.92	1753.06
424.13	1613.80
424.33	1771.49
424.54	1740.77
424.75	1738.73
424.95	1744.87
425.16	1724.39
425.36	1718.25
425.57	1808.36
425.78	1722.34
425.98	1802.21
426.19	1705.96
426.39	1720.29
426.60	1742.82
426.81	1812.45
427.01	1781.73
427.22	1716.20
427.42	1630.18
427.63	1662.95
427.83	1757.16
428.04	1742.82
428.25	1734.63
428.45	1783.78
428.66	1691.62
428.86	1726.44
429.07	1738.73
429.28	1689.57
429.48	1716.20
429.69	1636.33
429.89	1732.58
430.10	1646.57
430.30	1726.44
430.51	1794.02
430.71	1740.77
430.92	1757.16
431.13	1640.42
431.33	1755.11
431.54	1681.38
431.74	1822.69
431.95	1818.60
432.15	1632.23
432.36	1785.83
432.56	1771.49
432.77	1800.16
432.98	1822.69
433.18	1769.44
433.39	1710.05
433.59	1726.44
433.80	1796.07
434.00	1875.94
434.21	1767.40
434.41	1648.61
434.62	1855.46
434.82	1662.95
435.03	1656.81
435.23	1734.63
435.44	1591.27
435.64	1710.05
435.85	1697.77
436.06	1734.63
436.26	1808.36
436.47	1662.95
436.67	1648.61
436.88	1751.01
437.08	1673.19
437.29	1773.54
437.49	1775.59
437.70	1802.21
437.90	1722.34
438.11	1843.17
438.31	1730.53
438.52	1822.69
438.72	1916.90
438.93	1877.99
439.13	1787.88
439.34	1853.41
439.54	1730.53
439.75	1759.21
439.95	1859.56
440.16	1720.29
440.36	1779.68
440.57	1746.92
440.77	1751.01
440.98	1665.00
441.18	1724.39
441.39	1689.57
441.59	1671.14
441.80	1816.55
442.00	1720.29
442.21	1845.22
442.41	1621.99
442.62	1718.25
442.82	1738.73
443.02	1736.68
443.23	1779.68
443.43	1669.09
443.64	1806.31
443.84	1662.95
444.05	1828.84
444.25	1755.11
444.46	1685.48
444.66	1736.68
444.87	1787.88
445.07	1632.23
445.28	1757.16
445.48	1738.73
445.69	1740.77
445.89	1882.08
446.09	1755.11
446.30	2144.22
446.50	2586.58
446.71	3733.45
446.91	4265.92
447.12	4843.45
447.32	5052.34
447.53	4364.22
447.73	3774.41
447.93	3600.33
448.14	3385.29
448.34	3227.60
448.55	2987.99
448.75	2877.40
448.96	2664.41
449.16	2447.32
449.36	2289.63
449.57	2011.11
449.77	1894.37
449.98	1730.53
450.18	1849.32
450.39	1785.83
450.59	1787.88
450.79	1665.00
451.00	1703.91
451.20	1810.40
451.41	1669.09
451.61	1681.38
451.81	1753.06
452.02	1740.77
452.22	1705.96
452.43	1712.10
452.63	1705.96
