SpectraSuite Data File
++++++++++++++++++++++++++++++++++++
Date: Mon Jun 06 16:54:17 CEST 2016
User: root
Dark Spectrum Present: No
Reference Spectrum Present: No
Number of Sampled Component Spectra: 1
Spectrometers: USB4C02835
Integration Time (usec): 100000 (USB4C02835)
Spectra Averaged: 1 (USB4C02835)
Boxcar Smoothing: 0 (USB4C02835)
Correct for Electrical Dark: No (USB4C02835)
Strobe/Lamp Enabled: No (USB4C02835)
Correct for Detector Non-linearity: No (USB4C02835)
Correct for Stray Light: No (USB4C02835)
Number of Pixels in Processed Spectrum: 3648
>>>>>Begin Processed Spectral Data<<<<<
177.47	1386.47
177.69	1386.47
177.91	1386.47
178.13	1505.26
178.36	1460.20
178.58	1697.77
178.80	1751.01
179.02	1595.37
179.24	1605.61
179.46	1714.15
179.68	1712.10
179.90	1665.00
180.13	1656.81
180.35	1636.33
180.57	1691.62
180.79	1763.30
181.01	1722.34
181.23	1724.39
181.45	1816.55
181.67	1720.29
181.90	1669.09
182.12	1675.24
182.34	1648.61
182.56	1679.33
182.78	1699.81
183.00	1712.10
183.22	1798.12
183.44	1662.95
183.66	1816.55
183.89	1785.83
184.11	1728.49
184.33	1640.42
184.55	1839.08
184.77	1763.30
184.99	1648.61
185.21	1714.15
185.43	1785.83
185.65	1720.29
185.87	1755.11
186.10	1902.56
186.32	1789.92
186.54	1814.50
186.76	1681.38
186.98	1804.26
187.20	1675.24
187.42	1644.52
187.64	1728.49
187.86	1683.43
188.08	1806.31
188.30	1624.04
188.52	1691.62
188.75	1705.96
188.97	1705.96
189.19	1642.47
189.41	1716.20
189.63	1765.35
189.85	1667.05
190.07	1607.66
190.29	1607.66
190.51	1718.25
190.73	1673.19
190.95	1769.44
191.17	1675.24
191.39	1646.57
191.61	1726.44
191.84	1691.62
192.06	1705.96
192.28	1617.90
192.50	1863.65
192.72	1720.29
192.94	1734.63
193.16	1738.73
193.38	1732.58
193.60	1632.23
193.82	1662.95
194.04	1699.81
194.26	1726.44
194.48	1685.48
194.70	1662.95
194.92	1677.29
195.14	1755.11
195.36	1753.06
195.58	1638.38
195.80	1724.39
196.02	1615.85
196.24	1660.90
196.46	1751.01
196.69	1683.43
196.91	1900.52
197.13	1705.96
197.35	1654.76
197.57	1765.35
197.79	1722.34
198.01	1730.53
198.23	1734.63
198.45	1728.49
198.67	1693.67
198.89	1701.86
199.11	1767.40
199.33	1697.77
199.55	1683.43
199.77	1751.01
199.99	1789.92
200.21	1710.05
200.43	1755.11
200.65	1656.81
200.87	1585.13
201.09	1738.73
201.31	1603.56
201.53	1763.30
201.75	1738.73
201.97	1705.96
202.19	1705.96
202.41	1755.11
202.63	1853.41
202.85	1748.97
203.07	1736.68
203.29	1708.01
203.51	1568.74
203.73	1722.34
203.95	1777.64
204.17	1712.10
204.39	1744.87
204.61	1757.16
204.83	1716.20
205.05	1802.21
205.27	1675.24
205.49	1841.12
205.71	1724.39
205.93	1615.85
206.15	1656.81
206.37	1748.97
206.59	1751.01
206.81	1654.76
207.03	1685.48
207.25	1726.44
207.47	1757.16
207.69	1755.11
207.91	1759.21
208.13	1740.77
208.34	1597.42
208.56	1636.33
208.78	1701.86
209.00	1665.00
209.22	1671.14
209.44	1705.96
209.66	1687.53
209.88	1669.09
210.10	1683.43
210.32	1693.67
210.54	1779.68
210.76	1626.09
210.98	1781.73
211.20	1640.42
211.42	1724.39
211.64	1699.81
211.86	1757.16
212.08	1738.73
212.30	1656.81
212.52	1716.20
212.74	1656.81
212.96	1746.92
213.17	1714.15
213.39	1705.96
213.61	1748.97
213.83	1765.35
214.05	1624.04
214.27	1824.74
214.49	1705.96
214.71	1634.28
214.93	1746.92
215.15	1671.14
215.37	1732.58
215.59	1671.14
215.81	1705.96
216.03	1771.49
216.24	1730.53
216.46	1699.81
216.68	1683.43
216.90	1785.83
217.12	1755.11
217.34	1773.54
217.56	1757.16
217.78	1798.12
218.00	1791.97
218.22	1695.72
218.44	1779.68
218.66	1796.07
218.87	1744.87
219.09	1714.15
219.31	1636.33
219.53	1736.68
219.75	1722.34
219.97	1740.77
220.19	1687.53
220.41	1636.33
220.63	1755.11
220.85	1726.44
221.06	1621.99
221.28	1767.40
221.50	1601.51
221.72	1708.01
221.94	1724.39
222.16	1703.91
222.38	1763.30
222.60	1724.39
222.82	1699.81
223.03	1687.53
223.25	1691.62
223.47	1761.25
223.69	1787.88
223.91	1773.54
224.13	1714.15
224.35	1640.42
224.57	1791.97
224.78	1757.16
225.00	1757.16
225.22	1732.58
225.44	1771.49
225.66	1722.34
225.88	1751.01
226.10	1767.40
226.32	1716.20
226.53	1775.59
226.75	1732.58
226.97	1689.57
227.19	1738.73
227.41	1687.53
227.63	1640.42
227.85	1587.18
228.06	1759.21
228.28	1687.53
228.50	1703.91
228.72	1695.72
228.94	1724.39
229.16	1585.13
229.37	1642.47
229.59	1689.57
229.81	1710.05
230.03	1650.66
230.25	1607.66
230.47	1634.28
230.69	1595.37
230.90	1843.17
231.12	1714.15
231.34	1638.38
231.56	1822.69
231.78	1650.66
232.00	1708.01
232.21	1673.19
232.43	1730.53
232.65	1576.94
232.87	1753.06
233.09	1685.48
233.30	1759.21
233.52	1753.06
233.74	1689.57
233.96	1722.34
234.18	1759.21
234.40	1685.48
234.61	1753.06
234.83	1732.58
235.05	1665.00
235.27	1783.78
235.49	1765.35
235.70	1740.77
235.92	1751.01
236.14	1728.49
236.36	1902.56
236.58	1603.56
236.79	1796.07
237.01	1736.68
237.23	1753.06
237.45	1740.77
237.67	1677.29
237.88	1781.73
238.10	1703.91
238.32	1710.05
238.54	1751.01
238.76	1681.38
238.97	1652.71
239.19	1718.25
239.41	1693.67
239.63	1742.82
239.85	1667.05
240.06	1701.86
240.28	1705.96
240.50	1714.15
240.72	1724.39
240.93	1654.76
241.15	1705.96
241.37	1603.56
241.59	1787.88
241.81	1632.23
242.02	1673.19
242.24	1761.25
242.46	1806.31
242.68	1601.51
242.89	1699.81
243.11	1759.21
243.33	1730.53
243.55	1712.10
243.76	1763.30
243.98	1679.33
244.20	1712.10
244.42	1724.39
244.64	1665.00
244.85	1662.95
245.07	1685.48
245.29	1724.39
245.51	1648.61
245.72	1714.15
245.94	1757.16
246.16	1783.78
246.38	1738.73
246.59	1701.86
246.81	1755.11
247.03	1665.00
247.24	1646.57
247.46	1744.87
247.68	1701.86
247.90	1769.44
248.11	1656.81
248.33	1767.40
248.55	1693.67
248.77	1722.34
248.98	1738.73
249.20	1775.59
249.42	1738.73
249.64	1716.20
249.85	1753.06
250.07	1734.63
250.29	1757.16
250.50	1824.74
250.72	1578.98
250.94	1687.53
251.16	1800.16
251.37	1726.44
251.59	1722.34
251.81	1748.97
252.02	1769.44
252.24	1646.57
252.46	1769.44
252.68	1705.96
252.89	1665.00
253.11	1601.51
253.33	1785.83
253.54	1779.68
253.76	1632.23
253.98	1669.09
254.20	1761.25
254.41	1632.23
254.63	1673.19
254.85	1607.66
255.06	1662.95
255.28	1701.86
255.50	1767.40
255.71	1617.90
255.93	1648.61
256.15	1755.11
256.36	1685.48
256.58	1662.95
256.80	1802.21
257.02	1685.48
257.23	1644.52
257.45	1638.38
257.67	1738.73
257.88	1710.05
258.10	1751.01
258.32	1671.14
258.53	1777.64
258.75	1789.92
258.97	1722.34
259.18	1658.85
259.40	1681.38
259.62	1769.44
259.83	1769.44
260.05	1712.10
260.27	1984.48
260.48	1710.05
260.70	1699.81
260.92	1679.33
261.13	1728.49
261.35	1634.28
261.57	1708.01
261.78	1591.27
262.00	1722.34
262.22	1697.77
262.43	1654.76
262.65	1712.10
262.86	1712.10
263.08	1841.12
263.30	1705.96
263.51	1689.57
263.73	1677.29
263.95	1787.88
264.16	1675.24
264.38	1626.09
264.60	1744.87
264.81	1677.29
265.03	1714.15
265.25	1738.73
265.46	1703.91
265.68	1781.73
265.89	1685.48
266.11	1550.31
266.33	1732.58
266.54	1740.77
266.76	1718.25
266.98	1763.30
267.19	1812.45
267.41	1691.62
267.62	1660.90
267.84	1656.81
268.06	1742.82
268.27	1722.34
268.49	1742.82
268.70	1800.16
268.92	1675.24
269.14	1671.14
269.35	1675.24
269.57	1660.90
269.79	1783.78
270.00	1703.91
270.22	1703.91
270.43	1599.46
270.65	1570.79
270.87	1744.87
271.08	1710.05
271.30	1748.97
271.51	1624.04
271.73	1757.16
271.95	1724.39
272.16	1757.16
272.38	1730.53
272.59	1728.49
272.81	1673.19
273.02	1779.68
273.24	1726.44
273.46	1748.97
273.67	1642.47
273.89	1624.04
274.10	1699.81
274.32	1779.68
274.54	1697.77
274.75	1732.58
274.97	1697.77
275.18	1806.31
275.40	1677.29
275.61	1677.29
275.83	1701.86
276.05	1656.81
276.26	1548.26
276.48	1732.58
276.69	1642.47
276.91	1640.42
277.12	1781.73
277.34	1742.82
277.55	1685.48
277.77	1714.15
277.99	1665.00
278.20	1654.76
278.42	1714.15
278.63	1603.56
278.85	1677.29
279.06	1607.66
279.28	1738.73
279.49	1761.25
279.71	1677.29
279.93	1646.57
280.14	1779.68
280.36	1662.95
280.57	1740.77
280.79	1765.35
281.00	1730.53
281.22	1683.43
281.43	1832.93
281.65	1568.74
281.86	1656.81
282.08	1748.97
282.29	1814.50
282.51	1632.23
282.73	1611.75
282.94	1603.56
283.16	1722.34
283.37	1761.25
283.59	1673.19
283.80	1794.02
284.02	1722.34
284.23	1765.35
284.45	1691.62
284.66	1675.24
284.88	1767.40
285.09	1740.77
285.31	1744.87
285.52	1773.54
285.74	1611.75
285.95	1761.25
286.17	1714.15
286.38	1832.93
286.60	1759.21
286.81	1697.77
287.03	1708.01
287.24	1683.43
287.46	1708.01
287.67	1683.43
287.89	1888.23
288.10	1787.88
288.32	1757.16
288.53	1783.78
288.75	1757.16
288.96	1734.63
289.18	1677.29
289.39	1759.21
289.61	1806.31
289.82	1857.51
290.04	1806.31
290.25	1746.92
290.47	1703.91
290.68	1755.11
290.90	1796.07
291.11	1632.23
291.33	1753.06
291.54	1665.00
291.76	1660.90
291.97	1736.68
292.18	1746.92
292.40	1710.05
292.61	1726.44
292.83	1877.99
293.04	1759.21
293.26	1654.76
293.47	1755.11
293.69	1628.14
293.90	1714.15
294.12	1751.01
294.33	1716.20
294.55	1697.77
294.76	1720.29
294.97	1744.87
295.19	1791.97
295.40	1636.33
295.62	1677.29
295.83	1816.55
296.05	1667.05
296.26	1728.49
296.48	1691.62
296.69	1617.90
296.90	1724.39
297.12	1783.78
297.33	1753.06
297.55	1708.01
297.76	1732.58
297.98	1726.44
298.19	1693.67
298.41	1681.38
298.62	1658.85
298.83	1738.73
299.05	1718.25
299.26	1621.99
299.48	1615.85
299.69	1779.68
299.90	1757.16
300.12	1708.01
300.33	1763.30
300.55	1726.44
300.76	1742.82
300.98	1570.79
301.19	1738.73
301.40	1716.20
301.62	1748.97
301.83	1710.05
302.05	1796.07
302.26	1728.49
302.47	1714.15
302.69	1662.95
302.90	1673.19
303.12	1640.42
303.33	1779.68
303.54	1767.40
303.76	1732.58
303.97	1710.05
304.19	1871.84
304.40	1714.15
304.61	1767.40
304.83	1703.91
305.04	1779.68
305.26	1669.09
305.47	1699.81
305.68	1755.11
305.90	1679.33
306.11	1705.96
306.33	1658.85
306.54	1705.96
306.75	1716.20
306.97	1646.57
307.18	1603.56
307.39	1722.34
307.61	1671.14
307.82	1667.05
308.04	1699.81
308.25	1744.87
308.46	1773.54
308.68	1697.77
308.89	1767.40
309.10	1789.92
309.32	1800.16
309.53	1703.91
309.74	1712.10
309.96	1732.58
310.17	1806.31
310.39	1720.29
310.60	1744.87
310.81	1708.01
311.03	1656.81
311.24	1759.21
311.45	1681.38
311.67	1859.56
311.88	1728.49
312.09	1689.57
312.31	1732.58
312.52	1701.86
312.73	1632.23
312.95	1728.49
313.16	1718.25
313.37	1841.12
313.59	1697.77
313.80	1724.39
314.01	1742.82
314.23	1636.33
314.44	1652.71
314.65	1683.43
314.87	1744.87
315.08	1648.61
315.29	1624.04
315.51	1587.18
315.72	1624.04
315.93	1865.70
316.15	1808.36
316.36	1691.62
316.57	1744.87
316.79	1814.50
317.00	1691.62
317.21	1687.53
317.43	1591.27
317.64	1714.15
317.85	1665.00
318.07	1634.28
318.28	1708.01
318.49	1834.98
318.70	1849.32
318.92	1796.07
319.13	1810.40
319.34	1814.50
319.56	1742.82
319.77	1812.45
319.98	1781.73
320.20	1777.64
320.41	1724.39
320.62	1755.11
320.83	1574.89
321.05	1888.23
321.26	1730.53
321.47	1736.68
321.69	1724.39
321.90	1703.91
322.11	1689.57
322.32	1703.91
322.54	1820.64
322.75	1705.96
322.96	1798.12
323.18	1617.90
323.39	1617.90
323.60	1718.25
323.81	1742.82
324.03	1695.72
324.24	1767.40
324.45	1710.05
324.66	1701.86
324.88	1714.15
325.09	1845.22
325.30	1638.38
325.52	1699.81
325.73	1681.38
325.94	1617.90
326.15	1640.42
326.37	1626.09
326.58	1796.07
326.79	1753.06
327.00	1697.77
327.22	1781.73
327.43	1740.77
327.64	1656.81
327.85	1751.01
328.07	1740.77
328.28	1830.88
328.49	1734.63
328.70	1712.10
328.92	1751.01
329.13	1687.53
329.34	1656.81
329.55	1789.92
329.76	1732.58
329.98	1691.62
330.19	1775.59
330.40	1753.06
330.61	1697.77
330.83	1748.97
331.04	1585.13
331.25	1650.66
331.46	1630.18
331.68	1615.85
331.89	1808.36
332.10	1712.10
332.31	1599.46
332.52	1662.95
332.74	1773.54
332.95	1624.04
333.16	1710.05
333.37	1794.02
333.58	1667.05
333.80	1738.73
334.01	1634.28
334.22	1687.53
334.43	1568.74
334.64	1693.67
334.86	1591.27
335.07	1726.44
335.28	1767.40
335.49	1628.14
335.70	1636.33
335.92	1789.92
336.13	1834.98
336.34	1763.30
336.55	1755.11
336.76	1722.34
336.98	1708.01
337.19	1669.09
337.40	1865.70
337.61	1814.50
337.82	1697.77
338.04	1746.92
338.25	1585.13
338.46	1724.39
338.67	1691.62
338.88	1636.33
339.09	1697.77
339.31	1671.14
339.52	1609.70
339.73	1624.04
339.94	1685.48
340.15	1751.01
340.36	1662.95
340.58	1699.81
340.79	1634.28
341.00	1763.30
341.21	1734.63
341.42	1839.08
341.63	1675.24
341.85	1724.39
342.06	1812.45
342.27	1652.71
342.48	1699.81
342.69	1617.90
342.90	1701.86
343.12	1689.57
343.33	1677.29
343.54	1730.53
343.75	1853.41
343.96	1640.42
344.17	1605.61
344.38	1654.76
344.60	1697.77
344.81	1665.00
345.02	1708.01
345.23	1724.39
345.44	1742.82
345.65	1769.44
345.86	1777.64
346.07	1695.72
346.29	1720.29
346.50	1683.43
346.71	1689.57
346.92	1738.73
347.13	1865.70
347.34	1732.58
347.55	1658.85
347.76	1712.10
347.98	1636.33
348.19	1652.71
348.40	1800.16
348.61	1677.29
348.82	1830.88
349.03	1746.92
349.24	1585.13
349.45	1826.79
349.66	1617.90
349.88	1685.48
350.09	1675.24
350.30	1785.83
350.51	1746.92
350.72	1769.44
350.93	1730.53
351.14	1669.09
351.35	1753.06
351.56	1738.73
351.77	1722.34
351.99	1791.97
352.20	1767.40
352.41	1820.64
352.62	1628.14
352.83	1710.05
353.04	1642.47
353.25	1654.76
353.46	1765.35
353.67	1712.10
353.88	1617.90
354.09	1740.77
354.30	1730.53
354.52	1728.49
354.73	1656.81
354.94	1689.57
355.15	1804.26
355.36	1843.17
355.57	1662.95
355.78	1742.82
355.99	1603.56
356.20	1705.96
356.41	1828.84
356.62	1660.90
356.83	1779.68
357.04	1763.30
357.25	1568.74
357.46	1607.66
357.68	1658.85
357.89	1648.61
358.10	1742.82
358.31	1632.23
358.52	1656.81
358.73	1601.51
358.94	1656.81
359.15	1787.88
359.36	1705.96
359.57	1720.29
359.78	1665.00
359.99	1800.16
360.20	1636.33
360.41	1679.33
360.62	1785.83
360.83	1705.96
361.04	1705.96
361.25	1824.74
361.46	1779.68
361.67	1730.53
361.88	1697.77
362.09	1787.88
362.30	1738.73
362.51	1697.77
362.72	1712.10
362.93	1675.24
363.14	1720.29
363.35	1716.20
363.56	1669.09
363.78	1812.45
363.99	1675.24
364.20	1722.34
364.41	1781.73
364.62	1834.98
364.83	1693.67
365.04	1765.35
365.25	1703.91
365.46	1859.56
365.67	1693.67
365.88	1595.37
366.09	1693.67
366.30	1650.66
366.51	1724.39
366.72	1636.33
366.93	1728.49
367.14	1673.19
367.35	1748.97
367.56	1626.09
367.77	1834.98
367.98	1722.34
368.18	1751.01
368.39	1730.53
368.60	1654.76
368.81	1693.67
369.02	1658.85
369.23	1724.39
369.44	1624.04
369.65	1738.73
369.86	1763.30
370.07	1736.68
370.28	1705.96
370.49	1755.11
370.70	1656.81
370.91	1642.47
371.12	1660.90
371.33	1763.30
371.54	1626.09
371.75	1806.31
371.96	1644.52
372.17	1736.68
372.38	1662.95
372.59	1765.35
372.80	1681.38
373.01	1681.38
373.22	1681.38
373.43	1695.72
373.64	1685.48
373.85	1734.63
374.06	1798.12
374.26	1742.82
374.47	1714.15
374.68	1740.77
374.89	1691.62
375.10	1734.63
375.31	1673.19
375.52	1730.53
375.73	1722.34
375.94	1665.00
376.15	1746.92
376.36	1669.09
376.57	1677.29
376.78	1683.43
376.99	1703.91
377.20	1841.12
377.40	1615.85
377.61	1826.79
377.82	1716.20
378.03	1681.38
378.24	1732.58
378.45	1726.44
378.66	1720.29
378.87	1531.88
379.08	1607.66
379.29	1656.81
379.50	1728.49
379.71	1699.81
379.91	1738.73
380.12	1665.00
380.33	1751.01
380.54	1675.24
380.75	1642.47
380.96	1724.39
381.17	1783.78
381.38	1673.19
381.59	1771.49
381.80	1693.67
382.00	1890.28
382.21	1714.15
382.42	1824.74
382.63	1910.75
382.84	1755.11
383.05	1740.77
383.26	1853.41
383.47	1785.83
383.68	1804.26
383.88	1710.05
384.09	1667.05
384.30	1779.68
384.51	1728.49
384.72	1679.33
384.93	1660.90
385.14	1689.57
385.35	1685.48
385.55	1660.90
385.76	1724.39
385.97	1683.43
386.18	1621.99
386.39	1738.73
386.60	1675.24
386.81	1789.92
387.02	1660.90
387.22	1705.96
387.43	1742.82
387.64	1843.17
387.85	1892.32
388.06	2195.42
388.27	4194.24
388.48	6764.44
388.68	8013.70
388.89	9586.54
389.10	9953.13
389.31	8599.42
389.52	7565.20
389.73	6664.09
389.93	6338.46
390.14	5840.81
390.35	5183.41
390.56	4675.51
390.77	3852.23
390.98	2994.13
391.18	2600.92
391.39	2152.42
391.60	1849.32
391.81	1832.93
392.02	1724.39
392.23	1853.41
392.43	1716.20
392.64	1847.27
392.85	1789.92
393.06	1783.78
393.27	1712.10
393.47	1767.40
393.68	1718.25
393.89	1699.81
394.10	1753.06
394.31	1697.77
394.52	1720.29
394.72	1671.14
394.93	1783.78
395.14	1669.09
395.35	1730.53
395.56	1705.96
395.76	1654.76
395.97	1841.12
396.18	1814.50
396.39	1812.45
396.60	2119.65
396.80	1896.42
397.01	1822.69
397.22	1787.88
397.43	1925.09
397.64	1693.67
397.84	1861.60
398.05	1785.83
398.26	1804.26
398.47	1759.21
398.67	1783.78
398.88	1718.25
399.09	1712.10
399.30	1695.72
399.51	1675.24
399.71	1630.18
399.92	1689.57
400.13	1734.63
400.34	1658.85
400.54	1656.81
400.75	1832.93
400.96	1757.16
401.17	1787.88
401.37	1777.64
401.58	1654.76
401.79	1697.77
402.00	1871.84
402.21	2107.36
402.41	1945.57
402.62	2019.30
402.83	2017.25
403.04	1957.86
403.24	2027.49
403.45	1769.44
403.66	1900.52
403.87	1820.64
404.07	1902.56
404.28	1865.70
404.49	1808.36
404.70	1804.26
404.90	1767.40
405.11	1695.72
405.32	1746.92
405.52	1722.34
405.73	1693.67
405.94	1665.00
406.15	1681.38
406.35	1755.11
406.56	1667.05
406.77	1763.30
406.98	1728.49
407.18	1642.47
407.39	1837.03
407.60	1626.09
407.80	1710.05
408.01	1591.27
408.22	1755.11
408.43	1703.91
408.63	1728.49
408.84	1712.10
409.05	1738.73
409.25	1722.34
409.46	1716.20
409.67	1640.42
409.88	1650.66
410.08	1781.73
410.29	1724.39
410.50	1767.40
410.70	1755.11
410.91	1642.47
411.12	1671.14
411.32	1746.92
411.53	1701.86
411.74	1775.59
411.95	1738.73
412.15	1755.11
412.36	1837.03
412.57	1701.86
412.77	1787.88
412.98	1730.53
413.19	1691.62
413.39	1746.92
413.60	1785.83
413.81	1820.64
414.01	1656.81
414.22	1779.68
414.43	1716.20
414.63	1720.29
414.84	1740.77
415.05	1796.07
415.25	1724.39
415.46	1701.86
415.67	1595.37
415.87	1716.20
416.08	1755.11
416.29	1777.64
416.49	1767.40
416.70	1685.48
416.91	1708.01
417.11	1736.68
417.32	1740.77
417.53	1789.92
417.73	1695.72
417.94	1693.67
418.15	1710.05
418.35	1779.68
418.56	1681.38
418.77	1853.41
418.97	1613.80
419.18	1705.96
419.38	1667.05
419.59	1742.82
419.80	1804.26
420.00	1714.15
420.21	1665.00
420.42	1753.06
420.62	1714.15
420.83	1683.43
421.04	1712.10
421.24	1736.68
421.45	1681.38
421.65	1689.57
421.86	1740.77
422.07	1773.54
422.27	1675.24
422.48	1722.34
422.69	1654.76
422.89	1781.73
423.10	1693.67
423.30	1632.23
423.51	1759.21
423.72	1812.45
423.92	1785.83
424.13	1683.43
424.33	1773.54
424.54	1765.35
424.75	1800.16
424.95	1849.32
425.16	1806.31
425.36	1705.96
425.57	1806.31
425.78	1734.63
425.98	1796.07
426.19	1605.61
426.39	1611.75
426.60	1761.25
426.81	1843.17
427.01	1648.61
427.22	1650.66
427.42	1605.61
427.63	1691.62
427.83	1724.39
428.04	1757.16
428.25	1832.93
428.45	1783.78
428.66	1791.97
428.86	1726.44
429.07	1646.57
429.28	1716.20
429.48	1746.92
429.69	1685.48
429.89	1730.53
430.10	1693.67
430.30	1781.73
430.51	1710.05
430.71	1712.10
430.92	1734.63
431.13	1599.46
431.33	1693.67
431.54	1781.73
431.74	1865.70
431.95	1765.35
432.15	1644.52
432.36	1767.40
432.56	1832.93
432.77	1746.92
432.98	1794.02
433.18	1753.06
433.39	1771.49
433.59	1697.77
433.80	1783.78
434.00	1824.74
434.21	1699.81
434.41	1640.42
434.62	1822.69
434.82	1738.73
435.03	1617.90
435.23	1734.63
435.44	1667.05
435.64	1710.05
435.85	1771.49
436.06	1791.97
436.26	1742.82
436.47	1753.06
436.67	1675.24
436.88	1789.92
437.08	1730.53
437.29	1826.79
437.49	1804.26
437.70	1826.79
437.90	1773.54
438.11	1755.11
438.31	1751.01
438.52	1910.75
438.72	1834.98
438.93	1888.23
439.13	1787.88
439.34	1814.50
439.54	1759.21
439.75	1845.22
439.95	1705.96
440.16	1759.21
440.36	1796.07
440.57	1744.87
440.77	1757.16
440.98	1763.30
441.18	1734.63
441.39	1716.20
441.59	1642.47
441.80	1789.92
442.00	1687.53
442.21	1814.50
442.41	1681.38
442.62	1851.36
442.82	1648.61
443.02	1691.62
443.23	1845.22
443.43	1769.44
443.64	1796.07
443.84	1736.68
444.05	1769.44
444.25	1783.78
444.46	1689.57
444.66	1767.40
444.87	1812.45
445.07	1699.81
445.28	1730.53
445.48	1828.84
445.69	1781.73
445.89	2019.30
446.09	1718.25
446.30	2004.96
446.50	2658.26
446.71	3676.10
446.91	4298.69
447.12	4771.77
447.32	4915.12
447.53	4317.12
447.73	3878.85
447.93	3532.75
448.14	3323.85
448.34	3229.65
448.55	2953.17
448.75	2832.34
448.96	2693.08
449.16	2377.69
449.36	2308.06
449.57	2031.58
449.77	1945.57
449.98	1818.60
450.18	1810.40
450.39	1843.17
450.59	1894.37
450.79	1726.44
451.00	1779.68
451.20	1751.01
451.41	1746.92
451.61	1773.54
451.81	1828.84
452.02	1720.29
452.22	1726.44
452.43	1691.62
452.63	1656.81
