SpectraSuite Data File
++++++++++++++++++++++++++++++++++++
Date: Mon Jun 06 15:22:17 CEST 2016
User: root
Dark Spectrum Present: No
Reference Spectrum Present: No
Number of Sampled Component Spectra: 1
Spectrometers: USB4C02835
Integration Time (usec): 100000 (USB4C02835)
Spectra Averaged: 1 (USB4C02835)
Boxcar Smoothing: 0 (USB4C02835)
Correct for Electrical Dark: No (USB4C02835)
Strobe/Lamp Enabled: No (USB4C02835)
Correct for Detector Non-linearity: No (USB4C02835)
Correct for Stray Light: No (USB4C02835)
Number of Pixels in Processed Spectrum: 3648
>>>>>Begin Processed Spectral Data<<<<<
177.47	1501.16
177.69	1501.16
177.91	1501.16
178.13	1533.93
178.36	1505.26
178.58	1619.94
178.80	1757.16
179.02	1564.65
179.24	1689.57
179.46	1681.38
179.68	1755.11
179.90	1681.38
180.13	1722.34
180.35	1546.22
180.57	1660.90
180.79	1787.88
181.01	1734.63
181.23	1726.44
181.45	1763.30
181.67	1808.36
181.90	1695.72
182.12	1687.53
182.34	1652.71
182.56	1757.16
182.78	1777.64
183.00	1697.77
183.22	1755.11
183.44	1617.90
183.66	1830.88
183.89	1781.73
184.11	1736.68
184.33	1742.82
184.55	1720.29
184.77	1765.35
184.99	1724.39
185.21	1744.87
185.43	1884.13
185.65	1705.96
185.87	1763.30
186.10	1826.79
186.32	1824.74
186.54	1687.53
186.76	1771.49
186.98	1798.12
187.20	1652.71
187.42	1720.29
187.64	1710.05
187.86	1693.67
188.08	1777.64
188.30	1734.63
188.52	1794.02
188.75	1769.44
188.97	1875.94
189.19	1665.00
189.41	1675.24
189.63	1710.05
189.85	1689.57
190.07	1607.66
190.29	1595.37
190.51	1748.97
190.73	1626.09
190.95	1771.49
191.17	1755.11
191.39	1599.46
191.61	1695.72
191.84	1656.81
192.06	1710.05
192.28	1714.15
192.50	1861.60
192.72	1683.43
192.94	1703.91
193.16	1783.78
193.38	1685.48
193.60	1624.04
193.82	1718.25
194.04	1775.59
194.26	1710.05
194.48	1712.10
194.70	1626.09
194.92	1710.05
195.14	1822.69
195.36	1669.09
195.58	1689.57
195.80	1726.44
196.02	1724.39
196.24	1667.05
196.46	1765.35
196.69	1632.23
196.91	1861.60
197.13	1683.43
197.35	1648.61
197.57	1781.73
197.79	1628.14
198.01	1796.07
198.23	1691.62
198.45	1755.11
198.67	1628.14
198.89	1728.49
199.11	1746.92
199.33	1705.96
199.55	1601.51
199.77	1701.86
199.99	1755.11
200.21	1683.43
200.43	1669.09
200.65	1683.43
200.87	1558.50
201.09	1775.59
201.31	1648.61
201.53	1671.14
201.75	1738.73
201.97	1714.15
202.19	1667.05
202.41	1728.49
202.63	1888.23
202.85	1697.77
203.07	1755.11
203.29	1710.05
203.51	1648.61
203.73	1652.71
203.95	1896.42
204.17	1710.05
204.39	1738.73
204.61	1693.67
204.83	1763.30
205.05	1748.97
205.27	1720.29
205.49	1877.99
205.71	1744.87
205.93	1605.61
206.15	1636.33
206.37	1710.05
206.59	1685.48
206.81	1581.03
207.03	1683.43
207.25	1648.61
207.47	1804.26
207.69	1736.68
207.91	1791.97
208.13	1794.02
208.34	1683.43
208.56	1630.18
208.78	1832.93
209.00	1710.05
209.22	1681.38
209.44	1765.35
209.66	1642.47
209.88	1699.81
210.10	1722.34
210.32	1640.42
210.54	1804.26
210.76	1695.72
210.98	1804.26
211.20	1644.52
211.42	1689.57
211.64	1816.55
211.86	1738.73
212.08	1687.53
212.30	1794.02
212.52	1763.30
212.74	1673.19
212.96	1665.00
213.17	1718.25
213.39	1791.97
213.61	1775.59
213.83	1720.29
214.05	1675.24
214.27	1748.97
214.49	1640.42
214.71	1701.86
214.93	1761.25
215.15	1791.97
215.37	1697.77
215.59	1648.61
215.81	1765.35
216.03	1826.79
216.24	1701.86
216.46	1724.39
216.68	1763.30
216.90	1740.77
217.12	1730.53
217.34	1740.77
217.56	1730.53
217.78	1773.54
218.00	1712.10
218.22	1746.92
218.44	1621.99
218.66	1658.85
218.87	1884.13
219.09	1728.49
219.31	1740.77
219.53	1757.16
219.75	1730.53
219.97	1751.01
220.19	1681.38
220.41	1634.28
220.63	1759.21
220.85	1724.39
221.06	1726.44
221.28	1759.21
221.50	1705.96
221.72	1738.73
221.94	1687.53
222.16	1685.48
222.38	1718.25
222.60	1769.44
222.82	1695.72
223.03	1775.59
223.25	1585.13
223.47	1730.53
223.69	1818.60
223.91	1845.22
224.13	1718.25
224.35	1679.33
224.57	1771.49
224.78	1710.05
225.00	1697.77
225.22	1714.15
225.44	1685.48
225.66	1675.24
225.88	1748.97
226.10	1783.78
226.32	1703.91
226.53	1771.49
226.75	1822.69
226.97	1689.57
227.19	1728.49
227.41	1638.38
227.63	1732.58
227.85	1679.33
228.06	1726.44
228.28	1818.60
228.50	1810.40
228.72	1605.61
228.94	1691.62
229.16	1617.90
229.37	1603.56
229.59	1660.90
229.81	1744.87
230.03	1736.68
230.25	1650.66
230.47	1658.85
230.69	1644.52
230.90	1697.77
231.12	1701.86
231.34	1726.44
231.56	1673.19
231.78	1667.05
232.00	1726.44
232.21	1687.53
232.43	1697.77
232.65	1585.13
232.87	1759.21
233.09	1626.09
233.30	1658.85
233.52	1710.05
233.74	1662.95
233.96	1648.61
234.18	1701.86
234.40	1714.15
234.61	1839.08
234.83	1630.18
235.05	1632.23
235.27	1847.27
235.49	1804.26
235.70	1656.81
235.92	1740.77
236.14	1722.34
236.36	1861.60
236.58	1671.14
236.79	1675.24
237.01	1716.20
237.23	1736.68
237.45	1787.88
237.67	1679.33
237.88	1712.10
238.10	1865.70
238.32	1701.86
238.54	1656.81
238.76	1755.11
238.97	1640.42
239.19	1677.29
239.41	1794.02
239.63	1736.68
239.85	1691.62
240.06	1654.76
240.28	1789.92
240.50	1714.15
240.72	1710.05
240.93	1746.92
241.15	1824.74
241.37	1701.86
241.59	1839.08
241.81	1728.49
242.02	1689.57
242.24	1765.35
242.46	1781.73
242.68	1654.76
242.89	1673.19
243.11	1828.84
243.33	1667.05
243.55	1732.58
243.76	1757.16
243.98	1710.05
244.20	1669.09
244.42	1677.29
244.64	1755.11
244.85	1640.42
245.07	1718.25
245.29	1794.02
245.51	1675.24
245.72	1742.82
245.94	1824.74
246.16	1716.20
246.38	1665.00
246.59	1624.04
246.81	1685.48
247.03	1759.21
247.24	1667.05
247.46	1636.33
247.68	1769.44
247.90	1695.72
248.11	1689.57
248.33	1740.77
248.55	1726.44
248.77	1677.29
248.98	1748.97
249.20	1728.49
249.42	1736.68
249.64	1759.21
249.85	1724.39
250.07	1773.54
250.29	1804.26
250.50	1736.68
250.72	1613.80
250.94	1699.81
251.16	1837.03
251.37	1808.36
251.59	1718.25
251.81	1748.97
252.02	1783.78
252.24	1628.14
252.46	1802.21
252.68	1617.90
252.89	1683.43
253.11	1591.27
253.33	1751.01
253.54	1697.77
253.76	1695.72
253.98	1703.91
254.20	1648.61
254.41	1656.81
254.63	1628.14
254.85	1648.61
255.06	1712.10
255.28	1730.53
255.50	1683.43
255.71	1626.09
255.93	1646.57
256.15	1646.57
256.36	1759.21
256.58	1765.35
256.80	1697.77
257.02	1724.39
257.23	1677.29
257.45	1753.06
257.67	1757.16
257.88	1671.14
258.10	1734.63
258.32	1738.73
258.53	1724.39
258.75	1789.92
258.97	1687.53
259.18	1665.00
259.40	1724.39
259.62	1791.97
259.83	1789.92
260.05	1779.68
260.27	1961.95
260.48	1736.68
260.70	1630.18
260.92	1724.39
261.13	1734.63
261.35	1705.96
261.57	1730.53
261.78	1677.29
262.00	1662.95
262.22	1716.20
262.43	1673.19
262.65	1724.39
262.86	1638.38
263.08	1898.47
263.30	1728.49
263.51	1570.79
263.73	1689.57
263.95	1714.15
264.16	1628.14
264.38	1677.29
264.60	1734.63
264.81	1648.61
265.03	1736.68
265.25	1785.83
265.46	1742.82
265.68	1757.16
265.89	1767.40
266.11	1581.03
266.33	1722.34
266.54	1755.11
266.76	1796.07
266.98	1830.88
267.19	1783.78
267.41	1755.11
267.62	1722.34
267.84	1642.47
268.06	1730.53
268.27	1755.11
268.49	1777.64
268.70	1695.72
268.92	1683.43
269.14	1716.20
269.35	1665.00
269.57	1724.39
269.79	1705.96
270.00	1699.81
270.22	1855.46
270.43	1613.80
270.65	1595.37
270.87	1726.44
271.08	1787.88
271.30	1810.40
271.51	1607.66
271.73	1744.87
271.95	1757.16
272.16	1732.58
272.38	1720.29
272.59	1652.71
272.81	1695.72
273.02	1755.11
273.24	1740.77
273.46	1753.06
273.67	1617.90
273.89	1753.06
274.10	1757.16
274.32	1828.84
274.54	1736.68
274.75	1755.11
274.97	1742.82
275.18	1806.31
275.40	1759.21
275.61	1755.11
275.83	1746.92
276.05	1546.22
276.26	1728.49
276.48	1787.88
276.69	1675.24
276.91	1615.85
277.12	1761.25
277.34	1783.78
277.55	1818.60
277.77	1695.72
277.99	1681.38
278.20	1685.48
278.42	1697.77
278.63	1630.18
278.85	1652.71
279.06	1673.19
279.28	1701.86
279.49	1796.07
279.71	1714.15
279.93	1722.34
280.14	1742.82
280.36	1753.06
280.57	1699.81
280.79	1708.01
281.00	1681.38
281.22	1650.66
281.43	1818.60
281.65	1624.04
281.86	1708.01
282.08	1701.86
282.29	1775.59
282.51	1667.05
282.73	1701.86
282.94	1568.74
283.16	1705.96
283.37	1744.87
283.59	1703.91
283.80	1646.57
284.02	1761.25
284.23	1755.11
284.45	1679.33
284.66	1701.86
284.88	1591.27
285.09	1742.82
285.31	1671.14
285.52	1751.01
285.74	1615.85
285.95	1804.26
286.17	1685.48
286.38	1693.67
286.60	1626.09
286.81	1705.96
287.03	1718.25
287.24	1722.34
287.46	1730.53
287.67	1693.67
287.89	1890.28
288.10	1712.10
288.32	1773.54
288.53	1849.32
288.75	1679.33
288.96	1804.26
289.18	1689.57
289.39	1619.94
289.61	1802.21
289.82	1802.21
290.04	1796.07
290.25	1703.91
290.47	1685.48
290.68	1697.77
290.90	1789.92
291.11	1628.14
291.33	1734.63
291.54	1712.10
291.76	1697.77
291.97	1714.15
292.18	1759.21
292.40	1679.33
292.61	1755.11
292.83	1789.92
293.04	1716.20
293.26	1656.81
293.47	1705.96
293.69	1646.57
293.90	1755.11
294.12	1845.22
294.33	1669.09
294.55	1667.05
294.76	1746.92
294.97	1736.68
295.19	1904.61
295.40	1724.39
295.62	1732.58
295.83	1755.11
296.05	1691.62
296.26	1703.91
296.48	1705.96
296.69	1718.25
296.90	1654.76
297.12	1671.14
297.33	1767.40
297.55	1693.67
297.76	1783.78
297.98	1736.68
298.19	1773.54
298.41	1677.29
298.62	1662.95
298.83	1777.64
299.05	1834.98
299.26	1712.10
299.48	1689.57
299.69	1753.06
299.90	1705.96
300.12	1720.29
300.33	1779.68
300.55	1728.49
300.76	1751.01
300.98	1669.09
301.19	1753.06
301.40	1654.76
301.62	1757.16
301.83	1771.49
302.05	1748.97
302.26	1685.48
302.47	1660.90
302.69	1617.90
302.90	1738.73
303.12	1626.09
303.33	1773.54
303.54	1841.12
303.76	1650.66
303.97	1722.34
304.19	1785.83
304.40	1685.48
304.61	1787.88
304.83	1769.44
305.04	1751.01
305.26	1722.34
305.47	1679.33
305.68	1736.68
305.90	1718.25
306.11	1728.49
306.33	1722.34
306.54	1695.72
306.75	1626.09
306.97	1652.71
307.18	1597.42
307.39	1732.58
307.61	1759.21
307.82	1671.14
308.04	1708.01
308.25	1665.00
308.46	1724.39
308.68	1691.62
308.89	1734.63
309.10	1839.08
309.32	1796.07
309.53	1716.20
309.74	1710.05
309.96	1640.42
310.17	1787.88
310.39	1716.20
310.60	1691.62
310.81	1753.06
311.03	1626.09
311.24	1730.53
311.45	1740.77
311.67	1865.70
311.88	1703.91
312.09	1683.43
312.31	1634.28
312.52	1705.96
312.73	1660.90
312.95	1626.09
313.16	1656.81
313.37	1871.84
313.59	1763.30
313.80	1808.36
314.01	1775.59
314.23	1775.59
314.44	1724.39
314.65	1624.04
314.87	1658.85
315.08	1742.82
315.29	1705.96
315.51	1734.63
315.72	1683.43
315.93	1863.65
316.15	1751.01
316.36	1615.85
316.57	1724.39
316.79	1660.90
317.00	1658.85
317.21	1740.77
317.43	1646.57
317.64	1695.72
317.85	1724.39
318.07	1691.62
318.28	1830.88
318.49	1832.93
318.70	1910.75
318.92	1773.54
319.13	1753.06
319.34	1906.66
319.56	1759.21
319.77	1781.73
319.98	1722.34
320.20	1794.02
320.41	1738.73
320.62	1783.78
320.83	1699.81
321.05	1869.80
321.26	1738.73
321.47	1701.86
321.69	1734.63
321.90	1603.56
322.11	1628.14
322.32	1757.16
322.54	1748.97
322.75	1695.72
322.96	1791.97
323.18	1685.48
323.39	1644.52
323.60	1648.61
323.81	1787.88
324.03	1624.04
324.24	1658.85
324.45	1732.58
324.66	1667.05
324.88	1726.44
325.09	1816.55
325.30	1744.87
325.52	1720.29
325.73	1753.06
325.94	1665.00
326.15	1683.43
326.37	1656.81
326.58	1775.59
326.79	1796.07
327.00	1742.82
327.22	1732.58
327.43	1640.42
327.64	1597.42
327.85	1748.97
328.07	1769.44
328.28	1736.68
328.49	1613.80
328.70	1744.87
328.92	1740.77
329.13	1687.53
329.34	1738.73
329.55	1802.21
329.76	1755.11
329.98	1693.67
330.19	1740.77
330.40	1695.72
330.61	1763.30
330.83	1755.11
331.04	1683.43
331.25	1757.16
331.46	1689.57
331.68	1607.66
331.89	1791.97
332.10	1683.43
332.31	1665.00
332.52	1773.54
332.74	1775.59
332.95	1652.71
333.16	1708.01
333.37	1781.73
333.58	1703.91
333.80	1730.53
334.01	1658.85
334.22	1609.70
334.43	1681.38
334.64	1714.15
334.86	1583.08
335.07	1642.47
335.28	1759.21
335.49	1695.72
335.70	1816.55
335.92	1669.09
336.13	1849.32
336.34	1630.18
336.55	1619.94
336.76	1683.43
336.98	1558.50
337.19	1599.46
337.40	1755.11
337.61	1896.42
337.82	1759.21
338.04	1755.11
338.25	1634.28
338.46	1775.59
338.67	1718.25
338.88	1656.81
339.09	1607.66
339.31	1681.38
339.52	1597.42
339.73	1683.43
339.94	1738.73
340.15	1759.21
340.36	1648.61
340.58	1644.52
340.79	1689.57
341.00	1726.44
341.21	1595.37
341.42	1865.70
341.63	1757.16
341.85	1785.83
342.06	1697.77
342.27	1634.28
342.48	1718.25
342.69	1669.09
342.90	1716.20
343.12	1746.92
343.33	1753.06
343.54	1730.53
343.75	1892.32
343.96	1714.15
344.17	1697.77
344.38	1701.86
344.60	1613.80
344.81	1675.24
345.02	1718.25
345.23	1777.64
345.44	1777.64
345.65	1712.10
345.86	1755.11
346.07	1697.77
346.29	1738.73
346.50	1677.29
346.71	1763.30
346.92	1789.92
347.13	1812.45
347.34	1730.53
347.55	1763.30
347.76	1744.87
347.98	1705.96
348.19	1699.81
348.40	1800.16
348.61	1779.68
348.82	1777.64
349.03	1740.77
349.24	1710.05
349.45	1898.47
349.66	1581.03
349.88	1734.63
350.09	1630.18
350.30	1789.92
350.51	1798.12
350.72	1761.25
350.93	1638.38
351.14	1744.87
351.35	1720.29
351.56	1751.01
351.77	1660.90
351.99	1740.77
352.20	1814.50
352.41	1787.88
352.62	1593.32
352.83	1720.29
353.04	1699.81
353.25	1708.01
353.46	1767.40
353.67	1806.31
353.88	1693.67
354.09	1765.35
354.30	1726.44
354.52	1785.83
354.73	1687.53
354.94	1716.20
355.15	1691.62
355.36	1931.23
355.57	1673.19
355.78	1816.55
355.99	1732.58
356.20	1730.53
356.41	1738.73
356.62	1708.01
356.83	1683.43
357.04	1787.88
357.25	1589.22
357.46	1695.72
357.68	1591.27
357.89	1662.95
358.10	1652.71
358.31	1746.92
358.52	1748.97
358.73	1615.85
358.94	1705.96
359.15	1712.10
359.36	1748.97
359.57	1726.44
359.78	1697.77
359.99	1683.43
360.20	1660.90
360.41	1736.68
360.62	1720.29
360.83	1757.16
361.04	1759.21
361.25	1771.49
361.46	1789.92
361.67	1710.05
361.88	1734.63
362.09	1767.40
362.30	1687.53
362.51	1693.67
362.72	1701.86
362.93	1744.87
363.14	1767.40
363.35	1732.58
363.56	1681.38
363.78	1726.44
363.99	1746.92
364.20	1632.23
364.41	1699.81
364.62	1771.49
364.83	1726.44
365.04	1716.20
365.25	1740.77
365.46	1789.92
365.67	1652.71
365.88	1603.56
366.09	1701.86
366.30	1662.95
366.51	1755.11
366.72	1609.70
366.93	1726.44
367.14	1722.34
367.35	1882.08
367.56	1708.01
367.77	1773.54
367.98	1693.67
368.18	1722.34
368.39	1779.68
368.60	1703.91
368.81	1767.40
369.02	1779.68
369.23	1685.48
369.44	1658.85
369.65	1640.42
369.86	1648.61
370.07	1722.34
370.28	1636.33
370.49	1808.36
370.70	1722.34
370.91	1650.66
371.12	1656.81
371.33	1753.06
371.54	1712.10
371.75	1802.21
371.96	1632.23
372.17	1722.34
372.38	1679.33
372.59	1683.43
372.80	1667.05
373.01	1683.43
373.22	1777.64
373.43	1734.63
373.64	1648.61
373.85	1804.26
374.06	1832.93
374.26	1701.86
374.47	1767.40
374.68	1802.21
374.89	1718.25
375.10	1740.77
375.31	1724.39
375.52	1767.40
375.73	1763.30
375.94	1669.09
376.15	1796.07
376.36	1691.62
376.57	1701.86
376.78	1677.29
376.99	1720.29
377.20	1755.11
377.40	1667.05
377.61	1828.84
377.82	1617.90
378.03	1759.21
378.24	1757.16
378.45	1732.58
378.66	1722.34
378.87	1632.23
379.08	1683.43
379.29	1703.91
379.50	1777.64
379.71	1785.83
379.91	1746.92
380.12	1701.86
380.33	1703.91
380.54	1753.06
380.75	1724.39
380.96	1765.35
381.17	1732.58
381.38	1689.57
381.59	1761.25
381.80	1728.49
382.00	1810.40
382.21	1859.56
382.42	1775.59
382.63	1875.94
382.84	1757.16
383.05	1736.68
383.26	1822.69
383.47	1732.58
383.68	1806.31
383.88	1716.20
384.09	1726.44
384.30	1849.32
384.51	1755.11
384.72	1648.61
384.93	1576.94
385.14	1804.26
385.35	1810.40
385.55	1609.70
385.76	1744.87
385.97	1771.49
386.18	1634.28
386.39	1640.42
386.60	1691.62
386.81	1693.67
387.02	1650.66
387.22	1654.76
387.43	1765.35
387.64	1810.40
387.85	1959.91
388.06	2136.03
388.27	4089.79
388.48	6563.74
388.68	8064.90
388.89	9478.00
389.10	9437.04
389.31	8370.05
389.52	7536.52
389.73	6756.25
389.93	6125.47
390.14	5822.38
390.35	5132.21
390.56	4603.83
390.77	3715.02
390.98	2942.93
391.18	2508.76
391.39	2015.20
391.60	1849.32
391.81	1947.62
392.02	1714.15
392.23	1800.16
392.43	1710.05
392.64	1800.16
392.85	1757.16
393.06	1906.66
393.27	1710.05
393.47	1695.72
393.68	1742.82
393.89	1687.53
394.10	1802.21
394.31	1683.43
394.52	1687.53
394.72	1710.05
394.93	1794.02
395.14	1613.80
395.35	1761.25
395.56	1671.14
395.76	1865.70
395.97	1755.11
396.18	1820.64
396.39	1818.60
396.60	1959.91
396.80	1875.94
397.01	1839.08
397.22	1802.21
397.43	1808.36
397.64	1800.16
397.84	1783.78
398.05	1863.65
398.26	1783.78
398.47	1775.59
398.67	1869.80
398.88	1701.86
399.09	1816.55
399.30	1751.01
399.51	1757.16
399.71	1667.05
399.92	1683.43
400.13	1705.96
400.34	1703.91
400.54	1761.25
400.75	1787.88
400.96	1771.49
401.17	1769.44
401.37	1726.44
401.58	1697.77
401.79	1767.40
402.00	1945.57
402.21	2000.87
402.41	1943.52
402.62	2033.63
402.83	2025.44
403.04	2054.11
403.24	2103.26
403.45	1873.89
403.66	1841.12
403.87	1894.37
404.07	1896.42
404.28	1892.32
404.49	1863.65
404.70	1771.49
404.90	1779.68
405.11	1744.87
405.32	1730.53
405.52	1697.77
405.73	1650.66
405.94	1652.71
406.15	1740.77
406.35	1800.16
406.56	1845.22
406.77	1746.92
406.98	1773.54
407.18	1691.62
407.39	1783.78
407.60	1652.71
407.80	1730.53
408.01	1673.19
408.22	1787.88
408.43	1769.44
408.63	1839.08
408.84	1734.63
409.05	1705.96
409.25	1609.70
409.46	1769.44
409.67	1699.81
409.88	1624.04
410.08	1726.44
410.29	1724.39
410.50	1791.97
410.70	1689.57
410.91	1701.86
411.12	1716.20
411.32	1656.81
411.53	1753.06
411.74	1810.40
411.95	1771.49
412.15	1763.30
412.36	1787.88
412.57	1728.49
412.77	1804.26
412.98	1765.35
413.19	1693.67
413.39	1742.82
413.60	1798.12
413.81	1755.11
414.01	1687.53
414.22	1673.19
414.43	1761.25
414.63	1689.57
414.84	1740.77
415.05	1667.05
415.25	1701.86
415.46	1710.05
415.67	1642.47
415.87	1693.67
416.08	1669.09
416.29	1697.77
416.49	1691.62
416.70	1658.85
416.91	1660.90
417.11	1714.15
417.32	1732.58
417.53	1834.98
417.73	1773.54
417.94	1681.38
418.15	1730.53
418.35	1714.15
418.56	1748.97
418.77	1888.23
418.97	1722.34
419.18	1681.38
419.38	1634.28
419.59	1732.58
419.80	1763.30
420.00	1705.96
420.21	1697.77
420.42	1748.97
420.62	1683.43
420.83	1677.29
421.04	1701.86
421.24	1716.20
421.45	1753.06
421.65	1716.20
421.86	1693.67
422.07	1763.30
422.27	1767.40
422.48	1769.44
422.69	1654.76
422.89	1718.25
423.10	1720.29
423.30	1654.76
423.51	1693.67
423.72	1718.25
423.92	1726.44
424.13	1662.95
424.33	1769.44
424.54	1710.05
424.75	1683.43
424.95	1824.74
425.16	1693.67
425.36	1673.19
425.57	1816.55
425.78	1748.97
425.98	1753.06
426.19	1705.96
426.39	1656.81
426.60	1824.74
426.81	1744.87
427.01	1677.29
427.22	1710.05
427.42	1683.43
427.63	1652.71
427.83	1800.16
428.04	1808.36
428.25	1757.16
428.45	1849.32
428.66	1734.63
428.86	1787.88
429.07	1730.53
429.28	1722.34
429.48	1681.38
429.69	1755.11
429.89	1736.68
430.10	1695.72
430.30	1689.57
430.51	1759.21
430.71	1699.81
430.92	1638.38
431.13	1746.92
431.33	1816.55
431.54	1689.57
431.74	1830.88
431.95	1849.32
432.15	1675.24
432.36	1720.29
432.56	1726.44
432.77	1867.75
432.98	1843.17
433.18	1712.10
433.39	1738.73
433.59	1705.96
433.80	1867.75
434.00	1832.93
434.21	1748.97
434.41	1691.62
434.62	1791.97
434.82	1660.90
435.03	1710.05
435.23	1724.39
435.44	1667.05
435.64	1667.05
435.85	1748.97
436.06	1800.16
436.26	1712.10
436.47	1656.81
436.67	1597.42
436.88	1798.12
437.08	1748.97
437.29	1787.88
437.49	1781.73
437.70	1740.77
437.90	1767.40
438.11	1851.36
438.31	1822.69
438.52	1892.32
438.72	1834.98
438.93	1925.09
439.13	1783.78
439.34	1810.40
439.54	1757.16
439.75	1804.26
439.95	1855.46
440.16	1736.68
440.36	1751.01
440.57	1761.25
440.77	1751.01
440.98	1775.59
441.18	1798.12
441.39	1769.44
441.59	1679.33
441.80	1880.04
442.00	1802.21
442.21	1808.36
442.41	1656.81
442.62	1761.25
442.82	1753.06
443.02	1705.96
443.23	1734.63
443.43	1708.01
443.64	1843.17
443.84	1710.05
444.05	1828.84
444.25	1787.88
444.46	1691.62
444.66	1746.92
444.87	1832.93
445.07	1656.81
445.28	1746.92
445.48	1828.84
445.69	1757.16
445.89	1861.60
446.09	1783.78
446.30	1964.00
446.50	2684.89
446.71	3594.19
446.91	4272.06
447.12	4745.14
447.32	4853.69
447.53	4251.58
447.73	3815.37
447.93	3545.03
448.14	3262.41
448.34	3176.40
448.55	2846.68
448.75	2787.29
448.96	2731.99
449.16	2535.39
449.36	2250.72
449.57	2047.97
449.77	1898.47
449.98	1773.54
450.18	1851.36
450.39	1824.74
450.59	1755.11
450.79	1820.64
451.00	1748.97
451.20	1777.64
451.41	1654.76
451.61	1718.25
451.81	1728.49
452.02	1734.63
452.22	1689.57
452.43	1794.02
452.63	1654.76
