SpectraSuite Data File
++++++++++++++++++++++++++++++++++++
Date: Mon Jun 06 14:16:57 CEST 2016
User: root
Dark Spectrum Present: No
Reference Spectrum Present: No
Number of Sampled Component Spectra: 1
Spectrometers: USB4C02835
Integration Time (usec): 100000 (USB4C02835)
Spectra Averaged: 1 (USB4C02835)
Boxcar Smoothing: 0 (USB4C02835)
Correct for Electrical Dark: No (USB4C02835)
Strobe/Lamp Enabled: No (USB4C02835)
Correct for Detector Non-linearity: No (USB4C02835)
Correct for Stray Light: No (USB4C02835)
Number of Pixels in Processed Spectrum: 3648
>>>>>Begin Processed Spectral Data<<<<<
177.47	1490.92
177.69	1490.92
177.91	1490.92
178.13	1468.39
178.36	1423.34
178.58	1685.48
178.80	1673.19
179.02	1667.05
179.24	1595.37
179.46	1800.16
179.68	1794.02
179.90	1726.44
180.13	1710.05
180.35	1667.05
180.57	1660.90
180.79	1759.21
181.01	1699.81
181.23	1785.83
181.45	1771.49
181.67	1779.68
181.90	1849.32
182.12	1634.28
182.34	1669.09
182.56	1732.58
182.78	1720.29
183.00	1728.49
183.22	1738.73
183.44	1605.61
183.66	1847.27
183.89	1769.44
184.11	1681.38
184.33	1714.15
184.55	1740.77
184.77	1730.53
184.99	1728.49
185.21	1656.81
185.43	1781.73
185.65	1624.04
185.87	1730.53
186.10	1843.17
186.32	1853.41
186.54	1720.29
186.76	1730.53
186.98	1765.35
187.20	1652.71
187.42	1705.96
187.64	1712.10
187.86	1720.29
188.08	1783.78
188.30	1656.81
188.52	1757.16
188.75	1769.44
188.97	1751.01
189.19	1638.38
189.41	1689.57
189.63	1632.23
189.85	1652.71
190.07	1640.42
190.29	1595.37
190.51	1736.68
190.73	1689.57
190.95	1824.74
191.17	1734.63
191.39	1691.62
191.61	1648.61
191.84	1673.19
192.06	1796.07
192.28	1595.37
192.50	1865.70
192.72	1701.86
192.94	1708.01
193.16	1798.12
193.38	1681.38
193.60	1613.80
193.82	1638.38
194.04	1781.73
194.26	1634.28
194.48	1693.67
194.70	1742.82
194.92	1742.82
195.14	1705.96
195.36	1697.77
195.58	1798.12
195.80	1701.86
196.02	1636.33
196.24	1720.29
196.46	1771.49
196.69	1595.37
196.91	1859.56
197.13	1705.96
197.35	1619.94
197.57	1757.16
197.79	1708.01
198.01	1689.57
198.23	1677.29
198.45	1699.81
198.67	1624.04
198.89	1730.53
199.11	1806.31
199.33	1656.81
199.55	1589.22
199.77	1673.19
199.99	1734.63
200.21	1638.38
200.43	1720.29
200.65	1650.66
200.87	1603.56
201.09	1726.44
201.31	1714.15
201.53	1658.85
201.75	1730.53
201.97	1720.29
202.19	1677.29
202.41	1740.77
202.63	1779.68
202.85	1746.92
203.07	1683.43
203.29	1673.19
203.51	1595.37
203.73	1624.04
203.95	1832.93
204.17	1681.38
204.39	1734.63
204.61	1626.09
204.83	1654.76
205.05	1761.25
205.27	1775.59
205.49	1753.06
205.71	1734.63
205.93	1667.05
206.15	1634.28
206.37	1736.68
206.59	1599.46
206.81	1603.56
207.03	1646.57
207.25	1650.66
207.47	1740.77
207.69	1697.77
207.91	1755.11
208.13	1759.21
208.34	1697.77
208.56	1665.00
208.78	1650.66
209.00	1708.01
209.22	1697.77
209.44	1757.16
209.66	1679.33
209.88	1677.29
210.10	1640.42
210.32	1685.48
210.54	1755.11
210.76	1667.05
210.98	1773.54
211.20	1613.80
211.42	1685.48
211.64	1832.93
211.86	1695.72
212.08	1759.21
212.30	1755.11
212.52	1644.52
212.74	1828.84
212.96	1744.87
213.17	1730.53
213.39	1710.05
213.61	1783.78
213.83	1724.39
214.05	1601.51
214.27	1767.40
214.49	1656.81
214.71	1619.94
214.93	1728.49
215.15	1685.48
215.37	1779.68
215.59	1665.00
215.81	1689.57
216.03	1757.16
216.24	1669.09
216.46	1740.77
216.68	1806.31
216.90	1783.78
217.12	1761.25
217.34	1726.44
217.56	1728.49
217.78	1830.88
218.00	1783.78
218.22	1691.62
218.44	1742.82
218.66	1763.30
218.87	1775.59
219.09	1669.09
219.31	1656.81
219.53	1673.19
219.75	1648.61
219.97	1722.34
220.19	1724.39
220.41	1757.16
220.63	1740.77
220.85	1619.94
221.06	1673.19
221.28	1798.12
221.50	1775.59
221.72	1679.33
221.94	1714.15
222.16	1648.61
222.38	1787.88
222.60	1775.59
222.82	1626.09
223.03	1765.35
223.25	1691.62
223.47	1794.02
223.69	1841.12
223.91	1708.01
224.13	1677.29
224.35	1626.09
224.57	1755.11
224.78	1718.25
225.00	1644.52
225.22	1681.38
225.44	1783.78
225.66	1705.96
225.88	1724.39
226.10	1748.97
226.32	1804.26
226.53	1763.30
226.75	1734.63
226.97	1685.48
227.19	1660.90
227.41	1652.71
227.63	1718.25
227.85	1570.79
228.06	1687.53
228.28	1693.67
228.50	1779.68
228.72	1714.15
228.94	1730.53
229.16	1638.38
229.37	1562.60
229.59	1632.23
229.81	1800.16
230.03	1628.14
230.25	1626.09
230.47	1667.05
230.69	1630.18
230.90	1759.21
231.12	1650.66
231.34	1718.25
231.56	1742.82
231.78	1597.42
232.00	1667.05
232.21	1665.00
232.43	1722.34
232.65	1542.12
232.87	1773.54
233.09	1652.71
233.30	1628.14
233.52	1693.67
233.74	1693.67
233.96	1673.19
234.18	1665.00
234.40	1634.28
234.61	1802.21
234.83	1527.78
235.05	1640.42
235.27	1832.93
235.49	1767.40
235.70	1742.82
235.92	1832.93
236.14	1681.38
236.36	1783.78
236.58	1660.90
236.79	1730.53
237.01	1728.49
237.23	1712.10
237.45	1751.01
237.67	1665.00
237.88	1734.63
238.10	1896.42
238.32	1636.33
238.54	1636.33
238.76	1697.77
238.97	1658.85
239.19	1689.57
239.41	1708.01
239.63	1773.54
239.85	1734.63
240.06	1722.34
240.28	1720.29
240.50	1730.53
240.72	1705.96
240.93	1732.58
241.15	1736.68
241.37	1656.81
241.59	1787.88
241.81	1730.53
242.02	1724.39
242.24	1724.39
242.46	1738.73
242.68	1636.33
242.89	1759.21
243.11	1665.00
243.33	1681.38
243.55	1708.01
243.76	1748.97
243.98	1691.62
244.20	1615.85
244.42	1648.61
244.64	1683.43
244.85	1646.57
245.07	1681.38
245.29	1796.07
245.51	1726.44
245.72	1734.63
245.94	1765.35
246.16	1665.00
246.38	1718.25
246.59	1691.62
246.81	1587.18
247.03	1710.05
247.24	1591.27
247.46	1677.29
247.68	1746.92
247.90	1724.39
248.11	1640.42
248.33	1794.02
248.55	1644.52
248.77	1705.96
248.98	1763.30
249.20	1796.07
249.42	1660.90
249.64	1732.58
249.85	1722.34
250.07	1656.81
250.29	1742.82
250.50	1712.10
250.72	1589.22
250.94	1724.39
251.16	1832.93
251.37	1781.73
251.59	1798.12
251.81	1742.82
252.02	1818.60
252.24	1624.04
252.46	1728.49
252.68	1679.33
252.89	1632.23
253.11	1603.56
253.33	1886.18
253.54	1871.84
253.76	1687.53
253.98	1703.91
254.20	1673.19
254.41	1640.42
254.63	1681.38
254.85	1640.42
255.06	1681.38
255.28	1755.11
255.50	1685.48
255.71	1642.47
255.93	1675.24
256.15	1722.34
256.36	1714.15
256.58	1679.33
256.80	1720.29
257.02	1722.34
257.23	1585.13
257.45	1708.01
257.67	1791.97
257.88	1683.43
258.10	1691.62
258.32	1708.01
258.53	1720.29
258.75	1763.30
258.97	1662.95
259.18	1642.47
259.40	1714.15
259.62	1820.64
259.83	1828.84
260.05	1732.58
260.27	2045.92
260.48	1755.11
260.70	1654.76
260.92	1681.38
261.13	1761.25
261.35	1650.66
261.57	1740.77
261.78	1554.41
262.00	1665.00
262.22	1732.58
262.43	1581.03
262.65	1724.39
262.86	1730.53
263.08	1902.56
263.30	1665.00
263.51	1693.67
263.73	1710.05
263.95	1789.92
264.16	1697.77
264.38	1673.19
264.60	1757.16
264.81	1734.63
265.03	1746.92
265.25	1744.87
265.46	1636.33
265.68	1816.55
265.89	1730.53
266.11	1652.71
266.33	1646.57
266.54	1740.77
266.76	1687.53
266.98	1736.68
267.19	1744.87
267.41	1783.78
267.62	1710.05
267.84	1673.19
268.06	1738.73
268.27	1681.38
268.49	1826.79
268.70	1794.02
268.92	1726.44
269.14	1640.42
269.35	1611.75
269.57	1640.42
269.79	1738.73
270.00	1650.66
270.22	1861.60
270.43	1611.75
270.65	1550.31
270.87	1689.57
271.08	1722.34
271.30	1681.38
271.51	1695.72
271.73	1763.30
271.95	1796.07
272.16	1734.63
272.38	1740.77
272.59	1689.57
272.81	1777.64
273.02	1773.54
273.24	1697.77
273.46	1769.44
273.67	1646.57
273.89	1636.33
274.10	1646.57
274.32	1773.54
274.54	1775.59
274.75	1738.73
274.97	1685.48
275.18	1742.82
275.40	1705.96
275.61	1662.95
275.83	1677.29
276.05	1654.76
276.26	1701.86
276.48	1703.91
276.69	1648.61
276.91	1671.14
277.12	1742.82
277.34	1748.97
277.55	1763.30
277.77	1767.40
277.99	1689.57
278.20	1634.28
278.42	1617.90
278.63	1650.66
278.85	1665.00
279.06	1599.46
279.28	1746.92
279.49	1734.63
279.71	1718.25
279.93	1687.53
280.14	1691.62
280.36	1710.05
280.57	1701.86
280.79	1759.21
281.00	1677.29
281.22	1699.81
281.43	1689.57
281.65	1574.89
281.86	1658.85
282.08	1765.35
282.29	1871.84
282.51	1671.14
282.73	1628.14
282.94	1617.90
283.16	1734.63
283.37	1781.73
283.59	1683.43
283.80	1775.59
284.02	1654.76
284.23	1685.48
284.45	1642.47
284.66	1732.58
284.88	1791.97
285.09	1697.77
285.31	1767.40
285.52	1728.49
285.74	1595.37
285.95	1744.87
286.17	1748.97
286.38	1726.44
286.60	1703.91
286.81	1662.95
287.03	1710.05
287.24	1675.24
287.46	1681.38
287.67	1781.73
287.89	1765.35
288.10	1665.00
288.32	1751.01
288.53	1773.54
288.75	1722.34
288.96	1742.82
289.18	1734.63
289.39	1640.42
289.61	1708.01
289.82	1849.32
290.04	1839.08
290.25	1665.00
290.47	1699.81
290.68	1677.29
290.90	1726.44
291.11	1646.57
291.33	1730.53
291.54	1658.85
291.76	1593.32
291.97	1638.38
292.18	1789.92
292.40	1724.39
292.61	1617.90
292.83	1875.94
293.04	1728.49
293.26	1665.00
293.47	1726.44
293.69	1624.04
293.90	1693.67
294.12	1759.21
294.33	1683.43
294.55	1665.00
294.76	1783.78
294.97	1800.16
295.19	1832.93
295.40	1658.85
295.62	1742.82
295.83	1794.02
296.05	1654.76
296.26	1826.79
296.48	1669.09
296.69	1689.57
296.90	1667.05
297.12	1732.58
297.33	1769.44
297.55	1701.86
297.76	1734.63
297.98	1738.73
298.19	1656.81
298.41	1652.71
298.62	1624.04
298.83	1705.96
299.05	1628.14
299.26	1648.61
299.48	1691.62
299.69	1769.44
299.90	1708.01
300.12	1628.14
300.33	1710.05
300.55	1699.81
300.76	1703.91
300.98	1581.03
301.19	1771.49
301.40	1728.49
301.62	1751.01
301.83	1710.05
302.05	1648.61
302.26	1742.82
302.47	1689.57
302.69	1619.94
302.90	1656.81
303.12	1619.94
303.33	1757.16
303.54	1830.88
303.76	1648.61
303.97	1765.35
304.19	1791.97
304.40	1673.19
304.61	1773.54
304.83	1839.08
305.04	1771.49
305.26	1775.59
305.47	1656.81
305.68	1685.48
305.90	1617.90
306.11	1771.49
306.33	1722.34
306.54	1742.82
306.75	1665.00
306.97	1660.90
307.18	1720.29
307.39	1685.48
307.61	1714.15
307.82	1751.01
308.04	1734.63
308.25	1771.49
308.46	1687.53
308.68	1669.09
308.89	1710.05
309.10	1767.40
309.32	1728.49
309.53	1646.57
309.74	1818.60
309.96	1648.61
310.17	1765.35
310.39	1626.09
310.60	1753.06
310.81	1757.16
311.03	1644.52
311.24	1751.01
311.45	1720.29
311.67	1841.12
311.88	1779.68
312.09	1738.73
312.31	1677.29
312.52	1716.20
312.73	1708.01
312.95	1652.71
313.16	1665.00
313.37	1832.93
313.59	1685.48
313.80	1757.16
314.01	1769.44
314.23	1665.00
314.44	1638.38
314.65	1605.61
314.87	1673.19
315.08	1716.20
315.29	1701.86
315.51	1621.99
315.72	1681.38
315.93	1775.59
316.15	1722.34
316.36	1746.92
316.57	1685.48
316.79	1751.01
317.00	1632.23
317.21	1701.86
317.43	1652.71
317.64	1695.72
317.85	1687.53
318.07	1609.70
318.28	1738.73
318.49	1849.32
318.70	1920.99
318.92	1886.18
319.13	1830.88
319.34	1738.73
319.56	1822.69
319.77	1804.26
319.98	1746.92
320.20	1783.78
320.41	1714.15
320.62	1677.29
320.83	1683.43
321.05	1796.07
321.26	1689.57
321.47	1671.14
321.69	1710.05
321.90	1681.38
322.11	1796.07
322.32	1724.39
322.54	1785.83
322.75	1716.20
322.96	1785.83
323.18	1720.29
323.39	1525.74
323.60	1673.19
323.81	1753.06
324.03	1673.19
324.24	1650.66
324.45	1685.48
324.66	1751.01
324.88	1708.01
325.09	1773.54
325.30	1738.73
325.52	1736.68
325.73	1673.19
325.94	1642.47
326.15	1613.80
326.37	1636.33
326.58	1808.36
326.79	1751.01
327.00	1667.05
327.22	1738.73
327.43	1654.76
327.64	1703.91
327.85	1722.34
328.07	1740.77
328.28	1853.41
328.49	1732.58
328.70	1697.77
328.92	1759.21
329.13	1734.63
329.34	1722.34
329.55	1818.60
329.76	1722.34
329.98	1755.11
330.19	1759.21
330.40	1755.11
330.61	1720.29
330.83	1791.97
331.04	1644.52
331.25	1689.57
331.46	1673.19
331.68	1652.71
331.89	1779.68
332.10	1681.38
332.31	1570.79
332.52	1654.76
332.74	1683.43
332.95	1621.99
333.16	1703.91
333.37	1742.82
333.58	1757.16
333.80	1695.72
334.01	1640.42
334.22	1656.81
334.43	1681.38
334.64	1671.14
334.86	1628.14
335.07	1613.80
335.28	1771.49
335.49	1632.23
335.70	1787.88
335.92	1757.16
336.13	1853.41
336.34	1675.24
336.55	1691.62
336.76	1718.25
336.98	1615.85
337.19	1689.57
337.40	1724.39
337.61	1808.36
337.82	1638.38
338.04	1798.12
338.25	1562.60
338.46	1714.15
338.67	1716.20
338.88	1697.77
339.09	1607.66
339.31	1621.99
339.52	1628.14
339.73	1662.95
339.94	1736.68
340.15	1773.54
340.36	1689.57
340.58	1695.72
340.79	1691.62
341.00	1697.77
341.21	1656.81
341.42	1771.49
341.63	1679.33
341.85	1755.11
342.06	1708.01
342.27	1671.14
342.48	1771.49
342.69	1564.65
342.90	1759.21
343.12	1693.67
343.33	1632.23
343.54	1728.49
343.75	1822.69
343.96	1650.66
344.17	1675.24
344.38	1689.57
344.60	1648.61
344.81	1648.61
345.02	1771.49
345.23	1808.36
345.44	1771.49
345.65	1783.78
345.86	1824.74
346.07	1648.61
346.29	1615.85
346.50	1697.77
346.71	1742.82
346.92	1755.11
347.13	1828.84
347.34	1683.43
347.55	1708.01
347.76	1744.87
347.98	1562.60
348.19	1693.67
348.40	1769.44
348.61	1630.18
348.82	1783.78
349.03	1714.15
349.24	1673.19
349.45	1765.35
349.66	1576.94
349.88	1701.86
350.09	1718.25
350.30	1736.68
350.51	1867.75
350.72	1681.38
350.93	1744.87
351.14	1621.99
351.35	1771.49
351.56	1652.71
351.77	1722.34
351.99	1779.68
352.20	1781.73
352.41	1802.21
352.62	1642.47
352.83	1650.66
353.04	1675.24
353.25	1689.57
353.46	1755.11
353.67	1712.10
353.88	1591.27
354.09	1685.48
354.30	1742.82
354.52	1738.73
354.73	1742.82
354.94	1681.38
355.15	1775.59
355.36	1705.96
355.57	1677.29
355.78	1798.12
355.99	1615.85
356.20	1718.25
356.41	1753.06
356.62	1732.58
356.83	1697.77
357.04	1785.83
357.25	1658.85
357.46	1683.43
357.68	1632.23
357.89	1632.23
358.10	1740.77
358.31	1705.96
358.52	1658.85
358.73	1642.47
358.94	1652.71
359.15	1761.25
359.36	1777.64
359.57	1714.15
359.78	1673.19
359.99	1697.77
360.20	1626.09
360.41	1701.86
360.62	1755.11
360.83	1755.11
361.04	1626.09
361.25	1660.90
361.46	1728.49
361.67	1718.25
361.88	1845.22
362.09	1685.48
362.30	1714.15
362.51	1665.00
362.72	1732.58
362.93	1859.56
363.14	1701.86
363.35	1744.87
363.56	1687.53
363.78	1751.01
363.99	1773.54
364.20	1755.11
364.41	1685.48
364.62	1816.55
364.83	1738.73
365.04	1665.00
365.25	1687.53
365.46	1828.84
365.67	1611.75
365.88	1644.52
366.09	1601.51
366.30	1695.72
366.51	1697.77
366.72	1701.86
366.93	1689.57
367.14	1673.19
367.35	1834.98
367.56	1689.57
367.77	1810.40
367.98	1656.81
368.18	1697.77
368.39	1679.33
368.60	1652.71
368.81	1734.63
369.02	1652.71
369.23	1708.01
369.44	1583.08
369.65	1703.91
369.86	1718.25
370.07	1689.57
370.28	1669.09
370.49	1710.05
370.70	1705.96
370.91	1656.81
371.12	1708.01
371.33	1796.07
371.54	1718.25
371.75	1800.16
371.96	1570.79
372.17	1679.33
372.38	1736.68
372.59	1697.77
372.80	1640.42
373.01	1718.25
373.22	1779.68
373.43	1753.06
373.64	1615.85
373.85	1720.29
374.06	1794.02
374.26	1791.97
374.47	1673.19
374.68	1763.30
374.89	1753.06
375.10	1710.05
375.31	1757.16
375.52	1708.01
375.73	1691.62
375.94	1675.24
376.15	1830.88
376.36	1714.15
376.57	1699.81
376.78	1705.96
376.99	1742.82
377.20	1783.78
377.40	1681.38
377.61	1886.18
377.82	1695.72
378.03	1777.64
378.24	1771.49
378.45	1773.54
378.66	1738.73
378.87	1634.28
379.08	1570.79
379.29	1705.96
379.50	1779.68
379.71	1724.39
379.91	1738.73
380.12	1695.72
380.33	1722.34
380.54	1693.67
380.75	1738.73
380.96	1712.10
381.17	1757.16
381.38	1728.49
381.59	1757.16
381.80	1689.57
382.00	1755.11
382.21	1667.05
382.42	1834.98
382.63	1837.03
382.84	1802.21
383.05	1714.15
383.26	1759.21
383.47	1722.34
383.68	1705.96
383.88	1826.79
384.09	1718.25
384.30	1857.51
384.51	1710.05
384.72	1648.61
384.93	1665.00
385.14	1689.57
385.35	1689.57
385.55	1656.81
385.76	1794.02
385.97	1660.90
386.18	1624.04
386.39	1673.19
386.60	1660.90
386.81	1669.09
387.02	1615.85
387.22	1687.53
387.43	1738.73
387.64	1804.26
387.85	1853.41
388.06	2211.81
388.27	4327.36
388.48	6956.95
388.68	8419.20
388.89	9799.53
389.10	9846.63
389.31	8707.96
389.52	7763.85
389.73	6786.97
389.93	6311.84
390.14	5994.40
390.35	5154.74
390.56	4642.75
390.77	3876.80
390.98	3119.06
391.18	2582.49
391.39	2066.40
391.60	1873.89
391.81	1824.74
392.02	1728.49
392.23	1884.13
392.43	1714.15
392.64	1828.84
392.85	1714.15
393.06	1775.59
393.27	1736.68
393.47	1628.14
393.68	1703.91
393.89	1738.73
394.10	1794.02
394.31	1669.09
394.52	1636.33
394.72	1630.18
394.93	1783.78
395.14	1656.81
395.35	1761.25
395.56	1617.90
395.76	1677.29
395.97	1777.64
396.18	1839.08
396.39	1890.28
396.60	1933.28
396.80	1908.71
397.01	1857.51
397.22	1716.20
397.43	1886.18
397.64	1796.07
397.84	1828.84
398.05	1849.32
398.26	1732.58
398.47	1697.77
398.67	1771.49
398.88	1703.91
399.09	1824.74
399.30	1691.62
399.51	1720.29
399.71	1642.47
399.92	1695.72
400.13	1763.30
400.34	1660.90
400.54	1759.21
400.75	1804.26
400.96	1708.01
401.17	1753.06
401.37	1777.64
401.58	1748.97
401.79	1740.77
402.00	1861.60
402.21	2035.68
402.41	1951.71
402.62	1972.19
402.83	2004.96
403.04	2015.20
403.24	2009.06
403.45	1826.79
403.66	1861.60
403.87	1912.80
404.07	1927.14
404.28	1914.85
404.49	1810.40
404.70	1761.25
404.90	1767.40
405.11	1738.73
405.32	1740.77
405.52	1656.81
405.73	1712.10
405.94	1677.29
406.15	1812.45
406.35	1806.31
406.56	1761.25
406.77	1701.86
406.98	1740.77
407.18	1628.14
407.39	1757.16
407.60	1656.81
407.80	1712.10
408.01	1751.01
408.22	1736.68
408.43	1667.05
408.63	1658.85
408.84	1734.63
409.05	1683.43
409.25	1619.94
409.46	1593.32
409.67	1720.29
409.88	1681.38
410.08	1724.39
410.29	1681.38
410.50	1695.72
410.70	1763.30
410.91	1601.51
411.12	1722.34
411.32	1712.10
411.53	1736.68
411.74	1714.15
411.95	1763.30
412.15	1738.73
412.36	1798.12
412.57	1736.68
412.77	1820.64
412.98	1685.48
413.19	1742.82
413.39	1722.34
413.60	1777.64
413.81	1800.16
414.01	1652.71
414.22	1755.11
414.43	1759.21
414.63	1673.19
414.84	1787.88
415.05	1746.92
415.25	1632.23
415.46	1720.29
415.67	1697.77
415.87	1708.01
416.08	1689.57
416.29	1714.15
416.49	1705.96
416.70	1671.14
416.91	1665.00
417.11	1724.39
417.32	1697.77
417.53	1683.43
417.73	1757.16
417.94	1730.53
418.15	1718.25
418.35	1746.92
418.56	1705.96
418.77	1822.69
418.97	1712.10
419.18	1697.77
419.38	1632.23
419.59	1652.71
419.80	1798.12
420.00	1669.09
420.21	1712.10
420.42	1744.87
420.62	1687.53
420.83	1656.81
421.04	1681.38
421.24	1699.81
421.45	1837.03
421.65	1740.77
421.86	1712.10
422.07	1746.92
422.27	1677.29
422.48	1669.09
422.69	1671.14
422.89	1699.81
423.10	1726.44
423.30	1665.00
423.51	1701.86
423.72	1791.97
423.92	1800.16
424.13	1621.99
424.33	1652.71
424.54	1818.60
424.75	1677.29
424.95	1816.55
425.16	1732.58
425.36	1722.34
425.57	1818.60
425.78	1755.11
425.98	1740.77
426.19	1677.29
426.39	1624.04
426.60	1781.73
426.81	1847.27
427.01	1675.24
427.22	1636.33
427.42	1656.81
427.63	1652.71
427.83	1703.91
428.04	1851.36
428.25	1791.97
428.45	1732.58
428.66	1787.88
428.86	1665.00
429.07	1726.44
429.28	1673.19
429.48	1728.49
429.69	1687.53
429.89	1783.78
430.10	1697.77
430.30	1703.91
430.51	1775.59
430.71	1632.23
430.92	1681.38
431.13	1701.86
431.33	1785.83
431.54	1732.58
431.74	1843.17
431.95	1779.68
432.15	1693.67
432.36	1697.77
432.56	1771.49
432.77	1857.51
432.98	1738.73
433.18	1757.16
433.39	1714.15
433.59	1685.48
433.80	1822.69
434.00	1839.08
434.21	1638.38
434.41	1669.09
434.62	1865.70
434.82	1679.33
435.03	1665.00
435.23	1789.92
435.44	1650.66
435.64	1730.53
435.85	1849.32
436.06	1681.38
436.26	1912.80
436.47	1718.25
436.67	1658.85
436.88	1765.35
437.08	1697.77
437.29	1808.36
437.49	1744.87
437.70	1734.63
437.90	1763.30
438.11	1898.47
438.31	1880.04
438.52	1841.12
438.72	1839.08
438.93	1972.19
439.13	1769.44
439.34	1877.99
439.54	1755.11
439.75	1761.25
439.95	1789.92
440.16	1724.39
440.36	1828.84
440.57	1730.53
440.77	1693.67
440.98	1734.63
441.18	1734.63
441.39	1689.57
441.59	1665.00
441.80	1806.31
442.00	1710.05
442.21	1779.68
442.41	1648.61
442.62	1789.92
442.82	1695.72
443.02	1710.05
443.23	1728.49
443.43	1640.42
443.64	1884.13
443.84	1697.77
444.05	1759.21
444.25	1695.72
444.46	1683.43
444.66	1744.87
444.87	1761.25
445.07	1638.38
445.28	1675.24
445.48	1810.40
445.69	1783.78
445.89	1796.07
446.09	1779.68
446.30	2076.64
446.50	2650.07
446.71	3753.93
446.91	4466.62
447.12	4806.58
447.32	4798.39
447.53	4284.35
447.73	3979.20
447.93	3528.65
448.14	3237.84
448.34	3286.99
448.55	2947.03
448.75	2887.64
448.96	2721.75
449.16	2344.92
449.36	2312.16
449.57	2009.06
449.77	1892.32
449.98	1814.50
450.18	1847.27
450.39	1814.50
450.59	1724.39
450.79	1705.96
451.00	1746.92
451.20	1740.77
451.41	1673.19
451.61	1716.20
451.81	1716.20
452.02	1779.68
452.22	1779.68
452.43	1761.25
452.63	1701.86
