SpectraSuite Data File
++++++++++++++++++++++++++++++++++++
Date: Mon Jun 06 12:52:17 CEST 2016
User: root
Dark Spectrum Present: No
Reference Spectrum Present: No
Number of Sampled Component Spectra: 1
Spectrometers: USB4C02835
Integration Time (usec): 100000 (USB4C02835)
Spectra Averaged: 1 (USB4C02835)
Boxcar Smoothing: 0 (USB4C02835)
Correct for Electrical Dark: No (USB4C02835)
Strobe/Lamp Enabled: No (USB4C02835)
Correct for Detector Non-linearity: No (USB4C02835)
Correct for Stray Light: No (USB4C02835)
Number of Pixels in Processed Spectrum: 3648
>>>>>Begin Processed Spectral Data<<<<<
177.47	1503.21
177.69	1503.21
177.91	1503.21
178.13	1460.20
178.36	1445.87
178.58	1652.71
178.80	1744.87
179.02	1705.96
179.24	1597.42
179.46	1697.77
179.68	1683.43
179.90	1669.09
180.13	1679.33
180.35	1660.90
180.57	1730.53
180.79	1755.11
181.01	1755.11
181.23	1789.92
181.45	1806.31
181.67	1716.20
181.90	1761.25
182.12	1638.38
182.34	1693.67
182.56	1802.21
182.78	1679.33
183.00	1699.81
183.22	1689.57
183.44	1640.42
183.66	1808.36
183.89	1742.82
184.11	1759.21
184.33	1746.92
184.55	1800.16
184.77	1677.29
184.99	1703.91
185.21	1710.05
185.43	1804.26
185.65	1697.77
185.87	1728.49
186.10	1777.64
186.32	1824.74
186.54	1701.86
186.76	1742.82
186.98	1740.77
187.20	1724.39
187.42	1691.62
187.64	1693.67
187.86	1734.63
188.08	1755.11
188.30	1601.51
188.52	1669.09
188.75	1773.54
188.97	1796.07
189.19	1650.66
189.41	1689.57
189.63	1718.25
189.85	1673.19
190.07	1662.95
190.29	1650.66
190.51	1726.44
190.73	1591.27
190.95	1824.74
191.17	1681.38
191.39	1652.71
191.61	1685.48
191.84	1705.96
192.06	1736.68
192.28	1632.23
192.50	1845.22
192.72	1779.68
192.94	1736.68
193.16	1808.36
193.38	1656.81
193.60	1615.85
193.82	1669.09
194.04	1783.78
194.26	1689.57
194.48	1710.05
194.70	1701.86
194.92	1685.48
195.14	1734.63
195.36	1652.71
195.58	1693.67
195.80	1720.29
196.02	1714.15
196.24	1708.01
196.46	1683.43
196.69	1585.13
196.91	1859.56
197.13	1617.90
197.35	1691.62
197.57	1802.21
197.79	1740.77
198.01	1656.81
198.23	1665.00
198.45	1724.39
198.67	1681.38
198.89	1705.96
199.11	1730.53
199.33	1705.96
199.55	1593.32
199.77	1675.24
199.99	1832.93
200.21	1609.70
200.43	1673.19
200.65	1595.37
200.87	1609.70
201.09	1726.44
201.31	1681.38
201.53	1689.57
201.75	1724.39
201.97	1716.20
202.19	1718.25
202.41	1730.53
202.63	1851.36
202.85	1818.60
203.07	1699.81
203.29	1658.85
203.51	1708.01
203.73	1703.91
203.95	1826.79
204.17	1703.91
204.39	1728.49
204.61	1742.82
204.83	1771.49
205.05	1728.49
205.27	1681.38
205.49	1736.68
205.71	1728.49
205.93	1691.62
206.15	1671.14
206.37	1718.25
206.59	1681.38
206.81	1587.18
207.03	1585.13
207.25	1626.09
207.47	1785.83
207.69	1726.44
207.91	1718.25
208.13	1712.10
208.34	1685.48
208.56	1705.96
208.78	1654.76
209.00	1720.29
209.22	1681.38
209.44	1681.38
209.66	1615.85
209.88	1748.97
210.10	1730.53
210.32	1685.48
210.54	1765.35
210.76	1689.57
210.98	1785.83
211.20	1632.23
211.42	1771.49
211.64	1775.59
211.86	1753.06
212.08	1796.07
212.30	1654.76
212.52	1656.81
212.74	1667.05
212.96	1730.53
213.17	1701.86
213.39	1705.96
213.61	1775.59
213.83	1689.57
214.05	1640.42
214.27	1734.63
214.49	1630.18
214.71	1671.14
214.93	1759.21
215.15	1767.40
215.37	1740.77
215.59	1603.56
215.81	1777.64
216.03	1767.40
216.24	1742.82
216.46	1628.14
216.68	1726.44
216.90	1738.73
217.12	1773.54
217.34	1701.86
217.56	1650.66
217.78	1818.60
218.00	1744.87
218.22	1697.77
218.44	1761.25
218.66	1728.49
218.87	1757.16
219.09	1685.48
219.31	1705.96
219.53	1617.90
219.75	1636.33
219.97	1683.43
220.19	1751.01
220.41	1726.44
220.63	1636.33
220.85	1716.20
221.06	1720.29
221.28	1810.40
221.50	1746.92
221.72	1685.48
221.94	1699.81
222.16	1673.19
222.38	1746.92
222.60	1783.78
222.82	1677.29
223.03	1724.39
223.25	1632.23
223.47	1728.49
223.69	1798.12
223.91	1757.16
224.13	1705.96
224.35	1640.42
224.57	1675.24
224.78	1699.81
225.00	1583.08
225.22	1656.81
225.44	1710.05
225.66	1689.57
225.88	1681.38
226.10	1736.68
226.32	1642.47
226.53	1814.50
226.75	1660.90
226.97	1671.14
227.19	1783.78
227.41	1642.47
227.63	1640.42
227.85	1546.22
228.06	1753.06
228.28	1718.25
228.50	1783.78
228.72	1654.76
228.94	1654.76
229.16	1679.33
229.37	1662.95
229.59	1665.00
229.81	1753.06
230.03	1630.18
230.25	1578.98
230.47	1640.42
230.69	1558.50
230.90	1675.24
231.12	1667.05
231.34	1748.97
231.56	1726.44
231.78	1613.80
232.00	1742.82
232.21	1697.77
232.43	1630.18
232.65	1587.18
232.87	1773.54
233.09	1683.43
233.30	1665.00
233.52	1669.09
233.74	1746.92
233.96	1658.85
234.18	1683.43
234.40	1740.77
234.61	1796.07
234.83	1605.61
235.05	1660.90
235.27	1822.69
235.49	1832.93
235.70	1736.68
235.92	1820.64
236.14	1650.66
236.36	1777.64
236.58	1640.42
236.79	1779.68
237.01	1679.33
237.23	1748.97
237.45	1820.64
237.67	1695.72
237.88	1763.30
238.10	1753.06
238.32	1681.38
238.54	1712.10
238.76	1681.38
238.97	1660.90
239.19	1642.47
239.41	1728.49
239.63	1771.49
239.85	1681.38
240.06	1714.15
240.28	1740.77
240.50	1757.16
240.72	1738.73
240.93	1665.00
241.15	1767.40
241.37	1687.53
241.59	1808.36
241.81	1658.85
242.02	1658.85
242.24	1699.81
242.46	1746.92
242.68	1675.24
242.89	1718.25
243.11	1728.49
243.33	1742.82
243.55	1716.20
243.76	1816.55
243.98	1646.57
244.20	1615.85
244.42	1693.67
244.64	1665.00
244.85	1646.57
245.07	1626.09
245.29	1748.97
245.51	1751.01
245.72	1689.57
245.94	1751.01
246.16	1679.33
246.38	1767.40
246.59	1689.57
246.81	1697.77
247.03	1681.38
247.24	1660.90
247.46	1665.00
247.68	1722.34
247.90	1691.62
248.11	1701.86
248.33	1757.16
248.55	1611.75
248.77	1689.57
248.98	1740.77
249.20	1800.16
249.42	1699.81
249.64	1701.86
249.85	1667.05
250.07	1624.04
250.29	1777.64
250.50	1736.68
250.72	1671.14
250.94	1779.68
251.16	1806.31
251.37	1722.34
251.59	1734.63
251.81	1757.16
252.02	1763.30
252.24	1675.24
252.46	1716.20
252.68	1644.52
252.89	1697.77
253.11	1705.96
253.33	1820.64
253.54	1722.34
253.76	1650.66
253.98	1677.29
254.20	1703.91
254.41	1624.04
254.63	1746.92
254.85	1636.33
255.06	1662.95
255.28	1662.95
255.50	1685.48
255.71	1687.53
255.93	1581.03
256.15	1662.95
256.36	1689.57
256.58	1646.57
256.80	1667.05
257.02	1703.91
257.23	1751.01
257.45	1654.76
257.67	1765.35
257.88	1697.77
258.10	1789.92
258.32	1691.62
258.53	1748.97
258.75	1783.78
258.97	1617.90
259.18	1748.97
259.40	1732.58
259.62	1781.73
259.83	1748.97
260.05	1718.25
260.27	2011.11
260.48	1767.40
260.70	1673.19
260.92	1689.57
261.13	1763.30
261.35	1722.34
261.57	1724.39
261.78	1599.46
262.00	1640.42
262.22	1697.77
262.43	1652.71
262.65	1681.38
262.86	1783.78
263.08	1802.21
263.30	1753.06
263.51	1634.28
263.73	1720.29
263.95	1796.07
264.16	1667.05
264.38	1644.52
264.60	1720.29
264.81	1669.09
265.03	1746.92
265.25	1708.01
265.46	1740.77
265.68	1736.68
265.89	1685.48
266.11	1619.94
266.33	1691.62
266.54	1691.62
266.76	1783.78
266.98	1662.95
267.19	1812.45
267.41	1779.68
267.62	1767.40
267.84	1685.48
268.06	1730.53
268.27	1718.25
268.49	1816.55
268.70	1744.87
268.92	1656.81
269.14	1611.75
269.35	1683.43
269.57	1695.72
269.79	1734.63
270.00	1705.96
270.22	1873.89
270.43	1636.33
270.65	1626.09
270.87	1740.77
271.08	1720.29
271.30	1714.15
271.51	1665.00
271.73	1683.43
271.95	1843.17
272.16	1705.96
272.38	1791.97
272.59	1636.33
272.81	1724.39
273.02	1755.11
273.24	1826.79
273.46	1755.11
273.67	1552.36
273.89	1718.25
274.10	1587.18
274.32	1693.67
274.54	1738.73
274.75	1703.91
274.97	1658.85
275.18	1746.92
275.40	1681.38
275.61	1767.40
275.83	1667.05
276.05	1591.27
276.26	1703.91
276.48	1769.44
276.69	1665.00
276.91	1677.29
277.12	1671.14
277.34	1683.43
277.55	1755.11
277.77	1695.72
277.99	1703.91
278.20	1640.42
278.42	1626.09
278.63	1617.90
278.85	1656.81
279.06	1654.76
279.28	1667.05
279.49	1724.39
279.71	1697.77
279.93	1744.87
280.14	1673.19
280.36	1691.62
280.57	1720.29
280.79	1816.55
281.00	1656.81
281.22	1660.90
281.43	1822.69
281.65	1626.09
281.86	1628.14
282.08	1703.91
282.29	1775.59
282.51	1644.52
282.73	1671.14
282.94	1611.75
283.16	1765.35
283.37	1857.51
283.59	1746.92
283.80	1742.82
284.02	1638.38
284.23	1714.15
284.45	1685.48
284.66	1617.90
284.88	1695.72
285.09	1671.14
285.31	1705.96
285.52	1736.68
285.74	1599.46
285.95	1699.81
286.17	1767.40
286.38	1802.21
286.60	1703.91
286.81	1673.19
287.03	1630.18
287.24	1669.09
287.46	1800.16
287.67	1728.49
287.89	1814.50
288.10	1650.66
288.32	1728.49
288.53	1767.40
288.75	1718.25
288.96	1714.15
289.18	1640.42
289.39	1773.54
289.61	1738.73
289.82	1816.55
290.04	1816.55
290.25	1621.99
290.47	1714.15
290.68	1640.42
290.90	1763.30
291.11	1646.57
291.33	1712.10
291.54	1599.46
291.76	1708.01
291.97	1781.73
292.18	1755.11
292.40	1673.19
292.61	1665.00
292.83	1769.44
293.04	1769.44
293.26	1722.34
293.47	1671.14
293.69	1722.34
293.90	1732.58
294.12	1779.68
294.33	1736.68
294.55	1665.00
294.76	1732.58
294.97	1773.54
295.19	1765.35
295.40	1658.85
295.62	1771.49
295.83	1767.40
296.05	1660.90
296.26	1705.96
296.48	1640.42
296.69	1693.67
296.90	1740.77
297.12	1732.58
297.33	1808.36
297.55	1669.09
297.76	1726.44
297.98	1636.33
298.19	1665.00
298.41	1695.72
298.62	1656.81
298.83	1822.69
299.05	1681.38
299.26	1662.95
299.48	1669.09
299.69	1695.72
299.90	1796.07
300.12	1601.51
300.33	1777.64
300.55	1673.19
300.76	1683.43
300.98	1615.85
301.19	1759.21
301.40	1701.86
301.62	1595.37
301.83	1839.08
302.05	1708.01
302.26	1757.16
302.47	1695.72
302.69	1574.89
302.90	1730.53
303.12	1632.23
303.33	1736.68
303.54	1820.64
303.76	1691.62
303.97	1720.29
304.19	1783.78
304.40	1628.14
304.61	1759.21
304.83	1718.25
305.04	1763.30
305.26	1783.78
305.47	1640.42
305.68	1644.52
305.90	1615.85
306.11	1720.29
306.33	1656.81
306.54	1673.19
306.75	1683.43
306.97	1640.42
307.18	1665.00
307.39	1689.57
307.61	1726.44
307.82	1648.61
308.04	1787.88
308.25	1693.67
308.46	1708.01
308.68	1638.38
308.89	1677.29
309.10	1724.39
309.32	1771.49
309.53	1689.57
309.74	1742.82
309.96	1681.38
310.17	1763.30
310.39	1714.15
310.60	1751.01
310.81	1718.25
311.03	1685.48
311.24	1660.90
311.45	1673.19
311.67	1804.26
311.88	1714.15
312.09	1624.04
312.31	1640.42
312.52	1769.44
312.73	1679.33
312.95	1763.30
313.16	1699.81
313.37	1787.88
313.59	1783.78
313.80	1798.12
314.01	1738.73
314.23	1708.01
314.44	1632.23
314.65	1644.52
314.87	1626.09
315.08	1648.61
315.29	1720.29
315.51	1615.85
315.72	1601.51
315.93	1853.41
316.15	1724.39
316.36	1636.33
316.57	1689.57
316.79	1609.70
317.00	1710.05
317.21	1742.82
317.43	1601.51
317.64	1660.90
317.85	1685.48
318.07	1689.57
318.28	1744.87
318.49	1818.60
318.70	1904.61
318.92	1787.88
319.13	1820.64
319.34	1830.88
319.56	1818.60
319.77	1708.01
319.98	1712.10
320.20	1832.93
320.41	1814.50
320.62	1791.97
320.83	1705.96
321.05	1857.51
321.26	1755.11
321.47	1677.29
321.69	1779.68
321.90	1691.62
322.11	1660.90
322.32	1642.47
322.54	1742.82
322.75	1722.34
322.96	1851.36
323.18	1607.66
323.39	1548.26
323.60	1691.62
323.81	1714.15
324.03	1648.61
324.24	1703.91
324.45	1708.01
324.66	1687.53
324.88	1636.33
325.09	1789.92
325.30	1695.72
325.52	1738.73
325.73	1695.72
325.94	1660.90
326.15	1615.85
326.37	1699.81
326.58	1722.34
326.79	1712.10
327.00	1705.96
327.22	1689.57
327.43	1609.70
327.64	1673.19
327.85	1638.38
328.07	1710.05
328.28	1830.88
328.49	1632.23
328.70	1652.71
328.92	1705.96
329.13	1626.09
329.34	1773.54
329.55	1810.40
329.76	1720.29
329.98	1652.71
330.19	1791.97
330.40	1738.73
330.61	1679.33
330.83	1783.78
331.04	1667.05
331.25	1751.01
331.46	1716.20
331.68	1624.04
331.89	1798.12
332.10	1705.96
332.31	1572.84
332.52	1611.75
332.74	1767.40
332.95	1605.61
333.16	1726.44
333.37	1775.59
333.58	1667.05
333.80	1687.53
334.01	1693.67
334.22	1648.61
334.43	1695.72
334.64	1724.39
334.86	1570.79
335.07	1705.96
335.28	1732.58
335.49	1669.09
335.70	1736.68
335.92	1742.82
336.13	1861.60
336.34	1751.01
336.55	1689.57
336.76	1634.28
336.98	1621.99
337.19	1734.63
337.40	1804.26
337.61	1849.32
337.82	1613.80
338.04	1806.31
338.25	1605.61
338.46	1597.42
338.67	1705.96
338.88	1642.47
339.09	1646.57
339.31	1624.04
339.52	1615.85
339.73	1671.14
339.94	1691.62
340.15	1675.24
340.36	1681.38
340.58	1712.10
340.79	1665.00
341.00	1658.85
341.21	1617.90
341.42	1773.54
341.63	1652.71
341.85	1705.96
342.06	1720.29
342.27	1626.09
342.48	1671.14
342.69	1632.23
342.90	1730.53
343.12	1685.48
343.33	1738.73
343.54	1744.87
343.75	1783.78
343.96	1644.52
344.17	1599.46
344.38	1644.52
344.60	1687.53
344.81	1656.81
345.02	1665.00
345.23	1812.45
345.44	1787.88
345.65	1662.95
345.86	1753.06
346.07	1722.34
346.29	1652.71
346.50	1683.43
346.71	1744.87
346.92	1796.07
347.13	1830.88
347.34	1724.39
347.55	1673.19
347.76	1740.77
347.98	1611.75
348.19	1613.80
348.40	1740.77
348.61	1677.29
348.82	1837.03
349.03	1746.92
349.24	1673.19
349.45	1759.21
349.66	1591.27
349.88	1751.01
350.09	1722.34
350.30	1746.92
350.51	1726.44
350.72	1742.82
350.93	1730.53
351.14	1675.24
351.35	1708.01
351.56	1667.05
351.77	1765.35
351.99	1650.66
352.20	1787.88
352.41	1710.05
352.62	1585.13
352.83	1691.62
353.04	1701.86
353.25	1695.72
353.46	1783.78
353.67	1777.64
353.88	1593.32
354.09	1693.67
354.30	1605.61
354.52	1695.72
354.73	1699.81
354.94	1669.09
355.15	1726.44
355.36	1791.97
355.57	1675.24
355.78	1728.49
355.99	1683.43
356.20	1648.61
356.41	1761.25
356.62	1722.34
356.83	1716.20
357.04	1855.46
357.25	1587.18
357.46	1748.97
357.68	1591.27
357.89	1595.37
358.10	1681.38
358.31	1695.72
358.52	1714.15
358.73	1585.13
358.94	1617.90
359.15	1703.91
359.36	1705.96
359.57	1662.95
359.78	1683.43
359.99	1736.68
360.20	1589.22
360.41	1720.29
360.62	1697.77
360.83	1710.05
361.04	1662.95
361.25	1673.19
361.46	1828.84
361.67	1701.86
361.88	1808.36
362.09	1738.73
362.30	1722.34
362.51	1677.29
362.72	1740.77
362.93	1765.35
363.14	1742.82
363.35	1751.01
363.56	1691.62
363.78	1763.30
363.99	1751.01
364.20	1681.38
364.41	1726.44
364.62	1822.69
364.83	1697.77
365.04	1734.63
365.25	1771.49
365.46	1904.61
365.67	1654.76
365.88	1677.29
366.09	1740.77
366.30	1720.29
366.51	1697.77
366.72	1605.61
366.93	1697.77
367.14	1730.53
367.35	1726.44
367.56	1734.63
367.77	1783.78
367.98	1701.86
368.18	1681.38
368.39	1658.85
368.60	1597.42
368.81	1742.82
369.02	1730.53
369.23	1691.62
369.44	1628.14
369.65	1697.77
369.86	1757.16
370.07	1746.92
370.28	1615.85
370.49	1726.44
370.70	1726.44
370.91	1605.61
371.12	1652.71
371.33	1738.73
371.54	1718.25
371.75	1816.55
371.96	1624.04
372.17	1757.16
372.38	1658.85
372.59	1710.05
372.80	1646.57
373.01	1708.01
373.22	1728.49
373.43	1724.39
373.64	1617.90
373.85	1779.68
374.06	1771.49
374.26	1839.08
374.47	1755.11
374.68	1853.41
374.89	1789.92
375.10	1708.01
375.31	1712.10
375.52	1765.35
375.73	1730.53
375.94	1595.37
376.15	1808.36
376.36	1689.57
376.57	1652.71
376.78	1695.72
376.99	1718.25
377.20	1710.05
377.40	1679.33
377.61	1789.92
377.82	1624.04
378.03	1751.01
378.24	1751.01
378.45	1693.67
378.66	1789.92
378.87	1677.29
379.08	1759.21
379.29	1718.25
379.50	1830.88
379.71	1669.09
379.91	1757.16
380.12	1718.25
380.33	1783.78
380.54	1708.01
380.75	1703.91
380.96	1691.62
381.17	1755.11
381.38	1695.72
381.59	1730.53
381.80	1708.01
382.00	1822.69
382.21	1720.29
382.42	1802.21
382.63	1871.84
382.84	1800.16
383.05	1791.97
383.26	1777.64
383.47	1755.11
383.68	1761.25
383.88	1757.16
384.09	1746.92
384.30	1820.64
384.51	1650.66
384.72	1626.09
384.93	1732.58
385.14	1665.00
385.35	1742.82
385.55	1665.00
385.76	1796.07
385.97	1699.81
386.18	1566.70
386.39	1671.14
386.60	1687.53
386.81	1714.15
387.02	1644.52
387.22	1673.19
387.43	1742.82
387.64	1757.16
387.85	1822.69
388.06	2271.20
388.27	4288.45
388.48	6848.41
388.68	8224.64
388.89	9652.08
389.10	9983.85
389.31	8642.43
389.52	7690.12
389.73	6711.19
389.93	6334.37
390.14	5830.57
390.35	5259.18
390.56	4640.70
390.77	3880.90
390.98	2987.99
391.18	2500.57
391.39	2093.02
391.60	1875.94
391.81	1740.77
392.02	1685.48
392.23	1818.60
392.43	1722.34
392.64	1710.05
392.85	1718.25
393.06	1794.02
393.27	1675.24
393.47	1697.77
393.68	1669.09
393.89	1654.76
394.10	1785.83
394.31	1691.62
394.52	1685.48
394.72	1738.73
394.93	1748.97
395.14	1587.18
395.35	1800.16
395.56	1667.05
395.76	1767.40
395.97	1845.22
396.18	1832.93
396.39	1837.03
396.60	1980.39
396.80	1851.36
397.01	1873.89
397.22	1849.32
397.43	1857.51
397.64	1718.25
397.84	1791.97
398.05	1882.08
398.26	1763.30
398.47	1769.44
398.67	1830.88
398.88	1775.59
399.09	1730.53
399.30	1689.57
399.51	1689.57
399.71	1677.29
399.92	1728.49
400.13	1701.86
400.34	1705.96
400.54	1636.33
400.75	1751.01
400.96	1703.91
401.17	1822.69
401.37	1798.12
401.58	1730.53
401.79	1669.09
402.00	1875.94
402.21	1970.15
402.41	1945.57
402.62	1984.48
402.83	2015.20
403.04	1941.47
403.24	2160.61
403.45	1820.64
403.66	1886.18
403.87	1867.75
404.07	1865.70
404.28	1937.38
404.49	1949.67
404.70	1810.40
404.90	1798.12
405.11	1730.53
405.32	1740.77
405.52	1617.90
405.73	1728.49
405.94	1667.05
406.15	1697.77
406.35	1677.29
406.56	1796.07
406.77	1773.54
406.98	1783.78
407.18	1644.52
407.39	1738.73
407.60	1691.62
407.80	1724.39
408.01	1662.95
408.22	1714.15
408.43	1687.53
408.63	1773.54
408.84	1701.86
409.05	1816.55
409.25	1638.38
409.46	1658.85
409.67	1699.81
409.88	1626.09
410.08	1732.58
410.29	1673.19
410.50	1773.54
410.70	1691.62
410.91	1597.42
411.12	1734.63
411.32	1722.34
411.53	1751.01
411.74	1800.16
411.95	1695.72
412.15	1789.92
412.36	1716.20
412.57	1736.68
412.77	1785.83
412.98	1716.20
413.19	1712.10
413.39	1736.68
413.60	1726.44
413.81	1765.35
414.01	1632.23
414.22	1734.63
414.43	1732.58
414.63	1679.33
414.84	1765.35
415.05	1755.11
415.25	1708.01
415.46	1791.97
415.67	1638.38
415.87	1679.33
416.08	1658.85
416.29	1716.20
416.49	1730.53
416.70	1683.43
416.91	1662.95
417.11	1636.33
417.32	1759.21
417.53	1691.62
417.73	1742.82
417.94	1705.96
418.15	1744.87
418.35	1632.23
418.56	1703.91
418.77	1873.89
418.97	1656.81
419.18	1650.66
419.38	1615.85
419.59	1718.25
419.80	1746.92
420.00	1722.34
420.21	1703.91
420.42	1789.92
420.62	1615.85
420.83	1681.38
421.04	1708.01
421.24	1681.38
421.45	1734.63
421.65	1765.35
421.86	1683.43
422.07	1767.40
422.27	1718.25
422.48	1695.72
422.69	1667.05
422.89	1712.10
423.10	1730.53
423.30	1665.00
423.51	1769.44
423.72	1736.68
423.92	1771.49
424.13	1591.27
424.33	1726.44
424.54	1794.02
424.75	1714.15
424.95	1777.64
425.16	1722.34
425.36	1607.66
425.57	1689.57
425.78	1753.06
425.98	1722.34
426.19	1632.23
426.39	1699.81
426.60	1693.67
426.81	1746.92
427.01	1708.01
427.22	1681.38
427.42	1578.98
427.63	1689.57
427.83	1794.02
428.04	1746.92
428.25	1808.36
428.45	1779.68
428.66	1828.84
428.86	1742.82
429.07	1718.25
429.28	1761.25
429.48	1771.49
429.69	1673.19
429.89	1695.72
430.10	1652.71
430.30	1787.88
430.51	1769.44
430.71	1650.66
430.92	1755.11
431.13	1677.29
431.33	1748.97
431.54	1759.21
431.74	1800.16
431.95	1867.75
432.15	1624.04
432.36	1718.25
432.56	1777.64
432.77	1689.57
432.98	1787.88
433.18	1759.21
433.39	1687.53
433.59	1624.04
433.80	1822.69
434.00	1785.83
434.21	1662.95
434.41	1703.91
434.62	1855.46
434.82	1701.86
435.03	1675.24
435.23	1662.95
435.44	1626.09
435.64	1693.67
435.85	1648.61
436.06	1681.38
436.26	1773.54
436.47	1671.14
436.67	1689.57
436.88	1630.18
437.08	1705.96
437.29	1746.92
437.49	1751.01
437.70	1728.49
437.90	1697.77
438.11	1808.36
438.31	1697.77
438.52	1859.56
438.72	1822.69
438.93	1923.04
439.13	1804.26
439.34	1859.56
439.54	1726.44
439.75	1837.03
439.95	1736.68
440.16	1699.81
440.36	1759.21
440.57	1705.96
440.77	1798.12
440.98	1740.77
441.18	1796.07
441.39	1714.15
441.59	1632.23
441.80	1767.40
442.00	1748.97
442.21	1806.31
442.41	1671.14
442.62	1789.92
442.82	1767.40
443.02	1763.30
443.23	1714.15
443.43	1689.57
443.64	1738.73
443.84	1695.72
444.05	1796.07
444.25	1716.20
444.46	1675.24
444.66	1701.86
444.87	1759.21
445.07	1681.38
445.28	1787.88
445.48	1837.03
445.69	1789.92
445.89	1830.88
446.09	1681.38
446.30	2009.06
446.50	2617.30
446.71	3807.17
446.91	4274.11
447.12	4863.93
447.32	4798.39
447.53	4286.40
447.73	3715.02
447.93	3571.66
448.14	3211.22
448.34	3209.17
448.55	2955.22
448.75	2854.87
448.96	2662.36
449.16	2471.90
449.36	2281.44
449.57	2119.65
449.77	1867.75
449.98	1808.36
450.18	1880.04
450.39	1802.21
450.59	1738.73
450.79	1703.91
451.00	1634.28
451.20	1796.07
451.41	1701.86
451.61	1777.64
451.81	1734.63
452.02	1761.25
452.22	1718.25
452.43	1626.09
452.63	1699.81
