SpectraSuite Data File
++++++++++++++++++++++++++++++++++++
Date: Mon Jun 06 15:02:37 CEST 2016
User: root
Dark Spectrum Present: No
Reference Spectrum Present: No
Number of Sampled Component Spectra: 1
Spectrometers: USB4C02835
Integration Time (usec): 100000 (USB4C02835)
Spectra Averaged: 1 (USB4C02835)
Boxcar Smoothing: 0 (USB4C02835)
Correct for Electrical Dark: No (USB4C02835)
Strobe/Lamp Enabled: No (USB4C02835)
Correct for Detector Non-linearity: No (USB4C02835)
Correct for Stray Light: No (USB4C02835)
Number of Pixels in Processed Spectrum: 3648
>>>>>Begin Processed Spectral Data<<<<<
177.47	1495.02
177.69	1495.02
177.91	1495.02
178.13	1478.63
178.36	1456.11
178.58	1697.77
178.80	1699.81
179.02	1628.14
179.24	1632.23
179.46	1654.76
179.68	1716.20
179.90	1644.52
180.13	1687.53
180.35	1665.00
180.57	1699.81
180.79	1701.86
181.01	1630.18
181.23	1777.64
181.45	1736.68
181.67	1728.49
181.90	1673.19
182.12	1578.98
182.34	1601.51
182.56	1687.53
182.78	1695.72
183.00	1718.25
183.22	1728.49
183.44	1619.94
183.66	1888.23
183.89	1787.88
184.11	1738.73
184.33	1662.95
184.55	1744.87
184.77	1740.77
184.99	1726.44
185.21	1652.71
185.43	1839.08
185.65	1634.28
185.87	1738.73
186.10	1867.75
186.32	1873.89
186.54	1783.78
186.76	1665.00
186.98	1861.60
187.20	1732.58
187.42	1746.92
187.64	1691.62
187.86	1755.11
188.08	1697.77
188.30	1763.30
188.52	1636.33
188.75	1767.40
188.97	1718.25
189.19	1720.29
189.41	1615.85
189.63	1724.39
189.85	1714.15
190.07	1578.98
190.29	1650.66
190.51	1687.53
190.73	1613.80
190.95	1767.40
191.17	1705.96
191.39	1591.27
191.61	1705.96
191.84	1638.38
192.06	1718.25
192.28	1613.80
192.50	1822.69
192.72	1675.24
192.94	1685.48
193.16	1806.31
193.38	1726.44
193.60	1648.61
193.82	1703.91
194.04	1769.44
194.26	1685.48
194.48	1699.81
194.70	1705.96
194.92	1630.18
195.14	1740.77
195.36	1646.57
195.58	1705.96
195.80	1654.76
196.02	1630.18
196.24	1703.91
196.46	1791.97
196.69	1665.00
196.91	1863.65
197.13	1665.00
197.35	1662.95
197.57	1705.96
197.79	1714.15
198.01	1691.62
198.23	1665.00
198.45	1710.05
198.67	1681.38
198.89	1648.61
199.11	1759.21
199.33	1681.38
199.55	1552.36
199.77	1683.43
199.99	1751.01
200.21	1646.57
200.43	1767.40
200.65	1624.04
200.87	1587.18
201.09	1646.57
201.31	1681.38
201.53	1705.96
201.75	1726.44
201.97	1685.48
202.19	1722.34
202.41	1685.48
202.63	1869.80
202.85	1689.57
203.07	1699.81
203.29	1660.90
203.51	1632.23
203.73	1662.95
203.95	1830.88
204.17	1759.21
204.39	1802.21
204.61	1699.81
204.83	1705.96
205.05	1685.48
205.27	1736.68
205.49	1806.31
205.71	1665.00
205.93	1693.67
206.15	1681.38
206.37	1751.01
206.59	1693.67
206.81	1642.47
207.03	1656.81
207.25	1675.24
207.47	1724.39
207.69	1710.05
207.91	1777.64
208.13	1814.50
208.34	1689.57
208.56	1654.76
208.78	1722.34
209.00	1617.90
209.22	1695.72
209.44	1671.14
209.66	1667.05
209.88	1718.25
210.10	1701.86
210.32	1644.52
210.54	1812.45
210.76	1734.63
210.98	1738.73
211.20	1630.18
211.42	1730.53
211.64	1744.87
211.86	1742.82
212.08	1736.68
212.30	1650.66
212.52	1669.09
212.74	1691.62
212.96	1738.73
213.17	1785.83
213.39	1677.29
213.61	1765.35
213.83	1595.37
214.05	1675.24
214.27	1718.25
214.49	1693.67
214.71	1724.39
214.93	1802.21
215.15	1724.39
215.37	1753.06
215.59	1634.28
215.81	1810.40
216.03	1724.39
216.24	1646.57
216.46	1671.14
216.68	1710.05
216.90	1839.08
217.12	1685.48
217.34	1687.53
217.56	1740.77
217.78	1718.25
218.00	1705.96
218.22	1734.63
218.44	1726.44
218.66	1714.15
218.87	1789.92
219.09	1697.77
219.31	1724.39
219.53	1656.81
219.75	1613.80
219.97	1644.52
220.19	1820.64
220.41	1712.10
220.63	1771.49
220.85	1705.96
221.06	1648.61
221.28	1759.21
221.50	1738.73
221.72	1703.91
221.94	1689.57
222.16	1708.01
222.38	1724.39
222.60	1763.30
222.82	1665.00
223.03	1712.10
223.25	1640.42
223.47	1742.82
223.69	1777.64
223.91	1677.29
224.13	1679.33
224.35	1630.18
224.57	1777.64
224.78	1742.82
225.00	1669.09
225.22	1640.42
225.44	1755.11
225.66	1730.53
225.88	1636.33
226.10	1759.21
226.32	1705.96
226.53	1783.78
226.75	1648.61
226.97	1660.90
227.19	1755.11
227.41	1695.72
227.63	1652.71
227.85	1591.27
228.06	1742.82
228.28	1669.09
228.50	1789.92
228.72	1607.66
228.94	1699.81
229.16	1646.57
229.37	1632.23
229.59	1660.90
229.81	1753.06
230.03	1710.05
230.25	1646.57
230.47	1603.56
230.69	1574.89
230.90	1718.25
231.12	1656.81
231.34	1718.25
231.56	1716.20
231.78	1617.90
232.00	1712.10
232.21	1662.95
232.43	1669.09
232.65	1564.65
232.87	1806.31
233.09	1572.84
233.30	1656.81
233.52	1718.25
233.74	1671.14
233.96	1703.91
234.18	1652.71
234.40	1697.77
234.61	1740.77
234.83	1632.23
235.05	1677.29
235.27	1832.93
235.49	1779.68
235.70	1677.29
235.92	1816.55
236.14	1609.70
236.36	1871.84
236.58	1630.18
236.79	1716.20
237.01	1652.71
237.23	1703.91
237.45	1808.36
237.67	1685.48
237.88	1742.82
238.10	1812.45
238.32	1681.38
238.54	1681.38
238.76	1708.01
238.97	1642.47
239.19	1667.05
239.41	1722.34
239.63	1787.88
239.85	1687.53
240.06	1650.66
240.28	1710.05
240.50	1730.53
240.72	1738.73
240.93	1685.48
241.15	1777.64
241.37	1683.43
241.59	1769.44
241.81	1679.33
242.02	1748.97
242.24	1691.62
242.46	1705.96
242.68	1646.57
242.89	1808.36
243.11	1755.11
243.33	1677.29
243.55	1658.85
243.76	1769.44
243.98	1742.82
244.20	1765.35
244.42	1689.57
244.64	1656.81
244.85	1632.23
245.07	1656.81
245.29	1775.59
245.51	1679.33
245.72	1728.49
245.94	1746.92
246.16	1714.15
246.38	1761.25
246.59	1640.42
246.81	1619.94
247.03	1673.19
247.24	1607.66
247.46	1669.09
247.68	1691.62
247.90	1624.04
248.11	1671.14
248.33	1722.34
248.55	1685.48
248.77	1761.25
248.98	1716.20
249.20	1841.12
249.42	1777.64
249.64	1687.53
249.85	1712.10
250.07	1656.81
250.29	1720.29
250.50	1832.93
250.72	1624.04
250.94	1693.67
251.16	1794.02
251.37	1798.12
251.59	1759.21
251.81	1748.97
252.02	1791.97
252.24	1669.09
252.46	1726.44
252.68	1576.94
252.89	1751.01
253.11	1568.74
253.33	1781.73
253.54	1708.01
253.76	1642.47
253.98	1675.24
254.20	1726.44
254.41	1603.56
254.63	1695.72
254.85	1650.66
255.06	1685.48
255.28	1744.87
255.50	1693.67
255.71	1671.14
255.93	1632.23
256.15	1611.75
256.36	1746.92
256.58	1644.52
256.80	1779.68
257.02	1705.96
257.23	1757.16
257.45	1685.48
257.67	1746.92
257.88	1685.48
258.10	1689.57
258.32	1748.97
258.53	1763.30
258.75	1753.06
258.97	1624.04
259.18	1611.75
259.40	1736.68
259.62	1755.11
259.83	1746.92
260.05	1638.38
260.27	1961.95
260.48	1744.87
260.70	1703.91
260.92	1708.01
261.13	1703.91
261.35	1726.44
261.57	1796.07
261.78	1613.80
262.00	1613.80
262.22	1683.43
262.43	1689.57
262.65	1705.96
262.86	1720.29
263.08	1837.03
263.30	1611.75
263.51	1583.08
263.73	1701.86
263.95	1814.50
264.16	1603.56
264.38	1746.92
264.60	1755.11
264.81	1703.91
265.03	1787.88
265.25	1757.16
265.46	1669.09
265.68	1677.29
265.89	1722.34
266.11	1593.32
266.33	1773.54
266.54	1689.57
266.76	1804.26
266.98	1634.28
267.19	1798.12
267.41	1740.77
267.62	1759.21
267.84	1642.47
268.06	1753.06
268.27	1697.77
268.49	1791.97
268.70	1787.88
268.92	1763.30
269.14	1695.72
269.35	1675.24
269.57	1734.63
269.79	1716.20
270.00	1677.29
270.22	1849.32
270.43	1691.62
270.65	1591.27
270.87	1693.67
271.08	1769.44
271.30	1712.10
271.51	1636.33
271.73	1732.58
271.95	1767.40
272.16	1671.14
272.38	1718.25
272.59	1595.37
272.81	1642.47
273.02	1689.57
273.24	1738.73
273.46	1675.24
273.67	1646.57
273.89	1665.00
274.10	1669.09
274.32	1804.26
274.54	1722.34
274.75	1755.11
274.97	1683.43
275.18	1800.16
275.40	1746.92
275.61	1662.95
275.83	1718.25
276.05	1595.37
276.26	1644.52
276.48	1748.97
276.69	1599.46
276.91	1660.90
277.12	1771.49
277.34	1742.82
277.55	1759.21
277.77	1654.76
277.99	1734.63
278.20	1638.38
278.42	1697.77
278.63	1726.44
278.85	1609.70
279.06	1656.81
279.28	1789.92
279.49	1787.88
279.71	1791.97
279.93	1720.29
280.14	1720.29
280.36	1691.62
280.57	1742.82
280.79	1808.36
281.00	1654.76
281.22	1679.33
281.43	1779.68
281.65	1669.09
281.86	1574.89
282.08	1685.48
282.29	1779.68
282.51	1658.85
282.73	1716.20
282.94	1603.56
283.16	1759.21
283.37	1742.82
283.59	1705.96
283.80	1712.10
284.02	1626.09
284.23	1771.49
284.45	1712.10
284.66	1626.09
284.88	1626.09
285.09	1726.44
285.31	1740.77
285.52	1701.86
285.74	1626.09
285.95	1712.10
286.17	1615.85
286.38	1759.21
286.60	1675.24
286.81	1632.23
287.03	1665.00
287.24	1673.19
287.46	1697.77
287.67	1751.01
287.89	1859.56
288.10	1669.09
288.32	1675.24
288.53	1855.46
288.75	1675.24
288.96	1716.20
289.18	1634.28
289.39	1675.24
289.61	1748.97
289.82	1814.50
290.04	1845.22
290.25	1691.62
290.47	1789.92
290.68	1640.42
290.90	1689.57
291.11	1656.81
291.33	1724.39
291.54	1681.38
291.76	1611.75
291.97	1720.29
292.18	1710.05
292.40	1728.49
292.61	1636.33
292.83	1863.65
293.04	1751.01
293.26	1755.11
293.47	1681.38
293.69	1722.34
293.90	1658.85
294.12	1849.32
294.33	1710.05
294.55	1705.96
294.76	1734.63
294.97	1777.64
295.19	1843.17
295.40	1656.81
295.62	1751.01
295.83	1744.87
296.05	1714.15
296.26	1791.97
296.48	1619.94
296.69	1650.66
296.90	1708.01
297.12	1779.68
297.33	1675.24
297.55	1652.71
297.76	1722.34
297.98	1658.85
298.19	1703.91
298.41	1722.34
298.62	1660.90
298.83	1755.11
299.05	1677.29
299.26	1632.23
299.48	1660.90
299.69	1691.62
299.90	1726.44
300.12	1703.91
300.33	1730.53
300.55	1681.38
300.76	1771.49
300.98	1632.23
301.19	1742.82
301.40	1718.25
301.62	1662.95
301.83	1703.91
302.05	1685.48
302.26	1800.16
302.47	1669.09
302.69	1726.44
302.90	1677.29
303.12	1562.60
303.33	1773.54
303.54	1877.99
303.76	1650.66
303.97	1681.38
304.19	1714.15
304.40	1656.81
304.61	1703.91
304.83	1728.49
305.04	1763.30
305.26	1703.91
305.47	1673.19
305.68	1699.81
305.90	1654.76
306.11	1761.25
306.33	1621.99
306.54	1632.23
306.75	1757.16
306.97	1615.85
307.18	1648.61
307.39	1701.86
307.61	1740.77
307.82	1701.86
308.04	1724.39
308.25	1652.71
308.46	1669.09
308.68	1728.49
308.89	1695.72
309.10	1755.11
309.32	1703.91
309.53	1753.06
309.74	1705.96
309.96	1650.66
310.17	1796.07
310.39	1714.15
310.60	1732.58
310.81	1757.16
311.03	1730.53
311.24	1740.77
311.45	1691.62
311.67	1832.93
311.88	1689.57
312.09	1662.95
312.31	1673.19
312.52	1665.00
312.73	1626.09
312.95	1636.33
313.16	1720.29
313.37	1724.39
313.59	1740.77
313.80	1808.36
314.01	1769.44
314.23	1689.57
314.44	1665.00
314.65	1630.18
314.87	1714.15
315.08	1630.18
315.29	1748.97
315.51	1658.85
315.72	1615.85
315.93	1742.82
316.15	1699.81
316.36	1669.09
316.57	1644.52
316.79	1710.05
317.00	1699.81
317.21	1763.30
317.43	1687.53
317.64	1748.97
317.85	1630.18
318.07	1714.15
318.28	1705.96
318.49	1804.26
318.70	1982.43
318.92	1824.74
319.13	1767.40
319.34	1906.66
319.56	1789.92
319.77	1746.92
319.98	1777.64
320.20	1730.53
320.41	1683.43
320.62	1730.53
320.83	1667.05
321.05	1886.18
321.26	1710.05
321.47	1781.73
321.69	1804.26
321.90	1640.42
322.11	1724.39
322.32	1753.06
322.54	1826.79
322.75	1656.81
322.96	1779.68
323.18	1617.90
323.39	1671.14
323.60	1755.11
323.81	1767.40
324.03	1642.47
324.24	1740.77
324.45	1726.44
324.66	1693.67
324.88	1796.07
325.09	1775.59
325.30	1599.46
325.52	1701.86
325.73	1765.35
325.94	1697.77
326.15	1617.90
326.37	1691.62
326.58	1724.39
326.79	1716.20
327.00	1689.57
327.22	1699.81
327.43	1613.80
327.64	1603.56
327.85	1765.35
328.07	1720.29
328.28	1837.03
328.49	1646.57
328.70	1648.61
328.92	1603.56
329.13	1660.90
329.34	1742.82
329.55	1724.39
329.76	1761.25
329.98	1650.66
330.19	1765.35
330.40	1710.05
330.61	1748.97
330.83	1742.82
331.04	1605.61
331.25	1660.90
331.46	1722.34
331.68	1648.61
331.89	1757.16
332.10	1714.15
332.31	1619.94
332.52	1742.82
332.74	1738.73
332.95	1609.70
333.16	1665.00
333.37	1712.10
333.58	1652.71
333.80	1626.09
334.01	1660.90
334.22	1624.04
334.43	1667.05
334.64	1683.43
334.86	1677.29
335.07	1701.86
335.28	1822.69
335.49	1667.05
335.70	1751.01
335.92	1742.82
336.13	1853.41
336.34	1660.90
336.55	1740.77
336.76	1681.38
336.98	1552.36
337.19	1791.97
337.40	1769.44
337.61	1824.74
337.82	1689.57
338.04	1720.29
338.25	1669.09
338.46	1677.29
338.67	1611.75
338.88	1687.53
339.09	1710.05
339.31	1685.48
339.52	1642.47
339.73	1665.00
339.94	1740.77
340.15	1742.82
340.36	1636.33
340.58	1683.43
340.79	1619.94
341.00	1683.43
341.21	1609.70
341.42	1845.22
341.63	1593.32
341.85	1722.34
342.06	1708.01
342.27	1665.00
342.48	1796.07
342.69	1611.75
342.90	1730.53
343.12	1769.44
343.33	1726.44
343.54	1740.77
343.75	1736.68
343.96	1712.10
344.17	1615.85
344.38	1681.38
344.60	1642.47
344.81	1665.00
345.02	1695.72
345.23	1712.10
345.44	1753.06
345.65	1824.74
345.86	1767.40
346.07	1703.91
346.29	1660.90
346.50	1738.73
346.71	1708.01
346.92	1730.53
347.13	1798.12
347.34	1720.29
347.55	1660.90
347.76	1693.67
347.98	1572.84
348.19	1718.25
348.40	1699.81
348.61	1624.04
348.82	1748.97
349.03	1722.34
349.24	1665.00
349.45	1877.99
349.66	1613.80
349.88	1812.45
350.09	1652.71
350.30	1845.22
350.51	1769.44
350.72	1726.44
350.93	1687.53
351.14	1697.77
351.35	1728.49
351.56	1654.76
351.77	1763.30
351.99	1830.88
352.20	1753.06
352.41	1761.25
352.62	1548.26
352.83	1638.38
353.04	1665.00
353.25	1703.91
353.46	1781.73
353.67	1730.53
353.88	1621.99
354.09	1734.63
354.30	1665.00
354.52	1675.24
354.73	1710.05
354.94	1675.24
355.15	1660.90
355.36	1832.93
355.57	1646.57
355.78	1667.05
355.99	1605.61
356.20	1693.67
356.41	1757.16
356.62	1716.20
356.83	1689.57
357.04	1828.84
357.25	1677.29
357.46	1640.42
357.68	1630.18
357.89	1660.90
358.10	1730.53
358.31	1689.57
358.52	1695.72
358.73	1671.14
358.94	1630.18
359.15	1697.77
359.36	1714.15
359.57	1761.25
359.78	1742.82
359.99	1724.39
360.20	1646.57
360.41	1693.67
360.62	1761.25
360.83	1640.42
361.04	1679.33
361.25	1640.42
361.46	1763.30
361.67	1777.64
361.88	1746.92
362.09	1746.92
362.30	1701.86
362.51	1630.18
362.72	1701.86
362.93	1789.92
363.14	1787.88
363.35	1617.90
363.56	1673.19
363.78	1708.01
363.99	1791.97
364.20	1681.38
364.41	1730.53
364.62	1865.70
364.83	1712.10
365.04	1742.82
365.25	1710.05
365.46	1781.73
365.67	1644.52
365.88	1626.09
366.09	1689.57
366.30	1691.62
366.51	1648.61
366.72	1624.04
366.93	1671.14
367.14	1660.90
367.35	1751.01
367.56	1730.53
367.77	1800.16
367.98	1710.05
368.18	1734.63
368.39	1753.06
368.60	1640.42
368.81	1712.10
369.02	1714.15
369.23	1710.05
369.44	1683.43
369.65	1665.00
369.86	1796.07
370.07	1736.68
370.28	1654.76
370.49	1734.63
370.70	1718.25
370.91	1660.90
371.12	1650.66
371.33	1802.21
371.54	1734.63
371.75	1857.51
371.96	1599.46
372.17	1638.38
372.38	1689.57
372.59	1718.25
372.80	1765.35
373.01	1703.91
373.22	1665.00
373.43	1656.81
373.64	1724.39
373.85	1736.68
374.06	1800.16
374.26	1703.91
374.47	1759.21
374.68	1849.32
374.89	1718.25
375.10	1744.87
375.31	1771.49
375.52	1701.86
375.73	1630.18
375.94	1652.71
376.15	1701.86
376.36	1759.21
376.57	1744.87
376.78	1611.75
376.99	1806.31
377.20	1796.07
377.40	1705.96
377.61	1806.31
377.82	1679.33
378.03	1800.16
378.24	1712.10
378.45	1720.29
378.66	1609.70
378.87	1572.84
379.08	1597.42
379.29	1716.20
379.50	1810.40
379.71	1665.00
379.91	1722.34
380.12	1757.16
380.33	1624.04
380.54	1714.15
380.75	1685.48
380.96	1710.05
381.17	1855.46
381.38	1710.05
381.59	1728.49
381.80	1681.38
382.00	1902.56
382.21	1777.64
382.42	1726.44
382.63	1949.67
382.84	1667.05
383.05	1787.88
383.26	1691.62
383.47	1714.15
383.68	1699.81
383.88	1765.35
384.09	1705.96
384.30	1810.40
384.51	1658.85
384.72	1609.70
384.93	1624.04
385.14	1732.58
385.35	1773.54
385.55	1654.76
385.76	1841.12
385.97	1705.96
386.18	1665.00
386.39	1673.19
386.60	1665.00
386.81	1722.34
387.02	1687.53
387.22	1636.33
387.43	1744.87
387.64	1710.05
387.85	1890.28
388.06	2193.37
388.27	4128.70
388.48	6705.05
388.68	7972.74
388.89	9340.79
389.10	9645.93
389.31	8449.92
389.52	7372.69
389.73	6604.70
389.93	6268.83
390.14	5611.43
390.35	5261.23
390.56	4485.05
390.77	3758.02
390.98	3051.47
391.18	2441.18
391.39	2166.75
391.60	1800.16
391.81	1912.80
392.02	1677.29
392.23	1808.36
392.43	1699.81
392.64	1703.91
392.85	1699.81
393.06	1789.92
393.27	1730.53
393.47	1677.29
393.68	1767.40
393.89	1671.14
394.10	1830.88
394.31	1640.42
394.52	1673.19
394.72	1734.63
394.93	1779.68
395.14	1617.90
395.35	1689.57
395.56	1673.19
395.76	1687.53
395.97	1783.78
396.18	1845.22
396.39	1812.45
396.60	2045.92
396.80	1904.61
397.01	1849.32
397.22	1832.93
397.43	1744.87
397.64	1703.91
397.84	1839.08
398.05	1945.57
398.26	1687.53
398.47	1691.62
398.67	1759.21
398.88	1669.09
399.09	1693.67
399.30	1691.62
399.51	1789.92
399.71	1728.49
399.92	1656.81
400.13	1751.01
400.34	1714.15
400.54	1660.90
400.75	1802.21
400.96	1714.15
401.17	1812.45
401.37	1767.40
401.58	1708.01
401.79	1695.72
402.00	1779.68
402.21	2033.63
402.41	1961.95
402.62	1972.19
402.83	1994.72
403.04	2029.54
403.24	2088.93
403.45	1869.80
403.66	1953.76
403.87	1804.26
404.07	1947.62
404.28	1884.13
404.49	1964.00
404.70	1724.39
404.90	1796.07
405.11	1734.63
405.32	1746.92
405.52	1714.15
405.73	1619.94
405.94	1630.18
406.15	1710.05
406.35	1734.63
406.56	1812.45
406.77	1732.58
406.98	1710.05
407.18	1687.53
407.39	1748.97
407.60	1712.10
407.80	1773.54
408.01	1652.71
408.22	1730.53
408.43	1646.57
408.63	1767.40
408.84	1736.68
409.05	1722.34
409.25	1640.42
409.46	1652.71
409.67	1665.00
409.88	1617.90
410.08	1773.54
410.29	1722.34
410.50	1730.53
410.70	1738.73
410.91	1687.53
411.12	1720.29
411.32	1746.92
411.53	1697.77
411.74	1822.69
411.95	1742.82
412.15	1755.11
412.36	1791.97
412.57	1740.77
412.77	1761.25
412.98	1667.05
413.19	1665.00
413.39	1732.58
413.60	1740.77
413.81	1771.49
414.01	1665.00
414.22	1798.12
414.43	1785.83
414.63	1742.82
414.84	1763.30
415.05	1773.54
415.25	1546.22
415.46	1753.06
415.67	1699.81
415.87	1708.01
416.08	1802.21
416.29	1669.09
416.49	1687.53
416.70	1624.04
416.91	1630.18
417.11	1744.87
417.32	1759.21
417.53	1757.16
417.73	1675.24
417.94	1740.77
418.15	1673.19
418.35	1722.34
418.56	1693.67
418.77	1789.92
418.97	1681.38
419.18	1658.85
419.38	1544.17
419.59	1705.96
419.80	1757.16
420.00	1642.47
420.21	1759.21
420.42	1806.31
420.62	1748.97
420.83	1656.81
421.04	1646.57
421.24	1699.81
421.45	1738.73
421.65	1767.40
421.86	1628.14
422.07	1767.40
422.27	1755.11
422.48	1728.49
422.69	1701.86
422.89	1699.81
423.10	1675.24
423.30	1634.28
423.51	1800.16
423.72	1689.57
423.92	1753.06
424.13	1605.61
424.33	1761.25
424.54	1791.97
424.75	1681.38
424.95	1791.97
425.16	1720.29
425.36	1705.96
425.57	1732.58
425.78	1730.53
425.98	1703.91
426.19	1679.33
426.39	1765.35
426.60	1732.58
426.81	1697.77
427.01	1677.29
427.22	1648.61
427.42	1677.29
427.63	1624.04
427.83	1718.25
428.04	1882.08
428.25	1746.92
428.45	1787.88
428.66	1812.45
428.86	1669.09
429.07	1675.24
429.28	1726.44
429.48	1671.14
429.69	1652.71
429.89	1736.68
430.10	1626.09
430.30	1798.12
430.51	1714.15
430.71	1722.34
430.92	1632.23
431.13	1683.43
431.33	1742.82
431.54	1718.25
431.74	1828.84
431.95	1865.70
432.15	1644.52
432.36	1730.53
432.56	1738.73
432.77	1810.40
432.98	1837.03
433.18	1730.53
433.39	1687.53
433.59	1742.82
433.80	1822.69
434.00	1867.75
434.21	1755.11
434.41	1640.42
434.62	1855.46
434.82	1683.43
435.03	1665.00
435.23	1755.11
435.44	1675.24
435.64	1732.58
435.85	1718.25
436.06	1730.53
436.26	1708.01
436.47	1765.35
436.67	1685.48
436.88	1685.48
437.08	1751.01
437.29	1818.60
437.49	1732.58
437.70	1783.78
437.90	1685.48
438.11	1816.55
438.31	1826.79
438.52	1820.64
438.72	1763.30
438.93	1939.43
439.13	1832.93
439.34	1771.49
439.54	1767.40
439.75	1861.60
439.95	1777.64
440.16	1742.82
440.36	1724.39
440.57	1757.16
440.77	1814.50
440.98	1812.45
441.18	1732.58
441.39	1724.39
441.59	1720.29
441.80	1892.32
442.00	1742.82
442.21	1857.51
442.41	1648.61
442.62	1816.55
442.82	1687.53
443.02	1732.58
443.23	1718.25
443.43	1775.59
443.64	1773.54
443.84	1699.81
444.05	1802.21
444.25	1634.28
444.46	1656.81
444.66	1724.39
444.87	1959.91
445.07	1640.42
445.28	1755.11
445.48	1841.12
445.69	1804.26
445.89	1845.22
446.09	1783.78
446.30	2070.50
446.50	2605.02
446.71	3762.12
446.91	4294.59
447.12	4728.76
447.32	4874.17
447.53	4155.33
447.73	3770.31
447.93	3469.26
448.14	3299.28
448.34	3215.31
448.55	2836.44
448.75	2879.44
448.96	2680.79
449.16	2435.03
449.36	2289.63
449.57	2035.68
449.77	1953.76
449.98	1783.78
450.18	1828.84
450.39	1843.17
450.59	1738.73
450.79	1714.15
451.00	1734.63
451.20	1701.86
451.41	1777.64
451.61	1716.20
451.81	1703.91
452.02	1710.05
452.22	1656.81
452.43	1728.49
452.63	1679.33
