SpectraSuite Data File
++++++++++++++++++++++++++++++++++++
Date: Mon Jun 06 12:38:17 CEST 2016
User: root
Dark Spectrum Present: No
Reference Spectrum Present: No
Number of Sampled Component Spectra: 1
Spectrometers: USB4C02835
Integration Time (usec): 100000 (USB4C02835)
Spectra Averaged: 1 (USB4C02835)
Boxcar Smoothing: 0 (USB4C02835)
Correct for Electrical Dark: No (USB4C02835)
Strobe/Lamp Enabled: No (USB4C02835)
Correct for Detector Non-linearity: No (USB4C02835)
Correct for Stray Light: No (USB4C02835)
Number of Pixels in Processed Spectrum: 3648
>>>>>Begin Processed Spectral Data<<<<<
177.47	1435.63
177.69	1435.63
177.91	1435.63
178.13	1486.83
178.36	1490.92
178.58	1603.56
178.80	1660.90
179.02	1642.47
179.24	1613.80
179.46	1681.38
179.68	1767.40
179.90	1705.96
180.13	1650.66
180.35	1681.38
180.57	1677.29
180.79	1742.82
181.01	1642.47
181.23	1759.21
181.45	1650.66
181.67	1687.53
181.90	1794.02
182.12	1699.81
182.34	1640.42
182.56	1710.05
182.78	1701.86
183.00	1671.14
183.22	1724.39
183.44	1564.65
183.66	1824.74
183.89	1800.16
184.11	1748.97
184.33	1738.73
184.55	1773.54
184.77	1759.21
184.99	1744.87
185.21	1617.90
185.43	1798.12
185.65	1746.92
185.87	1722.34
186.10	1861.60
186.32	1843.17
186.54	1824.74
186.76	1736.68
186.98	1716.20
187.20	1697.77
187.42	1681.38
187.64	1738.73
187.86	1703.91
188.08	1751.01
188.30	1738.73
188.52	1613.80
188.75	1794.02
188.97	1787.88
189.19	1615.85
189.41	1621.99
189.63	1755.11
189.85	1718.25
190.07	1603.56
190.29	1585.13
190.51	1699.81
190.73	1615.85
190.95	1714.15
191.17	1693.67
191.39	1658.85
191.61	1667.05
191.84	1617.90
192.06	1722.34
192.28	1587.18
192.50	1914.85
192.72	1726.44
192.94	1773.54
193.16	1798.12
193.38	1705.96
193.60	1673.19
193.82	1695.72
194.04	1732.58
194.26	1746.92
194.48	1732.58
194.70	1720.29
194.92	1638.38
195.14	1789.92
195.36	1703.91
195.58	1751.01
195.80	1757.16
196.02	1628.14
196.24	1662.95
196.46	1718.25
196.69	1701.86
196.91	1886.18
197.13	1675.24
197.35	1683.43
197.57	1714.15
197.79	1675.24
198.01	1736.68
198.23	1837.03
198.45	1642.47
198.67	1636.33
198.89	1626.09
199.11	1736.68
199.33	1624.04
199.55	1568.74
199.77	1646.57
199.99	1669.09
200.21	1626.09
200.43	1757.16
200.65	1593.32
200.87	1570.79
201.09	1687.53
201.31	1685.48
201.53	1804.26
201.75	1693.67
201.97	1697.77
202.19	1671.14
202.41	1773.54
202.63	1816.55
202.85	1710.05
203.07	1671.14
203.29	1609.70
203.51	1617.90
203.73	1656.81
203.95	1832.93
204.17	1677.29
204.39	1716.20
204.61	1720.29
204.83	1699.81
205.05	1765.35
205.27	1763.30
205.49	1920.99
205.71	1710.05
205.93	1681.38
206.15	1705.96
206.37	1697.77
206.59	1624.04
206.81	1609.70
207.03	1667.05
207.25	1593.32
207.47	1761.25
207.69	1685.48
207.91	1781.73
208.13	1810.40
208.34	1712.10
208.56	1583.08
208.78	1746.92
209.00	1638.38
209.22	1703.91
209.44	1779.68
209.66	1658.85
209.88	1595.37
210.10	1642.47
210.32	1656.81
210.54	1800.16
210.76	1720.29
210.98	1716.20
211.20	1607.66
211.42	1740.77
211.64	1751.01
211.86	1779.68
212.08	1681.38
212.30	1697.77
212.52	1642.47
212.74	1724.39
212.96	1667.05
213.17	1771.49
213.39	1757.16
213.61	1812.45
213.83	1783.78
214.05	1591.27
214.27	1753.06
214.49	1710.05
214.71	1648.61
214.93	1892.32
215.15	1806.31
215.37	1753.06
215.59	1642.47
215.81	1724.39
216.03	1837.03
216.24	1783.78
216.46	1701.86
216.68	1718.25
216.90	1765.35
217.12	1746.92
217.34	1718.25
217.56	1669.09
217.78	1810.40
218.00	1710.05
218.22	1671.14
218.44	1740.77
218.66	1683.43
218.87	1808.36
219.09	1658.85
219.31	1695.72
219.53	1724.39
219.75	1681.38
219.97	1648.61
220.19	1685.48
220.41	1679.33
220.63	1718.25
220.85	1763.30
221.06	1658.85
221.28	1791.97
221.50	1742.82
221.72	1681.38
221.94	1716.20
222.16	1705.96
222.38	1746.92
222.60	1767.40
222.82	1681.38
223.03	1718.25
223.25	1660.90
223.47	1720.29
223.69	1912.80
223.91	1722.34
224.13	1665.00
224.35	1650.66
224.57	1740.77
224.78	1710.05
225.00	1597.42
225.22	1609.70
225.44	1708.01
225.66	1656.81
225.88	1624.04
226.10	1744.87
226.32	1763.30
226.53	1738.73
226.75	1669.09
226.97	1603.56
227.19	1685.48
227.41	1669.09
227.63	1681.38
227.85	1642.47
228.06	1656.81
228.28	1675.24
228.50	1701.86
228.72	1720.29
228.94	1585.13
229.16	1556.46
229.37	1662.95
229.59	1624.04
229.81	1710.05
230.03	1675.24
230.25	1632.23
230.47	1673.19
230.69	1640.42
230.90	1771.49
231.12	1685.48
231.34	1726.44
231.56	1703.91
231.78	1648.61
232.00	1630.18
232.21	1695.72
232.43	1673.19
232.65	1583.08
232.87	1667.05
233.09	1640.42
233.30	1605.61
233.52	1755.11
233.74	1611.75
233.96	1746.92
234.18	1701.86
234.40	1632.23
234.61	1875.94
234.83	1638.38
235.05	1728.49
235.27	1781.73
235.49	1775.59
235.70	1769.44
235.92	1753.06
236.14	1720.29
236.36	1843.17
236.58	1595.37
236.79	1695.72
237.01	1701.86
237.23	1681.38
237.45	1828.84
237.67	1609.70
237.88	1728.49
238.10	1796.07
238.32	1718.25
238.54	1675.24
238.76	1626.09
238.97	1636.33
239.19	1671.14
239.41	1773.54
239.63	1808.36
239.85	1681.38
240.06	1732.58
240.28	1716.20
240.50	1748.97
240.72	1701.86
240.93	1667.05
241.15	1785.83
241.37	1716.20
241.59	1724.39
241.81	1724.39
242.02	1607.66
242.24	1708.01
242.46	1726.44
242.68	1636.33
242.89	1767.40
243.11	1763.30
243.33	1718.25
243.55	1689.57
243.76	1742.82
243.98	1718.25
244.20	1724.39
244.42	1691.62
244.64	1726.44
244.85	1607.66
245.07	1576.94
245.29	1744.87
245.51	1650.66
245.72	1671.14
245.94	1791.97
246.16	1638.38
246.38	1734.63
246.59	1654.76
246.81	1699.81
247.03	1669.09
247.24	1665.00
247.46	1753.06
247.68	1701.86
247.90	1650.66
248.11	1665.00
248.33	1691.62
248.55	1748.97
248.77	1726.44
248.98	1703.91
249.20	1736.68
249.42	1693.67
249.64	1689.57
249.85	1665.00
250.07	1665.00
250.29	1693.67
250.50	1609.70
250.72	1708.01
250.94	1685.48
251.16	1787.88
251.37	1830.88
251.59	1730.53
251.81	1746.92
252.02	1773.54
252.24	1701.86
252.46	1779.68
252.68	1617.90
252.89	1708.01
253.11	1640.42
253.33	1828.84
253.54	1728.49
253.76	1583.08
253.98	1656.81
254.20	1724.39
254.41	1605.61
254.63	1662.95
254.85	1560.55
255.06	1648.61
255.28	1716.20
255.50	1689.57
255.71	1654.76
255.93	1644.52
256.15	1699.81
256.36	1779.68
256.58	1667.05
256.80	1763.30
257.02	1744.87
257.23	1673.19
257.45	1701.86
257.67	1775.59
257.88	1675.24
258.10	1724.39
258.32	1687.53
258.53	1705.96
258.75	1734.63
258.97	1662.95
259.18	1716.20
259.40	1755.11
259.62	1779.68
259.83	1736.68
260.05	1724.39
260.27	2017.25
260.48	1785.83
260.70	1634.28
260.92	1677.29
261.13	1722.34
261.35	1687.53
261.57	1695.72
261.78	1626.09
262.00	1716.20
262.22	1703.91
262.43	1603.56
262.65	1710.05
262.86	1689.57
263.08	1904.61
263.30	1705.96
263.51	1603.56
263.73	1605.61
263.95	1779.68
264.16	1675.24
264.38	1621.99
264.60	1718.25
264.81	1605.61
265.03	1828.84
265.25	1806.31
265.46	1697.77
265.68	1748.97
265.89	1708.01
266.11	1669.09
266.33	1808.36
266.54	1796.07
266.76	1724.39
266.98	1791.97
267.19	1724.39
267.41	1742.82
267.62	1660.90
267.84	1687.53
268.06	1773.54
268.27	1734.63
268.49	1791.97
268.70	1744.87
268.92	1701.86
269.14	1634.28
269.35	1644.52
269.57	1693.67
269.79	1759.21
270.00	1722.34
270.22	1718.25
270.43	1603.56
270.65	1671.14
270.87	1681.38
271.08	1738.73
271.30	1615.85
271.51	1687.53
271.73	1738.73
271.95	1716.20
272.16	1714.15
272.38	1693.67
272.59	1656.81
272.81	1650.66
273.02	1785.83
273.24	1806.31
273.46	1769.44
273.67	1632.23
273.89	1665.00
274.10	1667.05
274.32	1806.31
274.54	1736.68
274.75	1703.91
274.97	1656.81
275.18	1687.53
275.40	1746.92
275.61	1746.92
275.83	1667.05
276.05	1628.14
276.26	1675.24
276.48	1701.86
276.69	1718.25
276.91	1603.56
277.12	1794.02
277.34	1800.16
277.55	1746.92
277.77	1769.44
277.99	1642.47
278.20	1675.24
278.42	1708.01
278.63	1658.85
278.85	1669.09
279.06	1714.15
279.28	1783.78
279.49	1753.06
279.71	1732.58
279.93	1681.38
280.14	1681.38
280.36	1671.14
280.57	1828.84
280.79	1718.25
281.00	1671.14
281.22	1675.24
281.43	1822.69
281.65	1593.32
281.86	1644.52
282.08	1703.91
282.29	1732.58
282.51	1513.45
282.73	1650.66
282.94	1667.05
283.16	1742.82
283.37	1775.59
283.59	1611.75
283.80	1751.01
284.02	1701.86
284.23	1677.29
284.45	1718.25
284.66	1624.04
284.88	1609.70
285.09	1712.10
285.31	1730.53
285.52	1720.29
285.74	1665.00
285.95	1669.09
286.17	1617.90
286.38	1771.49
286.60	1640.42
286.81	1722.34
287.03	1714.15
287.24	1779.68
287.46	1710.05
287.67	1648.61
287.89	1812.45
288.10	1699.81
288.32	1751.01
288.53	1777.64
288.75	1718.25
288.96	1685.48
289.18	1701.86
289.39	1714.15
289.61	1775.59
289.82	1761.25
290.04	1785.83
290.25	1665.00
290.47	1695.72
290.68	1615.85
290.90	1814.50
291.11	1568.74
291.33	1751.01
291.54	1685.48
291.76	1609.70
291.97	1759.21
292.18	1703.91
292.40	1708.01
292.61	1656.81
292.83	1839.08
293.04	1712.10
293.26	1671.14
293.47	1751.01
293.69	1644.52
293.90	1683.43
294.12	1761.25
294.33	1718.25
294.55	1675.24
294.76	1761.25
294.97	1732.58
295.19	1837.03
295.40	1748.97
295.62	1642.47
295.83	1726.44
296.05	1648.61
296.26	1761.25
296.48	1673.19
296.69	1714.15
296.90	1763.30
297.12	1703.91
297.33	1810.40
297.55	1765.35
297.76	1759.21
297.98	1736.68
298.19	1783.78
298.41	1681.38
298.62	1578.98
298.83	1746.92
299.05	1734.63
299.26	1615.85
299.48	1669.09
299.69	1724.39
299.90	1691.62
300.12	1662.95
300.33	1767.40
300.55	1693.67
300.76	1710.05
300.98	1624.04
301.19	1689.57
301.40	1638.38
301.62	1689.57
301.83	1728.49
302.05	1734.63
302.26	1660.90
302.47	1697.77
302.69	1660.90
302.90	1617.90
303.12	1566.70
303.33	1699.81
303.54	1773.54
303.76	1665.00
303.97	1667.05
304.19	1785.83
304.40	1621.99
304.61	1746.92
304.83	1810.40
305.04	1759.21
305.26	1724.39
305.47	1658.85
305.68	1646.57
305.90	1681.38
306.11	1701.86
306.33	1728.49
306.54	1683.43
306.75	1558.50
306.97	1628.14
307.18	1667.05
307.39	1630.18
307.61	1726.44
307.82	1630.18
308.04	1785.83
308.25	1642.47
308.46	1681.38
308.68	1644.52
308.89	1761.25
309.10	1816.55
309.32	1714.15
309.53	1699.81
309.74	1689.57
309.96	1732.58
310.17	1746.92
310.39	1699.81
310.60	1732.58
310.81	1710.05
311.03	1636.33
311.24	1677.29
311.45	1708.01
311.67	1748.97
311.88	1751.01
312.09	1683.43
312.31	1611.75
312.52	1648.61
312.73	1691.62
312.95	1617.90
313.16	1665.00
313.37	1726.44
313.59	1753.06
313.80	1783.78
314.01	1785.83
314.23	1636.33
314.44	1705.96
314.65	1583.08
314.87	1650.66
315.08	1673.19
315.29	1689.57
315.51	1634.28
315.72	1705.96
315.93	1828.84
316.15	1722.34
316.36	1638.38
316.57	1685.48
316.79	1708.01
317.00	1615.85
317.21	1722.34
317.43	1656.81
317.64	1675.24
317.85	1617.90
318.07	1665.00
318.28	1718.25
318.49	1855.46
318.70	1873.89
318.92	1812.45
319.13	1841.12
319.34	1880.04
319.56	1808.36
319.77	1808.36
319.98	1775.59
320.20	1802.21
320.41	1767.40
320.62	1712.10
320.83	1771.49
321.05	1830.88
321.26	1757.16
321.47	1699.81
321.69	1800.16
321.90	1646.57
322.11	1689.57
322.32	1683.43
322.54	1748.97
322.75	1644.52
322.96	1806.31
323.18	1683.43
323.39	1533.93
323.60	1656.81
323.81	1740.77
324.03	1566.70
324.24	1693.67
324.45	1701.86
324.66	1658.85
324.88	1744.87
325.09	1837.03
325.30	1726.44
325.52	1720.29
325.73	1759.21
325.94	1603.56
326.15	1583.08
326.37	1687.53
326.58	1685.48
326.79	1773.54
327.00	1691.62
327.22	1734.63
327.43	1667.05
327.64	1605.61
327.85	1710.05
328.07	1710.05
328.28	1806.31
328.49	1626.09
328.70	1658.85
328.92	1726.44
329.13	1714.15
329.34	1740.77
329.55	1791.97
329.76	1748.97
329.98	1714.15
330.19	1755.11
330.40	1693.67
330.61	1703.91
330.83	1751.01
331.04	1673.19
331.25	1679.33
331.46	1718.25
331.68	1636.33
331.89	1724.39
332.10	1714.15
332.31	1585.13
332.52	1613.80
332.74	1796.07
332.95	1724.39
333.16	1695.72
333.37	1724.39
333.58	1783.78
333.80	1685.48
334.01	1609.70
334.22	1722.34
334.43	1630.18
334.64	1726.44
334.86	1617.90
335.07	1677.29
335.28	1800.16
335.49	1636.33
335.70	1646.57
335.92	1765.35
336.13	1796.07
336.34	1710.05
336.55	1710.05
336.76	1683.43
336.98	1628.14
337.19	1660.90
337.40	1789.92
337.61	1845.22
337.82	1665.00
338.04	1773.54
338.25	1560.55
338.46	1642.47
338.67	1654.76
338.88	1646.57
339.09	1589.22
339.31	1681.38
339.52	1638.38
339.73	1636.33
339.94	1720.29
340.15	1822.69
340.36	1636.33
340.58	1693.67
340.79	1628.14
341.00	1667.05
341.21	1691.62
341.42	1755.11
341.63	1634.28
341.85	1726.44
342.06	1681.38
342.27	1615.85
342.48	1767.40
342.69	1648.61
342.90	1679.33
343.12	1798.12
343.33	1632.23
343.54	1683.43
343.75	1757.16
343.96	1669.09
344.17	1677.29
344.38	1638.38
344.60	1646.57
344.81	1675.24
345.02	1619.94
345.23	1802.21
345.44	1845.22
345.65	1697.77
345.86	1708.01
346.07	1669.09
346.29	1730.53
346.50	1710.05
346.71	1773.54
346.92	1724.39
347.13	1777.64
347.34	1708.01
347.55	1687.53
347.76	1753.06
347.98	1550.31
348.19	1646.57
348.40	1753.06
348.61	1683.43
348.82	1734.63
349.03	1701.86
349.24	1669.09
349.45	1755.11
349.66	1597.42
349.88	1669.09
350.09	1660.90
350.30	1763.30
350.51	1732.58
350.72	1656.81
350.93	1732.58
351.14	1677.29
351.35	1714.15
351.56	1679.33
351.77	1724.39
351.99	1728.49
352.20	1837.03
352.41	1675.24
352.62	1636.33
352.83	1679.33
353.04	1699.81
353.25	1705.96
353.46	1769.44
353.67	1724.39
353.88	1576.94
354.09	1689.57
354.30	1712.10
354.52	1693.67
354.73	1708.01
354.94	1624.04
355.15	1716.20
355.36	1761.25
355.57	1609.70
355.78	1634.28
355.99	1634.28
356.20	1646.57
356.41	1814.50
356.62	1701.86
356.83	1654.76
357.04	1701.86
357.25	1605.61
357.46	1609.70
357.68	1615.85
357.89	1699.81
358.10	1699.81
358.31	1658.85
358.52	1609.70
358.73	1574.89
358.94	1601.51
359.15	1548.26
359.36	1759.21
359.57	1705.96
359.78	1644.52
359.99	1712.10
360.20	1701.86
360.41	1640.42
360.62	1644.52
360.83	1730.53
361.04	1755.11
361.25	1761.25
361.46	1791.97
361.67	1697.77
361.88	1734.63
362.09	1765.35
362.30	1732.58
362.51	1683.43
362.72	1687.53
362.93	1757.16
363.14	1648.61
363.35	1763.30
363.56	1656.81
363.78	1738.73
363.99	1791.97
364.20	1669.09
364.41	1703.91
364.62	1845.22
364.83	1730.53
365.04	1701.86
365.25	1654.76
365.46	1789.92
365.67	1675.24
365.88	1665.00
366.09	1730.53
366.30	1667.05
366.51	1802.21
366.72	1636.33
366.93	1695.72
367.14	1751.01
367.35	1722.34
367.56	1650.66
367.77	1777.64
367.98	1746.92
368.18	1720.29
368.39	1746.92
368.60	1656.81
368.81	1728.49
369.02	1755.11
369.23	1687.53
369.44	1632.23
369.65	1634.28
369.86	1761.25
370.07	1701.86
370.28	1652.71
370.49	1736.68
370.70	1736.68
370.91	1669.09
371.12	1646.57
371.33	1712.10
371.54	1656.81
371.75	1808.36
371.96	1599.46
372.17	1693.67
372.38	1744.87
372.59	1818.60
372.80	1683.43
373.01	1683.43
373.22	1703.91
373.43	1705.96
373.64	1640.42
373.85	1742.82
374.06	1779.68
374.26	1755.11
374.47	1712.10
374.68	1808.36
374.89	1701.86
375.10	1705.96
375.31	1767.40
375.52	1654.76
375.73	1773.54
375.94	1652.71
376.15	1796.07
376.36	1652.71
376.57	1697.77
376.78	1583.08
376.99	1656.81
377.20	1728.49
377.40	1615.85
377.61	1828.84
377.82	1685.48
378.03	1789.92
378.24	1685.48
378.45	1710.05
378.66	1648.61
378.87	1585.13
379.08	1589.22
379.29	1697.77
379.50	1753.06
379.71	1673.19
379.91	1738.73
380.12	1687.53
380.33	1679.33
380.54	1681.38
380.75	1708.01
380.96	1652.71
381.17	1712.10
381.38	1810.40
381.59	1716.20
381.80	1767.40
382.00	1800.16
382.21	1765.35
382.42	1748.97
382.63	1800.16
382.84	1751.01
383.05	1812.45
383.26	1734.63
383.47	1712.10
383.68	1759.21
383.88	1773.54
384.09	1708.01
384.30	1761.25
384.51	1699.81
384.72	1648.61
384.93	1609.70
385.14	1683.43
385.35	1777.64
385.55	1587.18
385.76	1765.35
385.97	1720.29
386.18	1597.42
386.39	1714.15
386.60	1714.15
386.81	1767.40
387.02	1626.09
387.22	1689.57
387.43	1769.44
387.64	1822.69
387.85	1847.27
388.06	2258.91
388.27	4198.34
388.48	6889.37
388.68	8265.60
388.89	9764.72
389.10	9934.70
389.31	8419.20
389.52	7686.03
389.73	6703.00
389.93	6344.61
390.14	5916.58
390.35	5337.01
390.56	4528.06
390.77	3723.21
390.98	3078.10
391.18	2621.40
391.39	2119.65
391.60	1783.78
391.81	1779.68
392.02	1734.63
392.23	1794.02
392.43	1769.44
392.64	1759.21
392.85	1748.97
393.06	1814.50
393.27	1722.34
393.47	1689.57
393.68	1689.57
393.89	1738.73
394.10	1869.80
394.31	1718.25
394.52	1691.62
394.72	1617.90
394.93	1804.26
395.14	1593.32
395.35	1798.12
395.56	1671.14
395.76	1695.72
395.97	1824.74
396.18	1904.61
396.39	1851.36
396.60	2015.20
396.80	1839.08
397.01	1857.51
397.22	1851.36
397.43	1849.32
397.64	1814.50
397.84	1722.34
398.05	1861.60
398.26	1755.11
398.47	1724.39
398.67	1781.73
398.88	1779.68
399.09	1724.39
399.30	1689.57
399.51	1738.73
399.71	1644.52
399.92	1699.81
400.13	1714.15
400.34	1695.72
400.54	1714.15
400.75	1765.35
400.96	1679.33
401.17	1814.50
401.37	1730.53
401.58	1687.53
401.79	1740.77
402.00	1890.28
402.21	1998.82
402.41	1941.47
402.62	2045.92
402.83	1976.29
403.04	1920.99
403.24	2115.55
403.45	1785.83
403.66	1933.28
403.87	1871.84
404.07	1941.47
404.28	1894.37
404.49	1880.04
404.70	1740.77
404.90	1730.53
405.11	1736.68
405.32	1699.81
405.52	1687.53
405.73	1583.08
405.94	1607.66
406.15	1703.91
406.35	1673.19
406.56	1779.68
406.77	1705.96
406.98	1718.25
407.18	1691.62
407.39	1794.02
407.60	1683.43
407.80	1685.48
408.01	1699.81
408.22	1777.64
408.43	1650.66
408.63	1746.92
408.84	1744.87
409.05	1820.64
409.25	1642.47
409.46	1726.44
409.67	1652.71
409.88	1671.14
410.08	1759.21
410.29	1732.58
410.50	1732.58
410.70	1714.15
410.91	1599.46
411.12	1679.33
411.32	1724.39
411.53	1665.00
411.74	1769.44
411.95	1783.78
412.15	1685.48
412.36	1783.78
412.57	1808.36
412.77	1802.21
412.98	1761.25
413.19	1648.61
413.39	1748.97
413.60	1767.40
413.81	1726.44
414.01	1759.21
414.22	1671.14
414.43	1808.36
414.63	1701.86
414.84	1679.33
415.05	1714.15
415.25	1583.08
415.46	1787.88
415.67	1624.04
415.87	1693.67
416.08	1732.58
416.29	1701.86
416.49	1781.73
416.70	1646.57
416.91	1683.43
417.11	1701.86
417.32	1669.09
417.53	1734.63
417.73	1689.57
417.94	1669.09
418.15	1761.25
418.35	1638.38
418.56	1714.15
418.77	1773.54
418.97	1726.44
419.18	1640.42
419.38	1540.07
419.59	1662.95
419.80	1800.16
420.00	1609.70
420.21	1656.81
420.42	1775.59
420.62	1732.58
420.83	1667.05
421.04	1675.24
421.24	1671.14
421.45	1740.77
421.65	1701.86
421.86	1689.57
422.07	1761.25
422.27	1812.45
422.48	1710.05
422.69	1681.38
422.89	1679.33
423.10	1689.57
423.30	1677.29
423.51	1730.53
423.72	1697.77
423.92	1722.34
424.13	1611.75
424.33	1789.92
424.54	1705.96
424.75	1681.38
424.95	1810.40
425.16	1779.68
425.36	1583.08
425.57	1693.67
425.78	1675.24
425.98	1748.97
426.19	1660.90
426.39	1599.46
426.60	1603.56
426.81	1789.92
427.01	1722.34
427.22	1650.66
427.42	1636.33
427.63	1654.76
427.83	1765.35
428.04	1877.99
428.25	1791.97
428.45	1802.21
428.66	1757.16
428.86	1736.68
429.07	1771.49
429.28	1740.77
429.48	1677.29
429.69	1705.96
429.89	1685.48
430.10	1667.05
430.30	1697.77
430.51	1742.82
430.71	1638.38
430.92	1681.38
431.13	1718.25
431.33	1703.91
431.54	1710.05
431.74	1705.96
431.95	1834.98
432.15	1617.90
432.36	1697.77
432.56	1724.39
432.77	1812.45
432.98	1798.12
433.18	1763.30
433.39	1697.77
433.59	1718.25
433.80	1806.31
434.00	1892.32
434.21	1615.85
434.41	1660.90
434.62	1834.98
434.82	1712.10
435.03	1644.52
435.23	1691.62
435.44	1589.22
435.64	1687.53
435.85	1736.68
436.06	1720.29
436.26	1783.78
436.47	1726.44
436.67	1611.75
436.88	1708.01
437.08	1787.88
437.29	1798.12
437.49	1755.11
437.70	1773.54
437.90	1718.25
438.11	1869.80
438.31	1753.06
438.52	1855.46
438.72	1841.12
438.93	1808.36
439.13	1763.30
439.34	1824.74
439.54	1814.50
439.75	1812.45
439.95	1812.45
440.16	1662.95
440.36	1779.68
440.57	1773.54
440.77	1775.59
440.98	1738.73
441.18	1732.58
441.39	1677.29
441.59	1679.33
441.80	1779.68
442.00	1699.81
442.21	1816.55
442.41	1705.96
442.62	1875.94
442.82	1617.90
443.02	1718.25
443.23	1714.15
443.43	1759.21
443.64	1755.11
443.84	1681.38
444.05	1796.07
444.25	1642.47
444.46	1712.10
444.66	1720.29
444.87	1828.84
445.07	1658.85
445.28	1667.05
445.48	1832.93
445.69	1716.20
445.89	1877.99
446.09	1767.40
446.30	2025.44
446.50	2650.07
446.71	3841.99
446.91	4294.59
447.12	4700.09
447.32	4868.02
447.53	4173.76
447.73	3893.19
447.93	3526.60
448.14	3248.08
448.34	3188.69
448.55	2949.08
448.75	2877.40
448.96	2711.51
449.16	2467.80
449.36	2336.73
449.57	2041.82
449.77	1927.14
449.98	1796.07
450.18	1816.55
450.39	1755.11
450.59	1753.06
450.79	1716.20
451.00	1687.53
451.20	1800.16
451.41	1642.47
451.61	1675.24
451.81	1791.97
452.02	1683.43
452.22	1728.49
452.43	1654.76
452.63	1650.66
