SpectraSuite Data File
++++++++++++++++++++++++++++++++++++
Date: Mon Jun 06 16:53:37 CEST 2016
User: root
Dark Spectrum Present: No
Reference Spectrum Present: No
Number of Sampled Component Spectra: 1
Spectrometers: USB4C02835
Integration Time (usec): 100000 (USB4C02835)
Spectra Averaged: 1 (USB4C02835)
Boxcar Smoothing: 0 (USB4C02835)
Correct for Electrical Dark: No (USB4C02835)
Strobe/Lamp Enabled: No (USB4C02835)
Correct for Detector Non-linearity: No (USB4C02835)
Correct for Stray Light: No (USB4C02835)
Number of Pixels in Processed Spectrum: 3648
>>>>>Begin Processed Spectral Data<<<<<
177.47	1402.86
177.69	1402.86
177.91	1402.86
178.13	1456.11
178.36	1425.39
178.58	1673.19
178.80	1691.62
179.02	1632.23
179.24	1730.53
179.46	1658.85
179.68	1699.81
179.90	1705.96
180.13	1738.73
180.35	1660.90
180.57	1636.33
180.79	1742.82
181.01	1730.53
181.23	1740.77
181.45	1751.01
181.67	1759.21
181.90	1742.82
182.12	1728.49
182.34	1552.36
182.56	1613.80
182.78	1753.06
183.00	1687.53
183.22	1699.81
183.44	1626.09
183.66	1902.56
183.89	1755.11
184.11	1693.67
184.33	1796.07
184.55	1796.07
184.77	1681.38
184.99	1658.85
185.21	1714.15
185.43	1841.12
185.65	1691.62
185.87	1732.58
186.10	1812.45
186.32	1839.08
186.54	1701.86
186.76	1689.57
186.98	1714.15
187.20	1683.43
187.42	1691.62
187.64	1740.77
187.86	1773.54
188.08	1759.21
188.30	1654.76
188.52	1712.10
188.75	1787.88
188.97	1781.73
189.19	1675.24
189.41	1675.24
189.63	1794.02
189.85	1667.05
190.07	1660.90
190.29	1615.85
190.51	1701.86
190.73	1681.38
190.95	1761.25
191.17	1656.81
191.39	1634.28
191.61	1763.30
191.84	1667.05
192.06	1742.82
192.28	1587.18
192.50	1933.28
192.72	1751.01
192.94	1640.42
193.16	1734.63
193.38	1697.77
193.60	1570.79
193.82	1722.34
194.04	1785.83
194.26	1722.34
194.48	1675.24
194.70	1683.43
194.92	1638.38
195.14	1740.77
195.36	1681.38
195.58	1748.97
195.80	1716.20
196.02	1646.57
196.24	1677.29
196.46	1732.58
196.69	1726.44
196.91	1841.12
197.13	1644.52
197.35	1626.09
197.57	1730.53
197.79	1777.64
198.01	1730.53
198.23	1701.86
198.45	1785.83
198.67	1626.09
198.89	1697.77
199.11	1740.77
199.33	1669.09
199.55	1591.27
199.77	1710.05
199.99	1794.02
200.21	1718.25
200.43	1779.68
200.65	1656.81
200.87	1574.89
201.09	1638.38
201.31	1683.43
201.53	1808.36
201.75	1722.34
201.97	1757.16
202.19	1738.73
202.41	1701.86
202.63	1794.02
202.85	1726.44
203.07	1695.72
203.29	1665.00
203.51	1658.85
203.73	1710.05
203.95	1837.03
204.17	1787.88
204.39	1730.53
204.61	1695.72
204.83	1669.09
205.05	1710.05
205.27	1771.49
205.49	1834.98
205.71	1726.44
205.93	1691.62
206.15	1656.81
206.37	1697.77
206.59	1699.81
206.81	1683.43
207.03	1753.06
207.25	1636.33
207.47	1765.35
207.69	1726.44
207.91	1757.16
208.13	1771.49
208.34	1701.86
208.56	1603.56
208.78	1738.73
209.00	1695.72
209.22	1738.73
209.44	1730.53
209.66	1630.18
209.88	1679.33
210.10	1665.00
210.32	1642.47
210.54	1863.65
210.76	1634.28
210.98	1779.68
211.20	1626.09
211.42	1720.29
211.64	1800.16
211.86	1681.38
212.08	1757.16
212.30	1691.62
212.52	1681.38
212.74	1740.77
212.96	1714.15
213.17	1751.01
213.39	1837.03
213.61	1771.49
213.83	1748.97
214.05	1652.71
214.27	1771.49
214.49	1714.15
214.71	1689.57
214.93	1800.16
215.15	1744.87
215.37	1701.86
215.59	1613.80
215.81	1748.97
216.03	1822.69
216.24	1734.63
216.46	1755.11
216.68	1728.49
216.90	1705.96
217.12	1740.77
217.34	1751.01
217.56	1691.62
217.78	1816.55
218.00	1810.40
218.22	1671.14
218.44	1757.16
218.66	1703.91
218.87	1837.03
219.09	1628.14
219.31	1728.49
219.53	1746.92
219.75	1699.81
219.97	1697.77
220.19	1720.29
220.41	1701.86
220.63	1798.12
220.85	1716.20
221.06	1742.82
221.28	1808.36
221.50	1718.25
221.72	1695.72
221.94	1722.34
222.16	1798.12
222.38	1771.49
222.60	1748.97
222.82	1734.63
223.03	1785.83
223.25	1652.71
223.47	1767.40
223.69	1806.31
223.91	1757.16
224.13	1718.25
224.35	1621.99
224.57	1728.49
224.78	1742.82
225.00	1671.14
225.22	1685.48
225.44	1724.39
225.66	1740.77
225.88	1705.96
226.10	1796.07
226.32	1693.67
226.53	1771.49
226.75	1720.29
226.97	1695.72
227.19	1607.66
227.41	1720.29
227.63	1638.38
227.85	1642.47
228.06	1701.86
228.28	1701.86
228.50	1740.77
228.72	1679.33
228.94	1687.53
229.16	1628.14
229.37	1679.33
229.59	1771.49
229.81	1763.30
230.03	1681.38
230.25	1691.62
230.47	1691.62
230.69	1669.09
230.90	1773.54
231.12	1712.10
231.34	1671.14
231.56	1734.63
231.78	1597.42
232.00	1708.01
232.21	1644.52
232.43	1656.81
232.65	1574.89
232.87	1753.06
233.09	1679.33
233.30	1714.15
233.52	1683.43
233.74	1675.24
233.96	1687.53
234.18	1761.25
234.40	1640.42
234.61	1873.89
234.83	1615.85
235.05	1613.80
235.27	1824.74
235.49	1791.97
235.70	1710.05
235.92	1787.88
236.14	1703.91
236.36	1904.61
236.58	1695.72
236.79	1722.34
237.01	1634.28
237.23	1679.33
237.45	1773.54
237.67	1746.92
237.88	1689.57
238.10	1761.25
238.32	1646.57
238.54	1738.73
238.76	1728.49
238.97	1632.23
239.19	1662.95
239.41	1716.20
239.63	1816.55
239.85	1671.14
240.06	1671.14
240.28	1646.57
240.50	1826.79
240.72	1830.88
240.93	1701.86
241.15	1718.25
241.37	1615.85
241.59	1816.55
241.81	1726.44
242.02	1736.68
242.24	1724.39
242.46	1708.01
242.68	1628.14
242.89	1701.86
243.11	1779.68
243.33	1732.58
243.55	1730.53
243.76	1697.77
243.98	1814.50
244.20	1730.53
244.42	1705.96
244.64	1751.01
244.85	1646.57
245.07	1652.71
245.29	1757.16
245.51	1720.29
245.72	1757.16
245.94	1763.30
246.16	1732.58
246.38	1775.59
246.59	1695.72
246.81	1685.48
247.03	1705.96
247.24	1650.66
247.46	1724.39
247.68	1738.73
247.90	1646.57
248.11	1656.81
248.33	1710.05
248.55	1746.92
248.77	1677.29
248.98	1810.40
249.20	1859.56
249.42	1718.25
249.64	1755.11
249.85	1773.54
250.07	1740.77
250.29	1697.77
250.50	1730.53
250.72	1611.75
250.94	1753.06
251.16	1882.08
251.37	1771.49
251.59	1742.82
251.81	1771.49
252.02	1748.97
252.24	1685.48
252.46	1722.34
252.68	1683.43
252.89	1601.51
253.11	1628.14
253.33	1791.97
253.54	1748.97
253.76	1615.85
253.98	1640.42
254.20	1685.48
254.41	1642.47
254.63	1593.32
254.85	1677.29
255.06	1736.68
255.28	1736.68
255.50	1710.05
255.71	1685.48
255.93	1636.33
256.15	1693.67
256.36	1773.54
256.58	1699.81
256.80	1722.34
257.02	1787.88
257.23	1691.62
257.45	1695.72
257.67	1763.30
257.88	1697.77
258.10	1712.10
258.32	1632.23
258.53	1726.44
258.75	1765.35
258.97	1681.38
259.18	1691.62
259.40	1667.05
259.62	1751.01
259.83	1841.12
260.05	1777.64
260.27	1990.63
260.48	1765.35
260.70	1654.76
260.92	1701.86
261.13	1712.10
261.35	1695.72
261.57	1812.45
261.78	1669.09
262.00	1619.94
262.22	1720.29
262.43	1667.05
262.65	1687.53
262.86	1667.05
263.08	1814.50
263.30	1650.66
263.51	1640.42
263.73	1701.86
263.95	1769.44
264.16	1636.33
264.38	1677.29
264.60	1671.14
264.81	1714.15
265.03	1800.16
265.25	1802.21
265.46	1705.96
265.68	1724.39
265.89	1746.92
266.11	1621.99
266.33	1779.68
266.54	1773.54
266.76	1748.97
266.98	1718.25
267.19	1834.98
267.41	1763.30
267.62	1705.96
267.84	1656.81
268.06	1753.06
268.27	1724.39
268.49	1757.16
268.70	1767.40
268.92	1710.05
269.14	1714.15
269.35	1665.00
269.57	1695.72
269.79	1716.20
270.00	1701.86
270.22	1847.27
270.43	1621.99
270.65	1554.41
270.87	1695.72
271.08	1742.82
271.30	1802.21
271.51	1787.88
271.73	1791.97
271.95	1894.37
272.16	1724.39
272.38	1671.14
272.59	1667.05
272.81	1759.21
273.02	1718.25
273.24	1771.49
273.46	1763.30
273.67	1679.33
273.89	1673.19
274.10	1722.34
274.32	1761.25
274.54	1742.82
274.75	1814.50
274.97	1718.25
275.18	1716.20
275.40	1693.67
275.61	1693.67
275.83	1802.21
276.05	1638.38
276.26	1710.05
276.48	1779.68
276.69	1673.19
276.91	1697.77
277.12	1751.01
277.34	1730.53
277.55	1767.40
277.77	1691.62
277.99	1705.96
278.20	1638.38
278.42	1728.49
278.63	1636.33
278.85	1685.48
279.06	1617.90
279.28	1759.21
279.49	1712.10
279.71	1675.24
279.93	1816.55
280.14	1656.81
280.36	1701.86
280.57	1763.30
280.79	1761.25
281.00	1652.71
281.22	1636.33
281.43	1822.69
281.65	1603.56
281.86	1636.33
282.08	1779.68
282.29	1853.41
282.51	1699.81
282.73	1722.34
282.94	1710.05
283.16	1738.73
283.37	1806.31
283.59	1697.77
283.80	1748.97
284.02	1646.57
284.23	1667.05
284.45	1662.95
284.66	1718.25
284.88	1720.29
285.09	1699.81
285.31	1759.21
285.52	1681.38
285.74	1656.81
285.95	1691.62
286.17	1755.11
286.38	1703.91
286.60	1673.19
286.81	1654.76
287.03	1679.33
287.24	1675.24
287.46	1718.25
287.67	1697.77
287.89	1818.60
288.10	1675.24
288.32	1738.73
288.53	1791.97
288.75	1746.92
288.96	1830.88
289.18	1771.49
289.39	1753.06
289.61	1695.72
289.82	1769.44
290.04	1798.12
290.25	1705.96
290.47	1724.39
290.68	1669.09
290.90	1804.26
291.11	1650.66
291.33	1755.11
291.54	1615.85
291.76	1656.81
291.97	1742.82
292.18	1773.54
292.40	1632.23
292.61	1650.66
292.83	1920.99
293.04	1697.77
293.26	1804.26
293.47	1712.10
293.69	1685.48
293.90	1716.20
294.12	1757.16
294.33	1699.81
294.55	1755.11
294.76	1755.11
294.97	1769.44
295.19	1845.22
295.40	1677.29
295.62	1734.63
295.83	1785.83
296.05	1734.63
296.26	1755.11
296.48	1712.10
296.69	1734.63
296.90	1744.87
297.12	1662.95
297.33	1755.11
297.55	1665.00
297.76	1787.88
297.98	1781.73
298.19	1716.20
298.41	1701.86
298.62	1718.25
298.83	1781.73
299.05	1730.53
299.26	1716.20
299.48	1701.86
299.69	1814.50
299.90	1703.91
300.12	1644.52
300.33	1779.68
300.55	1785.83
300.76	1843.17
300.98	1628.14
301.19	1716.20
301.40	1679.33
301.62	1716.20
301.83	1783.78
302.05	1740.77
302.26	1689.57
302.47	1794.02
302.69	1681.38
302.90	1708.01
303.12	1636.33
303.33	1777.64
303.54	1818.60
303.76	1648.61
303.97	1789.92
304.19	1808.36
304.40	1669.09
304.61	1732.58
304.83	1796.07
305.04	1798.12
305.26	1703.91
305.47	1621.99
305.68	1693.67
305.90	1617.90
306.11	1767.40
306.33	1685.48
306.54	1675.24
306.75	1689.57
306.97	1697.77
307.18	1603.56
307.39	1646.57
307.61	1701.86
307.82	1728.49
308.04	1699.81
308.25	1703.91
308.46	1728.49
308.68	1714.15
308.89	1703.91
309.10	1763.30
309.32	1751.01
309.53	1708.01
309.74	1714.15
309.96	1687.53
310.17	1705.96
310.39	1601.51
310.60	1720.29
310.81	1720.29
311.03	1679.33
311.24	1734.63
311.45	1693.67
311.67	1861.60
311.88	1748.97
312.09	1628.14
312.31	1697.77
312.52	1718.25
312.73	1771.49
312.95	1658.85
313.16	1671.14
313.37	1771.49
313.59	1746.92
313.80	1718.25
314.01	1794.02
314.23	1701.86
314.44	1705.96
314.65	1599.46
314.87	1642.47
315.08	1650.66
315.29	1683.43
315.51	1679.33
315.72	1621.99
315.93	1820.64
316.15	1757.16
316.36	1640.42
316.57	1710.05
316.79	1726.44
317.00	1693.67
317.21	1697.77
317.43	1628.14
317.64	1634.28
317.85	1646.57
318.07	1636.33
318.28	1757.16
318.49	1777.64
318.70	1945.57
318.92	1794.02
319.13	1812.45
319.34	1884.13
319.56	1812.45
319.77	1902.56
319.98	1726.44
320.20	1765.35
320.41	1744.87
320.62	1720.29
320.83	1724.39
321.05	1859.56
321.26	1724.39
321.47	1650.66
321.69	1755.11
321.90	1665.00
322.11	1632.23
322.32	1675.24
322.54	1779.68
322.75	1734.63
322.96	1834.98
323.18	1599.46
323.39	1667.05
323.60	1777.64
323.81	1761.25
324.03	1671.14
324.24	1755.11
324.45	1705.96
324.66	1722.34
324.88	1708.01
325.09	1830.88
325.30	1730.53
325.52	1734.63
325.73	1738.73
325.94	1681.38
326.15	1593.32
326.37	1644.52
326.58	1751.01
326.79	1820.64
327.00	1636.33
327.22	1689.57
327.43	1712.10
327.64	1609.70
327.85	1701.86
328.07	1697.77
328.28	1761.25
328.49	1669.09
328.70	1722.34
328.92	1712.10
329.13	1697.77
329.34	1730.53
329.55	1759.21
329.76	1722.34
329.98	1665.00
330.19	1779.68
330.40	1665.00
330.61	1720.29
330.83	1763.30
331.04	1644.52
331.25	1722.34
331.46	1654.76
331.68	1697.77
331.89	1722.34
332.10	1673.19
332.31	1621.99
332.52	1746.92
332.74	1714.15
332.95	1648.61
333.16	1779.68
333.37	1755.11
333.58	1714.15
333.80	1673.19
334.01	1654.76
334.22	1740.77
334.43	1685.48
334.64	1671.14
334.86	1646.57
335.07	1710.05
335.28	1841.12
335.49	1656.81
335.70	1765.35
335.92	1822.69
336.13	1818.60
336.34	1800.16
336.55	1691.62
336.76	1751.01
336.98	1589.22
337.19	1718.25
337.40	1832.93
337.61	1880.04
337.82	1730.53
338.04	1728.49
338.25	1667.05
338.46	1665.00
338.67	1669.09
338.88	1628.14
339.09	1615.85
339.31	1701.86
339.52	1636.33
339.73	1636.33
339.94	1755.11
340.15	1748.97
340.36	1726.44
340.58	1759.21
340.79	1626.09
341.00	1738.73
341.21	1615.85
341.42	1740.77
341.63	1685.48
341.85	1748.97
342.06	1714.15
342.27	1669.09
342.48	1736.68
342.69	1597.42
342.90	1726.44
343.12	1765.35
343.33	1658.85
343.54	1736.68
343.75	1722.34
343.96	1671.14
344.17	1652.71
344.38	1720.29
344.60	1673.19
344.81	1652.71
345.02	1826.79
345.23	1736.68
345.44	1798.12
345.65	1740.77
345.86	1710.05
346.07	1744.87
346.29	1626.09
346.50	1712.10
346.71	1798.12
346.92	1734.63
347.13	1794.02
347.34	1689.57
347.55	1669.09
347.76	1646.57
347.98	1667.05
348.19	1755.11
348.40	1820.64
348.61	1744.87
348.82	1834.98
349.03	1812.45
349.24	1665.00
349.45	1779.68
349.66	1613.80
349.88	1687.53
350.09	1689.57
350.30	1748.97
350.51	1802.21
350.72	1742.82
350.93	1738.73
351.14	1703.91
351.35	1681.38
351.56	1730.53
351.77	1708.01
351.99	1759.21
352.20	1810.40
352.41	1746.92
352.62	1626.09
352.83	1660.90
353.04	1658.85
353.25	1566.70
353.46	1771.49
353.67	1822.69
353.88	1583.08
354.09	1851.36
354.30	1693.67
354.52	1701.86
354.73	1632.23
354.94	1726.44
355.15	1796.07
355.36	1869.80
355.57	1695.72
355.78	1705.96
355.99	1683.43
356.20	1634.28
356.41	1800.16
356.62	1683.43
356.83	1757.16
357.04	1800.16
357.25	1708.01
357.46	1685.48
357.68	1603.56
357.89	1597.42
358.10	1761.25
358.31	1677.29
358.52	1714.15
358.73	1681.38
358.94	1708.01
359.15	1628.14
359.36	1671.14
359.57	1777.64
359.78	1740.77
359.99	1755.11
360.20	1648.61
360.41	1638.38
360.62	1755.11
360.83	1705.96
361.04	1759.21
361.25	1767.40
361.46	1834.98
361.67	1757.16
361.88	1722.34
362.09	1736.68
362.30	1767.40
362.51	1685.48
362.72	1638.38
362.93	1753.06
363.14	1765.35
363.35	1755.11
363.56	1681.38
363.78	1837.03
363.99	1744.87
364.20	1621.99
364.41	1646.57
364.62	1841.12
364.83	1787.88
365.04	1755.11
365.25	1609.70
365.46	1851.36
365.67	1640.42
365.88	1667.05
366.09	1763.30
366.30	1667.05
366.51	1757.16
366.72	1697.77
366.93	1681.38
367.14	1642.47
367.35	1722.34
367.56	1773.54
367.77	1785.83
367.98	1667.05
368.18	1675.24
368.39	1796.07
368.60	1681.38
368.81	1751.01
369.02	1714.15
369.23	1714.15
369.44	1699.81
369.65	1648.61
369.86	1791.97
370.07	1742.82
370.28	1636.33
370.49	1728.49
370.70	1656.81
370.91	1679.33
371.12	1708.01
371.33	1810.40
371.54	1699.81
371.75	1791.97
371.96	1597.42
372.17	1695.72
372.38	1720.29
372.59	1789.92
372.80	1703.91
373.01	1689.57
373.22	1691.62
373.43	1710.05
373.64	1728.49
373.85	1779.68
374.06	1910.75
374.26	1693.67
374.47	1814.50
374.68	1767.40
374.89	1769.44
375.10	1703.91
375.31	1759.21
375.52	1681.38
375.73	1769.44
375.94	1671.14
376.15	1814.50
376.36	1675.24
376.57	1671.14
376.78	1669.09
376.99	1705.96
377.20	1894.37
377.40	1574.89
377.61	1839.08
377.82	1626.09
378.03	1775.59
378.24	1763.30
378.45	1728.49
378.66	1697.77
378.87	1628.14
379.08	1683.43
379.29	1742.82
379.50	1814.50
379.71	1703.91
379.91	1703.91
380.12	1658.85
380.33	1703.91
380.54	1628.14
380.75	1673.19
380.96	1730.53
381.17	1791.97
381.38	1734.63
381.59	1722.34
381.80	1769.44
382.00	1830.88
382.21	1738.73
382.42	1861.60
382.63	1863.65
382.84	1826.79
383.05	1763.30
383.26	1800.16
383.47	1705.96
383.68	1765.35
383.88	1714.15
384.09	1794.02
384.30	1828.84
384.51	1746.92
384.72	1714.15
384.93	1716.20
385.14	1685.48
385.35	1716.20
385.55	1607.66
385.76	1791.97
385.97	1748.97
386.18	1621.99
386.39	1720.29
386.60	1726.44
386.81	1716.20
387.02	1697.77
387.22	1695.72
387.43	1789.92
387.64	1798.12
387.85	1820.64
388.06	2176.99
388.27	4222.91
388.48	6913.94
388.68	8322.94
388.89	9643.88
389.10	9848.68
389.31	8621.95
389.52	7759.75
389.73	6817.69
389.93	6406.05
390.14	5826.47
390.35	5259.18
390.56	4501.44
390.77	3887.04
390.98	2981.84
391.18	2555.86
391.39	2103.26
391.60	1857.51
391.81	1849.32
392.02	1718.25
392.23	1837.03
392.43	1765.35
392.64	1859.56
392.85	1779.68
393.06	1789.92
393.27	1710.05
393.47	1683.43
393.68	1710.05
393.89	1710.05
394.10	1789.92
394.31	1654.76
394.52	1669.09
394.72	1665.00
394.93	1810.40
395.14	1624.04
395.35	1724.39
395.56	1687.53
395.76	1730.53
395.97	1787.88
396.18	1886.18
396.39	1796.07
396.60	1990.63
396.80	1857.51
397.01	1888.23
397.22	1871.84
397.43	1830.88
397.64	1724.39
397.84	1845.22
398.05	1773.54
398.26	1775.59
398.47	1783.78
398.67	1714.15
398.88	1757.16
399.09	1728.49
399.30	1734.63
399.51	1712.10
399.71	1689.57
399.92	1685.48
400.13	1744.87
400.34	1691.62
400.54	1751.01
400.75	1812.45
400.96	1783.78
401.17	1904.61
401.37	1753.06
401.58	1763.30
401.79	1699.81
402.00	1832.93
402.21	2011.11
402.41	1986.53
402.62	1990.63
402.83	2050.02
403.04	2025.44
403.24	2025.44
403.45	1902.56
403.66	1943.52
403.87	1900.52
404.07	1880.04
404.28	1855.46
404.49	1931.23
404.70	1712.10
404.90	1738.73
405.11	1804.26
405.32	1742.82
405.52	1697.77
405.73	1718.25
405.94	1685.48
406.15	1712.10
406.35	1679.33
406.56	1740.77
406.77	1710.05
406.98	1726.44
407.18	1662.95
407.39	1822.69
407.60	1712.10
407.80	1689.57
408.01	1665.00
408.22	1615.85
408.43	1665.00
408.63	1736.68
408.84	1718.25
409.05	1730.53
409.25	1669.09
409.46	1650.66
409.67	1689.57
409.88	1712.10
410.08	1785.83
410.29	1644.52
410.50	1738.73
410.70	1746.92
410.91	1746.92
411.12	1812.45
411.32	1722.34
411.53	1638.38
411.74	1751.01
411.95	1828.84
412.15	1765.35
412.36	1812.45
412.57	1761.25
412.77	1839.08
412.98	1691.62
413.19	1677.29
413.39	1810.40
413.60	1771.49
413.81	1808.36
414.01	1669.09
414.22	1718.25
414.43	1765.35
414.63	1736.68
414.84	1738.73
415.05	1732.58
415.25	1652.71
415.46	1738.73
415.67	1681.38
415.87	1669.09
416.08	1642.47
416.29	1695.72
416.49	1820.64
416.70	1615.85
416.91	1671.14
417.11	1720.29
417.32	1746.92
417.53	1730.53
417.73	1748.97
417.94	1658.85
418.15	1728.49
418.35	1681.38
418.56	1742.82
418.77	1892.32
418.97	1699.81
419.18	1665.00
419.38	1615.85
419.59	1669.09
419.80	1855.46
420.00	1683.43
420.21	1699.81
420.42	1798.12
420.62	1728.49
420.83	1648.61
421.04	1687.53
421.24	1679.33
421.45	1708.01
421.65	1832.93
421.86	1718.25
422.07	1794.02
422.27	1667.05
422.48	1740.77
422.69	1605.61
422.89	1667.05
423.10	1697.77
423.30	1605.61
423.51	1796.07
423.72	1759.21
423.92	1771.49
424.13	1644.52
424.33	1730.53
424.54	1751.01
424.75	1701.86
424.95	1820.64
425.16	1689.57
425.36	1693.67
425.57	1720.29
425.78	1718.25
425.98	1779.68
426.19	1656.81
426.39	1658.85
426.60	1779.68
426.81	1861.60
427.01	1806.31
427.22	1732.58
427.42	1636.33
427.63	1714.15
427.83	1703.91
428.04	1742.82
428.25	1755.11
428.45	1810.40
428.66	1755.11
428.86	1687.53
429.07	1712.10
429.28	1800.16
429.48	1675.24
429.69	1675.24
429.89	1642.47
430.10	1687.53
430.30	1773.54
430.51	1748.97
430.71	1708.01
430.92	1763.30
431.13	1667.05
431.33	1673.19
431.54	1732.58
431.74	1832.93
431.95	1810.40
432.15	1689.57
432.36	1783.78
432.56	1734.63
432.77	1855.46
432.98	1837.03
433.18	1718.25
433.39	1716.20
433.59	1693.67
433.80	1820.64
434.00	1855.46
434.21	1722.34
434.41	1720.29
434.62	1873.89
434.82	1781.73
435.03	1697.77
435.23	1761.25
435.44	1585.13
435.64	1800.16
435.85	1796.07
436.06	1718.25
436.26	1816.55
436.47	1638.38
436.67	1689.57
436.88	1718.25
437.08	1699.81
437.29	1781.73
437.49	1806.31
437.70	1718.25
437.90	1728.49
438.11	1832.93
438.31	1761.25
438.52	1859.56
438.72	1912.80
438.93	1968.10
439.13	1708.01
439.34	1828.84
439.54	1781.73
439.75	1849.32
439.95	1820.64
440.16	1705.96
440.36	1773.54
440.57	1759.21
440.77	1742.82
440.98	1701.86
441.18	1728.49
441.39	1710.05
441.59	1716.20
441.80	1816.55
442.00	1740.77
442.21	1853.41
442.41	1634.28
442.62	1791.97
442.82	1746.92
443.02	1689.57
443.23	1744.87
443.43	1798.12
443.64	1808.36
443.84	1720.29
444.05	1822.69
444.25	1710.05
444.46	1677.29
444.66	1703.91
444.87	1769.44
445.07	1656.81
445.28	1705.96
445.48	1765.35
445.69	1816.55
445.89	1888.23
446.09	1740.77
446.30	2015.20
446.50	2615.26
446.71	3735.50
446.91	4384.70
447.12	4902.84
447.32	4929.46
447.53	4315.07
447.73	3915.72
447.93	3491.79
448.14	3448.78
448.34	3231.69
448.55	2897.88
448.75	2906.07
448.96	2797.53
449.16	2420.70
449.36	2369.50
449.57	2140.13
449.77	1931.23
449.98	1746.92
450.18	1796.07
450.39	1808.36
450.59	1900.52
450.79	1722.34
451.00	1681.38
451.20	1775.59
451.41	1781.73
451.61	1769.44
451.81	1751.01
452.02	1800.16
452.22	1755.11
452.43	1660.90
452.63	1728.49
