SpectraSuite Data File
++++++++++++++++++++++++++++++++++++
Date: Mon Jun 06 12:54:17 CEST 2016
User: root
Dark Spectrum Present: No
Reference Spectrum Present: No
Number of Sampled Component Spectra: 1
Spectrometers: USB4C02835
Integration Time (usec): 100000 (USB4C02835)
Spectra Averaged: 1 (USB4C02835)
Boxcar Smoothing: 0 (USB4C02835)
Correct for Electrical Dark: No (USB4C02835)
Strobe/Lamp Enabled: No (USB4C02835)
Correct for Detector Non-linearity: No (USB4C02835)
Correct for Stray Light: No (USB4C02835)
Number of Pixels in Processed Spectrum: 3648
>>>>>Begin Processed Spectral Data<<<<<
177.47	1380.33
177.69	1380.33
177.91	1380.33
178.13	1431.53
178.36	1499.11
178.58	1675.24
178.80	1718.25
179.02	1638.38
179.24	1689.57
179.46	1634.28
179.68	1753.06
179.90	1736.68
180.13	1720.29
180.35	1640.42
180.57	1755.11
180.79	1787.88
181.01	1720.29
181.23	1744.87
181.45	1753.06
181.67	1796.07
181.90	1675.24
182.12	1693.67
182.34	1550.31
182.56	1734.63
182.78	1742.82
183.00	1775.59
183.22	1732.58
183.44	1624.04
183.66	1865.70
183.89	1771.49
184.11	1697.77
184.33	1728.49
184.55	1722.34
184.77	1722.34
184.99	1742.82
185.21	1685.48
185.43	1863.65
185.65	1665.00
185.87	1794.02
186.10	1800.16
186.32	1832.93
186.54	1683.43
186.76	1751.01
186.98	1767.40
187.20	1640.42
187.42	1701.86
187.64	1660.90
187.86	1773.54
188.08	1730.53
188.30	1665.00
188.52	1724.39
188.75	1789.92
188.97	1808.36
189.19	1656.81
189.41	1613.80
189.63	1712.10
189.85	1708.01
190.07	1712.10
190.29	1587.18
190.51	1800.16
190.73	1624.04
190.95	1759.21
191.17	1656.81
191.39	1628.14
191.61	1648.61
191.84	1693.67
192.06	1720.29
192.28	1574.89
192.50	1914.85
192.72	1681.38
192.94	1757.16
193.16	1839.08
193.38	1718.25
193.60	1656.81
193.82	1656.81
194.04	1791.97
194.26	1728.49
194.48	1644.52
194.70	1652.71
194.92	1775.59
195.14	1726.44
195.36	1687.53
195.58	1732.58
195.80	1687.53
196.02	1748.97
196.24	1708.01
196.46	1767.40
196.69	1722.34
196.91	1888.23
197.13	1779.68
197.35	1644.52
197.57	1714.15
197.79	1771.49
198.01	1710.05
198.23	1669.09
198.45	1669.09
198.67	1640.42
198.89	1726.44
199.11	1724.39
199.33	1691.62
199.55	1599.46
199.77	1736.68
199.99	1679.33
200.21	1724.39
200.43	1703.91
200.65	1683.43
200.87	1560.55
201.09	1621.99
201.31	1708.01
201.53	1755.11
201.75	1734.63
201.97	1599.46
202.19	1701.86
202.41	1689.57
202.63	1841.12
202.85	1800.16
203.07	1783.78
203.29	1683.43
203.51	1720.29
203.73	1624.04
203.95	1796.07
204.17	1755.11
204.39	1722.34
204.61	1724.39
204.83	1646.57
205.05	1828.84
205.27	1685.48
205.49	1806.31
205.71	1757.16
205.93	1619.94
206.15	1669.09
206.37	1734.63
206.59	1740.77
206.81	1640.42
207.03	1681.38
207.25	1630.18
207.47	1757.16
207.69	1705.96
207.91	1812.45
208.13	1800.16
208.34	1607.66
208.56	1730.53
208.78	1748.97
209.00	1630.18
209.22	1589.22
209.44	1693.67
209.66	1699.81
209.88	1798.12
210.10	1726.44
210.32	1675.24
210.54	1722.34
210.76	1646.57
210.98	1728.49
211.20	1568.74
211.42	1705.96
211.64	1798.12
211.86	1689.57
212.08	1783.78
212.30	1724.39
212.52	1724.39
212.74	1683.43
212.96	1705.96
213.17	1701.86
213.39	1734.63
213.61	1759.21
213.83	1736.68
214.05	1613.80
214.27	1730.53
214.49	1683.43
214.71	1691.62
214.93	1798.12
215.15	1662.95
215.37	1771.49
215.59	1662.95
215.81	1777.64
216.03	1763.30
216.24	1705.96
216.46	1736.68
216.68	1656.81
216.90	1714.15
217.12	1679.33
217.34	1771.49
217.56	1703.91
217.78	1802.21
218.00	1751.01
218.22	1720.29
218.44	1681.38
218.66	1742.82
218.87	1791.97
219.09	1679.33
219.31	1781.73
219.53	1701.86
219.75	1734.63
219.97	1732.58
220.19	1742.82
220.41	1673.19
220.63	1738.73
220.85	1679.33
221.06	1619.94
221.28	1812.45
221.50	1779.68
221.72	1710.05
221.94	1697.77
222.16	1732.58
222.38	1722.34
222.60	1734.63
222.82	1697.77
223.03	1705.96
223.25	1572.84
223.47	1640.42
223.69	1812.45
223.91	1701.86
224.13	1648.61
224.35	1656.81
224.57	1675.24
224.78	1771.49
225.00	1654.76
225.22	1738.73
225.44	1634.28
225.66	1677.29
225.88	1658.85
226.10	1775.59
226.32	1769.44
226.53	1783.78
226.75	1703.91
226.97	1695.72
227.19	1617.90
227.41	1681.38
227.63	1687.53
227.85	1624.04
228.06	1693.67
228.28	1652.71
228.50	1779.68
228.72	1619.94
228.94	1689.57
229.16	1632.23
229.37	1558.50
229.59	1628.14
229.81	1730.53
230.03	1685.48
230.25	1677.29
230.47	1601.51
230.69	1665.00
230.90	1705.96
231.12	1675.24
231.34	1685.48
231.56	1755.11
231.78	1660.90
232.00	1673.19
232.21	1669.09
232.43	1621.99
232.65	1595.37
232.87	1705.96
233.09	1703.91
233.30	1656.81
233.52	1718.25
233.74	1656.81
233.96	1648.61
234.18	1773.54
234.40	1693.67
234.61	1871.84
234.83	1652.71
235.05	1609.70
235.27	1757.16
235.49	1722.34
235.70	1712.10
235.92	1738.73
236.14	1693.67
236.36	1783.78
236.58	1656.81
236.79	1777.64
237.01	1757.16
237.23	1738.73
237.45	1789.92
237.67	1650.66
237.88	1726.44
238.10	1800.16
238.32	1697.77
238.54	1675.24
238.76	1703.91
238.97	1677.29
239.19	1687.53
239.41	1732.58
239.63	1757.16
239.85	1650.66
240.06	1671.14
240.28	1718.25
240.50	1699.81
240.72	1718.25
240.93	1708.01
241.15	1751.01
241.37	1710.05
241.59	1794.02
241.81	1746.92
242.02	1632.23
242.24	1699.81
242.46	1718.25
242.68	1621.99
242.89	1769.44
243.11	1763.30
243.33	1673.19
243.55	1695.72
243.76	1748.97
243.98	1742.82
244.20	1624.04
244.42	1679.33
244.64	1687.53
244.85	1634.28
245.07	1640.42
245.29	1722.34
245.51	1785.83
245.72	1722.34
245.94	1771.49
246.16	1734.63
246.38	1761.25
246.59	1630.18
246.81	1583.08
247.03	1665.00
247.24	1615.85
247.46	1648.61
247.68	1656.81
247.90	1619.94
248.11	1693.67
248.33	1740.77
248.55	1638.38
248.77	1662.95
248.98	1812.45
249.20	1828.84
249.42	1751.01
249.64	1701.86
249.85	1779.68
250.07	1581.03
250.29	1693.67
250.50	1718.25
250.72	1585.13
250.94	1757.16
251.16	1837.03
251.37	1789.92
251.59	1675.24
251.81	1728.49
252.02	1816.55
252.24	1722.34
252.46	1763.30
252.68	1648.61
252.89	1638.38
253.11	1568.74
253.33	1732.58
253.54	1794.02
253.76	1658.85
253.98	1732.58
254.20	1640.42
254.41	1640.42
254.63	1642.47
254.85	1677.29
255.06	1640.42
255.28	1697.77
255.50	1724.39
255.71	1638.38
255.93	1589.22
256.15	1691.62
256.36	1683.43
256.58	1701.86
256.80	1791.97
257.02	1685.48
257.23	1730.53
257.45	1607.66
257.67	1724.39
257.88	1656.81
258.10	1654.76
258.32	1751.01
258.53	1746.92
258.75	1767.40
258.97	1699.81
259.18	1603.56
259.40	1693.67
259.62	1875.94
259.83	1744.87
260.05	1734.63
260.27	1949.67
260.48	1724.39
260.70	1632.23
260.92	1732.58
261.13	1722.34
261.35	1636.33
261.57	1673.19
261.78	1626.09
262.00	1665.00
262.22	1628.14
262.43	1599.46
262.65	1621.99
262.86	1773.54
263.08	1771.49
263.30	1652.71
263.51	1609.70
263.73	1673.19
263.95	1746.92
264.16	1568.74
264.38	1640.42
264.60	1669.09
264.81	1646.57
265.03	1732.58
265.25	1638.38
265.46	1710.05
265.68	1763.30
265.89	1736.68
266.11	1662.95
266.33	1673.19
266.54	1755.11
266.76	1730.53
266.98	1714.15
267.19	1720.29
267.41	1746.92
267.62	1687.53
267.84	1544.17
268.06	1765.35
268.27	1708.01
268.49	1775.59
268.70	1687.53
268.92	1683.43
269.14	1687.53
269.35	1660.90
269.57	1712.10
269.79	1783.78
270.00	1710.05
270.22	1748.97
270.43	1689.57
270.65	1652.71
270.87	1773.54
271.08	1767.40
271.30	1759.21
271.51	1742.82
271.73	1736.68
271.95	1730.53
272.16	1796.07
272.38	1724.39
272.59	1710.05
272.81	1759.21
273.02	1611.75
273.24	1683.43
273.46	1738.73
273.67	1693.67
273.89	1673.19
274.10	1710.05
274.32	1775.59
274.54	1728.49
274.75	1667.05
274.97	1681.38
275.18	1765.35
275.40	1708.01
275.61	1689.57
275.83	1689.57
276.05	1615.85
276.26	1685.48
276.48	1796.07
276.69	1685.48
276.91	1632.23
277.12	1789.92
277.34	1734.63
277.55	1726.44
277.77	1650.66
277.99	1642.47
278.20	1632.23
278.42	1644.52
278.63	1617.90
278.85	1595.37
279.06	1581.03
279.28	1779.68
279.49	1763.30
279.71	1757.16
279.93	1701.86
280.14	1693.67
280.36	1611.75
280.57	1691.62
280.79	1787.88
281.00	1613.80
281.22	1619.94
281.43	1816.55
281.65	1599.46
281.86	1628.14
282.08	1718.25
282.29	1736.68
282.51	1624.04
282.73	1576.94
282.94	1673.19
283.16	1681.38
283.37	1740.77
283.59	1662.95
283.80	1718.25
284.02	1669.09
284.23	1783.78
284.45	1660.90
284.66	1687.53
284.88	1656.81
285.09	1683.43
285.31	1746.92
285.52	1755.11
285.74	1642.47
285.95	1718.25
286.17	1695.72
286.38	1767.40
286.60	1671.14
286.81	1675.24
287.03	1695.72
287.24	1615.85
287.46	1718.25
287.67	1755.11
287.89	1785.83
288.10	1726.44
288.32	1705.96
288.53	1810.40
288.75	1736.68
288.96	1695.72
289.18	1660.90
289.39	1675.24
289.61	1824.74
289.82	1771.49
290.04	1767.40
290.25	1621.99
290.47	1714.15
290.68	1705.96
290.90	1820.64
291.11	1597.42
291.33	1697.77
291.54	1640.42
291.76	1687.53
291.97	1781.73
292.18	1689.57
292.40	1673.19
292.61	1697.77
292.83	1857.51
293.04	1712.10
293.26	1675.24
293.47	1814.50
293.69	1615.85
293.90	1658.85
294.12	1736.68
294.33	1724.39
294.55	1724.39
294.76	1748.97
294.97	1763.30
295.19	1837.03
295.40	1648.61
295.62	1746.92
295.83	1748.97
296.05	1726.44
296.26	1828.84
296.48	1683.43
296.69	1716.20
296.90	1722.34
297.12	1767.40
297.33	1851.36
297.55	1687.53
297.76	1779.68
297.98	1746.92
298.19	1714.15
298.41	1777.64
298.62	1718.25
298.83	1804.26
299.05	1708.01
299.26	1628.14
299.48	1648.61
299.69	1759.21
299.90	1669.09
300.12	1632.23
300.33	1734.63
300.55	1679.33
300.76	1775.59
300.98	1642.47
301.19	1728.49
301.40	1765.35
301.62	1685.48
301.83	1814.50
302.05	1683.43
302.26	1624.04
302.47	1708.01
302.69	1611.75
302.90	1714.15
303.12	1599.46
303.33	1773.54
303.54	1775.59
303.76	1658.85
303.97	1779.68
304.19	1898.47
304.40	1660.90
304.61	1703.91
304.83	1769.44
305.04	1820.64
305.26	1755.11
305.47	1601.51
305.68	1638.38
305.90	1574.89
306.11	1712.10
306.33	1695.72
306.54	1638.38
306.75	1765.35
306.97	1701.86
307.18	1585.13
307.39	1718.25
307.61	1732.58
307.82	1691.62
308.04	1701.86
308.25	1644.52
308.46	1771.49
308.68	1748.97
308.89	1712.10
309.10	1812.45
309.32	1660.90
309.53	1726.44
309.74	1730.53
309.96	1658.85
310.17	1789.92
310.39	1689.57
310.60	1740.77
310.81	1665.00
311.03	1605.61
311.24	1746.92
311.45	1646.57
311.67	1794.02
311.88	1708.01
312.09	1626.09
312.31	1593.32
312.52	1640.42
312.73	1671.14
312.95	1660.90
313.16	1640.42
313.37	1742.82
313.59	1669.09
313.80	1724.39
314.01	1783.78
314.23	1689.57
314.44	1746.92
314.65	1624.04
314.87	1609.70
315.08	1720.29
315.29	1681.38
315.51	1699.81
315.72	1572.84
315.93	1796.07
316.15	1728.49
316.36	1695.72
316.57	1646.57
316.79	1755.11
317.00	1640.42
317.21	1669.09
317.43	1742.82
317.64	1718.25
317.85	1617.90
318.07	1699.81
318.28	1685.48
318.49	1806.31
318.70	1871.84
318.92	1765.35
319.13	1806.31
319.34	1896.42
319.56	1732.58
319.77	1818.60
319.98	1783.78
320.20	1808.36
320.41	1744.87
320.62	1693.67
320.83	1628.14
321.05	1894.37
321.26	1630.18
321.47	1703.91
321.69	1777.64
321.90	1595.37
322.11	1673.19
322.32	1730.53
322.54	1785.83
322.75	1650.66
322.96	1802.21
323.18	1585.13
323.39	1642.47
323.60	1742.82
323.81	1693.67
324.03	1685.48
324.24	1665.00
324.45	1669.09
324.66	1624.04
324.88	1812.45
325.09	1800.16
325.30	1689.57
325.52	1734.63
325.73	1689.57
325.94	1607.66
326.15	1605.61
326.37	1648.61
326.58	1847.27
326.79	1837.03
327.00	1662.95
327.22	1718.25
327.43	1722.34
327.64	1601.51
327.85	1714.15
328.07	1736.68
328.28	1859.56
328.49	1638.38
328.70	1742.82
328.92	1757.16
329.13	1667.05
329.34	1720.29
329.55	1761.25
329.76	1687.53
329.98	1685.48
330.19	1740.77
330.40	1679.33
330.61	1728.49
330.83	1746.92
331.04	1667.05
331.25	1708.01
331.46	1701.86
331.68	1691.62
331.89	1789.92
332.10	1712.10
332.31	1648.61
332.52	1742.82
332.74	1816.55
332.95	1638.38
333.16	1767.40
333.37	1757.16
333.58	1617.90
333.80	1679.33
334.01	1699.81
334.22	1708.01
334.43	1705.96
334.64	1703.91
334.86	1617.90
335.07	1703.91
335.28	1787.88
335.49	1595.37
335.70	1720.29
335.92	1769.44
336.13	1800.16
336.34	1742.82
336.55	1652.71
336.76	1718.25
336.98	1656.81
337.19	1746.92
337.40	1812.45
337.61	1841.12
337.82	1689.57
338.04	1787.88
338.25	1665.00
338.46	1673.19
338.67	1722.34
338.88	1671.14
339.09	1648.61
339.31	1660.90
339.52	1673.19
339.73	1691.62
339.94	1751.01
340.15	1767.40
340.36	1705.96
340.58	1683.43
340.79	1677.29
341.00	1730.53
341.21	1677.29
341.42	1800.16
341.63	1730.53
341.85	1734.63
342.06	1728.49
342.27	1628.14
342.48	1650.66
342.69	1662.95
342.90	1665.00
343.12	1787.88
343.33	1726.44
343.54	1796.07
343.75	1753.06
343.96	1755.11
344.17	1671.14
344.38	1636.33
344.60	1671.14
344.81	1693.67
345.02	1789.92
345.23	1800.16
345.44	1832.93
345.65	1757.16
345.86	1679.33
346.07	1652.71
346.29	1671.14
346.50	1669.09
346.71	1681.38
346.92	1779.68
347.13	1748.97
347.34	1734.63
347.55	1773.54
347.76	1781.73
347.98	1595.37
348.19	1710.05
348.40	1775.59
348.61	1728.49
348.82	1820.64
349.03	1685.48
349.24	1693.67
349.45	1888.23
349.66	1576.94
349.88	1652.71
350.09	1675.24
350.30	1804.26
350.51	1832.93
350.72	1665.00
350.93	1693.67
351.14	1712.10
351.35	1689.57
351.56	1685.48
351.77	1761.25
351.99	1703.91
352.20	1802.21
352.41	1712.10
352.62	1603.56
352.83	1691.62
353.04	1697.77
353.25	1626.09
353.46	1695.72
353.67	1744.87
353.88	1583.08
354.09	1740.77
354.30	1654.76
354.52	1777.64
354.73	1748.97
354.94	1656.81
355.15	1748.97
355.36	1812.45
355.57	1732.58
355.78	1740.77
355.99	1701.86
356.20	1609.70
356.41	1738.73
356.62	1757.16
356.83	1673.19
357.04	1812.45
357.25	1652.71
357.46	1753.06
357.68	1611.75
357.89	1671.14
358.10	1660.90
358.31	1646.57
358.52	1712.10
358.73	1617.90
358.94	1683.43
359.15	1757.16
359.36	1742.82
359.57	1617.90
359.78	1673.19
359.99	1748.97
360.20	1624.04
360.41	1644.52
360.62	1728.49
360.83	1804.26
361.04	1691.62
361.25	1828.84
361.46	1796.07
361.67	1791.97
361.88	1738.73
362.09	1714.15
362.30	1755.11
362.51	1699.81
362.72	1648.61
362.93	1669.09
363.14	1703.91
363.35	1689.57
363.56	1693.67
363.78	1796.07
363.99	1777.64
364.20	1693.67
364.41	1730.53
364.62	1802.21
364.83	1734.63
365.04	1775.59
365.25	1681.38
365.46	1751.01
365.67	1654.76
365.88	1634.28
366.09	1673.19
366.30	1693.67
366.51	1691.62
366.72	1673.19
366.93	1710.05
367.14	1681.38
367.35	1798.12
367.56	1736.68
367.77	1787.88
367.98	1638.38
368.18	1685.48
368.39	1730.53
368.60	1558.50
368.81	1757.16
369.02	1703.91
369.23	1744.87
369.44	1685.48
369.65	1673.19
369.86	1773.54
370.07	1742.82
370.28	1683.43
370.49	1738.73
370.70	1755.11
370.91	1609.70
371.12	1619.94
371.33	1744.87
371.54	1667.05
371.75	1712.10
371.96	1673.19
372.17	1685.48
372.38	1738.73
372.59	1697.77
372.80	1720.29
373.01	1755.11
373.22	1689.57
373.43	1724.39
373.64	1648.61
373.85	1769.44
374.06	1814.50
374.26	1783.78
374.47	1800.16
374.68	1851.36
374.89	1742.82
375.10	1640.42
375.31	1783.78
375.52	1710.05
375.73	1748.97
375.94	1691.62
376.15	1816.55
376.36	1708.01
376.57	1673.19
376.78	1687.53
376.99	1667.05
377.20	1730.53
377.40	1683.43
377.61	1796.07
377.82	1673.19
378.03	1787.88
378.24	1822.69
378.45	1701.86
378.66	1755.11
378.87	1658.85
379.08	1613.80
379.29	1667.05
379.50	1660.90
379.71	1669.09
379.91	1675.24
380.12	1722.34
380.33	1677.29
380.54	1724.39
380.75	1689.57
380.96	1695.72
381.17	1740.77
381.38	1724.39
381.59	1777.64
381.80	1734.63
382.00	1837.03
382.21	1802.21
382.42	1765.35
382.63	1847.27
382.84	1722.34
383.05	1734.63
383.26	1798.12
383.47	1724.39
383.68	1671.14
383.88	1748.97
384.09	1708.01
384.30	1826.79
384.51	1662.95
384.72	1722.34
384.93	1742.82
385.14	1705.96
385.35	1714.15
385.55	1613.80
385.76	1808.36
385.97	1671.14
386.18	1646.57
386.39	1626.09
386.60	1701.86
386.81	1671.14
387.02	1644.52
387.22	1683.43
387.43	1753.06
387.64	1820.64
387.85	1826.79
388.06	2213.85
388.27	4218.82
388.48	6879.13
388.68	8359.81
388.89	9883.50
389.10	9897.83
389.31	8652.67
389.52	7669.64
389.73	6877.08
389.93	6367.13
390.14	5992.36
390.35	5300.14
390.56	4642.75
390.77	3852.23
390.98	3080.14
391.18	2584.54
391.39	2146.27
391.60	1904.61
391.81	1920.99
392.02	1626.09
392.23	1822.69
392.43	1718.25
392.64	1816.55
392.85	1699.81
393.06	1808.36
393.27	1728.49
393.47	1691.62
393.68	1695.72
393.89	1673.19
394.10	1771.49
394.31	1736.68
394.52	1691.62
394.72	1642.47
394.93	1730.53
395.14	1720.29
395.35	1759.21
395.56	1677.29
395.76	1728.49
395.97	1800.16
396.18	1865.70
396.39	1783.78
396.60	2029.54
396.80	1857.51
397.01	1828.84
397.22	1877.99
397.43	1822.69
397.64	1660.90
397.84	1808.36
398.05	1849.32
398.26	1718.25
398.47	1660.90
398.67	1830.88
398.88	1705.96
399.09	1746.92
399.30	1691.62
399.51	1757.16
399.71	1695.72
399.92	1767.40
400.13	1646.57
400.34	1691.62
400.54	1681.38
400.75	1845.22
400.96	1718.25
401.17	1759.21
401.37	1740.77
401.58	1675.24
401.79	1718.25
402.00	1822.69
402.21	1998.82
402.41	1945.57
402.62	1925.09
402.83	2088.93
403.04	1896.42
403.24	2068.45
403.45	1806.31
403.66	1861.60
403.87	1832.93
404.07	1890.28
404.28	1902.56
404.49	1839.08
404.70	1777.64
404.90	1742.82
405.11	1671.14
405.32	1740.77
405.52	1660.90
405.73	1656.81
405.94	1712.10
406.15	1675.24
406.35	1753.06
406.56	1730.53
406.77	1738.73
406.98	1726.44
407.18	1621.99
407.39	1699.81
407.60	1718.25
407.80	1759.21
408.01	1736.68
408.22	1728.49
408.43	1726.44
408.63	1753.06
408.84	1730.53
409.05	1751.01
409.25	1673.19
409.46	1621.99
409.67	1689.57
409.88	1652.71
410.08	1705.96
410.29	1665.00
410.50	1718.25
410.70	1804.26
410.91	1724.39
411.12	1785.83
411.32	1609.70
411.53	1732.58
411.74	1751.01
411.95	1771.49
412.15	1804.26
412.36	1773.54
412.57	1738.73
412.77	1832.93
412.98	1652.71
413.19	1693.67
413.39	1839.08
413.60	1757.16
413.81	1734.63
414.01	1691.62
414.22	1693.67
414.43	1757.16
414.63	1789.92
414.84	1763.30
415.05	1779.68
415.25	1673.19
415.46	1691.62
415.67	1685.48
415.87	1777.64
416.08	1632.23
416.29	1673.19
416.49	1730.53
416.70	1640.42
416.91	1712.10
417.11	1720.29
417.32	1650.66
417.53	1796.07
417.73	1771.49
417.94	1656.81
418.15	1665.00
418.35	1681.38
418.56	1712.10
418.77	1867.75
418.97	1673.19
419.18	1611.75
419.38	1570.79
419.59	1669.09
419.80	1796.07
420.00	1728.49
420.21	1689.57
420.42	1783.78
420.62	1679.33
420.83	1726.44
421.04	1753.06
421.24	1665.00
421.45	1804.26
421.65	1726.44
421.86	1685.48
422.07	1744.87
422.27	1730.53
422.48	1734.63
422.69	1624.04
422.89	1769.44
423.10	1699.81
423.30	1660.90
423.51	1761.25
423.72	1687.53
423.92	1714.15
424.13	1638.38
424.33	1656.81
424.54	1857.51
424.75	1742.82
424.95	1779.68
425.16	1714.15
425.36	1644.52
425.57	1757.16
425.78	1724.39
425.98	1724.39
426.19	1710.05
426.39	1705.96
426.60	1755.11
426.81	1875.94
427.01	1773.54
427.22	1603.56
427.42	1558.50
427.63	1648.61
427.83	1769.44
428.04	1771.49
428.25	1767.40
428.45	1796.07
428.66	1732.58
428.86	1644.52
429.07	1677.29
429.28	1744.87
429.48	1726.44
429.69	1630.18
429.89	1697.77
430.10	1599.46
430.30	1775.59
430.51	1761.25
430.71	1720.29
430.92	1732.58
431.13	1701.86
431.33	1744.87
431.54	1783.78
431.74	1871.84
431.95	1841.12
432.15	1726.44
432.36	1693.67
432.56	1826.79
432.77	1839.08
432.98	1816.55
433.18	1751.01
433.39	1605.61
433.59	1628.14
433.80	1794.02
434.00	1755.11
434.21	1705.96
434.41	1611.75
434.62	1769.44
434.82	1662.95
435.03	1638.38
435.23	1708.01
435.44	1603.56
435.64	1677.29
435.85	1642.47
436.06	1751.01
436.26	1779.68
436.47	1648.61
436.67	1683.43
436.88	1611.75
437.08	1783.78
437.29	1779.68
437.49	1751.01
437.70	1763.30
437.90	1703.91
438.11	1828.84
438.31	1775.59
438.52	1802.21
438.72	1912.80
438.93	1841.12
439.13	1814.50
439.34	1826.79
439.54	1796.07
439.75	1748.97
439.95	1718.25
440.16	1746.92
440.36	1812.45
440.57	1740.77
440.77	1789.92
440.98	1667.05
441.18	1761.25
441.39	1648.61
441.59	1689.57
441.80	1810.40
442.00	1751.01
442.21	1763.30
442.41	1665.00
442.62	1771.49
442.82	1615.85
443.02	1738.73
443.23	1789.92
443.43	1669.09
443.64	1779.68
443.84	1634.28
444.05	1779.68
444.25	1714.15
444.46	1736.68
444.66	1677.29
444.87	1783.78
445.07	1658.85
445.28	1759.21
445.48	1849.32
445.69	1746.92
445.89	1828.84
446.09	1765.35
446.30	1951.71
446.50	2580.44
446.71	3682.25
446.91	4286.40
447.12	4802.49
447.32	4804.53
447.53	4362.17
447.73	3770.31
447.93	3661.77
448.14	3362.76
448.34	3153.87
448.55	2918.36
448.75	2824.15
448.96	2625.50
449.16	2525.15
449.36	2197.47
449.57	2074.59
449.77	1898.47
449.98	1742.82
450.18	1877.99
450.39	1810.40
450.59	1826.79
450.79	1748.97
451.00	1662.95
451.20	1777.64
451.41	1695.72
451.61	1746.92
451.81	1652.71
452.02	1654.76
452.22	1624.04
452.43	1732.58
452.63	1654.76
