SpectraSuite Data File
++++++++++++++++++++++++++++++++++++
Date: Mon Jun 06 17:25:17 CEST 2016
User: root
Dark Spectrum Present: No
Reference Spectrum Present: No
Number of Sampled Component Spectra: 1
Spectrometers: USB4C02835
Integration Time (usec): 100000 (USB4C02835)
Spectra Averaged: 1 (USB4C02835)
Boxcar Smoothing: 0 (USB4C02835)
Correct for Electrical Dark: No (USB4C02835)
Strobe/Lamp Enabled: No (USB4C02835)
Correct for Detector Non-linearity: No (USB4C02835)
Correct for Stray Light: No (USB4C02835)
Number of Pixels in Processed Spectrum: 3648
>>>>>Begin Processed Spectral Data<<<<<
177.47	1507.30
177.69	1507.30
177.91	1507.30
178.13	1490.92
178.36	1443.82
178.58	1660.90
178.80	1773.54
179.02	1644.52
179.24	1654.76
179.46	1732.58
179.68	1740.77
179.90	1720.29
180.13	1796.07
180.35	1712.10
180.57	1705.96
180.79	1732.58
181.01	1730.53
181.23	1748.97
181.45	1767.40
181.67	1734.63
181.90	1824.74
182.12	1683.43
182.34	1599.46
182.56	1771.49
182.78	1714.15
183.00	1705.96
183.22	1726.44
183.44	1697.77
183.66	1806.31
183.89	1802.21
184.11	1697.77
184.33	1685.48
184.55	1769.44
184.77	1785.83
184.99	1751.01
185.21	1722.34
185.43	1785.83
185.65	1705.96
185.87	1746.92
186.10	1867.75
186.32	1869.80
186.54	1755.11
186.76	1722.34
186.98	1787.88
187.20	1728.49
187.42	1724.39
187.64	1730.53
187.86	1656.81
188.08	1716.20
188.30	1632.23
188.52	1640.42
188.75	1802.21
188.97	1783.78
189.19	1636.33
189.41	1724.39
189.63	1710.05
189.85	1638.38
190.07	1597.42
190.29	1570.79
190.51	1675.24
190.73	1656.81
190.95	1787.88
191.17	1791.97
191.39	1662.95
191.61	1769.44
191.84	1740.77
192.06	1699.81
192.28	1591.27
192.50	1886.18
192.72	1691.62
192.94	1722.34
193.16	1820.64
193.38	1720.29
193.60	1642.47
193.82	1662.95
194.04	1828.84
194.26	1787.88
194.48	1742.82
194.70	1722.34
194.92	1667.05
195.14	1738.73
195.36	1665.00
195.58	1753.06
195.80	1689.57
196.02	1636.33
196.24	1652.71
196.46	1779.68
196.69	1632.23
196.91	1816.55
197.13	1714.15
197.35	1615.85
197.57	1859.56
197.79	1746.92
198.01	1744.87
198.23	1710.05
198.45	1763.30
198.67	1660.90
198.89	1722.34
199.11	1712.10
199.33	1644.52
199.55	1640.42
199.77	1677.29
199.99	1710.05
200.21	1689.57
200.43	1658.85
200.65	1693.67
200.87	1624.04
201.09	1685.48
201.31	1691.62
201.53	1791.97
201.75	1748.97
201.97	1691.62
202.19	1617.90
202.41	1753.06
202.63	1853.41
202.85	1771.49
203.07	1677.29
203.29	1722.34
203.51	1705.96
203.73	1658.85
203.95	1933.28
204.17	1662.95
204.39	1746.92
204.61	1744.87
204.83	1705.96
205.05	1673.19
205.27	1734.63
205.49	1800.16
205.71	1675.24
205.93	1640.42
206.15	1671.14
206.37	1724.39
206.59	1658.85
206.81	1662.95
207.03	1640.42
207.25	1640.42
207.47	1703.91
207.69	1681.38
207.91	1753.06
208.13	1822.69
208.34	1638.38
208.56	1658.85
208.78	1734.63
209.00	1636.33
209.22	1619.94
209.44	1757.16
209.66	1728.49
209.88	1646.57
210.10	1681.38
210.32	1742.82
210.54	1744.87
210.76	1710.05
210.98	1746.92
211.20	1607.66
211.42	1775.59
211.64	1757.16
211.86	1769.44
212.08	1761.25
212.30	1689.57
212.52	1748.97
212.74	1722.34
212.96	1712.10
213.17	1771.49
213.39	1726.44
213.61	1806.31
213.83	1742.82
214.05	1609.70
214.27	1728.49
214.49	1687.53
214.71	1742.82
214.93	1763.30
215.15	1665.00
215.37	1765.35
215.59	1574.89
215.81	1746.92
216.03	1695.72
216.24	1781.73
216.46	1759.21
216.68	1773.54
216.90	1669.09
217.12	1689.57
217.34	1693.67
217.56	1714.15
217.78	1746.92
218.00	1773.54
218.22	1683.43
218.44	1730.53
218.66	1685.48
218.87	1859.56
219.09	1705.96
219.31	1794.02
219.53	1689.57
219.75	1697.77
219.97	1662.95
220.19	1703.91
220.41	1669.09
220.63	1798.12
220.85	1734.63
221.06	1691.62
221.28	1728.49
221.50	1791.97
221.72	1669.09
221.94	1722.34
222.16	1693.67
222.38	1806.31
222.60	1724.39
222.82	1673.19
223.03	1730.53
223.25	1695.72
223.47	1718.25
223.69	1828.84
223.91	1802.21
224.13	1742.82
224.35	1609.70
224.57	1746.92
224.78	1755.11
225.00	1675.24
225.22	1734.63
225.44	1601.51
225.66	1714.15
225.88	1656.81
226.10	1695.72
226.32	1738.73
226.53	1841.12
226.75	1759.21
226.97	1738.73
227.19	1755.11
227.41	1681.38
227.63	1638.38
227.85	1673.19
228.06	1748.97
228.28	1679.33
228.50	1796.07
228.72	1632.23
228.94	1714.15
229.16	1656.81
229.37	1644.52
229.59	1548.26
229.81	1810.40
230.03	1665.00
230.25	1605.61
230.47	1693.67
230.69	1732.58
230.90	1816.55
231.12	1665.00
231.34	1701.86
231.56	1746.92
231.78	1628.14
232.00	1787.88
232.21	1738.73
232.43	1708.01
232.65	1638.38
232.87	1744.87
233.09	1638.38
233.30	1687.53
233.52	1783.78
233.74	1736.68
233.96	1732.58
234.18	1751.01
234.40	1695.72
234.61	1720.29
234.83	1671.14
235.05	1636.33
235.27	1843.17
235.49	1667.05
235.70	1777.64
235.92	1757.16
236.14	1705.96
236.36	1908.71
236.58	1658.85
236.79	1820.64
237.01	1730.53
237.23	1726.44
237.45	1841.12
237.67	1644.52
237.88	1708.01
238.10	1814.50
238.32	1650.66
238.54	1732.58
238.76	1658.85
238.97	1632.23
239.19	1746.92
239.41	1687.53
239.63	1781.73
239.85	1689.57
240.06	1703.91
240.28	1615.85
240.50	1804.26
240.72	1705.96
240.93	1654.76
241.15	1755.11
241.37	1667.05
241.59	1814.50
241.81	1777.64
242.02	1671.14
242.24	1837.03
242.46	1697.77
242.68	1726.44
242.89	1828.84
243.11	1818.60
243.33	1708.01
243.55	1742.82
243.76	1755.11
243.98	1652.71
244.20	1679.33
244.42	1677.29
244.64	1681.38
244.85	1695.72
245.07	1697.77
245.29	1773.54
245.51	1714.15
245.72	1767.40
245.94	1779.68
246.16	1665.00
246.38	1777.64
246.59	1673.19
246.81	1687.53
247.03	1685.48
247.24	1632.23
247.46	1728.49
247.68	1789.92
247.90	1714.15
248.11	1650.66
248.33	1775.59
248.55	1638.38
248.77	1716.20
248.98	1757.16
249.20	1859.56
249.42	1722.34
249.64	1701.86
249.85	1662.95
250.07	1705.96
250.29	1744.87
250.50	1767.40
250.72	1617.90
250.94	1789.92
251.16	1771.49
251.37	1804.26
251.59	1691.62
251.81	1742.82
252.02	1927.14
252.24	1648.61
252.46	1812.45
252.68	1699.81
252.89	1695.72
253.11	1656.81
253.33	1781.73
253.54	1787.88
253.76	1632.23
253.98	1701.86
254.20	1738.73
254.41	1669.09
254.63	1736.68
254.85	1634.28
255.06	1697.77
255.28	1771.49
255.50	1779.68
255.71	1660.90
255.93	1640.42
256.15	1665.00
256.36	1708.01
256.58	1748.97
256.80	1714.15
257.02	1710.05
257.23	1646.57
257.45	1656.81
257.67	1683.43
257.88	1660.90
258.10	1648.61
258.32	1744.87
258.53	1722.34
258.75	1800.16
258.97	1626.09
259.18	1703.91
259.40	1832.93
259.62	1763.30
259.83	1785.83
260.05	1767.40
260.27	1992.67
260.48	1730.53
260.70	1740.77
260.92	1683.43
261.13	1712.10
261.35	1697.77
261.57	1742.82
261.78	1558.50
262.00	1644.52
262.22	1710.05
262.43	1632.23
262.65	1708.01
262.86	1761.25
263.08	1849.32
263.30	1697.77
263.51	1687.53
263.73	1738.73
263.95	1759.21
264.16	1695.72
264.38	1617.90
264.60	1789.92
264.81	1703.91
265.03	1789.92
265.25	1675.24
265.46	1710.05
265.68	1669.09
265.89	1740.77
266.11	1624.04
266.33	1769.44
266.54	1757.16
266.76	1734.63
266.98	1755.11
267.19	1751.01
267.41	1738.73
267.62	1652.71
267.84	1626.09
268.06	1828.84
268.27	1689.57
268.49	1800.16
268.70	1781.73
268.92	1701.86
269.14	1671.14
269.35	1646.57
269.57	1779.68
269.79	1769.44
270.00	1728.49
270.22	1791.97
270.43	1726.44
270.65	1603.56
270.87	1771.49
271.08	1759.21
271.30	1769.44
271.51	1796.07
271.73	1765.35
271.95	1787.88
272.16	1728.49
272.38	1718.25
272.59	1640.42
272.81	1714.15
273.02	1755.11
273.24	1779.68
273.46	1669.09
273.67	1560.55
273.89	1654.76
274.10	1621.99
274.32	1767.40
274.54	1757.16
274.75	1701.86
274.97	1642.47
275.18	1757.16
275.40	1703.91
275.61	1726.44
275.83	1714.15
276.05	1658.85
276.26	1748.97
276.48	1773.54
276.69	1673.19
276.91	1699.81
277.12	1712.10
277.34	1787.88
277.55	1804.26
277.77	1751.01
277.99	1740.77
278.20	1689.57
278.42	1624.04
278.63	1718.25
278.85	1738.73
279.06	1722.34
279.28	1738.73
279.49	1714.15
279.71	1787.88
279.93	1701.86
280.14	1769.44
280.36	1705.96
280.57	1718.25
280.79	1751.01
281.00	1603.56
281.22	1773.54
281.43	1808.36
281.65	1624.04
281.86	1667.05
282.08	1800.16
282.29	1812.45
282.51	1603.56
282.73	1619.94
282.94	1677.29
283.16	1746.92
283.37	1802.21
283.59	1683.43
283.80	1687.53
284.02	1685.48
284.23	1759.21
284.45	1781.73
284.66	1724.39
284.88	1701.86
285.09	1640.42
285.31	1722.34
285.52	1771.49
285.74	1683.43
285.95	1789.92
286.17	1767.40
286.38	1759.21
286.60	1685.48
286.81	1667.05
287.03	1755.11
287.24	1728.49
287.46	1767.40
287.67	1695.72
287.89	1832.93
288.10	1748.97
288.32	1732.58
288.53	1857.51
288.75	1714.15
288.96	1734.63
289.18	1660.90
289.39	1755.11
289.61	1746.92
289.82	1802.21
290.04	1837.03
290.25	1685.48
290.47	1728.49
290.68	1687.53
290.90	1796.07
291.11	1658.85
291.33	1783.78
291.54	1665.00
291.76	1656.81
291.97	1732.58
292.18	1779.68
292.40	1757.16
292.61	1714.15
292.83	1824.74
293.04	1746.92
293.26	1638.38
293.47	1767.40
293.69	1695.72
293.90	1697.77
294.12	1824.74
294.33	1730.53
294.55	1742.82
294.76	1828.84
294.97	1767.40
295.19	1837.03
295.40	1703.91
295.62	1695.72
295.83	1751.01
296.05	1656.81
296.26	1755.11
296.48	1652.71
296.69	1769.44
296.90	1599.46
297.12	1789.92
297.33	1806.31
297.55	1755.11
297.76	1800.16
297.98	1720.29
298.19	1767.40
298.41	1718.25
298.62	1701.86
298.83	1781.73
299.05	1691.62
299.26	1710.05
299.48	1652.71
299.69	1740.77
299.90	1812.45
300.12	1759.21
300.33	1683.43
300.55	1734.63
300.76	1716.20
300.98	1662.95
301.19	1751.01
301.40	1667.05
301.62	1751.01
301.83	1763.30
302.05	1671.14
302.26	1763.30
302.47	1769.44
302.69	1593.32
302.90	1697.77
303.12	1619.94
303.33	1818.60
303.54	1773.54
303.76	1665.00
303.97	1742.82
304.19	1783.78
304.40	1621.99
304.61	1708.01
304.83	1832.93
305.04	1751.01
305.26	1708.01
305.47	1744.87
305.68	1697.77
305.90	1632.23
306.11	1769.44
306.33	1619.94
306.54	1728.49
306.75	1691.62
306.97	1646.57
307.18	1673.19
307.39	1701.86
307.61	1791.97
307.82	1673.19
308.04	1730.53
308.25	1720.29
308.46	1748.97
308.68	1783.78
308.89	1722.34
309.10	1810.40
309.32	1736.68
309.53	1695.72
309.74	1763.30
309.96	1677.29
310.17	1818.60
310.39	1779.68
310.60	1724.39
310.81	1691.62
311.03	1703.91
311.24	1751.01
311.45	1771.49
311.67	1853.41
311.88	1785.83
312.09	1732.58
312.31	1681.38
312.52	1607.66
312.73	1751.01
312.95	1658.85
313.16	1718.25
313.37	1865.70
313.59	1726.44
313.80	1759.21
314.01	1789.92
314.23	1648.61
314.44	1632.23
314.65	1595.37
314.87	1697.77
315.08	1736.68
315.29	1656.81
315.51	1648.61
315.72	1613.80
315.93	1828.84
316.15	1781.73
316.36	1720.29
316.57	1734.63
316.79	1765.35
317.00	1662.95
317.21	1742.82
317.43	1667.05
317.64	1714.15
317.85	1718.25
318.07	1722.34
318.28	1775.59
318.49	1744.87
318.70	1875.94
318.92	1806.31
319.13	1828.84
319.34	1726.44
319.56	1832.93
319.77	1771.49
319.98	1808.36
320.20	1740.77
320.41	1765.35
320.62	1753.06
320.83	1644.52
321.05	1814.50
321.26	1783.78
321.47	1597.42
321.69	1789.92
321.90	1755.11
322.11	1675.24
322.32	1738.73
322.54	1826.79
322.75	1697.77
322.96	1759.21
323.18	1681.38
323.39	1566.70
323.60	1732.58
323.81	1791.97
324.03	1665.00
324.24	1665.00
324.45	1736.68
324.66	1763.30
324.88	1816.55
325.09	1804.26
325.30	1662.95
325.52	1763.30
325.73	1703.91
325.94	1605.61
326.15	1667.05
326.37	1673.19
326.58	1791.97
326.79	1791.97
327.00	1615.85
327.22	1742.82
327.43	1656.81
327.64	1730.53
327.85	1779.68
328.07	1775.59
328.28	1734.63
328.49	1687.53
328.70	1734.63
328.92	1628.14
329.13	1701.86
329.34	1755.11
329.55	1834.98
329.76	1701.86
329.98	1716.20
330.19	1738.73
330.40	1877.99
330.61	1767.40
330.83	1740.77
331.04	1697.77
331.25	1681.38
331.46	1728.49
331.68	1693.67
331.89	1728.49
332.10	1744.87
332.31	1654.76
332.52	1732.58
332.74	1867.75
332.95	1566.70
333.16	1687.53
333.37	1767.40
333.58	1669.09
333.80	1689.57
334.01	1658.85
334.22	1658.85
334.43	1687.53
334.64	1699.81
334.86	1640.42
335.07	1669.09
335.28	1828.84
335.49	1665.00
335.70	1744.87
335.92	1769.44
336.13	1845.22
336.34	1746.92
336.55	1660.90
336.76	1736.68
336.98	1556.46
337.19	1759.21
337.40	1869.80
337.61	1839.08
337.82	1685.48
338.04	1796.07
338.25	1656.81
338.46	1703.91
338.67	1617.90
338.88	1665.00
339.09	1583.08
339.31	1640.42
339.52	1740.77
339.73	1644.52
339.94	1689.57
340.15	1771.49
340.36	1589.22
340.58	1765.35
340.79	1705.96
341.00	1705.96
341.21	1665.00
341.42	1744.87
341.63	1679.33
341.85	1783.78
342.06	1765.35
342.27	1669.09
342.48	1783.78
342.69	1693.67
342.90	1763.30
343.12	1814.50
343.33	1673.19
343.54	1744.87
343.75	1818.60
343.96	1681.38
344.17	1660.90
344.38	1669.09
344.60	1617.90
344.81	1658.85
345.02	1732.58
345.23	1746.92
345.44	1865.70
345.65	1736.68
345.86	1740.77
346.07	1724.39
346.29	1660.90
346.50	1728.49
346.71	1755.11
346.92	1820.64
347.13	1888.23
347.34	1685.48
347.55	1718.25
347.76	1851.36
347.98	1665.00
348.19	1689.57
348.40	1779.68
348.61	1636.33
348.82	1771.49
349.03	1767.40
349.24	1662.95
349.45	1806.31
349.66	1621.99
349.88	1697.77
350.09	1701.86
350.30	1767.40
350.51	1808.36
350.72	1753.06
350.93	1777.64
351.14	1671.14
351.35	1726.44
351.56	1703.91
351.77	1794.02
351.99	1730.53
352.20	1828.84
352.41	1755.11
352.62	1570.79
352.83	1658.85
353.04	1722.34
353.25	1640.42
353.46	1773.54
353.67	1732.58
353.88	1632.23
354.09	1763.30
354.30	1675.24
354.52	1716.20
354.73	1720.29
354.94	1658.85
355.15	1722.34
355.36	1773.54
355.57	1683.43
355.78	1669.09
355.99	1703.91
356.20	1751.01
356.41	1859.56
356.62	1689.57
356.83	1652.71
357.04	1818.60
357.25	1613.80
357.46	1630.18
357.68	1572.84
357.89	1648.61
358.10	1705.96
358.31	1658.85
358.52	1763.30
358.73	1763.30
358.94	1599.46
359.15	1673.19
359.36	1871.84
359.57	1687.53
359.78	1751.01
359.99	1761.25
360.20	1697.77
360.41	1630.18
360.62	1744.87
360.83	1742.82
361.04	1765.35
361.25	1677.29
361.46	1937.38
361.67	1708.01
361.88	1763.30
362.09	1763.30
362.30	1703.91
362.51	1726.44
362.72	1652.71
362.93	1757.16
363.14	1714.15
363.35	1742.82
363.56	1640.42
363.78	1753.06
363.99	1773.54
364.20	1669.09
364.41	1738.73
364.62	1857.51
364.83	1724.39
365.04	1697.77
365.25	1705.96
365.46	1873.89
365.67	1734.63
365.88	1615.85
366.09	1742.82
366.30	1679.33
366.51	1681.38
366.72	1654.76
366.93	1740.77
367.14	1638.38
367.35	1812.45
367.56	1697.77
367.77	1826.79
367.98	1765.35
368.18	1660.90
368.39	1695.72
368.60	1699.81
368.81	1683.43
369.02	1679.33
369.23	1718.25
369.44	1613.80
369.65	1716.20
369.86	1738.73
370.07	1753.06
370.28	1677.29
370.49	1759.21
370.70	1728.49
370.91	1679.33
371.12	1615.85
371.33	1765.35
371.54	1779.68
371.75	1753.06
371.96	1587.18
372.17	1722.34
372.38	1720.29
372.59	1775.59
372.80	1681.38
373.01	1601.51
373.22	1732.58
373.43	1816.55
373.64	1648.61
373.85	1746.92
374.06	1800.16
374.26	1708.01
374.47	1789.92
374.68	1785.83
374.89	1695.72
375.10	1689.57
375.31	1800.16
375.52	1728.49
375.73	1728.49
375.94	1650.66
376.15	1810.40
376.36	1691.62
376.57	1658.85
376.78	1697.77
376.99	1751.01
377.20	1712.10
377.40	1738.73
377.61	1857.51
377.82	1712.10
378.03	1806.31
378.24	1626.09
378.45	1757.16
378.66	1718.25
378.87	1634.28
379.08	1658.85
379.29	1708.01
379.50	1744.87
379.71	1705.96
379.91	1808.36
380.12	1699.81
380.33	1685.48
380.54	1718.25
380.75	1650.66
380.96	1710.05
381.17	1759.21
381.38	1771.49
381.59	1712.10
381.80	1650.66
382.00	1806.31
382.21	1732.58
382.42	1882.08
382.63	1867.75
382.84	1794.02
383.05	1832.93
383.26	1855.46
383.47	1761.25
383.68	1771.49
383.88	1763.30
384.09	1828.84
384.30	1798.12
384.51	1751.01
384.72	1712.10
384.93	1675.24
385.14	1695.72
385.35	1779.68
385.55	1644.52
385.76	1804.26
385.97	1683.43
386.18	1734.63
386.39	1648.61
386.60	1703.91
386.81	1779.68
387.02	1634.28
387.22	1619.94
387.43	1802.21
387.64	1808.36
387.85	1826.79
388.06	2207.71
388.27	4315.07
388.48	6670.23
388.68	8247.17
388.89	9586.54
389.10	9817.96
389.31	8540.03
389.52	7661.45
389.73	6635.42
389.93	6231.97
390.14	5842.85
390.35	5263.28
390.56	4638.65
390.77	3653.58
390.98	3055.57
391.18	2545.63
391.39	2183.13
391.60	1812.45
391.81	1888.23
392.02	1755.11
392.23	1892.32
392.43	1738.73
392.64	1820.64
392.85	1697.77
393.06	1851.36
393.27	1757.16
393.47	1705.96
393.68	1812.45
393.89	1726.44
394.10	1751.01
394.31	1683.43
394.52	1673.19
394.72	1665.00
394.93	1812.45
395.14	1697.77
395.35	1667.05
395.56	1677.29
395.76	1677.29
395.97	1699.81
396.18	1888.23
396.39	1812.45
396.60	2052.06
396.80	1949.67
397.01	1865.70
397.22	1816.55
397.43	1894.37
397.64	1787.88
397.84	1839.08
398.05	1892.32
398.26	1753.06
398.47	1732.58
398.67	1826.79
398.88	1636.33
399.09	1746.92
399.30	1642.47
399.51	1705.96
399.71	1705.96
399.92	1705.96
400.13	1710.05
400.34	1751.01
400.54	1748.97
400.75	1775.59
400.96	1697.77
401.17	1742.82
401.37	1730.53
401.58	1759.21
401.79	1726.44
402.00	1810.40
402.21	2017.25
402.41	1976.29
402.62	1982.43
402.83	2072.54
403.04	2039.78
403.24	2082.78
403.45	1824.74
403.66	1855.46
403.87	1845.22
404.07	1832.93
404.28	1970.15
404.49	1847.27
404.70	1753.06
404.90	1787.88
405.11	1798.12
405.32	1812.45
405.52	1675.24
405.73	1705.96
405.94	1677.29
406.15	1703.91
406.35	1705.96
406.56	1724.39
406.77	1738.73
406.98	1732.58
407.18	1673.19
407.39	1781.73
407.60	1734.63
407.80	1828.84
408.01	1759.21
408.22	1751.01
408.43	1720.29
408.63	1724.39
408.84	1716.20
409.05	1824.74
409.25	1740.77
409.46	1730.53
409.67	1697.77
409.88	1677.29
410.08	1726.44
410.29	1673.19
410.50	1773.54
410.70	1722.34
410.91	1583.08
411.12	1755.11
411.32	1722.34
411.53	1683.43
411.74	1755.11
411.95	1826.79
412.15	1787.88
412.36	1748.97
412.57	1880.04
412.77	1851.36
412.98	1748.97
413.19	1693.67
413.39	1757.16
413.60	1775.59
413.81	1865.70
414.01	1677.29
414.22	1769.44
414.43	1789.92
414.63	1699.81
414.84	1769.44
415.05	1718.25
415.25	1648.61
415.46	1746.92
415.67	1658.85
415.87	1736.68
416.08	1740.77
416.29	1763.30
416.49	1757.16
416.70	1693.67
416.91	1679.33
417.11	1705.96
417.32	1820.64
417.53	1697.77
417.73	1779.68
417.94	1736.68
418.15	1734.63
418.35	1673.19
418.56	1720.29
418.77	1830.88
418.97	1751.01
419.18	1703.91
419.38	1644.52
419.59	1714.15
419.80	1773.54
420.00	1665.00
420.21	1751.01
420.42	1826.79
420.62	1695.72
420.83	1621.99
421.04	1736.68
421.24	1718.25
421.45	1728.49
421.65	1748.97
421.86	1718.25
422.07	1777.64
422.27	1734.63
422.48	1740.77
422.69	1601.51
422.89	1693.67
423.10	1693.67
423.30	1648.61
423.51	1767.40
423.72	1806.31
423.92	1855.46
424.13	1523.69
424.33	1738.73
424.54	1779.68
424.75	1722.34
424.95	1814.50
425.16	1658.85
425.36	1673.19
425.57	1769.44
425.78	1650.66
425.98	1843.17
426.19	1677.29
426.39	1679.33
426.60	1695.72
426.81	1869.80
427.01	1656.81
427.22	1722.34
427.42	1591.27
427.63	1648.61
427.83	1769.44
428.04	1814.50
428.25	1828.84
428.45	1781.73
428.66	1763.30
428.86	1687.53
429.07	1757.16
429.28	1730.53
429.48	1679.33
429.69	1740.77
429.89	1732.58
430.10	1636.33
430.30	1808.36
430.51	1714.15
430.71	1630.18
430.92	1710.05
431.13	1742.82
431.33	1839.08
431.54	1724.39
431.74	1830.88
431.95	1816.55
432.15	1714.15
432.36	1705.96
432.56	1779.68
432.77	1841.12
432.98	1843.17
433.18	1753.06
433.39	1677.29
433.59	1699.81
433.80	1832.93
434.00	1873.89
434.21	1708.01
434.41	1669.09
434.62	1910.75
434.82	1722.34
435.03	1630.18
435.23	1734.63
435.44	1654.76
435.64	1714.15
435.85	1763.30
436.06	1726.44
436.26	1783.78
436.47	1648.61
436.67	1681.38
436.88	1710.05
437.08	1732.58
437.29	1740.77
437.49	1697.77
437.70	1742.82
437.90	1716.20
438.11	1884.13
438.31	1728.49
438.52	1892.32
438.72	1841.12
438.93	1839.08
439.13	1853.41
439.34	1837.03
439.54	1757.16
439.75	1837.03
439.95	1853.41
440.16	1763.30
440.36	1687.53
440.57	1800.16
440.77	1724.39
440.98	1751.01
441.18	1714.15
441.39	1683.43
441.59	1734.63
441.80	1808.36
442.00	1701.86
442.21	1771.49
442.41	1632.23
442.62	1849.32
442.82	1732.58
443.02	1740.77
443.23	1734.63
443.43	1716.20
443.64	1785.83
443.84	1689.57
444.05	1820.64
444.25	1726.44
444.46	1742.82
444.66	1783.78
444.87	1849.32
445.07	1624.04
445.28	1703.91
445.48	1820.64
445.69	1662.95
445.89	1900.52
446.09	1816.55
446.30	2039.78
446.50	2656.22
446.71	3737.54
446.91	4364.22
447.12	4712.38
447.32	4845.49
447.53	4364.22
447.73	3901.38
447.93	3567.56
448.14	3229.65
448.34	3139.54
448.55	2938.84
448.75	2809.81
448.96	2682.84
449.16	2375.64
449.36	2179.04
449.57	2025.44
449.77	1898.47
449.98	1834.98
450.18	1863.65
450.39	1820.64
450.59	1767.40
450.79	1814.50
451.00	1722.34
451.20	1728.49
451.41	1753.06
451.61	1718.25
451.81	1753.06
452.02	1695.72
452.22	1718.25
452.43	1701.86
452.63	1640.42
