SpectraSuite Data File
++++++++++++++++++++++++++++++++++++
Date: Mon Jun 06 14:50:57 CEST 2016
User: root
Dark Spectrum Present: No
Reference Spectrum Present: No
Number of Sampled Component Spectra: 1
Spectrometers: USB4C02835
Integration Time (usec): 100000 (USB4C02835)
Spectra Averaged: 1 (USB4C02835)
Boxcar Smoothing: 0 (USB4C02835)
Correct for Electrical Dark: No (USB4C02835)
Strobe/Lamp Enabled: No (USB4C02835)
Correct for Detector Non-linearity: No (USB4C02835)
Correct for Stray Light: No (USB4C02835)
Number of Pixels in Processed Spectrum: 3648
>>>>>Begin Processed Spectral Data<<<<<
177.47	1423.34
177.69	1423.34
177.91	1423.34
178.13	1376.24
178.36	1435.63
178.58	1650.66
178.80	1736.68
179.02	1603.56
179.24	1607.66
179.46	1662.95
179.68	1665.00
179.90	1667.05
180.13	1714.15
180.35	1662.95
180.57	1621.99
180.79	1755.11
181.01	1734.63
181.23	1751.01
181.45	1810.40
181.67	1677.29
181.90	1716.20
182.12	1648.61
182.34	1636.33
182.56	1660.90
182.78	1705.96
183.00	1677.29
183.22	1703.91
183.44	1652.71
183.66	1830.88
183.89	1685.48
184.11	1689.57
184.33	1695.72
184.55	1693.67
184.77	1695.72
184.99	1687.53
185.21	1675.24
185.43	1804.26
185.65	1638.38
185.87	1714.15
186.10	1839.08
186.32	1740.77
186.54	1771.49
186.76	1779.68
186.98	1738.73
187.20	1703.91
187.42	1695.72
187.64	1726.44
187.86	1718.25
188.08	1742.82
188.30	1611.75
188.52	1705.96
188.75	1722.34
188.97	1765.35
189.19	1658.85
189.41	1683.43
189.63	1773.54
189.85	1697.77
190.07	1599.46
190.29	1607.66
190.51	1710.05
190.73	1587.18
190.95	1751.01
191.17	1689.57
191.39	1597.42
191.61	1671.14
191.84	1656.81
192.06	1677.29
192.28	1654.76
192.50	1857.51
192.72	1730.53
192.94	1646.57
193.16	1779.68
193.38	1665.00
193.60	1665.00
193.82	1675.24
194.04	1712.10
194.26	1705.96
194.48	1728.49
194.70	1681.38
194.92	1720.29
195.14	1742.82
195.36	1730.53
195.58	1763.30
195.80	1746.92
196.02	1636.33
196.24	1679.33
196.46	1804.26
196.69	1693.67
196.91	1804.26
197.13	1628.14
197.35	1681.38
197.57	1773.54
197.79	1714.15
198.01	1617.90
198.23	1673.19
198.45	1779.68
198.67	1591.27
198.89	1683.43
199.11	1726.44
199.33	1699.81
199.55	1603.56
199.77	1679.33
199.99	1806.31
200.21	1746.92
200.43	1697.77
200.65	1652.71
200.87	1615.85
201.09	1695.72
201.31	1615.85
201.53	1734.63
201.75	1746.92
201.97	1740.77
202.19	1652.71
202.41	1695.72
202.63	1845.22
202.85	1724.39
203.07	1718.25
203.29	1669.09
203.51	1605.61
203.73	1720.29
203.95	1904.61
204.17	1638.38
204.39	1654.76
204.61	1679.33
204.83	1732.58
205.05	1681.38
205.27	1710.05
205.49	1777.64
205.71	1740.77
205.93	1599.46
206.15	1683.43
206.37	1638.38
206.59	1669.09
206.81	1669.09
207.03	1648.61
207.25	1660.90
207.47	1810.40
207.69	1638.38
207.91	1777.64
208.13	1771.49
208.34	1648.61
208.56	1646.57
208.78	1689.57
209.00	1734.63
209.22	1710.05
209.44	1660.90
209.66	1630.18
209.88	1732.58
210.10	1705.96
210.32	1673.19
210.54	1755.11
210.76	1683.43
210.98	1730.53
211.20	1636.33
211.42	1705.96
211.64	1716.20
211.86	1806.31
212.08	1693.67
212.30	1699.81
212.52	1712.10
212.74	1738.73
212.96	1658.85
213.17	1765.35
213.39	1740.77
213.61	1781.73
213.83	1646.57
214.05	1628.14
214.27	1800.16
214.49	1685.48
214.71	1658.85
214.93	1791.97
215.15	1630.18
215.37	1787.88
215.59	1638.38
215.81	1746.92
216.03	1812.45
216.24	1738.73
216.46	1677.29
216.68	1656.81
216.90	1687.53
217.12	1814.50
217.34	1621.99
217.56	1724.39
217.78	1734.63
218.00	1726.44
218.22	1728.49
218.44	1714.15
218.66	1714.15
218.87	1837.03
219.09	1689.57
219.31	1708.01
219.53	1679.33
219.75	1689.57
219.97	1652.71
220.19	1691.62
220.41	1689.57
220.63	1720.29
220.85	1671.14
221.06	1599.46
221.28	1779.68
221.50	1751.01
221.72	1761.25
221.94	1740.77
222.16	1742.82
222.38	1712.10
222.60	1751.01
222.82	1660.90
223.03	1755.11
223.25	1652.71
223.47	1701.86
223.69	1796.07
223.91	1677.29
224.13	1675.24
224.35	1642.47
224.57	1808.36
224.78	1779.68
225.00	1658.85
225.22	1757.16
225.44	1712.10
225.66	1753.06
225.88	1665.00
226.10	1761.25
226.32	1714.15
226.53	1791.97
226.75	1685.48
226.97	1652.71
227.19	1677.29
227.41	1619.94
227.63	1718.25
227.85	1599.46
228.06	1726.44
228.28	1691.62
228.50	1730.53
228.72	1615.85
228.94	1724.39
229.16	1662.95
229.37	1624.04
229.59	1587.18
229.81	1787.88
230.03	1636.33
230.25	1693.67
230.47	1581.03
230.69	1589.22
230.90	1744.87
231.12	1603.56
231.34	1679.33
231.56	1791.97
231.78	1632.23
232.00	1724.39
232.21	1798.12
232.43	1693.67
232.65	1599.46
232.87	1705.96
233.09	1656.81
233.30	1658.85
233.52	1703.91
233.74	1712.10
233.96	1742.82
234.18	1740.77
234.40	1714.15
234.61	1908.71
234.83	1656.81
235.05	1556.46
235.27	1865.70
235.49	1742.82
235.70	1773.54
235.92	1814.50
236.14	1802.21
236.36	1765.35
236.58	1609.70
236.79	1763.30
237.01	1718.25
237.23	1615.85
237.45	1812.45
237.67	1740.77
237.88	1720.29
238.10	1804.26
238.32	1617.90
238.54	1681.38
238.76	1632.23
238.97	1658.85
239.19	1660.90
239.41	1714.15
239.63	1802.21
239.85	1787.88
240.06	1677.29
240.28	1685.48
240.50	1734.63
240.72	1669.09
240.93	1660.90
241.15	1699.81
241.37	1738.73
241.59	1806.31
241.81	1570.79
242.02	1699.81
242.24	1771.49
242.46	1771.49
242.68	1681.38
242.89	1738.73
243.11	1673.19
243.33	1794.02
243.55	1656.81
243.76	1771.49
243.98	1669.09
244.20	1701.86
244.42	1648.61
244.64	1701.86
244.85	1632.23
245.07	1593.32
245.29	1810.40
245.51	1658.85
245.72	1777.64
245.94	1722.34
246.16	1677.29
246.38	1742.82
246.59	1650.66
246.81	1611.75
247.03	1595.37
247.24	1650.66
247.46	1724.39
247.68	1746.92
247.90	1634.28
248.11	1746.92
248.33	1730.53
248.55	1681.38
248.77	1644.52
248.98	1771.49
249.20	1775.59
249.42	1726.44
249.64	1718.25
249.85	1628.14
250.07	1720.29
250.29	1703.91
250.50	1718.25
250.72	1619.94
250.94	1687.53
251.16	1851.36
251.37	1703.91
251.59	1724.39
251.81	1648.61
252.02	1791.97
252.24	1644.52
252.46	1802.21
252.68	1722.34
252.89	1675.24
253.11	1681.38
253.33	1845.22
253.54	1732.58
253.76	1632.23
253.98	1605.61
254.20	1642.47
254.41	1675.24
254.63	1701.86
254.85	1632.23
255.06	1757.16
255.28	1701.86
255.50	1656.81
255.71	1611.75
255.93	1642.47
256.15	1716.20
256.36	1710.05
256.58	1650.66
256.80	1761.25
257.02	1695.72
257.23	1691.62
257.45	1703.91
257.67	1757.16
257.88	1714.15
258.10	1771.49
258.32	1699.81
258.53	1751.01
258.75	1777.64
258.97	1628.14
259.18	1751.01
259.40	1691.62
259.62	1738.73
259.83	1714.15
260.05	1787.88
260.27	2000.87
260.48	1728.49
260.70	1615.85
260.92	1671.14
261.13	1761.25
261.35	1665.00
261.57	1755.11
261.78	1619.94
262.00	1652.71
262.22	1746.92
262.43	1621.99
262.65	1703.91
262.86	1699.81
263.08	1800.16
263.30	1689.57
263.51	1662.95
263.73	1687.53
263.95	1769.44
264.16	1654.76
264.38	1693.67
264.60	1783.78
264.81	1658.85
265.03	1787.88
265.25	1710.05
265.46	1720.29
265.68	1724.39
265.89	1734.63
266.11	1691.62
266.33	1791.97
266.54	1720.29
266.76	1716.20
266.98	1732.58
267.19	1765.35
267.41	1718.25
267.62	1738.73
267.84	1591.27
268.06	1728.49
268.27	1703.91
268.49	1779.68
268.70	1708.01
268.92	1753.06
269.14	1654.76
269.35	1611.75
269.57	1693.67
269.79	1779.68
270.00	1740.77
270.22	1763.30
270.43	1673.19
270.65	1570.79
270.87	1714.15
271.08	1820.64
271.30	1804.26
271.51	1714.15
271.73	1767.40
271.95	1773.54
272.16	1701.86
272.38	1744.87
272.59	1638.38
272.81	1697.77
273.02	1740.77
273.24	1718.25
273.46	1775.59
273.67	1738.73
273.89	1675.24
274.10	1697.77
274.32	1800.16
274.54	1718.25
274.75	1710.05
274.97	1634.28
275.18	1730.53
275.40	1730.53
275.61	1710.05
275.83	1705.96
276.05	1689.57
276.26	1712.10
276.48	1736.68
276.69	1605.61
276.91	1632.23
277.12	1740.77
277.34	1712.10
277.55	1791.97
277.77	1658.85
277.99	1685.48
278.20	1648.61
278.42	1648.61
278.63	1660.90
278.85	1695.72
279.06	1589.22
279.28	1710.05
279.49	1619.94
279.71	1712.10
279.93	1689.57
280.14	1667.05
280.36	1656.81
280.57	1781.73
280.79	1718.25
281.00	1665.00
281.22	1650.66
281.43	1800.16
281.65	1558.50
281.86	1626.09
282.08	1716.20
282.29	1804.26
282.51	1595.37
282.73	1648.61
282.94	1613.80
283.16	1734.63
283.37	1834.98
283.59	1744.87
283.80	1699.81
284.02	1769.44
284.23	1720.29
284.45	1624.04
284.66	1679.33
284.88	1660.90
285.09	1662.95
285.31	1755.11
285.52	1712.10
285.74	1574.89
285.95	1673.19
286.17	1718.25
286.38	1783.78
286.60	1669.09
286.81	1626.09
287.03	1697.77
287.24	1628.14
287.46	1710.05
287.67	1689.57
287.89	1814.50
288.10	1708.01
288.32	1673.19
288.53	1699.81
288.75	1732.58
288.96	1779.68
289.18	1757.16
289.39	1714.15
289.61	1806.31
289.82	1884.13
290.04	1763.30
290.25	1732.58
290.47	1763.30
290.68	1660.90
290.90	1779.68
291.11	1583.08
291.33	1720.29
291.54	1652.71
291.76	1685.48
291.97	1705.96
292.18	1714.15
292.40	1697.77
292.61	1705.96
292.83	1820.64
293.04	1689.57
293.26	1648.61
293.47	1701.86
293.69	1673.19
293.90	1691.62
294.12	1751.01
294.33	1718.25
294.55	1695.72
294.76	1748.97
294.97	1830.88
295.19	1763.30
295.40	1693.67
295.62	1720.29
295.83	1697.77
296.05	1660.90
296.26	1769.44
296.48	1654.76
296.69	1730.53
296.90	1703.91
297.12	1779.68
297.33	1748.97
297.55	1699.81
297.76	1730.53
297.98	1753.06
298.19	1716.20
298.41	1685.48
298.62	1685.48
298.83	1789.92
299.05	1718.25
299.26	1744.87
299.48	1630.18
299.69	1744.87
299.90	1736.68
300.12	1669.09
300.33	1730.53
300.55	1669.09
300.76	1787.88
300.98	1648.61
301.19	1732.58
301.40	1732.58
301.62	1722.34
301.83	1656.81
302.05	1701.86
302.26	1677.29
302.47	1732.58
302.69	1646.57
302.90	1759.21
303.12	1630.18
303.33	1726.44
303.54	1812.45
303.76	1697.77
303.97	1775.59
304.19	1794.02
304.40	1632.23
304.61	1681.38
304.83	1783.78
305.04	1740.77
305.26	1699.81
305.47	1699.81
305.68	1728.49
305.90	1581.03
306.11	1710.05
306.33	1701.86
306.54	1726.44
306.75	1642.47
306.97	1527.78
307.18	1638.38
307.39	1662.95
307.61	1722.34
307.82	1708.01
308.04	1626.09
308.25	1621.99
308.46	1691.62
308.68	1773.54
308.89	1658.85
309.10	1757.16
309.32	1703.91
309.53	1701.86
309.74	1738.73
309.96	1695.72
310.17	1818.60
310.39	1609.70
310.60	1656.81
310.81	1693.67
311.03	1673.19
311.24	1769.44
311.45	1671.14
311.67	1814.50
311.88	1730.53
312.09	1677.29
312.31	1705.96
312.52	1736.68
312.73	1665.00
312.95	1697.77
313.16	1640.42
313.37	1820.64
313.59	1773.54
313.80	1697.77
314.01	1841.12
314.23	1640.42
314.44	1630.18
314.65	1574.89
314.87	1691.62
315.08	1695.72
315.29	1683.43
315.51	1656.81
315.72	1630.18
315.93	1773.54
316.15	1773.54
316.36	1621.99
316.57	1718.25
316.79	1720.29
317.00	1677.29
317.21	1685.48
317.43	1710.05
317.64	1640.42
317.85	1656.81
318.07	1667.05
318.28	1718.25
318.49	1781.73
318.70	1955.81
318.92	1824.74
319.13	1877.99
319.34	1857.51
319.56	1767.40
319.77	1769.44
319.98	1787.88
320.20	1796.07
320.41	1689.57
320.62	1660.90
320.83	1652.71
321.05	1789.92
321.26	1757.16
321.47	1660.90
321.69	1708.01
321.90	1533.93
322.11	1665.00
322.32	1716.20
322.54	1794.02
322.75	1658.85
322.96	1800.16
323.18	1699.81
323.39	1556.46
323.60	1683.43
323.81	1654.76
324.03	1683.43
324.24	1677.29
324.45	1681.38
324.66	1642.47
324.88	1773.54
325.09	1816.55
325.30	1701.86
325.52	1673.19
325.73	1708.01
325.94	1626.09
326.15	1628.14
326.37	1695.72
326.58	1728.49
326.79	1753.06
327.00	1634.28
327.22	1777.64
327.43	1722.34
327.64	1595.37
327.85	1712.10
328.07	1697.77
328.28	1841.12
328.49	1624.04
328.70	1730.53
328.92	1632.23
329.13	1738.73
329.34	1732.58
329.55	1814.50
329.76	1755.11
329.98	1695.72
330.19	1738.73
330.40	1677.29
330.61	1724.39
330.83	1720.29
331.04	1591.27
331.25	1654.76
331.46	1718.25
331.68	1570.79
331.89	1806.31
332.10	1771.49
332.31	1628.14
332.52	1712.10
332.74	1724.39
332.95	1697.77
333.16	1699.81
333.37	1796.07
333.58	1722.34
333.80	1722.34
334.01	1587.18
334.22	1665.00
334.43	1681.38
334.64	1695.72
334.86	1583.08
335.07	1667.05
335.28	1767.40
335.49	1677.29
335.70	1736.68
335.92	1753.06
336.13	1839.08
336.34	1771.49
336.55	1712.10
336.76	1720.29
336.98	1630.18
337.19	1681.38
337.40	1861.60
337.61	1757.16
337.82	1763.30
338.04	1775.59
338.25	1665.00
338.46	1794.02
338.67	1656.81
338.88	1656.81
339.09	1677.29
339.31	1673.19
339.52	1587.18
339.73	1660.90
339.94	1748.97
340.15	1751.01
340.36	1685.48
340.58	1687.53
340.79	1662.95
341.00	1785.83
341.21	1671.14
341.42	1796.07
341.63	1748.97
341.85	1734.63
342.06	1787.88
342.27	1585.13
342.48	1679.33
342.69	1683.43
342.90	1789.92
343.12	1736.68
343.33	1642.47
343.54	1806.31
343.75	1722.34
343.96	1740.77
344.17	1679.33
344.38	1693.67
344.60	1701.86
344.81	1583.08
345.02	1791.97
345.23	1730.53
345.44	1777.64
345.65	1726.44
345.86	1753.06
346.07	1736.68
346.29	1697.77
346.50	1759.21
346.71	1683.43
346.92	1738.73
347.13	1785.83
347.34	1644.52
347.55	1712.10
347.76	1667.05
347.98	1611.75
348.19	1644.52
348.40	1738.73
348.61	1708.01
348.82	1806.31
349.03	1775.59
349.24	1683.43
349.45	1800.16
349.66	1636.33
349.88	1755.11
350.09	1695.72
350.30	1759.21
350.51	1742.82
350.72	1771.49
350.93	1677.29
351.14	1615.85
351.35	1656.81
351.56	1710.05
351.77	1673.19
351.99	1726.44
352.20	1773.54
352.41	1814.50
352.62	1683.43
352.83	1705.96
353.04	1714.15
353.25	1615.85
353.46	1718.25
353.67	1753.06
353.88	1589.22
354.09	1722.34
354.30	1734.63
354.52	1779.68
354.73	1675.24
354.94	1720.29
355.15	1671.14
355.36	1882.08
355.57	1718.25
355.78	1708.01
355.99	1683.43
356.20	1665.00
356.41	1738.73
356.62	1695.72
356.83	1736.68
357.04	1824.74
357.25	1583.08
357.46	1726.44
357.68	1636.33
357.89	1650.66
358.10	1763.30
358.31	1689.57
358.52	1781.73
358.73	1648.61
358.94	1640.42
359.15	1640.42
359.36	1671.14
359.57	1738.73
359.78	1615.85
359.99	1757.16
360.20	1654.76
360.41	1718.25
360.62	1593.32
360.83	1753.06
361.04	1701.86
361.25	1652.71
361.46	1738.73
361.67	1726.44
361.88	1810.40
362.09	1665.00
362.30	1730.53
362.51	1708.01
362.72	1716.20
362.93	1724.39
363.14	1755.11
363.35	1710.05
363.56	1611.75
363.78	1738.73
363.99	1732.58
364.20	1718.25
364.41	1740.77
364.62	1796.07
364.83	1708.01
365.04	1748.97
365.25	1640.42
365.46	1882.08
365.67	1601.51
365.88	1632.23
366.09	1701.86
366.30	1675.24
366.51	1685.48
366.72	1630.18
366.93	1705.96
367.14	1613.80
367.35	1787.88
367.56	1742.82
367.77	1812.45
367.98	1718.25
368.18	1763.30
368.39	1763.30
368.60	1615.85
368.81	1705.96
369.02	1730.53
369.23	1744.87
369.44	1624.04
369.65	1693.67
369.86	1775.59
370.07	1794.02
370.28	1619.94
370.49	1734.63
370.70	1820.64
370.91	1705.96
371.12	1609.70
371.33	1873.89
371.54	1730.53
371.75	1865.70
371.96	1554.41
372.17	1677.29
372.38	1646.57
372.59	1712.10
372.80	1642.47
373.01	1677.29
373.22	1728.49
373.43	1718.25
373.64	1662.95
373.85	1812.45
374.06	1824.74
374.26	1730.53
374.47	1710.05
374.68	1834.98
374.89	1665.00
375.10	1667.05
375.31	1798.12
375.52	1697.77
375.73	1744.87
375.94	1632.23
376.15	1802.21
376.36	1601.51
376.57	1683.43
376.78	1654.76
376.99	1722.34
377.20	1767.40
377.40	1757.16
377.61	1773.54
377.82	1650.66
378.03	1708.01
378.24	1685.48
378.45	1677.29
378.66	1681.38
378.87	1617.90
379.08	1554.41
379.29	1740.77
379.50	1834.98
379.71	1644.52
379.91	1681.38
380.12	1673.19
380.33	1755.11
380.54	1636.33
380.75	1720.29
380.96	1701.86
381.17	1683.43
381.38	1642.47
381.59	1773.54
381.80	1720.29
382.00	1951.71
382.21	1693.67
382.42	1810.40
382.63	1826.79
382.84	1751.01
383.05	1734.63
383.26	1796.07
383.47	1724.39
383.68	1765.35
383.88	1757.16
384.09	1697.77
384.30	1804.26
384.51	1716.20
384.72	1703.91
384.93	1599.46
385.14	1695.72
385.35	1781.73
385.55	1693.67
385.76	1820.64
385.97	1615.85
386.18	1677.29
386.39	1718.25
386.60	1685.48
386.81	1656.81
387.02	1603.56
387.22	1634.28
387.43	1759.21
387.64	1767.40
387.85	1894.37
388.06	2170.85
388.27	4390.84
388.48	6942.61
388.68	8318.85
388.89	9848.68
389.10	10022.76
389.31	8673.15
389.52	7823.24
389.73	6827.93
389.93	6262.69
390.14	5969.83
390.35	5150.64
390.56	4673.46
390.77	3743.69
390.98	3106.77
391.18	2527.19
391.39	2054.11
391.60	1785.83
391.81	1847.27
392.02	1703.91
392.23	1902.56
392.43	1724.39
392.64	1724.39
392.85	1742.82
393.06	1710.05
393.27	1716.20
393.47	1634.28
393.68	1667.05
393.89	1658.85
394.10	1773.54
394.31	1685.48
394.52	1632.23
394.72	1718.25
394.93	1773.54
395.14	1636.33
395.35	1679.33
395.56	1621.99
395.76	1693.67
395.97	1802.21
396.18	1828.84
396.39	1783.78
396.60	1976.29
396.80	1865.70
397.01	1763.30
397.22	1837.03
397.43	1892.32
397.64	1736.68
397.84	1787.88
398.05	1869.80
398.26	1689.57
398.47	1785.83
398.67	1787.88
398.88	1730.53
399.09	1744.87
399.30	1667.05
399.51	1714.15
399.71	1603.56
399.92	1746.92
400.13	1718.25
400.34	1689.57
400.54	1757.16
400.75	1789.92
400.96	1716.20
401.17	1851.36
401.37	1705.96
401.58	1724.39
401.79	1685.48
402.00	1847.27
402.21	2058.21
402.41	1947.62
402.62	1945.57
402.83	1998.82
403.04	2017.25
403.24	2060.26
403.45	1914.85
403.66	1855.46
403.87	1861.60
404.07	1906.66
404.28	1912.80
404.49	1923.04
404.70	1775.59
404.90	1798.12
405.11	1771.49
405.32	1779.68
405.52	1703.91
405.73	1701.86
405.94	1656.81
406.15	1691.62
406.35	1794.02
406.56	1693.67
406.77	1738.73
406.98	1679.33
407.18	1703.91
407.39	1808.36
407.60	1656.81
407.80	1773.54
408.01	1646.57
408.22	1773.54
408.43	1597.42
408.63	1710.05
408.84	1689.57
409.05	1804.26
409.25	1613.80
409.46	1671.14
409.67	1710.05
409.88	1681.38
410.08	1675.24
410.29	1779.68
410.50	1771.49
410.70	1763.30
410.91	1662.95
411.12	1755.11
411.32	1724.39
411.53	1691.62
411.74	1757.16
411.95	1771.49
412.15	1746.92
412.36	1673.19
412.57	1820.64
412.77	1796.07
412.98	1642.47
413.19	1732.58
413.39	1699.81
413.60	1763.30
413.81	1781.73
414.01	1595.37
414.22	1726.44
414.43	1728.49
414.63	1619.94
414.84	1806.31
415.05	1724.39
415.25	1650.66
415.46	1748.97
415.67	1714.15
415.87	1738.73
416.08	1722.34
416.29	1705.96
416.49	1732.58
416.70	1693.67
416.91	1718.25
417.11	1687.53
417.32	1761.25
417.53	1712.10
417.73	1728.49
417.94	1708.01
418.15	1728.49
418.35	1710.05
418.56	1624.04
418.77	1843.17
418.97	1753.06
419.18	1705.96
419.38	1599.46
419.59	1654.76
419.80	1798.12
420.00	1626.09
420.21	1746.92
420.42	1773.54
420.62	1744.87
420.83	1712.10
421.04	1710.05
421.24	1693.67
421.45	1757.16
421.65	1746.92
421.86	1613.80
422.07	1757.16
422.27	1724.39
422.48	1755.11
422.69	1644.52
422.89	1646.57
423.10	1683.43
423.30	1726.44
423.51	1714.15
423.72	1738.73
423.92	1722.34
424.13	1607.66
424.33	1665.00
424.54	1677.29
424.75	1759.21
424.95	1832.93
425.16	1703.91
425.36	1708.01
425.57	1779.68
425.78	1703.91
425.98	1769.44
426.19	1695.72
426.39	1601.51
426.60	1667.05
426.81	1781.73
427.01	1652.71
427.22	1636.33
427.42	1587.18
427.63	1658.85
427.83	1755.11
428.04	1734.63
428.25	1814.50
428.45	1810.40
428.66	1783.78
428.86	1726.44
429.07	1724.39
429.28	1693.67
429.48	1761.25
429.69	1619.94
429.89	1722.34
430.10	1603.56
430.30	1734.63
430.51	1751.01
430.71	1669.09
430.92	1724.39
431.13	1720.29
431.33	1738.73
431.54	1730.53
431.74	1781.73
431.95	1822.69
432.15	1632.23
432.36	1701.86
432.56	1724.39
432.77	1834.98
432.98	1826.79
433.18	1691.62
433.39	1685.48
433.59	1669.09
433.80	1859.56
434.00	1783.78
434.21	1636.33
434.41	1683.43
434.62	1820.64
434.82	1660.90
435.03	1673.19
435.23	1728.49
435.44	1626.09
435.64	1720.29
435.85	1722.34
436.06	1787.88
436.26	1724.39
436.47	1730.53
436.67	1630.18
436.88	1679.33
437.08	1740.77
437.29	1857.51
437.49	1769.44
437.70	1796.07
437.90	1746.92
438.11	1755.11
438.31	1769.44
438.52	1902.56
438.72	1857.51
438.93	1896.42
439.13	1771.49
439.34	1789.92
439.54	1697.77
439.75	1865.70
439.95	1839.08
440.16	1687.53
440.36	1777.64
440.57	1746.92
440.77	1751.01
440.98	1738.73
441.18	1738.73
441.39	1716.20
441.59	1638.38
441.80	1720.29
442.00	1705.96
442.21	1869.80
442.41	1648.61
442.62	1730.53
442.82	1722.34
443.02	1701.86
443.23	1716.20
443.43	1775.59
443.64	1800.16
443.84	1708.01
444.05	1789.92
444.25	1748.97
444.46	1658.85
444.66	1746.92
444.87	1877.99
445.07	1665.00
445.28	1775.59
445.48	1734.63
445.69	1746.92
445.89	1886.18
446.09	1708.01
446.30	1972.19
446.50	2658.26
446.71	3835.85
446.91	4310.97
447.12	4704.18
447.32	4941.75
447.53	4427.71
447.73	3868.61
447.93	3647.43
448.14	3426.25
448.34	3186.64
448.55	2947.03
448.75	2856.92
448.96	2738.13
449.16	2406.36
449.36	2273.25
449.57	1998.82
449.77	1900.52
449.98	1880.04
450.18	1789.92
450.39	1800.16
450.59	1796.07
450.79	1759.21
451.00	1726.44
451.20	1767.40
451.41	1755.11
451.61	1751.01
451.81	1779.68
452.02	1701.86
452.22	1730.53
452.43	1796.07
452.63	1681.38
