SpectraSuite Data File
++++++++++++++++++++++++++++++++++++
Date: Mon Jun 06 14:48:37 CEST 2016
User: root
Dark Spectrum Present: No
Reference Spectrum Present: No
Number of Sampled Component Spectra: 1
Spectrometers: USB4C02835
Integration Time (usec): 100000 (USB4C02835)
Spectra Averaged: 1 (USB4C02835)
Boxcar Smoothing: 0 (USB4C02835)
Correct for Electrical Dark: No (USB4C02835)
Strobe/Lamp Enabled: No (USB4C02835)
Correct for Detector Non-linearity: No (USB4C02835)
Correct for Stray Light: No (USB4C02835)
Number of Pixels in Processed Spectrum: 3648
>>>>>Begin Processed Spectral Data<<<<<
177.47	1443.82
177.69	1443.82
177.91	1443.82
178.13	1388.52
178.36	1476.59
178.58	1671.14
178.80	1701.86
179.02	1699.81
179.24	1660.90
179.46	1675.24
179.68	1753.06
179.90	1701.86
180.13	1640.42
180.35	1624.04
180.57	1720.29
180.79	1716.20
181.01	1613.80
181.23	1697.77
181.45	1791.97
181.67	1683.43
181.90	1716.20
182.12	1779.68
182.34	1583.08
182.56	1697.77
182.78	1746.92
183.00	1697.77
183.22	1724.39
183.44	1566.70
183.66	1863.65
183.89	1751.01
184.11	1669.09
184.33	1714.15
184.55	1769.44
184.77	1755.11
184.99	1697.77
185.21	1646.57
185.43	1806.31
185.65	1691.62
185.87	1662.95
186.10	1843.17
186.32	1783.78
186.54	1705.96
186.76	1683.43
186.98	1701.86
187.20	1740.77
187.42	1714.15
187.64	1677.29
187.86	1675.24
188.08	1765.35
188.30	1751.01
188.52	1751.01
188.75	1759.21
188.97	1806.31
189.19	1689.57
189.41	1697.77
189.63	1689.57
189.85	1763.30
190.07	1648.61
190.29	1581.03
190.51	1753.06
190.73	1607.66
190.95	1767.40
191.17	1685.48
191.39	1574.89
191.61	1693.67
191.84	1695.72
192.06	1751.01
192.28	1613.80
192.50	1949.67
192.72	1757.16
192.94	1658.85
193.16	1734.63
193.38	1675.24
193.60	1607.66
193.82	1662.95
194.04	1800.16
194.26	1701.86
194.48	1662.95
194.70	1591.27
194.92	1728.49
195.14	1609.70
195.36	1667.05
195.58	1755.11
195.80	1730.53
196.02	1656.81
196.24	1748.97
196.46	1705.96
196.69	1689.57
196.91	1841.12
197.13	1720.29
197.35	1720.29
197.57	1857.51
197.79	1699.81
198.01	1677.29
198.23	1740.77
198.45	1695.72
198.67	1632.23
198.89	1761.25
199.11	1667.05
199.33	1648.61
199.55	1540.07
199.77	1740.77
199.99	1738.73
200.21	1609.70
200.43	1722.34
200.65	1576.94
200.87	1617.90
201.09	1665.00
201.31	1697.77
201.53	1761.25
201.75	1658.85
201.97	1634.28
202.19	1652.71
202.41	1740.77
202.63	1890.28
202.85	1796.07
203.07	1697.77
203.29	1681.38
203.51	1617.90
203.73	1648.61
203.95	1755.11
204.17	1705.96
204.39	1759.21
204.61	1695.72
204.83	1671.14
205.05	1742.82
205.27	1720.29
205.49	1828.84
205.71	1669.09
205.93	1607.66
206.15	1576.94
206.37	1681.38
206.59	1689.57
206.81	1656.81
207.03	1576.94
207.25	1638.38
207.47	1695.72
207.69	1665.00
207.91	1738.73
208.13	1796.07
208.34	1615.85
208.56	1564.65
208.78	1724.39
209.00	1605.61
209.22	1740.77
209.44	1660.90
209.66	1642.47
209.88	1705.96
210.10	1714.15
210.32	1642.47
210.54	1804.26
210.76	1738.73
210.98	1771.49
211.20	1609.70
211.42	1667.05
211.64	1773.54
211.86	1665.00
212.08	1738.73
212.30	1761.25
212.52	1726.44
212.74	1765.35
212.96	1671.14
213.17	1779.68
213.39	1796.07
213.61	1736.68
213.83	1714.15
214.05	1665.00
214.27	1669.09
214.49	1728.49
214.71	1609.70
214.93	1804.26
215.15	1652.71
215.37	1746.92
215.59	1615.85
215.81	1808.36
216.03	1800.16
216.24	1638.38
216.46	1730.53
216.68	1734.63
216.90	1683.43
217.12	1779.68
217.34	1785.83
217.56	1689.57
217.78	1763.30
218.00	1757.16
218.22	1755.11
218.44	1734.63
218.66	1691.62
218.87	1828.84
219.09	1691.62
219.31	1730.53
219.53	1724.39
219.75	1624.04
219.97	1619.94
220.19	1699.81
220.41	1722.34
220.63	1765.35
220.85	1738.73
221.06	1607.66
221.28	1820.64
221.50	1714.15
221.72	1708.01
221.94	1712.10
222.16	1703.91
222.38	1736.68
222.60	1751.01
222.82	1691.62
223.03	1703.91
223.25	1656.81
223.47	1742.82
223.69	1845.22
223.91	1748.97
224.13	1640.42
224.35	1665.00
224.57	1644.52
224.78	1681.38
225.00	1665.00
225.22	1734.63
225.44	1728.49
225.66	1800.16
225.88	1695.72
226.10	1691.62
226.32	1751.01
226.53	1798.12
226.75	1683.43
226.97	1650.66
227.19	1730.53
227.41	1574.89
227.63	1716.20
227.85	1628.14
228.06	1697.77
228.28	1734.63
228.50	1775.59
228.72	1644.52
228.94	1636.33
229.16	1576.94
229.37	1683.43
229.59	1689.57
229.81	1812.45
230.03	1695.72
230.25	1648.61
230.47	1665.00
230.69	1632.23
230.90	1712.10
231.12	1599.46
231.34	1712.10
231.56	1775.59
231.78	1667.05
232.00	1718.25
232.21	1656.81
232.43	1626.09
232.65	1529.83
232.87	1710.05
233.09	1587.18
233.30	1689.57
233.52	1814.50
233.74	1730.53
233.96	1718.25
234.18	1734.63
234.40	1736.68
234.61	1834.98
234.83	1589.22
235.05	1669.09
235.27	1814.50
235.49	1794.02
235.70	1777.64
235.92	1734.63
236.14	1732.58
236.36	1845.22
236.58	1669.09
236.79	1785.83
237.01	1675.24
237.23	1658.85
237.45	1787.88
237.67	1642.47
237.88	1638.38
238.10	1812.45
238.32	1685.48
238.54	1722.34
238.76	1806.31
238.97	1667.05
239.19	1656.81
239.41	1746.92
239.63	1779.68
239.85	1679.33
240.06	1648.61
240.28	1671.14
240.50	1761.25
240.72	1609.70
240.93	1718.25
241.15	1753.06
241.37	1773.54
241.59	1677.29
241.81	1701.86
242.02	1755.11
242.24	1732.58
242.46	1751.01
242.68	1654.76
242.89	1697.77
243.11	1796.07
243.33	1689.57
243.55	1791.97
243.76	1726.44
243.98	1693.67
244.20	1732.58
244.42	1634.28
244.64	1699.81
244.85	1671.14
245.07	1673.19
245.29	1742.82
245.51	1738.73
245.72	1681.38
245.94	1722.34
246.16	1705.96
246.38	1763.30
246.59	1589.22
246.81	1656.81
247.03	1632.23
247.24	1667.05
247.46	1669.09
247.68	1800.16
247.90	1714.15
248.11	1716.20
248.33	1697.77
248.55	1652.71
248.77	1671.14
248.98	1796.07
249.20	1808.36
249.42	1652.71
249.64	1742.82
249.85	1701.86
250.07	1658.85
250.29	1714.15
250.50	1740.77
250.72	1662.95
250.94	1652.71
251.16	1820.64
251.37	1791.97
251.59	1734.63
251.81	1748.97
252.02	1787.88
252.24	1675.24
252.46	1820.64
252.68	1673.19
252.89	1708.01
253.11	1679.33
253.33	1818.60
253.54	1746.92
253.76	1730.53
253.98	1605.61
254.20	1673.19
254.41	1685.48
254.63	1634.28
254.85	1632.23
255.06	1665.00
255.28	1734.63
255.50	1677.29
255.71	1683.43
255.93	1589.22
256.15	1730.53
256.36	1742.82
256.58	1703.91
256.80	1740.77
257.02	1656.81
257.23	1732.58
257.45	1648.61
257.67	1708.01
257.88	1650.66
258.10	1724.39
258.32	1658.85
258.53	1767.40
258.75	1787.88
258.97	1617.90
259.18	1648.61
259.40	1701.86
259.62	1730.53
259.83	1732.58
260.05	1701.86
260.27	2060.26
260.48	1751.01
260.70	1652.71
260.92	1736.68
261.13	1642.47
261.35	1722.34
261.57	1730.53
261.78	1597.42
262.00	1722.34
262.22	1775.59
262.43	1660.90
262.65	1652.71
262.86	1648.61
263.08	1820.64
263.30	1714.15
263.51	1677.29
263.73	1660.90
263.95	1787.88
264.16	1656.81
264.38	1591.27
264.60	1703.91
264.81	1687.53
265.03	1724.39
265.25	1796.07
265.46	1763.30
265.68	1791.97
265.89	1738.73
266.11	1632.23
266.33	1755.11
266.54	1789.92
266.76	1730.53
266.98	1691.62
267.19	1742.82
267.41	1726.44
267.62	1683.43
267.84	1601.51
268.06	1669.09
268.27	1728.49
268.49	1714.15
268.70	1734.63
268.92	1722.34
269.14	1632.23
269.35	1548.26
269.57	1665.00
269.79	1734.63
270.00	1685.48
270.22	1726.44
270.43	1636.33
270.65	1644.52
270.87	1791.97
271.08	1658.85
271.30	1789.92
271.51	1710.05
271.73	1650.66
271.95	1746.92
272.16	1724.39
272.38	1783.78
272.59	1587.18
272.81	1705.96
273.02	1691.62
273.24	1759.21
273.46	1765.35
273.67	1677.29
273.89	1689.57
274.10	1689.57
274.32	1697.77
274.54	1746.92
274.75	1685.48
274.97	1648.61
275.18	1767.40
275.40	1650.66
275.61	1695.72
275.83	1677.29
276.05	1658.85
276.26	1607.66
276.48	1775.59
276.69	1673.19
276.91	1621.99
277.12	1777.64
277.34	1785.83
277.55	1765.35
277.77	1714.15
277.99	1724.39
278.20	1615.85
278.42	1681.38
278.63	1609.70
278.85	1640.42
279.06	1640.42
279.28	1736.68
279.49	1777.64
279.71	1781.73
279.93	1691.62
280.14	1728.49
280.36	1615.85
280.57	1763.30
280.79	1775.59
281.00	1626.09
281.22	1628.14
281.43	1708.01
281.65	1566.70
281.86	1703.91
282.08	1742.82
282.29	1785.83
282.51	1671.14
282.73	1689.57
282.94	1597.42
283.16	1787.88
283.37	1775.59
283.59	1744.87
283.80	1681.38
284.02	1677.29
284.23	1710.05
284.45	1681.38
284.66	1671.14
284.88	1572.84
285.09	1748.97
285.31	1697.77
285.52	1724.39
285.74	1599.46
285.95	1699.81
286.17	1791.97
286.38	1730.53
286.60	1738.73
286.81	1656.81
287.03	1626.09
287.24	1650.66
287.46	1722.34
287.67	1794.02
287.89	1810.40
288.10	1708.01
288.32	1665.00
288.53	1824.74
288.75	1685.48
288.96	1773.54
289.18	1656.81
289.39	1638.38
289.61	1761.25
289.82	1775.59
290.04	1777.64
290.25	1640.42
290.47	1734.63
290.68	1658.85
290.90	1834.98
291.11	1595.37
291.33	1759.21
291.54	1562.60
291.76	1671.14
291.97	1658.85
292.18	1726.44
292.40	1632.23
292.61	1685.48
292.83	1783.78
293.04	1789.92
293.26	1701.86
293.47	1763.30
293.69	1634.28
293.90	1699.81
294.12	1753.06
294.33	1734.63
294.55	1656.81
294.76	1800.16
294.97	1755.11
295.19	1812.45
295.40	1626.09
295.62	1638.38
295.83	1767.40
296.05	1673.19
296.26	1753.06
296.48	1656.81
296.69	1705.96
296.90	1689.57
297.12	1722.34
297.33	1781.73
297.55	1669.09
297.76	1728.49
297.98	1736.68
298.19	1650.66
298.41	1660.90
298.62	1646.57
298.83	1740.77
299.05	1716.20
299.26	1662.95
299.48	1681.38
299.69	1693.67
299.90	1708.01
300.12	1675.24
300.33	1720.29
300.55	1673.19
300.76	1701.86
300.98	1570.79
301.19	1695.72
301.40	1603.56
301.62	1718.25
301.83	1794.02
302.05	1701.86
302.26	1677.29
302.47	1718.25
302.69	1658.85
302.90	1712.10
303.12	1578.98
303.33	1759.21
303.54	1847.27
303.76	1714.15
303.97	1732.58
304.19	1791.97
304.40	1767.40
304.61	1673.19
304.83	1718.25
305.04	1755.11
305.26	1732.58
305.47	1689.57
305.68	1693.67
305.90	1638.38
306.11	1714.15
306.33	1636.33
306.54	1726.44
306.75	1697.77
306.97	1640.42
307.18	1703.91
307.39	1652.71
307.61	1718.25
307.82	1615.85
308.04	1628.14
308.25	1695.72
308.46	1665.00
308.68	1697.77
308.89	1658.85
309.10	1732.58
309.32	1714.15
309.53	1609.70
309.74	1699.81
309.96	1638.38
310.17	1693.67
310.39	1665.00
310.60	1714.15
310.81	1769.44
311.03	1628.14
311.24	1757.16
311.45	1720.29
311.67	1814.50
311.88	1687.53
312.09	1687.53
312.31	1699.81
312.52	1669.09
312.73	1673.19
312.95	1599.46
313.16	1730.53
313.37	1822.69
313.59	1640.42
313.80	1757.16
314.01	1830.88
314.23	1626.09
314.44	1644.52
314.65	1619.94
314.87	1693.67
315.08	1736.68
315.29	1615.85
315.51	1628.14
315.72	1660.90
315.93	1775.59
316.15	1783.78
316.36	1697.77
316.57	1697.77
316.79	1738.73
317.00	1689.57
317.21	1728.49
317.43	1710.05
317.64	1728.49
317.85	1687.53
318.07	1683.43
318.28	1751.01
318.49	1820.64
318.70	1912.80
318.92	1779.68
319.13	1785.83
319.34	1867.75
319.56	1857.51
319.77	1873.89
319.98	1810.40
320.20	1736.68
320.41	1685.48
320.62	1734.63
320.83	1611.75
321.05	1804.26
321.26	1718.25
321.47	1705.96
321.69	1802.21
321.90	1644.52
322.11	1683.43
322.32	1753.06
322.54	1783.78
322.75	1695.72
322.96	1839.08
323.18	1595.37
323.39	1660.90
323.60	1615.85
323.81	1722.34
324.03	1640.42
324.24	1671.14
324.45	1769.44
324.66	1710.05
324.88	1767.40
325.09	1787.88
325.30	1732.58
325.52	1726.44
325.73	1712.10
325.94	1644.52
326.15	1617.90
326.37	1603.56
326.58	1701.86
326.79	1826.79
327.00	1615.85
327.22	1742.82
327.43	1689.57
327.64	1630.18
327.85	1714.15
328.07	1703.91
328.28	1720.29
328.49	1681.38
328.70	1712.10
328.92	1665.00
329.13	1689.57
329.34	1691.62
329.55	1720.29
329.76	1779.68
329.98	1619.94
330.19	1730.53
330.40	1712.10
330.61	1697.77
330.83	1722.34
331.04	1634.28
331.25	1697.77
331.46	1638.38
331.68	1646.57
331.89	1720.29
332.10	1781.73
332.31	1669.09
332.52	1628.14
332.74	1837.03
332.95	1675.24
333.16	1689.57
333.37	1732.58
333.58	1689.57
333.80	1726.44
334.01	1697.77
334.22	1699.81
334.43	1665.00
334.64	1671.14
334.86	1652.71
335.07	1619.94
335.28	1726.44
335.49	1701.86
335.70	1685.48
335.92	1789.92
336.13	1755.11
336.34	1742.82
336.55	1693.67
336.76	1710.05
336.98	1578.98
337.19	1708.01
337.40	1822.69
337.61	1830.88
337.82	1753.06
338.04	1777.64
338.25	1556.46
338.46	1724.39
338.67	1767.40
338.88	1626.09
339.09	1587.18
339.31	1697.77
339.52	1734.63
339.73	1656.81
339.94	1697.77
340.15	1726.44
340.36	1681.38
340.58	1681.38
340.79	1701.86
341.00	1751.01
341.21	1693.67
341.42	1824.74
341.63	1748.97
341.85	1722.34
342.06	1718.25
342.27	1652.71
342.48	1716.20
342.69	1650.66
342.90	1738.73
343.12	1763.30
343.33	1677.29
343.54	1757.16
343.75	1808.36
343.96	1714.15
344.17	1638.38
344.38	1720.29
344.60	1652.71
344.81	1658.85
345.02	1673.19
345.23	1736.68
345.44	1740.77
345.65	1708.01
345.86	1720.29
346.07	1685.48
346.29	1626.09
346.50	1755.11
346.71	1796.07
346.92	1779.68
347.13	1853.41
347.34	1703.91
347.55	1746.92
347.76	1638.38
347.98	1630.18
348.19	1665.00
348.40	1779.68
348.61	1593.32
348.82	1785.83
349.03	1787.88
349.24	1693.67
349.45	1834.98
349.66	1634.28
349.88	1699.81
350.09	1734.63
350.30	1777.64
350.51	1705.96
350.72	1738.73
350.93	1742.82
351.14	1656.81
351.35	1740.77
351.56	1714.15
351.77	1687.53
351.99	1771.49
352.20	1798.12
352.41	1814.50
352.62	1609.70
352.83	1628.14
353.04	1748.97
353.25	1636.33
353.46	1765.35
353.67	1771.49
353.88	1568.74
354.09	1732.58
354.30	1652.71
354.52	1669.09
354.73	1646.57
354.94	1621.99
355.15	1708.01
355.36	1832.93
355.57	1742.82
355.78	1773.54
355.99	1677.29
356.20	1662.95
356.41	1828.84
356.62	1679.33
356.83	1693.67
357.04	1789.92
357.25	1642.47
357.46	1679.33
357.68	1621.99
357.89	1636.33
358.10	1679.33
358.31	1710.05
358.52	1693.67
358.73	1712.10
358.94	1638.38
359.15	1751.01
359.36	1732.58
359.57	1652.71
359.78	1603.56
359.99	1746.92
360.20	1712.10
360.41	1810.40
360.62	1763.30
360.83	1718.25
361.04	1712.10
361.25	1722.34
361.46	1757.16
361.67	1738.73
361.88	1759.21
362.09	1732.58
362.30	1699.81
362.51	1665.00
362.72	1757.16
362.93	1738.73
363.14	1718.25
363.35	1693.67
363.56	1589.22
363.78	1732.58
363.99	1755.11
364.20	1716.20
364.41	1667.05
364.62	1783.78
364.83	1697.77
365.04	1624.04
365.25	1708.01
365.46	1816.55
365.67	1578.98
365.88	1578.98
366.09	1685.48
366.30	1730.53
366.51	1673.19
366.72	1642.47
366.93	1648.61
367.14	1703.91
367.35	1808.36
367.56	1652.71
367.77	1767.40
367.98	1746.92
368.18	1630.18
368.39	1736.68
368.60	1624.04
368.81	1755.11
369.02	1712.10
369.23	1705.96
369.44	1615.85
369.65	1665.00
369.86	1652.71
370.07	1779.68
370.28	1656.81
370.49	1714.15
370.70	1728.49
370.91	1656.81
371.12	1615.85
371.33	1697.77
371.54	1660.90
371.75	1763.30
371.96	1607.66
372.17	1691.62
372.38	1738.73
372.59	1691.62
372.80	1703.91
373.01	1650.66
373.22	1712.10
373.43	1665.00
373.64	1634.28
373.85	1751.01
374.06	1751.01
374.26	1701.86
374.47	1716.20
374.68	1669.09
374.89	1681.38
375.10	1697.77
375.31	1755.11
375.52	1683.43
375.73	1710.05
375.94	1656.81
376.15	1726.44
376.36	1615.85
376.57	1716.20
376.78	1708.01
376.99	1746.92
377.20	1783.78
377.40	1650.66
377.61	1832.93
377.82	1687.53
378.03	1839.08
378.24	1691.62
378.45	1619.94
378.66	1718.25
378.87	1624.04
379.08	1632.23
379.29	1660.90
379.50	1746.92
379.71	1753.06
379.91	1748.97
380.12	1644.52
380.33	1697.77
380.54	1660.90
380.75	1673.19
380.96	1667.05
381.17	1742.82
381.38	1667.05
381.59	1679.33
381.80	1742.82
382.00	1828.84
382.21	1765.35
382.42	1777.64
382.63	1959.91
382.84	1730.53
383.05	1759.21
383.26	1777.64
383.47	1808.36
383.68	1724.39
383.88	1779.68
384.09	1677.29
384.30	1841.12
384.51	1726.44
384.72	1724.39
384.93	1583.08
385.14	1628.14
385.35	1681.38
385.55	1634.28
385.76	1738.73
385.97	1673.19
386.18	1683.43
386.39	1736.68
386.60	1685.48
386.81	1710.05
387.02	1644.52
387.22	1716.20
387.43	1822.69
387.64	1820.64
387.85	1886.18
388.06	2230.24
388.27	4327.36
388.48	6840.22
388.68	8066.95
388.89	9557.87
389.10	9723.76
389.31	8763.26
389.52	7563.15
389.73	6651.80
389.93	6078.37
390.14	5851.05
390.35	5240.75
390.56	4593.59
390.77	3860.42
390.98	3055.57
391.18	2570.20
391.39	2109.41
391.60	1857.51
391.81	1785.83
392.02	1685.48
392.23	1796.07
392.43	1787.88
392.64	1802.21
392.85	1763.30
393.06	1785.83
393.27	1732.58
393.47	1613.80
393.68	1724.39
393.89	1800.16
394.10	1767.40
394.31	1595.37
394.52	1593.32
394.72	1722.34
394.93	1853.41
395.14	1644.52
395.35	1714.15
395.56	1636.33
395.76	1677.29
395.97	1769.44
396.18	1830.88
396.39	1812.45
396.60	2072.54
396.80	1802.21
397.01	1822.69
397.22	1765.35
397.43	1800.16
397.64	1687.53
397.84	1783.78
398.05	1859.56
398.26	1746.92
398.47	1796.07
398.67	1800.16
398.88	1710.05
399.09	1767.40
399.30	1718.25
399.51	1771.49
399.71	1630.18
399.92	1767.40
400.13	1722.34
400.34	1667.05
400.54	1757.16
400.75	1853.41
400.96	1761.25
401.17	1791.97
401.37	1697.77
401.58	1810.40
401.79	1673.19
402.00	1869.80
402.21	2058.21
402.41	1951.71
402.62	1972.19
402.83	1951.71
403.04	2023.39
403.24	2078.69
403.45	1820.64
403.66	1863.65
403.87	1853.41
404.07	1843.17
404.28	1949.67
404.49	1894.37
404.70	1724.39
404.90	1796.07
405.11	1843.17
405.32	1652.71
405.52	1703.91
405.73	1597.42
405.94	1726.44
406.15	1697.77
406.35	1753.06
406.56	1740.77
406.77	1603.56
406.98	1777.64
407.18	1671.14
407.39	1751.01
407.60	1624.04
407.80	1789.92
408.01	1714.15
408.22	1718.25
408.43	1726.44
408.63	1767.40
408.84	1701.86
409.05	1763.30
409.25	1669.09
409.46	1601.51
409.67	1697.77
409.88	1736.68
410.08	1732.58
410.29	1671.14
410.50	1714.15
410.70	1697.77
410.91	1634.28
411.12	1599.46
411.32	1710.05
411.53	1683.43
411.74	1779.68
411.95	1773.54
412.15	1810.40
412.36	1806.31
412.57	1720.29
412.77	1761.25
412.98	1734.63
413.19	1697.77
413.39	1701.86
413.60	1800.16
413.81	1820.64
414.01	1683.43
414.22	1708.01
414.43	1798.12
414.63	1677.29
414.84	1824.74
415.05	1732.58
415.25	1710.05
415.46	1720.29
415.67	1689.57
415.87	1783.78
416.08	1705.96
416.29	1640.42
416.49	1751.01
416.70	1613.80
416.91	1718.25
417.11	1708.01
417.32	1767.40
417.53	1787.88
417.73	1695.72
417.94	1705.96
418.15	1677.29
418.35	1660.90
418.56	1734.63
418.77	1906.66
418.97	1660.90
419.18	1701.86
419.38	1550.31
419.59	1767.40
419.80	1763.30
420.00	1669.09
420.21	1722.34
420.42	1736.68
420.62	1789.92
420.83	1712.10
421.04	1630.18
421.24	1640.42
421.45	1753.06
421.65	1791.97
421.86	1619.94
422.07	1695.72
422.27	1712.10
422.48	1701.86
422.69	1642.47
422.89	1701.86
423.10	1646.57
423.30	1693.67
423.51	1697.77
423.72	1767.40
423.92	1724.39
424.13	1630.18
424.33	1746.92
424.54	1771.49
424.75	1769.44
424.95	1734.63
425.16	1667.05
425.36	1701.86
425.57	1722.34
425.78	1744.87
425.98	1714.15
426.19	1630.18
426.39	1634.28
426.60	1781.73
426.81	1761.25
427.01	1701.86
427.22	1665.00
427.42	1601.51
427.63	1693.67
427.83	1748.97
428.04	1863.65
428.25	1789.92
428.45	1755.11
428.66	1689.57
428.86	1669.09
429.07	1691.62
429.28	1789.92
429.48	1705.96
429.69	1665.00
429.89	1767.40
430.10	1665.00
430.30	1726.44
430.51	1828.84
430.71	1720.29
430.92	1656.81
431.13	1675.24
431.33	1814.50
431.54	1710.05
431.74	1843.17
431.95	1791.97
432.15	1652.71
432.36	1705.96
432.56	1730.53
432.77	1751.01
432.98	1837.03
433.18	1650.66
433.39	1718.25
433.59	1722.34
433.80	1800.16
434.00	1869.80
434.21	1669.09
434.41	1732.58
434.62	1861.60
434.82	1693.67
435.03	1630.18
435.23	1712.10
435.44	1626.09
435.64	1767.40
435.85	1665.00
436.06	1738.73
436.26	1802.21
436.47	1701.86
436.67	1673.19
436.88	1701.86
437.08	1759.21
437.29	1679.33
437.49	1697.77
437.70	1775.59
437.90	1732.58
438.11	1824.74
438.31	1740.77
438.52	1849.32
438.72	1904.61
438.93	1927.14
439.13	1767.40
439.34	1800.16
439.54	1748.97
439.75	1761.25
439.95	1767.40
440.16	1728.49
440.36	1687.53
440.57	1728.49
440.77	1728.49
440.98	1814.50
441.18	1746.92
441.39	1722.34
441.59	1675.24
441.80	1837.03
442.00	1728.49
442.21	1765.35
442.41	1685.48
442.62	1726.44
442.82	1681.38
443.02	1742.82
443.23	1804.26
443.43	1679.33
443.64	1843.17
443.84	1581.03
444.05	1867.75
444.25	1691.62
444.46	1667.05
444.66	1730.53
444.87	1837.03
445.07	1675.24
445.28	1751.01
445.48	1765.35
445.69	1810.40
445.89	1935.33
446.09	1740.77
446.30	2058.21
446.50	2650.07
446.71	3805.13
446.91	4300.73
447.12	4718.52
447.32	4788.15
447.53	4374.46
447.73	3772.36
447.93	3418.06
448.14	3250.13
448.34	3092.43
448.55	2779.09
448.75	2772.95
448.96	2705.37
449.16	2398.17
449.36	2303.96
449.57	2007.01
449.77	1923.04
449.98	1855.46
450.18	1814.50
450.39	1839.08
450.59	1683.43
450.79	1796.07
451.00	1691.62
451.20	1779.68
451.41	1689.57
451.61	1726.44
451.81	1726.44
452.02	1642.47
452.22	1767.40
452.43	1705.96
452.63	1679.33
