SpectraSuite Data File
++++++++++++++++++++++++++++++++++++
Date: Mon Jun 06 16:11:37 CEST 2016
User: root
Dark Spectrum Present: No
Reference Spectrum Present: No
Number of Sampled Component Spectra: 1
Spectrometers: USB4C02835
Integration Time (usec): 100000 (USB4C02835)
Spectra Averaged: 1 (USB4C02835)
Boxcar Smoothing: 0 (USB4C02835)
Correct for Electrical Dark: No (USB4C02835)
Strobe/Lamp Enabled: No (USB4C02835)
Correct for Detector Non-linearity: No (USB4C02835)
Correct for Stray Light: No (USB4C02835)
Number of Pixels in Processed Spectrum: 3648
>>>>>Begin Processed Spectral Data<<<<<
177.47	1509.35
177.69	1509.35
177.91	1509.35
178.13	1423.34
178.36	1452.01
178.58	1589.22
178.80	1763.30
179.02	1609.70
179.24	1693.67
179.46	1701.86
179.68	1798.12
179.90	1687.53
180.13	1705.96
180.35	1718.25
180.57	1806.31
180.79	1783.78
181.01	1771.49
181.23	1787.88
181.45	1755.11
181.67	1753.06
181.90	1742.82
182.12	1652.71
182.34	1667.05
182.56	1783.78
182.78	1722.34
183.00	1744.87
183.22	1710.05
183.44	1658.85
183.66	1783.78
183.89	1828.84
184.11	1726.44
184.33	1695.72
184.55	1812.45
184.77	1697.77
184.99	1732.58
185.21	1650.66
185.43	1816.55
185.65	1753.06
185.87	1699.81
186.10	1880.04
186.32	1810.40
186.54	1738.73
186.76	1755.11
186.98	1808.36
187.20	1665.00
187.42	1679.33
187.64	1648.61
187.86	1718.25
188.08	1814.50
188.30	1726.44
188.52	1779.68
188.75	1726.44
188.97	1775.59
189.19	1662.95
189.41	1673.19
189.63	1722.34
189.85	1748.97
190.07	1619.94
190.29	1605.61
190.51	1738.73
190.73	1644.52
190.95	1726.44
191.17	1779.68
191.39	1673.19
191.61	1632.23
191.84	1699.81
192.06	1755.11
192.28	1619.94
192.50	1902.56
192.72	1665.00
192.94	1683.43
193.16	1759.21
193.38	1761.25
193.60	1662.95
193.82	1714.15
194.04	1773.54
194.26	1779.68
194.48	1746.92
194.70	1714.15
194.92	1687.53
195.14	1703.91
195.36	1734.63
195.58	1757.16
195.80	1716.20
196.02	1652.71
196.24	1748.97
196.46	1691.62
196.69	1669.09
196.91	1845.22
197.13	1675.24
197.35	1652.71
197.57	1857.51
197.79	1808.36
198.01	1685.48
198.23	1755.11
198.45	1834.98
198.67	1640.42
198.89	1740.77
199.11	1781.73
199.33	1705.96
199.55	1626.09
199.77	1771.49
199.99	1818.60
200.21	1699.81
200.43	1767.40
200.65	1691.62
200.87	1611.75
201.09	1708.01
201.31	1740.77
201.53	1787.88
201.75	1818.60
201.97	1751.01
202.19	1710.05
202.41	1736.68
202.63	1867.75
202.85	1753.06
203.07	1748.97
203.29	1701.86
203.51	1673.19
203.73	1722.34
203.95	1906.66
204.17	1757.16
204.39	1798.12
204.61	1730.53
204.83	1708.01
205.05	1724.39
205.27	1699.81
205.49	1867.75
205.71	1689.57
205.93	1699.81
206.15	1677.29
206.37	1660.90
206.59	1675.24
206.81	1728.49
207.03	1644.52
207.25	1667.05
207.47	1771.49
207.69	1671.14
207.91	1738.73
208.13	1802.21
208.34	1648.61
208.56	1677.29
208.78	1701.86
209.00	1761.25
209.22	1624.04
209.44	1695.72
209.66	1642.47
209.88	1705.96
210.10	1544.17
210.32	1748.97
210.54	1798.12
210.76	1689.57
210.98	1757.16
211.20	1640.42
211.42	1691.62
211.64	1789.92
211.86	1746.92
212.08	1685.48
212.30	1789.92
212.52	1703.91
212.74	1759.21
212.96	1654.76
213.17	1742.82
213.39	1695.72
213.61	1697.77
213.83	1800.16
214.05	1685.48
214.27	1775.59
214.49	1705.96
214.71	1576.94
214.93	1728.49
215.15	1716.20
215.37	1744.87
215.59	1714.15
215.81	1785.83
216.03	1765.35
216.24	1746.92
216.46	1726.44
216.68	1699.81
216.90	1798.12
217.12	1681.38
217.34	1714.15
217.56	1779.68
217.78	1802.21
218.00	1734.63
218.22	1763.30
218.44	1767.40
218.66	1742.82
218.87	1787.88
219.09	1761.25
219.31	1779.68
219.53	1748.97
219.75	1679.33
219.97	1781.73
220.19	1703.91
220.41	1816.55
220.63	1751.01
220.85	1773.54
221.06	1677.29
221.28	1767.40
221.50	1787.88
221.72	1796.07
221.94	1751.01
222.16	1744.87
222.38	1775.59
222.60	1734.63
222.82	1691.62
223.03	1753.06
223.25	1591.27
223.47	1695.72
223.69	1888.23
223.91	1699.81
224.13	1695.72
224.35	1705.96
224.57	1824.74
224.78	1753.06
225.00	1675.24
225.22	1660.90
225.44	1742.82
225.66	1691.62
225.88	1767.40
226.10	1730.53
226.32	1753.06
226.53	1738.73
226.75	1665.00
226.97	1746.92
227.19	1710.05
227.41	1689.57
227.63	1673.19
227.85	1624.04
228.06	1665.00
228.28	1800.16
228.50	1841.12
228.72	1662.95
228.94	1636.33
229.16	1593.32
229.37	1638.38
229.59	1685.48
229.81	1800.16
230.03	1716.20
230.25	1724.39
230.47	1669.09
230.69	1650.66
230.90	1738.73
231.12	1656.81
231.34	1724.39
231.56	1794.02
231.78	1648.61
232.00	1722.34
232.21	1685.48
232.43	1689.57
232.65	1593.32
232.87	1685.48
233.09	1722.34
233.30	1603.56
233.52	1777.64
233.74	1730.53
233.96	1673.19
234.18	1771.49
234.40	1724.39
234.61	1826.79
234.83	1691.62
235.05	1611.75
235.27	1851.36
235.49	1773.54
235.70	1621.99
235.92	1814.50
236.14	1710.05
236.36	1896.42
236.58	1609.70
236.79	1718.25
237.01	1689.57
237.23	1712.10
237.45	1816.55
237.67	1697.77
237.88	1736.68
238.10	1875.94
238.32	1650.66
238.54	1677.29
238.76	1710.05
238.97	1619.94
239.19	1683.43
239.41	1724.39
239.63	1746.92
239.85	1714.15
240.06	1746.92
240.28	1617.90
240.50	1728.49
240.72	1724.39
240.93	1751.01
241.15	1882.08
241.37	1734.63
241.59	1812.45
241.81	1736.68
242.02	1671.14
242.24	1728.49
242.46	1781.73
242.68	1662.95
242.89	1734.63
243.11	1734.63
243.33	1783.78
243.55	1755.11
243.76	1892.32
243.98	1601.51
244.20	1716.20
244.42	1730.53
244.64	1767.40
244.85	1644.52
245.07	1642.47
245.29	1824.74
245.51	1681.38
245.72	1662.95
245.94	1808.36
246.16	1744.87
246.38	1742.82
246.59	1705.96
246.81	1642.47
247.03	1693.67
247.24	1583.08
247.46	1693.67
247.68	1708.01
247.90	1615.85
248.11	1689.57
248.33	1804.26
248.55	1648.61
248.77	1720.29
248.98	1765.35
249.20	1834.98
249.42	1755.11
249.64	1767.40
249.85	1687.53
250.07	1675.24
250.29	1769.44
250.50	1757.16
250.72	1667.05
250.94	1751.01
251.16	1888.23
251.37	1822.69
251.59	1697.77
251.81	1740.77
252.02	1779.68
252.24	1671.14
252.46	1894.37
252.68	1669.09
252.89	1648.61
253.11	1591.27
253.33	1880.04
253.54	1720.29
253.76	1677.29
253.98	1689.57
254.20	1615.85
254.41	1650.66
254.63	1705.96
254.85	1675.24
255.06	1665.00
255.28	1751.01
255.50	1718.25
255.71	1632.23
255.93	1695.72
256.15	1761.25
256.36	1732.58
256.58	1669.09
256.80	1787.88
257.02	1679.33
257.23	1683.43
257.45	1724.39
257.67	1798.12
257.88	1671.14
258.10	1767.40
258.32	1744.87
258.53	1839.08
258.75	1771.49
258.97	1738.73
259.18	1660.90
259.40	1732.58
259.62	1718.25
259.83	1777.64
260.05	1783.78
260.27	1976.29
260.48	1863.65
260.70	1650.66
260.92	1722.34
261.13	1738.73
261.35	1732.58
261.57	1730.53
261.78	1697.77
262.00	1615.85
262.22	1765.35
262.43	1677.29
262.65	1628.14
262.86	1734.63
263.08	1808.36
263.30	1732.58
263.51	1624.04
263.73	1757.16
263.95	1789.92
264.16	1654.76
264.38	1656.81
264.60	1722.34
264.81	1730.53
265.03	1832.93
265.25	1767.40
265.46	1789.92
265.68	1775.59
265.89	1732.58
266.11	1652.71
266.33	1720.29
266.54	1779.68
266.76	1789.92
266.98	1753.06
267.19	1814.50
267.41	1761.25
267.62	1683.43
267.84	1695.72
268.06	1767.40
268.27	1769.44
268.49	1689.57
268.70	1796.07
268.92	1705.96
269.14	1665.00
269.35	1617.90
269.57	1742.82
269.79	1675.24
270.00	1685.48
270.22	1861.60
270.43	1652.71
270.65	1607.66
270.87	1779.68
271.08	1808.36
271.30	1773.54
271.51	1738.73
271.73	1794.02
271.95	1722.34
272.16	1736.68
272.38	1718.25
272.59	1703.91
272.81	1677.29
273.02	1710.05
273.24	1710.05
273.46	1791.97
273.67	1726.44
273.89	1617.90
274.10	1681.38
274.32	1789.92
274.54	1738.73
274.75	1671.14
274.97	1669.09
275.18	1849.32
275.40	1693.67
275.61	1736.68
275.83	1681.38
276.05	1665.00
276.26	1693.67
276.48	1775.59
276.69	1726.44
276.91	1726.44
277.12	1781.73
277.34	1740.77
277.55	1802.21
277.77	1712.10
277.99	1753.06
278.20	1632.23
278.42	1708.01
278.63	1658.85
278.85	1675.24
279.06	1665.00
279.28	1804.26
279.49	1787.88
279.71	1746.92
279.93	1718.25
280.14	1689.57
280.36	1609.70
280.57	1751.01
280.79	1834.98
281.00	1724.39
281.22	1665.00
281.43	1757.16
281.65	1546.22
281.86	1665.00
282.08	1687.53
282.29	1849.32
282.51	1634.28
282.73	1687.53
282.94	1665.00
283.16	1728.49
283.37	1849.32
283.59	1648.61
283.80	1667.05
284.02	1724.39
284.23	1753.06
284.45	1726.44
284.66	1632.23
284.88	1632.23
285.09	1742.82
285.31	1791.97
285.52	1691.62
285.74	1677.29
285.95	1724.39
286.17	1802.21
286.38	1728.49
286.60	1669.09
286.81	1671.14
287.03	1669.09
287.24	1642.47
287.46	1716.20
287.67	1742.82
287.89	1740.77
288.10	1656.81
288.32	1726.44
288.53	1773.54
288.75	1683.43
288.96	1773.54
289.18	1699.81
289.39	1677.29
289.61	1804.26
289.82	1837.03
290.04	1806.31
290.25	1574.89
290.47	1689.57
290.68	1716.20
290.90	1751.01
291.11	1572.84
291.33	1746.92
291.54	1662.95
291.76	1648.61
291.97	1658.85
292.18	1714.15
292.40	1648.61
292.61	1689.57
292.83	1785.83
293.04	1767.40
293.26	1703.91
293.47	1730.53
293.69	1720.29
293.90	1652.71
294.12	1814.50
294.33	1638.38
294.55	1712.10
294.76	1746.92
294.97	1837.03
295.19	1800.16
295.40	1710.05
295.62	1693.67
295.83	1720.29
296.05	1757.16
296.26	1724.39
296.48	1656.81
296.69	1677.29
296.90	1718.25
297.12	1736.68
297.33	1773.54
297.55	1734.63
297.76	1742.82
297.98	1740.77
298.19	1701.86
298.41	1728.49
298.62	1761.25
298.83	1882.08
299.05	1787.88
299.26	1693.67
299.48	1677.29
299.69	1773.54
299.90	1769.44
300.12	1669.09
300.33	1677.29
300.55	1693.67
300.76	1708.01
300.98	1656.81
301.19	1714.15
301.40	1665.00
301.62	1742.82
301.83	1800.16
302.05	1695.72
302.26	1802.21
302.47	1669.09
302.69	1601.51
302.90	1734.63
303.12	1554.41
303.33	1740.77
303.54	1812.45
303.76	1734.63
303.97	1683.43
304.19	1740.77
304.40	1660.90
304.61	1751.01
304.83	1863.65
305.04	1734.63
305.26	1771.49
305.47	1662.95
305.68	1691.62
305.90	1685.48
306.11	1781.73
306.33	1689.57
306.54	1701.86
306.75	1703.91
306.97	1658.85
307.18	1671.14
307.39	1626.09
307.61	1781.73
307.82	1689.57
308.04	1812.45
308.25	1703.91
308.46	1738.73
308.68	1761.25
308.89	1734.63
309.10	1800.16
309.32	1685.48
309.53	1705.96
309.74	1656.81
309.96	1691.62
310.17	1789.92
310.39	1728.49
310.60	1746.92
310.81	1724.39
311.03	1636.33
311.24	1677.29
311.45	1712.10
311.67	1908.71
311.88	1769.44
312.09	1746.92
312.31	1708.01
312.52	1687.53
312.73	1738.73
312.95	1636.33
313.16	1644.52
313.37	1775.59
313.59	1830.88
313.80	1794.02
314.01	1816.55
314.23	1634.28
314.44	1703.91
314.65	1679.33
314.87	1634.28
315.08	1660.90
315.29	1685.48
315.51	1681.38
315.72	1609.70
315.93	1916.90
316.15	1755.11
316.36	1724.39
316.57	1718.25
316.79	1705.96
317.00	1753.06
317.21	1671.14
317.43	1667.05
317.64	1708.01
317.85	1669.09
318.07	1718.25
318.28	1794.02
318.49	1845.22
318.70	1923.04
318.92	1804.26
319.13	1855.46
319.34	1855.46
319.56	1779.68
319.77	1826.79
319.98	1888.23
320.20	1781.73
320.41	1789.92
320.62	1767.40
320.83	1671.14
321.05	1906.66
321.26	1759.21
321.47	1771.49
321.69	1789.92
321.90	1595.37
322.11	1779.68
322.32	1773.54
322.54	1759.21
322.75	1695.72
322.96	1894.37
323.18	1656.81
323.39	1697.77
323.60	1611.75
323.81	1761.25
324.03	1617.90
324.24	1720.29
324.45	1665.00
324.66	1705.96
324.88	1798.12
325.09	1820.64
325.30	1755.11
325.52	1701.86
325.73	1746.92
325.94	1597.42
326.15	1648.61
326.37	1769.44
326.58	1794.02
326.79	1773.54
327.00	1665.00
327.22	1667.05
327.43	1734.63
327.64	1624.04
327.85	1753.06
328.07	1701.86
328.28	1904.61
328.49	1773.54
328.70	1740.77
328.92	1681.38
329.13	1742.82
329.34	1689.57
329.55	1853.41
329.76	1724.39
329.98	1718.25
330.19	1732.58
330.40	1755.11
330.61	1669.09
330.83	1759.21
331.04	1703.91
331.25	1617.90
331.46	1757.16
331.68	1652.71
331.89	1708.01
332.10	1763.30
332.31	1669.09
332.52	1712.10
332.74	1810.40
332.95	1646.57
333.16	1718.25
333.37	1742.82
333.58	1638.38
333.80	1685.48
334.01	1675.24
334.22	1656.81
334.43	1673.19
334.64	1699.81
334.86	1640.42
335.07	1603.56
335.28	1802.21
335.49	1677.29
335.70	1757.16
335.92	1800.16
336.13	1941.47
336.34	1763.30
336.55	1716.20
336.76	1779.68
336.98	1607.66
337.19	1796.07
337.40	1869.80
337.61	1816.55
337.82	1738.73
338.04	1765.35
338.25	1626.09
338.46	1697.77
338.67	1736.68
338.88	1728.49
339.09	1695.72
339.31	1734.63
339.52	1648.61
339.73	1665.00
339.94	1673.19
340.15	1697.77
340.36	1648.61
340.58	1724.39
340.79	1628.14
341.00	1710.05
341.21	1617.90
341.42	1787.88
341.63	1650.66
341.85	1761.25
342.06	1714.15
342.27	1660.90
342.48	1734.63
342.69	1634.28
342.90	1718.25
343.12	1716.20
343.33	1718.25
343.54	1775.59
343.75	1816.55
343.96	1789.92
344.17	1746.92
344.38	1703.91
344.60	1652.71
344.81	1656.81
345.02	1755.11
345.23	1755.11
345.44	1787.88
345.65	1804.26
345.86	1685.48
346.07	1757.16
346.29	1658.85
346.50	1705.96
346.71	1820.64
346.92	1771.49
347.13	1839.08
347.34	1656.81
347.55	1775.59
347.76	1755.11
347.98	1638.38
348.19	1642.47
348.40	1789.92
348.61	1695.72
348.82	1826.79
349.03	1689.57
349.24	1595.37
349.45	1845.22
349.66	1544.17
349.88	1794.02
350.09	1638.38
350.30	1728.49
350.51	1796.07
350.72	1757.16
350.93	1691.62
351.14	1658.85
351.35	1763.30
351.56	1681.38
351.77	1693.67
351.99	1732.58
352.20	1773.54
352.41	1828.84
352.62	1615.85
352.83	1650.66
353.04	1677.29
353.25	1644.52
353.46	1767.40
353.67	1775.59
353.88	1593.32
354.09	1828.84
354.30	1714.15
354.52	1728.49
354.73	1720.29
354.94	1689.57
355.15	1751.01
355.36	1824.74
355.57	1681.38
355.78	1697.77
355.99	1685.48
356.20	1671.14
356.41	1783.78
356.62	1718.25
356.83	1665.00
357.04	1824.74
357.25	1628.14
357.46	1685.48
357.68	1607.66
357.89	1685.48
358.10	1714.15
358.31	1695.72
358.52	1689.57
358.73	1710.05
358.94	1644.52
359.15	1697.77
359.36	1800.16
359.57	1699.81
359.78	1714.15
359.99	1755.11
360.20	1679.33
360.41	1775.59
360.62	1740.77
360.83	1708.01
361.04	1695.72
361.25	1669.09
361.46	1828.84
361.67	1671.14
361.88	1701.86
362.09	1765.35
362.30	1740.77
362.51	1673.19
362.72	1769.44
362.93	1812.45
363.14	1726.44
363.35	1642.47
363.56	1665.00
363.78	1693.67
363.99	1732.58
364.20	1714.15
364.41	1761.25
364.62	1791.97
364.83	1734.63
365.04	1753.06
365.25	1753.06
365.46	1839.08
365.67	1689.57
365.88	1638.38
366.09	1757.16
366.30	1728.49
366.51	1656.81
366.72	1675.24
366.93	1665.00
367.14	1728.49
367.35	1820.64
367.56	1652.71
367.77	1808.36
367.98	1734.63
368.18	1794.02
368.39	1787.88
368.60	1597.42
368.81	1800.16
369.02	1703.91
369.23	1724.39
369.44	1654.76
369.65	1689.57
369.86	1796.07
370.07	1794.02
370.28	1654.76
370.49	1775.59
370.70	1783.78
370.91	1695.72
371.12	1671.14
371.33	1724.39
371.54	1601.51
371.75	1779.68
371.96	1667.05
372.17	1703.91
372.38	1755.11
372.59	1798.12
372.80	1714.15
373.01	1685.48
373.22	1734.63
373.43	1699.81
373.64	1632.23
373.85	1839.08
374.06	1775.59
374.26	1755.11
374.47	1697.77
374.68	1820.64
374.89	1730.53
375.10	1677.29
375.31	1718.25
375.52	1708.01
375.73	1642.47
375.94	1656.81
376.15	1798.12
376.36	1650.66
376.57	1669.09
376.78	1701.86
376.99	1746.92
377.20	1789.92
377.40	1652.71
377.61	1814.50
377.82	1665.00
378.03	1771.49
378.24	1738.73
378.45	1708.01
378.66	1710.05
378.87	1630.18
379.08	1599.46
379.29	1751.01
379.50	1785.83
379.71	1763.30
379.91	1769.44
380.12	1744.87
380.33	1689.57
380.54	1746.92
380.75	1732.58
380.96	1734.63
381.17	1779.68
381.38	1705.96
381.59	1738.73
381.80	1738.73
382.00	1867.75
382.21	1730.53
382.42	1863.65
382.63	1906.66
382.84	1763.30
383.05	1746.92
383.26	1814.50
383.47	1753.06
383.68	1685.48
383.88	1726.44
384.09	1742.82
384.30	1847.27
384.51	1746.92
384.72	1689.57
384.93	1691.62
385.14	1730.53
385.35	1748.97
385.55	1652.71
385.76	1828.84
385.97	1722.34
386.18	1669.09
386.39	1667.05
386.60	1689.57
386.81	1728.49
387.02	1679.33
387.22	1671.14
387.43	1761.25
387.64	1814.50
387.85	1910.75
388.06	2203.61
388.27	4184.00
388.48	6653.85
388.68	8159.11
388.89	9490.29
389.10	9539.44
389.31	8591.23
389.52	7495.57
389.73	6733.72
389.93	6170.53
390.14	5742.50
390.35	5146.55
390.56	4556.73
390.77	3880.90
390.98	3080.14
391.18	2404.32
391.39	2138.08
391.60	1845.22
391.81	1916.90
392.02	1796.07
392.23	1814.50
392.43	1873.89
392.64	1791.97
392.85	1728.49
393.06	1773.54
393.27	1761.25
393.47	1740.77
393.68	1763.30
393.89	1751.01
394.10	1804.26
394.31	1642.47
394.52	1634.28
394.72	1628.14
394.93	1771.49
395.14	1601.51
395.35	1736.68
395.56	1730.53
395.76	1734.63
395.97	1869.80
396.18	1875.94
396.39	1867.75
396.60	2084.83
396.80	1959.91
397.01	1798.12
397.22	1837.03
397.43	1894.37
397.64	1763.30
397.84	1812.45
398.05	1902.56
398.26	1732.58
398.47	1804.26
398.67	1839.08
398.88	1705.96
399.09	1777.64
399.30	1734.63
399.51	1742.82
399.71	1753.06
399.92	1742.82
400.13	1732.58
400.34	1757.16
400.54	1685.48
400.75	1814.50
400.96	1742.82
401.17	1789.92
401.37	1822.69
401.58	1759.21
401.79	1722.34
402.00	1865.70
402.21	2056.16
402.41	1931.23
402.62	1959.91
402.83	2146.27
403.04	1972.19
403.24	2062.30
403.45	1882.08
403.66	1812.45
403.87	1939.43
404.07	1910.75
404.28	1949.67
404.49	1920.99
404.70	1841.12
404.90	1765.35
405.11	1759.21
405.32	1773.54
405.52	1681.38
405.73	1738.73
405.94	1699.81
406.15	1732.58
406.35	1714.15
406.56	1779.68
406.77	1744.87
406.98	1716.20
407.18	1693.67
407.39	1736.68
407.60	1703.91
407.80	1679.33
408.01	1652.71
408.22	1751.01
408.43	1605.61
408.63	1742.82
408.84	1787.88
409.05	1808.36
409.25	1728.49
409.46	1675.24
409.67	1744.87
409.88	1675.24
410.08	1710.05
410.29	1740.77
410.50	1720.29
410.70	1755.11
410.91	1691.62
411.12	1722.34
411.32	1701.86
411.53	1714.15
411.74	1847.27
411.95	1773.54
412.15	1736.68
412.36	1767.40
412.57	1804.26
412.77	1730.53
412.98	1699.81
413.19	1751.01
413.39	1746.92
413.60	1802.21
413.81	1798.12
414.01	1775.59
414.22	1746.92
414.43	1744.87
414.63	1683.43
414.84	1826.79
415.05	1757.16
415.25	1644.52
415.46	1697.77
415.67	1730.53
415.87	1765.35
416.08	1767.40
416.29	1658.85
416.49	1847.27
416.70	1681.38
416.91	1662.95
417.11	1703.91
417.32	1822.69
417.53	1820.64
417.73	1587.18
417.94	1681.38
418.15	1716.20
418.35	1726.44
418.56	1701.86
418.77	1851.36
418.97	1740.77
419.18	1703.91
419.38	1558.50
419.59	1726.44
419.80	1767.40
420.00	1652.71
420.21	1699.81
420.42	1763.30
420.62	1759.21
420.83	1603.56
421.04	1671.14
421.24	1669.09
421.45	1691.62
421.65	1851.36
421.86	1748.97
422.07	1751.01
422.27	1716.20
422.48	1767.40
422.69	1695.72
422.89	1744.87
423.10	1699.81
423.30	1673.19
423.51	1710.05
423.72	1712.10
423.92	1722.34
424.13	1654.76
424.33	1691.62
424.54	1738.73
424.75	1834.98
424.95	1810.40
425.16	1712.10
425.36	1742.82
425.57	1765.35
425.78	1730.53
425.98	1744.87
426.19	1708.01
426.39	1683.43
426.60	1794.02
426.81	1851.36
427.01	1681.38
427.22	1708.01
427.42	1617.90
427.63	1654.76
427.83	1748.97
428.04	1802.21
428.25	1832.93
428.45	1740.77
428.66	1708.01
428.86	1687.53
429.07	1705.96
429.28	1818.60
429.48	1714.15
429.69	1650.66
429.89	1724.39
430.10	1617.90
430.30	1863.65
430.51	1802.21
430.71	1665.00
430.92	1673.19
431.13	1724.39
431.33	1699.81
431.54	1710.05
431.74	1837.03
431.95	1839.08
432.15	1683.43
432.36	1761.25
432.56	1722.34
432.77	1775.59
432.98	1845.22
433.18	1740.77
433.39	1681.38
433.59	1748.97
433.80	1875.94
434.00	1923.04
434.21	1779.68
434.41	1791.97
434.62	1884.13
434.82	1638.38
435.03	1640.42
435.23	1830.88
435.44	1638.38
435.64	1705.96
435.85	1751.01
436.06	1730.53
436.26	1755.11
436.47	1673.19
436.67	1656.81
436.88	1771.49
437.08	1763.30
437.29	1816.55
437.49	1740.77
437.70	1832.93
437.90	1732.58
438.11	1826.79
438.31	1816.55
438.52	1869.80
438.72	1839.08
438.93	1925.09
439.13	1847.27
439.34	1861.60
439.54	1710.05
439.75	1816.55
439.95	1857.51
440.16	1695.72
440.36	1773.54
440.57	1767.40
440.77	1761.25
440.98	1695.72
441.18	1816.55
441.39	1679.33
441.59	1732.58
441.80	1851.36
442.00	1783.78
442.21	1812.45
442.41	1681.38
442.62	1818.60
442.82	1724.39
443.02	1806.31
443.23	1757.16
443.43	1763.30
443.64	1826.79
443.84	1658.85
444.05	1859.56
444.25	1777.64
444.46	1777.64
444.66	1814.50
444.87	1873.89
445.07	1708.01
445.28	1779.68
445.48	1828.84
445.69	1814.50
445.89	1857.51
446.09	1869.80
446.30	1996.77
446.50	2576.34
446.71	3751.88
446.91	4431.80
447.12	4714.42
447.32	4845.49
447.53	4163.52
447.73	3846.09
447.93	3540.94
448.14	3223.50
448.34	3239.89
448.55	2947.03
448.75	2787.29
448.96	2709.46
449.16	2488.28
449.36	2265.05
449.57	2107.36
449.77	1875.94
449.98	1820.64
450.18	1787.88
450.39	1812.45
450.59	1724.39
450.79	1783.78
451.00	1667.05
451.20	1834.98
451.41	1718.25
451.61	1716.20
451.81	1761.25
452.02	1775.59
452.22	1748.97
452.43	1804.26
452.63	1691.62
