SpectraSuite Data File
++++++++++++++++++++++++++++++++++++
Date: Mon Jun 06 17:00:37 CEST 2016
User: root
Dark Spectrum Present: No
Reference Spectrum Present: No
Number of Sampled Component Spectra: 1
Spectrometers: USB4C02835
Integration Time (usec): 100000 (USB4C02835)
Spectra Averaged: 1 (USB4C02835)
Boxcar Smoothing: 0 (USB4C02835)
Correct for Electrical Dark: No (USB4C02835)
Strobe/Lamp Enabled: No (USB4C02835)
Correct for Detector Non-linearity: No (USB4C02835)
Correct for Stray Light: No (USB4C02835)
Number of Pixels in Processed Spectrum: 3648
>>>>>Begin Processed Spectral Data<<<<<
177.47	1404.91
177.69	1404.91
177.91	1404.91
178.13	1527.78
178.36	1409.00
178.58	1611.75
178.80	1740.77
179.02	1658.85
179.24	1705.96
179.46	1722.34
179.68	1781.73
179.90	1726.44
180.13	1714.15
180.35	1662.95
180.57	1685.48
180.79	1871.84
181.01	1703.91
181.23	1775.59
181.45	1783.78
181.67	1767.40
181.90	1757.16
182.12	1617.90
182.34	1703.91
182.56	1767.40
182.78	1718.25
183.00	1656.81
183.22	1724.39
183.44	1585.13
183.66	1894.37
183.89	1771.49
184.11	1730.53
184.33	1736.68
184.55	1751.01
184.77	1769.44
184.99	1789.92
185.21	1665.00
185.43	1861.60
185.65	1681.38
185.87	1675.24
186.10	1796.07
186.32	1853.41
186.54	1693.67
186.76	1722.34
186.98	1759.21
187.20	1652.71
187.42	1634.28
187.64	1697.77
187.86	1763.30
188.08	1814.50
188.30	1738.73
188.52	1724.39
188.75	1777.64
188.97	1746.92
189.19	1656.81
189.41	1751.01
189.63	1765.35
189.85	1673.19
190.07	1667.05
190.29	1632.23
190.51	1654.76
190.73	1669.09
190.95	1769.44
191.17	1728.49
191.39	1673.19
191.61	1736.68
191.84	1712.10
192.06	1730.53
192.28	1621.99
192.50	1861.60
192.72	1695.72
192.94	1636.33
193.16	1773.54
193.38	1683.43
193.60	1656.81
193.82	1689.57
194.04	1742.82
194.26	1687.53
194.48	1753.06
194.70	1699.81
194.92	1656.81
195.14	1689.57
195.36	1656.81
195.58	1732.58
195.80	1777.64
196.02	1648.61
196.24	1738.73
196.46	1734.63
196.69	1677.29
196.91	1859.56
197.13	1673.19
197.35	1671.14
197.57	1789.92
197.79	1769.44
198.01	1714.15
198.23	1744.87
198.45	1705.96
198.67	1599.46
198.89	1681.38
199.11	1761.25
199.33	1689.57
199.55	1656.81
199.77	1691.62
199.99	1826.79
200.21	1708.01
200.43	1718.25
200.65	1628.14
200.87	1613.80
201.09	1636.33
201.31	1724.39
201.53	1865.70
201.75	1720.29
201.97	1662.95
202.19	1722.34
202.41	1769.44
202.63	1746.92
202.85	1710.05
203.07	1773.54
203.29	1699.81
203.51	1687.53
203.73	1710.05
203.95	1851.36
204.17	1710.05
204.39	1740.77
204.61	1738.73
204.83	1714.15
205.05	1771.49
205.27	1769.44
205.49	1830.88
205.71	1615.85
205.93	1642.47
206.15	1771.49
206.37	1712.10
206.59	1671.14
206.81	1646.57
207.03	1656.81
207.25	1628.14
207.47	1775.59
207.69	1675.24
207.91	1796.07
208.13	1796.07
208.34	1763.30
208.56	1648.61
208.78	1765.35
209.00	1699.81
209.22	1642.47
209.44	1718.25
209.66	1677.29
209.88	1650.66
210.10	1730.53
210.32	1738.73
210.54	1812.45
210.76	1609.70
210.98	1796.07
211.20	1669.09
211.42	1734.63
211.64	1763.30
211.86	1757.16
212.08	1732.58
212.30	1796.07
212.52	1740.77
212.74	1722.34
212.96	1705.96
213.17	1665.00
213.39	1701.86
213.61	1839.08
213.83	1681.38
214.05	1587.18
214.27	1744.87
214.49	1675.24
214.71	1603.56
214.93	1716.20
215.15	1734.63
215.37	1712.10
215.59	1710.05
215.81	1734.63
216.03	1734.63
216.24	1755.11
216.46	1746.92
216.68	1632.23
216.90	1781.73
217.12	1837.03
217.34	1673.19
217.56	1759.21
217.78	1753.06
218.00	1765.35
218.22	1767.40
218.44	1652.71
218.66	1681.38
218.87	1812.45
219.09	1748.97
219.31	1814.50
219.53	1763.30
219.75	1738.73
219.97	1746.92
220.19	1708.01
220.41	1648.61
220.63	1849.32
220.85	1705.96
221.06	1683.43
221.28	1871.84
221.50	1619.94
221.72	1716.20
221.94	1697.77
222.16	1609.70
222.38	1769.44
222.60	1779.68
222.82	1644.52
223.03	1738.73
223.25	1624.04
223.47	1757.16
223.69	1855.46
223.91	1751.01
224.13	1812.45
224.35	1681.38
224.57	1865.70
224.78	1826.79
225.00	1705.96
225.22	1648.61
225.44	1689.57
225.66	1767.40
225.88	1665.00
226.10	1693.67
226.32	1746.92
226.53	1873.89
226.75	1781.73
226.97	1624.04
227.19	1722.34
227.41	1667.05
227.63	1779.68
227.85	1626.09
228.06	1777.64
228.28	1693.67
228.50	1783.78
228.72	1632.23
228.94	1642.47
229.16	1654.76
229.37	1728.49
229.59	1710.05
229.81	1777.64
230.03	1632.23
230.25	1656.81
230.47	1636.33
230.69	1667.05
230.90	1753.06
231.12	1751.01
231.34	1718.25
231.56	1826.79
231.78	1638.38
232.00	1736.68
232.21	1718.25
232.43	1732.58
232.65	1632.23
232.87	1746.92
233.09	1628.14
233.30	1677.29
233.52	1673.19
233.74	1689.57
233.96	1734.63
234.18	1681.38
234.40	1775.59
234.61	1834.98
234.83	1665.00
235.05	1665.00
235.27	1875.94
235.49	1794.02
235.70	1804.26
235.92	1877.99
236.14	1757.16
236.36	1841.12
236.58	1669.09
236.79	1701.86
237.01	1626.09
237.23	1667.05
237.45	1871.84
237.67	1683.43
237.88	1689.57
238.10	1796.07
238.32	1658.85
238.54	1781.73
238.76	1662.95
238.97	1683.43
239.19	1634.28
239.41	1718.25
239.63	1800.16
239.85	1730.53
240.06	1748.97
240.28	1644.52
240.50	1751.01
240.72	1761.25
240.93	1675.24
241.15	1771.49
241.37	1648.61
241.59	1787.88
241.81	1742.82
242.02	1662.95
242.24	1783.78
242.46	1689.57
242.68	1683.43
242.89	1734.63
243.11	1665.00
243.33	1671.14
243.55	1726.44
243.76	1646.57
243.98	1665.00
244.20	1697.77
244.42	1718.25
244.64	1742.82
244.85	1673.19
245.07	1599.46
245.29	1767.40
245.51	1724.39
245.72	1714.15
245.94	1773.54
246.16	1701.86
246.38	1853.41
246.59	1712.10
246.81	1697.77
247.03	1683.43
247.24	1611.75
247.46	1648.61
247.68	1687.53
247.90	1736.68
248.11	1722.34
248.33	1671.14
248.55	1716.20
248.77	1753.06
248.98	1724.39
249.20	1814.50
249.42	1734.63
249.64	1697.77
249.85	1718.25
250.07	1763.30
250.29	1701.86
250.50	1820.64
250.72	1632.23
250.94	1800.16
251.16	1798.12
251.37	1820.64
251.59	1708.01
251.81	1730.53
252.02	1871.84
252.24	1697.77
252.46	1769.44
252.68	1662.95
252.89	1710.05
253.11	1634.28
253.33	1816.55
253.54	1791.97
253.76	1691.62
253.98	1636.33
254.20	1769.44
254.41	1671.14
254.63	1697.77
254.85	1703.91
255.06	1681.38
255.28	1726.44
255.50	1677.29
255.71	1667.05
255.93	1736.68
256.15	1742.82
256.36	1693.67
256.58	1640.42
256.80	1736.68
257.02	1679.33
257.23	1685.48
257.45	1732.58
257.67	1701.86
257.88	1728.49
258.10	1775.59
258.32	1695.72
258.53	1763.30
258.75	1751.01
258.97	1716.20
259.18	1755.11
259.40	1746.92
259.62	1806.31
259.83	1824.74
260.05	1736.68
260.27	1851.36
260.48	1720.29
260.70	1599.46
260.92	1646.57
261.13	1642.47
261.35	1705.96
261.57	1730.53
261.78	1734.63
262.00	1673.19
262.22	1667.05
262.43	1665.00
262.65	1652.71
262.86	1720.29
263.08	1914.85
263.30	1718.25
263.51	1572.84
263.73	1798.12
263.95	1771.49
264.16	1736.68
264.38	1699.81
264.60	1714.15
264.81	1693.67
265.03	1894.37
265.25	1757.16
265.46	1669.09
265.68	1775.59
265.89	1746.92
266.11	1671.14
266.33	1773.54
266.54	1769.44
266.76	1753.06
266.98	1728.49
267.19	1804.26
267.41	1796.07
267.62	1705.96
267.84	1624.04
268.06	1697.77
268.27	1728.49
268.49	1818.60
268.70	1728.49
268.92	1724.39
269.14	1708.01
269.35	1638.38
269.57	1716.20
269.79	1658.85
270.00	1714.15
270.22	1808.36
270.43	1691.62
270.65	1589.22
270.87	1751.01
271.08	1808.36
271.30	1710.05
271.51	1662.95
271.73	1802.21
271.95	1789.92
272.16	1724.39
272.38	1722.34
272.59	1646.57
272.81	1779.68
273.02	1771.49
273.24	1755.11
273.46	1796.07
273.67	1601.51
273.89	1683.43
274.10	1703.91
274.32	1716.20
274.54	1726.44
274.75	1826.79
274.97	1656.81
275.18	1769.44
275.40	1691.62
275.61	1665.00
275.83	1693.67
276.05	1724.39
276.26	1738.73
276.48	1722.34
276.69	1595.37
276.91	1628.14
277.12	1814.50
277.34	1791.97
277.55	1763.30
277.77	1718.25
277.99	1665.00
278.20	1763.30
278.42	1646.57
278.63	1669.09
278.85	1632.23
279.06	1581.03
279.28	1687.53
279.49	1822.69
279.71	1757.16
279.93	1708.01
280.14	1736.68
280.36	1683.43
280.57	1785.83
280.79	1734.63
281.00	1646.57
281.22	1695.72
281.43	1783.78
281.65	1644.52
281.86	1685.48
282.08	1771.49
282.29	1812.45
282.51	1619.94
282.73	1634.28
282.94	1583.08
283.16	1757.16
283.37	1861.60
283.59	1716.20
283.80	1822.69
284.02	1640.42
284.23	1742.82
284.45	1710.05
284.66	1642.47
284.88	1648.61
285.09	1763.30
285.31	1755.11
285.52	1705.96
285.74	1611.75
285.95	1787.88
286.17	1753.06
286.38	1757.16
286.60	1689.57
286.81	1738.73
287.03	1660.90
287.24	1660.90
287.46	1804.26
287.67	1705.96
287.89	1804.26
288.10	1675.24
288.32	1744.87
288.53	1824.74
288.75	1673.19
288.96	1701.86
289.18	1748.97
289.39	1710.05
289.61	1773.54
289.82	1875.94
290.04	1845.22
290.25	1591.27
290.47	1681.38
290.68	1718.25
290.90	1755.11
291.11	1617.90
291.33	1742.82
291.54	1634.28
291.76	1724.39
291.97	1679.33
292.18	1730.53
292.40	1675.24
292.61	1613.80
292.83	1818.60
293.04	1761.25
293.26	1710.05
293.47	1656.81
293.69	1681.38
293.90	1708.01
294.12	1765.35
294.33	1755.11
294.55	1718.25
294.76	1708.01
294.97	1857.51
295.19	1861.60
295.40	1728.49
295.62	1746.92
295.83	1730.53
296.05	1650.66
296.26	1791.97
296.48	1699.81
296.69	1701.86
296.90	1716.20
297.12	1650.66
297.33	1724.39
297.55	1703.91
297.76	1732.58
297.98	1765.35
298.19	1665.00
298.41	1714.15
298.62	1603.56
298.83	1832.93
299.05	1734.63
299.26	1673.19
299.48	1685.48
299.69	1763.30
299.90	1712.10
300.12	1652.71
300.33	1796.07
300.55	1777.64
300.76	1705.96
300.98	1681.38
301.19	1759.21
301.40	1718.25
301.62	1648.61
301.83	1755.11
302.05	1755.11
302.26	1742.82
302.47	1742.82
302.69	1746.92
302.90	1724.39
303.12	1611.75
303.33	1740.77
303.54	1775.59
303.76	1677.29
303.97	1757.16
304.19	1765.35
304.40	1654.76
304.61	1720.29
304.83	1800.16
305.04	1767.40
305.26	1736.68
305.47	1662.95
305.68	1634.28
305.90	1632.23
306.11	1779.68
306.33	1726.44
306.54	1658.85
306.75	1646.57
306.97	1660.90
307.18	1660.90
307.39	1642.47
307.61	1732.58
307.82	1759.21
308.04	1675.24
308.25	1673.19
308.46	1722.34
308.68	1773.54
308.89	1679.33
309.10	1705.96
309.32	1701.86
309.53	1695.72
309.74	1789.92
309.96	1656.81
310.17	1791.97
310.39	1775.59
310.60	1734.63
310.81	1689.57
311.03	1726.44
311.24	1734.63
311.45	1654.76
311.67	1791.97
311.88	1736.68
312.09	1673.19
312.31	1738.73
312.52	1742.82
312.73	1697.77
312.95	1691.62
313.16	1691.62
313.37	1785.83
313.59	1718.25
313.80	1849.32
314.01	1808.36
314.23	1701.86
314.44	1648.61
314.65	1607.66
314.87	1642.47
315.08	1718.25
315.29	1787.88
315.51	1624.04
315.72	1593.32
315.93	1816.55
316.15	1767.40
316.36	1607.66
316.57	1648.61
316.79	1761.25
317.00	1681.38
317.21	1708.01
317.43	1710.05
317.64	1638.38
317.85	1681.38
318.07	1691.62
318.28	1841.12
318.49	1779.68
318.70	1949.67
318.92	1798.12
319.13	1839.08
319.34	1841.12
319.56	1734.63
319.77	1730.53
319.98	1757.16
320.20	1853.41
320.41	1787.88
320.62	1785.83
320.83	1712.10
321.05	1892.32
321.26	1642.47
321.47	1720.29
321.69	1824.74
321.90	1624.04
322.11	1697.77
322.32	1794.02
322.54	1746.92
322.75	1751.01
322.96	1851.36
323.18	1710.05
323.39	1609.70
323.60	1626.09
323.81	1783.78
324.03	1734.63
324.24	1718.25
324.45	1708.01
324.66	1611.75
324.88	1781.73
325.09	1738.73
325.30	1683.43
325.52	1683.43
325.73	1744.87
325.94	1681.38
326.15	1562.60
326.37	1646.57
326.58	1751.01
326.79	1802.21
327.00	1675.24
327.22	1738.73
327.43	1738.73
327.64	1681.38
327.85	1732.58
328.07	1705.96
328.28	1779.68
328.49	1621.99
328.70	1667.05
328.92	1773.54
329.13	1783.78
329.34	1718.25
329.55	1755.11
329.76	1812.45
329.98	1701.86
330.19	1740.77
330.40	1687.53
330.61	1751.01
330.83	1826.79
331.04	1660.90
331.25	1710.05
331.46	1705.96
331.68	1636.33
331.89	1839.08
332.10	1654.76
332.31	1570.79
332.52	1740.77
332.74	1898.47
332.95	1720.29
333.16	1710.05
333.37	1791.97
333.58	1658.85
333.80	1701.86
334.01	1650.66
334.22	1746.92
334.43	1677.29
334.64	1658.85
334.86	1673.19
335.07	1650.66
335.28	1794.02
335.49	1724.39
335.70	1730.53
335.92	1847.27
336.13	1861.60
336.34	1728.49
336.55	1673.19
336.76	1755.11
336.98	1640.42
337.19	1751.01
337.40	1718.25
337.61	1847.27
337.82	1662.95
338.04	1779.68
338.25	1572.84
338.46	1681.38
338.67	1624.04
338.88	1642.47
339.09	1634.28
339.31	1665.00
339.52	1624.04
339.73	1685.48
339.94	1755.11
340.15	1705.96
340.36	1751.01
340.58	1640.42
340.79	1660.90
341.00	1726.44
341.21	1669.09
341.42	1785.83
341.63	1646.57
341.85	1759.21
342.06	1753.06
342.27	1734.63
342.48	1755.11
342.69	1654.76
342.90	1708.01
343.12	1708.01
343.33	1763.30
343.54	1746.92
343.75	1839.08
343.96	1681.38
344.17	1587.18
344.38	1710.05
344.60	1626.09
344.81	1662.95
345.02	1761.25
345.23	1771.49
345.44	1753.06
345.65	1765.35
345.86	1710.05
346.07	1710.05
346.29	1681.38
346.50	1687.53
346.71	1748.97
346.92	1810.40
347.13	1746.92
347.34	1691.62
347.55	1757.16
347.76	1691.62
347.98	1642.47
348.19	1667.05
348.40	1757.16
348.61	1601.51
348.82	1859.56
349.03	1724.39
349.24	1624.04
349.45	1781.73
349.66	1634.28
349.88	1685.48
350.09	1708.01
350.30	1755.11
350.51	1798.12
350.72	1675.24
350.93	1710.05
351.14	1654.76
351.35	1773.54
351.56	1732.58
351.77	1705.96
351.99	1701.86
352.20	1824.74
352.41	1755.11
352.62	1650.66
352.83	1722.34
353.04	1705.96
353.25	1677.29
353.46	1689.57
353.67	1816.55
353.88	1587.18
354.09	1687.53
354.30	1697.77
354.52	1724.39
354.73	1740.77
354.94	1708.01
355.15	1761.25
355.36	1779.68
355.57	1673.19
355.78	1724.39
355.99	1673.19
356.20	1658.85
356.41	1722.34
356.62	1757.16
356.83	1726.44
357.04	1834.98
357.25	1570.79
357.46	1705.96
357.68	1652.71
357.89	1730.53
358.10	1683.43
358.31	1660.90
358.52	1763.30
358.73	1605.61
358.94	1603.56
359.15	1685.48
359.36	1757.16
359.57	1712.10
359.78	1681.38
359.99	1724.39
360.20	1673.19
360.41	1693.67
360.62	1748.97
360.83	1683.43
361.04	1710.05
361.25	1794.02
361.46	1859.56
361.67	1783.78
361.88	1794.02
362.09	1791.97
362.30	1789.92
362.51	1660.90
362.72	1705.96
362.93	1794.02
363.14	1728.49
363.35	1714.15
363.56	1648.61
363.78	1722.34
363.99	1753.06
364.20	1697.77
364.41	1730.53
364.62	1824.74
364.83	1777.64
365.04	1693.67
365.25	1671.14
365.46	1818.60
365.67	1646.57
365.88	1652.71
366.09	1746.92
366.30	1665.00
366.51	1738.73
366.72	1621.99
366.93	1665.00
367.14	1642.47
367.35	1734.63
367.56	1746.92
367.77	1849.32
367.98	1748.97
368.18	1761.25
368.39	1718.25
368.60	1714.15
368.81	1800.16
369.02	1724.39
369.23	1718.25
369.44	1638.38
369.65	1642.47
369.86	1671.14
370.07	1771.49
370.28	1673.19
370.49	1671.14
370.70	1738.73
370.91	1632.23
371.12	1699.81
371.33	1761.25
371.54	1685.48
371.75	1714.15
371.96	1634.28
372.17	1720.29
372.38	1677.29
372.59	1753.06
372.80	1632.23
373.01	1681.38
373.22	1714.15
373.43	1724.39
373.64	1652.71
373.85	1796.07
374.06	1824.74
374.26	1814.50
374.47	1791.97
374.68	1787.88
374.89	1650.66
375.10	1691.62
375.31	1800.16
375.52	1785.83
375.73	1724.39
375.94	1683.43
376.15	1789.92
376.36	1660.90
376.57	1732.58
376.78	1703.91
376.99	1736.68
377.20	1826.79
377.40	1736.68
377.61	1832.93
377.82	1691.62
378.03	1769.44
378.24	1822.69
378.45	1722.34
378.66	1755.11
378.87	1701.86
379.08	1640.42
379.29	1697.77
379.50	1796.07
379.71	1665.00
379.91	1736.68
380.12	1673.19
380.33	1683.43
380.54	1697.77
380.75	1667.05
380.96	1693.67
381.17	1667.05
381.38	1740.77
381.59	1804.26
381.80	1708.01
382.00	1818.60
382.21	1726.44
382.42	1783.78
382.63	1837.03
382.84	1804.26
383.05	1742.82
383.26	1877.99
383.47	1693.67
383.68	1816.55
383.88	1691.62
384.09	1644.52
384.30	1781.73
384.51	1736.68
384.72	1640.42
384.93	1609.70
385.14	1656.81
385.35	1742.82
385.55	1650.66
385.76	1798.12
385.97	1775.59
386.18	1640.42
386.39	1691.62
386.60	1734.63
386.81	1665.00
387.02	1808.36
387.22	1656.81
387.43	1701.86
387.64	1867.75
387.85	1916.90
388.06	2193.37
388.27	4093.89
388.48	6567.84
388.68	8066.95
388.89	9332.59
389.10	9539.44
389.31	8497.02
389.52	7323.54
389.73	6776.73
389.93	6199.20
390.14	5771.18
390.35	5216.18
390.56	4507.58
390.77	3741.64
390.98	3092.43
391.18	2392.03
391.39	2187.23
391.60	1861.60
391.81	1820.64
392.02	1716.20
392.23	1904.61
392.43	1691.62
392.64	1769.44
392.85	1746.92
393.06	1861.60
393.27	1710.05
393.47	1660.90
393.68	1726.44
393.89	1693.67
394.10	1806.31
394.31	1638.38
394.52	1650.66
394.72	1742.82
394.93	1804.26
395.14	1636.33
395.35	1695.72
395.56	1685.48
395.76	1867.75
395.97	1763.30
396.18	1804.26
396.39	1839.08
396.60	2074.59
396.80	1902.56
397.01	1839.08
397.22	1785.83
397.43	1837.03
397.64	1755.11
397.84	1785.83
398.05	1892.32
398.26	1742.82
398.47	1726.44
398.67	1755.11
398.88	1751.01
399.09	1802.21
399.30	1746.92
399.51	1699.81
399.71	1662.95
399.92	1667.05
400.13	1705.96
400.34	1710.05
400.54	1683.43
400.75	1742.82
400.96	1773.54
401.17	1837.03
401.37	1755.11
401.58	1683.43
401.79	1714.15
402.00	1890.28
402.21	1986.53
402.41	1961.95
402.62	1988.58
402.83	1978.34
403.04	1886.18
403.24	1982.43
403.45	1822.69
403.66	1869.80
403.87	1882.08
404.07	1920.99
404.28	1859.56
404.49	1890.28
404.70	1767.40
404.90	1742.82
405.11	1722.34
405.32	1800.16
405.52	1681.38
405.73	1697.77
405.94	1660.90
406.15	1679.33
406.35	1697.77
406.56	1716.20
406.77	1662.95
406.98	1656.81
407.18	1730.53
407.39	1806.31
407.60	1755.11
407.80	1761.25
408.01	1675.24
408.22	1773.54
408.43	1669.09
408.63	1740.77
408.84	1783.78
409.05	1820.64
409.25	1648.61
409.46	1671.14
409.67	1691.62
409.88	1703.91
410.08	1800.16
410.29	1687.53
410.50	1753.06
410.70	1677.29
410.91	1624.04
411.12	1794.02
411.32	1708.01
411.53	1705.96
411.74	1763.30
411.95	1794.02
412.15	1744.87
412.36	1828.84
412.57	1804.26
412.77	1777.64
412.98	1748.97
413.19	1708.01
413.39	1726.44
413.60	1742.82
413.81	1789.92
414.01	1599.46
414.22	1820.64
414.43	1796.07
414.63	1648.61
414.84	1746.92
415.05	1738.73
415.25	1691.62
415.46	1691.62
415.67	1705.96
415.87	1667.05
416.08	1783.78
416.29	1720.29
416.49	1771.49
416.70	1669.09
416.91	1691.62
417.11	1757.16
417.32	1777.64
417.53	1718.25
417.73	1726.44
417.94	1589.22
418.15	1812.45
418.35	1736.68
418.56	1753.06
418.77	1826.79
418.97	1642.47
419.18	1708.01
419.38	1587.18
419.59	1744.87
419.80	1763.30
420.00	1736.68
420.21	1714.15
420.42	1812.45
420.62	1720.29
420.83	1712.10
421.04	1730.53
421.24	1710.05
421.45	1734.63
421.65	1755.11
421.86	1695.72
422.07	1748.97
422.27	1701.86
422.48	1683.43
422.69	1679.33
422.89	1681.38
423.10	1697.77
423.30	1660.90
423.51	1761.25
423.72	1705.96
423.92	1718.25
424.13	1626.09
424.33	1665.00
424.54	1880.04
424.75	1687.53
424.95	1843.17
425.16	1746.92
425.36	1708.01
425.57	1783.78
425.78	1812.45
425.98	1726.44
426.19	1669.09
426.39	1626.09
426.60	1755.11
426.81	1816.55
427.01	1751.01
427.22	1695.72
427.42	1603.56
427.63	1669.09
427.83	1718.25
428.04	1769.44
428.25	1849.32
428.45	1820.64
428.66	1742.82
428.86	1724.39
429.07	1685.48
429.28	1761.25
429.48	1665.00
429.69	1701.86
429.89	1689.57
430.10	1613.80
430.30	1773.54
430.51	1703.91
430.71	1628.14
430.92	1748.97
431.13	1658.85
431.33	1701.86
431.54	1808.36
431.74	1826.79
431.95	1826.79
432.15	1699.81
432.36	1695.72
432.56	1759.21
432.77	1855.46
432.98	1886.18
433.18	1675.24
433.39	1712.10
433.59	1734.63
433.80	1877.99
434.00	1863.65
434.21	1755.11
434.41	1642.47
434.62	1841.12
434.82	1619.94
435.03	1763.30
435.23	1730.53
435.44	1628.14
435.64	1701.86
435.85	1685.48
436.06	1648.61
436.26	1761.25
436.47	1744.87
436.67	1630.18
436.88	1615.85
437.08	1828.84
437.29	1765.35
437.49	1742.82
437.70	1787.88
437.90	1724.39
438.11	1900.52
438.31	1759.21
438.52	1800.16
438.72	1920.99
438.93	1857.51
439.13	1787.88
439.34	1822.69
439.54	1722.34
439.75	1800.16
439.95	1832.93
440.16	1722.34
440.36	1730.53
440.57	1791.97
440.77	1796.07
440.98	1728.49
441.18	1767.40
441.39	1693.67
441.59	1644.52
441.80	1896.42
442.00	1718.25
442.21	1914.85
442.41	1652.71
442.62	1816.55
442.82	1720.29
443.02	1742.82
443.23	1697.77
443.43	1783.78
443.64	1773.54
443.84	1689.57
444.05	1837.03
444.25	1748.97
444.46	1732.58
444.66	1677.29
444.87	1884.13
445.07	1669.09
445.28	1759.21
445.48	1802.21
445.69	1789.92
445.89	1865.70
446.09	1839.08
446.30	1998.82
446.50	2648.02
446.71	3682.25
446.91	4335.55
447.12	4777.91
447.32	4831.16
447.53	4286.40
447.73	3850.18
447.93	3561.42
448.14	3327.95
448.34	3270.61
448.55	2858.96
448.75	2799.57
448.96	2717.65
449.16	2299.87
449.36	2279.39
449.57	2109.41
449.77	1912.80
449.98	1712.10
450.18	1886.18
450.39	1861.60
450.59	1734.63
450.79	1763.30
451.00	1656.81
451.20	1695.72
451.41	1685.48
451.61	1779.68
451.81	1708.01
452.02	1730.53
452.22	1673.19
452.43	1687.53
452.63	1673.19
