SpectraSuite Data File
++++++++++++++++++++++++++++++++++++
Date: Mon Jun 06 16:11:17 CEST 2016
User: root
Dark Spectrum Present: No
Reference Spectrum Present: No
Number of Sampled Component Spectra: 1
Spectrometers: USB4C02835
Integration Time (usec): 100000 (USB4C02835)
Spectra Averaged: 1 (USB4C02835)
Boxcar Smoothing: 0 (USB4C02835)
Correct for Electrical Dark: No (USB4C02835)
Strobe/Lamp Enabled: No (USB4C02835)
Correct for Detector Non-linearity: No (USB4C02835)
Correct for Stray Light: No (USB4C02835)
Number of Pixels in Processed Spectrum: 3648
>>>>>Begin Processed Spectral Data<<<<<
177.47	1452.01
177.69	1452.01
177.91	1452.01
178.13	1505.26
178.36	1468.39
178.58	1656.81
178.80	1697.77
179.02	1621.99
179.24	1736.68
179.46	1662.95
179.68	1679.33
179.90	1708.01
180.13	1712.10
180.35	1675.24
180.57	1650.66
180.79	1740.77
181.01	1685.48
181.23	1769.44
181.45	1775.59
181.67	1705.96
181.90	1722.34
182.12	1785.83
182.34	1624.04
182.56	1732.58
182.78	1732.58
183.00	1728.49
183.22	1720.29
183.44	1576.94
183.66	1900.52
183.89	1742.82
184.11	1732.58
184.33	1689.57
184.55	1808.36
184.77	1748.97
184.99	1746.92
185.21	1667.05
185.43	1865.70
185.65	1734.63
185.87	1742.82
186.10	1826.79
186.32	1853.41
186.54	1648.61
186.76	1687.53
186.98	1726.44
187.20	1693.67
187.42	1726.44
187.64	1742.82
187.86	1734.63
188.08	1716.20
188.30	1720.29
188.52	1710.05
188.75	1697.77
188.97	1734.63
189.19	1724.39
189.41	1689.57
189.63	1730.53
189.85	1804.26
190.07	1662.95
190.29	1648.61
190.51	1679.33
190.73	1591.27
190.95	1826.79
191.17	1746.92
191.39	1691.62
191.61	1652.71
191.84	1652.71
192.06	1712.10
192.28	1636.33
192.50	1886.18
192.72	1738.73
192.94	1705.96
193.16	1697.77
193.38	1728.49
193.60	1617.90
193.82	1677.29
194.04	1794.02
194.26	1724.39
194.48	1683.43
194.70	1650.66
194.92	1624.04
195.14	1822.69
195.36	1695.72
195.58	1695.72
195.80	1730.53
196.02	1656.81
196.24	1681.38
196.46	1697.77
196.69	1595.37
196.91	1826.79
197.13	1615.85
197.35	1638.38
197.57	1759.21
197.79	1701.86
198.01	1693.67
198.23	1710.05
198.45	1849.32
198.67	1722.34
198.89	1738.73
199.11	1740.77
199.33	1660.90
199.55	1642.47
199.77	1771.49
199.99	1787.88
200.21	1794.02
200.43	1716.20
200.65	1646.57
200.87	1675.24
201.09	1716.20
201.31	1665.00
201.53	1816.55
201.75	1718.25
201.97	1673.19
202.19	1693.67
202.41	1800.16
202.63	1812.45
202.85	1775.59
203.07	1660.90
203.29	1675.24
203.51	1650.66
203.73	1683.43
203.95	1863.65
204.17	1775.59
204.39	1779.68
204.61	1779.68
204.83	1683.43
205.05	1738.73
205.27	1751.01
205.49	1832.93
205.71	1701.86
205.93	1650.66
206.15	1710.05
206.37	1761.25
206.59	1687.53
206.81	1679.33
207.03	1652.71
207.25	1712.10
207.47	1802.21
207.69	1650.66
207.91	1791.97
208.13	1804.26
208.34	1675.24
208.56	1683.43
208.78	1765.35
209.00	1677.29
209.22	1699.81
209.44	1728.49
209.66	1636.33
209.88	1728.49
210.10	1699.81
210.32	1763.30
210.54	1861.60
210.76	1726.44
210.98	1783.78
211.20	1597.42
211.42	1632.23
211.64	1775.59
211.86	1705.96
212.08	1734.63
212.30	1671.14
212.52	1730.53
212.74	1767.40
212.96	1722.34
213.17	1748.97
213.39	1734.63
213.61	1845.22
213.83	1789.92
214.05	1626.09
214.27	1800.16
214.49	1730.53
214.71	1677.29
214.93	1714.15
215.15	1677.29
215.37	1794.02
215.59	1693.67
215.81	1695.72
216.03	1806.31
216.24	1720.29
216.46	1656.81
216.68	1726.44
216.90	1703.91
217.12	1753.06
217.34	1812.45
217.56	1761.25
217.78	1777.64
218.00	1806.31
218.22	1775.59
218.44	1728.49
218.66	1636.33
218.87	1841.12
219.09	1732.58
219.31	1800.16
219.53	1751.01
219.75	1613.80
219.97	1718.25
220.19	1714.15
220.41	1669.09
220.63	1761.25
220.85	1791.97
221.06	1708.01
221.28	1769.44
221.50	1746.92
221.72	1755.11
221.94	1730.53
222.16	1724.39
222.38	1755.11
222.60	1804.26
222.82	1736.68
223.03	1722.34
223.25	1726.44
223.47	1738.73
223.69	1822.69
223.91	1806.31
224.13	1710.05
224.35	1691.62
224.57	1777.64
224.78	1755.11
225.00	1636.33
225.22	1769.44
225.44	1740.77
225.66	1714.15
225.88	1703.91
226.10	1837.03
226.32	1755.11
226.53	1828.84
226.75	1652.71
226.97	1679.33
227.19	1787.88
227.41	1681.38
227.63	1710.05
227.85	1640.42
228.06	1730.53
228.28	1730.53
228.50	1718.25
228.72	1681.38
228.94	1732.58
229.16	1714.15
229.37	1656.81
229.59	1687.53
229.81	1849.32
230.03	1740.77
230.25	1624.04
230.47	1630.18
230.69	1669.09
230.90	1779.68
231.12	1781.73
231.34	1736.68
231.56	1744.87
231.78	1689.57
232.00	1724.39
232.21	1685.48
232.43	1822.69
232.65	1644.52
232.87	1701.86
233.09	1701.86
233.30	1648.61
233.52	1779.68
233.74	1665.00
233.96	1626.09
234.18	1738.73
234.40	1718.25
234.61	1818.60
234.83	1624.04
235.05	1679.33
235.27	1849.32
235.49	1779.68
235.70	1705.96
235.92	1767.40
236.14	1767.40
236.36	1873.89
236.58	1722.34
236.79	1748.97
237.01	1578.98
237.23	1662.95
237.45	1808.36
237.67	1716.20
237.88	1720.29
238.10	1863.65
238.32	1712.10
238.54	1701.86
238.76	1736.68
238.97	1660.90
239.19	1673.19
239.41	1748.97
239.63	1814.50
239.85	1703.91
240.06	1693.67
240.28	1734.63
240.50	1773.54
240.72	1773.54
240.93	1695.72
241.15	1781.73
241.37	1630.18
241.59	1845.22
241.81	1669.09
242.02	1722.34
242.24	1781.73
242.46	1753.06
242.68	1734.63
242.89	1705.96
243.11	1785.83
243.33	1755.11
243.55	1763.30
243.76	1742.82
243.98	1675.24
244.20	1804.26
244.42	1712.10
244.64	1742.82
244.85	1695.72
245.07	1734.63
245.29	1708.01
245.51	1742.82
245.72	1714.15
245.94	1710.05
246.16	1730.53
246.38	1720.29
246.59	1716.20
246.81	1658.85
247.03	1779.68
247.24	1617.90
247.46	1673.19
247.68	1775.59
247.90	1765.35
248.11	1699.81
248.33	1744.87
248.55	1775.59
248.77	1720.29
248.98	1783.78
249.20	1822.69
249.42	1716.20
249.64	1808.36
249.85	1699.81
250.07	1689.57
250.29	1742.82
250.50	1746.92
250.72	1730.53
250.94	1687.53
251.16	1775.59
251.37	1753.06
251.59	1773.54
251.81	1830.88
252.02	1791.97
252.24	1673.19
252.46	1822.69
252.68	1648.61
252.89	1626.09
253.11	1648.61
253.33	1796.07
253.54	1708.01
253.76	1644.52
253.98	1675.24
254.20	1742.82
254.41	1660.90
254.63	1720.29
254.85	1658.85
255.06	1740.77
255.28	1685.48
255.50	1611.75
255.71	1667.05
255.93	1665.00
256.15	1742.82
256.36	1761.25
256.58	1644.52
256.80	1759.21
257.02	1720.29
257.23	1740.77
257.45	1689.57
257.67	1718.25
257.88	1648.61
258.10	1763.30
258.32	1726.44
258.53	1699.81
258.75	1834.98
258.97	1689.57
259.18	1730.53
259.40	1691.62
259.62	1808.36
259.83	1894.37
260.05	1720.29
260.27	1994.72
260.48	1789.92
260.70	1673.19
260.92	1738.73
261.13	1738.73
261.35	1716.20
261.57	1724.39
261.78	1662.95
262.00	1671.14
262.22	1726.44
262.43	1660.90
262.65	1681.38
262.86	1697.77
263.08	1851.36
263.30	1746.92
263.51	1636.33
263.73	1691.62
263.95	1820.64
264.16	1683.43
264.38	1611.75
264.60	1683.43
264.81	1617.90
265.03	1818.60
265.25	1691.62
265.46	1738.73
265.68	1851.36
265.89	1746.92
266.11	1640.42
266.33	1798.12
266.54	1761.25
266.76	1736.68
266.98	1705.96
267.19	1798.12
267.41	1818.60
267.62	1683.43
267.84	1613.80
268.06	1787.88
268.27	1667.05
268.49	1771.49
268.70	1736.68
268.92	1763.30
269.14	1703.91
269.35	1638.38
269.57	1650.66
269.79	1769.44
270.00	1738.73
270.22	1794.02
270.43	1740.77
270.65	1581.03
270.87	1738.73
271.08	1789.92
271.30	1718.25
271.51	1714.15
271.73	1773.54
271.95	1791.97
272.16	1730.53
272.38	1763.30
272.59	1738.73
272.81	1677.29
273.02	1724.39
273.24	1779.68
273.46	1802.21
273.67	1656.81
273.89	1751.01
274.10	1667.05
274.32	1839.08
274.54	1761.25
274.75	1691.62
274.97	1615.85
275.18	1744.87
275.40	1767.40
275.61	1714.15
275.83	1699.81
276.05	1644.52
276.26	1675.24
276.48	1714.15
276.69	1728.49
276.91	1619.94
277.12	1757.16
277.34	1726.44
277.55	1781.73
277.77	1740.77
277.99	1671.14
278.20	1662.95
278.42	1648.61
278.63	1705.96
278.85	1599.46
279.06	1660.90
279.28	1703.91
279.49	1837.03
279.71	1726.44
279.93	1710.05
280.14	1732.58
280.36	1665.00
280.57	1744.87
280.79	1777.64
281.00	1665.00
281.22	1679.33
281.43	1798.12
281.65	1603.56
281.86	1693.67
282.08	1808.36
282.29	1787.88
282.51	1642.47
282.73	1701.86
282.94	1615.85
283.16	1802.21
283.37	1800.16
283.59	1785.83
283.80	1734.63
284.02	1701.86
284.23	1736.68
284.45	1701.86
284.66	1718.25
284.88	1710.05
285.09	1759.21
285.31	1748.97
285.52	1736.68
285.74	1675.24
285.95	1734.63
286.17	1732.58
286.38	1712.10
286.60	1697.77
286.81	1617.90
287.03	1685.48
287.24	1703.91
287.46	1773.54
287.67	1652.71
287.89	1894.37
288.10	1699.81
288.32	1712.10
288.53	1667.05
288.75	1722.34
288.96	1712.10
289.18	1638.38
289.39	1714.15
289.61	1841.12
289.82	1785.83
290.04	1820.64
290.25	1716.20
290.47	1775.59
290.68	1753.06
290.90	1830.88
291.11	1603.56
291.33	1736.68
291.54	1648.61
291.76	1697.77
291.97	1697.77
292.18	1802.21
292.40	1697.77
292.61	1656.81
292.83	1894.37
293.04	1757.16
293.26	1673.19
293.47	1798.12
293.69	1673.19
293.90	1751.01
294.12	1767.40
294.33	1691.62
294.55	1689.57
294.76	1759.21
294.97	1779.68
295.19	1849.32
295.40	1597.42
295.62	1669.09
295.83	1728.49
296.05	1634.28
296.26	1744.87
296.48	1628.14
296.69	1687.53
296.90	1718.25
297.12	1751.01
297.33	1744.87
297.55	1734.63
297.76	1769.44
297.98	1716.20
298.19	1695.72
298.41	1730.53
298.62	1609.70
298.83	1783.78
299.05	1751.01
299.26	1699.81
299.48	1695.72
299.69	1783.78
299.90	1722.34
300.12	1671.14
300.33	1824.74
300.55	1697.77
300.76	1742.82
300.98	1675.24
301.19	1730.53
301.40	1701.86
301.62	1687.53
301.83	1679.33
302.05	1675.24
302.26	1742.82
302.47	1779.68
302.69	1695.72
302.90	1716.20
303.12	1638.38
303.33	1771.49
303.54	1843.17
303.76	1669.09
303.97	1763.30
304.19	1806.31
304.40	1683.43
304.61	1751.01
304.83	1804.26
305.04	1787.88
305.26	1802.21
305.47	1650.66
305.68	1796.07
305.90	1658.85
306.11	1787.88
306.33	1681.38
306.54	1640.42
306.75	1714.15
306.97	1605.61
307.18	1724.39
307.39	1669.09
307.61	1738.73
307.82	1691.62
308.04	1757.16
308.25	1652.71
308.46	1660.90
308.68	1660.90
308.89	1667.05
309.10	1718.25
309.32	1679.33
309.53	1679.33
309.74	1736.68
309.96	1710.05
310.17	1791.97
310.39	1673.19
310.60	1773.54
310.81	1681.38
311.03	1705.96
311.24	1708.01
311.45	1740.77
311.67	1775.59
311.88	1746.92
312.09	1652.71
312.31	1691.62
312.52	1738.73
312.73	1720.29
312.95	1617.90
313.16	1720.29
313.37	1812.45
313.59	1722.34
313.80	1697.77
314.01	1783.78
314.23	1722.34
314.44	1665.00
314.65	1701.86
314.87	1632.23
315.08	1744.87
315.29	1646.57
315.51	1677.29
315.72	1613.80
315.93	1904.61
316.15	1732.58
316.36	1677.29
316.57	1783.78
316.79	1775.59
317.00	1656.81
317.21	1669.09
317.43	1742.82
317.64	1650.66
317.85	1708.01
318.07	1644.52
318.28	1730.53
318.49	1785.83
318.70	1916.90
318.92	1806.31
319.13	1822.69
319.34	1886.18
319.56	1822.69
319.77	1832.93
319.98	1820.64
320.20	1763.30
320.41	1794.02
320.62	1791.97
320.83	1660.90
321.05	1896.42
321.26	1746.92
321.47	1734.63
321.69	1767.40
321.90	1601.51
322.11	1703.91
322.32	1748.97
322.54	1740.77
322.75	1671.14
322.96	1826.79
323.18	1710.05
323.39	1542.12
323.60	1665.00
323.81	1736.68
324.03	1660.90
324.24	1730.53
324.45	1722.34
324.66	1699.81
324.88	1720.29
325.09	1839.08
325.30	1740.77
325.52	1720.29
325.73	1669.09
325.94	1662.95
326.15	1638.38
326.37	1609.70
326.58	1787.88
326.79	1869.80
327.00	1638.38
327.22	1701.86
327.43	1708.01
327.64	1693.67
327.85	1806.31
328.07	1699.81
328.28	1757.16
328.49	1705.96
328.70	1640.42
328.92	1746.92
329.13	1695.72
329.34	1716.20
329.55	1779.68
329.76	1726.44
329.98	1695.72
330.19	1765.35
330.40	1742.82
330.61	1759.21
330.83	1769.44
331.04	1683.43
331.25	1722.34
331.46	1667.05
331.68	1628.14
331.89	1736.68
332.10	1744.87
332.31	1652.71
332.52	1673.19
332.74	1783.78
332.95	1630.18
333.16	1722.34
333.37	1816.55
333.58	1685.48
333.80	1683.43
334.01	1583.08
334.22	1679.33
334.43	1693.67
334.64	1679.33
334.86	1613.80
335.07	1710.05
335.28	1730.53
335.49	1564.65
335.70	1796.07
335.92	1701.86
336.13	1824.74
336.34	1734.63
336.55	1673.19
336.76	1710.05
336.98	1607.66
337.19	1787.88
337.40	1810.40
337.61	1755.11
337.82	1673.19
338.04	1818.60
338.25	1646.57
338.46	1650.66
338.67	1789.92
338.88	1662.95
339.09	1632.23
339.31	1689.57
339.52	1689.57
339.73	1691.62
339.94	1673.19
340.15	1779.68
340.36	1673.19
340.58	1742.82
340.79	1677.29
341.00	1783.78
341.21	1705.96
341.42	1785.83
341.63	1671.14
341.85	1738.73
342.06	1742.82
342.27	1595.37
342.48	1759.21
342.69	1669.09
342.90	1681.38
343.12	1742.82
343.33	1765.35
343.54	1714.15
343.75	1787.88
343.96	1671.14
344.17	1581.03
344.38	1798.12
344.60	1626.09
344.81	1697.77
345.02	1775.59
345.23	1740.77
345.44	1794.02
345.65	1759.21
345.86	1714.15
346.07	1695.72
346.29	1679.33
346.50	1783.78
346.71	1716.20
346.92	1775.59
347.13	1779.68
347.34	1740.77
347.55	1699.81
347.76	1689.57
347.98	1591.27
348.19	1697.77
348.40	1734.63
348.61	1669.09
348.82	1804.26
349.03	1806.31
349.24	1675.24
349.45	1781.73
349.66	1544.17
349.88	1753.06
350.09	1685.48
350.30	1845.22
350.51	1794.02
350.72	1839.08
350.93	1753.06
351.14	1665.00
351.35	1673.19
351.56	1755.11
351.77	1798.12
351.99	1712.10
352.20	1757.16
352.41	1796.07
352.62	1615.85
352.83	1697.77
353.04	1720.29
353.25	1714.15
353.46	1814.50
353.67	1767.40
353.88	1613.80
354.09	1718.25
354.30	1726.44
354.52	1798.12
354.73	1693.67
354.94	1675.24
355.15	1734.63
355.36	1777.64
355.57	1619.94
355.78	1759.21
355.99	1626.09
356.20	1712.10
356.41	1732.58
356.62	1722.34
356.83	1730.53
357.04	1759.21
357.25	1652.71
357.46	1644.52
357.68	1632.23
357.89	1679.33
358.10	1765.35
358.31	1722.34
358.52	1714.15
358.73	1671.14
358.94	1701.86
359.15	1677.29
359.36	1693.67
359.57	1679.33
359.78	1742.82
359.99	1765.35
360.20	1671.14
360.41	1759.21
360.62	1703.91
360.83	1722.34
361.04	1734.63
361.25	1769.44
361.46	1767.40
361.67	1740.77
361.88	1728.49
362.09	1767.40
362.30	1716.20
362.51	1683.43
362.72	1751.01
362.93	1710.05
363.14	1732.58
363.35	1728.49
363.56	1621.99
363.78	1857.51
363.99	1822.69
364.20	1689.57
364.41	1789.92
364.62	1761.25
364.83	1722.34
365.04	1681.38
365.25	1734.63
365.46	1898.47
365.67	1611.75
365.88	1652.71
366.09	1683.43
366.30	1708.01
366.51	1656.81
366.72	1603.56
366.93	1693.67
367.14	1763.30
367.35	1806.31
367.56	1726.44
367.77	1785.83
367.98	1742.82
368.18	1755.11
368.39	1767.40
368.60	1689.57
368.81	1814.50
369.02	1746.92
369.23	1710.05
369.44	1572.84
369.65	1744.87
369.86	1765.35
370.07	1755.11
370.28	1603.56
370.49	1716.20
370.70	1753.06
370.91	1636.33
371.12	1630.18
371.33	1757.16
371.54	1605.61
371.75	1839.08
371.96	1548.26
372.17	1705.96
372.38	1679.33
372.59	1738.73
372.80	1783.78
373.01	1621.99
373.22	1714.15
373.43	1726.44
373.64	1701.86
373.85	1804.26
374.06	1906.66
374.26	1763.30
374.47	1734.63
374.68	1847.27
374.89	1710.05
375.10	1730.53
375.31	1710.05
375.52	1777.64
375.73	1708.01
375.94	1628.14
376.15	1822.69
376.36	1617.90
376.57	1603.56
376.78	1669.09
376.99	1726.44
377.20	1787.88
377.40	1712.10
377.61	1834.98
377.82	1665.00
378.03	1837.03
378.24	1671.14
378.45	1691.62
378.66	1771.49
378.87	1587.18
379.08	1634.28
379.29	1712.10
379.50	1753.06
379.71	1703.91
379.91	1818.60
380.12	1703.91
380.33	1722.34
380.54	1800.16
380.75	1677.29
380.96	1683.43
381.17	1783.78
381.38	1746.92
381.59	1708.01
381.80	1755.11
382.00	1873.89
382.21	1771.49
382.42	1804.26
382.63	1918.95
382.84	1818.60
383.05	1748.97
383.26	1746.92
383.47	1751.01
383.68	1806.31
383.88	1777.64
384.09	1798.12
384.30	1832.93
384.51	1751.01
384.72	1691.62
384.93	1640.42
385.14	1800.16
385.35	1771.49
385.55	1646.57
385.76	1746.92
385.97	1691.62
386.18	1636.33
386.39	1722.34
386.60	1730.53
386.81	1724.39
387.02	1671.14
387.22	1636.33
387.43	1748.97
387.64	1806.31
387.85	1945.57
388.06	2220.00
388.27	4093.89
388.48	6723.48
388.68	8298.37
388.89	9615.21
389.10	9752.43
389.31	8572.80
389.52	7591.82
389.73	6748.06
389.93	6211.49
390.14	5900.20
390.35	5289.90
390.56	4640.70
390.77	3801.03
390.98	3065.81
391.18	2543.58
391.39	2111.46
391.60	1796.07
391.81	1859.56
392.02	1759.21
392.23	1898.47
392.43	1665.00
392.64	1904.61
392.85	1720.29
393.06	1861.60
393.27	1740.77
393.47	1748.97
393.68	1708.01
393.89	1703.91
394.10	1781.73
394.31	1710.05
394.52	1656.81
394.72	1742.82
394.93	1765.35
395.14	1746.92
395.35	1781.73
395.56	1699.81
395.76	1708.01
395.97	1767.40
396.18	1894.37
396.39	1808.36
396.60	1964.00
396.80	1925.09
397.01	1908.71
397.22	1806.31
397.43	1877.99
397.64	1691.62
397.84	1834.98
398.05	1804.26
398.26	1708.01
398.47	1869.80
398.67	1779.68
398.88	1796.07
399.09	1730.53
399.30	1662.95
399.51	1773.54
399.71	1624.04
399.92	1732.58
400.13	1775.59
400.34	1720.29
400.54	1740.77
400.75	1826.79
400.96	1730.53
401.17	1796.07
401.37	1773.54
401.58	1769.44
401.79	1767.40
402.00	1843.17
402.21	1990.63
402.41	1927.14
402.62	1994.72
402.83	2035.68
403.04	1947.62
403.24	2099.17
403.45	1843.17
403.66	1910.75
403.87	1902.56
404.07	1918.95
404.28	1882.08
404.49	1877.99
404.70	1787.88
404.90	1763.30
405.11	1822.69
405.32	1726.44
405.52	1646.57
405.73	1701.86
405.94	1642.47
406.15	1757.16
406.35	1816.55
406.56	1746.92
406.77	1742.82
406.98	1710.05
407.18	1705.96
407.39	1826.79
407.60	1595.37
407.80	1718.25
408.01	1689.57
408.22	1765.35
408.43	1720.29
408.63	1755.11
408.84	1822.69
409.05	1738.73
409.25	1634.28
409.46	1705.96
409.67	1689.57
409.88	1712.10
410.08	1738.73
410.29	1685.48
410.50	1740.77
410.70	1791.97
410.91	1636.33
411.12	1787.88
411.32	1673.19
411.53	1652.71
411.74	1759.21
411.95	1834.98
412.15	1847.27
412.36	1789.92
412.57	1787.88
412.77	1839.08
412.98	1628.14
413.19	1771.49
413.39	1824.74
413.60	1847.27
413.81	1841.12
414.01	1705.96
414.22	1839.08
414.43	1796.07
414.63	1683.43
414.84	1787.88
415.05	1677.29
415.25	1669.09
415.46	1763.30
415.67	1689.57
415.87	1798.12
416.08	1687.53
416.29	1767.40
416.49	1728.49
416.70	1748.97
416.91	1722.34
417.11	1691.62
417.32	1726.44
417.53	1753.06
417.73	1677.29
417.94	1730.53
418.15	1765.35
418.35	1697.77
418.56	1732.58
418.77	1806.31
418.97	1650.66
419.18	1800.16
419.38	1603.56
419.59	1687.53
419.80	1791.97
420.00	1732.58
420.21	1681.38
420.42	1804.26
420.62	1736.68
420.83	1757.16
421.04	1701.86
421.24	1644.52
421.45	1779.68
421.65	1722.34
421.86	1683.43
422.07	1824.74
422.27	1763.30
422.48	1740.77
422.69	1587.18
422.89	1703.91
423.10	1673.19
423.30	1697.77
423.51	1755.11
423.72	1746.92
423.92	1767.40
424.13	1699.81
424.33	1757.16
424.54	1830.88
424.75	1777.64
424.95	1865.70
425.16	1789.92
425.36	1777.64
425.57	1775.59
425.78	1716.20
425.98	1775.59
426.19	1705.96
426.39	1728.49
426.60	1751.01
426.81	1720.29
427.01	1728.49
427.22	1626.09
427.42	1689.57
427.63	1765.35
427.83	1839.08
428.04	1798.12
428.25	1773.54
428.45	1830.88
428.66	1761.25
428.86	1767.40
429.07	1767.40
429.28	1617.90
429.48	1660.90
429.69	1708.01
429.89	1714.15
430.10	1724.39
430.30	1736.68
430.51	1796.07
430.71	1730.53
430.92	1689.57
431.13	1712.10
431.33	1718.25
431.54	1767.40
431.74	1816.55
431.95	1714.15
432.15	1683.43
432.36	1783.78
432.56	1771.49
432.77	1900.52
432.98	1906.66
433.18	1773.54
433.39	1693.67
433.59	1675.24
433.80	1779.68
434.00	1877.99
434.21	1638.38
434.41	1609.70
434.62	1828.84
434.82	1630.18
435.03	1687.53
435.23	1652.71
435.44	1595.37
435.64	1755.11
435.85	1755.11
436.06	1769.44
436.26	1781.73
436.47	1701.86
436.67	1621.99
436.88	1667.05
437.08	1794.02
437.29	1859.56
437.49	1753.06
437.70	1798.12
437.90	1748.97
438.11	1851.36
438.31	1763.30
438.52	1830.88
438.72	1845.22
438.93	1902.56
439.13	1828.84
439.34	1853.41
439.54	1703.91
439.75	1912.80
439.95	1726.44
440.16	1703.91
440.36	1777.64
440.57	1861.60
440.77	1777.64
440.98	1759.21
441.18	1769.44
441.39	1718.25
441.59	1638.38
441.80	1800.16
442.00	1800.16
442.21	1791.97
442.41	1691.62
442.62	1804.26
442.82	1777.64
443.02	1730.53
443.23	1685.48
443.43	1775.59
443.64	1892.32
443.84	1748.97
444.05	1867.75
444.25	1771.49
444.46	1742.82
444.66	1759.21
444.87	1783.78
445.07	1656.81
445.28	1763.30
445.48	1847.27
445.69	1726.44
445.89	1892.32
446.09	1765.35
446.30	2066.40
446.50	2631.64
446.71	3682.25
446.91	4319.17
447.12	4863.93
447.32	4857.78
447.53	4374.46
447.73	3903.43
447.93	3475.40
448.14	3295.18
448.34	3145.68
448.55	2932.69
448.75	2832.34
448.96	2691.03
449.16	2408.41
449.36	2365.40
449.57	2103.26
449.77	1898.47
449.98	1779.68
450.18	1910.75
450.39	1804.26
450.59	1738.73
450.79	1736.68
451.00	1673.19
451.20	1757.16
451.41	1732.58
451.61	1818.60
451.81	1732.58
452.02	1755.11
452.22	1681.38
452.43	1689.57
452.63	1675.24
