SpectraSuite Data File
++++++++++++++++++++++++++++++++++++
Date: Mon Jun 06 14:41:57 CEST 2016
User: root
Dark Spectrum Present: No
Reference Spectrum Present: No
Number of Sampled Component Spectra: 1
Spectrometers: USB4C02835
Integration Time (usec): 100000 (USB4C02835)
Spectra Averaged: 1 (USB4C02835)
Boxcar Smoothing: 0 (USB4C02835)
Correct for Electrical Dark: No (USB4C02835)
Strobe/Lamp Enabled: No (USB4C02835)
Correct for Detector Non-linearity: No (USB4C02835)
Correct for Stray Light: No (USB4C02835)
Number of Pixels in Processed Spectrum: 3648
>>>>>Begin Processed Spectral Data<<<<<
177.47	1503.21
177.69	1503.21
177.91	1503.21
178.13	1447.91
178.36	1478.63
178.58	1669.09
178.80	1636.33
179.02	1656.81
179.24	1621.99
179.46	1736.68
179.68	1685.48
179.90	1708.01
180.13	1654.76
180.35	1583.08
180.57	1712.10
180.79	1724.39
181.01	1730.53
181.23	1718.25
181.45	1755.11
181.67	1669.09
181.90	1689.57
182.12	1662.95
182.34	1621.99
182.56	1746.92
182.78	1804.26
183.00	1673.19
183.22	1740.77
183.44	1687.53
183.66	1832.93
183.89	1726.44
184.11	1708.01
184.33	1730.53
184.55	1755.11
184.77	1714.15
184.99	1689.57
185.21	1759.21
185.43	1830.88
185.65	1693.67
185.87	1708.01
186.10	1757.16
186.32	1806.31
186.54	1712.10
186.76	1748.97
186.98	1839.08
187.20	1624.04
187.42	1691.62
187.64	1742.82
187.86	1671.14
188.08	1665.00
188.30	1636.33
188.52	1656.81
188.75	1849.32
188.97	1744.87
189.19	1697.77
189.41	1697.77
189.63	1714.15
189.85	1699.81
190.07	1628.14
190.29	1701.86
190.51	1675.24
190.73	1611.75
190.95	1787.88
191.17	1634.28
191.39	1607.66
191.61	1644.52
191.84	1656.81
192.06	1665.00
192.28	1679.33
192.50	1888.23
192.72	1683.43
192.94	1648.61
193.16	1673.19
193.38	1667.05
193.60	1691.62
193.82	1710.05
194.04	1662.95
194.26	1642.47
194.48	1636.33
194.70	1777.64
194.92	1699.81
195.14	1783.78
195.36	1601.51
195.58	1673.19
195.80	1673.19
196.02	1728.49
196.24	1691.62
196.46	1740.77
196.69	1695.72
196.91	1908.71
197.13	1589.22
197.35	1734.63
197.57	1812.45
197.79	1732.58
198.01	1769.44
198.23	1714.15
198.45	1716.20
198.67	1667.05
198.89	1691.62
199.11	1669.09
199.33	1716.20
199.55	1578.98
199.77	1722.34
199.99	1683.43
200.21	1675.24
200.43	1660.90
200.65	1624.04
200.87	1677.29
201.09	1681.38
201.31	1718.25
201.53	1728.49
201.75	1757.16
201.97	1708.01
202.19	1732.58
202.41	1734.63
202.63	1751.01
202.85	1697.77
203.07	1775.59
203.29	1683.43
203.51	1638.38
203.73	1595.37
203.95	1896.42
204.17	1726.44
204.39	1732.58
204.61	1687.53
204.83	1673.19
205.05	1716.20
205.27	1800.16
205.49	1867.75
205.71	1669.09
205.93	1656.81
206.15	1628.14
206.37	1689.57
206.59	1730.53
206.81	1581.03
207.03	1636.33
207.25	1736.68
207.47	1738.73
207.69	1648.61
207.91	1746.92
208.13	1814.50
208.34	1626.09
208.56	1607.66
208.78	1720.29
209.00	1697.77
209.22	1613.80
209.44	1695.72
209.66	1685.48
209.88	1773.54
210.10	1636.33
210.32	1671.14
210.54	1755.11
210.76	1671.14
210.98	1845.22
211.20	1595.37
211.42	1703.91
211.64	1800.16
211.86	1681.38
212.08	1843.17
212.30	1718.25
212.52	1644.52
212.74	1697.77
212.96	1701.86
213.17	1722.34
213.39	1773.54
213.61	1753.06
213.83	1787.88
214.05	1701.86
214.27	1718.25
214.49	1640.42
214.71	1654.76
214.93	1863.65
215.15	1710.05
215.37	1691.62
215.59	1554.41
215.81	1722.34
216.03	1775.59
216.24	1667.05
216.46	1675.24
216.68	1710.05
216.90	1863.65
217.12	1769.44
217.34	1689.57
217.56	1742.82
217.78	1802.21
218.00	1773.54
218.22	1677.29
218.44	1705.96
218.66	1804.26
218.87	1779.68
219.09	1695.72
219.31	1628.14
219.53	1806.31
219.75	1685.48
219.97	1669.09
220.19	1783.78
220.41	1734.63
220.63	1771.49
220.85	1724.39
221.06	1660.90
221.28	1759.21
221.50	1677.29
221.72	1716.20
221.94	1724.39
222.16	1626.09
222.38	1716.20
222.60	1794.02
222.82	1591.27
223.03	1771.49
223.25	1617.90
223.47	1720.29
223.69	1773.54
223.91	1769.44
224.13	1722.34
224.35	1736.68
224.57	1730.53
224.78	1781.73
225.00	1617.90
225.22	1703.91
225.44	1697.77
225.66	1691.62
225.88	1638.38
226.10	1720.29
226.32	1726.44
226.53	1847.27
226.75	1710.05
226.97	1685.48
227.19	1730.53
227.41	1576.94
227.63	1632.23
227.85	1570.79
228.06	1755.11
228.28	1718.25
228.50	1720.29
228.72	1613.80
228.94	1662.95
229.16	1624.04
229.37	1652.71
229.59	1720.29
229.81	1832.93
230.03	1611.75
230.25	1595.37
230.47	1648.61
230.69	1621.99
230.90	1785.83
231.12	1638.38
231.34	1660.90
231.56	1746.92
231.78	1673.19
232.00	1712.10
232.21	1767.40
232.43	1701.86
232.65	1628.14
232.87	1656.81
233.09	1671.14
233.30	1677.29
233.52	1697.77
233.74	1732.58
233.96	1705.96
234.18	1738.73
234.40	1642.47
234.61	1746.92
234.83	1617.90
235.05	1576.94
235.27	1781.73
235.49	1808.36
235.70	1689.57
235.92	1748.97
236.14	1732.58
236.36	1845.22
236.58	1648.61
236.79	1751.01
237.01	1636.33
237.23	1722.34
237.45	1748.97
237.67	1640.42
237.88	1759.21
238.10	1816.55
238.32	1652.71
238.54	1619.94
238.76	1679.33
238.97	1669.09
239.19	1716.20
239.41	1748.97
239.63	1796.07
239.85	1658.85
240.06	1658.85
240.28	1570.79
240.50	1769.44
240.72	1705.96
240.93	1607.66
241.15	1779.68
241.37	1726.44
241.59	1738.73
241.81	1740.77
242.02	1605.61
242.24	1703.91
242.46	1759.21
242.68	1648.61
242.89	1732.58
243.11	1703.91
243.33	1722.34
243.55	1689.57
243.76	1695.72
243.98	1677.29
244.20	1624.04
244.42	1742.82
244.64	1722.34
244.85	1677.29
245.07	1667.05
245.29	1701.86
245.51	1742.82
245.72	1751.01
245.94	1732.58
246.16	1681.38
246.38	1753.06
246.59	1624.04
246.81	1685.48
247.03	1665.00
247.24	1546.22
247.46	1648.61
247.68	1679.33
247.90	1667.05
248.11	1646.57
248.33	1728.49
248.55	1687.53
248.77	1716.20
248.98	1744.87
249.20	1798.12
249.42	1703.91
249.64	1736.68
249.85	1693.67
250.07	1652.71
250.29	1728.49
250.50	1708.01
250.72	1605.61
250.94	1701.86
251.16	1828.84
251.37	1812.45
251.59	1697.77
251.81	1675.24
252.02	1718.25
252.24	1640.42
252.46	1806.31
252.68	1652.71
252.89	1708.01
253.11	1611.75
253.33	1724.39
253.54	1759.21
253.76	1615.85
253.98	1683.43
254.20	1691.62
254.41	1634.28
254.63	1734.63
254.85	1601.51
255.06	1681.38
255.28	1730.53
255.50	1693.67
255.71	1736.68
255.93	1667.05
256.15	1677.29
256.36	1791.97
256.58	1640.42
256.80	1726.44
257.02	1677.29
257.23	1640.42
257.45	1734.63
257.67	1746.92
257.88	1648.61
258.10	1708.01
258.32	1695.72
258.53	1671.14
258.75	1822.69
258.97	1726.44
259.18	1775.59
259.40	1722.34
259.62	1802.21
259.83	1765.35
260.05	1714.15
260.27	1961.95
260.48	1763.30
260.70	1665.00
260.92	1673.19
261.13	1740.77
261.35	1691.62
261.57	1714.15
261.78	1576.94
262.00	1665.00
262.22	1740.77
262.43	1648.61
262.65	1691.62
262.86	1656.81
263.08	1824.74
263.30	1726.44
263.51	1583.08
263.73	1615.85
263.95	1761.25
264.16	1636.33
264.38	1669.09
264.60	1732.58
264.81	1630.18
265.03	1730.53
265.25	1781.73
265.46	1714.15
265.68	1816.55
265.89	1685.48
266.11	1701.86
266.33	1746.92
266.54	1656.81
266.76	1701.86
266.98	1716.20
267.19	1763.30
267.41	1738.73
267.62	1697.77
267.84	1605.61
268.06	1794.02
268.27	1679.33
268.49	1744.87
268.70	1730.53
268.92	1689.57
269.14	1673.19
269.35	1636.33
269.57	1677.29
269.79	1738.73
270.00	1636.33
270.22	1734.63
270.43	1699.81
270.65	1595.37
270.87	1687.53
271.08	1804.26
271.30	1736.68
271.51	1685.48
271.73	1732.58
271.95	1714.15
272.16	1705.96
272.38	1759.21
272.59	1630.18
272.81	1787.88
273.02	1757.16
273.24	1716.20
273.46	1722.34
273.67	1665.00
273.89	1660.90
274.10	1718.25
274.32	1742.82
274.54	1744.87
274.75	1751.01
274.97	1705.96
275.18	1732.58
275.40	1794.02
275.61	1615.85
275.83	1724.39
276.05	1628.14
276.26	1699.81
276.48	1720.29
276.69	1720.29
276.91	1683.43
277.12	1753.06
277.34	1740.77
277.55	1757.16
277.77	1685.48
277.99	1685.48
278.20	1652.71
278.42	1636.33
278.63	1730.53
278.85	1665.00
279.06	1648.61
279.28	1746.92
279.49	1708.01
279.71	1746.92
279.93	1722.34
280.14	1675.24
280.36	1576.94
280.57	1791.97
280.79	1755.11
281.00	1605.61
281.22	1642.47
281.43	1794.02
281.65	1624.04
281.86	1695.72
282.08	1722.34
282.29	1763.30
282.51	1701.86
282.73	1691.62
282.94	1601.51
283.16	1630.18
283.37	1767.40
283.59	1734.63
283.80	1804.26
284.02	1609.70
284.23	1773.54
284.45	1634.28
284.66	1593.32
284.88	1685.48
285.09	1634.28
285.31	1746.92
285.52	1779.68
285.74	1599.46
285.95	1802.21
286.17	1730.53
286.38	1732.58
286.60	1667.05
286.81	1630.18
287.03	1757.16
287.24	1714.15
287.46	1734.63
287.67	1742.82
287.89	1834.98
288.10	1753.06
288.32	1683.43
288.53	1753.06
288.75	1734.63
288.96	1775.59
289.18	1599.46
289.39	1730.53
289.61	1714.15
289.82	1800.16
290.04	1802.21
290.25	1660.90
290.47	1802.21
290.68	1658.85
290.90	1734.63
291.11	1624.04
291.33	1755.11
291.54	1677.29
291.76	1724.39
291.97	1708.01
292.18	1773.54
292.40	1718.25
292.61	1658.85
292.83	1732.58
293.04	1779.68
293.26	1736.68
293.47	1681.38
293.69	1644.52
293.90	1660.90
294.12	1775.59
294.33	1755.11
294.55	1718.25
294.76	1671.14
294.97	1841.12
295.19	1863.65
295.40	1640.42
295.62	1697.77
295.83	1697.77
296.05	1677.29
296.26	1771.49
296.48	1609.70
296.69	1748.97
296.90	1746.92
297.12	1652.71
297.33	1726.44
297.55	1671.14
297.76	1697.77
297.98	1742.82
298.19	1726.44
298.41	1697.77
298.62	1630.18
298.83	1689.57
299.05	1728.49
299.26	1607.66
299.48	1636.33
299.69	1658.85
299.90	1681.38
300.12	1734.63
300.33	1708.01
300.55	1724.39
300.76	1769.44
300.98	1695.72
301.19	1761.25
301.40	1665.00
301.62	1636.33
301.83	1669.09
302.05	1628.14
302.26	1730.53
302.47	1718.25
302.69	1574.89
302.90	1744.87
303.12	1513.45
303.33	1714.15
303.54	1884.13
303.76	1730.53
303.97	1708.01
304.19	1761.25
304.40	1697.77
304.61	1804.26
304.83	1800.16
305.04	1808.36
305.26	1722.34
305.47	1679.33
305.68	1665.00
305.90	1642.47
306.11	1683.43
306.33	1609.70
306.54	1628.14
306.75	1681.38
306.97	1660.90
307.18	1587.18
307.39	1763.30
307.61	1773.54
307.82	1771.49
308.04	1720.29
308.25	1603.56
308.46	1697.77
308.68	1642.47
308.89	1683.43
309.10	1767.40
309.32	1771.49
309.53	1710.05
309.74	1652.71
309.96	1671.14
310.17	1742.82
310.39	1671.14
310.60	1728.49
310.81	1652.71
311.03	1689.57
311.24	1679.33
311.45	1691.62
311.67	1859.56
311.88	1710.05
312.09	1718.25
312.31	1607.66
312.52	1736.68
312.73	1673.19
312.95	1564.65
313.16	1628.14
313.37	1824.74
313.59	1789.92
313.80	1679.33
314.01	1787.88
314.23	1722.34
314.44	1642.47
314.65	1665.00
314.87	1665.00
315.08	1720.29
315.29	1644.52
315.51	1654.76
315.72	1658.85
315.93	1861.60
316.15	1734.63
316.36	1615.85
316.57	1722.34
316.79	1787.88
317.00	1734.63
317.21	1712.10
317.43	1658.85
317.64	1656.81
317.85	1681.38
318.07	1658.85
318.28	1765.35
318.49	1789.92
318.70	1847.27
318.92	1839.08
319.13	1830.88
319.34	1853.41
319.56	1798.12
319.77	1900.52
319.98	1775.59
320.20	1806.31
320.41	1769.44
320.62	1796.07
320.83	1718.25
321.05	1849.32
321.26	1720.29
321.47	1628.14
321.69	1806.31
321.90	1699.81
322.11	1673.19
322.32	1738.73
322.54	1802.21
322.75	1714.15
322.96	1806.31
323.18	1628.14
323.39	1648.61
323.60	1689.57
323.81	1767.40
324.03	1681.38
324.24	1728.49
324.45	1732.58
324.66	1736.68
324.88	1849.32
325.09	1800.16
325.30	1693.67
325.52	1705.96
325.73	1716.20
325.94	1660.90
326.15	1607.66
326.37	1613.80
326.58	1742.82
326.79	1785.83
327.00	1599.46
327.22	1699.81
327.43	1720.29
327.64	1593.32
327.85	1769.44
328.07	1722.34
328.28	1785.83
328.49	1720.29
328.70	1642.47
328.92	1720.29
329.13	1689.57
329.34	1654.76
329.55	1935.33
329.76	1779.68
329.98	1644.52
330.19	1755.11
330.40	1658.85
330.61	1755.11
330.83	1773.54
331.04	1626.09
331.25	1681.38
331.46	1648.61
331.68	1613.80
331.89	1748.97
332.10	1673.19
332.31	1667.05
332.52	1681.38
332.74	1773.54
332.95	1624.04
333.16	1675.24
333.37	1740.77
333.58	1685.48
333.80	1716.20
334.01	1685.48
334.22	1718.25
334.43	1691.62
334.64	1656.81
334.86	1585.13
335.07	1673.19
335.28	1783.78
335.49	1658.85
335.70	1669.09
335.92	1777.64
336.13	1771.49
336.34	1761.25
336.55	1734.63
336.76	1779.68
336.98	1550.31
337.19	1683.43
337.40	1810.40
337.61	1806.31
337.82	1671.14
338.04	1751.01
338.25	1626.09
338.46	1667.05
338.67	1699.81
338.88	1603.56
339.09	1615.85
339.31	1660.90
339.52	1624.04
339.73	1667.05
339.94	1669.09
340.15	1832.93
340.36	1656.81
340.58	1679.33
340.79	1650.66
341.00	1767.40
341.21	1617.90
341.42	1785.83
341.63	1677.29
341.85	1714.15
342.06	1685.48
342.27	1701.86
342.48	1724.39
342.69	1675.24
342.90	1785.83
343.12	1687.53
343.33	1673.19
343.54	1773.54
343.75	1777.64
343.96	1697.77
344.17	1671.14
344.38	1662.95
344.60	1716.20
344.81	1681.38
345.02	1671.14
345.23	1765.35
345.44	1748.97
345.65	1697.77
345.86	1730.53
346.07	1710.05
346.29	1667.05
346.50	1767.40
346.71	1687.53
346.92	1732.58
347.13	1777.64
347.34	1634.28
347.55	1662.95
347.76	1697.77
347.98	1595.37
348.19	1667.05
348.40	1804.26
348.61	1660.90
348.82	1742.82
349.03	1781.73
349.24	1644.52
349.45	1769.44
349.66	1535.98
349.88	1736.68
350.09	1640.42
350.30	1693.67
350.51	1728.49
350.72	1738.73
350.93	1691.62
351.14	1601.51
351.35	1742.82
351.56	1818.60
351.77	1673.19
351.99	1820.64
352.20	1808.36
352.41	1726.44
352.62	1540.07
352.83	1724.39
353.04	1636.33
353.25	1658.85
353.46	1742.82
353.67	1714.15
353.88	1558.50
354.09	1658.85
354.30	1734.63
354.52	1812.45
354.73	1722.34
354.94	1681.38
355.15	1673.19
355.36	1779.68
355.57	1677.29
355.78	1712.10
355.99	1630.18
356.20	1697.77
356.41	1796.07
356.62	1757.16
356.83	1714.15
357.04	1775.59
357.25	1636.33
357.46	1791.97
357.68	1542.12
357.89	1660.90
358.10	1615.85
358.31	1697.77
358.52	1734.63
358.73	1593.32
358.94	1619.94
359.15	1679.33
359.36	1748.97
359.57	1687.53
359.78	1767.40
359.99	1765.35
360.20	1703.91
360.41	1669.09
360.62	1779.68
360.83	1781.73
361.04	1646.57
361.25	1683.43
361.46	1794.02
361.67	1677.29
361.88	1759.21
362.09	1683.43
362.30	1724.39
362.51	1728.49
362.72	1738.73
362.93	1748.97
363.14	1820.64
363.35	1691.62
363.56	1671.14
363.78	1734.63
363.99	1771.49
364.20	1656.81
364.41	1693.67
364.62	1777.64
364.83	1687.53
365.04	1693.67
365.25	1652.71
365.46	1837.03
365.67	1689.57
365.88	1609.70
366.09	1708.01
366.30	1642.47
366.51	1679.33
366.72	1640.42
366.93	1654.76
367.14	1746.92
367.35	1734.63
367.56	1609.70
367.77	1828.84
367.98	1708.01
368.18	1800.16
368.39	1748.97
368.60	1728.49
368.81	1751.01
369.02	1751.01
369.23	1705.96
369.44	1656.81
369.65	1673.19
369.86	1767.40
370.07	1738.73
370.28	1671.14
370.49	1763.30
370.70	1693.67
370.91	1644.52
371.12	1599.46
371.33	1794.02
371.54	1640.42
371.75	1746.92
371.96	1615.85
372.17	1728.49
372.38	1718.25
372.59	1693.67
372.80	1746.92
373.01	1710.05
373.22	1683.43
373.43	1689.57
373.64	1634.28
373.85	1722.34
374.06	1861.60
374.26	1771.49
374.47	1648.61
374.68	1751.01
374.89	1691.62
375.10	1693.67
375.31	1777.64
375.52	1779.68
375.73	1724.39
375.94	1697.77
376.15	1689.57
376.36	1705.96
376.57	1656.81
376.78	1683.43
376.99	1708.01
377.20	1810.40
377.40	1693.67
377.61	1769.44
377.82	1665.00
378.03	1794.02
378.24	1722.34
378.45	1619.94
378.66	1705.96
378.87	1601.51
379.08	1595.37
379.29	1601.51
379.50	1705.96
379.71	1652.71
379.91	1705.96
380.12	1701.86
380.33	1667.05
380.54	1675.24
380.75	1720.29
380.96	1673.19
381.17	1730.53
381.38	1810.40
381.59	1794.02
381.80	1701.86
382.00	1888.23
382.21	1734.63
382.42	1861.60
382.63	1884.13
382.84	1722.34
383.05	1761.25
383.26	1779.68
383.47	1720.29
383.68	1810.40
383.88	1726.44
384.09	1718.25
384.30	1814.50
384.51	1720.29
384.72	1761.25
384.93	1703.91
385.14	1665.00
385.35	1771.49
385.55	1632.23
385.76	1761.25
385.97	1734.63
386.18	1609.70
386.39	1656.81
386.60	1705.96
386.81	1628.14
387.02	1683.43
387.22	1675.24
387.43	1763.30
387.64	1763.30
387.85	1832.93
388.06	2256.86
388.27	4353.98
388.48	6920.09
388.68	8411.01
388.89	9799.53
389.10	9914.22
389.31	8705.92
389.52	7616.40
389.73	6819.74
389.93	6248.35
390.14	5975.97
390.35	5197.74
390.56	4573.11
390.77	3747.78
390.98	3104.72
391.18	2529.24
391.39	2150.37
391.60	1853.41
391.81	1906.66
392.02	1703.91
392.23	1796.07
392.43	1710.05
392.64	1808.36
392.85	1773.54
393.06	1873.89
393.27	1753.06
393.47	1665.00
393.68	1701.86
393.89	1636.33
394.10	1730.53
394.31	1681.38
394.52	1640.42
394.72	1626.09
394.93	1759.21
395.14	1656.81
395.35	1771.49
395.56	1665.00
395.76	1722.34
395.97	1794.02
396.18	1834.98
396.39	1880.04
396.60	2060.26
396.80	1820.64
397.01	1896.42
397.22	1828.84
397.43	1853.41
397.64	1761.25
397.84	1818.60
398.05	1855.46
398.26	1738.73
398.47	1853.41
398.67	1769.44
398.88	1771.49
399.09	1673.19
399.30	1681.38
399.51	1763.30
399.71	1636.33
399.92	1775.59
400.13	1800.16
400.34	1689.57
400.54	1609.70
400.75	1767.40
400.96	1705.96
401.17	1796.07
401.37	1718.25
401.58	1675.24
401.79	1718.25
402.00	1890.28
402.21	2033.63
402.41	1970.15
402.62	2068.45
402.83	2021.35
403.04	1943.52
403.24	2082.78
403.45	1906.66
403.66	1902.56
403.87	1884.13
404.07	1882.08
404.28	1933.28
404.49	1861.60
404.70	1767.40
404.90	1763.30
405.11	1781.73
405.32	1708.01
405.52	1650.66
405.73	1667.05
405.94	1673.19
406.15	1683.43
406.35	1808.36
406.56	1718.25
406.77	1714.15
406.98	1787.88
407.18	1634.28
407.39	1798.12
407.60	1658.85
407.80	1816.55
408.01	1689.57
408.22	1759.21
408.43	1693.67
408.63	1751.01
408.84	1654.76
409.05	1771.49
409.25	1730.53
409.46	1646.57
409.67	1699.81
409.88	1624.04
410.08	1691.62
410.29	1691.62
410.50	1705.96
410.70	1730.53
410.91	1701.86
411.12	1798.12
411.32	1640.42
411.53	1716.20
411.74	1777.64
411.95	1763.30
412.15	1781.73
412.36	1781.73
412.57	1787.88
412.77	1894.37
412.98	1675.24
413.19	1675.24
413.39	1808.36
413.60	1697.77
413.81	1800.16
414.01	1681.38
414.22	1787.88
414.43	1773.54
414.63	1671.14
414.84	1783.78
415.05	1732.58
415.25	1624.04
415.46	1738.73
415.67	1730.53
415.87	1683.43
416.08	1761.25
416.29	1669.09
416.49	1734.63
416.70	1712.10
416.91	1751.01
417.11	1667.05
417.32	1798.12
417.53	1738.73
417.73	1720.29
417.94	1660.90
418.15	1693.67
418.35	1712.10
418.56	1693.67
418.77	1910.75
418.97	1669.09
419.18	1650.66
419.38	1591.27
419.59	1662.95
419.80	1718.25
420.00	1683.43
420.21	1693.67
420.42	1724.39
420.62	1708.01
420.83	1710.05
421.04	1699.81
421.24	1677.29
421.45	1796.07
421.65	1744.87
421.86	1681.38
422.07	1722.34
422.27	1736.68
422.48	1724.39
422.69	1621.99
422.89	1714.15
423.10	1691.62
423.30	1644.52
423.51	1693.67
423.72	1732.58
423.92	1759.21
424.13	1642.47
424.33	1638.38
424.54	1720.29
424.75	1738.73
424.95	1787.88
425.16	1736.68
425.36	1748.97
425.57	1732.58
425.78	1703.91
425.98	1693.67
426.19	1601.51
426.39	1703.91
426.60	1695.72
426.81	1720.29
427.01	1714.15
427.22	1605.61
427.42	1542.12
427.63	1703.91
427.83	1757.16
428.04	1763.30
428.25	1705.96
428.45	1738.73
428.66	1744.87
428.86	1660.90
429.07	1742.82
429.28	1660.90
429.48	1726.44
429.69	1705.96
429.89	1728.49
430.10	1595.37
430.30	1697.77
430.51	1814.50
430.71	1742.82
430.92	1681.38
431.13	1691.62
431.33	1779.68
431.54	1697.77
431.74	1867.75
431.95	1822.69
432.15	1691.62
432.36	1714.15
432.56	1763.30
432.77	1894.37
432.98	1832.93
433.18	1759.21
433.39	1726.44
433.59	1701.86
433.80	1785.83
434.00	1851.36
434.21	1705.96
434.41	1669.09
434.62	1824.74
434.82	1626.09
435.03	1597.42
435.23	1785.83
435.44	1589.22
435.64	1681.38
435.85	1751.01
436.06	1791.97
436.26	1849.32
436.47	1701.86
436.67	1681.38
436.88	1662.95
437.08	1765.35
437.29	1791.97
437.49	1720.29
437.70	1757.16
437.90	1681.38
438.11	1802.21
438.31	1814.50
438.52	1875.94
438.72	1869.80
438.93	1906.66
439.13	1716.20
439.34	1763.30
439.54	1710.05
439.75	1761.25
439.95	1751.01
440.16	1765.35
440.36	1662.95
440.57	1816.55
440.77	1789.92
440.98	1777.64
441.18	1920.99
441.39	1708.01
441.59	1742.82
441.80	1763.30
442.00	1728.49
442.21	1892.32
442.41	1626.09
442.62	1734.63
442.82	1695.72
443.02	1748.97
443.23	1726.44
443.43	1671.14
443.64	1826.79
443.84	1669.09
444.05	1837.03
444.25	1744.87
444.46	1714.15
444.66	1740.77
444.87	1849.32
445.07	1716.20
445.28	1742.82
445.48	1777.64
445.69	1685.48
445.89	1812.45
446.09	1732.58
446.30	2105.31
446.50	2676.70
446.71	3667.91
446.91	4446.14
447.12	4810.68
447.32	4831.16
447.53	4376.51
447.73	3809.22
447.93	3606.47
448.14	3356.62
448.34	3241.93
448.55	2944.98
448.75	2906.07
448.96	2695.13
449.16	2424.80
449.36	2308.06
449.57	2052.06
449.77	1927.14
449.98	1751.01
450.18	1794.02
450.39	1834.98
450.59	1800.16
450.79	1755.11
451.00	1734.63
451.20	1773.54
451.41	1785.83
451.61	1791.97
451.81	1699.81
452.02	1771.49
452.22	1738.73
452.43	1720.29
452.63	1730.53
