SpectraSuite Data File
++++++++++++++++++++++++++++++++++++
Date: Mon Jun 06 17:42:37 CEST 2016
User: root
Dark Spectrum Present: No
Reference Spectrum Present: No
Number of Sampled Component Spectra: 1
Spectrometers: USB4C02835
Integration Time (usec): 100000 (USB4C02835)
Spectra Averaged: 1 (USB4C02835)
Boxcar Smoothing: 0 (USB4C02835)
Correct for Electrical Dark: No (USB4C02835)
Strobe/Lamp Enabled: No (USB4C02835)
Correct for Detector Non-linearity: No (USB4C02835)
Correct for Stray Light: No (USB4C02835)
Number of Pixels in Processed Spectrum: 3648
>>>>>Begin Processed Spectral Data<<<<<
177.47	1501.16
177.69	1501.16
177.91	1501.16
178.13	1501.16
178.36	1464.30
178.58	1705.96
178.80	1724.39
179.02	1603.56
179.24	1689.57
179.46	1699.81
179.68	1738.73
179.90	1703.91
180.13	1708.01
180.35	1697.77
180.57	1646.57
180.79	1783.78
181.01	1665.00
181.23	1824.74
181.45	1787.88
181.67	1769.44
181.90	1779.68
182.12	1755.11
182.34	1675.24
182.56	1777.64
182.78	1662.95
183.00	1726.44
183.22	1667.05
183.44	1578.98
183.66	1855.46
183.89	1761.25
184.11	1697.77
184.33	1708.01
184.55	1779.68
184.77	1812.45
184.99	1763.30
185.21	1716.20
185.43	1839.08
185.65	1697.77
185.87	1677.29
186.10	1804.26
186.32	1880.04
186.54	1703.91
186.76	1763.30
186.98	1763.30
187.20	1683.43
187.42	1708.01
187.64	1697.77
187.86	1755.11
188.08	1746.92
188.30	1671.14
188.52	1697.77
188.75	1808.36
188.97	1820.64
189.19	1683.43
189.41	1693.67
189.63	1714.15
189.85	1730.53
190.07	1624.04
190.29	1683.43
190.51	1779.68
190.73	1599.46
190.95	1789.92
191.17	1726.44
191.39	1621.99
191.61	1667.05
191.84	1693.67
192.06	1748.97
192.28	1640.42
192.50	1877.99
192.72	1701.86
192.94	1693.67
193.16	1775.59
193.38	1746.92
193.60	1667.05
193.82	1677.29
194.04	1820.64
194.26	1675.24
194.48	1718.25
194.70	1693.67
194.92	1652.71
195.14	1771.49
195.36	1671.14
195.58	1685.48
195.80	1748.97
196.02	1640.42
196.24	1714.15
196.46	1718.25
196.69	1595.37
196.91	1896.42
197.13	1665.00
197.35	1675.24
197.57	1771.49
197.79	1765.35
198.01	1759.21
198.23	1755.11
198.45	1724.39
198.67	1712.10
198.89	1724.39
199.11	1701.86
199.33	1701.86
199.55	1570.79
199.77	1718.25
199.99	1753.06
200.21	1779.68
200.43	1714.15
200.65	1644.52
200.87	1619.94
201.09	1722.34
201.31	1681.38
201.53	1773.54
201.75	1765.35
201.97	1732.58
202.19	1757.16
202.41	1779.68
202.63	1839.08
202.85	1689.57
203.07	1759.21
203.29	1773.54
203.51	1681.38
203.73	1736.68
203.95	1890.28
204.17	1800.16
204.39	1730.53
204.61	1728.49
204.83	1693.67
205.05	1806.31
205.27	1738.73
205.49	1742.82
205.71	1656.81
205.93	1636.33
206.15	1595.37
206.37	1763.30
206.59	1740.77
206.81	1677.29
207.03	1665.00
207.25	1689.57
207.47	1800.16
207.69	1701.86
207.91	1804.26
208.13	1779.68
208.34	1734.63
208.56	1697.77
208.78	1681.38
209.00	1751.01
209.22	1675.24
209.44	1695.72
209.66	1714.15
209.88	1691.62
210.10	1765.35
210.32	1695.72
210.54	1822.69
210.76	1660.90
210.98	1736.68
211.20	1652.71
211.42	1738.73
211.64	1765.35
211.86	1722.34
212.08	1830.88
212.30	1681.38
212.52	1667.05
212.74	1761.25
212.96	1691.62
213.17	1714.15
213.39	1748.97
213.61	1748.97
213.83	1847.27
214.05	1669.09
214.27	1810.40
214.49	1722.34
214.71	1671.14
214.93	1806.31
215.15	1705.96
215.37	1757.16
215.59	1632.23
215.81	1773.54
216.03	1806.31
216.24	1636.33
216.46	1673.19
216.68	1757.16
216.90	1773.54
217.12	1841.12
217.34	1691.62
217.56	1728.49
217.78	1742.82
218.00	1742.82
218.22	1714.15
218.44	1746.92
218.66	1826.79
218.87	1814.50
219.09	1650.66
219.31	1705.96
219.53	1687.53
219.75	1687.53
219.97	1695.72
220.19	1722.34
220.41	1712.10
220.63	1738.73
220.85	1736.68
221.06	1738.73
221.28	1755.11
221.50	1761.25
221.72	1759.21
221.94	1732.58
222.16	1755.11
222.38	1761.25
222.60	1785.83
222.82	1724.39
223.03	1728.49
223.25	1693.67
223.47	1800.16
223.69	1794.02
223.91	1806.31
224.13	1771.49
224.35	1730.53
224.57	1710.05
224.78	1730.53
225.00	1609.70
225.22	1710.05
225.44	1722.34
225.66	1734.63
225.88	1712.10
226.10	1769.44
226.32	1738.73
226.53	1853.41
226.75	1724.39
226.97	1705.96
227.19	1714.15
227.41	1640.42
227.63	1712.10
227.85	1599.46
228.06	1755.11
228.28	1652.71
228.50	1767.40
228.72	1703.91
228.94	1722.34
229.16	1591.27
229.37	1628.14
229.59	1689.57
229.81	1830.88
230.03	1667.05
230.25	1652.71
230.47	1621.99
230.69	1710.05
230.90	1724.39
231.12	1714.15
231.34	1730.53
231.56	1757.16
231.78	1693.67
232.00	1732.58
232.21	1773.54
232.43	1769.44
232.65	1609.70
232.87	1830.88
233.09	1701.86
233.30	1712.10
233.52	1869.80
233.74	1732.58
233.96	1667.05
234.18	1751.01
234.40	1624.04
234.61	1800.16
234.83	1619.94
235.05	1677.29
235.27	1785.83
235.49	1738.73
235.70	1691.62
235.92	1794.02
236.14	1693.67
236.36	1845.22
236.58	1771.49
236.79	1791.97
237.01	1769.44
237.23	1742.82
237.45	1818.60
237.67	1619.94
237.88	1753.06
238.10	1830.88
238.32	1712.10
238.54	1746.92
238.76	1787.88
238.97	1621.99
239.19	1781.73
239.41	1800.16
239.63	1748.97
239.85	1683.43
240.06	1677.29
240.28	1685.48
240.50	1808.36
240.72	1628.14
240.93	1767.40
241.15	1773.54
241.37	1673.19
241.59	1742.82
241.81	1738.73
242.02	1697.77
242.24	1781.73
242.46	1722.34
242.68	1673.19
242.89	1787.88
243.11	1728.49
243.33	1677.29
243.55	1665.00
243.76	1822.69
243.98	1734.63
244.20	1699.81
244.42	1703.91
244.64	1652.71
244.85	1732.58
245.07	1714.15
245.29	1714.15
245.51	1757.16
245.72	1689.57
245.94	1804.26
246.16	1726.44
246.38	1783.78
246.59	1679.33
246.81	1665.00
247.03	1710.05
247.24	1656.81
247.46	1697.77
247.68	1681.38
247.90	1701.86
248.11	1679.33
248.33	1830.88
248.55	1714.15
248.77	1671.14
248.98	1724.39
249.20	1806.31
249.42	1695.72
249.64	1769.44
249.85	1687.53
250.07	1624.04
250.29	1662.95
250.50	1761.25
250.72	1632.23
250.94	1697.77
251.16	1851.36
251.37	1771.49
251.59	1697.77
251.81	1781.73
252.02	1765.35
252.24	1781.73
252.46	1777.64
252.68	1705.96
252.89	1693.67
253.11	1677.29
253.33	1890.28
253.54	1742.82
253.76	1675.24
253.98	1736.68
254.20	1710.05
254.41	1714.15
254.63	1763.30
254.85	1726.44
255.06	1681.38
255.28	1689.57
255.50	1671.14
255.71	1708.01
255.93	1640.42
256.15	1695.72
256.36	1806.31
256.58	1703.91
256.80	1738.73
257.02	1699.81
257.23	1705.96
257.45	1714.15
257.67	1722.34
257.88	1677.29
258.10	1708.01
258.32	1691.62
258.53	1738.73
258.75	1796.07
258.97	1665.00
259.18	1701.86
259.40	1710.05
259.62	1857.51
259.83	1781.73
260.05	1798.12
260.27	1980.39
260.48	1773.54
260.70	1681.38
260.92	1730.53
261.13	1697.77
261.35	1785.83
261.57	1689.57
261.78	1626.09
262.00	1722.34
262.22	1736.68
262.43	1718.25
262.65	1710.05
262.86	1738.73
263.08	1834.98
263.30	1734.63
263.51	1691.62
263.73	1656.81
263.95	1783.78
264.16	1640.42
264.38	1699.81
264.60	1753.06
264.81	1691.62
265.03	1779.68
265.25	1757.16
265.46	1716.20
265.68	1779.68
265.89	1769.44
266.11	1701.86
266.33	1681.38
266.54	1800.16
266.76	1804.26
266.98	1781.73
267.19	1834.98
267.41	1796.07
267.62	1679.33
267.84	1632.23
268.06	1730.53
268.27	1728.49
268.49	1736.68
268.70	1697.77
268.92	1748.97
269.14	1665.00
269.35	1669.09
269.57	1828.84
269.79	1908.71
270.00	1640.42
270.22	1869.80
270.43	1609.70
270.65	1585.13
270.87	1675.24
271.08	1771.49
271.30	1779.68
271.51	1687.53
271.73	1773.54
271.95	1804.26
272.16	1738.73
272.38	1726.44
272.59	1708.01
272.81	1665.00
273.02	1791.97
273.24	1669.09
273.46	1777.64
273.67	1804.26
273.89	1632.23
274.10	1689.57
274.32	1771.49
274.54	1759.21
274.75	1714.15
274.97	1675.24
275.18	1746.92
275.40	1767.40
275.61	1701.86
275.83	1716.20
276.05	1718.25
276.26	1730.53
276.48	1724.39
276.69	1751.01
276.91	1705.96
277.12	1755.11
277.34	1828.84
277.55	1820.64
277.77	1728.49
277.99	1601.51
278.20	1673.19
278.42	1703.91
278.63	1726.44
278.85	1679.33
279.06	1660.90
279.28	1699.81
279.49	1746.92
279.71	1882.08
279.93	1681.38
280.14	1669.09
280.36	1722.34
280.57	1714.15
280.79	1744.87
281.00	1683.43
281.22	1685.48
281.43	1734.63
281.65	1613.80
281.86	1636.33
282.08	1763.30
282.29	1873.89
282.51	1634.28
282.73	1667.05
282.94	1646.57
283.16	1789.92
283.37	1761.25
283.59	1757.16
283.80	1767.40
284.02	1720.29
284.23	1771.49
284.45	1740.77
284.66	1701.86
284.88	1693.67
285.09	1740.77
285.31	1761.25
285.52	1732.58
285.74	1619.94
285.95	1812.45
286.17	1738.73
286.38	1742.82
286.60	1628.14
286.81	1683.43
287.03	1705.96
287.24	1656.81
287.46	1767.40
287.67	1703.91
287.89	1810.40
288.10	1644.52
288.32	1732.58
288.53	1742.82
288.75	1843.17
288.96	1734.63
289.18	1712.10
289.39	1679.33
289.61	1800.16
289.82	1857.51
290.04	1830.88
290.25	1685.48
290.47	1728.49
290.68	1665.00
290.90	1777.64
291.11	1714.15
291.33	1789.92
291.54	1597.42
291.76	1677.29
291.97	1748.97
292.18	1699.81
292.40	1787.88
292.61	1613.80
292.83	1826.79
293.04	1701.86
293.26	1689.57
293.47	1730.53
293.69	1642.47
293.90	1703.91
294.12	1798.12
294.33	1748.97
294.55	1703.91
294.76	1802.21
294.97	1757.16
295.19	1875.94
295.40	1687.53
295.62	1691.62
295.83	1798.12
296.05	1665.00
296.26	1744.87
296.48	1634.28
296.69	1675.24
296.90	1701.86
297.12	1755.11
297.33	1779.68
297.55	1771.49
297.76	1736.68
297.98	1759.21
298.19	1744.87
298.41	1734.63
298.62	1736.68
298.83	1804.26
299.05	1710.05
299.26	1716.20
299.48	1665.00
299.69	1763.30
299.90	1691.62
300.12	1679.33
300.33	1738.73
300.55	1718.25
300.76	1767.40
300.98	1615.85
301.19	1763.30
301.40	1699.81
301.62	1781.73
301.83	1812.45
302.05	1712.10
302.26	1701.86
302.47	1820.64
302.69	1644.52
302.90	1789.92
303.12	1636.33
303.33	1748.97
303.54	1781.73
303.76	1775.59
303.97	1816.55
304.19	1744.87
304.40	1675.24
304.61	1736.68
304.83	1863.65
305.04	1728.49
305.26	1732.58
305.47	1675.24
305.68	1724.39
305.90	1650.66
306.11	1785.83
306.33	1736.68
306.54	1640.42
306.75	1697.77
306.97	1626.09
307.18	1673.19
307.39	1632.23
307.61	1798.12
307.82	1695.72
308.04	1710.05
308.25	1673.19
308.46	1714.15
308.68	1714.15
308.89	1828.84
309.10	1808.36
309.32	1685.48
309.53	1753.06
309.74	1734.63
309.96	1665.00
310.17	1755.11
310.39	1699.81
310.60	1789.92
310.81	1748.97
311.03	1652.71
311.24	1740.77
311.45	1685.48
311.67	1892.32
311.88	1744.87
312.09	1757.16
312.31	1738.73
312.52	1724.39
312.73	1708.01
312.95	1658.85
313.16	1689.57
313.37	1867.75
313.59	1812.45
313.80	1687.53
314.01	1814.50
314.23	1697.77
314.44	1730.53
314.65	1611.75
314.87	1673.19
315.08	1675.24
315.29	1751.01
315.51	1660.90
315.72	1601.51
315.93	1787.88
316.15	1814.50
316.36	1742.82
316.57	1726.44
316.79	1734.63
317.00	1628.14
317.21	1695.72
317.43	1665.00
317.64	1667.05
317.85	1708.01
318.07	1710.05
318.28	1738.73
318.49	1824.74
318.70	1976.29
318.92	1865.70
319.13	1814.50
319.34	1896.42
319.56	1816.55
319.77	1712.10
319.98	1802.21
320.20	1720.29
320.41	1794.02
320.62	1746.92
320.83	1648.61
321.05	1849.32
321.26	1757.16
321.47	1714.15
321.69	1773.54
321.90	1601.51
322.11	1724.39
322.32	1724.39
322.54	1845.22
322.75	1640.42
322.96	1861.60
323.18	1654.76
323.39	1619.94
323.60	1646.57
323.81	1759.21
324.03	1705.96
324.24	1705.96
324.45	1736.68
324.66	1677.29
324.88	1785.83
325.09	1804.26
325.30	1691.62
325.52	1718.25
325.73	1689.57
325.94	1746.92
326.15	1595.37
326.37	1716.20
326.58	1734.63
326.79	1871.84
327.00	1619.94
327.22	1755.11
327.43	1699.81
327.64	1662.95
327.85	1775.59
328.07	1794.02
328.28	1939.43
328.49	1648.61
328.70	1671.14
328.92	1708.01
329.13	1761.25
329.34	1771.49
329.55	1812.45
329.76	1746.92
329.98	1640.42
330.19	1804.26
330.40	1787.88
330.61	1736.68
330.83	1775.59
331.04	1642.47
331.25	1744.87
331.46	1683.43
331.68	1640.42
331.89	1771.49
332.10	1730.53
332.31	1689.57
332.52	1671.14
332.74	1779.68
332.95	1675.24
333.16	1634.28
333.37	1746.92
333.58	1642.47
333.80	1716.20
334.01	1607.66
334.22	1695.72
334.43	1660.90
334.64	1705.96
334.86	1671.14
335.07	1626.09
335.28	1763.30
335.49	1615.85
335.70	1822.69
335.92	1740.77
336.13	1884.13
336.34	1814.50
336.55	1765.35
336.76	1705.96
336.98	1654.76
337.19	1718.25
337.40	1843.17
337.61	1802.21
337.82	1724.39
338.04	1832.93
338.25	1636.33
338.46	1703.91
338.67	1755.11
338.88	1683.43
339.09	1724.39
339.31	1710.05
339.52	1730.53
339.73	1675.24
339.94	1751.01
340.15	1759.21
340.36	1724.39
340.58	1726.44
340.79	1722.34
341.00	1767.40
341.21	1650.66
341.42	1777.64
341.63	1673.19
341.85	1808.36
342.06	1695.72
342.27	1599.46
342.48	1796.07
342.69	1736.68
342.90	1759.21
343.12	1798.12
343.33	1681.38
343.54	1681.38
343.75	1779.68
343.96	1701.86
344.17	1652.71
344.38	1626.09
344.60	1687.53
344.81	1705.96
345.02	1703.91
345.23	1796.07
345.44	1789.92
345.65	1738.73
345.86	1789.92
346.07	1742.82
346.29	1685.48
346.50	1734.63
346.71	1796.07
346.92	1808.36
347.13	1826.79
347.34	1693.67
347.55	1705.96
347.76	1738.73
347.98	1699.81
348.19	1769.44
348.40	1812.45
348.61	1662.95
348.82	1806.31
349.03	1763.30
349.24	1644.52
349.45	1806.31
349.66	1691.62
349.88	1748.97
350.09	1650.66
350.30	1820.64
350.51	1814.50
350.72	1777.64
350.93	1767.40
351.14	1679.33
351.35	1763.30
351.56	1724.39
351.77	1726.44
351.99	1689.57
352.20	1828.84
352.41	1791.97
352.62	1568.74
352.83	1671.14
353.04	1705.96
353.25	1732.58
353.46	1710.05
353.67	1865.70
353.88	1611.75
354.09	1763.30
354.30	1779.68
354.52	1755.11
354.73	1726.44
354.94	1710.05
355.15	1705.96
355.36	1753.06
355.57	1648.61
355.78	1724.39
355.99	1613.80
356.20	1734.63
356.41	1834.98
356.62	1685.48
356.83	1734.63
357.04	1832.93
357.25	1660.90
357.46	1646.57
357.68	1638.38
357.89	1665.00
358.10	1728.49
358.31	1738.73
358.52	1697.77
358.73	1683.43
358.94	1689.57
359.15	1695.72
359.36	1718.25
359.57	1697.77
359.78	1689.57
359.99	1761.25
360.20	1644.52
360.41	1665.00
360.62	1779.68
360.83	1753.06
361.04	1701.86
361.25	1693.67
361.46	1802.21
361.67	1699.81
361.88	1732.58
362.09	1728.49
362.30	1814.50
362.51	1652.71
362.72	1779.68
362.93	1812.45
363.14	1732.58
363.35	1691.62
363.56	1716.20
363.78	1839.08
363.99	1759.21
364.20	1685.48
364.41	1787.88
364.62	1900.52
364.83	1761.25
365.04	1652.71
365.25	1714.15
365.46	1834.98
365.67	1679.33
365.88	1732.58
366.09	1697.77
366.30	1597.42
366.51	1714.15
366.72	1621.99
366.93	1738.73
367.14	1726.44
367.35	1769.44
367.56	1734.63
367.77	1761.25
367.98	1808.36
368.18	1714.15
368.39	1763.30
368.60	1689.57
368.81	1726.44
369.02	1742.82
369.23	1714.15
369.44	1626.09
369.65	1746.92
369.86	1730.53
370.07	1716.20
370.28	1705.96
370.49	1714.15
370.70	1697.77
370.91	1636.33
371.12	1599.46
371.33	1843.17
371.54	1681.38
371.75	1806.31
371.96	1740.77
372.17	1759.21
372.38	1748.97
372.59	1765.35
372.80	1775.59
373.01	1734.63
373.22	1732.58
373.43	1693.67
373.64	1681.38
373.85	1761.25
374.06	1787.88
374.26	1761.25
374.47	1712.10
374.68	1857.51
374.89	1730.53
375.10	1677.29
375.31	1804.26
375.52	1675.24
375.73	1775.59
375.94	1669.09
376.15	1808.36
376.36	1771.49
376.57	1677.29
376.78	1751.01
376.99	1744.87
377.20	1775.59
377.40	1693.67
377.61	1912.80
377.82	1685.48
378.03	1806.31
378.24	1765.35
378.45	1630.18
378.66	1785.83
378.87	1570.79
379.08	1716.20
379.29	1701.86
379.50	1832.93
379.71	1708.01
379.91	1789.92
380.12	1687.53
380.33	1804.26
380.54	1695.72
380.75	1689.57
380.96	1742.82
381.17	1779.68
381.38	1720.29
381.59	1796.07
381.80	1724.39
382.00	1783.78
382.21	1796.07
382.42	1845.22
382.63	1908.71
382.84	1765.35
383.05	1777.64
383.26	1746.92
383.47	1726.44
383.68	1738.73
383.88	1734.63
384.09	1773.54
384.30	1861.60
384.51	1755.11
384.72	1697.77
384.93	1624.04
385.14	1685.48
385.35	1810.40
385.55	1714.15
385.76	1720.29
385.97	1738.73
386.18	1687.53
386.39	1671.14
386.60	1699.81
386.81	1691.62
387.02	1714.15
387.22	1703.91
387.43	1804.26
387.64	1755.11
387.85	1900.52
388.06	2228.19
388.27	4124.61
388.48	6563.74
388.68	8181.64
388.89	9617.26
389.10	10028.90
389.31	8697.72
389.52	7737.23
389.73	6780.82
389.93	6320.03
390.14	5703.59
390.35	5148.59
390.56	4607.93
390.77	3841.99
390.98	3033.04
391.18	2516.95
391.39	2160.61
391.60	1859.56
391.81	1853.41
392.02	1794.02
392.23	1834.98
392.43	1728.49
392.64	1851.36
392.85	1689.57
393.06	1843.17
393.27	1820.64
393.47	1693.67
393.68	1699.81
393.89	1675.24
394.10	1820.64
394.31	1654.76
394.52	1722.34
394.72	1712.10
394.93	1796.07
395.14	1662.95
395.35	1775.59
395.56	1695.72
395.76	1779.68
395.97	1781.73
396.18	1705.96
396.39	1880.04
396.60	2068.45
396.80	1941.47
397.01	1796.07
397.22	1804.26
397.43	1898.47
397.64	1724.39
397.84	1818.60
398.05	1968.10
398.26	1740.77
398.47	1890.28
398.67	1837.03
398.88	1757.16
399.09	1708.01
399.30	1738.73
399.51	1763.30
399.71	1648.61
399.92	1748.97
400.13	1777.64
400.34	1759.21
400.54	1753.06
400.75	1845.22
400.96	1708.01
401.17	1841.12
401.37	1794.02
401.58	1744.87
401.79	1734.63
402.00	1834.98
402.21	1931.23
402.41	1953.76
402.62	2033.63
402.83	2121.70
403.04	2025.44
403.24	2070.50
403.45	1853.41
403.66	1939.43
403.87	1861.60
404.07	1865.70
404.28	1925.09
404.49	1781.73
404.70	1802.21
404.90	1732.58
405.11	1830.88
405.32	1757.16
405.52	1677.29
405.73	1632.23
405.94	1755.11
406.15	1658.85
406.35	1812.45
406.56	1757.16
406.77	1703.91
406.98	1734.63
407.18	1671.14
407.39	1845.22
407.60	1710.05
407.80	1714.15
408.01	1695.72
408.22	1751.01
408.43	1724.39
408.63	1767.40
408.84	1716.20
409.05	1832.93
409.25	1705.96
409.46	1689.57
409.67	1759.21
409.88	1654.76
410.08	1824.74
410.29	1560.55
410.50	1757.16
410.70	1839.08
410.91	1681.38
411.12	1748.97
411.32	1728.49
411.53	1724.39
411.74	1839.08
411.95	1789.92
412.15	1787.88
412.36	1781.73
412.57	1757.16
412.77	1796.07
412.98	1734.63
413.19	1712.10
413.39	1800.16
413.60	1691.62
413.81	1781.73
414.01	1697.77
414.22	1724.39
414.43	1712.10
414.63	1708.01
414.84	1775.59
415.05	1712.10
415.25	1769.44
415.46	1865.70
415.67	1714.15
415.87	1730.53
416.08	1757.16
416.29	1767.40
416.49	1843.17
416.70	1665.00
416.91	1722.34
417.11	1744.87
417.32	1816.55
417.53	1781.73
417.73	1832.93
417.94	1712.10
418.15	1697.77
418.35	1763.30
418.56	1677.29
418.77	1896.42
418.97	1785.83
419.18	1638.38
419.38	1609.70
419.59	1753.06
419.80	1802.21
420.00	1718.25
420.21	1675.24
420.42	1757.16
420.62	1798.12
420.83	1730.53
421.04	1722.34
421.24	1761.25
421.45	1763.30
421.65	1751.01
421.86	1660.90
422.07	1779.68
422.27	1818.60
422.48	1740.77
422.69	1658.85
422.89	1769.44
423.10	1751.01
423.30	1665.00
423.51	1697.77
423.72	1662.95
423.92	1806.31
424.13	1705.96
424.33	1728.49
424.54	1705.96
424.75	1769.44
424.95	1853.41
425.16	1691.62
425.36	1751.01
425.57	1789.92
425.78	1753.06
425.98	1789.92
426.19	1738.73
426.39	1669.09
426.60	1830.88
426.81	1865.70
427.01	1718.25
427.22	1685.48
427.42	1617.90
427.63	1677.29
427.83	1755.11
428.04	1810.40
428.25	1812.45
428.45	1777.64
428.66	1748.97
428.86	1634.28
429.07	1701.86
429.28	1742.82
429.48	1710.05
429.69	1624.04
429.89	1748.97
430.10	1679.33
430.30	1748.97
430.51	1777.64
430.71	1783.78
430.92	1787.88
431.13	1705.96
431.33	1796.07
431.54	1718.25
431.74	1812.45
431.95	1843.17
432.15	1660.90
432.36	1810.40
432.56	1781.73
432.77	1947.62
432.98	1796.07
433.18	1746.92
433.39	1742.82
433.59	1785.83
433.80	1826.79
434.00	1851.36
434.21	1685.48
434.41	1640.42
434.62	1884.13
434.82	1683.43
435.03	1722.34
435.23	1800.16
435.44	1669.09
435.64	1759.21
435.85	1734.63
436.06	1812.45
436.26	1824.74
436.47	1658.85
436.67	1638.38
436.88	1660.90
437.08	1765.35
437.29	1757.16
437.49	1718.25
437.70	1779.68
437.90	1763.30
438.11	1888.23
438.31	1822.69
438.52	1886.18
438.72	1898.47
438.93	1910.75
439.13	1877.99
439.34	1808.36
439.54	1681.38
439.75	1818.60
439.95	1820.64
440.16	1685.48
440.36	1748.97
440.57	1775.59
440.77	1773.54
440.98	1744.87
441.18	1751.01
441.39	1757.16
441.59	1779.68
441.80	1804.26
442.00	1720.29
442.21	1849.32
442.41	1679.33
442.62	1785.83
442.82	1718.25
443.02	1722.34
443.23	1708.01
443.43	1748.97
443.64	1794.02
443.84	1697.77
444.05	1869.80
444.25	1753.06
444.46	1789.92
444.66	1628.14
444.87	1847.27
445.07	1687.53
445.28	1738.73
445.48	1822.69
445.69	1771.49
445.89	1886.18
446.09	1851.36
446.30	2047.97
446.50	2701.27
446.71	3686.34
446.91	4210.62
447.12	4687.80
447.32	4941.75
447.53	4356.03
447.73	3940.29
447.93	3561.42
448.14	3336.14
448.34	3250.13
448.55	2904.02
448.75	2850.77
448.96	2682.84
449.16	2447.32
449.36	2375.64
449.57	2035.68
449.77	1970.15
449.98	1847.27
450.18	1888.23
450.39	1824.74
450.59	1877.99
450.79	1703.91
451.00	1761.25
451.20	1703.91
451.41	1818.60
451.61	1800.16
451.81	1710.05
452.02	1740.77
452.22	1718.25
452.43	1757.16
452.63	1681.38
