SpectraSuite Data File
++++++++++++++++++++++++++++++++++++
Date: Mon Jun 06 15:09:17 CEST 2016
User: root
Dark Spectrum Present: No
Reference Spectrum Present: No
Number of Sampled Component Spectra: 1
Spectrometers: USB4C02835
Integration Time (usec): 100000 (USB4C02835)
Spectra Averaged: 1 (USB4C02835)
Boxcar Smoothing: 0 (USB4C02835)
Correct for Electrical Dark: No (USB4C02835)
Strobe/Lamp Enabled: No (USB4C02835)
Correct for Detector Non-linearity: No (USB4C02835)
Correct for Stray Light: No (USB4C02835)
Number of Pixels in Processed Spectrum: 3648
>>>>>Begin Processed Spectral Data<<<<<
177.47	1484.78
177.69	1484.78
177.91	1484.78
178.13	1501.16
178.36	1458.15
178.58	1636.33
178.80	1769.44
179.02	1581.03
179.24	1667.05
179.46	1683.43
179.68	1720.29
179.90	1765.35
180.13	1720.29
180.35	1656.81
180.57	1710.05
180.79	1648.61
181.01	1683.43
181.23	1726.44
181.45	1724.39
181.67	1740.77
181.90	1726.44
182.12	1675.24
182.34	1669.09
182.56	1697.77
182.78	1665.00
183.00	1734.63
183.22	1722.34
183.44	1585.13
183.66	1806.31
183.89	1798.12
184.11	1726.44
184.33	1699.81
184.55	1794.02
184.77	1755.11
184.99	1714.15
185.21	1685.48
185.43	1791.97
185.65	1687.53
185.87	1755.11
186.10	1820.64
186.32	1867.75
186.54	1730.53
186.76	1757.16
186.98	1742.82
187.20	1652.71
187.42	1716.20
187.64	1710.05
187.86	1697.77
188.08	1718.25
188.30	1728.49
188.52	1714.15
188.75	1798.12
188.97	1804.26
189.19	1650.66
189.41	1724.39
189.63	1759.21
189.85	1656.81
190.07	1638.38
190.29	1574.89
190.51	1697.77
190.73	1669.09
190.95	1714.15
191.17	1720.29
191.39	1611.75
191.61	1732.58
191.84	1658.85
192.06	1728.49
192.28	1540.07
192.50	1798.12
192.72	1658.85
192.94	1648.61
193.16	1800.16
193.38	1687.53
193.60	1642.47
193.82	1628.14
194.04	1722.34
194.26	1740.77
194.48	1714.15
194.70	1705.96
194.92	1691.62
195.14	1748.97
195.36	1703.91
195.58	1748.97
195.80	1669.09
196.02	1699.81
196.24	1724.39
196.46	1818.60
196.69	1701.86
196.91	1787.88
197.13	1712.10
197.35	1632.23
197.57	1722.34
197.79	1767.40
198.01	1677.29
198.23	1767.40
198.45	1734.63
198.67	1716.20
198.89	1705.96
199.11	1726.44
199.33	1687.53
199.55	1595.37
199.77	1718.25
199.99	1652.71
200.21	1728.49
200.43	1703.91
200.65	1548.26
200.87	1697.77
201.09	1710.05
201.31	1724.39
201.53	1755.11
201.75	1689.57
201.97	1740.77
202.19	1701.86
202.41	1632.23
202.63	1757.16
202.85	1734.63
203.07	1744.87
203.29	1689.57
203.51	1640.42
203.73	1728.49
203.95	1873.89
204.17	1748.97
204.39	1677.29
204.61	1714.15
204.83	1708.01
205.05	1851.36
205.27	1755.11
205.49	1804.26
205.71	1626.09
205.93	1628.14
206.15	1593.32
206.37	1722.34
206.59	1705.96
206.81	1611.75
207.03	1607.66
207.25	1699.81
207.47	1783.78
207.69	1691.62
207.91	1787.88
208.13	1796.07
208.34	1673.19
208.56	1650.66
208.78	1644.52
209.00	1712.10
209.22	1632.23
209.44	1636.33
209.66	1724.39
209.88	1818.60
210.10	1632.23
210.32	1705.96
210.54	1765.35
210.76	1636.33
210.98	1748.97
211.20	1595.37
211.42	1703.91
211.64	1767.40
211.86	1751.01
212.08	1718.25
212.30	1687.53
212.52	1601.51
212.74	1746.92
212.96	1701.86
213.17	1691.62
213.39	1755.11
213.61	1804.26
213.83	1722.34
214.05	1572.84
214.27	1837.03
214.49	1656.81
214.71	1677.29
214.93	1746.92
215.15	1687.53
215.37	1724.39
215.59	1660.90
215.81	1671.14
216.03	1779.68
216.24	1691.62
216.46	1691.62
216.68	1675.24
216.90	1722.34
217.12	1757.16
217.34	1660.90
217.56	1736.68
217.78	1761.25
218.00	1710.05
218.22	1716.20
218.44	1691.62
218.66	1669.09
218.87	1775.59
219.09	1673.19
219.31	1708.01
219.53	1646.57
219.75	1732.58
219.97	1744.87
220.19	1708.01
220.41	1701.86
220.63	1779.68
220.85	1714.15
221.06	1607.66
221.28	1796.07
221.50	1775.59
221.72	1638.38
221.94	1718.25
222.16	1697.77
222.38	1746.92
222.60	1736.68
222.82	1669.09
223.03	1699.81
223.25	1609.70
223.47	1751.01
223.69	1773.54
223.91	1728.49
224.13	1761.25
224.35	1689.57
224.57	1822.69
224.78	1708.01
225.00	1654.76
225.22	1660.90
225.44	1730.53
225.66	1714.15
225.88	1695.72
226.10	1791.97
226.32	1673.19
226.53	1691.62
226.75	1783.78
226.97	1679.33
227.19	1734.63
227.41	1652.71
227.63	1640.42
227.85	1556.46
228.06	1732.58
228.28	1724.39
228.50	1767.40
228.72	1603.56
228.94	1677.29
229.16	1660.90
229.37	1665.00
229.59	1691.62
229.81	1748.97
230.03	1667.05
230.25	1632.23
230.47	1578.98
230.69	1695.72
230.90	1714.15
231.12	1644.52
231.34	1744.87
231.56	1765.35
231.78	1615.85
232.00	1705.96
232.21	1798.12
232.43	1687.53
232.65	1656.81
232.87	1681.38
233.09	1681.38
233.30	1619.94
233.52	1632.23
233.74	1695.72
233.96	1685.48
234.18	1755.11
234.40	1644.52
234.61	1789.92
234.83	1615.85
235.05	1626.09
235.27	1824.74
235.49	1783.78
235.70	1710.05
235.92	1765.35
236.14	1751.01
236.36	1828.84
236.58	1619.94
236.79	1716.20
237.01	1705.96
237.23	1728.49
237.45	1861.60
237.67	1673.19
237.88	1775.59
238.10	1751.01
238.32	1705.96
238.54	1705.96
238.76	1730.53
238.97	1669.09
239.19	1656.81
239.41	1763.30
239.63	1769.44
239.85	1720.29
240.06	1726.44
240.28	1648.61
240.50	1742.82
240.72	1644.52
240.93	1730.53
241.15	1804.26
241.37	1761.25
241.59	1757.16
241.81	1679.33
242.02	1761.25
242.24	1703.91
242.46	1748.97
242.68	1656.81
242.89	1693.67
243.11	1767.40
243.33	1619.94
243.55	1748.97
243.76	1804.26
243.98	1685.48
244.20	1650.66
244.42	1638.38
244.64	1724.39
244.85	1667.05
245.07	1634.28
245.29	1806.31
245.51	1628.14
245.72	1818.60
245.94	1683.43
246.16	1755.11
246.38	1734.63
246.59	1638.38
246.81	1589.22
247.03	1726.44
247.24	1621.99
247.46	1683.43
247.68	1726.44
247.90	1665.00
248.11	1726.44
248.33	1783.78
248.55	1693.67
248.77	1730.53
248.98	1726.44
249.20	1761.25
249.42	1724.39
249.64	1775.59
249.85	1708.01
250.07	1611.75
250.29	1716.20
250.50	1732.58
250.72	1628.14
250.94	1734.63
251.16	1851.36
251.37	1773.54
251.59	1744.87
251.81	1769.44
252.02	1759.21
252.24	1683.43
252.46	1757.16
252.68	1648.61
252.89	1605.61
253.11	1544.17
253.33	1826.79
253.54	1841.12
253.76	1642.47
253.98	1701.86
254.20	1630.18
254.41	1632.23
254.63	1671.14
254.85	1650.66
255.06	1644.52
255.28	1724.39
255.50	1716.20
255.71	1710.05
255.93	1665.00
256.15	1779.68
256.36	1779.68
256.58	1644.52
256.80	1714.15
257.02	1621.99
257.23	1673.19
257.45	1720.29
257.67	1800.16
257.88	1650.66
258.10	1697.77
258.32	1724.39
258.53	1701.86
258.75	1744.87
258.97	1669.09
259.18	1681.38
259.40	1740.77
259.62	1767.40
259.83	1785.83
260.05	1765.35
260.27	1937.38
260.48	1738.73
260.70	1701.86
260.92	1665.00
261.13	1742.82
261.35	1771.49
261.57	1757.16
261.78	1574.89
262.00	1665.00
262.22	1726.44
262.43	1718.25
262.65	1638.38
262.86	1728.49
263.08	1787.88
263.30	1671.14
263.51	1669.09
263.73	1632.23
263.95	1697.77
264.16	1652.71
264.38	1681.38
264.60	1681.38
264.81	1699.81
265.03	1755.11
265.25	1769.44
265.46	1732.58
265.68	1812.45
265.89	1718.25
266.11	1585.13
266.33	1732.58
266.54	1783.78
266.76	1712.10
266.98	1718.25
267.19	1871.84
267.41	1789.92
267.62	1699.81
267.84	1617.90
268.06	1728.49
268.27	1705.96
268.49	1771.49
268.70	1757.16
268.92	1738.73
269.14	1665.00
269.35	1669.09
269.57	1714.15
269.79	1734.63
270.00	1677.29
270.22	1816.55
270.43	1644.52
270.65	1556.46
270.87	1755.11
271.08	1716.20
271.30	1791.97
271.51	1705.96
271.73	1671.14
271.95	1789.92
272.16	1767.40
272.38	1748.97
272.59	1658.85
272.81	1761.25
273.02	1669.09
273.24	1687.53
273.46	1716.20
273.67	1603.56
273.89	1617.90
274.10	1624.04
274.32	1695.72
274.54	1716.20
274.75	1681.38
274.97	1636.33
275.18	1726.44
275.40	1834.98
275.61	1732.58
275.83	1687.53
276.05	1693.67
276.26	1699.81
276.48	1773.54
276.69	1716.20
276.91	1648.61
277.12	1863.65
277.34	1769.44
277.55	1765.35
277.77	1714.15
277.99	1630.18
278.20	1658.85
278.42	1615.85
278.63	1636.33
278.85	1730.53
279.06	1613.80
279.28	1744.87
279.49	1722.34
279.71	1748.97
279.93	1665.00
280.14	1710.05
280.36	1724.39
280.57	1726.44
280.79	1740.77
281.00	1673.19
281.22	1701.86
281.43	1810.40
281.65	1611.75
281.86	1648.61
282.08	1685.48
282.29	1826.79
282.51	1671.14
282.73	1740.77
282.94	1638.38
283.16	1718.25
283.37	1783.78
283.59	1630.18
283.80	1763.30
284.02	1722.34
284.23	1798.12
284.45	1751.01
284.66	1617.90
284.88	1675.24
285.09	1787.88
285.31	1738.73
285.52	1767.40
285.74	1658.85
285.95	1714.15
286.17	1708.01
286.38	1716.20
286.60	1691.62
286.81	1695.72
287.03	1759.21
287.24	1791.97
287.46	1789.92
287.67	1693.67
287.89	1820.64
288.10	1693.67
288.32	1703.91
288.53	1832.93
288.75	1742.82
288.96	1787.88
289.18	1669.09
289.39	1708.01
289.61	1775.59
289.82	1804.26
290.04	1796.07
290.25	1691.62
290.47	1681.38
290.68	1662.95
290.90	1738.73
291.11	1626.09
291.33	1738.73
291.54	1644.52
291.76	1708.01
291.97	1785.83
292.18	1751.01
292.40	1683.43
292.61	1642.47
292.83	1859.56
293.04	1755.11
293.26	1738.73
293.47	1734.63
293.69	1617.90
293.90	1720.29
294.12	1832.93
294.33	1722.34
294.55	1665.00
294.76	1726.44
294.97	1701.86
295.19	1839.08
295.40	1693.67
295.62	1710.05
295.83	1771.49
296.05	1675.24
296.26	1798.12
296.48	1654.76
296.69	1730.53
296.90	1587.18
297.12	1746.92
297.33	1742.82
297.55	1685.48
297.76	1783.78
297.98	1779.68
298.19	1656.81
298.41	1689.57
298.62	1718.25
298.83	1851.36
299.05	1685.48
299.26	1693.67
299.48	1601.51
299.69	1759.21
299.90	1689.57
300.12	1636.33
300.33	1783.78
300.55	1687.53
300.76	1802.21
300.98	1658.85
301.19	1705.96
301.40	1658.85
301.62	1681.38
301.83	1767.40
302.05	1718.25
302.26	1685.48
302.47	1740.77
302.69	1751.01
302.90	1673.19
303.12	1581.03
303.33	1746.92
303.54	1789.92
303.76	1693.67
303.97	1728.49
304.19	1822.69
304.40	1587.18
304.61	1736.68
304.83	1757.16
305.04	1787.88
305.26	1691.62
305.47	1638.38
305.68	1701.86
305.90	1699.81
306.11	1722.34
306.33	1624.04
306.54	1697.77
306.75	1626.09
306.97	1605.61
307.18	1619.94
307.39	1617.90
307.61	1779.68
307.82	1722.34
308.04	1691.62
308.25	1656.81
308.46	1638.38
308.68	1693.67
308.89	1742.82
309.10	1708.01
309.32	1748.97
309.53	1701.86
309.74	1660.90
309.96	1658.85
310.17	1847.27
310.39	1712.10
310.60	1718.25
310.81	1656.81
311.03	1644.52
311.24	1730.53
311.45	1681.38
311.67	1783.78
311.88	1785.83
312.09	1687.53
312.31	1693.67
312.52	1697.77
312.73	1730.53
312.95	1607.66
313.16	1673.19
313.37	1767.40
313.59	1769.44
313.80	1736.68
314.01	1826.79
314.23	1656.81
314.44	1685.48
314.65	1597.42
314.87	1581.03
315.08	1626.09
315.29	1746.92
315.51	1638.38
315.72	1601.51
315.93	1822.69
316.15	1771.49
316.36	1640.42
316.57	1654.76
316.79	1769.44
317.00	1658.85
317.21	1665.00
317.43	1642.47
317.64	1673.19
317.85	1609.70
318.07	1685.48
318.28	1767.40
318.49	1902.56
318.70	1949.67
318.92	1802.21
319.13	1855.46
319.34	1798.12
319.56	1740.77
319.77	1812.45
319.98	1869.80
320.20	1740.77
320.41	1720.29
320.62	1789.92
320.83	1693.67
321.05	1777.64
321.26	1794.02
321.47	1705.96
321.69	1730.53
321.90	1621.99
322.11	1705.96
322.32	1695.72
322.54	1736.68
322.75	1665.00
322.96	1861.60
323.18	1640.42
323.39	1632.23
323.60	1562.60
323.81	1787.88
324.03	1665.00
324.24	1677.29
324.45	1693.67
324.66	1714.15
324.88	1787.88
325.09	1849.32
325.30	1744.87
325.52	1787.88
325.73	1726.44
325.94	1609.70
326.15	1677.29
326.37	1730.53
326.58	1695.72
326.79	1830.88
327.00	1693.67
327.22	1730.53
327.43	1679.33
327.64	1617.90
327.85	1742.82
328.07	1751.01
328.28	1755.11
328.49	1691.62
328.70	1773.54
328.92	1660.90
329.13	1681.38
329.34	1787.88
329.55	1812.45
329.76	1714.15
329.98	1691.62
330.19	1810.40
330.40	1812.45
330.61	1669.09
330.83	1681.38
331.04	1669.09
331.25	1730.53
331.46	1677.29
331.68	1703.91
331.89	1822.69
332.10	1697.77
332.31	1703.91
332.52	1685.48
332.74	1724.39
332.95	1650.66
333.16	1705.96
333.37	1757.16
333.58	1691.62
333.80	1695.72
334.01	1609.70
334.22	1621.99
334.43	1665.00
334.64	1691.62
334.86	1693.67
335.07	1736.68
335.28	1791.97
335.49	1585.13
335.70	1697.77
335.92	1705.96
336.13	1923.04
336.34	1699.81
336.55	1712.10
336.76	1761.25
336.98	1652.71
337.19	1748.97
337.40	1800.16
337.61	1914.85
337.82	1687.53
338.04	1767.40
338.25	1613.80
338.46	1714.15
338.67	1767.40
338.88	1701.86
339.09	1501.16
339.31	1705.96
339.52	1669.09
339.73	1576.94
339.94	1714.15
340.15	1755.11
340.36	1650.66
340.58	1740.77
340.79	1640.42
341.00	1683.43
341.21	1662.95
341.42	1828.84
341.63	1730.53
341.85	1724.39
342.06	1619.94
342.27	1644.52
342.48	1796.07
342.69	1609.70
342.90	1675.24
343.12	1691.62
343.33	1732.58
343.54	1763.30
343.75	1830.88
343.96	1748.97
344.17	1677.29
344.38	1689.57
344.60	1644.52
344.81	1646.57
345.02	1644.52
345.23	1767.40
345.44	1718.25
345.65	1673.19
345.86	1789.92
346.07	1638.38
346.29	1650.66
346.50	1822.69
346.71	1728.49
346.92	1742.82
347.13	1806.31
347.34	1697.77
347.55	1703.91
347.76	1728.49
347.98	1560.55
348.19	1689.57
348.40	1716.20
348.61	1611.75
348.82	1765.35
349.03	1730.53
349.24	1658.85
349.45	1763.30
349.66	1607.66
349.88	1730.53
350.09	1603.56
350.30	1773.54
350.51	1763.30
350.72	1630.18
350.93	1724.39
351.14	1681.38
351.35	1744.87
351.56	1679.33
351.77	1685.48
351.99	1759.21
352.20	1814.50
352.41	1802.21
352.62	1568.74
352.83	1697.77
353.04	1732.58
353.25	1640.42
353.46	1681.38
353.67	1789.92
353.88	1636.33
354.09	1697.77
354.30	1720.29
354.52	1736.68
354.73	1662.95
354.94	1726.44
355.15	1665.00
355.36	1730.53
355.57	1662.95
355.78	1736.68
355.99	1693.67
356.20	1626.09
356.41	1785.83
356.62	1742.82
356.83	1751.01
357.04	1769.44
357.25	1708.01
357.46	1626.09
357.68	1673.19
357.89	1621.99
358.10	1703.91
358.31	1775.59
358.52	1695.72
358.73	1644.52
358.94	1599.46
359.15	1675.24
359.36	1773.54
359.57	1681.38
359.78	1710.05
359.99	1773.54
360.20	1687.53
360.41	1765.35
360.62	1716.20
360.83	1724.39
361.04	1642.47
361.25	1675.24
361.46	1806.31
361.67	1744.87
361.88	1703.91
362.09	1783.78
362.30	1728.49
362.51	1726.44
362.72	1732.58
362.93	1759.21
363.14	1763.30
363.35	1722.34
363.56	1718.25
363.78	1826.79
363.99	1771.49
364.20	1576.94
364.41	1789.92
364.62	1769.44
364.83	1624.04
365.04	1697.77
365.25	1734.63
365.46	1843.17
365.67	1742.82
365.88	1611.75
366.09	1660.90
366.30	1638.38
366.51	1777.64
366.72	1675.24
366.93	1710.05
367.14	1685.48
367.35	1781.73
367.56	1675.24
367.77	1783.78
367.98	1626.09
368.18	1740.77
368.39	1689.57
368.60	1644.52
368.81	1720.29
369.02	1662.95
369.23	1689.57
369.44	1605.61
369.65	1667.05
369.86	1771.49
370.07	1796.07
370.28	1654.76
370.49	1720.29
370.70	1718.25
370.91	1644.52
371.12	1660.90
371.33	1789.92
371.54	1626.09
371.75	1845.22
371.96	1626.09
372.17	1738.73
372.38	1695.72
372.59	1736.68
372.80	1703.91
373.01	1759.21
373.22	1685.48
373.43	1642.47
373.64	1658.85
373.85	1751.01
374.06	1753.06
374.26	1751.01
374.47	1722.34
374.68	1746.92
374.89	1665.00
375.10	1742.82
375.31	1708.01
375.52	1722.34
375.73	1734.63
375.94	1681.38
376.15	1765.35
376.36	1703.91
376.57	1681.38
376.78	1689.57
376.99	1736.68
377.20	1732.58
377.40	1681.38
377.61	1693.67
377.82	1617.90
378.03	1738.73
378.24	1771.49
378.45	1669.09
378.66	1656.81
378.87	1652.71
379.08	1570.79
379.29	1632.23
379.50	1830.88
379.71	1642.47
379.91	1736.68
380.12	1724.39
380.33	1642.47
380.54	1695.72
380.75	1716.20
380.96	1683.43
381.17	1728.49
381.38	1714.15
381.59	1755.11
381.80	1732.58
382.00	1728.49
382.21	1726.44
382.42	1763.30
382.63	1806.31
382.84	1765.35
383.05	1736.68
383.26	1859.56
383.47	1791.97
383.68	1789.92
383.88	1634.28
384.09	1734.63
384.30	1818.60
384.51	1767.40
384.72	1681.38
384.93	1652.71
385.14	1744.87
385.35	1767.40
385.55	1638.38
385.76	1783.78
385.97	1693.67
386.18	1615.85
386.39	1570.79
386.60	1667.05
386.81	1701.86
387.02	1695.72
387.22	1677.29
387.43	1755.11
387.64	1857.51
387.85	1830.88
388.06	2230.24
388.27	4143.04
388.48	6502.30
388.68	7999.37
388.89	9279.35
389.10	9666.41
389.31	8427.39
389.52	7317.39
389.73	6586.27
389.93	6121.38
390.14	5564.33
390.35	5076.91
390.56	4364.22
390.77	3696.58
390.98	3018.71
391.18	2504.67
391.39	2074.59
391.60	1804.26
391.81	1796.07
392.02	1687.53
392.23	1775.59
392.43	1779.68
392.64	1738.73
392.85	1773.54
393.06	1751.01
393.27	1646.57
393.47	1755.11
393.68	1746.92
393.89	1730.53
394.10	1816.55
394.31	1705.96
394.52	1683.43
394.72	1673.19
394.93	1791.97
395.14	1609.70
395.35	1757.16
395.56	1669.09
395.76	1736.68
395.97	1832.93
396.18	1808.36
396.39	1843.17
396.60	2045.92
396.80	1892.32
397.01	1826.79
397.22	1796.07
397.43	1834.98
397.64	1681.38
397.84	1755.11
398.05	1873.89
398.26	1748.97
398.47	1783.78
398.67	1755.11
398.88	1691.62
399.09	1810.40
399.30	1695.72
399.51	1746.92
399.71	1667.05
399.92	1703.91
400.13	1710.05
400.34	1693.67
400.54	1765.35
400.75	1800.16
400.96	1759.21
401.17	1751.01
401.37	1722.34
401.58	1695.72
401.79	1751.01
402.00	1822.69
402.21	2004.96
402.41	1904.61
402.62	2000.87
402.83	1978.34
403.04	2002.91
403.24	2013.15
403.45	1857.51
403.66	1896.42
403.87	1916.90
404.07	1867.75
404.28	1877.99
404.49	1896.42
404.70	1767.40
404.90	1689.57
405.11	1775.59
405.32	1751.01
405.52	1681.38
405.73	1646.57
405.94	1744.87
406.15	1697.77
406.35	1802.21
406.56	1808.36
406.77	1736.68
406.98	1636.33
407.18	1648.61
407.39	1705.96
407.60	1628.14
407.80	1806.31
408.01	1654.76
408.22	1777.64
408.43	1601.51
408.63	1691.62
408.84	1789.92
409.05	1738.73
409.25	1656.81
409.46	1644.52
409.67	1703.91
409.88	1714.15
410.08	1779.68
410.29	1660.90
410.50	1697.77
410.70	1757.16
410.91	1654.76
411.12	1701.86
411.32	1636.33
411.53	1714.15
411.74	1759.21
411.95	1789.92
412.15	1736.68
412.36	1734.63
412.57	1767.40
412.77	1773.54
412.98	1742.82
413.19	1673.19
413.39	1714.15
413.60	1712.10
413.81	1716.20
414.01	1656.81
414.22	1791.97
414.43	1802.21
414.63	1763.30
414.84	1738.73
415.05	1755.11
415.25	1652.71
415.46	1705.96
415.67	1732.58
415.87	1724.39
416.08	1697.77
416.29	1681.38
416.49	1677.29
416.70	1697.77
416.91	1652.71
417.11	1673.19
417.32	1740.77
417.53	1759.21
417.73	1742.82
417.94	1660.90
418.15	1738.73
418.35	1701.86
418.56	1734.63
418.77	1794.02
418.97	1769.44
419.18	1708.01
419.38	1628.14
419.59	1656.81
419.80	1791.97
420.00	1748.97
420.21	1683.43
420.42	1757.16
420.62	1732.58
420.83	1597.42
421.04	1689.57
421.24	1697.77
421.45	1771.49
421.65	1808.36
421.86	1617.90
422.07	1695.72
422.27	1673.19
422.48	1738.73
422.69	1615.85
422.89	1759.21
423.10	1734.63
423.30	1574.89
423.51	1720.29
423.72	1755.11
423.92	1730.53
424.13	1628.14
424.33	1738.73
424.54	1779.68
424.75	1699.81
424.95	1810.40
425.16	1693.67
425.36	1718.25
425.57	1732.58
425.78	1736.68
425.98	1738.73
426.19	1722.34
426.39	1673.19
426.60	1673.19
426.81	1853.41
427.01	1671.14
427.22	1628.14
427.42	1650.66
427.63	1675.24
427.83	1726.44
428.04	1832.93
428.25	1808.36
428.45	1775.59
428.66	1708.01
428.86	1689.57
429.07	1755.11
429.28	1744.87
429.48	1693.67
429.69	1736.68
429.89	1718.25
430.10	1615.85
430.30	1716.20
430.51	1720.29
430.71	1642.47
430.92	1701.86
431.13	1669.09
431.33	1781.73
431.54	1695.72
431.74	1746.92
431.95	1839.08
432.15	1665.00
432.36	1673.19
432.56	1857.51
432.77	1828.84
432.98	1771.49
433.18	1746.92
433.39	1703.91
433.59	1748.97
433.80	1871.84
434.00	1826.79
434.21	1738.73
434.41	1710.05
434.62	1845.22
434.82	1712.10
435.03	1691.62
435.23	1755.11
435.44	1673.19
435.64	1730.53
435.85	1775.59
436.06	1808.36
436.26	1714.15
436.47	1658.85
436.67	1656.81
436.88	1701.86
437.08	1726.44
437.29	1789.92
437.49	1648.61
437.70	1738.73
437.90	1800.16
438.11	1783.78
438.31	1789.92
438.52	1822.69
438.72	1873.89
438.93	1857.51
439.13	1861.60
439.34	1814.50
439.54	1742.82
439.75	1794.02
439.95	1779.68
440.16	1691.62
440.36	1714.15
440.57	1769.44
440.77	1798.12
440.98	1779.68
441.18	1746.92
441.39	1701.86
441.59	1638.38
441.80	1812.45
442.00	1794.02
442.21	1843.17
442.41	1640.42
442.62	1814.50
442.82	1691.62
443.02	1699.81
443.23	1701.86
443.43	1687.53
443.64	1718.25
443.84	1644.52
444.05	1824.74
444.25	1759.21
444.46	1759.21
444.66	1757.16
444.87	1847.27
445.07	1665.00
445.28	1781.73
445.48	1849.32
445.69	1744.87
445.89	1759.21
446.09	1640.42
446.30	2007.01
446.50	2615.26
446.71	3614.66
446.91	4261.82
447.12	4685.75
447.32	4665.27
447.53	4315.07
447.73	3856.33
447.93	3555.27
448.14	3141.58
448.34	3252.17
448.55	2944.98
448.75	2766.81
448.96	2656.22
449.16	2353.12
449.36	2328.54
449.57	2115.55
449.77	1888.23
449.98	1800.16
450.18	1837.03
450.39	1828.84
450.59	1718.25
450.79	1751.01
451.00	1728.49
451.20	1722.34
451.41	1761.25
451.61	1734.63
451.81	1796.07
452.02	1654.76
452.22	1675.24
452.43	1679.33
452.63	1798.12
