SpectraSuite Data File
++++++++++++++++++++++++++++++++++++
Date: Mon Jun 06 16:26:37 CEST 2016
User: root
Dark Spectrum Present: No
Reference Spectrum Present: No
Number of Sampled Component Spectra: 1
Spectrometers: USB4C02835
Integration Time (usec): 100000 (USB4C02835)
Spectra Averaged: 1 (USB4C02835)
Boxcar Smoothing: 0 (USB4C02835)
Correct for Electrical Dark: No (USB4C02835)
Strobe/Lamp Enabled: No (USB4C02835)
Correct for Detector Non-linearity: No (USB4C02835)
Correct for Stray Light: No (USB4C02835)
Number of Pixels in Processed Spectrum: 3648
>>>>>Begin Processed Spectral Data<<<<<
177.47	1435.63
177.69	1435.63
177.91	1435.63
178.13	1505.26
178.36	1419.24
178.58	1675.24
178.80	1761.25
179.02	1615.85
179.24	1621.99
179.46	1726.44
179.68	1730.53
179.90	1652.71
180.13	1744.87
180.35	1728.49
180.57	1652.71
180.79	1794.02
181.01	1730.53
181.23	1722.34
181.45	1816.55
181.67	1800.16
181.90	1834.98
182.12	1738.73
182.34	1705.96
182.56	1767.40
182.78	1771.49
183.00	1683.43
183.22	1716.20
183.44	1636.33
183.66	1886.18
183.89	1822.69
184.11	1669.09
184.33	1773.54
184.55	1787.88
184.77	1714.15
184.99	1691.62
185.21	1630.18
185.43	1904.61
185.65	1652.71
185.87	1703.91
186.10	1812.45
186.32	1828.84
186.54	1767.40
186.76	1744.87
186.98	1734.63
187.20	1673.19
187.42	1740.77
187.64	1689.57
187.86	1744.87
188.08	1689.57
188.30	1644.52
188.52	1738.73
188.75	1769.44
188.97	1800.16
189.19	1650.66
189.41	1718.25
189.63	1748.97
189.85	1656.81
190.07	1603.56
190.29	1630.18
190.51	1654.76
190.73	1730.53
190.95	1771.49
191.17	1730.53
191.39	1599.46
191.61	1607.66
191.84	1677.29
192.06	1667.05
192.28	1638.38
192.50	1884.13
192.72	1734.63
192.94	1699.81
193.16	1720.29
193.38	1736.68
193.60	1685.48
193.82	1695.72
194.04	1804.26
194.26	1763.30
194.48	1777.64
194.70	1665.00
194.92	1609.70
195.14	1783.78
195.36	1605.61
195.58	1722.34
195.80	1685.48
196.02	1722.34
196.24	1695.72
196.46	1775.59
196.69	1734.63
196.91	1828.84
197.13	1628.14
197.35	1710.05
197.57	1814.50
197.79	1765.35
198.01	1779.68
198.23	1816.55
198.45	1761.25
198.67	1660.90
198.89	1654.76
199.11	1724.39
199.33	1716.20
199.55	1609.70
199.77	1677.29
199.99	1730.53
200.21	1736.68
200.43	1763.30
200.65	1675.24
200.87	1607.66
201.09	1794.02
201.31	1714.15
201.53	1689.57
201.75	1708.01
201.97	1736.68
202.19	1755.11
202.41	1671.14
202.63	1847.27
202.85	1755.11
203.07	1703.91
203.29	1667.05
203.51	1593.32
203.73	1691.62
203.95	1849.32
204.17	1767.40
204.39	1736.68
204.61	1724.39
204.83	1691.62
205.05	1781.73
205.27	1732.58
205.49	1824.74
205.71	1726.44
205.93	1708.01
206.15	1626.09
206.37	1671.14
206.59	1755.11
206.81	1609.70
207.03	1599.46
207.25	1665.00
207.47	1751.01
207.69	1595.37
207.91	1841.12
208.13	1789.92
208.34	1708.01
208.56	1617.90
208.78	1757.16
209.00	1654.76
209.22	1738.73
209.44	1650.66
209.66	1675.24
209.88	1755.11
210.10	1714.15
210.32	1615.85
210.54	1812.45
210.76	1697.77
210.98	1783.78
211.20	1648.61
211.42	1671.14
211.64	1796.07
211.86	1720.29
212.08	1734.63
212.30	1787.88
212.52	1628.14
212.74	1755.11
212.96	1767.40
213.17	1761.25
213.39	1777.64
213.61	1728.49
213.83	1755.11
214.05	1660.90
214.27	1800.16
214.49	1712.10
214.71	1615.85
214.93	1796.07
215.15	1673.19
215.37	1681.38
215.59	1626.09
215.81	1648.61
216.03	1789.92
216.24	1724.39
216.46	1689.57
216.68	1708.01
216.90	1744.87
217.12	1759.21
217.34	1615.85
217.56	1751.01
217.78	1746.92
218.00	1748.97
218.22	1742.82
218.44	1775.59
218.66	1771.49
218.87	1806.31
219.09	1617.90
219.31	1767.40
219.53	1722.34
219.75	1671.14
219.97	1646.57
220.19	1820.64
220.41	1660.90
220.63	1794.02
220.85	1695.72
221.06	1683.43
221.28	1748.97
221.50	1720.29
221.72	1636.33
221.94	1714.15
222.16	1718.25
222.38	1828.84
222.60	1699.81
222.82	1714.15
223.03	1724.39
223.25	1667.05
223.47	1775.59
223.69	1781.73
223.91	1714.15
224.13	1720.29
224.35	1699.81
224.57	1732.58
224.78	1779.68
225.00	1681.38
225.22	1683.43
225.44	1683.43
225.66	1753.06
225.88	1710.05
226.10	1826.79
226.32	1699.81
226.53	1843.17
226.75	1609.70
226.97	1638.38
227.19	1636.33
227.41	1673.19
227.63	1697.77
227.85	1642.47
228.06	1748.97
228.28	1748.97
228.50	1818.60
228.72	1740.77
228.94	1763.30
229.16	1656.81
229.37	1562.60
229.59	1660.90
229.81	1812.45
230.03	1718.25
230.25	1712.10
230.47	1628.14
230.69	1726.44
230.90	1812.45
231.12	1595.37
231.34	1814.50
231.56	1800.16
231.78	1703.91
232.00	1716.20
232.21	1691.62
232.43	1634.28
232.65	1634.28
232.87	1763.30
233.09	1665.00
233.30	1628.14
233.52	1761.25
233.74	1660.90
233.96	1705.96
234.18	1667.05
234.40	1761.25
234.61	1841.12
234.83	1632.23
235.05	1654.76
235.27	1757.16
235.49	1740.77
235.70	1837.03
235.92	1787.88
236.14	1673.19
236.36	1877.99
236.58	1574.89
236.79	1751.01
237.01	1724.39
237.23	1740.77
237.45	1804.26
237.67	1740.77
237.88	1660.90
238.10	1791.97
238.32	1628.14
238.54	1687.53
238.76	1738.73
238.97	1648.61
239.19	1701.86
239.41	1720.29
239.63	1744.87
239.85	1697.77
240.06	1755.11
240.28	1695.72
240.50	1767.40
240.72	1718.25
240.93	1748.97
241.15	1791.97
241.37	1693.67
241.59	1763.30
241.81	1767.40
242.02	1701.86
242.24	1673.19
242.46	1732.58
242.68	1708.01
242.89	1726.44
243.11	1816.55
243.33	1730.53
243.55	1796.07
243.76	1665.00
243.98	1619.94
244.20	1654.76
244.42	1712.10
244.64	1722.34
244.85	1640.42
245.07	1646.57
245.29	1677.29
245.51	1783.78
245.72	1710.05
245.94	1853.41
246.16	1812.45
246.38	1773.54
246.59	1667.05
246.81	1726.44
247.03	1722.34
247.24	1656.81
247.46	1697.77
247.68	1738.73
247.90	1742.82
248.11	1640.42
248.33	1710.05
248.55	1675.24
248.77	1705.96
248.98	1773.54
249.20	1843.17
249.42	1783.78
249.64	1703.91
249.85	1728.49
250.07	1716.20
250.29	1773.54
250.50	1671.14
250.72	1593.32
250.94	1753.06
251.16	1861.60
251.37	1796.07
251.59	1705.96
251.81	1724.39
252.02	1789.92
252.24	1728.49
252.46	1697.77
252.68	1675.24
252.89	1701.86
253.11	1646.57
253.33	1843.17
253.54	1738.73
253.76	1667.05
253.98	1738.73
254.20	1699.81
254.41	1642.47
254.63	1705.96
254.85	1683.43
255.06	1673.19
255.28	1734.63
255.50	1624.04
255.71	1636.33
255.93	1597.42
256.15	1673.19
256.36	1738.73
256.58	1665.00
256.80	1689.57
257.02	1701.86
257.23	1693.67
257.45	1701.86
257.67	1763.30
257.88	1765.35
258.10	1748.97
258.32	1742.82
258.53	1808.36
258.75	1830.88
258.97	1675.24
259.18	1712.10
259.40	1642.47
259.62	1789.92
259.83	1773.54
260.05	1787.88
260.27	2023.39
260.48	1716.20
260.70	1697.77
260.92	1708.01
261.13	1708.01
261.35	1753.06
261.57	1714.15
261.78	1701.86
262.00	1712.10
262.22	1755.11
262.43	1662.95
262.65	1712.10
262.86	1683.43
263.08	1800.16
263.30	1689.57
263.51	1630.18
263.73	1607.66
263.95	1822.69
264.16	1724.39
264.38	1683.43
264.60	1789.92
264.81	1675.24
265.03	1712.10
265.25	1826.79
265.46	1656.81
265.68	1812.45
265.89	1791.97
266.11	1632.23
266.33	1744.87
266.54	1722.34
266.76	1718.25
266.98	1724.39
267.19	1779.68
267.41	1800.16
267.62	1785.83
267.84	1630.18
268.06	1689.57
268.27	1730.53
268.49	1849.32
268.70	1740.77
268.92	1685.48
269.14	1669.09
269.35	1570.79
269.57	1728.49
269.79	1751.01
270.00	1697.77
270.22	1777.64
270.43	1638.38
270.65	1611.75
270.87	1675.24
271.08	1740.77
271.30	1775.59
271.51	1751.01
271.73	1728.49
271.95	1677.29
272.16	1720.29
272.38	1759.21
272.59	1656.81
272.81	1779.68
273.02	1697.77
273.24	1710.05
273.46	1736.68
273.67	1683.43
273.89	1705.96
274.10	1701.86
274.32	1798.12
274.54	1718.25
274.75	1728.49
274.97	1673.19
275.18	1761.25
275.40	1777.64
275.61	1687.53
275.83	1656.81
276.05	1687.53
276.26	1718.25
276.48	1777.64
276.69	1699.81
276.91	1630.18
277.12	1767.40
277.34	1808.36
277.55	1771.49
277.77	1710.05
277.99	1634.28
278.20	1748.97
278.42	1654.76
278.63	1658.85
278.85	1746.92
279.06	1685.48
279.28	1755.11
279.49	1759.21
279.71	1746.92
279.93	1693.67
280.14	1746.92
280.36	1689.57
280.57	1806.31
280.79	1736.68
281.00	1665.00
281.22	1636.33
281.43	1748.97
281.65	1619.94
281.86	1644.52
282.08	1791.97
282.29	1763.30
282.51	1644.52
282.73	1658.85
282.94	1615.85
283.16	1753.06
283.37	1798.12
283.59	1697.77
283.80	1753.06
284.02	1681.38
284.23	1724.39
284.45	1734.63
284.66	1636.33
284.88	1787.88
285.09	1710.05
285.31	1722.34
285.52	1703.91
285.74	1685.48
285.95	1740.77
286.17	1796.07
286.38	1714.15
286.60	1712.10
286.81	1734.63
287.03	1703.91
287.24	1736.68
287.46	1773.54
287.67	1681.38
287.89	1837.03
288.10	1710.05
288.32	1800.16
288.53	1830.88
288.75	1665.00
288.96	1722.34
289.18	1683.43
289.39	1689.57
289.61	1804.26
289.82	1789.92
290.04	1722.34
290.25	1710.05
290.47	1736.68
290.68	1658.85
290.90	1789.92
291.11	1714.15
291.33	1689.57
291.54	1648.61
291.76	1683.43
291.97	1744.87
292.18	1730.53
292.40	1683.43
292.61	1714.15
292.83	1880.04
293.04	1753.06
293.26	1779.68
293.47	1673.19
293.69	1697.77
293.90	1636.33
294.12	1740.77
294.33	1714.15
294.55	1763.30
294.76	1759.21
294.97	1814.50
295.19	1865.70
295.40	1732.58
295.62	1732.58
295.83	1763.30
296.05	1654.76
296.26	1712.10
296.48	1638.38
296.69	1687.53
296.90	1724.39
297.12	1769.44
297.33	1796.07
297.55	1660.90
297.76	1761.25
297.98	1832.93
298.19	1652.71
298.41	1718.25
298.62	1671.14
298.83	1753.06
299.05	1724.39
299.26	1714.15
299.48	1683.43
299.69	1761.25
299.90	1746.92
300.12	1689.57
300.33	1804.26
300.55	1710.05
300.76	1748.97
300.98	1611.75
301.19	1822.69
301.40	1654.76
301.62	1720.29
301.83	1675.24
302.05	1675.24
302.26	1726.44
302.47	1724.39
302.69	1646.57
302.90	1724.39
303.12	1605.61
303.33	1650.66
303.54	1892.32
303.76	1695.72
303.97	1724.39
304.19	1763.30
304.40	1609.70
304.61	1685.48
304.83	1783.78
305.04	1693.67
305.26	1763.30
305.47	1695.72
305.68	1724.39
305.90	1656.81
306.11	1796.07
306.33	1716.20
306.54	1708.01
306.75	1712.10
306.97	1578.98
307.18	1689.57
307.39	1697.77
307.61	1701.86
307.82	1716.20
308.04	1779.68
308.25	1656.81
308.46	1755.11
308.68	1654.76
308.89	1728.49
309.10	1824.74
309.32	1767.40
309.53	1689.57
309.74	1759.21
309.96	1738.73
310.17	1845.22
310.39	1701.86
310.60	1736.68
310.81	1724.39
311.03	1636.33
311.24	1755.11
311.45	1714.15
311.67	1841.12
311.88	1732.58
312.09	1660.90
312.31	1626.09
312.52	1703.91
312.73	1726.44
312.95	1689.57
313.16	1673.19
313.37	1845.22
313.59	1755.11
313.80	1771.49
314.01	1869.80
314.23	1722.34
314.44	1599.46
314.65	1660.90
314.87	1681.38
315.08	1689.57
315.29	1656.81
315.51	1646.57
315.72	1763.30
315.93	1777.64
316.15	1849.32
316.36	1714.15
316.57	1718.25
316.79	1779.68
317.00	1669.09
317.21	1755.11
317.43	1738.73
317.64	1767.40
317.85	1718.25
318.07	1650.66
318.28	1755.11
318.49	1837.03
318.70	1935.33
318.92	1857.51
319.13	1832.93
319.34	1886.18
319.56	1800.16
319.77	1816.55
319.98	1773.54
320.20	1794.02
320.41	1746.92
320.62	1769.44
320.83	1767.40
321.05	1904.61
321.26	1753.06
321.47	1740.77
321.69	1837.03
321.90	1699.81
322.11	1746.92
322.32	1667.05
322.54	1804.26
322.75	1712.10
322.96	1834.98
323.18	1601.51
323.39	1654.76
323.60	1652.71
323.81	1767.40
324.03	1681.38
324.24	1683.43
324.45	1685.48
324.66	1703.91
324.88	1765.35
325.09	1820.64
325.30	1730.53
325.52	1804.26
325.73	1714.15
325.94	1589.22
326.15	1630.18
326.37	1662.95
326.58	1677.29
326.79	1769.44
327.00	1603.56
327.22	1667.05
327.43	1648.61
327.64	1644.52
327.85	1689.57
328.07	1755.11
328.28	1884.13
328.49	1751.01
328.70	1628.14
328.92	1767.40
329.13	1619.94
329.34	1697.77
329.55	1812.45
329.76	1761.25
329.98	1720.29
330.19	1791.97
330.40	1738.73
330.61	1699.81
330.83	1787.88
331.04	1646.57
331.25	1689.57
331.46	1601.51
331.68	1558.50
331.89	1748.97
332.10	1734.63
332.31	1751.01
332.52	1736.68
332.74	1787.88
332.95	1615.85
333.16	1675.24
333.37	1777.64
333.58	1693.67
333.80	1726.44
334.01	1648.61
334.22	1708.01
334.43	1654.76
334.64	1675.24
334.86	1595.37
335.07	1634.28
335.28	1740.77
335.49	1619.94
335.70	1734.63
335.92	1771.49
336.13	1816.55
336.34	1718.25
336.55	1755.11
336.76	1734.63
336.98	1617.90
337.19	1736.68
337.40	1847.27
337.61	1900.52
337.82	1701.86
338.04	1775.59
338.25	1595.37
338.46	1730.53
338.67	1724.39
338.88	1660.90
339.09	1679.33
339.31	1712.10
339.52	1538.02
339.73	1597.42
339.94	1720.29
340.15	1753.06
340.36	1708.01
340.58	1603.56
340.79	1646.57
341.00	1742.82
341.21	1734.63
341.42	1880.04
341.63	1681.38
341.85	1798.12
342.06	1724.39
342.27	1681.38
342.48	1710.05
342.69	1576.94
342.90	1804.26
343.12	1812.45
343.33	1708.01
343.54	1712.10
343.75	1722.34
343.96	1746.92
344.17	1646.57
344.38	1703.91
344.60	1617.90
344.81	1636.33
345.02	1669.09
345.23	1796.07
345.44	1763.30
345.65	1781.73
345.86	1718.25
346.07	1671.14
346.29	1644.52
346.50	1742.82
346.71	1740.77
346.92	1761.25
347.13	1828.84
347.34	1669.09
347.55	1710.05
347.76	1712.10
347.98	1570.79
348.19	1716.20
348.40	1800.16
348.61	1730.53
348.82	1855.46
349.03	1759.21
349.24	1718.25
349.45	1767.40
349.66	1597.42
349.88	1738.73
350.09	1755.11
350.30	1726.44
350.51	1791.97
350.72	1742.82
350.93	1769.44
351.14	1695.72
351.35	1759.21
351.56	1730.53
351.77	1705.96
351.99	1751.01
352.20	1791.97
352.41	1789.92
352.62	1574.89
352.83	1705.96
353.04	1740.77
353.25	1712.10
353.46	1689.57
353.67	1787.88
353.88	1691.62
354.09	1722.34
354.30	1640.42
354.52	1744.87
354.73	1699.81
354.94	1675.24
355.15	1681.38
355.36	1888.23
355.57	1691.62
355.78	1744.87
355.99	1656.81
356.20	1714.15
356.41	1812.45
356.62	1763.30
356.83	1683.43
357.04	1853.41
357.25	1636.33
357.46	1720.29
357.68	1603.56
357.89	1636.33
358.10	1611.75
358.31	1675.24
358.52	1736.68
358.73	1646.57
358.94	1701.86
359.15	1755.11
359.36	1787.88
359.57	1648.61
359.78	1716.20
359.99	1759.21
360.20	1714.15
360.41	1607.66
360.62	1720.29
360.83	1726.44
361.04	1722.34
361.25	1765.35
361.46	1773.54
361.67	1775.59
361.88	1777.64
362.09	1720.29
362.30	1734.63
362.51	1673.19
362.72	1703.91
362.93	1695.72
363.14	1740.77
363.35	1789.92
363.56	1632.23
363.78	1767.40
363.99	1753.06
364.20	1609.70
364.41	1708.01
364.62	1794.02
364.83	1646.57
365.04	1628.14
365.25	1724.39
365.46	1857.51
365.67	1662.95
365.88	1669.09
366.09	1746.92
366.30	1703.91
366.51	1654.76
366.72	1671.14
366.93	1730.53
367.14	1669.09
367.35	1767.40
367.56	1685.48
367.77	1714.15
367.98	1669.09
368.18	1744.87
368.39	1781.73
368.60	1710.05
368.81	1849.32
369.02	1720.29
369.23	1748.97
369.44	1665.00
369.65	1677.29
369.86	1699.81
370.07	1794.02
370.28	1744.87
370.49	1726.44
370.70	1789.92
370.91	1619.94
371.12	1671.14
371.33	1832.93
371.54	1615.85
371.75	1802.21
371.96	1705.96
372.17	1695.72
372.38	1722.34
372.59	1724.39
372.80	1662.95
373.01	1703.91
373.22	1769.44
373.43	1779.68
373.64	1691.62
373.85	1802.21
374.06	1794.02
374.26	1789.92
374.47	1685.48
374.68	1765.35
374.89	1722.34
375.10	1693.67
375.31	1794.02
375.52	1748.97
375.73	1697.77
375.94	1677.29
376.15	1755.11
376.36	1644.52
376.57	1650.66
376.78	1718.25
376.99	1685.48
377.20	1802.21
377.40	1726.44
377.61	1857.51
377.82	1587.18
378.03	1785.83
378.24	1753.06
378.45	1689.57
378.66	1689.57
378.87	1677.29
379.08	1656.81
379.29	1660.90
379.50	1787.88
379.71	1693.67
379.91	1734.63
380.12	1681.38
380.33	1804.26
380.54	1714.15
380.75	1753.06
380.96	1740.77
381.17	1761.25
381.38	1728.49
381.59	1734.63
381.80	1781.73
382.00	1855.46
382.21	1753.06
382.42	1865.70
382.63	1812.45
382.84	1773.54
383.05	1789.92
383.26	1751.01
383.47	1724.39
383.68	1812.45
383.88	1689.57
384.09	1716.20
384.30	1820.64
384.51	1732.58
384.72	1705.96
384.93	1626.09
385.14	1742.82
385.35	1710.05
385.55	1654.76
385.76	1751.01
385.97	1722.34
386.18	1656.81
386.39	1734.63
386.60	1673.19
386.81	1802.21
387.02	1595.37
387.22	1642.47
387.43	1755.11
387.64	1783.78
387.85	1939.43
388.06	2189.28
388.27	4138.94
388.48	6631.32
388.68	7987.08
388.89	9250.67
389.10	9527.15
389.31	8345.47
389.52	7358.35
389.73	6541.21
389.93	6229.92
390.14	5623.72
390.35	5103.54
390.56	4456.38
390.77	3798.98
390.98	2940.88
391.18	2443.23
391.39	2150.37
391.60	1877.99
391.81	1804.26
392.02	1695.72
392.23	1816.55
392.43	1714.15
392.64	1769.44
392.85	1746.92
393.06	1802.21
393.27	1810.40
393.47	1652.71
393.68	1794.02
393.89	1658.85
394.10	1798.12
394.31	1689.57
394.52	1738.73
394.72	1724.39
394.93	1767.40
395.14	1681.38
395.35	1705.96
395.56	1732.58
395.76	1763.30
395.97	1783.78
396.18	1855.46
396.39	1824.74
396.60	1974.24
396.80	1869.80
397.01	1929.19
397.22	1865.70
397.43	1857.51
397.64	1681.38
397.84	1779.68
398.05	1904.61
398.26	1761.25
398.47	1783.78
398.67	1757.16
398.88	1724.39
399.09	1769.44
399.30	1660.90
399.51	1796.07
399.71	1703.91
399.92	1761.25
400.13	1736.68
400.34	1697.77
400.54	1677.29
400.75	1787.88
400.96	1834.98
401.17	1783.78
401.37	1755.11
401.58	1605.61
401.79	1669.09
402.00	1843.17
402.21	2078.69
402.41	2000.87
402.62	2009.06
402.83	2050.02
403.04	1988.58
403.24	2176.99
403.45	1984.48
403.66	1853.41
403.87	1880.04
404.07	1865.70
404.28	1896.42
404.49	1816.55
404.70	1808.36
404.90	1769.44
405.11	1722.34
405.32	1812.45
405.52	1732.58
405.73	1689.57
405.94	1683.43
406.15	1615.85
406.35	1787.88
406.56	1806.31
406.77	1720.29
406.98	1771.49
407.18	1636.33
407.39	1820.64
407.60	1748.97
407.80	1751.01
408.01	1669.09
408.22	1736.68
408.43	1738.73
408.63	1791.97
408.84	1705.96
409.05	1757.16
409.25	1654.76
409.46	1677.29
409.67	1646.57
409.88	1673.19
410.08	1736.68
410.29	1640.42
410.50	1781.73
410.70	1759.21
410.91	1605.61
411.12	1685.48
411.32	1730.53
411.53	1609.70
411.74	1761.25
411.95	1736.68
412.15	1810.40
412.36	1859.56
412.57	1677.29
412.77	1806.31
412.98	1734.63
413.19	1751.01
413.39	1759.21
413.60	1757.16
413.81	1781.73
414.01	1642.47
414.22	1773.54
414.43	1904.61
414.63	1757.16
414.84	1656.81
415.05	1708.01
415.25	1695.72
415.46	1705.96
415.67	1654.76
415.87	1669.09
416.08	1753.06
416.29	1677.29
416.49	1800.16
416.70	1632.23
416.91	1720.29
417.11	1722.34
417.32	1730.53
417.53	1800.16
417.73	1761.25
417.94	1742.82
418.15	1746.92
418.35	1755.11
418.56	1693.67
418.77	1839.08
418.97	1683.43
419.18	1636.33
419.38	1669.09
419.59	1740.77
419.80	1800.16
420.00	1665.00
420.21	1746.92
420.42	1763.30
420.62	1685.48
420.83	1611.75
421.04	1757.16
421.24	1699.81
421.45	1769.44
421.65	1806.31
421.86	1691.62
422.07	1736.68
422.27	1708.01
422.48	1769.44
422.69	1630.18
422.89	1669.09
423.10	1732.58
423.30	1710.05
423.51	1687.53
423.72	1726.44
423.92	1755.11
424.13	1648.61
424.33	1705.96
424.54	1814.50
424.75	1734.63
424.95	1816.55
425.16	1767.40
425.36	1748.97
425.57	1837.03
425.78	1763.30
425.98	1789.92
426.19	1687.53
426.39	1669.09
426.60	1710.05
426.81	1804.26
427.01	1718.25
427.22	1603.56
427.42	1617.90
427.63	1699.81
427.83	1845.22
428.04	1845.22
428.25	1814.50
428.45	1822.69
428.66	1751.01
428.86	1738.73
429.07	1626.09
429.28	1691.62
429.48	1691.62
429.69	1642.47
429.89	1726.44
430.10	1746.92
430.30	1759.21
430.51	1691.62
430.71	1701.86
430.92	1708.01
431.13	1724.39
431.33	1810.40
431.54	1771.49
431.74	1787.88
431.95	1822.69
432.15	1656.81
432.36	1714.15
432.56	1820.64
432.77	1845.22
432.98	1814.50
433.18	1730.53
433.39	1746.92
433.59	1740.77
433.80	1869.80
434.00	1867.75
434.21	1691.62
434.41	1652.71
434.62	1951.71
434.82	1673.19
435.03	1609.70
435.23	1689.57
435.44	1656.81
435.64	1787.88
435.85	1740.77
436.06	1742.82
436.26	1742.82
436.47	1740.77
436.67	1722.34
436.88	1755.11
437.08	1751.01
437.29	1796.07
437.49	1685.48
437.70	1724.39
437.90	1693.67
438.11	1816.55
438.31	1794.02
438.52	1855.46
438.72	1828.84
438.93	1847.27
439.13	1845.22
439.34	1818.60
439.54	1748.97
439.75	1746.92
439.95	1775.59
440.16	1724.39
440.36	1728.49
440.57	1789.92
440.77	1810.40
440.98	1730.53
441.18	1787.88
441.39	1751.01
441.59	1738.73
441.80	1781.73
442.00	1730.53
442.21	1845.22
442.41	1619.94
442.62	1787.88
442.82	1658.85
443.02	1712.10
443.23	1744.87
443.43	1716.20
443.64	1777.64
443.84	1644.52
444.05	1748.97
444.25	1822.69
444.46	1716.20
444.66	1714.15
444.87	1853.41
445.07	1644.52
445.28	1732.58
445.48	1798.12
445.69	1769.44
445.89	1814.50
446.09	1818.60
446.30	1961.95
446.50	2666.46
446.71	3682.25
446.91	4272.06
447.12	4636.60
447.32	4802.49
447.53	4280.25
447.73	3784.65
447.93	3540.94
448.14	3424.20
448.34	3131.34
448.55	2830.29
448.75	2889.68
448.96	2680.79
449.16	2420.70
449.36	2297.82
449.57	1992.67
449.77	1918.95
449.98	1759.21
450.18	1814.50
450.39	1781.73
450.59	1814.50
450.79	1730.53
451.00	1738.73
451.20	1839.08
451.41	1728.49
451.61	1791.97
451.81	1791.97
452.02	1699.81
452.22	1716.20
452.43	1683.43
452.63	1722.34
