SpectraSuite Data File
++++++++++++++++++++++++++++++++++++
Date: Mon Jun 06 13:24:37 CEST 2016
User: root
Dark Spectrum Present: No
Reference Spectrum Present: No
Number of Sampled Component Spectra: 1
Spectrometers: USB4C02835
Integration Time (usec): 100000 (USB4C02835)
Spectra Averaged: 1 (USB4C02835)
Boxcar Smoothing: 0 (USB4C02835)
Correct for Electrical Dark: No (USB4C02835)
Strobe/Lamp Enabled: No (USB4C02835)
Correct for Detector Non-linearity: No (USB4C02835)
Correct for Stray Light: No (USB4C02835)
Number of Pixels in Processed Spectrum: 3648
>>>>>Begin Processed Spectral Data<<<<<
177.47	1464.30
177.69	1464.30
177.91	1464.30
178.13	1472.49
178.36	1458.15
178.58	1683.43
178.80	1701.86
179.02	1621.99
179.24	1615.85
179.46	1708.01
179.68	1757.16
179.90	1683.43
180.13	1691.62
180.35	1644.52
180.57	1775.59
180.79	1767.40
181.01	1656.81
181.23	1736.68
181.45	1830.88
181.67	1701.86
181.90	1777.64
182.12	1689.57
182.34	1751.01
182.56	1763.30
182.78	1757.16
183.00	1617.90
183.22	1697.77
183.44	1650.66
183.66	1816.55
183.89	1837.03
184.11	1648.61
184.33	1765.35
184.55	1720.29
184.77	1685.48
184.99	1705.96
185.21	1581.03
185.43	1814.50
185.65	1636.33
185.87	1736.68
186.10	1761.25
186.32	1902.56
186.54	1695.72
186.76	1742.82
186.98	1738.73
187.20	1691.62
187.42	1751.01
187.64	1773.54
187.86	1697.77
188.08	1800.16
188.30	1769.44
188.52	1636.33
188.75	1742.82
188.97	1791.97
189.19	1644.52
189.41	1718.25
189.63	1722.34
189.85	1642.47
190.07	1628.14
190.29	1640.42
190.51	1701.86
190.73	1634.28
190.95	1746.92
191.17	1710.05
191.39	1624.04
191.61	1701.86
191.84	1640.42
192.06	1705.96
192.28	1611.75
192.50	1900.52
192.72	1691.62
192.94	1675.24
193.16	1738.73
193.38	1636.33
193.60	1607.66
193.82	1703.91
194.04	1744.87
194.26	1624.04
194.48	1716.20
194.70	1710.05
194.92	1681.38
195.14	1726.44
195.36	1673.19
195.58	1669.09
195.80	1734.63
196.02	1718.25
196.24	1648.61
196.46	1720.29
196.69	1648.61
196.91	1830.88
197.13	1701.86
197.35	1705.96
197.57	1726.44
197.79	1734.63
198.01	1716.20
198.23	1640.42
198.45	1630.18
198.67	1689.57
198.89	1677.29
199.11	1695.72
199.33	1683.43
199.55	1617.90
199.77	1687.53
199.99	1730.53
200.21	1652.71
200.43	1675.24
200.65	1613.80
200.87	1611.75
201.09	1665.00
201.31	1673.19
201.53	1716.20
201.75	1767.40
201.97	1675.24
202.19	1705.96
202.41	1742.82
202.63	1773.54
202.85	1730.53
203.07	1652.71
203.29	1708.01
203.51	1609.70
203.73	1646.57
203.95	1906.66
204.17	1710.05
204.39	1714.15
204.61	1714.15
204.83	1656.81
205.05	1671.14
205.27	1755.11
205.49	1794.02
205.71	1671.14
205.93	1671.14
206.15	1675.24
206.37	1701.86
206.59	1679.33
206.81	1611.75
207.03	1648.61
207.25	1638.38
207.47	1734.63
207.69	1708.01
207.91	1787.88
208.13	1734.63
208.34	1708.01
208.56	1628.14
208.78	1738.73
209.00	1638.38
209.22	1667.05
209.44	1626.09
209.66	1669.09
209.88	1683.43
210.10	1673.19
210.32	1726.44
210.54	1755.11
210.76	1714.15
210.98	1732.58
211.20	1624.04
211.42	1701.86
211.64	1832.93
211.86	1724.39
212.08	1720.29
212.30	1718.25
212.52	1662.95
212.74	1685.48
212.96	1607.66
213.17	1751.01
213.39	1708.01
213.61	1726.44
213.83	1773.54
214.05	1621.99
214.27	1794.02
214.49	1718.25
214.71	1738.73
214.93	1685.48
215.15	1722.34
215.37	1740.77
215.59	1638.38
215.81	1775.59
216.03	1683.43
216.24	1632.23
216.46	1667.05
216.68	1665.00
216.90	1796.07
217.12	1722.34
217.34	1683.43
217.56	1716.20
217.78	1789.92
218.00	1759.21
218.22	1728.49
218.44	1718.25
218.66	1697.77
218.87	1763.30
219.09	1697.77
219.31	1687.53
219.53	1640.42
219.75	1710.05
219.97	1677.29
220.19	1755.11
220.41	1701.86
220.63	1724.39
220.85	1757.16
221.06	1646.57
221.28	1826.79
221.50	1712.10
221.72	1642.47
221.94	1714.15
222.16	1619.94
222.38	1728.49
222.60	1820.64
222.82	1652.71
223.03	1722.34
223.25	1621.99
223.47	1732.58
223.69	1779.68
223.91	1767.40
224.13	1738.73
224.35	1681.38
224.57	1773.54
224.78	1642.47
225.00	1574.89
225.22	1660.90
225.44	1708.01
225.66	1767.40
225.88	1609.70
226.10	1742.82
226.32	1732.58
226.53	1771.49
226.75	1683.43
226.97	1703.91
227.19	1691.62
227.41	1683.43
227.63	1648.61
227.85	1593.32
228.06	1681.38
228.28	1701.86
228.50	1769.44
228.72	1714.15
228.94	1662.95
229.16	1656.81
229.37	1665.00
229.59	1703.91
229.81	1798.12
230.03	1650.66
230.25	1652.71
230.47	1597.42
230.69	1628.14
230.90	1751.01
231.12	1617.90
231.34	1710.05
231.56	1703.91
231.78	1638.38
232.00	1767.40
232.21	1671.14
232.43	1701.86
232.65	1613.80
232.87	1703.91
233.09	1699.81
233.30	1656.81
233.52	1753.06
233.74	1691.62
233.96	1681.38
234.18	1738.73
234.40	1642.47
234.61	1824.74
234.83	1611.75
235.05	1634.28
235.27	1796.07
235.49	1759.21
235.70	1730.53
235.92	1763.30
236.14	1673.19
236.36	1834.98
236.58	1617.90
236.79	1718.25
237.01	1699.81
237.23	1697.77
237.45	1851.36
237.67	1644.52
237.88	1683.43
238.10	1773.54
238.32	1656.81
238.54	1699.81
238.76	1730.53
238.97	1669.09
239.19	1665.00
239.41	1726.44
239.63	1794.02
239.85	1646.57
240.06	1683.43
240.28	1611.75
240.50	1751.01
240.72	1730.53
240.93	1642.47
241.15	1755.11
241.37	1660.90
241.59	1744.87
241.81	1691.62
242.02	1693.67
242.24	1683.43
242.46	1681.38
242.68	1599.46
242.89	1695.72
243.11	1738.73
243.33	1626.09
243.55	1648.61
243.76	1751.01
243.98	1705.96
244.20	1632.23
244.42	1697.77
244.64	1697.77
244.85	1636.33
245.07	1615.85
245.29	1693.67
245.51	1705.96
245.72	1665.00
245.94	1791.97
246.16	1771.49
246.38	1724.39
246.59	1691.62
246.81	1656.81
247.03	1673.19
247.24	1605.61
247.46	1619.94
247.68	1734.63
247.90	1722.34
248.11	1656.81
248.33	1734.63
248.55	1714.15
248.77	1710.05
248.98	1748.97
249.20	1755.11
249.42	1734.63
249.64	1734.63
249.85	1691.62
250.07	1660.90
250.29	1753.06
250.50	1726.44
250.72	1595.37
250.94	1697.77
251.16	1767.40
251.37	1730.53
251.59	1691.62
251.81	1708.01
252.02	1691.62
252.24	1613.80
252.46	1734.63
252.68	1685.48
252.89	1738.73
253.11	1697.77
253.33	1882.08
253.54	1722.34
253.76	1634.28
253.98	1619.94
254.20	1669.09
254.41	1626.09
254.63	1687.53
254.85	1665.00
255.06	1660.90
255.28	1740.77
255.50	1710.05
255.71	1601.51
255.93	1585.13
256.15	1640.42
256.36	1701.86
256.58	1656.81
256.80	1763.30
257.02	1703.91
257.23	1665.00
257.45	1667.05
257.67	1751.01
257.88	1710.05
258.10	1767.40
258.32	1705.96
258.53	1718.25
258.75	1777.64
258.97	1640.42
259.18	1761.25
259.40	1667.05
259.62	1765.35
259.83	1746.92
260.05	1771.49
260.27	2000.87
260.48	1744.87
260.70	1632.23
260.92	1665.00
261.13	1742.82
261.35	1718.25
261.57	1730.53
261.78	1611.75
262.00	1566.70
262.22	1808.36
262.43	1669.09
262.65	1644.52
262.86	1638.38
263.08	1832.93
263.30	1705.96
263.51	1597.42
263.73	1640.42
263.95	1804.26
264.16	1654.76
264.38	1636.33
264.60	1728.49
264.81	1519.59
265.03	1734.63
265.25	1652.71
265.46	1736.68
265.68	1757.16
265.89	1789.92
266.11	1693.67
266.33	1693.67
266.54	1837.03
266.76	1703.91
266.98	1683.43
267.19	1779.68
267.41	1726.44
267.62	1705.96
267.84	1605.61
268.06	1708.01
268.27	1621.99
268.49	1779.68
268.70	1789.92
268.92	1669.09
269.14	1660.90
269.35	1609.70
269.57	1685.48
269.79	1775.59
270.00	1693.67
270.22	1755.11
270.43	1689.57
270.65	1578.98
270.87	1613.80
271.08	1794.02
271.30	1732.58
271.51	1724.39
271.73	1708.01
271.95	1757.16
272.16	1736.68
272.38	1728.49
272.59	1683.43
272.81	1710.05
273.02	1679.33
273.24	1822.69
273.46	1710.05
273.67	1687.53
273.89	1705.96
274.10	1658.85
274.32	1710.05
274.54	1689.57
274.75	1652.71
274.97	1681.38
275.18	1699.81
275.40	1751.01
275.61	1708.01
275.83	1722.34
276.05	1615.85
276.26	1669.09
276.48	1681.38
276.69	1703.91
276.91	1658.85
277.12	1740.77
277.34	1718.25
277.55	1710.05
277.77	1665.00
277.99	1744.87
278.20	1687.53
278.42	1587.18
278.63	1665.00
278.85	1681.38
279.06	1667.05
279.28	1751.01
279.49	1769.44
279.71	1730.53
279.93	1699.81
280.14	1753.06
280.36	1683.43
280.57	1669.09
280.79	1785.83
281.00	1589.22
281.22	1634.28
281.43	1787.88
281.65	1603.56
281.86	1665.00
282.08	1685.48
282.29	1804.26
282.51	1566.70
282.73	1652.71
282.94	1583.08
283.16	1740.77
283.37	1759.21
283.59	1759.21
283.80	1632.23
284.02	1689.57
284.23	1753.06
284.45	1765.35
284.66	1654.76
284.88	1644.52
285.09	1712.10
285.31	1755.11
285.52	1697.77
285.74	1671.14
285.95	1708.01
286.17	1771.49
286.38	1812.45
286.60	1607.66
286.81	1650.66
287.03	1638.38
287.24	1669.09
287.46	1714.15
287.67	1691.62
287.89	1853.41
288.10	1656.81
288.32	1660.90
288.53	1751.01
288.75	1722.34
288.96	1759.21
289.18	1626.09
289.39	1771.49
289.61	1710.05
289.82	1771.49
290.04	1802.21
290.25	1617.90
290.47	1718.25
290.68	1667.05
290.90	1703.91
291.11	1587.18
291.33	1703.91
291.54	1673.19
291.76	1587.18
291.97	1716.20
292.18	1738.73
292.40	1712.10
292.61	1533.93
292.83	1796.07
293.04	1773.54
293.26	1728.49
293.47	1603.56
293.69	1593.32
293.90	1652.71
294.12	1777.64
294.33	1724.39
294.55	1681.38
294.76	1689.57
294.97	1791.97
295.19	1779.68
295.40	1736.68
295.62	1765.35
295.83	1759.21
296.05	1724.39
296.26	1722.34
296.48	1689.57
296.69	1681.38
296.90	1628.14
297.12	1669.09
297.33	1767.40
297.55	1753.06
297.76	1744.87
297.98	1738.73
298.19	1667.05
298.41	1722.34
298.62	1628.14
298.83	1781.73
299.05	1779.68
299.26	1697.77
299.48	1562.60
299.69	1732.58
299.90	1748.97
300.12	1669.09
300.33	1673.19
300.55	1787.88
300.76	1716.20
300.98	1669.09
301.19	1814.50
301.40	1662.95
301.62	1619.94
301.83	1726.44
302.05	1632.23
302.26	1695.72
302.47	1722.34
302.69	1630.18
302.90	1679.33
303.12	1615.85
303.33	1763.30
303.54	1845.22
303.76	1642.47
303.97	1787.88
304.19	1800.16
304.40	1677.29
304.61	1720.29
304.83	1771.49
305.04	1773.54
305.26	1677.29
305.47	1673.19
305.68	1683.43
305.90	1595.37
306.11	1714.15
306.33	1621.99
306.54	1697.77
306.75	1681.38
306.97	1601.51
307.18	1644.52
307.39	1708.01
307.61	1779.68
307.82	1636.33
308.04	1660.90
308.25	1662.95
308.46	1685.48
308.68	1687.53
308.89	1660.90
309.10	1794.02
309.32	1714.15
309.53	1667.05
309.74	1738.73
309.96	1654.76
310.17	1751.01
310.39	1673.19
310.60	1699.81
310.81	1673.19
311.03	1548.26
311.24	1738.73
311.45	1783.78
311.67	1892.32
311.88	1634.28
312.09	1671.14
312.31	1779.68
312.52	1667.05
312.73	1691.62
312.95	1656.81
313.16	1587.18
313.37	1818.60
313.59	1628.14
313.80	1730.53
314.01	1785.83
314.23	1626.09
314.44	1738.73
314.65	1613.80
314.87	1691.62
315.08	1632.23
315.29	1705.96
315.51	1638.38
315.72	1685.48
315.93	1828.84
316.15	1779.68
316.36	1695.72
316.57	1673.19
316.79	1761.25
317.00	1722.34
317.21	1720.29
317.43	1724.39
317.64	1675.24
317.85	1632.23
318.07	1660.90
318.28	1640.42
318.49	1712.10
318.70	1918.95
318.92	1800.16
319.13	1781.73
319.34	1912.80
319.56	1789.92
319.77	1791.97
319.98	1773.54
320.20	1716.20
320.41	1787.88
320.62	1720.29
320.83	1669.09
321.05	1818.60
321.26	1748.97
321.47	1722.34
321.69	1769.44
321.90	1675.24
322.11	1714.15
322.32	1654.76
322.54	1777.64
322.75	1650.66
322.96	1818.60
323.18	1619.94
323.39	1572.84
323.60	1646.57
323.81	1757.16
324.03	1677.29
324.24	1744.87
324.45	1763.30
324.66	1632.23
324.88	1730.53
325.09	1810.40
325.30	1689.57
325.52	1755.11
325.73	1683.43
325.94	1697.77
326.15	1605.61
326.37	1667.05
326.58	1673.19
326.79	1798.12
327.00	1677.29
327.22	1693.67
327.43	1644.52
327.64	1714.15
327.85	1744.87
328.07	1718.25
328.28	1738.73
328.49	1710.05
328.70	1640.42
328.92	1648.61
329.13	1736.68
329.34	1669.09
329.55	1767.40
329.76	1718.25
329.98	1705.96
330.19	1773.54
330.40	1798.12
330.61	1734.63
330.83	1783.78
331.04	1665.00
331.25	1695.72
331.46	1656.81
331.68	1638.38
331.89	1789.92
332.10	1691.62
332.31	1669.09
332.52	1730.53
332.74	1738.73
332.95	1578.98
333.16	1787.88
333.37	1783.78
333.58	1654.76
333.80	1697.77
334.01	1601.51
334.22	1687.53
334.43	1705.96
334.64	1726.44
334.86	1656.81
335.07	1646.57
335.28	1775.59
335.49	1595.37
335.70	1759.21
335.92	1826.79
336.13	1785.83
336.34	1714.15
336.55	1753.06
336.76	1703.91
336.98	1578.98
337.19	1701.86
337.40	1779.68
337.61	1802.21
337.82	1656.81
338.04	1705.96
338.25	1597.42
338.46	1718.25
338.67	1710.05
338.88	1554.41
339.09	1681.38
339.31	1628.14
339.52	1634.28
339.73	1761.25
339.94	1701.86
340.15	1742.82
340.36	1634.28
340.58	1712.10
340.79	1607.66
341.00	1724.39
341.21	1570.79
341.42	1812.45
341.63	1691.62
341.85	1681.38
342.06	1697.77
342.27	1578.98
342.48	1714.15
342.69	1648.61
342.90	1703.91
343.12	1679.33
343.33	1705.96
343.54	1712.10
343.75	1796.07
343.96	1757.16
344.17	1665.00
344.38	1687.53
344.60	1621.99
344.81	1681.38
345.02	1705.96
345.23	1714.15
345.44	1763.30
345.65	1769.44
345.86	1679.33
346.07	1667.05
346.29	1693.67
346.50	1769.44
346.71	1701.86
346.92	1826.79
347.13	1755.11
347.34	1683.43
347.55	1689.57
347.76	1699.81
347.98	1636.33
348.19	1648.61
348.40	1800.16
348.61	1701.86
348.82	1748.97
349.03	1695.72
349.24	1687.53
349.45	1783.78
349.66	1599.46
349.88	1632.23
350.09	1675.24
350.30	1773.54
350.51	1734.63
350.72	1738.73
350.93	1671.14
351.14	1681.38
351.35	1677.29
351.56	1732.58
351.77	1675.24
351.99	1771.49
352.20	1820.64
352.41	1773.54
352.62	1544.17
352.83	1714.15
353.04	1691.62
353.25	1642.47
353.46	1808.36
353.67	1742.82
353.88	1619.94
354.09	1662.95
354.30	1673.19
354.52	1796.07
354.73	1650.66
354.94	1763.30
355.15	1779.68
355.36	1800.16
355.57	1673.19
355.78	1769.44
355.99	1662.95
356.20	1660.90
356.41	1660.90
356.62	1732.58
356.83	1763.30
357.04	1781.73
357.25	1576.94
357.46	1658.85
357.68	1617.90
357.89	1665.00
358.10	1718.25
358.31	1679.33
358.52	1724.39
358.73	1574.89
358.94	1632.23
359.15	1615.85
359.36	1783.78
359.57	1703.91
359.78	1628.14
359.99	1621.99
360.20	1640.42
360.41	1710.05
360.62	1677.29
360.83	1718.25
361.04	1734.63
361.25	1732.58
361.46	1712.10
361.67	1744.87
361.88	1734.63
362.09	1796.07
362.30	1718.25
362.51	1603.56
362.72	1699.81
362.93	1769.44
363.14	1699.81
363.35	1679.33
363.56	1609.70
363.78	1650.66
363.99	1789.92
364.20	1783.78
364.41	1726.44
364.62	1800.16
364.83	1683.43
365.04	1642.47
365.25	1718.25
365.46	1814.50
365.67	1607.66
365.88	1667.05
366.09	1732.58
366.30	1695.72
366.51	1685.48
366.72	1660.90
366.93	1730.53
367.14	1667.05
367.35	1734.63
367.56	1626.09
367.77	1802.21
367.98	1685.48
368.18	1724.39
368.39	1734.63
368.60	1617.90
368.81	1681.38
369.02	1617.90
369.23	1648.61
369.44	1656.81
369.65	1677.29
369.86	1699.81
370.07	1718.25
370.28	1656.81
370.49	1689.57
370.70	1673.19
370.91	1691.62
371.12	1642.47
371.33	1812.45
371.54	1632.23
371.75	1898.47
371.96	1576.94
372.17	1718.25
372.38	1685.48
372.59	1828.84
372.80	1626.09
373.01	1640.42
373.22	1646.57
373.43	1695.72
373.64	1648.61
373.85	1732.58
374.06	1759.21
374.26	1804.26
374.47	1675.24
374.68	1699.81
374.89	1712.10
375.10	1652.71
375.31	1855.46
375.52	1695.72
375.73	1669.09
375.94	1634.28
376.15	1832.93
376.36	1714.15
376.57	1613.80
376.78	1691.62
376.99	1826.79
377.20	1767.40
377.40	1658.85
377.61	1765.35
377.82	1617.90
378.03	1802.21
378.24	1732.58
378.45	1740.77
378.66	1658.85
378.87	1652.71
379.08	1634.28
379.29	1634.28
379.50	1757.16
379.71	1697.77
379.91	1767.40
380.12	1708.01
380.33	1675.24
380.54	1642.47
380.75	1708.01
380.96	1738.73
381.17	1691.62
381.38	1746.92
381.59	1724.39
381.80	1759.21
382.00	1816.55
382.21	1703.91
382.42	1738.73
382.63	1837.03
382.84	1697.77
383.05	1753.06
383.26	1832.93
383.47	1761.25
383.68	1765.35
383.88	1742.82
384.09	1710.05
384.30	1796.07
384.51	1789.92
384.72	1658.85
384.93	1642.47
385.14	1748.97
385.35	1769.44
385.55	1609.70
385.76	1695.72
385.97	1742.82
386.18	1615.85
386.39	1681.38
386.60	1726.44
386.81	1734.63
387.02	1624.04
387.22	1712.10
387.43	1757.16
387.64	1771.49
387.85	1859.56
388.06	2246.62
388.27	4171.71
388.48	6768.54
388.68	8218.50
388.89	9629.55
389.10	9795.43
389.31	8501.12
389.52	7649.16
389.73	6715.29
389.93	6254.50
390.14	5818.28
390.35	5199.79
390.56	4556.73
390.77	3782.60
390.98	2994.13
391.18	2451.42
391.39	2090.98
391.60	1894.37
391.81	1826.79
392.02	1730.53
392.23	1771.49
392.43	1728.49
392.64	1779.68
392.85	1642.47
393.06	1837.03
393.27	1642.47
393.47	1673.19
393.68	1738.73
393.89	1603.56
394.10	1767.40
394.31	1695.72
394.52	1646.57
394.72	1671.14
394.93	1769.44
395.14	1701.86
395.35	1740.77
395.56	1675.24
395.76	1693.67
395.97	1765.35
396.18	1802.21
396.39	1824.74
396.60	1990.63
396.80	1943.52
397.01	1822.69
397.22	1824.74
397.43	1839.08
397.64	1662.95
397.84	1755.11
398.05	1916.90
398.26	1728.49
398.47	1810.40
398.67	1757.16
398.88	1738.73
399.09	1794.02
399.30	1673.19
399.51	1738.73
399.71	1613.80
399.92	1665.00
400.13	1789.92
400.34	1689.57
400.54	1597.42
400.75	1820.64
400.96	1705.96
401.17	1816.55
401.37	1775.59
401.58	1734.63
401.79	1767.40
402.00	1873.89
402.21	2015.20
402.41	1904.61
402.62	1945.57
402.83	2029.54
403.04	2060.26
403.24	2129.89
403.45	1826.79
403.66	1955.81
403.87	1849.32
404.07	1914.85
404.28	1902.56
404.49	1841.12
404.70	1746.92
404.90	1771.49
405.11	1759.21
405.32	1726.44
405.52	1765.35
405.73	1662.95
405.94	1679.33
406.15	1771.49
406.35	1777.64
406.56	1705.96
406.77	1656.81
406.98	1734.63
407.18	1667.05
407.39	1830.88
407.60	1710.05
407.80	1732.58
408.01	1609.70
408.22	1712.10
408.43	1710.05
408.63	1699.81
408.84	1730.53
409.05	1730.53
409.25	1656.81
409.46	1677.29
409.67	1681.38
409.88	1638.38
410.08	1710.05
410.29	1718.25
410.50	1697.77
410.70	1781.73
410.91	1656.81
411.12	1652.71
411.32	1748.97
411.53	1652.71
411.74	1824.74
411.95	1753.06
412.15	1773.54
412.36	1738.73
412.57	1734.63
412.77	1812.45
412.98	1740.77
413.19	1705.96
413.39	1781.73
413.60	1730.53
413.81	1769.44
414.01	1763.30
414.22	1734.63
414.43	1714.15
414.63	1734.63
414.84	1716.20
415.05	1681.38
415.25	1652.71
415.46	1685.48
415.67	1640.42
415.87	1751.01
416.08	1718.25
416.29	1691.62
416.49	1683.43
416.70	1728.49
416.91	1605.61
417.11	1697.77
417.32	1740.77
417.53	1804.26
417.73	1724.39
417.94	1626.09
418.15	1722.34
418.35	1658.85
418.56	1660.90
418.77	1751.01
418.97	1722.34
419.18	1656.81
419.38	1599.46
419.59	1695.72
419.80	1800.16
420.00	1665.00
420.21	1714.15
420.42	1841.12
420.62	1716.20
420.83	1644.52
421.04	1730.53
421.24	1636.33
421.45	1796.07
421.65	1783.78
421.86	1697.77
422.07	1734.63
422.27	1738.73
422.48	1681.38
422.69	1693.67
422.89	1720.29
423.10	1652.71
423.30	1607.66
423.51	1724.39
423.72	1744.87
423.92	1738.73
424.13	1632.23
424.33	1767.40
424.54	1665.00
424.75	1705.96
424.95	1744.87
425.16	1662.95
425.36	1724.39
425.57	1806.31
425.78	1746.92
425.98	1765.35
426.19	1615.85
426.39	1714.15
426.60	1699.81
426.81	1791.97
427.01	1728.49
427.22	1660.90
427.42	1574.89
427.63	1640.42
427.83	1708.01
428.04	1861.60
428.25	1751.01
428.45	1761.25
428.66	1826.79
428.86	1654.76
429.07	1689.57
429.28	1761.25
429.48	1597.42
429.69	1675.24
429.89	1787.88
430.10	1624.04
430.30	1689.57
430.51	1724.39
430.71	1689.57
430.92	1638.38
431.13	1669.09
431.33	1632.23
431.54	1605.61
431.74	1789.92
431.95	1779.68
432.15	1644.52
432.36	1687.53
432.56	1753.06
432.77	1777.64
432.98	1816.55
433.18	1697.77
433.39	1712.10
433.59	1691.62
433.80	1867.75
434.00	1857.51
434.21	1701.86
434.41	1644.52
434.62	1826.79
434.82	1626.09
435.03	1656.81
435.23	1800.16
435.44	1533.93
435.64	1718.25
435.85	1765.35
436.06	1742.82
436.26	1796.07
436.47	1693.67
436.67	1669.09
436.88	1705.96
437.08	1703.91
437.29	1802.21
437.49	1787.88
437.70	1820.64
437.90	1724.39
438.11	1890.28
438.31	1791.97
438.52	1861.60
438.72	1834.98
438.93	1896.42
439.13	1791.97
439.34	1832.93
439.54	1728.49
439.75	1785.83
439.95	1837.03
440.16	1613.80
440.36	1699.81
440.57	1751.01
440.77	1722.34
440.98	1769.44
441.18	1740.77
441.39	1689.57
441.59	1628.14
441.80	1851.36
442.00	1669.09
442.21	1837.03
442.41	1640.42
442.62	1812.45
442.82	1705.96
443.02	1740.77
443.23	1798.12
443.43	1628.14
443.64	1808.36
443.84	1701.86
444.05	1714.15
444.25	1757.16
444.46	1708.01
444.66	1710.05
444.87	1841.12
445.07	1644.52
445.28	1712.10
445.48	1855.46
445.69	1738.73
445.89	1806.31
446.09	1722.34
446.30	2011.11
446.50	2662.36
446.71	3733.45
446.91	4263.87
447.12	4755.38
447.32	4829.11
447.53	4319.17
447.73	3885.00
447.93	3479.50
448.14	3278.80
448.34	3137.49
448.55	2897.88
448.75	2865.11
448.96	2785.24
449.16	2373.60
449.36	2336.73
449.57	2058.21
449.77	1920.99
449.98	1757.16
450.18	1841.12
450.39	1746.92
450.59	1798.12
450.79	1742.82
451.00	1714.15
451.20	1718.25
451.41	1724.39
451.61	1818.60
451.81	1708.01
452.02	1669.09
452.22	1710.05
452.43	1708.01
452.63	1697.77
