SpectraSuite Data File
++++++++++++++++++++++++++++++++++++
Date: Mon Jun 06 15:33:17 CEST 2016
User: root
Dark Spectrum Present: No
Reference Spectrum Present: No
Number of Sampled Component Spectra: 1
Spectrometers: USB4C02835
Integration Time (usec): 100000 (USB4C02835)
Spectra Averaged: 1 (USB4C02835)
Boxcar Smoothing: 0 (USB4C02835)
Correct for Electrical Dark: No (USB4C02835)
Strobe/Lamp Enabled: No (USB4C02835)
Correct for Detector Non-linearity: No (USB4C02835)
Correct for Stray Light: No (USB4C02835)
Number of Pixels in Processed Spectrum: 3648
>>>>>Begin Processed Spectral Data<<<<<
177.47	1435.63
177.69	1435.63
177.91	1435.63
178.13	1419.24
178.36	1476.59
178.58	1697.77
178.80	1681.38
179.02	1656.81
179.24	1648.61
179.46	1693.67
179.68	1712.10
179.90	1667.05
180.13	1787.88
180.35	1669.09
180.57	1705.96
180.79	1763.30
181.01	1701.86
181.23	1789.92
181.45	1820.64
181.67	1794.02
181.90	1730.53
182.12	1636.33
182.34	1634.28
182.56	1667.05
182.78	1726.44
183.00	1748.97
183.22	1734.63
183.44	1679.33
183.66	1888.23
183.89	1759.21
184.11	1771.49
184.33	1748.97
184.55	1798.12
184.77	1800.16
184.99	1724.39
185.21	1722.34
185.43	1865.70
185.65	1640.42
185.87	1703.91
186.10	1853.41
186.32	1824.74
186.54	1677.29
186.76	1783.78
186.98	1759.21
187.20	1650.66
187.42	1730.53
187.64	1751.01
187.86	1701.86
188.08	1791.97
188.30	1710.05
188.52	1781.73
188.75	1708.01
188.97	1734.63
189.19	1720.29
189.41	1734.63
189.63	1691.62
189.85	1648.61
190.07	1691.62
190.29	1578.98
190.51	1728.49
190.73	1662.95
190.95	1765.35
191.17	1744.87
191.39	1673.19
191.61	1642.47
191.84	1712.10
192.06	1736.68
192.28	1607.66
192.50	1857.51
192.72	1738.73
192.94	1677.29
193.16	1822.69
193.38	1710.05
193.60	1642.47
193.82	1671.14
194.04	1812.45
194.26	1669.09
194.48	1716.20
194.70	1730.53
194.92	1667.05
195.14	1761.25
195.36	1632.23
195.58	1732.58
195.80	1734.63
196.02	1626.09
196.24	1773.54
196.46	1730.53
196.69	1665.00
196.91	1787.88
197.13	1722.34
197.35	1697.77
197.57	1800.16
197.79	1798.12
198.01	1781.73
198.23	1714.15
198.45	1853.41
198.67	1705.96
198.89	1720.29
199.11	1759.21
199.33	1673.19
199.55	1603.56
199.77	1687.53
199.99	1783.78
200.21	1730.53
200.43	1755.11
200.65	1603.56
200.87	1632.23
201.09	1718.25
201.31	1675.24
201.53	1691.62
201.75	1710.05
201.97	1779.68
202.19	1736.68
202.41	1812.45
202.63	1869.80
202.85	1724.39
203.07	1746.92
203.29	1724.39
203.51	1630.18
203.73	1712.10
203.95	1841.12
204.17	1701.86
204.39	1724.39
204.61	1679.33
204.83	1662.95
205.05	1748.97
205.27	1748.97
205.49	1847.27
205.71	1685.48
205.93	1609.70
206.15	1662.95
206.37	1730.53
206.59	1689.57
206.81	1665.00
207.03	1650.66
207.25	1648.61
207.47	1746.92
207.69	1701.86
207.91	1806.31
208.13	1785.83
208.34	1691.62
208.56	1636.33
208.78	1746.92
209.00	1701.86
209.22	1640.42
209.44	1773.54
209.66	1634.28
209.88	1687.53
210.10	1701.86
210.32	1689.57
210.54	1832.93
210.76	1761.25
210.98	1804.26
211.20	1634.28
211.42	1771.49
211.64	1705.96
211.86	1761.25
212.08	1708.01
212.30	1800.16
212.52	1783.78
212.74	1677.29
212.96	1744.87
213.17	1720.29
213.39	1802.21
213.61	1830.88
213.83	1675.24
214.05	1656.81
214.27	1746.92
214.49	1716.20
214.71	1617.90
214.93	1830.88
215.15	1662.95
215.37	1767.40
215.59	1619.94
215.81	1804.26
216.03	1820.64
216.24	1787.88
216.46	1759.21
216.68	1771.49
216.90	1755.11
217.12	1779.68
217.34	1632.23
217.56	1732.58
217.78	1742.82
218.00	1759.21
218.22	1736.68
218.44	1724.39
218.66	1691.62
218.87	1822.69
219.09	1757.16
219.31	1683.43
219.53	1732.58
219.75	1597.42
219.97	1742.82
220.19	1712.10
220.41	1703.91
220.63	1796.07
220.85	1724.39
221.06	1730.53
221.28	1751.01
221.50	1761.25
221.72	1714.15
221.94	1650.66
222.16	1691.62
222.38	1671.14
222.60	1865.70
222.82	1726.44
223.03	1845.22
223.25	1632.23
223.47	1777.64
223.69	1791.97
223.91	1730.53
224.13	1785.83
224.35	1658.85
224.57	1794.02
224.78	1734.63
225.00	1652.71
225.22	1683.43
225.44	1705.96
225.66	1818.60
225.88	1679.33
226.10	1802.21
226.32	1703.91
226.53	1783.78
226.75	1673.19
226.97	1755.11
227.19	1693.67
227.41	1681.38
227.63	1685.48
227.85	1595.37
228.06	1742.82
228.28	1753.06
228.50	1724.39
228.72	1740.77
228.94	1673.19
229.16	1646.57
229.37	1621.99
229.59	1667.05
229.81	1781.73
230.03	1675.24
230.25	1699.81
230.47	1613.80
230.69	1665.00
230.90	1716.20
231.12	1665.00
231.34	1738.73
231.56	1744.87
231.78	1787.88
232.00	1708.01
232.21	1669.09
232.43	1685.48
232.65	1570.79
232.87	1724.39
233.09	1654.76
233.30	1705.96
233.52	1720.29
233.74	1716.20
233.96	1673.19
234.18	1755.11
234.40	1697.77
234.61	1898.47
234.83	1705.96
235.05	1673.19
235.27	1867.75
235.49	1734.63
235.70	1714.15
235.92	1730.53
236.14	1712.10
236.36	1841.12
236.58	1638.38
236.79	1863.65
237.01	1769.44
237.23	1748.97
237.45	1773.54
237.67	1656.81
237.88	1730.53
238.10	1869.80
238.32	1703.91
238.54	1712.10
238.76	1728.49
238.97	1685.48
239.19	1667.05
239.41	1699.81
239.63	1808.36
239.85	1611.75
240.06	1714.15
240.28	1695.72
240.50	1753.06
240.72	1736.68
240.93	1679.33
241.15	1847.27
241.37	1738.73
241.59	1732.58
241.81	1648.61
242.02	1734.63
242.24	1722.34
242.46	1689.57
242.68	1636.33
242.89	1763.30
243.11	1714.15
243.33	1746.92
243.55	1759.21
243.76	1794.02
243.98	1718.25
244.20	1671.14
244.42	1718.25
244.64	1658.85
244.85	1587.18
245.07	1714.15
245.29	1824.74
245.51	1617.90
245.72	1738.73
245.94	1751.01
246.16	1814.50
246.38	1796.07
246.59	1705.96
246.81	1728.49
247.03	1720.29
247.24	1644.52
247.46	1728.49
247.68	1734.63
247.90	1703.91
248.11	1703.91
248.33	1755.11
248.55	1746.92
248.77	1705.96
248.98	1769.44
249.20	1812.45
249.42	1712.10
249.64	1716.20
249.85	1726.44
250.07	1667.05
250.29	1783.78
250.50	1794.02
250.72	1632.23
250.94	1732.58
251.16	1697.77
251.37	1779.68
251.59	1722.34
251.81	1736.68
252.02	1843.17
252.24	1710.05
252.46	1757.16
252.68	1693.67
252.89	1675.24
253.11	1597.42
253.33	1847.27
253.54	1826.79
253.76	1665.00
253.98	1675.24
254.20	1673.19
254.41	1650.66
254.63	1708.01
254.85	1697.77
255.06	1691.62
255.28	1830.88
255.50	1697.77
255.71	1689.57
255.93	1658.85
256.15	1675.24
256.36	1746.92
256.58	1705.96
256.80	1685.48
257.02	1640.42
257.23	1732.58
257.45	1785.83
257.67	1775.59
257.88	1689.57
258.10	1712.10
258.32	1769.44
258.53	1742.82
258.75	1826.79
258.97	1679.33
259.18	1746.92
259.40	1681.38
259.62	1869.80
259.83	1763.30
260.05	1728.49
260.27	2013.15
260.48	1767.40
260.70	1640.42
260.92	1730.53
261.13	1693.67
261.35	1779.68
261.57	1789.92
261.78	1656.81
262.00	1613.80
262.22	1710.05
262.43	1656.81
262.65	1669.09
262.86	1755.11
263.08	1830.88
263.30	1679.33
263.51	1681.38
263.73	1646.57
263.95	1761.25
264.16	1648.61
264.38	1636.33
264.60	1775.59
264.81	1724.39
265.03	1761.25
265.25	1757.16
265.46	1779.68
265.68	1755.11
265.89	1796.07
266.11	1570.79
266.33	1751.01
266.54	1820.64
266.76	1738.73
266.98	1832.93
267.19	1765.35
267.41	1748.97
267.62	1681.38
267.84	1662.95
268.06	1714.15
268.27	1746.92
268.49	1769.44
268.70	1781.73
268.92	1671.14
269.14	1683.43
269.35	1691.62
269.57	1740.77
269.79	1755.11
270.00	1734.63
270.22	1849.32
270.43	1654.76
270.65	1652.71
270.87	1804.26
271.08	1687.53
271.30	1738.73
271.51	1722.34
271.73	1742.82
271.95	1757.16
272.16	1791.97
272.38	1712.10
272.59	1677.29
272.81	1724.39
273.02	1716.20
273.24	1787.88
273.46	1779.68
273.67	1718.25
273.89	1669.09
274.10	1714.15
274.32	1736.68
274.54	1751.01
274.75	1679.33
274.97	1720.29
275.18	1656.81
275.40	1708.01
275.61	1681.38
275.83	1662.95
276.05	1634.28
276.26	1675.24
276.48	1753.06
276.69	1720.29
276.91	1718.25
277.12	1738.73
277.34	1767.40
277.55	1806.31
277.77	1820.64
277.99	1712.10
278.20	1697.77
278.42	1667.05
278.63	1671.14
278.85	1648.61
279.06	1644.52
279.28	1740.77
279.49	1726.44
279.71	1783.78
279.93	1730.53
280.14	1708.01
280.36	1681.38
280.57	1753.06
280.79	1734.63
281.00	1710.05
281.22	1744.87
281.43	1718.25
281.65	1542.12
281.86	1656.81
282.08	1806.31
282.29	1839.08
282.51	1667.05
282.73	1636.33
282.94	1605.61
283.16	1753.06
283.37	1769.44
283.59	1712.10
283.80	1783.78
284.02	1771.49
284.23	1703.91
284.45	1689.57
284.66	1679.33
284.88	1742.82
285.09	1765.35
285.31	1697.77
285.52	1714.15
285.74	1566.70
285.95	1789.92
286.17	1687.53
286.38	1810.40
286.60	1689.57
286.81	1677.29
287.03	1685.48
287.24	1714.15
287.46	1744.87
287.67	1816.55
287.89	1863.65
288.10	1699.81
288.32	1728.49
288.53	1681.38
288.75	1724.39
288.96	1675.24
289.18	1652.71
289.39	1648.61
289.61	1806.31
289.82	1843.17
290.04	1783.78
290.25	1681.38
290.47	1675.24
290.68	1753.06
290.90	1740.77
291.11	1638.38
291.33	1726.44
291.54	1705.96
291.76	1648.61
291.97	1757.16
292.18	1787.88
292.40	1683.43
292.61	1660.90
292.83	1875.94
293.04	1726.44
293.26	1716.20
293.47	1714.15
293.69	1662.95
293.90	1673.19
294.12	1861.60
294.33	1697.77
294.55	1742.82
294.76	1834.98
294.97	1820.64
295.19	1869.80
295.40	1701.86
295.62	1812.45
295.83	1824.74
296.05	1611.75
296.26	1714.15
296.48	1669.09
296.69	1628.14
296.90	1730.53
297.12	1800.16
297.33	1777.64
297.55	1701.86
297.76	1677.29
297.98	1771.49
298.19	1689.57
298.41	1748.97
298.62	1660.90
298.83	1794.02
299.05	1691.62
299.26	1658.85
299.48	1732.58
299.69	1755.11
299.90	1710.05
300.12	1685.48
300.33	1740.77
300.55	1693.67
300.76	1656.81
300.98	1681.38
301.19	1710.05
301.40	1654.76
301.62	1656.81
301.83	1769.44
302.05	1697.77
302.26	1701.86
302.47	1769.44
302.69	1652.71
302.90	1722.34
303.12	1669.09
303.33	1845.22
303.54	1796.07
303.76	1742.82
303.97	1755.11
304.19	1767.40
304.40	1710.05
304.61	1773.54
304.83	1843.17
305.04	1775.59
305.26	1708.01
305.47	1703.91
305.68	1671.14
305.90	1705.96
306.11	1820.64
306.33	1669.09
306.54	1689.57
306.75	1673.19
306.97	1632.23
307.18	1654.76
307.39	1628.14
307.61	1736.68
307.82	1681.38
308.04	1771.49
308.25	1693.67
308.46	1689.57
308.68	1681.38
308.89	1755.11
309.10	1787.88
309.32	1742.82
309.53	1669.09
309.74	1714.15
309.96	1726.44
310.17	1761.25
310.39	1761.25
310.60	1771.49
310.81	1652.71
311.03	1628.14
311.24	1744.87
311.45	1802.21
311.67	1777.64
311.88	1798.12
312.09	1648.61
312.31	1736.68
312.52	1769.44
312.73	1804.26
312.95	1650.66
313.16	1673.19
313.37	1730.53
313.59	1779.68
313.80	1812.45
314.01	1791.97
314.23	1712.10
314.44	1603.56
314.65	1570.79
314.87	1607.66
315.08	1708.01
315.29	1677.29
315.51	1638.38
315.72	1626.09
315.93	1810.40
316.15	1802.21
316.36	1734.63
316.57	1771.49
316.79	1697.77
317.00	1714.15
317.21	1658.85
317.43	1689.57
317.64	1718.25
317.85	1640.42
318.07	1636.33
318.28	1796.07
318.49	1742.82
318.70	1933.28
318.92	1787.88
319.13	1828.84
319.34	1955.81
319.56	1738.73
319.77	1816.55
319.98	1861.60
320.20	1744.87
320.41	1726.44
320.62	1808.36
320.83	1730.53
321.05	1796.07
321.26	1699.81
321.47	1636.33
321.69	1767.40
321.90	1669.09
322.11	1705.96
322.32	1632.23
322.54	1771.49
322.75	1695.72
322.96	1832.93
323.18	1646.57
323.39	1568.74
323.60	1685.48
323.81	1714.15
324.03	1710.05
324.24	1695.72
324.45	1742.82
324.66	1660.90
324.88	1779.68
325.09	1683.43
325.30	1726.44
325.52	1720.29
325.73	1738.73
325.94	1712.10
326.15	1648.61
326.37	1691.62
326.58	1814.50
326.79	1853.41
327.00	1634.28
327.22	1716.20
327.43	1677.29
327.64	1634.28
327.85	1808.36
328.07	1822.69
328.28	1775.59
328.49	1675.24
328.70	1734.63
328.92	1640.42
329.13	1667.05
329.34	1730.53
329.55	1841.12
329.76	1753.06
329.98	1755.11
330.19	1824.74
330.40	1755.11
330.61	1718.25
330.83	1734.63
331.04	1648.61
331.25	1669.09
331.46	1728.49
331.68	1650.66
331.89	1785.83
332.10	1701.86
332.31	1665.00
332.52	1751.01
332.74	1816.55
332.95	1677.29
333.16	1689.57
333.37	1724.39
333.58	1662.95
333.80	1751.01
334.01	1583.08
334.22	1665.00
334.43	1675.24
334.64	1695.72
334.86	1673.19
335.07	1708.01
335.28	1812.45
335.49	1662.95
335.70	1773.54
335.92	1808.36
336.13	1746.92
336.34	1785.83
336.55	1763.30
336.76	1787.88
336.98	1636.33
337.19	1757.16
337.40	1869.80
337.61	1824.74
337.82	1654.76
338.04	1726.44
338.25	1607.66
338.46	1769.44
338.67	1675.24
338.88	1632.23
339.09	1677.29
339.31	1722.34
339.52	1626.09
339.73	1628.14
339.94	1710.05
340.15	1748.97
340.36	1673.19
340.58	1726.44
340.79	1746.92
341.00	1763.30
341.21	1615.85
341.42	1812.45
341.63	1730.53
341.85	1787.88
342.06	1767.40
342.27	1669.09
342.48	1828.84
342.69	1671.14
342.90	1744.87
343.12	1730.53
343.33	1716.20
343.54	1740.77
343.75	1798.12
343.96	1769.44
344.17	1724.39
344.38	1703.91
344.60	1644.52
344.81	1650.66
345.02	1656.81
345.23	1804.26
345.44	1777.64
345.65	1802.21
345.86	1691.62
346.07	1689.57
346.29	1667.05
346.50	1765.35
346.71	1837.03
346.92	1779.68
347.13	1816.55
347.34	1697.77
347.55	1689.57
347.76	1697.77
347.98	1656.81
348.19	1683.43
348.40	1787.88
348.61	1644.52
348.82	1800.16
349.03	1814.50
349.24	1689.57
349.45	1824.74
349.66	1656.81
349.88	1679.33
350.09	1617.90
350.30	1767.40
350.51	1828.84
350.72	1654.76
350.93	1753.06
351.14	1679.33
351.35	1712.10
351.56	1685.48
351.77	1658.85
351.99	1740.77
352.20	1820.64
352.41	1763.30
352.62	1626.09
352.83	1789.92
353.04	1667.05
353.25	1683.43
353.46	1804.26
353.67	1775.59
353.88	1628.14
354.09	1769.44
354.30	1755.11
354.52	1689.57
354.73	1742.82
354.94	1665.00
355.15	1726.44
355.36	1783.78
355.57	1675.24
355.78	1779.68
355.99	1726.44
356.20	1736.68
356.41	1789.92
356.62	1751.01
356.83	1787.88
357.04	1812.45
357.25	1607.66
357.46	1714.15
357.68	1716.20
357.89	1656.81
358.10	1802.21
358.31	1703.91
358.52	1714.15
358.73	1677.29
358.94	1632.23
359.15	1665.00
359.36	1767.40
359.57	1783.78
359.78	1705.96
359.99	1771.49
360.20	1773.54
360.41	1820.64
360.62	1710.05
360.83	1728.49
361.04	1642.47
361.25	1781.73
361.46	1800.16
361.67	1769.44
361.88	1763.30
362.09	1726.44
362.30	1732.58
362.51	1705.96
362.72	1685.48
362.93	1767.40
363.14	1812.45
363.35	1789.92
363.56	1624.04
363.78	1789.92
363.99	1718.25
364.20	1693.67
364.41	1724.39
364.62	1832.93
364.83	1804.26
365.04	1699.81
365.25	1703.91
365.46	1845.22
365.67	1699.81
365.88	1605.61
366.09	1646.57
366.30	1630.18
366.51	1722.34
366.72	1675.24
366.93	1722.34
367.14	1675.24
367.35	1802.21
367.56	1718.25
367.77	1695.72
367.98	1695.72
368.18	1757.16
368.39	1763.30
368.60	1665.00
368.81	1767.40
369.02	1730.53
369.23	1636.33
369.44	1632.23
369.65	1759.21
369.86	1683.43
370.07	1818.60
370.28	1669.09
370.49	1734.63
370.70	1734.63
370.91	1603.56
371.12	1730.53
371.33	1755.11
371.54	1697.77
371.75	1748.97
371.96	1599.46
372.17	1730.53
372.38	1646.57
372.59	1796.07
372.80	1736.68
373.01	1708.01
373.22	1728.49
373.43	1716.20
373.64	1687.53
373.85	1736.68
374.06	1857.51
374.26	1718.25
374.47	1808.36
374.68	1816.55
374.89	1681.38
375.10	1722.34
375.31	1738.73
375.52	1691.62
375.73	1773.54
375.94	1638.38
376.15	1720.29
376.36	1710.05
376.57	1779.68
376.78	1740.77
376.99	1740.77
377.20	1777.64
377.40	1683.43
377.61	1841.12
377.82	1632.23
378.03	1841.12
378.24	1738.73
378.45	1718.25
378.66	1763.30
378.87	1591.27
379.08	1628.14
379.29	1712.10
379.50	1832.93
379.71	1689.57
379.91	1740.77
380.12	1724.39
380.33	1693.67
380.54	1683.43
380.75	1742.82
380.96	1728.49
381.17	1777.64
381.38	1734.63
381.59	1683.43
381.80	1738.73
382.00	1837.03
382.21	1771.49
382.42	1904.61
382.63	1912.80
382.84	1814.50
383.05	1736.68
383.26	1855.46
383.47	1767.40
383.68	1757.16
383.88	1849.32
384.09	1695.72
384.30	1806.31
384.51	1769.44
384.72	1697.77
384.93	1656.81
385.14	1726.44
385.35	1734.63
385.55	1660.90
385.76	1718.25
385.97	1689.57
386.18	1624.04
386.39	1669.09
386.60	1708.01
386.81	1810.40
387.02	1644.52
387.22	1705.96
387.43	1685.48
387.64	1810.40
387.85	1826.79
388.06	2211.81
388.27	4130.75
388.48	6592.41
388.68	7999.37
388.89	9400.18
389.10	9467.76
389.31	8503.17
389.52	7583.63
389.73	6481.82
389.93	6231.97
390.14	5742.50
390.35	5068.72
390.56	4562.87
390.77	3674.06
390.98	3039.19
391.18	2490.33
391.39	2166.75
391.60	1902.56
391.81	1830.88
392.02	1671.14
392.23	1843.17
392.43	1673.19
392.64	1808.36
392.85	1726.44
393.06	1806.31
393.27	1671.14
393.47	1785.83
393.68	1802.21
393.89	1716.20
394.10	1839.08
394.31	1705.96
394.52	1732.58
394.72	1665.00
394.93	1796.07
395.14	1716.20
395.35	1769.44
395.56	1718.25
395.76	1710.05
395.97	1697.77
396.18	1828.84
396.39	1822.69
396.60	2023.39
396.80	1941.47
397.01	1847.27
397.22	1775.59
397.43	1892.32
397.64	1665.00
397.84	1853.41
398.05	1875.94
398.26	1800.16
398.47	1808.36
398.67	1779.68
398.88	1775.59
399.09	1732.58
399.30	1759.21
399.51	1734.63
399.71	1689.57
399.92	1742.82
400.13	1693.67
400.34	1705.96
400.54	1708.01
400.75	1796.07
400.96	1765.35
401.17	1783.78
401.37	1755.11
401.58	1685.48
401.79	1646.57
402.00	1779.68
402.21	1976.29
402.41	1986.53
402.62	1918.95
402.83	2002.91
403.04	1906.66
403.24	2070.50
403.45	1880.04
403.66	1937.38
403.87	1882.08
404.07	1957.86
404.28	1972.19
404.49	1890.28
404.70	1824.74
404.90	1816.55
405.11	1804.26
405.32	1703.91
405.52	1687.53
405.73	1697.77
405.94	1734.63
406.15	1697.77
406.35	1806.31
406.56	1748.97
406.77	1712.10
406.98	1767.40
407.18	1570.79
407.39	1763.30
407.60	1652.71
407.80	1771.49
408.01	1687.53
408.22	1722.34
408.43	1720.29
408.63	1769.44
408.84	1755.11
409.05	1771.49
409.25	1656.81
409.46	1652.71
409.67	1671.14
409.88	1716.20
410.08	1640.42
410.29	1681.38
410.50	1748.97
410.70	1796.07
410.91	1673.19
411.12	1736.68
411.32	1783.78
411.53	1665.00
411.74	1863.65
411.95	1769.44
412.15	1761.25
412.36	1812.45
412.57	1730.53
412.77	1828.84
412.98	1757.16
413.19	1624.04
413.39	1775.59
413.60	1789.92
413.81	1681.38
414.01	1626.09
414.22	1728.49
414.43	1796.07
414.63	1683.43
414.84	1800.16
415.05	1716.20
415.25	1691.62
415.46	1751.01
415.67	1638.38
415.87	1695.72
416.08	1763.30
416.29	1693.67
416.49	1712.10
416.70	1689.57
416.91	1791.97
417.11	1759.21
417.32	1812.45
417.53	1769.44
417.73	1777.64
417.94	1755.11
418.15	1658.85
418.35	1759.21
418.56	1732.58
418.77	1787.88
418.97	1681.38
419.18	1777.64
419.38	1556.46
419.59	1740.77
419.80	1697.77
420.00	1638.38
420.21	1685.48
420.42	1785.83
420.62	1746.92
420.83	1658.85
421.04	1806.31
421.24	1738.73
421.45	1769.44
421.65	1767.40
421.86	1705.96
422.07	1761.25
422.27	1796.07
422.48	1693.67
422.69	1619.94
422.89	1710.05
423.10	1718.25
423.30	1642.47
423.51	1789.92
423.72	1691.62
423.92	1722.34
424.13	1691.62
424.33	1732.58
424.54	1746.92
424.75	1796.07
424.95	1824.74
425.16	1736.68
425.36	1636.33
425.57	1732.58
425.78	1763.30
425.98	1855.46
426.19	1718.25
426.39	1697.77
426.60	1798.12
426.81	1812.45
427.01	1769.44
427.22	1613.80
427.42	1658.85
427.63	1761.25
427.83	1703.91
428.04	1726.44
428.25	1740.77
428.45	1724.39
428.66	1787.88
428.86	1654.76
429.07	1773.54
429.28	1667.05
429.48	1730.53
429.69	1787.88
429.89	1738.73
430.10	1574.89
430.30	1779.68
430.51	1847.27
430.71	1730.53
430.92	1693.67
431.13	1705.96
431.33	1769.44
431.54	1720.29
431.74	1847.27
431.95	1822.69
432.15	1712.10
432.36	1785.83
432.56	1765.35
432.77	1787.88
432.98	1806.31
433.18	1712.10
433.39	1689.57
433.59	1783.78
433.80	1789.92
434.00	1904.61
434.21	1740.77
434.41	1732.58
434.62	1861.60
434.82	1730.53
435.03	1675.24
435.23	1740.77
435.44	1701.86
435.64	1761.25
435.85	1787.88
436.06	1783.78
436.26	1656.81
436.47	1720.29
436.67	1720.29
436.88	1767.40
437.08	1753.06
437.29	1771.49
437.49	1771.49
437.70	1785.83
437.90	1744.87
438.11	1843.17
438.31	1748.97
438.52	1896.42
438.72	1837.03
438.93	1837.03
439.13	1802.21
439.34	1830.88
439.54	1837.03
439.75	1748.97
439.95	1798.12
440.16	1697.77
440.36	1822.69
440.57	1757.16
440.77	1746.92
440.98	1720.29
441.18	1771.49
441.39	1689.57
441.59	1720.29
441.80	1746.92
442.00	1724.39
442.21	1857.51
442.41	1744.87
442.62	1751.01
442.82	1759.21
443.02	1757.16
443.23	1697.77
443.43	1701.86
443.64	1857.51
443.84	1642.47
444.05	1845.22
444.25	1736.68
444.46	1751.01
444.66	1769.44
444.87	1855.46
445.07	1714.15
445.28	1693.67
445.48	1757.16
445.69	1800.16
445.89	1929.19
446.09	1779.68
446.30	1931.23
446.50	2672.60
446.71	3635.14
446.91	4442.04
447.12	4724.66
447.32	4779.96
447.53	4308.93
447.73	3850.18
447.93	3416.01
448.14	3280.85
448.34	3227.60
448.55	2856.92
448.75	2762.71
448.96	2734.04
449.16	2406.36
449.36	2359.26
449.57	2088.93
449.77	1888.23
449.98	1865.70
450.18	1818.60
450.39	1814.50
450.59	1771.49
450.79	1767.40
451.00	1748.97
451.20	1779.68
451.41	1738.73
451.61	1767.40
451.81	1751.01
452.02	1736.68
452.22	1642.47
452.43	1716.20
452.63	1665.00
