SpectraSuite Data File
++++++++++++++++++++++++++++++++++++
Date: Mon Jun 06 13:38:57 CEST 2016
User: root
Dark Spectrum Present: No
Reference Spectrum Present: No
Number of Sampled Component Spectra: 1
Spectrometers: USB4C02835
Integration Time (usec): 100000 (USB4C02835)
Spectra Averaged: 1 (USB4C02835)
Boxcar Smoothing: 0 (USB4C02835)
Correct for Electrical Dark: No (USB4C02835)
Strobe/Lamp Enabled: No (USB4C02835)
Correct for Detector Non-linearity: No (USB4C02835)
Correct for Stray Light: No (USB4C02835)
Number of Pixels in Processed Spectrum: 3648
>>>>>Begin Processed Spectral Data<<<<<
177.47	1456.11
177.69	1456.11
177.91	1456.11
178.13	1480.68
178.36	1376.24
178.58	1601.51
178.80	1740.77
179.02	1566.70
179.24	1701.86
179.46	1660.90
179.68	1816.55
179.90	1636.33
180.13	1685.48
180.35	1665.00
180.57	1724.39
180.79	1746.92
181.01	1665.00
181.23	1742.82
181.45	1740.77
181.67	1722.34
181.90	1816.55
182.12	1705.96
182.34	1640.42
182.56	1683.43
182.78	1781.73
183.00	1654.76
183.22	1761.25
183.44	1634.28
183.66	1783.78
183.89	1785.83
184.11	1681.38
184.33	1650.66
184.55	1818.60
184.77	1722.34
184.99	1753.06
185.21	1658.85
185.43	1847.27
185.65	1626.09
185.87	1738.73
186.10	1828.84
186.32	1845.22
186.54	1791.97
186.76	1746.92
186.98	1703.91
187.20	1656.81
187.42	1615.85
187.64	1681.38
187.86	1775.59
188.08	1765.35
188.30	1640.42
188.52	1636.33
188.75	1794.02
188.97	1839.08
189.19	1607.66
189.41	1681.38
189.63	1642.47
189.85	1646.57
190.07	1599.46
190.29	1652.71
190.51	1708.01
190.73	1650.66
190.95	1812.45
191.17	1683.43
191.39	1583.08
191.61	1689.57
191.84	1673.19
192.06	1703.91
192.28	1576.94
192.50	1906.66
192.72	1718.25
192.94	1660.90
193.16	1736.68
193.38	1781.73
193.60	1615.85
193.82	1724.39
194.04	1744.87
194.26	1685.48
194.48	1724.39
194.70	1574.89
194.92	1710.05
195.14	1724.39
195.36	1681.38
195.58	1697.77
195.80	1673.19
196.02	1751.01
196.24	1665.00
196.46	1675.24
196.69	1644.52
196.91	1769.44
197.13	1658.85
197.35	1673.19
197.57	1845.22
197.79	1822.69
198.01	1669.09
198.23	1734.63
198.45	1705.96
198.67	1626.09
198.89	1708.01
199.11	1726.44
199.33	1675.24
199.55	1644.52
199.77	1726.44
199.99	1722.34
200.21	1665.00
200.43	1730.53
200.65	1626.09
200.87	1574.89
201.09	1671.14
201.31	1665.00
201.53	1806.31
201.75	1746.92
201.97	1767.40
202.19	1712.10
202.41	1734.63
202.63	1884.13
202.85	1699.81
203.07	1730.53
203.29	1603.56
203.51	1587.18
203.73	1662.95
203.95	1789.92
204.17	1730.53
204.39	1695.72
204.61	1691.62
204.83	1740.77
205.05	1732.58
205.27	1751.01
205.49	1857.51
205.71	1681.38
205.93	1601.51
206.15	1665.00
206.37	1703.91
206.59	1701.86
206.81	1667.05
207.03	1646.57
207.25	1652.71
207.47	1759.21
207.69	1634.28
207.91	1775.59
208.13	1757.16
208.34	1624.04
208.56	1665.00
208.78	1779.68
209.00	1689.57
209.22	1640.42
209.44	1681.38
209.66	1658.85
209.88	1632.23
210.10	1642.47
210.32	1601.51
210.54	1810.40
210.76	1697.77
210.98	1755.11
211.20	1595.37
211.42	1746.92
211.64	1667.05
211.86	1687.53
212.08	1742.82
212.30	1724.39
212.52	1755.11
212.74	1785.83
212.96	1662.95
213.17	1773.54
213.39	1710.05
213.61	1724.39
213.83	1624.04
214.05	1591.27
214.27	1808.36
214.49	1601.51
214.71	1624.04
214.93	1804.26
215.15	1617.90
215.37	1724.39
215.59	1652.71
215.81	1765.35
216.03	1738.73
216.24	1675.24
216.46	1667.05
216.68	1718.25
216.90	1851.36
217.12	1781.73
217.34	1708.01
217.56	1732.58
217.78	1775.59
218.00	1679.33
218.22	1705.96
218.44	1710.05
218.66	1732.58
218.87	1861.60
219.09	1695.72
219.31	1697.77
219.53	1628.14
219.75	1689.57
219.97	1671.14
220.19	1736.68
220.41	1683.43
220.63	1851.36
220.85	1757.16
221.06	1628.14
221.28	1769.44
221.50	1710.05
221.72	1777.64
221.94	1683.43
222.16	1738.73
222.38	1767.40
222.60	1773.54
222.82	1701.86
223.03	1710.05
223.25	1605.61
223.47	1683.43
223.69	1742.82
223.91	1781.73
224.13	1648.61
224.35	1658.85
224.57	1775.59
224.78	1740.77
225.00	1626.09
225.22	1673.19
225.44	1740.77
225.66	1757.16
225.88	1673.19
226.10	1730.53
226.32	1751.01
226.53	1730.53
226.75	1624.04
226.97	1650.66
227.19	1705.96
227.41	1646.57
227.63	1634.28
227.85	1609.70
228.06	1644.52
228.28	1714.15
228.50	1753.06
228.72	1667.05
228.94	1650.66
229.16	1615.85
229.37	1642.47
229.59	1710.05
229.81	1757.16
230.03	1660.90
230.25	1638.38
230.47	1738.73
230.69	1697.77
230.90	1751.01
231.12	1648.61
231.34	1685.48
231.56	1789.92
231.78	1591.27
232.00	1720.29
232.21	1679.33
232.43	1613.80
232.65	1558.50
232.87	1742.82
233.09	1642.47
233.30	1677.29
233.52	1712.10
233.74	1687.53
233.96	1689.57
234.18	1689.57
234.40	1652.71
234.61	1804.26
234.83	1611.75
235.05	1667.05
235.27	1863.65
235.49	1761.25
235.70	1734.63
235.92	1822.69
236.14	1720.29
236.36	1787.88
236.58	1648.61
236.79	1728.49
237.01	1697.77
237.23	1677.29
237.45	1765.35
237.67	1675.24
237.88	1740.77
238.10	1777.64
238.32	1658.85
238.54	1718.25
238.76	1669.09
238.97	1693.67
239.19	1646.57
239.41	1785.83
239.63	1742.82
239.85	1685.48
240.06	1669.09
240.28	1730.53
240.50	1669.09
240.72	1669.09
240.93	1689.57
241.15	1755.11
241.37	1693.67
241.59	1757.16
241.81	1677.29
242.02	1697.77
242.24	1677.29
242.46	1794.02
242.68	1619.94
242.89	1763.30
243.11	1748.97
243.33	1673.19
243.55	1730.53
243.76	1712.10
243.98	1644.52
244.20	1759.21
244.42	1681.38
244.64	1710.05
244.85	1613.80
245.07	1675.24
245.29	1744.87
245.51	1767.40
245.72	1669.09
245.94	1710.05
246.16	1673.19
246.38	1722.34
246.59	1716.20
246.81	1632.23
247.03	1673.19
247.24	1626.09
247.46	1689.57
247.68	1740.77
247.90	1677.29
248.11	1677.29
248.33	1857.51
248.55	1628.14
248.77	1619.94
248.98	1675.24
249.20	1722.34
249.42	1708.01
249.64	1705.96
249.85	1687.53
250.07	1701.86
250.29	1759.21
250.50	1724.39
250.72	1626.09
250.94	1751.01
251.16	1841.12
251.37	1828.84
251.59	1689.57
251.81	1703.91
252.02	1748.97
252.24	1652.71
252.46	1787.88
252.68	1697.77
252.89	1607.66
253.11	1644.52
253.33	1781.73
253.54	1820.64
253.76	1644.52
253.98	1648.61
254.20	1740.77
254.41	1617.90
254.63	1656.81
254.85	1640.42
255.06	1689.57
255.28	1716.20
255.50	1636.33
255.71	1675.24
255.93	1564.65
256.15	1574.89
256.36	1693.67
256.58	1675.24
256.80	1710.05
257.02	1671.14
257.23	1718.25
257.45	1693.67
257.67	1816.55
257.88	1667.05
258.10	1648.61
258.32	1712.10
258.53	1705.96
258.75	1783.78
258.97	1671.14
259.18	1738.73
259.40	1673.19
259.62	1742.82
259.83	1837.03
260.05	1662.95
260.27	2004.96
260.48	1714.15
260.70	1652.71
260.92	1632.23
261.13	1714.15
261.35	1738.73
261.57	1787.88
261.78	1609.70
262.00	1646.57
262.22	1773.54
262.43	1665.00
262.65	1732.58
262.86	1665.00
263.08	1845.22
263.30	1683.43
263.51	1589.22
263.73	1656.81
263.95	1794.02
264.16	1685.48
264.38	1665.00
264.60	1722.34
264.81	1615.85
265.03	1658.85
265.25	1703.91
265.46	1759.21
265.68	1771.49
265.89	1689.57
266.11	1624.04
266.33	1728.49
266.54	1720.29
266.76	1660.90
266.98	1712.10
267.19	1708.01
267.41	1771.49
267.62	1697.77
267.84	1654.76
268.06	1689.57
268.27	1722.34
268.49	1705.96
268.70	1740.77
268.92	1671.14
269.14	1621.99
269.35	1636.33
269.57	1722.34
269.79	1683.43
270.00	1703.91
270.22	1816.55
270.43	1726.44
270.65	1626.09
270.87	1740.77
271.08	1660.90
271.30	1744.87
271.51	1681.38
271.73	1683.43
271.95	1771.49
272.16	1679.33
272.38	1785.83
272.59	1689.57
272.81	1800.16
273.02	1728.49
273.24	1705.96
273.46	1708.01
273.67	1626.09
273.89	1714.15
274.10	1665.00
274.32	1703.91
274.54	1662.95
274.75	1699.81
274.97	1632.23
275.18	1714.15
275.40	1771.49
275.61	1673.19
275.83	1789.92
276.05	1621.99
276.26	1642.47
276.48	1718.25
276.69	1658.85
276.91	1650.66
277.12	1716.20
277.34	1748.97
277.55	1755.11
277.77	1718.25
277.99	1677.29
278.20	1697.77
278.42	1583.08
278.63	1677.29
278.85	1730.53
279.06	1570.79
279.28	1738.73
279.49	1767.40
279.71	1761.25
279.93	1697.77
280.14	1611.75
280.36	1628.14
280.57	1740.77
280.79	1759.21
281.00	1624.04
281.22	1671.14
281.43	1791.97
281.65	1642.47
281.86	1613.80
282.08	1746.92
282.29	1843.17
282.51	1712.10
282.73	1669.09
282.94	1609.70
283.16	1656.81
283.37	1753.06
283.59	1710.05
283.80	1701.86
284.02	1677.29
284.23	1759.21
284.45	1648.61
284.66	1695.72
284.88	1683.43
285.09	1695.72
285.31	1785.83
285.52	1738.73
285.74	1624.04
285.95	1783.78
286.17	1667.05
286.38	1705.96
286.60	1667.05
286.81	1669.09
287.03	1656.81
287.24	1697.77
287.46	1667.05
287.67	1710.05
287.89	1785.83
288.10	1734.63
288.32	1746.92
288.53	1748.97
288.75	1710.05
288.96	1687.53
289.18	1675.24
289.39	1679.33
289.61	1740.77
289.82	1767.40
290.04	1808.36
290.25	1648.61
290.47	1703.91
290.68	1705.96
290.90	1753.06
291.11	1595.37
291.33	1734.63
291.54	1570.79
291.76	1624.04
291.97	1693.67
292.18	1730.53
292.40	1689.57
292.61	1697.77
292.83	1800.16
293.04	1751.01
293.26	1732.58
293.47	1728.49
293.69	1689.57
293.90	1697.77
294.12	1787.88
294.33	1748.97
294.55	1714.15
294.76	1718.25
294.97	1697.77
295.19	1777.64
295.40	1671.14
295.62	1765.35
295.83	1742.82
296.05	1642.47
296.26	1728.49
296.48	1648.61
296.69	1673.19
296.90	1671.14
297.12	1681.38
297.33	1718.25
297.55	1732.58
297.76	1775.59
297.98	1673.19
298.19	1701.86
298.41	1748.97
298.62	1673.19
298.83	1755.11
299.05	1714.15
299.26	1693.67
299.48	1626.09
299.69	1765.35
299.90	1849.32
300.12	1587.18
300.33	1755.11
300.55	1683.43
300.76	1730.53
300.98	1599.46
301.19	1736.68
301.40	1746.92
301.62	1671.14
301.83	1738.73
302.05	1720.29
302.26	1595.37
302.47	1783.78
302.69	1705.96
302.90	1646.57
303.12	1523.69
303.33	1734.63
303.54	1834.98
303.76	1714.15
303.97	1673.19
304.19	1769.44
304.40	1607.66
304.61	1683.43
304.83	1703.91
305.04	1867.75
305.26	1658.85
305.47	1583.08
305.68	1783.78
305.90	1607.66
306.11	1769.44
306.33	1656.81
306.54	1665.00
306.75	1650.66
306.97	1531.88
307.18	1685.48
307.39	1650.66
307.61	1751.01
307.82	1769.44
308.04	1751.01
308.25	1660.90
308.46	1691.62
308.68	1693.67
308.89	1691.62
309.10	1728.49
309.32	1718.25
309.53	1677.29
309.74	1789.92
309.96	1742.82
310.17	1796.07
310.39	1693.67
310.60	1779.68
310.81	1693.67
311.03	1636.33
311.24	1705.96
311.45	1791.97
311.67	1832.93
311.88	1644.52
312.09	1675.24
312.31	1626.09
312.52	1708.01
312.73	1744.87
312.95	1648.61
313.16	1669.09
313.37	1781.73
313.59	1724.39
313.80	1798.12
314.01	1751.01
314.23	1687.53
314.44	1662.95
314.65	1656.81
314.87	1601.51
315.08	1730.53
315.29	1712.10
315.51	1626.09
315.72	1654.76
315.93	1857.51
316.15	1787.88
316.36	1634.28
316.57	1683.43
316.79	1716.20
317.00	1691.62
317.21	1724.39
317.43	1650.66
317.64	1722.34
317.85	1656.81
318.07	1648.61
318.28	1667.05
318.49	1839.08
318.70	1920.99
318.92	1820.64
319.13	1822.69
319.34	1822.69
319.56	1849.32
319.77	1789.92
319.98	1765.35
320.20	1791.97
320.41	1730.53
320.62	1751.01
320.83	1660.90
321.05	1761.25
321.26	1777.64
321.47	1730.53
321.69	1732.58
321.90	1640.42
322.11	1650.66
322.32	1705.96
322.54	1748.97
322.75	1640.42
322.96	1871.84
323.18	1621.99
323.39	1560.55
323.60	1677.29
323.81	1757.16
324.03	1619.94
324.24	1705.96
324.45	1693.67
324.66	1718.25
324.88	1785.83
325.09	1810.40
325.30	1652.71
325.52	1732.58
325.73	1687.53
325.94	1677.29
326.15	1628.14
326.37	1673.19
326.58	1740.77
326.79	1822.69
327.00	1630.18
327.22	1699.81
327.43	1648.61
327.64	1667.05
327.85	1738.73
328.07	1708.01
328.28	1837.03
328.49	1658.85
328.70	1730.53
328.92	1720.29
329.13	1738.73
329.34	1710.05
329.55	1759.21
329.76	1783.78
329.98	1691.62
330.19	1724.39
330.40	1761.25
330.61	1765.35
330.83	1697.77
331.04	1681.38
331.25	1710.05
331.46	1642.47
331.68	1578.98
331.89	1763.30
332.10	1677.29
332.31	1632.23
332.52	1701.86
332.74	1812.45
332.95	1576.94
333.16	1632.23
333.37	1845.22
333.58	1695.72
333.80	1675.24
334.01	1642.47
334.22	1679.33
334.43	1624.04
334.64	1679.33
334.86	1591.27
335.07	1699.81
335.28	1730.53
335.49	1617.90
335.70	1613.80
335.92	1697.77
336.13	1775.59
336.34	1728.49
336.55	1687.53
336.76	1675.24
336.98	1701.86
337.19	1761.25
337.40	1783.78
337.61	1834.98
337.82	1601.51
338.04	1751.01
338.25	1607.66
338.46	1746.92
338.67	1656.81
338.88	1609.70
339.09	1708.01
339.31	1652.71
339.52	1658.85
339.73	1613.80
339.94	1660.90
340.15	1822.69
340.36	1632.23
340.58	1726.44
340.79	1624.04
341.00	1689.57
341.21	1642.47
341.42	1755.11
341.63	1697.77
341.85	1789.92
342.06	1728.49
342.27	1615.85
342.48	1773.54
342.69	1665.00
342.90	1705.96
343.12	1781.73
343.33	1695.72
343.54	1650.66
343.75	1791.97
343.96	1703.91
344.17	1658.85
344.38	1716.20
344.60	1730.53
344.81	1624.04
345.02	1689.57
345.23	1845.22
345.44	1816.55
345.65	1636.33
345.86	1814.50
346.07	1675.24
346.29	1599.46
346.50	1691.62
346.71	1607.66
346.92	1759.21
347.13	1855.46
347.34	1697.77
347.55	1712.10
347.76	1679.33
347.98	1632.23
348.19	1656.81
348.40	1779.68
348.61	1628.14
348.82	1781.73
349.03	1722.34
349.24	1669.09
349.45	1820.64
349.66	1593.32
349.88	1730.53
350.09	1681.38
350.30	1755.11
350.51	1734.63
350.72	1714.15
350.93	1724.39
351.14	1654.76
351.35	1818.60
351.56	1746.92
351.77	1726.44
351.99	1724.39
352.20	1726.44
352.41	1824.74
352.62	1533.93
352.83	1710.05
353.04	1757.16
353.25	1669.09
353.46	1798.12
353.67	1669.09
353.88	1568.74
354.09	1675.24
354.30	1689.57
354.52	1755.11
354.73	1669.09
354.94	1619.94
355.15	1724.39
355.36	1791.97
355.57	1646.57
355.78	1732.58
355.99	1689.57
356.20	1689.57
356.41	1785.83
356.62	1695.72
356.83	1722.34
357.04	1787.88
357.25	1632.23
357.46	1701.86
357.68	1613.80
357.89	1603.56
358.10	1677.29
358.31	1699.81
358.52	1685.48
358.73	1603.56
358.94	1562.60
359.15	1634.28
359.36	1646.57
359.57	1748.97
359.78	1730.53
359.99	1730.53
360.20	1646.57
360.41	1724.39
360.62	1710.05
360.83	1726.44
361.04	1857.51
361.25	1675.24
361.46	1814.50
361.67	1683.43
361.88	1691.62
362.09	1761.25
362.30	1714.15
362.51	1734.63
362.72	1759.21
362.93	1759.21
363.14	1775.59
363.35	1744.87
363.56	1634.28
363.78	1744.87
363.99	1665.00
364.20	1595.37
364.41	1714.15
364.62	1853.41
364.83	1697.77
365.04	1734.63
365.25	1730.53
365.46	1773.54
365.67	1611.75
365.88	1636.33
366.09	1677.29
366.30	1652.71
366.51	1779.68
366.72	1673.19
366.93	1787.88
367.14	1712.10
367.35	1832.93
367.56	1695.72
367.77	1757.16
367.98	1654.76
368.18	1667.05
368.39	1708.01
368.60	1654.76
368.81	1712.10
369.02	1728.49
369.23	1695.72
369.44	1650.66
369.65	1640.42
369.86	1695.72
370.07	1697.77
370.28	1697.77
370.49	1800.16
370.70	1800.16
370.91	1701.86
371.12	1593.32
371.33	1693.67
371.54	1716.20
371.75	1744.87
371.96	1542.12
372.17	1705.96
372.38	1675.24
372.59	1755.11
372.80	1632.23
373.01	1781.73
373.22	1744.87
373.43	1701.86
373.64	1699.81
373.85	1763.30
374.06	1806.31
374.26	1689.57
374.47	1687.53
374.68	1802.21
374.89	1695.72
375.10	1681.38
375.31	1718.25
375.52	1757.16
375.73	1667.05
375.94	1681.38
376.15	1771.49
376.36	1712.10
376.57	1585.13
376.78	1716.20
376.99	1742.82
377.20	1767.40
377.40	1673.19
377.61	1849.32
377.82	1624.04
378.03	1722.34
378.24	1703.91
378.45	1753.06
378.66	1748.97
378.87	1554.41
379.08	1609.70
379.29	1650.66
379.50	1806.31
379.71	1671.14
379.91	1722.34
380.12	1736.68
380.33	1710.05
380.54	1728.49
380.75	1701.86
380.96	1705.96
381.17	1708.01
381.38	1748.97
381.59	1699.81
381.80	1718.25
382.00	1859.56
382.21	1710.05
382.42	1822.69
382.63	1787.88
382.84	1705.96
383.05	1748.97
383.26	1810.40
383.47	1714.15
383.68	1724.39
383.88	1748.97
384.09	1699.81
384.30	1710.05
384.51	1687.53
384.72	1677.29
384.93	1638.38
385.14	1685.48
385.35	1718.25
385.55	1703.91
385.76	1718.25
385.97	1718.25
386.18	1615.85
386.39	1681.38
386.60	1658.85
386.81	1701.86
387.02	1708.01
387.22	1613.80
387.43	1800.16
387.64	1783.78
387.85	1802.21
388.06	2222.05
388.27	4304.83
388.48	6756.25
388.68	8179.59
388.89	9529.20
389.10	9654.12
389.31	8589.18
389.52	7616.40
389.73	6735.77
389.93	6205.35
390.14	5613.48
390.35	5228.46
390.56	4554.68
390.77	3815.37
390.98	3069.91
391.18	2469.85
391.39	2099.17
391.60	1787.88
391.81	1796.07
392.02	1675.24
392.23	1828.84
392.43	1677.29
392.64	1787.88
392.85	1722.34
393.06	1804.26
393.27	1724.39
393.47	1646.57
393.68	1718.25
393.89	1710.05
394.10	1789.92
394.31	1683.43
394.52	1630.18
394.72	1736.68
394.93	1753.06
395.14	1611.75
395.35	1703.91
395.56	1644.52
395.76	1771.49
395.97	1787.88
396.18	1814.50
396.39	1804.26
396.60	2068.45
396.80	1908.71
397.01	1822.69
397.22	1886.18
397.43	1869.80
397.64	1763.30
397.84	1771.49
398.05	1806.31
398.26	1767.40
398.47	1798.12
398.67	1699.81
398.88	1746.92
399.09	1820.64
399.30	1718.25
399.51	1751.01
399.71	1669.09
399.92	1718.25
400.13	1673.19
400.34	1613.80
400.54	1751.01
400.75	1816.55
400.96	1742.82
401.17	1765.35
401.37	1734.63
401.58	1705.96
401.79	1724.39
402.00	1898.47
402.21	1980.39
402.41	1951.71
402.62	1925.09
402.83	2066.40
403.04	1972.19
403.24	2115.55
403.45	1767.40
403.66	1906.66
403.87	1828.84
404.07	1882.08
404.28	1861.60
404.49	1904.61
404.70	1693.67
404.90	1832.93
405.11	1710.05
405.32	1724.39
405.52	1607.66
405.73	1685.48
405.94	1640.42
406.15	1695.72
406.35	1744.87
406.56	1802.21
406.77	1650.66
406.98	1656.81
407.18	1728.49
407.39	1705.96
407.60	1628.14
407.80	1767.40
408.01	1710.05
408.22	1683.43
408.43	1654.76
408.63	1726.44
408.84	1736.68
409.05	1816.55
409.25	1624.04
409.46	1693.67
409.67	1636.33
409.88	1597.42
410.08	1759.21
410.29	1660.90
410.50	1718.25
410.70	1777.64
410.91	1685.48
411.12	1744.87
411.32	1705.96
411.53	1732.58
411.74	1802.21
411.95	1722.34
412.15	1742.82
412.36	1759.21
412.57	1714.15
412.77	1804.26
412.98	1703.91
413.19	1699.81
413.39	1824.74
413.60	1662.95
413.81	1753.06
414.01	1667.05
414.22	1701.86
414.43	1753.06
414.63	1669.09
414.84	1851.36
415.05	1726.44
415.25	1665.00
415.46	1785.83
415.67	1648.61
415.87	1673.19
416.08	1650.66
416.29	1734.63
416.49	1728.49
416.70	1738.73
416.91	1650.66
417.11	1658.85
417.32	1783.78
417.53	1691.62
417.73	1712.10
417.94	1734.63
418.15	1646.57
418.35	1701.86
418.56	1693.67
418.77	1824.74
418.97	1761.25
419.18	1685.48
419.38	1671.14
419.59	1728.49
419.80	1818.60
420.00	1716.20
420.21	1773.54
420.42	1736.68
420.62	1722.34
420.83	1669.09
421.04	1740.77
421.24	1712.10
421.45	1740.77
421.65	1789.92
421.86	1671.14
422.07	1767.40
422.27	1775.59
422.48	1761.25
422.69	1632.23
422.89	1728.49
423.10	1665.00
423.30	1710.05
423.51	1769.44
423.72	1791.97
423.92	1699.81
424.13	1677.29
424.33	1660.90
424.54	1738.73
424.75	1843.17
424.95	1912.80
425.16	1714.15
425.36	1716.20
425.57	1757.16
425.78	1683.43
425.98	1820.64
426.19	1720.29
426.39	1728.49
426.60	1738.73
426.81	1726.44
427.01	1708.01
427.22	1689.57
427.42	1607.66
427.63	1572.84
427.83	1689.57
428.04	1775.59
428.25	1781.73
428.45	1812.45
428.66	1744.87
428.86	1650.66
429.07	1677.29
429.28	1734.63
429.48	1751.01
429.69	1642.47
429.89	1662.95
430.10	1681.38
430.30	1779.68
430.51	1712.10
430.71	1691.62
430.92	1691.62
431.13	1665.00
431.33	1777.64
431.54	1693.67
431.74	1845.22
431.95	1794.02
432.15	1654.76
432.36	1757.16
432.56	1773.54
432.77	1849.32
432.98	1722.34
433.18	1689.57
433.39	1724.39
433.59	1742.82
433.80	1859.56
434.00	1826.79
434.21	1578.98
434.41	1673.19
434.62	1746.92
434.82	1638.38
435.03	1667.05
435.23	1757.16
435.44	1570.79
435.64	1683.43
435.85	1738.73
436.06	1705.96
436.26	1753.06
436.47	1681.38
436.67	1699.81
436.88	1738.73
437.08	1708.01
437.29	1818.60
437.49	1767.40
437.70	1730.53
437.90	1691.62
438.11	1847.27
438.31	1800.16
438.52	1828.84
438.72	1802.21
438.93	1968.10
439.13	1746.92
439.34	1810.40
439.54	1748.97
439.75	1808.36
439.95	1783.78
440.16	1708.01
440.36	1804.26
440.57	1773.54
440.77	1771.49
440.98	1687.53
441.18	1773.54
441.39	1683.43
441.59	1716.20
441.80	1871.84
442.00	1675.24
442.21	1830.88
442.41	1601.51
442.62	1759.21
442.82	1705.96
443.02	1671.14
443.23	1722.34
443.43	1687.53
443.64	1757.16
443.84	1581.03
444.05	1841.12
444.25	1771.49
444.46	1734.63
444.66	1820.64
444.87	1855.46
445.07	1619.94
445.28	1705.96
445.48	1765.35
445.69	1775.59
445.89	1873.89
446.09	1814.50
446.30	1984.48
446.50	2660.31
446.71	3641.29
446.91	4364.22
447.12	4562.87
447.32	4712.38
447.53	4310.97
447.73	3805.13
447.93	3522.51
448.14	3319.76
448.34	3162.06
448.55	2777.05
448.75	2861.01
448.96	2660.31
449.16	2449.37
449.36	2310.11
449.57	2037.73
449.77	1845.22
449.98	1773.54
450.18	1892.32
450.39	1753.06
450.59	1826.79
450.79	1722.34
451.00	1662.95
451.20	1753.06
451.41	1667.05
451.61	1691.62
451.81	1767.40
452.02	1746.92
452.22	1765.35
452.43	1773.54
452.63	1714.15
