SpectraSuite Data File
++++++++++++++++++++++++++++++++++++
Date: Mon Jun 06 14:03:57 CEST 2016
User: root
Dark Spectrum Present: No
Reference Spectrum Present: No
Number of Sampled Component Spectra: 1
Spectrometers: USB4C02835
Integration Time (usec): 100000 (USB4C02835)
Spectra Averaged: 1 (USB4C02835)
Boxcar Smoothing: 0 (USB4C02835)
Correct for Electrical Dark: No (USB4C02835)
Strobe/Lamp Enabled: No (USB4C02835)
Correct for Detector Non-linearity: No (USB4C02835)
Correct for Stray Light: No (USB4C02835)
Number of Pixels in Processed Spectrum: 3648
>>>>>Begin Processed Spectral Data<<<<<
177.47	1435.63
177.69	1435.63
177.91	1435.63
178.13	1480.68
178.36	1404.91
178.58	1621.99
178.80	1806.31
179.02	1740.77
179.24	1585.13
179.46	1566.70
179.68	1759.21
179.90	1681.38
180.13	1730.53
180.35	1648.61
180.57	1724.39
180.79	1734.63
181.01	1705.96
181.23	1779.68
181.45	1712.10
181.67	1710.05
181.90	1783.78
182.12	1638.38
182.34	1693.67
182.56	1769.44
182.78	1669.09
183.00	1673.19
183.22	1699.81
183.44	1521.64
183.66	1785.83
183.89	1763.30
184.11	1718.25
184.33	1746.92
184.55	1849.32
184.77	1728.49
184.99	1673.19
185.21	1767.40
185.43	1800.16
185.65	1628.14
185.87	1779.68
186.10	1873.89
186.32	1798.12
186.54	1708.01
186.76	1744.87
186.98	1810.40
187.20	1689.57
187.42	1652.71
187.64	1681.38
187.86	1675.24
188.08	1708.01
188.30	1632.23
188.52	1636.33
188.75	1775.59
188.97	1720.29
189.19	1689.57
189.41	1669.09
189.63	1697.77
189.85	1652.71
190.07	1669.09
190.29	1589.22
190.51	1679.33
190.73	1683.43
190.95	1800.16
191.17	1656.81
191.39	1581.03
191.61	1738.73
191.84	1646.57
192.06	1699.81
192.28	1669.09
192.50	1923.04
192.72	1759.21
192.94	1662.95
193.16	1740.77
193.38	1763.30
193.60	1701.86
193.82	1697.77
194.04	1738.73
194.26	1697.77
194.48	1742.82
194.70	1712.10
194.92	1693.67
195.14	1804.26
195.36	1673.19
195.58	1599.46
195.80	1693.67
196.02	1687.53
196.24	1714.15
196.46	1732.58
196.69	1701.86
196.91	1849.32
197.13	1681.38
197.35	1599.46
197.57	1773.54
197.79	1765.35
198.01	1705.96
198.23	1677.29
198.45	1748.97
198.67	1574.89
198.89	1697.77
199.11	1783.78
199.33	1654.76
199.55	1599.46
199.77	1705.96
199.99	1798.12
200.21	1689.57
200.43	1779.68
200.65	1621.99
200.87	1581.03
201.09	1691.62
201.31	1683.43
201.53	1746.92
201.75	1765.35
201.97	1730.53
202.19	1675.24
202.41	1681.38
202.63	1828.84
202.85	1732.58
203.07	1800.16
203.29	1765.35
203.51	1710.05
203.73	1636.33
203.95	1736.68
204.17	1728.49
204.39	1732.58
204.61	1740.77
204.83	1734.63
205.05	1806.31
205.27	1765.35
205.49	1814.50
205.71	1744.87
205.93	1585.13
206.15	1595.37
206.37	1755.11
206.59	1626.09
206.81	1660.90
207.03	1665.00
207.25	1650.66
207.47	1701.86
207.69	1746.92
207.91	1847.27
208.13	1804.26
208.34	1624.04
208.56	1640.42
208.78	1771.49
209.00	1621.99
209.22	1722.34
209.44	1761.25
209.66	1708.01
209.88	1730.53
210.10	1701.86
210.32	1687.53
210.54	1804.26
210.76	1693.67
210.98	1765.35
211.20	1652.71
211.42	1638.38
211.64	1783.78
211.86	1736.68
212.08	1783.78
212.30	1730.53
212.52	1679.33
212.74	1673.19
212.96	1781.73
213.17	1757.16
213.39	1671.14
213.61	1716.20
213.83	1732.58
214.05	1648.61
214.27	1662.95
214.49	1605.61
214.71	1693.67
214.93	1757.16
215.15	1654.76
215.37	1742.82
215.59	1640.42
215.81	1687.53
216.03	1746.92
216.24	1703.91
216.46	1650.66
216.68	1734.63
216.90	1785.83
217.12	1703.91
217.34	1742.82
217.56	1660.90
217.78	1710.05
218.00	1832.93
218.22	1677.29
218.44	1701.86
218.66	1712.10
218.87	1714.15
219.09	1554.41
219.31	1667.05
219.53	1751.01
219.75	1730.53
219.97	1681.38
220.19	1759.21
220.41	1730.53
220.63	1857.51
220.85	1632.23
221.06	1691.62
221.28	1789.92
221.50	1746.92
221.72	1718.25
221.94	1728.49
222.16	1646.57
222.38	1681.38
222.60	1779.68
222.82	1734.63
223.03	1681.38
223.25	1671.14
223.47	1794.02
223.69	1826.79
223.91	1671.14
224.13	1611.75
224.35	1673.19
224.57	1718.25
224.78	1714.15
225.00	1665.00
225.22	1673.19
225.44	1718.25
225.66	1681.38
225.88	1683.43
226.10	1710.05
226.32	1660.90
226.53	1787.88
226.75	1781.73
226.97	1669.09
227.19	1636.33
227.41	1673.19
227.63	1669.09
227.85	1634.28
228.06	1671.14
228.28	1646.57
228.50	1724.39
228.72	1681.38
228.94	1681.38
229.16	1595.37
229.37	1652.71
229.59	1640.42
229.81	1755.11
230.03	1746.92
230.25	1689.57
230.47	1615.85
230.69	1601.51
230.90	1744.87
231.12	1705.96
231.34	1685.48
231.56	1751.01
231.78	1683.43
232.00	1787.88
232.21	1693.67
232.43	1705.96
232.65	1621.99
232.87	1789.92
233.09	1667.05
233.30	1654.76
233.52	1701.86
233.74	1677.29
233.96	1697.77
234.18	1624.04
234.40	1644.52
234.61	1804.26
234.83	1695.72
235.05	1665.00
235.27	1730.53
235.49	1806.31
235.70	1689.57
235.92	1765.35
236.14	1675.24
236.36	1845.22
236.58	1640.42
236.79	1798.12
237.01	1699.81
237.23	1675.24
237.45	1757.16
237.67	1677.29
237.88	1712.10
238.10	1796.07
238.32	1607.66
238.54	1591.27
238.76	1685.48
238.97	1691.62
239.19	1662.95
239.41	1763.30
239.63	1759.21
239.85	1648.61
240.06	1658.85
240.28	1615.85
240.50	1757.16
240.72	1716.20
240.93	1636.33
241.15	1816.55
241.37	1701.86
241.59	1720.29
241.81	1574.89
242.02	1654.76
242.24	1718.25
242.46	1773.54
242.68	1685.48
242.89	1673.19
243.11	1763.30
243.33	1646.57
243.55	1671.14
243.76	1691.62
243.98	1654.76
244.20	1619.94
244.42	1673.19
244.64	1769.44
244.85	1689.57
245.07	1667.05
245.29	1755.11
245.51	1732.58
245.72	1712.10
245.94	1716.20
246.16	1806.31
246.38	1810.40
246.59	1675.24
246.81	1603.56
247.03	1691.62
247.24	1589.22
247.46	1693.67
247.68	1740.77
247.90	1667.05
248.11	1687.53
248.33	1763.30
248.55	1691.62
248.77	1757.16
248.98	1767.40
249.20	1753.06
249.42	1744.87
249.64	1751.01
249.85	1685.48
250.07	1699.81
250.29	1753.06
250.50	1718.25
250.72	1603.56
250.94	1742.82
251.16	1871.84
251.37	1773.54
251.59	1718.25
251.81	1775.59
252.02	1738.73
252.24	1708.01
252.46	1757.16
252.68	1658.85
252.89	1654.76
253.11	1675.24
253.33	1796.07
253.54	1710.05
253.76	1636.33
253.98	1630.18
254.20	1624.04
254.41	1626.09
254.63	1763.30
254.85	1615.85
255.06	1662.95
255.28	1714.15
255.50	1689.57
255.71	1630.18
255.93	1597.42
256.15	1662.95
256.36	1697.77
256.58	1691.62
256.80	1710.05
257.02	1697.77
257.23	1656.81
257.45	1757.16
257.67	1691.62
257.88	1665.00
258.10	1734.63
258.32	1675.24
258.53	1738.73
258.75	1806.31
258.97	1728.49
259.18	1759.21
259.40	1673.19
259.62	1728.49
259.83	1845.22
260.05	1714.15
260.27	1927.14
260.48	1787.88
260.70	1701.86
260.92	1697.77
261.13	1722.34
261.35	1744.87
261.57	1744.87
261.78	1640.42
262.00	1652.71
262.22	1791.97
262.43	1636.33
262.65	1632.23
262.86	1697.77
263.08	1845.22
263.30	1609.70
263.51	1603.56
263.73	1624.04
263.95	1685.48
264.16	1734.63
264.38	1656.81
264.60	1775.59
264.81	1771.49
265.03	1726.44
265.25	1718.25
265.46	1738.73
265.68	1771.49
265.89	1667.05
266.11	1744.87
266.33	1708.01
266.54	1775.59
266.76	1742.82
266.98	1693.67
267.19	1771.49
267.41	1783.78
267.62	1755.11
267.84	1624.04
268.06	1720.29
268.27	1699.81
268.49	1697.77
268.70	1753.06
268.92	1679.33
269.14	1681.38
269.35	1595.37
269.57	1632.23
269.79	1755.11
270.00	1722.34
270.22	1804.26
270.43	1671.14
270.65	1601.51
270.87	1714.15
271.08	1705.96
271.30	1763.30
271.51	1751.01
271.73	1771.49
271.95	1738.73
272.16	1697.77
272.38	1673.19
272.59	1693.67
272.81	1740.77
273.02	1724.39
273.24	1728.49
273.46	1730.53
273.67	1695.72
273.89	1681.38
274.10	1728.49
274.32	1843.17
274.54	1767.40
274.75	1779.68
274.97	1683.43
275.18	1669.09
275.40	1744.87
275.61	1724.39
275.83	1687.53
276.05	1699.81
276.26	1738.73
276.48	1708.01
276.69	1722.34
276.91	1722.34
277.12	1748.97
277.34	1787.88
277.55	1705.96
277.77	1712.10
277.99	1621.99
278.20	1595.37
278.42	1644.52
278.63	1673.19
278.85	1652.71
279.06	1708.01
279.28	1710.05
279.49	1712.10
279.71	1771.49
279.93	1714.15
280.14	1677.29
280.36	1658.85
280.57	1742.82
280.79	1689.57
281.00	1693.67
281.22	1685.48
281.43	1849.32
281.65	1564.65
281.86	1601.51
282.08	1738.73
282.29	1804.26
282.51	1624.04
282.73	1630.18
282.94	1564.65
283.16	1804.26
283.37	1826.79
283.59	1665.00
283.80	1740.77
284.02	1734.63
284.23	1746.92
284.45	1646.57
284.66	1615.85
284.88	1650.66
285.09	1763.30
285.31	1738.73
285.52	1722.34
285.74	1617.90
285.95	1767.40
286.17	1675.24
286.38	1695.72
286.60	1658.85
286.81	1681.38
287.03	1675.24
287.24	1681.38
287.46	1771.49
287.67	1689.57
287.89	1830.88
288.10	1642.47
288.32	1714.15
288.53	1783.78
288.75	1740.77
288.96	1765.35
289.18	1632.23
289.39	1722.34
289.61	1744.87
289.82	1722.34
290.04	1810.40
290.25	1648.61
290.47	1724.39
290.68	1734.63
290.90	1687.53
291.11	1607.66
291.33	1732.58
291.54	1607.66
291.76	1660.90
291.97	1652.71
292.18	1824.74
292.40	1660.90
292.61	1687.53
292.83	1806.31
293.04	1710.05
293.26	1693.67
293.47	1677.29
293.69	1660.90
293.90	1683.43
294.12	1859.56
294.33	1701.86
294.55	1714.15
294.76	1804.26
294.97	1800.16
295.19	1839.08
295.40	1728.49
295.62	1685.48
295.83	1787.88
296.05	1685.48
296.26	1787.88
296.48	1730.53
296.69	1621.99
296.90	1779.68
297.12	1738.73
297.33	1777.64
297.55	1718.25
297.76	1720.29
297.98	1798.12
298.19	1669.09
298.41	1714.15
298.62	1677.29
298.83	1894.37
299.05	1761.25
299.26	1681.38
299.48	1732.58
299.69	1748.97
299.90	1679.33
300.12	1642.47
300.33	1773.54
300.55	1728.49
300.76	1781.73
300.98	1589.22
301.19	1724.39
301.40	1679.33
301.62	1669.09
301.83	1724.39
302.05	1718.25
302.26	1685.48
302.47	1759.21
302.69	1619.94
302.90	1738.73
303.12	1654.76
303.33	1718.25
303.54	1847.27
303.76	1648.61
303.97	1736.68
304.19	1787.88
304.40	1597.42
304.61	1759.21
304.83	1781.73
305.04	1724.39
305.26	1675.24
305.47	1654.76
305.68	1755.11
305.90	1693.67
306.11	1699.81
306.33	1755.11
306.54	1699.81
306.75	1669.09
306.97	1673.19
307.18	1658.85
307.39	1669.09
307.61	1763.30
307.82	1669.09
308.04	1687.53
308.25	1685.48
308.46	1746.92
308.68	1693.67
308.89	1671.14
309.10	1728.49
309.32	1716.20
309.53	1722.34
309.74	1691.62
309.96	1642.47
310.17	1728.49
310.39	1632.23
310.60	1699.81
310.81	1697.77
311.03	1624.04
311.24	1734.63
311.45	1683.43
311.67	1837.03
311.88	1714.15
312.09	1644.52
312.31	1624.04
312.52	1701.86
312.73	1673.19
312.95	1589.22
313.16	1710.05
313.37	1724.39
313.59	1753.06
313.80	1722.34
314.01	1875.94
314.23	1677.29
314.44	1652.71
314.65	1617.90
314.87	1611.75
315.08	1656.81
315.29	1669.09
315.51	1648.61
315.72	1640.42
315.93	1783.78
316.15	1759.21
316.36	1677.29
316.57	1726.44
316.79	1751.01
317.00	1759.21
317.21	1789.92
317.43	1632.23
317.64	1681.38
317.85	1626.09
318.07	1626.09
318.28	1736.68
318.49	1783.78
318.70	1851.36
318.92	1804.26
319.13	1810.40
319.34	1884.13
319.56	1818.60
319.77	1853.41
319.98	1734.63
320.20	1802.21
320.41	1816.55
320.62	1687.53
320.83	1665.00
321.05	1804.26
321.26	1687.53
321.47	1705.96
321.69	1755.11
321.90	1693.67
322.11	1632.23
322.32	1687.53
322.54	1744.87
322.75	1689.57
322.96	1779.68
323.18	1621.99
323.39	1634.28
323.60	1609.70
323.81	1759.21
324.03	1693.67
324.24	1671.14
324.45	1730.53
324.66	1701.86
324.88	1738.73
325.09	1816.55
325.30	1720.29
325.52	1773.54
325.73	1681.38
325.94	1679.33
326.15	1599.46
326.37	1656.81
326.58	1734.63
326.79	1894.37
327.00	1611.75
327.22	1777.64
327.43	1644.52
327.64	1665.00
327.85	1677.29
328.07	1671.14
328.28	1796.07
328.49	1783.78
328.70	1716.20
328.92	1693.67
329.13	1746.92
329.34	1650.66
329.55	1847.27
329.76	1736.68
329.98	1726.44
330.19	1789.92
330.40	1691.62
330.61	1718.25
330.83	1804.26
331.04	1656.81
331.25	1658.85
331.46	1699.81
331.68	1654.76
331.89	1763.30
332.10	1679.33
332.31	1658.85
332.52	1683.43
332.74	1783.78
332.95	1677.29
333.16	1687.53
333.37	1802.21
333.58	1685.48
333.80	1751.01
334.01	1648.61
334.22	1621.99
334.43	1644.52
334.64	1712.10
334.86	1652.71
335.07	1646.57
335.28	1787.88
335.49	1650.66
335.70	1734.63
335.92	1755.11
336.13	1800.16
336.34	1714.15
336.55	1740.77
336.76	1765.35
336.98	1599.46
337.19	1748.97
337.40	1826.79
337.61	1902.56
337.82	1683.43
338.04	1773.54
338.25	1632.23
338.46	1683.43
338.67	1648.61
338.88	1648.61
339.09	1669.09
339.31	1714.15
339.52	1652.71
339.73	1675.24
339.94	1705.96
340.15	1777.64
340.36	1669.09
340.58	1665.00
340.79	1566.70
341.00	1761.25
341.21	1662.95
341.42	1767.40
341.63	1708.01
341.85	1685.48
342.06	1648.61
342.27	1607.66
342.48	1849.32
342.69	1685.48
342.90	1710.05
343.12	1699.81
343.33	1722.34
343.54	1732.58
343.75	1763.30
343.96	1708.01
344.17	1726.44
344.38	1751.01
344.60	1662.95
344.81	1595.37
345.02	1732.58
345.23	1748.97
345.44	1802.21
345.65	1738.73
345.86	1779.68
346.07	1689.57
346.29	1718.25
346.50	1665.00
346.71	1712.10
346.92	1808.36
347.13	1865.70
347.34	1712.10
347.55	1675.24
347.76	1812.45
347.98	1609.70
348.19	1636.33
348.40	1732.58
348.61	1689.57
348.82	1814.50
349.03	1718.25
349.24	1665.00
349.45	1791.97
349.66	1611.75
349.88	1761.25
350.09	1677.29
350.30	1669.09
350.51	1767.40
350.72	1689.57
350.93	1677.29
351.14	1648.61
351.35	1722.34
351.56	1656.81
351.77	1691.62
351.99	1683.43
352.20	1796.07
352.41	1703.91
352.62	1572.84
352.83	1701.86
353.04	1683.43
353.25	1654.76
353.46	1773.54
353.67	1734.63
353.88	1599.46
354.09	1789.92
354.30	1636.33
354.52	1757.16
354.73	1736.68
354.94	1718.25
355.15	1740.77
355.36	1808.36
355.57	1636.33
355.78	1611.75
355.99	1673.19
356.20	1738.73
356.41	1748.97
356.62	1679.33
356.83	1687.53
357.04	1830.88
357.25	1566.70
357.46	1697.77
357.68	1621.99
357.89	1605.61
358.10	1708.01
358.31	1705.96
358.52	1619.94
358.73	1617.90
358.94	1675.24
359.15	1667.05
359.36	1830.88
359.57	1710.05
359.78	1738.73
359.99	1708.01
360.20	1628.14
360.41	1751.01
360.62	1687.53
360.83	1640.42
361.04	1675.24
361.25	1660.90
361.46	1849.32
361.67	1703.91
361.88	1767.40
362.09	1771.49
362.30	1724.39
362.51	1673.19
362.72	1699.81
362.93	1654.76
363.14	1771.49
363.35	1681.38
363.56	1681.38
363.78	1730.53
363.99	1726.44
364.20	1630.18
364.41	1654.76
364.62	1802.21
364.83	1761.25
365.04	1720.29
365.25	1708.01
365.46	1796.07
365.67	1658.85
365.88	1611.75
366.09	1693.67
366.30	1578.98
366.51	1646.57
366.72	1687.53
366.93	1675.24
367.14	1714.15
367.35	1812.45
367.56	1701.86
367.77	1820.64
367.98	1701.86
368.18	1691.62
368.39	1724.39
368.60	1673.19
368.81	1761.25
369.02	1646.57
369.23	1671.14
369.44	1607.66
369.65	1656.81
369.86	1767.40
370.07	1697.77
370.28	1634.28
370.49	1755.11
370.70	1675.24
370.91	1691.62
371.12	1636.33
371.33	1714.15
371.54	1681.38
371.75	1734.63
371.96	1632.23
372.17	1687.53
372.38	1718.25
372.59	1636.33
372.80	1710.05
373.01	1617.90
373.22	1740.77
373.43	1685.48
373.64	1669.09
373.85	1748.97
374.06	1789.92
374.26	1736.68
374.47	1728.49
374.68	1763.30
374.89	1738.73
375.10	1652.71
375.31	1740.77
375.52	1654.76
375.73	1697.77
375.94	1675.24
376.15	1742.82
376.36	1634.28
376.57	1705.96
376.78	1714.15
376.99	1736.68
377.20	1763.30
377.40	1720.29
377.61	1804.26
377.82	1624.04
378.03	1765.35
378.24	1746.92
378.45	1658.85
378.66	1687.53
378.87	1615.85
379.08	1642.47
379.29	1667.05
379.50	1800.16
379.71	1626.09
379.91	1683.43
380.12	1662.95
380.33	1619.94
380.54	1738.73
380.75	1628.14
380.96	1701.86
381.17	1781.73
381.38	1697.77
381.59	1675.24
381.80	1755.11
382.00	1832.93
382.21	1716.20
382.42	1806.31
382.63	1906.66
382.84	1722.34
383.05	1746.92
383.26	1830.88
383.47	1767.40
383.68	1726.44
383.88	1683.43
384.09	1705.96
384.30	1757.16
384.51	1697.77
384.72	1669.09
384.93	1695.72
385.14	1677.29
385.35	1777.64
385.55	1662.95
385.76	1796.07
385.97	1705.96
386.18	1601.51
386.39	1712.10
386.60	1742.82
386.81	1638.38
387.02	1693.67
387.22	1671.14
387.43	1718.25
387.64	1787.88
387.85	1841.12
388.06	2203.61
388.27	4321.21
388.48	6848.41
388.68	8064.90
388.89	9656.17
389.10	9697.13
389.31	8503.17
389.52	7657.36
389.73	6557.60
389.93	6193.06
390.14	5838.76
390.35	5154.74
390.56	4636.60
390.77	3723.21
390.98	3012.56
391.18	2613.21
391.39	2074.59
391.60	1830.88
391.81	1902.56
392.02	1728.49
392.23	1900.52
392.43	1693.67
392.64	1826.79
392.85	1697.77
393.06	1837.03
393.27	1763.30
393.47	1677.29
393.68	1720.29
393.89	1638.38
394.10	1765.35
394.31	1708.01
394.52	1677.29
394.72	1697.77
394.93	1824.74
395.14	1667.05
395.35	1699.81
395.56	1611.75
395.76	1751.01
395.97	1748.97
396.18	1820.64
396.39	1777.64
396.60	2023.39
396.80	1953.76
397.01	1794.02
397.22	1779.68
397.43	1820.64
397.64	1748.97
397.84	1773.54
398.05	1859.56
398.26	1712.10
398.47	1765.35
398.67	1787.88
398.88	1765.35
399.09	1718.25
399.30	1726.44
399.51	1777.64
399.71	1658.85
399.92	1662.95
400.13	1753.06
400.34	1701.86
400.54	1681.38
400.75	1804.26
400.96	1710.05
401.17	1726.44
401.37	1726.44
401.58	1681.38
401.79	1714.15
402.00	1880.04
402.21	2029.54
402.41	1976.29
402.62	2011.11
402.83	2084.83
403.04	2064.35
403.24	2080.74
403.45	1820.64
403.66	1859.56
403.87	1882.08
404.07	1861.60
404.28	1920.99
404.49	1859.56
404.70	1732.58
404.90	1740.77
405.11	1701.86
405.32	1722.34
405.52	1689.57
405.73	1597.42
405.94	1654.76
406.15	1742.82
406.35	1837.03
406.56	1722.34
406.77	1683.43
406.98	1736.68
407.18	1662.95
407.39	1773.54
407.60	1740.77
407.80	1734.63
408.01	1654.76
408.22	1763.30
408.43	1710.05
408.63	1746.92
408.84	1746.92
409.05	1728.49
409.25	1660.90
409.46	1685.48
409.67	1759.21
409.88	1753.06
410.08	1720.29
410.29	1671.14
410.50	1681.38
410.70	1769.44
410.91	1644.52
411.12	1691.62
411.32	1667.05
411.53	1650.66
411.74	1841.12
411.95	1806.31
412.15	1699.81
412.36	1728.49
412.57	1728.49
412.77	1877.99
412.98	1746.92
413.19	1648.61
413.39	1718.25
413.60	1695.72
413.81	1830.88
414.01	1626.09
414.22	1736.68
414.43	1798.12
414.63	1679.33
414.84	1804.26
415.05	1763.30
415.25	1615.85
415.46	1697.77
415.67	1710.05
415.87	1755.11
416.08	1765.35
416.29	1632.23
416.49	1730.53
416.70	1679.33
416.91	1640.42
417.11	1761.25
417.32	1701.86
417.53	1665.00
417.73	1753.06
417.94	1636.33
418.15	1628.14
418.35	1689.57
418.56	1701.86
418.77	1796.07
418.97	1722.34
419.18	1689.57
419.38	1642.47
419.59	1755.11
419.80	1748.97
420.00	1693.67
420.21	1726.44
420.42	1734.63
420.62	1720.29
420.83	1677.29
421.04	1626.09
421.24	1677.29
421.45	1775.59
421.65	1734.63
421.86	1738.73
422.07	1808.36
422.27	1730.53
422.48	1734.63
422.69	1685.48
422.89	1679.33
423.10	1648.61
423.30	1722.34
423.51	1630.18
423.72	1755.11
423.92	1767.40
424.13	1667.05
424.33	1738.73
424.54	1689.57
424.75	1710.05
424.95	1744.87
425.16	1734.63
425.36	1724.39
425.57	1767.40
425.78	1767.40
425.98	1798.12
426.19	1775.59
426.39	1654.76
426.60	1685.48
426.81	1806.31
427.01	1718.25
427.22	1669.09
427.42	1650.66
427.63	1665.00
427.83	1722.34
428.04	1771.49
428.25	1665.00
428.45	1724.39
428.66	1781.73
428.86	1691.62
429.07	1656.81
429.28	1673.19
429.48	1626.09
429.69	1626.09
429.89	1718.25
430.10	1650.66
430.30	1804.26
430.51	1748.97
430.71	1650.66
430.92	1708.01
431.13	1710.05
431.33	1734.63
431.54	1714.15
431.74	1853.41
431.95	1812.45
432.15	1621.99
432.36	1722.34
432.56	1746.92
432.77	1771.49
432.98	1783.78
433.18	1783.78
433.39	1708.01
433.59	1724.39
433.80	1830.88
434.00	1857.51
434.21	1628.14
434.41	1712.10
434.62	1822.69
434.82	1578.98
435.03	1593.32
435.23	1787.88
435.44	1615.85
435.64	1697.77
435.85	1804.26
436.06	1708.01
436.26	1761.25
436.47	1718.25
436.67	1736.68
436.88	1691.62
437.08	1798.12
437.29	1757.16
437.49	1671.14
437.70	1716.20
437.90	1742.82
438.11	1839.08
438.31	1763.30
438.52	1964.00
438.72	1873.89
438.93	1925.09
439.13	1812.45
439.34	1802.21
439.54	1763.30
439.75	1814.50
439.95	1847.27
440.16	1763.30
440.36	1726.44
440.57	1714.15
440.77	1755.11
440.98	1665.00
441.18	1724.39
441.39	1689.57
441.59	1607.66
441.80	1804.26
442.00	1730.53
442.21	1783.78
442.41	1673.19
442.62	1662.95
442.82	1681.38
443.02	1722.34
443.23	1736.68
443.43	1755.11
443.64	1873.89
443.84	1681.38
444.05	1828.84
444.25	1677.29
444.46	1699.81
444.66	1730.53
444.87	1761.25
445.07	1691.62
445.28	1685.48
445.48	1771.49
445.69	1816.55
445.89	1812.45
446.09	1757.16
446.30	2033.63
446.50	2514.91
446.71	3680.20
446.91	4245.44
447.12	4716.47
447.32	4802.49
447.53	4227.01
447.73	3762.12
447.93	3575.75
448.14	3286.99
448.34	3276.75
448.55	2983.89
448.75	2791.38
448.96	2635.74
449.16	2387.93
449.36	2269.15
449.57	2060.26
449.77	1880.04
449.98	1761.25
450.18	1783.78
450.39	1910.75
450.59	1810.40
450.79	1800.16
451.00	1701.86
451.20	1769.44
451.41	1732.58
451.61	1691.62
451.81	1712.10
452.02	1769.44
452.22	1751.01
452.43	1718.25
452.63	1714.15
