SpectraSuite Data File
++++++++++++++++++++++++++++++++++++
Date: Mon Jun 06 17:33:57 CEST 2016
User: root
Dark Spectrum Present: No
Reference Spectrum Present: No
Number of Sampled Component Spectra: 1
Spectrometers: USB4C02835
Integration Time (usec): 100000 (USB4C02835)
Spectra Averaged: 1 (USB4C02835)
Boxcar Smoothing: 0 (USB4C02835)
Correct for Electrical Dark: No (USB4C02835)
Strobe/Lamp Enabled: No (USB4C02835)
Correct for Detector Non-linearity: No (USB4C02835)
Correct for Stray Light: No (USB4C02835)
Number of Pixels in Processed Spectrum: 3648
>>>>>Begin Processed Spectral Data<<<<<
177.47	1447.91
177.69	1447.91
177.91	1447.91
178.13	1462.25
178.36	1509.35
178.58	1722.34
178.80	1769.44
179.02	1673.19
179.24	1619.94
179.46	1710.05
179.68	1771.49
179.90	1701.86
180.13	1699.81
180.35	1722.34
180.57	1695.72
180.79	1712.10
181.01	1730.53
181.23	1877.99
181.45	1783.78
181.67	1767.40
181.90	1662.95
182.12	1654.76
182.34	1648.61
182.56	1738.73
182.78	1757.16
183.00	1785.83
183.22	1800.16
183.44	1605.61
183.66	1869.80
183.89	1820.64
184.11	1693.67
184.33	1744.87
184.55	1873.89
184.77	1722.34
184.99	1722.34
185.21	1755.11
185.43	1828.84
185.65	1683.43
185.87	1708.01
186.10	1828.84
186.32	1857.51
186.54	1730.53
186.76	1755.11
186.98	1773.54
187.20	1685.48
187.42	1650.66
187.64	1714.15
187.86	1730.53
188.08	1732.58
188.30	1738.73
188.52	1783.78
188.75	1773.54
188.97	1812.45
189.19	1691.62
189.41	1728.49
189.63	1757.16
189.85	1654.76
190.07	1675.24
190.29	1646.57
190.51	1712.10
190.73	1617.90
190.95	1802.21
191.17	1710.05
191.39	1695.72
191.61	1685.48
191.84	1722.34
192.06	1800.16
192.28	1730.53
192.50	1918.95
192.72	1726.44
192.94	1740.77
193.16	1759.21
193.38	1699.81
193.60	1632.23
193.82	1679.33
194.04	1787.88
194.26	1722.34
194.48	1751.01
194.70	1683.43
194.92	1652.71
195.14	1806.31
195.36	1693.67
195.58	1691.62
195.80	1734.63
196.02	1687.53
196.24	1734.63
196.46	1665.00
196.69	1640.42
196.91	1837.03
197.13	1722.34
197.35	1652.71
197.57	1724.39
197.79	1771.49
198.01	1718.25
198.23	1736.68
198.45	1726.44
198.67	1619.94
198.89	1646.57
199.11	1740.77
199.33	1660.90
199.55	1642.47
199.77	1718.25
199.99	1746.92
200.21	1748.97
200.43	1714.15
200.65	1636.33
200.87	1634.28
201.09	1699.81
201.31	1648.61
201.53	1724.39
201.75	1769.44
201.97	1738.73
202.19	1710.05
202.41	1822.69
202.63	1853.41
202.85	1755.11
203.07	1728.49
203.29	1609.70
203.51	1740.77
203.73	1695.72
203.95	1861.60
204.17	1796.07
204.39	1730.53
204.61	1673.19
204.83	1644.52
205.05	1732.58
205.27	1720.29
205.49	1841.12
205.71	1771.49
205.93	1660.90
206.15	1730.53
206.37	1716.20
206.59	1699.81
206.81	1665.00
207.03	1677.29
207.25	1589.22
207.47	1839.08
207.69	1738.73
207.91	1808.36
208.13	1796.07
208.34	1646.57
208.56	1708.01
208.78	1751.01
209.00	1701.86
209.22	1679.33
209.44	1673.19
209.66	1722.34
209.88	1626.09
210.10	1695.72
210.32	1685.48
210.54	1804.26
210.76	1724.39
210.98	1822.69
211.20	1576.94
211.42	1746.92
211.64	1830.88
211.86	1730.53
212.08	1734.63
212.30	1769.44
212.52	1718.25
212.74	1806.31
212.96	1677.29
213.17	1679.33
213.39	1697.77
213.61	1769.44
213.83	1771.49
214.05	1662.95
214.27	1849.32
214.49	1679.33
214.71	1613.80
214.93	1806.31
215.15	1755.11
215.37	1722.34
215.59	1632.23
215.81	1701.86
216.03	1703.91
216.24	1744.87
216.46	1748.97
216.68	1724.39
216.90	1828.84
217.12	1816.55
217.34	1761.25
217.56	1705.96
217.78	1824.74
218.00	1769.44
218.22	1828.84
218.44	1665.00
218.66	1746.92
218.87	1742.82
219.09	1679.33
219.31	1699.81
219.53	1652.71
219.75	1681.38
219.97	1708.01
220.19	1746.92
220.41	1755.11
220.63	1787.88
220.85	1710.05
221.06	1720.29
221.28	1734.63
221.50	1748.97
221.72	1714.15
221.94	1654.76
222.16	1748.97
222.38	1826.79
222.60	1736.68
222.82	1734.63
223.03	1718.25
223.25	1705.96
223.47	1732.58
223.69	1806.31
223.91	1699.81
224.13	1652.71
224.35	1701.86
224.57	1808.36
224.78	1708.01
225.00	1628.14
225.22	1617.90
225.44	1691.62
225.66	1816.55
225.88	1689.57
226.10	1751.01
226.32	1693.67
226.53	1761.25
226.75	1738.73
226.97	1751.01
227.19	1742.82
227.41	1689.57
227.63	1648.61
227.85	1652.71
228.06	1714.15
228.28	1667.05
228.50	1791.97
228.72	1648.61
228.94	1724.39
229.16	1583.08
229.37	1632.23
229.59	1705.96
229.81	1724.39
230.03	1673.19
230.25	1701.86
230.47	1632.23
230.69	1681.38
230.90	1726.44
231.12	1677.29
231.34	1755.11
231.56	1732.58
231.78	1761.25
232.00	1710.05
232.21	1726.44
232.43	1636.33
232.65	1607.66
232.87	1654.76
233.09	1697.77
233.30	1619.94
233.52	1746.92
233.74	1736.68
233.96	1716.20
234.18	1658.85
234.40	1736.68
234.61	1826.79
234.83	1701.86
235.05	1689.57
235.27	1855.46
235.49	1781.73
235.70	1742.82
235.92	1787.88
236.14	1703.91
236.36	1888.23
236.58	1638.38
236.79	1724.39
237.01	1738.73
237.23	1726.44
237.45	1867.75
237.67	1644.52
237.88	1769.44
238.10	1841.12
238.32	1675.24
238.54	1685.48
238.76	1728.49
238.97	1714.15
239.19	1640.42
239.41	1783.78
239.63	1814.50
239.85	1681.38
240.06	1675.24
240.28	1693.67
240.50	1757.16
240.72	1677.29
240.93	1767.40
241.15	1804.26
241.37	1683.43
241.59	1863.65
241.81	1697.77
242.02	1755.11
242.24	1662.95
242.46	1779.68
242.68	1738.73
242.89	1753.06
243.11	1751.01
243.33	1693.67
243.55	1695.72
243.76	1787.88
243.98	1781.73
244.20	1736.68
244.42	1771.49
244.64	1705.96
244.85	1656.81
245.07	1695.72
245.29	1701.86
245.51	1708.01
245.72	1687.53
245.94	1779.68
246.16	1736.68
246.38	1748.97
246.59	1648.61
246.81	1695.72
247.03	1773.54
247.24	1607.66
247.46	1660.90
247.68	1746.92
247.90	1685.48
248.11	1738.73
248.33	1808.36
248.55	1652.71
248.77	1716.20
248.98	1732.58
249.20	1912.80
249.42	1705.96
249.64	1777.64
249.85	1732.58
250.07	1746.92
250.29	1714.15
250.50	1716.20
250.72	1599.46
250.94	1724.39
251.16	1863.65
251.37	1832.93
251.59	1769.44
251.81	1714.15
252.02	1769.44
252.24	1671.14
252.46	1798.12
252.68	1677.29
252.89	1742.82
253.11	1576.94
253.33	1732.58
253.54	1693.67
253.76	1662.95
253.98	1718.25
254.20	1697.77
254.41	1644.52
254.63	1705.96
254.85	1644.52
255.06	1744.87
255.28	1726.44
255.50	1746.92
255.71	1646.57
255.93	1658.85
256.15	1712.10
256.36	1757.16
256.58	1638.38
256.80	1814.50
257.02	1701.86
257.23	1689.57
257.45	1705.96
257.67	1787.88
257.88	1656.81
258.10	1822.69
258.32	1697.77
258.53	1701.86
258.75	1800.16
258.97	1703.91
259.18	1726.44
259.40	1726.44
259.62	1748.97
259.83	1781.73
260.05	1744.87
260.27	2033.63
260.48	1767.40
260.70	1699.81
260.92	1689.57
261.13	1744.87
261.35	1689.57
261.57	1777.64
261.78	1630.18
262.00	1605.61
262.22	1775.59
262.43	1613.80
262.65	1744.87
262.86	1765.35
263.08	1816.55
263.30	1722.34
263.51	1683.43
263.73	1667.05
263.95	1847.27
264.16	1697.77
264.38	1681.38
264.60	1765.35
264.81	1744.87
265.03	1759.21
265.25	1714.15
265.46	1785.83
265.68	1796.07
265.89	1677.29
266.11	1658.85
266.33	1757.16
266.54	1828.84
266.76	1812.45
266.98	1734.63
267.19	1732.58
267.41	1738.73
267.62	1716.20
267.84	1650.66
268.06	1769.44
268.27	1703.91
268.49	1732.58
268.70	1808.36
268.92	1765.35
269.14	1675.24
269.35	1644.52
269.57	1660.90
269.79	1730.53
270.00	1710.05
270.22	1816.55
270.43	1687.53
270.65	1603.56
270.87	1726.44
271.08	1804.26
271.30	1765.35
271.51	1732.58
271.73	1787.88
271.95	1710.05
272.16	1728.49
272.38	1683.43
272.59	1701.86
272.81	1722.34
273.02	1681.38
273.24	1779.68
273.46	1812.45
273.67	1701.86
273.89	1716.20
274.10	1701.86
274.32	1855.46
274.54	1746.92
274.75	1665.00
274.97	1744.87
275.18	1812.45
275.40	1732.58
275.61	1761.25
275.83	1763.30
276.05	1599.46
276.26	1679.33
276.48	1761.25
276.69	1658.85
276.91	1644.52
277.12	1869.80
277.34	1773.54
277.55	1804.26
277.77	1751.01
277.99	1701.86
278.20	1675.24
278.42	1650.66
278.63	1669.09
278.85	1703.91
279.06	1650.66
279.28	1753.06
279.49	1740.77
279.71	1705.96
279.93	1748.97
280.14	1703.91
280.36	1632.23
280.57	1744.87
280.79	1777.64
281.00	1656.81
281.22	1654.76
281.43	1753.06
281.65	1624.04
281.86	1679.33
282.08	1742.82
282.29	1783.78
282.51	1683.43
282.73	1724.39
282.94	1624.04
283.16	1746.92
283.37	1837.03
283.59	1607.66
283.80	1785.83
284.02	1693.67
284.23	1787.88
284.45	1695.72
284.66	1648.61
284.88	1624.04
285.09	1681.38
285.31	1677.29
285.52	1736.68
285.74	1566.70
285.95	1789.92
286.17	1798.12
286.38	1798.12
286.60	1685.48
286.81	1683.43
287.03	1695.72
287.24	1701.86
287.46	1716.20
287.67	1714.15
287.89	1810.40
288.10	1656.81
288.32	1736.68
288.53	1787.88
288.75	1724.39
288.96	1779.68
289.18	1658.85
289.39	1744.87
289.61	1877.99
289.82	1830.88
290.04	1777.64
290.25	1621.99
290.47	1667.05
290.68	1763.30
290.90	1806.31
291.11	1636.33
291.33	1800.16
291.54	1689.57
291.76	1677.29
291.97	1708.01
292.18	1728.49
292.40	1673.19
292.61	1671.14
292.83	1865.70
293.04	1714.15
293.26	1738.73
293.47	1701.86
293.69	1667.05
293.90	1697.77
294.12	1779.68
294.33	1767.40
294.55	1796.07
294.76	1763.30
294.97	1806.31
295.19	1841.12
295.40	1726.44
295.62	1767.40
295.83	1810.40
296.05	1705.96
296.26	1728.49
296.48	1712.10
296.69	1681.38
296.90	1734.63
297.12	1796.07
297.33	1796.07
297.55	1751.01
297.76	1759.21
297.98	1673.19
298.19	1689.57
298.41	1742.82
298.62	1675.24
298.83	1796.07
299.05	1834.98
299.26	1689.57
299.48	1665.00
299.69	1691.62
299.90	1738.73
300.12	1605.61
300.33	1718.25
300.55	1738.73
300.76	1791.97
300.98	1656.81
301.19	1818.60
301.40	1705.96
301.62	1701.86
301.83	1753.06
302.05	1773.54
302.26	1759.21
302.47	1689.57
302.69	1689.57
302.90	1722.34
303.12	1624.04
303.33	1755.11
303.54	1853.41
303.76	1710.05
303.97	1748.97
304.19	1812.45
304.40	1740.77
304.61	1665.00
304.83	1837.03
305.04	1824.74
305.26	1755.11
305.47	1687.53
305.68	1771.49
305.90	1720.29
306.11	1728.49
306.33	1720.29
306.54	1656.81
306.75	1730.53
306.97	1542.12
307.18	1681.38
307.39	1689.57
307.61	1781.73
307.82	1705.96
308.04	1695.72
308.25	1722.34
308.46	1800.16
308.68	1652.71
308.89	1732.58
309.10	1798.12
309.32	1722.34
309.53	1742.82
309.74	1738.73
309.96	1681.38
310.17	1736.68
310.39	1708.01
310.60	1779.68
310.81	1765.35
311.03	1669.09
311.24	1763.30
311.45	1601.51
311.67	1806.31
311.88	1767.40
312.09	1695.72
312.31	1701.86
312.52	1705.96
312.73	1699.81
312.95	1634.28
313.16	1673.19
313.37	1740.77
313.59	1765.35
313.80	1722.34
314.01	1863.65
314.23	1751.01
314.44	1601.51
314.65	1658.85
314.87	1683.43
315.08	1662.95
315.29	1673.19
315.51	1708.01
315.72	1687.53
315.93	1789.92
316.15	1847.27
316.36	1728.49
316.57	1705.96
316.79	1693.67
317.00	1681.38
317.21	1759.21
317.43	1673.19
317.64	1824.74
317.85	1652.71
318.07	1697.77
318.28	1738.73
318.49	1857.51
318.70	1796.07
318.92	1832.93
319.13	1781.73
319.34	1849.32
319.56	1730.53
319.77	1865.70
319.98	1736.68
320.20	1826.79
320.41	1730.53
320.62	1849.32
320.83	1705.96
321.05	1877.99
321.26	1759.21
321.47	1732.58
321.69	1746.92
321.90	1669.09
322.11	1673.19
322.32	1744.87
322.54	1853.41
322.75	1671.14
322.96	1767.40
323.18	1642.47
323.39	1593.32
323.60	1697.77
323.81	1867.75
324.03	1708.01
324.24	1763.30
324.45	1755.11
324.66	1703.91
324.88	1712.10
325.09	1853.41
325.30	1771.49
325.52	1697.77
325.73	1730.53
325.94	1708.01
326.15	1712.10
326.37	1658.85
326.58	1757.16
326.79	1830.88
327.00	1628.14
327.22	1746.92
327.43	1648.61
327.64	1703.91
327.85	1712.10
328.07	1763.30
328.28	1824.74
328.49	1591.27
328.70	1728.49
328.92	1701.86
329.13	1705.96
329.34	1660.90
329.55	1818.60
329.76	1757.16
329.98	1710.05
330.19	1763.30
330.40	1714.15
330.61	1736.68
330.83	1839.08
331.04	1705.96
331.25	1757.16
331.46	1701.86
331.68	1685.48
331.89	1834.98
332.10	1708.01
332.31	1632.23
332.52	1751.01
332.74	1783.78
332.95	1681.38
333.16	1685.48
333.37	1791.97
333.58	1726.44
333.80	1681.38
334.01	1658.85
334.22	1665.00
334.43	1599.46
334.64	1796.07
334.86	1658.85
335.07	1615.85
335.28	1773.54
335.49	1583.08
335.70	1658.85
335.92	1732.58
336.13	1804.26
336.34	1802.21
336.55	1718.25
336.76	1761.25
336.98	1642.47
337.19	1695.72
337.40	1816.55
337.61	1857.51
337.82	1701.86
338.04	1701.86
338.25	1665.00
338.46	1665.00
338.67	1669.09
338.88	1687.53
339.09	1685.48
339.31	1640.42
339.52	1632.23
339.73	1710.05
339.94	1734.63
340.15	1660.90
340.36	1697.77
340.58	1753.06
340.79	1695.72
341.00	1724.39
341.21	1624.04
341.42	1789.92
341.63	1699.81
341.85	1751.01
342.06	1683.43
342.27	1624.04
342.48	1732.58
342.69	1595.37
342.90	1724.39
343.12	1794.02
343.33	1685.48
343.54	1763.30
343.75	1789.92
343.96	1654.76
344.17	1677.29
344.38	1681.38
344.60	1689.57
344.81	1660.90
345.02	1730.53
345.23	1837.03
345.44	1816.55
345.65	1767.40
345.86	1710.05
346.07	1748.97
346.29	1714.15
346.50	1689.57
346.71	1783.78
346.92	1834.98
347.13	1828.84
347.34	1632.23
347.55	1759.21
347.76	1724.39
347.98	1689.57
348.19	1710.05
348.40	1800.16
348.61	1708.01
348.82	1781.73
349.03	1703.91
349.24	1744.87
349.45	1867.75
349.66	1687.53
349.88	1753.06
350.09	1665.00
350.30	1771.49
350.51	1804.26
350.72	1693.67
350.93	1708.01
351.14	1724.39
351.35	1787.88
351.56	1685.48
351.77	1675.24
351.99	1714.15
352.20	1855.46
352.41	1796.07
352.62	1581.03
352.83	1720.29
353.04	1703.91
353.25	1636.33
353.46	1787.88
353.67	1771.49
353.88	1636.33
354.09	1826.79
354.30	1746.92
354.52	1763.30
354.73	1681.38
354.94	1748.97
355.15	1710.05
355.36	1812.45
355.57	1720.29
355.78	1732.58
355.99	1693.67
356.20	1681.38
356.41	1755.11
356.62	1771.49
356.83	1779.68
357.04	1767.40
357.25	1597.42
357.46	1720.29
357.68	1681.38
357.89	1740.77
358.10	1689.57
358.31	1701.86
358.52	1660.90
358.73	1646.57
358.94	1693.67
359.15	1748.97
359.36	1722.34
359.57	1705.96
359.78	1665.00
359.99	1728.49
360.20	1689.57
360.41	1673.19
360.62	1757.16
360.83	1804.26
361.04	1759.21
361.25	1753.06
361.46	1822.69
361.67	1695.72
361.88	1826.79
362.09	1669.09
362.30	1685.48
362.51	1660.90
362.72	1716.20
362.93	1757.16
363.14	1769.44
363.35	1701.86
363.56	1677.29
363.78	1806.31
363.99	1791.97
364.20	1761.25
364.41	1730.53
364.62	1855.46
364.83	1763.30
365.04	1650.66
365.25	1748.97
365.46	1847.27
365.67	1695.72
365.88	1693.67
366.09	1751.01
366.30	1787.88
366.51	1712.10
366.72	1714.15
366.93	1708.01
367.14	1679.33
367.35	1785.83
367.56	1710.05
367.77	1771.49
367.98	1736.68
368.18	1697.77
368.39	1804.26
368.60	1677.29
368.81	1744.87
369.02	1773.54
369.23	1665.00
369.44	1624.04
369.65	1710.05
369.86	1785.83
370.07	1665.00
370.28	1724.39
370.49	1701.86
370.70	1771.49
370.91	1701.86
371.12	1660.90
371.33	1769.44
371.54	1714.15
371.75	1861.60
371.96	1556.46
372.17	1734.63
372.38	1718.25
372.59	1771.49
372.80	1730.53
373.01	1685.48
373.22	1734.63
373.43	1794.02
373.64	1669.09
373.85	1742.82
374.06	1796.07
374.26	1740.77
374.47	1732.58
374.68	1748.97
374.89	1798.12
375.10	1751.01
375.31	1820.64
375.52	1677.29
375.73	1728.49
375.94	1640.42
376.15	1726.44
376.36	1650.66
376.57	1705.96
376.78	1681.38
376.99	1732.58
377.20	1763.30
377.40	1714.15
377.61	1857.51
377.82	1665.00
378.03	1808.36
378.24	1742.82
378.45	1726.44
378.66	1763.30
378.87	1605.61
379.08	1648.61
379.29	1710.05
379.50	1841.12
379.71	1701.86
379.91	1746.92
380.12	1667.05
380.33	1734.63
380.54	1753.06
380.75	1624.04
380.96	1712.10
381.17	1791.97
381.38	1714.15
381.59	1798.12
381.80	1679.33
382.00	1847.27
382.21	1730.53
382.42	1894.37
382.63	1888.23
382.84	1765.35
383.05	1781.73
383.26	1808.36
383.47	1791.97
383.68	1796.07
383.88	1773.54
384.09	1730.53
384.30	1728.49
384.51	1699.81
384.72	1693.67
384.93	1640.42
385.14	1665.00
385.35	1794.02
385.55	1611.75
385.76	1748.97
385.97	1673.19
386.18	1646.57
386.39	1710.05
386.60	1732.58
386.81	1665.00
387.02	1685.48
387.22	1648.61
387.43	1763.30
387.64	1773.54
387.85	1886.18
388.06	2222.05
388.27	4200.38
388.48	6645.66
388.68	8220.55
388.89	9785.19
389.10	9807.72
389.31	8648.57
389.52	7520.14
389.73	6746.01
389.93	6303.65
390.14	5812.14
390.35	5078.96
390.56	4429.76
390.77	3917.76
390.98	3139.54
391.18	2435.03
391.39	2160.61
391.60	1918.95
391.81	1812.45
392.02	1765.35
392.23	1914.85
392.43	1796.07
392.64	1775.59
392.85	1673.19
393.06	1808.36
393.27	1689.57
393.47	1683.43
393.68	1708.01
393.89	1677.29
394.10	1808.36
394.31	1751.01
394.52	1681.38
394.72	1654.76
394.93	1800.16
395.14	1697.77
395.35	1804.26
395.56	1683.43
395.76	1714.15
395.97	1808.36
396.18	1892.32
396.39	1877.99
396.60	2039.78
396.80	1877.99
397.01	1853.41
397.22	1845.22
397.43	1863.65
397.64	1732.58
397.84	1861.60
398.05	1861.60
398.26	1730.53
398.47	1775.59
398.67	1697.77
398.88	1740.77
399.09	1765.35
399.30	1710.05
399.51	1830.88
399.71	1675.24
399.92	1761.25
400.13	1761.25
400.34	1791.97
400.54	1687.53
400.75	1843.17
400.96	1738.73
401.17	1787.88
401.37	1769.44
401.58	1730.53
401.79	1726.44
402.00	1800.16
402.21	1986.53
402.41	2025.44
402.62	2043.87
402.83	2078.69
403.04	1943.52
403.24	2095.07
403.45	1847.27
403.66	1882.08
403.87	1998.82
404.07	1914.85
404.28	1855.46
404.49	1798.12
404.70	1798.12
404.90	1834.98
405.11	1791.97
405.32	1751.01
405.52	1689.57
405.73	1681.38
405.94	1689.57
406.15	1710.05
406.35	1761.25
406.56	1763.30
406.77	1718.25
406.98	1718.25
407.18	1722.34
407.39	1830.88
407.60	1679.33
407.80	1753.06
408.01	1740.77
408.22	1732.58
408.43	1710.05
408.63	1794.02
408.84	1724.39
409.05	1802.21
409.25	1693.67
409.46	1607.66
409.67	1650.66
409.88	1669.09
410.08	1677.29
410.29	1722.34
410.50	1710.05
410.70	1714.15
410.91	1652.71
411.12	1755.11
411.32	1714.15
411.53	1722.34
411.74	1814.50
411.95	1726.44
412.15	1718.25
412.36	1740.77
412.57	1812.45
412.77	1718.25
412.98	1738.73
413.19	1695.72
413.39	1755.11
413.60	1773.54
413.81	1849.32
414.01	1693.67
414.22	1802.21
414.43	1830.88
414.63	1730.53
414.84	1810.40
415.05	1759.21
415.25	1689.57
415.46	1744.87
415.67	1671.14
415.87	1767.40
416.08	1681.38
416.29	1699.81
416.49	1697.77
416.70	1751.01
416.91	1716.20
417.11	1644.52
417.32	1703.91
417.53	1732.58
417.73	1708.01
417.94	1710.05
418.15	1769.44
418.35	1703.91
418.56	1830.88
418.77	1880.04
418.97	1751.01
419.18	1708.01
419.38	1583.08
419.59	1624.04
419.80	1765.35
420.00	1669.09
420.21	1705.96
420.42	1826.79
420.62	1775.59
420.83	1708.01
421.04	1755.11
421.24	1744.87
421.45	1775.59
421.65	1800.16
421.86	1740.77
422.07	1716.20
422.27	1798.12
422.48	1697.77
422.69	1693.67
422.89	1701.86
423.10	1761.25
423.30	1669.09
423.51	1681.38
423.72	1730.53
423.92	1775.59
424.13	1685.48
424.33	1697.77
424.54	1791.97
424.75	1824.74
424.95	1843.17
425.16	1810.40
425.36	1765.35
425.57	1757.16
425.78	1726.44
425.98	1810.40
426.19	1732.58
426.39	1601.51
426.60	1726.44
426.81	1845.22
427.01	1660.90
427.22	1673.19
427.42	1650.66
427.63	1732.58
427.83	1800.16
428.04	1808.36
428.25	1824.74
428.45	1818.60
428.66	1820.64
428.86	1757.16
429.07	1742.82
429.28	1773.54
429.48	1751.01
429.69	1667.05
429.89	1757.16
430.10	1628.14
430.30	1751.01
430.51	1755.11
430.71	1695.72
430.92	1687.53
431.13	1720.29
431.33	1759.21
431.54	1765.35
431.74	1800.16
431.95	1796.07
432.15	1607.66
432.36	1722.34
432.56	1818.60
432.77	1820.64
432.98	1880.04
433.18	1726.44
433.39	1781.73
433.59	1656.81
433.80	1777.64
434.00	1808.36
434.21	1699.81
434.41	1681.38
434.62	1906.66
434.82	1689.57
435.03	1726.44
435.23	1710.05
435.44	1650.66
435.64	1681.38
435.85	1720.29
436.06	1777.64
436.26	1869.80
436.47	1777.64
436.67	1712.10
436.88	1738.73
437.08	1783.78
437.29	1841.12
437.49	1730.53
437.70	1804.26
437.90	1642.47
438.11	1859.56
438.31	1851.36
438.52	1824.74
438.72	1857.51
438.93	1894.37
439.13	1753.06
439.34	1832.93
439.54	1779.68
439.75	1814.50
439.95	1830.88
440.16	1763.30
440.36	1796.07
440.57	1736.68
440.77	1787.88
440.98	1796.07
441.18	1779.68
441.39	1720.29
441.59	1673.19
441.80	1914.85
442.00	1763.30
442.21	1884.13
442.41	1654.76
442.62	1796.07
442.82	1757.16
443.02	1699.81
443.23	1748.97
443.43	1718.25
443.64	1779.68
443.84	1689.57
444.05	1789.92
444.25	1763.30
444.46	1710.05
444.66	1710.05
444.87	1826.79
445.07	1658.85
445.28	1744.87
445.48	1810.40
445.69	1779.68
445.89	1927.14
446.09	1779.68
446.30	2068.45
446.50	2674.65
446.71	3764.17
446.91	4382.65
447.12	4765.62
447.32	4904.89
447.53	4376.51
447.73	3887.04
447.93	3532.75
448.14	3319.76
448.34	3178.45
448.55	2912.21
448.75	2852.82
448.96	2717.65
449.16	2475.99
449.36	2303.96
449.57	2045.92
449.77	1894.37
449.98	1787.88
450.18	1867.75
450.39	1824.74
450.59	1886.18
450.79	1775.59
451.00	1742.82
451.20	1830.88
451.41	1689.57
451.61	1771.49
451.81	1767.40
452.02	1744.87
452.22	1669.09
452.43	1734.63
452.63	1751.01
