SpectraSuite Data File
++++++++++++++++++++++++++++++++++++
Date: Mon Jun 06 14:57:37 CEST 2016
User: root
Dark Spectrum Present: No
Reference Spectrum Present: No
Number of Sampled Component Spectra: 1
Spectrometers: USB4C02835
Integration Time (usec): 100000 (USB4C02835)
Spectra Averaged: 1 (USB4C02835)
Boxcar Smoothing: 0 (USB4C02835)
Correct for Electrical Dark: No (USB4C02835)
Strobe/Lamp Enabled: No (USB4C02835)
Correct for Detector Non-linearity: No (USB4C02835)
Correct for Stray Light: No (USB4C02835)
Number of Pixels in Processed Spectrum: 3648
>>>>>Begin Processed Spectral Data<<<<<
177.47	1495.02
177.69	1495.02
177.91	1495.02
178.13	1529.83
178.36	1495.02
178.58	1660.90
178.80	1714.15
179.02	1593.32
179.24	1656.81
179.46	1662.95
179.68	1716.20
179.90	1716.20
180.13	1695.72
180.35	1615.85
180.57	1648.61
180.79	1710.05
181.01	1648.61
181.23	1761.25
181.45	1697.77
181.67	1791.97
181.90	1660.90
182.12	1628.14
182.34	1652.71
182.56	1718.25
182.78	1673.19
183.00	1701.86
183.22	1695.72
183.44	1589.22
183.66	1845.22
183.89	1812.45
184.11	1726.44
184.33	1716.20
184.55	1734.63
184.77	1708.01
184.99	1732.58
185.21	1628.14
185.43	1802.21
185.65	1699.81
185.87	1640.42
186.10	1888.23
186.32	1839.08
186.54	1767.40
186.76	1714.15
186.98	1767.40
187.20	1689.57
187.42	1609.70
187.64	1726.44
187.86	1746.92
188.08	1787.88
188.30	1681.38
188.52	1671.14
188.75	1738.73
188.97	1689.57
189.19	1656.81
189.41	1726.44
189.63	1705.96
189.85	1626.09
190.07	1609.70
190.29	1648.61
190.51	1693.67
190.73	1587.18
190.95	1816.55
191.17	1665.00
191.39	1589.22
191.61	1597.42
191.84	1718.25
192.06	1714.15
192.28	1669.09
192.50	1914.85
192.72	1738.73
192.94	1712.10
193.16	1736.68
193.38	1650.66
193.60	1621.99
193.82	1734.63
194.04	1669.09
194.26	1708.01
194.48	1669.09
194.70	1675.24
194.92	1714.15
195.14	1769.44
195.36	1669.09
195.58	1796.07
195.80	1701.86
196.02	1687.53
196.24	1636.33
196.46	1738.73
196.69	1638.38
196.91	1873.89
197.13	1650.66
197.35	1681.38
197.57	1724.39
197.79	1703.91
198.01	1693.67
198.23	1722.34
198.45	1697.77
198.67	1697.77
198.89	1648.61
199.11	1699.81
199.33	1712.10
199.55	1490.92
199.77	1718.25
199.99	1744.87
200.21	1726.44
200.43	1695.72
200.65	1628.14
200.87	1546.22
201.09	1748.97
201.31	1685.48
201.53	1734.63
201.75	1724.39
201.97	1617.90
202.19	1669.09
202.41	1730.53
202.63	1837.03
202.85	1746.92
203.07	1804.26
203.29	1656.81
203.51	1681.38
203.73	1642.47
203.95	1886.18
204.17	1681.38
204.39	1722.34
204.61	1734.63
204.83	1689.57
205.05	1742.82
205.27	1738.73
205.49	1812.45
205.71	1699.81
205.93	1615.85
206.15	1689.57
206.37	1742.82
206.59	1732.58
206.81	1617.90
207.03	1656.81
207.25	1669.09
207.47	1699.81
207.69	1697.77
207.91	1757.16
208.13	1718.25
208.34	1634.28
208.56	1660.90
208.78	1652.71
209.00	1714.15
209.22	1632.23
209.44	1667.05
209.66	1646.57
209.88	1621.99
210.10	1667.05
210.32	1722.34
210.54	1712.10
210.76	1662.95
210.98	1722.34
211.20	1619.94
211.42	1681.38
211.64	1726.44
211.86	1773.54
212.08	1685.48
212.30	1689.57
212.52	1648.61
212.74	1673.19
212.96	1648.61
213.17	1785.83
213.39	1681.38
213.61	1818.60
213.83	1665.00
214.05	1560.55
214.27	1828.84
214.49	1556.46
214.71	1691.62
214.93	1771.49
215.15	1660.90
215.37	1763.30
215.59	1607.66
215.81	1705.96
216.03	1669.09
216.24	1650.66
216.46	1759.21
216.68	1587.18
216.90	1710.05
217.12	1824.74
217.34	1740.77
217.56	1673.19
217.78	1834.98
218.00	1697.77
218.22	1708.01
218.44	1681.38
218.66	1789.92
218.87	1849.32
219.09	1687.53
219.31	1677.29
219.53	1685.48
219.75	1693.67
219.97	1699.81
220.19	1724.39
220.41	1691.62
220.63	1794.02
220.85	1714.15
221.06	1638.38
221.28	1791.97
221.50	1818.60
221.72	1693.67
221.94	1693.67
222.16	1685.48
222.38	1712.10
222.60	1757.16
222.82	1697.77
223.03	1722.34
223.25	1683.43
223.47	1755.11
223.69	1875.94
223.91	1665.00
224.13	1673.19
224.35	1665.00
224.57	1740.77
224.78	1693.67
225.00	1591.27
225.22	1656.81
225.44	1724.39
225.66	1708.01
225.88	1697.77
226.10	1820.64
226.32	1777.64
226.53	1751.01
226.75	1644.52
226.97	1687.53
227.19	1693.67
227.41	1679.33
227.63	1716.20
227.85	1533.93
228.06	1681.38
228.28	1755.11
228.50	1732.58
228.72	1701.86
228.94	1677.29
229.16	1558.50
229.37	1652.71
229.59	1697.77
229.81	1757.16
230.03	1632.23
230.25	1644.52
230.47	1589.22
230.69	1558.50
230.90	1783.78
231.12	1662.95
231.34	1685.48
231.56	1691.62
231.78	1693.67
232.00	1734.63
232.21	1724.39
232.43	1736.68
232.65	1578.98
232.87	1773.54
233.09	1636.33
233.30	1660.90
233.52	1738.73
233.74	1607.66
233.96	1617.90
234.18	1669.09
234.40	1775.59
234.61	1724.39
234.83	1597.42
235.05	1667.05
235.27	1822.69
235.49	1732.58
235.70	1703.91
235.92	1722.34
236.14	1767.40
236.36	1873.89
236.58	1671.14
236.79	1689.57
237.01	1746.92
237.23	1705.96
237.45	1851.36
237.67	1636.33
237.88	1699.81
238.10	1814.50
238.32	1605.61
238.54	1681.38
238.76	1742.82
238.97	1599.46
239.19	1673.19
239.41	1761.25
239.63	1734.63
239.85	1701.86
240.06	1751.01
240.28	1699.81
240.50	1828.84
240.72	1726.44
240.93	1693.67
241.15	1736.68
241.37	1677.29
241.59	1777.64
241.81	1695.72
242.02	1712.10
242.24	1755.11
242.46	1722.34
242.68	1693.67
242.89	1708.01
243.11	1759.21
243.33	1662.95
243.55	1687.53
243.76	1738.73
243.98	1724.39
244.20	1738.73
244.42	1734.63
244.64	1683.43
244.85	1677.29
245.07	1673.19
245.29	1718.25
245.51	1712.10
245.72	1720.29
245.94	1775.59
246.16	1744.87
246.38	1771.49
246.59	1697.77
246.81	1695.72
247.03	1626.09
247.24	1621.99
247.46	1699.81
247.68	1718.25
247.90	1714.15
248.11	1720.29
248.33	1728.49
248.55	1693.67
248.77	1759.21
248.98	1738.73
249.20	1763.30
249.42	1683.43
249.64	1710.05
249.85	1701.86
250.07	1636.33
250.29	1738.73
250.50	1767.40
250.72	1621.99
250.94	1665.00
251.16	1834.98
251.37	1701.86
251.59	1722.34
251.81	1701.86
252.02	1820.64
252.24	1742.82
252.46	1755.11
252.68	1675.24
252.89	1634.28
253.11	1673.19
253.33	1845.22
253.54	1820.64
253.76	1615.85
253.98	1714.15
254.20	1724.39
254.41	1665.00
254.63	1605.61
254.85	1640.42
255.06	1648.61
255.28	1667.05
255.50	1722.34
255.71	1689.57
255.93	1638.38
256.15	1650.66
256.36	1665.00
256.58	1669.09
256.80	1806.31
257.02	1624.04
257.23	1662.95
257.45	1648.61
257.67	1734.63
257.88	1636.33
258.10	1742.82
258.32	1691.62
258.53	1710.05
258.75	1841.12
258.97	1574.89
259.18	1675.24
259.40	1744.87
259.62	1773.54
259.83	1796.07
260.05	1691.62
260.27	1894.37
260.48	1777.64
260.70	1642.47
260.92	1748.97
261.13	1642.47
261.35	1646.57
261.57	1734.63
261.78	1615.85
262.00	1665.00
262.22	1699.81
262.43	1656.81
262.65	1609.70
262.86	1746.92
263.08	1812.45
263.30	1734.63
263.51	1673.19
263.73	1683.43
263.95	1742.82
264.16	1652.71
264.38	1660.90
264.60	1753.06
264.81	1693.67
265.03	1738.73
265.25	1638.38
265.46	1693.67
265.68	1665.00
265.89	1763.30
266.11	1593.32
266.33	1730.53
266.54	1765.35
266.76	1667.05
266.98	1726.44
267.19	1771.49
267.41	1785.83
267.62	1677.29
267.84	1595.37
268.06	1765.35
268.27	1734.63
268.49	1785.83
268.70	1748.97
268.92	1759.21
269.14	1701.86
269.35	1585.13
269.57	1755.11
269.79	1757.16
270.00	1669.09
270.22	1896.42
270.43	1703.91
270.65	1486.83
270.87	1681.38
271.08	1691.62
271.30	1748.97
271.51	1730.53
271.73	1818.60
271.95	1751.01
272.16	1708.01
272.38	1794.02
272.59	1624.04
272.81	1767.40
273.02	1775.59
273.24	1830.88
273.46	1775.59
273.67	1656.81
273.89	1619.94
274.10	1656.81
274.32	1701.86
274.54	1744.87
274.75	1759.21
274.97	1648.61
275.18	1675.24
275.40	1763.30
275.61	1669.09
275.83	1685.48
276.05	1660.90
276.26	1740.77
276.48	1648.61
276.69	1669.09
276.91	1642.47
277.12	1767.40
277.34	1775.59
277.55	1767.40
277.77	1658.85
277.99	1585.13
278.20	1630.18
278.42	1652.71
278.63	1681.38
278.85	1642.47
279.06	1669.09
279.28	1730.53
279.49	1718.25
279.71	1732.58
279.93	1699.81
280.14	1718.25
280.36	1638.38
280.57	1742.82
280.79	1783.78
281.00	1689.57
281.22	1656.81
281.43	1767.40
281.65	1597.42
281.86	1621.99
282.08	1679.33
282.29	1771.49
282.51	1578.98
282.73	1624.04
282.94	1640.42
283.16	1785.83
283.37	1761.25
283.59	1691.62
283.80	1671.14
284.02	1708.01
284.23	1798.12
284.45	1652.71
284.66	1683.43
284.88	1615.85
285.09	1677.29
285.31	1693.67
285.52	1728.49
285.74	1609.70
285.95	1742.82
286.17	1738.73
286.38	1744.87
286.60	1712.10
286.81	1679.33
287.03	1697.77
287.24	1632.23
287.46	1763.30
287.67	1716.20
287.89	1748.97
288.10	1689.57
288.32	1742.82
288.53	1755.11
288.75	1751.01
288.96	1710.05
289.18	1718.25
289.39	1708.01
289.61	1714.15
289.82	1789.92
290.04	1781.73
290.25	1591.27
290.47	1636.33
290.68	1665.00
290.90	1843.17
291.11	1591.27
291.33	1789.92
291.54	1667.05
291.76	1689.57
291.97	1660.90
292.18	1697.77
292.40	1652.71
292.61	1646.57
292.83	1830.88
293.04	1740.77
293.26	1650.66
293.47	1683.43
293.69	1738.73
293.90	1714.15
294.12	1732.58
294.33	1683.43
294.55	1677.29
294.76	1683.43
294.97	1740.77
295.19	1841.12
295.40	1632.23
295.62	1746.92
295.83	1777.64
296.05	1595.37
296.26	1701.86
296.48	1689.57
296.69	1779.68
296.90	1708.01
297.12	1724.39
297.33	1767.40
297.55	1740.77
297.76	1671.14
297.98	1798.12
298.19	1724.39
298.41	1714.15
298.62	1652.71
298.83	1771.49
299.05	1689.57
299.26	1767.40
299.48	1710.05
299.69	1718.25
299.90	1740.77
300.12	1624.04
300.33	1773.54
300.55	1753.06
300.76	1765.35
300.98	1636.33
301.19	1656.81
301.40	1640.42
301.62	1722.34
301.83	1679.33
302.05	1730.53
302.26	1689.57
302.47	1677.29
302.69	1587.18
302.90	1744.87
303.12	1605.61
303.33	1771.49
303.54	1867.75
303.76	1755.11
303.97	1761.25
304.19	1753.06
304.40	1638.38
304.61	1796.07
304.83	1841.12
305.04	1724.39
305.26	1673.19
305.47	1640.42
305.68	1685.48
305.90	1589.22
306.11	1773.54
306.33	1621.99
306.54	1724.39
306.75	1677.29
306.97	1595.37
307.18	1687.53
307.39	1689.57
307.61	1755.11
307.82	1656.81
308.04	1689.57
308.25	1611.75
308.46	1708.01
308.68	1710.05
308.89	1724.39
309.10	1759.21
309.32	1703.91
309.53	1673.19
309.74	1716.20
309.96	1675.24
310.17	1740.77
310.39	1628.14
310.60	1783.78
310.81	1736.68
311.03	1628.14
311.24	1691.62
311.45	1736.68
311.67	1818.60
311.88	1708.01
312.09	1648.61
312.31	1628.14
312.52	1687.53
312.73	1724.39
312.95	1574.89
313.16	1650.66
313.37	1781.73
313.59	1685.48
313.80	1748.97
314.01	1734.63
314.23	1669.09
314.44	1660.90
314.65	1626.09
314.87	1724.39
315.08	1667.05
315.29	1656.81
315.51	1646.57
315.72	1658.85
315.93	1800.16
316.15	1734.63
316.36	1589.22
316.57	1689.57
316.79	1671.14
317.00	1677.29
317.21	1708.01
317.43	1626.09
317.64	1632.23
317.85	1689.57
318.07	1642.47
318.28	1775.59
318.49	1800.16
318.70	1818.60
318.92	1771.49
319.13	1796.07
319.34	1859.56
319.56	1755.11
319.77	1785.83
319.98	1753.06
320.20	1773.54
320.41	1753.06
320.62	1734.63
320.83	1638.38
321.05	1931.23
321.26	1773.54
321.47	1734.63
321.69	1771.49
321.90	1628.14
322.11	1689.57
322.32	1679.33
322.54	1757.16
322.75	1609.70
322.96	1865.70
323.18	1658.85
323.39	1646.57
323.60	1638.38
323.81	1714.15
324.03	1646.57
324.24	1724.39
324.45	1693.67
324.66	1687.53
324.88	1732.58
325.09	1816.55
325.30	1751.01
325.52	1646.57
325.73	1763.30
325.94	1701.86
326.15	1560.55
326.37	1748.97
326.58	1779.68
326.79	1849.32
327.00	1665.00
327.22	1687.53
327.43	1656.81
327.64	1665.00
327.85	1705.96
328.07	1675.24
328.28	1806.31
328.49	1710.05
328.70	1675.24
328.92	1789.92
329.13	1679.33
329.34	1738.73
329.55	1798.12
329.76	1705.96
329.98	1654.76
330.19	1787.88
330.40	1697.77
330.61	1675.24
330.83	1732.58
331.04	1736.68
331.25	1710.05
331.46	1648.61
331.68	1628.14
331.89	1775.59
332.10	1701.86
332.31	1593.32
332.52	1654.76
332.74	1705.96
332.95	1560.55
333.16	1656.81
333.37	1773.54
333.58	1607.66
333.80	1732.58
334.01	1619.94
334.22	1617.90
334.43	1675.24
334.64	1716.20
334.86	1599.46
335.07	1642.47
335.28	1785.83
335.49	1554.41
335.70	1740.77
335.92	1759.21
336.13	1841.12
336.34	1697.77
336.55	1701.86
336.76	1693.67
336.98	1542.12
337.19	1708.01
337.40	1783.78
337.61	1871.84
337.82	1632.23
338.04	1695.72
338.25	1650.66
338.46	1724.39
338.67	1722.34
338.88	1650.66
339.09	1724.39
339.31	1656.81
339.52	1615.85
339.73	1648.61
339.94	1654.76
340.15	1751.01
340.36	1607.66
340.58	1689.57
340.79	1669.09
341.00	1765.35
341.21	1624.04
341.42	1812.45
341.63	1736.68
341.85	1724.39
342.06	1794.02
342.27	1619.94
342.48	1798.12
342.69	1570.79
342.90	1652.71
343.12	1697.77
343.33	1714.15
343.54	1773.54
343.75	1724.39
343.96	1708.01
344.17	1642.47
344.38	1695.72
344.60	1640.42
344.81	1691.62
345.02	1652.71
345.23	1738.73
345.44	1751.01
345.65	1791.97
345.86	1765.35
346.07	1701.86
346.29	1675.24
346.50	1677.29
346.71	1712.10
346.92	1724.39
347.13	1837.03
347.34	1652.71
347.55	1662.95
347.76	1720.29
347.98	1687.53
348.19	1634.28
348.40	1787.88
348.61	1705.96
348.82	1798.12
349.03	1734.63
349.24	1640.42
349.45	1773.54
349.66	1558.50
349.88	1703.91
350.09	1671.14
350.30	1718.25
350.51	1740.77
350.72	1708.01
350.93	1787.88
351.14	1708.01
351.35	1728.49
351.56	1753.06
351.77	1675.24
351.99	1789.92
352.20	1808.36
352.41	1773.54
352.62	1550.31
352.83	1634.28
353.04	1794.02
353.25	1677.29
353.46	1777.64
353.67	1849.32
353.88	1636.33
354.09	1732.58
354.30	1683.43
354.52	1679.33
354.73	1605.61
354.94	1689.57
355.15	1656.81
355.36	1814.50
355.57	1712.10
355.78	1748.97
355.99	1632.23
356.20	1714.15
356.41	1746.92
356.62	1759.21
356.83	1671.14
357.04	1783.78
357.25	1603.56
357.46	1671.14
357.68	1576.94
357.89	1652.71
358.10	1662.95
358.31	1732.58
358.52	1708.01
358.73	1683.43
358.94	1703.91
359.15	1703.91
359.36	1771.49
359.57	1669.09
359.78	1765.35
359.99	1728.49
360.20	1599.46
360.41	1740.77
360.62	1722.34
360.83	1667.05
361.04	1748.97
361.25	1689.57
361.46	1781.73
361.67	1687.53
361.88	1736.68
362.09	1736.68
362.30	1724.39
362.51	1644.52
362.72	1728.49
362.93	1806.31
363.14	1712.10
363.35	1673.19
363.56	1677.29
363.78	1730.53
363.99	1806.31
364.20	1636.33
364.41	1753.06
364.62	1789.92
364.83	1673.19
365.04	1671.14
365.25	1611.75
365.46	1771.49
365.67	1619.94
365.88	1642.47
366.09	1695.72
366.30	1673.19
366.51	1675.24
366.72	1648.61
366.93	1689.57
367.14	1744.87
367.35	1771.49
367.56	1660.90
367.77	1810.40
367.98	1718.25
368.18	1708.01
368.39	1748.97
368.60	1685.48
368.81	1777.64
369.02	1716.20
369.23	1628.14
369.44	1597.42
369.65	1736.68
369.86	1683.43
370.07	1767.40
370.28	1660.90
370.49	1769.44
370.70	1742.82
370.91	1636.33
371.12	1671.14
371.33	1697.77
371.54	1714.15
371.75	1814.50
371.96	1544.17
372.17	1681.38
372.38	1689.57
372.59	1744.87
372.80	1673.19
373.01	1738.73
373.22	1796.07
373.43	1744.87
373.64	1621.99
373.85	1779.68
374.06	1746.92
374.26	1738.73
374.47	1724.39
374.68	1847.27
374.89	1687.53
375.10	1646.57
375.31	1808.36
375.52	1771.49
375.73	1771.49
375.94	1675.24
376.15	1757.16
376.36	1669.09
376.57	1619.94
376.78	1673.19
376.99	1714.15
377.20	1796.07
377.40	1712.10
377.61	1859.56
377.82	1656.81
378.03	1787.88
378.24	1734.63
378.45	1724.39
378.66	1763.30
378.87	1538.02
379.08	1669.09
379.29	1712.10
379.50	1763.30
379.71	1675.24
379.91	1746.92
380.12	1689.57
380.33	1665.00
380.54	1693.67
380.75	1699.81
380.96	1644.52
381.17	1767.40
381.38	1726.44
381.59	1705.96
381.80	1736.68
382.00	1839.08
382.21	1773.54
382.42	1873.89
382.63	1908.71
382.84	1804.26
383.05	1867.75
383.26	1822.69
383.47	1722.34
383.68	1769.44
383.88	1718.25
384.09	1701.86
384.30	1820.64
384.51	1736.68
384.72	1687.53
384.93	1587.18
385.14	1656.81
385.35	1740.77
385.55	1642.47
385.76	1734.63
385.97	1710.05
386.18	1744.87
386.39	1630.18
386.60	1738.73
386.81	1654.76
387.02	1581.03
387.22	1595.37
387.43	1691.62
387.64	1851.36
387.85	1890.28
388.06	2209.76
388.27	4128.70
388.48	6563.74
388.68	7808.90
388.89	9095.03
389.10	9340.79
389.31	7980.93
389.52	7292.82
389.73	6434.72
389.93	6078.37
390.14	5627.82
390.35	5031.86
390.56	4396.99
390.77	3741.64
390.98	2904.02
391.18	2412.51
391.39	2123.74
391.60	1865.70
391.81	1918.95
392.02	1722.34
392.23	1912.80
392.43	1777.64
392.64	1751.01
392.85	1734.63
393.06	1730.53
393.27	1755.11
393.47	1630.18
393.68	1781.73
393.89	1648.61
394.10	1775.59
394.31	1728.49
394.52	1677.29
394.72	1660.90
394.93	1740.77
395.14	1693.67
395.35	1771.49
395.56	1703.91
395.76	1773.54
395.97	1748.97
396.18	1841.12
396.39	1880.04
396.60	2027.49
396.80	1968.10
397.01	1794.02
397.22	1873.89
397.43	1832.93
397.64	1769.44
397.84	1869.80
398.05	1906.66
398.26	1744.87
398.47	1734.63
398.67	1779.68
398.88	1703.91
399.09	1738.73
399.30	1632.23
399.51	1753.06
399.71	1673.19
399.92	1757.16
400.13	1718.25
400.34	1654.76
400.54	1699.81
400.75	1798.12
400.96	1773.54
401.17	1718.25
401.37	1757.16
401.58	1701.86
401.79	1728.49
402.00	1849.32
402.21	1953.76
402.41	1925.09
402.62	1945.57
402.83	2072.54
403.04	1927.14
403.24	2097.12
403.45	1818.60
403.66	1845.22
403.87	1845.22
404.07	1935.33
404.28	1859.56
404.49	1918.95
404.70	1757.16
404.90	1726.44
405.11	1761.25
405.32	1746.92
405.52	1734.63
405.73	1726.44
405.94	1730.53
406.15	1695.72
406.35	1748.97
406.56	1771.49
406.77	1724.39
406.98	1681.38
407.18	1683.43
407.39	1843.17
407.60	1646.57
407.80	1751.01
408.01	1714.15
408.22	1697.77
408.43	1636.33
408.63	1824.74
408.84	1779.68
409.05	1693.67
409.25	1681.38
409.46	1681.38
409.67	1636.33
409.88	1689.57
410.08	1714.15
410.29	1708.01
410.50	1693.67
410.70	1757.16
410.91	1677.29
411.12	1710.05
411.32	1714.15
411.53	1716.20
411.74	1779.68
411.95	1693.67
412.15	1814.50
412.36	1791.97
412.57	1726.44
412.77	1779.68
412.98	1738.73
413.19	1681.38
413.39	1800.16
413.60	1746.92
413.81	1841.12
414.01	1697.77
414.22	1662.95
414.43	1708.01
414.63	1755.11
414.84	1781.73
415.05	1728.49
415.25	1650.66
415.46	1710.05
415.67	1642.47
415.87	1703.91
416.08	1804.26
416.29	1646.57
416.49	1705.96
416.70	1714.15
416.91	1677.29
417.11	1665.00
417.32	1687.53
417.53	1712.10
417.73	1701.86
417.94	1632.23
418.15	1732.58
418.35	1693.67
418.56	1720.29
418.77	1902.56
418.97	1662.95
419.18	1681.38
419.38	1564.65
419.59	1703.91
419.80	1771.49
420.00	1626.09
420.21	1667.05
420.42	1808.36
420.62	1804.26
420.83	1578.98
421.04	1740.77
421.24	1720.29
421.45	1708.01
421.65	1703.91
421.86	1708.01
422.07	1742.82
422.27	1773.54
422.48	1748.97
422.69	1626.09
422.89	1722.34
423.10	1652.71
423.30	1628.14
423.51	1703.91
423.72	1722.34
423.92	1724.39
424.13	1603.56
424.33	1771.49
424.54	1798.12
424.75	1728.49
424.95	1755.11
425.16	1667.05
425.36	1751.01
425.57	1781.73
425.78	1734.63
425.98	1767.40
426.19	1669.09
426.39	1652.71
426.60	1720.29
426.81	1753.06
427.01	1703.91
427.22	1603.56
427.42	1603.56
427.63	1658.85
427.83	1824.74
428.04	1794.02
428.25	1779.68
428.45	1757.16
428.66	1730.53
428.86	1722.34
429.07	1767.40
429.28	1722.34
429.48	1662.95
429.69	1699.81
429.89	1640.42
430.10	1642.47
430.30	1736.68
430.51	1773.54
430.71	1705.96
430.92	1703.91
431.13	1734.63
431.33	1798.12
431.54	1742.82
431.74	1812.45
431.95	1759.21
432.15	1656.81
432.36	1710.05
432.56	1710.05
432.77	1853.41
432.98	1769.44
433.18	1716.20
433.39	1796.07
433.59	1656.81
433.80	1886.18
434.00	1822.69
434.21	1624.04
434.41	1648.61
434.62	1822.69
434.82	1658.85
435.03	1689.57
435.23	1726.44
435.44	1648.61
435.64	1691.62
435.85	1726.44
436.06	1736.68
436.26	1765.35
436.47	1654.76
436.67	1636.33
436.88	1718.25
437.08	1740.77
437.29	1847.27
437.49	1689.57
437.70	1832.93
437.90	1681.38
438.11	1859.56
438.31	1732.58
438.52	1822.69
438.72	1804.26
438.93	1861.60
439.13	1779.68
439.34	1779.68
439.54	1718.25
439.75	1798.12
439.95	1771.49
440.16	1648.61
440.36	1726.44
440.57	1675.24
440.77	1877.99
440.98	1755.11
441.18	1693.67
441.39	1669.09
441.59	1660.90
441.80	1847.27
442.00	1712.10
442.21	1808.36
442.41	1673.19
442.62	1746.92
442.82	1708.01
443.02	1695.72
443.23	1794.02
443.43	1683.43
443.64	1865.70
443.84	1677.29
444.05	1779.68
444.25	1734.63
444.46	1691.62
444.66	1621.99
444.87	1855.46
445.07	1675.24
445.28	1712.10
445.48	1822.69
445.69	1761.25
445.89	1867.75
446.09	1759.21
446.30	2070.50
446.50	2541.53
446.71	3657.67
446.91	4235.20
447.12	4448.19
447.32	4728.76
447.53	4126.66
447.73	3782.60
447.93	3397.58
448.14	3196.88
448.34	3100.62
448.55	2770.90
448.75	2699.22
448.96	2760.66
449.16	2363.36
449.36	2234.33
449.57	2062.30
449.77	1875.94
449.98	1820.64
450.18	1824.74
450.39	1802.21
450.59	1802.21
450.79	1683.43
451.00	1708.01
451.20	1832.93
451.41	1671.14
451.61	1781.73
451.81	1730.53
452.02	1744.87
452.22	1658.85
452.43	1683.43
452.63	1632.23
