SpectraSuite Data File
++++++++++++++++++++++++++++++++++++
Date: Mon Jun 06 13:31:17 CEST 2016
User: root
Dark Spectrum Present: No
Reference Spectrum Present: No
Number of Sampled Component Spectra: 1
Spectrometers: USB4C02835
Integration Time (usec): 100000 (USB4C02835)
Spectra Averaged: 1 (USB4C02835)
Boxcar Smoothing: 0 (USB4C02835)
Correct for Electrical Dark: No (USB4C02835)
Strobe/Lamp Enabled: No (USB4C02835)
Correct for Detector Non-linearity: No (USB4C02835)
Correct for Stray Light: No (USB4C02835)
Number of Pixels in Processed Spectrum: 3648
>>>>>Begin Processed Spectral Data<<<<<
177.47	1468.39
177.69	1468.39
177.91	1468.39
178.13	1486.83
178.36	1507.30
178.58	1578.98
178.80	1804.26
179.02	1595.37
179.24	1621.99
179.46	1671.14
179.68	1724.39
179.90	1683.43
180.13	1689.57
180.35	1730.53
180.57	1697.77
180.79	1767.40
181.01	1726.44
181.23	1791.97
181.45	1757.16
181.67	1689.57
181.90	1712.10
182.12	1638.38
182.34	1665.00
182.56	1673.19
182.78	1621.99
183.00	1679.33
183.22	1650.66
183.44	1595.37
183.66	1830.88
183.89	1757.16
184.11	1748.97
184.33	1800.16
184.55	1705.96
184.77	1734.63
184.99	1699.81
185.21	1687.53
185.43	1781.73
185.65	1628.14
185.87	1714.15
186.10	1830.88
186.32	1839.08
186.54	1638.38
186.76	1787.88
186.98	1712.10
187.20	1708.01
187.42	1689.57
187.64	1705.96
187.86	1689.57
188.08	1806.31
188.30	1673.19
188.52	1615.85
188.75	1755.11
188.97	1742.82
189.19	1691.62
189.41	1673.19
189.63	1722.34
189.85	1732.58
190.07	1697.77
190.29	1714.15
190.51	1712.10
190.73	1714.15
190.95	1796.07
191.17	1660.90
191.39	1591.27
191.61	1685.48
191.84	1703.91
192.06	1775.59
192.28	1689.57
192.50	1896.42
192.72	1697.77
192.94	1626.09
193.16	1736.68
193.38	1673.19
193.60	1632.23
193.82	1642.47
194.04	1773.54
194.26	1642.47
194.48	1613.80
194.70	1646.57
194.92	1660.90
195.14	1714.15
195.36	1679.33
195.58	1689.57
195.80	1660.90
196.02	1638.38
196.24	1665.00
196.46	1740.77
196.69	1597.42
196.91	1904.61
197.13	1646.57
197.35	1705.96
197.57	1755.11
197.79	1730.53
198.01	1677.29
198.23	1779.68
198.45	1681.38
198.67	1667.05
198.89	1644.52
199.11	1681.38
199.33	1685.48
199.55	1595.37
199.77	1681.38
199.99	1828.84
200.21	1691.62
200.43	1714.15
200.65	1677.29
200.87	1568.74
201.09	1626.09
201.31	1605.61
201.53	1732.58
201.75	1671.14
201.97	1691.62
202.19	1652.71
202.41	1734.63
202.63	1804.26
202.85	1726.44
203.07	1714.15
203.29	1656.81
203.51	1576.94
203.73	1619.94
203.95	1843.17
204.17	1691.62
204.39	1669.09
204.61	1617.90
204.83	1636.33
205.05	1703.91
205.27	1732.58
205.49	1755.11
205.71	1679.33
205.93	1652.71
206.15	1673.19
206.37	1757.16
206.59	1642.47
206.81	1695.72
207.03	1607.66
207.25	1585.13
207.47	1757.16
207.69	1687.53
207.91	1812.45
208.13	1812.45
208.34	1636.33
208.56	1615.85
208.78	1724.39
209.00	1624.04
209.22	1681.38
209.44	1714.15
209.66	1699.81
209.88	1693.67
210.10	1701.86
210.32	1724.39
210.54	1742.82
210.76	1636.33
210.98	1703.91
211.20	1544.17
211.42	1722.34
211.64	1765.35
211.86	1763.30
212.08	1775.59
212.30	1787.88
212.52	1675.24
212.74	1699.81
212.96	1722.34
213.17	1757.16
213.39	1763.30
213.61	1687.53
213.83	1665.00
214.05	1665.00
214.27	1665.00
214.49	1681.38
214.71	1685.48
214.93	1742.82
215.15	1665.00
215.37	1695.72
215.59	1621.99
215.81	1718.25
216.03	1775.59
216.24	1716.20
216.46	1765.35
216.68	1755.11
216.90	1742.82
217.12	1736.68
217.34	1746.92
217.56	1687.53
217.78	1730.53
218.00	1738.73
218.22	1679.33
218.44	1746.92
218.66	1716.20
218.87	1789.92
219.09	1730.53
219.31	1699.81
219.53	1724.39
219.75	1665.00
219.97	1744.87
220.19	1736.68
220.41	1615.85
220.63	1738.73
220.85	1857.51
221.06	1671.14
221.28	1759.21
221.50	1751.01
221.72	1675.24
221.94	1714.15
222.16	1628.14
222.38	1751.01
222.60	1691.62
222.82	1658.85
223.03	1710.05
223.25	1646.57
223.47	1781.73
223.69	1779.68
223.91	1746.92
224.13	1642.47
224.35	1667.05
224.57	1730.53
224.78	1789.92
225.00	1595.37
225.22	1652.71
225.44	1757.16
225.66	1751.01
225.88	1646.57
226.10	1691.62
226.32	1691.62
226.53	1865.70
226.75	1665.00
226.97	1615.85
227.19	1667.05
227.41	1562.60
227.63	1681.38
227.85	1599.46
228.06	1802.21
228.28	1689.57
228.50	1759.21
228.72	1636.33
228.94	1642.47
229.16	1574.89
229.37	1574.89
229.59	1691.62
229.81	1763.30
230.03	1716.20
230.25	1570.79
230.47	1611.75
230.69	1619.94
230.90	1802.21
231.12	1677.29
231.34	1726.44
231.56	1658.85
231.78	1619.94
232.00	1730.53
232.21	1724.39
232.43	1656.81
232.65	1599.46
232.87	1703.91
233.09	1671.14
233.30	1687.53
233.52	1771.49
233.74	1726.44
233.96	1634.28
234.18	1751.01
234.40	1732.58
234.61	1789.92
234.83	1642.47
235.05	1607.66
235.27	1822.69
235.49	1773.54
235.70	1699.81
235.92	1798.12
236.14	1800.16
236.36	1810.40
236.58	1570.79
236.79	1798.12
237.01	1697.77
237.23	1701.86
237.45	1841.12
237.67	1581.03
237.88	1689.57
238.10	1832.93
238.32	1611.75
238.54	1730.53
238.76	1710.05
238.97	1708.01
239.19	1665.00
239.41	1763.30
239.63	1693.67
239.85	1726.44
240.06	1634.28
240.28	1718.25
240.50	1783.78
240.72	1710.05
240.93	1605.61
241.15	1740.77
241.37	1683.43
241.59	1869.80
241.81	1644.52
242.02	1695.72
242.24	1669.09
242.46	1671.14
242.68	1624.04
242.89	1755.11
243.11	1720.29
243.33	1697.77
243.55	1699.81
243.76	1679.33
243.98	1660.90
244.20	1667.05
244.42	1697.77
244.64	1701.86
244.85	1648.61
245.07	1595.37
245.29	1691.62
245.51	1658.85
245.72	1677.29
245.94	1753.06
246.16	1654.76
246.38	1654.76
246.59	1703.91
246.81	1607.66
247.03	1617.90
247.24	1679.33
247.46	1681.38
247.68	1710.05
247.90	1638.38
248.11	1708.01
248.33	1773.54
248.55	1671.14
248.77	1671.14
248.98	1675.24
249.20	1740.77
249.42	1736.68
249.64	1695.72
249.85	1624.04
250.07	1669.09
250.29	1724.39
250.50	1722.34
250.72	1665.00
250.94	1693.67
251.16	1824.74
251.37	1800.16
251.59	1701.86
251.81	1650.66
252.02	1726.44
252.24	1611.75
252.46	1740.77
252.68	1607.66
252.89	1699.81
253.11	1638.38
253.33	1812.45
253.54	1730.53
253.76	1656.81
253.98	1710.05
254.20	1665.00
254.41	1654.76
254.63	1605.61
254.85	1654.76
255.06	1679.33
255.28	1673.19
255.50	1673.19
255.71	1597.42
255.93	1613.80
256.15	1728.49
256.36	1714.15
256.58	1628.14
256.80	1746.92
257.02	1671.14
257.23	1656.81
257.45	1720.29
257.67	1705.96
257.88	1685.48
258.10	1740.77
258.32	1640.42
258.53	1755.11
258.75	1800.16
258.97	1644.52
259.18	1642.47
259.40	1689.57
259.62	1781.73
259.83	1779.68
260.05	1703.91
260.27	1923.04
260.48	1720.29
260.70	1634.28
260.92	1667.05
261.13	1658.85
261.35	1652.71
261.57	1746.92
261.78	1587.18
262.00	1626.09
262.22	1708.01
262.43	1605.61
262.65	1677.29
262.86	1740.77
263.08	1935.33
263.30	1642.47
263.51	1562.60
263.73	1689.57
263.95	1785.83
264.16	1621.99
264.38	1701.86
264.60	1748.97
264.81	1687.53
265.03	1726.44
265.25	1724.39
265.46	1650.66
265.68	1738.73
265.89	1726.44
266.11	1615.85
266.33	1687.53
266.54	1742.82
266.76	1708.01
266.98	1689.57
267.19	1746.92
267.41	1755.11
267.62	1617.90
267.84	1599.46
268.06	1642.47
268.27	1712.10
268.49	1806.31
268.70	1818.60
268.92	1710.05
269.14	1636.33
269.35	1576.94
269.57	1718.25
269.79	1701.86
270.00	1681.38
270.22	1732.58
270.43	1669.09
270.65	1597.42
270.87	1646.57
271.08	1787.88
271.30	1802.21
271.51	1722.34
271.73	1720.29
271.95	1767.40
272.16	1699.81
272.38	1726.44
272.59	1652.71
272.81	1734.63
273.02	1677.29
273.24	1710.05
273.46	1798.12
273.67	1738.73
273.89	1638.38
274.10	1667.05
274.32	1853.41
274.54	1656.81
274.75	1726.44
274.97	1648.61
275.18	1804.26
275.40	1751.01
275.61	1722.34
275.83	1720.29
276.05	1613.80
276.26	1689.57
276.48	1763.30
276.69	1673.19
276.91	1660.90
277.12	1775.59
277.34	1755.11
277.55	1746.92
277.77	1652.71
277.99	1630.18
278.20	1656.81
278.42	1605.61
278.63	1611.75
278.85	1685.48
279.06	1703.91
279.28	1734.63
279.49	1765.35
279.71	1716.20
279.93	1683.43
280.14	1761.25
280.36	1636.33
280.57	1718.25
280.79	1720.29
281.00	1626.09
281.22	1677.29
281.43	1753.06
281.65	1621.99
281.86	1615.85
282.08	1710.05
282.29	1832.93
282.51	1667.05
282.73	1685.48
282.94	1589.22
283.16	1738.73
283.37	1804.26
283.59	1656.81
283.80	1728.49
284.02	1679.33
284.23	1599.46
284.45	1708.01
284.66	1681.38
284.88	1628.14
285.09	1675.24
285.31	1714.15
285.52	1804.26
285.74	1613.80
285.95	1705.96
286.17	1740.77
286.38	1712.10
286.60	1753.06
286.81	1685.48
287.03	1642.47
287.24	1681.38
287.46	1736.68
287.67	1695.72
287.89	1822.69
288.10	1673.19
288.32	1765.35
288.53	1791.97
288.75	1726.44
288.96	1695.72
289.18	1607.66
289.39	1601.51
289.61	1701.86
289.82	1830.88
290.04	1873.89
290.25	1642.47
290.47	1765.35
290.68	1634.28
290.90	1781.73
291.11	1583.08
291.33	1730.53
291.54	1656.81
291.76	1630.18
291.97	1662.95
292.18	1734.63
292.40	1697.77
292.61	1701.86
292.83	1832.93
293.04	1728.49
293.26	1718.25
293.47	1669.09
293.69	1626.09
293.90	1665.00
294.12	1771.49
294.33	1611.75
294.55	1669.09
294.76	1851.36
294.97	1734.63
295.19	1796.07
295.40	1673.19
295.62	1642.47
295.83	1650.66
296.05	1630.18
296.26	1736.68
296.48	1710.05
296.69	1632.23
296.90	1720.29
297.12	1716.20
297.33	1787.88
297.55	1677.29
297.76	1697.77
297.98	1677.29
298.19	1691.62
298.41	1626.09
298.62	1640.42
298.83	1771.49
299.05	1757.16
299.26	1648.61
299.48	1660.90
299.69	1710.05
299.90	1626.09
300.12	1597.42
300.33	1718.25
300.55	1669.09
300.76	1763.30
300.98	1654.76
301.19	1662.95
301.40	1695.72
301.62	1640.42
301.83	1638.38
302.05	1667.05
302.26	1628.14
302.47	1751.01
302.69	1619.94
302.90	1675.24
303.12	1613.80
303.33	1699.81
303.54	1808.36
303.76	1656.81
303.97	1763.30
304.19	1742.82
304.40	1613.80
304.61	1759.21
304.83	1794.02
305.04	1705.96
305.26	1710.05
305.47	1611.75
305.68	1712.10
305.90	1644.52
306.11	1691.62
306.33	1673.19
306.54	1607.66
306.75	1599.46
306.97	1636.33
307.18	1632.23
307.39	1714.15
307.61	1742.82
307.82	1693.67
308.04	1755.11
308.25	1654.76
308.46	1691.62
308.68	1718.25
308.89	1693.67
309.10	1730.53
309.32	1652.71
309.53	1673.19
309.74	1755.11
309.96	1665.00
310.17	1751.01
310.39	1708.01
310.60	1787.88
310.81	1718.25
311.03	1591.27
311.24	1761.25
311.45	1695.72
311.67	1751.01
311.88	1691.62
312.09	1716.20
312.31	1681.38
312.52	1742.82
312.73	1642.47
312.95	1679.33
313.16	1624.04
313.37	1800.16
313.59	1794.02
313.80	1710.05
314.01	1738.73
314.23	1699.81
314.44	1671.14
314.65	1615.85
314.87	1628.14
315.08	1701.86
315.29	1632.23
315.51	1640.42
315.72	1617.90
315.93	1773.54
316.15	1740.77
316.36	1636.33
316.57	1701.86
316.79	1787.88
317.00	1728.49
317.21	1738.73
317.43	1669.09
317.64	1722.34
317.85	1675.24
318.07	1675.24
318.28	1681.38
318.49	1787.88
318.70	1935.33
318.92	1777.64
319.13	1722.34
319.34	1837.03
319.56	1826.79
319.77	1769.44
319.98	1802.21
320.20	1832.93
320.41	1720.29
320.62	1714.15
320.83	1695.72
321.05	1857.51
321.26	1638.38
321.47	1716.20
321.69	1828.84
321.90	1566.70
322.11	1705.96
322.32	1683.43
322.54	1773.54
322.75	1640.42
322.96	1808.36
323.18	1644.52
323.39	1554.41
323.60	1550.31
323.81	1689.57
324.03	1660.90
324.24	1671.14
324.45	1779.68
324.66	1660.90
324.88	1695.72
325.09	1800.16
325.30	1710.05
325.52	1769.44
325.73	1734.63
325.94	1624.04
326.15	1660.90
326.37	1632.23
326.58	1716.20
326.79	1779.68
327.00	1644.52
327.22	1730.53
327.43	1687.53
327.64	1589.22
327.85	1730.53
328.07	1769.44
328.28	1783.78
328.49	1607.66
328.70	1640.42
328.92	1656.81
329.13	1675.24
329.34	1802.21
329.55	1726.44
329.76	1658.85
329.98	1677.29
330.19	1734.63
330.40	1724.39
330.61	1738.73
330.83	1687.53
331.04	1605.61
331.25	1724.39
331.46	1705.96
331.68	1705.96
331.89	1781.73
332.10	1630.18
332.31	1591.27
332.52	1654.76
332.74	1730.53
332.95	1599.46
333.16	1708.01
333.37	1681.38
333.58	1609.70
333.80	1697.77
334.01	1644.52
334.22	1665.00
334.43	1730.53
334.64	1642.47
334.86	1578.98
335.07	1591.27
335.28	1714.15
335.49	1654.76
335.70	1677.29
335.92	1781.73
336.13	1787.88
336.34	1761.25
336.55	1730.53
336.76	1683.43
336.98	1562.60
337.19	1658.85
337.40	1798.12
337.61	1812.45
337.82	1695.72
338.04	1814.50
338.25	1617.90
338.46	1710.05
338.67	1687.53
338.88	1746.92
339.09	1630.18
339.31	1687.53
339.52	1628.14
339.73	1611.75
339.94	1751.01
340.15	1740.77
340.36	1656.81
340.58	1628.14
340.79	1609.70
341.00	1734.63
341.21	1583.08
341.42	1826.79
341.63	1720.29
341.85	1744.87
342.06	1718.25
342.27	1638.38
342.48	1753.06
342.69	1662.95
342.90	1730.53
343.12	1726.44
343.33	1728.49
343.54	1769.44
343.75	1777.64
343.96	1720.29
344.17	1619.94
344.38	1705.96
344.60	1691.62
344.81	1634.28
345.02	1624.04
345.23	1755.11
345.44	1751.01
345.65	1705.96
345.86	1763.30
346.07	1712.10
346.29	1660.90
346.50	1822.69
346.71	1691.62
346.92	1740.77
347.13	1796.07
347.34	1570.79
347.55	1695.72
347.76	1765.35
347.98	1525.74
348.19	1601.51
348.40	1775.59
348.61	1742.82
348.82	1779.68
349.03	1738.73
349.24	1673.19
349.45	1822.69
349.66	1599.46
349.88	1726.44
350.09	1683.43
350.30	1806.31
350.51	1765.35
350.72	1718.25
350.93	1699.81
351.14	1718.25
351.35	1748.97
351.56	1720.29
351.77	1689.57
351.99	1703.91
352.20	1734.63
352.41	1738.73
352.62	1558.50
352.83	1726.44
353.04	1697.77
353.25	1681.38
353.46	1761.25
353.67	1824.74
353.88	1593.32
354.09	1734.63
354.30	1652.71
354.52	1802.21
354.73	1730.53
354.94	1619.94
355.15	1703.91
355.36	1751.01
355.57	1642.47
355.78	1685.48
355.99	1638.38
356.20	1658.85
356.41	1757.16
356.62	1796.07
356.83	1615.85
357.04	1769.44
357.25	1624.04
357.46	1703.91
357.68	1679.33
357.89	1710.05
358.10	1638.38
358.31	1708.01
358.52	1595.37
358.73	1685.48
358.94	1642.47
359.15	1640.42
359.36	1769.44
359.57	1671.14
359.78	1740.77
359.99	1726.44
360.20	1652.71
360.41	1660.90
360.62	1812.45
360.83	1705.96
361.04	1765.35
361.25	1669.09
361.46	1728.49
361.67	1726.44
361.88	1689.57
362.09	1720.29
362.30	1710.05
362.51	1728.49
362.72	1726.44
362.93	1710.05
363.14	1718.25
363.35	1796.07
363.56	1632.23
363.78	1763.30
363.99	1724.39
364.20	1685.48
364.41	1683.43
364.62	1787.88
364.83	1759.21
365.04	1701.86
365.25	1591.27
365.46	1875.94
365.67	1662.95
365.88	1630.18
366.09	1656.81
366.30	1724.39
366.51	1705.96
366.72	1607.66
366.93	1714.15
367.14	1703.91
367.35	1722.34
367.56	1660.90
367.77	1820.64
367.98	1687.53
368.18	1689.57
368.39	1638.38
368.60	1710.05
368.81	1724.39
369.02	1705.96
369.23	1656.81
369.44	1535.98
369.65	1675.24
369.86	1687.53
370.07	1679.33
370.28	1683.43
370.49	1773.54
370.70	1791.97
370.91	1636.33
371.12	1636.33
371.33	1755.11
371.54	1638.38
371.75	1834.98
371.96	1591.27
372.17	1697.77
372.38	1681.38
372.59	1660.90
372.80	1705.96
373.01	1718.25
373.22	1742.82
373.43	1738.73
373.64	1599.46
373.85	1804.26
374.06	1855.46
374.26	1783.78
374.47	1728.49
374.68	1751.01
374.89	1691.62
375.10	1728.49
375.31	1710.05
375.52	1738.73
375.73	1689.57
375.94	1634.28
376.15	1777.64
376.36	1693.67
376.57	1634.28
376.78	1662.95
376.99	1665.00
377.20	1734.63
377.40	1712.10
377.61	1820.64
377.82	1722.34
378.03	1755.11
378.24	1759.21
378.45	1722.34
378.66	1642.47
378.87	1673.19
379.08	1640.42
379.29	1730.53
379.50	1689.57
379.71	1748.97
379.91	1744.87
380.12	1699.81
380.33	1787.88
380.54	1720.29
380.75	1714.15
380.96	1744.87
381.17	1701.86
381.38	1771.49
381.59	1783.78
381.80	1689.57
382.00	1800.16
382.21	1617.90
382.42	1744.87
382.63	1888.23
382.84	1740.77
383.05	1798.12
383.26	1791.97
383.47	1748.97
383.68	1765.35
383.88	1712.10
384.09	1697.77
384.30	1789.92
384.51	1714.15
384.72	1701.86
384.93	1667.05
385.14	1695.72
385.35	1759.21
385.55	1587.18
385.76	1767.40
385.97	1654.76
386.18	1699.81
386.39	1685.48
386.60	1691.62
386.81	1662.95
387.02	1691.62
387.22	1642.47
387.43	1746.92
387.64	1777.64
387.85	1810.40
388.06	2152.42
388.27	4247.49
388.48	6782.87
388.68	8236.93
388.89	9654.12
389.10	9758.57
389.31	8490.88
389.52	7741.32
389.73	6719.39
389.93	6287.26
390.14	5853.09
390.35	5152.69
390.56	4491.20
390.77	3780.55
390.98	2992.08
391.18	2506.71
391.39	2095.07
391.60	1804.26
391.81	1769.44
392.02	1726.44
392.23	1787.88
392.43	1751.01
392.64	1828.84
392.85	1759.21
393.06	1751.01
393.27	1642.47
393.47	1654.76
393.68	1773.54
393.89	1730.53
394.10	1812.45
394.31	1644.52
394.52	1714.15
394.72	1669.09
394.93	1769.44
395.14	1648.61
395.35	1724.39
395.56	1673.19
395.76	1736.68
395.97	1761.25
396.18	1867.75
396.39	1796.07
396.60	2074.59
396.80	1869.80
397.01	1880.04
397.22	1818.60
397.43	1837.03
397.64	1693.67
397.84	1859.56
398.05	1841.12
398.26	1730.53
398.47	1761.25
398.67	1744.87
398.88	1697.77
399.09	1736.68
399.30	1611.75
399.51	1751.01
399.71	1638.38
399.92	1673.19
400.13	1714.15
400.34	1632.23
400.54	1705.96
400.75	1722.34
400.96	1708.01
401.17	1802.21
401.37	1650.66
401.58	1732.58
401.79	1636.33
402.00	1830.88
402.21	2011.11
402.41	1970.15
402.62	2019.30
402.83	1976.29
403.04	2000.87
403.24	2052.06
403.45	1832.93
403.66	1896.42
403.87	1843.17
404.07	1906.66
404.28	1904.61
404.49	1849.32
404.70	1808.36
404.90	1708.01
405.11	1722.34
405.32	1667.05
405.52	1611.75
405.73	1685.48
405.94	1669.09
406.15	1751.01
406.35	1640.42
406.56	1701.86
406.77	1691.62
406.98	1775.59
407.18	1675.24
407.39	1802.21
407.60	1693.67
407.80	1712.10
408.01	1703.91
408.22	1728.49
408.43	1673.19
408.63	1734.63
408.84	1683.43
409.05	1705.96
409.25	1595.37
409.46	1710.05
409.67	1679.33
409.88	1695.72
410.08	1763.30
410.29	1591.27
410.50	1738.73
410.70	1683.43
410.91	1662.95
411.12	1740.77
411.32	1665.00
411.53	1677.29
411.74	1771.49
411.95	1755.11
412.15	1730.53
412.36	1720.29
412.57	1771.49
412.77	1763.30
412.98	1800.16
413.19	1687.53
413.39	1734.63
413.60	1689.57
413.81	1808.36
414.01	1650.66
414.22	1703.91
414.43	1726.44
414.63	1679.33
414.84	1828.84
415.05	1771.49
415.25	1656.81
415.46	1746.92
415.67	1677.29
415.87	1708.01
416.08	1697.77
416.29	1695.72
416.49	1687.53
416.70	1724.39
416.91	1619.94
417.11	1654.76
417.32	1728.49
417.53	1808.36
417.73	1767.40
417.94	1683.43
418.15	1646.57
418.35	1755.11
418.56	1722.34
418.77	1722.34
418.97	1724.39
419.18	1716.20
419.38	1550.31
419.59	1675.24
419.80	1701.86
420.00	1642.47
420.21	1705.96
420.42	1708.01
420.62	1675.24
420.83	1677.29
421.04	1687.53
421.24	1669.09
421.45	1804.26
421.65	1708.01
421.86	1671.14
422.07	1728.49
422.27	1767.40
422.48	1724.39
422.69	1648.61
422.89	1681.38
423.10	1638.38
423.30	1703.91
423.51	1685.48
423.72	1751.01
423.92	1804.26
424.13	1609.70
424.33	1767.40
424.54	1845.22
424.75	1726.44
424.95	1794.02
425.16	1744.87
425.36	1642.47
425.57	1722.34
425.78	1783.78
425.98	1757.16
426.19	1683.43
426.39	1638.38
426.60	1734.63
426.81	1763.30
427.01	1691.62
427.22	1624.04
427.42	1626.09
427.63	1691.62
427.83	1693.67
428.04	1832.93
428.25	1818.60
428.45	1767.40
428.66	1773.54
428.86	1714.15
429.07	1730.53
429.28	1695.72
429.48	1646.57
429.69	1634.28
429.89	1695.72
430.10	1708.01
430.30	1746.92
430.51	1697.77
430.71	1619.94
430.92	1730.53
431.13	1685.48
431.33	1775.59
431.54	1636.33
431.74	1796.07
431.95	1794.02
432.15	1714.15
432.36	1679.33
432.56	1748.97
432.77	1771.49
432.98	1791.97
433.18	1687.53
433.39	1775.59
433.59	1763.30
433.80	1771.49
434.00	1826.79
434.21	1671.14
434.41	1636.33
434.62	1851.36
434.82	1632.23
435.03	1665.00
435.23	1677.29
435.44	1624.04
435.64	1763.30
435.85	1785.83
436.06	1716.20
436.26	1771.49
436.47	1687.53
436.67	1683.43
436.88	1789.92
437.08	1665.00
437.29	1812.45
437.49	1728.49
437.70	1812.45
437.90	1681.38
438.11	1814.50
438.31	1689.57
438.52	1806.31
438.72	1869.80
438.93	1845.22
439.13	1728.49
439.34	1761.25
439.54	1769.44
439.75	1810.40
439.95	1783.78
440.16	1658.85
440.36	1787.88
440.57	1689.57
440.77	1765.35
440.98	1710.05
441.18	1775.59
441.39	1730.53
441.59	1662.95
441.80	1841.12
442.00	1705.96
442.21	1869.80
442.41	1628.14
442.62	1732.58
442.82	1638.38
443.02	1714.15
443.23	1746.92
443.43	1738.73
443.64	1779.68
443.84	1695.72
444.05	1806.31
444.25	1665.00
444.46	1665.00
444.66	1718.25
444.87	1761.25
445.07	1669.09
445.28	1734.63
445.48	1800.16
445.69	1800.16
445.89	1822.69
446.09	1701.86
446.30	2015.20
446.50	2719.70
446.71	3760.07
446.91	4315.07
447.12	4763.58
447.32	4736.95
447.53	4358.08
447.73	4001.73
447.93	3520.46
448.14	3325.90
448.34	3229.65
448.55	2871.25
448.75	2820.05
448.96	2648.02
449.16	2461.66
449.36	2322.40
449.57	1992.67
449.77	1900.52
449.98	1820.64
450.18	1765.35
450.39	1865.70
450.59	1796.07
450.79	1718.25
451.00	1812.45
451.20	1787.88
451.41	1732.58
451.61	1812.45
451.81	1718.25
452.02	1714.15
452.22	1697.77
452.43	1730.53
452.63	1779.68
