SpectraSuite Data File
++++++++++++++++++++++++++++++++++++
Date: Mon Jun 06 16:38:17 CEST 2016
User: root
Dark Spectrum Present: No
Reference Spectrum Present: No
Number of Sampled Component Spectra: 1
Spectrometers: USB4C02835
Integration Time (usec): 100000 (USB4C02835)
Spectra Averaged: 1 (USB4C02835)
Boxcar Smoothing: 0 (USB4C02835)
Correct for Electrical Dark: No (USB4C02835)
Strobe/Lamp Enabled: No (USB4C02835)
Correct for Detector Non-linearity: No (USB4C02835)
Correct for Stray Light: No (USB4C02835)
Number of Pixels in Processed Spectrum: 3648
>>>>>Begin Processed Spectral Data<<<<<
177.47	1470.44
177.69	1470.44
177.91	1470.44
178.13	1433.58
178.36	1443.82
178.58	1689.57
178.80	1734.63
179.02	1607.66
179.24	1705.96
179.46	1761.25
179.68	1748.97
179.90	1662.95
180.13	1705.96
180.35	1646.57
180.57	1710.05
180.79	1796.07
181.01	1767.40
181.23	1791.97
181.45	1796.07
181.67	1650.66
181.90	1716.20
182.12	1712.10
182.34	1601.51
182.56	1687.53
182.78	1738.73
183.00	1775.59
183.22	1667.05
183.44	1640.42
183.66	1796.07
183.89	1736.68
184.11	1695.72
184.33	1746.92
184.55	1767.40
184.77	1701.86
184.99	1714.15
185.21	1734.63
185.43	1851.36
185.65	1673.19
185.87	1785.83
186.10	1830.88
186.32	1853.41
186.54	1761.25
186.76	1765.35
186.98	1724.39
187.20	1705.96
187.42	1599.46
187.64	1730.53
187.86	1697.77
188.08	1710.05
188.30	1677.29
188.52	1779.68
188.75	1757.16
188.97	1789.92
189.19	1642.47
189.41	1710.05
189.63	1765.35
189.85	1671.14
190.07	1673.19
190.29	1619.94
190.51	1820.64
190.73	1757.16
190.95	1769.44
191.17	1714.15
191.39	1615.85
191.61	1642.47
191.84	1630.18
192.06	1755.11
192.28	1560.55
192.50	1986.53
192.72	1736.68
192.94	1730.53
193.16	1783.78
193.38	1673.19
193.60	1669.09
193.82	1689.57
194.04	1710.05
194.26	1660.90
194.48	1712.10
194.70	1652.71
194.92	1613.80
195.14	1724.39
195.36	1632.23
195.58	1775.59
195.80	1716.20
196.02	1765.35
196.24	1767.40
196.46	1722.34
196.69	1720.29
196.91	1912.80
197.13	1667.05
197.35	1703.91
197.57	1812.45
197.79	1736.68
198.01	1728.49
198.23	1712.10
198.45	1765.35
198.67	1665.00
198.89	1732.58
199.11	1703.91
199.33	1685.48
199.55	1591.27
199.77	1742.82
199.99	1767.40
200.21	1714.15
200.43	1679.33
200.65	1609.70
200.87	1527.78
201.09	1763.30
201.31	1689.57
201.53	1675.24
201.75	1697.77
201.97	1730.53
202.19	1724.39
202.41	1761.25
202.63	1871.84
202.85	1746.92
203.07	1783.78
203.29	1642.47
203.51	1669.09
203.73	1705.96
203.95	1849.32
204.17	1722.34
204.39	1681.38
204.61	1712.10
204.83	1654.76
205.05	1726.44
205.27	1791.97
205.49	1802.21
205.71	1667.05
205.93	1644.52
206.15	1722.34
206.37	1755.11
206.59	1728.49
206.81	1613.80
207.03	1609.70
207.25	1714.15
207.47	1730.53
207.69	1669.09
207.91	1751.01
208.13	1757.16
208.34	1724.39
208.56	1656.81
208.78	1738.73
209.00	1757.16
209.22	1699.81
209.44	1710.05
209.66	1671.14
209.88	1734.63
210.10	1611.75
210.32	1714.15
210.54	1845.22
210.76	1748.97
210.98	1769.44
211.20	1654.76
211.42	1720.29
211.64	1728.49
211.86	1775.59
212.08	1718.25
212.30	1724.39
212.52	1703.91
212.74	1730.53
212.96	1746.92
213.17	1716.20
213.39	1808.36
213.61	1783.78
213.83	1640.42
214.05	1621.99
214.27	1769.44
214.49	1667.05
214.71	1677.29
214.93	1828.84
215.15	1767.40
215.37	1787.88
215.59	1632.23
215.81	1648.61
216.03	1812.45
216.24	1712.10
216.46	1763.30
216.68	1705.96
216.90	1734.63
217.12	1699.81
217.34	1691.62
217.56	1681.38
217.78	1818.60
218.00	1722.34
218.22	1695.72
218.44	1705.96
218.66	1751.01
218.87	1859.56
219.09	1650.66
219.31	1757.16
219.53	1787.88
219.75	1718.25
219.97	1671.14
220.19	1693.67
220.41	1744.87
220.63	1800.16
220.85	1785.83
221.06	1675.24
221.28	1771.49
221.50	1710.05
221.72	1705.96
221.94	1689.57
222.16	1640.42
222.38	1802.21
222.60	1697.77
222.82	1679.33
223.03	1820.64
223.25	1701.86
223.47	1789.92
223.69	1867.75
223.91	1753.06
224.13	1701.86
224.35	1650.66
224.57	1775.59
224.78	1755.11
225.00	1646.57
225.22	1734.63
225.44	1685.48
225.66	1845.22
225.88	1640.42
226.10	1826.79
226.32	1677.29
226.53	1781.73
226.75	1763.30
226.97	1718.25
227.19	1677.29
227.41	1687.53
227.63	1710.05
227.85	1615.85
228.06	1710.05
228.28	1755.11
228.50	1638.38
228.72	1689.57
228.94	1718.25
229.16	1570.79
229.37	1632.23
229.59	1703.91
229.81	1703.91
230.03	1724.39
230.25	1626.09
230.47	1648.61
230.69	1695.72
230.90	1751.01
231.12	1673.19
231.34	1808.36
231.56	1757.16
231.78	1636.33
232.00	1765.35
232.21	1691.62
232.43	1665.00
232.65	1632.23
232.87	1779.68
233.09	1648.61
233.30	1685.48
233.52	1771.49
233.74	1681.38
233.96	1656.81
234.18	1724.39
234.40	1679.33
234.61	1857.51
234.83	1712.10
235.05	1714.15
235.27	1841.12
235.49	1845.22
235.70	1712.10
235.92	1779.68
236.14	1751.01
236.36	1918.95
236.58	1636.33
236.79	1726.44
237.01	1691.62
237.23	1662.95
237.45	1808.36
237.67	1640.42
237.88	1708.01
238.10	1894.37
238.32	1576.94
238.54	1681.38
238.76	1691.62
238.97	1738.73
239.19	1730.53
239.41	1761.25
239.63	1800.16
239.85	1701.86
240.06	1681.38
240.28	1701.86
240.50	1732.58
240.72	1669.09
240.93	1728.49
241.15	1701.86
241.37	1730.53
241.59	1726.44
241.81	1691.62
242.02	1689.57
242.24	1675.24
242.46	1726.44
242.68	1578.98
242.89	1730.53
243.11	1753.06
243.33	1742.82
243.55	1763.30
243.76	1708.01
243.98	1626.09
244.20	1621.99
244.42	1787.88
244.64	1824.74
244.85	1681.38
245.07	1624.04
245.29	1734.63
245.51	1701.86
245.72	1730.53
245.94	1757.16
246.16	1779.68
246.38	1787.88
246.59	1652.71
246.81	1726.44
247.03	1662.95
247.24	1568.74
247.46	1660.90
247.68	1746.92
247.90	1689.57
248.11	1697.77
248.33	1765.35
248.55	1685.48
248.77	1734.63
248.98	1730.53
249.20	1869.80
249.42	1648.61
249.64	1757.16
249.85	1689.57
250.07	1689.57
250.29	1667.05
250.50	1738.73
250.72	1599.46
250.94	1724.39
251.16	1904.61
251.37	1769.44
251.59	1699.81
251.81	1763.30
252.02	1800.16
252.24	1656.81
252.46	1753.06
252.68	1712.10
252.89	1640.42
253.11	1617.90
253.33	1787.88
253.54	1746.92
253.76	1683.43
253.98	1697.77
254.20	1701.86
254.41	1673.19
254.63	1705.96
254.85	1683.43
255.06	1667.05
255.28	1695.72
255.50	1671.14
255.71	1671.14
255.93	1654.76
256.15	1699.81
256.36	1714.15
256.58	1652.71
256.80	1681.38
257.02	1765.35
257.23	1699.81
257.45	1851.36
257.67	1765.35
257.88	1652.71
258.10	1744.87
258.32	1738.73
258.53	1654.76
258.75	1744.87
258.97	1646.57
259.18	1785.83
259.40	1669.09
259.62	1744.87
259.83	1802.21
260.05	1687.53
260.27	2062.30
260.48	1734.63
260.70	1703.91
260.92	1755.11
261.13	1705.96
261.35	1771.49
261.57	1703.91
261.78	1591.27
262.00	1675.24
262.22	1742.82
262.43	1658.85
262.65	1632.23
262.86	1671.14
263.08	1785.83
263.30	1650.66
263.51	1632.23
263.73	1685.48
263.95	1769.44
264.16	1685.48
264.38	1734.63
264.60	1671.14
264.81	1652.71
265.03	1736.68
265.25	1708.01
265.46	1642.47
265.68	1767.40
265.89	1759.21
266.11	1654.76
266.33	1826.79
266.54	1724.39
266.76	1736.68
266.98	1804.26
267.19	1753.06
267.41	1748.97
267.62	1703.91
267.84	1576.94
268.06	1771.49
268.27	1726.44
268.49	1812.45
268.70	1751.01
268.92	1650.66
269.14	1613.80
269.35	1705.96
269.57	1705.96
269.79	1751.01
270.00	1654.76
270.22	1748.97
270.43	1695.72
270.65	1624.04
270.87	1673.19
271.08	1794.02
271.30	1699.81
271.51	1677.29
271.73	1763.30
271.95	1830.88
272.16	1708.01
272.38	1654.76
272.59	1636.33
272.81	1720.29
273.02	1822.69
273.24	1730.53
273.46	1734.63
273.67	1691.62
273.89	1673.19
274.10	1738.73
274.32	1863.65
274.54	1748.97
274.75	1796.07
274.97	1697.77
275.18	1759.21
275.40	1685.48
275.61	1710.05
275.83	1691.62
276.05	1660.90
276.26	1703.91
276.48	1693.67
276.69	1703.91
276.91	1628.14
277.12	1753.06
277.34	1755.11
277.55	1742.82
277.77	1712.10
277.99	1685.48
278.20	1701.86
278.42	1599.46
278.63	1626.09
278.85	1689.57
279.06	1681.38
279.28	1742.82
279.49	1746.92
279.71	1755.11
279.93	1789.92
280.14	1705.96
280.36	1669.09
280.57	1753.06
280.79	1769.44
281.00	1675.24
281.22	1632.23
281.43	1779.68
281.65	1662.95
281.86	1630.18
282.08	1736.68
282.29	1820.64
282.51	1669.09
282.73	1662.95
282.94	1634.28
283.16	1695.72
283.37	1791.97
283.59	1705.96
283.80	1687.53
284.02	1699.81
284.23	1708.01
284.45	1679.33
284.66	1669.09
284.88	1675.24
285.09	1789.92
285.31	1771.49
285.52	1738.73
285.74	1621.99
285.95	1687.53
286.17	1773.54
286.38	1710.05
286.60	1683.43
286.81	1714.15
287.03	1712.10
287.24	1720.29
287.46	1701.86
287.67	1757.16
287.89	1779.68
288.10	1693.67
288.32	1832.93
288.53	1875.94
288.75	1712.10
288.96	1726.44
289.18	1632.23
289.39	1636.33
289.61	1800.16
289.82	1808.36
290.04	1820.64
290.25	1740.77
290.47	1730.53
290.68	1705.96
290.90	1720.29
291.11	1675.24
291.33	1820.64
291.54	1671.14
291.76	1716.20
291.97	1695.72
292.18	1679.33
292.40	1712.10
292.61	1689.57
292.83	1853.41
293.04	1757.16
293.26	1714.15
293.47	1675.24
293.69	1671.14
293.90	1626.09
294.12	1765.35
294.33	1697.77
294.55	1738.73
294.76	1763.30
294.97	1742.82
295.19	1830.88
295.40	1640.42
295.62	1697.77
295.83	1757.16
296.05	1683.43
296.26	1779.68
296.48	1679.33
296.69	1685.48
296.90	1667.05
297.12	1730.53
297.33	1816.55
297.55	1687.53
297.76	1781.73
297.98	1783.78
298.19	1710.05
298.41	1617.90
298.62	1656.81
298.83	1841.12
299.05	1669.09
299.26	1808.36
299.48	1617.90
299.69	1708.01
299.90	1687.53
300.12	1742.82
300.33	1714.15
300.55	1724.39
300.76	1746.92
300.98	1644.52
301.19	1806.31
301.40	1712.10
301.62	1740.77
301.83	1753.06
302.05	1789.92
302.26	1695.72
302.47	1746.92
302.69	1624.04
302.90	1675.24
303.12	1568.74
303.33	1804.26
303.54	1791.97
303.76	1677.29
303.97	1705.96
304.19	1816.55
304.40	1705.96
304.61	1755.11
304.83	1759.21
305.04	1828.84
305.26	1710.05
305.47	1679.33
305.68	1720.29
305.90	1646.57
306.11	1746.92
306.33	1662.95
306.54	1687.53
306.75	1658.85
306.97	1671.14
307.18	1650.66
307.39	1736.68
307.61	1718.25
307.82	1832.93
308.04	1730.53
308.25	1679.33
308.46	1716.20
308.68	1615.85
308.89	1781.73
309.10	1775.59
309.32	1757.16
309.53	1763.30
309.74	1699.81
309.96	1705.96
310.17	1763.30
310.39	1705.96
310.60	1761.25
310.81	1732.58
311.03	1648.61
311.24	1748.97
311.45	1667.05
311.67	1740.77
311.88	1722.34
312.09	1689.57
312.31	1572.84
312.52	1748.97
312.73	1681.38
312.95	1624.04
313.16	1697.77
313.37	1781.73
313.59	1775.59
313.80	1710.05
314.01	1771.49
314.23	1708.01
314.44	1626.09
314.65	1689.57
314.87	1718.25
315.08	1699.81
315.29	1681.38
315.51	1665.00
315.72	1687.53
315.93	1789.92
316.15	1785.83
316.36	1646.57
316.57	1724.39
316.79	1738.73
317.00	1636.33
317.21	1789.92
317.43	1740.77
317.64	1736.68
317.85	1732.58
318.07	1685.48
318.28	1705.96
318.49	1808.36
318.70	1863.65
318.92	1787.88
319.13	1804.26
319.34	1847.27
319.56	1812.45
319.77	1748.97
319.98	1810.40
320.20	1781.73
320.41	1732.58
320.62	1771.49
320.83	1652.71
321.05	1869.80
321.26	1740.77
321.47	1701.86
321.69	1740.77
321.90	1595.37
322.11	1697.77
322.32	1638.38
322.54	1775.59
322.75	1634.28
322.96	1814.50
323.18	1638.38
323.39	1578.98
323.60	1683.43
323.81	1804.26
324.03	1650.66
324.24	1773.54
324.45	1755.11
324.66	1722.34
324.88	1798.12
325.09	1794.02
325.30	1738.73
325.52	1744.87
325.73	1722.34
325.94	1693.67
326.15	1640.42
326.37	1722.34
326.58	1785.83
326.79	1820.64
327.00	1665.00
327.22	1730.53
327.43	1675.24
327.64	1650.66
327.85	1722.34
328.07	1755.11
328.28	1845.22
328.49	1687.53
328.70	1738.73
328.92	1687.53
329.13	1724.39
329.34	1693.67
329.55	1828.84
329.76	1787.88
329.98	1708.01
330.19	1767.40
330.40	1808.36
330.61	1683.43
330.83	1763.30
331.04	1650.66
331.25	1712.10
331.46	1728.49
331.68	1671.14
331.89	1773.54
332.10	1708.01
332.31	1624.04
332.52	1710.05
332.74	1773.54
332.95	1660.90
333.16	1669.09
333.37	1718.25
333.58	1685.48
333.80	1724.39
334.01	1609.70
334.22	1783.78
334.43	1675.24
334.64	1746.92
334.86	1632.23
335.07	1642.47
335.28	1845.22
335.49	1656.81
335.70	1736.68
335.92	1886.18
336.13	1908.71
336.34	1740.77
336.55	1695.72
336.76	1763.30
336.98	1644.52
337.19	1744.87
337.40	1738.73
337.61	1791.97
337.82	1746.92
338.04	1710.05
338.25	1615.85
338.46	1708.01
338.67	1640.42
338.88	1726.44
339.09	1693.67
339.31	1728.49
339.52	1638.38
339.73	1605.61
339.94	1742.82
340.15	1718.25
340.36	1730.53
340.58	1757.16
340.79	1699.81
341.00	1685.48
341.21	1617.90
341.42	1820.64
341.63	1734.63
341.85	1812.45
342.06	1730.53
342.27	1673.19
342.48	1757.16
342.69	1599.46
342.90	1777.64
343.12	1734.63
343.33	1636.33
343.54	1777.64
343.75	1849.32
343.96	1757.16
344.17	1755.11
344.38	1652.71
344.60	1679.33
344.81	1671.14
345.02	1632.23
345.23	1800.16
345.44	1828.84
345.65	1787.88
345.86	1767.40
346.07	1759.21
346.29	1716.20
346.50	1777.64
346.71	1724.39
346.92	1806.31
347.13	1816.55
347.34	1705.96
347.55	1681.38
347.76	1724.39
347.98	1671.14
348.19	1681.38
348.40	1834.98
348.61	1681.38
348.82	1816.55
349.03	1742.82
349.24	1695.72
349.45	1820.64
349.66	1642.47
349.88	1722.34
350.09	1689.57
350.30	1767.40
350.51	1822.69
350.72	1744.87
350.93	1742.82
351.14	1652.71
351.35	1697.77
351.56	1716.20
351.77	1685.48
351.99	1693.67
352.20	1699.81
352.41	1771.49
352.62	1619.94
352.83	1654.76
353.04	1804.26
353.25	1650.66
353.46	1724.39
353.67	1806.31
353.88	1591.27
354.09	1777.64
354.30	1755.11
354.52	1800.16
354.73	1734.63
354.94	1638.38
355.15	1708.01
355.36	1771.49
355.57	1632.23
355.78	1724.39
355.99	1636.33
356.20	1705.96
356.41	1751.01
356.62	1728.49
356.83	1798.12
357.04	1802.21
357.25	1650.66
357.46	1701.86
357.68	1667.05
357.89	1693.67
358.10	1712.10
358.31	1689.57
358.52	1687.53
358.73	1671.14
358.94	1660.90
359.15	1697.77
359.36	1783.78
359.57	1738.73
359.78	1724.39
359.99	1687.53
360.20	1658.85
360.41	1687.53
360.62	1712.10
360.83	1697.77
361.04	1718.25
361.25	1681.38
361.46	1828.84
361.67	1687.53
361.88	1714.15
362.09	1742.82
362.30	1783.78
362.51	1708.01
362.72	1683.43
362.93	1765.35
363.14	1765.35
363.35	1710.05
363.56	1679.33
363.78	1818.60
363.99	1796.07
364.20	1701.86
364.41	1683.43
364.62	1837.03
364.83	1798.12
365.04	1665.00
365.25	1769.44
365.46	1902.56
365.67	1757.16
365.88	1697.77
366.09	1746.92
366.30	1744.87
366.51	1703.91
366.72	1617.90
366.93	1703.91
367.14	1736.68
367.35	1771.49
367.56	1652.71
367.77	1789.92
367.98	1716.20
368.18	1748.97
368.39	1757.16
368.60	1673.19
368.81	1746.92
369.02	1708.01
369.23	1714.15
369.44	1642.47
369.65	1687.53
369.86	1705.96
370.07	1763.30
370.28	1615.85
370.49	1681.38
370.70	1796.07
370.91	1599.46
371.12	1617.90
371.33	1757.16
371.54	1677.29
371.75	1845.22
371.96	1599.46
372.17	1701.86
372.38	1751.01
372.59	1710.05
372.80	1710.05
373.01	1722.34
373.22	1687.53
373.43	1703.91
373.64	1681.38
373.85	1734.63
374.06	1783.78
374.26	1673.19
374.47	1804.26
374.68	1886.18
374.89	1658.85
375.10	1642.47
375.31	1787.88
375.52	1781.73
375.73	1736.68
375.94	1701.86
376.15	1884.13
376.36	1656.81
376.57	1693.67
376.78	1667.05
376.99	1699.81
377.20	1814.50
377.40	1687.53
377.61	1855.46
377.82	1568.74
378.03	1789.92
378.24	1691.62
378.45	1753.06
378.66	1732.58
378.87	1673.19
379.08	1691.62
379.29	1679.33
379.50	1763.30
379.71	1691.62
379.91	1837.03
380.12	1710.05
380.33	1814.50
380.54	1689.57
380.75	1757.16
380.96	1728.49
381.17	1796.07
381.38	1767.40
381.59	1751.01
381.80	1748.97
382.00	1857.51
382.21	1746.92
382.42	1841.12
382.63	1908.71
382.84	1789.92
383.05	1800.16
383.26	1794.02
383.47	1640.42
383.68	1710.05
383.88	1740.77
384.09	1742.82
384.30	1820.64
384.51	1740.77
384.72	1748.97
384.93	1636.33
385.14	1714.15
385.35	1746.92
385.55	1660.90
385.76	1824.74
385.97	1660.90
386.18	1671.14
386.39	1658.85
386.60	1613.80
386.81	1726.44
387.02	1732.58
387.22	1673.19
387.43	1785.83
387.64	1828.84
387.85	1900.52
388.06	2168.80
388.27	4274.11
388.48	6698.91
388.68	8021.89
388.89	9508.72
389.10	9768.81
389.31	8671.10
389.52	7720.84
389.73	6786.97
389.93	6229.92
390.14	5728.17
390.35	5134.26
390.56	4483.00
390.77	3784.65
390.98	2965.46
391.18	2529.24
391.39	2095.07
391.60	1843.17
391.81	1906.66
392.02	1650.66
392.23	1853.41
392.43	1736.68
392.64	1769.44
392.85	1710.05
393.06	1732.58
393.27	1712.10
393.47	1687.53
393.68	1751.01
393.89	1691.62
394.10	1787.88
394.31	1738.73
394.52	1681.38
394.72	1665.00
394.93	1806.31
395.14	1632.23
395.35	1796.07
395.56	1712.10
395.76	1736.68
395.97	1824.74
396.18	1896.42
396.39	1796.07
396.60	1996.77
396.80	1923.04
397.01	1865.70
397.22	1839.08
397.43	1939.43
397.64	1734.63
397.84	1777.64
398.05	1882.08
398.26	1705.96
398.47	1755.11
398.67	1761.25
398.88	1757.16
399.09	1748.97
399.30	1714.15
399.51	1714.15
399.71	1587.18
399.92	1599.46
400.13	1777.64
400.34	1722.34
400.54	1736.68
400.75	1787.88
400.96	1736.68
401.17	1828.84
401.37	1732.58
401.58	1722.34
401.79	1734.63
402.00	1871.84
402.21	2013.15
402.41	1902.56
402.62	2015.20
402.83	2031.58
403.04	1974.24
403.24	2015.20
403.45	1890.28
403.66	1914.85
403.87	1896.42
404.07	1845.22
404.28	1902.56
404.49	1966.05
404.70	1841.12
404.90	1708.01
405.11	1763.30
405.32	1804.26
405.52	1703.91
405.73	1632.23
405.94	1630.18
406.15	1652.71
406.35	1757.16
406.56	1722.34
406.77	1722.34
406.98	1837.03
407.18	1671.14
407.39	1828.84
407.60	1695.72
407.80	1695.72
408.01	1738.73
408.22	1699.81
408.43	1665.00
408.63	1630.18
408.84	1732.58
409.05	1761.25
409.25	1703.91
409.46	1640.42
409.67	1658.85
409.88	1681.38
410.08	1697.77
410.29	1703.91
410.50	1734.63
410.70	1703.91
410.91	1722.34
411.12	1787.88
411.32	1732.58
411.53	1617.90
411.74	1787.88
411.95	1804.26
412.15	1740.77
412.36	1802.21
412.57	1779.68
412.77	1826.79
412.98	1693.67
413.19	1783.78
413.39	1710.05
413.60	1748.97
413.81	1767.40
414.01	1642.47
414.22	1798.12
414.43	1763.30
414.63	1660.90
414.84	1710.05
415.05	1802.21
415.25	1720.29
415.46	1746.92
415.67	1773.54
415.87	1667.05
416.08	1726.44
416.29	1679.33
416.49	1685.48
416.70	1738.73
416.91	1646.57
417.11	1671.14
417.32	1771.49
417.53	1857.51
417.73	1703.91
417.94	1677.29
418.15	1810.40
418.35	1695.72
418.56	1636.33
418.77	1800.16
418.97	1660.90
419.18	1730.53
419.38	1540.07
419.59	1671.14
419.80	1783.78
420.00	1691.62
420.21	1705.96
420.42	1738.73
420.62	1765.35
420.83	1630.18
421.04	1705.96
421.24	1648.61
421.45	1789.92
421.65	1669.09
421.86	1724.39
422.07	1732.58
422.27	1667.05
422.48	1751.01
422.69	1667.05
422.89	1742.82
423.10	1742.82
423.30	1576.94
423.51	1714.15
423.72	1726.44
423.92	1771.49
424.13	1669.09
424.33	1732.58
424.54	1736.68
424.75	1722.34
424.95	1765.35
425.16	1732.58
425.36	1687.53
425.57	1779.68
425.78	1746.92
425.98	1814.50
426.19	1673.19
426.39	1703.91
426.60	1687.53
426.81	1779.68
427.01	1746.92
427.22	1751.01
427.42	1656.81
427.63	1687.53
427.83	1683.43
428.04	1824.74
428.25	1771.49
428.45	1820.64
428.66	1714.15
428.86	1730.53
429.07	1751.01
429.28	1742.82
429.48	1746.92
429.69	1617.90
429.89	1697.77
430.10	1599.46
430.30	1695.72
430.51	1740.77
430.71	1671.14
430.92	1642.47
431.13	1697.77
431.33	1763.30
431.54	1742.82
431.74	1841.12
431.95	1902.56
432.15	1660.90
432.36	1710.05
432.56	1701.86
432.77	1826.79
432.98	1839.08
433.18	1716.20
433.39	1738.73
433.59	1779.68
433.80	1802.21
434.00	1933.28
434.21	1740.77
434.41	1671.14
434.62	1888.23
434.82	1683.43
435.03	1675.24
435.23	1765.35
435.44	1662.95
435.64	1697.77
435.85	1726.44
436.06	1800.16
436.26	1794.02
436.47	1693.67
436.67	1679.33
436.88	1734.63
437.08	1767.40
437.29	1824.74
437.49	1738.73
437.70	1787.88
437.90	1785.83
438.11	1918.95
438.31	1765.35
438.52	1845.22
438.72	1837.03
438.93	1882.08
439.13	1789.92
439.34	1826.79
439.54	1763.30
439.75	1826.79
439.95	1740.77
440.16	1681.38
440.36	1796.07
440.57	1759.21
440.77	1759.21
440.98	1785.83
441.18	1812.45
441.39	1744.87
441.59	1734.63
441.80	1787.88
442.00	1728.49
442.21	1757.16
442.41	1632.23
442.62	1869.80
442.82	1613.80
443.02	1722.34
443.23	1767.40
443.43	1763.30
443.64	1812.45
443.84	1656.81
444.05	1789.92
444.25	1771.49
444.46	1681.38
444.66	1695.72
444.87	1869.80
445.07	1665.00
445.28	1791.97
445.48	1828.84
445.69	1732.58
445.89	1806.31
446.09	1789.92
446.30	2117.60
446.50	2643.93
446.71	3729.35
446.91	4282.30
447.12	4593.59
447.32	4886.45
447.53	4327.36
447.73	3821.51
447.93	3588.04
448.14	3379.15
448.34	3217.36
448.55	2918.36
448.75	2852.82
448.96	2703.32
449.16	2365.40
449.36	2273.25
449.57	2107.36
449.77	1837.03
449.98	1761.25
450.18	1736.68
450.39	1937.38
450.59	1845.22
450.79	1728.49
451.00	1751.01
451.20	1806.31
451.41	1693.67
451.61	1771.49
451.81	1748.97
452.02	1730.53
452.22	1683.43
452.43	1755.11
452.63	1718.25
