SpectraSuite Data File
++++++++++++++++++++++++++++++++++++
Date: Mon Jun 06 16:45:57 CEST 2016
User: root
Dark Spectrum Present: No
Reference Spectrum Present: No
Number of Sampled Component Spectra: 1
Spectrometers: USB4C02835
Integration Time (usec): 100000 (USB4C02835)
Spectra Averaged: 1 (USB4C02835)
Boxcar Smoothing: 0 (USB4C02835)
Correct for Electrical Dark: No (USB4C02835)
Strobe/Lamp Enabled: No (USB4C02835)
Correct for Detector Non-linearity: No (USB4C02835)
Correct for Stray Light: No (USB4C02835)
Number of Pixels in Processed Spectrum: 3648
>>>>>Begin Processed Spectral Data<<<<<
177.47	1456.11
177.69	1456.11
177.91	1456.11
178.13	1464.30
178.36	1437.67
178.58	1640.42
178.80	1757.16
179.02	1609.70
179.24	1615.85
179.46	1675.24
179.68	1808.36
179.90	1636.33
180.13	1644.52
180.35	1695.72
180.57	1714.15
180.79	1724.39
181.01	1687.53
181.23	1740.77
181.45	1826.79
181.67	1681.38
181.90	1763.30
182.12	1691.62
182.34	1642.47
182.56	1740.77
182.78	1693.67
183.00	1669.09
183.22	1695.72
183.44	1640.42
183.66	1886.18
183.89	1751.01
184.11	1675.24
184.33	1785.83
184.55	1710.05
184.77	1716.20
184.99	1789.92
185.21	1679.33
185.43	1898.47
185.65	1699.81
185.87	1755.11
186.10	1843.17
186.32	1773.54
186.54	1775.59
186.76	1699.81
186.98	1718.25
187.20	1679.33
187.42	1644.52
187.64	1724.39
187.86	1720.29
188.08	1740.77
188.30	1646.57
188.52	1726.44
188.75	1783.78
188.97	1730.53
189.19	1652.71
189.41	1671.14
189.63	1785.83
189.85	1687.53
190.07	1679.33
190.29	1675.24
190.51	1701.86
190.73	1652.71
190.95	1718.25
191.17	1738.73
191.39	1660.90
191.61	1667.05
191.84	1626.09
192.06	1849.32
192.28	1658.85
192.50	1970.15
192.72	1665.00
192.94	1716.20
193.16	1679.33
193.38	1783.78
193.60	1648.61
193.82	1658.85
194.04	1810.40
194.26	1732.58
194.48	1763.30
194.70	1628.14
194.92	1705.96
195.14	1779.68
195.36	1683.43
195.58	1773.54
195.80	1673.19
196.02	1624.04
196.24	1683.43
196.46	1679.33
196.69	1677.29
196.91	1769.44
197.13	1689.57
197.35	1685.48
197.57	1796.07
197.79	1675.24
198.01	1644.52
198.23	1751.01
198.45	1740.77
198.67	1556.46
198.89	1755.11
199.11	1726.44
199.33	1697.77
199.55	1644.52
199.77	1726.44
199.99	1738.73
200.21	1574.89
200.43	1689.57
200.65	1617.90
200.87	1558.50
201.09	1720.29
201.31	1656.81
201.53	1822.69
201.75	1763.30
201.97	1746.92
202.19	1652.71
202.41	1740.77
202.63	1824.74
202.85	1794.02
203.07	1716.20
203.29	1734.63
203.51	1599.46
203.73	1703.91
203.95	1888.23
204.17	1759.21
204.39	1775.59
204.61	1615.85
204.83	1716.20
205.05	1767.40
205.27	1773.54
205.49	1796.07
205.71	1644.52
205.93	1601.51
206.15	1669.09
206.37	1689.57
206.59	1697.77
206.81	1603.56
207.03	1708.01
207.25	1613.80
207.47	1753.06
207.69	1701.86
207.91	1765.35
208.13	1824.74
208.34	1609.70
208.56	1673.19
208.78	1736.68
209.00	1720.29
209.22	1757.16
209.44	1681.38
209.66	1701.86
209.88	1685.48
210.10	1751.01
210.32	1736.68
210.54	1781.73
210.76	1705.96
210.98	1736.68
211.20	1617.90
211.42	1667.05
211.64	1775.59
211.86	1779.68
212.08	1775.59
212.30	1728.49
212.52	1693.67
212.74	1689.57
212.96	1687.53
213.17	1761.25
213.39	1748.97
213.61	1796.07
213.83	1671.14
214.05	1732.58
214.27	1847.27
214.49	1683.43
214.71	1689.57
214.93	1734.63
215.15	1724.39
215.37	1820.64
215.59	1662.95
215.81	1744.87
216.03	1720.29
216.24	1677.29
216.46	1673.19
216.68	1718.25
216.90	1753.06
217.12	1763.30
217.34	1712.10
217.56	1734.63
217.78	1808.36
218.00	1701.86
218.22	1726.44
218.44	1808.36
218.66	1753.06
218.87	1853.41
219.09	1705.96
219.31	1705.96
219.53	1675.24
219.75	1677.29
219.97	1669.09
220.19	1689.57
220.41	1677.29
220.63	1779.68
220.85	1683.43
221.06	1640.42
221.28	1755.11
221.50	1751.01
221.72	1738.73
221.94	1753.06
222.16	1673.19
222.38	1789.92
222.60	1718.25
222.82	1677.29
223.03	1718.25
223.25	1646.57
223.47	1728.49
223.69	1910.75
223.91	1695.72
224.13	1646.57
224.35	1632.23
224.57	1806.31
224.78	1689.57
225.00	1597.42
225.22	1730.53
225.44	1697.77
225.66	1726.44
225.88	1724.39
226.10	1722.34
226.32	1665.00
226.53	1787.88
226.75	1681.38
226.97	1728.49
227.19	1710.05
227.41	1742.82
227.63	1755.11
227.85	1624.04
228.06	1734.63
228.28	1808.36
228.50	1738.73
228.72	1638.38
228.94	1697.77
229.16	1675.24
229.37	1656.81
229.59	1679.33
229.81	1783.78
230.03	1650.66
230.25	1691.62
230.47	1656.81
230.69	1595.37
230.90	1820.64
231.12	1667.05
231.34	1699.81
231.56	1708.01
231.78	1703.91
232.00	1712.10
232.21	1728.49
232.43	1673.19
232.65	1589.22
232.87	1755.11
233.09	1628.14
233.30	1628.14
233.52	1802.21
233.74	1740.77
233.96	1675.24
234.18	1718.25
234.40	1671.14
234.61	1812.45
234.83	1626.09
235.05	1660.90
235.27	1785.83
235.49	1738.73
235.70	1687.53
235.92	1773.54
236.14	1755.11
236.36	1855.46
236.58	1738.73
236.79	1703.91
237.01	1769.44
237.23	1703.91
237.45	1822.69
237.67	1652.71
237.88	1771.49
238.10	1691.62
238.32	1597.42
238.54	1652.71
238.76	1708.01
238.97	1665.00
239.19	1605.61
239.41	1783.78
239.63	1753.06
239.85	1705.96
240.06	1734.63
240.28	1699.81
240.50	1794.02
240.72	1681.38
240.93	1646.57
241.15	1720.29
241.37	1726.44
241.59	1765.35
241.81	1640.42
242.02	1636.33
242.24	1687.53
242.46	1742.82
242.68	1732.58
242.89	1798.12
243.11	1812.45
243.33	1683.43
243.55	1830.88
243.76	1816.55
243.98	1607.66
244.20	1697.77
244.42	1701.86
244.64	1708.01
244.85	1732.58
245.07	1617.90
245.29	1718.25
245.51	1652.71
245.72	1730.53
245.94	1818.60
246.16	1748.97
246.38	1714.15
246.59	1695.72
246.81	1656.81
247.03	1662.95
247.24	1562.60
247.46	1691.62
247.68	1740.77
247.90	1630.18
248.11	1675.24
248.33	1769.44
248.55	1609.70
248.77	1724.39
248.98	1730.53
249.20	1837.03
249.42	1755.11
249.64	1701.86
249.85	1689.57
250.07	1611.75
250.29	1695.72
250.50	1742.82
250.72	1630.18
250.94	1787.88
251.16	1851.36
251.37	1755.11
251.59	1705.96
251.81	1710.05
252.02	1755.11
252.24	1718.25
252.46	1769.44
252.68	1638.38
252.89	1662.95
253.11	1583.08
253.33	1863.65
253.54	1751.01
253.76	1648.61
253.98	1677.29
254.20	1675.24
254.41	1658.85
254.63	1644.52
254.85	1669.09
255.06	1705.96
255.28	1746.92
255.50	1660.90
255.71	1640.42
255.93	1710.05
256.15	1697.77
256.36	1818.60
256.58	1669.09
256.80	1759.21
257.02	1660.90
257.23	1624.04
257.45	1689.57
257.67	1720.29
257.88	1662.95
258.10	1728.49
258.32	1722.34
258.53	1681.38
258.75	1751.01
258.97	1656.81
259.18	1652.71
259.40	1736.68
259.62	1824.74
259.83	1773.54
260.05	1683.43
260.27	1937.38
260.48	1742.82
260.70	1648.61
260.92	1683.43
261.13	1656.81
261.35	1736.68
261.57	1740.77
261.78	1562.60
262.00	1634.28
262.22	1718.25
262.43	1687.53
262.65	1671.14
262.86	1730.53
263.08	1777.64
263.30	1781.73
263.51	1648.61
263.73	1665.00
263.95	1779.68
264.16	1683.43
264.38	1671.14
264.60	1675.24
264.81	1652.71
265.03	1740.77
265.25	1689.57
265.46	1658.85
265.68	1759.21
265.89	1744.87
266.11	1605.61
266.33	1714.15
266.54	1769.44
266.76	1695.72
266.98	1728.49
267.19	1796.07
267.41	1748.97
267.62	1681.38
267.84	1593.32
268.06	1691.62
268.27	1701.86
268.49	1804.26
268.70	1798.12
268.92	1714.15
269.14	1675.24
269.35	1640.42
269.57	1632.23
269.79	1771.49
270.00	1691.62
270.22	1726.44
270.43	1662.95
270.65	1630.18
270.87	1755.11
271.08	1730.53
271.30	1822.69
271.51	1769.44
271.73	1736.68
271.95	1787.88
272.16	1646.57
272.38	1748.97
272.59	1740.77
272.81	1705.96
273.02	1812.45
273.24	1761.25
273.46	1710.05
273.67	1611.75
273.89	1665.00
274.10	1695.72
274.32	1738.73
274.54	1716.20
274.75	1712.10
274.97	1665.00
275.18	1798.12
275.40	1685.48
275.61	1726.44
275.83	1773.54
276.05	1628.14
276.26	1611.75
276.48	1693.67
276.69	1669.09
276.91	1607.66
277.12	1779.68
277.34	1775.59
277.55	1689.57
277.77	1701.86
277.99	1648.61
278.20	1593.32
278.42	1644.52
278.63	1677.29
278.85	1665.00
279.06	1626.09
279.28	1705.96
279.49	1775.59
279.71	1697.77
279.93	1794.02
280.14	1669.09
280.36	1634.28
280.57	1759.21
280.79	1730.53
281.00	1714.15
281.22	1701.86
281.43	1775.59
281.65	1578.98
281.86	1619.94
282.08	1826.79
282.29	1857.51
282.51	1591.27
282.73	1662.95
282.94	1593.32
283.16	1746.92
283.37	1712.10
283.59	1742.82
283.80	1734.63
284.02	1648.61
284.23	1681.38
284.45	1650.66
284.66	1617.90
284.88	1689.57
285.09	1746.92
285.31	1753.06
285.52	1722.34
285.74	1624.04
285.95	1699.81
286.17	1662.95
286.38	1761.25
286.60	1671.14
286.81	1687.53
287.03	1632.23
287.24	1751.01
287.46	1738.73
287.67	1626.09
287.89	1798.12
288.10	1712.10
288.32	1740.77
288.53	1804.26
288.75	1640.42
288.96	1771.49
289.18	1638.38
289.39	1720.29
289.61	1785.83
289.82	1806.31
290.04	1738.73
290.25	1636.33
290.47	1673.19
290.68	1675.24
290.90	1701.86
291.11	1611.75
291.33	1679.33
291.54	1689.57
291.76	1689.57
291.97	1677.29
292.18	1832.93
292.40	1705.96
292.61	1658.85
292.83	1781.73
293.04	1724.39
293.26	1732.58
293.47	1656.81
293.69	1730.53
293.90	1742.82
294.12	1751.01
294.33	1712.10
294.55	1757.16
294.76	1732.58
294.97	1808.36
295.19	1845.22
295.40	1693.67
295.62	1710.05
295.83	1767.40
296.05	1681.38
296.26	1757.16
296.48	1644.52
296.69	1736.68
296.90	1705.96
297.12	1705.96
297.33	1787.88
297.55	1687.53
297.76	1779.68
297.98	1806.31
298.19	1687.53
298.41	1671.14
298.62	1689.57
298.83	1849.32
299.05	1748.97
299.26	1714.15
299.48	1699.81
299.69	1742.82
299.90	1710.05
300.12	1726.44
300.33	1703.91
300.55	1710.05
300.76	1673.19
300.98	1650.66
301.19	1751.01
301.40	1662.95
301.62	1689.57
301.83	1746.92
302.05	1779.68
302.26	1691.62
302.47	1720.29
302.69	1667.05
302.90	1775.59
303.12	1624.04
303.33	1734.63
303.54	1734.63
303.76	1757.16
303.97	1724.39
304.19	1767.40
304.40	1634.28
304.61	1775.59
304.83	1816.55
305.04	1744.87
305.26	1685.48
305.47	1687.53
305.68	1683.43
305.90	1624.04
306.11	1705.96
306.33	1773.54
306.54	1667.05
306.75	1730.53
306.97	1601.51
307.18	1669.09
307.39	1652.71
307.61	1691.62
307.82	1662.95
308.04	1748.97
308.25	1685.48
308.46	1714.15
308.68	1718.25
308.89	1804.26
309.10	1732.58
309.32	1742.82
309.53	1697.77
309.74	1683.43
309.96	1685.48
310.17	1800.16
310.39	1695.72
310.60	1785.83
310.81	1701.86
311.03	1591.27
311.24	1697.77
311.45	1732.58
311.67	1867.75
311.88	1732.58
312.09	1640.42
312.31	1667.05
312.52	1705.96
312.73	1669.09
312.95	1601.51
313.16	1683.43
313.37	1765.35
313.59	1742.82
313.80	1763.30
314.01	1806.31
314.23	1665.00
314.44	1693.67
314.65	1632.23
314.87	1613.80
315.08	1665.00
315.29	1708.01
315.51	1726.44
315.72	1656.81
315.93	1851.36
316.15	1744.87
316.36	1695.72
316.57	1736.68
316.79	1712.10
317.00	1708.01
317.21	1800.16
317.43	1634.28
317.64	1722.34
317.85	1642.47
318.07	1607.66
318.28	1718.25
318.49	1841.12
318.70	1865.70
318.92	1851.36
319.13	1787.88
319.34	1912.80
319.56	1771.49
319.77	1796.07
319.98	1728.49
320.20	1708.01
320.41	1742.82
320.62	1685.48
320.83	1607.66
321.05	1837.03
321.26	1746.92
321.47	1667.05
321.69	1837.03
321.90	1593.32
322.11	1726.44
322.32	1677.29
322.54	1800.16
322.75	1607.66
322.96	1804.26
323.18	1589.22
323.39	1693.67
323.60	1703.91
323.81	1708.01
324.03	1705.96
324.24	1699.81
324.45	1742.82
324.66	1691.62
324.88	1769.44
325.09	1775.59
325.30	1714.15
325.52	1773.54
325.73	1669.09
325.94	1632.23
326.15	1644.52
326.37	1716.20
326.58	1761.25
326.79	1730.53
327.00	1615.85
327.22	1681.38
327.43	1634.28
327.64	1605.61
327.85	1771.49
328.07	1675.24
328.28	1763.30
328.49	1671.14
328.70	1671.14
328.92	1742.82
329.13	1701.86
329.34	1726.44
329.55	1804.26
329.76	1724.39
329.98	1636.33
330.19	1796.07
330.40	1783.78
330.61	1748.97
330.83	1802.21
331.04	1658.85
331.25	1718.25
331.46	1751.01
331.68	1609.70
331.89	1728.49
332.10	1722.34
332.31	1660.90
332.52	1630.18
332.74	1853.41
332.95	1636.33
333.16	1671.14
333.37	1773.54
333.58	1648.61
333.80	1771.49
334.01	1546.22
334.22	1677.29
334.43	1621.99
334.64	1701.86
334.86	1585.13
335.07	1712.10
335.28	1847.27
335.49	1642.47
335.70	1771.49
335.92	1779.68
336.13	1841.12
336.34	1740.77
336.55	1724.39
336.76	1751.01
336.98	1617.90
337.19	1742.82
337.40	1894.37
337.61	1902.56
337.82	1738.73
338.04	1744.87
338.25	1585.13
338.46	1656.81
338.67	1769.44
338.88	1669.09
339.09	1656.81
339.31	1640.42
339.52	1634.28
339.73	1644.52
339.94	1724.39
340.15	1685.48
340.36	1654.76
340.58	1654.76
340.79	1605.61
341.00	1775.59
341.21	1693.67
341.42	1781.73
341.63	1683.43
341.85	1753.06
342.06	1691.62
342.27	1675.24
342.48	1697.77
342.69	1683.43
342.90	1712.10
343.12	1714.15
343.33	1646.57
343.54	1773.54
343.75	1787.88
343.96	1740.77
344.17	1662.95
344.38	1732.58
344.60	1660.90
344.81	1677.29
345.02	1665.00
345.23	1816.55
345.44	1806.31
345.65	1806.31
345.86	1720.29
346.07	1695.72
346.29	1609.70
346.50	1703.91
346.71	1763.30
346.92	1773.54
347.13	1832.93
347.34	1724.39
347.55	1691.62
347.76	1779.68
347.98	1650.66
348.19	1617.90
348.40	1724.39
348.61	1695.72
348.82	1708.01
349.03	1740.77
349.24	1656.81
349.45	1845.22
349.66	1538.02
349.88	1646.57
350.09	1683.43
350.30	1730.53
350.51	1845.22
350.72	1734.63
350.93	1654.76
351.14	1671.14
351.35	1718.25
351.56	1697.77
351.77	1697.77
351.99	1730.53
352.20	1832.93
352.41	1712.10
352.62	1642.47
352.83	1654.76
353.04	1781.73
353.25	1720.29
353.46	1816.55
353.67	1738.73
353.88	1665.00
354.09	1703.91
354.30	1683.43
354.52	1734.63
354.73	1736.68
354.94	1611.75
355.15	1697.77
355.36	1820.64
355.57	1675.24
355.78	1677.29
355.99	1642.47
356.20	1677.29
356.41	1697.77
356.62	1671.14
356.83	1802.21
357.04	1839.08
357.25	1691.62
357.46	1667.05
357.68	1636.33
357.89	1693.67
358.10	1634.28
358.31	1724.39
358.52	1658.85
358.73	1595.37
358.94	1677.29
359.15	1697.77
359.36	1671.14
359.57	1708.01
359.78	1738.73
359.99	1806.31
360.20	1673.19
360.41	1667.05
360.62	1654.76
360.83	1708.01
361.04	1673.19
361.25	1789.92
361.46	1775.59
361.67	1701.86
361.88	1789.92
362.09	1779.68
362.30	1734.63
362.51	1650.66
362.72	1699.81
362.93	1755.11
363.14	1746.92
363.35	1734.63
363.56	1708.01
363.78	1781.73
363.99	1673.19
364.20	1742.82
364.41	1722.34
364.62	1839.08
364.83	1822.69
365.04	1701.86
365.25	1742.82
365.46	1777.64
365.67	1720.29
365.88	1638.38
366.09	1779.68
366.30	1730.53
366.51	1722.34
366.72	1671.14
366.93	1685.48
367.14	1714.15
367.35	1763.30
367.56	1691.62
367.77	1845.22
367.98	1671.14
368.18	1726.44
368.39	1789.92
368.60	1632.23
368.81	1751.01
369.02	1773.54
369.23	1673.19
369.44	1660.90
369.65	1697.77
369.86	1722.34
370.07	1710.05
370.28	1730.53
370.49	1722.34
370.70	1722.34
370.91	1677.29
371.12	1624.04
371.33	1677.29
371.54	1736.68
371.75	1796.07
371.96	1632.23
372.17	1724.39
372.38	1732.58
372.59	1796.07
372.80	1703.91
373.01	1732.58
373.22	1771.49
373.43	1718.25
373.64	1650.66
373.85	1755.11
374.06	1845.22
374.26	1742.82
374.47	1787.88
374.68	1732.58
374.89	1716.20
375.10	1726.44
375.31	1732.58
375.52	1785.83
375.73	1787.88
375.94	1699.81
376.15	1853.41
376.36	1626.09
376.57	1581.03
376.78	1705.96
376.99	1753.06
377.20	1798.12
377.40	1687.53
377.61	1720.29
377.82	1634.28
378.03	1832.93
378.24	1710.05
378.45	1714.15
378.66	1685.48
378.87	1603.56
379.08	1718.25
379.29	1732.58
379.50	1769.44
379.71	1681.38
379.91	1816.55
380.12	1726.44
380.33	1716.20
380.54	1681.38
380.75	1685.48
380.96	1658.85
381.17	1689.57
381.38	1732.58
381.59	1767.40
381.80	1705.96
382.00	1867.75
382.21	1726.44
382.42	1791.97
382.63	1873.89
382.84	1703.91
383.05	1746.92
383.26	1849.32
383.47	1685.48
383.68	1765.35
383.88	1759.21
384.09	1687.53
384.30	1751.01
384.51	1779.68
384.72	1701.86
384.93	1624.04
385.14	1726.44
385.35	1722.34
385.55	1699.81
385.76	1775.59
385.97	1701.86
386.18	1665.00
386.39	1742.82
386.60	1693.67
386.81	1736.68
387.02	1636.33
387.22	1730.53
387.43	1794.02
387.64	1890.28
387.85	1914.85
388.06	2244.57
388.27	4284.35
388.48	6850.46
388.68	8095.62
388.89	9799.53
389.10	9885.55
389.31	8509.31
389.52	7604.11
389.73	6864.79
389.93	6260.64
390.14	5894.05
390.35	5253.04
390.56	4566.97
390.77	3751.88
390.98	2979.79
391.18	2559.96
391.39	2131.94
391.60	1781.73
391.81	1882.08
392.02	1671.14
392.23	1859.56
392.43	1769.44
392.64	1828.84
392.85	1812.45
393.06	1800.16
393.27	1736.68
393.47	1652.71
393.68	1740.77
393.89	1712.10
394.10	1806.31
394.31	1671.14
394.52	1677.29
394.72	1712.10
394.93	1794.02
395.14	1636.33
395.35	1769.44
395.56	1705.96
395.76	1738.73
395.97	1806.31
396.18	1857.51
396.39	1808.36
396.60	2017.25
396.80	1880.04
397.01	1861.60
397.22	1814.50
397.43	1916.90
397.64	1746.92
397.84	1806.31
398.05	1923.04
398.26	1763.30
398.47	1732.58
398.67	1781.73
398.88	1746.92
399.09	1654.76
399.30	1748.97
399.51	1751.01
399.71	1724.39
399.92	1738.73
400.13	1755.11
400.34	1714.15
400.54	1714.15
400.75	1828.84
400.96	1759.21
401.17	1841.12
401.37	1732.58
401.58	1703.91
401.79	1697.77
402.00	1920.99
402.21	1994.72
402.41	1984.48
402.62	1959.91
402.83	2078.69
403.04	1947.62
403.24	2109.41
403.45	1847.27
403.66	1877.99
403.87	1888.23
404.07	1886.18
404.28	1861.60
404.49	1787.88
404.70	1845.22
404.90	1857.51
405.11	1785.83
405.32	1740.77
405.52	1677.29
405.73	1632.23
405.94	1660.90
406.15	1656.81
406.35	1779.68
406.56	1781.73
406.77	1746.92
406.98	1820.64
407.18	1710.05
407.39	1751.01
407.60	1701.86
407.80	1820.64
408.01	1632.23
408.22	1703.91
408.43	1691.62
408.63	1675.24
408.84	1787.88
409.05	1701.86
409.25	1677.29
409.46	1656.81
409.67	1679.33
409.88	1701.86
410.08	1746.92
410.29	1591.27
410.50	1738.73
410.70	1773.54
410.91	1695.72
411.12	1740.77
411.32	1693.67
411.53	1628.14
411.74	1812.45
411.95	1810.40
412.15	1726.44
412.36	1853.41
412.57	1787.88
412.77	1847.27
412.98	1662.95
413.19	1689.57
413.39	1796.07
413.60	1736.68
413.81	1783.78
414.01	1656.81
414.22	1751.01
414.43	1742.82
414.63	1740.77
414.84	1761.25
415.05	1714.15
415.25	1630.18
415.46	1748.97
415.67	1667.05
415.87	1669.09
416.08	1712.10
416.29	1730.53
416.49	1722.34
416.70	1718.25
416.91	1701.86
417.11	1689.57
417.32	1777.64
417.53	1785.83
417.73	1757.16
417.94	1783.78
418.15	1714.15
418.35	1767.40
418.56	1665.00
418.77	1855.46
418.97	1648.61
419.18	1626.09
419.38	1615.85
419.59	1740.77
419.80	1824.74
420.00	1728.49
420.21	1796.07
420.42	1746.92
420.62	1730.53
420.83	1644.52
421.04	1710.05
421.24	1716.20
421.45	1753.06
421.65	1751.01
421.86	1656.81
422.07	1775.59
422.27	1736.68
422.48	1755.11
422.69	1656.81
422.89	1755.11
423.10	1724.39
423.30	1652.71
423.51	1734.63
423.72	1726.44
423.92	1771.49
424.13	1673.19
424.33	1734.63
424.54	1740.77
424.75	1675.24
424.95	1824.74
425.16	1718.25
425.36	1712.10
425.57	1755.11
425.78	1753.06
425.98	1796.07
426.19	1681.38
426.39	1644.52
426.60	1703.91
426.81	1822.69
427.01	1656.81
427.22	1640.42
427.42	1689.57
427.63	1681.38
427.83	1763.30
428.04	1837.03
428.25	1806.31
428.45	1789.92
428.66	1771.49
428.86	1683.43
429.07	1685.48
429.28	1751.01
429.48	1656.81
429.69	1726.44
429.89	1742.82
430.10	1642.47
430.30	1726.44
430.51	1738.73
430.71	1742.82
430.92	1738.73
431.13	1742.82
431.33	1763.30
431.54	1705.96
431.74	1773.54
431.95	1865.70
432.15	1712.10
432.36	1794.02
432.56	1765.35
432.77	1802.21
432.98	1837.03
433.18	1828.84
433.39	1679.33
433.59	1679.33
433.80	1812.45
434.00	1857.51
434.21	1660.90
434.41	1705.96
434.62	1873.89
434.82	1718.25
435.03	1685.48
435.23	1742.82
435.44	1613.80
435.64	1689.57
435.85	1712.10
436.06	1769.44
436.26	1771.49
436.47	1636.33
436.67	1673.19
436.88	1722.34
437.08	1818.60
437.29	1748.97
437.49	1761.25
437.70	1775.59
437.90	1765.35
438.11	1816.55
438.31	1806.31
438.52	1877.99
438.72	1892.32
438.93	2029.54
439.13	1841.12
439.34	1832.93
439.54	1697.77
439.75	1814.50
439.95	1693.67
440.16	1722.34
440.36	1738.73
440.57	1767.40
440.77	1798.12
440.98	1748.97
441.18	1830.88
441.39	1724.39
441.59	1701.86
441.80	1816.55
442.00	1724.39
442.21	1845.22
442.41	1656.81
442.62	1791.97
442.82	1697.77
443.02	1720.29
443.23	1802.21
443.43	1767.40
443.64	1855.46
443.84	1615.85
444.05	1824.74
444.25	1714.15
444.46	1765.35
444.66	1755.11
444.87	1816.55
445.07	1722.34
445.28	1769.44
445.48	1849.32
445.69	1830.88
445.89	1914.85
446.09	1783.78
446.30	2050.02
446.50	2693.08
446.71	3688.39
446.91	4446.14
447.12	4687.80
447.32	4872.12
447.53	4356.03
447.73	3878.85
447.93	3479.50
448.14	3350.48
448.34	3137.49
448.55	2916.31
448.75	2736.09
448.96	2695.13
449.16	2402.27
449.36	2336.73
449.57	2078.69
449.77	1898.47
449.98	1796.07
450.18	1898.47
450.39	1824.74
450.59	1701.86
450.79	1791.97
451.00	1775.59
451.20	1740.77
451.41	1708.01
451.61	1751.01
451.81	1732.58
452.02	1771.49
452.22	1656.81
452.43	1642.47
452.63	1669.09
