SpectraSuite Data File
++++++++++++++++++++++++++++++++++++
Date: Mon Jun 06 12:44:37 CEST 2016
User: root
Dark Spectrum Present: No
Reference Spectrum Present: No
Number of Sampled Component Spectra: 1
Spectrometers: USB4C02835
Integration Time (usec): 100000 (USB4C02835)
Spectra Averaged: 1 (USB4C02835)
Boxcar Smoothing: 0 (USB4C02835)
Correct for Electrical Dark: No (USB4C02835)
Strobe/Lamp Enabled: No (USB4C02835)
Correct for Detector Non-linearity: No (USB4C02835)
Correct for Stray Light: No (USB4C02835)
Number of Pixels in Processed Spectrum: 3648
>>>>>Begin Processed Spectral Data<<<<<
177.47	1402.86
177.69	1402.86
177.91	1402.86
178.13	1437.67
178.36	1447.91
178.58	1613.80
178.80	1744.87
179.02	1642.47
179.24	1642.47
179.46	1626.09
179.68	1746.92
179.90	1654.76
180.13	1710.05
180.35	1677.29
180.57	1626.09
180.79	1705.96
181.01	1738.73
181.23	1742.82
181.45	1679.33
181.67	1648.61
181.90	1755.11
182.12	1695.72
182.34	1671.14
182.56	1736.68
182.78	1722.34
183.00	1636.33
183.22	1732.58
183.44	1601.51
183.66	1789.92
183.89	1751.01
184.11	1718.25
184.33	1687.53
184.55	1744.87
184.77	1695.72
184.99	1656.81
185.21	1617.90
185.43	1845.22
185.65	1644.52
185.87	1751.01
186.10	1763.30
186.32	1771.49
186.54	1691.62
186.76	1650.66
186.98	1769.44
187.20	1671.14
187.42	1673.19
187.64	1738.73
187.86	1642.47
188.08	1705.96
188.30	1650.66
188.52	1730.53
188.75	1781.73
188.97	1710.05
189.19	1634.28
189.41	1681.38
189.63	1710.05
189.85	1708.01
190.07	1638.38
190.29	1667.05
190.51	1761.25
190.73	1628.14
190.95	1804.26
191.17	1714.15
191.39	1603.56
191.61	1607.66
191.84	1665.00
192.06	1759.21
192.28	1632.23
192.50	1880.04
192.72	1714.15
192.94	1636.33
193.16	1855.46
193.38	1744.87
193.60	1677.29
193.82	1787.88
194.04	1746.92
194.26	1757.16
194.48	1677.29
194.70	1603.56
194.92	1667.05
195.14	1787.88
195.36	1644.52
195.58	1746.92
195.80	1648.61
196.02	1675.24
196.24	1722.34
196.46	1697.77
196.69	1681.38
196.91	1873.89
197.13	1642.47
197.35	1751.01
197.57	1759.21
197.79	1755.11
198.01	1697.77
198.23	1687.53
198.45	1767.40
198.67	1591.27
198.89	1714.15
199.11	1679.33
199.33	1671.14
199.55	1607.66
199.77	1736.68
199.99	1847.27
200.21	1691.62
200.43	1748.97
200.65	1634.28
200.87	1542.12
201.09	1746.92
201.31	1763.30
201.53	1794.02
201.75	1763.30
201.97	1728.49
202.19	1722.34
202.41	1738.73
202.63	1828.84
202.85	1705.96
203.07	1726.44
203.29	1681.38
203.51	1695.72
203.73	1609.70
203.95	1877.99
204.17	1703.91
204.39	1691.62
204.61	1718.25
204.83	1755.11
205.05	1689.57
205.27	1712.10
205.49	1849.32
205.71	1728.49
205.93	1632.23
206.15	1689.57
206.37	1638.38
206.59	1630.18
206.81	1712.10
207.03	1632.23
207.25	1724.39
207.47	1761.25
207.69	1740.77
207.91	1699.81
208.13	1781.73
208.34	1566.70
208.56	1669.09
208.78	1605.61
209.00	1693.67
209.22	1722.34
209.44	1691.62
209.66	1705.96
209.88	1724.39
210.10	1718.25
210.32	1646.57
210.54	1814.50
210.76	1628.14
210.98	1755.11
211.20	1523.69
211.42	1722.34
211.64	1787.88
211.86	1748.97
212.08	1710.05
212.30	1634.28
212.52	1632.23
212.74	1697.77
212.96	1648.61
213.17	1728.49
213.39	1748.97
213.61	1800.16
213.83	1736.68
214.05	1638.38
214.27	1689.57
214.49	1658.85
214.71	1693.67
214.93	1748.97
215.15	1683.43
215.37	1742.82
215.59	1634.28
215.81	1763.30
216.03	1781.73
216.24	1726.44
216.46	1632.23
216.68	1671.14
216.90	1724.39
217.12	1787.88
217.34	1783.78
217.56	1681.38
217.78	1763.30
218.00	1753.06
218.22	1628.14
218.44	1665.00
218.66	1683.43
218.87	1785.83
219.09	1648.61
219.31	1775.59
219.53	1701.86
219.75	1662.95
219.97	1634.28
220.19	1687.53
220.41	1695.72
220.63	1806.31
220.85	1726.44
221.06	1644.52
221.28	1746.92
221.50	1683.43
221.72	1751.01
221.94	1728.49
222.16	1730.53
222.38	1810.40
222.60	1720.29
222.82	1613.80
223.03	1773.54
223.25	1630.18
223.47	1781.73
223.69	1728.49
223.91	1677.29
224.13	1714.15
224.35	1673.19
224.57	1763.30
224.78	1746.92
225.00	1632.23
225.22	1703.91
225.44	1673.19
225.66	1791.97
225.88	1701.86
226.10	1720.29
226.32	1671.14
226.53	1748.97
226.75	1705.96
226.97	1681.38
227.19	1714.15
227.41	1687.53
227.63	1613.80
227.85	1640.42
228.06	1689.57
228.28	1724.39
228.50	1708.01
228.72	1626.09
228.94	1689.57
229.16	1660.90
229.37	1642.47
229.59	1675.24
229.81	1708.01
230.03	1658.85
230.25	1697.77
230.47	1624.04
230.69	1628.14
230.90	1748.97
231.12	1673.19
231.34	1710.05
231.56	1740.77
231.78	1677.29
232.00	1740.77
232.21	1679.33
232.43	1615.85
232.65	1638.38
232.87	1705.96
233.09	1652.71
233.30	1693.67
233.52	1726.44
233.74	1687.53
233.96	1703.91
234.18	1726.44
234.40	1665.00
234.61	1718.25
234.83	1568.74
235.05	1665.00
235.27	1759.21
235.49	1783.78
235.70	1669.09
235.92	1767.40
236.14	1726.44
236.36	1916.90
236.58	1646.57
236.79	1746.92
237.01	1734.63
237.23	1767.40
237.45	1812.45
237.67	1650.66
237.88	1712.10
238.10	1806.31
238.32	1652.71
238.54	1693.67
238.76	1679.33
238.97	1708.01
239.19	1665.00
239.41	1708.01
239.63	1751.01
239.85	1648.61
240.06	1751.01
240.28	1746.92
240.50	1769.44
240.72	1740.77
240.93	1660.90
241.15	1804.26
241.37	1753.06
241.59	1738.73
241.81	1695.72
242.02	1626.09
242.24	1720.29
242.46	1685.48
242.68	1638.38
242.89	1759.21
243.11	1740.77
243.33	1677.29
243.55	1665.00
243.76	1761.25
243.98	1710.05
244.20	1697.77
244.42	1705.96
244.64	1634.28
244.85	1634.28
245.07	1626.09
245.29	1708.01
245.51	1714.15
245.72	1763.30
245.94	1673.19
246.16	1646.57
246.38	1624.04
246.59	1652.71
246.81	1656.81
247.03	1650.66
247.24	1578.98
247.46	1660.90
247.68	1646.57
247.90	1656.81
248.11	1679.33
248.33	1722.34
248.55	1761.25
248.77	1767.40
248.98	1705.96
249.20	1726.44
249.42	1673.19
249.64	1691.62
249.85	1763.30
250.07	1632.23
250.29	1763.30
250.50	1685.48
250.72	1634.28
250.94	1697.77
251.16	1816.55
251.37	1769.44
251.59	1703.91
251.81	1755.11
252.02	1798.12
252.24	1669.09
252.46	1804.26
252.68	1685.48
252.89	1685.48
253.11	1613.80
253.33	1824.74
253.54	1804.26
253.76	1644.52
253.98	1718.25
254.20	1673.19
254.41	1654.76
254.63	1691.62
254.85	1644.52
255.06	1658.85
255.28	1738.73
255.50	1675.24
255.71	1660.90
255.93	1621.99
256.15	1697.77
256.36	1726.44
256.58	1593.32
256.80	1755.11
257.02	1701.86
257.23	1660.90
257.45	1779.68
257.67	1640.42
257.88	1646.57
258.10	1789.92
258.32	1779.68
258.53	1724.39
258.75	1732.58
258.97	1685.48
259.18	1603.56
259.40	1681.38
259.62	1798.12
259.83	1751.01
260.05	1722.34
260.27	1943.52
260.48	1730.53
260.70	1677.29
260.92	1781.73
261.13	1662.95
261.35	1669.09
261.57	1734.63
261.78	1601.51
262.00	1564.65
262.22	1812.45
262.43	1624.04
262.65	1624.04
262.86	1710.05
263.08	1855.46
263.30	1757.16
263.51	1611.75
263.73	1677.29
263.95	1779.68
264.16	1652.71
264.38	1656.81
264.60	1683.43
264.81	1671.14
265.03	1783.78
265.25	1759.21
265.46	1685.48
265.68	1720.29
265.89	1732.58
266.11	1601.51
266.33	1699.81
266.54	1775.59
266.76	1708.01
266.98	1773.54
267.19	1812.45
267.41	1742.82
267.62	1738.73
267.84	1619.94
268.06	1771.49
268.27	1658.85
268.49	1689.57
268.70	1759.21
268.92	1722.34
269.14	1705.96
269.35	1595.37
269.57	1728.49
269.79	1757.16
270.00	1699.81
270.22	1767.40
270.43	1628.14
270.65	1570.79
270.87	1671.14
271.08	1658.85
271.30	1718.25
271.51	1722.34
271.73	1794.02
271.95	1763.30
272.16	1648.61
272.38	1744.87
272.59	1615.85
272.81	1716.20
273.02	1714.15
273.24	1759.21
273.46	1789.92
273.67	1593.32
273.89	1685.48
274.10	1697.77
274.32	1724.39
274.54	1665.00
274.75	1710.05
274.97	1714.15
275.18	1703.91
275.40	1806.31
275.61	1722.34
275.83	1740.77
276.05	1585.13
276.26	1685.48
276.48	1791.97
276.69	1697.77
276.91	1648.61
277.12	1808.36
277.34	1779.68
277.55	1738.73
277.77	1730.53
277.99	1628.14
278.20	1542.12
278.42	1560.55
278.63	1640.42
278.85	1679.33
279.06	1718.25
279.28	1765.35
279.49	1648.61
279.71	1814.50
279.93	1703.91
280.14	1693.67
280.36	1701.86
280.57	1736.68
280.79	1755.11
281.00	1628.14
281.22	1652.71
281.43	1828.84
281.65	1640.42
281.86	1593.32
282.08	1693.67
282.29	1779.68
282.51	1716.20
282.73	1691.62
282.94	1599.46
283.16	1724.39
283.37	1724.39
283.59	1648.61
283.80	1722.34
284.02	1746.92
284.23	1755.11
284.45	1656.81
284.66	1632.23
284.88	1697.77
285.09	1722.34
285.31	1783.78
285.52	1644.52
285.74	1685.48
285.95	1689.57
286.17	1640.42
286.38	1685.48
286.60	1660.90
286.81	1677.29
287.03	1689.57
287.24	1646.57
287.46	1736.68
287.67	1716.20
287.89	1925.09
288.10	1640.42
288.32	1714.15
288.53	1789.92
288.75	1624.04
288.96	1699.81
289.18	1646.57
289.39	1697.77
289.61	1699.81
289.82	1751.01
290.04	1798.12
290.25	1689.57
290.47	1638.38
290.68	1701.86
290.90	1757.16
291.11	1644.52
291.33	1773.54
291.54	1632.23
291.76	1697.77
291.97	1689.57
292.18	1689.57
292.40	1662.95
292.61	1701.86
292.83	1837.03
293.04	1757.16
293.26	1716.20
293.47	1718.25
293.69	1701.86
293.90	1708.01
294.12	1691.62
294.33	1646.57
294.55	1722.34
294.76	1679.33
294.97	1716.20
295.19	1789.92
295.40	1636.33
295.62	1746.92
295.83	1730.53
296.05	1673.19
296.26	1773.54
296.48	1636.33
296.69	1695.72
296.90	1593.32
297.12	1708.01
297.33	1783.78
297.55	1671.14
297.76	1683.43
297.98	1730.53
298.19	1601.51
298.41	1667.05
298.62	1574.89
298.83	1837.03
299.05	1654.76
299.26	1681.38
299.48	1689.57
299.69	1755.11
299.90	1669.09
300.12	1613.80
300.33	1693.67
300.55	1730.53
300.76	1665.00
300.98	1681.38
301.19	1654.76
301.40	1654.76
301.62	1644.52
301.83	1767.40
302.05	1720.29
302.26	1718.25
302.47	1722.34
302.69	1683.43
302.90	1701.86
303.12	1535.98
303.33	1660.90
303.54	1763.30
303.76	1703.91
303.97	1714.15
304.19	1738.73
304.40	1617.90
304.61	1738.73
304.83	1699.81
305.04	1746.92
305.26	1683.43
305.47	1726.44
305.68	1572.84
305.90	1646.57
306.11	1681.38
306.33	1685.48
306.54	1652.71
306.75	1740.77
306.97	1576.94
307.18	1554.41
307.39	1687.53
307.61	1751.01
307.82	1656.81
308.04	1726.44
308.25	1652.71
308.46	1718.25
308.68	1693.67
308.89	1689.57
309.10	1769.44
309.32	1687.53
309.53	1714.15
309.74	1751.01
309.96	1681.38
310.17	1783.78
310.39	1693.67
310.60	1669.09
310.81	1714.15
311.03	1652.71
311.24	1746.92
311.45	1740.77
311.67	1804.26
311.88	1685.48
312.09	1705.96
312.31	1748.97
312.52	1718.25
312.73	1667.05
312.95	1648.61
313.16	1634.28
313.37	1767.40
313.59	1746.92
313.80	1712.10
314.01	1744.87
314.23	1644.52
314.44	1652.71
314.65	1624.04
314.87	1677.29
315.08	1697.77
315.29	1677.29
315.51	1660.90
315.72	1634.28
315.93	1740.77
316.15	1726.44
316.36	1710.05
316.57	1697.77
316.79	1791.97
317.00	1693.67
317.21	1671.14
317.43	1660.90
317.64	1677.29
317.85	1660.90
318.07	1591.27
318.28	1779.68
318.49	1763.30
318.70	1871.84
318.92	1818.60
319.13	1818.60
319.34	1777.64
319.56	1767.40
319.77	1763.30
319.98	1806.31
320.20	1802.21
320.41	1773.54
320.62	1677.29
320.83	1716.20
321.05	1769.44
321.26	1728.49
321.47	1718.25
321.69	1748.97
321.90	1691.62
322.11	1742.82
322.32	1730.53
322.54	1875.94
322.75	1665.00
322.96	1720.29
323.18	1611.75
323.39	1519.59
323.60	1652.71
323.81	1769.44
324.03	1662.95
324.24	1761.25
324.45	1708.01
324.66	1746.92
324.88	1765.35
325.09	1755.11
325.30	1654.76
325.52	1720.29
325.73	1753.06
325.94	1665.00
326.15	1662.95
326.37	1705.96
326.58	1697.77
326.79	1816.55
327.00	1626.09
327.22	1626.09
327.43	1621.99
327.64	1667.05
327.85	1667.05
328.07	1689.57
328.28	1787.88
328.49	1638.38
328.70	1650.66
328.92	1673.19
329.13	1697.77
329.34	1734.63
329.55	1820.64
329.76	1722.34
329.98	1628.14
330.19	1837.03
330.40	1701.86
330.61	1746.92
330.83	1748.97
331.04	1619.94
331.25	1675.24
331.46	1636.33
331.68	1687.53
331.89	1738.73
332.10	1689.57
332.31	1615.85
332.52	1720.29
332.74	1841.12
332.95	1656.81
333.16	1701.86
333.37	1753.06
333.58	1685.48
333.80	1759.21
334.01	1628.14
334.22	1656.81
334.43	1660.90
334.64	1703.91
334.86	1593.32
335.07	1619.94
335.28	1759.21
335.49	1617.90
335.70	1740.77
335.92	1744.87
336.13	1863.65
336.34	1769.44
336.55	1726.44
336.76	1724.39
336.98	1595.37
337.19	1699.81
337.40	1783.78
337.61	1820.64
337.82	1710.05
338.04	1781.73
338.25	1640.42
338.46	1611.75
338.67	1736.68
338.88	1689.57
339.09	1671.14
339.31	1730.53
339.52	1609.70
339.73	1601.51
339.94	1785.83
340.15	1681.38
340.36	1701.86
340.58	1730.53
340.79	1644.52
341.00	1705.96
341.21	1574.89
341.42	1779.68
341.63	1613.80
341.85	1748.97
342.06	1652.71
342.27	1679.33
342.48	1693.67
342.69	1673.19
342.90	1777.64
343.12	1705.96
343.33	1673.19
343.54	1693.67
343.75	1832.93
343.96	1671.14
344.17	1634.28
344.38	1744.87
344.60	1665.00
344.81	1662.95
345.02	1734.63
345.23	1734.63
345.44	1789.92
345.65	1712.10
345.86	1820.64
346.07	1685.48
346.29	1665.00
346.50	1724.39
346.71	1722.34
346.92	1767.40
347.13	1787.88
347.34	1726.44
347.55	1718.25
347.76	1720.29
347.98	1648.61
348.19	1726.44
348.40	1720.29
348.61	1703.91
348.82	1796.07
349.03	1746.92
349.24	1662.95
349.45	1859.56
349.66	1628.14
349.88	1691.62
350.09	1720.29
350.30	1775.59
350.51	1740.77
350.72	1744.87
350.93	1746.92
351.14	1630.18
351.35	1710.05
351.56	1681.38
351.77	1724.39
351.99	1732.58
352.20	1746.92
352.41	1791.97
352.62	1689.57
352.83	1646.57
353.04	1656.81
353.25	1712.10
353.46	1767.40
353.67	1677.29
353.88	1538.02
354.09	1716.20
354.30	1697.77
354.52	1728.49
354.73	1751.01
354.94	1708.01
355.15	1701.86
355.36	1796.07
355.57	1720.29
355.78	1746.92
355.99	1687.53
356.20	1687.53
356.41	1814.50
356.62	1775.59
356.83	1712.10
357.04	1798.12
357.25	1642.47
357.46	1640.42
357.68	1652.71
357.89	1716.20
358.10	1718.25
358.31	1687.53
358.52	1660.90
358.73	1570.79
358.94	1648.61
359.15	1699.81
359.36	1732.58
359.57	1628.14
359.78	1718.25
359.99	1744.87
360.20	1665.00
360.41	1716.20
360.62	1714.15
360.83	1681.38
361.04	1728.49
361.25	1697.77
361.46	1806.31
361.67	1708.01
361.88	1716.20
362.09	1787.88
362.30	1708.01
362.51	1699.81
362.72	1662.95
362.93	1787.88
363.14	1724.39
363.35	1728.49
363.56	1671.14
363.78	1742.82
363.99	1798.12
364.20	1603.56
364.41	1675.24
364.62	1800.16
364.83	1658.85
365.04	1689.57
365.25	1697.77
365.46	1806.31
365.67	1722.34
365.88	1617.90
366.09	1708.01
366.30	1595.37
366.51	1738.73
366.72	1759.21
366.93	1665.00
367.14	1640.42
367.35	1773.54
367.56	1679.33
367.77	1724.39
367.98	1687.53
368.18	1716.20
368.39	1767.40
368.60	1716.20
368.81	1775.59
369.02	1675.24
369.23	1644.52
369.44	1640.42
369.65	1593.32
369.86	1761.25
370.07	1740.77
370.28	1654.76
370.49	1738.73
370.70	1755.11
370.91	1615.85
371.12	1615.85
371.33	1724.39
371.54	1652.71
371.75	1740.77
371.96	1546.22
372.17	1683.43
372.38	1673.19
372.59	1701.86
372.80	1648.61
373.01	1660.90
373.22	1691.62
373.43	1660.90
373.64	1640.42
373.85	1722.34
374.06	1826.79
374.26	1773.54
374.47	1695.72
374.68	1808.36
374.89	1710.05
375.10	1720.29
375.31	1767.40
375.52	1671.14
375.73	1652.71
375.94	1585.13
376.15	1839.08
376.36	1654.76
376.57	1681.38
376.78	1636.33
376.99	1669.09
377.20	1781.73
377.40	1746.92
377.61	1738.73
377.82	1673.19
378.03	1787.88
378.24	1722.34
378.45	1695.72
378.66	1710.05
378.87	1615.85
379.08	1675.24
379.29	1619.94
379.50	1804.26
379.71	1654.76
379.91	1740.77
380.12	1642.47
380.33	1759.21
380.54	1695.72
380.75	1673.19
380.96	1722.34
381.17	1718.25
381.38	1775.59
381.59	1761.25
381.80	1746.92
382.00	1886.18
382.21	1642.47
382.42	1818.60
382.63	1886.18
382.84	1685.48
383.05	1736.68
383.26	1849.32
383.47	1673.19
383.68	1775.59
383.88	1800.16
384.09	1738.73
384.30	1802.21
384.51	1734.63
384.72	1691.62
384.93	1650.66
385.14	1705.96
385.35	1744.87
385.55	1583.08
385.76	1816.55
385.97	1757.16
386.18	1634.28
386.39	1654.76
386.60	1736.68
386.81	1730.53
387.02	1619.94
387.22	1624.04
387.43	1824.74
387.64	1730.53
387.85	1769.44
388.06	2254.81
388.27	4370.37
388.48	6803.35
388.68	8329.09
388.89	9604.97
389.10	9873.26
389.31	8476.54
389.52	7538.57
389.73	6643.61
389.93	6270.88
390.14	5810.09
390.35	5216.18
390.56	4577.21
390.77	3772.36
390.98	3157.97
391.18	2467.80
391.39	2076.64
391.60	1837.03
391.81	1820.64
392.02	1794.02
392.23	1902.56
392.43	1742.82
392.64	1855.46
392.85	1697.77
393.06	1843.17
393.27	1679.33
393.47	1718.25
393.68	1669.09
393.89	1650.66
394.10	1759.21
394.31	1746.92
394.52	1691.62
394.72	1705.96
394.93	1808.36
395.14	1667.05
395.35	1779.68
395.56	1626.09
395.76	1656.81
395.97	1767.40
396.18	1751.01
396.39	1865.70
396.60	1970.15
396.80	1890.28
397.01	1867.75
397.22	1775.59
397.43	1834.98
397.64	1755.11
397.84	1761.25
398.05	1800.16
398.26	1759.21
398.47	1775.59
398.67	1791.97
398.88	1699.81
399.09	1697.77
399.30	1744.87
399.51	1779.68
399.71	1601.51
399.92	1697.77
400.13	1757.16
400.34	1675.24
400.54	1738.73
400.75	1816.55
400.96	1728.49
401.17	1791.97
401.37	1689.57
401.58	1703.91
401.79	1794.02
402.00	1820.64
402.21	1980.39
402.41	1970.15
402.62	1949.67
402.83	2045.92
403.04	1959.91
403.24	2119.65
403.45	1820.64
403.66	1904.61
403.87	1880.04
404.07	1839.08
404.28	1904.61
404.49	1837.03
404.70	1744.87
404.90	1781.73
405.11	1783.78
405.32	1789.92
405.52	1652.71
405.73	1730.53
405.94	1667.05
406.15	1673.19
406.35	1804.26
406.56	1773.54
406.77	1755.11
406.98	1732.58
407.18	1660.90
407.39	1779.68
407.60	1705.96
407.80	1726.44
408.01	1683.43
408.22	1787.88
408.43	1611.75
408.63	1669.09
408.84	1720.29
409.05	1718.25
409.25	1687.53
409.46	1669.09
409.67	1687.53
409.88	1701.86
410.08	1775.59
410.29	1650.66
410.50	1789.92
410.70	1738.73
410.91	1730.53
411.12	1751.01
411.32	1759.21
411.53	1730.53
411.74	1791.97
411.95	1738.73
412.15	1665.00
412.36	1726.44
412.57	1718.25
412.77	1853.41
412.98	1724.39
413.19	1644.52
413.39	1722.34
413.60	1730.53
413.81	1736.68
414.01	1673.19
414.22	1740.77
414.43	1761.25
414.63	1642.47
414.84	1738.73
415.05	1820.64
415.25	1669.09
415.46	1730.53
415.67	1728.49
415.87	1748.97
416.08	1701.86
416.29	1689.57
416.49	1705.96
416.70	1699.81
416.91	1732.58
417.11	1789.92
417.32	1787.88
417.53	1726.44
417.73	1710.05
417.94	1720.29
418.15	1757.16
418.35	1671.14
418.56	1697.77
418.77	1886.18
418.97	1712.10
419.18	1615.85
419.38	1591.27
419.59	1720.29
419.80	1767.40
420.00	1736.68
420.21	1746.92
420.42	1720.29
420.62	1699.81
420.83	1654.76
421.04	1642.47
421.24	1665.00
421.45	1675.24
421.65	1722.34
421.86	1621.99
422.07	1689.57
422.27	1648.61
422.48	1769.44
422.69	1626.09
422.89	1751.01
423.10	1624.04
423.30	1636.33
423.51	1720.29
423.72	1726.44
423.92	1757.16
424.13	1699.81
424.33	1753.06
424.54	1740.77
424.75	1693.67
424.95	1808.36
425.16	1748.97
425.36	1705.96
425.57	1728.49
425.78	1722.34
425.98	1800.16
426.19	1621.99
426.39	1615.85
426.60	1724.39
426.81	1763.30
427.01	1769.44
427.22	1589.22
427.42	1665.00
427.63	1705.96
427.83	1710.05
428.04	1814.50
428.25	1812.45
428.45	1703.91
428.66	1777.64
428.86	1648.61
429.07	1679.33
429.28	1722.34
429.48	1646.57
429.69	1718.25
429.89	1742.82
430.10	1609.70
430.30	1771.49
430.51	1753.06
430.71	1695.72
430.92	1720.29
431.13	1679.33
431.33	1771.49
431.54	1710.05
431.74	1785.83
431.95	1783.78
432.15	1722.34
432.36	1662.95
432.56	1689.57
432.77	1753.06
432.98	1783.78
433.18	1679.33
433.39	1642.47
433.59	1697.77
433.80	1781.73
434.00	1810.40
434.21	1628.14
434.41	1650.66
434.62	1894.37
434.82	1624.04
435.03	1771.49
435.23	1681.38
435.44	1628.14
435.64	1699.81
435.85	1691.62
436.06	1728.49
436.26	1763.30
436.47	1798.12
436.67	1603.56
436.88	1759.21
437.08	1816.55
437.29	1834.98
437.49	1701.86
437.70	1822.69
437.90	1767.40
438.11	1816.55
438.31	1791.97
438.52	1861.60
438.72	1828.84
438.93	1847.27
439.13	1771.49
439.34	1751.01
439.54	1738.73
439.75	1779.68
439.95	1826.79
440.16	1734.63
440.36	1800.16
440.57	1800.16
440.77	1746.92
440.98	1673.19
441.18	1738.73
441.39	1710.05
441.59	1693.67
441.80	1855.46
442.00	1773.54
442.21	1771.49
442.41	1613.80
442.62	1753.06
442.82	1591.27
443.02	1701.86
443.23	1736.68
443.43	1722.34
443.64	1796.07
443.84	1628.14
444.05	1839.08
444.25	1714.15
444.46	1697.77
444.66	1652.71
444.87	1769.44
445.07	1628.14
445.28	1667.05
445.48	1849.32
445.69	1826.79
445.89	1871.84
446.09	1773.54
446.30	2025.44
446.50	2621.40
446.71	3798.98
446.91	4452.28
447.12	4665.27
447.32	4839.35
447.53	4353.98
447.73	3932.10
447.93	3430.35
448.14	3325.90
448.34	3209.17
448.55	2805.72
448.75	2813.91
448.96	2658.26
449.16	2402.27
449.36	2277.34
449.57	2004.96
449.77	1873.89
449.98	1810.40
450.18	1794.02
450.39	1783.78
450.59	1724.39
450.79	1701.86
451.00	1761.25
451.20	1736.68
451.41	1671.14
451.61	1734.63
451.81	1718.25
452.02	1759.21
452.22	1693.67
452.43	1685.48
452.63	1734.63
