SpectraSuite Data File
++++++++++++++++++++++++++++++++++++
Date: Mon Jun 06 14:18:57 CEST 2016
User: root
Dark Spectrum Present: No
Reference Spectrum Present: No
Number of Sampled Component Spectra: 1
Spectrometers: USB4C02835
Integration Time (usec): 100000 (USB4C02835)
Spectra Averaged: 1 (USB4C02835)
Boxcar Smoothing: 0 (USB4C02835)
Correct for Electrical Dark: No (USB4C02835)
Strobe/Lamp Enabled: No (USB4C02835)
Correct for Detector Non-linearity: No (USB4C02835)
Correct for Stray Light: No (USB4C02835)
Number of Pixels in Processed Spectrum: 3648
>>>>>Begin Processed Spectral Data<<<<<
177.47	1417.19
177.69	1417.19
177.91	1417.19
178.13	1417.19
178.36	1460.20
178.58	1679.33
178.80	1720.29
179.02	1595.37
179.24	1619.94
179.46	1689.57
179.68	1781.73
179.90	1644.52
180.13	1636.33
180.35	1660.90
180.57	1742.82
180.79	1765.35
181.01	1667.05
181.23	1755.11
181.45	1742.82
181.67	1722.34
181.90	1738.73
182.12	1636.33
182.34	1648.61
182.56	1742.82
182.78	1697.77
183.00	1734.63
183.22	1691.62
183.44	1591.27
183.66	1871.84
183.89	1837.03
184.11	1716.20
184.33	1769.44
184.55	1746.92
184.77	1765.35
184.99	1650.66
185.21	1681.38
185.43	1861.60
185.65	1669.09
185.87	1712.10
186.10	1812.45
186.32	1796.07
186.54	1671.14
186.76	1701.86
186.98	1742.82
187.20	1693.67
187.42	1714.15
187.64	1677.29
187.86	1746.92
188.08	1716.20
188.30	1708.01
188.52	1710.05
188.75	1742.82
188.97	1843.17
189.19	1720.29
189.41	1642.47
189.63	1769.44
189.85	1650.66
190.07	1652.71
190.29	1640.42
190.51	1712.10
190.73	1607.66
190.95	1779.68
191.17	1656.81
191.39	1628.14
191.61	1634.28
191.84	1640.42
192.06	1767.40
192.28	1626.09
192.50	1828.84
192.72	1714.15
192.94	1675.24
193.16	1726.44
193.38	1626.09
193.60	1605.61
193.82	1689.57
194.04	1728.49
194.26	1681.38
194.48	1642.47
194.70	1630.18
194.92	1710.05
195.14	1693.67
195.36	1722.34
195.58	1683.43
195.80	1746.92
196.02	1669.09
196.24	1656.81
196.46	1753.06
196.69	1652.71
196.91	1845.22
197.13	1708.01
197.35	1710.05
197.57	1781.73
197.79	1679.33
198.01	1742.82
198.23	1693.67
198.45	1734.63
198.67	1642.47
198.89	1673.19
199.11	1804.26
199.33	1626.09
199.55	1599.46
199.77	1681.38
199.99	1734.63
200.21	1667.05
200.43	1767.40
200.65	1568.74
200.87	1638.38
201.09	1685.48
201.31	1617.90
201.53	1757.16
201.75	1714.15
201.97	1708.01
202.19	1724.39
202.41	1689.57
202.63	1738.73
202.85	1726.44
203.07	1751.01
203.29	1705.96
203.51	1724.39
203.73	1603.56
203.95	1816.55
204.17	1705.96
204.39	1738.73
204.61	1687.53
204.83	1679.33
205.05	1755.11
205.27	1738.73
205.49	1859.56
205.71	1685.48
205.93	1660.90
206.15	1656.81
206.37	1716.20
206.59	1648.61
206.81	1716.20
207.03	1681.38
207.25	1634.28
207.47	1767.40
207.69	1679.33
207.91	1826.79
208.13	1789.92
208.34	1650.66
208.56	1677.29
208.78	1701.86
209.00	1671.14
209.22	1677.29
209.44	1730.53
209.66	1605.61
209.88	1744.87
210.10	1724.39
210.32	1687.53
210.54	1787.88
210.76	1746.92
210.98	1734.63
211.20	1564.65
211.42	1699.81
211.64	1810.40
211.86	1746.92
212.08	1718.25
212.30	1722.34
212.52	1708.01
212.74	1781.73
212.96	1710.05
213.17	1724.39
213.39	1775.59
213.61	1779.68
213.83	1677.29
214.05	1574.89
214.27	1712.10
214.49	1585.13
214.71	1609.70
214.93	1736.68
215.15	1714.15
215.37	1734.63
215.59	1621.99
215.81	1705.96
216.03	1759.21
216.24	1665.00
216.46	1798.12
216.68	1740.77
216.90	1777.64
217.12	1765.35
217.34	1746.92
217.56	1740.77
217.78	1718.25
218.00	1740.77
218.22	1685.48
218.44	1738.73
218.66	1662.95
218.87	1730.53
219.09	1724.39
219.31	1755.11
219.53	1673.19
219.75	1693.67
219.97	1654.76
220.19	1736.68
220.41	1724.39
220.63	1714.15
220.85	1759.21
221.06	1728.49
221.28	1740.77
221.50	1675.24
221.72	1744.87
221.94	1669.09
222.16	1728.49
222.38	1695.72
222.60	1757.16
222.82	1697.77
223.03	1779.68
223.25	1615.85
223.47	1738.73
223.69	1816.55
223.91	1744.87
224.13	1654.76
224.35	1638.38
224.57	1726.44
224.78	1734.63
225.00	1691.62
225.22	1705.96
225.44	1701.86
225.66	1724.39
225.88	1701.86
226.10	1765.35
226.32	1724.39
226.53	1740.77
226.75	1665.00
226.97	1638.38
227.19	1660.90
227.41	1603.56
227.63	1646.57
227.85	1521.64
228.06	1656.81
228.28	1689.57
228.50	1740.77
228.72	1617.90
228.94	1677.29
229.16	1611.75
229.37	1687.53
229.59	1675.24
229.81	1724.39
230.03	1755.11
230.25	1632.23
230.47	1673.19
230.69	1648.61
230.90	1765.35
231.12	1642.47
231.34	1679.33
231.56	1751.01
231.78	1611.75
232.00	1689.57
232.21	1638.38
232.43	1720.29
232.65	1578.98
232.87	1798.12
233.09	1626.09
233.30	1697.77
233.52	1734.63
233.74	1632.23
233.96	1699.81
234.18	1691.62
234.40	1626.09
234.61	1812.45
234.83	1540.07
235.05	1652.71
235.27	1888.23
235.49	1802.21
235.70	1673.19
235.92	1740.77
236.14	1742.82
236.36	1822.69
236.58	1660.90
236.79	1708.01
237.01	1693.67
237.23	1755.11
237.45	1753.06
237.67	1644.52
237.88	1748.97
238.10	1771.49
238.32	1691.62
238.54	1679.33
238.76	1683.43
238.97	1665.00
239.19	1691.62
239.41	1695.72
239.63	1738.73
239.85	1705.96
240.06	1732.58
240.28	1601.51
240.50	1822.69
240.72	1716.20
240.93	1667.05
241.15	1716.20
241.37	1689.57
241.59	1863.65
241.81	1683.43
242.02	1722.34
242.24	1708.01
242.46	1751.01
242.68	1646.57
242.89	1767.40
243.11	1781.73
243.33	1669.09
243.55	1726.44
243.76	1652.71
243.98	1640.42
244.20	1648.61
244.42	1705.96
244.64	1724.39
244.85	1660.90
245.07	1732.58
245.29	1681.38
245.51	1761.25
245.72	1744.87
245.94	1732.58
246.16	1777.64
246.38	1720.29
246.59	1687.53
246.81	1605.61
247.03	1679.33
247.24	1611.75
247.46	1667.05
247.68	1689.57
247.90	1716.20
248.11	1636.33
248.33	1767.40
248.55	1650.66
248.77	1628.14
248.98	1693.67
249.20	1789.92
249.42	1685.48
249.64	1687.53
249.85	1673.19
250.07	1660.90
250.29	1773.54
250.50	1769.44
250.72	1607.66
250.94	1669.09
251.16	1830.88
251.37	1693.67
251.59	1722.34
251.81	1699.81
252.02	1730.53
252.24	1632.23
252.46	1736.68
252.68	1587.18
252.89	1660.90
253.11	1607.66
253.33	1755.11
253.54	1775.59
253.76	1636.33
253.98	1644.52
254.20	1646.57
254.41	1574.89
254.63	1687.53
254.85	1640.42
255.06	1708.01
255.28	1759.21
255.50	1660.90
255.71	1660.90
255.93	1669.09
256.15	1689.57
256.36	1699.81
256.58	1691.62
256.80	1740.77
257.02	1636.33
257.23	1652.71
257.45	1656.81
257.67	1726.44
257.88	1609.70
258.10	1654.76
258.32	1718.25
258.53	1712.10
258.75	1779.68
258.97	1708.01
259.18	1710.05
259.40	1658.85
259.62	1794.02
259.83	1726.44
260.05	1787.88
260.27	1990.63
260.48	1734.63
260.70	1697.77
260.92	1689.57
261.13	1642.47
261.35	1695.72
261.57	1738.73
261.78	1609.70
262.00	1652.71
262.22	1783.78
262.43	1669.09
262.65	1626.09
262.86	1722.34
263.08	1837.03
263.30	1705.96
263.51	1546.22
263.73	1591.27
263.95	1703.91
264.16	1626.09
264.38	1705.96
264.60	1736.68
264.81	1751.01
265.03	1740.77
265.25	1703.91
265.46	1695.72
265.68	1796.07
265.89	1742.82
266.11	1644.52
266.33	1748.97
266.54	1691.62
266.76	1771.49
266.98	1744.87
267.19	1791.97
267.41	1720.29
267.62	1697.77
267.84	1671.14
268.06	1718.25
268.27	1759.21
268.49	1744.87
268.70	1771.49
268.92	1705.96
269.14	1671.14
269.35	1642.47
269.57	1691.62
269.79	1697.77
270.00	1669.09
270.22	1832.93
270.43	1687.53
270.65	1626.09
270.87	1730.53
271.08	1712.10
271.30	1695.72
271.51	1665.00
271.73	1697.77
271.95	1789.92
272.16	1701.86
272.38	1763.30
272.59	1730.53
272.81	1720.29
273.02	1650.66
273.24	1757.16
273.46	1701.86
273.67	1701.86
273.89	1613.80
274.10	1681.38
274.32	1724.39
274.54	1775.59
274.75	1710.05
274.97	1687.53
275.18	1751.01
275.40	1734.63
275.61	1734.63
275.83	1662.95
276.05	1624.04
276.26	1701.86
276.48	1785.83
276.69	1609.70
276.91	1652.71
277.12	1767.40
277.34	1701.86
277.55	1824.74
277.77	1699.81
277.99	1720.29
278.20	1669.09
278.42	1636.33
278.63	1671.14
278.85	1673.19
279.06	1603.56
279.28	1726.44
279.49	1761.25
279.71	1736.68
279.93	1771.49
280.14	1671.14
280.36	1673.19
280.57	1732.58
280.79	1828.84
281.00	1607.66
281.22	1658.85
281.43	1748.97
281.65	1626.09
281.86	1652.71
282.08	1744.87
282.29	1791.97
282.51	1605.61
282.73	1642.47
282.94	1636.33
283.16	1730.53
283.37	1822.69
283.59	1703.91
283.80	1781.73
284.02	1742.82
284.23	1705.96
284.45	1646.57
284.66	1634.28
284.88	1699.81
285.09	1734.63
285.31	1794.02
285.52	1656.81
285.74	1617.90
285.95	1738.73
286.17	1746.92
286.38	1761.25
286.60	1619.94
286.81	1632.23
287.03	1687.53
287.24	1720.29
287.46	1732.58
287.67	1650.66
287.89	1779.68
288.10	1665.00
288.32	1687.53
288.53	1830.88
288.75	1710.05
288.96	1640.42
289.18	1650.66
289.39	1654.76
289.61	1697.77
289.82	1845.22
290.04	1837.03
290.25	1619.94
290.47	1632.23
290.68	1777.64
290.90	1791.97
291.11	1626.09
291.33	1767.40
291.54	1710.05
291.76	1654.76
291.97	1693.67
292.18	1744.87
292.40	1652.71
292.61	1720.29
292.83	1791.97
293.04	1806.31
293.26	1691.62
293.47	1658.85
293.69	1615.85
293.90	1705.96
294.12	1742.82
294.33	1742.82
294.55	1718.25
294.76	1724.39
294.97	1724.39
295.19	1781.73
295.40	1658.85
295.62	1755.11
295.83	1806.31
296.05	1644.52
296.26	1712.10
296.48	1648.61
296.69	1718.25
296.90	1687.53
297.12	1734.63
297.33	1736.68
297.55	1714.15
297.76	1701.86
297.98	1804.26
298.19	1677.29
298.41	1679.33
298.62	1675.24
298.83	1777.64
299.05	1669.09
299.26	1710.05
299.48	1712.10
299.69	1748.97
299.90	1705.96
300.12	1673.19
300.33	1673.19
300.55	1665.00
300.76	1724.39
300.98	1648.61
301.19	1736.68
301.40	1703.91
301.62	1728.49
301.83	1720.29
302.05	1708.01
302.26	1720.29
302.47	1724.39
302.69	1621.99
302.90	1634.28
303.12	1619.94
303.33	1757.16
303.54	1787.88
303.76	1689.57
303.97	1765.35
304.19	1714.15
304.40	1595.37
304.61	1693.67
304.83	1789.92
305.04	1705.96
305.26	1689.57
305.47	1687.53
305.68	1708.01
305.90	1667.05
306.11	1712.10
306.33	1699.81
306.54	1724.39
306.75	1587.18
306.97	1591.27
307.18	1683.43
307.39	1681.38
307.61	1736.68
307.82	1626.09
308.04	1654.76
308.25	1636.33
308.46	1681.38
308.68	1667.05
308.89	1738.73
309.10	1665.00
309.32	1720.29
309.53	1630.18
309.74	1779.68
309.96	1689.57
310.17	1791.97
310.39	1744.87
310.60	1742.82
310.81	1720.29
311.03	1621.99
311.24	1726.44
311.45	1681.38
311.67	1783.78
311.88	1738.73
312.09	1599.46
312.31	1689.57
312.52	1695.72
312.73	1662.95
312.95	1611.75
313.16	1593.32
313.37	1748.97
313.59	1701.86
313.80	1787.88
314.01	1769.44
314.23	1671.14
314.44	1656.81
314.65	1691.62
314.87	1642.47
315.08	1662.95
315.29	1734.63
315.51	1630.18
315.72	1648.61
315.93	1814.50
316.15	1746.92
316.36	1714.15
316.57	1693.67
316.79	1748.97
317.00	1677.29
317.21	1724.39
317.43	1642.47
317.64	1714.15
317.85	1628.14
318.07	1644.52
318.28	1636.33
318.49	1691.62
318.70	1877.99
318.92	1789.92
319.13	1884.13
319.34	1880.04
319.56	1773.54
319.77	1865.70
319.98	1775.59
320.20	1837.03
320.41	1697.77
320.62	1787.88
320.83	1681.38
321.05	1779.68
321.26	1718.25
321.47	1718.25
321.69	1740.77
321.90	1648.61
322.11	1722.34
322.32	1710.05
322.54	1777.64
322.75	1705.96
322.96	1802.21
323.18	1583.08
323.39	1533.93
323.60	1640.42
323.81	1732.58
324.03	1640.42
324.24	1710.05
324.45	1724.39
324.66	1667.05
324.88	1712.10
325.09	1822.69
325.30	1714.15
325.52	1697.77
325.73	1685.48
325.94	1605.61
326.15	1601.51
326.37	1652.71
326.58	1794.02
326.79	1714.15
327.00	1669.09
327.22	1642.47
327.43	1673.19
327.64	1638.38
327.85	1781.73
328.07	1726.44
328.28	1822.69
328.49	1669.09
328.70	1679.33
328.92	1679.33
329.13	1718.25
329.34	1751.01
329.55	1896.42
329.76	1667.05
329.98	1613.80
330.19	1861.60
330.40	1734.63
330.61	1656.81
330.83	1763.30
331.04	1626.09
331.25	1705.96
331.46	1726.44
331.68	1615.85
331.89	1755.11
332.10	1640.42
332.31	1644.52
332.52	1646.57
332.74	1787.88
332.95	1626.09
333.16	1687.53
333.37	1759.21
333.58	1705.96
333.80	1675.24
334.01	1656.81
334.22	1796.07
334.43	1595.37
334.64	1624.04
334.86	1660.90
335.07	1673.19
335.28	1822.69
335.49	1654.76
335.70	1738.73
335.92	1763.30
336.13	1847.27
336.34	1742.82
336.55	1714.15
336.76	1757.16
336.98	1624.04
337.19	1697.77
337.40	1855.46
337.61	1777.64
337.82	1697.77
338.04	1716.20
338.25	1603.56
338.46	1671.14
338.67	1722.34
338.88	1687.53
339.09	1611.75
339.31	1644.52
339.52	1646.57
339.73	1734.63
339.94	1724.39
340.15	1757.16
340.36	1630.18
340.58	1697.77
340.79	1574.89
341.00	1755.11
341.21	1542.12
341.42	1736.68
341.63	1703.91
341.85	1722.34
342.06	1689.57
342.27	1689.57
342.48	1722.34
342.69	1640.42
342.90	1789.92
343.12	1744.87
343.33	1724.39
343.54	1806.31
343.75	1787.88
343.96	1705.96
344.17	1689.57
344.38	1673.19
344.60	1724.39
344.81	1640.42
345.02	1632.23
345.23	1734.63
345.44	1771.49
345.65	1662.95
345.86	1736.68
346.07	1695.72
346.29	1628.14
346.50	1781.73
346.71	1751.01
346.92	1798.12
347.13	1783.78
347.34	1767.40
347.55	1679.33
347.76	1751.01
347.98	1626.09
348.19	1658.85
348.40	1701.86
348.61	1626.09
348.82	1757.16
349.03	1806.31
349.24	1701.86
349.45	1755.11
349.66	1519.59
349.88	1681.38
350.09	1675.24
350.30	1785.83
350.51	1804.26
350.72	1732.58
350.93	1718.25
351.14	1593.32
351.35	1781.73
351.56	1665.00
351.77	1722.34
351.99	1744.87
352.20	1791.97
352.41	1751.01
352.62	1585.13
352.83	1679.33
353.04	1738.73
353.25	1732.58
353.46	1783.78
353.67	1728.49
353.88	1640.42
354.09	1759.21
354.30	1642.47
354.52	1779.68
354.73	1697.77
354.94	1665.00
355.15	1681.38
355.36	1890.28
355.57	1732.58
355.78	1710.05
355.99	1656.81
356.20	1699.81
356.41	1730.53
356.62	1724.39
356.83	1724.39
357.04	1699.81
357.25	1640.42
357.46	1691.62
357.68	1656.81
357.89	1665.00
358.10	1687.53
358.31	1597.42
358.52	1714.15
358.73	1611.75
358.94	1724.39
359.15	1679.33
359.36	1751.01
359.57	1646.57
359.78	1656.81
359.99	1791.97
360.20	1626.09
360.41	1650.66
360.62	1714.15
360.83	1740.77
361.04	1804.26
361.25	1679.33
361.46	1814.50
361.67	1802.21
361.88	1705.96
362.09	1742.82
362.30	1693.67
362.51	1677.29
362.72	1644.52
362.93	1820.64
363.14	1746.92
363.35	1697.77
363.56	1683.43
363.78	1748.97
363.99	1736.68
364.20	1681.38
364.41	1808.36
364.62	1767.40
364.83	1763.30
365.04	1701.86
365.25	1683.43
365.46	1820.64
365.67	1673.19
365.88	1615.85
366.09	1708.01
366.30	1615.85
366.51	1738.73
366.72	1576.94
366.93	1751.01
367.14	1691.62
367.35	1714.15
367.56	1654.76
367.77	1708.01
367.98	1734.63
368.18	1708.01
368.39	1685.48
368.60	1681.38
368.81	1796.07
369.02	1667.05
369.23	1699.81
369.44	1648.61
369.65	1636.33
369.86	1744.87
370.07	1734.63
370.28	1603.56
370.49	1652.71
370.70	1777.64
370.91	1617.90
371.12	1665.00
371.33	1812.45
371.54	1693.67
371.75	1808.36
371.96	1585.13
372.17	1644.52
372.38	1675.24
372.59	1748.97
372.80	1710.05
373.01	1677.29
373.22	1724.39
373.43	1771.49
373.64	1593.32
373.85	1763.30
374.06	1791.97
374.26	1736.68
374.47	1724.39
374.68	1755.11
374.89	1773.54
375.10	1701.86
375.31	1714.15
375.52	1662.95
375.73	1730.53
375.94	1617.90
376.15	1822.69
376.36	1607.66
376.57	1683.43
376.78	1771.49
376.99	1626.09
377.20	1767.40
377.40	1611.75
377.61	1851.36
377.82	1697.77
378.03	1728.49
378.24	1781.73
378.45	1691.62
378.66	1710.05
378.87	1605.61
379.08	1669.09
379.29	1644.52
379.50	1812.45
379.71	1693.67
379.91	1785.83
380.12	1697.77
380.33	1699.81
380.54	1662.95
380.75	1679.33
380.96	1665.00
381.17	1771.49
381.38	1689.57
381.59	1697.77
381.80	1691.62
382.00	1849.32
382.21	1728.49
382.42	1802.21
382.63	1863.65
382.84	1759.21
383.05	1777.64
383.26	1785.83
383.47	1746.92
383.68	1708.01
383.88	1660.90
384.09	1761.25
384.30	1738.73
384.51	1734.63
384.72	1652.71
384.93	1648.61
385.14	1755.11
385.35	1822.69
385.55	1630.18
385.76	1804.26
385.97	1718.25
386.18	1613.80
386.39	1634.28
386.60	1697.77
386.81	1740.77
387.02	1716.20
387.22	1603.56
387.43	1781.73
387.64	1777.64
387.85	1857.51
388.06	2203.61
388.27	4351.93
388.48	6772.63
388.68	8232.83
388.89	9604.97
389.10	9946.98
389.31	8550.27
389.52	7706.51
389.73	6739.87
389.93	6260.64
390.14	5803.94
390.35	5164.98
390.56	4689.85
390.77	3809.22
390.98	2977.75
391.18	2514.91
391.39	2162.66
391.60	1939.43
391.81	1888.23
392.02	1748.97
392.23	1847.27
392.43	1740.77
392.64	1826.79
392.85	1763.30
393.06	1837.03
393.27	1710.05
393.47	1722.34
393.68	1687.53
393.89	1617.90
394.10	1763.30
394.31	1650.66
394.52	1581.03
394.72	1683.43
394.93	1894.37
395.14	1628.14
395.35	1726.44
395.56	1765.35
395.76	1710.05
395.97	1785.83
396.18	1861.60
396.39	1871.84
396.60	2088.93
396.80	1875.94
397.01	1871.84
397.22	1810.40
397.43	1794.02
397.64	1693.67
397.84	1734.63
398.05	1892.32
398.26	1763.30
398.47	1812.45
398.67	1730.53
398.88	1685.48
399.09	1748.97
399.30	1677.29
399.51	1646.57
399.71	1648.61
399.92	1679.33
400.13	1701.86
400.34	1748.97
400.54	1650.66
400.75	1818.60
400.96	1687.53
401.17	1882.08
401.37	1683.43
401.58	1705.96
401.79	1656.81
402.00	1908.71
402.21	1920.99
402.41	1902.56
402.62	1982.43
402.83	2021.35
403.04	1992.67
403.24	2011.11
403.45	1779.68
403.66	2004.96
403.87	1900.52
404.07	1892.32
404.28	1908.71
404.49	1931.23
404.70	1761.25
404.90	1767.40
405.11	1722.34
405.32	1714.15
405.52	1726.44
405.73	1705.96
405.94	1699.81
406.15	1757.16
406.35	1746.92
406.56	1796.07
406.77	1671.14
406.98	1724.39
407.18	1669.09
407.39	1816.55
407.60	1671.14
407.80	1732.58
408.01	1617.90
408.22	1755.11
408.43	1665.00
408.63	1748.97
408.84	1726.44
409.05	1814.50
409.25	1589.22
409.46	1585.13
409.67	1726.44
409.88	1648.61
410.08	1761.25
410.29	1765.35
410.50	1638.38
410.70	1724.39
410.91	1564.65
411.12	1759.21
411.32	1621.99
411.53	1703.91
411.74	1773.54
411.95	1746.92
412.15	1740.77
412.36	1710.05
412.57	1751.01
412.77	1732.58
412.98	1777.64
413.19	1693.67
413.39	1787.88
413.60	1705.96
413.81	1812.45
414.01	1638.38
414.22	1777.64
414.43	1796.07
414.63	1710.05
414.84	1744.87
415.05	1730.53
415.25	1624.04
415.46	1742.82
415.67	1726.44
415.87	1783.78
416.08	1736.68
416.29	1673.19
416.49	1775.59
416.70	1632.23
416.91	1693.67
417.11	1755.11
417.32	1742.82
417.53	1742.82
417.73	1705.96
417.94	1673.19
418.15	1757.16
418.35	1615.85
418.56	1638.38
418.77	1759.21
418.97	1669.09
419.18	1685.48
419.38	1648.61
419.59	1650.66
419.80	1757.16
420.00	1665.00
420.21	1730.53
420.42	1800.16
420.62	1746.92
420.83	1589.22
421.04	1726.44
421.24	1656.81
421.45	1755.11
421.65	1683.43
421.86	1701.86
422.07	1697.77
422.27	1738.73
422.48	1652.71
422.69	1650.66
422.89	1695.72
423.10	1685.48
423.30	1603.56
423.51	1726.44
423.72	1619.94
423.92	1738.73
424.13	1652.71
424.33	1665.00
424.54	1757.16
424.75	1751.01
424.95	1810.40
425.16	1742.82
425.36	1708.01
425.57	1728.49
425.78	1730.53
425.98	1740.77
426.19	1722.34
426.39	1652.71
426.60	1685.48
426.81	1773.54
427.01	1669.09
427.22	1660.90
427.42	1638.38
427.63	1703.91
427.83	1703.91
428.04	1720.29
428.25	1826.79
428.45	1837.03
428.66	1748.97
428.86	1746.92
429.07	1705.96
429.28	1693.67
429.48	1736.68
429.69	1689.57
429.89	1697.77
430.10	1673.19
430.30	1742.82
430.51	1861.60
430.71	1601.51
430.92	1712.10
431.13	1683.43
431.33	1787.88
431.54	1796.07
431.74	1824.74
431.95	1775.59
432.15	1679.33
432.36	1679.33
432.56	1755.11
432.77	1738.73
432.98	1853.41
433.18	1767.40
433.39	1638.38
433.59	1669.09
433.80	1822.69
434.00	1859.56
434.21	1675.24
434.41	1660.90
434.62	1837.03
434.82	1693.67
435.03	1578.98
435.23	1742.82
435.44	1650.66
435.64	1716.20
435.85	1718.25
436.06	1736.68
436.26	1697.77
436.47	1724.39
436.67	1697.77
436.88	1656.81
437.08	1705.96
437.29	1746.92
437.49	1714.15
437.70	1724.39
437.90	1730.53
438.11	1777.64
438.31	1794.02
438.52	1851.36
438.72	1877.99
438.93	1773.54
439.13	1794.02
439.34	1802.21
439.54	1730.53
439.75	1791.97
439.95	1765.35
440.16	1701.86
440.36	1777.64
440.57	1791.97
440.77	1771.49
440.98	1607.66
441.18	1687.53
441.39	1671.14
441.59	1724.39
441.80	1824.74
442.00	1679.33
442.21	1781.73
442.41	1718.25
442.62	1722.34
442.82	1658.85
443.02	1748.97
443.23	1710.05
443.43	1671.14
443.64	1763.30
443.84	1640.42
444.05	1798.12
444.25	1771.49
444.46	1654.76
444.66	1796.07
444.87	1816.55
445.07	1583.08
445.28	1748.97
445.48	1828.84
445.69	1701.86
445.89	1884.13
446.09	1759.21
446.30	2027.49
446.50	2695.13
446.71	3598.28
446.91	4300.73
447.12	4820.92
447.32	4904.89
447.53	4388.80
447.73	3899.33
447.93	3508.17
448.14	3303.37
448.34	3192.78
448.55	2875.35
448.75	2840.53
448.96	2742.23
449.16	2439.13
449.36	2316.25
449.57	2093.02
449.77	1892.32
449.98	1771.49
450.18	1800.16
450.39	1849.32
450.59	1746.92
450.79	1751.01
451.00	1724.39
451.20	1800.16
451.41	1609.70
451.61	1738.73
451.81	1695.72
452.02	1716.20
452.22	1740.77
452.43	1656.81
452.63	1671.14
