SpectraSuite Data File
++++++++++++++++++++++++++++++++++++
Date: Mon Jun 06 13:35:17 CEST 2016
User: root
Dark Spectrum Present: No
Reference Spectrum Present: No
Number of Sampled Component Spectra: 1
Spectrometers: USB4C02835
Integration Time (usec): 100000 (USB4C02835)
Spectra Averaged: 1 (USB4C02835)
Boxcar Smoothing: 0 (USB4C02835)
Correct for Electrical Dark: No (USB4C02835)
Strobe/Lamp Enabled: No (USB4C02835)
Correct for Detector Non-linearity: No (USB4C02835)
Correct for Stray Light: No (USB4C02835)
Number of Pixels in Processed Spectrum: 3648
>>>>>Begin Processed Spectral Data<<<<<
177.47	1495.02
177.69	1495.02
177.91	1495.02
178.13	1482.73
178.36	1449.96
178.58	1636.33
178.80	1722.34
179.02	1660.90
179.24	1669.09
179.46	1726.44
179.68	1665.00
179.90	1523.69
180.13	1665.00
180.35	1691.62
180.57	1665.00
180.79	1697.77
181.01	1699.81
181.23	1738.73
181.45	1730.53
181.67	1742.82
181.90	1697.77
182.12	1621.99
182.34	1650.66
182.56	1662.95
182.78	1726.44
183.00	1722.34
183.22	1730.53
183.44	1665.00
183.66	1820.64
183.89	1794.02
184.11	1730.53
184.33	1800.16
184.55	1697.77
184.77	1710.05
184.99	1630.18
185.21	1677.29
185.43	1849.32
185.65	1675.24
185.87	1705.96
186.10	1808.36
186.32	1808.36
186.54	1665.00
186.76	1705.96
186.98	1734.63
187.20	1736.68
187.42	1679.33
187.64	1742.82
187.86	1699.81
188.08	1734.63
188.30	1679.33
188.52	1681.38
188.75	1806.31
188.97	1853.41
189.19	1714.15
189.41	1705.96
189.63	1716.20
189.85	1646.57
190.07	1599.46
190.29	1564.65
190.51	1744.87
190.73	1621.99
190.95	1781.73
191.17	1685.48
191.39	1564.65
191.61	1718.25
191.84	1804.26
192.06	1751.01
192.28	1656.81
192.50	1918.95
192.72	1757.16
192.94	1738.73
193.16	1742.82
193.38	1740.77
193.60	1652.71
193.82	1654.76
194.04	1753.06
194.26	1732.58
194.48	1794.02
194.70	1683.43
194.92	1675.24
195.14	1746.92
195.36	1644.52
195.58	1650.66
195.80	1654.76
196.02	1708.01
196.24	1689.57
196.46	1671.14
196.69	1638.38
196.91	1783.78
197.13	1697.77
197.35	1718.25
197.57	1710.05
197.79	1708.01
198.01	1718.25
198.23	1656.81
198.45	1761.25
198.67	1632.23
198.89	1716.20
199.11	1732.58
199.33	1667.05
199.55	1601.51
199.77	1687.53
199.99	1759.21
200.21	1601.51
200.43	1738.73
200.65	1642.47
200.87	1621.99
201.09	1644.52
201.31	1669.09
201.53	1697.77
201.75	1759.21
201.97	1648.61
202.19	1685.48
202.41	1769.44
202.63	1783.78
202.85	1697.77
203.07	1742.82
203.29	1732.58
203.51	1626.09
203.73	1669.09
203.95	1873.89
204.17	1617.90
204.39	1671.14
204.61	1650.66
204.83	1695.72
205.05	1726.44
205.27	1761.25
205.49	1851.36
205.71	1673.19
205.93	1611.75
206.15	1658.85
206.37	1695.72
206.59	1691.62
206.81	1701.86
207.03	1624.04
207.25	1658.85
207.47	1703.91
207.69	1648.61
207.91	1681.38
208.13	1744.87
208.34	1685.48
208.56	1681.38
208.78	1767.40
209.00	1621.99
209.22	1605.61
209.44	1691.62
209.66	1705.96
209.88	1724.39
210.10	1751.01
210.32	1654.76
210.54	1816.55
210.76	1728.49
210.98	1732.58
211.20	1550.31
211.42	1667.05
211.64	1867.75
211.86	1714.15
212.08	1753.06
212.30	1710.05
212.52	1697.77
212.74	1738.73
212.96	1628.14
213.17	1716.20
213.39	1767.40
213.61	1767.40
213.83	1677.29
214.05	1654.76
214.27	1777.64
214.49	1640.42
214.71	1605.61
214.93	1757.16
215.15	1720.29
215.37	1759.21
215.59	1609.70
215.81	1730.53
216.03	1726.44
216.24	1693.67
216.46	1660.90
216.68	1660.90
216.90	1732.58
217.12	1767.40
217.34	1765.35
217.56	1740.77
217.78	1771.49
218.00	1705.96
218.22	1732.58
218.44	1677.29
218.66	1761.25
218.87	1796.07
219.09	1671.14
219.31	1751.01
219.53	1603.56
219.75	1705.96
219.97	1654.76
220.19	1722.34
220.41	1640.42
220.63	1785.83
220.85	1689.57
221.06	1644.52
221.28	1757.16
221.50	1802.21
221.72	1648.61
221.94	1673.19
222.16	1712.10
222.38	1734.63
222.60	1806.31
222.82	1710.05
223.03	1742.82
223.25	1568.74
223.47	1779.68
223.69	1796.07
223.91	1783.78
224.13	1701.86
224.35	1603.56
224.57	1798.12
224.78	1771.49
225.00	1718.25
225.22	1611.75
225.44	1691.62
225.66	1716.20
225.88	1697.77
226.10	1783.78
226.32	1716.20
226.53	1822.69
226.75	1660.90
226.97	1720.29
227.19	1714.15
227.41	1640.42
227.63	1665.00
227.85	1603.56
228.06	1720.29
228.28	1718.25
228.50	1755.11
228.72	1597.42
228.94	1597.42
229.16	1642.47
229.37	1634.28
229.59	1585.13
229.81	1720.29
230.03	1687.53
230.25	1624.04
230.47	1654.76
230.69	1689.57
230.90	1783.78
231.12	1568.74
231.34	1638.38
231.56	1751.01
231.78	1638.38
232.00	1734.63
232.21	1744.87
232.43	1681.38
232.65	1646.57
232.87	1677.29
233.09	1609.70
233.30	1703.91
233.52	1751.01
233.74	1701.86
233.96	1671.14
234.18	1728.49
234.40	1640.42
234.61	1814.50
234.83	1742.82
235.05	1630.18
235.27	1814.50
235.49	1857.51
235.70	1742.82
235.92	1724.39
236.14	1722.34
236.36	1849.32
236.58	1671.14
236.79	1714.15
237.01	1658.85
237.23	1765.35
237.45	1759.21
237.67	1665.00
237.88	1744.87
238.10	1716.20
238.32	1679.33
238.54	1695.72
238.76	1681.38
238.97	1652.71
239.19	1652.71
239.41	1724.39
239.63	1845.22
239.85	1560.55
240.06	1673.19
240.28	1636.33
240.50	1746.92
240.72	1628.14
240.93	1710.05
241.15	1755.11
241.37	1636.33
241.59	1820.64
241.81	1660.90
242.02	1710.05
242.24	1679.33
242.46	1662.95
242.68	1558.50
242.89	1695.72
243.11	1755.11
243.33	1640.42
243.55	1671.14
243.76	1732.58
243.98	1753.06
244.20	1697.77
244.42	1722.34
244.64	1642.47
244.85	1638.38
245.07	1642.47
245.29	1630.18
245.51	1658.85
245.72	1673.19
245.94	1812.45
246.16	1751.01
246.38	1699.81
246.59	1671.14
246.81	1677.29
247.03	1679.33
247.24	1624.04
247.46	1693.67
247.68	1730.53
247.90	1656.81
248.11	1587.18
248.33	1773.54
248.55	1640.42
248.77	1710.05
248.98	1732.58
249.20	1736.68
249.42	1703.91
249.64	1728.49
249.85	1695.72
250.07	1681.38
250.29	1718.25
250.50	1710.05
250.72	1597.42
250.94	1701.86
251.16	1820.64
251.37	1726.44
251.59	1705.96
251.81	1740.77
252.02	1763.30
252.24	1726.44
252.46	1720.29
252.68	1652.71
252.89	1693.67
253.11	1642.47
253.33	1800.16
253.54	1740.77
253.76	1613.80
253.98	1714.15
254.20	1605.61
254.41	1615.85
254.63	1755.11
254.85	1665.00
255.06	1726.44
255.28	1658.85
255.50	1658.85
255.71	1724.39
255.93	1613.80
256.15	1683.43
256.36	1667.05
256.58	1679.33
256.80	1771.49
257.02	1656.81
257.23	1644.52
257.45	1751.01
257.67	1775.59
257.88	1617.90
258.10	1763.30
258.32	1687.53
258.53	1697.77
258.75	1787.88
258.97	1734.63
259.18	1714.15
259.40	1703.91
259.62	1847.27
259.83	1695.72
260.05	1712.10
260.27	1957.86
260.48	1701.86
260.70	1638.38
260.92	1693.67
261.13	1642.47
261.35	1722.34
261.57	1738.73
261.78	1630.18
262.00	1673.19
262.22	1755.11
262.43	1660.90
262.65	1642.47
262.86	1673.19
263.08	1798.12
263.30	1656.81
263.51	1642.47
263.73	1652.71
263.95	1785.83
264.16	1583.08
264.38	1599.46
264.60	1724.39
264.81	1724.39
265.03	1718.25
265.25	1730.53
265.46	1683.43
265.68	1705.96
265.89	1681.38
266.11	1626.09
266.33	1779.68
266.54	1738.73
266.76	1705.96
266.98	1718.25
267.19	1755.11
267.41	1771.49
267.62	1710.05
267.84	1601.51
268.06	1685.48
268.27	1679.33
268.49	1781.73
268.70	1714.15
268.92	1687.53
269.14	1630.18
269.35	1675.24
269.57	1708.01
269.79	1761.25
270.00	1734.63
270.22	1757.16
270.43	1585.13
270.65	1572.84
270.87	1691.62
271.08	1761.25
271.30	1703.91
271.51	1593.32
271.73	1708.01
271.95	1740.77
272.16	1671.14
272.38	1726.44
272.59	1669.09
272.81	1726.44
273.02	1689.57
273.24	1738.73
273.46	1738.73
273.67	1640.42
273.89	1636.33
274.10	1726.44
274.32	1755.11
274.54	1693.67
274.75	1748.97
274.97	1699.81
275.18	1701.86
275.40	1716.20
275.61	1763.30
275.83	1699.81
276.05	1712.10
276.26	1630.18
276.48	1734.63
276.69	1714.15
276.91	1726.44
277.12	1771.49
277.34	1759.21
277.55	1681.38
277.77	1751.01
277.99	1753.06
278.20	1628.14
278.42	1640.42
278.63	1654.76
278.85	1628.14
279.06	1665.00
279.28	1722.34
279.49	1742.82
279.71	1757.16
279.93	1732.58
280.14	1710.05
280.36	1607.66
280.57	1736.68
280.79	1748.97
281.00	1730.53
281.22	1673.19
281.43	1742.82
281.65	1624.04
281.86	1603.56
282.08	1724.39
282.29	1755.11
282.51	1648.61
282.73	1624.04
282.94	1609.70
283.16	1693.67
283.37	1763.30
283.59	1751.01
283.80	1671.14
284.02	1658.85
284.23	1767.40
284.45	1730.53
284.66	1746.92
284.88	1673.19
285.09	1714.15
285.31	1748.97
285.52	1722.34
285.74	1767.40
285.95	1794.02
286.17	1722.34
286.38	1734.63
286.60	1708.01
286.81	1644.52
287.03	1658.85
287.24	1705.96
287.46	1724.39
287.67	1712.10
287.89	1787.88
288.10	1699.81
288.32	1705.96
288.53	1740.77
288.75	1757.16
288.96	1703.91
289.18	1632.23
289.39	1662.95
289.61	1755.11
289.82	1824.74
290.04	1794.02
290.25	1607.66
290.47	1662.95
290.68	1658.85
290.90	1783.78
291.11	1677.29
291.33	1783.78
291.54	1669.09
291.76	1644.52
291.97	1691.62
292.18	1685.48
292.40	1656.81
292.61	1597.42
292.83	1845.22
293.04	1726.44
293.26	1726.44
293.47	1642.47
293.69	1669.09
293.90	1675.24
294.12	1722.34
294.33	1722.34
294.55	1673.19
294.76	1861.60
294.97	1728.49
295.19	1765.35
295.40	1648.61
295.62	1724.39
295.83	1818.60
296.05	1695.72
296.26	1783.78
296.48	1665.00
296.69	1732.58
296.90	1656.81
297.12	1705.96
297.33	1691.62
297.55	1757.16
297.76	1652.71
297.98	1757.16
298.19	1685.48
298.41	1689.57
298.62	1716.20
298.83	1736.68
299.05	1693.67
299.26	1617.90
299.48	1648.61
299.69	1605.61
299.90	1753.06
300.12	1630.18
300.33	1734.63
300.55	1681.38
300.76	1716.20
300.98	1615.85
301.19	1726.44
301.40	1658.85
301.62	1710.05
301.83	1765.35
302.05	1722.34
302.26	1730.53
302.47	1714.15
302.69	1681.38
302.90	1751.01
303.12	1566.70
303.33	1626.09
303.54	1877.99
303.76	1593.32
303.97	1765.35
304.19	1738.73
304.40	1648.61
304.61	1654.76
304.83	1787.88
305.04	1697.77
305.26	1699.81
305.47	1628.14
305.68	1767.40
305.90	1615.85
306.11	1751.01
306.33	1658.85
306.54	1699.81
306.75	1685.48
306.97	1681.38
307.18	1630.18
307.39	1703.91
307.61	1771.49
307.82	1746.92
308.04	1773.54
308.25	1695.72
308.46	1691.62
308.68	1621.99
308.89	1703.91
309.10	1853.41
309.32	1681.38
309.53	1714.15
309.74	1789.92
309.96	1636.33
310.17	1812.45
310.39	1624.04
310.60	1740.77
310.81	1667.05
311.03	1581.03
311.24	1736.68
311.45	1673.19
311.67	1843.17
311.88	1771.49
312.09	1701.86
312.31	1685.48
312.52	1734.63
312.73	1660.90
312.95	1560.55
313.16	1626.09
313.37	1734.63
313.59	1777.64
313.80	1693.67
314.01	1777.64
314.23	1740.77
314.44	1624.04
314.65	1617.90
314.87	1685.48
315.08	1681.38
315.29	1697.77
315.51	1742.82
315.72	1531.88
315.93	1775.59
316.15	1744.87
316.36	1669.09
316.57	1685.48
316.79	1783.78
317.00	1656.81
317.21	1767.40
317.43	1638.38
317.64	1701.86
317.85	1697.77
318.07	1591.27
318.28	1685.48
318.49	1734.63
318.70	1904.61
318.92	1783.78
319.13	1853.41
319.34	1826.79
319.56	1789.92
319.77	1824.74
319.98	1720.29
320.20	1789.92
320.41	1779.68
320.62	1740.77
320.83	1654.76
321.05	1757.16
321.26	1724.39
321.47	1693.67
321.69	1685.48
321.90	1638.38
322.11	1710.05
322.32	1671.14
322.54	1820.64
322.75	1689.57
322.96	1834.98
323.18	1578.98
323.39	1636.33
323.60	1761.25
323.81	1728.49
324.03	1740.77
324.24	1675.24
324.45	1669.09
324.66	1701.86
324.88	1798.12
325.09	1734.63
325.30	1683.43
325.52	1697.77
325.73	1808.36
325.94	1593.32
326.15	1572.84
326.37	1662.95
326.58	1783.78
326.79	1767.40
327.00	1683.43
327.22	1665.00
327.43	1636.33
327.64	1642.47
327.85	1705.96
328.07	1660.90
328.28	1757.16
328.49	1679.33
328.70	1650.66
328.92	1597.42
329.13	1740.77
329.34	1765.35
329.55	1720.29
329.76	1736.68
329.98	1601.51
330.19	1769.44
330.40	1681.38
330.61	1701.86
330.83	1730.53
331.04	1681.38
331.25	1763.30
331.46	1673.19
331.68	1613.80
331.89	1744.87
332.10	1775.59
332.31	1611.75
332.52	1650.66
332.74	1740.77
332.95	1587.18
333.16	1703.91
333.37	1769.44
333.58	1701.86
333.80	1787.88
334.01	1607.66
334.22	1669.09
334.43	1689.57
334.64	1744.87
334.86	1583.08
335.07	1644.52
335.28	1751.01
335.49	1578.98
335.70	1794.02
335.92	1771.49
336.13	1710.05
336.34	1777.64
336.55	1667.05
336.76	1751.01
336.98	1548.26
337.19	1644.52
337.40	1775.59
337.61	1859.56
337.82	1648.61
338.04	1738.73
338.25	1648.61
338.46	1662.95
338.67	1671.14
338.88	1689.57
339.09	1601.51
339.31	1669.09
339.52	1599.46
339.73	1636.33
339.94	1681.38
340.15	1791.97
340.36	1679.33
340.58	1728.49
340.79	1656.81
341.00	1728.49
341.21	1632.23
341.42	1802.21
341.63	1744.87
341.85	1718.25
342.06	1646.57
342.27	1708.01
342.48	1720.29
342.69	1675.24
342.90	1640.42
343.12	1744.87
343.33	1687.53
343.54	1800.16
343.75	1812.45
343.96	1673.19
344.17	1728.49
344.38	1662.95
344.60	1654.76
344.81	1636.33
345.02	1619.94
345.23	1712.10
345.44	1859.56
345.65	1716.20
345.86	1726.44
346.07	1761.25
346.29	1679.33
346.50	1667.05
346.71	1785.83
346.92	1753.06
347.13	1820.64
347.34	1755.11
347.55	1685.48
347.76	1744.87
347.98	1691.62
348.19	1701.86
348.40	1812.45
348.61	1675.24
348.82	1689.57
349.03	1714.15
349.24	1624.04
349.45	1812.45
349.66	1619.94
349.88	1732.58
350.09	1619.94
350.30	1726.44
350.51	1802.21
350.72	1689.57
350.93	1710.05
351.14	1648.61
351.35	1785.83
351.56	1677.29
351.77	1718.25
351.99	1703.91
352.20	1904.61
352.41	1730.53
352.62	1662.95
352.83	1751.01
353.04	1718.25
353.25	1636.33
353.46	1753.06
353.67	1734.63
353.88	1652.71
354.09	1628.14
354.30	1660.90
354.52	1697.77
354.73	1619.94
354.94	1621.99
355.15	1687.53
355.36	1798.12
355.57	1640.42
355.78	1695.72
355.99	1746.92
356.20	1542.12
356.41	1703.91
356.62	1673.19
356.83	1730.53
357.04	1755.11
357.25	1621.99
357.46	1757.16
357.68	1652.71
357.89	1615.85
358.10	1675.24
358.31	1667.05
358.52	1669.09
358.73	1628.14
358.94	1583.08
359.15	1677.29
359.36	1738.73
359.57	1646.57
359.78	1665.00
359.99	1744.87
360.20	1667.05
360.41	1685.48
360.62	1777.64
360.83	1710.05
361.04	1701.86
361.25	1681.38
361.46	1765.35
361.67	1716.20
361.88	1740.77
362.09	1779.68
362.30	1732.58
362.51	1669.09
362.72	1740.77
362.93	1767.40
363.14	1714.15
363.35	1773.54
363.56	1691.62
363.78	1654.76
363.99	1718.25
364.20	1605.61
364.41	1724.39
364.62	1834.98
364.83	1714.15
365.04	1701.86
365.25	1632.23
365.46	1820.64
365.67	1679.33
365.88	1634.28
366.09	1714.15
366.30	1613.80
366.51	1726.44
366.72	1710.05
366.93	1718.25
367.14	1615.85
367.35	1748.97
367.56	1710.05
367.77	1816.55
367.98	1617.90
368.18	1665.00
368.39	1746.92
368.60	1669.09
368.81	1751.01
369.02	1734.63
369.23	1673.19
369.44	1640.42
369.65	1587.18
369.86	1781.73
370.07	1722.34
370.28	1687.53
370.49	1681.38
370.70	1712.10
370.91	1669.09
371.12	1642.47
371.33	1765.35
371.54	1703.91
371.75	1806.31
371.96	1570.79
372.17	1673.19
372.38	1628.14
372.59	1785.83
372.80	1718.25
373.01	1624.04
373.22	1665.00
373.43	1740.77
373.64	1615.85
373.85	1781.73
374.06	1787.88
374.26	1734.63
374.47	1683.43
374.68	1845.22
374.89	1683.43
375.10	1722.34
375.31	1693.67
375.52	1726.44
375.73	1605.61
375.94	1611.75
376.15	1841.12
376.36	1712.10
376.57	1554.41
376.78	1679.33
376.99	1626.09
377.20	1791.97
377.40	1665.00
377.61	1810.40
377.82	1607.66
378.03	1796.07
378.24	1730.53
378.45	1708.01
378.66	1767.40
378.87	1646.57
379.08	1609.70
379.29	1701.86
379.50	1775.59
379.71	1658.85
379.91	1753.06
380.12	1675.24
380.33	1763.30
380.54	1660.90
380.75	1689.57
380.96	1691.62
381.17	1761.25
381.38	1646.57
381.59	1697.77
381.80	1697.77
382.00	1923.04
382.21	1738.73
382.42	1871.84
382.63	1892.32
382.84	1796.07
383.05	1837.03
383.26	1814.50
383.47	1742.82
383.68	1738.73
383.88	1724.39
384.09	1708.01
384.30	1742.82
384.51	1738.73
384.72	1632.23
384.93	1685.48
385.14	1724.39
385.35	1751.01
385.55	1699.81
385.76	1791.97
385.97	1697.77
386.18	1654.76
386.39	1681.38
386.60	1691.62
386.81	1650.66
387.02	1660.90
387.22	1681.38
387.43	1748.97
387.64	1845.22
387.85	1812.45
388.06	2234.33
388.27	4310.97
388.48	6793.11
388.68	8318.85
388.89	9731.95
389.10	9889.64
389.31	8722.30
389.52	7573.39
389.73	6672.28
389.93	6121.38
390.14	5851.05
390.35	5179.31
390.56	4710.33
390.77	3721.16
390.98	3139.54
391.18	2553.82
391.39	2207.71
391.60	1845.22
391.81	1796.07
392.02	1765.35
392.23	1877.99
392.43	1695.72
392.64	1773.54
392.85	1685.48
393.06	1796.07
393.27	1662.95
393.47	1703.91
393.68	1687.53
393.89	1699.81
394.10	1839.08
394.31	1650.66
394.52	1605.61
394.72	1636.33
394.93	1763.30
395.14	1621.99
395.35	1699.81
395.56	1660.90
395.76	1771.49
395.97	1738.73
396.18	1742.82
396.39	1845.22
396.60	2064.35
396.80	1839.08
397.01	1896.42
397.22	1779.68
397.43	1761.25
397.64	1824.74
397.84	1857.51
398.05	1894.37
398.26	1722.34
398.47	1759.21
398.67	1722.34
398.88	1669.09
399.09	1734.63
399.30	1685.48
399.51	1773.54
399.71	1673.19
399.92	1755.11
400.13	1755.11
400.34	1714.15
400.54	1703.91
400.75	1802.21
400.96	1662.95
401.17	1732.58
401.37	1777.64
401.58	1722.34
401.79	1722.34
402.00	1820.64
402.21	2041.82
402.41	1951.71
402.62	2072.54
402.83	2007.01
403.04	1978.34
403.24	2097.12
403.45	1794.02
403.66	1912.80
403.87	1869.80
404.07	1837.03
404.28	1908.71
404.49	1824.74
404.70	1736.68
404.90	1693.67
405.11	1791.97
405.32	1716.20
405.52	1671.14
405.73	1665.00
405.94	1720.29
406.15	1640.42
406.35	1755.11
406.56	1669.09
406.77	1632.23
406.98	1703.91
407.18	1724.39
407.39	1673.19
407.60	1681.38
407.80	1783.78
408.01	1652.71
408.22	1673.19
408.43	1660.90
408.63	1753.06
408.84	1761.25
409.05	1669.09
409.25	1650.66
409.46	1665.00
409.67	1640.42
409.88	1656.81
410.08	1662.95
410.29	1681.38
410.50	1763.30
410.70	1714.15
410.91	1626.09
411.12	1724.39
411.32	1693.67
411.53	1652.71
411.74	1855.46
411.95	1773.54
412.15	1699.81
412.36	1753.06
412.57	1779.68
412.77	1789.92
412.98	1763.30
413.19	1712.10
413.39	1753.06
413.60	1765.35
413.81	1791.97
414.01	1595.37
414.22	1683.43
414.43	1738.73
414.63	1712.10
414.84	1744.87
415.05	1744.87
415.25	1656.81
415.46	1763.30
415.67	1712.10
415.87	1687.53
416.08	1751.01
416.29	1677.29
416.49	1755.11
416.70	1699.81
416.91	1726.44
417.11	1722.34
417.32	1763.30
417.53	1769.44
417.73	1648.61
417.94	1619.94
418.15	1693.67
418.35	1675.24
418.56	1699.81
418.77	1806.31
418.97	1720.29
419.18	1751.01
419.38	1632.23
419.59	1609.70
419.80	1867.75
420.00	1691.62
420.21	1669.09
420.42	1812.45
420.62	1761.25
420.83	1701.86
421.04	1720.29
421.24	1742.82
421.45	1722.34
421.65	1775.59
421.86	1671.14
422.07	1787.88
422.27	1685.48
422.48	1730.53
422.69	1679.33
422.89	1665.00
423.10	1656.81
423.30	1677.29
423.51	1701.86
423.72	1710.05
423.92	1683.43
424.13	1648.61
424.33	1751.01
424.54	1689.57
424.75	1683.43
424.95	1808.36
425.16	1660.90
425.36	1689.57
425.57	1775.59
425.78	1677.29
425.98	1742.82
426.19	1681.38
426.39	1624.04
426.60	1701.86
426.81	1802.21
427.01	1699.81
427.22	1632.23
427.42	1550.31
427.63	1681.38
427.83	1673.19
428.04	1767.40
428.25	1771.49
428.45	1787.88
428.66	1769.44
428.86	1673.19
429.07	1718.25
429.28	1685.48
429.48	1658.85
429.69	1640.42
429.89	1746.92
430.10	1624.04
430.30	1738.73
430.51	1771.49
430.71	1732.58
430.92	1656.81
431.13	1650.66
431.33	1710.05
431.54	1660.90
431.74	1714.15
431.95	1863.65
432.15	1665.00
432.36	1759.21
432.56	1703.91
432.77	1810.40
432.98	1798.12
433.18	1796.07
433.39	1648.61
433.59	1718.25
433.80	1812.45
434.00	1779.68
434.21	1662.95
434.41	1724.39
434.62	1834.98
434.82	1708.01
435.03	1621.99
435.23	1710.05
435.44	1689.57
435.64	1791.97
435.85	1687.53
436.06	1755.11
436.26	1703.91
436.47	1615.85
436.67	1689.57
436.88	1699.81
437.08	1699.81
437.29	1785.83
437.49	1673.19
437.70	1791.97
437.90	1603.56
438.11	1855.46
438.31	1849.32
438.52	1796.07
438.72	1875.94
438.93	1845.22
439.13	1769.44
439.34	1814.50
439.54	1734.63
439.75	1708.01
439.95	1812.45
440.16	1660.90
440.36	1755.11
440.57	1771.49
440.77	1746.92
440.98	1746.92
441.18	1816.55
441.39	1693.67
441.59	1689.57
441.80	1837.03
442.00	1740.77
442.21	1763.30
442.41	1658.85
442.62	1755.11
442.82	1687.53
443.02	1613.80
443.23	1736.68
443.43	1775.59
443.64	1804.26
443.84	1673.19
444.05	1722.34
444.25	1808.36
444.46	1617.90
444.66	1714.15
444.87	1830.88
445.07	1611.75
445.28	1720.29
445.48	1816.55
445.69	1740.77
445.89	1882.08
446.09	1744.87
446.30	1918.95
446.50	2709.46
446.71	3786.69
446.91	4294.59
447.12	4786.10
447.32	4775.86
447.53	4327.36
447.73	3774.41
447.93	3461.07
448.14	3340.24
448.34	3178.45
448.55	2983.89
448.75	2852.82
448.96	2713.56
449.16	2455.51
449.36	2285.53
449.57	2041.82
449.77	1814.50
449.98	1828.84
450.18	1785.83
450.39	1804.26
450.59	1806.31
450.79	1718.25
451.00	1689.57
451.20	1826.79
451.41	1681.38
451.61	1748.97
451.81	1665.00
452.02	1779.68
452.22	1746.92
452.43	1736.68
452.63	1765.35
