SpectraSuite Data File
++++++++++++++++++++++++++++++++++++
Date: Mon Jun 06 12:16:57 CEST 2016
User: root
Dark Spectrum Present: No
Reference Spectrum Present: No
Number of Sampled Component Spectra: 1
Spectrometers: USB4C02835
Integration Time (usec): 100000 (USB4C02835)
Spectra Averaged: 1 (USB4C02835)
Boxcar Smoothing: 0 (USB4C02835)
Correct for Electrical Dark: No (USB4C02835)
Strobe/Lamp Enabled: No (USB4C02835)
Correct for Detector Non-linearity: No (USB4C02835)
Correct for Stray Light: No (USB4C02835)
Number of Pixels in Processed Spectrum: 3648
>>>>>Begin Processed Spectral Data<<<<<
177.47	1497.07
177.69	1497.07
177.91	1497.07
178.13	1497.07
178.36	1509.35
178.58	1640.42
178.80	1724.39
179.02	1630.18
179.24	1591.27
179.46	1728.49
179.68	1718.25
179.90	1601.51
180.13	1677.29
180.35	1640.42
180.57	1632.23
180.79	1775.59
181.01	1689.57
181.23	1767.40
181.45	1771.49
181.67	1671.14
181.90	1720.29
182.12	1660.90
182.34	1712.10
182.56	1710.05
182.78	1687.53
183.00	1638.38
183.22	1705.96
183.44	1566.70
183.66	1820.64
183.89	1699.81
184.11	1710.05
184.33	1691.62
184.55	1722.34
184.77	1687.53
184.99	1773.54
185.21	1638.38
185.43	1843.17
185.65	1665.00
185.87	1759.21
186.10	1839.08
186.32	1867.75
186.54	1703.91
186.76	1681.38
186.98	1734.63
187.20	1638.38
187.42	1638.38
187.64	1662.95
187.86	1685.48
188.08	1783.78
188.30	1722.34
188.52	1689.57
188.75	1724.39
188.97	1779.68
189.19	1701.86
189.41	1634.28
189.63	1656.81
189.85	1591.27
190.07	1648.61
190.29	1671.14
190.51	1712.10
190.73	1621.99
190.95	1783.78
191.17	1665.00
191.39	1603.56
191.61	1570.79
191.84	1634.28
192.06	1607.66
192.28	1544.17
192.50	1767.40
192.72	1738.73
192.94	1714.15
193.16	1761.25
193.38	1746.92
193.60	1619.94
193.82	1677.29
194.04	1718.25
194.26	1683.43
194.48	1757.16
194.70	1619.94
194.92	1658.85
195.14	1734.63
195.36	1615.85
195.58	1751.01
195.80	1652.71
196.02	1652.71
196.24	1681.38
196.46	1716.20
196.69	1634.28
196.91	1925.09
197.13	1716.20
197.35	1728.49
197.57	1740.77
197.79	1804.26
198.01	1697.77
198.23	1796.07
198.45	1669.09
198.67	1660.90
198.89	1662.95
199.11	1708.01
199.33	1615.85
199.55	1583.08
199.77	1710.05
199.99	1650.66
200.21	1710.05
200.43	1771.49
200.65	1617.90
200.87	1535.98
201.09	1685.48
201.31	1609.70
201.53	1695.72
201.75	1644.52
201.97	1705.96
202.19	1658.85
202.41	1736.68
202.63	1808.36
202.85	1710.05
203.07	1757.16
203.29	1669.09
203.51	1640.42
203.73	1642.47
203.95	1882.08
204.17	1705.96
204.39	1695.72
204.61	1642.47
204.83	1722.34
205.05	1748.97
205.27	1724.39
205.49	1779.68
205.71	1681.38
205.93	1615.85
206.15	1644.52
206.37	1648.61
206.59	1718.25
206.81	1603.56
207.03	1585.13
207.25	1605.61
207.47	1732.58
207.69	1660.90
207.91	1728.49
208.13	1773.54
208.34	1693.67
208.56	1613.80
208.78	1714.15
209.00	1677.29
209.22	1624.04
209.44	1677.29
209.66	1726.44
209.88	1634.28
210.10	1632.23
210.32	1683.43
210.54	1738.73
210.76	1669.09
210.98	1746.92
211.20	1554.41
211.42	1673.19
211.64	1695.72
211.86	1675.24
212.08	1716.20
212.30	1677.29
212.52	1724.39
212.74	1613.80
212.96	1775.59
213.17	1785.83
213.39	1697.77
213.61	1755.11
213.83	1744.87
214.05	1691.62
214.27	1744.87
214.49	1673.19
214.71	1689.57
214.93	1738.73
215.15	1630.18
215.37	1691.62
215.59	1642.47
215.81	1746.92
216.03	1798.12
216.24	1689.57
216.46	1722.34
216.68	1624.04
216.90	1699.81
217.12	1720.29
217.34	1808.36
217.56	1658.85
217.78	1781.73
218.00	1685.48
218.22	1714.15
218.44	1697.77
218.66	1644.52
218.87	1734.63
219.09	1648.61
219.31	1673.19
219.53	1648.61
219.75	1615.85
219.97	1599.46
220.19	1755.11
220.41	1746.92
220.63	1816.55
220.85	1718.25
221.06	1636.33
221.28	1761.25
221.50	1695.72
221.72	1757.16
221.94	1673.19
222.16	1675.24
222.38	1699.81
222.60	1734.63
222.82	1636.33
223.03	1728.49
223.25	1583.08
223.47	1789.92
223.69	1726.44
223.91	1740.77
224.13	1767.40
224.35	1656.81
224.57	1710.05
224.78	1714.15
225.00	1560.55
225.22	1730.53
225.44	1761.25
225.66	1652.71
225.88	1681.38
226.10	1646.57
226.32	1716.20
226.53	1892.32
226.75	1624.04
226.97	1691.62
227.19	1722.34
227.41	1669.09
227.63	1652.71
227.85	1574.89
228.06	1689.57
228.28	1699.81
228.50	1720.29
228.72	1703.91
228.94	1599.46
229.16	1550.31
229.37	1617.90
229.59	1722.34
229.81	1701.86
230.03	1691.62
230.25	1636.33
230.47	1621.99
230.69	1587.18
230.90	1730.53
231.12	1656.81
231.34	1677.29
231.56	1728.49
231.78	1701.86
232.00	1689.57
232.21	1658.85
232.43	1669.09
232.65	1531.88
232.87	1771.49
233.09	1695.72
233.30	1656.81
233.52	1761.25
233.74	1660.90
233.96	1677.29
234.18	1611.75
234.40	1748.97
234.61	1849.32
234.83	1630.18
235.05	1626.09
235.27	1822.69
235.49	1814.50
235.70	1662.95
235.92	1791.97
236.14	1689.57
236.36	1845.22
236.58	1667.05
236.79	1675.24
237.01	1671.14
237.23	1718.25
237.45	1736.68
237.67	1662.95
237.88	1744.87
238.10	1757.16
238.32	1603.56
238.54	1687.53
238.76	1652.71
238.97	1656.81
239.19	1591.27
239.41	1755.11
239.63	1703.91
239.85	1671.14
240.06	1712.10
240.28	1708.01
240.50	1701.86
240.72	1714.15
240.93	1648.61
241.15	1718.25
241.37	1640.42
241.59	1714.15
241.81	1669.09
242.02	1650.66
242.24	1730.53
242.46	1712.10
242.68	1570.79
242.89	1742.82
243.11	1783.78
243.33	1648.61
243.55	1624.04
243.76	1722.34
243.98	1644.52
244.20	1710.05
244.42	1642.47
244.64	1685.48
244.85	1595.37
245.07	1665.00
245.29	1697.77
245.51	1656.81
245.72	1628.14
245.94	1732.58
246.16	1638.38
246.38	1722.34
246.59	1615.85
246.81	1691.62
247.03	1697.77
247.24	1603.56
247.46	1628.14
247.68	1720.29
247.90	1708.01
248.11	1685.48
248.33	1755.11
248.55	1683.43
248.77	1693.67
248.98	1710.05
249.20	1818.60
249.42	1705.96
249.64	1767.40
249.85	1601.51
250.07	1646.57
250.29	1771.49
250.50	1812.45
250.72	1572.84
250.94	1595.37
251.16	1822.69
251.37	1802.21
251.59	1724.39
251.81	1611.75
252.02	1742.82
252.24	1667.05
252.46	1732.58
252.68	1626.09
252.89	1646.57
253.11	1656.81
253.33	1755.11
253.54	1802.21
253.76	1648.61
253.98	1679.33
254.20	1712.10
254.41	1650.66
254.63	1675.24
254.85	1671.14
255.06	1742.82
255.28	1800.16
255.50	1761.25
255.71	1581.03
255.93	1611.75
256.15	1693.67
256.36	1675.24
256.58	1662.95
256.80	1722.34
257.02	1679.33
257.23	1775.59
257.45	1693.67
257.67	1708.01
257.88	1677.29
258.10	1714.15
258.32	1656.81
258.53	1728.49
258.75	1777.64
258.97	1607.66
259.18	1677.29
259.40	1740.77
259.62	1724.39
259.83	1828.84
260.05	1734.63
260.27	1984.48
260.48	1665.00
260.70	1632.23
260.92	1652.71
261.13	1679.33
261.35	1705.96
261.57	1660.90
261.78	1677.29
262.00	1632.23
262.22	1712.10
262.43	1619.94
262.65	1679.33
262.86	1632.23
263.08	1855.46
263.30	1685.48
263.51	1583.08
263.73	1677.29
263.95	1683.43
264.16	1669.09
264.38	1626.09
264.60	1710.05
264.81	1652.71
265.03	1730.53
265.25	1734.63
265.46	1736.68
265.68	1783.78
265.89	1710.05
266.11	1595.37
266.33	1814.50
266.54	1798.12
266.76	1691.62
266.98	1673.19
267.19	1689.57
267.41	1705.96
267.62	1640.42
267.84	1671.14
268.06	1705.96
268.27	1710.05
268.49	1767.40
268.70	1755.11
268.92	1675.24
269.14	1638.38
269.35	1642.47
269.57	1648.61
269.79	1665.00
270.00	1615.85
270.22	1816.55
270.43	1662.95
270.65	1544.17
270.87	1652.71
271.08	1773.54
271.30	1742.82
271.51	1660.90
271.73	1734.63
271.95	1767.40
272.16	1722.34
272.38	1769.44
272.59	1609.70
272.81	1660.90
273.02	1726.44
273.24	1726.44
273.46	1755.11
273.67	1630.18
273.89	1740.77
274.10	1642.47
274.32	1738.73
274.54	1695.72
274.75	1710.05
274.97	1734.63
275.18	1751.01
275.40	1728.49
275.61	1699.81
275.83	1722.34
276.05	1617.90
276.26	1755.11
276.48	1718.25
276.69	1595.37
276.91	1607.66
277.12	1861.60
277.34	1781.73
277.55	1703.91
277.77	1714.15
277.99	1617.90
278.20	1691.62
278.42	1654.76
278.63	1583.08
278.85	1683.43
279.06	1669.09
279.28	1748.97
279.49	1687.53
279.71	1753.06
279.93	1673.19
280.14	1636.33
280.36	1660.90
280.57	1775.59
280.79	1705.96
281.00	1593.32
281.22	1585.13
281.43	1738.73
281.65	1578.98
281.86	1685.48
282.08	1744.87
282.29	1744.87
282.51	1581.03
282.73	1611.75
282.94	1619.94
283.16	1650.66
283.37	1742.82
283.59	1648.61
283.80	1736.68
284.02	1673.19
284.23	1689.57
284.45	1685.48
284.66	1648.61
284.88	1658.85
285.09	1687.53
285.31	1705.96
285.52	1654.76
285.74	1583.08
285.95	1738.73
286.17	1636.33
286.38	1748.97
286.60	1658.85
286.81	1695.72
287.03	1671.14
287.24	1609.70
287.46	1763.30
287.67	1791.97
287.89	1808.36
288.10	1695.72
288.32	1687.53
288.53	1728.49
288.75	1677.29
288.96	1730.53
289.18	1742.82
289.39	1718.25
289.61	1718.25
289.82	1771.49
290.04	1753.06
290.25	1691.62
290.47	1751.01
290.68	1724.39
290.90	1746.92
291.11	1601.51
291.33	1781.73
291.54	1652.71
291.76	1632.23
291.97	1761.25
292.18	1755.11
292.40	1624.04
292.61	1607.66
292.83	1837.03
293.04	1732.58
293.26	1658.85
293.47	1660.90
293.69	1611.75
293.90	1693.67
294.12	1751.01
294.33	1656.81
294.55	1710.05
294.76	1761.25
294.97	1714.15
295.19	1744.87
295.40	1628.14
295.62	1695.72
295.83	1781.73
296.05	1689.57
296.26	1703.91
296.48	1634.28
296.69	1601.51
296.90	1638.38
297.12	1689.57
297.33	1773.54
297.55	1691.62
297.76	1722.34
297.98	1798.12
298.19	1748.97
298.41	1628.14
298.62	1660.90
298.83	1748.97
299.05	1744.87
299.26	1611.75
299.48	1695.72
299.69	1722.34
299.90	1689.57
300.12	1605.61
300.33	1732.58
300.55	1681.38
300.76	1685.48
300.98	1621.99
301.19	1652.71
301.40	1679.33
301.62	1734.63
301.83	1683.43
302.05	1705.96
302.26	1626.09
302.47	1675.24
302.69	1607.66
302.90	1677.29
303.12	1546.22
303.33	1720.29
303.54	1841.12
303.76	1705.96
303.97	1734.63
304.19	1796.07
304.40	1624.04
304.61	1718.25
304.83	1759.21
305.04	1732.58
305.26	1681.38
305.47	1669.09
305.68	1697.77
305.90	1693.67
306.11	1689.57
306.33	1689.57
306.54	1607.66
306.75	1650.66
306.97	1587.18
307.18	1626.09
307.39	1626.09
307.61	1669.09
307.82	1695.72
308.04	1669.09
308.25	1673.19
308.46	1755.11
308.68	1722.34
308.89	1708.01
309.10	1726.44
309.32	1603.56
309.53	1718.25
309.74	1753.06
309.96	1667.05
310.17	1746.92
310.39	1564.65
310.60	1748.97
310.81	1775.59
311.03	1601.51
311.24	1720.29
311.45	1656.81
311.67	1746.92
311.88	1689.57
312.09	1697.77
312.31	1681.38
312.52	1738.73
312.73	1636.33
312.95	1640.42
313.16	1699.81
313.37	1675.24
313.59	1705.96
313.80	1695.72
314.01	1808.36
314.23	1685.48
314.44	1521.64
314.65	1611.75
314.87	1640.42
315.08	1677.29
315.29	1611.75
315.51	1662.95
315.72	1568.74
315.93	1753.06
316.15	1675.24
316.36	1660.90
316.57	1628.14
316.79	1632.23
317.00	1671.14
317.21	1757.16
317.43	1611.75
317.64	1748.97
317.85	1695.72
318.07	1677.29
318.28	1675.24
318.49	1773.54
318.70	1904.61
318.92	1812.45
319.13	1798.12
319.34	1888.23
319.56	1800.16
319.77	1822.69
319.98	1769.44
320.20	1734.63
320.41	1705.96
320.62	1732.58
320.83	1572.84
321.05	1804.26
321.26	1683.43
321.47	1720.29
321.69	1718.25
321.90	1591.27
322.11	1705.96
322.32	1716.20
322.54	1722.34
322.75	1699.81
322.96	1822.69
323.18	1587.18
323.39	1640.42
323.60	1607.66
323.81	1761.25
324.03	1716.20
324.24	1632.23
324.45	1667.05
324.66	1675.24
324.88	1656.81
325.09	1671.14
325.30	1753.06
325.52	1736.68
325.73	1685.48
325.94	1619.94
326.15	1632.23
326.37	1652.71
326.58	1722.34
326.79	1748.97
327.00	1712.10
327.22	1642.47
327.43	1697.77
327.64	1665.00
327.85	1763.30
328.07	1658.85
328.28	1804.26
328.49	1665.00
328.70	1675.24
328.92	1726.44
329.13	1769.44
329.34	1669.09
329.55	1804.26
329.76	1697.77
329.98	1619.94
330.19	1873.89
330.40	1714.15
330.61	1648.61
330.83	1720.29
331.04	1722.34
331.25	1693.67
331.46	1648.61
331.68	1617.90
331.89	1722.34
332.10	1724.39
332.31	1619.94
332.52	1689.57
332.74	1755.11
332.95	1593.32
333.16	1732.58
333.37	1818.60
333.58	1695.72
333.80	1685.48
334.01	1566.70
334.22	1710.05
334.43	1675.24
334.64	1671.14
334.86	1658.85
335.07	1591.27
335.28	1746.92
335.49	1613.80
335.70	1642.47
335.92	1679.33
336.13	1834.98
336.34	1710.05
336.55	1734.63
336.76	1669.09
336.98	1634.28
337.19	1636.33
337.40	1808.36
337.61	1789.92
337.82	1673.19
338.04	1863.65
338.25	1650.66
338.46	1716.20
338.67	1691.62
338.88	1638.38
339.09	1665.00
339.31	1732.58
339.52	1640.42
339.73	1636.33
339.94	1656.81
340.15	1701.86
340.36	1591.27
340.58	1724.39
340.79	1583.08
341.00	1669.09
341.21	1628.14
341.42	1751.01
341.63	1656.81
341.85	1744.87
342.06	1671.14
342.27	1632.23
342.48	1677.29
342.69	1613.80
342.90	1699.81
343.12	1771.49
343.33	1685.48
343.54	1685.48
343.75	1781.73
343.96	1685.48
344.17	1744.87
344.38	1705.96
344.60	1665.00
344.81	1718.25
345.02	1626.09
345.23	1773.54
345.44	1824.74
345.65	1724.39
345.86	1787.88
346.07	1658.85
346.29	1669.09
346.50	1759.21
346.71	1728.49
346.92	1736.68
347.13	1779.68
347.34	1607.66
347.55	1703.91
347.76	1787.88
347.98	1613.80
348.19	1726.44
348.40	1757.16
348.61	1679.33
348.82	1767.40
349.03	1712.10
349.24	1675.24
349.45	1851.36
349.66	1558.50
349.88	1640.42
350.09	1722.34
350.30	1767.40
350.51	1779.68
350.72	1685.48
350.93	1757.16
351.14	1720.29
351.35	1718.25
351.56	1701.86
351.77	1751.01
351.99	1767.40
352.20	1771.49
352.41	1765.35
352.62	1591.27
352.83	1714.15
353.04	1693.67
353.25	1732.58
353.46	1794.02
353.67	1742.82
353.88	1533.93
354.09	1626.09
354.30	1675.24
354.52	1724.39
354.73	1683.43
354.94	1605.61
355.15	1728.49
355.36	1728.49
355.57	1722.34
355.78	1746.92
355.99	1613.80
356.20	1763.30
356.41	1800.16
356.62	1708.01
356.83	1746.92
357.04	1769.44
357.25	1566.70
357.46	1705.96
357.68	1648.61
357.89	1681.38
358.10	1763.30
358.31	1662.95
358.52	1693.67
358.73	1583.08
358.94	1685.48
359.15	1652.71
359.36	1675.24
359.57	1683.43
359.78	1665.00
359.99	1669.09
360.20	1650.66
360.41	1638.38
360.62	1699.81
360.83	1640.42
361.04	1722.34
361.25	1671.14
361.46	1771.49
361.67	1767.40
361.88	1726.44
362.09	1771.49
362.30	1685.48
362.51	1662.95
362.72	1648.61
362.93	1710.05
363.14	1734.63
363.35	1714.15
363.56	1611.75
363.78	1837.03
363.99	1714.15
364.20	1673.19
364.41	1728.49
364.62	1843.17
364.83	1718.25
365.04	1677.29
365.25	1687.53
365.46	1742.82
365.67	1736.68
365.88	1601.51
366.09	1677.29
366.30	1636.33
366.51	1724.39
366.72	1691.62
366.93	1681.38
367.14	1681.38
367.35	1820.64
367.56	1578.98
367.77	1744.87
367.98	1648.61
368.18	1718.25
368.39	1718.25
368.60	1722.34
368.81	1710.05
369.02	1652.71
369.23	1728.49
369.44	1576.94
369.65	1683.43
369.86	1671.14
370.07	1722.34
370.28	1693.67
370.49	1748.97
370.70	1742.82
370.91	1621.99
371.12	1591.27
371.33	1802.21
371.54	1673.19
371.75	1775.59
371.96	1624.04
372.17	1710.05
372.38	1720.29
372.59	1679.33
372.80	1646.57
373.01	1673.19
373.22	1746.92
373.43	1699.81
373.64	1615.85
373.85	1787.88
374.06	1771.49
374.26	1753.06
374.47	1724.39
374.68	1748.97
374.89	1763.30
375.10	1654.76
375.31	1683.43
375.52	1718.25
375.73	1626.09
375.94	1671.14
376.15	1705.96
376.36	1695.72
376.57	1630.18
376.78	1726.44
376.99	1710.05
377.20	1769.44
377.40	1656.81
377.61	1820.64
377.82	1570.79
378.03	1736.68
378.24	1703.91
378.45	1654.76
378.66	1677.29
378.87	1613.80
379.08	1642.47
379.29	1675.24
379.50	1779.68
379.71	1691.62
379.91	1708.01
380.12	1681.38
380.33	1675.24
380.54	1714.15
380.75	1722.34
380.96	1665.00
381.17	1681.38
381.38	1703.91
381.59	1638.38
381.80	1691.62
382.00	1861.60
382.21	1667.05
382.42	1927.14
382.63	1785.83
382.84	1759.21
383.05	1759.21
383.26	1843.17
383.47	1710.05
383.68	1845.22
383.88	1806.31
384.09	1736.68
384.30	1820.64
384.51	1615.85
384.72	1671.14
384.93	1574.89
385.14	1726.44
385.35	1763.30
385.55	1634.28
385.76	1714.15
385.97	1652.71
386.18	1640.42
386.39	1605.61
386.60	1667.05
386.81	1673.19
387.02	1679.33
387.22	1667.05
387.43	1767.40
387.64	1824.74
387.85	1869.80
388.06	2189.28
388.27	4407.23
388.48	6858.65
388.68	8333.18
388.89	9815.91
389.10	9961.32
389.31	8656.76
389.52	7792.52
389.73	6922.13
389.93	6360.99
390.14	5828.52
390.35	5193.65
390.56	4677.56
390.77	3993.54
390.98	3074.00
391.18	2453.47
391.39	2109.41
391.60	1818.60
391.81	1826.79
392.02	1746.92
392.23	1794.02
392.43	1757.16
392.64	1804.26
392.85	1675.24
393.06	1785.83
393.27	1736.68
393.47	1681.38
393.68	1673.19
393.89	1722.34
394.10	1714.15
394.31	1720.29
394.52	1648.61
394.72	1628.14
394.93	1736.68
395.14	1591.27
395.35	1722.34
395.56	1613.80
395.76	1669.09
395.97	1683.43
396.18	1779.68
396.39	1869.80
396.60	1968.10
396.80	1947.62
397.01	1814.50
397.22	1757.16
397.43	1794.02
397.64	1693.67
397.84	1798.12
398.05	1843.17
398.26	1693.67
398.47	1814.50
398.67	1787.88
398.88	1757.16
399.09	1757.16
399.30	1730.53
399.51	1757.16
399.71	1703.91
399.92	1759.21
400.13	1685.48
400.34	1665.00
400.54	1675.24
400.75	1839.08
400.96	1683.43
401.17	1769.44
401.37	1757.16
401.58	1667.05
401.79	1679.33
402.00	1877.99
402.21	2009.06
402.41	1925.09
402.62	2027.49
402.83	2050.02
403.04	1943.52
403.24	1998.82
403.45	1798.12
403.66	1877.99
403.87	1779.68
404.07	1949.67
404.28	1908.71
404.49	1855.46
404.70	1783.78
404.90	1736.68
405.11	1834.98
405.32	1708.01
405.52	1697.77
405.73	1615.85
405.94	1638.38
406.15	1617.90
406.35	1718.25
406.56	1673.19
406.77	1759.21
406.98	1736.68
407.18	1646.57
407.39	1765.35
407.60	1685.48
407.80	1708.01
408.01	1667.05
408.22	1748.97
408.43	1626.09
408.63	1689.57
408.84	1789.92
409.05	1734.63
409.25	1681.38
409.46	1642.47
409.67	1624.04
409.88	1687.53
410.08	1722.34
410.29	1695.72
410.50	1748.97
410.70	1611.75
410.91	1601.51
411.12	1726.44
411.32	1742.82
411.53	1685.48
411.74	1777.64
411.95	1789.92
412.15	1705.96
412.36	1802.21
412.57	1738.73
412.77	1740.77
412.98	1669.09
413.19	1730.53
413.39	1621.99
413.60	1820.64
413.81	1783.78
414.01	1619.94
414.22	1744.87
414.43	1767.40
414.63	1636.33
414.84	1785.83
415.05	1722.34
415.25	1644.52
415.46	1662.95
415.67	1658.85
415.87	1685.48
416.08	1671.14
416.29	1687.53
416.49	1748.97
416.70	1638.38
416.91	1675.24
417.11	1652.71
417.32	1806.31
417.53	1769.44
417.73	1712.10
417.94	1705.96
418.15	1787.88
418.35	1693.67
418.56	1677.29
418.77	1824.74
418.97	1710.05
419.18	1628.14
419.38	1556.46
419.59	1695.72
419.80	1759.21
420.00	1681.38
420.21	1654.76
420.42	1726.44
420.62	1671.14
420.83	1603.56
421.04	1757.16
421.24	1701.86
421.45	1726.44
421.65	1699.81
421.86	1689.57
422.07	1712.10
422.27	1669.09
422.48	1734.63
422.69	1675.24
422.89	1693.67
423.10	1632.23
423.30	1578.98
423.51	1753.06
423.72	1734.63
423.92	1710.05
424.13	1673.19
424.33	1751.01
424.54	1728.49
424.75	1689.57
424.95	1781.73
425.16	1716.20
425.36	1673.19
425.57	1773.54
425.78	1728.49
425.98	1667.05
426.19	1703.91
426.39	1667.05
426.60	1708.01
426.81	1699.81
427.01	1765.35
427.22	1617.90
427.42	1628.14
427.63	1689.57
427.83	1742.82
428.04	1791.97
428.25	1714.15
428.45	1763.30
428.66	1773.54
428.86	1710.05
429.07	1697.77
429.28	1689.57
429.48	1660.90
429.69	1691.62
429.89	1734.63
430.10	1611.75
430.30	1710.05
430.51	1744.87
430.71	1701.86
430.92	1687.53
431.13	1660.90
431.33	1771.49
431.54	1644.52
431.74	1824.74
431.95	1853.41
432.15	1665.00
432.36	1705.96
432.56	1783.78
432.77	1832.93
432.98	1839.08
433.18	1791.97
433.39	1660.90
433.59	1671.14
433.80	1771.49
434.00	1794.02
434.21	1654.76
434.41	1667.05
434.62	1834.98
434.82	1576.94
435.03	1689.57
435.23	1714.15
435.44	1673.19
435.64	1812.45
435.85	1716.20
436.06	1767.40
436.26	1693.67
436.47	1722.34
436.67	1667.05
436.88	1662.95
437.08	1673.19
437.29	1818.60
437.49	1732.58
437.70	1687.53
437.90	1701.86
438.11	1863.65
438.31	1757.16
438.52	1849.32
438.72	1832.93
438.93	1875.94
439.13	1775.59
439.34	1802.21
439.54	1712.10
439.75	1796.07
439.95	1773.54
440.16	1697.77
440.36	1708.01
440.57	1818.60
440.77	1779.68
440.98	1751.01
441.18	1814.50
441.39	1705.96
441.59	1642.47
441.80	1742.82
442.00	1712.10
442.21	1730.53
442.41	1652.71
442.62	1755.11
442.82	1642.47
443.02	1630.18
443.23	1691.62
443.43	1683.43
443.64	1861.60
443.84	1634.28
444.05	1824.74
444.25	1753.06
444.46	1665.00
444.66	1751.01
444.87	1783.78
445.07	1667.05
445.28	1724.39
445.48	1814.50
445.69	1722.34
445.89	1902.56
446.09	1701.86
446.30	2002.91
446.50	2680.79
446.71	3755.97
446.91	4257.73
447.12	4868.02
447.32	4769.72
447.53	4446.14
447.73	3870.66
447.93	3573.71
448.14	3356.62
448.34	3307.47
448.55	2891.73
448.75	2762.71
448.96	2611.16
449.16	2449.37
449.36	2195.42
449.57	2027.49
449.77	1910.75
449.98	1730.53
450.18	1818.60
450.39	1740.77
450.59	1695.72
450.79	1714.15
451.00	1665.00
451.20	1785.83
451.41	1673.19
451.61	1769.44
451.81	1691.62
452.02	1687.53
452.22	1732.58
452.43	1701.86
452.63	1689.57
