SpectraSuite Data File
++++++++++++++++++++++++++++++++++++
Date: Mon Jun 06 13:45:37 CEST 2016
User: root
Dark Spectrum Present: No
Reference Spectrum Present: No
Number of Sampled Component Spectra: 1
Spectrometers: USB4C02835
Integration Time (usec): 100000 (USB4C02835)
Spectra Averaged: 1 (USB4C02835)
Boxcar Smoothing: 0 (USB4C02835)
Correct for Electrical Dark: No (USB4C02835)
Strobe/Lamp Enabled: No (USB4C02835)
Correct for Detector Non-linearity: No (USB4C02835)
Correct for Stray Light: No (USB4C02835)
Number of Pixels in Processed Spectrum: 3648
>>>>>Begin Processed Spectral Data<<<<<
177.47	1511.40
177.69	1511.40
177.91	1511.40
178.13	1495.02
178.36	1452.01
178.58	1691.62
178.80	1660.90
179.02	1601.51
179.24	1679.33
179.46	1640.42
179.68	1771.49
179.90	1636.33
180.13	1697.77
180.35	1658.85
180.57	1673.19
180.79	1761.25
181.01	1746.92
181.23	1597.42
181.45	1789.92
181.67	1771.49
181.90	1853.41
182.12	1630.18
182.34	1656.81
182.56	1726.44
182.78	1675.24
183.00	1665.00
183.22	1712.10
183.44	1576.94
183.66	1871.84
183.89	1798.12
184.11	1669.09
184.33	1699.81
184.55	1826.79
184.77	1802.21
184.99	1681.38
185.21	1714.15
185.43	1877.99
185.65	1636.33
185.87	1734.63
186.10	1775.59
186.32	1804.26
186.54	1724.39
186.76	1755.11
186.98	1724.39
187.20	1736.68
187.42	1708.01
187.64	1671.14
187.86	1697.77
188.08	1712.10
188.30	1716.20
188.52	1724.39
188.75	1779.68
188.97	1738.73
189.19	1595.37
189.41	1665.00
189.63	1703.91
189.85	1669.09
190.07	1685.48
190.29	1640.42
190.51	1775.59
190.73	1607.66
190.95	1730.53
191.17	1646.57
191.39	1671.14
191.61	1677.29
191.84	1626.09
192.06	1722.34
192.28	1603.56
192.50	1802.21
192.72	1746.92
192.94	1685.48
193.16	1656.81
193.38	1718.25
193.60	1665.00
193.82	1720.29
194.04	1738.73
194.26	1714.15
194.48	1673.19
194.70	1658.85
194.92	1671.14
195.14	1693.67
195.36	1726.44
195.58	1779.68
195.80	1648.61
196.02	1626.09
196.24	1595.37
196.46	1683.43
196.69	1603.56
196.91	1787.88
197.13	1687.53
197.35	1697.77
197.57	1800.16
197.79	1724.39
198.01	1626.09
198.23	1701.86
198.45	1701.86
198.67	1640.42
198.89	1693.67
199.11	1767.40
199.33	1630.18
199.55	1562.60
199.77	1581.03
199.99	1722.34
200.21	1671.14
200.43	1652.71
200.65	1605.61
200.87	1599.46
201.09	1705.96
201.31	1615.85
201.53	1777.64
201.75	1708.01
201.97	1769.44
202.19	1748.97
202.41	1712.10
202.63	1832.93
202.85	1769.44
203.07	1740.77
203.29	1765.35
203.51	1605.61
203.73	1626.09
203.95	1837.03
204.17	1722.34
204.39	1714.15
204.61	1708.01
204.83	1685.48
205.05	1742.82
205.27	1699.81
205.49	1839.08
205.71	1683.43
205.93	1669.09
206.15	1538.02
206.37	1679.33
206.59	1710.05
206.81	1683.43
207.03	1595.37
207.25	1632.23
207.47	1724.39
207.69	1689.57
207.91	1808.36
208.13	1820.64
208.34	1714.15
208.56	1687.53
208.78	1757.16
209.00	1638.38
209.22	1615.85
209.44	1675.24
209.66	1679.33
209.88	1689.57
210.10	1665.00
210.32	1660.90
210.54	1800.16
210.76	1613.80
210.98	1763.30
211.20	1570.79
211.42	1660.90
211.64	1822.69
211.86	1652.71
212.08	1691.62
212.30	1638.38
212.52	1781.73
212.74	1714.15
212.96	1751.01
213.17	1755.11
213.39	1755.11
213.61	1781.73
213.83	1648.61
214.05	1589.22
214.27	1755.11
214.49	1634.28
214.71	1683.43
214.93	1806.31
215.15	1726.44
215.37	1765.35
215.59	1599.46
215.81	1738.73
216.03	1765.35
216.24	1611.75
216.46	1665.00
216.68	1732.58
216.90	1789.92
217.12	1775.59
217.34	1685.48
217.56	1720.29
217.78	1804.26
218.00	1736.68
218.22	1677.29
218.44	1697.77
218.66	1710.05
218.87	1816.55
219.09	1628.14
219.31	1730.53
219.53	1726.44
219.75	1751.01
219.97	1701.86
220.19	1724.39
220.41	1675.24
220.63	1804.26
220.85	1753.06
221.06	1652.71
221.28	1748.97
221.50	1744.87
221.72	1740.77
221.94	1718.25
222.16	1726.44
222.38	1734.63
222.60	1683.43
222.82	1683.43
223.03	1726.44
223.25	1607.66
223.47	1712.10
223.69	1865.70
223.91	1683.43
224.13	1669.09
224.35	1699.81
224.57	1771.49
224.78	1794.02
225.00	1669.09
225.22	1673.19
225.44	1638.38
225.66	1767.40
225.88	1710.05
226.10	1662.95
226.32	1689.57
226.53	1695.72
226.75	1728.49
226.97	1736.68
227.19	1695.72
227.41	1650.66
227.63	1724.39
227.85	1632.23
228.06	1757.16
228.28	1691.62
228.50	1724.39
228.72	1708.01
228.94	1628.14
229.16	1591.27
229.37	1714.15
229.59	1613.80
229.81	1804.26
230.03	1701.86
230.25	1658.85
230.47	1617.90
230.69	1632.23
230.90	1779.68
231.12	1667.05
231.34	1710.05
231.56	1787.88
231.78	1587.18
232.00	1722.34
232.21	1703.91
232.43	1679.33
232.65	1615.85
232.87	1759.21
233.09	1640.42
233.30	1708.01
233.52	1769.44
233.74	1650.66
233.96	1736.68
234.18	1771.49
234.40	1685.48
234.61	1845.22
234.83	1658.85
235.05	1656.81
235.27	1882.08
235.49	1781.73
235.70	1697.77
235.92	1757.16
236.14	1775.59
236.36	1843.17
236.58	1562.60
236.79	1738.73
237.01	1732.58
237.23	1673.19
237.45	1849.32
237.67	1630.18
237.88	1705.96
238.10	1814.50
238.32	1609.70
238.54	1640.42
238.76	1714.15
238.97	1689.57
239.19	1658.85
239.41	1701.86
239.63	1712.10
239.85	1665.00
240.06	1691.62
240.28	1671.14
240.50	1738.73
240.72	1775.59
240.93	1738.73
241.15	1769.44
241.37	1667.05
241.59	1832.93
241.81	1701.86
242.02	1744.87
242.24	1728.49
242.46	1732.58
242.68	1589.22
242.89	1681.38
243.11	1695.72
243.33	1716.20
243.55	1710.05
243.76	1787.88
243.98	1624.04
244.20	1716.20
244.42	1720.29
244.64	1662.95
244.85	1630.18
245.07	1636.33
245.29	1748.97
245.51	1685.48
245.72	1646.57
245.94	1710.05
246.16	1673.19
246.38	1783.78
246.59	1642.47
246.81	1613.80
247.03	1671.14
247.24	1615.85
247.46	1683.43
247.68	1722.34
247.90	1671.14
248.11	1691.62
248.33	1779.68
248.55	1693.67
248.77	1751.01
248.98	1755.11
249.20	1658.85
249.42	1783.78
249.64	1777.64
249.85	1738.73
250.07	1693.67
250.29	1769.44
250.50	1679.33
250.72	1560.55
250.94	1722.34
251.16	1806.31
251.37	1724.39
251.59	1761.25
251.81	1724.39
252.02	1773.54
252.24	1619.94
252.46	1775.59
252.68	1685.48
252.89	1685.48
253.11	1589.22
253.33	1789.92
253.54	1775.59
253.76	1597.42
253.98	1718.25
254.20	1681.38
254.41	1617.90
254.63	1656.81
254.85	1619.94
255.06	1624.04
255.28	1722.34
255.50	1716.20
255.71	1730.53
255.93	1685.48
256.15	1665.00
256.36	1697.77
256.58	1638.38
256.80	1701.86
257.02	1673.19
257.23	1693.67
257.45	1648.61
257.67	1785.83
257.88	1730.53
258.10	1738.73
258.32	1734.63
258.53	1648.61
258.75	1789.92
258.97	1658.85
259.18	1695.72
259.40	1673.19
259.62	1822.69
259.83	1765.35
260.05	1751.01
260.27	1980.39
260.48	1738.73
260.70	1656.81
260.92	1697.77
261.13	1677.29
261.35	1728.49
261.57	1740.77
261.78	1560.55
262.00	1716.20
262.22	1705.96
262.43	1652.71
262.65	1675.24
262.86	1730.53
263.08	1812.45
263.30	1757.16
263.51	1634.28
263.73	1630.18
263.95	1759.21
264.16	1691.62
264.38	1679.33
264.60	1773.54
264.81	1595.37
265.03	1746.92
265.25	1738.73
265.46	1703.91
265.68	1724.39
265.89	1724.39
266.11	1708.01
266.33	1716.20
266.54	1677.29
266.76	1640.42
266.98	1718.25
267.19	1775.59
267.41	1781.73
267.62	1652.71
267.84	1728.49
268.06	1791.97
268.27	1738.73
268.49	1769.44
268.70	1751.01
268.92	1662.95
269.14	1648.61
269.35	1626.09
269.57	1697.77
269.79	1765.35
270.00	1687.53
270.22	1779.68
270.43	1648.61
270.65	1603.56
270.87	1732.58
271.08	1736.68
271.30	1716.20
271.51	1679.33
271.73	1705.96
271.95	1716.20
272.16	1673.19
272.38	1773.54
272.59	1636.33
272.81	1677.29
273.02	1685.48
273.24	1800.16
273.46	1710.05
273.67	1697.77
273.89	1662.95
274.10	1687.53
274.32	1742.82
274.54	1644.52
274.75	1744.87
274.97	1724.39
275.18	1710.05
275.40	1718.25
275.61	1712.10
275.83	1658.85
276.05	1628.14
276.26	1695.72
276.48	1705.96
276.69	1609.70
276.91	1714.15
277.12	1789.92
277.34	1757.16
277.55	1665.00
277.77	1697.77
277.99	1703.91
278.20	1613.80
278.42	1648.61
278.63	1621.99
278.85	1658.85
279.06	1656.81
279.28	1783.78
279.49	1748.97
279.71	1746.92
279.93	1740.77
280.14	1742.82
280.36	1583.08
280.57	1675.24
280.79	1783.78
281.00	1632.23
281.22	1652.71
281.43	1763.30
281.65	1603.56
281.86	1667.05
282.08	1767.40
282.29	1767.40
282.51	1615.85
282.73	1673.19
282.94	1636.33
283.16	1777.64
283.37	1800.16
283.59	1632.23
283.80	1757.16
284.02	1675.24
284.23	1740.77
284.45	1689.57
284.66	1660.90
284.88	1652.71
285.09	1695.72
285.31	1765.35
285.52	1740.77
285.74	1658.85
285.95	1789.92
286.17	1763.30
286.38	1763.30
286.60	1609.70
286.81	1646.57
287.03	1703.91
287.24	1671.14
287.46	1642.47
287.67	1691.62
287.89	1746.92
288.10	1732.58
288.32	1712.10
288.53	1785.83
288.75	1660.90
288.96	1800.16
289.18	1695.72
289.39	1687.53
289.61	1767.40
289.82	1851.36
290.04	1914.85
290.25	1587.18
290.47	1673.19
290.68	1697.77
290.90	1718.25
291.11	1599.46
291.33	1738.73
291.54	1726.44
291.76	1701.86
291.97	1714.15
292.18	1650.66
292.40	1578.98
292.61	1687.53
292.83	1796.07
293.04	1785.83
293.26	1753.06
293.47	1714.15
293.69	1662.95
293.90	1695.72
294.12	1775.59
294.33	1773.54
294.55	1673.19
294.76	1693.67
294.97	1820.64
295.19	1814.50
295.40	1697.77
295.62	1755.11
295.83	1812.45
296.05	1652.71
296.26	1714.15
296.48	1695.72
296.69	1726.44
296.90	1628.14
297.12	1693.67
297.33	1769.44
297.55	1705.96
297.76	1773.54
297.98	1693.67
298.19	1689.57
298.41	1738.73
298.62	1669.09
298.83	1763.30
299.05	1617.90
299.26	1710.05
299.48	1599.46
299.69	1785.83
299.90	1693.67
300.12	1738.73
300.33	1710.05
300.55	1701.86
300.76	1650.66
300.98	1613.80
301.19	1734.63
301.40	1703.91
301.62	1720.29
301.83	1673.19
302.05	1677.29
302.26	1726.44
302.47	1662.95
302.69	1607.66
302.90	1701.86
303.12	1574.89
303.33	1751.01
303.54	1841.12
303.76	1632.23
303.97	1687.53
304.19	1775.59
304.40	1689.57
304.61	1689.57
304.83	1785.83
305.04	1765.35
305.26	1689.57
305.47	1708.01
305.68	1660.90
305.90	1609.70
306.11	1812.45
306.33	1658.85
306.54	1693.67
306.75	1718.25
306.97	1654.76
307.18	1730.53
307.39	1660.90
307.61	1722.34
307.82	1695.72
308.04	1679.33
308.25	1718.25
308.46	1730.53
308.68	1665.00
308.89	1726.44
309.10	1818.60
309.32	1656.81
309.53	1710.05
309.74	1726.44
309.96	1724.39
310.17	1767.40
310.39	1677.29
310.60	1665.00
310.81	1712.10
311.03	1605.61
311.24	1675.24
311.45	1658.85
311.67	1834.98
311.88	1699.81
312.09	1665.00
312.31	1656.81
312.52	1712.10
312.73	1755.11
312.95	1628.14
313.16	1667.05
313.37	1769.44
313.59	1816.55
313.80	1703.91
314.01	1763.30
314.23	1730.53
314.44	1673.19
314.65	1585.13
314.87	1644.52
315.08	1667.05
315.29	1658.85
315.51	1605.61
315.72	1656.81
315.93	1798.12
316.15	1800.16
316.36	1699.81
316.57	1714.15
316.79	1685.48
317.00	1656.81
317.21	1802.21
317.43	1650.66
317.64	1695.72
317.85	1619.94
318.07	1665.00
318.28	1693.67
318.49	1845.22
318.70	2013.15
318.92	1869.80
319.13	1765.35
319.34	1828.84
319.56	1789.92
319.77	1826.79
319.98	1822.69
320.20	1740.77
320.41	1681.38
320.62	1738.73
320.83	1685.48
321.05	1890.28
321.26	1742.82
321.47	1566.70
321.69	1787.88
321.90	1605.61
322.11	1662.95
322.32	1755.11
322.54	1804.26
322.75	1642.47
322.96	1857.51
323.18	1644.52
323.39	1654.76
323.60	1656.81
323.81	1796.07
324.03	1689.57
324.24	1642.47
324.45	1765.35
324.66	1708.01
324.88	1767.40
325.09	1796.07
325.30	1695.72
325.52	1769.44
325.73	1742.82
325.94	1671.14
326.15	1669.09
326.37	1710.05
326.58	1740.77
326.79	1796.07
327.00	1697.77
327.22	1708.01
327.43	1656.81
327.64	1560.55
327.85	1665.00
328.07	1763.30
328.28	1789.92
328.49	1703.91
328.70	1701.86
328.92	1712.10
329.13	1759.21
329.34	1751.01
329.55	1767.40
329.76	1759.21
329.98	1646.57
330.19	1796.07
330.40	1748.97
330.61	1677.29
330.83	1812.45
331.04	1671.14
331.25	1714.15
331.46	1617.90
331.68	1646.57
331.89	1748.97
332.10	1673.19
332.31	1638.38
332.52	1660.90
332.74	1798.12
332.95	1652.71
333.16	1632.23
333.37	1751.01
333.58	1687.53
333.80	1710.05
334.01	1615.85
334.22	1751.01
334.43	1714.15
334.64	1607.66
334.86	1626.09
335.07	1624.04
335.28	1771.49
335.49	1609.70
335.70	1744.87
335.92	1806.31
336.13	1802.21
336.34	1808.36
336.55	1671.14
336.76	1677.29
336.98	1601.51
337.19	1720.29
337.40	1771.49
337.61	1822.69
337.82	1685.48
338.04	1751.01
338.25	1683.43
338.46	1683.43
338.67	1681.38
338.88	1624.04
339.09	1669.09
339.31	1697.77
339.52	1624.04
339.73	1648.61
339.94	1644.52
340.15	1740.77
340.36	1718.25
340.58	1638.38
340.79	1712.10
341.00	1755.11
341.21	1634.28
341.42	1714.15
341.63	1681.38
341.85	1812.45
342.06	1783.78
342.27	1667.05
342.48	1714.15
342.69	1673.19
342.90	1681.38
343.12	1673.19
343.33	1583.08
343.54	1720.29
343.75	1822.69
343.96	1617.90
344.17	1671.14
344.38	1769.44
344.60	1669.09
344.81	1669.09
345.02	1665.00
345.23	1798.12
345.44	1834.98
345.65	1677.29
345.86	1806.31
346.07	1628.14
346.29	1673.19
346.50	1671.14
346.71	1681.38
346.92	1763.30
347.13	1806.31
347.34	1703.91
347.55	1734.63
347.76	1777.64
347.98	1697.77
348.19	1630.18
348.40	1828.84
348.61	1656.81
348.82	1785.83
349.03	1761.25
349.24	1701.86
349.45	1771.49
349.66	1689.57
349.88	1689.57
350.09	1654.76
350.30	1769.44
350.51	1755.11
350.72	1740.77
350.93	1755.11
351.14	1650.66
351.35	1689.57
351.56	1656.81
351.77	1693.67
351.99	1697.77
352.20	1789.92
352.41	1753.06
352.62	1630.18
352.83	1615.85
353.04	1710.05
353.25	1691.62
353.46	1814.50
353.67	1796.07
353.88	1562.60
354.09	1769.44
354.30	1665.00
354.52	1693.67
354.73	1779.68
354.94	1675.24
355.15	1724.39
355.36	1851.36
355.57	1667.05
355.78	1726.44
355.99	1685.48
356.20	1624.04
356.41	1738.73
356.62	1763.30
356.83	1636.33
357.04	1757.16
357.25	1572.84
357.46	1652.71
357.68	1630.18
357.89	1722.34
358.10	1779.68
358.31	1687.53
358.52	1677.29
358.73	1701.86
358.94	1642.47
359.15	1611.75
359.36	1691.62
359.57	1689.57
359.78	1751.01
359.99	1777.64
360.20	1632.23
360.41	1679.33
360.62	1705.96
360.83	1765.35
361.04	1652.71
361.25	1789.92
361.46	1816.55
361.67	1759.21
361.88	1732.58
362.09	1787.88
362.30	1701.86
362.51	1658.85
362.72	1744.87
362.93	1720.29
363.14	1718.25
363.35	1642.47
363.56	1703.91
363.78	1746.92
363.99	1771.49
364.20	1634.28
364.41	1734.63
364.62	1843.17
364.83	1755.11
365.04	1710.05
365.25	1742.82
365.46	1822.69
365.67	1683.43
365.88	1691.62
366.09	1601.51
366.30	1687.53
366.51	1640.42
366.72	1681.38
366.93	1669.09
367.14	1703.91
367.35	1818.60
367.56	1701.86
367.77	1726.44
367.98	1681.38
368.18	1753.06
368.39	1685.48
368.60	1640.42
368.81	1832.93
369.02	1767.40
369.23	1718.25
369.44	1599.46
369.65	1691.62
369.86	1689.57
370.07	1716.20
370.28	1648.61
370.49	1652.71
370.70	1724.39
370.91	1621.99
371.12	1642.47
371.33	1757.16
371.54	1703.91
371.75	1818.60
371.96	1574.89
372.17	1740.77
372.38	1708.01
372.59	1755.11
372.80	1640.42
373.01	1605.61
373.22	1685.48
373.43	1691.62
373.64	1656.81
373.85	1789.92
374.06	1800.16
374.26	1769.44
374.47	1806.31
374.68	1814.50
374.89	1724.39
375.10	1726.44
375.31	1775.59
375.52	1748.97
375.73	1732.58
375.94	1675.24
376.15	1757.16
376.36	1658.85
376.57	1648.61
376.78	1675.24
376.99	1685.48
377.20	1763.30
377.40	1716.20
377.61	1785.83
377.82	1646.57
378.03	1808.36
378.24	1748.97
378.45	1712.10
378.66	1767.40
378.87	1550.31
379.08	1568.74
379.29	1619.94
379.50	1783.78
379.71	1701.86
379.91	1710.05
380.12	1714.15
380.33	1738.73
380.54	1695.72
380.75	1720.29
380.96	1652.71
381.17	1642.47
381.38	1736.68
381.59	1726.44
381.80	1714.15
382.00	1806.31
382.21	1724.39
382.42	1798.12
382.63	1886.18
382.84	1744.87
383.05	1728.49
383.26	1714.15
383.47	1734.63
383.68	1716.20
383.88	1746.92
384.09	1650.66
384.30	1802.21
384.51	1699.81
384.72	1722.34
384.93	1652.71
385.14	1748.97
385.35	1685.48
385.55	1701.86
385.76	1794.02
385.97	1673.19
386.18	1679.33
386.39	1695.72
386.60	1669.09
386.81	1734.63
387.02	1732.58
387.22	1615.85
387.43	1787.88
387.64	1845.22
387.85	1859.56
388.06	2174.94
388.27	4360.13
388.48	6834.07
388.68	8458.11
388.89	9654.12
389.10	9996.14
389.31	8613.76
389.52	7620.49
389.73	6893.46
389.93	6371.23
390.14	6002.60
390.35	5162.93
390.56	4569.02
390.77	3821.51
390.98	2971.60
391.18	2494.43
391.39	2111.46
391.60	1763.30
391.81	1763.30
392.02	1632.23
392.23	1814.50
392.43	1738.73
392.64	1753.06
392.85	1746.92
393.06	1826.79
393.27	1689.57
393.47	1728.49
393.68	1742.82
393.89	1677.29
394.10	1734.63
394.31	1726.44
394.52	1691.62
394.72	1703.91
394.93	1740.77
395.14	1628.14
395.35	1742.82
395.56	1570.79
395.76	1708.01
395.97	1783.78
396.18	1804.26
396.39	1808.36
396.60	2037.73
396.80	1912.80
397.01	1816.55
397.22	1853.41
397.43	1806.31
397.64	1783.78
397.84	1798.12
398.05	1832.93
398.26	1730.53
398.47	1771.49
398.67	1757.16
398.88	1656.81
399.09	1765.35
399.30	1726.44
399.51	1773.54
399.71	1603.56
399.92	1699.81
400.13	1697.77
400.34	1685.48
400.54	1675.24
400.75	1744.87
400.96	1738.73
401.17	1832.93
401.37	1681.38
401.58	1714.15
401.79	1757.16
402.00	1798.12
402.21	1863.65
402.41	1945.57
402.62	2027.49
402.83	1918.95
403.04	1935.33
403.24	2029.54
403.45	1826.79
403.66	1937.38
403.87	1910.75
404.07	1990.63
404.28	1908.71
404.49	1882.08
404.70	1759.21
404.90	1757.16
405.11	1751.01
405.32	1820.64
405.52	1703.91
405.73	1566.70
405.94	1695.72
406.15	1648.61
406.35	1732.58
406.56	1777.64
406.77	1773.54
406.98	1716.20
407.18	1648.61
407.39	1714.15
407.60	1753.06
407.80	1667.05
408.01	1677.29
408.22	1697.77
408.43	1658.85
408.63	1746.92
408.84	1783.78
409.05	1796.07
409.25	1705.96
409.46	1669.09
409.67	1673.19
409.88	1669.09
410.08	1832.93
410.29	1697.77
410.50	1701.86
410.70	1654.76
410.91	1665.00
411.12	1691.62
411.32	1755.11
411.53	1685.48
411.74	1843.17
411.95	1732.58
412.15	1744.87
412.36	1806.31
412.57	1693.67
412.77	1781.73
412.98	1669.09
413.19	1771.49
413.39	1789.92
413.60	1787.88
413.81	1802.21
414.01	1669.09
414.22	1685.48
414.43	1787.88
414.63	1642.47
414.84	1806.31
415.05	1720.29
415.25	1675.24
415.46	1708.01
415.67	1710.05
415.87	1648.61
416.08	1746.92
416.29	1718.25
416.49	1699.81
416.70	1693.67
416.91	1730.53
417.11	1710.05
417.32	1710.05
417.53	1808.36
417.73	1697.77
417.94	1695.72
418.15	1714.15
418.35	1658.85
418.56	1730.53
418.77	1869.80
418.97	1683.43
419.18	1669.09
419.38	1628.14
419.59	1669.09
419.80	1812.45
420.00	1662.95
420.21	1714.15
420.42	1798.12
420.62	1718.25
420.83	1652.71
421.04	1759.21
421.24	1656.81
421.45	1683.43
421.65	1738.73
421.86	1636.33
422.07	1748.97
422.27	1794.02
422.48	1687.53
422.69	1689.57
422.89	1679.33
423.10	1683.43
423.30	1732.58
423.51	1738.73
423.72	1665.00
423.92	1769.44
424.13	1658.85
424.33	1695.72
424.54	1775.59
424.75	1712.10
424.95	1765.35
425.16	1839.08
425.36	1665.00
425.57	1714.15
425.78	1783.78
425.98	1763.30
426.19	1652.71
426.39	1599.46
426.60	1746.92
426.81	1808.36
427.01	1652.71
427.22	1609.70
427.42	1640.42
427.63	1683.43
427.83	1685.48
428.04	1738.73
428.25	1742.82
428.45	1757.16
428.66	1753.06
428.86	1683.43
429.07	1656.81
429.28	1769.44
429.48	1701.86
429.69	1656.81
429.89	1710.05
430.10	1646.57
430.30	1701.86
430.51	1779.68
430.71	1644.52
430.92	1712.10
431.13	1693.67
431.33	1816.55
431.54	1720.29
431.74	1712.10
431.95	1841.12
432.15	1683.43
432.36	1757.16
432.56	1667.05
432.77	1730.53
432.98	1845.22
433.18	1671.14
433.39	1660.90
433.59	1705.96
433.80	1830.88
434.00	1765.35
434.21	1720.29
434.41	1648.61
434.62	1896.42
434.82	1744.87
435.03	1621.99
435.23	1783.78
435.44	1595.37
435.64	1757.16
435.85	1697.77
436.06	1746.92
436.26	1789.92
436.47	1710.05
436.67	1738.73
436.88	1679.33
437.08	1783.78
437.29	1796.07
437.49	1791.97
437.70	1783.78
437.90	1724.39
438.11	1802.21
438.31	1714.15
438.52	1853.41
438.72	1861.60
438.93	1886.18
439.13	1724.39
439.34	1810.40
439.54	1742.82
439.75	1781.73
439.95	1857.51
440.16	1787.88
440.36	1720.29
440.57	1785.83
440.77	1808.36
440.98	1806.31
441.18	1853.41
441.39	1640.42
441.59	1642.47
441.80	1816.55
442.00	1687.53
442.21	1789.92
442.41	1656.81
442.62	1796.07
442.82	1665.00
443.02	1781.73
443.23	1781.73
443.43	1718.25
443.64	1820.64
443.84	1671.14
444.05	1886.18
444.25	1796.07
444.46	1740.77
444.66	1689.57
444.87	1851.36
445.07	1638.38
445.28	1710.05
445.48	1804.26
445.69	1732.58
445.89	1910.75
446.09	1697.77
446.30	1974.24
446.50	2686.94
446.71	3835.85
446.91	4241.34
447.12	4683.70
447.32	4796.34
447.53	4327.36
447.73	3962.82
447.93	3606.47
448.14	3305.42
448.34	3231.69
448.55	2867.16
448.75	2836.44
448.96	2631.64
449.16	2422.75
449.36	2291.68
449.57	1972.19
449.77	1888.23
449.98	1740.77
450.18	1853.41
450.39	1728.49
450.59	1748.97
450.79	1804.26
451.00	1656.81
451.20	1783.78
451.41	1734.63
451.61	1734.63
451.81	1769.44
452.02	1802.21
452.22	1757.16
452.43	1660.90
452.63	1724.39
