SpectraSuite Data File
++++++++++++++++++++++++++++++++++++
Date: Mon Jun 06 12:47:17 CEST 2016
User: root
Dark Spectrum Present: No
Reference Spectrum Present: No
Number of Sampled Component Spectra: 1
Spectrometers: USB4C02835
Integration Time (usec): 100000 (USB4C02835)
Spectra Averaged: 1 (USB4C02835)
Boxcar Smoothing: 0 (USB4C02835)
Correct for Electrical Dark: No (USB4C02835)
Strobe/Lamp Enabled: No (USB4C02835)
Correct for Detector Non-linearity: No (USB4C02835)
Correct for Stray Light: No (USB4C02835)
Number of Pixels in Processed Spectrum: 3648
>>>>>Begin Processed Spectral Data<<<<<
177.47	1482.73
177.69	1482.73
177.91	1482.73
178.13	1468.39
178.36	1462.25
178.58	1742.82
178.80	1710.05
179.02	1650.66
179.24	1689.57
179.46	1705.96
179.68	1787.88
179.90	1652.71
180.13	1732.58
180.35	1683.43
180.57	1683.43
180.79	1812.45
181.01	1693.67
181.23	1691.62
181.45	1669.09
181.67	1791.97
181.90	1636.33
182.12	1730.53
182.34	1730.53
182.56	1742.82
182.78	1691.62
183.00	1789.92
183.22	1726.44
183.44	1548.26
183.66	1869.80
183.89	1751.01
184.11	1671.14
184.33	1736.68
184.55	1841.12
184.77	1722.34
184.99	1699.81
185.21	1669.09
185.43	1845.22
185.65	1640.42
185.87	1718.25
186.10	1759.21
186.32	1798.12
186.54	1738.73
186.76	1669.09
186.98	1781.73
187.20	1611.75
187.42	1677.29
187.64	1708.01
187.86	1740.77
188.08	1738.73
188.30	1632.23
188.52	1693.67
188.75	1769.44
188.97	1822.69
189.19	1701.86
189.41	1695.72
189.63	1748.97
189.85	1652.71
190.07	1636.33
190.29	1665.00
190.51	1718.25
190.73	1613.80
190.95	1740.77
191.17	1656.81
191.39	1648.61
191.61	1658.85
191.84	1699.81
192.06	1783.78
192.28	1572.84
192.50	1865.70
192.72	1726.44
192.94	1683.43
193.16	1742.82
193.38	1757.16
193.60	1617.90
193.82	1658.85
194.04	1759.21
194.26	1730.53
194.48	1730.53
194.70	1671.14
194.92	1667.05
195.14	1716.20
195.36	1660.90
195.58	1722.34
195.80	1703.91
196.02	1632.23
196.24	1800.16
196.46	1796.07
196.69	1619.94
196.91	1837.03
197.13	1671.14
197.35	1705.96
197.57	1804.26
197.79	1791.97
198.01	1734.63
198.23	1755.11
198.45	1660.90
198.67	1613.80
198.89	1619.94
199.11	1720.29
199.33	1689.57
199.55	1560.55
199.77	1716.20
199.99	1777.64
200.21	1697.77
200.43	1669.09
200.65	1632.23
200.87	1583.08
201.09	1642.47
201.31	1595.37
201.53	1728.49
201.75	1701.86
201.97	1742.82
202.19	1574.89
202.41	1755.11
202.63	1787.88
202.85	1722.34
203.07	1738.73
203.29	1681.38
203.51	1652.71
203.73	1615.85
203.95	1894.37
204.17	1748.97
204.39	1716.20
204.61	1685.48
204.83	1673.19
205.05	1783.78
205.27	1751.01
205.49	1755.11
205.71	1691.62
205.93	1607.66
206.15	1660.90
206.37	1675.24
206.59	1689.57
206.81	1695.72
207.03	1626.09
207.25	1673.19
207.47	1763.30
207.69	1699.81
207.91	1773.54
208.13	1703.91
208.34	1617.90
208.56	1675.24
208.78	1708.01
209.00	1699.81
209.22	1662.95
209.44	1697.77
209.66	1714.15
209.88	1730.53
210.10	1714.15
210.32	1693.67
210.54	1755.11
210.76	1675.24
210.98	1767.40
211.20	1583.08
211.42	1667.05
211.64	1746.92
211.86	1705.96
212.08	1703.91
212.30	1734.63
212.52	1638.38
212.74	1748.97
212.96	1734.63
213.17	1791.97
213.39	1695.72
213.61	1779.68
213.83	1675.24
214.05	1701.86
214.27	1783.78
214.49	1615.85
214.71	1699.81
214.93	1789.92
215.15	1681.38
215.37	1757.16
215.59	1554.41
215.81	1714.15
216.03	1742.82
216.24	1734.63
216.46	1693.67
216.68	1665.00
216.90	1720.29
217.12	1746.92
217.34	1693.67
217.56	1728.49
217.78	1771.49
218.00	1757.16
218.22	1685.48
218.44	1699.81
218.66	1693.67
218.87	1693.67
219.09	1681.38
219.31	1779.68
219.53	1691.62
219.75	1689.57
219.97	1730.53
220.19	1599.46
220.41	1617.90
220.63	1816.55
220.85	1716.20
221.06	1660.90
221.28	1742.82
221.50	1705.96
221.72	1621.99
221.94	1644.52
222.16	1681.38
222.38	1720.29
222.60	1730.53
222.82	1656.81
223.03	1765.35
223.25	1683.43
223.47	1689.57
223.69	1814.50
223.91	1654.76
224.13	1650.66
224.35	1669.09
224.57	1804.26
224.78	1703.91
225.00	1640.42
225.22	1761.25
225.44	1667.05
225.66	1722.34
225.88	1675.24
226.10	1728.49
226.32	1681.38
226.53	1751.01
226.75	1779.68
226.97	1669.09
227.19	1697.77
227.41	1726.44
227.63	1701.86
227.85	1662.95
228.06	1714.15
228.28	1679.33
228.50	1701.86
228.72	1685.48
228.94	1632.23
229.16	1595.37
229.37	1638.38
229.59	1624.04
229.81	1748.97
230.03	1630.18
230.25	1626.09
230.47	1601.51
230.69	1738.73
230.90	1771.49
231.12	1673.19
231.34	1681.38
231.56	1691.62
231.78	1656.81
232.00	1642.47
232.21	1679.33
232.43	1681.38
232.65	1562.60
232.87	1697.77
233.09	1613.80
233.30	1648.61
233.52	1732.58
233.74	1613.80
233.96	1595.37
234.18	1708.01
234.40	1699.81
234.61	1695.72
234.83	1695.72
235.05	1671.14
235.27	1822.69
235.49	1763.30
235.70	1724.39
235.92	1806.31
236.14	1746.92
236.36	1800.16
236.58	1605.61
236.79	1751.01
237.01	1740.77
237.23	1617.90
237.45	1794.02
237.67	1748.97
237.88	1716.20
238.10	1787.88
238.32	1656.81
238.54	1681.38
238.76	1732.58
238.97	1675.24
239.19	1640.42
239.41	1718.25
239.63	1800.16
239.85	1695.72
240.06	1714.15
240.28	1642.47
240.50	1746.92
240.72	1667.05
240.93	1671.14
241.15	1765.35
241.37	1687.53
241.59	1755.11
241.81	1619.94
242.02	1656.81
242.24	1738.73
242.46	1705.96
242.68	1669.09
242.89	1681.38
243.11	1775.59
243.33	1671.14
243.55	1658.85
243.76	1789.92
243.98	1712.10
244.20	1695.72
244.42	1787.88
244.64	1679.33
244.85	1583.08
245.07	1712.10
245.29	1677.29
245.51	1720.29
245.72	1689.57
245.94	1755.11
246.16	1720.29
246.38	1714.15
246.59	1660.90
246.81	1669.09
247.03	1667.05
247.24	1511.40
247.46	1650.66
247.68	1722.34
247.90	1656.81
248.11	1701.86
248.33	1765.35
248.55	1650.66
248.77	1728.49
248.98	1732.58
249.20	1730.53
249.42	1677.29
249.64	1642.47
249.85	1693.67
250.07	1656.81
250.29	1763.30
250.50	1697.77
250.72	1624.04
250.94	1642.47
251.16	1763.30
251.37	1771.49
251.59	1746.92
251.81	1732.58
252.02	1783.78
252.24	1726.44
252.46	1746.92
252.68	1687.53
252.89	1621.99
253.11	1613.80
253.33	1763.30
253.54	1789.92
253.76	1634.28
253.98	1656.81
254.20	1751.01
254.41	1607.66
254.63	1675.24
254.85	1595.37
255.06	1681.38
255.28	1724.39
255.50	1648.61
255.71	1765.35
255.93	1595.37
256.15	1695.72
256.36	1773.54
256.58	1630.18
256.80	1726.44
257.02	1642.47
257.23	1703.91
257.45	1742.82
257.67	1732.58
257.88	1654.76
258.10	1757.16
258.32	1732.58
258.53	1738.73
258.75	1738.73
258.97	1669.09
259.18	1654.76
259.40	1716.20
259.62	1742.82
259.83	1798.12
260.05	1740.77
260.27	1986.53
260.48	1724.39
260.70	1644.52
260.92	1640.42
261.13	1685.48
261.35	1648.61
261.57	1689.57
261.78	1589.22
262.00	1679.33
262.22	1681.38
262.43	1673.19
262.65	1636.33
262.86	1667.05
263.08	1765.35
263.30	1728.49
263.51	1615.85
263.73	1603.56
263.95	1791.97
264.16	1683.43
264.38	1646.57
264.60	1775.59
264.81	1687.53
265.03	1855.46
265.25	1734.63
265.46	1716.20
265.68	1748.97
265.89	1808.36
266.11	1587.18
266.33	1675.24
266.54	1767.40
266.76	1755.11
266.98	1697.77
267.19	1726.44
267.41	1755.11
267.62	1705.96
267.84	1624.04
268.06	1689.57
268.27	1675.24
268.49	1742.82
268.70	1761.25
268.92	1650.66
269.14	1689.57
269.35	1634.28
269.57	1665.00
269.79	1695.72
270.00	1708.01
270.22	1755.11
270.43	1675.24
270.65	1621.99
270.87	1724.39
271.08	1734.63
271.30	1763.30
271.51	1642.47
271.73	1753.06
271.95	1839.08
272.16	1652.71
272.38	1656.81
272.59	1687.53
272.81	1734.63
273.02	1738.73
273.24	1677.29
273.46	1775.59
273.67	1644.52
273.89	1638.38
274.10	1628.14
274.32	1771.49
274.54	1708.01
274.75	1732.58
274.97	1697.77
275.18	1781.73
275.40	1689.57
275.61	1687.53
275.83	1681.38
276.05	1654.76
276.26	1746.92
276.48	1697.77
276.69	1736.68
276.91	1630.18
277.12	1789.92
277.34	1808.36
277.55	1708.01
277.77	1689.57
277.99	1748.97
278.20	1644.52
278.42	1697.77
278.63	1693.67
278.85	1650.66
279.06	1685.48
279.28	1812.45
279.49	1777.64
279.71	1753.06
279.93	1656.81
280.14	1693.67
280.36	1621.99
280.57	1779.68
280.79	1734.63
281.00	1593.32
281.22	1636.33
281.43	1699.81
281.65	1689.57
281.86	1611.75
282.08	1781.73
282.29	1773.54
282.51	1597.42
282.73	1669.09
282.94	1619.94
283.16	1775.59
283.37	1787.88
283.59	1718.25
283.80	1687.53
284.02	1691.62
284.23	1679.33
284.45	1660.90
284.66	1603.56
284.88	1689.57
285.09	1714.15
285.31	1708.01
285.52	1691.62
285.74	1644.52
285.95	1783.78
286.17	1816.55
286.38	1730.53
286.60	1667.05
286.81	1572.84
287.03	1667.05
287.24	1746.92
287.46	1714.15
287.67	1693.67
287.89	1751.01
288.10	1660.90
288.32	1726.44
288.53	1751.01
288.75	1714.15
288.96	1701.86
289.18	1636.33
289.39	1689.57
289.61	1800.16
289.82	1767.40
290.04	1757.16
290.25	1648.61
290.47	1695.72
290.68	1699.81
290.90	1710.05
291.11	1636.33
291.33	1755.11
291.54	1675.24
291.76	1677.29
291.97	1701.86
292.18	1669.09
292.40	1726.44
292.61	1628.14
292.83	1810.40
293.04	1757.16
293.26	1677.29
293.47	1640.42
293.69	1607.66
293.90	1644.52
294.12	1775.59
294.33	1685.48
294.55	1683.43
294.76	1714.15
294.97	1798.12
295.19	1804.26
295.40	1720.29
295.62	1730.53
295.83	1785.83
296.05	1685.48
296.26	1689.57
296.48	1675.24
296.69	1689.57
296.90	1636.33
297.12	1771.49
297.33	1726.44
297.55	1671.14
297.76	1763.30
297.98	1763.30
298.19	1708.01
298.41	1705.96
298.62	1654.76
298.83	1751.01
299.05	1724.39
299.26	1669.09
299.48	1658.85
299.69	1689.57
299.90	1742.82
300.12	1621.99
300.33	1751.01
300.55	1695.72
300.76	1689.57
300.98	1654.76
301.19	1716.20
301.40	1650.66
301.62	1734.63
301.83	1769.44
302.05	1740.77
302.26	1679.33
302.47	1763.30
302.69	1587.18
302.90	1665.00
303.12	1628.14
303.33	1712.10
303.54	1816.55
303.76	1701.86
303.97	1744.87
304.19	1757.16
304.40	1621.99
304.61	1710.05
304.83	1730.53
305.04	1728.49
305.26	1701.86
305.47	1740.77
305.68	1642.47
305.90	1593.32
306.11	1787.88
306.33	1732.58
306.54	1660.90
306.75	1607.66
306.97	1621.99
307.18	1636.33
307.39	1587.18
307.61	1771.49
307.82	1728.49
308.04	1697.77
308.25	1697.77
308.46	1716.20
308.68	1695.72
308.89	1740.77
309.10	1738.73
309.32	1724.39
309.53	1669.09
309.74	1757.16
309.96	1693.67
310.17	1806.31
310.39	1691.62
310.60	1746.92
310.81	1718.25
311.03	1636.33
311.24	1818.60
311.45	1746.92
311.67	1820.64
311.88	1789.92
312.09	1726.44
312.31	1703.91
312.52	1640.42
312.73	1718.25
312.95	1605.61
313.16	1624.04
313.37	1839.08
313.59	1763.30
313.80	1619.94
314.01	1820.64
314.23	1708.01
314.44	1710.05
314.65	1609.70
314.87	1658.85
315.08	1724.39
315.29	1624.04
315.51	1652.71
315.72	1648.61
315.93	1789.92
316.15	1683.43
316.36	1650.66
316.57	1728.49
316.79	1728.49
317.00	1777.64
317.21	1746.92
317.43	1697.77
317.64	1705.96
317.85	1681.38
318.07	1617.90
318.28	1765.35
318.49	1757.16
318.70	1920.99
318.92	1808.36
319.13	1865.70
319.34	1884.13
319.56	1738.73
319.77	1763.30
319.98	1738.73
320.20	1845.22
320.41	1802.21
320.62	1691.62
320.83	1642.47
321.05	1775.59
321.26	1751.01
321.47	1644.52
321.69	1828.84
321.90	1646.57
322.11	1718.25
322.32	1714.15
322.54	1693.67
322.75	1687.53
322.96	1884.13
323.18	1583.08
323.39	1685.48
323.60	1644.52
323.81	1789.92
324.03	1603.56
324.24	1697.77
324.45	1701.86
324.66	1675.24
324.88	1734.63
325.09	1763.30
325.30	1675.24
325.52	1738.73
325.73	1728.49
325.94	1630.18
326.15	1640.42
326.37	1640.42
326.58	1767.40
326.79	1796.07
327.00	1646.57
327.22	1720.29
327.43	1759.21
327.64	1626.09
327.85	1755.11
328.07	1742.82
328.28	1779.68
328.49	1673.19
328.70	1648.61
328.92	1730.53
329.13	1708.01
329.34	1730.53
329.55	1779.68
329.76	1789.92
329.98	1685.48
330.19	1802.21
330.40	1660.90
330.61	1730.53
330.83	1730.53
331.04	1658.85
331.25	1722.34
331.46	1652.71
331.68	1644.52
331.89	1705.96
332.10	1732.58
332.31	1689.57
332.52	1740.77
332.74	1726.44
332.95	1662.95
333.16	1703.91
333.37	1736.68
333.58	1675.24
333.80	1673.19
334.01	1617.90
334.22	1699.81
334.43	1691.62
334.64	1736.68
334.86	1632.23
335.07	1683.43
335.28	1724.39
335.49	1581.03
335.70	1794.02
335.92	1703.91
336.13	1785.83
336.34	1781.73
336.55	1699.81
336.76	1742.82
336.98	1576.94
337.19	1726.44
337.40	1761.25
337.61	1812.45
337.82	1675.24
338.04	1763.30
338.25	1480.68
338.46	1695.72
338.67	1654.76
338.88	1726.44
339.09	1662.95
339.31	1665.00
339.52	1697.77
339.73	1703.91
339.94	1714.15
340.15	1757.16
340.36	1691.62
340.58	1726.44
340.79	1699.81
341.00	1728.49
341.21	1587.18
341.42	1781.73
341.63	1660.90
341.85	1781.73
342.06	1734.63
342.27	1656.81
342.48	1761.25
342.69	1587.18
342.90	1675.24
343.12	1738.73
343.33	1656.81
343.54	1755.11
343.75	1757.16
343.96	1714.15
344.17	1689.57
344.38	1677.29
344.60	1603.56
344.81	1609.70
345.02	1648.61
345.23	1687.53
345.44	1814.50
345.65	1759.21
345.86	1646.57
346.07	1683.43
346.29	1611.75
346.50	1695.72
346.71	1665.00
346.92	1787.88
347.13	1857.51
347.34	1724.39
347.55	1646.57
347.76	1722.34
347.98	1681.38
348.19	1683.43
348.40	1689.57
348.61	1632.23
348.82	1761.25
349.03	1773.54
349.24	1621.99
349.45	1775.59
349.66	1648.61
349.88	1714.15
350.09	1677.29
350.30	1742.82
350.51	1771.49
350.72	1722.34
350.93	1662.95
351.14	1656.81
351.35	1695.72
351.56	1714.15
351.77	1759.21
351.99	1667.05
352.20	1765.35
352.41	1849.32
352.62	1566.70
352.83	1662.95
353.04	1701.86
353.25	1636.33
353.46	1785.83
353.67	1783.78
353.88	1572.84
354.09	1667.05
354.30	1716.20
354.52	1667.05
354.73	1697.77
354.94	1667.05
355.15	1724.39
355.36	1777.64
355.57	1716.20
355.78	1697.77
355.99	1673.19
356.20	1679.33
356.41	1773.54
356.62	1679.33
356.83	1560.55
357.04	1714.15
357.25	1624.04
357.46	1656.81
357.68	1611.75
357.89	1665.00
358.10	1689.57
358.31	1665.00
358.52	1673.19
358.73	1744.87
358.94	1632.23
359.15	1701.86
359.36	1783.78
359.57	1724.39
359.78	1650.66
359.99	1732.58
360.20	1621.99
360.41	1675.24
360.62	1757.16
360.83	1695.72
361.04	1738.73
361.25	1767.40
361.46	1769.44
361.67	1714.15
361.88	1814.50
362.09	1796.07
362.30	1779.68
362.51	1617.90
362.72	1701.86
362.93	1791.97
363.14	1699.81
363.35	1705.96
363.56	1671.14
363.78	1714.15
363.99	1726.44
364.20	1689.57
364.41	1787.88
364.62	1810.40
364.83	1701.86
365.04	1691.62
365.25	1685.48
365.46	1791.97
365.67	1572.84
365.88	1628.14
366.09	1646.57
366.30	1648.61
366.51	1722.34
366.72	1677.29
366.93	1681.38
367.14	1730.53
367.35	1714.15
367.56	1705.96
367.77	1779.68
367.98	1724.39
368.18	1699.81
368.39	1687.53
368.60	1640.42
368.81	1705.96
369.02	1705.96
369.23	1693.67
369.44	1665.00
369.65	1630.18
369.86	1656.81
370.07	1765.35
370.28	1648.61
370.49	1730.53
370.70	1783.78
370.91	1546.22
371.12	1585.13
371.33	1677.29
371.54	1732.58
371.75	1796.07
371.96	1591.27
372.17	1693.67
372.38	1644.52
372.59	1724.39
372.80	1667.05
373.01	1773.54
373.22	1644.52
373.43	1697.77
373.64	1656.81
373.85	1748.97
374.06	1800.16
374.26	1683.43
374.47	1763.30
374.68	1796.07
374.89	1742.82
375.10	1716.20
375.31	1787.88
375.52	1677.29
375.73	1732.58
375.94	1626.09
376.15	1738.73
376.36	1687.53
376.57	1728.49
376.78	1662.95
376.99	1736.68
377.20	1697.77
377.40	1656.81
377.61	1771.49
377.82	1591.27
378.03	1716.20
378.24	1724.39
378.45	1671.14
378.66	1728.49
378.87	1630.18
379.08	1591.27
379.29	1779.68
379.50	1783.78
379.71	1632.23
379.91	1763.30
380.12	1748.97
380.33	1726.44
380.54	1718.25
380.75	1652.71
380.96	1685.48
381.17	1732.58
381.38	1691.62
381.59	1730.53
381.80	1716.20
382.00	1845.22
382.21	1802.21
382.42	1806.31
382.63	1802.21
382.84	1767.40
383.05	1673.19
383.26	1773.54
383.47	1679.33
383.68	1757.16
383.88	1775.59
384.09	1734.63
384.30	1818.60
384.51	1705.96
384.72	1701.86
384.93	1624.04
385.14	1736.68
385.35	1720.29
385.55	1673.19
385.76	1779.68
385.97	1808.36
386.18	1652.71
386.39	1673.19
386.60	1640.42
386.81	1783.78
387.02	1665.00
387.22	1617.90
387.43	1720.29
387.64	1675.24
387.85	1845.22
388.06	2314.20
388.27	4378.56
388.48	6819.74
388.68	8349.57
388.89	9668.46
389.10	9803.63
389.31	8562.56
389.52	7640.97
389.73	6799.26
389.93	6238.11
390.14	5840.81
390.35	5253.04
390.56	4509.63
390.77	3708.87
390.98	3000.27
391.18	2478.04
391.39	2054.11
391.60	1808.36
391.81	1808.36
392.02	1746.92
392.23	1857.51
392.43	1769.44
392.64	1882.08
392.85	1708.01
393.06	1880.04
393.27	1734.63
393.47	1613.80
393.68	1648.61
393.89	1656.81
394.10	1765.35
394.31	1652.71
394.52	1607.66
394.72	1699.81
394.93	1740.77
395.14	1628.14
395.35	1634.28
395.56	1783.78
395.76	1697.77
395.97	1751.01
396.18	1794.02
396.39	1869.80
396.60	2066.40
396.80	1945.57
397.01	1812.45
397.22	1826.79
397.43	1806.31
397.64	1806.31
397.84	1804.26
398.05	1816.55
398.26	1800.16
398.47	1763.30
398.67	1779.68
398.88	1697.77
399.09	1796.07
399.30	1755.11
399.51	1708.01
399.71	1648.61
399.92	1662.95
400.13	1687.53
400.34	1679.33
400.54	1718.25
400.75	1859.56
400.96	1699.81
401.17	1783.78
401.37	1683.43
401.58	1720.29
401.79	1755.11
402.00	1877.99
402.21	1959.91
402.41	1933.28
402.62	2076.64
402.83	2060.26
403.04	1968.10
403.24	2052.06
403.45	1832.93
403.66	1945.57
403.87	1818.60
404.07	1873.89
404.28	1947.62
404.49	1843.17
404.70	1753.06
404.90	1800.16
405.11	1767.40
405.32	1753.06
405.52	1673.19
405.73	1673.19
405.94	1673.19
406.15	1689.57
406.35	1738.73
406.56	1730.53
406.77	1746.92
406.98	1746.92
407.18	1662.95
407.39	1724.39
407.60	1658.85
407.80	1665.00
408.01	1646.57
408.22	1685.48
408.43	1605.61
408.63	1730.53
408.84	1779.68
409.05	1720.29
409.25	1748.97
409.46	1654.76
409.67	1673.19
409.88	1673.19
410.08	1726.44
410.29	1691.62
410.50	1751.01
410.70	1728.49
410.91	1716.20
411.12	1636.33
411.32	1712.10
411.53	1724.39
411.74	1722.34
411.95	1798.12
412.15	1748.97
412.36	1755.11
412.57	1693.67
412.77	1703.91
412.98	1673.19
413.19	1658.85
413.39	1705.96
413.60	1794.02
413.81	1720.29
414.01	1662.95
414.22	1722.34
414.43	1722.34
414.63	1691.62
414.84	1656.81
415.05	1687.53
415.25	1630.18
415.46	1720.29
415.67	1708.01
415.87	1724.39
416.08	1720.29
416.29	1636.33
416.49	1726.44
416.70	1689.57
416.91	1624.04
417.11	1767.40
417.32	1728.49
417.53	1808.36
417.73	1681.38
417.94	1695.72
418.15	1619.94
418.35	1677.29
418.56	1720.29
418.77	1853.41
418.97	1740.77
419.18	1636.33
419.38	1658.85
419.59	1720.29
419.80	1863.65
420.00	1669.09
420.21	1697.77
420.42	1794.02
420.62	1781.73
420.83	1699.81
421.04	1683.43
421.24	1699.81
421.45	1722.34
421.65	1771.49
421.86	1660.90
422.07	1738.73
422.27	1726.44
422.48	1746.92
422.69	1648.61
422.89	1734.63
423.10	1708.01
423.30	1624.04
423.51	1611.75
423.72	1673.19
423.92	1712.10
424.13	1710.05
424.33	1755.11
424.54	1730.53
424.75	1753.06
424.95	1798.12
425.16	1765.35
425.36	1712.10
425.57	1787.88
425.78	1746.92
425.98	1787.88
426.19	1624.04
426.39	1665.00
426.60	1691.62
426.81	1773.54
427.01	1738.73
427.22	1671.14
427.42	1638.38
427.63	1648.61
427.83	1781.73
428.04	1794.02
428.25	1820.64
428.45	1773.54
428.66	1798.12
428.86	1716.20
429.07	1716.20
429.28	1697.77
429.48	1697.77
429.69	1677.29
429.89	1755.11
430.10	1632.23
430.30	1849.32
430.51	1730.53
430.71	1581.03
430.92	1755.11
431.13	1687.53
431.33	1802.21
431.54	1728.49
431.74	1820.64
431.95	1843.17
432.15	1550.31
432.36	1638.38
432.56	1734.63
432.77	1818.60
432.98	1820.64
433.18	1751.01
433.39	1632.23
433.59	1746.92
433.80	1824.74
434.00	1865.70
434.21	1691.62
434.41	1632.23
434.62	1910.75
434.82	1681.38
435.03	1599.46
435.23	1710.05
435.44	1689.57
435.64	1697.77
435.85	1753.06
436.06	1730.53
436.26	1712.10
436.47	1710.05
436.67	1687.53
436.88	1712.10
437.08	1748.97
437.29	1814.50
437.49	1732.58
437.70	1814.50
437.90	1716.20
438.11	1863.65
438.31	1761.25
438.52	1796.07
438.72	1839.08
438.93	1984.48
439.13	1755.11
439.34	1810.40
439.54	1738.73
439.75	1720.29
439.95	1771.49
440.16	1732.58
440.36	1777.64
440.57	1718.25
440.77	1726.44
440.98	1691.62
441.18	1787.88
441.39	1742.82
441.59	1675.24
441.80	1857.51
442.00	1746.92
442.21	1787.88
442.41	1669.09
442.62	1730.53
442.82	1638.38
443.02	1665.00
443.23	1679.33
443.43	1748.97
443.64	1845.22
443.84	1632.23
444.05	1845.22
444.25	1787.88
444.46	1671.14
444.66	1716.20
444.87	1828.84
445.07	1581.03
445.28	1685.48
445.48	1798.12
445.69	1689.57
445.89	1853.41
446.09	1730.53
446.30	1968.10
446.50	2645.98
446.71	3708.87
446.91	4458.43
447.12	4761.53
447.32	4722.62
447.53	4487.10
447.73	3788.74
447.93	3452.88
448.14	3233.74
448.34	3076.05
448.55	2854.87
448.75	2922.45
448.96	2672.60
449.16	2402.27
449.36	2197.47
449.57	2062.30
449.77	1916.90
449.98	1789.92
450.18	1828.84
450.39	1771.49
450.59	1828.84
450.79	1744.87
451.00	1742.82
451.20	1837.03
451.41	1718.25
451.61	1771.49
451.81	1722.34
452.02	1691.62
452.22	1697.77
452.43	1695.72
452.63	1720.29
