SpectraSuite Data File
++++++++++++++++++++++++++++++++++++
Date: Mon Jun 06 13:41:37 CEST 2016
User: root
Dark Spectrum Present: No
Reference Spectrum Present: No
Number of Sampled Component Spectra: 1
Spectrometers: USB4C02835
Integration Time (usec): 100000 (USB4C02835)
Spectra Averaged: 1 (USB4C02835)
Boxcar Smoothing: 0 (USB4C02835)
Correct for Electrical Dark: No (USB4C02835)
Strobe/Lamp Enabled: No (USB4C02835)
Correct for Detector Non-linearity: No (USB4C02835)
Correct for Stray Light: No (USB4C02835)
Number of Pixels in Processed Spectrum: 3648
>>>>>Begin Processed Spectral Data<<<<<
177.47	1406.95
177.69	1406.95
177.91	1406.95
178.13	1443.82
178.36	1460.20
178.58	1595.37
178.80	1703.91
179.02	1638.38
179.24	1650.66
179.46	1640.42
179.68	1738.73
179.90	1673.19
180.13	1658.85
180.35	1720.29
180.57	1671.14
180.79	1726.44
181.01	1656.81
181.23	1744.87
181.45	1812.45
181.67	1689.57
181.90	1708.01
182.12	1638.38
182.34	1667.05
182.56	1693.67
182.78	1726.44
183.00	1708.01
183.22	1775.59
183.44	1619.94
183.66	1855.46
183.89	1789.92
184.11	1599.46
184.33	1716.20
184.55	1722.34
184.77	1681.38
184.99	1652.71
185.21	1642.47
185.43	1830.88
185.65	1656.81
185.87	1689.57
186.10	1834.98
186.32	1789.92
186.54	1710.05
186.76	1789.92
186.98	1722.34
187.20	1671.14
187.42	1628.14
187.64	1710.05
187.86	1630.18
188.08	1763.30
188.30	1722.34
188.52	1673.19
188.75	1748.97
188.97	1832.93
189.19	1660.90
189.41	1701.86
189.63	1685.48
189.85	1671.14
190.07	1636.33
190.29	1597.42
190.51	1769.44
190.73	1613.80
190.95	1746.92
191.17	1712.10
191.39	1595.37
191.61	1605.61
191.84	1681.38
192.06	1722.34
192.28	1636.33
192.50	1849.32
192.72	1755.11
192.94	1628.14
193.16	1734.63
193.38	1699.81
193.60	1708.01
193.82	1703.91
194.04	1759.21
194.26	1695.72
194.48	1777.64
194.70	1697.77
194.92	1673.19
195.14	1787.88
195.36	1687.53
195.58	1609.70
195.80	1619.94
196.02	1662.95
196.24	1701.86
196.46	1753.06
196.69	1624.04
196.91	1839.08
197.13	1617.90
197.35	1693.67
197.57	1775.59
197.79	1648.61
198.01	1712.10
198.23	1728.49
198.45	1712.10
198.67	1710.05
198.89	1742.82
199.11	1697.77
199.33	1650.66
199.55	1554.41
199.77	1630.18
199.99	1746.92
200.21	1691.62
200.43	1724.39
200.65	1654.76
200.87	1609.70
201.09	1683.43
201.31	1753.06
201.53	1722.34
201.75	1658.85
201.97	1652.71
202.19	1759.21
202.41	1789.92
202.63	1738.73
202.85	1673.19
203.07	1658.85
203.29	1652.71
203.51	1712.10
203.73	1658.85
203.95	1832.93
204.17	1703.91
204.39	1824.74
204.61	1673.19
204.83	1718.25
205.05	1744.87
205.27	1714.15
205.49	1785.83
205.71	1626.09
205.93	1650.66
206.15	1691.62
206.37	1726.44
206.59	1679.33
206.81	1621.99
207.03	1613.80
207.25	1621.99
207.47	1753.06
207.69	1681.38
207.91	1779.68
208.13	1728.49
208.34	1640.42
208.56	1613.80
208.78	1720.29
209.00	1742.82
209.22	1687.53
209.44	1691.62
209.66	1621.99
209.88	1640.42
210.10	1634.28
210.32	1619.94
210.54	1771.49
210.76	1699.81
210.98	1705.96
211.20	1593.32
211.42	1701.86
211.64	1791.97
211.86	1767.40
212.08	1701.86
212.30	1718.25
212.52	1628.14
212.74	1673.19
212.96	1705.96
213.17	1755.11
213.39	1734.63
213.61	1720.29
213.83	1660.90
214.05	1644.52
214.27	1734.63
214.49	1642.47
214.71	1636.33
214.93	1683.43
215.15	1751.01
215.37	1681.38
215.59	1669.09
215.81	1744.87
216.03	1787.88
216.24	1658.85
216.46	1685.48
216.68	1705.96
216.90	1755.11
217.12	1695.72
217.34	1732.58
217.56	1728.49
217.78	1771.49
218.00	1714.15
218.22	1671.14
218.44	1720.29
218.66	1742.82
218.87	1796.07
219.09	1640.42
219.31	1658.85
219.53	1789.92
219.75	1695.72
219.97	1765.35
220.19	1773.54
220.41	1687.53
220.63	1800.16
220.85	1730.53
221.06	1624.04
221.28	1726.44
221.50	1751.01
221.72	1685.48
221.94	1685.48
222.16	1638.38
222.38	1732.58
222.60	1744.87
222.82	1587.18
223.03	1703.91
223.25	1703.91
223.47	1734.63
223.69	1765.35
223.91	1697.77
224.13	1673.19
224.35	1673.19
224.57	1808.36
224.78	1718.25
225.00	1591.27
225.22	1748.97
225.44	1662.95
225.66	1730.53
225.88	1652.71
226.10	1730.53
226.32	1648.61
226.53	1773.54
226.75	1667.05
226.97	1689.57
227.19	1689.57
227.41	1632.23
227.63	1630.18
227.85	1574.89
228.06	1757.16
228.28	1742.82
228.50	1763.30
228.72	1665.00
228.94	1660.90
229.16	1605.61
229.37	1587.18
229.59	1624.04
229.81	1802.21
230.03	1644.52
230.25	1624.04
230.47	1656.81
230.69	1626.09
230.90	1779.68
231.12	1574.89
231.34	1734.63
231.56	1658.85
231.78	1669.09
232.00	1695.72
232.21	1714.15
232.43	1613.80
232.65	1574.89
232.87	1718.25
233.09	1607.66
233.30	1685.48
233.52	1765.35
233.74	1695.72
233.96	1675.24
234.18	1710.05
234.40	1617.90
234.61	1763.30
234.83	1632.23
235.05	1634.28
235.27	1910.75
235.49	1769.44
235.70	1699.81
235.92	1820.64
236.14	1652.71
236.36	1796.07
236.58	1638.38
236.79	1765.35
237.01	1773.54
237.23	1701.86
237.45	1804.26
237.67	1658.85
237.88	1726.44
238.10	1800.16
238.32	1689.57
238.54	1650.66
238.76	1691.62
238.97	1708.01
239.19	1728.49
239.41	1699.81
239.63	1767.40
239.85	1712.10
240.06	1652.71
240.28	1576.94
240.50	1742.82
240.72	1689.57
240.93	1693.67
241.15	1773.54
241.37	1689.57
241.59	1751.01
241.81	1779.68
242.02	1710.05
242.24	1722.34
242.46	1644.52
242.68	1769.44
242.89	1742.82
243.11	1703.91
243.33	1757.16
243.55	1736.68
243.76	1722.34
243.98	1705.96
244.20	1740.77
244.42	1679.33
244.64	1691.62
244.85	1628.14
245.07	1615.85
245.29	1697.77
245.51	1619.94
245.72	1703.91
245.94	1763.30
246.16	1673.19
246.38	1710.05
246.59	1632.23
246.81	1777.64
247.03	1574.89
247.24	1681.38
247.46	1710.05
247.68	1755.11
247.90	1695.72
248.11	1691.62
248.33	1785.83
248.55	1681.38
248.77	1730.53
248.98	1816.55
249.20	1722.34
249.42	1736.68
249.64	1695.72
249.85	1718.25
250.07	1591.27
250.29	1693.67
250.50	1656.81
250.72	1617.90
250.94	1761.25
251.16	1822.69
251.37	1759.21
251.59	1701.86
251.81	1763.30
252.02	1748.97
252.24	1597.42
252.46	1816.55
252.68	1628.14
252.89	1738.73
253.11	1615.85
253.33	1751.01
253.54	1828.84
253.76	1589.22
253.98	1685.48
254.20	1687.53
254.41	1626.09
254.63	1744.87
254.85	1677.29
255.06	1689.57
255.28	1761.25
255.50	1691.62
255.71	1716.20
255.93	1667.05
256.15	1724.39
256.36	1738.73
256.58	1634.28
256.80	1765.35
257.02	1656.81
257.23	1701.86
257.45	1746.92
257.67	1708.01
257.88	1640.42
258.10	1695.72
258.32	1742.82
258.53	1695.72
258.75	1800.16
258.97	1632.23
259.18	1753.06
259.40	1718.25
259.62	1834.98
259.83	1742.82
260.05	1738.73
260.27	1943.52
260.48	1748.97
260.70	1644.52
260.92	1683.43
261.13	1787.88
261.35	1656.81
261.57	1746.92
261.78	1683.43
262.00	1638.38
262.22	1748.97
262.43	1654.76
262.65	1685.48
262.86	1673.19
263.08	1755.11
263.30	1708.01
263.51	1683.43
263.73	1685.48
263.95	1806.31
264.16	1724.39
264.38	1621.99
264.60	1779.68
264.81	1689.57
265.03	1794.02
265.25	1724.39
265.46	1718.25
265.68	1724.39
265.89	1738.73
266.11	1585.13
266.33	1730.53
266.54	1755.11
266.76	1746.92
266.98	1714.15
267.19	1755.11
267.41	1796.07
267.62	1642.47
267.84	1585.13
268.06	1691.62
268.27	1665.00
268.49	1716.20
268.70	1738.73
268.92	1634.28
269.14	1611.75
269.35	1552.36
269.57	1669.09
269.79	1732.58
270.00	1710.05
270.22	1763.30
270.43	1691.62
270.65	1583.08
270.87	1740.77
271.08	1697.77
271.30	1718.25
271.51	1685.48
271.73	1738.73
271.95	1828.84
272.16	1765.35
272.38	1714.15
272.59	1624.04
272.81	1728.49
273.02	1675.24
273.24	1761.25
273.46	1740.77
273.67	1660.90
273.89	1718.25
274.10	1632.23
274.32	1716.20
274.54	1683.43
274.75	1753.06
274.97	1732.58
275.18	1746.92
275.40	1683.43
275.61	1765.35
275.83	1658.85
276.05	1656.81
276.26	1662.95
276.48	1755.11
276.69	1636.33
276.91	1626.09
277.12	1730.53
277.34	1734.63
277.55	1753.06
277.77	1691.62
277.99	1681.38
278.20	1589.22
278.42	1640.42
278.63	1660.90
278.85	1658.85
279.06	1640.42
279.28	1703.91
279.49	1716.20
279.71	1828.84
279.93	1687.53
280.14	1675.24
280.36	1640.42
280.57	1730.53
280.79	1738.73
281.00	1681.38
281.22	1581.03
281.43	1751.01
281.65	1554.41
281.86	1746.92
282.08	1734.63
282.29	1806.31
282.51	1609.70
282.73	1710.05
282.94	1513.45
283.16	1748.97
283.37	1714.15
283.59	1605.61
283.80	1685.48
284.02	1624.04
284.23	1662.95
284.45	1634.28
284.66	1626.09
284.88	1708.01
285.09	1667.05
285.31	1712.10
285.52	1701.86
285.74	1578.98
285.95	1695.72
286.17	1656.81
286.38	1701.86
286.60	1691.62
286.81	1644.52
287.03	1699.81
287.24	1701.86
287.46	1701.86
287.67	1759.21
287.89	1781.73
288.10	1660.90
288.32	1681.38
288.53	1744.87
288.75	1689.57
288.96	1710.05
289.18	1673.19
289.39	1665.00
289.61	1791.97
289.82	1830.88
290.04	1798.12
290.25	1669.09
290.47	1697.77
290.68	1662.95
290.90	1691.62
291.11	1650.66
291.33	1759.21
291.54	1710.05
291.76	1699.81
291.97	1695.72
292.18	1646.57
292.40	1677.29
292.61	1626.09
292.83	1832.93
293.04	1720.29
293.26	1755.11
293.47	1650.66
293.69	1656.81
293.90	1665.00
294.12	1705.96
294.33	1611.75
294.55	1763.30
294.76	1789.92
294.97	1767.40
295.19	1843.17
295.40	1624.04
295.62	1755.11
295.83	1779.68
296.05	1689.57
296.26	1710.05
296.48	1634.28
296.69	1681.38
296.90	1679.33
297.12	1701.86
297.33	1712.10
297.55	1705.96
297.76	1746.92
297.98	1708.01
298.19	1712.10
298.41	1665.00
298.62	1640.42
298.83	1861.60
299.05	1710.05
299.26	1646.57
299.48	1728.49
299.69	1736.68
299.90	1708.01
300.12	1691.62
300.33	1765.35
300.55	1685.48
300.76	1671.14
300.98	1697.77
301.19	1759.21
301.40	1685.48
301.62	1652.71
301.83	1730.53
302.05	1681.38
302.26	1726.44
302.47	1724.39
302.69	1603.56
302.90	1691.62
303.12	1652.71
303.33	1732.58
303.54	1871.84
303.76	1638.38
303.97	1753.06
304.19	1785.83
304.40	1710.05
304.61	1699.81
304.83	1751.01
305.04	1767.40
305.26	1734.63
305.47	1624.04
305.68	1646.57
305.90	1646.57
306.11	1789.92
306.33	1660.90
306.54	1660.90
306.75	1669.09
306.97	1656.81
307.18	1644.52
307.39	1691.62
307.61	1662.95
307.82	1716.20
308.04	1742.82
308.25	1736.68
308.46	1755.11
308.68	1693.67
308.89	1687.53
309.10	1734.63
309.32	1695.72
309.53	1708.01
309.74	1677.29
309.96	1591.27
310.17	1802.21
310.39	1693.67
310.60	1740.77
310.81	1685.48
311.03	1667.05
311.24	1712.10
311.45	1732.58
311.67	1841.12
311.88	1751.01
312.09	1714.15
312.31	1726.44
312.52	1675.24
312.73	1685.48
312.95	1755.11
313.16	1697.77
313.37	1748.97
313.59	1755.11
313.80	1763.30
314.01	1789.92
314.23	1722.34
314.44	1615.85
314.65	1689.57
314.87	1658.85
315.08	1705.96
315.29	1724.39
315.51	1650.66
315.72	1691.62
315.93	1814.50
316.15	1798.12
316.36	1632.23
316.57	1730.53
316.79	1742.82
317.00	1665.00
317.21	1720.29
317.43	1683.43
317.64	1734.63
317.85	1699.81
318.07	1603.56
318.28	1724.39
318.49	1785.83
318.70	1914.85
318.92	1800.16
319.13	1865.70
319.34	1918.95
319.56	1841.12
319.77	1783.78
319.98	1757.16
320.20	1759.21
320.41	1705.96
320.62	1769.44
320.83	1648.61
321.05	1814.50
321.26	1740.77
321.47	1652.71
321.69	1771.49
321.90	1658.85
322.11	1685.48
322.32	1746.92
322.54	1808.36
322.75	1693.67
322.96	1771.49
323.18	1609.70
323.39	1689.57
323.60	1615.85
323.81	1757.16
324.03	1751.01
324.24	1681.38
324.45	1705.96
324.66	1648.61
324.88	1738.73
325.09	1746.92
325.30	1746.92
325.52	1789.92
325.73	1685.48
325.94	1628.14
326.15	1574.89
326.37	1626.09
326.58	1751.01
326.79	1755.11
327.00	1624.04
327.22	1710.05
327.43	1687.53
327.64	1630.18
327.85	1724.39
328.07	1742.82
328.28	1775.59
328.49	1685.48
328.70	1601.51
328.92	1673.19
329.13	1675.24
329.34	1683.43
329.55	1789.92
329.76	1714.15
329.98	1681.38
330.19	1806.31
330.40	1800.16
330.61	1720.29
330.83	1738.73
331.04	1675.24
331.25	1669.09
331.46	1632.23
331.68	1665.00
331.89	1802.21
332.10	1691.62
332.31	1665.00
332.52	1722.34
332.74	1861.60
332.95	1665.00
333.16	1726.44
333.37	1744.87
333.58	1636.33
333.80	1695.72
334.01	1650.66
334.22	1644.52
334.43	1701.86
334.64	1699.81
334.86	1601.51
335.07	1634.28
335.28	1730.53
335.49	1689.57
335.70	1744.87
335.92	1775.59
336.13	1843.17
336.34	1671.14
336.55	1652.71
336.76	1658.85
336.98	1626.09
337.19	1734.63
337.40	1796.07
337.61	1839.08
337.82	1722.34
338.04	1763.30
338.25	1609.70
338.46	1730.53
338.67	1628.14
338.88	1689.57
339.09	1624.04
339.31	1734.63
339.52	1601.51
339.73	1523.69
339.94	1734.63
340.15	1714.15
340.36	1693.67
340.58	1751.01
340.79	1662.95
341.00	1724.39
341.21	1669.09
341.42	1837.03
341.63	1687.53
341.85	1763.30
342.06	1671.14
342.27	1628.14
342.48	1693.67
342.69	1611.75
342.90	1697.77
343.12	1779.68
343.33	1665.00
343.54	1722.34
343.75	1802.21
343.96	1783.78
344.17	1701.86
344.38	1677.29
344.60	1624.04
344.81	1689.57
345.02	1681.38
345.23	1724.39
345.44	1763.30
345.65	1705.96
345.86	1699.81
346.07	1755.11
346.29	1726.44
346.50	1662.95
346.71	1673.19
346.92	1796.07
347.13	1763.30
347.34	1673.19
347.55	1730.53
347.76	1675.24
347.98	1603.56
348.19	1665.00
348.40	1748.97
348.61	1675.24
348.82	1765.35
349.03	1804.26
349.24	1665.00
349.45	1800.16
349.66	1587.18
349.88	1665.00
350.09	1646.57
350.30	1730.53
350.51	1826.79
350.72	1675.24
350.93	1708.01
351.14	1683.43
351.35	1742.82
351.56	1699.81
351.77	1730.53
351.99	1697.77
352.20	1744.87
352.41	1738.73
352.62	1603.56
352.83	1636.33
353.04	1689.57
353.25	1697.77
353.46	1804.26
353.67	1771.49
353.88	1572.84
354.09	1767.40
354.30	1685.48
354.52	1710.05
354.73	1605.61
354.94	1728.49
355.15	1685.48
355.36	1765.35
355.57	1615.85
355.78	1619.94
355.99	1648.61
356.20	1705.96
356.41	1789.92
356.62	1804.26
356.83	1673.19
357.04	1781.73
357.25	1658.85
357.46	1701.86
357.68	1519.59
357.89	1658.85
358.10	1679.33
358.31	1656.81
358.52	1712.10
358.73	1667.05
358.94	1689.57
359.15	1691.62
359.36	1740.77
359.57	1726.44
359.78	1710.05
359.99	1822.69
360.20	1630.18
360.41	1665.00
360.62	1705.96
360.83	1624.04
361.04	1736.68
361.25	1689.57
361.46	1779.68
361.67	1697.77
361.88	1710.05
362.09	1775.59
362.30	1677.29
362.51	1703.91
362.72	1697.77
362.93	1798.12
363.14	1755.11
363.35	1720.29
363.56	1689.57
363.78	1740.77
363.99	1730.53
364.20	1781.73
364.41	1712.10
364.62	1818.60
364.83	1730.53
365.04	1710.05
365.25	1677.29
365.46	1828.84
365.67	1673.19
365.88	1613.80
366.09	1701.86
366.30	1693.67
366.51	1619.94
366.72	1675.24
366.93	1665.00
367.14	1734.63
367.35	1798.12
367.56	1695.72
367.77	1841.12
367.98	1671.14
368.18	1724.39
368.39	1775.59
368.60	1751.01
368.81	1744.87
369.02	1791.97
369.23	1605.61
369.44	1619.94
369.65	1642.47
369.86	1730.53
370.07	1724.39
370.28	1734.63
370.49	1746.92
370.70	1724.39
370.91	1619.94
371.12	1665.00
371.33	1740.77
371.54	1638.38
371.75	1796.07
371.96	1613.80
372.17	1675.24
372.38	1767.40
372.59	1726.44
372.80	1626.09
373.01	1695.72
373.22	1761.25
373.43	1701.86
373.64	1630.18
373.85	1783.78
374.06	1738.73
374.26	1783.78
374.47	1777.64
374.68	1744.87
374.89	1662.95
375.10	1669.09
375.31	1802.21
375.52	1728.49
375.73	1699.81
375.94	1689.57
376.15	1816.55
376.36	1654.76
376.57	1617.90
376.78	1650.66
376.99	1716.20
377.20	1751.01
377.40	1646.57
377.61	1787.88
377.82	1636.33
378.03	1822.69
378.24	1775.59
378.45	1751.01
378.66	1761.25
378.87	1595.37
379.08	1628.14
379.29	1615.85
379.50	1769.44
379.71	1650.66
379.91	1810.40
380.12	1701.86
380.33	1722.34
380.54	1667.05
380.75	1628.14
380.96	1687.53
381.17	1720.29
381.38	1683.43
381.59	1765.35
381.80	1726.44
382.00	1796.07
382.21	1667.05
382.42	1832.93
382.63	1920.99
382.84	1865.70
383.05	1751.01
383.26	1771.49
383.47	1703.91
383.68	1724.39
383.88	1763.30
384.09	1789.92
384.30	1812.45
384.51	1730.53
384.72	1681.38
384.93	1607.66
385.14	1681.38
385.35	1667.05
385.55	1617.90
385.76	1746.92
385.97	1624.04
386.18	1638.38
386.39	1650.66
386.60	1634.28
386.81	1669.09
387.02	1648.61
387.22	1624.04
387.43	1730.53
387.64	1755.11
387.85	1884.13
388.06	2226.14
388.27	4276.16
388.48	6856.60
388.68	8314.75
388.89	9842.54
389.10	9992.04
389.31	8626.04
389.52	7778.19
389.73	6748.06
389.93	6465.44
390.14	5834.66
390.35	5273.52
390.56	4634.55
390.77	3788.74
390.98	3078.10
391.18	2523.10
391.39	2068.45
391.60	1865.70
391.81	1828.84
392.02	1699.81
392.23	1849.32
392.43	1710.05
392.64	1798.12
392.85	1683.43
393.06	1767.40
393.27	1738.73
393.47	1638.38
393.68	1763.30
393.89	1638.38
394.10	1751.01
394.31	1755.11
394.52	1677.29
394.72	1673.19
394.93	1791.97
395.14	1665.00
395.35	1730.53
395.56	1662.95
395.76	1767.40
395.97	1753.06
396.18	1818.60
396.39	1814.50
396.60	2090.98
396.80	1871.84
397.01	1767.40
397.22	1767.40
397.43	1814.50
397.64	1767.40
397.84	1771.49
398.05	1851.36
398.26	1722.34
398.47	1748.97
398.67	1699.81
398.88	1820.64
399.09	1746.92
399.30	1615.85
399.51	1777.64
399.71	1687.53
399.92	1775.59
400.13	1691.62
400.34	1683.43
400.54	1703.91
400.75	1757.16
400.96	1710.05
401.17	1822.69
401.37	1654.76
401.58	1673.19
401.79	1759.21
402.00	1853.41
402.21	1980.39
402.41	1961.95
402.62	1964.00
402.83	2025.44
403.04	1949.67
403.24	2027.49
403.45	1865.70
403.66	1902.56
403.87	1867.75
404.07	1920.99
404.28	1916.90
404.49	1904.61
404.70	1746.92
404.90	1791.97
405.11	1740.77
405.32	1740.77
405.52	1654.76
405.73	1667.05
405.94	1679.33
406.15	1767.40
406.35	1734.63
406.56	1730.53
406.77	1722.34
406.98	1738.73
407.18	1652.71
407.39	1796.07
407.60	1728.49
407.80	1755.11
408.01	1660.90
408.22	1712.10
408.43	1716.20
408.63	1724.39
408.84	1695.72
409.05	1751.01
409.25	1720.29
409.46	1630.18
409.67	1636.33
409.88	1677.29
410.08	1718.25
410.29	1646.57
410.50	1759.21
410.70	1767.40
410.91	1583.08
411.12	1675.24
411.32	1689.57
411.53	1636.33
411.74	1759.21
411.95	1742.82
412.15	1730.53
412.36	1710.05
412.57	1759.21
412.77	1765.35
412.98	1703.91
413.19	1730.53
413.39	1759.21
413.60	1771.49
413.81	1777.64
414.01	1746.92
414.22	1730.53
414.43	1679.33
414.63	1691.62
414.84	1710.05
415.05	1701.86
415.25	1617.90
415.46	1742.82
415.67	1667.05
415.87	1687.53
416.08	1722.34
416.29	1681.38
416.49	1755.11
416.70	1693.67
416.91	1662.95
417.11	1652.71
417.32	1716.20
417.53	1742.82
417.73	1757.16
417.94	1712.10
418.15	1656.81
418.35	1699.81
418.56	1701.86
418.77	1812.45
418.97	1708.01
419.18	1712.10
419.38	1542.12
419.59	1712.10
419.80	1787.88
420.00	1662.95
420.21	1732.58
420.42	1789.92
420.62	1742.82
420.83	1617.90
421.04	1699.81
421.24	1671.14
421.45	1716.20
421.65	1710.05
421.86	1708.01
422.07	1802.21
422.27	1736.68
422.48	1630.18
422.69	1675.24
422.89	1677.29
423.10	1673.19
423.30	1662.95
423.51	1712.10
423.72	1687.53
423.92	1742.82
424.13	1591.27
424.33	1677.29
424.54	1791.97
424.75	1726.44
424.95	1777.64
425.16	1738.73
425.36	1720.29
425.57	1828.84
425.78	1771.49
425.98	1722.34
426.19	1716.20
426.39	1566.70
426.60	1734.63
426.81	1826.79
427.01	1740.77
427.22	1685.48
427.42	1648.61
427.63	1677.29
427.83	1693.67
428.04	1802.21
428.25	1734.63
428.45	1728.49
428.66	1724.39
428.86	1693.67
429.07	1669.09
429.28	1693.67
429.48	1638.38
429.69	1681.38
429.89	1730.53
430.10	1726.44
430.30	1763.30
430.51	1718.25
430.71	1644.52
430.92	1699.81
431.13	1652.71
431.33	1755.11
431.54	1777.64
431.74	1804.26
431.95	1812.45
432.15	1751.01
432.36	1769.44
432.56	1712.10
432.77	1730.53
432.98	1753.06
433.18	1683.43
433.39	1732.58
433.59	1673.19
433.80	1834.98
434.00	1814.50
434.21	1681.38
434.41	1683.43
434.62	1923.04
434.82	1708.01
435.03	1654.76
435.23	1744.87
435.44	1621.99
435.64	1673.19
435.85	1722.34
436.06	1769.44
436.26	1714.15
436.47	1728.49
436.67	1742.82
436.88	1697.77
437.08	1777.64
437.29	1834.98
437.49	1724.39
437.70	1789.92
437.90	1681.38
438.11	1931.23
438.31	1771.49
438.52	1886.18
438.72	1841.12
438.93	1923.04
439.13	1828.84
439.34	1884.13
439.54	1730.53
439.75	1812.45
439.95	1736.68
440.16	1716.20
440.36	1746.92
440.57	1814.50
440.77	1710.05
440.98	1720.29
441.18	1800.16
441.39	1724.39
441.59	1720.29
441.80	1804.26
442.00	1697.77
442.21	1800.16
442.41	1683.43
442.62	1763.30
442.82	1697.77
443.02	1718.25
443.23	1736.68
443.43	1671.14
443.64	1748.97
443.84	1662.95
444.05	1732.58
444.25	1691.62
444.46	1673.19
444.66	1716.20
444.87	1796.07
445.07	1626.09
445.28	1714.15
445.48	1828.84
445.69	1830.88
445.89	1834.98
446.09	1777.64
446.30	1968.10
446.50	2641.88
446.71	3782.60
446.91	4405.18
447.12	4818.87
447.32	4925.36
447.53	4241.34
447.73	3776.45
447.93	3542.99
448.14	3334.09
448.34	3278.80
448.55	2904.02
448.75	2865.11
448.96	2676.70
449.16	2365.40
449.36	2344.92
449.57	2109.41
449.77	1906.66
449.98	1812.45
450.18	1808.36
450.39	1796.07
450.59	1781.73
450.79	1742.82
451.00	1681.38
451.20	1787.88
451.41	1693.67
451.61	1732.58
451.81	1701.86
452.02	1738.73
452.22	1726.44
452.43	1656.81
452.63	1699.81
