SpectraSuite Data File
++++++++++++++++++++++++++++++++++++
Date: Mon Jun 06 16:34:57 CEST 2016
User: root
Dark Spectrum Present: No
Reference Spectrum Present: No
Number of Sampled Component Spectra: 1
Spectrometers: USB4C02835
Integration Time (usec): 100000 (USB4C02835)
Spectra Averaged: 1 (USB4C02835)
Boxcar Smoothing: 0 (USB4C02835)
Correct for Electrical Dark: No (USB4C02835)
Strobe/Lamp Enabled: No (USB4C02835)
Correct for Detector Non-linearity: No (USB4C02835)
Correct for Stray Light: No (USB4C02835)
Number of Pixels in Processed Spectrum: 3648
>>>>>Begin Processed Spectral Data<<<<<
177.47	1460.20
177.69	1460.20
177.91	1460.20
178.13	1452.01
178.36	1542.12
178.58	1636.33
178.80	1761.25
179.02	1605.61
179.24	1685.48
179.46	1634.28
179.68	1748.97
179.90	1679.33
180.13	1738.73
180.35	1691.62
180.57	1697.77
180.79	1779.68
181.01	1650.66
181.23	1771.49
181.45	1708.01
181.67	1667.05
181.90	1732.58
182.12	1677.29
182.34	1615.85
182.56	1746.92
182.78	1767.40
183.00	1695.72
183.22	1802.21
183.44	1607.66
183.66	1873.89
183.89	1800.16
184.11	1611.75
184.33	1726.44
184.55	1720.29
184.77	1738.73
184.99	1718.25
185.21	1720.29
185.43	1798.12
185.65	1671.14
185.87	1710.05
186.10	1794.02
186.32	1759.21
186.54	1687.53
186.76	1732.58
186.98	1800.16
187.20	1697.77
187.42	1642.47
187.64	1726.44
187.86	1789.92
188.08	1832.93
188.30	1603.56
188.52	1669.09
188.75	1724.39
188.97	1820.64
189.19	1628.14
189.41	1705.96
189.63	1687.53
189.85	1667.05
190.07	1630.18
190.29	1585.13
190.51	1796.07
190.73	1628.14
190.95	1843.17
191.17	1730.53
191.39	1583.08
191.61	1722.34
191.84	1744.87
192.06	1744.87
192.28	1628.14
192.50	1947.62
192.72	1718.25
192.94	1736.68
193.16	1734.63
193.38	1789.92
193.60	1710.05
193.82	1705.96
194.04	1757.16
194.26	1671.14
194.48	1730.53
194.70	1644.52
194.92	1679.33
195.14	1804.26
195.36	1687.53
195.58	1755.11
195.80	1693.67
196.02	1699.81
196.24	1634.28
196.46	1699.81
196.69	1716.20
196.91	1837.03
197.13	1718.25
197.35	1726.44
197.57	1853.41
197.79	1736.68
198.01	1722.34
198.23	1730.53
198.45	1763.30
198.67	1677.29
198.89	1724.39
199.11	1718.25
199.33	1632.23
199.55	1621.99
199.77	1765.35
199.99	1763.30
200.21	1685.48
200.43	1742.82
200.65	1677.29
200.87	1617.90
201.09	1685.48
201.31	1687.53
201.53	1802.21
201.75	1738.73
201.97	1671.14
202.19	1734.63
202.41	1681.38
202.63	1802.21
202.85	1773.54
203.07	1730.53
203.29	1673.19
203.51	1693.67
203.73	1624.04
203.95	1865.70
204.17	1689.57
204.39	1644.52
204.61	1619.94
204.83	1626.09
205.05	1757.16
205.27	1755.11
205.49	1773.54
205.71	1660.90
205.93	1566.70
206.15	1722.34
206.37	1742.82
206.59	1691.62
206.81	1611.75
207.03	1613.80
207.25	1640.42
207.47	1738.73
207.69	1652.71
207.91	1665.00
208.13	1783.78
208.34	1675.24
208.56	1681.38
208.78	1773.54
209.00	1781.73
209.22	1718.25
209.44	1691.62
209.66	1628.14
209.88	1730.53
210.10	1658.85
210.32	1662.95
210.54	1787.88
210.76	1732.58
210.98	1699.81
211.20	1538.02
211.42	1703.91
211.64	1740.77
211.86	1722.34
212.08	1722.34
212.30	1787.88
212.52	1728.49
212.74	1734.63
212.96	1746.92
213.17	1751.01
213.39	1751.01
213.61	1761.25
213.83	1718.25
214.05	1695.72
214.27	1814.50
214.49	1593.32
214.71	1689.57
214.93	1767.40
215.15	1746.92
215.37	1753.06
215.59	1626.09
215.81	1779.68
216.03	1773.54
216.24	1777.64
216.46	1726.44
216.68	1673.19
216.90	1775.59
217.12	1820.64
217.34	1710.05
217.56	1714.15
217.78	1906.66
218.00	1773.54
218.22	1742.82
218.44	1689.57
218.66	1796.07
218.87	1683.43
219.09	1697.77
219.31	1753.06
219.53	1703.91
219.75	1632.23
219.97	1724.39
220.19	1665.00
220.41	1738.73
220.63	1785.83
220.85	1759.21
221.06	1667.05
221.28	1759.21
221.50	1748.97
221.72	1746.92
221.94	1689.57
222.16	1724.39
222.38	1728.49
222.60	1751.01
222.82	1748.97
223.03	1751.01
223.25	1697.77
223.47	1732.58
223.69	1820.64
223.91	1798.12
224.13	1626.09
224.35	1665.00
224.57	1779.68
224.78	1681.38
225.00	1738.73
225.22	1705.96
225.44	1738.73
225.66	1761.25
225.88	1697.77
226.10	1818.60
226.32	1673.19
226.53	1748.97
226.75	1683.43
226.97	1695.72
227.19	1761.25
227.41	1751.01
227.63	1705.96
227.85	1703.91
228.06	1665.00
228.28	1720.29
228.50	1740.77
228.72	1677.29
228.94	1644.52
229.16	1624.04
229.37	1595.37
229.59	1699.81
229.81	1796.07
230.03	1656.81
230.25	1667.05
230.47	1587.18
230.69	1630.18
230.90	1716.20
231.12	1689.57
231.34	1693.67
231.56	1777.64
231.78	1669.09
232.00	1697.77
232.21	1669.09
232.43	1708.01
232.65	1689.57
232.87	1714.15
233.09	1695.72
233.30	1677.29
233.52	1738.73
233.74	1691.62
233.96	1718.25
234.18	1757.16
234.40	1681.38
234.61	1806.31
234.83	1650.66
235.05	1701.86
235.27	1810.40
235.49	1796.07
235.70	1722.34
235.92	1796.07
236.14	1763.30
236.36	1834.98
236.58	1628.14
236.79	1773.54
237.01	1677.29
237.23	1656.81
237.45	1886.18
237.67	1669.09
237.88	1716.20
238.10	1822.69
238.32	1613.80
238.54	1781.73
238.76	1710.05
238.97	1679.33
239.19	1708.01
239.41	1791.97
239.63	1804.26
239.85	1726.44
240.06	1730.53
240.28	1718.25
240.50	1724.39
240.72	1667.05
240.93	1611.75
241.15	1742.82
241.37	1695.72
241.59	1808.36
241.81	1734.63
242.02	1755.11
242.24	1720.29
242.46	1789.92
242.68	1681.38
242.89	1669.09
243.11	1800.16
243.33	1656.81
243.55	1746.92
243.76	1738.73
243.98	1718.25
244.20	1757.16
244.42	1748.97
244.64	1671.14
244.85	1646.57
245.07	1687.53
245.29	1765.35
245.51	1767.40
245.72	1748.97
245.94	1800.16
246.16	1761.25
246.38	1751.01
246.59	1638.38
246.81	1689.57
247.03	1660.90
247.24	1583.08
247.46	1621.99
247.68	1728.49
247.90	1699.81
248.11	1662.95
248.33	1736.68
248.55	1736.68
248.77	1701.86
248.98	1789.92
249.20	1800.16
249.42	1705.96
249.64	1771.49
249.85	1728.49
250.07	1621.99
250.29	1734.63
250.50	1695.72
250.72	1667.05
250.94	1697.77
251.16	1759.21
251.37	1826.79
251.59	1755.11
251.81	1724.39
252.02	1789.92
252.24	1785.83
252.46	1763.30
252.68	1660.90
252.89	1650.66
253.11	1644.52
253.33	1820.64
253.54	1763.30
253.76	1665.00
253.98	1683.43
254.20	1708.01
254.41	1701.86
254.63	1685.48
254.85	1687.53
255.06	1646.57
255.28	1714.15
255.50	1732.58
255.71	1744.87
255.93	1570.79
256.15	1714.15
256.36	1718.25
256.58	1722.34
256.80	1744.87
257.02	1693.67
257.23	1693.67
257.45	1753.06
257.67	1714.15
257.88	1681.38
258.10	1677.29
258.32	1660.90
258.53	1701.86
258.75	1746.92
258.97	1628.14
259.18	1669.09
259.40	1730.53
259.62	1787.88
259.83	1734.63
260.05	1705.96
260.27	1988.58
260.48	1781.73
260.70	1611.75
260.92	1720.29
261.13	1726.44
261.35	1767.40
261.57	1718.25
261.78	1607.66
262.00	1685.48
262.22	1755.11
262.43	1636.33
262.65	1730.53
262.86	1693.67
263.08	1851.36
263.30	1785.83
263.51	1599.46
263.73	1734.63
263.95	1726.44
264.16	1714.15
264.38	1652.71
264.60	1800.16
264.81	1677.29
265.03	1705.96
265.25	1738.73
265.46	1632.23
265.68	1726.44
265.89	1691.62
266.11	1693.67
266.33	1685.48
266.54	1837.03
266.76	1677.29
266.98	1746.92
267.19	1787.88
267.41	1796.07
267.62	1673.19
267.84	1583.08
268.06	1738.73
268.27	1771.49
268.49	1785.83
268.70	1779.68
268.92	1687.53
269.14	1683.43
269.35	1609.70
269.57	1738.73
269.79	1757.16
270.00	1683.43
270.22	1732.58
270.43	1681.38
270.65	1626.09
270.87	1787.88
271.08	1740.77
271.30	1794.02
271.51	1714.15
271.73	1712.10
271.95	1779.68
272.16	1726.44
272.38	1708.01
272.59	1724.39
272.81	1720.29
273.02	1804.26
273.24	1796.07
273.46	1712.10
273.67	1701.86
273.89	1599.46
274.10	1710.05
274.32	1691.62
274.54	1701.86
274.75	1769.44
274.97	1673.19
275.18	1853.41
275.40	1804.26
275.61	1710.05
275.83	1759.21
276.05	1607.66
276.26	1640.42
276.48	1705.96
276.69	1697.77
276.91	1710.05
277.12	1796.07
277.34	1765.35
277.55	1798.12
277.77	1714.15
277.99	1701.86
278.20	1673.19
278.42	1699.81
278.63	1658.85
278.85	1720.29
279.06	1572.84
279.28	1728.49
279.49	1804.26
279.71	1800.16
279.93	1638.38
280.14	1705.96
280.36	1693.67
280.57	1826.79
280.79	1738.73
281.00	1695.72
281.22	1656.81
281.43	1777.64
281.65	1593.32
281.86	1681.38
282.08	1806.31
282.29	1794.02
282.51	1665.00
282.73	1660.90
282.94	1617.90
283.16	1748.97
283.37	1843.17
283.59	1660.90
283.80	1771.49
284.02	1689.57
284.23	1767.40
284.45	1699.81
284.66	1683.43
284.88	1712.10
285.09	1804.26
285.31	1740.77
285.52	1759.21
285.74	1681.38
285.95	1720.29
286.17	1705.96
286.38	1794.02
286.60	1650.66
286.81	1759.21
287.03	1689.57
287.24	1710.05
287.46	1658.85
287.67	1767.40
287.89	1761.25
288.10	1662.95
288.32	1726.44
288.53	1800.16
288.75	1685.48
288.96	1730.53
289.18	1697.77
289.39	1742.82
289.61	1708.01
289.82	1759.21
290.04	1804.26
290.25	1595.37
290.47	1646.57
290.68	1763.30
290.90	1724.39
291.11	1705.96
291.33	1787.88
291.54	1646.57
291.76	1595.37
291.97	1804.26
292.18	1722.34
292.40	1662.95
292.61	1667.05
292.83	1837.03
293.04	1759.21
293.26	1693.67
293.47	1740.77
293.69	1609.70
293.90	1660.90
294.12	1777.64
294.33	1714.15
294.55	1656.81
294.76	1787.88
294.97	1808.36
295.19	1849.32
295.40	1701.86
295.62	1771.49
295.83	1730.53
296.05	1656.81
296.26	1765.35
296.48	1632.23
296.69	1701.86
296.90	1689.57
297.12	1710.05
297.33	1810.40
297.55	1679.33
297.76	1751.01
297.98	1791.97
298.19	1705.96
298.41	1589.22
298.62	1673.19
298.83	1791.97
299.05	1722.34
299.26	1650.66
299.48	1687.53
299.69	1687.53
299.90	1716.20
300.12	1693.67
300.33	1675.24
300.55	1728.49
300.76	1714.15
300.98	1693.67
301.19	1746.92
301.40	1718.25
301.62	1675.24
301.83	1712.10
302.05	1746.92
302.26	1701.86
302.47	1767.40
302.69	1673.19
302.90	1751.01
303.12	1601.51
303.33	1724.39
303.54	1808.36
303.76	1701.86
303.97	1806.31
304.19	1816.55
304.40	1673.19
304.61	1820.64
304.83	1761.25
305.04	1753.06
305.26	1751.01
305.47	1646.57
305.68	1675.24
305.90	1665.00
306.11	1820.64
306.33	1646.57
306.54	1761.25
306.75	1722.34
306.97	1609.70
307.18	1744.87
307.39	1656.81
307.61	1771.49
307.82	1619.94
308.04	1730.53
308.25	1667.05
308.46	1685.48
308.68	1730.53
308.89	1740.77
309.10	1800.16
309.32	1705.96
309.53	1734.63
309.74	1722.34
309.96	1568.74
310.17	1804.26
310.39	1640.42
310.60	1789.92
310.81	1712.10
311.03	1603.56
311.24	1765.35
311.45	1710.05
311.67	1763.30
311.88	1689.57
312.09	1660.90
312.31	1591.27
312.52	1722.34
312.73	1695.72
312.95	1691.62
313.16	1669.09
313.37	1816.55
313.59	1730.53
313.80	1734.63
314.01	1757.16
314.23	1691.62
314.44	1593.32
314.65	1656.81
314.87	1687.53
315.08	1714.15
315.29	1697.77
315.51	1552.36
315.72	1626.09
315.93	1761.25
316.15	1759.21
316.36	1636.33
316.57	1736.68
316.79	1708.01
317.00	1687.53
317.21	1724.39
317.43	1660.90
317.64	1662.95
317.85	1640.42
318.07	1685.48
318.28	1800.16
318.49	1791.97
318.70	1941.47
318.92	1828.84
319.13	1767.40
319.34	1896.42
319.56	1798.12
319.77	1771.49
319.98	1800.16
320.20	1744.87
320.41	1759.21
320.62	1736.68
320.83	1650.66
321.05	1857.51
321.26	1624.04
321.47	1794.02
321.69	1753.06
321.90	1617.90
322.11	1732.58
322.32	1779.68
322.54	1789.92
322.75	1798.12
322.96	1880.04
323.18	1650.66
323.39	1560.55
323.60	1675.24
323.81	1716.20
324.03	1714.15
324.24	1746.92
324.45	1718.25
324.66	1738.73
324.88	1763.30
325.09	1779.68
325.30	1660.90
325.52	1640.42
325.73	1757.16
325.94	1716.20
326.15	1591.27
326.37	1693.67
326.58	1753.06
326.79	1822.69
327.00	1671.14
327.22	1685.48
327.43	1728.49
327.64	1636.33
327.85	1730.53
328.07	1779.68
328.28	1837.03
328.49	1691.62
328.70	1669.09
328.92	1718.25
329.13	1755.11
329.34	1759.21
329.55	1771.49
329.76	1820.64
329.98	1648.61
330.19	1757.16
330.40	1726.44
330.61	1746.92
330.83	1826.79
331.04	1689.57
331.25	1714.15
331.46	1695.72
331.68	1669.09
331.89	1794.02
332.10	1695.72
332.31	1701.86
332.52	1712.10
332.74	1808.36
332.95	1587.18
333.16	1595.37
333.37	1734.63
333.58	1718.25
333.80	1769.44
334.01	1578.98
334.22	1703.91
334.43	1665.00
334.64	1679.33
334.86	1658.85
335.07	1699.81
335.28	1818.60
335.49	1640.42
335.70	1675.24
335.92	1796.07
336.13	1843.17
336.34	1718.25
336.55	1708.01
336.76	1746.92
336.98	1632.23
337.19	1730.53
337.40	1800.16
337.61	1882.08
337.82	1636.33
338.04	1765.35
338.25	1665.00
338.46	1714.15
338.67	1687.53
338.88	1683.43
339.09	1669.09
339.31	1665.00
339.52	1667.05
339.73	1726.44
339.94	1705.96
340.15	1847.27
340.36	1640.42
340.58	1720.29
340.79	1640.42
341.00	1746.92
341.21	1755.11
341.42	1824.74
341.63	1720.29
341.85	1734.63
342.06	1728.49
342.27	1636.33
342.48	1722.34
342.69	1656.81
342.90	1753.06
343.12	1802.21
343.33	1683.43
343.54	1798.12
343.75	1781.73
343.96	1689.57
344.17	1640.42
344.38	1734.63
344.60	1658.85
344.81	1566.70
345.02	1628.14
345.23	1818.60
345.44	1796.07
345.65	1796.07
345.86	1705.96
346.07	1650.66
346.29	1656.81
346.50	1744.87
346.71	1710.05
346.92	1712.10
347.13	1816.55
347.34	1621.99
347.55	1785.83
347.76	1718.25
347.98	1697.77
348.19	1708.01
348.40	1785.83
348.61	1675.24
348.82	1798.12
349.03	1796.07
349.24	1648.61
349.45	1796.07
349.66	1648.61
349.88	1736.68
350.09	1773.54
350.30	1722.34
350.51	1738.73
350.72	1703.91
350.93	1740.77
351.14	1705.96
351.35	1748.97
351.56	1701.86
351.77	1740.77
351.99	1724.39
352.20	1808.36
352.41	1787.88
352.62	1697.77
352.83	1730.53
353.04	1621.99
353.25	1724.39
353.46	1744.87
353.67	1728.49
353.88	1609.70
354.09	1742.82
354.30	1662.95
354.52	1753.06
354.73	1677.29
354.94	1626.09
355.15	1738.73
355.36	1820.64
355.57	1689.57
355.78	1810.40
355.99	1624.04
356.20	1673.19
356.41	1839.08
356.62	1763.30
356.83	1824.74
357.04	1687.53
357.25	1634.28
357.46	1671.14
357.68	1714.15
357.89	1740.77
358.10	1689.57
358.31	1738.73
358.52	1742.82
358.73	1646.57
358.94	1681.38
359.15	1691.62
359.36	1775.59
359.57	1740.77
359.78	1671.14
359.99	1748.97
360.20	1681.38
360.41	1681.38
360.62	1722.34
360.83	1681.38
361.04	1751.01
361.25	1744.87
361.46	1712.10
361.67	1708.01
361.88	1787.88
362.09	1693.67
362.30	1667.05
362.51	1679.33
362.72	1724.39
362.93	1748.97
363.14	1681.38
363.35	1720.29
363.56	1654.76
363.78	1822.69
363.99	1820.64
364.20	1691.62
364.41	1710.05
364.62	1771.49
364.83	1726.44
365.04	1705.96
365.25	1751.01
365.46	1816.55
365.67	1732.58
365.88	1636.33
366.09	1689.57
366.30	1683.43
366.51	1736.68
366.72	1689.57
366.93	1738.73
367.14	1767.40
367.35	1849.32
367.56	1759.21
367.77	1771.49
367.98	1728.49
368.18	1689.57
368.39	1753.06
368.60	1607.66
368.81	1705.96
369.02	1753.06
369.23	1697.77
369.44	1642.47
369.65	1679.33
369.86	1724.39
370.07	1748.97
370.28	1638.38
370.49	1677.29
370.70	1771.49
370.91	1724.39
371.12	1607.66
371.33	1791.97
371.54	1683.43
371.75	1853.41
371.96	1603.56
372.17	1773.54
372.38	1779.68
372.59	1730.53
372.80	1675.24
373.01	1693.67
373.22	1689.57
373.43	1714.15
373.64	1665.00
373.85	1812.45
374.06	1802.21
374.26	1738.73
374.47	1728.49
374.68	1712.10
374.89	1804.26
375.10	1679.33
375.31	1771.49
375.52	1689.57
375.73	1699.81
375.94	1638.38
376.15	1804.26
376.36	1730.53
376.57	1636.33
376.78	1718.25
376.99	1656.81
377.20	1783.78
377.40	1665.00
377.61	1734.63
377.82	1693.67
378.03	1783.78
378.24	1705.96
378.45	1740.77
378.66	1761.25
378.87	1609.70
379.08	1669.09
379.29	1669.09
379.50	1728.49
379.71	1714.15
379.91	1796.07
380.12	1669.09
380.33	1648.61
380.54	1687.53
380.75	1613.80
380.96	1634.28
381.17	1779.68
381.38	1728.49
381.59	1769.44
381.80	1816.55
382.00	1853.41
382.21	1701.86
382.42	1871.84
382.63	1937.38
382.84	1796.07
383.05	1757.16
383.26	1773.54
383.47	1724.39
383.68	1705.96
383.88	1699.81
384.09	1769.44
384.30	1802.21
384.51	1726.44
384.72	1648.61
384.93	1677.29
385.14	1730.53
385.35	1763.30
385.55	1650.66
385.76	1755.11
385.97	1732.58
386.18	1638.38
386.39	1624.04
386.60	1763.30
386.81	1714.15
387.02	1679.33
387.22	1662.95
387.43	1771.49
387.64	1794.02
387.85	1914.85
388.06	2193.37
388.27	4251.58
388.48	6817.69
388.68	8376.19
388.89	9637.74
389.10	9742.19
389.31	8513.41
389.52	7620.49
389.73	6649.75
389.93	6270.88
390.14	5765.03
390.35	5201.84
390.56	4667.32
390.77	3868.61
390.98	2901.97
391.18	2504.67
391.39	2250.72
391.60	1800.16
391.81	1744.87
392.02	1744.87
392.23	1814.50
392.43	1777.64
392.64	1771.49
392.85	1730.53
393.06	1818.60
393.27	1740.77
393.47	1718.25
393.68	1712.10
393.89	1767.40
394.10	1753.06
394.31	1742.82
394.52	1640.42
394.72	1710.05
394.93	1796.07
395.14	1646.57
395.35	1757.16
395.56	1646.57
395.76	1705.96
395.97	1705.96
396.18	1808.36
396.39	1900.52
396.60	2050.02
396.80	1820.64
397.01	1834.98
397.22	1802.21
397.43	1853.41
397.64	1763.30
397.84	1804.26
398.05	1873.89
398.26	1724.39
398.47	1839.08
398.67	1837.03
398.88	1726.44
399.09	1812.45
399.30	1689.57
399.51	1732.58
399.71	1605.61
399.92	1607.66
400.13	1718.25
400.34	1728.49
400.54	1638.38
400.75	1804.26
400.96	1728.49
401.17	1845.22
401.37	1748.97
401.58	1667.05
401.79	1718.25
402.00	1884.13
402.21	2013.15
402.41	1945.57
402.62	1984.48
402.83	2058.21
403.04	1984.48
403.24	2078.69
403.45	1871.84
403.66	1945.57
403.87	1839.08
404.07	1955.81
404.28	1959.91
404.49	1820.64
404.70	1726.44
404.90	1740.77
405.11	1777.64
405.32	1722.34
405.52	1613.80
405.73	1669.09
405.94	1691.62
406.15	1644.52
406.35	1673.19
406.56	1804.26
406.77	1791.97
406.98	1712.10
407.18	1572.84
407.39	1767.40
407.60	1687.53
407.80	1695.72
408.01	1667.05
408.22	1701.86
408.43	1677.29
408.63	1714.15
408.84	1773.54
409.05	1775.59
409.25	1648.61
409.46	1640.42
409.67	1683.43
409.88	1738.73
410.08	1763.30
410.29	1679.33
410.50	1738.73
410.70	1685.48
410.91	1685.48
411.12	1679.33
411.32	1791.97
411.53	1632.23
411.74	1781.73
411.95	1712.10
412.15	1724.39
412.36	1794.02
412.57	1785.83
412.77	1816.55
412.98	1662.95
413.19	1650.66
413.39	1787.88
413.60	1775.59
413.81	1859.56
414.01	1658.85
414.22	1732.58
414.43	1748.97
414.63	1632.23
414.84	1751.01
415.05	1703.91
415.25	1699.81
415.46	1841.12
415.67	1730.53
415.87	1800.16
416.08	1705.96
416.29	1728.49
416.49	1740.77
416.70	1695.72
416.91	1671.14
417.11	1763.30
417.32	1787.88
417.53	1759.21
417.73	1748.97
417.94	1693.67
418.15	1732.58
418.35	1689.57
418.56	1728.49
418.77	1828.84
418.97	1574.89
419.18	1777.64
419.38	1656.81
419.59	1718.25
419.80	1837.03
420.00	1689.57
420.21	1722.34
420.42	1783.78
420.62	1689.57
420.83	1648.61
421.04	1718.25
421.24	1681.38
421.45	1802.21
421.65	1671.14
421.86	1695.72
422.07	1748.97
422.27	1693.67
422.48	1759.21
422.69	1642.47
422.89	1751.01
423.10	1730.53
423.30	1593.32
423.51	1798.12
423.72	1828.84
423.92	1796.07
424.13	1751.01
424.33	1720.29
424.54	1771.49
424.75	1683.43
424.95	1841.12
425.16	1705.96
425.36	1728.49
425.57	1804.26
425.78	1714.15
425.98	1804.26
426.19	1675.24
426.39	1644.52
426.60	1708.01
426.81	1855.46
427.01	1656.81
427.22	1738.73
427.42	1613.80
427.63	1660.90
427.83	1726.44
428.04	1828.84
428.25	1789.92
428.45	1689.57
428.66	1806.31
428.86	1724.39
429.07	1744.87
429.28	1730.53
429.48	1710.05
429.69	1740.77
429.89	1718.25
430.10	1626.09
430.30	1748.97
430.51	1789.92
430.71	1716.20
430.92	1736.68
431.13	1705.96
431.33	1798.12
431.54	1755.11
431.74	1798.12
431.95	1730.53
432.15	1699.81
432.36	1746.92
432.56	1728.49
432.77	1808.36
432.98	1863.65
433.18	1701.86
433.39	1732.58
433.59	1654.76
433.80	1812.45
434.00	1888.23
434.21	1699.81
434.41	1675.24
434.62	1822.69
434.82	1673.19
435.03	1689.57
435.23	1779.68
435.44	1591.27
435.64	1742.82
435.85	1734.63
436.06	1734.63
436.26	1800.16
436.47	1720.29
436.67	1621.99
436.88	1730.53
437.08	1677.29
437.29	1834.98
437.49	1781.73
437.70	1791.97
437.90	1710.05
438.11	1904.61
438.31	1818.60
438.52	1849.32
438.72	1859.56
438.93	1925.09
439.13	1730.53
439.34	1810.40
439.54	1789.92
439.75	1810.40
439.95	1816.55
440.16	1695.72
440.36	1773.54
440.57	1849.32
440.77	1761.25
440.98	1697.77
441.18	1705.96
441.39	1714.15
441.59	1691.62
441.80	1877.99
442.00	1710.05
442.21	1789.92
442.41	1697.77
442.62	1738.73
442.82	1748.97
443.02	1712.10
443.23	1781.73
443.43	1693.67
443.64	1791.97
443.84	1738.73
444.05	1789.92
444.25	1675.24
444.46	1734.63
444.66	1738.73
444.87	1824.74
445.07	1613.80
445.28	1726.44
445.48	1804.26
445.69	1763.30
445.89	1894.37
446.09	1757.16
446.30	1994.72
446.50	2625.50
446.71	3725.26
446.91	4376.51
447.12	4906.93
447.32	4798.39
447.53	4366.27
447.73	3852.23
447.93	3456.97
448.14	3256.27
448.34	3221.45
448.55	2906.07
448.75	2893.78
448.96	2688.98
449.16	2375.64
449.36	2281.44
449.57	2045.92
449.77	1896.42
449.98	1779.68
450.18	1789.92
450.39	1857.51
450.59	1697.77
450.79	1718.25
451.00	1724.39
451.20	1806.31
451.41	1789.92
451.61	1753.06
451.81	1779.68
452.02	1843.17
452.22	1722.34
452.43	1769.44
452.63	1712.10
