SpectraSuite Data File
++++++++++++++++++++++++++++++++++++
Date: Mon Jun 06 15:49:17 CEST 2016
User: root
Dark Spectrum Present: No
Reference Spectrum Present: No
Number of Sampled Component Spectra: 1
Spectrometers: USB4C02835
Integration Time (usec): 100000 (USB4C02835)
Spectra Averaged: 1 (USB4C02835)
Boxcar Smoothing: 0 (USB4C02835)
Correct for Electrical Dark: No (USB4C02835)
Strobe/Lamp Enabled: No (USB4C02835)
Correct for Detector Non-linearity: No (USB4C02835)
Correct for Stray Light: No (USB4C02835)
Number of Pixels in Processed Spectrum: 3648
>>>>>Begin Processed Spectral Data<<<<<
177.47	1454.06
177.69	1454.06
177.91	1454.06
178.13	1429.48
178.36	1505.26
178.58	1683.43
178.80	1759.21
179.02	1632.23
179.24	1628.14
179.46	1693.67
179.68	1730.53
179.90	1740.77
180.13	1730.53
180.35	1697.77
180.57	1630.18
180.79	1794.02
181.01	1671.14
181.23	1755.11
181.45	1751.01
181.67	1785.83
181.90	1789.92
182.12	1658.85
182.34	1624.04
182.56	1712.10
182.78	1779.68
183.00	1699.81
183.22	1742.82
183.44	1673.19
183.66	1871.84
183.89	1796.07
184.11	1675.24
184.33	1726.44
184.55	1867.75
184.77	1730.53
184.99	1726.44
185.21	1640.42
185.43	1892.32
185.65	1710.05
185.87	1708.01
186.10	1820.64
186.32	1912.80
186.54	1748.97
186.76	1796.07
186.98	1794.02
187.20	1699.81
187.42	1689.57
187.64	1751.01
187.86	1728.49
188.08	1744.87
188.30	1705.96
188.52	1681.38
188.75	1740.77
188.97	1853.41
189.19	1687.53
189.41	1714.15
189.63	1779.68
189.85	1683.43
190.07	1640.42
190.29	1636.33
190.51	1763.30
190.73	1634.28
190.95	1841.12
191.17	1703.91
191.39	1712.10
191.61	1738.73
191.84	1665.00
192.06	1757.16
192.28	1617.90
192.50	1804.26
192.72	1802.21
192.94	1681.38
193.16	1759.21
193.38	1839.08
193.60	1648.61
193.82	1636.33
194.04	1759.21
194.26	1804.26
194.48	1720.29
194.70	1646.57
194.92	1636.33
195.14	1763.30
195.36	1746.92
195.58	1726.44
195.80	1712.10
196.02	1714.15
196.24	1767.40
196.46	1736.68
196.69	1734.63
196.91	1808.36
197.13	1638.38
197.35	1628.14
197.57	1753.06
197.79	1746.92
198.01	1794.02
198.23	1763.30
198.45	1748.97
198.67	1679.33
198.89	1697.77
199.11	1771.49
199.33	1642.47
199.55	1558.50
199.77	1701.86
199.99	1810.40
200.21	1703.91
200.43	1728.49
200.65	1660.90
200.87	1599.46
201.09	1673.19
201.31	1748.97
201.53	1753.06
201.75	1744.87
201.97	1748.97
202.19	1665.00
202.41	1726.44
202.63	1808.36
202.85	1650.66
203.07	1730.53
203.29	1734.63
203.51	1669.09
203.73	1681.38
203.95	1937.38
204.17	1632.23
204.39	1710.05
204.61	1753.06
204.83	1712.10
205.05	1742.82
205.27	1769.44
205.49	1755.11
205.71	1755.11
205.93	1652.71
206.15	1714.15
206.37	1679.33
206.59	1759.21
206.81	1654.76
207.03	1656.81
207.25	1755.11
207.47	1685.48
207.69	1708.01
207.91	1720.29
208.13	1748.97
208.34	1660.90
208.56	1693.67
208.78	1734.63
209.00	1681.38
209.22	1746.92
209.44	1673.19
209.66	1746.92
209.88	1718.25
210.10	1730.53
210.32	1708.01
210.54	1822.69
210.76	1677.29
210.98	1771.49
211.20	1640.42
211.42	1742.82
211.64	1734.63
211.86	1714.15
212.08	1763.30
212.30	1703.91
212.52	1638.38
212.74	1744.87
212.96	1691.62
213.17	1765.35
213.39	1755.11
213.61	1753.06
213.83	1804.26
214.05	1642.47
214.27	1769.44
214.49	1656.81
214.71	1687.53
214.93	1787.88
215.15	1677.29
215.37	1753.06
215.59	1601.51
215.81	1779.68
216.03	1759.21
216.24	1681.38
216.46	1699.81
216.68	1689.57
216.90	1814.50
217.12	1695.72
217.34	1708.01
217.56	1697.77
217.78	1828.84
218.00	1724.39
218.22	1730.53
218.44	1722.34
218.66	1751.01
218.87	1802.21
219.09	1720.29
219.31	1728.49
219.53	1728.49
219.75	1683.43
219.97	1730.53
220.19	1751.01
220.41	1701.86
220.63	1857.51
220.85	1736.68
221.06	1697.77
221.28	1781.73
221.50	1746.92
221.72	1716.20
221.94	1796.07
222.16	1699.81
222.38	1767.40
222.60	1751.01
222.82	1621.99
223.03	1804.26
223.25	1753.06
223.47	1781.73
223.69	1847.27
223.91	1822.69
224.13	1662.95
224.35	1632.23
224.57	1767.40
224.78	1781.73
225.00	1724.39
225.22	1701.86
225.44	1689.57
225.66	1662.95
225.88	1654.76
226.10	1701.86
226.32	1800.16
226.53	1837.03
226.75	1746.92
226.97	1726.44
227.19	1673.19
227.41	1679.33
227.63	1665.00
227.85	1703.91
228.06	1734.63
228.28	1689.57
228.50	1755.11
228.72	1724.39
228.94	1646.57
229.16	1556.46
229.37	1691.62
229.59	1671.14
229.81	1802.21
230.03	1703.91
230.25	1640.42
230.47	1632.23
230.69	1648.61
230.90	1738.73
231.12	1679.33
231.34	1800.16
231.56	1804.26
231.78	1630.18
232.00	1767.40
232.21	1732.58
232.43	1583.08
232.65	1705.96
232.87	1742.82
233.09	1662.95
233.30	1687.53
233.52	1796.07
233.74	1722.34
233.96	1673.19
234.18	1642.47
234.40	1738.73
234.61	1857.51
234.83	1638.38
235.05	1607.66
235.27	1828.84
235.49	1806.31
235.70	1708.01
235.92	1826.79
236.14	1759.21
236.36	1869.80
236.58	1683.43
236.79	1781.73
237.01	1581.03
237.23	1730.53
237.45	1855.46
237.67	1681.38
237.88	1681.38
238.10	1869.80
238.32	1710.05
238.54	1675.24
238.76	1726.44
238.97	1687.53
239.19	1697.77
239.41	1808.36
239.63	1808.36
239.85	1654.76
240.06	1701.86
240.28	1665.00
240.50	1748.97
240.72	1644.52
240.93	1728.49
241.15	1779.68
241.37	1648.61
241.59	1832.93
241.81	1685.48
242.02	1689.57
242.24	1697.77
242.46	1773.54
242.68	1603.56
242.89	1763.30
243.11	1734.63
243.33	1673.19
243.55	1751.01
243.76	1808.36
243.98	1705.96
244.20	1714.15
244.42	1671.14
244.64	1660.90
244.85	1677.29
245.07	1681.38
245.29	1757.16
245.51	1648.61
245.72	1640.42
245.94	1791.97
246.16	1701.86
246.38	1693.67
246.59	1683.43
246.81	1689.57
247.03	1640.42
247.24	1656.81
247.46	1685.48
247.68	1644.52
247.90	1771.49
248.11	1671.14
248.33	1779.68
248.55	1779.68
248.77	1605.61
248.98	1742.82
249.20	1828.84
249.42	1710.05
249.64	1660.90
249.85	1757.16
250.07	1667.05
250.29	1724.39
250.50	1802.21
250.72	1673.19
250.94	1671.14
251.16	1808.36
251.37	1703.91
251.59	1759.21
251.81	1779.68
252.02	1734.63
252.24	1673.19
252.46	1777.64
252.68	1705.96
252.89	1628.14
253.11	1640.42
253.33	1867.75
253.54	1820.64
253.76	1624.04
253.98	1662.95
254.20	1656.81
254.41	1617.90
254.63	1669.09
254.85	1626.09
255.06	1732.58
255.28	1705.96
255.50	1748.97
255.71	1669.09
255.93	1677.29
256.15	1753.06
256.36	1732.58
256.58	1652.71
256.80	1769.44
257.02	1632.23
257.23	1746.92
257.45	1800.16
257.67	1681.38
257.88	1650.66
258.10	1751.01
258.32	1755.11
258.53	1779.68
258.75	1740.77
258.97	1746.92
259.18	1726.44
259.40	1716.20
259.62	1837.03
259.83	1798.12
260.05	1828.84
260.27	2021.35
260.48	1822.69
260.70	1648.61
260.92	1677.29
261.13	1748.97
261.35	1716.20
261.57	1751.01
261.78	1554.41
262.00	1665.00
262.22	1734.63
262.43	1701.86
262.65	1744.87
262.86	1714.15
263.08	1851.36
263.30	1703.91
263.51	1636.33
263.73	1683.43
263.95	1769.44
264.16	1636.33
264.38	1751.01
264.60	1826.79
264.81	1748.97
265.03	1781.73
265.25	1808.36
265.46	1650.66
265.68	1794.02
265.89	1728.49
266.11	1591.27
266.33	1753.06
266.54	1843.17
266.76	1755.11
266.98	1757.16
267.19	1775.59
267.41	1767.40
267.62	1640.42
267.84	1679.33
268.06	1757.16
268.27	1724.39
268.49	1808.36
268.70	1736.68
268.92	1689.57
269.14	1656.81
269.35	1642.47
269.57	1806.31
269.79	1820.64
270.00	1677.29
270.22	1871.84
270.43	1656.81
270.65	1560.55
270.87	1681.38
271.08	1771.49
271.30	1791.97
271.51	1773.54
271.73	1753.06
271.95	1818.60
272.16	1787.88
272.38	1796.07
272.59	1685.48
272.81	1763.30
273.02	1675.24
273.24	1746.92
273.46	1769.44
273.67	1701.86
273.89	1632.23
274.10	1744.87
274.32	1798.12
274.54	1755.11
274.75	1726.44
274.97	1681.38
275.18	1812.45
275.40	1691.62
275.61	1669.09
275.83	1697.77
276.05	1568.74
276.26	1781.73
276.48	1791.97
276.69	1689.57
276.91	1685.48
277.12	1794.02
277.34	1736.68
277.55	1794.02
277.77	1781.73
277.99	1634.28
278.20	1646.57
278.42	1628.14
278.63	1646.57
278.85	1673.19
279.06	1603.56
279.28	1730.53
279.49	1818.60
279.71	1763.30
279.93	1761.25
280.14	1708.01
280.36	1644.52
280.57	1771.49
280.79	1845.22
281.00	1652.71
281.22	1595.37
281.43	1806.31
281.65	1554.41
281.86	1654.76
282.08	1718.25
282.29	1800.16
282.51	1601.51
282.73	1654.76
282.94	1574.89
283.16	1744.87
283.37	1871.84
283.59	1757.16
283.80	1710.05
284.02	1662.95
284.23	1781.73
284.45	1665.00
284.66	1679.33
284.88	1667.05
285.09	1798.12
285.31	1732.58
285.52	1751.01
285.74	1658.85
285.95	1681.38
286.17	1705.96
286.38	1744.87
286.60	1640.42
286.81	1679.33
287.03	1748.97
287.24	1726.44
287.46	1814.50
287.67	1708.01
287.89	1810.40
288.10	1748.97
288.32	1703.91
288.53	1777.64
288.75	1755.11
288.96	1781.73
289.18	1730.53
289.39	1687.53
289.61	1771.49
289.82	1785.83
290.04	1804.26
290.25	1681.38
290.47	1701.86
290.68	1726.44
290.90	1712.10
291.11	1570.79
291.33	1810.40
291.54	1624.04
291.76	1630.18
291.97	1673.19
292.18	1716.20
292.40	1753.06
292.61	1687.53
292.83	1832.93
293.04	1767.40
293.26	1746.92
293.47	1710.05
293.69	1728.49
293.90	1630.18
294.12	1781.73
294.33	1728.49
294.55	1693.67
294.76	1781.73
294.97	1771.49
295.19	1832.93
295.40	1650.66
295.62	1763.30
295.83	1806.31
296.05	1681.38
296.26	1734.63
296.48	1716.20
296.69	1732.58
296.90	1699.81
297.12	1667.05
297.33	1779.68
297.55	1771.49
297.76	1726.44
297.98	1839.08
298.19	1773.54
298.41	1673.19
298.62	1636.33
298.83	1822.69
299.05	1689.57
299.26	1705.96
299.48	1685.48
299.69	1810.40
299.90	1718.25
300.12	1638.38
300.33	1697.77
300.55	1681.38
300.76	1791.97
300.98	1712.10
301.19	1814.50
301.40	1716.20
301.62	1673.19
301.83	1787.88
302.05	1816.55
302.26	1658.85
302.47	1728.49
302.69	1705.96
302.90	1675.24
303.12	1605.61
303.33	1777.64
303.54	1851.36
303.76	1621.99
303.97	1734.63
304.19	1804.26
304.40	1660.90
304.61	1656.81
304.83	1849.32
305.04	1730.53
305.26	1724.39
305.47	1687.53
305.68	1757.16
305.90	1617.90
306.11	1732.58
306.33	1722.34
306.54	1726.44
306.75	1691.62
306.97	1613.80
307.18	1656.81
307.39	1683.43
307.61	1767.40
307.82	1724.39
308.04	1732.58
308.25	1638.38
308.46	1728.49
308.68	1732.58
308.89	1789.92
309.10	1775.59
309.32	1714.15
309.53	1767.40
309.74	1738.73
309.96	1708.01
310.17	1724.39
310.39	1656.81
310.60	1722.34
310.81	1751.01
311.03	1640.42
311.24	1708.01
311.45	1755.11
311.67	1794.02
311.88	1722.34
312.09	1712.10
312.31	1667.05
312.52	1787.88
312.73	1722.34
312.95	1642.47
313.16	1724.39
313.37	1744.87
313.59	1665.00
313.80	1751.01
314.01	1748.97
314.23	1617.90
314.44	1669.09
314.65	1675.24
314.87	1685.48
315.08	1753.06
315.29	1728.49
315.51	1662.95
315.72	1624.04
315.93	1785.83
316.15	1761.25
316.36	1748.97
316.57	1736.68
316.79	1732.58
317.00	1740.77
317.21	1656.81
317.43	1677.29
317.64	1708.01
317.85	1732.58
318.07	1705.96
318.28	1681.38
318.49	1789.92
318.70	1832.93
318.92	1841.12
319.13	1839.08
319.34	1847.27
319.56	1701.86
319.77	1759.21
319.98	1783.78
320.20	1865.70
320.41	1767.40
320.62	1806.31
320.83	1689.57
321.05	1875.94
321.26	1730.53
321.47	1775.59
321.69	1781.73
321.90	1685.48
322.11	1730.53
322.32	1728.49
322.54	1787.88
322.75	1669.09
322.96	1978.34
323.18	1656.81
323.39	1650.66
323.60	1697.77
323.81	1734.63
324.03	1636.33
324.24	1656.81
324.45	1773.54
324.66	1679.33
324.88	1810.40
325.09	1806.31
325.30	1677.29
325.52	1644.52
325.73	1742.82
325.94	1585.13
326.15	1619.94
326.37	1712.10
326.58	1751.01
326.79	1837.03
327.00	1689.57
327.22	1724.39
327.43	1695.72
327.64	1619.94
327.85	1728.49
328.07	1771.49
328.28	1863.65
328.49	1656.81
328.70	1712.10
328.92	1730.53
329.13	1720.29
329.34	1703.91
329.55	1890.28
329.76	1732.58
329.98	1685.48
330.19	1765.35
330.40	1685.48
330.61	1710.05
330.83	1761.25
331.04	1701.86
331.25	1648.61
331.46	1716.20
331.68	1591.27
331.89	1751.01
332.10	1710.05
332.31	1572.84
332.52	1652.71
332.74	1714.15
332.95	1589.22
333.16	1746.92
333.37	1746.92
333.58	1722.34
333.80	1757.16
334.01	1595.37
334.22	1691.62
334.43	1703.91
334.64	1742.82
334.86	1632.23
335.07	1642.47
335.28	1832.93
335.49	1644.52
335.70	1779.68
335.92	1781.73
336.13	1781.73
336.34	1681.38
336.55	1818.60
336.76	1726.44
336.98	1560.55
337.19	1761.25
337.40	1869.80
337.61	1796.07
337.82	1621.99
338.04	1726.44
338.25	1652.71
338.46	1662.95
338.67	1648.61
338.88	1658.85
339.09	1699.81
339.31	1630.18
339.52	1624.04
339.73	1630.18
339.94	1689.57
340.15	1759.21
340.36	1654.76
340.58	1714.15
340.79	1726.44
341.00	1708.01
341.21	1738.73
341.42	1773.54
341.63	1699.81
341.85	1830.88
342.06	1771.49
342.27	1593.32
342.48	1732.58
342.69	1734.63
342.90	1695.72
343.12	1714.15
343.33	1767.40
343.54	1785.83
343.75	1755.11
343.96	1712.10
344.17	1687.53
344.38	1710.05
344.60	1677.29
344.81	1658.85
345.02	1748.97
345.23	1796.07
345.44	1812.45
345.65	1773.54
345.86	1759.21
346.07	1691.62
346.29	1644.52
346.50	1832.93
346.71	1759.21
346.92	1769.44
347.13	1810.40
347.34	1728.49
347.55	1771.49
347.76	1734.63
347.98	1597.42
348.19	1703.91
348.40	1812.45
348.61	1712.10
348.82	1771.49
349.03	1785.83
349.24	1667.05
349.45	1814.50
349.66	1648.61
349.88	1693.67
350.09	1658.85
350.30	1814.50
350.51	1751.01
350.72	1726.44
350.93	1701.86
351.14	1615.85
351.35	1746.92
351.56	1681.38
351.77	1644.52
351.99	1652.71
352.20	1810.40
352.41	1744.87
352.62	1505.26
352.83	1654.76
353.04	1712.10
353.25	1624.04
353.46	1822.69
353.67	1808.36
353.88	1630.18
354.09	1730.53
354.30	1640.42
354.52	1804.26
354.73	1693.67
354.94	1687.53
355.15	1626.09
355.36	1777.64
355.57	1648.61
355.78	1787.88
355.99	1681.38
356.20	1681.38
356.41	1806.31
356.62	1767.40
356.83	1705.96
357.04	1816.55
357.25	1652.71
357.46	1714.15
357.68	1632.23
357.89	1642.47
358.10	1683.43
358.31	1755.11
358.52	1732.58
358.73	1699.81
358.94	1677.29
359.15	1773.54
359.36	1701.86
359.57	1677.29
359.78	1740.77
359.99	1783.78
360.20	1691.62
360.41	1746.92
360.62	1806.31
360.83	1673.19
361.04	1665.00
361.25	1722.34
361.46	1826.79
361.67	1720.29
361.88	1722.34
362.09	1826.79
362.30	1671.14
362.51	1845.22
362.72	1759.21
362.93	1748.97
363.14	1748.97
363.35	1712.10
363.56	1634.28
363.78	1767.40
363.99	1751.01
364.20	1652.71
364.41	1712.10
364.62	1812.45
364.83	1714.15
365.04	1734.63
365.25	1730.53
365.46	1853.41
365.67	1636.33
365.88	1593.32
366.09	1720.29
366.30	1658.85
366.51	1615.85
366.72	1648.61
366.93	1708.01
367.14	1695.72
367.35	1724.39
367.56	1808.36
367.77	1841.12
367.98	1785.83
368.18	1675.24
368.39	1701.86
368.60	1656.81
368.81	1777.64
369.02	1691.62
369.23	1703.91
369.44	1636.33
369.65	1697.77
369.86	1744.87
370.07	1736.68
370.28	1636.33
370.49	1775.59
370.70	1806.31
370.91	1593.32
371.12	1601.51
371.33	1730.53
371.54	1757.16
371.75	1832.93
371.96	1581.03
372.17	1656.81
372.38	1615.85
372.59	1714.15
372.80	1689.57
373.01	1730.53
373.22	1716.20
373.43	1699.81
373.64	1619.94
373.85	1751.01
374.06	1769.44
374.26	1773.54
374.47	1722.34
374.68	1845.22
374.89	1726.44
375.10	1669.09
375.31	1744.87
375.52	1693.67
375.73	1703.91
375.94	1636.33
376.15	1796.07
376.36	1714.15
376.57	1673.19
376.78	1681.38
376.99	1771.49
377.20	1826.79
377.40	1718.25
377.61	1841.12
377.82	1669.09
378.03	1800.16
378.24	1720.29
378.45	1740.77
378.66	1738.73
378.87	1650.66
379.08	1621.99
379.29	1675.24
379.50	1773.54
379.71	1687.53
379.91	1746.92
380.12	1722.34
380.33	1689.57
380.54	1679.33
380.75	1714.15
380.96	1640.42
381.17	1839.08
381.38	1710.05
381.59	1746.92
381.80	1783.78
382.00	1779.68
382.21	1775.59
382.42	1824.74
382.63	1849.32
382.84	1773.54
383.05	1820.64
383.26	1824.74
383.47	1763.30
383.68	1789.92
383.88	1796.07
384.09	1783.78
384.30	1808.36
384.51	1783.78
384.72	1626.09
384.93	1689.57
385.14	1703.91
385.35	1771.49
385.55	1712.10
385.76	1800.16
385.97	1759.21
386.18	1652.71
386.39	1638.38
386.60	1693.67
386.81	1720.29
387.02	1726.44
387.22	1656.81
387.43	1816.55
387.64	1787.88
387.85	1890.28
388.06	2238.43
388.27	4190.14
388.48	6608.80
388.68	8148.87
388.89	9529.20
389.10	9619.31
389.31	8361.86
389.52	7411.60
389.73	6619.04
389.93	6213.54
390.14	5814.18
390.35	5138.35
390.56	4548.54
390.77	3649.48
390.98	3016.66
391.18	2506.71
391.39	2082.78
391.60	1865.70
391.81	1867.75
392.02	1705.96
392.23	1849.32
392.43	1705.96
392.64	1834.98
392.85	1724.39
393.06	1708.01
393.27	1726.44
393.47	1734.63
393.68	1746.92
393.89	1810.40
394.10	1845.22
394.31	1695.72
394.52	1701.86
394.72	1697.77
394.93	1779.68
395.14	1722.34
395.35	1771.49
395.56	1677.29
395.76	1753.06
395.97	1787.88
396.18	1851.36
396.39	1812.45
396.60	1984.48
396.80	1912.80
397.01	1857.51
397.22	1855.46
397.43	1832.93
397.64	1734.63
397.84	1800.16
398.05	1851.36
398.26	1748.97
398.47	1732.58
398.67	1816.55
398.88	1759.21
399.09	1845.22
399.30	1810.40
399.51	1736.68
399.71	1705.96
399.92	1730.53
400.13	1742.82
400.34	1632.23
400.54	1673.19
400.75	1828.84
400.96	1748.97
401.17	1785.83
401.37	1791.97
401.58	1757.16
401.79	1748.97
402.00	1888.23
402.21	2027.49
402.41	1972.19
402.62	1974.24
402.83	2070.50
403.04	1980.39
403.24	2113.50
403.45	1894.37
403.66	1906.66
403.87	1927.14
404.07	1929.19
404.28	1880.04
404.49	1839.08
404.70	1812.45
404.90	1718.25
405.11	1726.44
405.32	1755.11
405.52	1662.95
405.73	1742.82
405.94	1746.92
406.15	1767.40
406.35	1759.21
406.56	1779.68
406.77	1738.73
406.98	1662.95
407.18	1638.38
407.39	1834.98
407.60	1705.96
407.80	1759.21
408.01	1718.25
408.22	1757.16
408.43	1695.72
408.63	1785.83
408.84	1738.73
409.05	1746.92
409.25	1726.44
409.46	1601.51
409.67	1689.57
409.88	1734.63
410.08	1673.19
410.29	1642.47
410.50	1765.35
410.70	1740.77
410.91	1742.82
411.12	1761.25
411.32	1660.90
411.53	1640.42
411.74	1763.30
411.95	1837.03
412.15	1783.78
412.36	1765.35
412.57	1785.83
412.77	1808.36
412.98	1742.82
413.19	1763.30
413.39	1738.73
413.60	1751.01
413.81	1812.45
414.01	1642.47
414.22	1755.11
414.43	1767.40
414.63	1748.97
414.84	1810.40
415.05	1759.21
415.25	1609.70
415.46	1806.31
415.67	1658.85
415.87	1746.92
416.08	1761.25
416.29	1695.72
416.49	1800.16
416.70	1640.42
416.91	1759.21
417.11	1759.21
417.32	1679.33
417.53	1734.63
417.73	1740.77
417.94	1693.67
418.15	1746.92
418.35	1716.20
418.56	1732.58
418.77	1761.25
418.97	1677.29
419.18	1722.34
419.38	1667.05
419.59	1673.19
419.80	1849.32
420.00	1742.82
420.21	1701.86
420.42	1746.92
420.62	1726.44
420.83	1708.01
421.04	1740.77
421.24	1656.81
421.45	1794.02
421.65	1757.16
421.86	1734.63
422.07	1697.77
422.27	1722.34
422.48	1779.68
422.69	1708.01
422.89	1699.81
423.10	1767.40
423.30	1658.85
423.51	1648.61
423.72	1689.57
423.92	1712.10
424.13	1734.63
424.33	1705.96
424.54	1732.58
424.75	1769.44
424.95	1759.21
425.16	1757.16
425.36	1683.43
425.57	1783.78
425.78	1787.88
425.98	1742.82
426.19	1648.61
426.39	1677.29
426.60	1689.57
426.81	1849.32
427.01	1751.01
427.22	1650.66
427.42	1665.00
427.63	1705.96
427.83	1824.74
428.04	1859.56
428.25	1800.16
428.45	1798.12
428.66	1732.58
428.86	1714.15
429.07	1720.29
429.28	1746.92
429.48	1697.77
429.69	1703.91
429.89	1773.54
430.10	1671.14
430.30	1804.26
430.51	1759.21
430.71	1701.86
430.92	1703.91
431.13	1744.87
431.33	1832.93
431.54	1736.68
431.74	1800.16
431.95	1845.22
432.15	1648.61
432.36	1703.91
432.56	1736.68
432.77	1912.80
432.98	1865.70
433.18	1640.42
433.39	1751.01
433.59	1800.16
433.80	1847.27
434.00	1933.28
434.21	1667.05
434.41	1671.14
434.62	1816.55
434.82	1656.81
435.03	1654.76
435.23	1730.53
435.44	1619.94
435.64	1728.49
435.85	1730.53
436.06	1742.82
436.26	1796.07
436.47	1695.72
436.67	1652.71
436.88	1689.57
437.08	1763.30
437.29	1820.64
437.49	1681.38
437.70	1781.73
437.90	1679.33
438.11	1865.70
438.31	1751.01
438.52	1748.97
438.72	1841.12
438.93	1869.80
439.13	1740.77
439.34	1888.23
439.54	1681.38
439.75	1814.50
439.95	1771.49
440.16	1660.90
440.36	1732.58
440.57	1738.73
440.77	1748.97
440.98	1710.05
441.18	1820.64
441.39	1716.20
441.59	1732.58
441.80	1847.27
442.00	1828.84
442.21	1775.59
442.41	1683.43
442.62	1798.12
442.82	1701.86
443.02	1757.16
443.23	1820.64
443.43	1800.16
443.64	1820.64
443.84	1703.91
444.05	1816.55
444.25	1689.57
444.46	1740.77
444.66	1695.72
444.87	1804.26
445.07	1693.67
445.28	1712.10
445.48	1828.84
445.69	1816.55
445.89	1880.04
446.09	1771.49
446.30	2050.02
446.50	2586.58
446.71	3753.93
446.91	4235.20
447.12	4558.78
447.32	4890.55
447.53	4345.79
447.73	3825.61
447.93	3403.72
448.14	3291.09
448.34	3100.62
448.55	2813.91
448.75	2809.81
448.96	2719.70
449.16	2410.46
449.36	2258.91
449.57	2117.60
449.77	1906.66
449.98	1738.73
450.18	1767.40
450.39	1855.46
450.59	1820.64
450.79	1699.81
451.00	1755.11
451.20	1753.06
451.41	1636.33
451.61	1734.63
451.81	1746.92
452.02	1787.88
452.22	1794.02
452.43	1673.19
452.63	1685.48
