SpectraSuite Data File
++++++++++++++++++++++++++++++++++++
Date: Mon Jun 06 12:35:17 CEST 2016
User: root
Dark Spectrum Present: No
Reference Spectrum Present: No
Number of Sampled Component Spectra: 1
Spectrometers: USB4C02835
Integration Time (usec): 100000 (USB4C02835)
Spectra Averaged: 1 (USB4C02835)
Boxcar Smoothing: 0 (USB4C02835)
Correct for Electrical Dark: No (USB4C02835)
Strobe/Lamp Enabled: No (USB4C02835)
Correct for Detector Non-linearity: No (USB4C02835)
Correct for Stray Light: No (USB4C02835)
Number of Pixels in Processed Spectrum: 3648
>>>>>Begin Processed Spectral Data<<<<<
177.47	1441.77
177.69	1441.77
177.91	1441.77
178.13	1447.91
178.36	1484.78
178.58	1632.23
178.80	1701.86
179.02	1685.48
179.24	1599.46
179.46	1701.86
179.68	1710.05
179.90	1699.81
180.13	1687.53
180.35	1656.81
180.57	1685.48
180.79	1791.97
181.01	1667.05
181.23	1781.73
181.45	1730.53
181.67	1787.88
181.90	1667.05
182.12	1681.38
182.34	1617.90
182.56	1734.63
182.78	1669.09
183.00	1593.32
183.22	1730.53
183.44	1638.38
183.66	1798.12
183.89	1761.25
184.11	1662.95
184.33	1740.77
184.55	1804.26
184.77	1740.77
184.99	1722.34
185.21	1593.32
185.43	1783.78
185.65	1617.90
185.87	1730.53
186.10	1800.16
186.32	1834.98
186.54	1712.10
186.76	1732.58
186.98	1767.40
187.20	1742.82
187.42	1724.39
187.64	1722.34
187.86	1710.05
188.08	1789.92
188.30	1683.43
188.52	1738.73
188.75	1638.38
188.97	1789.92
189.19	1660.90
189.41	1712.10
189.63	1716.20
189.85	1732.58
190.07	1619.94
190.29	1546.22
190.51	1718.25
190.73	1624.04
190.95	1796.07
191.17	1718.25
191.39	1593.32
191.61	1748.97
191.84	1716.20
192.06	1800.16
192.28	1593.32
192.50	1882.08
192.72	1714.15
192.94	1681.38
193.16	1765.35
193.38	1712.10
193.60	1611.75
193.82	1722.34
194.04	1724.39
194.26	1751.01
194.48	1669.09
194.70	1640.42
194.92	1660.90
195.14	1699.81
195.36	1603.56
195.58	1671.14
195.80	1703.91
196.02	1697.77
196.24	1695.72
196.46	1708.01
196.69	1671.14
196.91	1771.49
197.13	1665.00
197.35	1630.18
197.57	1775.59
197.79	1808.36
198.01	1701.86
198.23	1773.54
198.45	1722.34
198.67	1634.28
198.89	1701.86
199.11	1755.11
199.33	1607.66
199.55	1576.94
199.77	1695.72
199.99	1732.58
200.21	1665.00
200.43	1726.44
200.65	1615.85
200.87	1527.78
201.09	1716.20
201.31	1724.39
201.53	1681.38
201.75	1740.77
201.97	1714.15
202.19	1757.16
202.41	1675.24
202.63	1832.93
202.85	1695.72
203.07	1710.05
203.29	1677.29
203.51	1683.43
203.73	1683.43
203.95	1855.46
204.17	1742.82
204.39	1714.15
204.61	1671.14
204.83	1665.00
205.05	1722.34
205.27	1722.34
205.49	1791.97
205.71	1722.34
205.93	1611.75
206.15	1654.76
206.37	1701.86
206.59	1646.57
206.81	1646.57
207.03	1619.94
207.25	1591.27
207.47	1728.49
207.69	1775.59
207.91	1779.68
208.13	1826.79
208.34	1671.14
208.56	1714.15
208.78	1751.01
209.00	1714.15
209.22	1607.66
209.44	1732.58
209.66	1665.00
209.88	1722.34
210.10	1662.95
210.32	1669.09
210.54	1808.36
210.76	1710.05
210.98	1802.21
211.20	1523.69
211.42	1685.48
211.64	1775.59
211.86	1708.01
212.08	1777.64
212.30	1681.38
212.52	1660.90
212.74	1753.06
212.96	1728.49
213.17	1746.92
213.39	1734.63
213.61	1753.06
213.83	1736.68
214.05	1624.04
214.27	1708.01
214.49	1681.38
214.71	1671.14
214.93	1779.68
215.15	1722.34
215.37	1742.82
215.59	1650.66
215.81	1744.87
216.03	1689.57
216.24	1675.24
216.46	1695.72
216.68	1681.38
216.90	1712.10
217.12	1808.36
217.34	1705.96
217.56	1710.05
217.78	1763.30
218.00	1769.44
218.22	1732.58
218.44	1755.11
218.66	1726.44
218.87	1837.03
219.09	1662.95
219.31	1728.49
219.53	1736.68
219.75	1720.29
219.97	1646.57
220.19	1703.91
220.41	1644.52
220.63	1791.97
220.85	1724.39
221.06	1595.37
221.28	1746.92
221.50	1687.53
221.72	1673.19
221.94	1728.49
222.16	1654.76
222.38	1734.63
222.60	1714.15
222.82	1632.23
223.03	1755.11
223.25	1611.75
223.47	1701.86
223.69	1892.32
223.91	1736.68
224.13	1714.15
224.35	1650.66
224.57	1802.21
224.78	1726.44
225.00	1673.19
225.22	1685.48
225.44	1748.97
225.66	1738.73
225.88	1632.23
226.10	1669.09
226.32	1724.39
226.53	1826.79
226.75	1726.44
226.97	1720.29
227.19	1679.33
227.41	1675.24
227.63	1673.19
227.85	1628.14
228.06	1613.80
228.28	1669.09
228.50	1726.44
228.72	1624.04
228.94	1691.62
229.16	1683.43
229.37	1638.38
229.59	1638.38
229.81	1779.68
230.03	1697.77
230.25	1689.57
230.47	1640.42
230.69	1699.81
230.90	1703.91
231.12	1638.38
231.34	1683.43
231.56	1732.58
231.78	1644.52
232.00	1738.73
232.21	1615.85
232.43	1671.14
232.65	1583.08
232.87	1734.63
233.09	1634.28
233.30	1652.71
233.52	1724.39
233.74	1673.19
233.96	1708.01
234.18	1712.10
234.40	1710.05
234.61	1765.35
234.83	1587.18
235.05	1632.23
235.27	1816.55
235.49	1802.21
235.70	1742.82
235.92	1746.92
236.14	1755.11
236.36	1882.08
236.58	1646.57
236.79	1755.11
237.01	1673.19
237.23	1798.12
237.45	1806.31
237.67	1654.76
237.88	1652.71
238.10	1875.94
238.32	1656.81
238.54	1718.25
238.76	1687.53
238.97	1675.24
239.19	1617.90
239.41	1691.62
239.63	1822.69
239.85	1687.53
240.06	1685.48
240.28	1675.24
240.50	1855.46
240.72	1763.30
240.93	1605.61
241.15	1808.36
241.37	1685.48
241.59	1714.15
241.81	1767.40
242.02	1730.53
242.24	1755.11
242.46	1751.01
242.68	1632.23
242.89	1689.57
243.11	1728.49
243.33	1697.77
243.55	1746.92
243.76	1689.57
243.98	1683.43
244.20	1708.01
244.42	1665.00
244.64	1796.07
244.85	1656.81
245.07	1677.29
245.29	1658.85
245.51	1699.81
245.72	1724.39
245.94	1828.84
246.16	1722.34
246.38	1724.39
246.59	1597.42
246.81	1714.15
247.03	1675.24
247.24	1568.74
247.46	1636.33
247.68	1648.61
247.90	1648.61
248.11	1720.29
248.33	1763.30
248.55	1673.19
248.77	1810.40
248.98	1685.48
249.20	1791.97
249.42	1660.90
249.64	1701.86
249.85	1701.86
250.07	1681.38
250.29	1720.29
250.50	1716.20
250.72	1591.27
250.94	1681.38
251.16	1814.50
251.37	1730.53
251.59	1724.39
251.81	1708.01
252.02	1789.92
252.24	1646.57
252.46	1730.53
252.68	1691.62
252.89	1689.57
253.11	1591.27
253.33	1802.21
253.54	1685.48
253.76	1644.52
253.98	1703.91
254.20	1611.75
254.41	1636.33
254.63	1685.48
254.85	1644.52
255.06	1763.30
255.28	1683.43
255.50	1699.81
255.71	1693.67
255.93	1605.61
256.15	1695.72
256.36	1671.14
256.58	1687.53
256.80	1701.86
257.02	1708.01
257.23	1624.04
257.45	1769.44
257.67	1703.91
257.88	1687.53
258.10	1783.78
258.32	1701.86
258.53	1675.24
258.75	1837.03
258.97	1677.29
259.18	1699.81
259.40	1669.09
259.62	1751.01
259.83	1675.24
260.05	1710.05
260.27	1849.32
260.48	1759.21
260.70	1638.38
260.92	1621.99
261.13	1800.16
261.35	1628.14
261.57	1794.02
261.78	1603.56
262.00	1634.28
262.22	1736.68
262.43	1624.04
262.65	1695.72
262.86	1634.28
263.08	1855.46
263.30	1675.24
263.51	1581.03
263.73	1591.27
263.95	1777.64
264.16	1705.96
264.38	1775.59
264.60	1757.16
264.81	1685.48
265.03	1779.68
265.25	1814.50
265.46	1681.38
265.68	1804.26
265.89	1726.44
266.11	1587.18
266.33	1697.77
266.54	1673.19
266.76	1710.05
266.98	1777.64
267.19	1849.32
267.41	1705.96
267.62	1652.71
267.84	1583.08
268.06	1693.67
268.27	1708.01
268.49	1820.64
268.70	1710.05
268.92	1658.85
269.14	1626.09
269.35	1560.55
269.57	1722.34
269.79	1722.34
270.00	1689.57
270.22	1789.92
270.43	1691.62
270.65	1607.66
270.87	1648.61
271.08	1714.15
271.30	1724.39
271.51	1742.82
271.73	1724.39
271.95	1785.83
272.16	1691.62
272.38	1724.39
272.59	1736.68
272.81	1710.05
273.02	1746.92
273.24	1791.97
273.46	1814.50
273.67	1691.62
273.89	1634.28
274.10	1683.43
274.32	1771.49
274.54	1687.53
274.75	1765.35
274.97	1691.62
275.18	1740.77
275.40	1732.58
275.61	1691.62
275.83	1679.33
276.05	1585.13
276.26	1720.29
276.48	1804.26
276.69	1660.90
276.91	1634.28
277.12	1802.21
277.34	1675.24
277.55	1781.73
277.77	1740.77
277.99	1609.70
278.20	1660.90
278.42	1671.14
278.63	1630.18
278.85	1656.81
279.06	1644.52
279.28	1771.49
279.49	1705.96
279.71	1779.68
279.93	1705.96
280.14	1726.44
280.36	1650.66
280.57	1775.59
280.79	1748.97
281.00	1601.51
281.22	1640.42
281.43	1724.39
281.65	1583.08
281.86	1667.05
282.08	1708.01
282.29	1789.92
282.51	1632.23
282.73	1593.32
282.94	1558.50
283.16	1708.01
283.37	1787.88
283.59	1683.43
283.80	1681.38
284.02	1662.95
284.23	1660.90
284.45	1660.90
284.66	1660.90
284.88	1730.53
285.09	1761.25
285.31	1617.90
285.52	1738.73
285.74	1642.47
285.95	1767.40
286.17	1628.14
286.38	1705.96
286.60	1685.48
286.81	1654.76
287.03	1630.18
287.24	1599.46
287.46	1708.01
287.67	1613.80
287.89	1751.01
288.10	1775.59
288.32	1699.81
288.53	1748.97
288.75	1671.14
288.96	1693.67
289.18	1681.38
289.39	1748.97
289.61	1705.96
289.82	1738.73
290.04	1816.55
290.25	1595.37
290.47	1675.24
290.68	1648.61
290.90	1763.30
291.11	1593.32
291.33	1763.30
291.54	1591.27
291.76	1638.38
291.97	1720.29
292.18	1742.82
292.40	1669.09
292.61	1656.81
292.83	1779.68
293.04	1783.78
293.26	1656.81
293.47	1687.53
293.69	1562.60
293.90	1687.53
294.12	1720.29
294.33	1720.29
294.55	1669.09
294.76	1691.62
294.97	1744.87
295.19	1832.93
295.40	1648.61
295.62	1695.72
295.83	1751.01
296.05	1621.99
296.26	1710.05
296.48	1626.09
296.69	1705.96
296.90	1718.25
297.12	1701.86
297.33	1736.68
297.55	1775.59
297.76	1628.14
297.98	1781.73
298.19	1648.61
298.41	1578.98
298.62	1691.62
298.83	1665.00
299.05	1630.18
299.26	1642.47
299.48	1689.57
299.69	1671.14
299.90	1732.58
300.12	1656.81
300.33	1738.73
300.55	1736.68
300.76	1761.25
300.98	1611.75
301.19	1748.97
301.40	1671.14
301.62	1660.90
301.83	1730.53
302.05	1710.05
302.26	1615.85
302.47	1695.72
302.69	1654.76
302.90	1718.25
303.12	1578.98
303.33	1757.16
303.54	1736.68
303.76	1714.15
303.97	1673.19
304.19	1859.56
304.40	1566.70
304.61	1714.15
304.83	1865.70
305.04	1722.34
305.26	1726.44
305.47	1699.81
305.68	1689.57
305.90	1654.76
306.11	1812.45
306.33	1695.72
306.54	1716.20
306.75	1681.38
306.97	1626.09
307.18	1642.47
307.39	1658.85
307.61	1677.29
307.82	1662.95
308.04	1705.96
308.25	1634.28
308.46	1673.19
308.68	1689.57
308.89	1722.34
309.10	1820.64
309.32	1642.47
309.53	1748.97
309.74	1646.57
309.96	1617.90
310.17	1761.25
310.39	1640.42
310.60	1673.19
310.81	1626.09
311.03	1660.90
311.24	1775.59
311.45	1771.49
311.67	1812.45
311.88	1726.44
312.09	1662.95
312.31	1636.33
312.52	1689.57
312.73	1755.11
312.95	1646.57
313.16	1634.28
313.37	1744.87
313.59	1722.34
313.80	1769.44
314.01	1818.60
314.23	1679.33
314.44	1683.43
314.65	1617.90
314.87	1662.95
315.08	1757.16
315.29	1656.81
315.51	1689.57
315.72	1681.38
315.93	1798.12
316.15	1697.77
316.36	1624.04
316.57	1732.58
316.79	1714.15
317.00	1671.14
317.21	1775.59
317.43	1697.77
317.64	1714.15
317.85	1660.90
318.07	1689.57
318.28	1796.07
318.49	1816.55
318.70	1906.66
318.92	1816.55
319.13	1830.88
319.34	1791.97
319.56	1812.45
319.77	1744.87
319.98	1800.16
320.20	1791.97
320.41	1677.29
320.62	1767.40
320.83	1675.24
321.05	1818.60
321.26	1748.97
321.47	1609.70
321.69	1800.16
321.90	1624.04
322.11	1757.16
322.32	1710.05
322.54	1763.30
322.75	1714.15
322.96	1826.79
323.18	1671.14
323.39	1542.12
323.60	1640.42
323.81	1742.82
324.03	1669.09
324.24	1673.19
324.45	1636.33
324.66	1650.66
324.88	1777.64
325.09	1796.07
325.30	1718.25
325.52	1767.40
325.73	1708.01
325.94	1632.23
326.15	1621.99
326.37	1683.43
326.58	1783.78
326.79	1724.39
327.00	1701.86
327.22	1720.29
327.43	1681.38
327.64	1609.70
327.85	1761.25
328.07	1685.48
328.28	1810.40
328.49	1667.05
328.70	1669.09
328.92	1712.10
329.13	1708.01
329.34	1712.10
329.55	1781.73
329.76	1728.49
329.98	1675.24
330.19	1714.15
330.40	1718.25
330.61	1685.48
330.83	1806.31
331.04	1644.52
331.25	1712.10
331.46	1681.38
331.68	1654.76
331.89	1779.68
332.10	1665.00
332.31	1638.38
332.52	1683.43
332.74	1828.84
332.95	1626.09
333.16	1652.71
333.37	1712.10
333.58	1642.47
333.80	1681.38
334.01	1654.76
334.22	1730.53
334.43	1654.76
334.64	1728.49
334.86	1722.34
335.07	1669.09
335.28	1738.73
335.49	1648.61
335.70	1724.39
335.92	1769.44
336.13	1769.44
336.34	1701.86
336.55	1673.19
336.76	1652.71
336.98	1587.18
337.19	1701.86
337.40	1767.40
337.61	1816.55
337.82	1730.53
338.04	1781.73
338.25	1687.53
338.46	1718.25
338.67	1642.47
338.88	1650.66
339.09	1605.61
339.31	1650.66
339.52	1677.29
339.73	1679.33
339.94	1673.19
340.15	1781.73
340.36	1671.14
340.58	1691.62
340.79	1628.14
341.00	1802.21
341.21	1644.52
341.42	1777.64
341.63	1624.04
341.85	1771.49
342.06	1658.85
342.27	1634.28
342.48	1681.38
342.69	1566.70
342.90	1724.39
343.12	1648.61
343.33	1644.52
343.54	1751.01
343.75	1708.01
343.96	1656.81
344.17	1601.51
344.38	1650.66
344.60	1689.57
344.81	1630.18
345.02	1654.76
345.23	1763.30
345.44	1822.69
345.65	1781.73
345.86	1703.91
346.07	1722.34
346.29	1705.96
346.50	1652.71
346.71	1701.86
346.92	1761.25
347.13	1763.30
347.34	1642.47
347.55	1742.82
347.76	1689.57
347.98	1583.08
348.19	1656.81
348.40	1853.41
348.61	1751.01
348.82	1763.30
349.03	1650.66
349.24	1679.33
349.45	1775.59
349.66	1595.37
349.88	1787.88
350.09	1648.61
350.30	1732.58
350.51	1732.58
350.72	1755.11
350.93	1687.53
351.14	1712.10
351.35	1808.36
351.56	1753.06
351.77	1681.38
351.99	1773.54
352.20	1794.02
352.41	1736.68
352.62	1562.60
352.83	1642.47
353.04	1669.09
353.25	1683.43
353.46	1830.88
353.67	1697.77
353.88	1560.55
354.09	1748.97
354.30	1705.96
354.52	1712.10
354.73	1687.53
354.94	1716.20
355.15	1769.44
355.36	1775.59
355.57	1669.09
355.78	1714.15
355.99	1751.01
356.20	1689.57
356.41	1714.15
356.62	1781.73
356.83	1683.43
357.04	1757.16
357.25	1589.22
357.46	1724.39
357.68	1685.48
357.89	1658.85
358.10	1652.71
358.31	1767.40
358.52	1810.40
358.73	1607.66
358.94	1558.50
359.15	1626.09
359.36	1775.59
359.57	1736.68
359.78	1771.49
359.99	1726.44
360.20	1665.00
360.41	1640.42
360.62	1708.01
360.83	1767.40
361.04	1691.62
361.25	1652.71
361.46	1824.74
361.67	1650.66
361.88	1708.01
362.09	1742.82
362.30	1691.62
362.51	1683.43
362.72	1718.25
362.93	1724.39
363.14	1687.53
363.35	1652.71
363.56	1691.62
363.78	1791.97
363.99	1705.96
364.20	1658.85
364.41	1665.00
364.62	1787.88
364.83	1712.10
365.04	1656.81
365.25	1689.57
365.46	1824.74
365.67	1583.08
365.88	1621.99
366.09	1652.71
366.30	1681.38
366.51	1665.00
366.72	1632.23
366.93	1699.81
367.14	1646.57
367.35	1761.25
367.56	1683.43
367.77	1783.78
367.98	1722.34
368.18	1748.97
368.39	1705.96
368.60	1550.31
368.81	1703.91
369.02	1746.92
369.23	1681.38
369.44	1587.18
369.65	1626.09
369.86	1720.29
370.07	1787.88
370.28	1632.23
370.49	1755.11
370.70	1722.34
370.91	1738.73
371.12	1638.38
371.33	1677.29
371.54	1671.14
371.75	1771.49
371.96	1572.84
372.17	1746.92
372.38	1624.04
372.59	1757.16
372.80	1665.00
373.01	1611.75
373.22	1656.81
373.43	1777.64
373.64	1669.09
373.85	1781.73
374.06	1800.16
374.26	1660.90
374.47	1656.81
374.68	1775.59
374.89	1714.15
375.10	1669.09
375.31	1767.40
375.52	1638.38
375.73	1734.63
375.94	1634.28
376.15	1769.44
376.36	1658.85
376.57	1763.30
376.78	1699.81
376.99	1751.01
377.20	1751.01
377.40	1562.60
377.61	1748.97
377.82	1587.18
378.03	1738.73
378.24	1730.53
378.45	1699.81
378.66	1734.63
378.87	1607.66
379.08	1640.42
379.29	1714.15
379.50	1761.25
379.71	1726.44
379.91	1673.19
380.12	1783.78
380.33	1693.67
380.54	1703.91
380.75	1691.62
380.96	1697.77
381.17	1667.05
381.38	1699.81
381.59	1763.30
381.80	1742.82
382.00	1906.66
382.21	1794.02
382.42	1861.60
382.63	1791.97
382.84	1701.86
383.05	1755.11
383.26	1746.92
383.47	1689.57
383.68	1744.87
383.88	1732.58
384.09	1732.58
384.30	1853.41
384.51	1685.48
384.72	1628.14
384.93	1673.19
385.14	1740.77
385.35	1759.21
385.55	1611.75
385.76	1714.15
385.97	1728.49
386.18	1654.76
386.39	1697.77
386.60	1660.90
386.81	1705.96
387.02	1636.33
387.22	1603.56
387.43	1761.25
387.64	1738.73
387.85	1890.28
388.06	2275.29
388.27	4179.90
388.48	6760.34
388.68	8138.63
388.89	9715.56
389.10	9934.70
389.31	8494.97
389.52	7591.82
389.73	6619.04
389.93	6188.96
390.14	5818.28
390.35	5205.94
390.56	4618.17
390.77	3796.93
390.98	2949.08
391.18	2516.95
391.39	2045.92
391.60	1892.32
391.81	1816.55
392.02	1642.47
392.23	1820.64
392.43	1718.25
392.64	1839.08
392.85	1662.95
393.06	1826.79
393.27	1671.14
393.47	1673.19
393.68	1730.53
393.89	1734.63
394.10	1759.21
394.31	1720.29
394.52	1601.51
394.72	1642.47
394.93	1761.25
395.14	1722.34
395.35	1728.49
395.56	1685.48
395.76	1679.33
395.97	1808.36
396.18	1839.08
396.39	1755.11
396.60	1994.72
396.80	1834.98
397.01	1779.68
397.22	1867.75
397.43	1871.84
397.64	1751.01
397.84	1834.98
398.05	1949.67
398.26	1705.96
398.47	1781.73
398.67	1785.83
398.88	1716.20
399.09	1695.72
399.30	1705.96
399.51	1675.24
399.71	1662.95
399.92	1740.77
400.13	1732.58
400.34	1701.86
400.54	1691.62
400.75	1781.73
400.96	1787.88
401.17	1753.06
401.37	1744.87
401.58	1677.29
401.79	1693.67
402.00	1849.32
402.21	1992.67
402.41	1929.19
402.62	2084.83
402.83	2033.63
403.04	2004.96
403.24	2021.35
403.45	1845.22
403.66	1894.37
403.87	1898.47
404.07	1855.46
404.28	1877.99
404.49	1914.85
404.70	1712.10
404.90	1714.15
405.11	1712.10
405.32	1769.44
405.52	1654.76
405.73	1675.24
405.94	1603.56
406.15	1718.25
406.35	1710.05
406.56	1714.15
406.77	1671.14
406.98	1724.39
407.18	1703.91
407.39	1732.58
407.60	1650.66
407.80	1675.24
408.01	1714.15
408.22	1728.49
408.43	1691.62
408.63	1781.73
408.84	1710.05
409.05	1757.16
409.25	1718.25
409.46	1640.42
409.67	1671.14
409.88	1665.00
410.08	1730.53
410.29	1701.86
410.50	1708.01
410.70	1714.15
410.91	1615.85
411.12	1789.92
411.32	1695.72
411.53	1716.20
411.74	1791.97
411.95	1818.60
412.15	1687.53
412.36	1748.97
412.57	1814.50
412.77	1794.02
412.98	1757.16
413.19	1689.57
413.39	1710.05
413.60	1759.21
413.81	1800.16
414.01	1644.52
414.22	1751.01
414.43	1763.30
414.63	1677.29
414.84	1787.88
415.05	1773.54
415.25	1693.67
415.46	1769.44
415.67	1619.94
415.87	1679.33
416.08	1689.57
416.29	1703.91
416.49	1665.00
416.70	1669.09
416.91	1726.44
417.11	1708.01
417.32	1759.21
417.53	1693.67
417.73	1701.86
417.94	1652.71
418.15	1667.05
418.35	1728.49
418.56	1658.85
418.77	1861.60
418.97	1736.68
419.18	1705.96
419.38	1587.18
419.59	1640.42
419.80	1794.02
420.00	1740.77
420.21	1714.15
420.42	1691.62
420.62	1738.73
420.83	1607.66
421.04	1634.28
421.24	1636.33
421.45	1787.88
421.65	1748.97
421.86	1611.75
422.07	1781.73
422.27	1703.91
422.48	1726.44
422.69	1685.48
422.89	1665.00
423.10	1718.25
423.30	1667.05
423.51	1638.38
423.72	1679.33
423.92	1755.11
424.13	1609.70
424.33	1636.33
424.54	1761.25
424.75	1697.77
424.95	1814.50
425.16	1691.62
425.36	1705.96
425.57	1730.53
425.78	1740.77
425.98	1748.97
426.19	1691.62
426.39	1679.33
426.60	1703.91
426.81	1765.35
427.01	1748.97
427.22	1718.25
427.42	1611.75
427.63	1693.67
427.83	1771.49
428.04	1732.58
428.25	1736.68
428.45	1722.34
428.66	1695.72
428.86	1697.77
429.07	1665.00
429.28	1714.15
429.48	1736.68
429.69	1656.81
429.89	1744.87
430.10	1697.77
430.30	1787.88
430.51	1773.54
430.71	1601.51
430.92	1685.48
431.13	1658.85
431.33	1779.68
431.54	1755.11
431.74	1769.44
431.95	1775.59
432.15	1628.14
432.36	1767.40
432.56	1626.09
432.77	1841.12
432.98	1798.12
433.18	1708.01
433.39	1667.05
433.59	1691.62
433.80	1845.22
434.00	1826.79
434.21	1738.73
434.41	1644.52
434.62	1789.92
434.82	1712.10
435.03	1689.57
435.23	1765.35
435.44	1652.71
435.64	1736.68
435.85	1656.81
436.06	1773.54
436.26	1695.72
436.47	1689.57
436.67	1656.81
436.88	1712.10
437.08	1769.44
437.29	1736.68
437.49	1708.01
437.70	1759.21
437.90	1718.25
438.11	1837.03
438.31	1757.16
438.52	1906.66
438.72	1773.54
438.93	1828.84
439.13	1804.26
439.34	1857.51
439.54	1736.68
439.75	1763.30
439.95	1824.74
440.16	1751.01
440.36	1740.77
440.57	1800.16
440.77	1695.72
440.98	1751.01
441.18	1779.68
441.39	1689.57
441.59	1583.08
441.80	1783.78
442.00	1714.15
442.21	1771.49
442.41	1656.81
442.62	1759.21
442.82	1640.42
443.02	1726.44
443.23	1767.40
443.43	1697.77
443.64	1738.73
443.84	1701.86
444.05	1824.74
444.25	1742.82
444.46	1681.38
444.66	1740.77
444.87	1771.49
445.07	1621.99
445.28	1695.72
445.48	1806.31
445.69	1755.11
445.89	1855.46
446.09	1783.78
446.30	2025.44
446.50	2590.68
446.71	3745.73
446.91	4276.16
447.12	4714.42
447.32	4741.05
447.53	4306.88
447.73	3852.23
447.93	3487.69
448.14	3186.64
448.34	3147.73
448.55	2863.06
448.75	2838.48
448.96	2703.32
449.16	2430.94
449.36	2269.15
449.57	2123.74
449.77	1861.60
449.98	1720.29
450.18	1722.34
450.39	1730.53
450.59	1763.30
450.79	1748.97
451.00	1767.40
451.20	1746.92
451.41	1681.38
451.61	1769.44
451.81	1742.82
452.02	1785.83
452.22	1728.49
452.43	1677.29
452.63	1699.81
