SpectraSuite Data File
++++++++++++++++++++++++++++++++++++
Date: Mon Jun 06 16:05:17 CEST 2016
User: root
Dark Spectrum Present: No
Reference Spectrum Present: No
Number of Sampled Component Spectra: 1
Spectrometers: USB4C02835
Integration Time (usec): 100000 (USB4C02835)
Spectra Averaged: 1 (USB4C02835)
Boxcar Smoothing: 0 (USB4C02835)
Correct for Electrical Dark: No (USB4C02835)
Strobe/Lamp Enabled: No (USB4C02835)
Correct for Detector Non-linearity: No (USB4C02835)
Correct for Stray Light: No (USB4C02835)
Number of Pixels in Processed Spectrum: 3648
>>>>>Begin Processed Spectral Data<<<<<
177.47	1476.59
177.69	1476.59
177.91	1476.59
178.13	1443.82
178.36	1445.87
178.58	1646.57
178.80	1740.77
179.02	1675.24
179.24	1738.73
179.46	1722.34
179.68	1732.58
179.90	1654.76
180.13	1775.59
180.35	1759.21
180.57	1708.01
180.79	1787.88
181.01	1681.38
181.23	1763.30
181.45	1783.78
181.67	1689.57
181.90	1796.07
182.12	1705.96
182.34	1662.95
182.56	1695.72
182.78	1751.01
183.00	1656.81
183.22	1765.35
183.44	1652.71
183.66	1806.31
183.89	1826.79
184.11	1728.49
184.33	1789.92
184.55	1818.60
184.77	1728.49
184.99	1736.68
185.21	1671.14
185.43	1822.69
185.65	1681.38
185.87	1714.15
186.10	1812.45
186.32	1937.38
186.54	1693.67
186.76	1703.91
186.98	1742.82
187.20	1646.57
187.42	1679.33
187.64	1736.68
187.86	1753.06
188.08	1767.40
188.30	1636.33
188.52	1734.63
188.75	1791.97
188.97	1798.12
189.19	1677.29
189.41	1681.38
189.63	1669.09
189.85	1773.54
190.07	1658.85
190.29	1667.05
190.51	1761.25
190.73	1583.08
190.95	1787.88
191.17	1701.86
191.39	1634.28
191.61	1650.66
191.84	1722.34
192.06	1755.11
192.28	1632.23
192.50	1898.47
192.72	1714.15
192.94	1699.81
193.16	1714.15
193.38	1697.77
193.60	1636.33
193.82	1710.05
194.04	1804.26
194.26	1744.87
194.48	1744.87
194.70	1642.47
194.92	1685.48
195.14	1703.91
195.36	1695.72
195.58	1759.21
195.80	1759.21
196.02	1705.96
196.24	1703.91
196.46	1716.20
196.69	1730.53
196.91	1800.16
197.13	1708.01
197.35	1691.62
197.57	1755.11
197.79	1789.92
198.01	1681.38
198.23	1761.25
198.45	1683.43
198.67	1705.96
198.89	1763.30
199.11	1710.05
199.33	1683.43
199.55	1591.27
199.77	1751.01
199.99	1732.58
200.21	1697.77
200.43	1769.44
200.65	1695.72
200.87	1665.00
201.09	1738.73
201.31	1742.82
201.53	1806.31
201.75	1796.07
201.97	1785.83
202.19	1701.86
202.41	1753.06
202.63	1816.55
202.85	1800.16
203.07	1744.87
203.29	1665.00
203.51	1677.29
203.73	1755.11
203.95	1918.95
204.17	1740.77
204.39	1695.72
204.61	1648.61
204.83	1705.96
205.05	1775.59
205.27	1785.83
205.49	1834.98
205.71	1681.38
205.93	1648.61
206.15	1689.57
206.37	1656.81
206.59	1732.58
206.81	1744.87
207.03	1681.38
207.25	1695.72
207.47	1740.77
207.69	1779.68
207.91	1853.41
208.13	1738.73
208.34	1632.23
208.56	1654.76
208.78	1714.15
209.00	1687.53
209.22	1648.61
209.44	1718.25
209.66	1703.91
209.88	1767.40
210.10	1669.09
210.32	1681.38
210.54	1802.21
210.76	1667.05
210.98	1697.77
211.20	1603.56
211.42	1705.96
211.64	1841.12
211.86	1796.07
212.08	1767.40
212.30	1716.20
212.52	1693.67
212.74	1775.59
212.96	1714.15
213.17	1712.10
213.39	1755.11
213.61	1769.44
213.83	1798.12
214.05	1628.14
214.27	1800.16
214.49	1656.81
214.71	1695.72
214.93	1748.97
215.15	1775.59
215.37	1763.30
215.59	1671.14
215.81	1724.39
216.03	1814.50
216.24	1734.63
216.46	1767.40
216.68	1665.00
216.90	1748.97
217.12	1820.64
217.34	1720.29
217.56	1722.34
217.78	1837.03
218.00	1697.77
218.22	1746.92
218.44	1765.35
218.66	1683.43
218.87	1839.08
219.09	1691.62
219.31	1722.34
219.53	1746.92
219.75	1695.72
219.97	1650.66
220.19	1724.39
220.41	1675.24
220.63	1843.17
220.85	1744.87
221.06	1742.82
221.28	1740.77
221.50	1697.77
221.72	1714.15
221.94	1773.54
222.16	1687.53
222.38	1810.40
222.60	1734.63
222.82	1781.73
223.03	1687.53
223.25	1646.57
223.47	1818.60
223.69	1861.60
223.91	1716.20
224.13	1738.73
224.35	1742.82
224.57	1773.54
224.78	1785.83
225.00	1660.90
225.22	1697.77
225.44	1746.92
225.66	1703.91
225.88	1712.10
226.10	1660.90
226.32	1742.82
226.53	1820.64
226.75	1748.97
226.97	1789.92
227.19	1695.72
227.41	1662.95
227.63	1673.19
227.85	1689.57
228.06	1736.68
228.28	1767.40
228.50	1800.16
228.72	1671.14
228.94	1714.15
229.16	1601.51
229.37	1710.05
229.59	1757.16
229.81	1775.59
230.03	1763.30
230.25	1621.99
230.47	1644.52
230.69	1640.42
230.90	1787.88
231.12	1675.24
231.34	1685.48
231.56	1816.55
231.78	1609.70
232.00	1718.25
232.21	1681.38
232.43	1695.72
232.65	1650.66
232.87	1685.48
233.09	1718.25
233.30	1753.06
233.52	1826.79
233.74	1681.38
233.96	1685.48
234.18	1710.05
234.40	1712.10
234.61	1820.64
234.83	1640.42
235.05	1585.13
235.27	1826.79
235.49	1824.74
235.70	1734.63
235.92	1736.68
236.14	1751.01
236.36	1814.50
236.58	1699.81
236.79	1759.21
237.01	1640.42
237.23	1697.77
237.45	1869.80
237.67	1677.29
237.88	1710.05
238.10	1791.97
238.32	1593.32
238.54	1710.05
238.76	1724.39
238.97	1640.42
239.19	1753.06
239.41	1751.01
239.63	1744.87
239.85	1738.73
240.06	1665.00
240.28	1683.43
240.50	1728.49
240.72	1755.11
240.93	1732.58
241.15	1796.07
241.37	1705.96
241.59	1785.83
241.81	1775.59
242.02	1642.47
242.24	1714.15
242.46	1771.49
242.68	1650.66
242.89	1689.57
243.11	1757.16
243.33	1748.97
243.55	1642.47
243.76	1777.64
243.98	1732.58
244.20	1755.11
244.42	1732.58
244.64	1730.53
244.85	1685.48
245.07	1652.71
245.29	1783.78
245.51	1695.72
245.72	1781.73
245.94	1767.40
246.16	1724.39
246.38	1814.50
246.59	1671.14
246.81	1617.90
247.03	1726.44
247.24	1605.61
247.46	1691.62
247.68	1640.42
247.90	1669.09
248.11	1691.62
248.33	1767.40
248.55	1802.21
248.77	1667.05
248.98	1810.40
249.20	1888.23
249.42	1728.49
249.64	1726.44
249.85	1691.62
250.07	1681.38
250.29	1804.26
250.50	1818.60
250.72	1597.42
250.94	1738.73
251.16	1822.69
251.37	1769.44
251.59	1708.01
251.81	1705.96
252.02	1814.50
252.24	1671.14
252.46	1847.27
252.68	1665.00
252.89	1742.82
253.11	1640.42
253.33	1837.03
253.54	1816.55
253.76	1669.09
253.98	1656.81
254.20	1697.77
254.41	1640.42
254.63	1722.34
254.85	1650.66
255.06	1634.28
255.28	1724.39
255.50	1679.33
255.71	1677.29
255.93	1662.95
256.15	1724.39
256.36	1726.44
256.58	1730.53
256.80	1699.81
257.02	1716.20
257.23	1708.01
257.45	1691.62
257.67	1705.96
257.88	1738.73
258.10	1755.11
258.32	1773.54
258.53	1675.24
258.75	1773.54
258.97	1675.24
259.18	1710.05
259.40	1738.73
259.62	1761.25
259.83	1738.73
260.05	1777.64
260.27	1968.10
260.48	1781.73
260.70	1710.05
260.92	1703.91
261.13	1660.90
261.35	1746.92
261.57	1734.63
261.78	1667.05
262.00	1640.42
262.22	1765.35
262.43	1632.23
262.65	1624.04
262.86	1716.20
263.08	1853.41
263.30	1708.01
263.51	1665.00
263.73	1617.90
263.95	1785.83
264.16	1703.91
264.38	1720.29
264.60	1689.57
264.81	1630.18
265.03	1734.63
265.25	1822.69
265.46	1697.77
265.68	1808.36
265.89	1845.22
266.11	1648.61
266.33	1742.82
266.54	1798.12
266.76	1722.34
266.98	1740.77
267.19	1734.63
267.41	1802.21
267.62	1652.71
267.84	1648.61
268.06	1722.34
268.27	1722.34
268.49	1796.07
268.70	1771.49
268.92	1763.30
269.14	1640.42
269.35	1648.61
269.57	1673.19
269.79	1781.73
270.00	1726.44
270.22	1777.64
270.43	1648.61
270.65	1599.46
270.87	1695.72
271.08	1753.06
271.30	1718.25
271.51	1619.94
271.73	1687.53
271.95	1746.92
272.16	1734.63
272.38	1701.86
272.59	1787.88
272.81	1726.44
273.02	1718.25
273.24	1740.77
273.46	1718.25
273.67	1687.53
273.89	1619.94
274.10	1748.97
274.32	1802.21
274.54	1738.73
274.75	1734.63
274.97	1687.53
275.18	1785.83
275.40	1716.20
275.61	1712.10
275.83	1734.63
276.05	1615.85
276.26	1724.39
276.48	1748.97
276.69	1574.89
276.91	1716.20
277.12	1826.79
277.34	1771.49
277.55	1828.84
277.77	1710.05
277.99	1677.29
278.20	1591.27
278.42	1660.90
278.63	1650.66
278.85	1589.22
279.06	1546.22
279.28	1699.81
279.49	1779.68
279.71	1748.97
279.93	1765.35
280.14	1658.85
280.36	1658.85
280.57	1806.31
280.79	1718.25
281.00	1783.78
281.22	1669.09
281.43	1849.32
281.65	1603.56
281.86	1640.42
282.08	1695.72
282.29	1773.54
282.51	1568.74
282.73	1691.62
282.94	1605.61
283.16	1708.01
283.37	1748.97
283.59	1724.39
283.80	1632.23
284.02	1683.43
284.23	1665.00
284.45	1720.29
284.66	1685.48
284.88	1640.42
285.09	1746.92
285.31	1746.92
285.52	1759.21
285.74	1644.52
285.95	1847.27
286.17	1716.20
286.38	1779.68
286.60	1642.47
286.81	1714.15
287.03	1658.85
287.24	1695.72
287.46	1773.54
287.67	1746.92
287.89	1814.50
288.10	1708.01
288.32	1662.95
288.53	1789.92
288.75	1644.52
288.96	1798.12
289.18	1730.53
289.39	1701.86
289.61	1740.77
289.82	1851.36
290.04	1839.08
290.25	1658.85
290.47	1679.33
290.68	1675.24
290.90	1757.16
291.11	1640.42
291.33	1728.49
291.54	1646.57
291.76	1630.18
291.97	1748.97
292.18	1697.77
292.40	1681.38
292.61	1712.10
292.83	1849.32
293.04	1804.26
293.26	1775.59
293.47	1673.19
293.69	1576.94
293.90	1763.30
294.12	1798.12
294.33	1730.53
294.55	1755.11
294.76	1787.88
294.97	1724.39
295.19	1826.79
295.40	1626.09
295.62	1685.48
295.83	1716.20
296.05	1640.42
296.26	1787.88
296.48	1712.10
296.69	1767.40
296.90	1751.01
297.12	1761.25
297.33	1822.69
297.55	1697.77
297.76	1718.25
297.98	1800.16
298.19	1712.10
298.41	1691.62
298.62	1687.53
298.83	1806.31
299.05	1718.25
299.26	1636.33
299.48	1673.19
299.69	1736.68
299.90	1669.09
300.12	1648.61
300.33	1814.50
300.55	1720.29
300.76	1796.07
300.98	1722.34
301.19	1804.26
301.40	1753.06
301.62	1734.63
301.83	1738.73
302.05	1697.77
302.26	1693.67
302.47	1763.30
302.69	1658.85
302.90	1683.43
303.12	1593.32
303.33	1830.88
303.54	1812.45
303.76	1636.33
303.97	1736.68
304.19	1839.08
304.40	1695.72
304.61	1753.06
304.83	1779.68
305.04	1767.40
305.26	1726.44
305.47	1646.57
305.68	1662.95
305.90	1624.04
306.11	1777.64
306.33	1673.19
306.54	1624.04
306.75	1662.95
306.97	1646.57
307.18	1642.47
307.39	1693.67
307.61	1753.06
307.82	1665.00
308.04	1839.08
308.25	1712.10
308.46	1705.96
308.68	1746.92
308.89	1765.35
309.10	1765.35
309.32	1761.25
309.53	1691.62
309.74	1681.38
309.96	1755.11
310.17	1814.50
310.39	1667.05
310.60	1681.38
310.81	1753.06
311.03	1669.09
311.24	1679.33
311.45	1701.86
311.67	1789.92
311.88	1728.49
312.09	1693.67
312.31	1570.79
312.52	1673.19
312.73	1718.25
312.95	1685.48
313.16	1685.48
313.37	1734.63
313.59	1759.21
313.80	1726.44
314.01	1828.84
314.23	1724.39
314.44	1648.61
314.65	1640.42
314.87	1636.33
315.08	1726.44
315.29	1646.57
315.51	1710.05
315.72	1687.53
315.93	1853.41
316.15	1802.21
316.36	1673.19
316.57	1683.43
316.79	1767.40
317.00	1654.76
317.21	1820.64
317.43	1634.28
317.64	1652.71
317.85	1724.39
318.07	1667.05
318.28	1779.68
318.49	1798.12
318.70	1945.57
318.92	1802.21
319.13	1753.06
319.34	1828.84
319.56	1820.64
319.77	1785.83
319.98	1832.93
320.20	1816.55
320.41	1773.54
320.62	1736.68
320.83	1722.34
321.05	1824.74
321.26	1865.70
321.47	1714.15
321.69	1847.27
321.90	1634.28
322.11	1677.29
322.32	1726.44
322.54	1820.64
322.75	1687.53
322.96	1882.08
323.18	1646.57
323.39	1652.71
323.60	1607.66
323.81	1783.78
324.03	1673.19
324.24	1777.64
324.45	1714.15
324.66	1769.44
324.88	1767.40
325.09	1783.78
325.30	1710.05
325.52	1759.21
325.73	1759.21
325.94	1677.29
326.15	1560.55
326.37	1660.90
326.58	1794.02
326.79	1804.26
327.00	1646.57
327.22	1769.44
327.43	1685.48
327.64	1677.29
327.85	1767.40
328.07	1781.73
328.28	1783.78
328.49	1652.71
328.70	1722.34
328.92	1673.19
329.13	1689.57
329.34	1712.10
329.55	1767.40
329.76	1779.68
329.98	1673.19
330.19	1816.55
330.40	1728.49
330.61	1736.68
330.83	1732.58
331.04	1636.33
331.25	1755.11
331.46	1716.20
331.68	1640.42
331.89	1751.01
332.10	1730.53
332.31	1599.46
332.52	1734.63
332.74	1767.40
332.95	1587.18
333.16	1685.48
333.37	1773.54
333.58	1697.77
333.80	1650.66
334.01	1656.81
334.22	1736.68
334.43	1712.10
334.64	1665.00
334.86	1578.98
335.07	1665.00
335.28	1832.93
335.49	1679.33
335.70	1783.78
335.92	1804.26
336.13	1871.84
336.34	1779.68
336.55	1718.25
336.76	1710.05
336.98	1619.94
337.19	1683.43
337.40	1806.31
337.61	1851.36
337.82	1681.38
338.04	1742.82
338.25	1662.95
338.46	1677.29
338.67	1718.25
338.88	1685.48
339.09	1646.57
339.31	1697.77
339.52	1687.53
339.73	1669.09
339.94	1736.68
340.15	1744.87
340.36	1632.23
340.58	1730.53
340.79	1687.53
341.00	1677.29
341.21	1609.70
341.42	1839.08
341.63	1744.87
341.85	1705.96
342.06	1677.29
342.27	1638.38
342.48	1716.20
342.69	1652.71
342.90	1699.81
343.12	1755.11
343.33	1728.49
343.54	1714.15
343.75	1777.64
343.96	1671.14
344.17	1640.42
344.38	1714.15
344.60	1646.57
344.81	1640.42
345.02	1683.43
345.23	1830.88
345.44	1787.88
345.65	1777.64
345.86	1763.30
346.07	1679.33
346.29	1679.33
346.50	1683.43
346.71	1732.58
346.92	1787.88
347.13	1806.31
347.34	1681.38
347.55	1818.60
347.76	1785.83
347.98	1578.98
348.19	1679.33
348.40	1845.22
348.61	1705.96
348.82	1783.78
349.03	1736.68
349.24	1675.24
349.45	1832.93
349.66	1628.14
349.88	1675.24
350.09	1662.95
350.30	1767.40
350.51	1746.92
350.72	1642.47
350.93	1705.96
351.14	1667.05
351.35	1748.97
351.56	1751.01
351.77	1746.92
351.99	1755.11
352.20	1820.64
352.41	1802.21
352.62	1650.66
352.83	1724.39
353.04	1763.30
353.25	1705.96
353.46	1769.44
353.67	1720.29
353.88	1542.12
354.09	1746.92
354.30	1726.44
354.52	1746.92
354.73	1624.04
354.94	1720.29
355.15	1779.68
355.36	1796.07
355.57	1779.68
355.78	1748.97
355.99	1662.95
356.20	1673.19
356.41	1796.07
356.62	1818.60
356.83	1744.87
357.04	1802.21
357.25	1619.94
357.46	1658.85
357.68	1656.81
357.89	1640.42
358.10	1771.49
358.31	1689.57
358.52	1722.34
358.73	1689.57
358.94	1693.67
359.15	1632.23
359.36	1771.49
359.57	1800.16
359.78	1763.30
359.99	1826.79
360.20	1636.33
360.41	1708.01
360.62	1716.20
360.83	1667.05
361.04	1716.20
361.25	1742.82
361.46	1765.35
361.67	1748.97
361.88	1708.01
362.09	1742.82
362.30	1697.77
362.51	1730.53
362.72	1665.00
362.93	1716.20
363.14	1800.16
363.35	1757.16
363.56	1650.66
363.78	1798.12
363.99	1775.59
364.20	1701.86
364.41	1738.73
364.62	1822.69
364.83	1699.81
365.04	1677.29
365.25	1742.82
365.46	1863.65
365.67	1665.00
365.88	1581.03
366.09	1701.86
366.30	1724.39
366.51	1724.39
366.72	1634.28
366.93	1742.82
367.14	1726.44
367.35	1734.63
367.56	1681.38
367.77	1796.07
367.98	1630.18
368.18	1738.73
368.39	1773.54
368.60	1615.85
368.81	1742.82
369.02	1763.30
369.23	1718.25
369.44	1652.71
369.65	1699.81
369.86	1656.81
370.07	1734.63
370.28	1650.66
370.49	1742.82
370.70	1736.68
370.91	1687.53
371.12	1617.90
371.33	1755.11
371.54	1697.77
371.75	1851.36
371.96	1568.74
372.17	1662.95
372.38	1724.39
372.59	1787.88
372.80	1626.09
373.01	1691.62
373.22	1689.57
373.43	1718.25
373.64	1650.66
373.85	1767.40
374.06	1785.83
374.26	1722.34
374.47	1722.34
374.68	1859.56
374.89	1736.68
375.10	1660.90
375.31	1847.27
375.52	1730.53
375.73	1708.01
375.94	1667.05
376.15	1783.78
376.36	1673.19
376.57	1662.95
376.78	1611.75
376.99	1751.01
377.20	1767.40
377.40	1720.29
377.61	1845.22
377.82	1652.71
378.03	1794.02
378.24	1763.30
378.45	1791.97
378.66	1761.25
378.87	1632.23
379.08	1581.03
379.29	1640.42
379.50	1689.57
379.71	1746.92
379.91	1732.58
380.12	1701.86
380.33	1751.01
380.54	1742.82
380.75	1800.16
380.96	1699.81
381.17	1773.54
381.38	1812.45
381.59	1771.49
381.80	1748.97
382.00	1818.60
382.21	1824.74
382.42	1855.46
382.63	1794.02
382.84	1789.92
383.05	1794.02
383.26	1763.30
383.47	1759.21
383.68	1742.82
383.88	1748.97
384.09	1783.78
384.30	1751.01
384.51	1761.25
384.72	1701.86
384.93	1665.00
385.14	1748.97
385.35	1697.77
385.55	1660.90
385.76	1806.31
385.97	1720.29
386.18	1671.14
386.39	1660.90
386.60	1748.97
386.81	1757.16
387.02	1683.43
387.22	1699.81
387.43	1761.25
387.64	1853.41
387.85	1902.56
388.06	2095.07
388.27	4358.08
388.48	6584.22
388.68	8193.92
388.89	9621.36
389.10	9549.68
389.31	8626.04
389.52	7575.44
389.73	6754.20
389.93	6180.77
390.14	5826.47
390.35	5134.26
390.56	4442.04
390.77	3717.06
390.98	3028.95
391.18	2541.53
391.39	2070.50
391.60	1869.80
391.81	1828.84
392.02	1806.31
392.23	1871.84
392.43	1791.97
392.64	1781.73
392.85	1691.62
393.06	1859.56
393.27	1665.00
393.47	1722.34
393.68	1804.26
393.89	1675.24
394.10	1714.15
394.31	1753.06
394.52	1650.66
394.72	1722.34
394.93	1794.02
395.14	1654.76
395.35	1744.87
395.56	1689.57
395.76	1781.73
395.97	1771.49
396.18	1812.45
396.39	1918.95
396.60	2082.78
396.80	1908.71
397.01	1791.97
397.22	1796.07
397.43	1933.28
397.64	1726.44
397.84	1828.84
398.05	1820.64
398.26	1757.16
398.47	1757.16
398.67	1765.35
398.88	1738.73
399.09	1757.16
399.30	1689.57
399.51	1757.16
399.71	1730.53
399.92	1677.29
400.13	1751.01
400.34	1685.48
400.54	1826.79
400.75	1826.79
400.96	1742.82
401.17	1787.88
401.37	1763.30
401.58	1646.57
401.79	1708.01
402.00	1896.42
402.21	1992.67
402.41	1892.32
402.62	2037.73
402.83	2043.87
403.04	2002.91
403.24	2154.46
403.45	1816.55
403.66	1918.95
403.87	1875.94
404.07	1929.19
404.28	1912.80
404.49	1894.37
404.70	1843.17
404.90	1742.82
405.11	1767.40
405.32	1720.29
405.52	1769.44
405.73	1634.28
405.94	1730.53
406.15	1775.59
406.35	1779.68
406.56	1771.49
406.77	1746.92
406.98	1710.05
407.18	1662.95
407.39	1802.21
407.60	1716.20
407.80	1857.51
408.01	1712.10
408.22	1708.01
408.43	1779.68
408.63	1818.60
408.84	1800.16
409.05	1714.15
409.25	1689.57
409.46	1763.30
409.67	1578.98
409.88	1705.96
410.08	1675.24
410.29	1738.73
410.50	1693.67
410.70	1777.64
410.91	1669.09
411.12	1689.57
411.32	1738.73
411.53	1705.96
411.74	1800.16
411.95	1736.68
412.15	1714.15
412.36	1886.18
412.57	1746.92
412.77	1810.40
412.98	1759.21
413.19	1656.81
413.39	1746.92
413.60	1802.21
413.81	1806.31
414.01	1699.81
414.22	1789.92
414.43	1722.34
414.63	1757.16
414.84	1814.50
415.05	1726.44
415.25	1714.15
415.46	1701.86
415.67	1691.62
415.87	1714.15
416.08	1705.96
416.29	1656.81
416.49	1744.87
416.70	1683.43
416.91	1687.53
417.11	1662.95
417.32	1718.25
417.53	1765.35
417.73	1763.30
417.94	1834.98
418.15	1705.96
418.35	1794.02
418.56	1689.57
418.77	1820.64
418.97	1732.58
419.18	1689.57
419.38	1650.66
419.59	1710.05
419.80	1882.08
420.00	1697.77
420.21	1669.09
420.42	1787.88
420.62	1708.01
420.83	1640.42
421.04	1718.25
421.24	1736.68
421.45	1771.49
421.65	1730.53
421.86	1718.25
422.07	1771.49
422.27	1736.68
422.48	1742.82
422.69	1646.57
422.89	1767.40
423.10	1687.53
423.30	1697.77
423.51	1705.96
423.72	1761.25
423.92	1751.01
424.13	1603.56
424.33	1734.63
424.54	1855.46
424.75	1656.81
424.95	1812.45
425.16	1791.97
425.36	1677.29
425.57	1771.49
425.78	1767.40
425.98	1798.12
426.19	1646.57
426.39	1744.87
426.60	1720.29
426.81	1806.31
427.01	1712.10
427.22	1681.38
427.42	1566.70
427.63	1646.57
427.83	1787.88
428.04	1888.23
428.25	1814.50
428.45	1763.30
428.66	1736.68
428.86	1679.33
429.07	1755.11
429.28	1708.01
429.48	1722.34
429.69	1599.46
429.89	1726.44
430.10	1669.09
430.30	1708.01
430.51	1857.51
430.71	1644.52
430.92	1769.44
431.13	1687.53
431.33	1771.49
431.54	1751.01
431.74	1814.50
431.95	1884.13
432.15	1665.00
432.36	1714.15
432.56	1783.78
432.77	1818.60
432.98	1863.65
433.18	1728.49
433.39	1714.15
433.59	1730.53
433.80	1894.37
434.00	1861.60
434.21	1693.67
434.41	1679.33
434.62	1867.75
434.82	1628.14
435.03	1705.96
435.23	1822.69
435.44	1656.81
435.64	1712.10
435.85	1746.92
436.06	1783.78
436.26	1751.01
436.47	1636.33
436.67	1667.05
436.88	1687.53
437.08	1736.68
437.29	1837.03
437.49	1718.25
437.70	1763.30
437.90	1755.11
438.11	1914.85
438.31	1869.80
438.52	1898.47
438.72	1894.37
438.93	1880.04
439.13	1830.88
439.34	1865.70
439.54	1742.82
439.75	1773.54
439.95	1771.49
440.16	1716.20
440.36	1685.48
440.57	1781.73
440.77	1787.88
440.98	1699.81
441.18	1824.74
441.39	1724.39
441.59	1665.00
441.80	1857.51
442.00	1779.68
442.21	1802.21
442.41	1705.96
442.62	1816.55
442.82	1683.43
443.02	1746.92
443.23	1740.77
443.43	1724.39
443.64	1810.40
443.84	1716.20
444.05	1822.69
444.25	1738.73
444.46	1701.86
444.66	1728.49
444.87	1863.65
445.07	1681.38
445.28	1722.34
445.48	1794.02
445.69	1755.11
445.89	1931.23
446.09	1839.08
446.30	2050.02
446.50	2586.58
446.71	3874.76
446.91	4347.84
447.12	4751.29
447.32	4695.99
447.53	4216.77
447.73	3864.52
447.93	3454.92
448.14	3334.09
448.34	3225.55
448.55	2815.96
448.75	2815.96
448.96	2678.74
449.16	2394.08
449.36	2285.53
449.57	2105.31
449.77	1898.47
449.98	1740.77
450.18	1845.22
450.39	1834.98
450.59	1822.69
450.79	1679.33
451.00	1746.92
451.20	1787.88
451.41	1759.21
451.61	1763.30
451.81	1773.54
452.02	1718.25
452.22	1730.53
452.43	1787.88
452.63	1658.85
