SpectraSuite Data File
++++++++++++++++++++++++++++++++++++
Date: Mon Jun 06 12:10:57 CEST 2016
User: root
Dark Spectrum Present: No
Reference Spectrum Present: No
Number of Sampled Component Spectra: 1
Spectrometers: USB4C02835
Integration Time (usec): 100000 (USB4C02835)
Spectra Averaged: 1 (USB4C02835)
Boxcar Smoothing: 0 (USB4C02835)
Correct for Electrical Dark: No (USB4C02835)
Strobe/Lamp Enabled: No (USB4C02835)
Correct for Detector Non-linearity: No (USB4C02835)
Correct for Stray Light: No (USB4C02835)
Number of Pixels in Processed Spectrum: 3648
>>>>>Begin Processed Spectral Data<<<<<
177.47	1511.40
177.69	1511.40
177.91	1511.40
178.13	1413.10
178.36	1429.48
178.58	1679.33
178.80	1679.33
179.02	1697.77
179.24	1589.22
179.46	1665.00
179.68	1671.14
179.90	1699.81
180.13	1644.52
180.35	1624.04
180.57	1734.63
180.79	1650.66
181.01	1646.57
181.23	1746.92
181.45	1791.97
181.67	1716.20
181.90	1734.63
182.12	1644.52
182.34	1630.18
182.56	1716.20
182.78	1753.06
183.00	1626.09
183.22	1691.62
183.44	1564.65
183.66	1771.49
183.89	1783.78
184.11	1683.43
184.33	1722.34
184.55	1763.30
184.77	1697.77
184.99	1697.77
185.21	1613.80
185.43	1728.49
185.65	1695.72
185.87	1636.33
186.10	1873.89
186.32	1814.50
186.54	1660.90
186.76	1714.15
186.98	1732.58
187.20	1701.86
187.42	1683.43
187.64	1710.05
187.86	1660.90
188.08	1746.92
188.30	1611.75
188.52	1708.01
188.75	1781.73
188.97	1738.73
189.19	1591.27
189.41	1693.67
189.63	1642.47
189.85	1716.20
190.07	1667.05
190.29	1591.27
190.51	1712.10
190.73	1656.81
190.95	1810.40
191.17	1716.20
191.39	1531.88
191.61	1708.01
191.84	1681.38
192.06	1689.57
192.28	1576.94
192.50	1877.99
192.72	1716.20
192.94	1710.05
193.16	1779.68
193.38	1681.38
193.60	1683.43
193.82	1671.14
194.04	1714.15
194.26	1720.29
194.48	1730.53
194.70	1650.66
194.92	1658.85
195.14	1652.71
195.36	1609.70
195.58	1800.16
195.80	1671.14
196.02	1677.29
196.24	1669.09
196.46	1812.45
196.69	1695.72
196.91	1849.32
197.13	1658.85
197.35	1658.85
197.57	1843.17
197.79	1716.20
198.01	1732.58
198.23	1783.78
198.45	1718.25
198.67	1665.00
198.89	1736.68
199.11	1638.38
199.33	1695.72
199.55	1556.46
199.77	1744.87
199.99	1742.82
200.21	1734.63
200.43	1701.86
200.65	1626.09
200.87	1593.32
201.09	1691.62
201.31	1642.47
201.53	1726.44
201.75	1697.77
201.97	1685.48
202.19	1746.92
202.41	1714.15
202.63	1800.16
202.85	1751.01
203.07	1705.96
203.29	1738.73
203.51	1609.70
203.73	1597.42
203.95	1914.85
204.17	1736.68
204.39	1675.24
204.61	1773.54
204.83	1632.23
205.05	1720.29
205.27	1728.49
205.49	1808.36
205.71	1726.44
205.93	1652.71
206.15	1708.01
206.37	1685.48
206.59	1675.24
206.81	1673.19
207.03	1656.81
207.25	1613.80
207.47	1728.49
207.69	1665.00
207.91	1769.44
208.13	1757.16
208.34	1632.23
208.56	1583.08
208.78	1708.01
209.00	1671.14
209.22	1683.43
209.44	1701.86
209.66	1665.00
209.88	1697.77
210.10	1621.99
210.32	1642.47
210.54	1798.12
210.76	1634.28
210.98	1736.68
211.20	1566.70
211.42	1705.96
211.64	1718.25
211.86	1804.26
212.08	1705.96
212.30	1681.38
212.52	1667.05
212.74	1724.39
212.96	1763.30
213.17	1765.35
213.39	1732.58
213.61	1740.77
213.83	1748.97
214.05	1574.89
214.27	1712.10
214.49	1693.67
214.71	1687.53
214.93	1681.38
215.15	1720.29
215.37	1699.81
215.59	1615.85
215.81	1628.14
216.03	1732.58
216.24	1701.86
216.46	1667.05
216.68	1701.86
216.90	1685.48
217.12	1705.96
217.34	1685.48
217.56	1671.14
217.78	1787.88
218.00	1779.68
218.22	1673.19
218.44	1660.90
218.66	1742.82
218.87	1675.24
219.09	1658.85
219.31	1699.81
219.53	1769.44
219.75	1628.14
219.97	1712.10
220.19	1646.57
220.41	1679.33
220.63	1789.92
220.85	1767.40
221.06	1617.90
221.28	1759.21
221.50	1705.96
221.72	1619.94
221.94	1687.53
222.16	1765.35
222.38	1746.92
222.60	1742.82
222.82	1628.14
223.03	1761.25
223.25	1656.81
223.47	1734.63
223.69	1802.21
223.91	1691.62
224.13	1669.09
224.35	1634.28
224.57	1691.62
224.78	1679.33
225.00	1654.76
225.22	1742.82
225.44	1656.81
225.66	1791.97
225.88	1603.56
226.10	1720.29
226.32	1783.78
226.53	1837.03
226.75	1703.91
226.97	1722.34
227.19	1695.72
227.41	1644.52
227.63	1681.38
227.85	1574.89
228.06	1736.68
228.28	1712.10
228.50	1767.40
228.72	1640.42
228.94	1595.37
229.16	1552.36
229.37	1617.90
229.59	1628.14
229.81	1748.97
230.03	1726.44
230.25	1621.99
230.47	1595.37
230.69	1617.90
230.90	1710.05
231.12	1675.24
231.34	1646.57
231.56	1736.68
231.78	1648.61
232.00	1730.53
232.21	1732.58
232.43	1671.14
232.65	1626.09
232.87	1667.05
233.09	1667.05
233.30	1607.66
233.52	1699.81
233.74	1644.52
233.96	1675.24
234.18	1751.01
234.40	1632.23
234.61	1861.60
234.83	1578.98
235.05	1578.98
235.27	1880.04
235.49	1765.35
235.70	1701.86
235.92	1753.06
236.14	1742.82
236.36	1753.06
236.58	1640.42
236.79	1658.85
237.01	1714.15
237.23	1691.62
237.45	1806.31
237.67	1689.57
237.88	1642.47
238.10	1822.69
238.32	1671.14
238.54	1578.98
238.76	1703.91
238.97	1691.62
239.19	1689.57
239.41	1671.14
239.63	1697.77
239.85	1671.14
240.06	1691.62
240.28	1656.81
240.50	1748.97
240.72	1660.90
240.93	1665.00
241.15	1746.92
241.37	1710.05
241.59	1722.34
241.81	1714.15
242.02	1630.18
242.24	1748.97
242.46	1691.62
242.68	1560.55
242.89	1685.48
243.11	1652.71
243.33	1681.38
243.55	1759.21
243.76	1718.25
243.98	1595.37
244.20	1699.81
244.42	1746.92
244.64	1712.10
244.85	1615.85
245.07	1626.09
245.29	1761.25
245.51	1712.10
245.72	1687.53
245.94	1775.59
246.16	1720.29
246.38	1767.40
246.59	1730.53
246.81	1607.66
247.03	1677.29
247.24	1525.74
247.46	1705.96
247.68	1662.95
247.90	1705.96
248.11	1652.71
248.33	1787.88
248.55	1771.49
248.77	1648.61
248.98	1759.21
249.20	1822.69
249.42	1681.38
249.64	1710.05
249.85	1611.75
250.07	1691.62
250.29	1728.49
250.50	1783.78
250.72	1621.99
250.94	1773.54
251.16	1845.22
251.37	1763.30
251.59	1669.09
251.81	1714.15
252.02	1806.31
252.24	1691.62
252.46	1769.44
252.68	1585.13
252.89	1656.81
253.11	1599.46
253.33	1767.40
253.54	1798.12
253.76	1693.67
253.98	1677.29
254.20	1798.12
254.41	1640.42
254.63	1669.09
254.85	1593.32
255.06	1673.19
255.28	1718.25
255.50	1644.52
255.71	1607.66
255.93	1601.51
256.15	1669.09
256.36	1691.62
256.58	1642.47
256.80	1716.20
257.02	1650.66
257.23	1665.00
257.45	1650.66
257.67	1777.64
257.88	1654.76
258.10	1648.61
258.32	1626.09
258.53	1738.73
258.75	1748.97
258.97	1646.57
259.18	1648.61
259.40	1714.15
259.62	1794.02
259.83	1697.77
260.05	1718.25
260.27	1957.86
260.48	1757.16
260.70	1609.70
260.92	1738.73
261.13	1699.81
261.35	1679.33
261.57	1722.34
261.78	1525.74
262.00	1712.10
262.22	1679.33
262.43	1601.51
262.65	1597.42
262.86	1685.48
263.08	1800.16
263.30	1732.58
263.51	1611.75
263.73	1656.81
263.95	1726.44
264.16	1609.70
264.38	1744.87
264.60	1755.11
264.81	1720.29
265.03	1722.34
265.25	1701.86
265.46	1710.05
265.68	1769.44
265.89	1697.77
266.11	1599.46
266.33	1753.06
266.54	1804.26
266.76	1740.77
266.98	1728.49
267.19	1781.73
267.41	1755.11
267.62	1611.75
267.84	1669.09
268.06	1626.09
268.27	1681.38
268.49	1763.30
268.70	1822.69
268.92	1703.91
269.14	1630.18
269.35	1581.03
269.57	1755.11
269.79	1687.53
270.00	1669.09
270.22	1734.63
270.43	1656.81
270.65	1581.03
270.87	1665.00
271.08	1705.96
271.30	1742.82
271.51	1640.42
271.73	1757.16
271.95	1726.44
272.16	1675.24
272.38	1699.81
272.59	1574.89
272.81	1777.64
273.02	1703.91
273.24	1683.43
273.46	1800.16
273.67	1621.99
273.89	1642.47
274.10	1665.00
274.32	1744.87
274.54	1742.82
274.75	1724.39
274.97	1683.43
275.18	1744.87
275.40	1697.77
275.61	1687.53
275.83	1765.35
276.05	1667.05
276.26	1681.38
276.48	1714.15
276.69	1693.67
276.91	1679.33
277.12	1763.30
277.34	1716.20
277.55	1751.01
277.77	1669.09
277.99	1669.09
278.20	1605.61
278.42	1632.23
278.63	1570.79
278.85	1601.51
279.06	1615.85
279.28	1724.39
279.49	1681.38
279.71	1726.44
279.93	1710.05
280.14	1669.09
280.36	1599.46
280.57	1734.63
280.79	1650.66
281.00	1673.19
281.22	1589.22
281.43	1773.54
281.65	1605.61
281.86	1634.28
282.08	1673.19
282.29	1865.70
282.51	1615.85
282.73	1611.75
282.94	1646.57
283.16	1757.16
283.37	1726.44
283.59	1705.96
283.80	1718.25
284.02	1691.62
284.23	1705.96
284.45	1648.61
284.66	1640.42
284.88	1683.43
285.09	1703.91
285.31	1736.68
285.52	1718.25
285.74	1626.09
285.95	1691.62
286.17	1740.77
286.38	1685.48
286.60	1691.62
286.81	1597.42
287.03	1697.77
287.24	1699.81
287.46	1748.97
287.67	1646.57
287.89	1826.79
288.10	1669.09
288.32	1767.40
288.53	1701.86
288.75	1689.57
288.96	1714.15
289.18	1607.66
289.39	1761.25
289.61	1763.30
289.82	1845.22
290.04	1785.83
290.25	1558.50
290.47	1673.19
290.68	1628.14
290.90	1656.81
291.11	1626.09
291.33	1730.53
291.54	1566.70
291.76	1636.33
291.97	1656.81
292.18	1746.92
292.40	1671.14
292.61	1648.61
292.83	1800.16
293.04	1730.53
293.26	1654.76
293.47	1703.91
293.69	1632.23
293.90	1648.61
294.12	1787.88
294.33	1652.71
294.55	1703.91
294.76	1695.72
294.97	1806.31
295.19	1804.26
295.40	1603.56
295.62	1757.16
295.83	1777.64
296.05	1705.96
296.26	1767.40
296.48	1630.18
296.69	1714.15
296.90	1742.82
297.12	1693.67
297.33	1779.68
297.55	1705.96
297.76	1734.63
297.98	1751.01
298.19	1751.01
298.41	1705.96
298.62	1636.33
298.83	1726.44
299.05	1665.00
299.26	1652.71
299.48	1689.57
299.69	1716.20
299.90	1685.48
300.12	1665.00
300.33	1673.19
300.55	1644.52
300.76	1693.67
300.98	1648.61
301.19	1779.68
301.40	1599.46
301.62	1644.52
301.83	1687.53
302.05	1681.38
302.26	1675.24
302.47	1701.86
302.69	1585.13
302.90	1728.49
303.12	1626.09
303.33	1685.48
303.54	1742.82
303.76	1640.42
303.97	1712.10
304.19	1781.73
304.40	1619.94
304.61	1624.04
304.83	1824.74
305.04	1740.77
305.26	1720.29
305.47	1642.47
305.68	1701.86
305.90	1652.71
306.11	1693.67
306.33	1681.38
306.54	1607.66
306.75	1689.57
306.97	1609.70
307.18	1675.24
307.39	1619.94
307.61	1757.16
307.82	1652.71
308.04	1681.38
308.25	1669.09
308.46	1755.11
308.68	1708.01
308.89	1630.18
309.10	1726.44
309.32	1757.16
309.53	1624.04
309.74	1697.77
309.96	1734.63
310.17	1787.88
310.39	1632.23
310.60	1755.11
310.81	1644.52
311.03	1634.28
311.24	1685.48
311.45	1699.81
311.67	1861.60
311.88	1701.86
312.09	1740.77
312.31	1621.99
312.52	1677.29
312.73	1652.71
312.95	1595.37
313.16	1675.24
313.37	1783.78
313.59	1652.71
313.80	1693.67
314.01	1738.73
314.23	1720.29
314.44	1652.71
314.65	1654.76
314.87	1677.29
315.08	1628.14
315.29	1683.43
315.51	1703.91
315.72	1638.38
315.93	1777.64
316.15	1751.01
316.36	1693.67
316.57	1687.53
316.79	1728.49
317.00	1669.09
317.21	1732.58
317.43	1656.81
317.64	1710.05
317.85	1665.00
318.07	1570.79
318.28	1732.58
318.49	1816.55
318.70	1933.28
318.92	1800.16
319.13	1740.77
319.34	1789.92
319.56	1757.16
319.77	1712.10
319.98	1738.73
320.20	1810.40
320.41	1751.01
320.62	1742.82
320.83	1660.90
321.05	1814.50
321.26	1662.95
321.47	1621.99
321.69	1738.73
321.90	1650.66
322.11	1628.14
322.32	1697.77
322.54	1765.35
322.75	1609.70
322.96	1843.17
323.18	1624.04
323.39	1570.79
323.60	1607.66
323.81	1722.34
324.03	1693.67
324.24	1755.11
324.45	1693.67
324.66	1710.05
324.88	1722.34
325.09	1808.36
325.30	1683.43
325.52	1738.73
325.73	1701.86
325.94	1591.27
326.15	1669.09
326.37	1624.04
326.58	1763.30
326.79	1724.39
327.00	1626.09
327.22	1652.71
327.43	1675.24
327.64	1554.41
327.85	1748.97
328.07	1640.42
328.28	1806.31
328.49	1673.19
328.70	1677.29
328.92	1699.81
329.13	1673.19
329.34	1755.11
329.55	1777.64
329.76	1783.78
329.98	1730.53
330.19	1767.40
330.40	1675.24
330.61	1699.81
330.83	1728.49
331.04	1656.81
331.25	1621.99
331.46	1640.42
331.68	1634.28
331.89	1771.49
332.10	1689.57
332.31	1601.51
332.52	1714.15
332.74	1744.87
332.95	1646.57
333.16	1660.90
333.37	1716.20
333.58	1677.29
333.80	1714.15
334.01	1617.90
334.22	1679.33
334.43	1624.04
334.64	1691.62
334.86	1574.89
335.07	1619.94
335.28	1789.92
335.49	1714.15
335.70	1714.15
335.92	1824.74
336.13	1851.36
336.34	1716.20
336.55	1714.15
336.76	1605.61
336.98	1642.47
337.19	1681.38
337.40	1734.63
337.61	1851.36
337.82	1601.51
338.04	1755.11
338.25	1628.14
338.46	1656.81
338.67	1712.10
338.88	1656.81
339.09	1624.04
339.31	1581.03
339.52	1605.61
339.73	1630.18
339.94	1699.81
340.15	1751.01
340.36	1624.04
340.58	1677.29
340.79	1615.85
341.00	1697.77
341.21	1648.61
341.42	1777.64
341.63	1642.47
341.85	1671.14
342.06	1705.96
342.27	1624.04
342.48	1667.05
342.69	1603.56
342.90	1681.38
343.12	1763.30
343.33	1658.85
343.54	1771.49
343.75	1738.73
343.96	1671.14
344.17	1640.42
344.38	1736.68
344.60	1675.24
344.81	1669.09
345.02	1697.77
345.23	1697.77
345.44	1800.16
345.65	1697.77
345.86	1630.18
346.07	1660.90
346.29	1621.99
346.50	1722.34
346.71	1714.15
346.92	1796.07
347.13	1818.60
347.34	1685.48
347.55	1658.85
347.76	1775.59
347.98	1574.89
348.19	1671.14
348.40	1761.25
348.61	1640.42
348.82	1771.49
349.03	1705.96
349.24	1671.14
349.45	1785.83
349.66	1576.94
349.88	1703.91
350.09	1671.14
350.30	1714.15
350.51	1789.92
350.72	1710.05
350.93	1673.19
351.14	1640.42
351.35	1757.16
351.56	1652.71
351.77	1712.10
351.99	1720.29
352.20	1732.58
352.41	1736.68
352.62	1626.09
352.83	1699.81
353.04	1712.10
353.25	1679.33
353.46	1808.36
353.67	1744.87
353.88	1617.90
354.09	1748.97
354.30	1701.86
354.52	1689.57
354.73	1675.24
354.94	1705.96
355.15	1687.53
355.36	1775.59
355.57	1548.26
355.78	1675.24
355.99	1646.57
356.20	1605.61
356.41	1830.88
356.62	1660.90
356.83	1730.53
357.04	1742.82
357.25	1617.90
357.46	1732.58
357.68	1642.47
357.89	1632.23
358.10	1699.81
358.31	1671.14
358.52	1691.62
358.73	1724.39
358.94	1621.99
359.15	1683.43
359.36	1708.01
359.57	1640.42
359.78	1705.96
359.99	1724.39
360.20	1632.23
360.41	1634.28
360.62	1724.39
360.83	1710.05
361.04	1654.76
361.25	1665.00
361.46	1828.84
361.67	1665.00
361.88	1742.82
362.09	1671.14
362.30	1665.00
362.51	1701.86
362.72	1693.67
362.93	1736.68
363.14	1710.05
363.35	1771.49
363.56	1630.18
363.78	1746.92
363.99	1765.35
364.20	1695.72
364.41	1730.53
364.62	1859.56
364.83	1722.34
365.04	1728.49
365.25	1683.43
365.46	1808.36
365.67	1632.23
365.88	1656.81
366.09	1583.08
366.30	1669.09
366.51	1701.86
366.72	1562.60
366.93	1695.72
367.14	1691.62
367.35	1841.12
367.56	1736.68
367.77	1734.63
367.98	1617.90
368.18	1771.49
368.39	1755.11
368.60	1601.51
368.81	1794.02
369.02	1722.34
369.23	1730.53
369.44	1632.23
369.65	1679.33
369.86	1689.57
370.07	1767.40
370.28	1683.43
370.49	1665.00
370.70	1759.21
370.91	1662.95
371.12	1724.39
371.33	1732.58
371.54	1681.38
371.75	1796.07
371.96	1601.51
372.17	1695.72
372.38	1621.99
372.59	1775.59
372.80	1724.39
373.01	1683.43
373.22	1716.20
373.43	1662.95
373.64	1568.74
373.85	1722.34
374.06	1699.81
374.26	1681.38
374.47	1691.62
374.68	1775.59
374.89	1650.66
375.10	1669.09
375.31	1753.06
375.52	1638.38
375.73	1630.18
375.94	1595.37
376.15	1775.59
376.36	1665.00
376.57	1671.14
376.78	1595.37
376.99	1740.77
377.20	1689.57
377.40	1705.96
377.61	1767.40
377.82	1599.46
378.03	1742.82
378.24	1693.67
378.45	1626.09
378.66	1687.53
378.87	1624.04
379.08	1566.70
379.29	1808.36
379.50	1779.68
379.71	1656.81
379.91	1744.87
380.12	1730.53
380.33	1644.52
380.54	1677.29
380.75	1667.05
380.96	1748.97
381.17	1732.58
381.38	1726.44
381.59	1716.20
381.80	1734.63
382.00	1869.80
382.21	1734.63
382.42	1789.92
382.63	1769.44
382.84	1703.91
383.05	1775.59
383.26	1775.59
383.47	1677.29
383.68	1724.39
383.88	1728.49
384.09	1656.81
384.30	1814.50
384.51	1667.05
384.72	1654.76
384.93	1644.52
385.14	1710.05
385.35	1710.05
385.55	1714.15
385.76	1746.92
385.97	1677.29
386.18	1646.57
386.39	1650.66
386.60	1720.29
386.81	1701.86
387.02	1660.90
387.22	1681.38
387.43	1755.11
387.64	1710.05
387.85	1837.03
388.06	2187.23
388.27	4370.37
388.48	7018.39
388.68	8566.65
388.89	10258.28
389.10	10227.56
389.31	9115.51
389.52	7899.02
389.73	6887.32
389.93	6453.15
390.14	6000.55
390.35	5365.68
390.56	4689.85
390.77	3848.13
390.98	3157.97
391.18	2553.82
391.39	2115.55
391.60	1886.18
391.81	1843.17
392.02	1705.96
392.23	1726.44
392.43	1787.88
392.64	1777.64
392.85	1691.62
393.06	1765.35
393.27	1697.77
393.47	1693.67
393.68	1697.77
393.89	1685.48
394.10	1810.40
394.31	1619.94
394.52	1718.25
394.72	1642.47
394.93	1828.84
395.14	1636.33
395.35	1765.35
395.56	1689.57
395.76	1730.53
395.97	1746.92
396.18	1837.03
396.39	1808.36
396.60	2009.06
396.80	1894.37
397.01	1877.99
397.22	1865.70
397.43	1810.40
397.64	1656.81
397.84	1718.25
398.05	1814.50
398.26	1689.57
398.47	1865.70
398.67	1761.25
398.88	1734.63
399.09	1759.21
399.30	1665.00
399.51	1716.20
399.71	1630.18
399.92	1689.57
400.13	1679.33
400.34	1632.23
400.54	1605.61
400.75	1853.41
400.96	1701.86
401.17	1869.80
401.37	1781.73
401.58	1677.29
401.79	1755.11
402.00	1828.84
402.21	1984.48
402.41	1947.62
402.62	2013.15
402.83	1978.34
403.04	1996.77
403.24	2029.54
403.45	1865.70
403.66	1820.64
403.87	1900.52
404.07	1916.90
404.28	1857.51
404.49	1826.79
404.70	1740.77
404.90	1687.53
405.11	1751.01
405.32	1771.49
405.52	1671.14
405.73	1669.09
405.94	1681.38
406.15	1642.47
406.35	1744.87
406.56	1773.54
406.77	1746.92
406.98	1736.68
407.18	1640.42
407.39	1781.73
407.60	1718.25
407.80	1705.96
408.01	1691.62
408.22	1710.05
408.43	1634.28
408.63	1724.39
408.84	1648.61
409.05	1765.35
409.25	1611.75
409.46	1621.99
409.67	1667.05
409.88	1626.09
410.08	1697.77
410.29	1716.20
410.50	1714.15
410.70	1742.82
410.91	1677.29
411.12	1744.87
411.32	1699.81
411.53	1716.20
411.74	1763.30
411.95	1742.82
412.15	1728.49
412.36	1779.68
412.57	1701.86
412.77	1757.16
412.98	1652.71
413.19	1695.72
413.39	1759.21
413.60	1720.29
413.81	1746.92
414.01	1671.14
414.22	1716.20
414.43	1777.64
414.63	1681.38
414.84	1708.01
415.05	1773.54
415.25	1634.28
415.46	1716.20
415.67	1642.47
415.87	1685.48
416.08	1701.86
416.29	1691.62
416.49	1728.49
416.70	1728.49
416.91	1652.71
417.11	1662.95
417.32	1722.34
417.53	1763.30
417.73	1746.92
417.94	1656.81
418.15	1679.33
418.35	1689.57
418.56	1794.02
418.77	1822.69
418.97	1685.48
419.18	1648.61
419.38	1607.66
419.59	1632.23
419.80	1832.93
420.00	1708.01
420.21	1673.19
420.42	1785.83
420.62	1761.25
420.83	1605.61
421.04	1705.96
421.24	1634.28
421.45	1773.54
421.65	1708.01
421.86	1624.04
422.07	1675.24
422.27	1724.39
422.48	1759.21
422.69	1632.23
422.89	1675.24
423.10	1677.29
423.30	1656.81
423.51	1732.58
423.72	1714.15
423.92	1701.86
424.13	1650.66
424.33	1724.39
424.54	1718.25
424.75	1757.16
424.95	1818.60
425.16	1759.21
425.36	1697.77
425.57	1691.62
425.78	1775.59
425.98	1759.21
426.19	1533.93
426.39	1607.66
426.60	1757.16
426.81	1828.84
427.01	1677.29
427.22	1681.38
427.42	1628.14
427.63	1685.48
427.83	1687.53
428.04	1767.40
428.25	1742.82
428.45	1718.25
428.66	1708.01
428.86	1693.67
429.07	1656.81
429.28	1665.00
429.48	1615.85
429.69	1671.14
429.89	1695.72
430.10	1560.55
430.30	1787.88
430.51	1714.15
430.71	1626.09
430.92	1724.39
431.13	1673.19
431.33	1746.92
431.54	1771.49
431.74	1720.29
431.95	1791.97
432.15	1636.33
432.36	1628.14
432.56	1804.26
432.77	1779.68
432.98	1853.41
433.18	1699.81
433.39	1705.96
433.59	1726.44
433.80	1759.21
434.00	1865.70
434.21	1701.86
434.41	1691.62
434.62	1753.06
434.82	1621.99
435.03	1621.99
435.23	1763.30
435.44	1658.85
435.64	1673.19
435.85	1701.86
436.06	1732.58
436.26	1847.27
436.47	1673.19
436.67	1693.67
436.88	1705.96
437.08	1767.40
437.29	1783.78
437.49	1742.82
437.70	1753.06
437.90	1695.72
438.11	1808.36
438.31	1757.16
438.52	1902.56
438.72	1859.56
438.93	1884.13
439.13	1818.60
439.34	1781.73
439.54	1703.91
439.75	1746.92
439.95	1771.49
440.16	1710.05
440.36	1708.01
440.57	1777.64
440.77	1746.92
440.98	1689.57
441.18	1681.38
441.39	1693.67
441.59	1722.34
441.80	1785.83
442.00	1720.29
442.21	1826.79
442.41	1673.19
442.62	1697.77
442.82	1679.33
443.02	1673.19
443.23	1689.57
443.43	1679.33
443.64	1769.44
443.84	1701.86
444.05	1849.32
444.25	1738.73
444.46	1687.53
444.66	1738.73
444.87	1830.88
445.07	1693.67
445.28	1708.01
445.48	1759.21
445.69	1724.39
445.89	1916.90
446.09	1683.43
446.30	2041.82
446.50	2572.25
446.71	3780.55
446.91	4616.12
447.12	5031.86
447.32	4949.94
447.53	4474.81
447.73	3882.95
447.93	3557.32
448.14	3422.16
448.34	3190.74
448.55	2985.94
448.75	2899.92
448.96	2746.33
449.16	2469.85
449.36	2240.48
449.57	2017.25
449.77	1892.32
449.98	1806.31
450.18	1845.22
450.39	1843.17
450.59	1716.20
450.79	1742.82
451.00	1689.57
451.20	1759.21
451.41	1697.77
451.61	1755.11
451.81	1746.92
452.02	1726.44
452.22	1665.00
452.43	1681.38
452.63	1681.38
