SpectraSuite Data File
++++++++++++++++++++++++++++++++++++
Date: Mon Jun 06 15:15:17 CEST 2016
User: root
Dark Spectrum Present: No
Reference Spectrum Present: No
Number of Sampled Component Spectra: 1
Spectrometers: USB4C02835
Integration Time (usec): 100000 (USB4C02835)
Spectra Averaged: 1 (USB4C02835)
Boxcar Smoothing: 0 (USB4C02835)
Correct for Electrical Dark: No (USB4C02835)
Strobe/Lamp Enabled: No (USB4C02835)
Correct for Detector Non-linearity: No (USB4C02835)
Correct for Stray Light: No (USB4C02835)
Number of Pixels in Processed Spectrum: 3648
>>>>>Begin Processed Spectral Data<<<<<
177.47	1484.78
177.69	1484.78
177.91	1484.78
178.13	1497.07
178.36	1486.83
178.58	1617.90
178.80	1820.64
179.02	1540.07
179.24	1685.48
179.46	1691.62
179.68	1687.53
179.90	1687.53
180.13	1755.11
180.35	1736.68
180.57	1652.71
180.79	1783.78
181.01	1691.62
181.23	1728.49
181.45	1763.30
181.67	1757.16
181.90	1783.78
182.12	1671.14
182.34	1660.90
182.56	1746.92
182.78	1724.39
183.00	1744.87
183.22	1697.77
183.44	1673.19
183.66	1873.89
183.89	1810.40
184.11	1728.49
184.33	1742.82
184.55	1748.97
184.77	1728.49
184.99	1626.09
185.21	1689.57
185.43	1800.16
185.65	1656.81
185.87	1728.49
186.10	1820.64
186.32	1791.97
186.54	1740.77
186.76	1757.16
186.98	1812.45
187.20	1628.14
187.42	1656.81
187.64	1662.95
187.86	1714.15
188.08	1789.92
188.30	1671.14
188.52	1724.39
188.75	1830.88
188.97	1765.35
189.19	1654.76
189.41	1703.91
189.63	1722.34
189.85	1783.78
190.07	1574.89
190.29	1660.90
190.51	1714.15
190.73	1613.80
190.95	1751.01
191.17	1685.48
191.39	1609.70
191.61	1691.62
191.84	1720.29
192.06	1857.51
192.28	1599.46
192.50	1822.69
192.72	1667.05
192.94	1660.90
193.16	1761.25
193.38	1726.44
193.60	1638.38
193.82	1722.34
194.04	1798.12
194.26	1761.25
194.48	1724.39
194.70	1601.51
194.92	1732.58
195.14	1738.73
195.36	1658.85
195.58	1746.92
195.80	1748.97
196.02	1757.16
196.24	1671.14
196.46	1757.16
196.69	1605.61
196.91	1900.52
197.13	1769.44
197.35	1685.48
197.57	1794.02
197.79	1748.97
198.01	1736.68
198.23	1708.01
198.45	1746.92
198.67	1712.10
198.89	1695.72
199.11	1763.30
199.33	1726.44
199.55	1593.32
199.77	1705.96
199.99	1783.78
200.21	1667.05
200.43	1681.38
200.65	1722.34
200.87	1644.52
201.09	1755.11
201.31	1689.57
201.53	1726.44
201.75	1734.63
201.97	1642.47
202.19	1761.25
202.41	1765.35
202.63	1740.77
202.85	1718.25
203.07	1736.68
203.29	1751.01
203.51	1693.67
203.73	1705.96
203.95	1869.80
204.17	1800.16
204.39	1748.97
204.61	1746.92
204.83	1691.62
205.05	1740.77
205.27	1814.50
205.49	1869.80
205.71	1710.05
205.93	1685.48
206.15	1681.38
206.37	1791.97
206.59	1673.19
206.81	1671.14
207.03	1697.77
207.25	1578.98
207.47	1716.20
207.69	1751.01
207.91	1824.74
208.13	1755.11
208.34	1708.01
208.56	1636.33
208.78	1775.59
209.00	1640.42
209.22	1675.24
209.44	1718.25
209.66	1701.86
209.88	1728.49
210.10	1681.38
210.32	1626.09
210.54	1857.51
210.76	1755.11
210.98	1673.19
211.20	1619.94
211.42	1695.72
211.64	1785.83
211.86	1746.92
212.08	1781.73
212.30	1718.25
212.52	1687.53
212.74	1736.68
212.96	1712.10
213.17	1791.97
213.39	1726.44
213.61	1763.30
213.83	1728.49
214.05	1683.43
214.27	1773.54
214.49	1632.23
214.71	1656.81
214.93	1777.64
215.15	1712.10
215.37	1791.97
215.59	1658.85
215.81	1744.87
216.03	1828.84
216.24	1724.39
216.46	1669.09
216.68	1781.73
216.90	1759.21
217.12	1781.73
217.34	1671.14
217.56	1820.64
217.78	1736.68
218.00	1726.44
218.22	1652.71
218.44	1652.71
218.66	1701.86
218.87	1691.62
219.09	1621.99
219.31	1734.63
219.53	1718.25
219.75	1681.38
219.97	1679.33
220.19	1746.92
220.41	1697.77
220.63	1726.44
220.85	1710.05
221.06	1656.81
221.28	1791.97
221.50	1722.34
221.72	1714.15
221.94	1679.33
222.16	1705.96
222.38	1802.21
222.60	1759.21
222.82	1689.57
223.03	1808.36
223.25	1685.48
223.47	1818.60
223.69	1798.12
223.91	1794.02
224.13	1671.14
224.35	1665.00
224.57	1771.49
224.78	1710.05
225.00	1634.28
225.22	1716.20
225.44	1720.29
225.66	1703.91
225.88	1683.43
226.10	1787.88
226.32	1755.11
226.53	1812.45
226.75	1677.29
226.97	1681.38
227.19	1742.82
227.41	1671.14
227.63	1691.62
227.85	1640.42
228.06	1701.86
228.28	1822.69
228.50	1740.77
228.72	1640.42
228.94	1689.57
229.16	1558.50
229.37	1656.81
229.59	1589.22
229.81	1755.11
230.03	1648.61
230.25	1568.74
230.47	1638.38
230.69	1689.57
230.90	1798.12
231.12	1716.20
231.34	1720.29
231.56	1736.68
231.78	1669.09
232.00	1738.73
232.21	1697.77
232.43	1656.81
232.65	1613.80
232.87	1695.72
233.09	1646.57
233.30	1677.29
233.52	1775.59
233.74	1701.86
233.96	1718.25
234.18	1740.77
234.40	1716.20
234.61	1763.30
234.83	1689.57
235.05	1673.19
235.27	1787.88
235.49	1830.88
235.70	1669.09
235.92	1736.68
236.14	1695.72
236.36	1822.69
236.58	1617.90
236.79	1796.07
237.01	1615.85
237.23	1695.72
237.45	1781.73
237.67	1738.73
237.88	1685.48
238.10	1783.78
238.32	1667.05
238.54	1703.91
238.76	1703.91
238.97	1720.29
239.19	1638.38
239.41	1712.10
239.63	1771.49
239.85	1660.90
240.06	1701.86
240.28	1705.96
240.50	1775.59
240.72	1658.85
240.93	1691.62
241.15	1789.92
241.37	1681.38
241.59	1794.02
241.81	1765.35
242.02	1732.58
242.24	1716.20
242.46	1820.64
242.68	1673.19
242.89	1726.44
243.11	1798.12
243.33	1683.43
243.55	1691.62
243.76	1701.86
243.98	1660.90
244.20	1726.44
244.42	1734.63
244.64	1632.23
244.85	1677.29
245.07	1632.23
245.29	1779.68
245.51	1767.40
245.72	1691.62
245.94	1763.30
246.16	1720.29
246.38	1675.24
246.59	1703.91
246.81	1603.56
247.03	1705.96
247.24	1581.03
247.46	1648.61
247.68	1751.01
247.90	1652.71
248.11	1660.90
248.33	1826.79
248.55	1636.33
248.77	1742.82
248.98	1804.26
249.20	1814.50
249.42	1722.34
249.64	1728.49
249.85	1675.24
250.07	1667.05
250.29	1779.68
250.50	1744.87
250.72	1640.42
250.94	1730.53
251.16	1794.02
251.37	1787.88
251.59	1732.58
251.81	1708.01
252.02	1789.92
252.24	1667.05
252.46	1822.69
252.68	1630.18
252.89	1763.30
253.11	1611.75
253.33	1820.64
253.54	1775.59
253.76	1662.95
253.98	1777.64
254.20	1708.01
254.41	1613.80
254.63	1697.77
254.85	1636.33
255.06	1761.25
255.28	1705.96
255.50	1705.96
255.71	1675.24
255.93	1656.81
256.15	1699.81
256.36	1697.77
256.58	1701.86
256.80	1705.96
257.02	1705.96
257.23	1654.76
257.45	1665.00
257.67	1720.29
257.88	1644.52
258.10	1777.64
258.32	1722.34
258.53	1722.34
258.75	1783.78
258.97	1697.77
259.18	1703.91
259.40	1738.73
259.62	1814.50
259.83	1779.68
260.05	1759.21
260.27	1931.23
260.48	1761.25
260.70	1669.09
260.92	1644.52
261.13	1765.35
261.35	1705.96
261.57	1673.19
261.78	1648.61
262.00	1697.77
262.22	1757.16
262.43	1669.09
262.65	1693.67
262.86	1693.67
263.08	1857.51
263.30	1726.44
263.51	1607.66
263.73	1624.04
263.95	1736.68
264.16	1705.96
264.38	1648.61
264.60	1746.92
264.81	1714.15
265.03	1781.73
265.25	1712.10
265.46	1726.44
265.68	1724.39
265.89	1705.96
266.11	1619.94
266.33	1728.49
266.54	1841.12
266.76	1822.69
266.98	1697.77
267.19	1787.88
267.41	1771.49
267.62	1718.25
267.84	1638.38
268.06	1779.68
268.27	1716.20
268.49	1791.97
268.70	1744.87
268.92	1716.20
269.14	1644.52
269.35	1658.85
269.57	1710.05
269.79	1873.89
270.00	1658.85
270.22	1789.92
270.43	1589.22
270.65	1585.13
270.87	1777.64
271.08	1775.59
271.30	1734.63
271.51	1767.40
271.73	1771.49
271.95	1716.20
272.16	1705.96
272.38	1726.44
272.59	1640.42
272.81	1751.01
273.02	1712.10
273.24	1718.25
273.46	1748.97
273.67	1535.98
273.89	1683.43
274.10	1660.90
274.32	1775.59
274.54	1787.88
274.75	1730.53
274.97	1701.86
275.18	1714.15
275.40	1761.25
275.61	1714.15
275.83	1730.53
276.05	1654.76
276.26	1632.23
276.48	1791.97
276.69	1732.58
276.91	1632.23
277.12	1787.88
277.34	1746.92
277.55	1722.34
277.77	1687.53
277.99	1624.04
278.20	1703.91
278.42	1621.99
278.63	1755.11
278.85	1685.48
279.06	1595.37
279.28	1703.91
279.49	1751.01
279.71	1820.64
279.93	1697.77
280.14	1677.29
280.36	1675.24
280.57	1806.31
280.79	1761.25
281.00	1726.44
281.22	1695.72
281.43	1798.12
281.65	1697.77
281.86	1550.31
282.08	1699.81
282.29	1826.79
282.51	1632.23
282.73	1679.33
282.94	1619.94
283.16	1771.49
283.37	1798.12
283.59	1710.05
283.80	1689.57
284.02	1677.29
284.23	1736.68
284.45	1681.38
284.66	1624.04
284.88	1632.23
285.09	1724.39
285.31	1714.15
285.52	1800.16
285.74	1650.66
285.95	1722.34
286.17	1685.48
286.38	1755.11
286.60	1740.77
286.81	1656.81
287.03	1689.57
287.24	1763.30
287.46	1789.92
287.67	1726.44
287.89	1845.22
288.10	1730.53
288.32	1736.68
288.53	1841.12
288.75	1710.05
288.96	1742.82
289.18	1681.38
289.39	1722.34
289.61	1791.97
289.82	1828.84
290.04	1855.46
290.25	1683.43
290.47	1730.53
290.68	1763.30
290.90	1771.49
291.11	1683.43
291.33	1779.68
291.54	1665.00
291.76	1744.87
291.97	1716.20
292.18	1781.73
292.40	1675.24
292.61	1699.81
292.83	1865.70
293.04	1716.20
293.26	1640.42
293.47	1656.81
293.69	1662.95
293.90	1662.95
294.12	1705.96
294.33	1660.90
294.55	1615.85
294.76	1742.82
294.97	1798.12
295.19	1787.88
295.40	1642.47
295.62	1740.77
295.83	1705.96
296.05	1761.25
296.26	1777.64
296.48	1697.77
296.69	1726.44
296.90	1724.39
297.12	1806.31
297.33	1777.64
297.55	1699.81
297.76	1761.25
297.98	1716.20
298.19	1759.21
298.41	1699.81
298.62	1714.15
298.83	1810.40
299.05	1712.10
299.26	1722.34
299.48	1669.09
299.69	1675.24
299.90	1728.49
300.12	1705.96
300.33	1705.96
300.55	1705.96
300.76	1755.11
300.98	1662.95
301.19	1722.34
301.40	1652.71
301.62	1689.57
301.83	1689.57
302.05	1732.58
302.26	1665.00
302.47	1765.35
302.69	1632.23
302.90	1757.16
303.12	1615.85
303.33	1675.24
303.54	1824.74
303.76	1753.06
303.97	1771.49
304.19	1773.54
304.40	1734.63
304.61	1726.44
304.83	1816.55
305.04	1796.07
305.26	1794.02
305.47	1581.03
305.68	1695.72
305.90	1695.72
306.11	1710.05
306.33	1726.44
306.54	1697.77
306.75	1699.81
306.97	1705.96
307.18	1654.76
307.39	1697.77
307.61	1800.16
307.82	1683.43
308.04	1751.01
308.25	1656.81
308.46	1720.29
308.68	1734.63
308.89	1722.34
309.10	1746.92
309.32	1732.58
309.53	1665.00
309.74	1773.54
309.96	1699.81
310.17	1802.21
310.39	1665.00
310.60	1744.87
310.81	1742.82
311.03	1636.33
311.24	1748.97
311.45	1675.24
311.67	1755.11
311.88	1751.01
312.09	1632.23
312.31	1693.67
312.52	1769.44
312.73	1744.87
312.95	1591.27
313.16	1660.90
313.37	1730.53
313.59	1699.81
313.80	1740.77
314.01	1851.36
314.23	1720.29
314.44	1656.81
314.65	1636.33
314.87	1640.42
315.08	1708.01
315.29	1710.05
315.51	1687.53
315.72	1601.51
315.93	1855.46
316.15	1755.11
316.36	1624.04
316.57	1777.64
316.79	1712.10
317.00	1611.75
317.21	1705.96
317.43	1646.57
317.64	1693.67
317.85	1673.19
318.07	1632.23
318.28	1777.64
318.49	1771.49
318.70	1961.95
318.92	1798.12
319.13	1830.88
319.34	1877.99
319.56	1845.22
319.77	1802.21
319.98	1865.70
320.20	1767.40
320.41	1730.53
320.62	1740.77
320.83	1658.85
321.05	1789.92
321.26	1732.58
321.47	1730.53
321.69	1832.93
321.90	1710.05
322.11	1636.33
322.32	1736.68
322.54	1837.03
322.75	1777.64
322.96	1755.11
323.18	1656.81
323.39	1630.18
323.60	1621.99
323.81	1712.10
324.03	1669.09
324.24	1722.34
324.45	1746.92
324.66	1656.81
324.88	1761.25
325.09	1705.96
325.30	1769.44
325.52	1671.14
325.73	1771.49
325.94	1599.46
326.15	1624.04
326.37	1720.29
326.58	1753.06
326.79	1853.41
327.00	1574.89
327.22	1724.39
327.43	1648.61
327.64	1697.77
327.85	1714.15
328.07	1677.29
328.28	1746.92
328.49	1642.47
328.70	1671.14
328.92	1669.09
329.13	1667.05
329.34	1800.16
329.55	1812.45
329.76	1718.25
329.98	1769.44
330.19	1708.01
330.40	1734.63
330.61	1718.25
330.83	1699.81
331.04	1687.53
331.25	1757.16
331.46	1689.57
331.68	1617.90
331.89	1771.49
332.10	1644.52
332.31	1691.62
332.52	1796.07
332.74	1730.53
332.95	1714.15
333.16	1751.01
333.37	1728.49
333.58	1628.14
333.80	1800.16
334.01	1576.94
334.22	1732.58
334.43	1671.14
334.64	1705.96
334.86	1636.33
335.07	1736.68
335.28	1789.92
335.49	1646.57
335.70	1724.39
335.92	1787.88
336.13	1738.73
336.34	1720.29
336.55	1687.53
336.76	1742.82
336.98	1646.57
337.19	1720.29
337.40	1849.32
337.61	1880.04
337.82	1628.14
338.04	1726.44
338.25	1683.43
338.46	1679.33
338.67	1716.20
338.88	1615.85
339.09	1697.77
339.31	1599.46
339.52	1624.04
339.73	1634.28
339.94	1705.96
340.15	1791.97
340.36	1724.39
340.58	1718.25
340.79	1671.14
341.00	1712.10
341.21	1734.63
341.42	1873.89
341.63	1718.25
341.85	1849.32
342.06	1769.44
342.27	1695.72
342.48	1761.25
342.69	1701.86
342.90	1718.25
343.12	1755.11
343.33	1665.00
343.54	1826.79
343.75	1785.83
343.96	1714.15
344.17	1656.81
344.38	1767.40
344.60	1691.62
344.81	1630.18
345.02	1738.73
345.23	1767.40
345.44	1839.08
345.65	1791.97
345.86	1779.68
346.07	1671.14
346.29	1771.49
346.50	1740.77
346.71	1673.19
346.92	1798.12
347.13	1937.38
347.34	1710.05
347.55	1687.53
347.76	1722.34
347.98	1644.52
348.19	1677.29
348.40	1775.59
348.61	1716.20
348.82	1837.03
349.03	1775.59
349.24	1673.19
349.45	1761.25
349.66	1619.94
349.88	1720.29
350.09	1652.71
350.30	1779.68
350.51	1746.92
350.72	1667.05
350.93	1697.77
351.14	1611.75
351.35	1665.00
351.56	1681.38
351.77	1675.24
351.99	1763.30
352.20	1798.12
352.41	1724.39
352.62	1646.57
352.83	1773.54
353.04	1695.72
353.25	1587.18
353.46	1912.80
353.67	1652.71
353.88	1619.94
354.09	1738.73
354.30	1744.87
354.52	1714.15
354.73	1673.19
354.94	1658.85
355.15	1695.72
355.36	1787.88
355.57	1720.29
355.78	1726.44
355.99	1691.62
356.20	1617.90
356.41	1808.36
356.62	1781.73
356.83	1779.68
357.04	1751.01
357.25	1615.85
357.46	1650.66
357.68	1656.81
357.89	1720.29
358.10	1744.87
358.31	1742.82
358.52	1740.77
358.73	1628.14
358.94	1724.39
359.15	1699.81
359.36	1726.44
359.57	1771.49
359.78	1681.38
359.99	1767.40
360.20	1708.01
360.41	1677.29
360.62	1767.40
360.83	1753.06
361.04	1767.40
361.25	1716.20
361.46	1812.45
361.67	1671.14
361.88	1777.64
362.09	1720.29
362.30	1746.92
362.51	1722.34
362.72	1660.90
362.93	1736.68
363.14	1767.40
363.35	1683.43
363.56	1697.77
363.78	1740.77
363.99	1785.83
364.20	1736.68
364.41	1705.96
364.62	1920.99
364.83	1701.86
365.04	1693.67
365.25	1644.52
365.46	1757.16
365.67	1677.29
365.88	1626.09
366.09	1660.90
366.30	1710.05
366.51	1777.64
366.72	1665.00
366.93	1744.87
367.14	1669.09
367.35	1781.73
367.56	1628.14
367.77	1773.54
367.98	1658.85
368.18	1757.16
368.39	1720.29
368.60	1683.43
368.81	1832.93
369.02	1693.67
369.23	1716.20
369.44	1617.90
369.65	1732.58
369.86	1691.62
370.07	1771.49
370.28	1648.61
370.49	1714.15
370.70	1683.43
370.91	1687.53
371.12	1730.53
371.33	1755.11
371.54	1710.05
371.75	1800.16
371.96	1673.19
372.17	1656.81
372.38	1755.11
372.59	1742.82
372.80	1650.66
373.01	1755.11
373.22	1724.39
373.43	1773.54
373.64	1632.23
373.85	1820.64
374.06	1789.92
374.26	1724.39
374.47	1697.77
374.68	1779.68
374.89	1722.34
375.10	1667.05
375.31	1794.02
375.52	1738.73
375.73	1753.06
375.94	1654.76
376.15	1816.55
376.36	1609.70
376.57	1724.39
376.78	1669.09
376.99	1769.44
377.20	1742.82
377.40	1714.15
377.61	1802.21
377.82	1642.47
378.03	1755.11
378.24	1798.12
378.45	1708.01
378.66	1681.38
378.87	1562.60
379.08	1603.56
379.29	1628.14
379.50	1791.97
379.71	1748.97
379.91	1822.69
380.12	1708.01
380.33	1746.92
380.54	1697.77
380.75	1767.40
380.96	1638.38
381.17	1802.21
381.38	1724.39
381.59	1703.91
381.80	1695.72
382.00	1818.60
382.21	1755.11
382.42	1841.12
382.63	1923.04
382.84	1728.49
383.05	1789.92
383.26	1828.84
383.47	1699.81
383.68	1791.97
383.88	1716.20
384.09	1751.01
384.30	1771.49
384.51	1763.30
384.72	1705.96
384.93	1675.24
385.14	1736.68
385.35	1689.57
385.55	1585.13
385.76	1812.45
385.97	1679.33
386.18	1722.34
386.39	1705.96
386.60	1718.25
386.81	1718.25
387.02	1701.86
387.22	1662.95
387.43	1806.31
387.64	1779.68
387.85	1884.13
388.06	2113.50
388.27	4181.95
388.48	6586.27
388.68	7786.38
388.89	9363.31
389.10	9490.29
389.31	8300.42
389.52	7266.19
389.73	6528.92
389.93	6027.17
390.14	5791.66
390.35	5091.25
390.56	4374.46
390.77	3708.87
390.98	3088.34
391.18	2414.56
391.39	2164.70
391.60	1941.47
391.81	1869.80
392.02	1722.34
392.23	1841.12
392.43	1742.82
392.64	1734.63
392.85	1779.68
393.06	1890.28
393.27	1701.86
393.47	1705.96
393.68	1728.49
393.89	1681.38
394.10	1771.49
394.31	1685.48
394.52	1685.48
394.72	1746.92
394.93	1785.83
395.14	1665.00
395.35	1781.73
395.56	1695.72
395.76	1728.49
395.97	1820.64
396.18	1796.07
396.39	1771.49
396.60	1941.47
396.80	1964.00
397.01	1888.23
397.22	1869.80
397.43	1902.56
397.64	1828.84
397.84	1800.16
398.05	1875.94
398.26	1751.01
398.47	1810.40
398.67	1732.58
398.88	1742.82
399.09	1765.35
399.30	1705.96
399.51	1738.73
399.71	1679.33
399.92	1759.21
400.13	1796.07
400.34	1716.20
400.54	1728.49
400.75	1794.02
400.96	1794.02
401.17	1808.36
401.37	1665.00
401.58	1665.00
401.79	1746.92
402.00	1777.64
402.21	2043.87
402.41	1931.23
402.62	1961.95
402.83	2033.63
403.04	1947.62
403.24	2125.79
403.45	1853.41
403.66	1900.52
403.87	1910.75
404.07	1873.89
404.28	1898.47
404.49	1849.32
404.70	1818.60
404.90	1820.64
405.11	1765.35
405.32	1812.45
405.52	1708.01
405.73	1611.75
405.94	1730.53
406.15	1673.19
406.35	1681.38
406.56	1820.64
406.77	1714.15
406.98	1728.49
407.18	1724.39
407.39	1861.60
407.60	1677.29
407.80	1769.44
408.01	1712.10
408.22	1773.54
408.43	1626.09
408.63	1728.49
408.84	1738.73
409.05	1755.11
409.25	1656.81
409.46	1644.52
409.67	1708.01
409.88	1701.86
410.08	1642.47
410.29	1703.91
410.50	1722.34
410.70	1644.52
410.91	1671.14
411.12	1732.58
411.32	1662.95
411.53	1703.91
411.74	1785.83
411.95	1791.97
412.15	1777.64
412.36	1855.46
412.57	1712.10
412.77	1812.45
412.98	1738.73
413.19	1718.25
413.39	1808.36
413.60	1736.68
413.81	1773.54
414.01	1681.38
414.22	1730.53
414.43	1761.25
414.63	1654.76
414.84	1753.06
415.05	1673.19
415.25	1609.70
415.46	1722.34
415.67	1667.05
415.87	1714.15
416.08	1681.38
416.29	1765.35
416.49	1728.49
416.70	1695.72
416.91	1677.29
417.11	1662.95
417.32	1724.39
417.53	1791.97
417.73	1746.92
417.94	1673.19
418.15	1705.96
418.35	1734.63
418.56	1783.78
418.77	1882.08
418.97	1720.29
419.18	1689.57
419.38	1595.37
419.59	1615.85
419.80	1845.22
420.00	1726.44
420.21	1734.63
420.42	1802.21
420.62	1789.92
420.83	1589.22
421.04	1701.86
421.24	1714.15
421.45	1775.59
421.65	1720.29
421.86	1732.58
422.07	1744.87
422.27	1761.25
422.48	1808.36
422.69	1736.68
422.89	1675.24
423.10	1734.63
423.30	1601.51
423.51	1665.00
423.72	1679.33
423.92	1701.86
424.13	1667.05
424.33	1677.29
424.54	1753.06
424.75	1611.75
424.95	1767.40
425.16	1759.21
425.36	1796.07
425.57	1759.21
425.78	1763.30
425.98	1773.54
426.19	1673.19
426.39	1699.81
426.60	1761.25
426.81	1814.50
427.01	1675.24
427.22	1681.38
427.42	1669.09
427.63	1662.95
427.83	1761.25
428.04	1787.88
428.25	1730.53
428.45	1820.64
428.66	1875.94
428.86	1667.05
429.07	1673.19
429.28	1720.29
429.48	1759.21
429.69	1667.05
429.89	1710.05
430.10	1617.90
430.30	1796.07
430.51	1763.30
430.71	1708.01
430.92	1806.31
431.13	1722.34
431.33	1701.86
431.54	1787.88
431.74	1775.59
431.95	1853.41
432.15	1724.39
432.36	1640.42
432.56	1742.82
432.77	1812.45
432.98	1726.44
433.18	1761.25
433.39	1693.67
433.59	1665.00
433.80	1888.23
434.00	1785.83
434.21	1714.15
434.41	1675.24
434.62	1837.03
434.82	1658.85
435.03	1640.42
435.23	1718.25
435.44	1613.80
435.64	1650.66
435.85	1730.53
436.06	1869.80
436.26	1796.07
436.47	1779.68
436.67	1693.67
436.88	1689.57
437.08	1767.40
437.29	1777.64
437.49	1660.90
437.70	1820.64
437.90	1785.83
438.11	1880.04
438.31	1830.88
438.52	1841.12
438.72	1902.56
438.93	2017.25
439.13	1781.73
439.34	1845.22
439.54	1658.85
439.75	1826.79
439.95	1839.08
440.16	1740.77
440.36	1810.40
440.57	1726.44
440.77	1736.68
440.98	1773.54
441.18	1787.88
441.39	1685.48
441.59	1656.81
441.80	1810.40
442.00	1710.05
442.21	1824.74
442.41	1650.66
442.62	1720.29
442.82	1671.14
443.02	1724.39
443.23	1804.26
443.43	1710.05
443.64	1798.12
443.84	1697.77
444.05	1865.70
444.25	1748.97
444.46	1677.29
444.66	1726.44
444.87	1837.03
445.07	1652.71
445.28	1705.96
445.48	1810.40
445.69	1744.87
445.89	1929.19
446.09	1804.26
446.30	2033.63
446.50	2582.49
446.71	3534.79
446.91	4136.90
447.12	4548.54
447.32	4671.42
447.53	4171.71
447.73	3729.35
447.93	3514.31
448.14	3186.64
448.34	3209.17
448.55	2842.58
448.75	2801.62
448.96	2656.22
449.16	2512.86
449.36	2279.39
449.57	1982.43
449.77	1880.04
449.98	1763.30
450.18	1804.26
450.39	1777.64
450.59	1718.25
450.79	1791.97
451.00	1705.96
451.20	1804.26
451.41	1800.16
451.61	1742.82
451.81	1773.54
452.02	1699.81
452.22	1738.73
452.43	1716.20
452.63	1681.38
