SpectraSuite Data File
++++++++++++++++++++++++++++++++++++
Date: Mon Jun 06 13:05:17 CEST 2016
User: root
Dark Spectrum Present: No
Reference Spectrum Present: No
Number of Sampled Component Spectra: 1
Spectrometers: USB4C02835
Integration Time (usec): 100000 (USB4C02835)
Spectra Averaged: 1 (USB4C02835)
Boxcar Smoothing: 0 (USB4C02835)
Correct for Electrical Dark: No (USB4C02835)
Strobe/Lamp Enabled: No (USB4C02835)
Correct for Detector Non-linearity: No (USB4C02835)
Correct for Stray Light: No (USB4C02835)
Number of Pixels in Processed Spectrum: 3648
>>>>>Begin Processed Spectral Data<<<<<
177.47	1419.24
177.69	1419.24
177.91	1419.24
178.13	1482.73
178.36	1501.16
178.58	1617.90
178.80	1703.91
179.02	1550.31
179.24	1685.48
179.46	1636.33
179.68	1705.96
179.90	1638.38
180.13	1687.53
180.35	1667.05
180.57	1675.24
180.79	1677.29
181.01	1673.19
181.23	1791.97
181.45	1718.25
181.67	1759.21
181.90	1761.25
182.12	1624.04
182.34	1632.23
182.56	1660.90
182.78	1689.57
183.00	1695.72
183.22	1759.21
183.44	1589.22
183.66	1796.07
183.89	1789.92
184.11	1683.43
184.33	1767.40
184.55	1804.26
184.77	1724.39
184.99	1708.01
185.21	1701.86
185.43	1869.80
185.65	1703.91
185.87	1730.53
186.10	1806.31
186.32	1804.26
186.54	1693.67
186.76	1765.35
186.98	1820.64
187.20	1626.09
187.42	1640.42
187.64	1693.67
187.86	1814.50
188.08	1710.05
188.30	1652.71
188.52	1642.47
188.75	1800.16
188.97	1812.45
189.19	1607.66
189.41	1640.42
189.63	1703.91
189.85	1624.04
190.07	1607.66
190.29	1689.57
190.51	1779.68
190.73	1697.77
190.95	1787.88
191.17	1732.58
191.39	1646.57
191.61	1718.25
191.84	1656.81
192.06	1763.30
192.28	1619.94
192.50	1857.51
192.72	1757.16
192.94	1691.62
193.16	1869.80
193.38	1662.95
193.60	1654.76
193.82	1607.66
194.04	1832.93
194.26	1648.61
194.48	1757.16
194.70	1673.19
194.92	1751.01
195.14	1697.77
195.36	1665.00
195.58	1675.24
195.80	1695.72
196.02	1638.38
196.24	1816.55
196.46	1703.91
196.69	1730.53
196.91	1847.27
197.13	1730.53
197.35	1667.05
197.57	1705.96
197.79	1839.08
198.01	1714.15
198.23	1773.54
198.45	1673.19
198.67	1714.15
198.89	1689.57
199.11	1677.29
199.33	1605.61
199.55	1621.99
199.77	1613.80
199.99	1765.35
200.21	1806.31
200.43	1755.11
200.65	1644.52
200.87	1611.75
201.09	1716.20
201.31	1642.47
201.53	1697.77
201.75	1746.92
201.97	1716.20
202.19	1742.82
202.41	1730.53
202.63	1775.59
202.85	1724.39
203.07	1677.29
203.29	1675.24
203.51	1662.95
203.73	1693.67
203.95	1834.98
204.17	1783.78
204.39	1652.71
204.61	1689.57
204.83	1693.67
205.05	1728.49
205.27	1730.53
205.49	1796.07
205.71	1746.92
205.93	1644.52
206.15	1607.66
206.37	1738.73
206.59	1615.85
206.81	1675.24
207.03	1601.51
207.25	1703.91
207.47	1697.77
207.69	1677.29
207.91	1849.32
208.13	1806.31
208.34	1712.10
208.56	1605.61
208.78	1712.10
209.00	1718.25
209.22	1679.33
209.44	1705.96
209.66	1656.81
209.88	1712.10
210.10	1665.00
210.32	1654.76
210.54	1746.92
210.76	1656.81
210.98	1765.35
211.20	1621.99
211.42	1712.10
211.64	1777.64
211.86	1662.95
212.08	1728.49
212.30	1740.77
212.52	1701.86
212.74	1677.29
212.96	1726.44
213.17	1767.40
213.39	1804.26
213.61	1753.06
213.83	1705.96
214.05	1650.66
214.27	1671.14
214.49	1574.89
214.71	1667.05
214.93	1763.30
215.15	1685.48
215.37	1665.00
215.59	1591.27
215.81	1681.38
216.03	1785.83
216.24	1697.77
216.46	1638.38
216.68	1671.14
216.90	1757.16
217.12	1775.59
217.34	1732.58
217.56	1789.92
217.78	1851.36
218.00	1785.83
218.22	1712.10
218.44	1789.92
218.66	1742.82
218.87	1734.63
219.09	1677.29
219.31	1681.38
219.53	1744.87
219.75	1650.66
219.97	1673.19
220.19	1738.73
220.41	1763.30
220.63	1744.87
220.85	1714.15
221.06	1744.87
221.28	1779.68
221.50	1783.78
221.72	1681.38
221.94	1689.57
222.16	1685.48
222.38	1732.58
222.60	1785.83
222.82	1722.34
223.03	1722.34
223.25	1621.99
223.47	1681.38
223.69	1851.36
223.91	1814.50
224.13	1669.09
224.35	1693.67
224.57	1761.25
224.78	1808.36
225.00	1673.19
225.22	1597.42
225.44	1638.38
225.66	1828.84
225.88	1701.86
226.10	1740.77
226.32	1681.38
226.53	1763.30
226.75	1628.14
226.97	1701.86
227.19	1712.10
227.41	1677.29
227.63	1572.84
227.85	1660.90
228.06	1677.29
228.28	1685.48
228.50	1746.92
228.72	1658.85
228.94	1652.71
229.16	1591.27
229.37	1673.19
229.59	1576.94
229.81	1763.30
230.03	1638.38
230.25	1597.42
230.47	1630.18
230.69	1671.14
230.90	1742.82
231.12	1638.38
231.34	1683.43
231.56	1689.57
231.78	1628.14
232.00	1669.09
232.21	1667.05
232.43	1699.81
232.65	1601.51
232.87	1681.38
233.09	1634.28
233.30	1744.87
233.52	1722.34
233.74	1619.94
233.96	1638.38
234.18	1695.72
234.40	1708.01
234.61	1832.93
234.83	1628.14
235.05	1679.33
235.27	1853.41
235.49	1724.39
235.70	1697.77
235.92	1671.14
236.14	1703.91
236.36	1867.75
236.58	1648.61
236.79	1759.21
237.01	1691.62
237.23	1660.90
237.45	1814.50
237.67	1681.38
237.88	1689.57
238.10	1767.40
238.32	1603.56
238.54	1619.94
238.76	1662.95
238.97	1589.22
239.19	1701.86
239.41	1738.73
239.63	1738.73
239.85	1665.00
240.06	1644.52
240.28	1742.82
240.50	1732.58
240.72	1726.44
240.93	1650.66
241.15	1781.73
241.37	1644.52
241.59	1785.83
241.81	1681.38
242.02	1660.90
242.24	1689.57
242.46	1798.12
242.68	1701.86
242.89	1765.35
243.11	1738.73
243.33	1675.24
243.55	1767.40
243.76	1753.06
243.98	1691.62
244.20	1708.01
244.42	1646.57
244.64	1656.81
244.85	1685.48
245.07	1566.70
245.29	1791.97
245.51	1691.62
245.72	1771.49
245.94	1773.54
246.16	1742.82
246.38	1730.53
246.59	1677.29
246.81	1681.38
247.03	1708.01
247.24	1634.28
247.46	1673.19
247.68	1767.40
247.90	1531.88
248.11	1611.75
248.33	1703.91
248.55	1767.40
248.77	1671.14
248.98	1789.92
249.20	1814.50
249.42	1669.09
249.64	1708.01
249.85	1714.15
250.07	1665.00
250.29	1841.12
250.50	1753.06
250.72	1646.57
250.94	1642.47
251.16	1851.36
251.37	1701.86
251.59	1691.62
251.81	1767.40
252.02	1812.45
252.24	1583.08
252.46	1783.78
252.68	1693.67
252.89	1626.09
253.11	1658.85
253.33	1767.40
253.54	1767.40
253.76	1581.03
253.98	1691.62
254.20	1679.33
254.41	1705.96
254.63	1662.95
254.85	1624.04
255.06	1665.00
255.28	1740.77
255.50	1691.62
255.71	1667.05
255.93	1648.61
256.15	1626.09
256.36	1691.62
256.58	1679.33
256.80	1769.44
257.02	1677.29
257.23	1669.09
257.45	1738.73
257.67	1744.87
257.88	1630.18
258.10	1718.25
258.32	1732.58
258.53	1730.53
258.75	1783.78
258.97	1677.29
259.18	1734.63
259.40	1746.92
259.62	1785.83
259.83	1789.92
260.05	1730.53
260.27	1931.23
260.48	1738.73
260.70	1638.38
260.92	1634.28
261.13	1724.39
261.35	1720.29
261.57	1763.30
261.78	1630.18
262.00	1685.48
262.22	1724.39
262.43	1642.47
262.65	1660.90
262.86	1615.85
263.08	1828.84
263.30	1712.10
263.51	1660.90
263.73	1660.90
263.95	1818.60
264.16	1648.61
264.38	1675.24
264.60	1765.35
264.81	1603.56
265.03	1769.44
265.25	1787.88
265.46	1675.24
265.68	1814.50
265.89	1738.73
266.11	1595.37
266.33	1710.05
266.54	1761.25
266.76	1730.53
266.98	1746.92
267.19	1755.11
267.41	1810.40
267.62	1718.25
267.84	1603.56
268.06	1759.21
268.27	1667.05
268.49	1757.16
268.70	1732.58
268.92	1722.34
269.14	1658.85
269.35	1585.13
269.57	1718.25
269.79	1708.01
270.00	1681.38
270.22	1763.30
270.43	1662.95
270.65	1613.80
270.87	1746.92
271.08	1662.95
271.30	1759.21
271.51	1634.28
271.73	1767.40
271.95	1755.11
272.16	1675.24
272.38	1660.90
272.59	1669.09
272.81	1730.53
273.02	1699.81
273.24	1753.06
273.46	1748.97
273.67	1699.81
273.89	1677.29
274.10	1705.96
274.32	1789.92
274.54	1810.40
274.75	1753.06
274.97	1708.01
275.18	1767.40
275.40	1748.97
275.61	1734.63
275.83	1716.20
276.05	1644.52
276.26	1671.14
276.48	1767.40
276.69	1554.41
276.91	1679.33
277.12	1765.35
277.34	1724.39
277.55	1828.84
277.77	1681.38
277.99	1601.51
278.20	1681.38
278.42	1708.01
278.63	1609.70
278.85	1646.57
279.06	1636.33
279.28	1703.91
279.49	1665.00
279.71	1724.39
279.93	1777.64
280.14	1685.48
280.36	1642.47
280.57	1689.57
280.79	1705.96
281.00	1619.94
281.22	1654.76
281.43	1736.68
281.65	1591.27
281.86	1695.72
282.08	1763.30
282.29	1841.12
282.51	1626.09
282.73	1634.28
282.94	1697.77
283.16	1757.16
283.37	1794.02
283.59	1714.15
283.80	1773.54
284.02	1710.05
284.23	1755.11
284.45	1677.29
284.66	1652.71
284.88	1673.19
285.09	1648.61
285.31	1744.87
285.52	1681.38
285.74	1593.32
285.95	1796.07
286.17	1720.29
286.38	1746.92
286.60	1644.52
286.81	1656.81
287.03	1669.09
287.24	1708.01
287.46	1787.88
287.67	1732.58
287.89	1787.88
288.10	1716.20
288.32	1675.24
288.53	1767.40
288.75	1675.24
288.96	1712.10
289.18	1667.05
289.39	1742.82
289.61	1710.05
289.82	1783.78
290.04	1804.26
290.25	1638.38
290.47	1652.71
290.68	1669.09
290.90	1714.15
291.11	1624.04
291.33	1718.25
291.54	1611.75
291.76	1656.81
291.97	1720.29
292.18	1738.73
292.40	1634.28
292.61	1736.68
292.83	1751.01
293.04	1718.25
293.26	1714.15
293.47	1685.48
293.69	1724.39
293.90	1650.66
294.12	1841.12
294.33	1693.67
294.55	1732.58
294.76	1787.88
294.97	1753.06
295.19	1736.68
295.40	1636.33
295.62	1728.49
295.83	1695.72
296.05	1619.94
296.26	1796.07
296.48	1705.96
296.69	1665.00
296.90	1689.57
297.12	1720.29
297.33	1777.64
297.55	1685.48
297.76	1730.53
297.98	1728.49
298.19	1624.04
298.41	1650.66
298.62	1665.00
298.83	1748.97
299.05	1757.16
299.26	1601.51
299.48	1662.95
299.69	1667.05
299.90	1740.77
300.12	1652.71
300.33	1693.67
300.55	1697.77
300.76	1738.73
300.98	1648.61
301.19	1693.67
301.40	1665.00
301.62	1617.90
301.83	1748.97
302.05	1695.72
302.26	1814.50
302.47	1714.15
302.69	1669.09
302.90	1624.04
303.12	1609.70
303.33	1693.67
303.54	1847.27
303.76	1642.47
303.97	1738.73
304.19	1771.49
304.40	1636.33
304.61	1722.34
304.83	1763.30
305.04	1761.25
305.26	1683.43
305.47	1689.57
305.68	1765.35
305.90	1578.98
306.11	1734.63
306.33	1660.90
306.54	1648.61
306.75	1665.00
306.97	1648.61
307.18	1669.09
307.39	1650.66
307.61	1755.11
307.82	1755.11
308.04	1728.49
308.25	1654.76
308.46	1779.68
308.68	1734.63
308.89	1740.77
309.10	1751.01
309.32	1667.05
309.53	1697.77
309.74	1656.81
309.96	1644.52
310.17	1808.36
310.39	1710.05
310.60	1742.82
310.81	1777.64
311.03	1611.75
311.24	1705.96
311.45	1667.05
311.67	1863.65
311.88	1679.33
312.09	1685.48
312.31	1660.90
312.52	1648.61
312.73	1716.20
312.95	1636.33
313.16	1650.66
313.37	1814.50
313.59	1759.21
313.80	1767.40
314.01	1765.35
314.23	1701.86
314.44	1683.43
314.65	1640.42
314.87	1679.33
315.08	1665.00
315.29	1708.01
315.51	1667.05
315.72	1658.85
315.93	1740.77
316.15	1814.50
316.36	1667.05
316.57	1691.62
316.79	1685.48
317.00	1718.25
317.21	1685.48
317.43	1617.90
317.64	1660.90
317.85	1644.52
318.07	1652.71
318.28	1673.19
318.49	1814.50
318.70	1931.23
318.92	1718.25
319.13	1787.88
319.34	1791.97
319.56	1787.88
319.77	1716.20
319.98	1794.02
320.20	1671.14
320.41	1765.35
320.62	1777.64
320.83	1734.63
321.05	1855.46
321.26	1677.29
321.47	1652.71
321.69	1757.16
321.90	1695.72
322.11	1628.14
322.32	1763.30
322.54	1746.92
322.75	1630.18
322.96	1855.46
323.18	1603.56
323.39	1607.66
323.60	1630.18
323.81	1728.49
324.03	1636.33
324.24	1660.90
324.45	1673.19
324.66	1740.77
324.88	1800.16
325.09	1806.31
325.30	1683.43
325.52	1691.62
325.73	1748.97
325.94	1720.29
326.15	1585.13
326.37	1626.09
326.58	1734.63
326.79	1800.16
327.00	1613.80
327.22	1740.77
327.43	1714.15
327.64	1646.57
327.85	1699.81
328.07	1667.05
328.28	1798.12
328.49	1693.67
328.70	1730.53
328.92	1640.42
329.13	1628.14
329.34	1691.62
329.55	1744.87
329.76	1734.63
329.98	1667.05
330.19	1789.92
330.40	1722.34
330.61	1746.92
330.83	1740.77
331.04	1675.24
331.25	1654.76
331.46	1697.77
331.68	1701.86
331.89	1800.16
332.10	1654.76
332.31	1599.46
332.52	1628.14
332.74	1794.02
332.95	1615.85
333.16	1642.47
333.37	1767.40
333.58	1658.85
333.80	1710.05
334.01	1640.42
334.22	1714.15
334.43	1617.90
334.64	1685.48
334.86	1658.85
335.07	1665.00
335.28	1771.49
335.49	1611.75
335.70	1611.75
335.92	1800.16
336.13	1787.88
336.34	1744.87
336.55	1718.25
336.76	1697.77
336.98	1574.89
337.19	1755.11
337.40	1802.21
337.61	1787.88
337.82	1687.53
338.04	1732.58
338.25	1628.14
338.46	1695.72
338.67	1685.48
338.88	1650.66
339.09	1644.52
339.31	1642.47
339.52	1689.57
339.73	1554.41
339.94	1757.16
340.15	1759.21
340.36	1658.85
340.58	1693.67
340.79	1597.42
341.00	1742.82
341.21	1667.05
341.42	1824.74
341.63	1705.96
341.85	1794.02
342.06	1660.90
342.27	1583.08
342.48	1697.77
342.69	1646.57
342.90	1679.33
343.12	1671.14
343.33	1693.67
343.54	1642.47
343.75	1761.25
343.96	1632.23
344.17	1619.94
344.38	1701.86
344.60	1628.14
344.81	1660.90
345.02	1701.86
345.23	1720.29
345.44	1738.73
345.65	1710.05
345.86	1685.48
346.07	1673.19
346.29	1636.33
346.50	1726.44
346.71	1677.29
346.92	1681.38
347.13	1841.12
347.34	1689.57
347.55	1648.61
347.76	1712.10
347.98	1669.09
348.19	1679.33
348.40	1824.74
348.61	1667.05
348.82	1834.98
349.03	1746.92
349.24	1615.85
349.45	1818.60
349.66	1644.52
349.88	1654.76
350.09	1701.86
350.30	1796.07
350.51	1748.97
350.72	1767.40
350.93	1705.96
351.14	1687.53
351.35	1697.77
351.56	1744.87
351.77	1671.14
351.99	1753.06
352.20	1847.27
352.41	1726.44
352.62	1587.18
352.83	1671.14
353.04	1691.62
353.25	1699.81
353.46	1724.39
353.67	1759.21
353.88	1626.09
354.09	1791.97
354.30	1714.15
354.52	1724.39
354.73	1724.39
354.94	1691.62
355.15	1751.01
355.36	1800.16
355.57	1656.81
355.78	1744.87
355.99	1669.09
356.20	1691.62
356.41	1763.30
356.62	1740.77
356.83	1738.73
357.04	1804.26
357.25	1685.48
357.46	1714.15
357.68	1632.23
357.89	1677.29
358.10	1681.38
358.31	1652.71
358.52	1652.71
358.73	1679.33
358.94	1669.09
359.15	1665.00
359.36	1791.97
359.57	1669.09
359.78	1609.70
359.99	1714.15
360.20	1644.52
360.41	1650.66
360.62	1732.58
360.83	1755.11
361.04	1757.16
361.25	1691.62
361.46	1759.21
361.67	1757.16
361.88	1796.07
362.09	1712.10
362.30	1779.68
362.51	1683.43
362.72	1671.14
362.93	1673.19
363.14	1724.39
363.35	1673.19
363.56	1611.75
363.78	1783.78
363.99	1712.10
364.20	1626.09
364.41	1732.58
364.62	1841.12
364.83	1751.01
365.04	1650.66
365.25	1722.34
365.46	1769.44
365.67	1689.57
365.88	1662.95
366.09	1683.43
366.30	1671.14
366.51	1697.77
366.72	1630.18
366.93	1632.23
367.14	1740.77
367.35	1785.83
367.56	1621.99
367.77	1787.88
367.98	1732.58
368.18	1773.54
368.39	1701.86
368.60	1615.85
368.81	1771.49
369.02	1658.85
369.23	1671.14
369.44	1624.04
369.65	1728.49
369.86	1722.34
370.07	1832.93
370.28	1658.85
370.49	1671.14
370.70	1753.06
370.91	1609.70
371.12	1615.85
371.33	1767.40
371.54	1675.24
371.75	1808.36
371.96	1540.07
372.17	1669.09
372.38	1644.52
372.59	1796.07
372.80	1638.38
373.01	1650.66
373.22	1757.16
373.43	1701.86
373.64	1628.14
373.85	1753.06
374.06	1798.12
374.26	1767.40
374.47	1710.05
374.68	1748.97
374.89	1632.23
375.10	1634.28
375.31	1800.16
375.52	1746.92
375.73	1699.81
375.94	1630.18
376.15	1748.97
376.36	1689.57
376.57	1642.47
376.78	1687.53
376.99	1718.25
377.20	1796.07
377.40	1665.00
377.61	1800.16
377.82	1650.66
378.03	1865.70
378.24	1757.16
378.45	1587.18
378.66	1734.63
378.87	1603.56
379.08	1699.81
379.29	1687.53
379.50	1718.25
379.71	1687.53
379.91	1728.49
380.12	1730.53
380.33	1662.95
380.54	1748.97
380.75	1775.59
380.96	1771.49
381.17	1781.73
381.38	1722.34
381.59	1697.77
381.80	1677.29
382.00	1771.49
382.21	1689.57
382.42	1785.83
382.63	1855.46
382.84	1789.92
383.05	1763.30
383.26	1824.74
383.47	1775.59
383.68	1722.34
383.88	1769.44
384.09	1683.43
384.30	1816.55
384.51	1697.77
384.72	1714.15
384.93	1658.85
385.14	1697.77
385.35	1757.16
385.55	1591.27
385.76	1718.25
385.97	1738.73
386.18	1593.32
386.39	1716.20
386.60	1658.85
386.81	1597.42
387.02	1697.77
387.22	1615.85
387.43	1730.53
387.64	1798.12
387.85	1902.56
388.06	2181.09
388.27	4280.25
388.48	6694.81
388.68	8255.36
388.89	9594.73
389.10	9774.95
389.31	8617.85
389.52	7491.47
389.73	6850.46
389.93	6279.07
390.14	5992.36
390.35	5304.24
390.56	4671.42
390.77	3831.75
390.98	3088.34
391.18	2531.29
391.39	2172.89
391.60	1820.64
391.81	1804.26
392.02	1640.42
392.23	1839.08
392.43	1724.39
392.64	1777.64
392.85	1708.01
393.06	1732.58
393.27	1699.81
393.47	1699.81
393.68	1675.24
393.89	1699.81
394.10	1837.03
394.31	1691.62
394.52	1656.81
394.72	1644.52
394.93	1738.73
395.14	1611.75
395.35	1781.73
395.56	1630.18
395.76	1757.16
395.97	1787.88
396.18	1822.69
396.39	1824.74
396.60	2019.30
396.80	1900.52
397.01	1875.94
397.22	1824.74
397.43	1798.12
397.64	1714.15
397.84	1804.26
398.05	1896.42
398.26	1759.21
398.47	1791.97
398.67	1820.64
398.88	1673.19
399.09	1767.40
399.30	1738.73
399.51	1703.91
399.71	1650.66
399.92	1675.24
400.13	1703.91
400.34	1728.49
400.54	1683.43
400.75	1855.46
400.96	1767.40
401.17	1845.22
401.37	1722.34
401.58	1644.52
401.79	1814.50
402.00	1912.80
402.21	2033.63
402.41	1968.10
402.62	2007.01
402.83	2033.63
403.04	1972.19
403.24	2064.35
403.45	1884.13
403.66	1837.03
403.87	1814.50
404.07	1853.41
404.28	1900.52
404.49	1843.17
404.70	1734.63
404.90	1708.01
405.11	1763.30
405.32	1712.10
405.52	1773.54
405.73	1708.01
405.94	1624.04
406.15	1662.95
406.35	1736.68
406.56	1738.73
406.77	1755.11
406.98	1787.88
407.18	1740.77
407.39	1810.40
407.60	1730.53
407.80	1669.09
408.01	1757.16
408.22	1673.19
408.43	1667.05
408.63	1665.00
408.84	1824.74
409.05	1775.59
409.25	1652.71
409.46	1673.19
409.67	1656.81
409.88	1617.90
410.08	1740.77
410.29	1761.25
410.50	1753.06
410.70	1757.16
410.91	1619.94
411.12	1718.25
411.32	1722.34
411.53	1660.90
411.74	1699.81
411.95	1748.97
412.15	1757.16
412.36	1740.77
412.57	1716.20
412.77	1816.55
412.98	1763.30
413.19	1722.34
413.39	1769.44
413.60	1705.96
413.81	1781.73
414.01	1656.81
414.22	1742.82
414.43	1722.34
414.63	1732.58
414.84	1804.26
415.05	1697.77
415.25	1658.85
415.46	1705.96
415.67	1660.90
415.87	1703.91
416.08	1689.57
416.29	1646.57
416.49	1712.10
416.70	1660.90
416.91	1705.96
417.11	1726.44
417.32	1708.01
417.53	1693.67
417.73	1691.62
417.94	1675.24
418.15	1718.25
418.35	1712.10
418.56	1740.77
418.77	1832.93
418.97	1714.15
419.18	1621.99
419.38	1574.89
419.59	1722.34
419.80	1869.80
420.00	1660.90
420.21	1720.29
420.42	1763.30
420.62	1720.29
420.83	1710.05
421.04	1677.29
421.24	1589.22
421.45	1759.21
421.65	1810.40
421.86	1677.29
422.07	1710.05
422.27	1708.01
422.48	1798.12
422.69	1656.81
422.89	1646.57
423.10	1699.81
423.30	1648.61
423.51	1615.85
423.72	1716.20
423.92	1730.53
424.13	1628.14
424.33	1724.39
424.54	1787.88
424.75	1703.91
424.95	1873.89
425.16	1798.12
425.36	1771.49
425.57	1693.67
425.78	1742.82
425.98	1734.63
426.19	1617.90
426.39	1673.19
426.60	1740.77
426.81	1791.97
427.01	1697.77
427.22	1781.73
427.42	1644.52
427.63	1705.96
427.83	1665.00
428.04	1791.97
428.25	1730.53
428.45	1732.58
428.66	1742.82
428.86	1716.20
429.07	1687.53
429.28	1759.21
429.48	1736.68
429.69	1632.23
429.89	1759.21
430.10	1683.43
430.30	1738.73
430.51	1820.64
430.71	1658.85
430.92	1632.23
431.13	1705.96
431.33	1695.72
431.54	1726.44
431.74	1812.45
431.95	1806.31
432.15	1624.04
432.36	1648.61
432.56	1837.03
432.77	1851.36
432.98	1824.74
433.18	1757.16
433.39	1689.57
433.59	1665.00
433.80	1824.74
434.00	1810.40
434.21	1724.39
434.41	1669.09
434.62	1794.02
434.82	1634.28
435.03	1697.77
435.23	1755.11
435.44	1642.47
435.64	1658.85
435.85	1748.97
436.06	1775.59
436.26	1765.35
436.47	1675.24
436.67	1630.18
436.88	1732.58
437.08	1761.25
437.29	1769.44
437.49	1730.53
437.70	1759.21
437.90	1708.01
438.11	1906.66
438.31	1783.78
438.52	1855.46
438.72	1796.07
438.93	1898.47
439.13	1728.49
439.34	1787.88
439.54	1771.49
439.75	1767.40
439.95	1730.53
440.16	1734.63
440.36	1720.29
440.57	1714.15
440.77	1748.97
440.98	1679.33
441.18	1765.35
441.39	1734.63
441.59	1708.01
441.80	1791.97
442.00	1771.49
442.21	1765.35
442.41	1667.05
442.62	1755.11
442.82	1697.77
443.02	1695.72
443.23	1765.35
443.43	1642.47
443.64	1742.82
443.84	1767.40
444.05	1789.92
444.25	1730.53
444.46	1740.77
444.66	1746.92
444.87	1781.73
445.07	1644.52
445.28	1689.57
445.48	1769.44
445.69	1757.16
445.89	1843.17
446.09	1767.40
446.30	2045.92
446.50	2723.80
446.71	3704.78
446.91	4286.40
447.12	4788.15
447.32	4911.03
447.53	4394.94
447.73	3895.24
447.93	3549.13
448.14	3317.71
448.34	3223.50
448.55	2879.44
448.75	2803.67
448.96	2684.89
449.16	2435.03
449.36	2222.05
449.57	2000.87
449.77	1945.57
449.98	1841.12
450.18	1812.45
450.39	1886.18
450.59	1757.16
450.79	1732.58
451.00	1718.25
451.20	1722.34
451.41	1710.05
451.61	1736.68
451.81	1697.77
452.02	1751.01
452.22	1736.68
452.43	1730.53
452.63	1683.43
