SpectraSuite Data File
++++++++++++++++++++++++++++++++++++
Date: Mon Jun 06 16:59:57 CEST 2016
User: root
Dark Spectrum Present: No
Reference Spectrum Present: No
Number of Sampled Component Spectra: 1
Spectrometers: USB4C02835
Integration Time (usec): 100000 (USB4C02835)
Spectra Averaged: 1 (USB4C02835)
Boxcar Smoothing: 0 (USB4C02835)
Correct for Electrical Dark: No (USB4C02835)
Strobe/Lamp Enabled: No (USB4C02835)
Correct for Detector Non-linearity: No (USB4C02835)
Correct for Stray Light: No (USB4C02835)
Number of Pixels in Processed Spectrum: 3648
>>>>>Begin Processed Spectral Data<<<<<
177.47	1476.59
177.69	1476.59
177.91	1476.59
178.13	1386.47
178.36	1521.64
178.58	1669.09
178.80	1718.25
179.02	1638.38
179.24	1642.47
179.46	1730.53
179.68	1665.00
179.90	1693.67
180.13	1636.33
180.35	1708.01
180.57	1640.42
180.79	1767.40
181.01	1675.24
181.23	1798.12
181.45	1724.39
181.67	1697.77
181.90	1761.25
182.12	1701.86
182.34	1665.00
182.56	1779.68
182.78	1769.44
183.00	1689.57
183.22	1736.68
183.44	1576.94
183.66	1886.18
183.89	1818.60
184.11	1720.29
184.33	1785.83
184.55	1726.44
184.77	1802.21
184.99	1705.96
185.21	1683.43
185.43	1804.26
185.65	1716.20
185.87	1708.01
186.10	1824.74
186.32	1863.65
186.54	1738.73
186.76	1726.44
186.98	1794.02
187.20	1665.00
187.42	1650.66
187.64	1734.63
187.86	1705.96
188.08	1748.97
188.30	1660.90
188.52	1708.01
188.75	1794.02
188.97	1718.25
189.19	1683.43
189.41	1720.29
189.63	1785.83
189.85	1611.75
190.07	1585.13
190.29	1679.33
190.51	1755.11
190.73	1644.52
190.95	1796.07
191.17	1761.25
191.39	1683.43
191.61	1724.39
191.84	1691.62
192.06	1751.01
192.28	1660.90
192.50	1867.75
192.72	1710.05
192.94	1720.29
193.16	1751.01
193.38	1671.14
193.60	1677.29
193.82	1685.48
194.04	1730.53
194.26	1681.38
194.48	1712.10
194.70	1695.72
194.92	1685.48
195.14	1765.35
195.36	1724.39
195.58	1726.44
195.80	1656.81
196.02	1689.57
196.24	1714.15
196.46	1724.39
196.69	1613.80
196.91	1814.50
197.13	1744.87
197.35	1703.91
197.57	1728.49
197.79	1742.82
198.01	1708.01
198.23	1773.54
198.45	1658.85
198.67	1626.09
198.89	1662.95
199.11	1787.88
199.33	1687.53
199.55	1581.03
199.77	1687.53
199.99	1822.69
200.21	1802.21
200.43	1738.73
200.65	1607.66
200.87	1535.98
201.09	1732.58
201.31	1652.71
201.53	1761.25
201.75	1742.82
201.97	1744.87
202.19	1652.71
202.41	1761.25
202.63	1865.70
202.85	1734.63
203.07	1685.48
203.29	1646.57
203.51	1671.14
203.73	1746.92
203.95	1910.75
204.17	1722.34
204.39	1697.77
204.61	1802.21
204.83	1644.52
205.05	1759.21
205.27	1763.30
205.49	1814.50
205.71	1716.20
205.93	1624.04
206.15	1685.48
206.37	1687.53
206.59	1679.33
206.81	1634.28
207.03	1607.66
207.25	1671.14
207.47	1798.12
207.69	1675.24
207.91	1779.68
208.13	1734.63
208.34	1615.85
208.56	1669.09
208.78	1722.34
209.00	1644.52
209.22	1738.73
209.44	1656.81
209.66	1650.66
209.88	1626.09
210.10	1742.82
210.32	1658.85
210.54	1773.54
210.76	1697.77
210.98	1724.39
211.20	1673.19
211.42	1714.15
211.64	1763.30
211.86	1714.15
212.08	1736.68
212.30	1703.91
212.52	1630.18
212.74	1714.15
212.96	1777.64
213.17	1794.02
213.39	1742.82
213.61	1816.55
213.83	1677.29
214.05	1640.42
214.27	1828.84
214.49	1603.56
214.71	1662.95
214.93	1726.44
215.15	1689.57
215.37	1689.57
215.59	1716.20
215.81	1667.05
216.03	1775.59
216.24	1626.09
216.46	1671.14
216.68	1794.02
216.90	1757.16
217.12	1791.97
217.34	1753.06
217.56	1712.10
217.78	1722.34
218.00	1701.86
218.22	1685.48
218.44	1798.12
218.66	1734.63
218.87	1853.41
219.09	1644.52
219.31	1767.40
219.53	1744.87
219.75	1685.48
219.97	1769.44
220.19	1822.69
220.41	1695.72
220.63	1814.50
220.85	1683.43
221.06	1660.90
221.28	1806.31
221.50	1722.34
221.72	1642.47
221.94	1767.40
222.16	1685.48
222.38	1691.62
222.60	1720.29
222.82	1609.70
223.03	1695.72
223.25	1689.57
223.47	1830.88
223.69	1863.65
223.91	1716.20
224.13	1689.57
224.35	1677.29
224.57	1763.30
224.78	1753.06
225.00	1689.57
225.22	1728.49
225.44	1646.57
225.66	1771.49
225.88	1783.78
226.10	1810.40
226.32	1738.73
226.53	1814.50
226.75	1722.34
226.97	1736.68
227.19	1736.68
227.41	1757.16
227.63	1714.15
227.85	1697.77
228.06	1771.49
228.28	1716.20
228.50	1789.92
228.72	1705.96
228.94	1751.01
229.16	1648.61
229.37	1638.38
229.59	1642.47
229.81	1841.12
230.03	1687.53
230.25	1677.29
230.47	1646.57
230.69	1636.33
230.90	1734.63
231.12	1708.01
231.34	1730.53
231.56	1724.39
231.78	1660.90
232.00	1677.29
232.21	1673.19
232.43	1732.58
232.65	1656.81
232.87	1761.25
233.09	1656.81
233.30	1617.90
233.52	1777.64
233.74	1701.86
233.96	1699.81
234.18	1740.77
234.40	1695.72
234.61	1794.02
234.83	1667.05
235.05	1607.66
235.27	1820.64
235.49	1798.12
235.70	1757.16
235.92	1718.25
236.14	1712.10
236.36	1789.92
236.58	1679.33
236.79	1748.97
237.01	1669.09
237.23	1607.66
237.45	1775.59
237.67	1654.76
237.88	1695.72
238.10	1753.06
238.32	1634.28
238.54	1767.40
238.76	1673.19
238.97	1652.71
239.19	1632.23
239.41	1710.05
239.63	1798.12
239.85	1708.01
240.06	1738.73
240.28	1632.23
240.50	1714.15
240.72	1748.97
240.93	1689.57
241.15	1716.20
241.37	1597.42
241.59	1761.25
241.81	1695.72
242.02	1662.95
242.24	1677.29
242.46	1757.16
242.68	1677.29
242.89	1716.20
243.11	1783.78
243.33	1763.30
243.55	1738.73
243.76	1761.25
243.98	1642.47
244.20	1787.88
244.42	1656.81
244.64	1742.82
244.85	1662.95
245.07	1615.85
245.29	1765.35
245.51	1675.24
245.72	1699.81
245.94	1769.44
246.16	1716.20
246.38	1744.87
246.59	1673.19
246.81	1609.70
247.03	1673.19
247.24	1607.66
247.46	1710.05
247.68	1703.91
247.90	1669.09
248.11	1714.15
248.33	1710.05
248.55	1681.38
248.77	1757.16
248.98	1763.30
249.20	1855.46
249.42	1753.06
249.64	1771.49
249.85	1802.21
250.07	1689.57
250.29	1759.21
250.50	1751.01
250.72	1640.42
250.94	1693.67
251.16	1818.60
251.37	1796.07
251.59	1740.77
251.81	1693.67
252.02	1744.87
252.24	1742.82
252.46	1796.07
252.68	1640.42
252.89	1712.10
253.11	1662.95
253.33	1841.12
253.54	1800.16
253.76	1673.19
253.98	1705.96
254.20	1714.15
254.41	1697.77
254.63	1607.66
254.85	1632.23
255.06	1656.81
255.28	1738.73
255.50	1687.53
255.71	1656.81
255.93	1607.66
256.15	1644.52
256.36	1751.01
256.58	1755.11
256.80	1693.67
257.02	1628.14
257.23	1669.09
257.45	1695.72
257.67	1781.73
257.88	1705.96
258.10	1701.86
258.32	1722.34
258.53	1697.77
258.75	1755.11
258.97	1673.19
259.18	1822.69
259.40	1714.15
259.62	1794.02
259.83	1755.11
260.05	1755.11
260.27	1927.14
260.48	1781.73
260.70	1681.38
260.92	1771.49
261.13	1710.05
261.35	1744.87
261.57	1703.91
261.78	1632.23
262.00	1673.19
262.22	1730.53
262.43	1669.09
262.65	1646.57
262.86	1761.25
263.08	1761.25
263.30	1718.25
263.51	1693.67
263.73	1705.96
263.95	1798.12
264.16	1644.52
264.38	1677.29
264.60	1779.68
264.81	1648.61
265.03	1765.35
265.25	1759.21
265.46	1697.77
265.68	1763.30
265.89	1826.79
266.11	1603.56
266.33	1742.82
266.54	1796.07
266.76	1728.49
266.98	1699.81
267.19	1751.01
267.41	1814.50
267.62	1695.72
267.84	1609.70
268.06	1701.86
268.27	1695.72
268.49	1701.86
268.70	1755.11
268.92	1734.63
269.14	1576.94
269.35	1669.09
269.57	1722.34
269.79	1681.38
270.00	1671.14
270.22	1789.92
270.43	1642.47
270.65	1638.38
270.87	1712.10
271.08	1802.21
271.30	1716.20
271.51	1644.52
271.73	1705.96
271.95	1734.63
272.16	1636.33
272.38	1736.68
272.59	1728.49
272.81	1701.86
273.02	1701.86
273.24	1685.48
273.46	1828.84
273.67	1689.57
273.89	1650.66
274.10	1644.52
274.32	1845.22
274.54	1691.62
274.75	1720.29
274.97	1714.15
275.18	1744.87
275.40	1683.43
275.61	1720.29
275.83	1675.24
276.05	1601.51
276.26	1716.20
276.48	1753.06
276.69	1783.78
276.91	1699.81
277.12	1712.10
277.34	1763.30
277.55	1722.34
277.77	1677.29
277.99	1787.88
278.20	1609.70
278.42	1697.77
278.63	1615.85
278.85	1701.86
279.06	1605.61
279.28	1722.34
279.49	1761.25
279.71	1708.01
279.93	1648.61
280.14	1693.67
280.36	1722.34
280.57	1775.59
280.79	1722.34
281.00	1624.04
281.22	1646.57
281.43	1796.07
281.65	1609.70
281.86	1656.81
282.08	1757.16
282.29	1853.41
282.51	1648.61
282.73	1703.91
282.94	1583.08
283.16	1738.73
283.37	1863.65
283.59	1746.92
283.80	1726.44
284.02	1691.62
284.23	1703.91
284.45	1689.57
284.66	1726.44
284.88	1619.94
285.09	1769.44
285.31	1720.29
285.52	1773.54
285.74	1576.94
285.95	1798.12
286.17	1703.91
286.38	1777.64
286.60	1755.11
286.81	1644.52
287.03	1642.47
287.24	1652.71
287.46	1781.73
287.67	1693.67
287.89	1847.27
288.10	1724.39
288.32	1761.25
288.53	1804.26
288.75	1775.59
288.96	1775.59
289.18	1621.99
289.39	1757.16
289.61	1757.16
289.82	1894.37
290.04	1742.82
290.25	1562.60
290.47	1722.34
290.68	1687.53
290.90	1658.85
291.11	1607.66
291.33	1697.77
291.54	1685.48
291.76	1722.34
291.97	1724.39
292.18	1738.73
292.40	1736.68
292.61	1746.92
292.83	1757.16
293.04	1777.64
293.26	1755.11
293.47	1691.62
293.69	1619.94
293.90	1757.16
294.12	1802.21
294.33	1697.77
294.55	1751.01
294.76	1775.59
294.97	1771.49
295.19	1824.74
295.40	1759.21
295.62	1714.15
295.83	1722.34
296.05	1726.44
296.26	1738.73
296.48	1695.72
296.69	1699.81
296.90	1738.73
297.12	1808.36
297.33	1820.64
297.55	1722.34
297.76	1738.73
297.98	1742.82
298.19	1730.53
298.41	1714.15
298.62	1736.68
298.83	1753.06
299.05	1685.48
299.26	1767.40
299.48	1681.38
299.69	1673.19
299.90	1642.47
300.12	1650.66
300.33	1689.57
300.55	1714.15
300.76	1699.81
300.98	1621.99
301.19	1697.77
301.40	1681.38
301.62	1718.25
301.83	1757.16
302.05	1662.95
302.26	1689.57
302.47	1769.44
302.69	1654.76
302.90	1656.81
303.12	1581.03
303.33	1781.73
303.54	1777.64
303.76	1650.66
303.97	1783.78
304.19	1861.60
304.40	1755.11
304.61	1656.81
304.83	1841.12
305.04	1714.15
305.26	1665.00
305.47	1669.09
305.68	1744.87
305.90	1617.90
306.11	1736.68
306.33	1714.15
306.54	1632.23
306.75	1613.80
306.97	1691.62
307.18	1644.52
307.39	1705.96
307.61	1736.68
307.82	1642.47
308.04	1746.92
308.25	1710.05
308.46	1728.49
308.68	1650.66
308.89	1751.01
309.10	1728.49
309.32	1703.91
309.53	1693.67
309.74	1748.97
309.96	1759.21
310.17	1746.92
310.39	1654.76
310.60	1699.81
310.81	1695.72
311.03	1660.90
311.24	1748.97
311.45	1728.49
311.67	1861.60
311.88	1703.91
312.09	1724.39
312.31	1763.30
312.52	1753.06
312.73	1730.53
312.95	1667.05
313.16	1697.77
313.37	1806.31
313.59	1712.10
313.80	1689.57
314.01	1767.40
314.23	1701.86
314.44	1722.34
314.65	1695.72
314.87	1675.24
315.08	1728.49
315.29	1675.24
315.51	1589.22
315.72	1611.75
315.93	1794.02
316.15	1804.26
316.36	1675.24
316.57	1728.49
316.79	1796.07
317.00	1685.48
317.21	1771.49
317.43	1654.76
317.64	1691.62
317.85	1640.42
318.07	1675.24
318.28	1740.77
318.49	1910.75
318.70	1880.04
318.92	1720.29
319.13	1855.46
319.34	1869.80
319.56	1841.12
319.77	1761.25
319.98	1849.32
320.20	1785.83
320.41	1820.64
320.62	1820.64
320.83	1689.57
321.05	1822.69
321.26	1746.92
321.47	1722.34
321.69	1796.07
321.90	1564.65
322.11	1730.53
322.32	1748.97
322.54	1806.31
322.75	1650.66
322.96	1802.21
323.18	1763.30
323.39	1599.46
323.60	1619.94
323.81	1759.21
324.03	1718.25
324.24	1710.05
324.45	1789.92
324.66	1720.29
324.88	1828.84
325.09	1748.97
325.30	1783.78
325.52	1728.49
325.73	1769.44
325.94	1624.04
326.15	1650.66
326.37	1640.42
326.58	1767.40
326.79	1798.12
327.00	1665.00
327.22	1693.67
327.43	1689.57
327.64	1665.00
327.85	1771.49
328.07	1732.58
328.28	1777.64
328.49	1712.10
328.70	1740.77
328.92	1703.91
329.13	1724.39
329.34	1718.25
329.55	1822.69
329.76	1708.01
329.98	1726.44
330.19	1806.31
330.40	1798.12
330.61	1665.00
330.83	1730.53
331.04	1712.10
331.25	1685.48
331.46	1673.19
331.68	1621.99
331.89	1685.48
332.10	1755.11
332.31	1597.42
332.52	1693.67
332.74	1806.31
332.95	1593.32
333.16	1714.15
333.37	1730.53
333.58	1679.33
333.80	1759.21
334.01	1683.43
334.22	1673.19
334.43	1656.81
334.64	1685.48
334.86	1603.56
335.07	1753.06
335.28	1740.77
335.49	1636.33
335.70	1796.07
335.92	1740.77
336.13	1900.52
336.34	1716.20
336.55	1751.01
336.76	1720.29
336.98	1634.28
337.19	1755.11
337.40	1855.46
337.61	1918.95
337.82	1718.25
338.04	1744.87
338.25	1646.57
338.46	1726.44
338.67	1755.11
338.88	1683.43
339.09	1628.14
339.31	1640.42
339.52	1576.94
339.73	1732.58
339.94	1701.86
340.15	1826.79
340.36	1652.71
340.58	1710.05
340.79	1599.46
341.00	1773.54
341.21	1681.38
341.42	1914.85
341.63	1742.82
341.85	1722.34
342.06	1699.81
342.27	1679.33
342.48	1828.84
342.69	1673.19
342.90	1679.33
343.12	1689.57
343.33	1697.77
343.54	1800.16
343.75	1787.88
343.96	1632.23
344.17	1689.57
344.38	1708.01
344.60	1648.61
344.81	1658.85
345.02	1671.14
345.23	1724.39
345.44	1744.87
345.65	1767.40
345.86	1681.38
346.07	1740.77
346.29	1681.38
346.50	1769.44
346.71	1746.92
346.92	1816.55
347.13	1769.44
347.34	1701.86
347.55	1738.73
347.76	1732.58
347.98	1660.90
348.19	1660.90
348.40	1757.16
348.61	1701.86
348.82	1818.60
349.03	1751.01
349.24	1759.21
349.45	1812.45
349.66	1538.02
349.88	1730.53
350.09	1673.19
350.30	1785.83
350.51	1734.63
350.72	1708.01
350.93	1660.90
351.14	1679.33
351.35	1800.16
351.56	1755.11
351.77	1724.39
351.99	1783.78
352.20	1753.06
352.41	1714.15
352.62	1669.09
352.83	1695.72
353.04	1648.61
353.25	1708.01
353.46	1734.63
353.67	1734.63
353.88	1601.51
354.09	1716.20
354.30	1769.44
354.52	1753.06
354.73	1689.57
354.94	1677.29
355.15	1685.48
355.36	1802.21
355.57	1718.25
355.78	1759.21
355.99	1648.61
356.20	1628.14
356.41	1816.55
356.62	1720.29
356.83	1761.25
357.04	1796.07
357.25	1687.53
357.46	1734.63
357.68	1556.46
357.89	1634.28
358.10	1738.73
358.31	1667.05
358.52	1691.62
358.73	1632.23
358.94	1689.57
359.15	1648.61
359.36	1708.01
359.57	1718.25
359.78	1689.57
359.99	1691.62
360.20	1599.46
360.41	1732.58
360.62	1712.10
360.83	1695.72
361.04	1710.05
361.25	1755.11
361.46	1832.93
361.67	1677.29
361.88	1798.12
362.09	1781.73
362.30	1771.49
362.51	1642.47
362.72	1705.96
362.93	1798.12
363.14	1732.58
363.35	1716.20
363.56	1603.56
363.78	1806.31
363.99	1783.78
364.20	1695.72
364.41	1689.57
364.62	1828.84
364.83	1693.67
365.04	1693.67
365.25	1677.29
365.46	1869.80
365.67	1671.14
365.88	1701.86
366.09	1701.86
366.30	1697.77
366.51	1607.66
366.72	1562.60
366.93	1722.34
367.14	1783.78
367.35	1810.40
367.56	1652.71
367.77	1796.07
367.98	1642.47
368.18	1777.64
368.39	1718.25
368.60	1628.14
368.81	1720.29
369.02	1734.63
369.23	1763.30
369.44	1665.00
369.65	1683.43
369.86	1689.57
370.07	1697.77
370.28	1654.76
370.49	1746.92
370.70	1769.44
370.91	1558.50
371.12	1607.66
371.33	1722.34
371.54	1658.85
371.75	1796.07
371.96	1593.32
372.17	1687.53
372.38	1624.04
372.59	1679.33
372.80	1640.42
373.01	1683.43
373.22	1673.19
373.43	1681.38
373.64	1632.23
373.85	1857.51
374.06	1748.97
374.26	1716.20
374.47	1689.57
374.68	1802.21
374.89	1759.21
375.10	1665.00
375.31	1779.68
375.52	1773.54
375.73	1732.58
375.94	1751.01
376.15	1843.17
376.36	1667.05
376.57	1767.40
376.78	1640.42
376.99	1699.81
377.20	1773.54
377.40	1640.42
377.61	1789.92
377.82	1665.00
378.03	1751.01
378.24	1808.36
378.45	1675.24
378.66	1722.34
378.87	1615.85
379.08	1685.48
379.29	1722.34
379.50	1857.51
379.71	1691.62
379.91	1710.05
380.12	1675.24
380.33	1722.34
380.54	1751.01
380.75	1710.05
380.96	1718.25
381.17	1808.36
381.38	1718.25
381.59	1759.21
381.80	1710.05
382.00	1841.12
382.21	1722.34
382.42	1796.07
382.63	1855.46
382.84	1783.78
383.05	1798.12
383.26	1785.83
383.47	1839.08
383.68	1763.30
383.88	1771.49
384.09	1697.77
384.30	1761.25
384.51	1710.05
384.72	1603.56
384.93	1609.70
385.14	1777.64
385.35	1718.25
385.55	1724.39
385.76	1822.69
385.97	1724.39
386.18	1648.61
386.39	1708.01
386.60	1710.05
386.81	1722.34
387.02	1636.33
387.22	1691.62
387.43	1806.31
387.64	1763.30
387.85	1869.80
388.06	2246.62
388.27	4194.24
388.48	6844.31
388.68	8146.82
388.89	9641.84
389.10	9854.83
389.31	8447.87
389.52	7628.68
389.73	6686.62
389.93	6371.23
390.14	6021.03
390.35	5140.40
390.56	4597.69
390.77	3870.66
390.98	2967.51
391.18	2623.45
391.39	2127.84
391.60	1861.60
391.81	1810.40
392.02	1648.61
392.23	1857.51
392.43	1775.59
392.64	1857.51
392.85	1746.92
393.06	1748.97
393.27	1703.91
393.47	1660.90
393.68	1781.73
393.89	1701.86
394.10	1830.88
394.31	1691.62
394.52	1675.24
394.72	1693.67
394.93	1806.31
395.14	1615.85
395.35	1812.45
395.56	1708.01
395.76	1798.12
395.97	1746.92
396.18	1843.17
396.39	1853.41
396.60	1996.77
396.80	1925.09
397.01	1875.94
397.22	1859.56
397.43	1824.74
397.64	1732.58
397.84	1794.02
398.05	1943.52
398.26	1806.31
398.47	1814.50
398.67	1763.30
398.88	1751.01
399.09	1787.88
399.30	1720.29
399.51	1787.88
399.71	1658.85
399.92	1787.88
400.13	1791.97
400.34	1703.91
400.54	1736.68
400.75	1775.59
400.96	1744.87
401.17	1820.64
401.37	1736.68
401.58	1720.29
401.79	1757.16
402.00	1839.08
402.21	1900.52
402.41	1912.80
402.62	1992.67
402.83	2150.37
403.04	2039.78
403.24	2064.35
403.45	1894.37
403.66	1918.95
403.87	1859.56
404.07	1908.71
404.28	1902.56
404.49	1906.66
404.70	1824.74
404.90	1810.40
405.11	1775.59
405.32	1697.77
405.52	1693.67
405.73	1671.14
405.94	1652.71
406.15	1732.58
406.35	1718.25
406.56	1787.88
406.77	1716.20
406.98	1787.88
407.18	1607.66
407.39	1800.16
407.60	1705.96
407.80	1798.12
408.01	1673.19
408.22	1726.44
408.43	1691.62
408.63	1726.44
408.84	1800.16
409.05	1763.30
409.25	1689.57
409.46	1632.23
409.67	1769.44
409.88	1699.81
410.08	1802.21
410.29	1642.47
410.50	1771.49
410.70	1738.73
410.91	1683.43
411.12	1738.73
411.32	1701.86
411.53	1671.14
411.74	1734.63
411.95	1837.03
412.15	1693.67
412.36	1689.57
412.57	1783.78
412.77	1798.12
412.98	1638.38
413.19	1701.86
413.39	1746.92
413.60	1732.58
413.81	1800.16
414.01	1705.96
414.22	1765.35
414.43	1748.97
414.63	1701.86
414.84	1771.49
415.05	1744.87
415.25	1665.00
415.46	1708.01
415.67	1624.04
415.87	1619.94
416.08	1771.49
416.29	1708.01
416.49	1761.25
416.70	1621.99
416.91	1560.55
417.11	1710.05
417.32	1757.16
417.53	1794.02
417.73	1640.42
417.94	1697.77
418.15	1714.15
418.35	1732.58
418.56	1724.39
418.77	1865.70
418.97	1724.39
419.18	1673.19
419.38	1677.29
419.59	1734.63
419.80	1884.13
420.00	1652.71
420.21	1683.43
420.42	1718.25
420.62	1677.29
420.83	1746.92
421.04	1695.72
421.24	1728.49
421.45	1787.88
421.65	1763.30
421.86	1748.97
422.07	1814.50
422.27	1718.25
422.48	1740.77
422.69	1699.81
422.89	1734.63
423.10	1710.05
423.30	1644.52
423.51	1720.29
423.72	1734.63
423.92	1742.82
424.13	1693.67
424.33	1746.92
424.54	1722.34
424.75	1720.29
424.95	1869.80
425.16	1791.97
425.36	1722.34
425.57	1828.84
425.78	1785.83
425.98	1738.73
426.19	1720.29
426.39	1658.85
426.60	1712.10
426.81	1810.40
427.01	1724.39
427.22	1642.47
427.42	1603.56
427.63	1648.61
427.83	1789.92
428.04	1918.95
428.25	1757.16
428.45	1824.74
428.66	1804.26
428.86	1705.96
429.07	1683.43
429.28	1681.38
429.48	1699.81
429.69	1722.34
429.89	1728.49
430.10	1613.80
430.30	1746.92
430.51	1759.21
430.71	1673.19
430.92	1650.66
431.13	1767.40
431.33	1722.34
431.54	1689.57
431.74	1771.49
431.95	1794.02
432.15	1640.42
432.36	1773.54
432.56	1728.49
432.77	1806.31
432.98	1806.31
433.18	1710.05
433.39	1718.25
433.59	1708.01
433.80	1875.94
434.00	1902.56
434.21	1683.43
434.41	1710.05
434.62	1861.60
434.82	1660.90
435.03	1722.34
435.23	1722.34
435.44	1705.96
435.64	1691.62
435.85	1654.76
436.06	1689.57
436.26	1822.69
436.47	1652.71
436.67	1722.34
436.88	1720.29
437.08	1761.25
437.29	1726.44
437.49	1787.88
437.70	1734.63
437.90	1693.67
438.11	1837.03
438.31	1804.26
438.52	1927.14
438.72	1832.93
438.93	1900.52
439.13	1841.12
439.34	1820.64
439.54	1820.64
439.75	1794.02
439.95	1787.88
440.16	1728.49
440.36	1757.16
440.57	1857.51
440.77	1769.44
440.98	1724.39
441.18	1710.05
441.39	1757.16
441.59	1611.75
441.80	1851.36
442.00	1736.68
442.21	1822.69
442.41	1665.00
442.62	1689.57
442.82	1650.66
443.02	1746.92
443.23	1769.44
443.43	1695.72
443.64	1771.49
443.84	1652.71
444.05	1781.73
444.25	1746.92
444.46	1679.33
444.66	1789.92
444.87	1777.64
445.07	1595.37
445.28	1787.88
445.48	1802.21
445.69	1740.77
445.89	1851.36
446.09	1738.73
446.30	2058.21
446.50	2594.78
446.71	3815.37
446.91	4249.54
447.12	4685.75
447.32	4888.50
447.53	4358.08
447.73	3858.37
447.93	3573.71
448.14	3420.11
448.34	3225.55
448.55	2996.18
448.75	2775.00
448.96	2715.61
449.16	2441.18
449.36	2314.20
449.57	2056.16
449.77	1845.22
449.98	1839.08
450.18	1873.89
450.39	1814.50
450.59	1742.82
450.79	1740.77
451.00	1730.53
451.20	1755.11
451.41	1708.01
451.61	1808.36
451.81	1740.77
452.02	1714.15
452.22	1689.57
452.43	1703.91
452.63	1632.23
