SpectraSuite Data File
++++++++++++++++++++++++++++++++++++
Date: Mon Jun 06 12:36:57 CEST 2016
User: root
Dark Spectrum Present: No
Reference Spectrum Present: No
Number of Sampled Component Spectra: 1
Spectrometers: USB4C02835
Integration Time (usec): 100000 (USB4C02835)
Spectra Averaged: 1 (USB4C02835)
Boxcar Smoothing: 0 (USB4C02835)
Correct for Electrical Dark: No (USB4C02835)
Strobe/Lamp Enabled: No (USB4C02835)
Correct for Detector Non-linearity: No (USB4C02835)
Correct for Stray Light: No (USB4C02835)
Number of Pixels in Processed Spectrum: 3648
>>>>>Begin Processed Spectral Data<<<<<
177.47	1490.92
177.69	1490.92
177.91	1490.92
178.13	1445.87
178.36	1501.16
178.58	1591.27
178.80	1693.67
179.02	1656.81
179.24	1640.42
179.46	1699.81
179.68	1728.49
179.90	1648.61
180.13	1771.49
180.35	1556.46
180.57	1753.06
180.79	1630.18
181.01	1701.86
181.23	1800.16
181.45	1800.16
181.67	1714.15
181.90	1738.73
182.12	1652.71
182.34	1638.38
182.56	1802.21
182.78	1720.29
183.00	1691.62
183.22	1726.44
183.44	1683.43
183.66	1751.01
183.89	1832.93
184.11	1658.85
184.33	1759.21
184.55	1724.39
184.77	1794.02
184.99	1697.77
185.21	1669.09
185.43	1877.99
185.65	1699.81
185.87	1697.77
186.10	1851.36
186.32	1867.75
186.54	1695.72
186.76	1742.82
186.98	1748.97
187.20	1724.39
187.42	1669.09
187.64	1695.72
187.86	1730.53
188.08	1685.48
188.30	1701.86
188.52	1624.04
188.75	1775.59
188.97	1746.92
189.19	1640.42
189.41	1679.33
189.63	1699.81
189.85	1624.04
190.07	1560.55
190.29	1621.99
190.51	1746.92
190.73	1646.57
190.95	1736.68
191.17	1753.06
191.39	1568.74
191.61	1730.53
191.84	1679.33
192.06	1773.54
192.28	1648.61
192.50	1880.04
192.72	1685.48
192.94	1632.23
193.16	1716.20
193.38	1718.25
193.60	1599.46
193.82	1634.28
194.04	1736.68
194.26	1736.68
194.48	1716.20
194.70	1669.09
194.92	1642.47
195.14	1685.48
195.36	1695.72
195.58	1634.28
195.80	1634.28
196.02	1632.23
196.24	1656.81
196.46	1697.77
196.69	1628.14
196.91	1849.32
197.13	1722.34
197.35	1650.66
197.57	1761.25
197.79	1726.44
198.01	1642.47
198.23	1736.68
198.45	1681.38
198.67	1619.94
198.89	1665.00
199.11	1697.77
199.33	1669.09
199.55	1624.04
199.77	1601.51
199.99	1730.53
200.21	1662.95
200.43	1714.15
200.65	1652.71
200.87	1695.72
201.09	1675.24
201.31	1658.85
201.53	1724.39
201.75	1669.09
201.97	1695.72
202.19	1730.53
202.41	1720.29
202.63	1837.03
202.85	1720.29
203.07	1699.81
203.29	1693.67
203.51	1712.10
203.73	1585.13
203.95	1843.17
204.17	1755.11
204.39	1722.34
204.61	1685.48
204.83	1574.89
205.05	1742.82
205.27	1724.39
205.49	1802.21
205.71	1671.14
205.93	1624.04
206.15	1681.38
206.37	1675.24
206.59	1687.53
206.81	1636.33
207.03	1595.37
207.25	1619.94
207.47	1669.09
207.69	1683.43
207.91	1753.06
208.13	1781.73
208.34	1648.61
208.56	1656.81
208.78	1705.96
209.00	1648.61
209.22	1529.83
209.44	1718.25
209.66	1648.61
209.88	1685.48
210.10	1736.68
210.32	1687.53
210.54	1732.58
210.76	1665.00
210.98	1697.77
211.20	1613.80
211.42	1791.97
211.64	1748.97
211.86	1673.19
212.08	1720.29
212.30	1751.01
212.52	1652.71
212.74	1730.53
212.96	1705.96
213.17	1789.92
213.39	1796.07
213.61	1734.63
213.83	1699.81
214.05	1673.19
214.27	1742.82
214.49	1578.98
214.71	1656.81
214.93	1796.07
215.15	1738.73
215.37	1712.10
215.59	1568.74
215.81	1765.35
216.03	1818.60
216.24	1734.63
216.46	1708.01
216.68	1714.15
216.90	1769.44
217.12	1705.96
217.34	1708.01
217.56	1671.14
217.78	1775.59
218.00	1730.53
218.22	1759.21
218.44	1697.77
218.66	1667.05
218.87	1812.45
219.09	1626.09
219.31	1693.67
219.53	1683.43
219.75	1677.29
219.97	1728.49
220.19	1609.70
220.41	1662.95
220.63	1798.12
220.85	1757.16
221.06	1677.29
221.28	1744.87
221.50	1728.49
221.72	1656.81
221.94	1621.99
222.16	1611.75
222.38	1746.92
222.60	1738.73
222.82	1689.57
223.03	1748.97
223.25	1697.77
223.47	1775.59
223.69	1755.11
223.91	1650.66
224.13	1675.24
224.35	1673.19
224.57	1804.26
224.78	1720.29
225.00	1638.38
225.22	1712.10
225.44	1665.00
225.66	1789.92
225.88	1710.05
226.10	1726.44
226.32	1769.44
226.53	1744.87
226.75	1712.10
226.97	1699.81
227.19	1642.47
227.41	1716.20
227.63	1703.91
227.85	1595.37
228.06	1730.53
228.28	1720.29
228.50	1646.57
228.72	1673.19
228.94	1712.10
229.16	1570.79
229.37	1662.95
229.59	1607.66
229.81	1816.55
230.03	1654.76
230.25	1646.57
230.47	1632.23
230.69	1665.00
230.90	1738.73
231.12	1660.90
231.34	1746.92
231.56	1697.77
231.78	1681.38
232.00	1746.92
232.21	1671.14
232.43	1642.47
232.65	1552.36
232.87	1732.58
233.09	1703.91
233.30	1599.46
233.52	1714.15
233.74	1669.09
233.96	1642.47
234.18	1705.96
234.40	1652.71
234.61	1824.74
234.83	1718.25
235.05	1613.80
235.27	1785.83
235.49	1804.26
235.70	1634.28
235.92	1763.30
236.14	1695.72
236.36	1814.50
236.58	1630.18
236.79	1798.12
237.01	1683.43
237.23	1658.85
237.45	1787.88
237.67	1720.29
237.88	1673.19
238.10	1759.21
238.32	1634.28
238.54	1722.34
238.76	1693.67
238.97	1732.58
239.19	1675.24
239.41	1722.34
239.63	1761.25
239.85	1656.81
240.06	1695.72
240.28	1644.52
240.50	1773.54
240.72	1687.53
240.93	1644.52
241.15	1714.15
241.37	1658.85
241.59	1777.64
241.81	1669.09
242.02	1648.61
242.24	1748.97
242.46	1691.62
242.68	1656.81
242.89	1746.92
243.11	1712.10
243.33	1642.47
243.55	1671.14
243.76	1740.77
243.98	1671.14
244.20	1722.34
244.42	1683.43
244.64	1685.48
244.85	1681.38
245.07	1607.66
245.29	1712.10
245.51	1689.57
245.72	1667.05
245.94	1701.86
246.16	1724.39
246.38	1761.25
246.59	1681.38
246.81	1626.09
247.03	1701.86
247.24	1642.47
247.46	1722.34
247.68	1689.57
247.90	1593.32
248.11	1673.19
248.33	1775.59
248.55	1673.19
248.77	1779.68
248.98	1751.01
249.20	1808.36
249.42	1738.73
249.64	1705.96
249.85	1722.34
250.07	1669.09
250.29	1720.29
250.50	1839.08
250.72	1632.23
250.94	1734.63
251.16	1816.55
251.37	1695.72
251.59	1697.77
251.81	1765.35
252.02	1845.22
252.24	1695.72
252.46	1728.49
252.68	1652.71
252.89	1675.24
253.11	1603.56
253.33	1859.56
253.54	1757.16
253.76	1675.24
253.98	1695.72
254.20	1697.77
254.41	1587.18
254.63	1652.71
254.85	1611.75
255.06	1660.90
255.28	1652.71
255.50	1755.11
255.71	1730.53
255.93	1634.28
256.15	1673.19
256.36	1740.77
256.58	1671.14
256.80	1728.49
257.02	1662.95
257.23	1652.71
257.45	1681.38
257.67	1656.81
257.88	1695.72
258.10	1703.91
258.32	1712.10
258.53	1738.73
258.75	1839.08
258.97	1650.66
259.18	1751.01
259.40	1634.28
259.62	1769.44
259.83	1742.82
260.05	1736.68
260.27	1947.62
260.48	1730.53
260.70	1591.27
260.92	1689.57
261.13	1691.62
261.35	1654.76
261.57	1755.11
261.78	1624.04
262.00	1552.36
262.22	1742.82
262.43	1599.46
262.65	1640.42
262.86	1699.81
263.08	1787.88
263.30	1669.09
263.51	1609.70
263.73	1630.18
263.95	1791.97
264.16	1632.23
264.38	1665.00
264.60	1732.58
264.81	1677.29
265.03	1796.07
265.25	1740.77
265.46	1730.53
265.68	1720.29
265.89	1695.72
266.11	1626.09
266.33	1718.25
266.54	1734.63
266.76	1712.10
266.98	1759.21
267.19	1708.01
267.41	1804.26
267.62	1658.85
267.84	1570.79
268.06	1714.15
268.27	1687.53
268.49	1798.12
268.70	1771.49
268.92	1681.38
269.14	1634.28
269.35	1626.09
269.57	1681.38
269.79	1708.01
270.00	1603.56
270.22	1708.01
270.43	1697.77
270.65	1597.42
270.87	1681.38
271.08	1681.38
271.30	1718.25
271.51	1724.39
271.73	1720.29
271.95	1755.11
272.16	1675.24
272.38	1683.43
272.59	1683.43
272.81	1671.14
273.02	1722.34
273.24	1701.86
273.46	1759.21
273.67	1581.03
273.89	1646.57
274.10	1640.42
274.32	1755.11
274.54	1714.15
274.75	1755.11
274.97	1697.77
275.18	1687.53
275.40	1740.77
275.61	1740.77
275.83	1822.69
276.05	1603.56
276.26	1712.10
276.48	1785.83
276.69	1708.01
276.91	1689.57
277.12	1769.44
277.34	1783.78
277.55	1734.63
277.77	1726.44
277.99	1689.57
278.20	1640.42
278.42	1593.32
278.63	1660.90
278.85	1673.19
279.06	1605.61
279.28	1761.25
279.49	1728.49
279.71	1695.72
279.93	1669.09
280.14	1673.19
280.36	1648.61
280.57	1759.21
280.79	1724.39
281.00	1687.53
281.22	1671.14
281.43	1726.44
281.65	1611.75
281.86	1648.61
282.08	1650.66
282.29	1820.64
282.51	1611.75
282.73	1628.14
282.94	1658.85
283.16	1791.97
283.37	1796.07
283.59	1703.91
283.80	1652.71
284.02	1693.67
284.23	1796.07
284.45	1720.29
284.66	1624.04
284.88	1630.18
285.09	1675.24
285.31	1679.33
285.52	1734.63
285.74	1628.14
285.95	1767.40
286.17	1791.97
286.38	1771.49
286.60	1654.76
286.81	1621.99
287.03	1736.68
287.24	1673.19
287.46	1742.82
287.67	1748.97
287.89	1800.16
288.10	1701.86
288.32	1703.91
288.53	1755.11
288.75	1736.68
288.96	1708.01
289.18	1748.97
289.39	1673.19
289.61	1748.97
289.82	1882.08
290.04	1837.03
290.25	1677.29
290.47	1697.77
290.68	1677.29
290.90	1785.83
291.11	1642.47
291.33	1736.68
291.54	1681.38
291.76	1630.18
291.97	1703.91
292.18	1718.25
292.40	1650.66
292.61	1710.05
292.83	1804.26
293.04	1673.19
293.26	1673.19
293.47	1746.92
293.69	1685.48
293.90	1736.68
294.12	1791.97
294.33	1724.39
294.55	1699.81
294.76	1726.44
294.97	1769.44
295.19	1808.36
295.40	1669.09
295.62	1742.82
295.83	1710.05
296.05	1607.66
296.26	1779.68
296.48	1662.95
296.69	1738.73
296.90	1710.05
297.12	1722.34
297.33	1810.40
297.55	1703.91
297.76	1753.06
297.98	1775.59
298.19	1681.38
298.41	1687.53
298.62	1658.85
298.83	1773.54
299.05	1662.95
299.26	1669.09
299.48	1634.28
299.69	1751.01
299.90	1724.39
300.12	1683.43
300.33	1746.92
300.55	1708.01
300.76	1740.77
300.98	1552.36
301.19	1751.01
301.40	1701.86
301.62	1763.30
301.83	1667.05
302.05	1746.92
302.26	1675.24
302.47	1738.73
302.69	1644.52
302.90	1660.90
303.12	1644.52
303.33	1710.05
303.54	1742.82
303.76	1615.85
303.97	1714.15
304.19	1744.87
304.40	1617.90
304.61	1730.53
304.83	1791.97
305.04	1779.68
305.26	1675.24
305.47	1652.71
305.68	1714.15
305.90	1628.14
306.11	1718.25
306.33	1687.53
306.54	1648.61
306.75	1681.38
306.97	1648.61
307.18	1650.66
307.39	1679.33
307.61	1656.81
307.82	1693.67
308.04	1763.30
308.25	1650.66
308.46	1695.72
308.68	1665.00
308.89	1705.96
309.10	1753.06
309.32	1724.39
309.53	1630.18
309.74	1769.44
309.96	1677.29
310.17	1767.40
310.39	1701.86
310.60	1714.15
310.81	1748.97
311.03	1640.42
311.24	1687.53
311.45	1701.86
311.67	1816.55
311.88	1699.81
312.09	1767.40
312.31	1646.57
312.52	1689.57
312.73	1632.23
312.95	1603.56
313.16	1681.38
313.37	1765.35
313.59	1787.88
313.80	1751.01
314.01	1816.55
314.23	1708.01
314.44	1646.57
314.65	1638.38
314.87	1654.76
315.08	1755.11
315.29	1644.52
315.51	1619.94
315.72	1667.05
315.93	1767.40
316.15	1738.73
316.36	1757.16
316.57	1761.25
316.79	1744.87
317.00	1708.01
317.21	1681.38
317.43	1658.85
317.64	1771.49
317.85	1746.92
318.07	1634.28
318.28	1798.12
318.49	1765.35
318.70	1886.18
318.92	1834.98
319.13	1722.34
319.34	1865.70
319.56	1808.36
319.77	1763.30
319.98	1773.54
320.20	1701.86
320.41	1691.62
320.62	1763.30
320.83	1665.00
321.05	1824.74
321.26	1705.96
321.47	1681.38
321.69	1812.45
321.90	1615.85
322.11	1689.57
322.32	1689.57
322.54	1759.21
322.75	1689.57
322.96	1834.98
323.18	1578.98
323.39	1662.95
323.60	1644.52
323.81	1763.30
324.03	1705.96
324.24	1736.68
324.45	1701.86
324.66	1654.76
324.88	1683.43
325.09	1759.21
325.30	1658.85
325.52	1742.82
325.73	1722.34
325.94	1589.22
326.15	1595.37
326.37	1712.10
326.58	1777.64
326.79	1761.25
327.00	1648.61
327.22	1718.25
327.43	1652.71
327.64	1619.94
327.85	1710.05
328.07	1681.38
328.28	1708.01
328.49	1640.42
328.70	1679.33
328.92	1708.01
329.13	1705.96
329.34	1718.25
329.55	1755.11
329.76	1726.44
329.98	1710.05
330.19	1806.31
330.40	1791.97
330.61	1636.33
330.83	1636.33
331.04	1685.48
331.25	1726.44
331.46	1609.70
331.68	1607.66
331.89	1716.20
332.10	1773.54
332.31	1609.70
332.52	1619.94
332.74	1689.57
332.95	1628.14
333.16	1705.96
333.37	1689.57
333.58	1722.34
333.80	1693.67
334.01	1656.81
334.22	1607.66
334.43	1652.71
334.64	1693.67
334.86	1599.46
335.07	1740.77
335.28	1710.05
335.49	1673.19
335.70	1665.00
335.92	1837.03
336.13	1839.08
336.34	1763.30
336.55	1734.63
336.76	1699.81
336.98	1597.42
337.19	1652.71
337.40	1775.59
337.61	1732.58
337.82	1693.67
338.04	1818.60
338.25	1607.66
338.46	1689.57
338.67	1683.43
338.88	1607.66
339.09	1652.71
339.31	1642.47
339.52	1624.04
339.73	1634.28
339.94	1624.04
340.15	1703.91
340.36	1648.61
340.58	1726.44
340.79	1648.61
341.00	1662.95
341.21	1656.81
341.42	1785.83
341.63	1740.77
341.85	1832.93
342.06	1738.73
342.27	1609.70
342.48	1775.59
342.69	1636.33
342.90	1685.48
343.12	1701.86
343.33	1656.81
343.54	1681.38
343.75	1722.34
343.96	1697.77
344.17	1708.01
344.38	1726.44
344.60	1675.24
344.81	1683.43
345.02	1681.38
345.23	1791.97
345.44	1789.92
345.65	1759.21
345.86	1728.49
346.07	1683.43
346.29	1601.51
346.50	1732.58
346.71	1705.96
346.92	1736.68
347.13	1857.51
347.34	1640.42
347.55	1687.53
347.76	1703.91
347.98	1628.14
348.19	1619.94
348.40	1742.82
348.61	1609.70
348.82	1800.16
349.03	1699.81
349.24	1687.53
349.45	1822.69
349.66	1583.08
349.88	1755.11
350.09	1669.09
350.30	1714.15
350.51	1853.41
350.72	1648.61
350.93	1705.96
351.14	1683.43
351.35	1722.34
351.56	1669.09
351.77	1695.72
351.99	1724.39
352.20	1783.78
352.41	1720.29
352.62	1525.74
352.83	1669.09
353.04	1742.82
353.25	1708.01
353.46	1759.21
353.67	1712.10
353.88	1636.33
354.09	1681.38
354.30	1712.10
354.52	1726.44
354.73	1691.62
354.94	1716.20
355.15	1714.15
355.36	1806.31
355.57	1615.85
355.78	1775.59
355.99	1693.67
356.20	1691.62
356.41	1718.25
356.62	1746.92
356.83	1710.05
357.04	1767.40
357.25	1644.52
357.46	1689.57
357.68	1613.80
357.89	1697.77
358.10	1716.20
358.31	1740.77
358.52	1695.72
358.73	1603.56
358.94	1640.42
359.15	1644.52
359.36	1722.34
359.57	1677.29
359.78	1619.94
359.99	1740.77
360.20	1654.76
360.41	1681.38
360.62	1667.05
360.83	1701.86
361.04	1751.01
361.25	1705.96
361.46	1785.83
361.67	1736.68
361.88	1783.78
362.09	1746.92
362.30	1697.77
362.51	1603.56
362.72	1652.71
362.93	1722.34
363.14	1656.81
363.35	1712.10
363.56	1744.87
363.78	1732.58
363.99	1767.40
364.20	1652.71
364.41	1724.39
364.62	1775.59
364.83	1701.86
365.04	1685.48
365.25	1710.05
365.46	1728.49
365.67	1636.33
365.88	1540.07
366.09	1705.96
366.30	1744.87
366.51	1667.05
366.72	1607.66
366.93	1710.05
367.14	1701.86
367.35	1759.21
367.56	1722.34
367.77	1804.26
367.98	1796.07
368.18	1640.42
368.39	1732.58
368.60	1556.46
368.81	1755.11
369.02	1699.81
369.23	1683.43
369.44	1640.42
369.65	1656.81
369.86	1751.01
370.07	1671.14
370.28	1624.04
370.49	1705.96
370.70	1755.11
370.91	1714.15
371.12	1626.09
371.33	1748.97
371.54	1714.15
371.75	1783.78
371.96	1533.93
372.17	1693.67
372.38	1693.67
372.59	1751.01
372.80	1601.51
373.01	1677.29
373.22	1714.15
373.43	1701.86
373.64	1583.08
373.85	1773.54
374.06	1796.07
374.26	1818.60
374.47	1730.53
374.68	1796.07
374.89	1679.33
375.10	1736.68
375.31	1681.38
375.52	1697.77
375.73	1738.73
375.94	1667.05
376.15	1820.64
376.36	1652.71
376.57	1646.57
376.78	1630.18
376.99	1624.04
377.20	1789.92
377.40	1701.86
377.61	1818.60
377.82	1613.80
378.03	1798.12
378.24	1726.44
378.45	1730.53
378.66	1701.86
378.87	1636.33
379.08	1634.28
379.29	1728.49
379.50	1765.35
379.71	1701.86
379.91	1740.77
380.12	1597.42
380.33	1708.01
380.54	1638.38
380.75	1689.57
380.96	1675.24
381.17	1726.44
381.38	1771.49
381.59	1748.97
381.80	1689.57
382.00	1806.31
382.21	1697.77
382.42	1808.36
382.63	1888.23
382.84	1718.25
383.05	1779.68
383.26	1816.55
383.47	1724.39
383.68	1730.53
383.88	1744.87
384.09	1755.11
384.30	1814.50
384.51	1679.33
384.72	1673.19
384.93	1693.67
385.14	1685.48
385.35	1697.77
385.55	1681.38
385.76	1761.25
385.97	1746.92
386.18	1617.90
386.39	1628.14
386.60	1712.10
386.81	1742.82
387.02	1718.25
387.22	1712.10
387.43	1744.87
387.64	1787.88
387.85	1824.74
388.06	2203.61
388.27	4351.93
388.48	7051.16
388.68	8480.64
388.89	9729.90
389.10	10168.16
389.31	8796.03
389.52	7767.95
389.73	6801.30
389.93	6432.67
390.14	6006.69
390.35	5330.86
390.56	4636.60
390.77	3852.23
390.98	3000.27
391.18	2586.58
391.39	2043.87
391.60	1828.84
391.81	1787.88
392.02	1710.05
392.23	1771.49
392.43	1732.58
392.64	1787.88
392.85	1785.83
393.06	1851.36
393.27	1685.48
393.47	1675.24
393.68	1746.92
393.89	1667.05
394.10	1832.93
394.31	1665.00
394.52	1681.38
394.72	1755.11
394.93	1765.35
395.14	1658.85
395.35	1744.87
395.56	1656.81
395.76	1753.06
395.97	1847.27
396.18	1763.30
396.39	1775.59
396.60	2002.91
396.80	1888.23
397.01	1857.51
397.22	1806.31
397.43	1859.56
397.64	1837.03
397.84	1763.30
398.05	1886.18
398.26	1785.83
398.47	1726.44
398.67	1746.92
398.88	1736.68
399.09	1738.73
399.30	1669.09
399.51	1757.16
399.71	1669.09
399.92	1716.20
400.13	1701.86
400.34	1660.90
400.54	1644.52
400.75	1773.54
400.96	1791.97
401.17	1861.60
401.37	1787.88
401.58	1730.53
401.79	1736.68
402.00	1867.75
402.21	1943.52
402.41	1900.52
402.62	2041.82
402.83	2064.35
403.04	1968.10
403.24	2086.88
403.45	1814.50
403.66	1966.05
403.87	1886.18
404.07	1869.80
404.28	1791.97
404.49	1859.56
404.70	1820.64
404.90	1738.73
405.11	1808.36
405.32	1742.82
405.52	1605.61
405.73	1650.66
405.94	1615.85
406.15	1708.01
406.35	1679.33
406.56	1728.49
406.77	1716.20
406.98	1755.11
407.18	1624.04
407.39	1808.36
407.60	1636.33
407.80	1722.34
408.01	1730.53
408.22	1689.57
408.43	1677.29
408.63	1748.97
408.84	1789.92
409.05	1814.50
409.25	1669.09
409.46	1689.57
409.67	1722.34
409.88	1632.23
410.08	1697.77
410.29	1730.53
410.50	1687.53
410.70	1740.77
410.91	1656.81
411.12	1691.62
411.32	1640.42
411.53	1628.14
411.74	1781.73
411.95	1716.20
412.15	1791.97
412.36	1695.72
412.57	1777.64
412.77	1798.12
412.98	1677.29
413.19	1712.10
413.39	1763.30
413.60	1669.09
413.81	1761.25
414.01	1648.61
414.22	1726.44
414.43	1787.88
414.63	1621.99
414.84	1857.51
415.05	1775.59
415.25	1683.43
415.46	1800.16
415.67	1640.42
415.87	1769.44
416.08	1710.05
416.29	1656.81
416.49	1791.97
416.70	1669.09
416.91	1695.72
417.11	1677.29
417.32	1736.68
417.53	1814.50
417.73	1730.53
417.94	1695.72
418.15	1683.43
418.35	1703.91
418.56	1701.86
418.77	1851.36
418.97	1703.91
419.18	1726.44
419.38	1548.26
419.59	1683.43
419.80	1853.41
420.00	1634.28
420.21	1716.20
420.42	1796.07
420.62	1757.16
420.83	1708.01
421.04	1693.67
421.24	1744.87
421.45	1810.40
421.65	1744.87
421.86	1679.33
422.07	1734.63
422.27	1808.36
422.48	1722.34
422.69	1636.33
422.89	1685.48
423.10	1656.81
423.30	1654.76
423.51	1673.19
423.72	1701.86
423.92	1722.34
424.13	1626.09
424.33	1681.38
424.54	1791.97
424.75	1695.72
424.95	1810.40
425.16	1624.04
425.36	1703.91
425.57	1736.68
425.78	1746.92
425.98	1705.96
426.19	1648.61
426.39	1611.75
426.60	1701.86
426.81	1732.58
427.01	1673.19
427.22	1640.42
427.42	1685.48
427.63	1673.19
427.83	1804.26
428.04	1867.75
428.25	1771.49
428.45	1685.48
428.66	1683.43
428.86	1675.24
429.07	1746.92
429.28	1834.98
429.48	1695.72
429.69	1632.23
429.89	1673.19
430.10	1578.98
430.30	1701.86
430.51	1742.82
430.71	1746.92
430.92	1759.21
431.13	1671.14
431.33	1757.16
431.54	1748.97
431.74	1802.21
431.95	1777.64
432.15	1648.61
432.36	1736.68
432.56	1755.11
432.77	1837.03
432.98	1824.74
433.18	1662.95
433.39	1751.01
433.59	1742.82
433.80	1769.44
434.00	1873.89
434.21	1673.19
434.41	1705.96
434.62	1794.02
434.82	1722.34
435.03	1646.57
435.23	1712.10
435.44	1656.81
435.64	1683.43
435.85	1665.00
436.06	1759.21
436.26	1763.30
436.47	1722.34
436.67	1597.42
436.88	1720.29
437.08	1771.49
437.29	1796.07
437.49	1714.15
437.70	1701.86
437.90	1701.86
438.11	1839.08
438.31	1775.59
438.52	1753.06
438.72	1804.26
438.93	1908.71
439.13	1734.63
439.34	1849.32
439.54	1697.77
439.75	1732.58
439.95	1755.11
440.16	1677.29
440.36	1740.77
440.57	1802.21
440.77	1746.92
440.98	1724.39
441.18	1679.33
441.39	1742.82
441.59	1605.61
441.80	1834.98
442.00	1804.26
442.21	1851.36
442.41	1716.20
442.62	1763.30
442.82	1705.96
443.02	1773.54
443.23	1675.24
443.43	1705.96
443.64	1824.74
443.84	1648.61
444.05	1785.83
444.25	1673.19
444.46	1746.92
444.66	1738.73
444.87	1837.03
445.07	1648.61
445.28	1671.14
445.48	1804.26
445.69	1767.40
445.89	1837.03
446.09	1769.44
446.30	2017.25
446.50	2729.94
446.71	3690.44
446.91	4470.72
447.12	4757.43
447.32	4908.98
447.53	4444.09
447.73	3923.91
447.93	3502.03
448.14	3313.61
448.34	3250.13
448.55	2916.31
448.75	2975.70
448.96	2680.79
449.16	2412.51
449.36	2320.35
449.57	2041.82
449.77	1978.34
449.98	1814.50
450.18	1822.69
450.39	1773.54
450.59	1771.49
450.79	1730.53
451.00	1662.95
451.20	1738.73
451.41	1722.34
451.61	1751.01
451.81	1787.88
452.02	1720.29
452.22	1712.10
452.43	1773.54
452.63	1814.50
