SpectraSuite Data File
++++++++++++++++++++++++++++++++++++
Date: Mon Jun 06 12:51:37 CEST 2016
User: root
Dark Spectrum Present: No
Reference Spectrum Present: No
Number of Sampled Component Spectra: 1
Spectrometers: USB4C02835
Integration Time (usec): 100000 (USB4C02835)
Spectra Averaged: 1 (USB4C02835)
Boxcar Smoothing: 0 (USB4C02835)
Correct for Electrical Dark: No (USB4C02835)
Strobe/Lamp Enabled: No (USB4C02835)
Correct for Detector Non-linearity: No (USB4C02835)
Correct for Stray Light: No (USB4C02835)
Number of Pixels in Processed Spectrum: 3648
>>>>>Begin Processed Spectral Data<<<<<
177.47	1439.72
177.69	1439.72
177.91	1439.72
178.13	1533.93
178.36	1449.96
178.58	1644.52
178.80	1771.49
179.02	1644.52
179.24	1722.34
179.46	1621.99
179.68	1785.83
179.90	1728.49
180.13	1667.05
180.35	1630.18
180.57	1693.67
180.79	1755.11
181.01	1675.24
181.23	1800.16
181.45	1722.34
181.67	1765.35
181.90	1728.49
182.12	1677.29
182.34	1621.99
182.56	1685.48
182.78	1673.19
183.00	1587.18
183.22	1710.05
183.44	1554.41
183.66	1910.75
183.89	1822.69
184.11	1673.19
184.33	1751.01
184.55	1767.40
184.77	1738.73
184.99	1681.38
185.21	1779.68
185.43	1757.16
185.65	1679.33
185.87	1689.57
186.10	1755.11
186.32	1849.32
186.54	1712.10
186.76	1671.14
186.98	1779.68
187.20	1736.68
187.42	1701.86
187.64	1734.63
187.86	1771.49
188.08	1716.20
188.30	1671.14
188.52	1742.82
188.75	1734.63
188.97	1685.48
189.19	1628.14
189.41	1648.61
189.63	1712.10
189.85	1794.02
190.07	1595.37
190.29	1634.28
190.51	1697.77
190.73	1658.85
190.95	1828.84
191.17	1697.77
191.39	1621.99
191.61	1658.85
191.84	1634.28
192.06	1783.78
192.28	1613.80
192.50	1857.51
192.72	1742.82
192.94	1673.19
193.16	1744.87
193.38	1691.62
193.60	1683.43
193.82	1718.25
194.04	1763.30
194.26	1720.29
194.48	1763.30
194.70	1671.14
194.92	1708.01
195.14	1828.84
195.36	1656.81
195.58	1693.67
195.80	1679.33
196.02	1619.94
196.24	1722.34
196.46	1679.33
196.69	1720.29
196.91	1814.50
197.13	1689.57
197.35	1650.66
197.57	1753.06
197.79	1662.95
198.01	1724.39
198.23	1728.49
198.45	1748.97
198.67	1587.18
198.89	1703.91
199.11	1753.06
199.33	1742.82
199.55	1599.46
199.77	1712.10
199.99	1787.88
200.21	1628.14
200.43	1738.73
200.65	1656.81
200.87	1626.09
201.09	1636.33
201.31	1652.71
201.53	1685.48
201.75	1708.01
201.97	1689.57
202.19	1732.58
202.41	1791.97
202.63	1818.60
202.85	1689.57
203.07	1677.29
203.29	1689.57
203.51	1650.66
203.73	1673.19
203.95	1871.84
204.17	1701.86
204.39	1736.68
204.61	1662.95
204.83	1658.85
205.05	1748.97
205.27	1775.59
205.49	1808.36
205.71	1728.49
205.93	1640.42
206.15	1644.52
206.37	1710.05
206.59	1669.09
206.81	1656.81
207.03	1648.61
207.25	1644.52
207.47	1798.12
207.69	1624.04
207.91	1826.79
208.13	1763.30
208.34	1691.62
208.56	1642.47
208.78	1671.14
209.00	1685.48
209.22	1607.66
209.44	1669.09
209.66	1748.97
209.88	1755.11
210.10	1619.94
210.32	1677.29
210.54	1722.34
210.76	1679.33
210.98	1736.68
211.20	1562.60
211.42	1716.20
211.64	1783.78
211.86	1765.35
212.08	1728.49
212.30	1705.96
212.52	1681.38
212.74	1673.19
212.96	1648.61
213.17	1765.35
213.39	1681.38
213.61	1789.92
213.83	1722.34
214.05	1605.61
214.27	1746.92
214.49	1548.26
214.71	1646.57
214.93	1757.16
215.15	1595.37
215.37	1730.53
215.59	1652.71
215.81	1679.33
216.03	1783.78
216.24	1740.77
216.46	1658.85
216.68	1771.49
216.90	1748.97
217.12	1730.53
217.34	1738.73
217.56	1732.58
217.78	1755.11
218.00	1769.44
218.22	1673.19
218.44	1705.96
218.66	1675.24
218.87	1738.73
219.09	1718.25
219.31	1718.25
219.53	1652.71
219.75	1689.57
219.97	1751.01
220.19	1802.21
220.41	1695.72
220.63	1708.01
220.85	1720.29
221.06	1652.71
221.28	1738.73
221.50	1720.29
221.72	1738.73
221.94	1730.53
222.16	1689.57
222.38	1732.58
222.60	1763.30
222.82	1662.95
223.03	1738.73
223.25	1640.42
223.47	1734.63
223.69	1865.70
223.91	1705.96
224.13	1722.34
224.35	1646.57
224.57	1718.25
224.78	1724.39
225.00	1609.70
225.22	1617.90
225.44	1722.34
225.66	1730.53
225.88	1689.57
226.10	1777.64
226.32	1636.33
226.53	1777.64
226.75	1652.71
226.97	1673.19
227.19	1705.96
227.41	1703.91
227.63	1701.86
227.85	1615.85
228.06	1693.67
228.28	1742.82
228.50	1763.30
228.72	1660.90
228.94	1665.00
229.16	1615.85
229.37	1621.99
229.59	1689.57
229.81	1789.92
230.03	1626.09
230.25	1613.80
230.47	1587.18
230.69	1585.13
230.90	1751.01
231.12	1636.33
231.34	1705.96
231.56	1763.30
231.78	1628.14
232.00	1732.58
232.21	1671.14
232.43	1679.33
232.65	1595.37
232.87	1677.29
233.09	1650.66
233.30	1603.56
233.52	1740.77
233.74	1738.73
233.96	1658.85
234.18	1722.34
234.40	1654.76
234.61	1785.83
234.83	1587.18
235.05	1652.71
235.27	1841.12
235.49	1816.55
235.70	1740.77
235.92	1779.68
236.14	1705.96
236.36	1796.07
236.58	1681.38
236.79	1746.92
237.01	1773.54
237.23	1695.72
237.45	1765.35
237.67	1626.09
237.88	1660.90
238.10	1863.65
238.32	1593.32
238.54	1712.10
238.76	1644.52
238.97	1779.68
239.19	1671.14
239.41	1798.12
239.63	1691.62
239.85	1722.34
240.06	1687.53
240.28	1714.15
240.50	1802.21
240.72	1712.10
240.93	1597.42
241.15	1773.54
241.37	1667.05
241.59	1796.07
241.81	1681.38
242.02	1613.80
242.24	1705.96
242.46	1732.58
242.68	1736.68
242.89	1714.15
243.11	1726.44
243.33	1720.29
243.55	1728.49
243.76	1730.53
243.98	1621.99
244.20	1773.54
244.42	1665.00
244.64	1681.38
244.85	1650.66
245.07	1644.52
245.29	1697.77
245.51	1632.23
245.72	1724.39
245.94	1716.20
246.16	1714.15
246.38	1673.19
246.59	1640.42
246.81	1656.81
247.03	1658.85
247.24	1538.02
247.46	1705.96
247.68	1699.81
247.90	1742.82
248.11	1685.48
248.33	1701.86
248.55	1673.19
248.77	1679.33
248.98	1722.34
249.20	1902.56
249.42	1718.25
249.64	1712.10
249.85	1609.70
250.07	1775.59
250.29	1724.39
250.50	1773.54
250.72	1564.65
250.94	1751.01
251.16	1886.18
251.37	1855.46
251.59	1755.11
251.81	1751.01
252.02	1763.30
252.24	1605.61
252.46	1748.97
252.68	1650.66
252.89	1687.53
253.11	1617.90
253.33	1783.78
253.54	1726.44
253.76	1650.66
253.98	1697.77
254.20	1718.25
254.41	1675.24
254.63	1669.09
254.85	1636.33
255.06	1642.47
255.28	1746.92
255.50	1699.81
255.71	1687.53
255.93	1634.28
256.15	1691.62
256.36	1689.57
256.58	1681.38
256.80	1722.34
257.02	1660.90
257.23	1716.20
257.45	1681.38
257.67	1714.15
257.88	1630.18
258.10	1689.57
258.32	1656.81
258.53	1665.00
258.75	1767.40
258.97	1693.67
259.18	1701.86
259.40	1701.86
259.62	1796.07
259.83	1798.12
260.05	1738.73
260.27	2033.63
260.48	1718.25
260.70	1656.81
260.92	1691.62
261.13	1689.57
261.35	1660.90
261.57	1755.11
261.78	1599.46
262.00	1621.99
262.22	1701.86
262.43	1605.61
262.65	1695.72
262.86	1740.77
263.08	1886.18
263.30	1658.85
263.51	1624.04
263.73	1746.92
263.95	1769.44
264.16	1607.66
264.38	1603.56
264.60	1757.16
264.81	1669.09
265.03	1691.62
265.25	1701.86
265.46	1642.47
265.68	1837.03
265.89	1746.92
266.11	1667.05
266.33	1705.96
266.54	1777.64
266.76	1683.43
266.98	1804.26
267.19	1775.59
267.41	1757.16
267.62	1673.19
267.84	1654.76
268.06	1738.73
268.27	1703.91
268.49	1728.49
268.70	1869.80
268.92	1656.81
269.14	1673.19
269.35	1632.23
269.57	1701.86
269.79	1685.48
270.00	1615.85
270.22	1818.60
270.43	1701.86
270.65	1576.94
270.87	1787.88
271.08	1763.30
271.30	1716.20
271.51	1677.29
271.73	1710.05
271.95	1794.02
272.16	1763.30
272.38	1697.77
272.59	1730.53
272.81	1705.96
273.02	1726.44
273.24	1687.53
273.46	1753.06
273.67	1669.09
273.89	1710.05
274.10	1660.90
274.32	1783.78
274.54	1726.44
274.75	1673.19
274.97	1665.00
275.18	1773.54
275.40	1710.05
275.61	1691.62
275.83	1691.62
276.05	1638.38
276.26	1660.90
276.48	1767.40
276.69	1671.14
276.91	1669.09
277.12	1720.29
277.34	1712.10
277.55	1818.60
277.77	1724.39
277.99	1667.05
278.20	1591.27
278.42	1599.46
278.63	1665.00
278.85	1705.96
279.06	1662.95
279.28	1724.39
279.49	1669.09
279.71	1740.77
279.93	1673.19
280.14	1613.80
280.36	1660.90
280.57	1669.09
280.79	1679.33
281.00	1683.43
281.22	1660.90
281.43	1740.77
281.65	1599.46
281.86	1660.90
282.08	1787.88
282.29	1802.21
282.51	1523.69
282.73	1658.85
282.94	1673.19
283.16	1765.35
283.37	1814.50
283.59	1722.34
283.80	1712.10
284.02	1757.16
284.23	1800.16
284.45	1632.23
284.66	1583.08
284.88	1640.42
285.09	1726.44
285.31	1648.61
285.52	1744.87
285.74	1617.90
285.95	1787.88
286.17	1701.86
286.38	1753.06
286.60	1701.86
286.81	1718.25
287.03	1742.82
287.24	1757.16
287.46	1705.96
287.67	1638.38
287.89	1837.03
288.10	1691.62
288.32	1699.81
288.53	1830.88
288.75	1701.86
288.96	1779.68
289.18	1656.81
289.39	1679.33
289.61	1816.55
289.82	1851.36
290.04	1785.83
290.25	1603.56
290.47	1662.95
290.68	1699.81
290.90	1785.83
291.11	1576.94
291.33	1687.53
291.54	1615.85
291.76	1646.57
291.97	1769.44
292.18	1718.25
292.40	1675.24
292.61	1699.81
292.83	1853.41
293.04	1730.53
293.26	1757.16
293.47	1679.33
293.69	1662.95
293.90	1703.91
294.12	1748.97
294.33	1642.47
294.55	1675.24
294.76	1839.08
294.97	1800.16
295.19	1787.88
295.40	1697.77
295.62	1720.29
295.83	1777.64
296.05	1611.75
296.26	1675.24
296.48	1654.76
296.69	1765.35
296.90	1675.24
297.12	1757.16
297.33	1787.88
297.55	1638.38
297.76	1699.81
297.98	1816.55
298.19	1738.73
298.41	1689.57
298.62	1624.04
298.83	1767.40
299.05	1699.81
299.26	1654.76
299.48	1644.52
299.69	1781.73
299.90	1675.24
300.12	1615.85
300.33	1726.44
300.55	1740.77
300.76	1724.39
300.98	1650.66
301.19	1705.96
301.40	1619.94
301.62	1607.66
301.83	1669.09
302.05	1656.81
302.26	1669.09
302.47	1697.77
302.69	1658.85
302.90	1660.90
303.12	1558.50
303.33	1677.29
303.54	1775.59
303.76	1730.53
303.97	1630.18
304.19	1734.63
304.40	1703.91
304.61	1730.53
304.83	1808.36
305.04	1816.55
305.26	1734.63
305.47	1687.53
305.68	1734.63
305.90	1697.77
306.11	1746.92
306.33	1705.96
306.54	1693.67
306.75	1667.05
306.97	1619.94
307.18	1716.20
307.39	1667.05
307.61	1773.54
307.82	1732.58
308.04	1658.85
308.25	1665.00
308.46	1722.34
308.68	1667.05
308.89	1730.53
309.10	1718.25
309.32	1787.88
309.53	1585.13
309.74	1718.25
309.96	1677.29
310.17	1845.22
310.39	1685.48
310.60	1773.54
310.81	1671.14
311.03	1642.47
311.24	1748.97
311.45	1722.34
311.67	1865.70
311.88	1794.02
312.09	1630.18
312.31	1640.42
312.52	1681.38
312.73	1652.71
312.95	1632.23
313.16	1685.48
313.37	1779.68
313.59	1771.49
313.80	1708.01
314.01	1767.40
314.23	1761.25
314.44	1638.38
314.65	1603.56
314.87	1724.39
315.08	1681.38
315.29	1736.68
315.51	1574.89
315.72	1619.94
315.93	1755.11
316.15	1730.53
316.36	1648.61
316.57	1656.81
316.79	1763.30
317.00	1685.48
317.21	1734.63
317.43	1679.33
317.64	1656.81
317.85	1687.53
318.07	1753.06
318.28	1646.57
318.49	1732.58
318.70	1939.43
318.92	1841.12
319.13	1796.07
319.34	1814.50
319.56	1794.02
319.77	1791.97
319.98	1794.02
320.20	1773.54
320.41	1730.53
320.62	1746.92
320.83	1665.00
321.05	1771.49
321.26	1656.81
321.47	1738.73
321.69	1779.68
321.90	1568.74
322.11	1624.04
322.32	1667.05
322.54	1673.19
322.75	1640.42
322.96	1820.64
323.18	1638.38
323.39	1581.03
323.60	1585.13
323.81	1755.11
324.03	1642.47
324.24	1644.52
324.45	1765.35
324.66	1679.33
324.88	1740.77
325.09	1683.43
325.30	1669.09
325.52	1722.34
325.73	1744.87
325.94	1570.79
326.15	1615.85
326.37	1644.52
326.58	1734.63
326.79	1794.02
327.00	1652.71
327.22	1687.53
327.43	1671.14
327.64	1665.00
327.85	1656.81
328.07	1677.29
328.28	1781.73
328.49	1689.57
328.70	1652.71
328.92	1728.49
329.13	1611.75
329.34	1730.53
329.55	1777.64
329.76	1695.72
329.98	1640.42
330.19	1748.97
330.40	1720.29
330.61	1705.96
330.83	1775.59
331.04	1656.81
331.25	1763.30
331.46	1691.62
331.68	1599.46
331.89	1701.86
332.10	1667.05
332.31	1630.18
332.52	1734.63
332.74	1814.50
332.95	1599.46
333.16	1656.81
333.37	1789.92
333.58	1724.39
333.80	1703.91
334.01	1671.14
334.22	1677.29
334.43	1650.66
334.64	1705.96
334.86	1624.04
335.07	1638.38
335.28	1783.78
335.49	1652.71
335.70	1751.01
335.92	1767.40
336.13	1828.84
336.34	1740.77
336.55	1699.81
336.76	1726.44
336.98	1566.70
337.19	1628.14
337.40	1808.36
337.61	1859.56
337.82	1677.29
338.04	1845.22
338.25	1658.85
338.46	1714.15
338.67	1705.96
338.88	1640.42
339.09	1673.19
339.31	1630.18
339.52	1593.32
339.73	1597.42
339.94	1619.94
340.15	1697.77
340.36	1693.67
340.58	1675.24
340.79	1574.89
341.00	1748.97
341.21	1550.31
341.42	1785.83
341.63	1665.00
341.85	1736.68
342.06	1689.57
342.27	1609.70
342.48	1808.36
342.69	1595.37
342.90	1660.90
343.12	1701.86
343.33	1675.24
343.54	1701.86
343.75	1744.87
343.96	1708.01
344.17	1642.47
344.38	1800.16
344.60	1650.66
344.81	1617.90
345.02	1675.24
345.23	1806.31
345.44	1771.49
345.65	1744.87
345.86	1718.25
346.07	1673.19
346.29	1660.90
346.50	1714.15
346.71	1765.35
346.92	1802.21
347.13	1837.03
347.34	1667.05
347.55	1685.48
347.76	1669.09
347.98	1662.95
348.19	1654.76
348.40	1763.30
348.61	1646.57
348.82	1748.97
349.03	1714.15
349.24	1701.86
349.45	1808.36
349.66	1617.90
349.88	1716.20
350.09	1701.86
350.30	1802.21
350.51	1818.60
350.72	1681.38
350.93	1699.81
351.14	1685.48
351.35	1609.70
351.56	1628.14
351.77	1697.77
351.99	1712.10
352.20	1802.21
352.41	1804.26
352.62	1601.51
352.83	1701.86
353.04	1677.29
353.25	1724.39
353.46	1734.63
353.67	1740.77
353.88	1640.42
354.09	1701.86
354.30	1716.20
354.52	1699.81
354.73	1806.31
354.94	1583.08
355.15	1673.19
355.36	1771.49
355.57	1687.53
355.78	1679.33
355.99	1701.86
356.20	1789.92
356.41	1734.63
356.62	1679.33
356.83	1705.96
357.04	1787.88
357.25	1652.71
357.46	1662.95
357.68	1603.56
357.89	1646.57
358.10	1628.14
358.31	1796.07
358.52	1740.77
358.73	1581.03
358.94	1585.13
359.15	1708.01
359.36	1775.59
359.57	1675.24
359.78	1658.85
359.99	1802.21
360.20	1658.85
360.41	1654.76
360.62	1689.57
360.83	1759.21
361.04	1738.73
361.25	1761.25
361.46	1759.21
361.67	1773.54
361.88	1726.44
362.09	1718.25
362.30	1716.20
362.51	1689.57
362.72	1703.91
362.93	1722.34
363.14	1744.87
363.35	1683.43
363.56	1673.19
363.78	1773.54
363.99	1744.87
364.20	1699.81
364.41	1703.91
364.62	1812.45
364.83	1728.49
365.04	1708.01
365.25	1687.53
365.46	1781.73
365.67	1665.00
365.88	1687.53
366.09	1665.00
366.30	1669.09
366.51	1693.67
366.72	1613.80
366.93	1724.39
367.14	1640.42
367.35	1806.31
367.56	1708.01
367.77	1693.67
367.98	1742.82
368.18	1671.14
368.39	1722.34
368.60	1626.09
368.81	1794.02
369.02	1695.72
369.23	1685.48
369.44	1656.81
369.65	1679.33
369.86	1746.92
370.07	1705.96
370.28	1669.09
370.49	1681.38
370.70	1804.26
370.91	1677.29
371.12	1689.57
371.33	1771.49
371.54	1619.94
371.75	1822.69
371.96	1621.99
372.17	1708.01
372.38	1716.20
372.59	1822.69
372.80	1658.85
373.01	1671.14
373.22	1658.85
373.43	1722.34
373.64	1597.42
373.85	1785.83
374.06	1798.12
374.26	1677.29
374.47	1783.78
374.68	1800.16
374.89	1734.63
375.10	1673.19
375.31	1777.64
375.52	1697.77
375.73	1687.53
375.94	1667.05
376.15	1732.58
376.36	1603.56
376.57	1697.77
376.78	1691.62
376.99	1738.73
377.20	1726.44
377.40	1701.86
377.61	1855.46
377.82	1697.77
378.03	1779.68
378.24	1683.43
378.45	1650.66
378.66	1763.30
378.87	1591.27
379.08	1599.46
379.29	1687.53
379.50	1667.05
379.71	1730.53
379.91	1730.53
380.12	1701.86
380.33	1734.63
380.54	1738.73
380.75	1681.38
380.96	1720.29
381.17	1742.82
381.38	1783.78
381.59	1720.29
381.80	1642.47
382.00	1877.99
382.21	1742.82
382.42	1773.54
382.63	1925.09
382.84	1781.73
383.05	1769.44
383.26	1812.45
383.47	1755.11
383.68	1730.53
383.88	1769.44
384.09	1751.01
384.30	1820.64
384.51	1804.26
384.72	1662.95
384.93	1697.77
385.14	1681.38
385.35	1755.11
385.55	1679.33
385.76	1714.15
385.97	1753.06
386.18	1630.18
386.39	1740.77
386.60	1673.19
386.81	1722.34
387.02	1671.14
387.22	1757.16
387.43	1738.73
387.64	1673.19
387.85	1929.19
388.06	2179.04
388.27	4231.10
388.48	6811.54
388.68	8296.32
388.89	9729.90
389.10	9734.00
389.31	8671.10
389.52	7677.83
389.73	6834.07
389.93	6322.08
390.14	5781.42
390.35	5248.94
390.56	4605.88
390.77	3792.84
390.98	3086.29
391.18	2486.23
391.39	2095.07
391.60	1781.73
391.81	1902.56
392.02	1701.86
392.23	1814.50
392.43	1773.54
392.64	1775.59
392.85	1693.67
393.06	1808.36
393.27	1783.78
393.47	1656.81
393.68	1773.54
393.89	1710.05
394.10	1705.96
394.31	1753.06
394.52	1556.46
394.72	1730.53
394.93	1796.07
395.14	1695.72
395.35	1708.01
395.56	1677.29
395.76	1794.02
395.97	1789.92
396.18	1810.40
396.39	1869.80
396.60	2058.21
396.80	1939.43
397.01	1845.22
397.22	1765.35
397.43	1841.12
397.64	1759.21
397.84	1765.35
398.05	1843.17
398.26	1826.79
398.47	1800.16
398.67	1781.73
398.88	1705.96
399.09	1755.11
399.30	1675.24
399.51	1814.50
399.71	1630.18
399.92	1658.85
400.13	1759.21
400.34	1699.81
400.54	1703.91
400.75	1877.99
400.96	1689.57
401.17	1787.88
401.37	1751.01
401.58	1687.53
401.79	1734.63
402.00	1873.89
402.21	1990.63
402.41	1937.38
402.62	1994.72
402.83	2031.58
403.04	2004.96
403.24	1982.43
403.45	1810.40
403.66	1912.80
403.87	1910.75
404.07	1923.04
404.28	1908.71
404.49	1853.41
404.70	1814.50
404.90	1859.56
405.11	1732.58
405.32	1789.92
405.52	1734.63
405.73	1718.25
405.94	1660.90
406.15	1673.19
406.35	1716.20
406.56	1685.48
406.77	1773.54
406.98	1796.07
407.18	1673.19
407.39	1824.74
407.60	1665.00
407.80	1724.39
408.01	1665.00
408.22	1806.31
408.43	1621.99
408.63	1722.34
408.84	1732.58
409.05	1810.40
409.25	1597.42
409.46	1689.57
409.67	1710.05
409.88	1646.57
410.08	1753.06
410.29	1697.77
410.50	1695.72
410.70	1779.68
410.91	1701.86
411.12	1761.25
411.32	1695.72
411.53	1667.05
411.74	1761.25
411.95	1751.01
412.15	1787.88
412.36	1742.82
412.57	1757.16
412.77	1822.69
412.98	1689.57
413.19	1710.05
413.39	1722.34
413.60	1738.73
413.81	1775.59
414.01	1648.61
414.22	1740.77
414.43	1732.58
414.63	1701.86
414.84	1812.45
415.05	1708.01
415.25	1613.80
415.46	1757.16
415.67	1583.08
415.87	1716.20
416.08	1755.11
416.29	1630.18
416.49	1740.77
416.70	1628.14
416.91	1714.15
417.11	1693.67
417.32	1771.49
417.53	1789.92
417.73	1728.49
417.94	1658.85
418.15	1730.53
418.35	1675.24
418.56	1683.43
418.77	1834.98
418.97	1728.49
419.18	1712.10
419.38	1540.07
419.59	1787.88
419.80	1775.59
420.00	1710.05
420.21	1708.01
420.42	1744.87
420.62	1724.39
420.83	1708.01
421.04	1701.86
421.24	1767.40
421.45	1736.68
421.65	1798.12
421.86	1773.54
422.07	1726.44
422.27	1701.86
422.48	1710.05
422.69	1552.36
422.89	1687.53
423.10	1689.57
423.30	1671.14
423.51	1683.43
423.72	1654.76
423.92	1746.92
424.13	1695.72
424.33	1763.30
424.54	1730.53
424.75	1720.29
424.95	1808.36
425.16	1740.77
425.36	1728.49
425.57	1740.77
425.78	1687.53
425.98	1771.49
426.19	1716.20
426.39	1667.05
426.60	1724.39
426.81	1751.01
427.01	1740.77
427.22	1621.99
427.42	1589.22
427.63	1630.18
427.83	1746.92
428.04	1812.45
428.25	1724.39
428.45	1740.77
428.66	1775.59
428.86	1665.00
429.07	1734.63
429.28	1767.40
429.48	1677.29
429.69	1650.66
429.89	1671.14
430.10	1681.38
430.30	1847.27
430.51	1728.49
430.71	1636.33
430.92	1691.62
431.13	1665.00
431.33	1714.15
431.54	1730.53
431.74	1730.53
431.95	1853.41
432.15	1714.15
432.36	1744.87
432.56	1716.20
432.77	1826.79
432.98	1794.02
433.18	1687.53
433.39	1767.40
433.59	1705.96
433.80	1810.40
434.00	1857.51
434.21	1751.01
434.41	1638.38
434.62	1837.03
434.82	1712.10
435.03	1640.42
435.23	1712.10
435.44	1632.23
435.64	1687.53
435.85	1751.01
436.06	1740.77
436.26	1769.44
436.47	1763.30
436.67	1748.97
436.88	1683.43
437.08	1710.05
437.29	1791.97
437.49	1611.75
437.70	1734.63
437.90	1714.15
438.11	1841.12
438.31	1824.74
438.52	1800.16
438.72	1834.98
438.93	1863.65
439.13	1798.12
439.34	1814.50
439.54	1751.01
439.75	1734.63
439.95	1744.87
440.16	1703.91
440.36	1710.05
440.57	1767.40
440.77	1763.30
440.98	1699.81
441.18	1720.29
441.39	1708.01
441.59	1644.52
441.80	1841.12
442.00	1744.87
442.21	1769.44
442.41	1652.71
442.62	1699.81
442.82	1642.47
443.02	1740.77
443.23	1818.60
443.43	1701.86
443.64	1798.12
443.84	1751.01
444.05	1812.45
444.25	1714.15
444.46	1708.01
444.66	1716.20
444.87	1857.51
445.07	1669.09
445.28	1691.62
445.48	1812.45
445.69	1789.92
445.89	1869.80
446.09	1757.16
446.30	1947.62
446.50	2738.13
446.71	3885.00
446.91	4284.35
447.12	4726.71
447.32	4798.39
447.53	4319.17
447.73	3885.00
447.93	3561.42
448.14	3319.76
448.34	3237.84
448.55	2897.88
448.75	2834.39
448.96	2742.23
449.16	2361.31
449.36	2312.16
449.57	2029.54
449.77	1943.52
449.98	1742.82
450.18	1849.32
450.39	1820.64
450.59	1726.44
450.79	1689.57
451.00	1703.91
451.20	1814.50
451.41	1703.91
451.61	1757.16
451.81	1722.34
452.02	1693.67
452.22	1685.48
452.43	1716.20
452.63	1660.90
