SpectraSuite Data File
++++++++++++++++++++++++++++++++++++
Date: Mon Jun 06 14:29:57 CEST 2016
User: root
Dark Spectrum Present: No
Reference Spectrum Present: No
Number of Sampled Component Spectra: 1
Spectrometers: USB4C02835
Integration Time (usec): 100000 (USB4C02835)
Spectra Averaged: 1 (USB4C02835)
Boxcar Smoothing: 0 (USB4C02835)
Correct for Electrical Dark: No (USB4C02835)
Strobe/Lamp Enabled: No (USB4C02835)
Correct for Detector Non-linearity: No (USB4C02835)
Correct for Stray Light: No (USB4C02835)
Number of Pixels in Processed Spectrum: 3648
>>>>>Begin Processed Spectral Data<<<<<
177.47	1452.01
177.69	1452.01
177.91	1452.01
178.13	1439.72
178.36	1560.55
178.58	1624.04
178.80	1665.00
179.02	1619.94
179.24	1708.01
179.46	1660.90
179.68	1724.39
179.90	1691.62
180.13	1644.52
180.35	1671.14
180.57	1708.01
180.79	1705.96
181.01	1701.86
181.23	1730.53
181.45	1763.30
181.67	1703.91
181.90	1802.21
182.12	1624.04
182.34	1568.74
182.56	1642.47
182.78	1828.84
183.00	1708.01
183.22	1787.88
183.44	1669.09
183.66	1746.92
183.89	1789.92
184.11	1755.11
184.33	1765.35
184.55	1705.96
184.77	1765.35
184.99	1699.81
185.21	1681.38
185.43	1775.59
185.65	1615.85
185.87	1755.11
186.10	1751.01
186.32	1812.45
186.54	1794.02
186.76	1730.53
186.98	1710.05
187.20	1712.10
187.42	1599.46
187.64	1718.25
187.86	1699.81
188.08	1736.68
188.30	1716.20
188.52	1734.63
188.75	1800.16
188.97	1775.59
189.19	1646.57
189.41	1742.82
189.63	1705.96
189.85	1638.38
190.07	1644.52
190.29	1640.42
190.51	1736.68
190.73	1628.14
190.95	1773.54
191.17	1624.04
191.39	1675.24
191.61	1728.49
191.84	1720.29
192.06	1697.77
192.28	1613.80
192.50	1871.84
192.72	1654.76
192.94	1685.48
193.16	1826.79
193.38	1746.92
193.60	1634.28
193.82	1740.77
194.04	1798.12
194.26	1667.05
194.48	1730.53
194.70	1673.19
194.92	1746.92
195.14	1742.82
195.36	1724.39
195.58	1716.20
195.80	1652.71
196.02	1656.81
196.24	1736.68
196.46	1738.73
196.69	1673.19
196.91	1818.60
197.13	1708.01
197.35	1660.90
197.57	1802.21
197.79	1714.15
198.01	1708.01
198.23	1638.38
198.45	1753.06
198.67	1597.42
198.89	1650.66
199.11	1624.04
199.33	1640.42
199.55	1535.98
199.77	1685.48
199.99	1783.78
200.21	1736.68
200.43	1669.09
200.65	1617.90
200.87	1533.93
201.09	1660.90
201.31	1716.20
201.53	1763.30
201.75	1697.77
201.97	1644.52
202.19	1771.49
202.41	1718.25
202.63	1779.68
202.85	1761.25
203.07	1699.81
203.29	1652.71
203.51	1679.33
203.73	1615.85
203.95	1791.97
204.17	1724.39
204.39	1728.49
204.61	1679.33
204.83	1628.14
205.05	1701.86
205.27	1714.15
205.49	1863.65
205.71	1695.72
205.93	1722.34
206.15	1689.57
206.37	1632.23
206.59	1669.09
206.81	1609.70
207.03	1683.43
207.25	1585.13
207.47	1722.34
207.69	1712.10
207.91	1738.73
208.13	1773.54
208.34	1695.72
208.56	1646.57
208.78	1675.24
209.00	1632.23
209.22	1587.18
209.44	1699.81
209.66	1710.05
209.88	1667.05
210.10	1687.53
210.32	1646.57
210.54	1734.63
210.76	1679.33
210.98	1683.43
211.20	1554.41
211.42	1675.24
211.64	1771.49
211.86	1736.68
212.08	1718.25
212.30	1710.05
212.52	1726.44
212.74	1734.63
212.96	1665.00
213.17	1736.68
213.39	1691.62
213.61	1724.39
213.83	1689.57
214.05	1624.04
214.27	1759.21
214.49	1650.66
214.71	1650.66
214.93	1765.35
215.15	1699.81
215.37	1755.11
215.59	1583.08
215.81	1728.49
216.03	1681.38
216.24	1712.10
216.46	1734.63
216.68	1701.86
216.90	1820.64
217.12	1732.58
217.34	1720.29
217.56	1693.67
217.78	1689.57
218.00	1787.88
218.22	1738.73
218.44	1718.25
218.66	1771.49
218.87	1744.87
219.09	1679.33
219.31	1773.54
219.53	1751.01
219.75	1720.29
219.97	1652.71
220.19	1705.96
220.41	1685.48
220.63	1746.92
220.85	1689.57
221.06	1658.85
221.28	1763.30
221.50	1656.81
221.72	1673.19
221.94	1640.42
222.16	1722.34
222.38	1740.77
222.60	1722.34
222.82	1669.09
223.03	1705.96
223.25	1673.19
223.47	1705.96
223.69	1806.31
223.91	1710.05
224.13	1662.95
224.35	1644.52
224.57	1730.53
224.78	1699.81
225.00	1671.14
225.22	1705.96
225.44	1691.62
225.66	1681.38
225.88	1673.19
226.10	1685.48
226.32	1693.67
226.53	1734.63
226.75	1726.44
226.97	1679.33
227.19	1665.00
227.41	1677.29
227.63	1644.52
227.85	1605.61
228.06	1732.58
228.28	1617.90
228.50	1773.54
228.72	1572.84
228.94	1726.44
229.16	1599.46
229.37	1693.67
229.59	1691.62
229.81	1671.14
230.03	1665.00
230.25	1681.38
230.47	1619.94
230.69	1603.56
230.90	1773.54
231.12	1644.52
231.34	1697.77
231.56	1665.00
231.78	1628.14
232.00	1697.77
232.21	1697.77
232.43	1701.86
232.65	1624.04
232.87	1757.16
233.09	1615.85
233.30	1693.67
233.52	1732.58
233.74	1640.42
233.96	1779.68
234.18	1669.09
234.40	1599.46
234.61	1859.56
234.83	1615.85
235.05	1695.72
235.27	1777.64
235.49	1740.77
235.70	1693.67
235.92	1855.46
236.14	1769.44
236.36	1802.21
236.58	1632.23
236.79	1736.68
237.01	1640.42
237.23	1650.66
237.45	1775.59
237.67	1703.91
237.88	1734.63
238.10	1843.17
238.32	1693.67
238.54	1695.72
238.76	1671.14
238.97	1634.28
239.19	1605.61
239.41	1730.53
239.63	1755.11
239.85	1673.19
240.06	1724.39
240.28	1708.01
240.50	1746.92
240.72	1658.85
240.93	1662.95
241.15	1755.11
241.37	1703.91
241.59	1802.21
241.81	1660.90
242.02	1679.33
242.24	1699.81
242.46	1773.54
242.68	1624.04
242.89	1642.47
243.11	1845.22
243.33	1714.15
243.55	1722.34
243.76	1710.05
243.98	1630.18
244.20	1697.77
244.42	1708.01
244.64	1736.68
244.85	1632.23
245.07	1597.42
245.29	1824.74
245.51	1716.20
245.72	1744.87
245.94	1771.49
246.16	1761.25
246.38	1722.34
246.59	1675.24
246.81	1679.33
247.03	1632.23
247.24	1621.99
247.46	1603.56
247.68	1732.58
247.90	1640.42
248.11	1665.00
248.33	1685.48
248.55	1718.25
248.77	1654.76
248.98	1722.34
249.20	1810.40
249.42	1662.95
249.64	1759.21
249.85	1699.81
250.07	1693.67
250.29	1708.01
250.50	1660.90
250.72	1656.81
250.94	1701.86
251.16	1763.30
251.37	1769.44
251.59	1755.11
251.81	1714.15
252.02	1802.21
252.24	1656.81
252.46	1726.44
252.68	1626.09
252.89	1697.77
253.11	1624.04
253.33	1837.03
253.54	1796.07
253.76	1681.38
253.98	1724.39
254.20	1656.81
254.41	1636.33
254.63	1685.48
254.85	1601.51
255.06	1724.39
255.28	1742.82
255.50	1675.24
255.71	1697.77
255.93	1583.08
256.15	1697.77
256.36	1740.77
256.58	1685.48
256.80	1703.91
257.02	1714.15
257.23	1665.00
257.45	1683.43
257.67	1673.19
257.88	1609.70
258.10	1753.06
258.32	1710.05
258.53	1695.72
258.75	1759.21
258.97	1628.14
259.18	1687.53
259.40	1691.62
259.62	1796.07
259.83	1705.96
260.05	1703.91
260.27	1968.10
260.48	1804.26
260.70	1650.66
260.92	1728.49
261.13	1689.57
261.35	1726.44
261.57	1746.92
261.78	1574.89
262.00	1642.47
262.22	1828.84
262.43	1593.32
262.65	1701.86
262.86	1636.33
263.08	1877.99
263.30	1642.47
263.51	1654.76
263.73	1658.85
263.95	1787.88
264.16	1630.18
264.38	1695.72
264.60	1746.92
264.81	1718.25
265.03	1746.92
265.25	1751.01
265.46	1671.14
265.68	1781.73
265.89	1671.14
266.11	1593.32
266.33	1714.15
266.54	1789.92
266.76	1746.92
266.98	1728.49
267.19	1798.12
267.41	1740.77
267.62	1679.33
267.84	1644.52
268.06	1652.71
268.27	1769.44
268.49	1769.44
268.70	1767.40
268.92	1646.57
269.14	1726.44
269.35	1662.95
269.57	1689.57
269.79	1783.78
270.00	1724.39
270.22	1798.12
270.43	1685.48
270.65	1589.22
270.87	1677.29
271.08	1837.03
271.30	1695.72
271.51	1662.95
271.73	1673.19
271.95	1806.31
272.16	1679.33
272.38	1755.11
272.59	1611.75
272.81	1751.01
273.02	1621.99
273.24	1744.87
273.46	1740.77
273.67	1656.81
273.89	1640.42
274.10	1648.61
274.32	1746.92
274.54	1695.72
274.75	1665.00
274.97	1701.86
275.18	1734.63
275.40	1710.05
275.61	1691.62
275.83	1720.29
276.05	1652.71
276.26	1685.48
276.48	1781.73
276.69	1673.19
276.91	1718.25
277.12	1810.40
277.34	1775.59
277.55	1785.83
277.77	1687.53
277.99	1710.05
278.20	1658.85
278.42	1650.66
278.63	1665.00
278.85	1722.34
279.06	1603.56
279.28	1763.30
279.49	1753.06
279.71	1814.50
279.93	1703.91
280.14	1685.48
280.36	1677.29
280.57	1814.50
280.79	1757.16
281.00	1646.57
281.22	1726.44
281.43	1828.84
281.65	1574.89
281.86	1660.90
282.08	1720.29
282.29	1761.25
282.51	1714.15
282.73	1599.46
282.94	1628.14
283.16	1796.07
283.37	1773.54
283.59	1697.77
283.80	1779.68
284.02	1712.10
284.23	1722.34
284.45	1691.62
284.66	1734.63
284.88	1607.66
285.09	1675.24
285.31	1783.78
285.52	1703.91
285.74	1544.17
285.95	1806.31
286.17	1675.24
286.38	1716.20
286.60	1648.61
286.81	1669.09
287.03	1701.86
287.24	1722.34
287.46	1593.32
287.67	1728.49
287.89	1843.17
288.10	1712.10
288.32	1775.59
288.53	1734.63
288.75	1669.09
288.96	1757.16
289.18	1650.66
289.39	1673.19
289.61	1726.44
289.82	1804.26
290.04	1841.12
290.25	1607.66
290.47	1687.53
290.68	1693.67
290.90	1720.29
291.11	1673.19
291.33	1716.20
291.54	1595.37
291.76	1654.76
291.97	1757.16
292.18	1802.21
292.40	1609.70
292.61	1730.53
292.83	1738.73
293.04	1746.92
293.26	1726.44
293.47	1730.53
293.69	1593.32
293.90	1710.05
294.12	1722.34
294.33	1689.57
294.55	1740.77
294.76	1771.49
294.97	1759.21
295.19	1800.16
295.40	1740.77
295.62	1712.10
295.83	1746.92
296.05	1619.94
296.26	1736.68
296.48	1648.61
296.69	1634.28
296.90	1656.81
297.12	1796.07
297.33	1877.99
297.55	1630.18
297.76	1724.39
297.98	1773.54
298.19	1746.92
298.41	1714.15
298.62	1654.76
298.83	1861.60
299.05	1789.92
299.26	1681.38
299.48	1632.23
299.69	1767.40
299.90	1759.21
300.12	1675.24
300.33	1726.44
300.55	1689.57
300.76	1732.58
300.98	1642.47
301.19	1726.44
301.40	1665.00
301.62	1636.33
301.83	1765.35
302.05	1628.14
302.26	1671.14
302.47	1626.09
302.69	1613.80
302.90	1710.05
303.12	1630.18
303.33	1779.68
303.54	1734.63
303.76	1687.53
303.97	1740.77
304.19	1777.64
304.40	1613.80
304.61	1710.05
304.83	1757.16
305.04	1736.68
305.26	1726.44
305.47	1665.00
305.68	1738.73
305.90	1662.95
306.11	1744.87
306.33	1679.33
306.54	1656.81
306.75	1660.90
306.97	1624.04
307.18	1708.01
307.39	1650.66
307.61	1689.57
307.82	1681.38
308.04	1718.25
308.25	1697.77
308.46	1712.10
308.68	1724.39
308.89	1683.43
309.10	1785.83
309.32	1665.00
309.53	1638.38
309.74	1716.20
309.96	1691.62
310.17	1712.10
310.39	1705.96
310.60	1705.96
310.81	1693.67
311.03	1687.53
311.24	1732.58
311.45	1624.04
311.67	1822.69
311.88	1738.73
312.09	1660.90
312.31	1701.86
312.52	1718.25
312.73	1716.20
312.95	1562.60
313.16	1626.09
313.37	1691.62
313.59	1726.44
313.80	1755.11
314.01	1734.63
314.23	1681.38
314.44	1697.77
314.65	1636.33
314.87	1613.80
315.08	1691.62
315.29	1679.33
315.51	1613.80
315.72	1628.14
315.93	1808.36
316.15	1759.21
316.36	1638.38
316.57	1683.43
316.79	1755.11
317.00	1669.09
317.21	1691.62
317.43	1578.98
317.64	1720.29
317.85	1654.76
318.07	1671.14
318.28	1667.05
318.49	1828.84
318.70	1886.18
318.92	1832.93
319.13	1773.54
319.34	1900.52
319.56	1771.49
319.77	1763.30
319.98	1705.96
320.20	1734.63
320.41	1738.73
320.62	1718.25
320.83	1689.57
321.05	1800.16
321.26	1740.77
321.47	1644.52
321.69	1714.15
321.90	1589.22
322.11	1642.47
322.32	1677.29
322.54	1724.39
322.75	1732.58
322.96	1804.26
323.18	1656.81
323.39	1630.18
323.60	1646.57
323.81	1789.92
324.03	1681.38
324.24	1740.77
324.45	1677.29
324.66	1699.81
324.88	1722.34
325.09	1761.25
325.30	1708.01
325.52	1705.96
325.73	1796.07
325.94	1681.38
326.15	1636.33
326.37	1615.85
326.58	1798.12
326.79	1689.57
327.00	1658.85
327.22	1742.82
327.43	1640.42
327.64	1656.81
327.85	1759.21
328.07	1697.77
328.28	1708.01
328.49	1712.10
328.70	1703.91
328.92	1701.86
329.13	1742.82
329.34	1748.97
329.55	1783.78
329.76	1722.34
329.98	1662.95
330.19	1751.01
330.40	1761.25
330.61	1701.86
330.83	1755.11
331.04	1708.01
331.25	1746.92
331.46	1681.38
331.68	1658.85
331.89	1681.38
332.10	1718.25
332.31	1652.71
332.52	1667.05
332.74	1710.05
332.95	1695.72
333.16	1710.05
333.37	1753.06
333.58	1720.29
333.80	1724.39
334.01	1560.55
334.22	1644.52
334.43	1652.71
334.64	1712.10
334.86	1611.75
335.07	1615.85
335.28	1755.11
335.49	1595.37
335.70	1726.44
335.92	1787.88
336.13	1834.98
336.34	1673.19
336.55	1679.33
336.76	1626.09
336.98	1581.03
337.19	1660.90
337.40	1767.40
337.61	1865.70
337.82	1708.01
338.04	1736.68
338.25	1640.42
338.46	1703.91
338.67	1642.47
338.88	1568.74
339.09	1705.96
339.31	1691.62
339.52	1720.29
339.73	1562.60
339.94	1689.57
340.15	1753.06
340.36	1650.66
340.58	1630.18
340.79	1609.70
341.00	1718.25
341.21	1621.99
341.42	1791.97
341.63	1642.47
341.85	1673.19
342.06	1724.39
342.27	1699.81
342.48	1751.01
342.69	1597.42
342.90	1738.73
343.12	1681.38
343.33	1624.04
343.54	1828.84
343.75	1748.97
343.96	1683.43
344.17	1681.38
344.38	1705.96
344.60	1599.46
344.81	1687.53
345.02	1638.38
345.23	1722.34
345.44	1789.92
345.65	1773.54
345.86	1718.25
346.07	1681.38
346.29	1736.68
346.50	1726.44
346.71	1705.96
346.92	1789.92
347.13	1865.70
347.34	1679.33
347.55	1687.53
347.76	1687.53
347.98	1585.13
348.19	1595.37
348.40	1718.25
348.61	1665.00
348.82	1767.40
349.03	1748.97
349.24	1658.85
349.45	1775.59
349.66	1691.62
349.88	1591.27
350.09	1632.23
350.30	1837.03
350.51	1861.60
350.72	1708.01
350.93	1673.19
351.14	1697.77
351.35	1738.73
351.56	1718.25
351.77	1695.72
351.99	1679.33
352.20	1802.21
352.41	1781.73
352.62	1574.89
352.83	1708.01
353.04	1685.48
353.25	1615.85
353.46	1761.25
353.67	1744.87
353.88	1609.70
354.09	1746.92
354.30	1691.62
354.52	1708.01
354.73	1679.33
354.94	1673.19
355.15	1652.71
355.36	1791.97
355.57	1669.09
355.78	1732.58
355.99	1642.47
356.20	1712.10
356.41	1759.21
356.62	1781.73
356.83	1740.77
357.04	1769.44
357.25	1632.23
357.46	1730.53
357.68	1638.38
357.89	1699.81
358.10	1671.14
358.31	1675.24
358.52	1705.96
358.73	1671.14
358.94	1558.50
359.15	1611.75
359.36	1738.73
359.57	1638.38
359.78	1742.82
359.99	1699.81
360.20	1648.61
360.41	1671.14
360.62	1679.33
360.83	1767.40
361.04	1665.00
361.25	1746.92
361.46	1794.02
361.67	1730.53
361.88	1753.06
362.09	1753.06
362.30	1681.38
362.51	1697.77
362.72	1746.92
362.93	1722.34
363.14	1730.53
363.35	1730.53
363.56	1660.90
363.78	1796.07
363.99	1802.21
364.20	1705.96
364.41	1771.49
364.62	1806.31
364.83	1693.67
365.04	1722.34
365.25	1652.71
365.46	1773.54
365.67	1597.42
365.88	1617.90
366.09	1699.81
366.30	1673.19
366.51	1730.53
366.72	1640.42
366.93	1738.73
367.14	1726.44
367.35	1787.88
367.56	1681.38
367.77	1744.87
367.98	1640.42
368.18	1720.29
368.39	1720.29
368.60	1617.90
368.81	1732.58
369.02	1730.53
369.23	1699.81
369.44	1607.66
369.65	1722.34
369.86	1744.87
370.07	1753.06
370.28	1566.70
370.49	1779.68
370.70	1769.44
370.91	1626.09
371.12	1630.18
371.33	1703.91
371.54	1671.14
371.75	1861.60
371.96	1546.22
372.17	1679.33
372.38	1626.09
372.59	1753.06
372.80	1746.92
373.01	1710.05
373.22	1691.62
373.43	1654.76
373.64	1652.71
373.85	1712.10
374.06	1744.87
374.26	1728.49
374.47	1755.11
374.68	1775.59
374.89	1689.57
375.10	1617.90
375.31	1802.21
375.52	1730.53
375.73	1722.34
375.94	1626.09
376.15	1732.58
376.36	1708.01
376.57	1632.23
376.78	1636.33
376.99	1703.91
377.20	1744.87
377.40	1662.95
377.61	1845.22
377.82	1656.81
378.03	1785.83
378.24	1687.53
378.45	1685.48
378.66	1708.01
378.87	1599.46
379.08	1617.90
379.29	1648.61
379.50	1705.96
379.71	1628.14
379.91	1755.11
380.12	1689.57
380.33	1714.15
380.54	1765.35
380.75	1693.67
380.96	1705.96
381.17	1779.68
381.38	1728.49
381.59	1742.82
381.80	1652.71
382.00	1851.36
382.21	1755.11
382.42	1751.01
382.63	1804.26
382.84	1826.79
383.05	1773.54
383.26	1781.73
383.47	1718.25
383.68	1720.29
383.88	1736.68
384.09	1699.81
384.30	1824.74
384.51	1757.16
384.72	1640.42
384.93	1621.99
385.14	1654.76
385.35	1734.63
385.55	1636.33
385.76	1777.64
385.97	1662.95
386.18	1671.14
386.39	1687.53
386.60	1714.15
386.81	1712.10
387.02	1660.90
387.22	1621.99
387.43	1761.25
387.64	1771.49
387.85	1863.65
388.06	2176.99
388.27	4220.86
388.48	6678.43
388.68	7993.22
388.89	9545.58
389.10	9799.53
389.31	8417.15
389.52	7454.61
389.73	6524.83
389.93	6221.73
390.14	5765.03
390.35	5117.87
390.56	4534.20
390.77	3870.66
390.98	3012.56
391.18	2453.47
391.39	2074.59
391.60	1841.12
391.81	1820.64
392.02	1685.48
392.23	1820.64
392.43	1732.58
392.64	1798.12
392.85	1726.44
393.06	1763.30
393.27	1691.62
393.47	1730.53
393.68	1724.39
393.89	1667.05
394.10	1775.59
394.31	1732.58
394.52	1687.53
394.72	1650.66
394.93	1771.49
395.14	1595.37
395.35	1681.38
395.56	1566.70
395.76	1722.34
395.97	1759.21
396.18	1820.64
396.39	1738.73
396.60	2045.92
396.80	1904.61
397.01	1877.99
397.22	1810.40
397.43	1763.30
397.64	1775.59
397.84	1814.50
398.05	1830.88
398.26	1691.62
398.47	1777.64
398.67	1728.49
398.88	1724.39
399.09	1716.20
399.30	1712.10
399.51	1751.01
399.71	1695.72
399.92	1740.77
400.13	1695.72
400.34	1617.90
400.54	1667.05
400.75	1800.16
400.96	1697.77
401.17	1757.16
401.37	1716.20
401.58	1673.19
401.79	1742.82
402.00	1869.80
402.21	1984.48
402.41	1964.00
402.62	2017.25
402.83	2027.49
403.04	1972.19
403.24	2144.22
403.45	1789.92
403.66	1916.90
403.87	1839.08
404.07	1865.70
404.28	1935.33
404.49	1933.28
404.70	1785.83
404.90	1748.97
405.11	1761.25
405.32	1695.72
405.52	1693.67
405.73	1632.23
405.94	1628.14
406.15	1775.59
406.35	1740.77
406.56	1697.77
406.77	1701.86
406.98	1724.39
407.18	1648.61
407.39	1787.88
407.60	1722.34
407.80	1779.68
408.01	1757.16
408.22	1736.68
408.43	1632.23
408.63	1775.59
408.84	1730.53
409.05	1703.91
409.25	1611.75
409.46	1570.79
409.67	1689.57
409.88	1712.10
410.08	1753.06
410.29	1732.58
410.50	1671.14
410.70	1640.42
410.91	1669.09
411.12	1665.00
411.32	1671.14
411.53	1769.44
411.74	1777.64
411.95	1775.59
412.15	1832.93
412.36	1765.35
412.57	1816.55
412.77	1818.60
412.98	1685.48
413.19	1636.33
413.39	1785.83
413.60	1730.53
413.81	1757.16
414.01	1644.52
414.22	1781.73
414.43	1738.73
414.63	1673.19
414.84	1785.83
415.05	1693.67
415.25	1650.66
415.46	1665.00
415.67	1705.96
415.87	1755.11
416.08	1718.25
416.29	1669.09
416.49	1701.86
416.70	1716.20
416.91	1714.15
417.11	1673.19
417.32	1814.50
417.53	1724.39
417.73	1800.16
417.94	1673.19
418.15	1695.72
418.35	1744.87
418.56	1628.14
418.77	1851.36
418.97	1697.77
419.18	1699.81
419.38	1591.27
419.59	1695.72
419.80	1759.21
420.00	1679.33
420.21	1740.77
420.42	1730.53
420.62	1718.25
420.83	1667.05
421.04	1796.07
421.24	1679.33
421.45	1728.49
421.65	1708.01
421.86	1757.16
422.07	1710.05
422.27	1763.30
422.48	1767.40
422.69	1615.85
422.89	1746.92
423.10	1665.00
423.30	1585.13
423.51	1691.62
423.72	1693.67
423.92	1701.86
424.13	1675.24
424.33	1736.68
424.54	1767.40
424.75	1718.25
424.95	1765.35
425.16	1691.62
425.36	1665.00
425.57	1814.50
425.78	1742.82
425.98	1773.54
426.19	1710.05
426.39	1710.05
426.60	1710.05
426.81	1794.02
427.01	1710.05
427.22	1683.43
427.42	1609.70
427.63	1699.81
427.83	1679.33
428.04	1808.36
428.25	1746.92
428.45	1808.36
428.66	1730.53
428.86	1701.86
429.07	1718.25
429.28	1683.43
429.48	1765.35
429.69	1695.72
429.89	1710.05
430.10	1703.91
430.30	1724.39
430.51	1830.88
430.71	1656.81
430.92	1708.01
431.13	1667.05
431.33	1789.92
431.54	1689.57
431.74	1755.11
431.95	1781.73
432.15	1697.77
432.36	1689.57
432.56	1705.96
432.77	1751.01
432.98	1787.88
433.18	1755.11
433.39	1675.24
433.59	1720.29
433.80	1824.74
434.00	1859.56
434.21	1716.20
434.41	1671.14
434.62	1861.60
434.82	1656.81
435.03	1654.76
435.23	1736.68
435.44	1628.14
435.64	1718.25
435.85	1728.49
436.06	1630.18
436.26	1808.36
436.47	1724.39
436.67	1708.01
436.88	1732.58
437.08	1744.87
437.29	1865.70
437.49	1665.00
437.70	1839.08
437.90	1677.29
438.11	1767.40
438.31	1839.08
438.52	1896.42
438.72	1861.60
438.93	1810.40
439.13	1757.16
439.34	1808.36
439.54	1742.82
439.75	1841.12
439.95	1730.53
440.16	1759.21
440.36	1677.29
440.57	1726.44
440.77	1687.53
440.98	1703.91
441.18	1681.38
441.39	1665.00
441.59	1662.95
441.80	1886.18
442.00	1695.72
442.21	1798.12
442.41	1679.33
442.62	1820.64
442.82	1708.01
443.02	1736.68
443.23	1712.10
443.43	1742.82
443.64	1822.69
443.84	1671.14
444.05	1886.18
444.25	1748.97
444.46	1703.91
444.66	1716.20
444.87	1785.83
445.07	1638.38
445.28	1673.19
445.48	1781.73
445.69	1820.64
445.89	1886.18
446.09	1693.67
446.30	1976.29
446.50	2598.87
446.71	3583.95
446.91	4253.63
447.12	4827.06
447.32	4788.15
447.53	4104.13
447.73	3788.74
447.93	3559.37
448.14	3200.98
448.34	3098.58
448.55	2959.31
448.75	2674.65
448.96	2662.36
449.16	2365.40
449.36	2252.77
449.57	2023.39
449.77	1955.81
449.98	1867.75
450.18	1687.53
450.39	1802.21
450.59	1765.35
450.79	1791.97
451.00	1724.39
451.20	1779.68
451.41	1701.86
451.61	1779.68
451.81	1685.48
452.02	1808.36
452.22	1685.48
452.43	1714.15
452.63	1728.49
