SpectraSuite Data File
++++++++++++++++++++++++++++++++++++
Date: Mon Jun 06 15:15:57 CEST 2016
User: root
Dark Spectrum Present: No
Reference Spectrum Present: No
Number of Sampled Component Spectra: 1
Spectrometers: USB4C02835
Integration Time (usec): 100000 (USB4C02835)
Spectra Averaged: 1 (USB4C02835)
Boxcar Smoothing: 0 (USB4C02835)
Correct for Electrical Dark: No (USB4C02835)
Strobe/Lamp Enabled: No (USB4C02835)
Correct for Detector Non-linearity: No (USB4C02835)
Correct for Stray Light: No (USB4C02835)
Number of Pixels in Processed Spectrum: 3648
>>>>>Begin Processed Spectral Data<<<<<
177.47	1435.63
177.69	1435.63
177.91	1435.63
178.13	1482.73
178.36	1490.92
178.58	1642.47
178.80	1714.15
179.02	1638.38
179.24	1636.33
179.46	1697.77
179.68	1718.25
179.90	1660.90
180.13	1738.73
180.35	1673.19
180.57	1724.39
180.79	1701.86
181.01	1679.33
181.23	1658.85
181.45	1800.16
181.67	1816.55
181.90	1724.39
182.12	1683.43
182.34	1693.67
182.56	1773.54
182.78	1765.35
183.00	1701.86
183.22	1738.73
183.44	1648.61
183.66	1814.50
183.89	1820.64
184.11	1654.76
184.33	1789.92
184.55	1718.25
184.77	1693.67
184.99	1677.29
185.21	1740.77
185.43	1890.28
185.65	1675.24
185.87	1796.07
186.10	1849.32
186.32	1804.26
186.54	1658.85
186.76	1763.30
186.98	1777.64
187.20	1722.34
187.42	1722.34
187.64	1640.42
187.86	1791.97
188.08	1714.15
188.30	1695.72
188.52	1679.33
188.75	1779.68
188.97	1865.70
189.19	1667.05
189.41	1708.01
189.63	1732.58
189.85	1665.00
190.07	1624.04
190.29	1665.00
190.51	1740.77
190.73	1593.32
190.95	1820.64
191.17	1652.71
191.39	1564.65
191.61	1650.66
191.84	1710.05
192.06	1660.90
192.28	1611.75
192.50	1818.60
192.72	1718.25
192.94	1746.92
193.16	1718.25
193.38	1708.01
193.60	1681.38
193.82	1724.39
194.04	1751.01
194.26	1763.30
194.48	1722.34
194.70	1603.56
194.92	1687.53
195.14	1722.34
195.36	1644.52
195.58	1726.44
195.80	1746.92
196.02	1589.22
196.24	1656.81
196.46	1677.29
196.69	1683.43
196.91	1839.08
197.13	1681.38
197.35	1677.29
197.57	1708.01
197.79	1773.54
198.01	1708.01
198.23	1751.01
198.45	1779.68
198.67	1650.66
198.89	1685.48
199.11	1794.02
199.33	1665.00
199.55	1671.14
199.77	1734.63
199.99	1748.97
200.21	1634.28
200.43	1705.96
200.65	1613.80
200.87	1626.09
201.09	1775.59
201.31	1712.10
201.53	1783.78
201.75	1658.85
201.97	1724.39
202.19	1771.49
202.41	1683.43
202.63	1867.75
202.85	1742.82
203.07	1726.44
203.29	1685.48
203.51	1718.25
203.73	1751.01
203.95	1837.03
204.17	1710.05
204.39	1738.73
204.61	1673.19
204.83	1673.19
205.05	1732.58
205.27	1732.58
205.49	1798.12
205.71	1697.77
205.93	1685.48
206.15	1681.38
206.37	1732.58
206.59	1699.81
206.81	1679.33
207.03	1591.27
207.25	1581.03
207.47	1763.30
207.69	1777.64
207.91	1791.97
208.13	1769.44
208.34	1722.34
208.56	1660.90
208.78	1720.29
209.00	1689.57
209.22	1681.38
209.44	1718.25
209.66	1640.42
209.88	1726.44
210.10	1669.09
210.32	1681.38
210.54	1812.45
210.76	1658.85
210.98	1763.30
211.20	1636.33
211.42	1730.53
211.64	1800.16
211.86	1787.88
212.08	1767.40
212.30	1714.15
212.52	1683.43
212.74	1771.49
212.96	1722.34
213.17	1746.92
213.39	1796.07
213.61	1789.92
213.83	1761.25
214.05	1685.48
214.27	1705.96
214.49	1650.66
214.71	1673.19
214.93	1812.45
215.15	1673.19
215.37	1742.82
215.59	1621.99
215.81	1726.44
216.03	1730.53
216.24	1710.05
216.46	1689.57
216.68	1710.05
216.90	1794.02
217.12	1832.93
217.34	1685.48
217.56	1755.11
217.78	1763.30
218.00	1755.11
218.22	1701.86
218.44	1665.00
218.66	1701.86
218.87	1769.44
219.09	1769.44
219.31	1681.38
219.53	1691.62
219.75	1681.38
219.97	1642.47
220.19	1742.82
220.41	1607.66
220.63	1789.92
220.85	1845.22
221.06	1705.96
221.28	1769.44
221.50	1644.52
221.72	1703.91
221.94	1695.72
222.16	1689.57
222.38	1808.36
222.60	1808.36
222.82	1722.34
223.03	1779.68
223.25	1654.76
223.47	1794.02
223.69	1824.74
223.91	1730.53
224.13	1667.05
224.35	1683.43
224.57	1814.50
224.78	1732.58
225.00	1736.68
225.22	1673.19
225.44	1703.91
225.66	1808.36
225.88	1671.14
226.10	1794.02
226.32	1769.44
226.53	1802.21
226.75	1681.38
226.97	1681.38
227.19	1742.82
227.41	1611.75
227.63	1720.29
227.85	1650.66
228.06	1732.58
228.28	1755.11
228.50	1714.15
228.72	1708.01
228.94	1714.15
229.16	1626.09
229.37	1626.09
229.59	1617.90
229.81	1783.78
230.03	1642.47
230.25	1570.79
230.47	1642.47
230.69	1648.61
230.90	1705.96
231.12	1660.90
231.34	1785.83
231.56	1765.35
231.78	1646.57
232.00	1718.25
232.21	1687.53
232.43	1728.49
232.65	1560.55
232.87	1755.11
233.09	1722.34
233.30	1644.52
233.52	1808.36
233.74	1691.62
233.96	1710.05
234.18	1773.54
234.40	1710.05
234.61	1789.92
234.83	1593.32
235.05	1632.23
235.27	1884.13
235.49	1755.11
235.70	1701.86
235.92	1814.50
236.14	1697.77
236.36	1871.84
236.58	1636.33
236.79	1722.34
237.01	1683.43
237.23	1808.36
237.45	1767.40
237.67	1656.81
237.88	1738.73
238.10	1826.79
238.32	1673.19
238.54	1708.01
238.76	1705.96
238.97	1662.95
239.19	1734.63
239.41	1785.83
239.63	1748.97
239.85	1730.53
240.06	1734.63
240.28	1699.81
240.50	1775.59
240.72	1665.00
240.93	1755.11
241.15	1777.64
241.37	1742.82
241.59	1732.58
241.81	1701.86
242.02	1699.81
242.24	1753.06
242.46	1718.25
242.68	1701.86
242.89	1767.40
243.11	1724.39
243.33	1644.52
243.55	1673.19
243.76	1826.79
243.98	1789.92
244.20	1765.35
244.42	1701.86
244.64	1705.96
244.85	1669.09
245.07	1675.24
245.29	1767.40
245.51	1660.90
245.72	1789.92
245.94	1783.78
246.16	1757.16
246.38	1755.11
246.59	1730.53
246.81	1576.94
247.03	1624.04
247.24	1544.17
247.46	1691.62
247.68	1689.57
247.90	1630.18
248.11	1662.95
248.33	1697.77
248.55	1636.33
248.77	1783.78
248.98	1746.92
249.20	1753.06
249.42	1734.63
249.64	1783.78
249.85	1720.29
250.07	1673.19
250.29	1732.58
250.50	1716.20
250.72	1767.40
250.94	1712.10
251.16	1806.31
251.37	1759.21
251.59	1703.91
251.81	1695.72
252.02	1791.97
252.24	1701.86
252.46	1703.91
252.68	1665.00
252.89	1693.67
253.11	1636.33
253.33	1775.59
253.54	1779.68
253.76	1601.51
253.98	1773.54
254.20	1693.67
254.41	1665.00
254.63	1658.85
254.85	1624.04
255.06	1687.53
255.28	1681.38
255.50	1689.57
255.71	1748.97
255.93	1617.90
256.15	1746.92
256.36	1720.29
256.58	1660.90
256.80	1710.05
257.02	1687.53
257.23	1679.33
257.45	1714.15
257.67	1755.11
257.88	1667.05
258.10	1681.38
258.32	1767.40
258.53	1697.77
258.75	1779.68
258.97	1646.57
259.18	1708.01
259.40	1632.23
259.62	1783.78
259.83	1822.69
260.05	1705.96
260.27	1828.84
260.48	1755.11
260.70	1681.38
260.92	1677.29
261.13	1748.97
261.35	1767.40
261.57	1681.38
261.78	1665.00
262.00	1667.05
262.22	1734.63
262.43	1667.05
262.65	1730.53
262.86	1699.81
263.08	1834.98
263.30	1755.11
263.51	1646.57
263.73	1609.70
263.95	1751.01
264.16	1615.85
264.38	1718.25
264.60	1748.97
264.81	1855.46
265.03	1775.59
265.25	1773.54
265.46	1714.15
265.68	1738.73
265.89	1755.11
266.11	1644.52
266.33	1765.35
266.54	1730.53
266.76	1726.44
266.98	1785.83
267.19	1755.11
267.41	1705.96
267.62	1619.94
267.84	1669.09
268.06	1755.11
268.27	1779.68
268.49	1691.62
268.70	1789.92
268.92	1638.38
269.14	1679.33
269.35	1689.57
269.57	1679.33
269.79	1726.44
270.00	1656.81
270.22	1779.68
270.43	1617.90
270.65	1560.55
270.87	1697.77
271.08	1744.87
271.30	1759.21
271.51	1751.01
271.73	1744.87
271.95	1818.60
272.16	1689.57
272.38	1705.96
272.59	1697.77
272.81	1755.11
273.02	1673.19
273.24	1673.19
273.46	1718.25
273.67	1673.19
273.89	1665.00
274.10	1726.44
274.32	1708.01
274.54	1771.49
274.75	1748.97
274.97	1728.49
275.18	1736.68
275.40	1673.19
275.61	1648.61
275.83	1718.25
276.05	1693.67
276.26	1640.42
276.48	1751.01
276.69	1675.24
276.91	1675.24
277.12	1794.02
277.34	1710.05
277.55	1705.96
277.77	1763.30
277.99	1673.19
278.20	1675.24
278.42	1673.19
278.63	1624.04
278.85	1671.14
279.06	1593.32
279.28	1775.59
279.49	1720.29
279.71	1751.01
279.93	1781.73
280.14	1728.49
280.36	1683.43
280.57	1800.16
280.79	1718.25
281.00	1615.85
281.22	1630.18
281.43	1732.58
281.65	1640.42
281.86	1587.18
282.08	1779.68
282.29	1783.78
282.51	1597.42
282.73	1603.56
282.94	1687.53
283.16	1859.56
283.37	1857.51
283.59	1755.11
283.80	1720.29
284.02	1806.31
284.23	1802.21
284.45	1656.81
284.66	1669.09
284.88	1648.61
285.09	1732.58
285.31	1716.20
285.52	1693.67
285.74	1669.09
285.95	1740.77
286.17	1705.96
286.38	1789.92
286.60	1748.97
286.81	1644.52
287.03	1691.62
287.24	1742.82
287.46	1681.38
287.67	1689.57
287.89	1837.03
288.10	1617.90
288.32	1761.25
288.53	1757.16
288.75	1693.67
288.96	1730.53
289.18	1708.01
289.39	1689.57
289.61	1753.06
289.82	1783.78
290.04	1832.93
290.25	1593.32
290.47	1685.48
290.68	1710.05
290.90	1779.68
291.11	1585.13
291.33	1742.82
291.54	1699.81
291.76	1667.05
291.97	1757.16
292.18	1644.52
292.40	1689.57
292.61	1658.85
292.83	1820.64
293.04	1724.39
293.26	1658.85
293.47	1644.52
293.69	1611.75
293.90	1697.77
294.12	1744.87
294.33	1724.39
294.55	1689.57
294.76	1714.15
294.97	1701.86
295.19	1877.99
295.40	1755.11
295.62	1746.92
295.83	1689.57
296.05	1697.77
296.26	1812.45
296.48	1675.24
296.69	1734.63
296.90	1767.40
297.12	1826.79
297.33	1785.83
297.55	1705.96
297.76	1722.34
297.98	1857.51
298.19	1763.30
298.41	1789.92
298.62	1658.85
298.83	1775.59
299.05	1701.86
299.26	1646.57
299.48	1660.90
299.69	1724.39
299.90	1775.59
300.12	1646.57
300.33	1765.35
300.55	1736.68
300.76	1712.10
300.98	1626.09
301.19	1738.73
301.40	1673.19
301.62	1679.33
301.83	1763.30
302.05	1722.34
302.26	1730.53
302.47	1697.77
302.69	1660.90
302.90	1765.35
303.12	1570.79
303.33	1742.82
303.54	1826.79
303.76	1695.72
303.97	1701.86
304.19	1804.26
304.40	1652.71
304.61	1771.49
304.83	1818.60
305.04	1751.01
305.26	1718.25
305.47	1589.22
305.68	1687.53
305.90	1671.14
306.11	1738.73
306.33	1714.15
306.54	1673.19
306.75	1675.24
306.97	1632.23
307.18	1665.00
307.39	1667.05
307.61	1728.49
307.82	1644.52
308.04	1726.44
308.25	1746.92
308.46	1687.53
308.68	1601.51
308.89	1685.48
309.10	1839.08
309.32	1775.59
309.53	1681.38
309.74	1763.30
309.96	1648.61
310.17	1771.49
310.39	1648.61
310.60	1699.81
310.81	1738.73
311.03	1615.85
311.24	1697.77
311.45	1679.33
311.67	1771.49
311.88	1685.48
312.09	1665.00
312.31	1642.47
312.52	1720.29
312.73	1748.97
312.95	1644.52
313.16	1654.76
313.37	1767.40
313.59	1708.01
313.80	1701.86
314.01	1828.84
314.23	1730.53
314.44	1699.81
314.65	1644.52
314.87	1591.27
315.08	1748.97
315.29	1624.04
315.51	1701.86
315.72	1658.85
315.93	1826.79
316.15	1820.64
316.36	1710.05
316.57	1673.19
316.79	1834.98
317.00	1673.19
317.21	1755.11
317.43	1697.77
317.64	1681.38
317.85	1687.53
318.07	1705.96
318.28	1720.29
318.49	1843.17
318.70	1804.26
318.92	1843.17
319.13	1791.97
319.34	1763.30
319.56	1796.07
319.77	1738.73
319.98	1791.97
320.20	1724.39
320.41	1718.25
320.62	1763.30
320.83	1681.38
321.05	1837.03
321.26	1708.01
321.47	1775.59
321.69	1769.44
321.90	1603.56
322.11	1705.96
322.32	1705.96
322.54	1794.02
322.75	1640.42
322.96	1849.32
323.18	1650.66
323.39	1662.95
323.60	1660.90
323.81	1767.40
324.03	1673.19
324.24	1736.68
324.45	1660.90
324.66	1699.81
324.88	1705.96
325.09	1787.88
325.30	1683.43
325.52	1779.68
325.73	1679.33
325.94	1660.90
326.15	1658.85
326.37	1691.62
326.58	1777.64
326.79	1753.06
327.00	1671.14
327.22	1779.68
327.43	1755.11
327.64	1646.57
327.85	1753.06
328.07	1783.78
328.28	1787.88
328.49	1699.81
328.70	1734.63
328.92	1703.91
329.13	1724.39
329.34	1724.39
329.55	1837.03
329.76	1765.35
329.98	1757.16
330.19	1730.53
330.40	1742.82
330.61	1746.92
330.83	1740.77
331.04	1687.53
331.25	1701.86
331.46	1646.57
331.68	1617.90
331.89	1730.53
332.10	1683.43
332.31	1728.49
332.52	1675.24
332.74	1775.59
332.95	1652.71
333.16	1712.10
333.37	1720.29
333.58	1687.53
333.80	1669.09
334.01	1652.71
334.22	1687.53
334.43	1755.11
334.64	1695.72
334.86	1662.95
335.07	1681.38
335.28	1796.07
335.49	1630.18
335.70	1746.92
335.92	1755.11
336.13	1812.45
336.34	1816.55
336.55	1746.92
336.76	1726.44
336.98	1621.99
337.19	1697.77
337.40	1732.58
337.61	1820.64
337.82	1648.61
338.04	1816.55
338.25	1636.33
338.46	1720.29
338.67	1705.96
338.88	1603.56
339.09	1673.19
339.31	1628.14
339.52	1615.85
339.73	1695.72
339.94	1650.66
340.15	1712.10
340.36	1677.29
340.58	1693.67
340.79	1660.90
341.00	1777.64
341.21	1716.20
341.42	1781.73
341.63	1716.20
341.85	1732.58
342.06	1841.12
342.27	1675.24
342.48	1744.87
342.69	1632.23
342.90	1761.25
343.12	1765.35
343.33	1636.33
343.54	1759.21
343.75	1834.98
343.96	1771.49
344.17	1687.53
344.38	1777.64
344.60	1726.44
344.81	1697.77
345.02	1656.81
345.23	1767.40
345.44	1812.45
345.65	1787.88
345.86	1669.09
346.07	1734.63
346.29	1687.53
346.50	1732.58
346.71	1683.43
346.92	1746.92
347.13	1837.03
347.34	1710.05
347.55	1697.77
347.76	1726.44
347.98	1646.57
348.19	1638.38
348.40	1806.31
348.61	1714.15
348.82	1820.64
349.03	1804.26
349.24	1624.04
349.45	1814.50
349.66	1652.71
349.88	1759.21
350.09	1726.44
350.30	1787.88
350.51	1740.77
350.72	1759.21
350.93	1675.24
351.14	1624.04
351.35	1660.90
351.56	1720.29
351.77	1740.77
351.99	1804.26
352.20	1796.07
352.41	1794.02
352.62	1642.47
352.83	1744.87
353.04	1652.71
353.25	1720.29
353.46	1740.77
353.67	1763.30
353.88	1640.42
354.09	1710.05
354.30	1687.53
354.52	1716.20
354.73	1703.91
354.94	1662.95
355.15	1699.81
355.36	1802.21
355.57	1724.39
355.78	1710.05
355.99	1656.81
356.20	1675.24
356.41	1771.49
356.62	1728.49
356.83	1697.77
357.04	1728.49
357.25	1533.93
357.46	1689.57
357.68	1669.09
357.89	1613.80
358.10	1671.14
358.31	1746.92
358.52	1771.49
358.73	1665.00
358.94	1697.77
359.15	1685.48
359.36	1761.25
359.57	1652.71
359.78	1662.95
359.99	1738.73
360.20	1748.97
360.41	1703.91
360.62	1681.38
360.83	1621.99
361.04	1697.77
361.25	1714.15
361.46	1816.55
361.67	1773.54
361.88	1722.34
362.09	1849.32
362.30	1671.14
362.51	1648.61
362.72	1759.21
362.93	1800.16
363.14	1771.49
363.35	1693.67
363.56	1724.39
363.78	1755.11
363.99	1783.78
364.20	1720.29
364.41	1767.40
364.62	1886.18
364.83	1699.81
365.04	1726.44
365.25	1693.67
365.46	1828.84
365.67	1722.34
365.88	1677.29
366.09	1689.57
366.30	1705.96
366.51	1736.68
366.72	1640.42
366.93	1689.57
367.14	1705.96
367.35	1806.31
367.56	1724.39
367.77	1810.40
367.98	1703.91
368.18	1712.10
368.39	1751.01
368.60	1611.75
368.81	1744.87
369.02	1787.88
369.23	1691.62
369.44	1613.80
369.65	1636.33
369.86	1789.92
370.07	1691.62
370.28	1728.49
370.49	1685.48
370.70	1685.48
370.91	1599.46
371.12	1724.39
371.33	1695.72
371.54	1722.34
371.75	1847.27
371.96	1552.36
372.17	1703.91
372.38	1753.06
372.59	1779.68
372.80	1667.05
373.01	1656.81
373.22	1691.62
373.43	1732.58
373.64	1687.53
373.85	1765.35
374.06	1837.03
374.26	1744.87
374.47	1658.85
374.68	1806.31
374.89	1744.87
375.10	1705.96
375.31	1771.49
375.52	1685.48
375.73	1769.44
375.94	1726.44
376.15	1791.97
376.36	1648.61
376.57	1744.87
376.78	1619.94
376.99	1759.21
377.20	1730.53
377.40	1693.67
377.61	1789.92
377.82	1624.04
378.03	1785.83
378.24	1787.88
378.45	1699.81
378.66	1714.15
378.87	1595.37
379.08	1613.80
379.29	1716.20
379.50	1755.11
379.71	1708.01
379.91	1796.07
380.12	1705.96
380.33	1726.44
380.54	1658.85
380.75	1740.77
380.96	1673.19
381.17	1773.54
381.38	1816.55
381.59	1779.68
381.80	1757.16
382.00	1798.12
382.21	1738.73
382.42	1781.73
382.63	1882.08
382.84	1746.92
383.05	1773.54
383.26	1851.36
383.47	1755.11
383.68	1828.84
383.88	1744.87
384.09	1667.05
384.30	1822.69
384.51	1685.48
384.72	1673.19
384.93	1648.61
385.14	1703.91
385.35	1808.36
385.55	1699.81
385.76	1804.26
385.97	1796.07
386.18	1652.71
386.39	1677.29
386.60	1675.24
386.81	1787.88
387.02	1718.25
387.22	1687.53
387.43	1826.79
387.64	1736.68
387.85	1865.70
388.06	2172.89
388.27	4161.47
388.48	6453.15
388.68	7907.21
388.89	9340.79
389.10	9445.23
389.31	8433.54
389.52	7399.31
389.73	6705.05
389.93	6066.08
390.14	5541.80
390.35	4978.61
390.56	4382.65
390.77	3751.88
390.98	2910.16
391.18	2525.15
391.39	2148.32
391.60	1820.64
391.81	1851.36
392.02	1648.61
392.23	1884.13
392.43	1785.83
392.64	1783.78
392.85	1751.01
393.06	1828.84
393.27	1687.53
393.47	1597.42
393.68	1753.06
393.89	1656.81
394.10	1771.49
394.31	1701.86
394.52	1687.53
394.72	1718.25
394.93	1796.07
395.14	1646.57
395.35	1744.87
395.56	1779.68
395.76	1759.21
395.97	1730.53
396.18	1920.99
396.39	1812.45
396.60	2084.83
396.80	1918.95
397.01	1877.99
397.22	1822.69
397.43	1828.84
397.64	1740.77
397.84	1841.12
398.05	1826.79
398.26	1748.97
398.47	1812.45
398.67	1812.45
398.88	1683.43
399.09	1720.29
399.30	1742.82
399.51	1691.62
399.71	1660.90
399.92	1695.72
400.13	1726.44
400.34	1701.86
400.54	1708.01
400.75	1703.91
400.96	1724.39
401.17	1783.78
401.37	1742.82
401.58	1683.43
401.79	1697.77
402.00	1910.75
402.21	2017.25
402.41	1984.48
402.62	2007.01
402.83	1998.82
403.04	1986.53
403.24	2090.98
403.45	1861.60
403.66	2021.35
403.87	1875.94
404.07	1902.56
404.28	1877.99
404.49	1828.84
404.70	1812.45
404.90	1691.62
405.11	1757.16
405.32	1765.35
405.52	1662.95
405.73	1658.85
405.94	1626.09
406.15	1718.25
406.35	1722.34
406.56	1689.57
406.77	1761.25
406.98	1751.01
407.18	1693.67
407.39	1771.49
407.60	1708.01
407.80	1683.43
408.01	1646.57
408.22	1787.88
408.43	1695.72
408.63	1718.25
408.84	1710.05
409.05	1755.11
409.25	1691.62
409.46	1689.57
409.67	1695.72
409.88	1718.25
410.08	1736.68
410.29	1730.53
410.50	1732.58
410.70	1693.67
410.91	1576.94
411.12	1708.01
411.32	1798.12
411.53	1673.19
411.74	1757.16
411.95	1820.64
412.15	1724.39
412.36	1771.49
412.57	1814.50
412.77	1853.41
412.98	1695.72
413.19	1611.75
413.39	1781.73
413.60	1767.40
413.81	1828.84
414.01	1685.48
414.22	1769.44
414.43	1775.59
414.63	1716.20
414.84	1742.82
415.05	1734.63
415.25	1671.14
415.46	1781.73
415.67	1656.81
415.87	1699.81
416.08	1730.53
416.29	1658.85
416.49	1779.68
416.70	1703.91
416.91	1665.00
417.11	1724.39
417.32	1796.07
417.53	1775.59
417.73	1689.57
417.94	1621.99
418.15	1681.38
418.35	1705.96
418.56	1671.14
418.77	1845.22
418.97	1660.90
419.18	1683.43
419.38	1566.70
419.59	1740.77
419.80	1724.39
420.00	1650.66
420.21	1800.16
420.42	1710.05
420.62	1722.34
420.83	1677.29
421.04	1662.95
421.24	1740.77
421.45	1771.49
421.65	1728.49
421.86	1724.39
422.07	1728.49
422.27	1699.81
422.48	1751.01
422.69	1650.66
422.89	1730.53
423.10	1677.29
423.30	1667.05
423.51	1722.34
423.72	1695.72
423.92	1791.97
424.13	1681.38
424.33	1777.64
424.54	1763.30
424.75	1718.25
424.95	1845.22
425.16	1746.92
425.36	1673.19
425.57	1800.16
425.78	1761.25
425.98	1773.54
426.19	1662.95
426.39	1681.38
426.60	1722.34
426.81	1814.50
427.01	1751.01
427.22	1671.14
427.42	1619.94
427.63	1724.39
427.83	1748.97
428.04	1808.36
428.25	1789.92
428.45	1765.35
428.66	1804.26
428.86	1748.97
429.07	1708.01
429.28	1705.96
429.48	1685.48
429.69	1624.04
429.89	1734.63
430.10	1609.70
430.30	1730.53
430.51	1681.38
430.71	1658.85
430.92	1716.20
431.13	1677.29
431.33	1732.58
431.54	1755.11
431.74	1816.55
431.95	1794.02
432.15	1708.01
432.36	1724.39
432.56	1781.73
432.77	1804.26
432.98	1900.52
433.18	1708.01
433.39	1691.62
433.59	1693.67
433.80	1732.58
434.00	1820.64
434.21	1677.29
434.41	1626.09
434.62	1865.70
434.82	1671.14
435.03	1685.48
435.23	1755.11
435.44	1658.85
435.64	1724.39
435.85	1816.55
436.06	1798.12
436.26	1791.97
436.47	1767.40
436.67	1615.85
436.88	1720.29
437.08	1722.34
437.29	1726.44
437.49	1720.29
437.70	1736.68
437.90	1683.43
438.11	1839.08
438.31	1757.16
438.52	1871.84
438.72	1863.65
438.93	1925.09
439.13	1824.74
439.34	1802.21
439.54	1769.44
439.75	1863.65
439.95	1857.51
440.16	1724.39
440.36	1718.25
440.57	1683.43
440.77	1730.53
440.98	1867.75
441.18	1701.86
441.39	1691.62
441.59	1619.94
441.80	1830.88
442.00	1791.97
442.21	1763.30
442.41	1603.56
442.62	1824.74
442.82	1816.55
443.02	1748.97
443.23	1710.05
443.43	1697.77
443.64	1775.59
443.84	1718.25
444.05	1769.44
444.25	1773.54
444.46	1734.63
444.66	1728.49
444.87	1861.60
445.07	1593.32
445.28	1673.19
445.48	1724.39
445.69	1800.16
445.89	1855.46
446.09	1660.90
446.30	1982.43
446.50	2584.54
446.71	3663.82
446.91	4245.44
447.12	4689.85
447.32	4667.32
447.53	4202.43
447.73	3807.17
447.93	3452.88
448.14	3241.93
448.34	3114.96
448.55	2840.53
448.75	2836.44
448.96	2654.17
449.16	2369.50
449.36	2238.43
449.57	2033.63
449.77	1863.65
449.98	1871.84
450.18	1757.16
450.39	1898.47
450.59	1738.73
450.79	1712.10
451.00	1742.82
451.20	1697.77
451.41	1705.96
451.61	1777.64
451.81	1708.01
452.02	1703.91
452.22	1728.49
452.43	1705.96
452.63	1728.49
