SpectraSuite Data File
++++++++++++++++++++++++++++++++++++
Date: Mon Jun 06 12:49:37 CEST 2016
User: root
Dark Spectrum Present: No
Reference Spectrum Present: No
Number of Sampled Component Spectra: 1
Spectrometers: USB4C02835
Integration Time (usec): 100000 (USB4C02835)
Spectra Averaged: 1 (USB4C02835)
Boxcar Smoothing: 0 (USB4C02835)
Correct for Electrical Dark: No (USB4C02835)
Strobe/Lamp Enabled: No (USB4C02835)
Correct for Detector Non-linearity: No (USB4C02835)
Correct for Stray Light: No (USB4C02835)
Number of Pixels in Processed Spectrum: 3648
>>>>>Begin Processed Spectral Data<<<<<
177.47	1529.83
177.69	1529.83
177.91	1529.83
178.13	1486.83
178.36	1460.20
178.58	1572.84
178.80	1708.01
179.02	1574.89
179.24	1675.24
179.46	1787.88
179.68	1730.53
179.90	1683.43
180.13	1757.16
180.35	1689.57
180.57	1648.61
180.79	1730.53
181.01	1755.11
181.23	1791.97
181.45	1789.92
181.67	1708.01
181.90	1714.15
182.12	1665.00
182.34	1630.18
182.56	1724.39
182.78	1748.97
183.00	1652.71
183.22	1714.15
183.44	1589.22
183.66	1867.75
183.89	1841.12
184.11	1665.00
184.33	1716.20
184.55	1681.38
184.77	1800.16
184.99	1724.39
185.21	1697.77
185.43	1849.32
185.65	1742.82
185.87	1755.11
186.10	1845.22
186.32	1927.14
186.54	1769.44
186.76	1667.05
186.98	1710.05
187.20	1630.18
187.42	1691.62
187.64	1683.43
187.86	1701.86
188.08	1671.14
188.30	1626.09
188.52	1699.81
188.75	1847.27
188.97	1695.72
189.19	1714.15
189.41	1675.24
189.63	1671.14
189.85	1683.43
190.07	1642.47
190.29	1640.42
190.51	1714.15
190.73	1671.14
190.95	1765.35
191.17	1738.73
191.39	1640.42
191.61	1607.66
191.84	1619.94
192.06	1718.25
192.28	1691.62
192.50	1910.75
192.72	1695.72
192.94	1710.05
193.16	1755.11
193.38	1738.73
193.60	1636.33
193.82	1732.58
194.04	1605.61
194.26	1779.68
194.48	1665.00
194.70	1683.43
194.92	1642.47
195.14	1699.81
195.36	1630.18
195.58	1691.62
195.80	1619.94
196.02	1665.00
196.24	1685.48
196.46	1648.61
196.69	1683.43
196.91	1820.64
197.13	1683.43
197.35	1644.52
197.57	1773.54
197.79	1691.62
198.01	1726.44
198.23	1761.25
198.45	1726.44
198.67	1609.70
198.89	1683.43
199.11	1757.16
199.33	1646.57
199.55	1587.18
199.77	1691.62
199.99	1857.51
200.21	1636.33
200.43	1779.68
200.65	1607.66
200.87	1576.94
201.09	1710.05
201.31	1695.72
201.53	1699.81
201.75	1738.73
201.97	1681.38
202.19	1779.68
202.41	1742.82
202.63	1814.50
202.85	1724.39
203.07	1744.87
203.29	1685.48
203.51	1619.94
203.73	1574.89
203.95	1845.22
204.17	1728.49
204.39	1708.01
204.61	1648.61
204.83	1748.97
205.05	1726.44
205.27	1730.53
205.49	1865.70
205.71	1673.19
205.93	1560.55
206.15	1687.53
206.37	1802.21
206.59	1701.86
206.81	1650.66
207.03	1642.47
207.25	1636.33
207.47	1839.08
207.69	1763.30
207.91	1832.93
208.13	1771.49
208.34	1611.75
208.56	1675.24
208.78	1740.77
209.00	1695.72
209.22	1613.80
209.44	1572.84
209.66	1644.52
209.88	1615.85
210.10	1701.86
210.32	1658.85
210.54	1775.59
210.76	1701.86
210.98	1644.52
211.20	1648.61
211.42	1697.77
211.64	1789.92
211.86	1697.77
212.08	1701.86
212.30	1681.38
212.52	1708.01
212.74	1660.90
212.96	1728.49
213.17	1689.57
213.39	1675.24
213.61	1697.77
213.83	1687.53
214.05	1632.23
214.27	1769.44
214.49	1665.00
214.71	1572.84
214.93	1757.16
215.15	1615.85
215.37	1789.92
215.59	1570.79
215.81	1693.67
216.03	1763.30
216.24	1669.09
216.46	1619.94
216.68	1716.20
216.90	1757.16
217.12	1738.73
217.34	1673.19
217.56	1714.15
217.78	1832.93
218.00	1730.53
218.22	1667.05
218.44	1691.62
218.66	1681.38
218.87	1787.88
219.09	1658.85
219.31	1728.49
219.53	1755.11
219.75	1683.43
219.97	1740.77
220.19	1724.39
220.41	1726.44
220.63	1757.16
220.85	1779.68
221.06	1665.00
221.28	1802.21
221.50	1744.87
221.72	1671.14
221.94	1677.29
222.16	1681.38
222.38	1867.75
222.60	1759.21
222.82	1658.85
223.03	1679.33
223.25	1644.52
223.47	1683.43
223.69	1798.12
223.91	1718.25
224.13	1730.53
224.35	1665.00
224.57	1656.81
224.78	1771.49
225.00	1626.09
225.22	1642.47
225.44	1720.29
225.66	1736.68
225.88	1656.81
226.10	1650.66
226.32	1689.57
226.53	1779.68
226.75	1724.39
226.97	1615.85
227.19	1722.34
227.41	1658.85
227.63	1632.23
227.85	1607.66
228.06	1722.34
228.28	1652.71
228.50	1710.05
228.72	1658.85
228.94	1626.09
229.16	1638.38
229.37	1648.61
229.59	1695.72
229.81	1767.40
230.03	1609.70
230.25	1595.37
230.47	1650.66
230.69	1638.38
230.90	1800.16
231.12	1675.24
231.34	1736.68
231.56	1769.44
231.78	1648.61
232.00	1748.97
232.21	1683.43
232.43	1656.81
232.65	1693.67
232.87	1697.77
233.09	1583.08
233.30	1710.05
233.52	1781.73
233.74	1677.29
233.96	1646.57
234.18	1689.57
234.40	1746.92
234.61	1804.26
234.83	1589.22
235.05	1621.99
235.27	1808.36
235.49	1730.53
235.70	1691.62
235.92	1742.82
236.14	1738.73
236.36	1888.23
236.58	1665.00
236.79	1675.24
237.01	1695.72
237.23	1710.05
237.45	1837.03
237.67	1650.66
237.88	1718.25
238.10	1818.60
238.32	1578.98
238.54	1681.38
238.76	1669.09
238.97	1640.42
239.19	1665.00
239.41	1675.24
239.63	1734.63
239.85	1697.77
240.06	1681.38
240.28	1662.95
240.50	1755.11
240.72	1673.19
240.93	1734.63
241.15	1775.59
241.37	1658.85
241.59	1828.84
241.81	1589.22
242.02	1705.96
242.24	1669.09
242.46	1748.97
242.68	1724.39
242.89	1642.47
243.11	1779.68
243.33	1685.48
243.55	1701.86
243.76	1677.29
243.98	1533.93
244.20	1734.63
244.42	1708.01
244.64	1640.42
244.85	1644.52
245.07	1671.14
245.29	1822.69
245.51	1679.33
245.72	1722.34
245.94	1669.09
246.16	1728.49
246.38	1714.15
246.59	1701.86
246.81	1667.05
247.03	1646.57
247.24	1634.28
247.46	1646.57
247.68	1671.14
247.90	1697.77
248.11	1634.28
248.33	1697.77
248.55	1642.47
248.77	1753.06
248.98	1748.97
249.20	1832.93
249.42	1669.09
249.64	1675.24
249.85	1740.77
250.07	1646.57
250.29	1724.39
250.50	1748.97
250.72	1564.65
250.94	1724.39
251.16	1845.22
251.37	1755.11
251.59	1773.54
251.81	1697.77
252.02	1761.25
252.24	1632.23
252.46	1708.01
252.68	1626.09
252.89	1691.62
253.11	1591.27
253.33	1769.44
253.54	1855.46
253.76	1591.27
253.98	1667.05
254.20	1665.00
254.41	1636.33
254.63	1667.05
254.85	1566.70
255.06	1677.29
255.28	1699.81
255.50	1644.52
255.71	1642.47
255.93	1652.71
256.15	1697.77
256.36	1732.58
256.58	1681.38
256.80	1755.11
257.02	1683.43
257.23	1646.57
257.45	1763.30
257.67	1738.73
257.88	1654.76
258.10	1630.18
258.32	1677.29
258.53	1761.25
258.75	1800.16
258.97	1619.94
259.18	1798.12
259.40	1730.53
259.62	1865.70
259.83	1777.64
260.05	1665.00
260.27	1992.67
260.48	1642.47
260.70	1578.98
260.92	1695.72
261.13	1728.49
261.35	1712.10
261.57	1738.73
261.78	1583.08
262.00	1665.00
262.22	1753.06
262.43	1689.57
262.65	1800.16
262.86	1708.01
263.08	1804.26
263.30	1740.77
263.51	1644.52
263.73	1638.38
263.95	1804.26
264.16	1640.42
264.38	1732.58
264.60	1730.53
264.81	1746.92
265.03	1808.36
265.25	1808.36
265.46	1677.29
265.68	1675.24
265.89	1816.55
266.11	1603.56
266.33	1726.44
266.54	1818.60
266.76	1689.57
266.98	1746.92
267.19	1660.90
267.41	1824.74
267.62	1691.62
267.84	1626.09
268.06	1785.83
268.27	1642.47
268.49	1669.09
268.70	1722.34
268.92	1660.90
269.14	1644.52
269.35	1716.20
269.57	1693.67
269.79	1718.25
270.00	1683.43
270.22	1812.45
270.43	1669.09
270.65	1558.50
270.87	1736.68
271.08	1755.11
271.30	1697.77
271.51	1724.39
271.73	1742.82
271.95	1734.63
272.16	1744.87
272.38	1710.05
272.59	1744.87
272.81	1740.77
273.02	1753.06
273.24	1665.00
273.46	1730.53
273.67	1646.57
273.89	1650.66
274.10	1646.57
274.32	1785.83
274.54	1652.71
274.75	1648.61
274.97	1652.71
275.18	1728.49
275.40	1708.01
275.61	1730.53
275.83	1734.63
276.05	1611.75
276.26	1691.62
276.48	1742.82
276.69	1634.28
276.91	1681.38
277.12	1763.30
277.34	1679.33
277.55	1832.93
277.77	1710.05
277.99	1685.48
278.20	1599.46
278.42	1599.46
278.63	1673.19
278.85	1697.77
279.06	1693.67
279.28	1712.10
279.49	1720.29
279.71	1757.16
279.93	1648.61
280.14	1722.34
280.36	1689.57
280.57	1796.07
280.79	1658.85
281.00	1607.66
281.22	1710.05
281.43	1722.34
281.65	1687.53
281.86	1677.29
282.08	1714.15
282.29	1765.35
282.51	1669.09
282.73	1591.27
282.94	1599.46
283.16	1634.28
283.37	1701.86
283.59	1681.38
283.80	1710.05
284.02	1736.68
284.23	1712.10
284.45	1681.38
284.66	1599.46
284.88	1660.90
285.09	1734.63
285.31	1746.92
285.52	1740.77
285.74	1601.51
285.95	1755.11
286.17	1779.68
286.38	1732.58
286.60	1671.14
286.81	1585.13
287.03	1669.09
287.24	1677.29
287.46	1777.64
287.67	1675.24
287.89	1849.32
288.10	1638.38
288.32	1634.28
288.53	1820.64
288.75	1654.76
288.96	1646.57
289.18	1679.33
289.39	1636.33
289.61	1738.73
289.82	1800.16
290.04	1726.44
290.25	1638.38
290.47	1681.38
290.68	1673.19
290.90	1742.82
291.11	1738.73
291.33	1804.26
291.54	1660.90
291.76	1705.96
291.97	1673.19
292.18	1738.73
292.40	1689.57
292.61	1656.81
292.83	1837.03
293.04	1744.87
293.26	1665.00
293.47	1701.86
293.69	1667.05
293.90	1777.64
294.12	1798.12
294.33	1701.86
294.55	1656.81
294.76	1724.39
294.97	1775.59
295.19	1837.03
295.40	1595.37
295.62	1718.25
295.83	1730.53
296.05	1712.10
296.26	1742.82
296.48	1632.23
296.69	1681.38
296.90	1691.62
297.12	1726.44
297.33	1675.24
297.55	1800.16
297.76	1740.77
297.98	1759.21
298.19	1748.97
298.41	1552.36
298.62	1648.61
298.83	1802.21
299.05	1654.76
299.26	1681.38
299.48	1708.01
299.69	1759.21
299.90	1716.20
300.12	1576.94
300.33	1714.15
300.55	1646.57
300.76	1730.53
300.98	1665.00
301.19	1720.29
301.40	1759.21
301.62	1673.19
301.83	1665.00
302.05	1746.92
302.26	1679.33
302.47	1697.77
302.69	1654.76
302.90	1669.09
303.12	1603.56
303.33	1728.49
303.54	1804.26
303.76	1714.15
303.97	1732.58
304.19	1763.30
304.40	1624.04
304.61	1693.67
304.83	1763.30
305.04	1751.01
305.26	1730.53
305.47	1634.28
305.68	1710.05
305.90	1642.47
306.11	1828.84
306.33	1656.81
306.54	1712.10
306.75	1662.95
306.97	1603.56
307.18	1613.80
307.39	1632.23
307.61	1710.05
307.82	1626.09
308.04	1720.29
308.25	1728.49
308.46	1728.49
308.68	1673.19
308.89	1640.42
309.10	1699.81
309.32	1763.30
309.53	1738.73
309.74	1695.72
309.96	1710.05
310.17	1771.49
310.39	1673.19
310.60	1748.97
310.81	1701.86
311.03	1660.90
311.24	1720.29
311.45	1691.62
311.67	1769.44
311.88	1773.54
312.09	1656.81
312.31	1744.87
312.52	1628.14
312.73	1701.86
312.95	1662.95
313.16	1667.05
313.37	1730.53
313.59	1718.25
313.80	1716.20
314.01	1757.16
314.23	1634.28
314.44	1652.71
314.65	1648.61
314.87	1632.23
315.08	1624.04
315.29	1710.05
315.51	1642.47
315.72	1728.49
315.93	1789.92
316.15	1703.91
316.36	1660.90
316.57	1681.38
316.79	1751.01
317.00	1652.71
317.21	1738.73
317.43	1665.00
317.64	1708.01
317.85	1652.71
318.07	1701.86
318.28	1660.90
318.49	1800.16
318.70	1861.60
318.92	1789.92
319.13	1822.69
319.34	1918.95
319.56	1804.26
319.77	1800.16
319.98	1748.97
320.20	1837.03
320.41	1808.36
320.62	1662.95
320.83	1687.53
321.05	1861.60
321.26	1732.58
321.47	1665.00
321.69	1775.59
321.90	1538.02
322.11	1605.61
322.32	1771.49
322.54	1773.54
322.75	1654.76
322.96	1857.51
323.18	1669.09
323.39	1609.70
323.60	1685.48
323.81	1691.62
324.03	1740.77
324.24	1728.49
324.45	1685.48
324.66	1718.25
324.88	1759.21
325.09	1748.97
325.30	1718.25
325.52	1789.92
325.73	1751.01
325.94	1685.48
326.15	1695.72
326.37	1712.10
326.58	1695.72
326.79	1728.49
327.00	1693.67
327.22	1697.77
327.43	1689.57
327.64	1656.81
327.85	1691.62
328.07	1789.92
328.28	1828.84
328.49	1693.67
328.70	1712.10
328.92	1722.34
329.13	1689.57
329.34	1748.97
329.55	1812.45
329.76	1716.20
329.98	1710.05
330.19	1855.46
330.40	1775.59
330.61	1660.90
330.83	1738.73
331.04	1638.38
331.25	1677.29
331.46	1699.81
331.68	1677.29
331.89	1798.12
332.10	1671.14
332.31	1615.85
332.52	1710.05
332.74	1769.44
332.95	1615.85
333.16	1689.57
333.37	1730.53
333.58	1683.43
333.80	1695.72
334.01	1591.27
334.22	1634.28
334.43	1671.14
334.64	1665.00
334.86	1673.19
335.07	1642.47
335.28	1763.30
335.49	1687.53
335.70	1734.63
335.92	1705.96
336.13	1796.07
336.34	1751.01
336.55	1714.15
336.76	1728.49
336.98	1632.23
337.19	1683.43
337.40	1767.40
337.61	1763.30
337.82	1644.52
338.04	1724.39
338.25	1681.38
338.46	1652.71
338.67	1673.19
338.88	1644.52
339.09	1654.76
339.31	1630.18
339.52	1630.18
339.73	1652.71
339.94	1691.62
340.15	1728.49
340.36	1587.18
340.58	1697.77
340.79	1634.28
341.00	1718.25
341.21	1677.29
341.42	1789.92
341.63	1667.05
341.85	1722.34
342.06	1720.29
342.27	1640.42
342.48	1691.62
342.69	1718.25
342.90	1667.05
343.12	1697.77
343.33	1677.29
343.54	1708.01
343.75	1687.53
343.96	1665.00
344.17	1660.90
344.38	1689.57
344.60	1724.39
344.81	1677.29
345.02	1662.95
345.23	1767.40
345.44	1787.88
345.65	1796.07
345.86	1718.25
346.07	1648.61
346.29	1613.80
346.50	1724.39
346.71	1740.77
346.92	1785.83
347.13	1810.40
347.34	1695.72
347.55	1734.63
347.76	1722.34
347.98	1538.02
348.19	1632.23
348.40	1771.49
348.61	1675.24
348.82	1744.87
349.03	1736.68
349.24	1705.96
349.45	1783.78
349.66	1591.27
349.88	1693.67
350.09	1652.71
350.30	1798.12
350.51	1845.22
350.72	1767.40
350.93	1769.44
351.14	1691.62
351.35	1705.96
351.56	1748.97
351.77	1669.09
351.99	1695.72
352.20	1828.84
352.41	1697.77
352.62	1519.59
352.83	1615.85
353.04	1722.34
353.25	1675.24
353.46	1765.35
353.67	1708.01
353.88	1544.17
354.09	1734.63
354.30	1662.95
354.52	1710.05
354.73	1705.96
354.94	1730.53
355.15	1730.53
355.36	1763.30
355.57	1703.91
355.78	1669.09
355.99	1671.14
356.20	1658.85
356.41	1716.20
356.62	1675.24
356.83	1689.57
357.04	1742.82
357.25	1603.56
357.46	1710.05
357.68	1689.57
357.89	1669.09
358.10	1806.31
358.31	1726.44
358.52	1695.72
358.73	1695.72
358.94	1675.24
359.15	1699.81
359.36	1759.21
359.57	1748.97
359.78	1640.42
359.99	1677.29
360.20	1695.72
360.41	1660.90
360.62	1773.54
360.83	1724.39
361.04	1691.62
361.25	1665.00
361.46	1775.59
361.67	1724.39
361.88	1736.68
362.09	1769.44
362.30	1720.29
362.51	1687.53
362.72	1650.66
362.93	1726.44
363.14	1677.29
363.35	1716.20
363.56	1603.56
363.78	1783.78
363.99	1787.88
364.20	1683.43
364.41	1748.97
364.62	1880.04
364.83	1814.50
365.04	1705.96
365.25	1679.33
365.46	1845.22
365.67	1630.18
365.88	1687.53
366.09	1671.14
366.30	1583.08
366.51	1677.29
366.72	1607.66
366.93	1710.05
367.14	1724.39
367.35	1742.82
367.56	1718.25
367.77	1834.98
367.98	1660.90
368.18	1675.24
368.39	1714.15
368.60	1613.80
368.81	1714.15
369.02	1660.90
369.23	1732.58
369.44	1533.93
369.65	1675.24
369.86	1681.38
370.07	1673.19
370.28	1630.18
370.49	1744.87
370.70	1818.60
370.91	1624.04
371.12	1738.73
371.33	1765.35
371.54	1673.19
371.75	1867.75
371.96	1652.71
372.17	1636.33
372.38	1748.97
372.59	1802.21
372.80	1671.14
373.01	1662.95
373.22	1718.25
373.43	1730.53
373.64	1669.09
373.85	1742.82
374.06	1761.25
374.26	1763.30
374.47	1730.53
374.68	1767.40
374.89	1697.77
375.10	1677.29
375.31	1751.01
375.52	1652.71
375.73	1787.88
375.94	1667.05
376.15	1806.31
376.36	1601.51
376.57	1654.76
376.78	1705.96
376.99	1720.29
377.20	1781.73
377.40	1671.14
377.61	1826.79
377.82	1621.99
378.03	1785.83
378.24	1708.01
378.45	1708.01
378.66	1744.87
378.87	1595.37
379.08	1597.42
379.29	1638.38
379.50	1755.11
379.71	1652.71
379.91	1781.73
380.12	1671.14
380.33	1716.20
380.54	1753.06
380.75	1677.29
380.96	1724.39
381.17	1720.29
381.38	1769.44
381.59	1732.58
381.80	1720.29
382.00	1900.52
382.21	1677.29
382.42	1890.28
382.63	1859.56
382.84	1753.06
383.05	1665.00
383.26	1763.30
383.47	1710.05
383.68	1712.10
383.88	1710.05
384.09	1785.83
384.30	1902.56
384.51	1728.49
384.72	1687.53
384.93	1638.38
385.14	1632.23
385.35	1705.96
385.55	1566.70
385.76	1714.15
385.97	1687.53
386.18	1593.32
386.39	1685.48
386.60	1673.19
386.81	1722.34
387.02	1693.67
387.22	1675.24
387.43	1849.32
387.64	1763.30
387.85	1796.07
388.06	2248.67
388.27	4276.16
388.48	6791.06
388.68	8462.21
388.89	9770.86
389.10	10028.90
389.31	8761.21
389.52	7849.86
389.73	6946.71
389.93	6301.60
390.14	6006.69
390.35	5238.70
390.56	4691.90
390.77	3841.99
390.98	2996.18
391.18	2516.95
391.39	2172.89
391.60	1882.08
391.81	1822.69
392.02	1665.00
392.23	1816.55
392.43	1759.21
392.64	1757.16
392.85	1742.82
393.06	1767.40
393.27	1705.96
393.47	1669.09
393.68	1683.43
393.89	1679.33
394.10	1820.64
394.31	1712.10
394.52	1699.81
394.72	1685.48
394.93	1728.49
395.14	1544.17
395.35	1703.91
395.56	1691.62
395.76	1736.68
395.97	1804.26
396.18	1865.70
396.39	1880.04
396.60	2035.68
396.80	1927.14
397.01	1796.07
397.22	1783.78
397.43	1828.84
397.64	1689.57
397.84	1853.41
398.05	1832.93
398.26	1724.39
398.47	1757.16
398.67	1701.86
398.88	1732.58
399.09	1767.40
399.30	1673.19
399.51	1761.25
399.71	1665.00
399.92	1634.28
400.13	1748.97
400.34	1621.99
400.54	1679.33
400.75	1796.07
400.96	1662.95
401.17	1769.44
401.37	1665.00
401.58	1667.05
401.79	1748.97
402.00	1845.22
402.21	2066.40
402.41	1873.89
402.62	1992.67
402.83	2043.87
403.04	1980.39
403.24	2162.66
403.45	1808.36
403.66	1931.23
403.87	1867.75
404.07	1929.19
404.28	1851.36
404.49	1808.36
404.70	1710.05
404.90	1763.30
405.11	1667.05
405.32	1705.96
405.52	1734.63
405.73	1646.57
405.94	1615.85
406.15	1638.38
406.35	1771.49
406.56	1748.97
406.77	1673.19
406.98	1693.67
407.18	1701.86
407.39	1753.06
407.60	1697.77
407.80	1718.25
408.01	1701.86
408.22	1705.96
408.43	1650.66
408.63	1675.24
408.84	1683.43
409.05	1730.53
409.25	1683.43
409.46	1648.61
409.67	1722.34
409.88	1710.05
410.08	1744.87
410.29	1665.00
410.50	1740.77
410.70	1742.82
410.91	1703.91
411.12	1650.66
411.32	1675.24
411.53	1691.62
411.74	1796.07
411.95	1787.88
412.15	1628.14
412.36	1828.84
412.57	1748.97
412.77	1771.49
412.98	1748.97
413.19	1695.72
413.39	1748.97
413.60	1703.91
413.81	1769.44
414.01	1617.90
414.22	1753.06
414.43	1693.67
414.63	1755.11
414.84	1689.57
415.05	1730.53
415.25	1581.03
415.46	1724.39
415.67	1691.62
415.87	1697.77
416.08	1712.10
416.29	1693.67
416.49	1767.40
416.70	1693.67
416.91	1697.77
417.11	1677.29
417.32	1716.20
417.53	1742.82
417.73	1740.77
417.94	1669.09
418.15	1732.58
418.35	1742.82
418.56	1701.86
418.77	1769.44
418.97	1632.23
419.18	1660.90
419.38	1603.56
419.59	1656.81
419.80	1775.59
420.00	1685.48
420.21	1662.95
420.42	1757.16
420.62	1681.38
420.83	1632.23
421.04	1658.85
421.24	1642.47
421.45	1773.54
421.65	1755.11
421.86	1632.23
422.07	1730.53
422.27	1714.15
422.48	1683.43
422.69	1603.56
422.89	1662.95
423.10	1738.73
423.30	1654.76
423.51	1787.88
423.72	1693.67
423.92	1783.78
424.13	1632.23
424.33	1742.82
424.54	1730.53
424.75	1718.25
424.95	1837.03
425.16	1722.34
425.36	1710.05
425.57	1771.49
425.78	1728.49
425.98	1673.19
426.19	1718.25
426.39	1677.29
426.60	1640.42
426.81	1708.01
427.01	1765.35
427.22	1697.77
427.42	1626.09
427.63	1607.66
427.83	1775.59
428.04	1726.44
428.25	1824.74
428.45	1796.07
428.66	1763.30
428.86	1740.77
429.07	1669.09
429.28	1722.34
429.48	1722.34
429.69	1628.14
429.89	1734.63
430.10	1640.42
430.30	1726.44
430.51	1777.64
430.71	1644.52
430.92	1710.05
431.13	1636.33
431.33	1755.11
431.54	1710.05
431.74	1808.36
431.95	1859.56
432.15	1683.43
432.36	1699.81
432.56	1728.49
432.77	1855.46
432.98	1841.12
433.18	1708.01
433.39	1677.29
433.59	1660.90
433.80	1859.56
434.00	1871.84
434.21	1658.85
434.41	1730.53
434.62	1812.45
434.82	1693.67
435.03	1617.90
435.23	1748.97
435.44	1681.38
435.64	1701.86
435.85	1722.34
436.06	1728.49
436.26	1718.25
436.47	1685.48
436.67	1726.44
436.88	1701.86
437.08	1708.01
437.29	1779.68
437.49	1732.58
437.70	1773.54
437.90	1726.44
438.11	1822.69
438.31	1742.82
438.52	1898.47
438.72	1884.13
438.93	1877.99
439.13	1771.49
439.34	1869.80
439.54	1775.59
439.75	1791.97
439.95	1812.45
440.16	1681.38
440.36	1703.91
440.57	1767.40
440.77	1818.60
440.98	1755.11
441.18	1800.16
441.39	1691.62
441.59	1626.09
441.80	1843.17
442.00	1705.96
442.21	1873.89
442.41	1724.39
442.62	1755.11
442.82	1669.09
443.02	1693.67
443.23	1789.92
443.43	1744.87
443.64	1888.23
443.84	1648.61
444.05	1837.03
444.25	1665.00
444.46	1671.14
444.66	1724.39
444.87	1886.18
445.07	1638.38
445.28	1726.44
445.48	1859.56
445.69	1746.92
445.89	1888.23
446.09	1804.26
446.30	1994.72
446.50	2621.40
446.71	3780.55
446.91	4261.82
447.12	4741.05
447.32	4775.86
447.53	4343.74
447.73	3950.53
447.93	3561.42
448.14	3368.91
448.34	3278.80
448.55	2949.08
448.75	2856.92
448.96	2693.08
449.16	2351.07
449.36	2222.05
449.57	2054.11
449.77	1830.88
449.98	1812.45
450.18	1841.12
450.39	1783.78
450.59	1789.92
450.79	1771.49
451.00	1734.63
451.20	1783.78
451.41	1705.96
451.61	1812.45
451.81	1718.25
452.02	1714.15
452.22	1697.77
452.43	1609.70
452.63	1718.25
