SpectraSuite Data File
++++++++++++++++++++++++++++++++++++
Date: Mon Jun 06 13:06:57 CEST 2016
User: root
Dark Spectrum Present: No
Reference Spectrum Present: No
Number of Sampled Component Spectra: 1
Spectrometers: USB4C02835
Integration Time (usec): 100000 (USB4C02835)
Spectra Averaged: 1 (USB4C02835)
Boxcar Smoothing: 0 (USB4C02835)
Correct for Electrical Dark: No (USB4C02835)
Strobe/Lamp Enabled: No (USB4C02835)
Correct for Detector Non-linearity: No (USB4C02835)
Correct for Stray Light: No (USB4C02835)
Number of Pixels in Processed Spectrum: 3648
>>>>>Begin Processed Spectral Data<<<<<
177.47	1386.47
177.69	1386.47
177.91	1386.47
178.13	1423.34
178.36	1499.11
178.58	1660.90
178.80	1734.63
179.02	1593.32
179.24	1589.22
179.46	1697.77
179.68	1775.59
179.90	1650.66
180.13	1636.33
180.35	1714.15
180.57	1710.05
180.79	1781.73
181.01	1724.39
181.23	1744.87
181.45	1736.68
181.67	1677.29
181.90	1761.25
182.12	1593.32
182.34	1675.24
182.56	1671.14
182.78	1722.34
183.00	1734.63
183.22	1744.87
183.44	1607.66
183.66	1875.94
183.89	1845.22
184.11	1689.57
184.33	1753.06
184.55	1738.73
184.77	1699.81
184.99	1697.77
185.21	1632.23
185.43	1757.16
185.65	1710.05
185.87	1685.48
186.10	1751.01
186.32	1779.68
186.54	1791.97
186.76	1763.30
186.98	1710.05
187.20	1708.01
187.42	1587.18
187.64	1689.57
187.86	1734.63
188.08	1689.57
188.30	1662.95
188.52	1736.68
188.75	1783.78
188.97	1839.08
189.19	1609.70
189.41	1675.24
189.63	1738.73
189.85	1662.95
190.07	1714.15
190.29	1697.77
190.51	1810.40
190.73	1660.90
190.95	1777.64
191.17	1769.44
191.39	1638.38
191.61	1720.29
191.84	1665.00
192.06	1800.16
192.28	1556.46
192.50	1896.42
192.72	1679.33
192.94	1730.53
193.16	1763.30
193.38	1748.97
193.60	1710.05
193.82	1699.81
194.04	1734.63
194.26	1767.40
194.48	1699.81
194.70	1675.24
194.92	1640.42
195.14	1814.50
195.36	1638.38
195.58	1720.29
195.80	1679.33
196.02	1634.28
196.24	1716.20
196.46	1738.73
196.69	1695.72
196.91	1886.18
197.13	1642.47
197.35	1691.62
197.57	1791.97
197.79	1769.44
198.01	1738.73
198.23	1714.15
198.45	1781.73
198.67	1632.23
198.89	1769.44
199.11	1736.68
199.33	1652.71
199.55	1595.37
199.77	1705.96
199.99	1785.83
200.21	1683.43
200.43	1624.04
200.65	1658.85
200.87	1585.13
201.09	1732.58
201.31	1685.48
201.53	1738.73
201.75	1701.86
201.97	1718.25
202.19	1693.67
202.41	1644.52
202.63	1812.45
202.85	1724.39
203.07	1763.30
203.29	1710.05
203.51	1574.89
203.73	1646.57
203.95	1880.04
204.17	1718.25
204.39	1722.34
204.61	1667.05
204.83	1720.29
205.05	1742.82
205.27	1714.15
205.49	1824.74
205.71	1673.19
205.93	1587.18
206.15	1689.57
206.37	1689.57
206.59	1671.14
206.81	1609.70
207.03	1642.47
207.25	1636.33
207.47	1742.82
207.69	1679.33
207.91	1748.97
208.13	1722.34
208.34	1681.38
208.56	1685.48
208.78	1734.63
209.00	1656.81
209.22	1630.18
209.44	1718.25
209.66	1609.70
209.88	1687.53
210.10	1681.38
210.32	1691.62
210.54	1736.68
210.76	1611.75
210.98	1787.88
211.20	1642.47
211.42	1726.44
211.64	1748.97
211.86	1701.86
212.08	1718.25
212.30	1712.10
212.52	1699.81
212.74	1708.01
212.96	1687.53
213.17	1736.68
213.39	1701.86
213.61	1714.15
213.83	1794.02
214.05	1619.94
214.27	1712.10
214.49	1648.61
214.71	1648.61
214.93	1798.12
215.15	1634.28
215.37	1765.35
215.59	1595.37
215.81	1712.10
216.03	1794.02
216.24	1759.21
216.46	1669.09
216.68	1683.43
216.90	1742.82
217.12	1751.01
217.34	1679.33
217.56	1634.28
217.78	1761.25
218.00	1695.72
218.22	1615.85
218.44	1656.81
218.66	1656.81
218.87	1826.79
219.09	1705.96
219.31	1751.01
219.53	1753.06
219.75	1671.14
219.97	1665.00
220.19	1640.42
220.41	1673.19
220.63	1771.49
220.85	1773.54
221.06	1679.33
221.28	1759.21
221.50	1746.92
221.72	1734.63
221.94	1765.35
222.16	1681.38
222.38	1761.25
222.60	1740.77
222.82	1697.77
223.03	1771.49
223.25	1597.42
223.47	1736.68
223.69	1816.55
223.91	1648.61
224.13	1634.28
224.35	1650.66
224.57	1685.48
224.78	1740.77
225.00	1638.38
225.22	1722.34
225.44	1714.15
225.66	1689.57
225.88	1720.29
226.10	1746.92
226.32	1740.77
226.53	1705.96
226.75	1673.19
226.97	1667.05
227.19	1726.44
227.41	1673.19
227.63	1560.55
227.85	1603.56
228.06	1740.77
228.28	1703.91
228.50	1767.40
228.72	1669.09
228.94	1685.48
229.16	1570.79
229.37	1650.66
229.59	1554.41
229.81	1794.02
230.03	1738.73
230.25	1626.09
230.47	1624.04
230.69	1718.25
230.90	1716.20
231.12	1675.24
231.34	1675.24
231.56	1767.40
231.78	1576.94
232.00	1626.09
232.21	1652.71
232.43	1654.76
232.65	1566.70
232.87	1705.96
233.09	1632.23
233.30	1644.52
233.52	1689.57
233.74	1691.62
233.96	1710.05
234.18	1695.72
234.40	1685.48
234.61	1812.45
234.83	1617.90
235.05	1642.47
235.27	1759.21
235.49	1771.49
235.70	1669.09
235.92	1742.82
236.14	1703.91
236.36	1818.60
236.58	1607.66
236.79	1693.67
237.01	1697.77
237.23	1687.53
237.45	1789.92
237.67	1654.76
237.88	1677.29
238.10	1771.49
238.32	1630.18
238.54	1609.70
238.76	1681.38
238.97	1648.61
239.19	1648.61
239.41	1820.64
239.63	1662.95
239.85	1695.72
240.06	1765.35
240.28	1650.66
240.50	1802.21
240.72	1689.57
240.93	1669.09
241.15	1759.21
241.37	1703.91
241.59	1759.21
241.81	1677.29
242.02	1667.05
242.24	1640.42
242.46	1695.72
242.68	1716.20
242.89	1755.11
243.11	1761.25
243.33	1701.86
243.55	1720.29
243.76	1714.15
243.98	1634.28
244.20	1703.91
244.42	1697.77
244.64	1714.15
244.85	1683.43
245.07	1648.61
245.29	1714.15
245.51	1777.64
245.72	1820.64
245.94	1722.34
246.16	1777.64
246.38	1738.73
246.59	1609.70
246.81	1681.38
247.03	1640.42
247.24	1615.85
247.46	1646.57
247.68	1693.67
247.90	1703.91
248.11	1669.09
248.33	1773.54
248.55	1763.30
248.77	1804.26
248.98	1705.96
249.20	1794.02
249.42	1660.90
249.64	1736.68
249.85	1744.87
250.07	1640.42
250.29	1757.16
250.50	1683.43
250.72	1613.80
250.94	1689.57
251.16	1746.92
251.37	1787.88
251.59	1701.86
251.81	1812.45
252.02	1775.59
252.24	1669.09
252.46	1755.11
252.68	1714.15
252.89	1671.14
253.11	1640.42
253.33	1820.64
253.54	1791.97
253.76	1626.09
253.98	1691.62
254.20	1677.29
254.41	1638.38
254.63	1677.29
254.85	1613.80
255.06	1626.09
255.28	1765.35
255.50	1708.01
255.71	1648.61
255.93	1669.09
256.15	1691.62
256.36	1654.76
256.58	1656.81
256.80	1755.11
257.02	1630.18
257.23	1603.56
257.45	1738.73
257.67	1751.01
257.88	1660.90
258.10	1716.20
258.32	1703.91
258.53	1691.62
258.75	1849.32
258.97	1644.52
259.18	1660.90
259.40	1673.19
259.62	1755.11
259.83	1812.45
260.05	1691.62
260.27	2002.91
260.48	1685.48
260.70	1630.18
260.92	1716.20
261.13	1681.38
261.35	1673.19
261.57	1652.71
261.78	1652.71
262.00	1574.89
262.22	1755.11
262.43	1613.80
262.65	1679.33
262.86	1759.21
263.08	1822.69
263.30	1746.92
263.51	1595.37
263.73	1658.85
263.95	1822.69
264.16	1693.67
264.38	1644.52
264.60	1685.48
264.81	1710.05
265.03	1738.73
265.25	1710.05
265.46	1712.10
265.68	1804.26
265.89	1742.82
266.11	1607.66
266.33	1781.73
266.54	1755.11
266.76	1675.24
266.98	1714.15
267.19	1791.97
267.41	1779.68
267.62	1722.34
267.84	1673.19
268.06	1755.11
268.27	1679.33
268.49	1814.50
268.70	1769.44
268.92	1759.21
269.14	1613.80
269.35	1591.27
269.57	1716.20
269.79	1775.59
270.00	1689.57
270.22	1771.49
270.43	1665.00
270.65	1615.85
270.87	1701.86
271.08	1708.01
271.30	1779.68
271.51	1671.14
271.73	1683.43
271.95	1773.54
272.16	1599.46
272.38	1730.53
272.59	1675.24
272.81	1701.86
273.02	1767.40
273.24	1732.58
273.46	1767.40
273.67	1628.14
273.89	1691.62
274.10	1638.38
274.32	1734.63
274.54	1701.86
274.75	1714.15
274.97	1660.90
275.18	1849.32
275.40	1699.81
275.61	1613.80
275.83	1665.00
276.05	1638.38
276.26	1728.49
276.48	1748.97
276.69	1699.81
276.91	1765.35
277.12	1734.63
277.34	1728.49
277.55	1716.20
277.77	1687.53
277.99	1751.01
278.20	1603.56
278.42	1646.57
278.63	1697.77
278.85	1693.67
279.06	1644.52
279.28	1767.40
279.49	1742.82
279.71	1757.16
279.93	1753.06
280.14	1767.40
280.36	1724.39
280.57	1751.01
280.79	1804.26
281.00	1738.73
281.22	1669.09
281.43	1734.63
281.65	1615.85
281.86	1681.38
282.08	1689.57
282.29	1841.12
282.51	1656.81
282.73	1720.29
282.94	1640.42
283.16	1777.64
283.37	1744.87
283.59	1740.77
283.80	1753.06
284.02	1677.29
284.23	1722.34
284.45	1673.19
284.66	1646.57
284.88	1660.90
285.09	1767.40
285.31	1695.72
285.52	1671.14
285.74	1642.47
285.95	1738.73
286.17	1742.82
286.38	1787.88
286.60	1630.18
286.81	1628.14
287.03	1726.44
287.24	1746.92
287.46	1794.02
287.67	1710.05
287.89	1820.64
288.10	1697.77
288.32	1710.05
288.53	1796.07
288.75	1763.30
288.96	1773.54
289.18	1652.71
289.39	1681.38
289.61	1816.55
289.82	1853.41
290.04	1818.60
290.25	1613.80
290.47	1673.19
290.68	1673.19
290.90	1802.21
291.11	1662.95
291.33	1755.11
291.54	1656.81
291.76	1714.15
291.97	1691.62
292.18	1705.96
292.40	1597.42
292.61	1640.42
292.83	1839.08
293.04	1740.77
293.26	1765.35
293.47	1755.11
293.69	1624.04
293.90	1730.53
294.12	1757.16
294.33	1667.05
294.55	1679.33
294.76	1783.78
294.97	1783.78
295.19	1783.78
295.40	1595.37
295.62	1759.21
295.83	1767.40
296.05	1648.61
296.26	1763.30
296.48	1671.14
296.69	1648.61
296.90	1669.09
297.12	1751.01
297.33	1722.34
297.55	1697.77
297.76	1724.39
297.98	1722.34
298.19	1726.44
298.41	1671.14
298.62	1632.23
298.83	1808.36
299.05	1673.19
299.26	1673.19
299.48	1640.42
299.69	1685.48
299.90	1667.05
300.12	1601.51
300.33	1798.12
300.55	1574.89
300.76	1779.68
300.98	1634.28
301.19	1812.45
301.40	1665.00
301.62	1716.20
301.83	1804.26
302.05	1716.20
302.26	1669.09
302.47	1695.72
302.69	1683.43
302.90	1695.72
303.12	1587.18
303.33	1730.53
303.54	1802.21
303.76	1783.78
303.97	1718.25
304.19	1710.05
304.40	1605.61
304.61	1677.29
304.83	1826.79
305.04	1746.92
305.26	1658.85
305.47	1656.81
305.68	1634.28
305.90	1636.33
306.11	1714.15
306.33	1681.38
306.54	1703.91
306.75	1624.04
306.97	1554.41
307.18	1644.52
307.39	1679.33
307.61	1755.11
307.82	1718.25
308.04	1728.49
308.25	1708.01
308.46	1665.00
308.68	1720.29
308.89	1736.68
309.10	1695.72
309.32	1710.05
309.53	1718.25
309.74	1708.01
309.96	1695.72
310.17	1763.30
310.39	1660.90
310.60	1751.01
310.81	1650.66
311.03	1595.37
311.24	1695.72
311.45	1767.40
311.67	1761.25
311.88	1724.39
312.09	1738.73
312.31	1691.62
312.52	1658.85
312.73	1714.15
312.95	1632.23
313.16	1697.77
313.37	1767.40
313.59	1732.58
313.80	1738.73
314.01	1732.58
314.23	1695.72
314.44	1634.28
314.65	1599.46
314.87	1640.42
315.08	1656.81
315.29	1599.46
315.51	1646.57
315.72	1628.14
315.93	1781.73
316.15	1855.46
316.36	1689.57
316.57	1673.19
316.79	1757.16
317.00	1669.09
317.21	1757.16
317.43	1687.53
317.64	1669.09
317.85	1689.57
318.07	1677.29
318.28	1740.77
318.49	1761.25
318.70	1894.37
318.92	1808.36
319.13	1824.74
319.34	1863.65
319.56	1822.69
319.77	1796.07
319.98	1767.40
320.20	1808.36
320.41	1689.57
320.62	1712.10
320.83	1667.05
321.05	1812.45
321.26	1677.29
321.47	1728.49
321.69	1771.49
321.90	1581.03
322.11	1701.86
322.32	1722.34
322.54	1779.68
322.75	1708.01
322.96	1839.08
323.18	1701.86
323.39	1601.51
323.60	1716.20
323.81	1757.16
324.03	1621.99
324.24	1726.44
324.45	1695.72
324.66	1648.61
324.88	1751.01
325.09	1853.41
325.30	1751.01
325.52	1681.38
325.73	1679.33
325.94	1624.04
326.15	1595.37
326.37	1730.53
326.58	1796.07
326.79	1765.35
327.00	1669.09
327.22	1662.95
327.43	1654.76
327.64	1576.94
327.85	1761.25
328.07	1695.72
328.28	1847.27
328.49	1667.05
328.70	1615.85
328.92	1716.20
329.13	1744.87
329.34	1751.01
329.55	1785.83
329.76	1728.49
329.98	1669.09
330.19	1746.92
330.40	1759.21
330.61	1695.72
330.83	1787.88
331.04	1628.14
331.25	1775.59
331.46	1630.18
331.68	1634.28
331.89	1708.01
332.10	1601.51
332.31	1587.18
332.52	1701.86
332.74	1736.68
332.95	1599.46
333.16	1708.01
333.37	1738.73
333.58	1673.19
333.80	1673.19
334.01	1587.18
334.22	1738.73
334.43	1681.38
334.64	1710.05
334.86	1574.89
335.07	1673.19
335.28	1738.73
335.49	1591.27
335.70	1789.92
335.92	1789.92
336.13	1884.13
336.34	1632.23
336.55	1728.49
336.76	1718.25
336.98	1519.59
337.19	1644.52
337.40	1796.07
337.61	1865.70
337.82	1628.14
338.04	1759.21
338.25	1615.85
338.46	1665.00
338.67	1679.33
338.88	1714.15
339.09	1677.29
339.31	1658.85
339.52	1642.47
339.73	1607.66
339.94	1609.70
340.15	1699.81
340.36	1648.61
340.58	1730.53
340.79	1642.47
341.00	1658.85
341.21	1695.72
341.42	1744.87
341.63	1656.81
341.85	1746.92
342.06	1660.90
342.27	1677.29
342.48	1781.73
342.69	1642.47
342.90	1761.25
343.12	1722.34
343.33	1617.90
343.54	1732.58
343.75	1826.79
343.96	1697.77
344.17	1691.62
344.38	1779.68
344.60	1744.87
344.81	1697.77
345.02	1730.53
345.23	1767.40
345.44	1849.32
345.65	1714.15
345.86	1742.82
346.07	1660.90
346.29	1669.09
346.50	1791.97
346.71	1714.15
346.92	1736.68
347.13	1877.99
347.34	1693.67
347.55	1624.04
347.76	1755.11
347.98	1667.05
348.19	1697.77
348.40	1742.82
348.61	1705.96
348.82	1771.49
349.03	1722.34
349.24	1570.79
349.45	1888.23
349.66	1593.32
349.88	1669.09
350.09	1644.52
350.30	1779.68
350.51	1796.07
350.72	1679.33
350.93	1722.34
351.14	1705.96
351.35	1722.34
351.56	1697.77
351.77	1748.97
351.99	1646.57
352.20	1751.01
352.41	1765.35
352.62	1638.38
352.83	1769.44
353.04	1712.10
353.25	1662.95
353.46	1722.34
353.67	1726.44
353.88	1650.66
354.09	1695.72
354.30	1720.29
354.52	1761.25
354.73	1751.01
354.94	1689.57
355.15	1748.97
355.36	1742.82
355.57	1748.97
355.78	1722.34
355.99	1726.44
356.20	1730.53
356.41	1742.82
356.62	1689.57
356.83	1695.72
357.04	1763.30
357.25	1644.52
357.46	1705.96
357.68	1701.86
357.89	1617.90
358.10	1667.05
358.31	1640.42
358.52	1718.25
358.73	1697.77
358.94	1675.24
359.15	1654.76
359.36	1724.39
359.57	1695.72
359.78	1665.00
359.99	1689.57
360.20	1667.05
360.41	1650.66
360.62	1753.06
360.83	1753.06
361.04	1671.14
361.25	1687.53
361.46	1765.35
361.67	1726.44
361.88	1824.74
362.09	1738.73
362.30	1691.62
362.51	1665.00
362.72	1705.96
362.93	1767.40
363.14	1796.07
363.35	1757.16
363.56	1615.85
363.78	1699.81
363.99	1712.10
364.20	1574.89
364.41	1726.44
364.62	1843.17
364.83	1812.45
365.04	1621.99
365.25	1667.05
365.46	1890.28
365.67	1708.01
365.88	1581.03
366.09	1671.14
366.30	1722.34
366.51	1650.66
366.72	1619.94
366.93	1689.57
367.14	1632.23
367.35	1753.06
367.56	1699.81
367.77	1718.25
367.98	1673.19
368.18	1679.33
368.39	1748.97
368.60	1640.42
368.81	1757.16
369.02	1667.05
369.23	1679.33
369.44	1632.23
369.65	1626.09
369.86	1677.29
370.07	1742.82
370.28	1703.91
370.49	1679.33
370.70	1720.29
370.91	1601.51
371.12	1615.85
371.33	1751.01
371.54	1632.23
371.75	1816.55
371.96	1497.07
372.17	1681.38
372.38	1693.67
372.59	1734.63
372.80	1734.63
373.01	1675.24
373.22	1710.05
373.43	1708.01
373.64	1658.85
373.85	1769.44
374.06	1832.93
374.26	1746.92
374.47	1798.12
374.68	1732.58
374.89	1665.00
375.10	1679.33
375.31	1724.39
375.52	1742.82
375.73	1693.67
375.94	1607.66
376.15	1796.07
376.36	1607.66
376.57	1611.75
376.78	1650.66
376.99	1675.24
377.20	1730.53
377.40	1624.04
377.61	1787.88
377.82	1624.04
378.03	1742.82
378.24	1705.96
378.45	1699.81
378.66	1714.15
378.87	1630.18
379.08	1615.85
379.29	1714.15
379.50	1767.40
379.71	1638.38
379.91	1755.11
380.12	1697.77
380.33	1683.43
380.54	1718.25
380.75	1640.42
380.96	1642.47
381.17	1724.39
381.38	1669.09
381.59	1679.33
381.80	1732.58
382.00	1834.98
382.21	1736.68
382.42	1867.75
382.63	1888.23
382.84	1759.21
383.05	1740.77
383.26	1830.88
383.47	1699.81
383.68	1701.86
383.88	1734.63
384.09	1824.74
384.30	1832.93
384.51	1777.64
384.72	1591.27
384.93	1570.79
385.14	1718.25
385.35	1751.01
385.55	1640.42
385.76	1789.92
385.97	1626.09
386.18	1599.46
386.39	1617.90
386.60	1675.24
386.81	1724.39
387.02	1628.14
387.22	1679.33
387.43	1796.07
387.64	1787.88
387.85	1771.49
388.06	2293.72
388.27	4259.78
388.48	6768.54
388.68	8187.78
388.89	9619.31
389.10	9885.55
389.31	8642.43
389.52	7577.48
389.73	6733.72
389.93	6287.26
390.14	5724.07
390.35	5162.93
390.56	4585.40
390.77	3655.62
390.98	3047.38
391.18	2471.90
391.39	2127.84
391.60	1785.83
391.81	1851.36
392.02	1689.57
392.23	1839.08
392.43	1720.29
392.64	1841.12
392.85	1777.64
393.06	1763.30
393.27	1759.21
393.47	1669.09
393.68	1744.87
393.89	1685.48
394.10	1728.49
394.31	1687.53
394.52	1665.00
394.72	1660.90
394.93	1744.87
395.14	1634.28
395.35	1683.43
395.56	1671.14
395.76	1712.10
395.97	1863.65
396.18	1847.27
396.39	1787.88
396.60	2095.07
396.80	1814.50
397.01	1777.64
397.22	1798.12
397.43	1841.12
397.64	1712.10
397.84	1738.73
398.05	1849.32
398.26	1736.68
398.47	1716.20
398.67	1822.69
398.88	1617.90
399.09	1763.30
399.30	1742.82
399.51	1759.21
399.71	1650.66
399.92	1665.00
400.13	1773.54
400.34	1699.81
400.54	1644.52
400.75	1734.63
400.96	1716.20
401.17	1849.32
401.37	1763.30
401.58	1693.67
401.79	1705.96
402.00	1812.45
402.21	2035.68
402.41	1904.61
402.62	1935.33
402.83	2047.97
403.04	1949.67
403.24	2047.97
403.45	1853.41
403.66	1964.00
403.87	1765.35
404.07	1953.76
404.28	1818.60
404.49	1843.17
404.70	1775.59
404.90	1775.59
405.11	1705.96
405.32	1789.92
405.52	1722.34
405.73	1632.23
405.94	1636.33
406.15	1744.87
406.35	1710.05
406.56	1732.58
406.77	1705.96
406.98	1732.58
407.18	1581.03
407.39	1773.54
407.60	1607.66
407.80	1712.10
408.01	1789.92
408.22	1746.92
408.43	1708.01
408.63	1738.73
408.84	1695.72
409.05	1785.83
409.25	1636.33
409.46	1624.04
409.67	1726.44
409.88	1718.25
410.08	1660.90
410.29	1677.29
410.50	1730.53
410.70	1724.39
410.91	1595.37
411.12	1740.77
411.32	1634.28
411.53	1617.90
411.74	1828.84
411.95	1722.34
412.15	1712.10
412.36	1816.55
412.57	1734.63
412.77	1837.03
412.98	1705.96
413.19	1699.81
413.39	1767.40
413.60	1712.10
413.81	1757.16
414.01	1697.77
414.22	1775.59
414.43	1669.09
414.63	1769.44
414.84	1818.60
415.05	1642.47
415.25	1679.33
415.46	1783.78
415.67	1626.09
415.87	1732.58
416.08	1742.82
416.29	1662.95
416.49	1689.57
416.70	1724.39
416.91	1683.43
417.11	1708.01
417.32	1779.68
417.53	1744.87
417.73	1724.39
417.94	1658.85
418.15	1732.58
418.35	1656.81
418.56	1748.97
418.77	1818.60
418.97	1708.01
419.18	1736.68
419.38	1636.33
419.59	1691.62
419.80	1808.36
420.00	1732.58
420.21	1675.24
420.42	1714.15
420.62	1710.05
420.83	1630.18
421.04	1732.58
421.24	1611.75
421.45	1736.68
421.65	1759.21
421.86	1685.48
422.07	1753.06
422.27	1742.82
422.48	1693.67
422.69	1601.51
422.89	1695.72
423.10	1728.49
423.30	1615.85
423.51	1675.24
423.72	1689.57
423.92	1724.39
424.13	1646.57
424.33	1773.54
424.54	1740.77
424.75	1685.48
424.95	1736.68
425.16	1724.39
425.36	1621.99
425.57	1802.21
425.78	1726.44
425.98	1708.01
426.19	1691.62
426.39	1593.32
426.60	1759.21
426.81	1777.64
427.01	1705.96
427.22	1660.90
427.42	1587.18
427.63	1722.34
427.83	1767.40
428.04	1789.92
428.25	1804.26
428.45	1740.77
428.66	1738.73
428.86	1685.48
429.07	1656.81
429.28	1738.73
429.48	1759.21
429.69	1589.22
429.89	1722.34
430.10	1617.90
430.30	1791.97
430.51	1759.21
430.71	1648.61
430.92	1669.09
431.13	1654.76
431.33	1687.53
431.54	1716.20
431.74	1775.59
431.95	1796.07
432.15	1611.75
432.36	1746.92
432.56	1728.49
432.77	1837.03
432.98	1808.36
433.18	1777.64
433.39	1689.57
433.59	1679.33
433.80	1800.16
434.00	1820.64
434.21	1648.61
434.41	1724.39
434.62	1814.50
434.82	1720.29
435.03	1662.95
435.23	1738.73
435.44	1638.38
435.64	1642.47
435.85	1673.19
436.06	1701.86
436.26	1753.06
436.47	1689.57
436.67	1703.91
436.88	1718.25
437.08	1634.28
437.29	1843.17
437.49	1732.58
437.70	1785.83
437.90	1734.63
438.11	1882.08
438.31	1769.44
438.52	1892.32
438.72	1755.11
438.93	1980.39
439.13	1710.05
439.34	1746.92
439.54	1718.25
439.75	1845.22
439.95	1720.29
440.16	1683.43
440.36	1794.02
440.57	1724.39
440.77	1755.11
440.98	1718.25
441.18	1877.99
441.39	1675.24
441.59	1712.10
441.80	1849.32
442.00	1814.50
442.21	1867.75
442.41	1626.09
442.62	1781.73
442.82	1744.87
443.02	1693.67
443.23	1759.21
443.43	1738.73
443.64	1839.08
443.84	1701.86
444.05	1832.93
444.25	1781.73
444.46	1730.53
444.66	1734.63
444.87	1843.17
445.07	1632.23
445.28	1681.38
445.48	1839.08
445.69	1710.05
445.89	1925.09
446.09	1806.31
446.30	1937.38
446.50	2617.30
446.71	3725.26
446.91	4351.93
447.12	4708.28
447.32	4833.21
447.53	4315.07
447.73	3936.20
447.93	3557.32
448.14	3319.76
448.34	3180.50
448.55	2887.64
448.75	2877.40
448.96	2674.65
449.16	2492.38
449.36	2308.06
449.57	2105.31
449.77	1939.43
449.98	1804.26
450.18	1855.46
450.39	1761.25
450.59	1800.16
450.79	1693.67
451.00	1757.16
451.20	1761.25
451.41	1712.10
451.61	1822.69
451.81	1689.57
452.02	1800.16
452.22	1755.11
452.43	1701.86
452.63	1681.38
