SpectraSuite Data File
++++++++++++++++++++++++++++++++++++
Date: Mon Jun 06 12:47:37 CEST 2016
User: root
Dark Spectrum Present: No
Reference Spectrum Present: No
Number of Sampled Component Spectra: 1
Spectrometers: USB4C02835
Integration Time (usec): 100000 (USB4C02835)
Spectra Averaged: 1 (USB4C02835)
Boxcar Smoothing: 0 (USB4C02835)
Correct for Electrical Dark: No (USB4C02835)
Strobe/Lamp Enabled: No (USB4C02835)
Correct for Detector Non-linearity: No (USB4C02835)
Correct for Stray Light: No (USB4C02835)
Number of Pixels in Processed Spectrum: 3648
>>>>>Begin Processed Spectral Data<<<<<
177.47	1480.68
177.69	1480.68
177.91	1480.68
178.13	1472.49
178.36	1419.24
178.58	1646.57
178.80	1710.05
179.02	1648.61
179.24	1669.09
179.46	1683.43
179.68	1753.06
179.90	1665.00
180.13	1796.07
180.35	1683.43
180.57	1685.48
180.79	1681.38
181.01	1710.05
181.23	1675.24
181.45	1736.68
181.67	1714.15
181.90	1699.81
182.12	1619.94
182.34	1658.85
182.56	1746.92
182.78	1660.90
183.00	1726.44
183.22	1763.30
183.44	1626.09
183.66	1828.84
183.89	1794.02
184.11	1728.49
184.33	1783.78
184.55	1748.97
184.77	1718.25
184.99	1669.09
185.21	1581.03
185.43	1816.55
185.65	1654.76
185.87	1738.73
186.10	1832.93
186.32	1773.54
186.54	1648.61
186.76	1796.07
186.98	1818.60
187.20	1628.14
187.42	1710.05
187.64	1685.48
187.86	1712.10
188.08	1687.53
188.30	1724.39
188.52	1683.43
188.75	1804.26
188.97	1763.30
189.19	1769.44
189.41	1708.01
189.63	1742.82
189.85	1738.73
190.07	1697.77
190.29	1701.86
190.51	1791.97
190.73	1650.66
190.95	1777.64
191.17	1636.33
191.39	1603.56
191.61	1656.81
191.84	1732.58
192.06	1658.85
192.28	1665.00
192.50	1855.46
192.72	1779.68
192.94	1748.97
193.16	1800.16
193.38	1748.97
193.60	1597.42
193.82	1691.62
194.04	1769.44
194.26	1650.66
194.48	1646.57
194.70	1708.01
194.92	1624.04
195.14	1769.44
195.36	1732.58
195.58	1689.57
195.80	1708.01
196.02	1712.10
196.24	1640.42
196.46	1718.25
196.69	1673.19
196.91	1789.92
197.13	1791.97
197.35	1621.99
197.57	1812.45
197.79	1705.96
198.01	1710.05
198.23	1691.62
198.45	1783.78
198.67	1585.13
198.89	1699.81
199.11	1638.38
199.33	1685.48
199.55	1603.56
199.77	1726.44
199.99	1718.25
200.21	1650.66
200.43	1660.90
200.65	1667.05
200.87	1656.81
201.09	1738.73
201.31	1630.18
201.53	1611.75
201.75	1740.77
201.97	1710.05
202.19	1763.30
202.41	1773.54
202.63	1837.03
202.85	1742.82
203.07	1724.39
203.29	1681.38
203.51	1689.57
203.73	1712.10
203.95	1816.55
204.17	1675.24
204.39	1677.29
204.61	1658.85
204.83	1671.14
205.05	1710.05
205.27	1773.54
205.49	1806.31
205.71	1732.58
205.93	1703.91
206.15	1615.85
206.37	1691.62
206.59	1640.42
206.81	1697.77
207.03	1652.71
207.25	1656.81
207.47	1824.74
207.69	1714.15
207.91	1697.77
208.13	1789.92
208.34	1615.85
208.56	1646.57
208.78	1724.39
209.00	1660.90
209.22	1708.01
209.44	1705.96
209.66	1665.00
209.88	1679.33
210.10	1689.57
210.32	1695.72
210.54	1808.36
210.76	1677.29
210.98	1685.48
211.20	1644.52
211.42	1621.99
211.64	1759.21
211.86	1755.11
212.08	1697.77
212.30	1685.48
212.52	1667.05
212.74	1742.82
212.96	1695.72
213.17	1699.81
213.39	1763.30
213.61	1822.69
213.83	1660.90
214.05	1681.38
214.27	1828.84
214.49	1705.96
214.71	1671.14
214.93	1804.26
215.15	1665.00
215.37	1687.53
215.59	1615.85
215.81	1771.49
216.03	1781.73
216.24	1746.92
216.46	1669.09
216.68	1679.33
216.90	1763.30
217.12	1769.44
217.34	1632.23
217.56	1783.78
217.78	1802.21
218.00	1656.81
218.22	1703.91
218.44	1732.58
218.66	1681.38
218.87	1710.05
219.09	1630.18
219.31	1687.53
219.53	1640.42
219.75	1705.96
219.97	1714.15
220.19	1724.39
220.41	1660.90
220.63	1765.35
220.85	1804.26
221.06	1662.95
221.28	1826.79
221.50	1693.67
221.72	1710.05
221.94	1714.15
222.16	1742.82
222.38	1728.49
222.60	1738.73
222.82	1656.81
223.03	1791.97
223.25	1730.53
223.47	1746.92
223.69	1796.07
223.91	1759.21
224.13	1669.09
224.35	1638.38
224.57	1748.97
224.78	1728.49
225.00	1769.44
225.22	1681.38
225.44	1658.85
225.66	1818.60
225.88	1658.85
226.10	1710.05
226.32	1634.28
226.53	1808.36
226.75	1730.53
226.97	1734.63
227.19	1708.01
227.41	1697.77
227.63	1583.08
227.85	1632.23
228.06	1718.25
228.28	1726.44
228.50	1701.86
228.72	1658.85
228.94	1742.82
229.16	1660.90
229.37	1630.18
229.59	1662.95
229.81	1722.34
230.03	1611.75
230.25	1617.90
230.47	1644.52
230.69	1705.96
230.90	1781.73
231.12	1624.04
231.34	1703.91
231.56	1789.92
231.78	1667.05
232.00	1738.73
232.21	1699.81
232.43	1644.52
232.65	1576.94
232.87	1689.57
233.09	1683.43
233.30	1722.34
233.52	1837.03
233.74	1689.57
233.96	1611.75
234.18	1634.28
234.40	1695.72
234.61	1824.74
234.83	1576.94
235.05	1679.33
235.27	1820.64
235.49	1804.26
235.70	1658.85
235.92	1732.58
236.14	1665.00
236.36	1796.07
236.58	1640.42
236.79	1722.34
237.01	1654.76
237.23	1628.14
237.45	1845.22
237.67	1697.77
237.88	1654.76
238.10	1847.27
238.32	1603.56
238.54	1630.18
238.76	1634.28
238.97	1658.85
239.19	1699.81
239.41	1724.39
239.63	1744.87
239.85	1732.58
240.06	1640.42
240.28	1689.57
240.50	1742.82
240.72	1695.72
240.93	1691.62
241.15	1763.30
241.37	1718.25
241.59	1808.36
241.81	1697.77
242.02	1658.85
242.24	1691.62
242.46	1718.25
242.68	1658.85
242.89	1718.25
243.11	1693.67
243.33	1705.96
243.55	1658.85
243.76	1738.73
243.98	1593.32
244.20	1712.10
244.42	1746.92
244.64	1697.77
244.85	1578.98
245.07	1681.38
245.29	1679.33
245.51	1681.38
245.72	1687.53
245.94	1724.39
246.16	1708.01
246.38	1699.81
246.59	1683.43
246.81	1617.90
247.03	1595.37
247.24	1599.46
247.46	1632.23
247.68	1703.91
247.90	1593.32
248.11	1677.29
248.33	1675.24
248.55	1685.48
248.77	1701.86
248.98	1748.97
249.20	1748.97
249.42	1667.05
249.64	1669.09
249.85	1697.77
250.07	1673.19
250.29	1763.30
250.50	1746.92
250.72	1642.47
250.94	1654.76
251.16	1794.02
251.37	1689.57
251.59	1738.73
251.81	1761.25
252.02	1816.55
252.24	1677.29
252.46	1751.01
252.68	1675.24
252.89	1621.99
253.11	1652.71
253.33	1812.45
253.54	1746.92
253.76	1583.08
253.98	1708.01
254.20	1640.42
254.41	1632.23
254.63	1689.57
254.85	1632.23
255.06	1699.81
255.28	1665.00
255.50	1722.34
255.71	1673.19
255.93	1634.28
256.15	1710.05
256.36	1710.05
256.58	1638.38
256.80	1683.43
257.02	1679.33
257.23	1736.68
257.45	1677.29
257.67	1691.62
257.88	1660.90
258.10	1679.33
258.32	1720.29
258.53	1677.29
258.75	1796.07
258.97	1679.33
259.18	1628.14
259.40	1681.38
259.62	1703.91
259.83	1816.55
260.05	1787.88
260.27	1994.72
260.48	1710.05
260.70	1624.04
260.92	1708.01
261.13	1738.73
261.35	1742.82
261.57	1763.30
261.78	1546.22
262.00	1630.18
262.22	1697.77
262.43	1701.86
262.65	1693.67
262.86	1685.48
263.08	1812.45
263.30	1685.48
263.51	1658.85
263.73	1683.43
263.95	1773.54
264.16	1669.09
264.38	1634.28
264.60	1724.39
264.81	1654.76
265.03	1693.67
265.25	1759.21
265.46	1714.15
265.68	1710.05
265.89	1728.49
266.11	1574.89
266.33	1730.53
266.54	1761.25
266.76	1722.34
266.98	1767.40
267.19	1697.77
267.41	1652.71
267.62	1726.44
267.84	1634.28
268.06	1765.35
268.27	1669.09
268.49	1777.64
268.70	1781.73
268.92	1611.75
269.14	1699.81
269.35	1605.61
269.57	1619.94
269.79	1742.82
270.00	1695.72
270.22	1781.73
270.43	1644.52
270.65	1632.23
270.87	1654.76
271.08	1740.77
271.30	1779.68
271.51	1705.96
271.73	1691.62
271.95	1765.35
272.16	1669.09
272.38	1693.67
272.59	1697.77
272.81	1730.53
273.02	1701.86
273.24	1691.62
273.46	1775.59
273.67	1660.90
273.89	1652.71
274.10	1667.05
274.32	1746.92
274.54	1744.87
274.75	1753.06
274.97	1708.01
275.18	1787.88
275.40	1720.29
275.61	1734.63
275.83	1681.38
276.05	1648.61
276.26	1712.10
276.48	1726.44
276.69	1656.81
276.91	1679.33
277.12	1697.77
277.34	1777.64
277.55	1742.82
277.77	1712.10
277.99	1689.57
278.20	1621.99
278.42	1591.27
278.63	1673.19
278.85	1689.57
279.06	1601.51
279.28	1716.20
279.49	1781.73
279.71	1744.87
279.93	1673.19
280.14	1697.77
280.36	1681.38
280.57	1759.21
280.79	1742.82
281.00	1669.09
281.22	1716.20
281.43	1759.21
281.65	1501.16
281.86	1665.00
282.08	1705.96
282.29	1822.69
282.51	1632.23
282.73	1642.47
282.94	1611.75
283.16	1820.64
283.37	1789.92
283.59	1652.71
283.80	1763.30
284.02	1691.62
284.23	1726.44
284.45	1705.96
284.66	1611.75
284.88	1624.04
285.09	1722.34
285.31	1759.21
285.52	1755.11
285.74	1679.33
285.95	1667.05
286.17	1699.81
286.38	1742.82
286.60	1665.00
286.81	1656.81
287.03	1665.00
287.24	1673.19
287.46	1759.21
287.67	1738.73
287.89	1855.46
288.10	1695.72
288.32	1703.91
288.53	1753.06
288.75	1656.81
288.96	1767.40
289.18	1683.43
289.39	1730.53
289.61	1755.11
289.82	1816.55
290.04	1796.07
290.25	1628.14
290.47	1681.38
290.68	1724.39
290.90	1738.73
291.11	1677.29
291.33	1783.78
291.54	1626.09
291.76	1689.57
291.97	1779.68
292.18	1687.53
292.40	1632.23
292.61	1632.23
292.83	1845.22
293.04	1781.73
293.26	1726.44
293.47	1632.23
293.69	1615.85
293.90	1632.23
294.12	1775.59
294.33	1744.87
294.55	1712.10
294.76	1722.34
294.97	1734.63
295.19	1853.41
295.40	1654.76
295.62	1755.11
295.83	1779.68
296.05	1613.80
296.26	1699.81
296.48	1746.92
296.69	1689.57
296.90	1730.53
297.12	1722.34
297.33	1740.77
297.55	1671.14
297.76	1746.92
297.98	1748.97
298.19	1714.15
298.41	1732.58
298.62	1673.19
298.83	1785.83
299.05	1656.81
299.26	1699.81
299.48	1685.48
299.69	1798.12
299.90	1685.48
300.12	1660.90
300.33	1691.62
300.55	1730.53
300.76	1773.54
300.98	1695.72
301.19	1730.53
301.40	1693.67
301.62	1685.48
301.83	1757.16
302.05	1771.49
302.26	1650.66
302.47	1757.16
302.69	1574.89
302.90	1642.47
303.12	1538.02
303.33	1738.73
303.54	1882.08
303.76	1662.95
303.97	1796.07
304.19	1716.20
304.40	1679.33
304.61	1689.57
304.83	1791.97
305.04	1785.83
305.26	1753.06
305.47	1660.90
305.68	1669.09
305.90	1597.42
306.11	1644.52
306.33	1710.05
306.54	1714.15
306.75	1648.61
306.97	1703.91
307.18	1689.57
307.39	1665.00
307.61	1728.49
307.82	1716.20
308.04	1722.34
308.25	1642.47
308.46	1802.21
308.68	1746.92
308.89	1636.33
309.10	1771.49
309.32	1763.30
309.53	1640.42
309.74	1679.33
309.96	1724.39
310.17	1789.92
310.39	1644.52
310.60	1785.83
310.81	1710.05
311.03	1607.66
311.24	1730.53
311.45	1757.16
311.67	1728.49
311.88	1601.51
312.09	1716.20
312.31	1644.52
312.52	1736.68
312.73	1718.25
312.95	1683.43
313.16	1570.79
313.37	1769.44
313.59	1677.29
313.80	1722.34
314.01	1783.78
314.23	1646.57
314.44	1718.25
314.65	1556.46
314.87	1679.33
315.08	1730.53
315.29	1634.28
315.51	1675.24
315.72	1587.18
315.93	1816.55
316.15	1701.86
316.36	1662.95
316.57	1730.53
316.79	1757.16
317.00	1679.33
317.21	1701.86
317.43	1607.66
317.64	1669.09
317.85	1599.46
318.07	1615.85
318.28	1773.54
318.49	1789.92
318.70	1935.33
318.92	1837.03
319.13	1804.26
319.34	1894.37
319.56	1703.91
319.77	1816.55
319.98	1789.92
320.20	1785.83
320.41	1665.00
320.62	1763.30
320.83	1656.81
321.05	1820.64
321.26	1728.49
321.47	1744.87
321.69	1775.59
321.90	1609.70
322.11	1699.81
322.32	1689.57
322.54	1834.98
322.75	1705.96
322.96	1888.23
323.18	1640.42
323.39	1675.24
323.60	1726.44
323.81	1677.29
324.03	1681.38
324.24	1728.49
324.45	1669.09
324.66	1705.96
324.88	1669.09
325.09	1847.27
325.30	1775.59
325.52	1665.00
325.73	1710.05
325.94	1628.14
326.15	1554.41
326.37	1650.66
326.58	1681.38
326.79	1746.92
327.00	1617.90
327.22	1794.02
327.43	1624.04
327.64	1607.66
327.85	1705.96
328.07	1726.44
328.28	1746.92
328.49	1675.24
328.70	1679.33
328.92	1683.43
329.13	1699.81
329.34	1722.34
329.55	1873.89
329.76	1759.21
329.98	1648.61
330.19	1738.73
330.40	1732.58
330.61	1718.25
330.83	1697.77
331.04	1611.75
331.25	1687.53
331.46	1617.90
331.68	1650.66
331.89	1744.87
332.10	1695.72
332.31	1603.56
332.52	1587.18
332.74	1761.25
332.95	1632.23
333.16	1675.24
333.37	1722.34
333.58	1687.53
333.80	1712.10
334.01	1665.00
334.22	1714.15
334.43	1689.57
334.64	1654.76
334.86	1591.27
335.07	1699.81
335.28	1755.11
335.49	1662.95
335.70	1716.20
335.92	1724.39
336.13	1884.13
336.34	1669.09
336.55	1748.97
336.76	1755.11
336.98	1550.31
337.19	1691.62
337.40	1781.73
337.61	1849.32
337.82	1675.24
338.04	1775.59
338.25	1675.24
338.46	1728.49
338.67	1705.96
338.88	1642.47
339.09	1683.43
339.31	1685.48
339.52	1564.65
339.73	1619.94
339.94	1714.15
340.15	1736.68
340.36	1681.38
340.58	1714.15
340.79	1630.18
341.00	1720.29
341.21	1626.09
341.42	1822.69
341.63	1691.62
341.85	1791.97
342.06	1695.72
342.27	1619.94
342.48	1730.53
342.69	1591.27
342.90	1705.96
343.12	1736.68
343.33	1726.44
343.54	1765.35
343.75	1748.97
343.96	1705.96
344.17	1593.32
344.38	1669.09
344.60	1681.38
344.81	1673.19
345.02	1667.05
345.23	1718.25
345.44	1773.54
345.65	1732.58
345.86	1789.92
346.07	1613.80
346.29	1642.47
346.50	1683.43
346.71	1667.05
346.92	1765.35
347.13	1837.03
347.34	1681.38
347.55	1615.85
347.76	1828.84
347.98	1675.24
348.19	1734.63
348.40	1767.40
348.61	1710.05
348.82	1781.73
349.03	1777.64
349.24	1681.38
349.45	1804.26
349.66	1646.57
349.88	1734.63
350.09	1574.89
350.30	1767.40
350.51	1740.77
350.72	1685.48
350.93	1714.15
351.14	1656.81
351.35	1740.77
351.56	1757.16
351.77	1765.35
351.99	1681.38
352.20	1734.63
352.41	1677.29
352.62	1609.70
352.83	1773.54
353.04	1665.00
353.25	1687.53
353.46	1824.74
353.67	1712.10
353.88	1583.08
354.09	1736.68
354.30	1734.63
354.52	1687.53
354.73	1597.42
354.94	1636.33
355.15	1740.77
355.36	1822.69
355.57	1671.14
355.78	1746.92
355.99	1697.77
356.20	1714.15
356.41	1787.88
356.62	1769.44
356.83	1705.96
357.04	1757.16
357.25	1642.47
357.46	1730.53
357.68	1617.90
357.89	1578.98
358.10	1705.96
358.31	1697.77
358.52	1650.66
358.73	1683.43
358.94	1603.56
359.15	1609.70
359.36	1769.44
359.57	1742.82
359.78	1728.49
359.99	1720.29
360.20	1677.29
360.41	1697.77
360.62	1736.68
360.83	1705.96
361.04	1728.49
361.25	1761.25
361.46	1871.84
361.67	1718.25
361.88	1722.34
362.09	1720.29
362.30	1705.96
362.51	1675.24
362.72	1648.61
362.93	1775.59
363.14	1699.81
363.35	1648.61
363.56	1650.66
363.78	1775.59
363.99	1744.87
364.20	1703.91
364.41	1642.47
364.62	1789.92
364.83	1722.34
365.04	1699.81
365.25	1662.95
365.46	1804.26
365.67	1638.38
365.88	1652.71
366.09	1693.67
366.30	1675.24
366.51	1652.71
366.72	1656.81
366.93	1775.59
367.14	1642.47
367.35	1753.06
367.56	1732.58
367.77	1818.60
367.98	1679.33
368.18	1683.43
368.39	1769.44
368.60	1605.61
368.81	1761.25
369.02	1757.16
369.23	1644.52
369.44	1607.66
369.65	1697.77
369.86	1699.81
370.07	1724.39
370.28	1669.09
370.49	1763.30
370.70	1746.92
370.91	1621.99
371.12	1638.38
371.33	1716.20
371.54	1632.23
371.75	1853.41
371.96	1624.04
372.17	1765.35
372.38	1746.92
372.59	1691.62
372.80	1642.47
373.01	1714.15
373.22	1691.62
373.43	1710.05
373.64	1619.94
373.85	1714.15
374.06	1804.26
374.26	1732.58
374.47	1708.01
374.68	1832.93
374.89	1716.20
375.10	1669.09
375.31	1712.10
375.52	1685.48
375.73	1708.01
375.94	1636.33
376.15	1751.01
376.36	1703.91
376.57	1669.09
376.78	1685.48
376.99	1710.05
377.20	1787.88
377.40	1714.15
377.61	1767.40
377.82	1740.77
378.03	1734.63
378.24	1671.14
378.45	1777.64
378.66	1708.01
378.87	1648.61
379.08	1609.70
379.29	1701.86
379.50	1738.73
379.71	1703.91
379.91	1734.63
380.12	1599.46
380.33	1691.62
380.54	1689.57
380.75	1632.23
380.96	1763.30
381.17	1761.25
381.38	1751.01
381.59	1763.30
381.80	1730.53
382.00	1820.64
382.21	1730.53
382.42	1773.54
382.63	1849.32
382.84	1740.77
383.05	1761.25
383.26	1828.84
383.47	1681.38
383.68	1818.60
383.88	1763.30
384.09	1722.34
384.30	1798.12
384.51	1669.09
384.72	1665.00
384.93	1648.61
385.14	1718.25
385.35	1685.48
385.55	1632.23
385.76	1787.88
385.97	1777.64
386.18	1650.66
386.39	1665.00
386.60	1705.96
386.81	1705.96
387.02	1718.25
387.22	1654.76
387.43	1781.73
387.64	1804.26
387.85	1785.83
388.06	2201.57
388.27	4267.97
388.48	6719.39
388.68	8060.80
388.89	9457.52
389.10	9693.04
389.31	8507.26
389.52	7593.87
389.73	6655.90
389.93	6234.02
390.14	5810.09
390.35	5167.03
390.56	4499.39
390.77	3741.64
390.98	3080.14
391.18	2478.04
391.39	2121.70
391.60	1832.93
391.81	1783.78
392.02	1679.33
392.23	1894.37
392.43	1779.68
392.64	1794.02
392.85	1714.15
393.06	1806.31
393.27	1675.24
393.47	1632.23
393.68	1767.40
393.89	1665.00
394.10	1738.73
394.31	1714.15
394.52	1701.86
394.72	1642.47
394.93	1755.11
395.14	1667.05
395.35	1693.67
395.56	1763.30
395.76	1681.38
395.97	1800.16
396.18	1800.16
396.39	1845.22
396.60	2029.54
396.80	1888.23
397.01	1898.47
397.22	1802.21
397.43	1845.22
397.64	1681.38
397.84	1779.68
398.05	1894.37
398.26	1744.87
398.47	1843.17
398.67	1837.03
398.88	1710.05
399.09	1724.39
399.30	1718.25
399.51	1724.39
399.71	1621.99
399.92	1726.44
400.13	1738.73
400.34	1722.34
400.54	1701.86
400.75	1884.13
400.96	1687.53
401.17	1845.22
401.37	1748.97
401.58	1617.90
401.79	1746.92
402.00	1927.14
402.21	2068.45
402.41	1931.23
402.62	2025.44
402.83	1943.52
403.04	1994.72
403.24	1961.95
403.45	1865.70
403.66	1898.47
403.87	1933.28
404.07	1861.60
404.28	1822.69
404.49	1755.11
404.70	1769.44
404.90	1757.16
405.11	1746.92
405.32	1669.09
405.52	1689.57
405.73	1558.50
405.94	1699.81
406.15	1710.05
406.35	1755.11
406.56	1753.06
406.77	1746.92
406.98	1734.63
407.18	1624.04
407.39	1826.79
407.60	1662.95
407.80	1710.05
408.01	1642.47
408.22	1691.62
408.43	1722.34
408.63	1841.12
408.84	1734.63
409.05	1791.97
409.25	1636.33
409.46	1591.27
409.67	1624.04
409.88	1662.95
410.08	1759.21
410.29	1697.77
410.50	1755.11
410.70	1787.88
410.91	1673.19
411.12	1718.25
411.32	1734.63
411.53	1607.66
411.74	1759.21
411.95	1773.54
412.15	1751.01
412.36	1738.73
412.57	1787.88
412.77	1814.50
412.98	1718.25
413.19	1673.19
413.39	1689.57
413.60	1771.49
413.81	1804.26
414.01	1675.24
414.22	1730.53
414.43	1660.90
414.63	1744.87
414.84	1746.92
415.05	1714.15
415.25	1691.62
415.46	1751.01
415.67	1675.24
415.87	1734.63
416.08	1689.57
416.29	1662.95
416.49	1753.06
416.70	1656.81
416.91	1734.63
417.11	1630.18
417.32	1751.01
417.53	1783.78
417.73	1722.34
417.94	1714.15
418.15	1662.95
418.35	1726.44
418.56	1669.09
418.77	1828.84
418.97	1777.64
419.18	1632.23
419.38	1591.27
419.59	1691.62
419.80	1763.30
420.00	1665.00
420.21	1703.91
420.42	1843.17
420.62	1701.86
420.83	1683.43
421.04	1708.01
421.24	1673.19
421.45	1730.53
421.65	1783.78
421.86	1650.66
422.07	1675.24
422.27	1703.91
422.48	1798.12
422.69	1574.89
422.89	1677.29
423.10	1648.61
423.30	1656.81
423.51	1708.01
423.72	1726.44
423.92	1724.39
424.13	1609.70
424.33	1689.57
424.54	1732.58
424.75	1673.19
424.95	1808.36
425.16	1757.16
425.36	1726.44
425.57	1751.01
425.78	1804.26
425.98	1763.30
426.19	1732.58
426.39	1691.62
426.60	1710.05
426.81	1781.73
427.01	1673.19
427.22	1656.81
427.42	1576.94
427.63	1624.04
427.83	1728.49
428.04	1775.59
428.25	1771.49
428.45	1726.44
428.66	1816.55
428.86	1703.91
429.07	1665.00
429.28	1796.07
429.48	1689.57
429.69	1652.71
429.89	1736.68
430.10	1583.08
430.30	1714.15
430.51	1691.62
430.71	1624.04
430.92	1658.85
431.13	1650.66
431.33	1736.68
431.54	1724.39
431.74	1830.88
431.95	1869.80
432.15	1687.53
432.36	1689.57
432.56	1783.78
432.77	1857.51
432.98	1796.07
433.18	1720.29
433.39	1710.05
433.59	1669.09
433.80	1791.97
434.00	1871.84
434.21	1638.38
434.41	1669.09
434.62	1871.84
434.82	1691.62
435.03	1570.79
435.23	1771.49
435.44	1656.81
435.64	1714.15
435.85	1742.82
436.06	1726.44
436.26	1718.25
436.47	1669.09
436.67	1611.75
436.88	1730.53
437.08	1763.30
437.29	1761.25
437.49	1712.10
437.70	1800.16
437.90	1753.06
438.11	1744.87
438.31	1751.01
438.52	1894.37
438.72	1796.07
438.93	1892.32
439.13	1806.31
439.34	1832.93
439.54	1783.78
439.75	1783.78
439.95	1734.63
440.16	1671.14
440.36	1746.92
440.57	1740.77
440.77	1693.67
440.98	1691.62
441.18	1798.12
441.39	1646.57
441.59	1679.33
441.80	1783.78
442.00	1753.06
442.21	1855.46
442.41	1638.38
442.62	1832.93
442.82	1675.24
443.02	1839.08
443.23	1781.73
443.43	1636.33
443.64	1808.36
443.84	1734.63
444.05	1787.88
444.25	1665.00
444.46	1681.38
444.66	1648.61
444.87	1806.31
445.07	1669.09
445.28	1742.82
445.48	1824.74
445.69	1804.26
445.89	1886.18
446.09	1753.06
446.30	2000.87
446.50	2688.98
446.71	3698.63
446.91	4329.41
447.12	4698.04
447.32	4542.39
447.53	4253.63
447.73	3848.13
447.93	3516.36
448.14	3291.09
448.34	3268.56
448.55	2861.01
448.75	2713.56
448.96	2719.70
449.16	2367.45
449.36	2269.15
449.57	2037.73
449.77	1837.03
449.98	1748.97
450.18	1816.55
450.39	1791.97
450.59	1781.73
450.79	1718.25
451.00	1693.67
451.20	1808.36
451.41	1781.73
451.61	1800.16
451.81	1724.39
452.02	1726.44
452.22	1730.53
452.43	1775.59
452.63	1691.62
