SpectraSuite Data File
++++++++++++++++++++++++++++++++++++
Date: Mon Jun 06 14:13:17 CEST 2016
User: root
Dark Spectrum Present: No
Reference Spectrum Present: No
Number of Sampled Component Spectra: 1
Spectrometers: USB4C02835
Integration Time (usec): 100000 (USB4C02835)
Spectra Averaged: 1 (USB4C02835)
Boxcar Smoothing: 0 (USB4C02835)
Correct for Electrical Dark: No (USB4C02835)
Strobe/Lamp Enabled: No (USB4C02835)
Correct for Detector Non-linearity: No (USB4C02835)
Correct for Stray Light: No (USB4C02835)
Number of Pixels in Processed Spectrum: 3648
>>>>>Begin Processed Spectral Data<<<<<
177.47	1490.92
177.69	1490.92
177.91	1490.92
178.13	1474.54
178.36	1445.87
178.58	1562.60
178.80	1736.68
179.02	1599.46
179.24	1634.28
179.46	1689.57
179.68	1755.11
179.90	1648.61
180.13	1703.91
180.35	1591.27
180.57	1732.58
180.79	1689.57
181.01	1685.48
181.23	1699.81
181.45	1802.21
181.67	1683.43
181.90	1621.99
182.12	1671.14
182.34	1703.91
182.56	1626.09
182.78	1734.63
183.00	1761.25
183.22	1671.14
183.44	1656.81
183.66	1826.79
183.89	1755.11
184.11	1634.28
184.33	1757.16
184.55	1763.30
184.77	1701.86
184.99	1699.81
185.21	1656.81
185.43	1830.88
185.65	1697.77
185.87	1632.23
186.10	1816.55
186.32	1730.53
186.54	1685.48
186.76	1720.29
186.98	1738.73
187.20	1765.35
187.42	1708.01
187.64	1746.92
187.86	1783.78
188.08	1759.21
188.30	1644.52
188.52	1710.05
188.75	1736.68
188.97	1841.12
189.19	1685.48
189.41	1720.29
189.63	1769.44
189.85	1675.24
190.07	1660.90
190.29	1591.27
190.51	1695.72
190.73	1607.66
190.95	1783.78
191.17	1708.01
191.39	1656.81
191.61	1751.01
191.84	1701.86
192.06	1685.48
192.28	1636.33
192.50	1820.64
192.72	1714.15
192.94	1716.20
193.16	1740.77
193.38	1718.25
193.60	1703.91
193.82	1783.78
194.04	1775.59
194.26	1708.01
194.48	1646.57
194.70	1654.76
194.92	1726.44
195.14	1714.15
195.36	1671.14
195.58	1738.73
195.80	1617.90
196.02	1656.81
196.24	1691.62
196.46	1753.06
196.69	1697.77
196.91	1820.64
197.13	1628.14
197.35	1630.18
197.57	1769.44
197.79	1724.39
198.01	1712.10
198.23	1751.01
198.45	1769.44
198.67	1654.76
198.89	1669.09
199.11	1695.72
199.33	1673.19
199.55	1599.46
199.77	1675.24
199.99	1769.44
200.21	1671.14
200.43	1720.29
200.65	1521.64
200.87	1576.94
201.09	1699.81
201.31	1691.62
201.53	1726.44
201.75	1683.43
201.97	1724.39
202.19	1734.63
202.41	1691.62
202.63	1732.58
202.85	1722.34
203.07	1658.85
203.29	1728.49
203.51	1642.47
203.73	1673.19
203.95	1894.37
204.17	1732.58
204.39	1708.01
204.61	1640.42
204.83	1695.72
205.05	1751.01
205.27	1742.82
205.49	1800.16
205.71	1730.53
205.93	1683.43
206.15	1669.09
206.37	1746.92
206.59	1724.39
206.81	1650.66
207.03	1648.61
207.25	1685.48
207.47	1673.19
207.69	1730.53
207.91	1789.92
208.13	1759.21
208.34	1730.53
208.56	1708.01
208.78	1669.09
209.00	1705.96
209.22	1675.24
209.44	1660.90
209.66	1667.05
209.88	1726.44
210.10	1667.05
210.32	1718.25
210.54	1828.84
210.76	1718.25
210.98	1849.32
211.20	1626.09
211.42	1720.29
211.64	1810.40
211.86	1724.39
212.08	1779.68
212.30	1665.00
212.52	1705.96
212.74	1773.54
212.96	1757.16
213.17	1728.49
213.39	1757.16
213.61	1718.25
213.83	1742.82
214.05	1578.98
214.27	1781.73
214.49	1613.80
214.71	1587.18
214.93	1785.83
215.15	1742.82
215.37	1718.25
215.59	1550.31
215.81	1753.06
216.03	1787.88
216.24	1710.05
216.46	1724.39
216.68	1808.36
216.90	1820.64
217.12	1767.40
217.34	1683.43
217.56	1652.71
217.78	1673.19
218.00	1744.87
218.22	1648.61
218.44	1769.44
218.66	1755.11
218.87	1710.05
219.09	1658.85
219.31	1671.14
219.53	1708.01
219.75	1716.20
219.97	1701.86
220.19	1697.77
220.41	1712.10
220.63	1730.53
220.85	1662.95
221.06	1705.96
221.28	1804.26
221.50	1699.81
221.72	1677.29
221.94	1665.00
222.16	1654.76
222.38	1830.88
222.60	1734.63
222.82	1693.67
223.03	1675.24
223.25	1603.56
223.47	1791.97
223.69	1763.30
223.91	1718.25
224.13	1683.43
224.35	1708.01
224.57	1779.68
224.78	1755.11
225.00	1576.94
225.22	1624.04
225.44	1736.68
225.66	1691.62
225.88	1619.94
226.10	1822.69
226.32	1675.24
226.53	1806.31
226.75	1681.38
226.97	1667.05
227.19	1665.00
227.41	1703.91
227.63	1656.81
227.85	1650.66
228.06	1736.68
228.28	1697.77
228.50	1763.30
228.72	1599.46
228.94	1675.24
229.16	1542.12
229.37	1554.41
229.59	1652.71
229.81	1796.07
230.03	1673.19
230.25	1613.80
230.47	1708.01
230.69	1617.90
230.90	1734.63
231.12	1613.80
231.34	1687.53
231.56	1773.54
231.78	1617.90
232.00	1714.15
232.21	1714.15
232.43	1662.95
232.65	1587.18
232.87	1654.76
233.09	1677.29
233.30	1685.48
233.52	1710.05
233.74	1687.53
233.96	1613.80
234.18	1687.53
234.40	1660.90
234.61	1779.68
234.83	1650.66
235.05	1638.38
235.27	1828.84
235.49	1734.63
235.70	1697.77
235.92	1763.30
236.14	1746.92
236.36	1777.64
236.58	1669.09
236.79	1720.29
237.01	1685.48
237.23	1789.92
237.45	1800.16
237.67	1677.29
237.88	1736.68
238.10	1812.45
238.32	1578.98
238.54	1660.90
238.76	1660.90
238.97	1681.38
239.19	1611.75
239.41	1705.96
239.63	1779.68
239.85	1640.42
240.06	1708.01
240.28	1671.14
240.50	1722.34
240.72	1710.05
240.93	1697.77
241.15	1800.16
241.37	1744.87
241.59	1777.64
241.81	1730.53
242.02	1658.85
242.24	1732.58
242.46	1724.39
242.68	1648.61
242.89	1724.39
243.11	1724.39
243.33	1718.25
243.55	1695.72
243.76	1734.63
243.98	1691.62
244.20	1746.92
244.42	1728.49
244.64	1744.87
244.85	1691.62
245.07	1626.09
245.29	1738.73
245.51	1705.96
245.72	1757.16
245.94	1779.68
246.16	1724.39
246.38	1718.25
246.59	1683.43
246.81	1703.91
247.03	1712.10
247.24	1587.18
247.46	1683.43
247.68	1716.20
247.90	1621.99
248.11	1644.52
248.33	1734.63
248.55	1740.77
248.77	1689.57
248.98	1820.64
249.20	1783.78
249.42	1718.25
249.64	1742.82
249.85	1710.05
250.07	1644.52
250.29	1701.86
250.50	1691.62
250.72	1685.48
250.94	1652.71
251.16	1814.50
251.37	1755.11
251.59	1773.54
251.81	1687.53
252.02	1771.49
252.24	1730.53
252.46	1791.97
252.68	1697.77
252.89	1675.24
253.11	1658.85
253.33	1757.16
253.54	1693.67
253.76	1656.81
253.98	1718.25
254.20	1671.14
254.41	1628.14
254.63	1724.39
254.85	1626.09
255.06	1703.91
255.28	1683.43
255.50	1636.33
255.71	1656.81
255.93	1603.56
256.15	1640.42
256.36	1804.26
256.58	1648.61
256.80	1720.29
257.02	1710.05
257.23	1705.96
257.45	1763.30
257.67	1753.06
257.88	1718.25
258.10	1757.16
258.32	1681.38
258.53	1675.24
258.75	1769.44
258.97	1628.14
259.18	1656.81
259.40	1718.25
259.62	1773.54
259.83	1804.26
260.05	1718.25
260.27	1968.10
260.48	1693.67
260.70	1656.81
260.92	1695.72
261.13	1689.57
261.35	1732.58
261.57	1746.92
261.78	1589.22
262.00	1652.71
262.22	1736.68
262.43	1568.74
262.65	1648.61
262.86	1759.21
263.08	1837.03
263.30	1671.14
263.51	1609.70
263.73	1632.23
263.95	1769.44
264.16	1679.33
264.38	1652.71
264.60	1718.25
264.81	1656.81
265.03	1708.01
265.25	1775.59
265.46	1673.19
265.68	1669.09
265.89	1732.58
266.11	1617.90
266.33	1705.96
266.54	1751.01
266.76	1796.07
266.98	1761.25
267.19	1837.03
267.41	1716.20
267.62	1640.42
267.84	1589.22
268.06	1734.63
268.27	1738.73
268.49	1730.53
268.70	1751.01
268.92	1755.11
269.14	1705.96
269.35	1669.09
269.57	1695.72
269.79	1691.62
270.00	1658.85
270.22	1789.92
270.43	1697.77
270.65	1601.51
270.87	1662.95
271.08	1843.17
271.30	1708.01
271.51	1746.92
271.73	1806.31
271.95	1763.30
272.16	1714.15
272.38	1673.19
272.59	1665.00
272.81	1703.91
273.02	1708.01
273.24	1740.77
273.46	1771.49
273.67	1644.52
273.89	1615.85
274.10	1628.14
274.32	1753.06
274.54	1685.48
274.75	1665.00
274.97	1660.90
275.18	1755.11
275.40	1656.81
275.61	1722.34
275.83	1689.57
276.05	1607.66
276.26	1632.23
276.48	1757.16
276.69	1691.62
276.91	1624.04
277.12	1755.11
277.34	1759.21
277.55	1718.25
277.77	1685.48
277.99	1675.24
278.20	1642.47
278.42	1716.20
278.63	1665.00
278.85	1693.67
279.06	1669.09
279.28	1689.57
279.49	1781.73
279.71	1730.53
279.93	1685.48
280.14	1736.68
280.36	1650.66
280.57	1757.16
280.79	1845.22
281.00	1630.18
281.22	1656.81
281.43	1834.98
281.65	1593.32
281.86	1640.42
282.08	1673.19
282.29	1777.64
282.51	1638.38
282.73	1611.75
282.94	1648.61
283.16	1787.88
283.37	1712.10
283.59	1673.19
283.80	1634.28
284.02	1667.05
284.23	1736.68
284.45	1753.06
284.66	1646.57
284.88	1685.48
285.09	1669.09
285.31	1669.09
285.52	1619.94
285.74	1636.33
285.95	1718.25
286.17	1712.10
286.38	1699.81
286.60	1673.19
286.81	1669.09
287.03	1728.49
287.24	1665.00
287.46	1728.49
287.67	1665.00
287.89	1839.08
288.10	1673.19
288.32	1685.48
288.53	1748.97
288.75	1761.25
288.96	1818.60
289.18	1699.81
289.39	1665.00
289.61	1714.15
289.82	1755.11
290.04	1830.88
290.25	1603.56
290.47	1667.05
290.68	1658.85
290.90	1677.29
291.11	1597.42
291.33	1722.34
291.54	1615.85
291.76	1558.50
291.97	1714.15
292.18	1738.73
292.40	1742.82
292.61	1708.01
292.83	1722.34
293.04	1757.16
293.26	1689.57
293.47	1665.00
293.69	1556.46
293.90	1746.92
294.12	1781.73
294.33	1667.05
294.55	1746.92
294.76	1728.49
294.97	1804.26
295.19	1673.19
295.40	1675.24
295.62	1763.30
295.83	1708.01
296.05	1597.42
296.26	1773.54
296.48	1636.33
296.69	1667.05
296.90	1748.97
297.12	1701.86
297.33	1787.88
297.55	1748.97
297.76	1773.54
297.98	1669.09
298.19	1652.71
298.41	1732.58
298.62	1613.80
298.83	1814.50
299.05	1748.97
299.26	1714.15
299.48	1701.86
299.69	1722.34
299.90	1738.73
300.12	1619.94
300.33	1755.11
300.55	1689.57
300.76	1720.29
300.98	1648.61
301.19	1757.16
301.40	1624.04
301.62	1665.00
301.83	1691.62
302.05	1671.14
302.26	1681.38
302.47	1665.00
302.69	1640.42
302.90	1630.18
303.12	1613.80
303.33	1716.20
303.54	1822.69
303.76	1697.77
303.97	1710.05
304.19	1773.54
304.40	1646.57
304.61	1748.97
304.83	1839.08
305.04	1834.98
305.26	1675.24
305.47	1675.24
305.68	1689.57
305.90	1656.81
306.11	1777.64
306.33	1652.71
306.54	1611.75
306.75	1589.22
306.97	1640.42
307.18	1644.52
307.39	1648.61
307.61	1732.58
307.82	1759.21
308.04	1773.54
308.25	1648.61
308.46	1724.39
308.68	1650.66
308.89	1667.05
309.10	1736.68
309.32	1697.77
309.53	1675.24
309.74	1716.20
309.96	1736.68
310.17	1748.97
310.39	1677.29
310.60	1773.54
310.81	1665.00
311.03	1638.38
311.24	1654.76
311.45	1703.91
311.67	1816.55
311.88	1728.49
312.09	1679.33
312.31	1658.85
312.52	1714.15
312.73	1726.44
312.95	1665.00
313.16	1724.39
313.37	1716.20
313.59	1724.39
313.80	1738.73
314.01	1763.30
314.23	1701.86
314.44	1648.61
314.65	1611.75
314.87	1667.05
315.08	1755.11
315.29	1675.24
315.51	1650.66
315.72	1566.70
315.93	1832.93
316.15	1722.34
316.36	1615.85
316.57	1722.34
316.79	1726.44
317.00	1724.39
317.21	1722.34
317.43	1648.61
317.64	1693.67
317.85	1667.05
318.07	1728.49
318.28	1695.72
318.49	1800.16
318.70	1916.90
318.92	1884.13
319.13	1839.08
319.34	1742.82
319.56	1785.83
319.77	1779.68
319.98	1769.44
320.20	1804.26
320.41	1724.39
320.62	1710.05
320.83	1701.86
321.05	1875.94
321.26	1724.39
321.47	1656.81
321.69	1808.36
321.90	1650.66
322.11	1576.94
322.32	1669.09
322.54	1808.36
322.75	1669.09
322.96	1837.03
323.18	1589.22
323.39	1638.38
323.60	1697.77
323.81	1722.34
324.03	1681.38
324.24	1728.49
324.45	1705.96
324.66	1677.29
324.88	1738.73
325.09	1751.01
325.30	1800.16
325.52	1603.56
325.73	1757.16
325.94	1630.18
326.15	1597.42
326.37	1628.14
326.58	1771.49
326.79	1806.31
327.00	1654.76
327.22	1718.25
327.43	1705.96
327.64	1583.08
327.85	1626.09
328.07	1753.06
328.28	1818.60
328.49	1634.28
328.70	1742.82
328.92	1728.49
329.13	1763.30
329.34	1679.33
329.55	1816.55
329.76	1746.92
329.98	1665.00
330.19	1742.82
330.40	1794.02
330.61	1742.82
330.83	1691.62
331.04	1634.28
331.25	1701.86
331.46	1710.05
331.68	1626.09
331.89	1783.78
332.10	1742.82
332.31	1683.43
332.52	1703.91
332.74	1818.60
332.95	1654.76
333.16	1593.32
333.37	1775.59
333.58	1738.73
333.80	1751.01
334.01	1574.89
334.22	1660.90
334.43	1619.94
334.64	1671.14
334.86	1628.14
335.07	1587.18
335.28	1796.07
335.49	1505.26
335.70	1732.58
335.92	1742.82
336.13	1843.17
336.34	1687.53
336.55	1728.49
336.76	1634.28
336.98	1607.66
337.19	1738.73
337.40	1822.69
337.61	1796.07
337.82	1720.29
338.04	1705.96
338.25	1560.55
338.46	1701.86
338.67	1685.48
338.88	1665.00
339.09	1605.61
339.31	1714.15
339.52	1697.77
339.73	1542.12
339.94	1714.15
340.15	1687.53
340.36	1642.47
340.58	1777.64
340.79	1712.10
341.00	1775.59
341.21	1630.18
341.42	1812.45
341.63	1699.81
341.85	1775.59
342.06	1669.09
342.27	1650.66
342.48	1732.58
342.69	1660.90
342.90	1714.15
343.12	1665.00
343.33	1636.33
343.54	1794.02
343.75	1697.77
343.96	1714.15
344.17	1601.51
344.38	1740.77
344.60	1634.28
344.81	1636.33
345.02	1689.57
345.23	1765.35
345.44	1751.01
345.65	1814.50
345.86	1763.30
346.07	1748.97
346.29	1708.01
346.50	1824.74
346.71	1755.11
346.92	1710.05
347.13	1769.44
347.34	1699.81
347.55	1648.61
347.76	1757.16
347.98	1583.08
348.19	1701.86
348.40	1744.87
348.61	1714.15
348.82	1841.12
349.03	1730.53
349.24	1681.38
349.45	1751.01
349.66	1624.04
349.88	1681.38
350.09	1644.52
350.30	1767.40
350.51	1789.92
350.72	1744.87
350.93	1757.16
351.14	1681.38
351.35	1789.92
351.56	1679.33
351.77	1748.97
351.99	1779.68
352.20	1785.83
352.41	1787.88
352.62	1591.27
352.83	1748.97
353.04	1654.76
353.25	1689.57
353.46	1710.05
353.67	1820.64
353.88	1554.41
354.09	1718.25
354.30	1732.58
354.52	1689.57
354.73	1695.72
354.94	1636.33
355.15	1697.77
355.36	1787.88
355.57	1624.04
355.78	1732.58
355.99	1683.43
356.20	1671.14
356.41	1695.72
356.62	1777.64
356.83	1667.05
357.04	1800.16
357.25	1601.51
357.46	1644.52
357.68	1638.38
357.89	1601.51
358.10	1759.21
358.31	1681.38
358.52	1617.90
358.73	1681.38
358.94	1697.77
359.15	1658.85
359.36	1726.44
359.57	1697.77
359.78	1638.38
359.99	1773.54
360.20	1636.33
360.41	1611.75
360.62	1722.34
360.83	1703.91
361.04	1763.30
361.25	1687.53
361.46	1765.35
361.67	1722.34
361.88	1732.58
362.09	1751.01
362.30	1644.52
362.51	1740.77
362.72	1705.96
362.93	1804.26
363.14	1693.67
363.35	1802.21
363.56	1624.04
363.78	1714.15
363.99	1722.34
364.20	1742.82
364.41	1687.53
364.62	1851.36
364.83	1691.62
365.04	1699.81
365.25	1753.06
365.46	1820.64
365.67	1703.91
365.88	1542.12
366.09	1712.10
366.30	1568.74
366.51	1656.81
366.72	1644.52
366.93	1669.09
367.14	1693.67
367.35	1759.21
367.56	1740.77
367.77	1773.54
367.98	1714.15
368.18	1652.71
368.39	1691.62
368.60	1695.72
368.81	1798.12
369.02	1705.96
369.23	1718.25
369.44	1624.04
369.65	1650.66
369.86	1771.49
370.07	1806.31
370.28	1683.43
370.49	1740.77
370.70	1787.88
370.91	1630.18
371.12	1691.62
371.33	1755.11
371.54	1656.81
371.75	1818.60
371.96	1554.41
372.17	1654.76
372.38	1689.57
372.59	1767.40
372.80	1687.53
373.01	1615.85
373.22	1736.68
373.43	1701.86
373.64	1611.75
373.85	1726.44
374.06	1880.04
374.26	1748.97
374.47	1740.77
374.68	1748.97
374.89	1673.19
375.10	1660.90
375.31	1779.68
375.52	1736.68
375.73	1642.47
375.94	1665.00
376.15	1789.92
376.36	1699.81
376.57	1677.29
376.78	1689.57
376.99	1712.10
377.20	1757.16
377.40	1699.81
377.61	1820.64
377.82	1703.91
378.03	1734.63
378.24	1740.77
378.45	1628.14
378.66	1708.01
378.87	1609.70
379.08	1640.42
379.29	1644.52
379.50	1787.88
379.71	1693.67
379.91	1734.63
380.12	1757.16
380.33	1632.23
380.54	1693.67
380.75	1759.21
380.96	1687.53
381.17	1744.87
381.38	1769.44
381.59	1773.54
381.80	1718.25
382.00	1779.68
382.21	1724.39
382.42	1834.98
382.63	1820.64
382.84	1785.83
383.05	1779.68
383.26	1730.53
383.47	1714.15
383.68	1703.91
383.88	1742.82
384.09	1769.44
384.30	1751.01
384.51	1806.31
384.72	1658.85
384.93	1738.73
385.14	1685.48
385.35	1777.64
385.55	1718.25
385.76	1724.39
385.97	1724.39
386.18	1576.94
386.39	1632.23
386.60	1693.67
386.81	1677.29
387.02	1656.81
387.22	1638.38
387.43	1777.64
387.64	1822.69
387.85	1882.08
388.06	2271.20
388.27	4227.01
388.48	6944.66
388.68	8384.38
388.89	9803.63
389.10	10256.23
389.31	8636.28
389.52	7706.51
389.73	6608.80
389.93	6305.70
390.14	5900.20
390.35	5371.82
390.56	4534.20
390.77	3893.19
390.98	3037.14
391.18	2500.57
391.39	2115.55
391.60	1859.56
391.81	1884.13
392.02	1724.39
392.23	1843.17
392.43	1703.91
392.64	1804.26
392.85	1693.67
393.06	1796.07
393.27	1716.20
393.47	1626.09
393.68	1755.11
393.89	1705.96
394.10	1753.06
394.31	1644.52
394.52	1609.70
394.72	1705.96
394.93	1816.55
395.14	1644.52
395.35	1679.33
395.56	1751.01
395.76	1767.40
395.97	1767.40
396.18	1886.18
396.39	1812.45
396.60	2117.60
396.80	1918.95
397.01	1857.51
397.22	1814.50
397.43	1886.18
397.64	1665.00
397.84	1796.07
398.05	1857.51
398.26	1814.50
398.47	1779.68
398.67	1767.40
398.88	1646.57
399.09	1759.21
399.30	1626.09
399.51	1783.78
399.71	1609.70
399.92	1667.05
400.13	1767.40
400.34	1646.57
400.54	1765.35
400.75	1689.57
400.96	1699.81
401.17	1822.69
401.37	1822.69
401.58	1748.97
401.79	1703.91
402.00	1896.42
402.21	2045.92
402.41	1955.81
402.62	1968.10
402.83	2035.68
403.04	1957.86
403.24	2070.50
403.45	1832.93
403.66	1937.38
403.87	1884.13
404.07	1892.32
404.28	1890.28
404.49	1865.70
404.70	1736.68
404.90	1763.30
405.11	1730.53
405.32	1763.30
405.52	1611.75
405.73	1683.43
405.94	1650.66
406.15	1705.96
406.35	1695.72
406.56	1705.96
406.77	1722.34
406.98	1787.88
407.18	1626.09
407.39	1798.12
407.60	1710.05
407.80	1716.20
408.01	1683.43
408.22	1662.95
408.43	1660.90
408.63	1679.33
408.84	1755.11
409.05	1777.64
409.25	1648.61
409.46	1730.53
409.67	1712.10
409.88	1656.81
410.08	1716.20
410.29	1789.92
410.50	1712.10
410.70	1738.73
410.91	1660.90
411.12	1755.11
411.32	1712.10
411.53	1619.94
411.74	1787.88
411.95	1849.32
412.15	1734.63
412.36	1800.16
412.57	1802.21
412.77	1761.25
412.98	1689.57
413.19	1673.19
413.39	1689.57
413.60	1710.05
413.81	1841.12
414.01	1535.98
414.22	1689.57
414.43	1769.44
414.63	1769.44
414.84	1773.54
415.05	1689.57
415.25	1660.90
415.46	1697.77
415.67	1705.96
415.87	1804.26
416.08	1726.44
416.29	1642.47
416.49	1779.68
416.70	1697.77
416.91	1660.90
417.11	1738.73
417.32	1658.85
417.53	1755.11
417.73	1671.14
417.94	1673.19
418.15	1701.86
418.35	1759.21
418.56	1640.42
418.77	1812.45
418.97	1693.67
419.18	1665.00
419.38	1560.55
419.59	1671.14
419.80	1787.88
420.00	1695.72
420.21	1734.63
420.42	1802.21
420.62	1763.30
420.83	1703.91
421.04	1673.19
421.24	1718.25
421.45	1779.68
421.65	1767.40
421.86	1650.66
422.07	1783.78
422.27	1689.57
422.48	1751.01
422.69	1601.51
422.89	1685.48
423.10	1632.23
423.30	1646.57
423.51	1669.09
423.72	1734.63
423.92	1667.05
424.13	1714.15
424.33	1693.67
424.54	1708.01
424.75	1705.96
424.95	1781.73
425.16	1673.19
425.36	1712.10
425.57	1720.29
425.78	1755.11
425.98	1794.02
426.19	1669.09
426.39	1699.81
426.60	1703.91
426.81	1761.25
427.01	1665.00
427.22	1544.17
427.42	1681.38
427.63	1703.91
427.83	1732.58
428.04	1718.25
428.25	1759.21
428.45	1794.02
428.66	1726.44
428.86	1705.96
429.07	1732.58
429.28	1691.62
429.48	1738.73
429.69	1683.43
429.89	1751.01
430.10	1609.70
430.30	1798.12
430.51	1716.20
430.71	1724.39
430.92	1716.20
431.13	1695.72
431.33	1734.63
431.54	1728.49
431.74	1822.69
431.95	1869.80
432.15	1615.85
432.36	1695.72
432.56	1701.86
432.77	1808.36
432.98	1804.26
433.18	1755.11
433.39	1656.81
433.59	1687.53
433.80	1794.02
434.00	1808.36
434.21	1667.05
434.41	1701.86
434.62	1847.27
434.82	1665.00
435.03	1628.14
435.23	1742.82
435.44	1683.43
435.64	1726.44
435.85	1716.20
436.06	1744.87
436.26	1787.88
436.47	1654.76
436.67	1660.90
436.88	1716.20
437.08	1705.96
437.29	1855.46
437.49	1738.73
437.70	1751.01
437.90	1718.25
438.11	1847.27
438.31	1841.12
438.52	1820.64
438.72	1828.84
438.93	1865.70
439.13	1740.77
439.34	1837.03
439.54	1800.16
439.75	1773.54
439.95	1771.49
440.16	1718.25
440.36	1714.15
440.57	1767.40
440.77	1742.82
440.98	1759.21
441.18	1757.16
441.39	1677.29
441.59	1650.66
441.80	1845.22
442.00	1667.05
442.21	1791.97
442.41	1640.42
442.62	1746.92
442.82	1720.29
443.02	1822.69
443.23	1808.36
443.43	1783.78
443.64	1853.41
443.84	1630.18
444.05	1791.97
444.25	1742.82
444.46	1701.86
444.66	1730.53
444.87	1898.47
445.07	1587.18
445.28	1742.82
445.48	1751.01
445.69	1779.68
445.89	1931.23
446.09	1759.21
446.30	2021.35
446.50	2619.35
446.71	3764.17
446.91	4231.10
447.12	4849.59
447.32	4755.38
447.53	4386.75
447.73	3962.82
447.93	3536.84
448.14	3407.82
448.34	3246.03
448.55	2947.03
448.75	2844.63
448.96	2693.08
449.16	2346.97
449.36	2263.01
449.57	2078.69
449.77	1910.75
449.98	1826.79
450.18	1785.83
450.39	1828.84
450.59	1730.53
450.79	1648.61
451.00	1763.30
451.20	1841.12
451.41	1755.11
451.61	1748.97
451.81	1701.86
452.02	1759.21
452.22	1722.34
452.43	1722.34
452.63	1742.82
