SpectraSuite Data File
++++++++++++++++++++++++++++++++++++
Date: Mon Jun 06 14:32:17 CEST 2016
User: root
Dark Spectrum Present: No
Reference Spectrum Present: No
Number of Sampled Component Spectra: 1
Spectrometers: USB4C02835
Integration Time (usec): 100000 (USB4C02835)
Spectra Averaged: 1 (USB4C02835)
Boxcar Smoothing: 0 (USB4C02835)
Correct for Electrical Dark: No (USB4C02835)
Strobe/Lamp Enabled: No (USB4C02835)
Correct for Detector Non-linearity: No (USB4C02835)
Correct for Stray Light: No (USB4C02835)
Number of Pixels in Processed Spectrum: 3648
>>>>>Begin Processed Spectral Data<<<<<
177.47	1470.44
177.69	1470.44
177.91	1470.44
178.13	1497.07
178.36	1476.59
178.58	1642.47
178.80	1716.20
179.02	1650.66
179.24	1654.76
179.46	1619.94
179.68	1751.01
179.90	1740.77
180.13	1728.49
180.35	1724.39
180.57	1740.77
180.79	1714.15
181.01	1744.87
181.23	1722.34
181.45	1693.67
181.67	1738.73
181.90	1724.39
182.12	1593.32
182.34	1699.81
182.56	1697.77
182.78	1708.01
183.00	1787.88
183.22	1740.77
183.44	1581.03
183.66	1796.07
183.89	1808.36
184.11	1689.57
184.33	1714.15
184.55	1791.97
184.77	1736.68
184.99	1798.12
185.21	1658.85
185.43	1839.08
185.65	1705.96
185.87	1685.48
186.10	1767.40
186.32	1802.21
186.54	1726.44
186.76	1763.30
186.98	1736.68
187.20	1708.01
187.42	1681.38
187.64	1662.95
187.86	1712.10
188.08	1685.48
188.30	1708.01
188.52	1638.38
188.75	1685.48
188.97	1777.64
189.19	1685.48
189.41	1691.62
189.63	1740.77
189.85	1687.53
190.07	1675.24
190.29	1574.89
190.51	1677.29
190.73	1667.05
190.95	1691.62
191.17	1630.18
191.39	1687.53
191.61	1712.10
191.84	1617.90
192.06	1699.81
192.28	1644.52
192.50	1855.46
192.72	1746.92
192.94	1662.95
193.16	1734.63
193.38	1718.25
193.60	1587.18
193.82	1632.23
194.04	1775.59
194.26	1775.59
194.48	1667.05
194.70	1642.47
194.92	1617.90
195.14	1808.36
195.36	1726.44
195.58	1757.16
195.80	1660.90
196.02	1648.61
196.24	1730.53
196.46	1705.96
196.69	1636.33
196.91	1918.95
197.13	1669.09
197.35	1656.81
197.57	1779.68
197.79	1679.33
198.01	1773.54
198.23	1681.38
198.45	1724.39
198.67	1626.09
198.89	1638.38
199.11	1712.10
199.33	1648.61
199.55	1495.02
199.77	1634.28
199.99	1763.30
200.21	1640.42
200.43	1740.77
200.65	1699.81
200.87	1615.85
201.09	1611.75
201.31	1665.00
201.53	1800.16
201.75	1701.86
201.97	1751.01
202.19	1703.91
202.41	1720.29
202.63	1759.21
202.85	1710.05
203.07	1708.01
203.29	1734.63
203.51	1646.57
203.73	1632.23
203.95	1898.47
204.17	1658.85
204.39	1726.44
204.61	1714.15
204.83	1685.48
205.05	1757.16
205.27	1830.88
205.49	1812.45
205.71	1757.16
205.93	1595.37
206.15	1681.38
206.37	1730.53
206.59	1699.81
206.81	1650.66
207.03	1654.76
207.25	1632.23
207.47	1765.35
207.69	1724.39
207.91	1773.54
208.13	1796.07
208.34	1617.90
208.56	1650.66
208.78	1746.92
209.00	1638.38
209.22	1667.05
209.44	1779.68
209.66	1632.23
209.88	1736.68
210.10	1718.25
210.32	1638.38
210.54	1757.16
210.76	1681.38
210.98	1730.53
211.20	1630.18
211.42	1677.29
211.64	1857.51
211.86	1738.73
212.08	1734.63
212.30	1765.35
212.52	1677.29
212.74	1720.29
212.96	1656.81
213.17	1753.06
213.39	1689.57
213.61	1779.68
213.83	1671.14
214.05	1679.33
214.27	1751.01
214.49	1630.18
214.71	1669.09
214.93	1802.21
215.15	1673.19
215.37	1753.06
215.59	1624.04
215.81	1691.62
216.03	1738.73
216.24	1724.39
216.46	1697.77
216.68	1734.63
216.90	1753.06
217.12	1734.63
217.34	1621.99
217.56	1720.29
217.78	1781.73
218.00	1710.05
218.22	1759.21
218.44	1800.16
218.66	1798.12
218.87	1798.12
219.09	1636.33
219.31	1787.88
219.53	1695.72
219.75	1679.33
219.97	1718.25
220.19	1644.52
220.41	1703.91
220.63	1753.06
220.85	1712.10
221.06	1710.05
221.28	1716.20
221.50	1708.01
221.72	1724.39
221.94	1681.38
222.16	1669.09
222.38	1769.44
222.60	1802.21
222.82	1728.49
223.03	1720.29
223.25	1644.52
223.47	1796.07
223.69	1841.12
223.91	1742.82
224.13	1613.80
224.35	1691.62
224.57	1746.92
224.78	1701.86
225.00	1687.53
225.22	1669.09
225.44	1658.85
225.66	1767.40
225.88	1701.86
226.10	1722.34
226.32	1656.81
226.53	1808.36
226.75	1722.34
226.97	1701.86
227.19	1689.57
227.41	1689.57
227.63	1662.95
227.85	1660.90
228.06	1773.54
228.28	1683.43
228.50	1697.77
228.72	1617.90
228.94	1685.48
229.16	1603.56
229.37	1671.14
229.59	1691.62
229.81	1820.64
230.03	1642.47
230.25	1617.90
230.47	1662.95
230.69	1681.38
230.90	1742.82
231.12	1701.86
231.34	1726.44
231.56	1861.60
231.78	1667.05
232.00	1656.81
232.21	1763.30
232.43	1683.43
232.65	1574.89
232.87	1712.10
233.09	1642.47
233.30	1652.71
233.52	1693.67
233.74	1681.38
233.96	1681.38
234.18	1665.00
234.40	1689.57
234.61	1841.12
234.83	1636.33
235.05	1669.09
235.27	1828.84
235.49	1775.59
235.70	1636.33
235.92	1785.83
236.14	1650.66
236.36	1841.12
236.58	1665.00
236.79	1746.92
237.01	1675.24
237.23	1726.44
237.45	1798.12
237.67	1693.67
237.88	1705.96
238.10	1834.98
238.32	1683.43
238.54	1609.70
238.76	1650.66
238.97	1677.29
239.19	1615.85
239.41	1798.12
239.63	1773.54
239.85	1697.77
240.06	1695.72
240.28	1626.09
240.50	1748.97
240.72	1716.20
240.93	1624.04
241.15	1730.53
241.37	1722.34
241.59	1785.83
241.81	1689.57
242.02	1746.92
242.24	1810.40
242.46	1746.92
242.68	1615.85
242.89	1755.11
243.11	1791.97
243.33	1718.25
243.55	1757.16
243.76	1703.91
243.98	1669.09
244.20	1742.82
244.42	1722.34
244.64	1783.78
244.85	1677.29
245.07	1689.57
245.29	1695.72
245.51	1677.29
245.72	1720.29
245.94	1753.06
246.16	1697.77
246.38	1769.44
246.59	1699.81
246.81	1681.38
247.03	1654.76
247.24	1640.42
247.46	1640.42
247.68	1720.29
247.90	1710.05
248.11	1654.76
248.33	1814.50
248.55	1765.35
248.77	1683.43
248.98	1742.82
249.20	1736.68
249.42	1738.73
249.64	1761.25
249.85	1642.47
250.07	1609.70
250.29	1767.40
250.50	1724.39
250.72	1697.77
250.94	1720.29
251.16	1812.45
251.37	1759.21
251.59	1695.72
251.81	1767.40
252.02	1802.21
252.24	1628.14
252.46	1804.26
252.68	1675.24
252.89	1681.38
253.11	1583.08
253.33	1877.99
253.54	1763.30
253.76	1703.91
253.98	1617.90
254.20	1701.86
254.41	1662.95
254.63	1730.53
254.85	1609.70
255.06	1665.00
255.28	1775.59
255.50	1748.97
255.71	1613.80
255.93	1656.81
256.15	1611.75
256.36	1685.48
256.58	1734.63
256.80	1746.92
257.02	1673.19
257.23	1699.81
257.45	1734.63
257.67	1718.25
257.88	1662.95
258.10	1738.73
258.32	1646.57
258.53	1689.57
258.75	1748.97
258.97	1605.61
259.18	1699.81
259.40	1714.15
259.62	1830.88
259.83	1765.35
260.05	1765.35
260.27	1906.66
260.48	1746.92
260.70	1640.42
260.92	1705.96
261.13	1705.96
261.35	1705.96
261.57	1810.40
261.78	1658.85
262.00	1595.37
262.22	1660.90
262.43	1708.01
262.65	1740.77
262.86	1687.53
263.08	1724.39
263.30	1726.44
263.51	1574.89
263.73	1673.19
263.95	1748.97
264.16	1615.85
264.38	1765.35
264.60	1740.77
264.81	1644.52
265.03	1734.63
265.25	1718.25
265.46	1660.90
265.68	1763.30
265.89	1753.06
266.11	1644.52
266.33	1689.57
266.54	1812.45
266.76	1726.44
266.98	1675.24
267.19	1730.53
267.41	1738.73
267.62	1708.01
267.84	1626.09
268.06	1798.12
268.27	1755.11
268.49	1796.07
268.70	1716.20
268.92	1691.62
269.14	1642.47
269.35	1607.66
269.57	1662.95
269.79	1722.34
270.00	1695.72
270.22	1796.07
270.43	1675.24
270.65	1599.46
270.87	1734.63
271.08	1757.16
271.30	1689.57
271.51	1738.73
271.73	1675.24
271.95	1787.88
272.16	1640.42
272.38	1675.24
272.59	1673.19
272.81	1708.01
273.02	1789.92
273.24	1689.57
273.46	1777.64
273.67	1611.75
273.89	1632.23
274.10	1724.39
274.32	1765.35
274.54	1712.10
274.75	1699.81
274.97	1652.71
275.18	1722.34
275.40	1697.77
275.61	1636.33
275.83	1720.29
276.05	1593.32
276.26	1648.61
276.48	1671.14
276.69	1753.06
276.91	1630.18
277.12	1755.11
277.34	1759.21
277.55	1710.05
277.77	1748.97
277.99	1681.38
278.20	1626.09
278.42	1728.49
278.63	1683.43
278.85	1665.00
279.06	1669.09
279.28	1763.30
279.49	1685.48
279.71	1708.01
279.93	1726.44
280.14	1716.20
280.36	1640.42
280.57	1843.17
280.79	1740.77
281.00	1652.71
281.22	1634.28
281.43	1708.01
281.65	1570.79
281.86	1665.00
282.08	1761.25
282.29	1812.45
282.51	1626.09
282.73	1685.48
282.94	1726.44
283.16	1734.63
283.37	1742.82
283.59	1748.97
283.80	1720.29
284.02	1617.90
284.23	1730.53
284.45	1714.15
284.66	1669.09
284.88	1607.66
285.09	1718.25
285.31	1830.88
285.52	1687.53
285.74	1572.84
285.95	1761.25
286.17	1765.35
286.38	1718.25
286.60	1669.09
286.81	1708.01
287.03	1677.29
287.24	1718.25
287.46	1687.53
287.67	1650.66
287.89	1822.69
288.10	1722.34
288.32	1636.33
288.53	1769.44
288.75	1718.25
288.96	1761.25
289.18	1671.14
289.39	1726.44
289.61	1730.53
289.82	1886.18
290.04	1753.06
290.25	1677.29
290.47	1722.34
290.68	1765.35
290.90	1775.59
291.11	1681.38
291.33	1763.30
291.54	1665.00
291.76	1640.42
291.97	1744.87
292.18	1796.07
292.40	1753.06
292.61	1665.00
292.83	1789.92
293.04	1734.63
293.26	1736.68
293.47	1699.81
293.69	1689.57
293.90	1689.57
294.12	1791.97
294.33	1763.30
294.55	1681.38
294.76	1699.81
294.97	1757.16
295.19	1781.73
295.40	1628.14
295.62	1757.16
295.83	1724.39
296.05	1689.57
296.26	1785.83
296.48	1685.48
296.69	1740.77
296.90	1642.47
297.12	1800.16
297.33	1804.26
297.55	1617.90
297.76	1759.21
297.98	1800.16
298.19	1730.53
298.41	1628.14
298.62	1634.28
298.83	1789.92
299.05	1679.33
299.26	1638.38
299.48	1716.20
299.69	1724.39
299.90	1681.38
300.12	1679.33
300.33	1718.25
300.55	1734.63
300.76	1751.01
300.98	1693.67
301.19	1691.62
301.40	1669.09
301.62	1730.53
301.83	1826.79
302.05	1652.71
302.26	1695.72
302.47	1708.01
302.69	1619.94
302.90	1708.01
303.12	1525.74
303.33	1708.01
303.54	1855.46
303.76	1658.85
303.97	1701.86
304.19	1826.79
304.40	1640.42
304.61	1769.44
304.83	1804.26
305.04	1751.01
305.26	1679.33
305.47	1642.47
305.68	1697.77
305.90	1652.71
306.11	1740.77
306.33	1726.44
306.54	1677.29
306.75	1695.72
306.97	1632.23
307.18	1597.42
307.39	1626.09
307.61	1736.68
307.82	1646.57
308.04	1847.27
308.25	1726.44
308.46	1687.53
308.68	1697.77
308.89	1697.77
309.10	1744.87
309.32	1648.61
309.53	1677.29
309.74	1765.35
309.96	1644.52
310.17	1779.68
310.39	1634.28
310.60	1654.76
310.81	1722.34
311.03	1675.24
311.24	1779.68
311.45	1740.77
311.67	1763.30
311.88	1769.44
312.09	1669.09
312.31	1615.85
312.52	1705.96
312.73	1683.43
312.95	1599.46
313.16	1660.90
313.37	1761.25
313.59	1763.30
313.80	1794.02
314.01	1794.02
314.23	1734.63
314.44	1705.96
314.65	1638.38
314.87	1632.23
315.08	1753.06
315.29	1667.05
315.51	1613.80
315.72	1671.14
315.93	1796.07
316.15	1744.87
316.36	1693.67
316.57	1699.81
316.79	1718.25
317.00	1648.61
317.21	1765.35
317.43	1593.32
317.64	1621.99
317.85	1710.05
318.07	1675.24
318.28	1724.39
318.49	1859.56
318.70	1959.91
318.92	1810.40
319.13	1777.64
319.34	1832.93
319.56	1759.21
319.77	1748.97
319.98	1744.87
320.20	1779.68
320.41	1746.92
320.62	1755.11
320.83	1624.04
321.05	1757.16
321.26	1751.01
321.47	1646.57
321.69	1865.70
321.90	1656.81
322.11	1757.16
322.32	1753.06
322.54	1765.35
322.75	1759.21
322.96	1882.08
323.18	1667.05
323.39	1593.32
323.60	1695.72
323.81	1769.44
324.03	1734.63
324.24	1697.77
324.45	1687.53
324.66	1695.72
324.88	1802.21
325.09	1746.92
325.30	1679.33
325.52	1720.29
325.73	1738.73
325.94	1665.00
326.15	1613.80
326.37	1722.34
326.58	1761.25
326.79	1796.07
327.00	1691.62
327.22	1701.86
327.43	1730.53
327.64	1636.33
327.85	1701.86
328.07	1718.25
328.28	1808.36
328.49	1640.42
328.70	1779.68
328.92	1763.30
329.13	1675.24
329.34	1800.16
329.55	1794.02
329.76	1771.49
329.98	1683.43
330.19	1849.32
330.40	1732.58
330.61	1683.43
330.83	1734.63
331.04	1669.09
331.25	1726.44
331.46	1677.29
331.68	1628.14
331.89	1761.25
332.10	1667.05
332.31	1628.14
332.52	1646.57
332.74	1783.78
332.95	1617.90
333.16	1687.53
333.37	1720.29
333.58	1650.66
333.80	1658.85
334.01	1648.61
334.22	1701.86
334.43	1632.23
334.64	1675.24
334.86	1658.85
335.07	1683.43
335.28	1738.73
335.49	1644.52
335.70	1732.58
335.92	1886.18
336.13	1820.64
336.34	1763.30
336.55	1822.69
336.76	1781.73
336.98	1634.28
337.19	1703.91
337.40	1744.87
337.61	1847.27
337.82	1720.29
338.04	1804.26
338.25	1687.53
338.46	1683.43
338.67	1738.73
338.88	1624.04
339.09	1624.04
339.31	1726.44
339.52	1550.31
339.73	1660.90
339.94	1710.05
340.15	1718.25
340.36	1597.42
340.58	1667.05
340.79	1593.32
341.00	1693.67
341.21	1634.28
341.42	1806.31
341.63	1798.12
341.85	1769.44
342.06	1736.68
342.27	1687.53
342.48	1791.97
342.69	1617.90
342.90	1751.01
343.12	1695.72
343.33	1724.39
343.54	1710.05
343.75	1738.73
343.96	1748.97
344.17	1728.49
344.38	1685.48
344.60	1642.47
344.81	1636.33
345.02	1611.75
345.23	1751.01
345.44	1808.36
345.65	1755.11
345.86	1685.48
346.07	1710.05
346.29	1722.34
346.50	1765.35
346.71	1658.85
346.92	1730.53
347.13	1802.21
347.34	1687.53
347.55	1665.00
347.76	1685.48
347.98	1613.80
348.19	1654.76
348.40	1785.83
348.61	1648.61
348.82	1820.64
349.03	1744.87
349.24	1626.09
349.45	1740.77
349.66	1558.50
349.88	1789.92
350.09	1675.24
350.30	1746.92
350.51	1800.16
350.72	1708.01
350.93	1814.50
351.14	1681.38
351.35	1681.38
351.56	1705.96
351.77	1718.25
351.99	1708.01
352.20	1798.12
352.41	1787.88
352.62	1599.46
352.83	1693.67
353.04	1718.25
353.25	1712.10
353.46	1763.30
353.67	1744.87
353.88	1550.31
354.09	1757.16
354.30	1757.16
354.52	1732.58
354.73	1683.43
354.94	1697.77
355.15	1726.44
355.36	1789.92
355.57	1718.25
355.78	1685.48
355.99	1607.66
356.20	1646.57
356.41	1779.68
356.62	1718.25
356.83	1724.39
357.04	1748.97
357.25	1632.23
357.46	1695.72
357.68	1621.99
357.89	1624.04
358.10	1656.81
358.31	1714.15
358.52	1712.10
358.73	1576.94
358.94	1662.95
359.15	1648.61
359.36	1748.97
359.57	1705.96
359.78	1738.73
359.99	1730.53
360.20	1648.61
360.41	1675.24
360.62	1785.83
360.83	1722.34
361.04	1691.62
361.25	1773.54
361.46	1849.32
361.67	1748.97
361.88	1732.58
362.09	1734.63
362.30	1699.81
362.51	1708.01
362.72	1660.90
362.93	1765.35
363.14	1740.77
363.35	1708.01
363.56	1714.15
363.78	1824.74
363.99	1753.06
364.20	1759.21
364.41	1691.62
364.62	1794.02
364.83	1753.06
365.04	1701.86
365.25	1687.53
365.46	1820.64
365.67	1722.34
365.88	1677.29
366.09	1685.48
366.30	1697.77
366.51	1722.34
366.72	1624.04
366.93	1697.77
367.14	1712.10
367.35	1796.07
367.56	1710.05
367.77	1820.64
367.98	1718.25
368.18	1687.53
368.39	1712.10
368.60	1626.09
368.81	1748.97
369.02	1677.29
369.23	1669.09
369.44	1595.37
369.65	1662.95
369.86	1730.53
370.07	1818.60
370.28	1667.05
370.49	1779.68
370.70	1703.91
370.91	1656.81
371.12	1671.14
371.33	1751.01
371.54	1656.81
371.75	1779.68
371.96	1615.85
372.17	1681.38
372.38	1722.34
372.59	1751.01
372.80	1701.86
373.01	1724.39
373.22	1660.90
373.43	1658.85
373.64	1589.22
373.85	1736.68
374.06	1767.40
374.26	1714.15
374.47	1779.68
374.68	1775.59
374.89	1783.78
375.10	1591.27
375.31	1757.16
375.52	1665.00
375.73	1671.14
375.94	1626.09
376.15	1730.53
376.36	1669.09
376.57	1691.62
376.78	1681.38
376.99	1740.77
377.20	1728.49
377.40	1648.61
377.61	1828.84
377.82	1689.57
378.03	1732.58
378.24	1751.01
378.45	1712.10
378.66	1736.68
378.87	1599.46
379.08	1675.24
379.29	1689.57
379.50	1730.53
379.71	1652.71
379.91	1804.26
380.12	1695.72
380.33	1660.90
380.54	1662.95
380.75	1753.06
380.96	1638.38
381.17	1726.44
381.38	1644.52
381.59	1712.10
381.80	1710.05
382.00	1765.35
382.21	1767.40
382.42	1865.70
382.63	1906.66
382.84	1755.11
383.05	1728.49
383.26	1798.12
383.47	1708.01
383.68	1761.25
383.88	1777.64
384.09	1710.05
384.30	1796.07
384.51	1769.44
384.72	1755.11
384.93	1691.62
385.14	1730.53
385.35	1755.11
385.55	1654.76
385.76	1738.73
385.97	1726.44
386.18	1669.09
386.39	1724.39
386.60	1718.25
386.81	1730.53
387.02	1583.08
387.22	1703.91
387.43	1783.78
387.64	1802.21
387.85	1816.55
388.06	2277.34
388.27	4351.93
388.48	6963.09
388.68	8253.31
388.89	9631.60
389.10	9842.54
389.31	8882.04
389.52	7694.22
389.73	6915.99
389.93	6332.32
390.14	5906.34
390.35	5207.98
390.56	4657.08
390.77	3762.12
390.98	3194.83
391.18	2551.77
391.39	2144.22
391.60	1822.69
391.81	1853.41
392.02	1724.39
392.23	1761.25
392.43	1665.00
392.64	1847.27
392.85	1705.96
393.06	1808.36
393.27	1789.92
393.47	1730.53
393.68	1697.77
393.89	1677.29
394.10	1794.02
394.31	1693.67
394.52	1654.76
394.72	1689.57
394.93	1810.40
395.14	1621.99
395.35	1785.83
395.56	1632.23
395.76	1716.20
395.97	1814.50
396.18	1812.45
396.39	1804.26
396.60	2097.12
396.80	1900.52
397.01	1820.64
397.22	1820.64
397.43	1828.84
397.64	1703.91
397.84	1769.44
398.05	1886.18
398.26	1722.34
398.47	1804.26
398.67	1798.12
398.88	1697.77
399.09	1726.44
399.30	1638.38
399.51	1695.72
399.71	1683.43
399.92	1740.77
400.13	1748.97
400.34	1724.39
400.54	1714.15
400.75	1873.89
400.96	1761.25
401.17	1775.59
401.37	1748.97
401.58	1681.38
401.79	1744.87
402.00	1832.93
402.21	2086.88
402.41	1994.72
402.62	1964.00
402.83	1994.72
403.04	1939.43
403.24	2058.21
403.45	1832.93
403.66	1976.29
403.87	1824.74
404.07	1892.32
404.28	1984.48
404.49	1861.60
404.70	1806.31
404.90	1787.88
405.11	1740.77
405.32	1746.92
405.52	1667.05
405.73	1679.33
405.94	1658.85
406.15	1712.10
406.35	1726.44
406.56	1705.96
406.77	1703.91
406.98	1722.34
407.18	1675.24
407.39	1779.68
407.60	1658.85
407.80	1804.26
408.01	1726.44
408.22	1742.82
408.43	1683.43
408.63	1732.58
408.84	1730.53
409.05	1746.92
409.25	1615.85
409.46	1671.14
409.67	1712.10
409.88	1705.96
410.08	1736.68
410.29	1695.72
410.50	1671.14
410.70	1665.00
410.91	1646.57
411.12	1722.34
411.32	1662.95
411.53	1708.01
411.74	1894.37
411.95	1759.21
412.15	1751.01
412.36	1861.60
412.57	1796.07
412.77	1783.78
412.98	1642.47
413.19	1718.25
413.39	1748.97
413.60	1738.73
413.81	1781.73
414.01	1640.42
414.22	1740.77
414.43	1759.21
414.63	1699.81
414.84	1701.86
415.05	1714.15
415.25	1665.00
415.46	1812.45
415.67	1632.23
415.87	1695.72
416.08	1650.66
416.29	1755.11
416.49	1669.09
416.70	1705.96
416.91	1685.48
417.11	1693.67
417.32	1814.50
417.53	1734.63
417.73	1714.15
417.94	1746.92
418.15	1705.96
418.35	1689.57
418.56	1669.09
418.77	1982.43
418.97	1763.30
419.18	1701.86
419.38	1574.89
419.59	1632.23
419.80	1830.88
420.00	1726.44
420.21	1681.38
420.42	1759.21
420.62	1710.05
420.83	1642.47
421.04	1746.92
421.24	1767.40
421.45	1744.87
421.65	1761.25
421.86	1640.42
422.07	1759.21
422.27	1685.48
422.48	1726.44
422.69	1667.05
422.89	1609.70
423.10	1660.90
423.30	1607.66
423.51	1710.05
423.72	1751.01
423.92	1693.67
424.13	1593.32
424.33	1783.78
424.54	1753.06
424.75	1732.58
424.95	1857.51
425.16	1761.25
425.36	1667.05
425.57	1732.58
425.78	1759.21
425.98	1708.01
426.19	1751.01
426.39	1609.70
426.60	1632.23
426.81	1837.03
427.01	1650.66
427.22	1689.57
427.42	1597.42
427.63	1667.05
427.83	1691.62
428.04	1830.88
428.25	1781.73
428.45	1722.34
428.66	1744.87
428.86	1587.18
429.07	1689.57
429.28	1673.19
429.48	1714.15
429.69	1642.47
429.89	1705.96
430.10	1736.68
430.30	1771.49
430.51	1781.73
430.71	1687.53
430.92	1763.30
431.13	1710.05
431.33	1615.85
431.54	1759.21
431.74	1787.88
431.95	1847.27
432.15	1626.09
432.36	1736.68
432.56	1742.82
432.77	1869.80
432.98	1796.07
433.18	1746.92
433.39	1695.72
433.59	1687.53
433.80	1773.54
434.00	1882.08
434.21	1716.20
434.41	1589.22
434.62	1818.60
434.82	1673.19
435.03	1746.92
435.23	1718.25
435.44	1646.57
435.64	1720.29
435.85	1712.10
436.06	1765.35
436.26	1847.27
436.47	1751.01
436.67	1714.15
436.88	1673.19
437.08	1800.16
437.29	1783.78
437.49	1710.05
437.70	1763.30
437.90	1765.35
438.11	1796.07
438.31	1810.40
438.52	1888.23
438.72	1894.37
438.93	1855.46
439.13	1744.87
439.34	1802.21
439.54	1742.82
439.75	1814.50
439.95	1789.92
440.16	1736.68
440.36	1775.59
440.57	1730.53
440.77	1710.05
440.98	1763.30
441.18	1751.01
441.39	1755.11
441.59	1576.94
441.80	1822.69
442.00	1705.96
442.21	1763.30
442.41	1613.80
442.62	1748.97
442.82	1675.24
443.02	1742.82
443.23	1730.53
443.43	1742.82
443.64	1857.51
443.84	1773.54
444.05	1777.64
444.25	1744.87
444.46	1710.05
444.66	1734.63
444.87	1812.45
445.07	1703.91
445.28	1755.11
445.48	1759.21
445.69	1779.68
445.89	1847.27
446.09	1757.16
446.30	1992.67
446.50	2652.12
446.71	3751.88
446.91	4493.24
447.12	4636.60
447.32	4933.56
447.53	4392.89
447.73	3973.06
447.93	3561.42
448.14	3268.56
448.34	3332.05
448.55	2916.31
448.75	2959.31
448.96	2705.37
449.16	2340.83
449.36	2256.86
449.57	2109.41
449.77	1865.70
449.98	1820.64
450.18	1742.82
450.39	1810.40
450.59	1785.83
450.79	1779.68
451.00	1722.34
451.20	1738.73
451.41	1658.85
451.61	1847.27
451.81	1693.67
452.02	1679.33
452.22	1730.53
452.43	1720.29
452.63	1642.47
