SpectraSuite Data File
++++++++++++++++++++++++++++++++++++
Date: Mon Jun 06 15:23:57 CEST 2016
User: root
Dark Spectrum Present: No
Reference Spectrum Present: No
Number of Sampled Component Spectra: 1
Spectrometers: USB4C02835
Integration Time (usec): 100000 (USB4C02835)
Spectra Averaged: 1 (USB4C02835)
Boxcar Smoothing: 0 (USB4C02835)
Correct for Electrical Dark: No (USB4C02835)
Strobe/Lamp Enabled: No (USB4C02835)
Correct for Detector Non-linearity: No (USB4C02835)
Correct for Stray Light: No (USB4C02835)
Number of Pixels in Processed Spectrum: 3648
>>>>>Begin Processed Spectral Data<<<<<
177.47	1511.40
177.69	1511.40
177.91	1511.40
178.13	1439.72
178.36	1515.50
178.58	1621.99
178.80	1710.05
179.02	1671.14
179.24	1662.95
179.46	1689.57
179.68	1763.30
179.90	1761.25
180.13	1677.29
180.35	1658.85
180.57	1665.00
180.79	1683.43
181.01	1748.97
181.23	1789.92
181.45	1783.78
181.67	1763.30
181.90	1757.16
182.12	1665.00
182.34	1621.99
182.56	1708.01
182.78	1673.19
183.00	1771.49
183.22	1724.39
183.44	1628.14
183.66	1855.46
183.89	1771.49
184.11	1712.10
184.33	1683.43
184.55	1689.57
184.77	1710.05
184.99	1761.25
185.21	1738.73
185.43	1861.60
185.65	1669.09
185.87	1767.40
186.10	1798.12
186.32	1787.88
186.54	1726.44
186.76	1791.97
186.98	1763.30
187.20	1679.33
187.42	1638.38
187.64	1697.77
187.86	1683.43
188.08	1806.31
188.30	1634.28
188.52	1753.06
188.75	1791.97
188.97	1808.36
189.19	1757.16
189.41	1714.15
189.63	1726.44
189.85	1699.81
190.07	1634.28
190.29	1679.33
190.51	1701.86
190.73	1624.04
190.95	1763.30
191.17	1730.53
191.39	1703.91
191.61	1724.39
191.84	1624.04
192.06	1710.05
192.28	1599.46
192.50	1845.22
192.72	1656.81
192.94	1640.42
193.16	1800.16
193.38	1800.16
193.60	1630.18
193.82	1798.12
194.04	1681.38
194.26	1703.91
194.48	1736.68
194.70	1640.42
194.92	1615.85
195.14	1699.81
195.36	1701.86
195.58	1787.88
195.80	1716.20
196.02	1675.24
196.24	1726.44
196.46	1773.54
196.69	1701.86
196.91	1863.65
197.13	1746.92
197.35	1619.94
197.57	1791.97
197.79	1722.34
198.01	1798.12
198.23	1732.58
198.45	1753.06
198.67	1589.22
198.89	1712.10
199.11	1746.92
199.33	1599.46
199.55	1599.46
199.77	1755.11
199.99	1767.40
200.21	1710.05
200.43	1753.06
200.65	1581.03
200.87	1619.94
201.09	1660.90
201.31	1648.61
201.53	1748.97
201.75	1751.01
201.97	1681.38
202.19	1748.97
202.41	1777.64
202.63	1834.98
202.85	1796.07
203.07	1693.67
203.29	1667.05
203.51	1662.95
203.73	1669.09
203.95	1912.80
204.17	1730.53
204.39	1789.92
204.61	1697.77
204.83	1724.39
205.05	1771.49
205.27	1787.88
205.49	1783.78
205.71	1697.77
205.93	1652.71
206.15	1624.04
206.37	1697.77
206.59	1765.35
206.81	1589.22
207.03	1591.27
207.25	1714.15
207.47	1771.49
207.69	1763.30
207.91	1822.69
208.13	1773.54
208.34	1628.14
208.56	1667.05
208.78	1808.36
209.00	1720.29
209.22	1736.68
209.44	1740.77
209.66	1673.19
209.88	1687.53
210.10	1755.11
210.32	1820.64
210.54	1742.82
210.76	1714.15
210.98	1714.15
211.20	1626.09
211.42	1708.01
211.64	1742.82
211.86	1695.72
212.08	1779.68
212.30	1818.60
212.52	1720.29
212.74	1767.40
212.96	1716.20
213.17	1769.44
213.39	1683.43
213.61	1787.88
213.83	1787.88
214.05	1689.57
214.27	1746.92
214.49	1710.05
214.71	1632.23
214.93	1796.07
215.15	1728.49
215.37	1779.68
215.59	1665.00
215.81	1728.49
216.03	1830.88
216.24	1728.49
216.46	1722.34
216.68	1789.92
216.90	1683.43
217.12	1748.97
217.34	1681.38
217.56	1736.68
217.78	1724.39
218.00	1734.63
218.22	1665.00
218.44	1693.67
218.66	1757.16
218.87	1798.12
219.09	1712.10
219.31	1667.05
219.53	1769.44
219.75	1679.33
219.97	1701.86
220.19	1755.11
220.41	1738.73
220.63	1771.49
220.85	1646.57
221.06	1662.95
221.28	1826.79
221.50	1716.20
221.72	1712.10
221.94	1767.40
222.16	1677.29
222.38	1726.44
222.60	1701.86
222.82	1689.57
223.03	1806.31
223.25	1691.62
223.47	1662.95
223.69	1869.80
223.91	1753.06
224.13	1724.39
224.35	1759.21
224.57	1787.88
224.78	1751.01
225.00	1695.72
225.22	1728.49
225.44	1806.31
225.66	1718.25
225.88	1726.44
226.10	1767.40
226.32	1738.73
226.53	1759.21
226.75	1724.39
226.97	1697.77
227.19	1638.38
227.41	1638.38
227.63	1656.81
227.85	1646.57
228.06	1785.83
228.28	1710.05
228.50	1753.06
228.72	1669.09
228.94	1673.19
229.16	1626.09
229.37	1658.85
229.59	1624.04
229.81	1765.35
230.03	1722.34
230.25	1609.70
230.47	1665.00
230.69	1703.91
230.90	1681.38
231.12	1628.14
231.34	1748.97
231.56	1861.60
231.78	1644.52
232.00	1748.97
232.21	1665.00
232.43	1687.53
232.65	1667.05
232.87	1763.30
233.09	1710.05
233.30	1708.01
233.52	1732.58
233.74	1714.15
233.96	1728.49
234.18	1748.97
234.40	1679.33
234.61	1820.64
234.83	1640.42
235.05	1603.56
235.27	1867.75
235.49	1822.69
235.70	1648.61
235.92	1779.68
236.14	1689.57
236.36	1886.18
236.58	1605.61
236.79	1728.49
237.01	1644.52
237.23	1789.92
237.45	1783.78
237.67	1667.05
237.88	1783.78
238.10	1794.02
238.32	1667.05
238.54	1660.90
238.76	1613.80
238.97	1658.85
239.19	1665.00
239.41	1691.62
239.63	1787.88
239.85	1701.86
240.06	1738.73
240.28	1722.34
240.50	1834.98
240.72	1806.31
240.93	1677.29
241.15	1796.07
241.37	1701.86
241.59	1761.25
241.81	1683.43
242.02	1744.87
242.24	1730.53
242.46	1796.07
242.68	1689.57
242.89	1798.12
243.11	1738.73
243.33	1738.73
243.55	1718.25
243.76	1712.10
243.98	1615.85
244.20	1718.25
244.42	1660.90
244.64	1712.10
244.85	1652.71
245.07	1642.47
245.29	1703.91
245.51	1640.42
245.72	1566.70
245.94	1837.03
246.16	1652.71
246.38	1810.40
246.59	1632.23
246.81	1636.33
247.03	1689.57
247.24	1697.77
247.46	1710.05
247.68	1718.25
247.90	1728.49
248.11	1771.49
248.33	1789.92
248.55	1722.34
248.77	1771.49
248.98	1697.77
249.20	1845.22
249.42	1777.64
249.64	1712.10
249.85	1697.77
250.07	1742.82
250.29	1753.06
250.50	1763.30
250.72	1640.42
250.94	1683.43
251.16	1818.60
251.37	1755.11
251.59	1705.96
251.81	1665.00
252.02	1894.37
252.24	1769.44
252.46	1877.99
252.68	1681.38
252.89	1693.67
253.11	1599.46
253.33	1794.02
253.54	1763.30
253.76	1636.33
253.98	1718.25
254.20	1804.26
254.41	1665.00
254.63	1665.00
254.85	1615.85
255.06	1720.29
255.28	1691.62
255.50	1708.01
255.71	1640.42
255.93	1640.42
256.15	1605.61
256.36	1685.48
256.58	1748.97
256.80	1746.92
257.02	1677.29
257.23	1716.20
257.45	1701.86
257.67	1767.40
257.88	1658.85
258.10	1751.01
258.32	1734.63
258.53	1710.05
258.75	1773.54
258.97	1710.05
259.18	1656.81
259.40	1705.96
259.62	1773.54
259.83	1781.73
260.05	1734.63
260.27	2011.11
260.48	1771.49
260.70	1593.32
260.92	1697.77
261.13	1656.81
261.35	1730.53
261.57	1789.92
261.78	1578.98
262.00	1697.77
262.22	1751.01
262.43	1742.82
262.65	1773.54
262.86	1695.72
263.08	1867.75
263.30	1779.68
263.51	1531.88
263.73	1712.10
263.95	1771.49
264.16	1646.57
264.38	1642.47
264.60	1748.97
264.81	1767.40
265.03	1798.12
265.25	1656.81
265.46	1732.58
265.68	1708.01
265.89	1716.20
266.11	1595.37
266.33	1783.78
266.54	1847.27
266.76	1832.93
266.98	1734.63
267.19	1865.70
267.41	1740.77
267.62	1669.09
267.84	1640.42
268.06	1769.44
268.27	1714.15
268.49	1728.49
268.70	1755.11
268.92	1720.29
269.14	1693.67
269.35	1656.81
269.57	1662.95
269.79	1791.97
270.00	1761.25
270.22	1783.78
270.43	1689.57
270.65	1642.47
270.87	1683.43
271.08	1689.57
271.30	1771.49
271.51	1712.10
271.73	1775.59
271.95	1791.97
272.16	1701.86
272.38	1703.91
272.59	1642.47
272.81	1779.68
273.02	1714.15
273.24	1681.38
273.46	1759.21
273.67	1621.99
273.89	1630.18
274.10	1718.25
274.32	1732.58
274.54	1718.25
274.75	1708.01
274.97	1695.72
275.18	1755.11
275.40	1730.53
275.61	1699.81
275.83	1728.49
276.05	1636.33
276.26	1675.24
276.48	1761.25
276.69	1734.63
276.91	1644.52
277.12	1826.79
277.34	1718.25
277.55	1789.92
277.77	1724.39
277.99	1642.47
278.20	1611.75
278.42	1722.34
278.63	1716.20
278.85	1626.09
279.06	1636.33
279.28	1763.30
279.49	1740.77
279.71	1783.78
279.93	1699.81
280.14	1689.57
280.36	1660.90
280.57	1748.97
280.79	1726.44
281.00	1697.77
281.22	1705.96
281.43	1732.58
281.65	1617.90
281.86	1683.43
282.08	1779.68
282.29	1775.59
282.51	1642.47
282.73	1675.24
282.94	1621.99
283.16	1722.34
283.37	1773.54
283.59	1736.68
283.80	1689.57
284.02	1757.16
284.23	1765.35
284.45	1703.91
284.66	1681.38
284.88	1712.10
285.09	1671.14
285.31	1781.73
285.52	1736.68
285.74	1656.81
285.95	1798.12
286.17	1681.38
286.38	1873.89
286.60	1740.77
286.81	1603.56
287.03	1712.10
287.24	1669.09
287.46	1796.07
287.67	1701.86
287.89	1777.64
288.10	1734.63
288.32	1660.90
288.53	1806.31
288.75	1732.58
288.96	1832.93
289.18	1716.20
289.39	1726.44
289.61	1763.30
289.82	1890.28
290.04	1746.92
290.25	1617.90
290.47	1705.96
290.68	1673.19
290.90	1697.77
291.11	1646.57
291.33	1796.07
291.54	1667.05
291.76	1673.19
291.97	1718.25
292.18	1730.53
292.40	1681.38
292.61	1699.81
292.83	1828.84
293.04	1736.68
293.26	1759.21
293.47	1751.01
293.69	1654.76
293.90	1677.29
294.12	1855.46
294.33	1714.15
294.55	1742.82
294.76	1734.63
294.97	1869.80
295.19	1865.70
295.40	1705.96
295.62	1714.15
295.83	1718.25
296.05	1681.38
296.26	1744.87
296.48	1685.48
296.69	1669.09
296.90	1714.15
297.12	1695.72
297.33	1800.16
297.55	1699.81
297.76	1665.00
297.98	1828.84
298.19	1755.11
298.41	1689.57
298.62	1669.09
298.83	1703.91
299.05	1683.43
299.26	1652.71
299.48	1714.15
299.69	1777.64
299.90	1755.11
300.12	1701.86
300.33	1728.49
300.55	1656.81
300.76	1722.34
300.98	1662.95
301.19	1773.54
301.40	1724.39
301.62	1705.96
301.83	1775.59
302.05	1660.90
302.26	1730.53
302.47	1714.15
302.69	1589.22
302.90	1685.48
303.12	1589.22
303.33	1779.68
303.54	1810.40
303.76	1654.76
303.97	1724.39
304.19	1787.88
304.40	1671.14
304.61	1628.14
304.83	1849.32
305.04	1712.10
305.26	1685.48
305.47	1630.18
305.68	1708.01
305.90	1611.75
306.11	1783.78
306.33	1681.38
306.54	1748.97
306.75	1681.38
306.97	1581.03
307.18	1628.14
307.39	1644.52
307.61	1751.01
307.82	1732.58
308.04	1732.58
308.25	1695.72
308.46	1755.11
308.68	1738.73
308.89	1718.25
309.10	1742.82
309.32	1751.01
309.53	1730.53
309.74	1712.10
309.96	1685.48
310.17	1837.03
310.39	1722.34
310.60	1751.01
310.81	1728.49
311.03	1644.52
311.24	1746.92
311.45	1673.19
311.67	1834.98
311.88	1726.44
312.09	1789.92
312.31	1708.01
312.52	1597.42
312.73	1804.26
312.95	1591.27
313.16	1642.47
313.37	1748.97
313.59	1751.01
313.80	1847.27
314.01	1798.12
314.23	1658.85
314.44	1751.01
314.65	1699.81
314.87	1603.56
315.08	1728.49
315.29	1712.10
315.51	1656.81
315.72	1638.38
315.93	1912.80
316.15	1730.53
316.36	1714.15
316.57	1730.53
316.79	1779.68
317.00	1740.77
317.21	1767.40
317.43	1708.01
317.64	1720.29
317.85	1646.57
318.07	1636.33
318.28	1685.48
318.49	1769.44
318.70	1902.56
318.92	1902.56
319.13	1837.03
319.34	1931.23
319.56	1767.40
319.77	1804.26
319.98	1761.25
320.20	1726.44
320.41	1728.49
320.62	1736.68
320.83	1665.00
321.05	1855.46
321.26	1804.26
321.47	1656.81
321.69	1818.60
321.90	1591.27
322.11	1765.35
322.32	1726.44
322.54	1787.88
322.75	1763.30
322.96	1818.60
323.18	1669.09
323.39	1597.42
323.60	1621.99
323.81	1730.53
324.03	1695.72
324.24	1759.21
324.45	1669.09
324.66	1648.61
324.88	1845.22
325.09	1771.49
325.30	1701.86
325.52	1730.53
325.73	1738.73
325.94	1652.71
326.15	1572.84
326.37	1636.33
326.58	1771.49
326.79	1843.17
327.00	1572.84
327.22	1746.92
327.43	1675.24
327.64	1675.24
327.85	1714.15
328.07	1691.62
328.28	1853.41
328.49	1658.85
328.70	1708.01
328.92	1693.67
329.13	1791.97
329.34	1763.30
329.55	1804.26
329.76	1816.55
329.98	1671.14
330.19	1751.01
330.40	1734.63
330.61	1724.39
330.83	1724.39
331.04	1656.81
331.25	1775.59
331.46	1724.39
331.68	1701.86
331.89	1834.98
332.10	1636.33
332.31	1634.28
332.52	1722.34
332.74	1785.83
332.95	1665.00
333.16	1665.00
333.37	1791.97
333.58	1685.48
333.80	1773.54
334.01	1632.23
334.22	1638.38
334.43	1650.66
334.64	1767.40
334.86	1652.71
335.07	1640.42
335.28	1693.67
335.49	1693.67
335.70	1703.91
335.92	1789.92
336.13	1855.46
336.34	1779.68
336.55	1636.33
336.76	1779.68
336.98	1642.47
337.19	1712.10
337.40	1861.60
337.61	1837.03
337.82	1650.66
338.04	1732.58
338.25	1587.18
338.46	1791.97
338.67	1771.49
338.88	1650.66
339.09	1697.77
339.31	1701.86
339.52	1705.96
339.73	1640.42
339.94	1791.97
340.15	1669.09
340.36	1716.20
340.58	1695.72
340.79	1714.15
341.00	1775.59
341.21	1644.52
341.42	1847.27
341.63	1687.53
341.85	1791.97
342.06	1767.40
342.27	1611.75
342.48	1677.29
342.69	1566.70
342.90	1722.34
343.12	1785.83
343.33	1732.58
343.54	1800.16
343.75	1773.54
343.96	1730.53
344.17	1585.13
344.38	1708.01
344.60	1685.48
344.81	1599.46
345.02	1671.14
345.23	1763.30
345.44	1865.70
345.65	1771.49
345.86	1751.01
346.07	1681.38
346.29	1701.86
346.50	1693.67
346.71	1699.81
346.92	1677.29
347.13	1916.90
347.34	1683.43
347.55	1716.20
347.76	1708.01
347.98	1636.33
348.19	1658.85
348.40	1679.33
348.61	1734.63
348.82	1787.88
349.03	1787.88
349.24	1640.42
349.45	1789.92
349.66	1632.23
349.88	1687.53
350.09	1648.61
350.30	1798.12
350.51	1771.49
350.72	1726.44
350.93	1718.25
351.14	1712.10
351.35	1730.53
351.56	1746.92
351.77	1703.91
351.99	1726.44
352.20	1763.30
352.41	1742.82
352.62	1611.75
352.83	1685.48
353.04	1708.01
353.25	1658.85
353.46	1822.69
353.67	1773.54
353.88	1615.85
354.09	1697.77
354.30	1683.43
354.52	1761.25
354.73	1748.97
354.94	1677.29
355.15	1640.42
355.36	1826.79
355.57	1634.28
355.78	1701.86
355.99	1718.25
356.20	1703.91
356.41	1783.78
356.62	1734.63
356.83	1734.63
357.04	1779.68
357.25	1583.08
357.46	1748.97
357.68	1632.23
357.89	1648.61
358.10	1734.63
358.31	1685.48
358.52	1783.78
358.73	1611.75
358.94	1669.09
359.15	1669.09
359.36	1732.58
359.57	1718.25
359.78	1724.39
359.99	1718.25
360.20	1621.99
360.41	1658.85
360.62	1726.44
360.83	1701.86
361.04	1746.92
361.25	1783.78
361.46	1777.64
361.67	1738.73
361.88	1783.78
362.09	1787.88
362.30	1697.77
362.51	1746.92
362.72	1701.86
362.93	1777.64
363.14	1730.53
363.35	1783.78
363.56	1712.10
363.78	1796.07
363.99	1658.85
364.20	1769.44
364.41	1746.92
364.62	1880.04
364.83	1697.77
365.04	1683.43
365.25	1740.77
365.46	1771.49
365.67	1681.38
365.88	1578.98
366.09	1703.91
366.30	1718.25
366.51	1705.96
366.72	1574.89
366.93	1673.19
367.14	1736.68
367.35	1771.49
367.56	1708.01
367.77	1834.98
367.98	1759.21
368.18	1736.68
368.39	1716.20
368.60	1705.96
368.81	1814.50
369.02	1746.92
369.23	1726.44
369.44	1642.47
369.65	1703.91
369.86	1679.33
370.07	1753.06
370.28	1669.09
370.49	1742.82
370.70	1732.58
370.91	1732.58
371.12	1654.76
371.33	1785.83
371.54	1730.53
371.75	1787.88
371.96	1611.75
372.17	1748.97
372.38	1619.94
372.59	1619.94
372.80	1759.21
373.01	1679.33
373.22	1751.01
373.43	1720.29
373.64	1648.61
373.85	1716.20
374.06	1828.84
374.26	1834.98
374.47	1693.67
374.68	1896.42
374.89	1685.48
375.10	1671.14
375.31	1783.78
375.52	1730.53
375.73	1818.60
375.94	1697.77
376.15	1818.60
376.36	1671.14
376.57	1689.57
376.78	1718.25
376.99	1787.88
377.20	1755.11
377.40	1697.77
377.61	1857.51
377.82	1607.66
378.03	1732.58
378.24	1759.21
378.45	1779.68
378.66	1779.68
378.87	1646.57
379.08	1562.60
379.29	1708.01
379.50	1886.18
379.71	1769.44
379.91	1800.16
380.12	1744.87
380.33	1748.97
380.54	1703.91
380.75	1679.33
380.96	1701.86
381.17	1701.86
381.38	1705.96
381.59	1787.88
381.80	1818.60
382.00	1834.98
382.21	1751.01
382.42	1779.68
382.63	1892.32
382.84	1716.20
383.05	1746.92
383.26	1828.84
383.47	1748.97
383.68	1798.12
383.88	1800.16
384.09	1751.01
384.30	1857.51
384.51	1740.77
384.72	1746.92
384.93	1705.96
385.14	1726.44
385.35	1765.35
385.55	1675.24
385.76	1714.15
385.97	1738.73
386.18	1697.77
386.39	1665.00
386.60	1714.15
386.81	1650.66
387.02	1691.62
387.22	1624.04
387.43	1818.60
387.64	1734.63
387.85	1816.55
388.06	2189.28
388.27	4087.75
388.48	6633.37
388.68	7978.89
388.89	9430.90
389.10	9652.08
389.31	8333.18
389.52	7425.93
389.73	6662.04
389.93	6141.86
390.14	5732.26
390.35	5271.47
390.56	4521.92
390.77	3661.77
390.98	3088.34
391.18	2486.23
391.39	2037.73
391.60	1890.28
391.81	1818.60
392.02	1697.77
392.23	1916.90
392.43	1736.68
392.64	1796.07
392.85	1644.52
393.06	1822.69
393.27	1716.20
393.47	1742.82
393.68	1667.05
393.89	1691.62
394.10	1740.77
394.31	1662.95
394.52	1581.03
394.72	1677.29
394.93	1867.75
395.14	1689.57
395.35	1753.06
395.56	1722.34
395.76	1755.11
395.97	1867.75
396.18	1810.40
396.39	1783.78
396.60	2029.54
396.80	1865.70
397.01	1849.32
397.22	1783.78
397.43	1808.36
397.64	1748.97
397.84	1806.31
398.05	1896.42
398.26	1757.16
398.47	1789.92
398.67	1826.79
398.88	1798.12
399.09	1746.92
399.30	1718.25
399.51	1712.10
399.71	1712.10
399.92	1734.63
400.13	1699.81
400.34	1687.53
400.54	1675.24
400.75	1720.29
400.96	1796.07
401.17	1853.41
401.37	1769.44
401.58	1728.49
401.79	1820.64
402.00	1853.41
402.21	2041.82
402.41	1953.76
402.62	1964.00
402.83	2004.96
403.04	1994.72
403.24	2060.26
403.45	1845.22
403.66	1865.70
403.87	1982.43
404.07	1822.69
404.28	1886.18
404.49	1890.28
404.70	1732.58
404.90	1785.83
405.11	1742.82
405.32	1820.64
405.52	1722.34
405.73	1714.15
405.94	1708.01
406.15	1744.87
406.35	1701.86
406.56	1740.77
406.77	1691.62
406.98	1744.87
407.18	1687.53
407.39	1826.79
407.60	1654.76
407.80	1650.66
408.01	1634.28
408.22	1755.11
408.43	1669.09
408.63	1683.43
408.84	1740.77
409.05	1771.49
409.25	1697.77
409.46	1730.53
409.67	1763.30
409.88	1689.57
410.08	1705.96
410.29	1673.19
410.50	1845.22
410.70	1757.16
410.91	1642.47
411.12	1751.01
411.32	1746.92
411.53	1742.82
411.74	1755.11
411.95	1794.02
412.15	1738.73
412.36	1820.64
412.57	1761.25
412.77	1798.12
412.98	1699.81
413.19	1640.42
413.39	1808.36
413.60	1708.01
413.81	1781.73
414.01	1687.53
414.22	1871.84
414.43	1718.25
414.63	1685.48
414.84	1775.59
415.05	1767.40
415.25	1644.52
415.46	1695.72
415.67	1673.19
415.87	1841.12
416.08	1728.49
416.29	1665.00
416.49	1816.55
416.70	1746.92
416.91	1785.83
417.11	1714.15
417.32	1748.97
417.53	1806.31
417.73	1665.00
417.94	1753.06
418.15	1730.53
418.35	1779.68
418.56	1740.77
418.77	1824.74
418.97	1656.81
419.18	1734.63
419.38	1562.60
419.59	1648.61
419.80	1859.56
420.00	1656.81
420.21	1761.25
420.42	1806.31
420.62	1773.54
420.83	1671.14
421.04	1708.01
421.24	1769.44
421.45	1744.87
421.65	1740.77
421.86	1642.47
422.07	1736.68
422.27	1777.64
422.48	1757.16
422.69	1693.67
422.89	1671.14
423.10	1669.09
423.30	1671.14
423.51	1738.73
423.72	1740.77
423.92	1777.64
424.13	1673.19
424.33	1744.87
424.54	1775.59
424.75	1730.53
424.95	1785.83
425.16	1738.73
425.36	1726.44
425.57	1691.62
425.78	1771.49
425.98	1828.84
426.19	1736.68
426.39	1746.92
426.60	1689.57
426.81	1822.69
427.01	1697.77
427.22	1691.62
427.42	1617.90
427.63	1701.86
427.83	1744.87
428.04	1822.69
428.25	1748.97
428.45	1773.54
428.66	1734.63
428.86	1732.58
429.07	1693.67
429.28	1697.77
429.48	1693.67
429.69	1644.52
429.89	1679.33
430.10	1693.67
430.30	1810.40
430.51	1847.27
430.71	1693.67
430.92	1675.24
431.13	1697.77
431.33	1718.25
431.54	1742.82
431.74	1853.41
431.95	1912.80
432.15	1619.94
432.36	1714.15
432.56	1712.10
432.77	1839.08
432.98	1861.60
433.18	1853.41
433.39	1744.87
433.59	1703.91
433.80	1847.27
434.00	1814.50
434.21	1675.24
434.41	1671.14
434.62	1824.74
434.82	1628.14
435.03	1591.27
435.23	1802.21
435.44	1699.81
435.64	1703.91
435.85	1775.59
436.06	1787.88
436.26	1798.12
436.47	1736.68
436.67	1615.85
436.88	1677.29
437.08	1732.58
437.29	1783.78
437.49	1794.02
437.70	1798.12
437.90	1783.78
438.11	1779.68
438.31	1800.16
438.52	1882.08
438.72	1820.64
438.93	2000.87
439.13	1906.66
439.34	1796.07
439.54	1734.63
439.75	1791.97
439.95	1808.36
440.16	1736.68
440.36	1757.16
440.57	1802.21
440.77	1755.11
440.98	1796.07
441.18	1728.49
441.39	1703.91
441.59	1728.49
441.80	1806.31
442.00	1783.78
442.21	1787.88
442.41	1609.70
442.62	1810.40
442.82	1687.53
443.02	1763.30
443.23	1730.53
443.43	1652.71
443.64	1806.31
443.84	1667.05
444.05	1820.64
444.25	1796.07
444.46	1708.01
444.66	1742.82
444.87	1814.50
445.07	1669.09
445.28	1742.82
445.48	1802.21
445.69	1847.27
445.89	1857.51
446.09	1755.11
446.30	2013.15
446.50	2537.43
446.71	3712.97
446.91	4214.72
447.12	4544.44
447.32	4810.68
447.53	4274.11
447.73	3786.69
447.93	3504.07
448.14	3311.57
448.34	3174.35
448.55	2912.21
448.75	2762.71
448.96	2615.26
449.16	2379.74
449.36	2297.82
449.57	1970.15
449.77	1931.23
449.98	1771.49
450.18	1804.26
450.39	1826.79
450.59	1818.60
450.79	1818.60
451.00	1712.10
451.20	1763.30
451.41	1701.86
451.61	1708.01
451.81	1755.11
452.02	1742.82
452.22	1691.62
452.43	1669.09
452.63	1656.81
