SpectraSuite Data File
++++++++++++++++++++++++++++++++++++
Date: Mon Jun 06 14:54:17 CEST 2016
User: root
Dark Spectrum Present: No
Reference Spectrum Present: No
Number of Sampled Component Spectra: 1
Spectrometers: USB4C02835
Integration Time (usec): 100000 (USB4C02835)
Spectra Averaged: 1 (USB4C02835)
Boxcar Smoothing: 0 (USB4C02835)
Correct for Electrical Dark: No (USB4C02835)
Strobe/Lamp Enabled: No (USB4C02835)
Correct for Detector Non-linearity: No (USB4C02835)
Correct for Stray Light: No (USB4C02835)
Number of Pixels in Processed Spectrum: 3648
>>>>>Begin Processed Spectral Data<<<<<
177.47	1411.05
177.69	1411.05
177.91	1411.05
178.13	1388.52
178.36	1386.47
178.58	1654.76
178.80	1697.77
179.02	1624.04
179.24	1574.89
179.46	1722.34
179.68	1769.44
179.90	1671.14
180.13	1652.71
180.35	1621.99
180.57	1624.04
180.79	1691.62
181.01	1652.71
181.23	1734.63
181.45	1685.48
181.67	1679.33
181.90	1769.44
182.12	1656.81
182.34	1617.90
182.56	1669.09
182.78	1665.00
183.00	1722.34
183.22	1771.49
183.44	1521.64
183.66	1867.75
183.89	1828.84
184.11	1701.86
184.33	1656.81
184.55	1818.60
184.77	1677.29
184.99	1740.77
185.21	1689.57
185.43	1900.52
185.65	1665.00
185.87	1734.63
186.10	1822.69
186.32	1898.47
186.54	1671.14
186.76	1689.57
186.98	1748.97
187.20	1662.95
187.42	1644.52
187.64	1673.19
187.86	1660.90
188.08	1763.30
188.30	1595.37
188.52	1681.38
188.75	1730.53
188.97	1828.84
189.19	1650.66
189.41	1748.97
189.63	1722.34
189.85	1728.49
190.07	1632.23
190.29	1693.67
190.51	1734.63
190.73	1546.22
190.95	1755.11
191.17	1691.62
191.39	1591.27
191.61	1669.09
191.84	1650.66
192.06	1724.39
192.28	1626.09
192.50	1880.04
192.72	1705.96
192.94	1656.81
193.16	1755.11
193.38	1705.96
193.60	1652.71
193.82	1779.68
194.04	1714.15
194.26	1701.86
194.48	1714.15
194.70	1669.09
194.92	1656.81
195.14	1751.01
195.36	1669.09
195.58	1701.86
195.80	1665.00
196.02	1658.85
196.24	1699.81
196.46	1572.84
196.69	1646.57
196.91	1896.42
197.13	1626.09
197.35	1593.32
197.57	1845.22
197.79	1771.49
198.01	1759.21
198.23	1763.30
198.45	1703.91
198.67	1675.24
198.89	1705.96
199.11	1599.46
199.33	1599.46
199.55	1626.09
199.77	1720.29
199.99	1726.44
200.21	1632.23
200.43	1689.57
200.65	1656.81
200.87	1619.94
201.09	1691.62
201.31	1599.46
201.53	1734.63
201.75	1722.34
201.97	1771.49
202.19	1708.01
202.41	1699.81
202.63	1773.54
202.85	1648.61
203.07	1708.01
203.29	1630.18
203.51	1675.24
203.73	1724.39
203.95	1804.26
204.17	1708.01
204.39	1662.95
204.61	1701.86
204.83	1708.01
205.05	1781.73
205.27	1765.35
205.49	1796.07
205.71	1730.53
205.93	1615.85
206.15	1685.48
206.37	1716.20
206.59	1656.81
206.81	1621.99
207.03	1656.81
207.25	1650.66
207.47	1757.16
207.69	1669.09
207.91	1781.73
208.13	1759.21
208.34	1624.04
208.56	1630.18
208.78	1724.39
209.00	1689.57
209.22	1718.25
209.44	1624.04
209.66	1632.23
209.88	1759.21
210.10	1689.57
210.32	1714.15
210.54	1779.68
210.76	1683.43
210.98	1708.01
211.20	1531.88
211.42	1763.30
211.64	1708.01
211.86	1701.86
212.08	1701.86
212.30	1671.14
212.52	1640.42
212.74	1722.34
212.96	1703.91
213.17	1802.21
213.39	1675.24
213.61	1755.11
213.83	1667.05
214.05	1636.33
214.27	1789.92
214.49	1699.81
214.71	1675.24
214.93	1732.58
215.15	1632.23
215.37	1767.40
215.59	1738.73
215.81	1777.64
216.03	1736.68
216.24	1748.97
216.46	1722.34
216.68	1691.62
216.90	1665.00
217.12	1796.07
217.34	1701.86
217.56	1781.73
217.78	1773.54
218.00	1761.25
218.22	1710.05
218.44	1783.78
218.66	1767.40
218.87	1806.31
219.09	1746.92
219.31	1757.16
219.53	1650.66
219.75	1638.38
219.97	1689.57
220.19	1693.67
220.41	1691.62
220.63	1775.59
220.85	1720.29
221.06	1738.73
221.28	1783.78
221.50	1710.05
221.72	1763.30
221.94	1654.76
222.16	1724.39
222.38	1804.26
222.60	1636.33
222.82	1714.15
223.03	1718.25
223.25	1671.14
223.47	1775.59
223.69	1826.79
223.91	1724.39
224.13	1728.49
224.35	1677.29
224.57	1695.72
224.78	1722.34
225.00	1640.42
225.22	1656.81
225.44	1652.71
225.66	1761.25
225.88	1626.09
226.10	1773.54
226.32	1656.81
226.53	1771.49
226.75	1708.01
226.97	1691.62
227.19	1746.92
227.41	1722.34
227.63	1583.08
227.85	1628.14
228.06	1685.48
228.28	1751.01
228.50	1806.31
228.72	1673.19
228.94	1705.96
229.16	1681.38
229.37	1650.66
229.59	1689.57
229.81	1804.26
230.03	1701.86
230.25	1673.19
230.47	1617.90
230.69	1656.81
230.90	1755.11
231.12	1585.13
231.34	1763.30
231.56	1746.92
231.78	1665.00
232.00	1759.21
232.21	1779.68
232.43	1599.46
232.65	1550.31
232.87	1740.77
233.09	1650.66
233.30	1695.72
233.52	1732.58
233.74	1708.01
233.96	1675.24
234.18	1669.09
234.40	1683.43
234.61	1841.12
234.83	1671.14
235.05	1583.08
235.27	1841.12
235.49	1761.25
235.70	1736.68
235.92	1732.58
236.14	1746.92
236.36	1763.30
236.58	1634.28
236.79	1753.06
237.01	1718.25
237.23	1730.53
237.45	1789.92
237.67	1714.15
237.88	1703.91
238.10	1732.58
238.32	1644.52
238.54	1705.96
238.76	1681.38
238.97	1583.08
239.19	1697.77
239.41	1814.50
239.63	1791.97
239.85	1722.34
240.06	1669.09
240.28	1669.09
240.50	1767.40
240.72	1740.77
240.93	1646.57
241.15	1804.26
241.37	1701.86
241.59	1728.49
241.81	1714.15
242.02	1617.90
242.24	1800.16
242.46	1734.63
242.68	1693.67
242.89	1708.01
243.11	1710.05
243.33	1665.00
243.55	1722.34
243.76	1777.64
243.98	1695.72
244.20	1662.95
244.42	1689.57
244.64	1675.24
244.85	1703.91
245.07	1599.46
245.29	1726.44
245.51	1730.53
245.72	1712.10
245.94	1798.12
246.16	1718.25
246.38	1726.44
246.59	1667.05
246.81	1652.71
247.03	1662.95
247.24	1689.57
247.46	1675.24
247.68	1675.24
247.90	1662.95
248.11	1708.01
248.33	1763.30
248.55	1689.57
248.77	1779.68
248.98	1771.49
249.20	1769.44
249.42	1656.81
249.64	1787.88
249.85	1714.15
250.07	1714.15
250.29	1710.05
250.50	1787.88
250.72	1644.52
250.94	1722.34
251.16	1777.64
251.37	1683.43
251.59	1730.53
251.81	1710.05
252.02	1732.58
252.24	1669.09
252.46	1759.21
252.68	1646.57
252.89	1665.00
253.11	1607.66
253.33	1798.12
253.54	1773.54
253.76	1642.47
253.98	1705.96
254.20	1705.96
254.41	1630.18
254.63	1675.24
254.85	1669.09
255.06	1728.49
255.28	1761.25
255.50	1728.49
255.71	1665.00
255.93	1650.66
256.15	1705.96
256.36	1722.34
256.58	1671.14
256.80	1722.34
257.02	1689.57
257.23	1640.42
257.45	1695.72
257.67	1804.26
257.88	1658.85
258.10	1656.81
258.32	1687.53
258.53	1724.39
258.75	1724.39
258.97	1734.63
259.18	1695.72
259.40	1736.68
259.62	1841.12
259.83	1769.44
260.05	1779.68
260.27	1804.26
260.48	1783.78
260.70	1656.81
260.92	1640.42
261.13	1615.85
261.35	1714.15
261.57	1740.77
261.78	1675.24
262.00	1691.62
262.22	1826.79
262.43	1722.34
262.65	1662.95
262.86	1689.57
263.08	1769.44
263.30	1714.15
263.51	1710.05
263.73	1679.33
263.95	1773.54
264.16	1576.94
264.38	1626.09
264.60	1728.49
264.81	1771.49
265.03	1730.53
265.25	1671.14
265.46	1691.62
265.68	1716.20
265.89	1695.72
266.11	1644.52
266.33	1753.06
266.54	1800.16
266.76	1742.82
266.98	1734.63
267.19	1755.11
267.41	1761.25
267.62	1708.01
267.84	1636.33
268.06	1705.96
268.27	1734.63
268.49	1740.77
268.70	1748.97
268.92	1650.66
269.14	1605.61
269.35	1660.90
269.57	1660.90
269.79	1748.97
270.00	1619.94
270.22	1830.88
270.43	1673.19
270.65	1574.89
270.87	1712.10
271.08	1798.12
271.30	1673.19
271.51	1718.25
271.73	1701.86
271.95	1791.97
272.16	1759.21
272.38	1710.05
272.59	1624.04
272.81	1718.25
273.02	1701.86
273.24	1675.24
273.46	1685.48
273.67	1699.81
273.89	1691.62
274.10	1708.01
274.32	1648.61
274.54	1648.61
274.75	1691.62
274.97	1638.38
275.18	1710.05
275.40	1767.40
275.61	1716.20
275.83	1681.38
276.05	1646.57
276.26	1658.85
276.48	1777.64
276.69	1685.48
276.91	1736.68
277.12	1804.26
277.34	1656.81
277.55	1742.82
277.77	1716.20
277.99	1605.61
278.20	1677.29
278.42	1638.38
278.63	1583.08
278.85	1716.20
279.06	1609.70
279.28	1748.97
279.49	1724.39
279.71	1757.16
279.93	1669.09
280.14	1687.53
280.36	1697.77
280.57	1705.96
280.79	1763.30
281.00	1654.76
281.22	1730.53
281.43	1775.59
281.65	1665.00
281.86	1617.90
282.08	1812.45
282.29	1853.41
282.51	1662.95
282.73	1574.89
282.94	1581.03
283.16	1789.92
283.37	1888.23
283.59	1699.81
283.80	1710.05
284.02	1703.91
284.23	1689.57
284.45	1687.53
284.66	1703.91
284.88	1667.05
285.09	1675.24
285.31	1726.44
285.52	1710.05
285.74	1572.84
285.95	1798.12
286.17	1761.25
286.38	1767.40
286.60	1681.38
286.81	1683.43
287.03	1632.23
287.24	1695.72
287.46	1748.97
287.67	1708.01
287.89	1843.17
288.10	1646.57
288.32	1714.15
288.53	1794.02
288.75	1730.53
288.96	1712.10
289.18	1724.39
289.39	1656.81
289.61	1732.58
289.82	1796.07
290.04	1742.82
290.25	1556.46
290.47	1732.58
290.68	1669.09
290.90	1716.20
291.11	1654.76
291.33	1738.73
291.54	1773.54
291.76	1646.57
291.97	1708.01
292.18	1763.30
292.40	1726.44
292.61	1761.25
292.83	1855.46
293.04	1673.19
293.26	1685.48
293.47	1728.49
293.69	1644.52
293.90	1646.57
294.12	1841.12
294.33	1605.61
294.55	1730.53
294.76	1712.10
294.97	1773.54
295.19	1804.26
295.40	1732.58
295.62	1695.72
295.83	1687.53
296.05	1712.10
296.26	1720.29
296.48	1624.04
296.69	1699.81
296.90	1667.05
297.12	1728.49
297.33	1804.26
297.55	1708.01
297.76	1730.53
297.98	1738.73
298.19	1751.01
298.41	1714.15
298.62	1712.10
298.83	1769.44
299.05	1722.34
299.26	1734.63
299.48	1634.28
299.69	1734.63
299.90	1767.40
300.12	1654.76
300.33	1724.39
300.55	1695.72
300.76	1685.48
300.98	1617.90
301.19	1699.81
301.40	1703.91
301.62	1681.38
301.83	1779.68
302.05	1683.43
302.26	1759.21
302.47	1736.68
302.69	1665.00
302.90	1710.05
303.12	1624.04
303.33	1689.57
303.54	1871.84
303.76	1660.90
303.97	1718.25
304.19	1759.21
304.40	1595.37
304.61	1740.77
304.83	1769.44
305.04	1714.15
305.26	1710.05
305.47	1636.33
305.68	1703.91
305.90	1558.50
306.11	1746.92
306.33	1732.58
306.54	1732.58
306.75	1615.85
306.97	1597.42
307.18	1615.85
307.39	1667.05
307.61	1701.86
307.82	1714.15
308.04	1798.12
308.25	1685.48
308.46	1732.58
308.68	1683.43
308.89	1677.29
309.10	1806.31
309.32	1708.01
309.53	1642.47
309.74	1675.24
309.96	1708.01
310.17	1779.68
310.39	1687.53
310.60	1687.53
310.81	1703.91
311.03	1644.52
311.24	1728.49
311.45	1734.63
311.67	1783.78
311.88	1738.73
312.09	1685.48
312.31	1683.43
312.52	1695.72
312.73	1654.76
312.95	1554.41
313.16	1638.38
313.37	1751.01
313.59	1703.91
313.80	1763.30
314.01	1748.97
314.23	1644.52
314.44	1705.96
314.65	1601.51
314.87	1601.51
315.08	1613.80
315.29	1617.90
315.51	1679.33
315.72	1656.81
315.93	1742.82
316.15	1746.92
316.36	1701.86
316.57	1701.86
316.79	1697.77
317.00	1771.49
317.21	1673.19
317.43	1636.33
317.64	1798.12
317.85	1658.85
318.07	1626.09
318.28	1675.24
318.49	1800.16
318.70	1959.91
318.92	1769.44
319.13	1812.45
319.34	1845.22
319.56	1683.43
319.77	1818.60
319.98	1812.45
320.20	1820.64
320.41	1703.91
320.62	1742.82
320.83	1714.15
321.05	1810.40
321.26	1673.19
321.47	1714.15
321.69	1732.58
321.90	1613.80
322.11	1640.42
322.32	1683.43
322.54	1806.31
322.75	1693.67
322.96	1787.88
323.18	1681.38
323.39	1597.42
323.60	1603.56
323.81	1759.21
324.03	1691.62
324.24	1783.78
324.45	1691.62
324.66	1716.20
324.88	1710.05
325.09	1773.54
325.30	1701.86
325.52	1685.48
325.73	1728.49
325.94	1685.48
326.15	1552.36
326.37	1689.57
326.58	1785.83
326.79	1763.30
327.00	1617.90
327.22	1714.15
327.43	1695.72
327.64	1669.09
327.85	1740.77
328.07	1742.82
328.28	1794.02
328.49	1605.61
328.70	1710.05
328.92	1691.62
329.13	1712.10
329.34	1662.95
329.55	1734.63
329.76	1728.49
329.98	1738.73
330.19	1853.41
330.40	1656.81
330.61	1777.64
330.83	1740.77
331.04	1675.24
331.25	1714.15
331.46	1648.61
331.68	1654.76
331.89	1832.93
332.10	1677.29
332.31	1609.70
332.52	1716.20
332.74	1714.15
332.95	1611.75
333.16	1708.01
333.37	1763.30
333.58	1597.42
333.80	1671.14
334.01	1570.79
334.22	1654.76
334.43	1667.05
334.64	1669.09
334.86	1642.47
335.07	1642.47
335.28	1783.78
335.49	1615.85
335.70	1624.04
335.92	1794.02
336.13	1849.32
336.34	1765.35
336.55	1705.96
336.76	1734.63
336.98	1509.35
337.19	1665.00
337.40	1769.44
337.61	1873.89
337.82	1699.81
338.04	1761.25
338.25	1669.09
338.46	1662.95
338.67	1648.61
338.88	1665.00
339.09	1628.14
339.31	1683.43
339.52	1652.71
339.73	1683.43
339.94	1665.00
340.15	1839.08
340.36	1738.73
340.58	1650.66
340.79	1693.67
341.00	1789.92
341.21	1624.04
341.42	1828.84
341.63	1718.25
341.85	1746.92
342.06	1671.14
342.27	1624.04
342.48	1738.73
342.69	1669.09
342.90	1722.34
343.12	1710.05
343.33	1681.38
343.54	1771.49
343.75	1720.29
343.96	1665.00
344.17	1636.33
344.38	1591.27
344.60	1699.81
344.81	1695.72
345.02	1685.48
345.23	1798.12
345.44	1837.03
345.65	1755.11
345.86	1740.77
346.07	1716.20
346.29	1701.86
346.50	1697.77
346.71	1753.06
346.92	1761.25
347.13	1724.39
347.34	1720.29
347.55	1736.68
347.76	1732.58
347.98	1669.09
348.19	1673.19
348.40	1710.05
348.61	1677.29
348.82	1757.16
349.03	1765.35
349.24	1732.58
349.45	1806.31
349.66	1626.09
349.88	1621.99
350.09	1671.14
350.30	1771.49
350.51	1744.87
350.72	1691.62
350.93	1708.01
351.14	1638.38
351.35	1660.90
351.56	1656.81
351.77	1648.61
351.99	1722.34
352.20	1773.54
352.41	1669.09
352.62	1613.80
352.83	1742.82
353.04	1650.66
353.25	1669.09
353.46	1765.35
353.67	1660.90
353.88	1738.73
354.09	1746.92
354.30	1691.62
354.52	1714.15
354.73	1699.81
354.94	1738.73
355.15	1751.01
355.36	1810.40
355.57	1738.73
355.78	1677.29
355.99	1642.47
356.20	1701.86
356.41	1732.58
356.62	1718.25
356.83	1775.59
357.04	1785.83
357.25	1630.18
357.46	1701.86
357.68	1687.53
357.89	1656.81
358.10	1701.86
358.31	1708.01
358.52	1716.20
358.73	1669.09
358.94	1597.42
359.15	1746.92
359.36	1748.97
359.57	1693.67
359.78	1679.33
359.99	1796.07
360.20	1591.27
360.41	1679.33
360.62	1730.53
360.83	1771.49
361.04	1648.61
361.25	1640.42
361.46	1781.73
361.67	1685.48
361.88	1665.00
362.09	1732.58
362.30	1714.15
362.51	1685.48
362.72	1765.35
362.93	1796.07
363.14	1742.82
363.35	1683.43
363.56	1665.00
363.78	1753.06
363.99	1716.20
364.20	1578.98
364.41	1753.06
364.62	1839.08
364.83	1718.25
365.04	1640.42
365.25	1677.29
365.46	1806.31
365.67	1599.46
365.88	1621.99
366.09	1728.49
366.30	1701.86
366.51	1640.42
366.72	1574.89
366.93	1708.01
367.14	1732.58
367.35	1738.73
367.56	1644.52
367.77	1767.40
367.98	1726.44
368.18	1708.01
368.39	1673.19
368.60	1587.18
368.81	1748.97
369.02	1724.39
369.23	1693.67
369.44	1642.47
369.65	1654.76
369.86	1755.11
370.07	1751.01
370.28	1603.56
370.49	1779.68
370.70	1744.87
370.91	1587.18
371.12	1656.81
371.33	1779.68
371.54	1677.29
371.75	1751.01
371.96	1687.53
372.17	1609.70
372.38	1689.57
372.59	1763.30
372.80	1652.71
373.01	1726.44
373.22	1730.53
373.43	1785.83
373.64	1691.62
373.85	1767.40
374.06	1777.64
374.26	1785.83
374.47	1691.62
374.68	1763.30
374.89	1695.72
375.10	1742.82
375.31	1685.48
375.52	1763.30
375.73	1746.92
375.94	1710.05
376.15	1794.02
376.36	1691.62
376.57	1675.24
376.78	1742.82
376.99	1714.15
377.20	1759.21
377.40	1652.71
377.61	1742.82
377.82	1656.81
378.03	1769.44
378.24	1757.16
378.45	1714.15
378.66	1748.97
378.87	1595.37
379.08	1617.90
379.29	1701.86
379.50	1705.96
379.71	1683.43
379.91	1767.40
380.12	1705.96
380.33	1685.48
380.54	1767.40
380.75	1642.47
380.96	1642.47
381.17	1748.97
381.38	1748.97
381.59	1720.29
381.80	1755.11
382.00	1830.88
382.21	1802.21
382.42	1818.60
382.63	1767.40
382.84	1746.92
383.05	1755.11
383.26	1812.45
383.47	1689.57
383.68	1751.01
383.88	1746.92
384.09	1779.68
384.30	1841.12
384.51	1742.82
384.72	1619.94
384.93	1587.18
385.14	1669.09
385.35	1746.92
385.55	1634.28
385.76	1828.84
385.97	1701.86
386.18	1665.00
386.39	1654.76
386.60	1705.96
386.81	1675.24
387.02	1634.28
387.22	1681.38
387.43	1697.77
387.64	1726.44
387.85	1912.80
388.06	2187.23
388.27	4171.71
388.48	6393.76
388.68	7993.22
388.89	9414.51
389.10	9414.51
389.31	8392.58
389.52	7409.55
389.73	6387.61
389.93	6168.48
390.14	5683.11
390.35	5148.59
390.56	4450.24
390.77	3680.20
390.98	3002.32
391.18	2451.42
391.39	2101.22
391.60	1816.55
391.81	1802.21
392.02	1779.68
392.23	1828.84
392.43	1697.77
392.64	1785.83
392.85	1740.77
393.06	1847.27
393.27	1710.05
393.47	1660.90
393.68	1689.57
393.89	1677.29
394.10	1769.44
394.31	1654.76
394.52	1648.61
394.72	1665.00
394.93	1802.21
395.14	1619.94
395.35	1738.73
395.56	1660.90
395.76	1693.67
395.97	1839.08
396.18	1839.08
396.39	1753.06
396.60	1976.29
396.80	1832.93
397.01	1845.22
397.22	1785.83
397.43	1822.69
397.64	1701.86
397.84	1761.25
398.05	1877.99
398.26	1722.34
398.47	1714.15
398.67	1806.31
398.88	1718.25
399.09	1730.53
399.30	1644.52
399.51	1796.07
399.71	1570.79
399.92	1716.20
400.13	1693.67
400.34	1660.90
400.54	1708.01
400.75	1748.97
400.96	1796.07
401.17	1818.60
401.37	1669.09
401.58	1687.53
401.79	1777.64
402.00	1976.29
402.21	1988.58
402.41	1824.74
402.62	1968.10
402.83	2035.68
403.04	1886.18
403.24	2009.06
403.45	1798.12
403.66	1892.32
403.87	1884.13
404.07	1961.95
404.28	1970.15
404.49	1877.99
404.70	1814.50
404.90	1753.06
405.11	1810.40
405.32	1740.77
405.52	1701.86
405.73	1644.52
405.94	1695.72
406.15	1673.19
406.35	1753.06
406.56	1775.59
406.77	1699.81
406.98	1785.83
407.18	1638.38
407.39	1783.78
407.60	1683.43
407.80	1681.38
408.01	1642.47
408.22	1730.53
408.43	1755.11
408.63	1716.20
408.84	1718.25
409.05	1689.57
409.25	1648.61
409.46	1656.81
409.67	1785.83
409.88	1621.99
410.08	1681.38
410.29	1730.53
410.50	1708.01
410.70	1722.34
410.91	1646.57
411.12	1732.58
411.32	1732.58
411.53	1677.29
411.74	1775.59
411.95	1802.21
412.15	1728.49
412.36	1804.26
412.57	1701.86
412.77	1853.41
412.98	1705.96
413.19	1689.57
413.39	1699.81
413.60	1773.54
413.81	1738.73
414.01	1628.14
414.22	1740.77
414.43	1753.06
414.63	1751.01
414.84	1783.78
415.05	1757.16
415.25	1609.70
415.46	1779.68
415.67	1673.19
415.87	1714.15
416.08	1716.20
416.29	1671.14
416.49	1769.44
416.70	1689.57
416.91	1630.18
417.11	1626.09
417.32	1769.44
417.53	1849.32
417.73	1767.40
417.94	1714.15
418.15	1646.57
418.35	1726.44
418.56	1683.43
418.77	1800.16
418.97	1730.53
419.18	1673.19
419.38	1585.13
419.59	1673.19
419.80	1771.49
420.00	1662.95
420.21	1732.58
420.42	1759.21
420.62	1783.78
420.83	1677.29
421.04	1640.42
421.24	1697.77
421.45	1705.96
421.65	1650.66
421.86	1669.09
422.07	1722.34
422.27	1695.72
422.48	1705.96
422.69	1671.14
422.89	1703.91
423.10	1699.81
423.30	1578.98
423.51	1738.73
423.72	1748.97
423.92	1765.35
424.13	1640.42
424.33	1697.77
424.54	1791.97
424.75	1710.05
424.95	1783.78
425.16	1738.73
425.36	1708.01
425.57	1765.35
425.78	1740.77
425.98	1773.54
426.19	1632.23
426.39	1693.67
426.60	1748.97
426.81	1789.92
427.01	1785.83
427.22	1738.73
427.42	1648.61
427.63	1667.05
427.83	1755.11
428.04	1812.45
428.25	1781.73
428.45	1714.15
428.66	1662.95
428.86	1763.30
429.07	1724.39
429.28	1738.73
429.48	1665.00
429.69	1636.33
429.89	1656.81
430.10	1683.43
430.30	1691.62
430.51	1785.83
430.71	1722.34
430.92	1665.00
431.13	1673.19
431.33	1744.87
431.54	1726.44
431.74	1724.39
431.95	1814.50
432.15	1634.28
432.36	1732.58
432.56	1773.54
432.77	1804.26
432.98	1781.73
433.18	1767.40
433.39	1650.66
433.59	1660.90
433.80	1794.02
434.00	1898.47
434.21	1691.62
434.41	1728.49
434.62	1808.36
434.82	1558.50
435.03	1626.09
435.23	1724.39
435.44	1595.37
435.64	1697.77
435.85	1753.06
436.06	1789.92
436.26	1765.35
436.47	1634.28
436.67	1638.38
436.88	1736.68
437.08	1777.64
437.29	1769.44
437.49	1802.21
437.70	1830.88
437.90	1753.06
438.11	1794.02
438.31	1808.36
438.52	1812.45
438.72	1812.45
438.93	1847.27
439.13	1832.93
439.34	1845.22
439.54	1693.67
439.75	1818.60
439.95	1867.75
440.16	1673.19
440.36	1726.44
440.57	1779.68
440.77	1734.63
440.98	1744.87
441.18	1738.73
441.39	1640.42
441.59	1697.77
441.80	1783.78
442.00	1681.38
442.21	1748.97
442.41	1603.56
442.62	1781.73
442.82	1613.80
443.02	1726.44
443.23	1714.15
443.43	1767.40
443.64	1845.22
443.84	1652.71
444.05	1820.64
444.25	1763.30
444.46	1746.92
444.66	1783.78
444.87	1837.03
445.07	1613.80
445.28	1628.14
445.48	1773.54
445.69	1834.98
445.89	1880.04
446.09	1771.49
446.30	2017.25
446.50	2576.34
446.71	3678.15
446.91	4116.42
447.12	4583.35
447.32	4661.18
447.53	4138.94
447.73	3766.21
447.93	3420.11
448.14	3198.93
448.34	3108.82
448.55	2858.96
448.75	2789.33
448.96	2709.46
449.16	2367.45
449.36	2187.23
449.57	2013.15
449.77	1873.89
449.98	1734.63
450.18	1830.88
450.39	1781.73
450.59	1767.40
450.79	1728.49
451.00	1716.20
451.20	1830.88
451.41	1607.66
451.61	1699.81
451.81	1771.49
452.02	1699.81
452.22	1677.29
452.43	1652.71
452.63	1693.67
