SpectraSuite Data File
++++++++++++++++++++++++++++++++++++
Date: Mon Jun 06 12:40:17 CEST 2016
User: root
Dark Spectrum Present: No
Reference Spectrum Present: No
Number of Sampled Component Spectra: 1
Spectrometers: USB4C02835
Integration Time (usec): 100000 (USB4C02835)
Spectra Averaged: 1 (USB4C02835)
Boxcar Smoothing: 0 (USB4C02835)
Correct for Electrical Dark: No (USB4C02835)
Strobe/Lamp Enabled: No (USB4C02835)
Correct for Detector Non-linearity: No (USB4C02835)
Correct for Stray Light: No (USB4C02835)
Number of Pixels in Processed Spectrum: 3648
>>>>>Begin Processed Spectral Data<<<<<
177.47	1429.48
177.69	1429.48
177.91	1429.48
178.13	1423.34
178.36	1472.49
178.58	1730.53
178.80	1714.15
179.02	1609.70
179.24	1583.08
179.46	1656.81
179.68	1765.35
179.90	1710.05
180.13	1699.81
180.35	1605.61
180.57	1658.85
180.79	1691.62
181.01	1654.76
181.23	1724.39
181.45	1734.63
181.67	1695.72
181.90	1658.85
182.12	1677.29
182.34	1681.38
182.56	1730.53
182.78	1714.15
183.00	1636.33
183.22	1679.33
183.44	1587.18
183.66	1765.35
183.89	1775.59
184.11	1773.54
184.33	1753.06
184.55	1652.71
184.77	1691.62
184.99	1638.38
185.21	1656.81
185.43	1824.74
185.65	1662.95
185.87	1763.30
186.10	1826.79
186.32	1849.32
186.54	1665.00
186.76	1697.77
186.98	1761.25
187.20	1708.01
187.42	1654.76
187.64	1689.57
187.86	1677.29
188.08	1748.97
188.30	1712.10
188.52	1742.82
188.75	1720.29
188.97	1722.34
189.19	1611.75
189.41	1687.53
189.63	1748.97
189.85	1703.91
190.07	1687.53
190.29	1599.46
190.51	1734.63
190.73	1695.72
190.95	1720.29
191.17	1714.15
191.39	1654.76
191.61	1679.33
191.84	1669.09
192.06	1757.16
192.28	1603.56
192.50	1857.51
192.72	1777.64
192.94	1767.40
193.16	1691.62
193.38	1673.19
193.60	1626.09
193.82	1687.53
194.04	1818.60
194.26	1656.81
194.48	1769.44
194.70	1660.90
194.92	1660.90
195.14	1742.82
195.36	1619.94
195.58	1726.44
195.80	1634.28
196.02	1675.24
196.24	1679.33
196.46	1675.24
196.69	1669.09
196.91	1783.78
197.13	1621.99
197.35	1558.50
197.57	1775.59
197.79	1755.11
198.01	1726.44
198.23	1681.38
198.45	1738.73
198.67	1617.90
198.89	1697.77
199.11	1726.44
199.33	1699.81
199.55	1544.17
199.77	1628.14
199.99	1765.35
200.21	1644.52
200.43	1708.01
200.65	1667.05
200.87	1654.76
201.09	1675.24
201.31	1652.71
201.53	1730.53
201.75	1697.77
201.97	1732.58
202.19	1644.52
202.41	1773.54
202.63	1783.78
202.85	1626.09
203.07	1751.01
203.29	1658.85
203.51	1619.94
203.73	1652.71
203.95	1834.98
204.17	1746.92
204.39	1712.10
204.61	1656.81
204.83	1708.01
205.05	1744.87
205.27	1716.20
205.49	1791.97
205.71	1748.97
205.93	1644.52
206.15	1595.37
206.37	1665.00
206.59	1679.33
206.81	1615.85
207.03	1652.71
207.25	1595.37
207.47	1714.15
207.69	1677.29
207.91	1757.16
208.13	1798.12
208.34	1708.01
208.56	1624.04
208.78	1757.16
209.00	1728.49
209.22	1652.71
209.44	1669.09
209.66	1656.81
209.88	1697.77
210.10	1626.09
210.32	1665.00
210.54	1769.44
210.76	1722.34
210.98	1763.30
211.20	1603.56
211.42	1712.10
211.64	1742.82
211.86	1701.86
212.08	1665.00
212.30	1644.52
212.52	1730.53
212.74	1769.44
212.96	1742.82
213.17	1679.33
213.39	1828.84
213.61	1796.07
213.83	1726.44
214.05	1570.79
214.27	1781.73
214.49	1595.37
214.71	1667.05
214.93	1714.15
215.15	1761.25
215.37	1726.44
215.59	1613.80
215.81	1726.44
216.03	1732.58
216.24	1652.71
216.46	1648.61
216.68	1740.77
216.90	1697.77
217.12	1767.40
217.34	1699.81
217.56	1693.67
217.78	1751.01
218.00	1708.01
218.22	1736.68
218.44	1761.25
218.66	1697.77
218.87	1798.12
219.09	1703.91
219.31	1765.35
219.53	1722.34
219.75	1587.18
219.97	1681.38
220.19	1654.76
220.41	1619.94
220.63	1695.72
220.85	1748.97
221.06	1675.24
221.28	1763.30
221.50	1759.21
221.72	1777.64
221.94	1689.57
222.16	1665.00
222.38	1753.06
222.60	1734.63
222.82	1660.90
223.03	1736.68
223.25	1718.25
223.47	1761.25
223.69	1826.79
223.91	1763.30
224.13	1716.20
224.35	1669.09
224.57	1759.21
224.78	1746.92
225.00	1669.09
225.22	1679.33
225.44	1751.01
225.66	1742.82
225.88	1648.61
226.10	1726.44
226.32	1732.58
226.53	1714.15
226.75	1673.19
226.97	1685.48
227.19	1697.77
227.41	1673.19
227.63	1669.09
227.85	1529.83
228.06	1701.86
228.28	1646.57
228.50	1816.55
228.72	1656.81
228.94	1628.14
229.16	1576.94
229.37	1558.50
229.59	1683.43
229.81	1673.19
230.03	1705.96
230.25	1574.89
230.47	1589.22
230.69	1650.66
230.90	1751.01
231.12	1609.70
231.34	1642.47
231.56	1759.21
231.78	1587.18
232.00	1675.24
232.21	1744.87
232.43	1683.43
232.65	1548.26
232.87	1665.00
233.09	1660.90
233.30	1644.52
233.52	1744.87
233.74	1716.20
233.96	1673.19
234.18	1693.67
234.40	1652.71
234.61	1779.68
234.83	1609.70
235.05	1585.13
235.27	1839.08
235.49	1773.54
235.70	1720.29
235.92	1722.34
236.14	1716.20
236.36	1935.33
236.58	1679.33
236.79	1710.05
237.01	1648.61
237.23	1783.78
237.45	1730.53
237.67	1660.90
237.88	1683.43
238.10	1757.16
238.32	1683.43
238.54	1642.47
238.76	1673.19
238.97	1675.24
239.19	1693.67
239.41	1787.88
239.63	1730.53
239.85	1652.71
240.06	1726.44
240.28	1677.29
240.50	1595.37
240.72	1771.49
240.93	1671.14
241.15	1779.68
241.37	1693.67
241.59	1794.02
241.81	1697.77
242.02	1667.05
242.24	1701.86
242.46	1691.62
242.68	1734.63
242.89	1652.71
243.11	1742.82
243.33	1650.66
243.55	1697.77
243.76	1708.01
243.98	1644.52
244.20	1718.25
244.42	1765.35
244.64	1701.86
244.85	1656.81
245.07	1636.33
245.29	1775.59
245.51	1742.82
245.72	1630.18
245.94	1748.97
246.16	1681.38
246.38	1730.53
246.59	1691.62
246.81	1695.72
247.03	1716.20
247.24	1576.94
247.46	1685.48
247.68	1673.19
247.90	1648.61
248.11	1673.19
248.33	1751.01
248.55	1691.62
248.77	1714.15
248.98	1701.86
249.20	1804.26
249.42	1753.06
249.64	1736.68
249.85	1695.72
250.07	1687.53
250.29	1775.59
250.50	1703.91
250.72	1628.14
250.94	1683.43
251.16	1839.08
251.37	1796.07
251.59	1662.95
251.81	1677.29
252.02	1812.45
252.24	1665.00
252.46	1777.64
252.68	1599.46
252.89	1675.24
253.11	1609.70
253.33	1806.31
253.54	1722.34
253.76	1642.47
253.98	1603.56
254.20	1611.75
254.41	1603.56
254.63	1644.52
254.85	1642.47
255.06	1683.43
255.28	1726.44
255.50	1673.19
255.71	1683.43
255.93	1710.05
256.15	1701.86
256.36	1802.21
256.58	1679.33
256.80	1759.21
257.02	1748.97
257.23	1683.43
257.45	1689.57
257.67	1781.73
257.88	1644.52
258.10	1671.14
258.32	1679.33
258.53	1628.14
258.75	1773.54
258.97	1628.14
259.18	1650.66
259.40	1630.18
259.62	1832.93
259.83	1746.92
260.05	1697.77
260.27	2058.21
260.48	1708.01
260.70	1644.52
260.92	1757.16
261.13	1636.33
261.35	1693.67
261.57	1736.68
261.78	1652.71
262.00	1626.09
262.22	1734.63
262.43	1708.01
262.65	1587.18
262.86	1683.43
263.08	1841.12
263.30	1640.42
263.51	1607.66
263.73	1642.47
263.95	1826.79
264.16	1652.71
264.38	1589.22
264.60	1742.82
264.81	1691.62
265.03	1736.68
265.25	1800.16
265.46	1660.90
265.68	1884.13
265.89	1755.11
266.11	1617.90
266.33	1816.55
266.54	1736.68
266.76	1736.68
266.98	1710.05
267.19	1701.86
267.41	1746.92
267.62	1619.94
267.84	1642.47
268.06	1755.11
268.27	1675.24
268.49	1732.58
268.70	1812.45
268.92	1718.25
269.14	1595.37
269.35	1640.42
269.57	1646.57
269.79	1757.16
270.00	1644.52
270.22	1798.12
270.43	1665.00
270.65	1628.14
270.87	1646.57
271.08	1671.14
271.30	1777.64
271.51	1697.77
271.73	1720.29
271.95	1785.83
272.16	1699.81
272.38	1679.33
272.59	1617.90
272.81	1736.68
273.02	1718.25
273.24	1720.29
273.46	1804.26
273.67	1656.81
273.89	1673.19
274.10	1667.05
274.32	1783.78
274.54	1763.30
274.75	1660.90
274.97	1648.61
275.18	1722.34
275.40	1710.05
275.61	1695.72
275.83	1695.72
276.05	1685.48
276.26	1624.04
276.48	1695.72
276.69	1736.68
276.91	1624.04
277.12	1832.93
277.34	1779.68
277.55	1744.87
277.77	1683.43
277.99	1626.09
278.20	1644.52
278.42	1578.98
278.63	1656.81
278.85	1634.28
279.06	1611.75
279.28	1685.48
279.49	1744.87
279.71	1705.96
279.93	1708.01
280.14	1773.54
280.36	1628.14
280.57	1736.68
280.79	1787.88
281.00	1685.48
281.22	1665.00
281.43	1794.02
281.65	1626.09
281.86	1599.46
282.08	1763.30
282.29	1812.45
282.51	1650.66
282.73	1599.46
282.94	1613.80
283.16	1748.97
283.37	1757.16
283.59	1671.14
283.80	1779.68
284.02	1667.05
284.23	1751.01
284.45	1628.14
284.66	1609.70
284.88	1646.57
285.09	1718.25
285.31	1759.21
285.52	1738.73
285.74	1587.18
285.95	1705.96
286.17	1755.11
286.38	1798.12
286.60	1728.49
286.81	1677.29
287.03	1744.87
287.24	1730.53
287.46	1732.58
287.67	1736.68
287.89	1753.06
288.10	1677.29
288.32	1720.29
288.53	1812.45
288.75	1658.85
288.96	1691.62
289.18	1677.29
289.39	1630.18
289.61	1751.01
289.82	1820.64
290.04	1697.77
290.25	1628.14
290.47	1644.52
290.68	1703.91
290.90	1738.73
291.11	1572.84
291.33	1732.58
291.54	1689.57
291.76	1656.81
291.97	1738.73
292.18	1708.01
292.40	1640.42
292.61	1681.38
292.83	1849.32
293.04	1724.39
293.26	1699.81
293.47	1675.24
293.69	1722.34
293.90	1658.85
294.12	1775.59
294.33	1673.19
294.55	1697.77
294.76	1683.43
294.97	1746.92
295.19	1865.70
295.40	1662.95
295.62	1714.15
295.83	1812.45
296.05	1718.25
296.26	1687.53
296.48	1677.29
296.69	1683.43
296.90	1603.56
297.12	1794.02
297.33	1738.73
297.55	1683.43
297.76	1705.96
297.98	1761.25
298.19	1722.34
298.41	1740.77
298.62	1648.61
298.83	1710.05
299.05	1732.58
299.26	1685.48
299.48	1642.47
299.69	1720.29
299.90	1714.15
300.12	1681.38
300.33	1689.57
300.55	1718.25
300.76	1673.19
300.98	1728.49
301.19	1787.88
301.40	1687.53
301.62	1685.48
301.83	1656.81
302.05	1689.57
302.26	1773.54
302.47	1728.49
302.69	1650.66
302.90	1771.49
303.12	1634.28
303.33	1757.16
303.54	1832.93
303.76	1648.61
303.97	1740.77
304.19	1806.31
304.40	1658.85
304.61	1691.62
304.83	1818.60
305.04	1716.20
305.26	1759.21
305.47	1693.67
305.68	1652.71
305.90	1581.03
306.11	1689.57
306.33	1724.39
306.54	1689.57
306.75	1599.46
306.97	1630.18
307.18	1642.47
307.39	1755.11
307.61	1734.63
307.82	1681.38
308.04	1693.67
308.25	1646.57
308.46	1730.53
308.68	1767.40
308.89	1705.96
309.10	1822.69
309.32	1808.36
309.53	1654.76
309.74	1751.01
309.96	1665.00
310.17	1785.83
310.39	1611.75
310.60	1773.54
310.81	1691.62
311.03	1683.43
311.24	1771.49
311.45	1697.77
311.67	1789.92
311.88	1744.87
312.09	1642.47
312.31	1677.29
312.52	1644.52
312.73	1726.44
312.95	1607.66
313.16	1656.81
313.37	1685.48
313.59	1791.97
313.80	1705.96
314.01	1794.02
314.23	1658.85
314.44	1675.24
314.65	1640.42
314.87	1642.47
315.08	1621.99
315.29	1587.18
315.51	1665.00
315.72	1558.50
315.93	1824.74
316.15	1765.35
316.36	1669.09
316.57	1693.67
316.79	1648.61
317.00	1669.09
317.21	1738.73
317.43	1648.61
317.64	1730.53
317.85	1685.48
318.07	1636.33
318.28	1728.49
318.49	1796.07
318.70	1896.42
318.92	1814.50
319.13	1859.56
319.34	1902.56
319.56	1828.84
319.77	1798.12
319.98	1787.88
320.20	1828.84
320.41	1757.16
320.62	1775.59
320.83	1642.47
321.05	1783.78
321.26	1650.66
321.47	1753.06
321.69	1796.07
321.90	1675.24
322.11	1712.10
322.32	1734.63
322.54	1783.78
322.75	1626.09
322.96	1904.61
323.18	1652.71
323.39	1601.51
323.60	1642.47
323.81	1785.83
324.03	1667.05
324.24	1738.73
324.45	1693.67
324.66	1669.09
324.88	1748.97
325.09	1746.92
325.30	1665.00
325.52	1695.72
325.73	1675.24
325.94	1705.96
326.15	1552.36
326.37	1619.94
326.58	1742.82
326.79	1802.21
327.00	1734.63
327.22	1628.14
327.43	1687.53
327.64	1609.70
327.85	1800.16
328.07	1703.91
328.28	1718.25
328.49	1683.43
328.70	1679.33
328.92	1640.42
329.13	1665.00
329.34	1828.84
329.55	1796.07
329.76	1732.58
329.98	1724.39
330.19	1740.77
330.40	1789.92
330.61	1697.77
330.83	1738.73
331.04	1593.32
331.25	1726.44
331.46	1665.00
331.68	1665.00
331.89	1787.88
332.10	1712.10
332.31	1564.65
332.52	1621.99
332.74	1830.88
332.95	1636.33
333.16	1697.77
333.37	1708.01
333.58	1691.62
333.80	1736.68
334.01	1624.04
334.22	1689.57
334.43	1708.01
334.64	1734.63
334.86	1607.66
335.07	1667.05
335.28	1689.57
335.49	1566.70
335.70	1716.20
335.92	1712.10
336.13	1898.47
336.34	1628.14
336.55	1689.57
336.76	1675.24
336.98	1646.57
337.19	1677.29
337.40	1830.88
337.61	1857.51
337.82	1673.19
338.04	1759.21
338.25	1609.70
338.46	1695.72
338.67	1726.44
338.88	1656.81
339.09	1699.81
339.31	1570.79
339.52	1669.09
339.73	1636.33
339.94	1738.73
340.15	1701.86
340.36	1697.77
340.58	1718.25
340.79	1626.09
341.00	1650.66
341.21	1632.23
341.42	1863.65
341.63	1708.01
341.85	1730.53
342.06	1730.53
342.27	1716.20
342.48	1818.60
342.69	1638.38
342.90	1703.91
343.12	1658.85
343.33	1705.96
343.54	1703.91
343.75	1814.50
343.96	1703.91
344.17	1695.72
344.38	1697.77
344.60	1677.29
344.81	1673.19
345.02	1695.72
345.23	1789.92
345.44	1773.54
345.65	1673.19
345.86	1665.00
346.07	1646.57
346.29	1691.62
346.50	1703.91
346.71	1687.53
346.92	1732.58
347.13	1748.97
347.34	1634.28
347.55	1652.71
347.76	1738.73
347.98	1701.86
348.19	1681.38
348.40	1746.92
348.61	1738.73
348.82	1789.92
349.03	1785.83
349.24	1656.81
349.45	1800.16
349.66	1611.75
349.88	1703.91
350.09	1644.52
350.30	1763.30
350.51	1763.30
350.72	1650.66
350.93	1710.05
351.14	1693.67
351.35	1730.53
351.56	1736.68
351.77	1697.77
351.99	1667.05
352.20	1781.73
352.41	1820.64
352.62	1626.09
352.83	1669.09
353.04	1669.09
353.25	1726.44
353.46	1732.58
353.67	1738.73
353.88	1646.57
354.09	1726.44
354.30	1738.73
354.52	1740.77
354.73	1716.20
354.94	1626.09
355.15	1665.00
355.36	1753.06
355.57	1599.46
355.78	1662.95
355.99	1685.48
356.20	1607.66
356.41	1720.29
356.62	1654.76
356.83	1652.71
357.04	1810.40
357.25	1615.85
357.46	1699.81
357.68	1662.95
357.89	1585.13
358.10	1658.85
358.31	1708.01
358.52	1708.01
358.73	1654.76
358.94	1560.55
359.15	1648.61
359.36	1742.82
359.57	1662.95
359.78	1677.29
359.99	1714.15
360.20	1730.53
360.41	1626.09
360.62	1771.49
360.83	1689.57
361.04	1730.53
361.25	1710.05
361.46	1746.92
361.67	1724.39
361.88	1705.96
362.09	1761.25
362.30	1712.10
362.51	1685.48
362.72	1650.66
362.93	1687.53
363.14	1783.78
363.35	1759.21
363.56	1646.57
363.78	1800.16
363.99	1705.96
364.20	1779.68
364.41	1726.44
364.62	1767.40
364.83	1726.44
365.04	1757.16
365.25	1652.71
365.46	1759.21
365.67	1599.46
365.88	1609.70
366.09	1714.15
366.30	1771.49
366.51	1638.38
366.72	1677.29
366.93	1634.28
367.14	1621.99
367.35	1806.31
367.56	1665.00
367.77	1787.88
367.98	1681.38
368.18	1740.77
368.39	1732.58
368.60	1630.18
368.81	1771.49
369.02	1658.85
369.23	1652.71
369.44	1628.14
369.65	1683.43
369.86	1705.96
370.07	1736.68
370.28	1619.94
370.49	1685.48
370.70	1679.33
370.91	1652.71
371.12	1667.05
371.33	1804.26
371.54	1714.15
371.75	1748.97
371.96	1624.04
372.17	1710.05
372.38	1683.43
372.59	1714.15
372.80	1685.48
373.01	1693.67
373.22	1648.61
373.43	1681.38
373.64	1691.62
373.85	1736.68
374.06	1681.38
374.26	1808.36
374.47	1732.58
374.68	1771.49
374.89	1775.59
375.10	1646.57
375.31	1755.11
375.52	1675.24
375.73	1757.16
375.94	1658.85
376.15	1755.11
376.36	1667.05
376.57	1628.14
376.78	1656.81
376.99	1759.21
377.20	1714.15
377.40	1609.70
377.61	1748.97
377.82	1626.09
378.03	1783.78
378.24	1693.67
378.45	1726.44
378.66	1740.77
378.87	1507.30
379.08	1640.42
379.29	1703.91
379.50	1771.49
379.71	1654.76
379.91	1673.19
380.12	1667.05
380.33	1753.06
380.54	1679.33
380.75	1660.90
380.96	1638.38
381.17	1691.62
381.38	1740.77
381.59	1658.85
381.80	1728.49
382.00	1753.06
382.21	1742.82
382.42	1779.68
382.63	1884.13
382.84	1759.21
383.05	1708.01
383.26	1800.16
383.47	1628.14
383.68	1685.48
383.88	1746.92
384.09	1705.96
384.30	1853.41
384.51	1787.88
384.72	1673.19
384.93	1624.04
385.14	1718.25
385.35	1714.15
385.55	1630.18
385.76	1804.26
385.97	1708.01
386.18	1671.14
386.39	1738.73
386.60	1746.92
386.81	1644.52
387.02	1734.63
387.22	1681.38
387.43	1781.73
387.64	1796.07
387.85	1839.08
388.06	2213.85
388.27	4298.69
388.48	6838.17
388.68	8189.83
388.89	9611.12
389.10	9981.80
389.31	8566.65
389.52	7520.14
389.73	6799.26
389.93	6342.56
390.14	5932.97
390.35	5126.07
390.56	4560.83
390.77	3665.86
390.98	3035.09
391.18	2537.43
391.39	2115.55
391.60	1830.88
391.81	1777.64
392.02	1769.44
392.23	1814.50
392.43	1748.97
392.64	1812.45
392.85	1703.91
393.06	1857.51
393.27	1656.81
393.47	1675.24
393.68	1775.59
393.89	1667.05
394.10	1734.63
394.31	1691.62
394.52	1658.85
394.72	1708.01
394.93	1794.02
395.14	1603.56
395.35	1755.11
395.56	1693.67
395.76	1746.92
395.97	1798.12
396.18	1849.32
396.39	1837.03
396.60	2033.63
396.80	1837.03
397.01	1855.46
397.22	1877.99
397.43	1867.75
397.64	1734.63
397.84	1796.07
398.05	1951.71
398.26	1744.87
398.47	1787.88
398.67	1734.63
398.88	1703.91
399.09	1720.29
399.30	1693.67
399.51	1695.72
399.71	1638.38
399.92	1701.86
400.13	1734.63
400.34	1660.90
400.54	1648.61
400.75	1843.17
400.96	1753.06
401.17	1734.63
401.37	1718.25
401.58	1697.77
401.79	1796.07
402.00	1867.75
402.21	1968.10
402.41	1994.72
402.62	2013.15
402.83	2009.06
403.04	2054.11
403.24	2136.03
403.45	1834.98
403.66	1843.17
403.87	1886.18
404.07	1877.99
404.28	1859.56
404.49	1920.99
404.70	1765.35
404.90	1738.73
405.11	1832.93
405.32	1667.05
405.52	1636.33
405.73	1689.57
405.94	1716.20
406.15	1689.57
406.35	1796.07
406.56	1734.63
406.77	1654.76
406.98	1730.53
407.18	1712.10
407.39	1796.07
407.60	1607.66
407.80	1732.58
408.01	1665.00
408.22	1716.20
408.43	1658.85
408.63	1705.96
408.84	1654.76
409.05	1753.06
409.25	1654.76
409.46	1714.15
409.67	1632.23
409.88	1695.72
410.08	1755.11
410.29	1763.30
410.50	1761.25
410.70	1755.11
410.91	1681.38
411.12	1746.92
411.32	1701.86
411.53	1697.77
411.74	1851.36
411.95	1746.92
412.15	1746.92
412.36	1857.51
412.57	1787.88
412.77	1882.08
412.98	1681.38
413.19	1689.57
413.39	1701.86
413.60	1675.24
413.81	1771.49
414.01	1714.15
414.22	1767.40
414.43	1705.96
414.63	1632.23
414.84	1726.44
415.05	1712.10
415.25	1656.81
415.46	1771.49
415.67	1722.34
415.87	1736.68
416.08	1730.53
416.29	1742.82
416.49	1693.67
416.70	1665.00
416.91	1595.37
417.11	1679.33
417.32	1726.44
417.53	1742.82
417.73	1732.58
417.94	1660.90
418.15	1726.44
418.35	1656.81
418.56	1681.38
418.77	1877.99
418.97	1710.05
419.18	1679.33
419.38	1601.51
419.59	1650.66
419.80	1695.72
420.00	1701.86
420.21	1613.80
420.42	1789.92
420.62	1697.77
420.83	1691.62
421.04	1687.53
421.24	1634.28
421.45	1763.30
421.65	1761.25
421.86	1646.57
422.07	1722.34
422.27	1744.87
422.48	1794.02
422.69	1636.33
422.89	1751.01
423.10	1617.90
423.30	1605.61
423.51	1667.05
423.72	1724.39
423.92	1736.68
424.13	1671.14
424.33	1652.71
424.54	1736.68
424.75	1753.06
424.95	1771.49
425.16	1691.62
425.36	1722.34
425.57	1740.77
425.78	1728.49
425.98	1738.73
426.19	1705.96
426.39	1572.84
426.60	1789.92
426.81	1734.63
427.01	1677.29
427.22	1642.47
427.42	1695.72
427.63	1656.81
427.83	1761.25
428.04	1791.97
428.25	1740.77
428.45	1775.59
428.66	1800.16
428.86	1656.81
429.07	1652.71
429.28	1738.73
429.48	1665.00
429.69	1708.01
429.89	1726.44
430.10	1583.08
430.30	1671.14
430.51	1708.01
430.71	1607.66
430.92	1685.48
431.13	1716.20
431.33	1669.09
431.54	1791.97
431.74	1798.12
431.95	1824.74
432.15	1652.71
432.36	1628.14
432.56	1695.72
432.77	1804.26
432.98	1738.73
433.18	1705.96
433.39	1691.62
433.59	1761.25
433.80	1853.41
434.00	1849.32
434.21	1689.57
434.41	1687.53
434.62	1789.92
434.82	1683.43
435.03	1681.38
435.23	1740.77
435.44	1558.50
435.64	1671.14
435.85	1669.09
436.06	1832.93
436.26	1828.84
436.47	1697.77
436.67	1689.57
436.88	1716.20
437.08	1714.15
437.29	1789.92
437.49	1761.25
437.70	1828.84
437.90	1691.62
438.11	1832.93
438.31	1787.88
438.52	1804.26
438.72	1796.07
438.93	1810.40
439.13	1777.64
439.34	1699.81
439.54	1773.54
439.75	1794.02
439.95	1808.36
440.16	1687.53
440.36	1699.81
440.57	1794.02
440.77	1744.87
440.98	1660.90
441.18	1607.66
441.39	1683.43
441.59	1677.29
441.80	1814.50
442.00	1699.81
442.21	1869.80
442.41	1591.27
442.62	1665.00
442.82	1738.73
443.02	1748.97
443.23	1722.34
443.43	1652.71
443.64	1781.73
443.84	1695.72
444.05	1859.56
444.25	1724.39
444.46	1642.47
444.66	1730.53
444.87	1742.82
445.07	1675.24
445.28	1806.31
445.48	1771.49
445.69	1798.12
445.89	1873.89
446.09	1673.19
446.30	2023.39
446.50	2594.78
446.71	3846.09
446.91	4270.01
447.12	4767.67
447.32	4882.36
447.53	4216.77
447.73	4003.78
447.93	3598.28
448.14	3418.06
448.34	3211.22
448.55	2938.84
448.75	2867.16
448.96	2779.09
449.16	2406.36
449.36	2238.43
449.57	2039.78
449.77	1875.94
449.98	1757.16
450.18	1808.36
450.39	1742.82
450.59	1693.67
450.79	1683.43
451.00	1617.90
451.20	1830.88
451.41	1757.16
451.61	1738.73
451.81	1681.38
452.02	1748.97
452.22	1701.86
452.43	1728.49
452.63	1669.09
