SpectraSuite Data File
++++++++++++++++++++++++++++++++++++
Date: Mon Jun 06 15:22:57 CEST 2016
User: root
Dark Spectrum Present: No
Reference Spectrum Present: No
Number of Sampled Component Spectra: 1
Spectrometers: USB4C02835
Integration Time (usec): 100000 (USB4C02835)
Spectra Averaged: 1 (USB4C02835)
Boxcar Smoothing: 0 (USB4C02835)
Correct for Electrical Dark: No (USB4C02835)
Strobe/Lamp Enabled: No (USB4C02835)
Correct for Detector Non-linearity: No (USB4C02835)
Correct for Stray Light: No (USB4C02835)
Number of Pixels in Processed Spectrum: 3648
>>>>>Begin Processed Spectral Data<<<<<
177.47	1515.50
177.69	1515.50
177.91	1515.50
178.13	1505.26
178.36	1464.30
178.58	1712.10
178.80	1755.11
179.02	1619.94
179.24	1683.43
179.46	1699.81
179.68	1787.88
179.90	1701.86
180.13	1658.85
180.35	1677.29
180.57	1685.48
180.79	1660.90
181.01	1652.71
181.23	1816.55
181.45	1789.92
181.67	1746.92
181.90	1753.06
182.12	1652.71
182.34	1697.77
182.56	1746.92
182.78	1718.25
183.00	1789.92
183.22	1716.20
183.44	1591.27
183.66	1920.99
183.89	1828.84
184.11	1722.34
184.33	1701.86
184.55	1839.08
184.77	1740.77
184.99	1726.44
185.21	1748.97
185.43	1824.74
185.65	1734.63
185.87	1697.77
186.10	1816.55
186.32	1798.12
186.54	1710.05
186.76	1720.29
186.98	1800.16
187.20	1714.15
187.42	1665.00
187.64	1714.15
187.86	1746.92
188.08	1705.96
188.30	1708.01
188.52	1646.57
188.75	1779.68
188.97	1812.45
189.19	1652.71
189.41	1751.01
189.63	1734.63
189.85	1677.29
190.07	1679.33
190.29	1587.18
190.51	1839.08
190.73	1609.70
190.95	1767.40
191.17	1751.01
191.39	1617.90
191.61	1640.42
191.84	1753.06
192.06	1636.33
192.28	1646.57
192.50	1904.61
192.72	1732.58
192.94	1699.81
193.16	1798.12
193.38	1658.85
193.60	1665.00
193.82	1728.49
194.04	1759.21
194.26	1751.01
194.48	1722.34
194.70	1665.00
194.92	1753.06
195.14	1718.25
195.36	1646.57
195.58	1712.10
195.80	1767.40
196.02	1701.86
196.24	1685.48
196.46	1716.20
196.69	1656.81
196.91	1771.49
197.13	1605.61
197.35	1669.09
197.57	1812.45
197.79	1769.44
198.01	1648.61
198.23	1771.49
198.45	1712.10
198.67	1695.72
198.89	1685.48
199.11	1773.54
199.33	1646.57
199.55	1660.90
199.77	1722.34
199.99	1851.36
200.21	1642.47
200.43	1746.92
200.65	1703.91
200.87	1611.75
201.09	1728.49
201.31	1710.05
201.53	1767.40
201.75	1716.20
201.97	1761.25
202.19	1681.38
202.41	1775.59
202.63	1818.60
202.85	1720.29
203.07	1703.91
203.29	1697.77
203.51	1597.42
203.73	1779.68
203.95	1882.08
204.17	1751.01
204.39	1718.25
204.61	1679.33
204.83	1640.42
205.05	1828.84
205.27	1804.26
205.49	1779.68
205.71	1710.05
205.93	1662.95
206.15	1730.53
206.37	1636.33
206.59	1738.73
206.81	1626.09
207.03	1675.24
207.25	1615.85
207.47	1728.49
207.69	1650.66
207.91	1816.55
208.13	1759.21
208.34	1722.34
208.56	1628.14
208.78	1732.58
209.00	1722.34
209.22	1689.57
209.44	1611.75
209.66	1703.91
209.88	1701.86
210.10	1697.77
210.32	1648.61
210.54	1828.84
210.76	1730.53
210.98	1673.19
211.20	1652.71
211.42	1701.86
211.64	1789.92
211.86	1712.10
212.08	1779.68
212.30	1691.62
212.52	1802.21
212.74	1730.53
212.96	1746.92
213.17	1746.92
213.39	1755.11
213.61	1804.26
213.83	1779.68
214.05	1665.00
214.27	1755.11
214.49	1722.34
214.71	1669.09
214.93	1765.35
215.15	1693.67
215.37	1822.69
215.59	1755.11
215.81	1763.30
216.03	1804.26
216.24	1675.24
216.46	1636.33
216.68	1732.58
216.90	1761.25
217.12	1861.60
217.34	1775.59
217.56	1697.77
217.78	1783.78
218.00	1767.40
218.22	1710.05
218.44	1722.34
218.66	1740.77
218.87	1828.84
219.09	1734.63
219.31	1667.05
219.53	1716.20
219.75	1695.72
219.97	1759.21
220.19	1716.20
220.41	1730.53
220.63	1746.92
220.85	1759.21
221.06	1691.62
221.28	1785.83
221.50	1767.40
221.72	1724.39
221.94	1648.61
222.16	1675.24
222.38	1761.25
222.60	1763.30
222.82	1693.67
223.03	1748.97
223.25	1648.61
223.47	1785.83
223.69	1777.64
223.91	1734.63
224.13	1665.00
224.35	1660.90
224.57	1789.92
224.78	1787.88
225.00	1681.38
225.22	1679.33
225.44	1691.62
225.66	1765.35
225.88	1701.86
226.10	1738.73
226.32	1742.82
226.53	1808.36
226.75	1671.14
226.97	1767.40
227.19	1722.34
227.41	1642.47
227.63	1669.09
227.85	1701.86
228.06	1755.11
228.28	1724.39
228.50	1738.73
228.72	1644.52
228.94	1681.38
229.16	1572.84
229.37	1751.01
229.59	1677.29
229.81	1703.91
230.03	1683.43
230.25	1701.86
230.47	1687.53
230.69	1685.48
230.90	1718.25
231.12	1599.46
231.34	1779.68
231.56	1759.21
231.78	1675.24
232.00	1624.04
232.21	1771.49
232.43	1677.29
232.65	1560.55
232.87	1714.15
233.09	1683.43
233.30	1654.76
233.52	1742.82
233.74	1677.29
233.96	1683.43
234.18	1714.15
234.40	1681.38
234.61	1857.51
234.83	1656.81
235.05	1691.62
235.27	1918.95
235.49	1732.58
235.70	1794.02
235.92	1841.12
236.14	1656.81
236.36	1880.04
236.58	1691.62
236.79	1734.63
237.01	1654.76
237.23	1697.77
237.45	1880.04
237.67	1720.29
237.88	1671.14
238.10	1783.78
238.32	1601.51
238.54	1665.00
238.76	1687.53
238.97	1654.76
239.19	1685.48
239.41	1689.57
239.63	1806.31
239.85	1667.05
240.06	1742.82
240.28	1701.86
240.50	1769.44
240.72	1683.43
240.93	1630.18
241.15	1806.31
241.37	1689.57
241.59	1796.07
241.81	1673.19
242.02	1691.62
242.24	1701.86
242.46	1804.26
242.68	1691.62
242.89	1724.39
243.11	1818.60
243.33	1738.73
243.55	1738.73
243.76	1755.11
243.98	1691.62
244.20	1679.33
244.42	1626.09
244.64	1673.19
244.85	1599.46
245.07	1699.81
245.29	1814.50
245.51	1738.73
245.72	1751.01
245.94	1701.86
246.16	1757.16
246.38	1761.25
246.59	1632.23
246.81	1665.00
247.03	1701.86
247.24	1716.20
247.46	1753.06
247.68	1636.33
247.90	1716.20
248.11	1601.51
248.33	1777.64
248.55	1693.67
248.77	1710.05
248.98	1665.00
249.20	1888.23
249.42	1724.39
249.64	1708.01
249.85	1671.14
250.07	1636.33
250.29	1718.25
250.50	1771.49
250.72	1683.43
250.94	1771.49
251.16	1798.12
251.37	1761.25
251.59	1726.44
251.81	1648.61
252.02	1775.59
252.24	1769.44
252.46	1791.97
252.68	1689.57
252.89	1773.54
253.11	1595.37
253.33	1763.30
253.54	1734.63
253.76	1607.66
253.98	1757.16
254.20	1687.53
254.41	1591.27
254.63	1703.91
254.85	1619.94
255.06	1671.14
255.28	1718.25
255.50	1705.96
255.71	1679.33
255.93	1652.71
256.15	1714.15
256.36	1751.01
256.58	1675.24
256.80	1734.63
257.02	1665.00
257.23	1634.28
257.45	1693.67
257.67	1730.53
257.88	1673.19
258.10	1689.57
258.32	1705.96
258.53	1724.39
258.75	1765.35
258.97	1628.14
259.18	1718.25
259.40	1714.15
259.62	1794.02
259.83	1796.07
260.05	1730.53
260.27	2076.64
260.48	1748.97
260.70	1662.95
260.92	1714.15
261.13	1691.62
261.35	1662.95
261.57	1673.19
261.78	1617.90
262.00	1667.05
262.22	1732.58
262.43	1621.99
262.65	1720.29
262.86	1658.85
263.08	1961.95
263.30	1748.97
263.51	1607.66
263.73	1779.68
263.95	1847.27
264.16	1669.09
264.38	1665.00
264.60	1759.21
264.81	1677.29
265.03	1777.64
265.25	1779.68
265.46	1673.19
265.68	1755.11
265.89	1763.30
266.11	1607.66
266.33	1724.39
266.54	1722.34
266.76	1744.87
266.98	1720.29
267.19	1779.68
267.41	1720.29
267.62	1722.34
267.84	1652.71
268.06	1691.62
268.27	1724.39
268.49	1812.45
268.70	1744.87
268.92	1691.62
269.14	1667.05
269.35	1636.33
269.57	1601.51
269.79	1681.38
270.00	1605.61
270.22	1767.40
270.43	1685.48
270.65	1576.94
270.87	1708.01
271.08	1695.72
271.30	1662.95
271.51	1638.38
271.73	1705.96
271.95	1748.97
272.16	1679.33
272.38	1697.77
272.59	1636.33
272.81	1808.36
273.02	1679.33
273.24	1638.38
273.46	1830.88
273.67	1722.34
273.89	1740.77
274.10	1583.08
274.32	1724.39
274.54	1769.44
274.75	1734.63
274.97	1677.29
275.18	1812.45
275.40	1705.96
275.61	1714.15
275.83	1730.53
276.05	1617.90
276.26	1642.47
276.48	1761.25
276.69	1683.43
276.91	1705.96
277.12	1806.31
277.34	1794.02
277.55	1783.78
277.77	1697.77
277.99	1742.82
278.20	1697.77
278.42	1679.33
278.63	1603.56
278.85	1681.38
279.06	1716.20
279.28	1718.25
279.49	1767.40
279.71	1789.92
279.93	1724.39
280.14	1679.33
280.36	1644.52
280.57	1675.24
280.79	1775.59
281.00	1665.00
281.22	1662.95
281.43	1816.55
281.65	1609.70
281.86	1689.57
282.08	1734.63
282.29	1834.98
282.51	1667.05
282.73	1621.99
282.94	1583.08
283.16	1716.20
283.37	1851.36
283.59	1673.19
283.80	1691.62
284.02	1658.85
284.23	1746.92
284.45	1669.09
284.66	1626.09
284.88	1691.62
285.09	1714.15
285.31	1708.01
285.52	1720.29
285.74	1667.05
285.95	1759.21
286.17	1777.64
286.38	1773.54
286.60	1617.90
286.81	1675.24
287.03	1726.44
287.24	1665.00
287.46	1748.97
287.67	1724.39
287.89	1806.31
288.10	1669.09
288.32	1693.67
288.53	1837.03
288.75	1730.53
288.96	1753.06
289.18	1652.71
289.39	1703.91
289.61	1746.92
289.82	1816.55
290.04	1867.75
290.25	1626.09
290.47	1703.91
290.68	1667.05
290.90	1654.76
291.11	1613.80
291.33	1718.25
291.54	1722.34
291.76	1703.91
291.97	1742.82
292.18	1667.05
292.40	1712.10
292.61	1675.24
292.83	1886.18
293.04	1804.26
293.26	1712.10
293.47	1730.53
293.69	1708.01
293.90	1695.72
294.12	1742.82
294.33	1730.53
294.55	1720.29
294.76	1800.16
294.97	1783.78
295.19	1779.68
295.40	1755.11
295.62	1789.92
295.83	1771.49
296.05	1613.80
296.26	1779.68
296.48	1665.00
296.69	1751.01
296.90	1718.25
297.12	1730.53
297.33	1800.16
297.55	1761.25
297.76	1705.96
297.98	1771.49
298.19	1646.57
298.41	1703.91
298.62	1650.66
298.83	1882.08
299.05	1673.19
299.26	1734.63
299.48	1697.77
299.69	1652.71
299.90	1757.16
300.12	1683.43
300.33	1789.92
300.55	1787.88
300.76	1701.86
300.98	1636.33
301.19	1748.97
301.40	1679.33
301.62	1744.87
301.83	1708.01
302.05	1783.78
302.26	1732.58
302.47	1699.81
302.69	1578.98
302.90	1712.10
303.12	1603.56
303.33	1751.01
303.54	1837.03
303.76	1669.09
303.97	1640.42
304.19	1863.65
304.40	1687.53
304.61	1767.40
304.83	1832.93
305.04	1814.50
305.26	1791.97
305.47	1667.05
305.68	1732.58
305.90	1609.70
306.11	1759.21
306.33	1689.57
306.54	1669.09
306.75	1736.68
306.97	1669.09
307.18	1716.20
307.39	1761.25
307.61	1748.97
307.82	1662.95
308.04	1730.53
308.25	1665.00
308.46	1761.25
308.68	1720.29
308.89	1746.92
309.10	1777.64
309.32	1738.73
309.53	1679.33
309.74	1763.30
309.96	1710.05
310.17	1755.11
310.39	1605.61
310.60	1714.15
310.81	1689.57
311.03	1638.38
311.24	1826.79
311.45	1759.21
311.67	1794.02
311.88	1748.97
312.09	1685.48
312.31	1624.04
312.52	1650.66
312.73	1726.44
312.95	1652.71
313.16	1626.09
313.37	1781.73
313.59	1748.97
313.80	1699.81
314.01	1783.78
314.23	1689.57
314.44	1638.38
314.65	1652.71
314.87	1697.77
315.08	1662.95
315.29	1716.20
315.51	1726.44
315.72	1648.61
315.93	1851.36
316.15	1812.45
316.36	1671.14
316.57	1708.01
316.79	1742.82
317.00	1685.48
317.21	1794.02
317.43	1742.82
317.64	1693.67
317.85	1671.14
318.07	1728.49
318.28	1771.49
318.49	1806.31
318.70	1888.23
318.92	1775.59
319.13	1812.45
319.34	1955.81
319.56	1753.06
319.77	1865.70
319.98	1812.45
320.20	1834.98
320.41	1751.01
320.62	1791.97
320.83	1660.90
321.05	1828.84
321.26	1761.25
321.47	1718.25
321.69	1832.93
321.90	1609.70
322.11	1722.34
322.32	1693.67
322.54	1775.59
322.75	1677.29
322.96	1820.64
323.18	1660.90
323.39	1677.29
323.60	1714.15
323.81	1808.36
324.03	1644.52
324.24	1660.90
324.45	1697.77
324.66	1701.86
324.88	1738.73
325.09	1810.40
325.30	1683.43
325.52	1720.29
325.73	1763.30
325.94	1607.66
326.15	1576.94
326.37	1724.39
326.58	1826.79
326.79	1783.78
327.00	1695.72
327.22	1665.00
327.43	1681.38
327.64	1656.81
327.85	1720.29
328.07	1781.73
328.28	1857.51
328.49	1695.72
328.70	1736.68
328.92	1781.73
329.13	1697.77
329.34	1798.12
329.55	1779.68
329.76	1681.38
329.98	1660.90
330.19	1744.87
330.40	1718.25
330.61	1722.34
330.83	1683.43
331.04	1708.01
331.25	1722.34
331.46	1699.81
331.68	1683.43
331.89	1746.92
332.10	1689.57
332.31	1683.43
332.52	1630.18
332.74	1779.68
332.95	1640.42
333.16	1677.29
333.37	1757.16
333.58	1712.10
333.80	1701.86
334.01	1673.19
334.22	1673.19
334.43	1679.33
334.64	1712.10
334.86	1671.14
335.07	1683.43
335.28	1808.36
335.49	1634.28
335.70	1740.77
335.92	1812.45
336.13	1884.13
336.34	1669.09
336.55	1740.77
336.76	1800.16
336.98	1660.90
337.19	1648.61
337.40	1841.12
337.61	1851.36
337.82	1685.48
338.04	1722.34
338.25	1665.00
338.46	1738.73
338.67	1714.15
338.88	1613.80
339.09	1597.42
339.31	1634.28
339.52	1621.99
339.73	1660.90
339.94	1726.44
340.15	1779.68
340.36	1691.62
340.58	1656.81
340.79	1697.77
341.00	1742.82
341.21	1619.94
341.42	1789.92
341.63	1671.14
341.85	1681.38
342.06	1697.77
342.27	1724.39
342.48	1748.97
342.69	1607.66
342.90	1730.53
343.12	1730.53
343.33	1683.43
343.54	1740.77
343.75	1912.80
343.96	1693.67
344.17	1673.19
344.38	1765.35
344.60	1615.85
344.81	1679.33
345.02	1681.38
345.23	1779.68
345.44	1812.45
345.65	1722.34
345.86	1804.26
346.07	1648.61
346.29	1746.92
346.50	1775.59
346.71	1773.54
346.92	1767.40
347.13	1843.17
347.34	1691.62
347.55	1632.23
347.76	1796.07
347.98	1617.90
348.19	1675.24
348.40	1759.21
348.61	1665.00
348.82	1796.07
349.03	1746.92
349.24	1687.53
349.45	1871.84
349.66	1693.67
349.88	1714.15
350.09	1626.09
350.30	1660.90
350.51	1796.07
350.72	1681.38
350.93	1734.63
351.14	1693.67
351.35	1748.97
351.56	1765.35
351.77	1816.55
351.99	1759.21
352.20	1871.84
352.41	1769.44
352.62	1597.42
352.83	1748.97
353.04	1771.49
353.25	1736.68
353.46	1820.64
353.67	1796.07
353.88	1624.04
354.09	1748.97
354.30	1732.58
354.52	1705.96
354.73	1689.57
354.94	1611.75
355.15	1665.00
355.36	1744.87
355.57	1736.68
355.78	1738.73
355.99	1705.96
356.20	1611.75
356.41	1830.88
356.62	1673.19
356.83	1697.77
357.04	1771.49
357.25	1689.57
357.46	1710.05
357.68	1710.05
357.89	1634.28
358.10	1738.73
358.31	1675.24
358.52	1722.34
358.73	1667.05
358.94	1708.01
359.15	1640.42
359.36	1716.20
359.57	1720.29
359.78	1697.77
359.99	1775.59
360.20	1597.42
360.41	1656.81
360.62	1783.78
360.83	1710.05
361.04	1740.77
361.25	1728.49
361.46	1865.70
361.67	1738.73
361.88	1832.93
362.09	1714.15
362.30	1691.62
362.51	1597.42
362.72	1681.38
362.93	1775.59
363.14	1738.73
363.35	1755.11
363.56	1748.97
363.78	1761.25
363.99	1761.25
364.20	1714.15
364.41	1738.73
364.62	1742.82
364.83	1734.63
365.04	1652.71
365.25	1699.81
365.46	1816.55
365.67	1650.66
365.88	1748.97
366.09	1714.15
366.30	1658.85
366.51	1685.48
366.72	1640.42
366.93	1652.71
367.14	1724.39
367.35	1785.83
367.56	1718.25
367.77	1869.80
367.98	1669.09
368.18	1728.49
368.39	1746.92
368.60	1673.19
368.81	1781.73
369.02	1681.38
369.23	1634.28
369.44	1640.42
369.65	1695.72
369.86	1708.01
370.07	1775.59
370.28	1740.77
370.49	1753.06
370.70	1701.86
370.91	1677.29
371.12	1656.81
371.33	1789.92
371.54	1732.58
371.75	1767.40
371.96	1566.70
372.17	1720.29
372.38	1634.28
372.59	1841.12
372.80	1679.33
373.01	1689.57
373.22	1734.63
373.43	1685.48
373.64	1703.91
373.85	1794.02
374.06	1845.22
374.26	1761.25
374.47	1757.16
374.68	1773.54
374.89	1699.81
375.10	1689.57
375.31	1773.54
375.52	1730.53
375.73	1730.53
375.94	1578.98
376.15	1796.07
376.36	1699.81
376.57	1705.96
376.78	1581.03
376.99	1763.30
377.20	1730.53
377.40	1710.05
377.61	1845.22
377.82	1640.42
378.03	1808.36
378.24	1814.50
378.45	1710.05
378.66	1701.86
378.87	1671.14
379.08	1621.99
379.29	1640.42
379.50	1804.26
379.71	1699.81
379.91	1785.83
380.12	1718.25
380.33	1751.01
380.54	1662.95
380.75	1701.86
380.96	1738.73
381.17	1763.30
381.38	1671.14
381.59	1730.53
381.80	1722.34
382.00	1806.31
382.21	1732.58
382.42	1820.64
382.63	1845.22
382.84	1767.40
383.05	1820.64
383.26	1781.73
383.47	1742.82
383.68	1826.79
383.88	1683.43
384.09	1796.07
384.30	1830.88
384.51	1669.09
384.72	1662.95
384.93	1697.77
385.14	1724.39
385.35	1851.36
385.55	1601.51
385.76	1710.05
385.97	1734.63
386.18	1695.72
386.39	1701.86
386.60	1652.71
386.81	1746.92
387.02	1716.20
387.22	1728.49
387.43	1755.11
387.64	1757.16
387.85	1853.41
388.06	2273.25
388.27	4251.58
388.48	6522.78
388.68	7976.84
388.89	9244.53
389.10	9625.45
389.31	8423.30
389.52	7350.16
389.73	6670.23
389.93	6217.63
390.14	5797.80
390.35	5013.43
390.56	4665.27
390.77	3719.11
390.98	2891.73
391.18	2457.56
391.39	2121.70
391.60	1845.22
391.81	1783.78
392.02	1726.44
392.23	1861.60
392.43	1714.15
392.64	1837.03
392.85	1660.90
393.06	1843.17
393.27	1779.68
393.47	1714.15
393.68	1695.72
393.89	1673.19
394.10	1816.55
394.31	1679.33
394.52	1697.77
394.72	1632.23
394.93	1804.26
395.14	1644.52
395.35	1730.53
395.56	1615.85
395.76	1804.26
395.97	1798.12
396.18	1853.41
396.39	1855.46
396.60	1984.48
396.80	1910.75
397.01	1902.56
397.22	1824.74
397.43	1912.80
397.64	1755.11
397.84	1789.92
398.05	1841.12
398.26	1830.88
398.47	1787.88
398.67	1757.16
398.88	1767.40
399.09	1746.92
399.30	1708.01
399.51	1779.68
399.71	1712.10
399.92	1753.06
400.13	1769.44
400.34	1658.85
400.54	1681.38
400.75	1794.02
400.96	1714.15
401.17	1822.69
401.37	1794.02
401.58	1763.30
401.79	1634.28
402.00	1869.80
402.21	2043.87
402.41	1861.60
402.62	2011.11
402.83	1990.63
403.04	2031.58
403.24	1998.82
403.45	1796.07
403.66	1920.99
403.87	1830.88
404.07	1834.98
404.28	1908.71
404.49	1814.50
404.70	1746.92
404.90	1748.97
405.11	1748.97
405.32	1781.73
405.52	1691.62
405.73	1710.05
405.94	1701.86
406.15	1738.73
406.35	1820.64
406.56	1753.06
406.77	1740.77
406.98	1791.97
407.18	1646.57
407.39	1798.12
407.60	1677.29
407.80	1757.16
408.01	1597.42
408.22	1787.88
408.43	1667.05
408.63	1796.07
408.84	1740.77
409.05	1697.77
409.25	1665.00
409.46	1638.38
409.67	1714.15
409.88	1665.00
410.08	1705.96
410.29	1677.29
410.50	1785.83
410.70	1712.10
410.91	1677.29
411.12	1771.49
411.32	1710.05
411.53	1683.43
411.74	1800.16
411.95	1832.93
412.15	1796.07
412.36	1808.36
412.57	1796.07
412.77	1757.16
412.98	1755.11
413.19	1730.53
413.39	1675.24
413.60	1693.67
413.81	1822.69
414.01	1687.53
414.22	1722.34
414.43	1783.78
414.63	1746.92
414.84	1691.62
415.05	1740.77
415.25	1656.81
415.46	1794.02
415.67	1734.63
415.87	1695.72
416.08	1644.52
416.29	1730.53
416.49	1779.68
416.70	1650.66
416.91	1611.75
417.11	1699.81
417.32	1769.44
417.53	1763.30
417.73	1712.10
417.94	1720.29
418.15	1665.00
418.35	1656.81
418.56	1683.43
418.77	1822.69
418.97	1777.64
419.18	1665.00
419.38	1595.37
419.59	1681.38
419.80	1834.98
420.00	1701.86
420.21	1726.44
420.42	1863.65
420.62	1814.50
420.83	1689.57
421.04	1667.05
421.24	1746.92
421.45	1779.68
421.65	1718.25
421.86	1691.62
422.07	1722.34
422.27	1746.92
422.48	1724.39
422.69	1658.85
422.89	1710.05
423.10	1705.96
423.30	1656.81
423.51	1753.06
423.72	1763.30
423.92	1779.68
424.13	1654.76
424.33	1730.53
424.54	1738.73
424.75	1695.72
424.95	1798.12
425.16	1751.01
425.36	1611.75
425.57	1787.88
425.78	1755.11
425.98	1777.64
426.19	1673.19
426.39	1742.82
426.60	1738.73
426.81	1814.50
427.01	1656.81
427.22	1708.01
427.42	1630.18
427.63	1703.91
427.83	1794.02
428.04	1759.21
428.25	1916.90
428.45	1781.73
428.66	1753.06
428.86	1695.72
429.07	1720.29
429.28	1671.14
429.48	1634.28
429.69	1732.58
429.89	1736.68
430.10	1599.46
430.30	1753.06
430.51	1734.63
430.71	1603.56
430.92	1738.73
431.13	1734.63
431.33	1771.49
431.54	1691.62
431.74	1882.08
431.95	1888.23
432.15	1644.52
432.36	1726.44
432.56	1812.45
432.77	1824.74
432.98	1775.59
433.18	1697.77
433.39	1705.96
433.59	1755.11
433.80	1806.31
434.00	1861.60
434.21	1671.14
434.41	1669.09
434.62	1800.16
434.82	1656.81
435.03	1705.96
435.23	1742.82
435.44	1607.66
435.64	1746.92
435.85	1802.21
436.06	1769.44
436.26	1800.16
436.47	1765.35
436.67	1712.10
436.88	1691.62
437.08	1722.34
437.29	1800.16
437.49	1738.73
437.70	1857.51
437.90	1763.30
438.11	1804.26
438.31	1818.60
438.52	1888.23
438.72	1804.26
438.93	1912.80
439.13	1820.64
439.34	1808.36
439.54	1753.06
439.75	1845.22
439.95	1740.77
440.16	1705.96
440.36	1787.88
440.57	1796.07
440.77	1738.73
440.98	1736.68
441.18	1781.73
441.39	1796.07
441.59	1667.05
441.80	1853.41
442.00	1703.91
442.21	1812.45
442.41	1628.14
442.62	1839.08
442.82	1660.90
443.02	1769.44
443.23	1775.59
443.43	1730.53
443.64	1826.79
443.84	1632.23
444.05	1830.88
444.25	1701.86
444.46	1751.01
444.66	1701.86
444.87	1859.56
445.07	1710.05
445.28	1738.73
445.48	1828.84
445.69	1853.41
445.89	1968.10
446.09	1804.26
446.30	1920.99
446.50	2641.88
446.71	3633.10
446.91	4401.08
447.12	4624.31
447.32	4728.76
447.53	4315.07
447.73	3770.31
447.93	3471.31
448.14	3172.30
448.34	3174.35
448.55	2895.83
448.75	2856.92
448.96	2668.50
449.16	2428.89
449.36	2297.82
449.57	2009.06
449.77	1945.57
449.98	1757.16
450.18	1865.70
450.39	1802.21
450.59	1753.06
450.79	1775.59
451.00	1648.61
451.20	1808.36
451.41	1726.44
451.61	1697.77
451.81	1806.31
452.02	1718.25
452.22	1626.09
452.43	1673.19
452.63	1681.38
