SpectraSuite Data File
++++++++++++++++++++++++++++++++++++
Date: Mon Jun 06 15:26:37 CEST 2016
User: root
Dark Spectrum Present: No
Reference Spectrum Present: No
Number of Sampled Component Spectra: 1
Spectrometers: USB4C02835
Integration Time (usec): 100000 (USB4C02835)
Spectra Averaged: 1 (USB4C02835)
Boxcar Smoothing: 0 (USB4C02835)
Correct for Electrical Dark: No (USB4C02835)
Strobe/Lamp Enabled: No (USB4C02835)
Correct for Detector Non-linearity: No (USB4C02835)
Correct for Stray Light: No (USB4C02835)
Number of Pixels in Processed Spectrum: 3648
>>>>>Begin Processed Spectral Data<<<<<
177.47	1460.20
177.69	1460.20
177.91	1460.20
178.13	1441.77
178.36	1515.50
178.58	1697.77
178.80	1736.68
179.02	1681.38
179.24	1679.33
179.46	1697.77
179.68	1769.44
179.90	1720.29
180.13	1720.29
180.35	1683.43
180.57	1736.68
180.79	1751.01
181.01	1667.05
181.23	1779.68
181.45	1761.25
181.67	1687.53
181.90	1779.68
182.12	1681.38
182.34	1624.04
182.56	1740.77
182.78	1691.62
183.00	1708.01
183.22	1705.96
183.44	1589.22
183.66	1796.07
183.89	1791.97
184.11	1695.72
184.33	1789.92
184.55	1753.06
184.77	1753.06
184.99	1746.92
185.21	1646.57
185.43	1877.99
185.65	1593.32
185.87	1736.68
186.10	1832.93
186.32	1751.01
186.54	1699.81
186.76	1736.68
186.98	1726.44
187.20	1691.62
187.42	1667.05
187.64	1708.01
187.86	1677.29
188.08	1798.12
188.30	1677.29
188.52	1656.81
188.75	1828.84
188.97	1791.97
189.19	1636.33
189.41	1738.73
189.63	1779.68
189.85	1740.77
190.07	1689.57
190.29	1753.06
190.51	1783.78
190.73	1685.48
190.95	1787.88
191.17	1736.68
191.39	1564.65
191.61	1615.85
191.84	1640.42
192.06	1734.63
192.28	1611.75
192.50	1904.61
192.72	1695.72
192.94	1677.29
193.16	1812.45
193.38	1740.77
193.60	1693.67
193.82	1662.95
194.04	1763.30
194.26	1736.68
194.48	1671.14
194.70	1646.57
194.92	1693.67
195.14	1738.73
195.36	1695.72
195.58	1681.38
195.80	1621.99
196.02	1673.19
196.24	1716.20
196.46	1701.86
196.69	1683.43
196.91	1898.47
197.13	1693.67
197.35	1681.38
197.57	1777.64
197.79	1771.49
198.01	1644.52
198.23	1734.63
198.45	1724.39
198.67	1640.42
198.89	1703.91
199.11	1701.86
199.33	1640.42
199.55	1632.23
199.77	1738.73
199.99	1775.59
200.21	1679.33
200.43	1714.15
200.65	1644.52
200.87	1564.65
201.09	1755.11
201.31	1697.77
201.53	1763.30
201.75	1718.25
201.97	1681.38
202.19	1732.58
202.41	1710.05
202.63	1849.32
202.85	1761.25
203.07	1714.15
203.29	1658.85
203.51	1652.71
203.73	1695.72
203.95	1880.04
204.17	1748.97
204.39	1726.44
204.61	1710.05
204.83	1679.33
205.05	1771.49
205.27	1738.73
205.49	1787.88
205.71	1771.49
205.93	1585.13
206.15	1705.96
206.37	1693.67
206.59	1679.33
206.81	1603.56
207.03	1644.52
207.25	1658.85
207.47	1808.36
207.69	1695.72
207.91	1808.36
208.13	1773.54
208.34	1685.48
208.56	1615.85
208.78	1783.78
209.00	1667.05
209.22	1665.00
209.44	1720.29
209.66	1699.81
209.88	1753.06
210.10	1660.90
210.32	1650.66
210.54	1798.12
210.76	1634.28
210.98	1738.73
211.20	1544.17
211.42	1724.39
211.64	1832.93
211.86	1771.49
212.08	1769.44
212.30	1705.96
212.52	1757.16
212.74	1644.52
212.96	1816.55
213.17	1720.29
213.39	1730.53
213.61	1814.50
213.83	1765.35
214.05	1685.48
214.27	1667.05
214.49	1648.61
214.71	1628.14
214.93	1751.01
215.15	1693.67
215.37	1667.05
215.59	1650.66
215.81	1771.49
216.03	1806.31
216.24	1755.11
216.46	1689.57
216.68	1755.11
216.90	1699.81
217.12	1796.07
217.34	1681.38
217.56	1810.40
217.78	1837.03
218.00	1763.30
218.22	1716.20
218.44	1746.92
218.66	1724.39
218.87	1804.26
219.09	1677.29
219.31	1804.26
219.53	1751.01
219.75	1675.24
219.97	1679.33
220.19	1740.77
220.41	1724.39
220.63	1777.64
220.85	1785.83
221.06	1699.81
221.28	1853.41
221.50	1697.77
221.72	1724.39
221.94	1710.05
222.16	1710.05
222.38	1863.65
222.60	1796.07
222.82	1716.20
223.03	1794.02
223.25	1724.39
223.47	1720.29
223.69	1828.84
223.91	1804.26
224.13	1652.71
224.35	1699.81
224.57	1726.44
224.78	1732.58
225.00	1691.62
225.22	1769.44
225.44	1734.63
225.66	1753.06
225.88	1710.05
226.10	1724.39
226.32	1736.68
226.53	1783.78
226.75	1689.57
226.97	1695.72
227.19	1708.01
227.41	1652.71
227.63	1615.85
227.85	1576.94
228.06	1605.61
228.28	1714.15
228.50	1716.20
228.72	1671.14
228.94	1685.48
229.16	1550.31
229.37	1662.95
229.59	1673.19
229.81	1851.36
230.03	1583.08
230.25	1665.00
230.47	1718.25
230.69	1658.85
230.90	1769.44
231.12	1648.61
231.34	1697.77
231.56	1771.49
231.78	1722.34
232.00	1714.15
232.21	1703.91
232.43	1583.08
232.65	1533.93
232.87	1665.00
233.09	1642.47
233.30	1636.33
233.52	1714.15
233.74	1714.15
233.96	1601.51
234.18	1697.77
234.40	1675.24
234.61	1849.32
234.83	1619.94
235.05	1658.85
235.27	1900.52
235.49	1796.07
235.70	1691.62
235.92	1798.12
236.14	1724.39
236.36	1839.08
236.58	1634.28
236.79	1710.05
237.01	1808.36
237.23	1697.77
237.45	1783.78
237.67	1699.81
237.88	1777.64
238.10	1791.97
238.32	1611.75
238.54	1751.01
238.76	1683.43
238.97	1621.99
239.19	1705.96
239.41	1820.64
239.63	1748.97
239.85	1601.51
240.06	1681.38
240.28	1677.29
240.50	1767.40
240.72	1726.44
240.93	1662.95
241.15	1732.58
241.37	1728.49
241.59	1800.16
241.81	1703.91
242.02	1714.15
242.24	1720.29
242.46	1748.97
242.68	1681.38
242.89	1794.02
243.11	1730.53
243.33	1679.33
243.55	1740.77
243.76	1806.31
243.98	1619.94
244.20	1769.44
244.42	1736.68
244.64	1742.82
244.85	1548.26
245.07	1718.25
245.29	1802.21
245.51	1701.86
245.72	1697.77
245.94	1796.07
246.16	1671.14
246.38	1697.77
246.59	1681.38
246.81	1681.38
247.03	1681.38
247.24	1576.94
247.46	1703.91
247.68	1726.44
247.90	1691.62
248.11	1611.75
248.33	1744.87
248.55	1708.01
248.77	1689.57
248.98	1732.58
249.20	1810.40
249.42	1746.92
249.64	1779.68
249.85	1624.04
250.07	1693.67
250.29	1726.44
250.50	1726.44
250.72	1656.81
250.94	1683.43
251.16	1804.26
251.37	1751.01
251.59	1650.66
251.81	1683.43
252.02	1751.01
252.24	1658.85
252.46	1837.03
252.68	1587.18
252.89	1701.86
253.11	1538.02
253.33	1834.98
253.54	1791.97
253.76	1632.23
253.98	1740.77
254.20	1689.57
254.41	1591.27
254.63	1767.40
254.85	1658.85
255.06	1740.77
255.28	1748.97
255.50	1697.77
255.71	1759.21
255.93	1640.42
256.15	1636.33
256.36	1673.19
256.58	1669.09
256.80	1710.05
257.02	1673.19
257.23	1763.30
257.45	1689.57
257.67	1779.68
257.88	1714.15
258.10	1732.58
258.32	1675.24
258.53	1722.34
258.75	1751.01
258.97	1703.91
259.18	1722.34
259.40	1708.01
259.62	1822.69
259.83	1798.12
260.05	1640.42
260.27	2004.96
260.48	1779.68
260.70	1665.00
260.92	1691.62
261.13	1736.68
261.35	1740.77
261.57	1722.34
261.78	1597.42
262.00	1593.32
262.22	1794.02
262.43	1665.00
262.65	1712.10
262.86	1722.34
263.08	1826.79
263.30	1742.82
263.51	1611.75
263.73	1621.99
263.95	1796.07
264.16	1605.61
264.38	1705.96
264.60	1689.57
264.81	1742.82
265.03	1730.53
265.25	1781.73
265.46	1671.14
265.68	1804.26
265.89	1703.91
266.11	1628.14
266.33	1806.31
266.54	1701.86
266.76	1699.81
266.98	1728.49
267.19	1812.45
267.41	1763.30
267.62	1648.61
267.84	1644.52
268.06	1687.53
268.27	1783.78
268.49	1775.59
268.70	1718.25
268.92	1744.87
269.14	1677.29
269.35	1671.14
269.57	1714.15
269.79	1751.01
270.00	1710.05
270.22	1865.70
270.43	1691.62
270.65	1587.18
270.87	1665.00
271.08	1720.29
271.30	1701.86
271.51	1732.58
271.73	1671.14
271.95	1755.11
272.16	1744.87
272.38	1712.10
272.59	1710.05
272.81	1693.67
273.02	1851.36
273.24	1708.01
273.46	1681.38
273.67	1601.51
273.89	1718.25
274.10	1705.96
274.32	1822.69
274.54	1669.09
274.75	1650.66
274.97	1665.00
275.18	1781.73
275.40	1742.82
275.61	1798.12
275.83	1705.96
276.05	1626.09
276.26	1699.81
276.48	1722.34
276.69	1724.39
276.91	1699.81
277.12	1742.82
277.34	1775.59
277.55	1689.57
277.77	1714.15
277.99	1683.43
278.20	1705.96
278.42	1599.46
278.63	1646.57
278.85	1714.15
279.06	1630.18
279.28	1748.97
279.49	1736.68
279.71	1742.82
279.93	1748.97
280.14	1751.01
280.36	1714.15
280.57	1763.30
280.79	1800.16
281.00	1691.62
281.22	1730.53
281.43	1851.36
281.65	1630.18
281.86	1652.71
282.08	1673.19
282.29	1787.88
282.51	1660.90
282.73	1665.00
282.94	1626.09
283.16	1701.86
283.37	1812.45
283.59	1658.85
283.80	1669.09
284.02	1644.52
284.23	1734.63
284.45	1738.73
284.66	1673.19
284.88	1646.57
285.09	1751.01
285.31	1757.16
285.52	1705.96
285.74	1677.29
285.95	1687.53
286.17	1656.81
286.38	1796.07
286.60	1660.90
286.81	1636.33
287.03	1746.92
287.24	1748.97
287.46	1759.21
287.67	1705.96
287.89	1787.88
288.10	1744.87
288.32	1755.11
288.53	1769.44
288.75	1716.20
288.96	1767.40
289.18	1665.00
289.39	1732.58
289.61	1814.50
289.82	1810.40
290.04	1746.92
290.25	1665.00
290.47	1718.25
290.68	1677.29
290.90	1732.58
291.11	1609.70
291.33	1746.92
291.54	1726.44
291.76	1693.67
291.97	1771.49
292.18	1720.29
292.40	1791.97
292.61	1691.62
292.83	1820.64
293.04	1724.39
293.26	1828.84
293.47	1716.20
293.69	1640.42
293.90	1736.68
294.12	1779.68
294.33	1722.34
294.55	1669.09
294.76	1726.44
294.97	1753.06
295.19	1800.16
295.40	1757.16
295.62	1671.14
295.83	1798.12
296.05	1591.27
296.26	1771.49
296.48	1632.23
296.69	1718.25
296.90	1673.19
297.12	1744.87
297.33	1771.49
297.55	1658.85
297.76	1783.78
297.98	1816.55
298.19	1740.77
298.41	1734.63
298.62	1677.29
298.83	1802.21
299.05	1701.86
299.26	1652.71
299.48	1699.81
299.69	1736.68
299.90	1646.57
300.12	1691.62
300.33	1744.87
300.55	1781.73
300.76	1742.82
300.98	1648.61
301.19	1703.91
301.40	1679.33
301.62	1689.57
301.83	1765.35
302.05	1763.30
302.26	1679.33
302.47	1708.01
302.69	1630.18
302.90	1636.33
303.12	1630.18
303.33	1796.07
303.54	1818.60
303.76	1742.82
303.97	1646.57
304.19	1730.53
304.40	1685.48
304.61	1710.05
304.83	1814.50
305.04	1832.93
305.26	1705.96
305.47	1681.38
305.68	1787.88
305.90	1583.08
306.11	1746.92
306.33	1675.24
306.54	1726.44
306.75	1632.23
306.97	1673.19
307.18	1640.42
307.39	1665.00
307.61	1716.20
307.82	1761.25
308.04	1730.53
308.25	1656.81
308.46	1771.49
308.68	1734.63
308.89	1640.42
309.10	1734.63
309.32	1724.39
309.53	1667.05
309.74	1695.72
309.96	1624.04
310.17	1834.98
310.39	1730.53
310.60	1804.26
310.81	1665.00
311.03	1679.33
311.24	1808.36
311.45	1683.43
311.67	1783.78
311.88	1751.01
312.09	1763.30
312.31	1636.33
312.52	1693.67
312.73	1681.38
312.95	1587.18
313.16	1658.85
313.37	1767.40
313.59	1734.63
313.80	1773.54
314.01	1783.78
314.23	1699.81
314.44	1751.01
314.65	1615.85
314.87	1716.20
315.08	1589.22
315.29	1730.53
315.51	1693.67
315.72	1621.99
315.93	1695.72
316.15	1744.87
316.36	1619.94
316.57	1705.96
316.79	1697.77
317.00	1624.04
317.21	1681.38
317.43	1699.81
317.64	1732.58
317.85	1671.14
318.07	1642.47
318.28	1732.58
318.49	1808.36
318.70	1834.98
318.92	1771.49
319.13	1837.03
319.34	1939.43
319.56	1837.03
319.77	1753.06
319.98	1820.64
320.20	1839.08
320.41	1828.84
320.62	1759.21
320.83	1652.71
321.05	1808.36
321.26	1771.49
321.47	1716.20
321.69	1802.21
321.90	1675.24
322.11	1683.43
322.32	1722.34
322.54	1826.79
322.75	1744.87
322.96	1837.03
323.18	1662.95
323.39	1654.76
323.60	1605.61
323.81	1773.54
324.03	1679.33
324.24	1724.39
324.45	1742.82
324.66	1708.01
324.88	1828.84
325.09	1740.77
325.30	1703.91
325.52	1812.45
325.73	1732.58
325.94	1660.90
326.15	1621.99
326.37	1691.62
326.58	1853.41
326.79	1771.49
327.00	1644.52
327.22	1781.73
327.43	1585.13
327.64	1648.61
327.85	1722.34
328.07	1728.49
328.28	1787.88
328.49	1679.33
328.70	1771.49
328.92	1763.30
329.13	1701.86
329.34	1681.38
329.55	1800.16
329.76	1773.54
329.98	1681.38
330.19	1730.53
330.40	1767.40
330.61	1703.91
330.83	1804.26
331.04	1630.18
331.25	1738.73
331.46	1705.96
331.68	1593.32
331.89	1781.73
332.10	1736.68
332.31	1603.56
332.52	1714.15
332.74	1812.45
332.95	1671.14
333.16	1755.11
333.37	1781.73
333.58	1703.91
333.80	1740.77
334.01	1675.24
334.22	1718.25
334.43	1691.62
334.64	1679.33
334.86	1634.28
335.07	1714.15
335.28	1814.50
335.49	1642.47
335.70	1845.22
335.92	1816.55
336.13	1798.12
336.34	1656.81
336.55	1746.92
336.76	1691.62
336.98	1632.23
337.19	1673.19
337.40	1753.06
337.61	1816.55
337.82	1556.46
338.04	1802.21
338.25	1593.32
338.46	1714.15
338.67	1658.85
338.88	1673.19
339.09	1689.57
339.31	1679.33
339.52	1644.52
339.73	1667.05
339.94	1683.43
340.15	1708.01
340.36	1671.14
340.58	1781.73
340.79	1617.90
341.00	1808.36
341.21	1572.84
341.42	1826.79
341.63	1714.15
341.85	1751.01
342.06	1732.58
342.27	1652.71
342.48	1791.97
342.69	1626.09
342.90	1693.67
343.12	1759.21
343.33	1689.57
343.54	1757.16
343.75	1794.02
343.96	1703.91
344.17	1648.61
344.38	1753.06
344.60	1683.43
344.81	1689.57
345.02	1691.62
345.23	1650.66
345.44	1812.45
345.65	1685.48
345.86	1730.53
346.07	1689.57
346.29	1632.23
346.50	1738.73
346.71	1761.25
346.92	1744.87
347.13	1802.21
347.34	1695.72
347.55	1662.95
347.76	1716.20
347.98	1677.29
348.19	1673.19
348.40	1828.84
348.61	1683.43
348.82	1798.12
349.03	1710.05
349.24	1722.34
349.45	1814.50
349.66	1570.79
349.88	1691.62
350.09	1777.64
350.30	1771.49
350.51	1736.68
350.72	1665.00
350.93	1730.53
351.14	1708.01
351.35	1779.68
351.56	1691.62
351.77	1720.29
351.99	1722.34
352.20	1875.94
352.41	1732.58
352.62	1560.55
352.83	1619.94
353.04	1763.30
353.25	1701.86
353.46	1712.10
353.67	1765.35
353.88	1652.71
354.09	1650.66
354.30	1675.24
354.52	1761.25
354.73	1734.63
354.94	1615.85
355.15	1714.15
355.36	1826.79
355.57	1611.75
355.78	1710.05
355.99	1675.24
356.20	1712.10
356.41	1761.25
356.62	1763.30
356.83	1740.77
357.04	1740.77
357.25	1597.42
357.46	1650.66
357.68	1609.70
357.89	1642.47
358.10	1726.44
358.31	1705.96
358.52	1669.09
358.73	1691.62
358.94	1695.72
359.15	1630.18
359.36	1722.34
359.57	1662.95
359.78	1675.24
359.99	1759.21
360.20	1685.48
360.41	1736.68
360.62	1767.40
360.83	1699.81
361.04	1701.86
361.25	1783.78
361.46	1791.97
361.67	1724.39
361.88	1736.68
362.09	1705.96
362.30	1783.78
362.51	1736.68
362.72	1710.05
362.93	1757.16
363.14	1783.78
363.35	1736.68
363.56	1669.09
363.78	1779.68
363.99	1746.92
364.20	1738.73
364.41	1689.57
364.62	1843.17
364.83	1718.25
365.04	1679.33
365.25	1720.29
365.46	1794.02
365.67	1701.86
365.88	1665.00
366.09	1685.48
366.30	1748.97
366.51	1759.21
366.72	1685.48
366.93	1691.62
367.14	1767.40
367.35	1824.74
367.56	1734.63
367.77	1808.36
367.98	1712.10
368.18	1697.77
368.39	1748.97
368.60	1654.76
368.81	1787.88
369.02	1808.36
369.23	1675.24
369.44	1617.90
369.65	1656.81
369.86	1748.97
370.07	1814.50
370.28	1710.05
370.49	1740.77
370.70	1775.59
370.91	1619.94
371.12	1720.29
371.33	1814.50
371.54	1673.19
371.75	1685.48
371.96	1544.17
372.17	1777.64
372.38	1734.63
372.59	1716.20
372.80	1648.61
373.01	1689.57
373.22	1767.40
373.43	1734.63
373.64	1574.89
373.85	1900.52
374.06	1808.36
374.26	1773.54
374.47	1697.77
374.68	1730.53
374.89	1632.23
375.10	1687.53
375.31	1828.84
375.52	1767.40
375.73	1734.63
375.94	1683.43
376.15	1798.12
376.36	1630.18
376.57	1728.49
376.78	1746.92
376.99	1763.30
377.20	1759.21
377.40	1646.57
377.61	1789.92
377.82	1636.33
378.03	1873.89
378.24	1755.11
378.45	1689.57
378.66	1673.19
378.87	1642.47
379.08	1628.14
379.29	1689.57
379.50	1804.26
379.71	1691.62
379.91	1697.77
380.12	1716.20
380.33	1724.39
380.54	1667.05
380.75	1738.73
380.96	1675.24
381.17	1728.49
381.38	1724.39
381.59	1716.20
381.80	1820.64
382.00	1839.08
382.21	1781.73
382.42	1798.12
382.63	1902.56
382.84	1769.44
383.05	1814.50
383.26	1804.26
383.47	1777.64
383.68	1804.26
383.88	1757.16
384.09	1638.38
384.30	1802.21
384.51	1796.07
384.72	1720.29
384.93	1642.47
385.14	1669.09
385.35	1759.21
385.55	1728.49
385.76	1796.07
385.97	1681.38
386.18	1679.33
386.39	1654.76
386.60	1652.71
386.81	1708.01
387.02	1619.94
387.22	1669.09
387.43	1814.50
387.64	1746.92
387.85	1894.37
388.06	2187.23
388.27	4190.14
388.48	6743.96
388.68	8058.76
388.89	9475.95
389.10	9629.55
389.31	8523.65
389.52	7475.09
389.73	6711.19
389.93	6176.67
390.14	5816.23
390.35	5418.93
390.56	4509.63
390.77	3747.78
390.98	3033.04
391.18	2480.09
391.39	2070.50
391.60	1896.42
391.81	1896.42
392.02	1695.72
392.23	1849.32
392.43	1732.58
392.64	1851.36
392.85	1734.63
393.06	1818.60
393.27	1746.92
393.47	1714.15
393.68	1730.53
393.89	1677.29
394.10	1771.49
394.31	1728.49
394.52	1574.89
394.72	1748.97
394.93	1798.12
395.14	1628.14
395.35	1796.07
395.56	1654.76
395.76	1679.33
395.97	1789.92
396.18	1849.32
396.39	1859.56
396.60	1976.29
396.80	1865.70
397.01	1837.03
397.22	1800.16
397.43	1894.37
397.64	1753.06
397.84	1886.18
398.05	1898.47
398.26	1804.26
398.47	1808.36
398.67	1740.77
398.88	1796.07
399.09	1712.10
399.30	1634.28
399.51	1785.83
399.71	1718.25
399.92	1705.96
400.13	1845.22
400.34	1830.88
400.54	1660.90
400.75	1765.35
400.96	1710.05
401.17	1834.98
401.37	1779.68
401.58	1755.11
401.79	1755.11
402.00	1849.32
402.21	2011.11
402.41	1972.19
402.62	2009.06
402.83	2027.49
403.04	1935.33
403.24	2111.46
403.45	1820.64
403.66	1916.90
403.87	1828.84
404.07	1959.91
404.28	1853.41
404.49	1896.42
404.70	1789.92
404.90	1822.69
405.11	1732.58
405.32	1742.82
405.52	1607.66
405.73	1683.43
405.94	1701.86
406.15	1677.29
406.35	1619.94
406.56	1771.49
406.77	1742.82
406.98	1697.77
407.18	1730.53
407.39	1708.01
407.60	1730.53
407.80	1753.06
408.01	1662.95
408.22	1722.34
408.43	1699.81
408.63	1705.96
408.84	1742.82
409.05	1794.02
409.25	1624.04
409.46	1751.01
409.67	1757.16
409.88	1677.29
410.08	1736.68
410.29	1708.01
410.50	1761.25
410.70	1802.21
410.91	1714.15
411.12	1755.11
411.32	1697.77
411.53	1677.29
411.74	1744.87
411.95	1794.02
412.15	1710.05
412.36	1802.21
412.57	1775.59
412.77	1820.64
412.98	1677.29
413.19	1718.25
413.39	1738.73
413.60	1787.88
413.81	1720.29
414.01	1703.91
414.22	1779.68
414.43	1755.11
414.63	1689.57
414.84	1775.59
415.05	1785.83
415.25	1597.42
415.46	1693.67
415.67	1769.44
415.87	1697.77
416.08	1732.58
416.29	1691.62
416.49	1693.67
416.70	1728.49
416.91	1640.42
417.11	1742.82
417.32	1757.16
417.53	1748.97
417.73	1689.57
417.94	1695.72
418.15	1728.49
418.35	1777.64
418.56	1671.14
418.77	1873.89
418.97	1677.29
419.18	1712.10
419.38	1601.51
419.59	1593.32
419.80	1769.44
420.00	1695.72
420.21	1736.68
420.42	1757.16
420.62	1832.93
420.83	1660.90
421.04	1705.96
421.24	1738.73
421.45	1732.58
421.65	1748.97
421.86	1701.86
422.07	1769.44
422.27	1667.05
422.48	1746.92
422.69	1773.54
422.89	1732.58
423.10	1791.97
423.30	1654.76
423.51	1800.16
423.72	1687.53
423.92	1740.77
424.13	1714.15
424.33	1673.19
424.54	1714.15
424.75	1767.40
424.95	1810.40
425.16	1730.53
425.36	1710.05
425.57	1755.11
425.78	1783.78
425.98	1800.16
426.19	1779.68
426.39	1683.43
426.60	1708.01
426.81	1759.21
427.01	1712.10
427.22	1716.20
427.42	1621.99
427.63	1634.28
427.83	1785.83
428.04	1812.45
428.25	1796.07
428.45	1789.92
428.66	1771.49
428.86	1710.05
429.07	1677.29
429.28	1652.71
429.48	1716.20
429.69	1656.81
429.89	1683.43
430.10	1675.24
430.30	1806.31
430.51	1769.44
430.71	1644.52
430.92	1714.15
431.13	1710.05
431.33	1716.20
431.54	1759.21
431.74	1738.73
431.95	1859.56
432.15	1705.96
432.36	1742.82
432.56	1677.29
432.77	1839.08
432.98	1777.64
433.18	1695.72
433.39	1738.73
433.59	1695.72
433.80	1912.80
434.00	1867.75
434.21	1644.52
434.41	1601.51
434.62	1927.14
434.82	1722.34
435.03	1673.19
435.23	1779.68
435.44	1695.72
435.64	1660.90
435.85	1759.21
436.06	1755.11
436.26	1722.34
436.47	1705.96
436.67	1613.80
436.88	1718.25
437.08	1742.82
437.29	1734.63
437.49	1730.53
437.70	1822.69
437.90	1753.06
438.11	1937.38
438.31	1767.40
438.52	1771.49
438.72	1802.21
438.93	1849.32
439.13	1804.26
439.34	1820.64
439.54	1818.60
439.75	1828.84
439.95	1818.60
440.16	1585.13
440.36	1732.58
440.57	1738.73
440.77	1746.92
440.98	1744.87
441.18	1759.21
441.39	1673.19
441.59	1791.97
441.80	1765.35
442.00	1726.44
442.21	1791.97
442.41	1701.86
442.62	1767.40
442.82	1738.73
443.02	1753.06
443.23	1697.77
443.43	1718.25
443.64	1851.36
443.84	1669.09
444.05	1853.41
444.25	1734.63
444.46	1789.92
444.66	1708.01
444.87	1785.83
445.07	1681.38
445.28	1767.40
445.48	1822.69
445.69	1808.36
445.89	1877.99
446.09	1767.40
446.30	2156.51
446.50	2594.78
446.71	3706.82
446.91	4319.17
447.12	4745.14
447.32	4857.78
447.53	4331.45
447.73	3751.88
447.93	3459.02
448.14	3229.65
448.34	3090.38
448.55	2992.08
448.75	2959.31
448.96	2691.03
449.16	2435.03
449.36	2193.37
449.57	2086.88
449.77	1961.95
449.98	1837.03
450.18	1861.60
450.39	1791.97
450.59	1759.21
450.79	1693.67
451.00	1720.29
451.20	1830.88
451.41	1779.68
451.61	1775.59
451.81	1761.25
452.02	1648.61
452.22	1683.43
452.43	1763.30
452.63	1748.97
