SpectraSuite Data File
++++++++++++++++++++++++++++++++++++
Date: Mon Jun 06 15:10:57 CEST 2016
User: root
Dark Spectrum Present: No
Reference Spectrum Present: No
Number of Sampled Component Spectra: 1
Spectrometers: USB4C02835
Integration Time (usec): 100000 (USB4C02835)
Spectra Averaged: 1 (USB4C02835)
Boxcar Smoothing: 0 (USB4C02835)
Correct for Electrical Dark: No (USB4C02835)
Strobe/Lamp Enabled: No (USB4C02835)
Correct for Detector Non-linearity: No (USB4C02835)
Correct for Stray Light: No (USB4C02835)
Number of Pixels in Processed Spectrum: 3648
>>>>>Begin Processed Spectral Data<<<<<
177.47	1452.01
177.69	1452.01
177.91	1452.01
178.13	1513.45
178.36	1460.20
178.58	1660.90
178.80	1648.61
179.02	1595.37
179.24	1724.39
179.46	1726.44
179.68	1796.07
179.90	1654.76
180.13	1708.01
180.35	1726.44
180.57	1662.95
180.79	1775.59
181.01	1683.43
181.23	1787.88
181.45	1738.73
181.67	1714.15
181.90	1748.97
182.12	1697.77
182.34	1640.42
182.56	1796.07
182.78	1718.25
183.00	1710.05
183.22	1769.44
183.44	1624.04
183.66	1863.65
183.89	1863.65
184.11	1722.34
184.33	1681.38
184.55	1783.78
184.77	1699.81
184.99	1681.38
185.21	1673.19
185.43	1722.34
185.65	1744.87
185.87	1712.10
186.10	1830.88
186.32	1843.17
186.54	1689.57
186.76	1751.01
186.98	1832.93
187.20	1710.05
187.42	1652.71
187.64	1685.48
187.86	1708.01
188.08	1785.83
188.30	1660.90
188.52	1665.00
188.75	1810.40
188.97	1703.91
189.19	1673.19
189.41	1689.57
189.63	1722.34
189.85	1714.15
190.07	1626.09
190.29	1632.23
190.51	1771.49
190.73	1509.35
190.95	1708.01
191.17	1681.38
191.39	1665.00
191.61	1642.47
191.84	1726.44
192.06	1734.63
192.28	1626.09
192.50	1849.32
192.72	1658.85
192.94	1681.38
193.16	1671.14
193.38	1632.23
193.60	1632.23
193.82	1691.62
194.04	1769.44
194.26	1751.01
194.48	1757.16
194.70	1605.61
194.92	1681.38
195.14	1763.30
195.36	1769.44
195.58	1689.57
195.80	1658.85
196.02	1683.43
196.24	1716.20
196.46	1693.67
196.69	1630.18
196.91	1802.21
197.13	1751.01
197.35	1689.57
197.57	1796.07
197.79	1771.49
198.01	1822.69
198.23	1812.45
198.45	1755.11
198.67	1615.85
198.89	1632.23
199.11	1845.22
199.33	1732.58
199.55	1570.79
199.77	1703.91
199.99	1781.73
200.21	1712.10
200.43	1710.05
200.65	1656.81
200.87	1640.42
201.09	1740.77
201.31	1640.42
201.53	1755.11
201.75	1695.72
201.97	1648.61
202.19	1669.09
202.41	1757.16
202.63	1816.55
202.85	1679.33
203.07	1802.21
203.29	1675.24
203.51	1695.72
203.73	1652.71
203.95	1824.74
204.17	1789.92
204.39	1753.06
204.61	1654.76
204.83	1681.38
205.05	1708.01
205.27	1769.44
205.49	1849.32
205.71	1673.19
205.93	1626.09
206.15	1681.38
206.37	1685.48
206.59	1673.19
206.81	1716.20
207.03	1642.47
207.25	1689.57
207.47	1742.82
207.69	1693.67
207.91	1806.31
208.13	1804.26
208.34	1689.57
208.56	1628.14
208.78	1794.02
209.00	1669.09
209.22	1640.42
209.44	1710.05
209.66	1669.09
209.88	1738.73
210.10	1669.09
210.32	1701.86
210.54	1773.54
210.76	1656.81
210.98	1759.21
211.20	1597.42
211.42	1759.21
211.64	1791.97
211.86	1621.99
212.08	1703.91
212.30	1732.58
212.52	1693.67
212.74	1636.33
212.96	1658.85
213.17	1740.77
213.39	1763.30
213.61	1794.02
213.83	1648.61
214.05	1636.33
214.27	1765.35
214.49	1687.53
214.71	1689.57
214.93	1834.98
215.15	1710.05
215.37	1716.20
215.59	1673.19
215.81	1765.35
216.03	1734.63
216.24	1710.05
216.46	1736.68
216.68	1716.20
216.90	1720.29
217.12	1714.15
217.34	1767.40
217.56	1705.96
217.78	1824.74
218.00	1753.06
218.22	1722.34
218.44	1697.77
218.66	1726.44
218.87	1849.32
219.09	1746.92
219.31	1648.61
219.53	1730.53
219.75	1724.39
219.97	1683.43
220.19	1722.34
220.41	1722.34
220.63	1755.11
220.85	1742.82
221.06	1665.00
221.28	1769.44
221.50	1695.72
221.72	1742.82
221.94	1669.09
222.16	1681.38
222.38	1773.54
222.60	1730.53
222.82	1718.25
223.03	1718.25
223.25	1560.55
223.47	1732.58
223.69	1806.31
223.91	1751.01
224.13	1634.28
224.35	1671.14
224.57	1771.49
224.78	1736.68
225.00	1617.90
225.22	1740.77
225.44	1755.11
225.66	1724.39
225.88	1740.77
226.10	1765.35
226.32	1710.05
226.53	1779.68
226.75	1683.43
226.97	1644.52
227.19	1759.21
227.41	1669.09
227.63	1695.72
227.85	1673.19
228.06	1673.19
228.28	1722.34
228.50	1816.55
228.72	1679.33
228.94	1699.81
229.16	1628.14
229.37	1652.71
229.59	1673.19
229.81	1824.74
230.03	1691.62
230.25	1708.01
230.47	1679.33
230.69	1714.15
230.90	1689.57
231.12	1691.62
231.34	1742.82
231.56	1781.73
231.78	1660.90
232.00	1675.24
232.21	1687.53
232.43	1640.42
232.65	1599.46
232.87	1734.63
233.09	1697.77
233.30	1697.77
233.52	1716.20
233.74	1751.01
233.96	1675.24
234.18	1683.43
234.40	1665.00
234.61	1781.73
234.83	1632.23
235.05	1699.81
235.27	1863.65
235.49	1812.45
235.70	1716.20
235.92	1771.49
236.14	1714.15
236.36	1834.98
236.58	1634.28
236.79	1812.45
237.01	1689.57
237.23	1636.33
237.45	1757.16
237.67	1648.61
237.88	1751.01
238.10	1857.51
238.32	1656.81
238.54	1654.76
238.76	1646.57
238.97	1703.91
239.19	1681.38
239.41	1767.40
239.63	1746.92
239.85	1607.66
240.06	1679.33
240.28	1673.19
240.50	1722.34
240.72	1726.44
240.93	1701.86
241.15	1693.67
241.37	1714.15
241.59	1761.25
241.81	1695.72
242.02	1710.05
242.24	1720.29
242.46	1744.87
242.68	1650.66
242.89	1691.62
243.11	1775.59
243.33	1714.15
243.55	1798.12
243.76	1720.29
243.98	1642.47
244.20	1693.67
244.42	1761.25
244.64	1812.45
244.85	1683.43
245.07	1640.42
245.29	1773.54
245.51	1652.71
245.72	1681.38
245.94	1789.92
246.16	1708.01
246.38	1806.31
246.59	1683.43
246.81	1626.09
247.03	1644.52
247.24	1621.99
247.46	1667.05
247.68	1718.25
247.90	1687.53
248.11	1714.15
248.33	1714.15
248.55	1726.44
248.77	1720.29
248.98	1671.14
249.20	1806.31
249.42	1720.29
249.64	1777.64
249.85	1757.16
250.07	1681.38
250.29	1810.40
250.50	1796.07
250.72	1599.46
250.94	1736.68
251.16	1705.96
251.37	1722.34
251.59	1716.20
251.81	1712.10
252.02	1761.25
252.24	1628.14
252.46	1761.25
252.68	1697.77
252.89	1656.81
253.11	1564.65
253.33	1732.58
253.54	1728.49
253.76	1677.29
253.98	1685.48
254.20	1691.62
254.41	1650.66
254.63	1730.53
254.85	1685.48
255.06	1716.20
255.28	1712.10
255.50	1675.24
255.71	1673.19
255.93	1669.09
256.15	1658.85
256.36	1773.54
256.58	1671.14
256.80	1767.40
257.02	1781.73
257.23	1689.57
257.45	1665.00
257.67	1753.06
257.88	1701.86
258.10	1695.72
258.32	1755.11
258.53	1738.73
258.75	1765.35
258.97	1656.81
259.18	1755.11
259.40	1761.25
259.62	1830.88
259.83	1740.77
260.05	1785.83
260.27	2015.20
260.48	1710.05
260.70	1619.94
260.92	1718.25
261.13	1705.96
261.35	1656.81
261.57	1755.11
261.78	1638.38
262.00	1646.57
262.22	1751.01
262.43	1710.05
262.65	1693.67
262.86	1736.68
263.08	1744.87
263.30	1708.01
263.51	1681.38
263.73	1673.19
263.95	1763.30
264.16	1720.29
264.38	1626.09
264.60	1787.88
264.81	1667.05
265.03	1716.20
265.25	1777.64
265.46	1701.86
265.68	1722.34
265.89	1730.53
266.11	1585.13
266.33	1742.82
266.54	1767.40
266.76	1798.12
266.98	1761.25
267.19	1830.88
267.41	1800.16
267.62	1779.68
267.84	1687.53
268.06	1810.40
268.27	1673.19
268.49	1789.92
268.70	1671.14
268.92	1675.24
269.14	1693.67
269.35	1703.91
269.57	1716.20
269.79	1718.25
270.00	1603.56
270.22	1818.60
270.43	1691.62
270.65	1538.02
270.87	1742.82
271.08	1710.05
271.30	1767.40
271.51	1726.44
271.73	1808.36
271.95	1771.49
272.16	1699.81
272.38	1712.10
272.59	1677.29
272.81	1716.20
273.02	1646.57
273.24	1732.58
273.46	1699.81
273.67	1650.66
273.89	1658.85
274.10	1693.67
274.32	1763.30
274.54	1744.87
274.75	1662.95
274.97	1712.10
275.18	1712.10
275.40	1722.34
275.61	1708.01
275.83	1677.29
276.05	1642.47
276.26	1722.34
276.48	1783.78
276.69	1646.57
276.91	1722.34
277.12	1794.02
277.34	1720.29
277.55	1783.78
277.77	1742.82
277.99	1705.96
278.20	1703.91
278.42	1624.04
278.63	1732.58
278.85	1626.09
279.06	1687.53
279.28	1773.54
279.49	1726.44
279.71	1789.92
279.93	1753.06
280.14	1759.21
280.36	1634.28
280.57	1736.68
280.79	1759.21
281.00	1607.66
281.22	1626.09
281.43	1771.49
281.65	1656.81
281.86	1683.43
282.08	1732.58
282.29	1777.64
282.51	1611.75
282.73	1751.01
282.94	1746.92
283.16	1804.26
283.37	1732.58
283.59	1599.46
283.80	1732.58
284.02	1683.43
284.23	1714.15
284.45	1642.47
284.66	1656.81
284.88	1693.67
285.09	1728.49
285.31	1767.40
285.52	1761.25
285.74	1613.80
285.95	1667.05
286.17	1730.53
286.38	1843.17
286.60	1714.15
286.81	1697.77
287.03	1734.63
287.24	1722.34
287.46	1757.16
287.67	1845.22
287.89	1837.03
288.10	1685.48
288.32	1656.81
288.53	1759.21
288.75	1738.73
288.96	1798.12
289.18	1681.38
289.39	1660.90
289.61	1800.16
289.82	1810.40
290.04	1843.17
290.25	1615.85
290.47	1644.52
290.68	1646.57
290.90	1730.53
291.11	1628.14
291.33	1759.21
291.54	1605.61
291.76	1628.14
291.97	1646.57
292.18	1673.19
292.40	1716.20
292.61	1675.24
292.83	1877.99
293.04	1728.49
293.26	1734.63
293.47	1677.29
293.69	1601.51
293.90	1722.34
294.12	1822.69
294.33	1687.53
294.55	1705.96
294.76	1751.01
294.97	1773.54
295.19	1759.21
295.40	1624.04
295.62	1708.01
295.83	1724.39
296.05	1656.81
296.26	1794.02
296.48	1699.81
296.69	1712.10
296.90	1695.72
297.12	1810.40
297.33	1783.78
297.55	1697.77
297.76	1791.97
297.98	1785.83
298.19	1783.78
298.41	1705.96
298.62	1681.38
298.83	1794.02
299.05	1753.06
299.26	1644.52
299.48	1697.77
299.69	1703.91
299.90	1603.56
300.12	1697.77
300.33	1677.29
300.55	1630.18
300.76	1697.77
300.98	1609.70
301.19	1742.82
301.40	1675.24
301.62	1705.96
301.83	1712.10
302.05	1720.29
302.26	1779.68
302.47	1720.29
302.69	1675.24
302.90	1734.63
303.12	1570.79
303.33	1794.02
303.54	1822.69
303.76	1673.19
303.97	1685.48
304.19	1832.93
304.40	1634.28
304.61	1755.11
304.83	1759.21
305.04	1769.44
305.26	1736.68
305.47	1591.27
305.68	1669.09
305.90	1665.00
306.11	1791.97
306.33	1722.34
306.54	1634.28
306.75	1634.28
306.97	1630.18
307.18	1634.28
307.39	1701.86
307.61	1748.97
307.82	1687.53
308.04	1673.19
308.25	1695.72
308.46	1705.96
308.68	1710.05
308.89	1695.72
309.10	1794.02
309.32	1767.40
309.53	1665.00
309.74	1732.58
309.96	1679.33
310.17	1738.73
310.39	1644.52
310.60	1646.57
310.81	1791.97
311.03	1667.05
311.24	1759.21
311.45	1595.37
311.67	1814.50
311.88	1722.34
312.09	1683.43
312.31	1591.27
312.52	1775.59
312.73	1642.47
312.95	1603.56
313.16	1574.89
313.37	1740.77
313.59	1746.92
313.80	1681.38
314.01	1796.07
314.23	1708.01
314.44	1624.04
314.65	1675.24
314.87	1562.60
315.08	1644.52
315.29	1779.68
315.51	1665.00
315.72	1597.42
315.93	1841.12
316.15	1779.68
316.36	1662.95
316.57	1681.38
316.79	1742.82
317.00	1716.20
317.21	1767.40
317.43	1662.95
317.64	1740.77
317.85	1632.23
318.07	1675.24
318.28	1716.20
318.49	1773.54
318.70	1964.00
318.92	1851.36
319.13	1796.07
319.34	1785.83
319.56	1746.92
319.77	1824.74
319.98	1898.47
320.20	1718.25
320.41	1767.40
320.62	1742.82
320.83	1656.81
321.05	1884.13
321.26	1742.82
321.47	1728.49
321.69	1820.64
321.90	1640.42
322.11	1701.86
322.32	1683.43
322.54	1804.26
322.75	1712.10
322.96	1796.07
323.18	1572.84
323.39	1615.85
323.60	1669.09
323.81	1757.16
324.03	1630.18
324.24	1634.28
324.45	1728.49
324.66	1671.14
324.88	1753.06
325.09	1722.34
325.30	1710.05
325.52	1738.73
325.73	1712.10
325.94	1673.19
326.15	1591.27
326.37	1783.78
326.58	1755.11
326.79	1812.45
327.00	1626.09
327.22	1691.62
327.43	1720.29
327.64	1652.71
327.85	1736.68
328.07	1736.68
328.28	1791.97
328.49	1632.23
328.70	1685.48
328.92	1722.34
329.13	1703.91
329.34	1751.01
329.55	1751.01
329.76	1693.67
329.98	1689.57
330.19	1822.69
330.40	1781.73
330.61	1689.57
330.83	1710.05
331.04	1648.61
331.25	1677.29
331.46	1697.77
331.68	1597.42
331.89	1771.49
332.10	1621.99
332.31	1640.42
332.52	1714.15
332.74	1736.68
332.95	1656.81
333.16	1765.35
333.37	1730.53
333.58	1665.00
333.80	1800.16
334.01	1646.57
334.22	1703.91
334.43	1669.09
334.64	1708.01
334.86	1611.75
335.07	1636.33
335.28	1810.40
335.49	1683.43
335.70	1722.34
335.92	1806.31
336.13	1890.28
336.34	1767.40
336.55	1658.85
336.76	1761.25
336.98	1617.90
337.19	1660.90
337.40	1787.88
337.61	1863.65
337.82	1712.10
338.04	1730.53
338.25	1550.31
338.46	1677.29
338.67	1722.34
338.88	1693.67
339.09	1667.05
339.31	1619.94
339.52	1566.70
339.73	1687.53
339.94	1630.18
340.15	1753.06
340.36	1781.73
340.58	1748.97
340.79	1681.38
341.00	1738.73
341.21	1632.23
341.42	1781.73
341.63	1654.76
341.85	1755.11
342.06	1673.19
342.27	1714.15
342.48	1761.25
342.69	1673.19
342.90	1722.34
343.12	1740.77
343.33	1712.10
343.54	1800.16
343.75	1746.92
343.96	1716.20
344.17	1585.13
344.38	1693.67
344.60	1656.81
344.81	1648.61
345.02	1697.77
345.23	1761.25
345.44	1820.64
345.65	1740.77
345.86	1681.38
346.07	1755.11
346.29	1697.77
346.50	1726.44
346.71	1748.97
346.92	1812.45
347.13	1828.84
347.34	1726.44
347.55	1695.72
347.76	1785.83
347.98	1689.57
348.19	1699.81
348.40	1751.01
348.61	1658.85
348.82	1722.34
349.03	1748.97
349.24	1673.19
349.45	1814.50
349.66	1632.23
349.88	1695.72
350.09	1681.38
350.30	1820.64
350.51	1812.45
350.72	1736.68
350.93	1693.67
351.14	1665.00
351.35	1652.71
351.56	1687.53
351.77	1681.38
351.99	1730.53
352.20	1875.94
352.41	1791.97
352.62	1687.53
352.83	1716.20
353.04	1705.96
353.25	1677.29
353.46	1730.53
353.67	1771.49
353.88	1640.42
354.09	1726.44
354.30	1648.61
354.52	1759.21
354.73	1736.68
354.94	1677.29
355.15	1681.38
355.36	1794.02
355.57	1742.82
355.78	1759.21
355.99	1652.71
356.20	1632.23
356.41	1669.09
356.62	1755.11
356.83	1697.77
357.04	1800.16
357.25	1591.27
357.46	1763.30
357.68	1658.85
357.89	1712.10
358.10	1724.39
358.31	1705.96
358.52	1669.09
358.73	1619.94
358.94	1736.68
359.15	1708.01
359.36	1763.30
359.57	1681.38
359.78	1732.58
359.99	1716.20
360.20	1732.58
360.41	1632.23
360.62	1837.03
360.83	1691.62
361.04	1708.01
361.25	1738.73
361.46	1804.26
361.67	1736.68
361.88	1708.01
362.09	1726.44
362.30	1787.88
362.51	1671.14
362.72	1710.05
362.93	1796.07
363.14	1695.72
363.35	1662.95
363.56	1675.24
363.78	1779.68
363.99	1769.44
364.20	1654.76
364.41	1718.25
364.62	1931.23
364.83	1697.77
365.04	1718.25
365.25	1796.07
365.46	1824.74
365.67	1697.77
365.88	1683.43
366.09	1667.05
366.30	1703.91
366.51	1683.43
366.72	1673.19
366.93	1679.33
367.14	1658.85
367.35	1800.16
367.56	1695.72
367.77	1714.15
367.98	1628.14
368.18	1699.81
368.39	1738.73
368.60	1691.62
368.81	1794.02
369.02	1667.05
369.23	1689.57
369.44	1689.57
369.65	1636.33
369.86	1751.01
370.07	1640.42
370.28	1619.94
370.49	1716.20
370.70	1728.49
370.91	1642.47
371.12	1656.81
371.33	1740.77
371.54	1675.24
371.75	1742.82
371.96	1603.56
372.17	1734.63
372.38	1736.68
372.59	1773.54
372.80	1634.28
373.01	1665.00
373.22	1714.15
373.43	1787.88
373.64	1603.56
373.85	1732.58
374.06	1812.45
374.26	1759.21
374.47	1685.48
374.68	1775.59
374.89	1687.53
375.10	1724.39
375.31	1742.82
375.52	1740.77
375.73	1730.53
375.94	1689.57
376.15	1775.59
376.36	1669.09
376.57	1615.85
376.78	1771.49
376.99	1708.01
377.20	1814.50
377.40	1714.15
377.61	1744.87
377.82	1662.95
378.03	1785.83
378.24	1796.07
378.45	1685.48
378.66	1779.68
378.87	1624.04
379.08	1613.80
379.29	1701.86
379.50	1880.04
379.71	1662.95
379.91	1755.11
380.12	1705.96
380.33	1683.43
380.54	1679.33
380.75	1699.81
380.96	1736.68
381.17	1769.44
381.38	1736.68
381.59	1732.58
381.80	1695.72
382.00	1777.64
382.21	1849.32
382.42	1785.83
382.63	1869.80
382.84	1746.92
383.05	1785.83
383.26	1818.60
383.47	1681.38
383.68	1787.88
383.88	1681.38
384.09	1673.19
384.30	1806.31
384.51	1785.83
384.72	1732.58
384.93	1595.37
385.14	1689.57
385.35	1751.01
385.55	1640.42
385.76	1787.88
385.97	1660.90
386.18	1568.74
386.39	1646.57
386.60	1669.09
386.81	1695.72
387.02	1738.73
387.22	1660.90
387.43	1794.02
387.64	1755.11
387.85	1832.93
388.06	2176.99
388.27	4192.19
388.48	6627.23
388.68	7829.38
388.89	9303.92
389.10	9238.39
389.31	8210.31
389.52	7075.73
389.73	6483.87
389.93	5973.92
390.14	5584.81
390.35	4951.99
390.56	4431.80
390.77	3585.99
390.98	3016.66
391.18	2484.19
391.39	2074.59
391.60	1863.65
391.81	1853.41
392.02	1695.72
392.23	1798.12
392.43	1724.39
392.64	1718.25
392.85	1740.77
393.06	1818.60
393.27	1720.29
393.47	1730.53
393.68	1755.11
393.89	1679.33
394.10	1789.92
394.31	1634.28
394.52	1687.53
394.72	1642.47
394.93	1771.49
395.14	1675.24
395.35	1722.34
395.56	1699.81
395.76	1800.16
395.97	1816.55
396.18	1789.92
396.39	1789.92
396.60	1937.38
396.80	1890.28
397.01	1877.99
397.22	1802.21
397.43	1808.36
397.64	1740.77
397.84	1763.30
398.05	1923.04
398.26	1757.16
398.47	1724.39
398.67	1794.02
398.88	1757.16
399.09	1779.68
399.30	1697.77
399.51	1773.54
399.71	1673.19
399.92	1669.09
400.13	1658.85
400.34	1705.96
400.54	1720.29
400.75	1759.21
400.96	1757.16
401.17	1771.49
401.37	1675.24
401.58	1716.20
401.79	1794.02
402.00	1865.70
402.21	2011.11
402.41	1980.39
402.62	1966.05
402.83	2050.02
403.04	2017.25
403.24	2107.36
403.45	1771.49
403.66	1959.91
403.87	1892.32
404.07	1843.17
404.28	1943.52
404.49	1896.42
404.70	1748.97
404.90	1800.16
405.11	1759.21
405.32	1730.53
405.52	1703.91
405.73	1755.11
405.94	1665.00
406.15	1699.81
406.35	1738.73
406.56	1681.38
406.77	1710.05
406.98	1705.96
407.18	1591.27
407.39	1892.32
407.60	1697.77
407.80	1671.14
408.01	1665.00
408.22	1789.92
408.43	1732.58
408.63	1724.39
408.84	1724.39
409.05	1751.01
409.25	1677.29
409.46	1740.77
409.67	1701.86
409.88	1669.09
410.08	1695.72
410.29	1726.44
410.50	1775.59
410.70	1701.86
410.91	1689.57
411.12	1781.73
411.32	1673.19
411.53	1673.19
411.74	1777.64
411.95	1812.45
412.15	1730.53
412.36	1775.59
412.57	1753.06
412.77	1787.88
412.98	1640.42
413.19	1714.15
413.39	1701.86
413.60	1761.25
413.81	1841.12
414.01	1689.57
414.22	1785.83
414.43	1785.83
414.63	1677.29
414.84	1722.34
415.05	1746.92
415.25	1798.12
415.46	1763.30
415.67	1640.42
415.87	1718.25
416.08	1744.87
416.29	1708.01
416.49	1720.29
416.70	1675.24
416.91	1683.43
417.11	1730.53
417.32	1787.88
417.53	1828.84
417.73	1681.38
417.94	1734.63
418.15	1685.48
418.35	1693.67
418.56	1751.01
418.77	1841.12
418.97	1615.85
419.18	1681.38
419.38	1609.70
419.59	1734.63
419.80	1783.78
420.00	1738.73
420.21	1734.63
420.42	1787.88
420.62	1722.34
420.83	1689.57
421.04	1699.81
421.24	1724.39
421.45	1720.29
421.65	1710.05
421.86	1634.28
422.07	1734.63
422.27	1722.34
422.48	1787.88
422.69	1691.62
422.89	1718.25
423.10	1728.49
423.30	1691.62
423.51	1738.73
423.72	1701.86
423.92	1742.82
424.13	1634.28
424.33	1634.28
424.54	1779.68
424.75	1662.95
424.95	1794.02
425.16	1718.25
425.36	1685.48
425.57	1705.96
425.78	1740.77
425.98	1849.32
426.19	1656.81
426.39	1646.57
426.60	1675.24
426.81	1771.49
427.01	1689.57
427.22	1685.48
427.42	1628.14
427.63	1724.39
427.83	1800.16
428.04	1851.36
428.25	1761.25
428.45	1779.68
428.66	1804.26
428.86	1697.77
429.07	1718.25
429.28	1701.86
429.48	1671.14
429.69	1624.04
429.89	1744.87
430.10	1640.42
430.30	1658.85
430.51	1808.36
430.71	1642.47
430.92	1677.29
431.13	1744.87
431.33	1761.25
431.54	1730.53
431.74	1818.60
431.95	1816.55
432.15	1644.52
432.36	1669.09
432.56	1791.97
432.77	1751.01
432.98	1857.51
433.18	1703.91
433.39	1753.06
433.59	1660.90
433.80	1880.04
434.00	1873.89
434.21	1740.77
434.41	1748.97
434.62	1808.36
434.82	1640.42
435.03	1697.77
435.23	1787.88
435.44	1669.09
435.64	1722.34
435.85	1767.40
436.06	1701.86
436.26	1837.03
436.47	1693.67
436.67	1656.81
436.88	1777.64
437.08	1767.40
437.29	1834.98
437.49	1761.25
437.70	1791.97
437.90	1638.38
438.11	1855.46
438.31	1812.45
438.52	1832.93
438.72	1826.79
438.93	1904.61
439.13	1755.11
439.34	1845.22
439.54	1724.39
439.75	1757.16
439.95	1818.60
440.16	1753.06
440.36	1757.16
440.57	1738.73
440.77	1816.55
440.98	1783.78
441.18	1742.82
441.39	1689.57
441.59	1654.76
441.80	1796.07
442.00	1769.44
442.21	1804.26
442.41	1574.89
442.62	1806.31
442.82	1683.43
443.02	1808.36
443.23	1730.53
443.43	1726.44
443.64	1841.12
443.84	1652.71
444.05	1798.12
444.25	1685.48
444.46	1720.29
444.66	1710.05
444.87	1738.73
445.07	1605.61
445.28	1736.68
445.48	1810.40
445.69	1761.25
445.89	1906.66
446.09	1779.68
446.30	2074.59
446.50	2693.08
446.71	3604.42
446.91	4229.06
447.12	4634.55
447.32	4638.65
447.53	4102.08
447.73	3866.56
447.93	3405.77
448.14	3268.56
448.34	3184.59
448.55	2828.24
448.75	2787.29
448.96	2658.26
449.16	2344.92
449.36	2277.34
449.57	2050.02
449.77	1886.18
449.98	1800.16
450.18	1927.14
450.39	1773.54
450.59	1693.67
450.79	1658.85
451.00	1732.58
451.20	1802.21
451.41	1697.77
451.61	1755.11
451.81	1724.39
452.02	1648.61
452.22	1728.49
452.43	1683.43
452.63	1769.44
