SpectraSuite Data File
++++++++++++++++++++++++++++++++++++
Date: Mon Jun 06 14:49:17 CEST 2016
User: root
Dark Spectrum Present: No
Reference Spectrum Present: No
Number of Sampled Component Spectra: 1
Spectrometers: USB4C02835
Integration Time (usec): 100000 (USB4C02835)
Spectra Averaged: 1 (USB4C02835)
Boxcar Smoothing: 0 (USB4C02835)
Correct for Electrical Dark: No (USB4C02835)
Strobe/Lamp Enabled: No (USB4C02835)
Correct for Detector Non-linearity: No (USB4C02835)
Correct for Stray Light: No (USB4C02835)
Number of Pixels in Processed Spectrum: 3648
>>>>>Begin Processed Spectral Data<<<<<
177.47	1472.49
177.69	1472.49
177.91	1472.49
178.13	1509.35
178.36	1462.25
178.58	1613.80
178.80	1689.57
179.02	1628.14
179.24	1626.09
179.46	1718.25
179.68	1748.97
179.90	1628.14
180.13	1732.58
180.35	1593.32
180.57	1636.33
180.79	1667.05
181.01	1619.94
181.23	1683.43
181.45	1828.84
181.67	1669.09
181.90	1691.62
182.12	1640.42
182.34	1607.66
182.56	1769.44
182.78	1736.68
183.00	1740.77
183.22	1710.05
183.44	1615.85
183.66	1824.74
183.89	1816.55
184.11	1679.33
184.33	1730.53
184.55	1765.35
184.77	1753.06
184.99	1800.16
185.21	1669.09
185.43	1826.79
185.65	1691.62
185.87	1689.57
186.10	1855.46
186.32	1779.68
186.54	1652.71
186.76	1775.59
186.98	1718.25
187.20	1591.27
187.42	1656.81
187.64	1681.38
187.86	1703.91
188.08	1779.68
188.30	1667.05
188.52	1667.05
188.75	1761.25
188.97	1755.11
189.19	1601.51
189.41	1708.01
189.63	1771.49
189.85	1691.62
190.07	1708.01
190.29	1607.66
190.51	1845.22
190.73	1624.04
190.95	1800.16
191.17	1660.90
191.39	1636.33
191.61	1689.57
191.84	1578.98
192.06	1791.97
192.28	1611.75
192.50	1853.41
192.72	1697.77
192.94	1746.92
193.16	1705.96
193.38	1642.47
193.60	1587.18
193.82	1652.71
194.04	1812.45
194.26	1724.39
194.48	1650.66
194.70	1656.81
194.92	1656.81
195.14	1714.15
195.36	1648.61
195.58	1728.49
195.80	1693.67
196.02	1615.85
196.24	1687.53
196.46	1757.16
196.69	1675.24
196.91	1802.21
197.13	1734.63
197.35	1714.15
197.57	1830.88
197.79	1755.11
198.01	1730.53
198.23	1748.97
198.45	1767.40
198.67	1640.42
198.89	1691.62
199.11	1697.77
199.33	1628.14
199.55	1617.90
199.77	1746.92
199.99	1763.30
200.21	1695.72
200.43	1703.91
200.65	1656.81
200.87	1667.05
201.09	1701.86
201.31	1726.44
201.53	1722.34
201.75	1730.53
201.97	1726.44
202.19	1734.63
202.41	1742.82
202.63	1845.22
202.85	1730.53
203.07	1814.50
203.29	1636.33
203.51	1667.05
203.73	1589.22
203.95	1863.65
204.17	1742.82
204.39	1716.20
204.61	1724.39
204.83	1662.95
205.05	1734.63
205.27	1722.34
205.49	1728.49
205.71	1671.14
205.93	1705.96
206.15	1597.42
206.37	1716.20
206.59	1642.47
206.81	1660.90
207.03	1708.01
207.25	1654.76
207.47	1714.15
207.69	1681.38
207.91	1787.88
208.13	1710.05
208.34	1701.86
208.56	1630.18
208.78	1736.68
209.00	1654.76
209.22	1703.91
209.44	1705.96
209.66	1718.25
209.88	1755.11
210.10	1656.81
210.32	1748.97
210.54	1779.68
210.76	1730.53
210.98	1710.05
211.20	1628.14
211.42	1705.96
211.64	1765.35
211.86	1703.91
212.08	1705.96
212.30	1787.88
212.52	1667.05
212.74	1789.92
212.96	1712.10
213.17	1771.49
213.39	1681.38
213.61	1781.73
213.83	1720.29
214.05	1591.27
214.27	1705.96
214.49	1685.48
214.71	1626.09
214.93	1787.88
215.15	1673.19
215.37	1724.39
215.59	1642.47
215.81	1710.05
216.03	1802.21
216.24	1656.81
216.46	1697.77
216.68	1667.05
216.90	1734.63
217.12	1798.12
217.34	1708.01
217.56	1818.60
217.78	1812.45
218.00	1697.77
218.22	1751.01
218.44	1705.96
218.66	1665.00
218.87	1673.19
219.09	1689.57
219.31	1652.71
219.53	1814.50
219.75	1744.87
219.97	1677.29
220.19	1669.09
220.41	1736.68
220.63	1740.77
220.85	1781.73
221.06	1662.95
221.28	1832.93
221.50	1740.77
221.72	1742.82
221.94	1783.78
222.16	1648.61
222.38	1759.21
222.60	1763.30
222.82	1568.74
223.03	1761.25
223.25	1687.53
223.47	1701.86
223.69	1787.88
223.91	1791.97
224.13	1716.20
224.35	1712.10
224.57	1675.24
224.78	1736.68
225.00	1656.81
225.22	1595.37
225.44	1693.67
225.66	1767.40
225.88	1693.67
226.10	1830.88
226.32	1624.04
226.53	1734.63
226.75	1759.21
226.97	1718.25
227.19	1708.01
227.41	1673.19
227.63	1617.90
227.85	1642.47
228.06	1691.62
228.28	1679.33
228.50	1744.87
228.72	1609.70
228.94	1626.09
229.16	1660.90
229.37	1652.71
229.59	1636.33
229.81	1757.16
230.03	1611.75
230.25	1574.89
230.47	1636.33
230.69	1667.05
230.90	1759.21
231.12	1656.81
231.34	1720.29
231.56	1783.78
231.78	1748.97
232.00	1740.77
232.21	1669.09
232.43	1677.29
232.65	1501.16
232.87	1722.34
233.09	1621.99
233.30	1660.90
233.52	1773.54
233.74	1689.57
233.96	1662.95
234.18	1705.96
234.40	1624.04
234.61	1820.64
234.83	1681.38
235.05	1591.27
235.27	1875.94
235.49	1871.84
235.70	1710.05
235.92	1798.12
236.14	1742.82
236.36	1820.64
236.58	1634.28
236.79	1769.44
237.01	1718.25
237.23	1705.96
237.45	1845.22
237.67	1683.43
237.88	1751.01
238.10	1746.92
238.32	1589.22
238.54	1771.49
238.76	1656.81
238.97	1681.38
239.19	1687.53
239.41	1724.39
239.63	1748.97
239.85	1673.19
240.06	1728.49
240.28	1658.85
240.50	1712.10
240.72	1681.38
240.93	1685.48
241.15	1769.44
241.37	1751.01
241.59	1787.88
241.81	1679.33
242.02	1673.19
242.24	1677.29
242.46	1775.59
242.68	1687.53
242.89	1730.53
243.11	1718.25
243.33	1732.58
243.55	1665.00
243.76	1685.48
243.98	1595.37
244.20	1671.14
244.42	1685.48
244.64	1695.72
244.85	1636.33
245.07	1654.76
245.29	1695.72
245.51	1708.01
245.72	1681.38
245.94	1701.86
246.16	1746.92
246.38	1736.68
246.59	1599.46
246.81	1660.90
247.03	1701.86
247.24	1576.94
247.46	1632.23
247.68	1742.82
247.90	1669.09
248.11	1652.71
248.33	1783.78
248.55	1677.29
248.77	1738.73
248.98	1734.63
249.20	1775.59
249.42	1624.04
249.64	1759.21
249.85	1736.68
250.07	1632.23
250.29	1695.72
250.50	1767.40
250.72	1595.37
250.94	1660.90
251.16	1738.73
251.37	1783.78
251.59	1679.33
251.81	1787.88
252.02	1748.97
252.24	1669.09
252.46	1789.92
252.68	1636.33
252.89	1683.43
253.11	1640.42
253.33	1869.80
253.54	1779.68
253.76	1660.90
253.98	1677.29
254.20	1701.86
254.41	1640.42
254.63	1716.20
254.85	1644.52
255.06	1644.52
255.28	1734.63
255.50	1738.73
255.71	1640.42
255.93	1615.85
256.15	1685.48
256.36	1748.97
256.58	1665.00
256.80	1697.77
257.02	1662.95
257.23	1685.48
257.45	1751.01
257.67	1695.72
257.88	1644.52
258.10	1744.87
258.32	1738.73
258.53	1697.77
258.75	1779.68
258.97	1660.90
259.18	1705.96
259.40	1763.30
259.62	1787.88
259.83	1738.73
260.05	1683.43
260.27	2011.11
260.48	1775.59
260.70	1574.89
260.92	1652.71
261.13	1669.09
261.35	1654.76
261.57	1734.63
261.78	1654.76
262.00	1619.94
262.22	1669.09
262.43	1624.04
262.65	1667.05
262.86	1708.01
263.08	1785.83
263.30	1730.53
263.51	1607.66
263.73	1667.05
263.95	1767.40
264.16	1636.33
264.38	1679.33
264.60	1783.78
264.81	1699.81
265.03	1701.86
265.25	1759.21
265.46	1714.15
265.68	1736.68
265.89	1775.59
266.11	1599.46
266.33	1718.25
266.54	1789.92
266.76	1685.48
266.98	1796.07
267.19	1806.31
267.41	1724.39
267.62	1642.47
267.84	1611.75
268.06	1755.11
268.27	1636.33
268.49	1699.81
268.70	1800.16
268.92	1748.97
269.14	1585.13
269.35	1652.71
269.57	1714.15
269.79	1710.05
270.00	1691.62
270.22	1855.46
270.43	1570.79
270.65	1570.79
270.87	1794.02
271.08	1771.49
271.30	1736.68
271.51	1710.05
271.73	1687.53
271.95	1767.40
272.16	1693.67
272.38	1726.44
272.59	1710.05
272.81	1757.16
273.02	1755.11
273.24	1621.99
273.46	1697.77
273.67	1642.47
273.89	1654.76
274.10	1673.19
274.32	1781.73
274.54	1740.77
274.75	1687.53
274.97	1624.04
275.18	1708.01
275.40	1789.92
275.61	1667.05
275.83	1691.62
276.05	1634.28
276.26	1708.01
276.48	1738.73
276.69	1640.42
276.91	1650.66
277.12	1751.01
277.34	1738.73
277.55	1794.02
277.77	1650.66
277.99	1644.52
278.20	1646.57
278.42	1656.81
278.63	1597.42
278.85	1648.61
279.06	1619.94
279.28	1691.62
279.49	1742.82
279.71	1830.88
279.93	1742.82
280.14	1673.19
280.36	1654.76
280.57	1769.44
280.79	1789.92
281.00	1697.77
281.22	1599.46
281.43	1794.02
281.65	1578.98
281.86	1677.29
282.08	1769.44
282.29	1804.26
282.51	1632.23
282.73	1638.38
282.94	1624.04
283.16	1740.77
283.37	1802.21
283.59	1726.44
283.80	1818.60
284.02	1697.77
284.23	1718.25
284.45	1705.96
284.66	1640.42
284.88	1658.85
285.09	1714.15
285.31	1804.26
285.52	1728.49
285.74	1665.00
285.95	1712.10
286.17	1748.97
286.38	1724.39
286.60	1718.25
286.81	1691.62
287.03	1595.37
287.24	1734.63
287.46	1787.88
287.67	1658.85
287.89	1816.55
288.10	1660.90
288.32	1685.48
288.53	1755.11
288.75	1746.92
288.96	1781.73
289.18	1656.81
289.39	1677.29
289.61	1757.16
289.82	1882.08
290.04	1810.40
290.25	1617.90
290.47	1718.25
290.68	1710.05
290.90	1761.25
291.11	1650.66
291.33	1722.34
291.54	1701.86
291.76	1751.01
291.97	1738.73
292.18	1726.44
292.40	1673.19
292.61	1730.53
292.83	1822.69
293.04	1789.92
293.26	1744.87
293.47	1673.19
293.69	1705.96
293.90	1685.48
294.12	1761.25
294.33	1714.15
294.55	1621.99
294.76	1841.12
294.97	1839.08
295.19	1787.88
295.40	1652.71
295.62	1810.40
295.83	1757.16
296.05	1708.01
296.26	1753.06
296.48	1755.11
296.69	1685.48
296.90	1665.00
297.12	1685.48
297.33	1757.16
297.55	1662.95
297.76	1748.97
297.98	1789.92
298.19	1693.67
298.41	1751.01
298.62	1697.77
298.83	1779.68
299.05	1656.81
299.26	1712.10
299.48	1667.05
299.69	1814.50
299.90	1656.81
300.12	1546.22
300.33	1691.62
300.55	1742.82
300.76	1738.73
300.98	1626.09
301.19	1742.82
301.40	1665.00
301.62	1640.42
301.83	1640.42
302.05	1742.82
302.26	1677.29
302.47	1736.68
302.69	1658.85
302.90	1744.87
303.12	1585.13
303.33	1746.92
303.54	1841.12
303.76	1693.67
303.97	1687.53
304.19	1761.25
304.40	1656.81
304.61	1675.24
304.83	1787.88
305.04	1794.02
305.26	1677.29
305.47	1679.33
305.68	1662.95
305.90	1632.23
306.11	1761.25
306.33	1660.90
306.54	1665.00
306.75	1644.52
306.97	1585.13
307.18	1662.95
307.39	1685.48
307.61	1789.92
307.82	1701.86
308.04	1687.53
308.25	1652.71
308.46	1726.44
308.68	1681.38
308.89	1691.62
309.10	1769.44
309.32	1736.68
309.53	1718.25
309.74	1728.49
309.96	1691.62
310.17	1734.63
310.39	1675.24
310.60	1787.88
310.81	1716.20
311.03	1617.90
311.24	1757.16
311.45	1656.81
311.67	1804.26
311.88	1732.58
312.09	1669.09
312.31	1689.57
312.52	1662.95
312.73	1751.01
312.95	1636.33
313.16	1648.61
313.37	1814.50
313.59	1722.34
313.80	1767.40
314.01	1773.54
314.23	1667.05
314.44	1667.05
314.65	1658.85
314.87	1546.22
315.08	1724.39
315.29	1734.63
315.51	1646.57
315.72	1621.99
315.93	1816.55
316.15	1703.91
316.36	1621.99
316.57	1683.43
316.79	1703.91
317.00	1738.73
317.21	1771.49
317.43	1673.19
317.64	1751.01
317.85	1689.57
318.07	1646.57
318.28	1685.48
318.49	1890.28
318.70	1927.14
318.92	1890.28
319.13	1789.92
319.34	1816.55
319.56	1796.07
319.77	1839.08
319.98	1755.11
320.20	1806.31
320.41	1765.35
320.62	1769.44
320.83	1736.68
321.05	1841.12
321.26	1712.10
321.47	1746.92
321.69	1683.43
321.90	1665.00
322.11	1677.29
322.32	1740.77
322.54	1738.73
322.75	1624.04
322.96	1884.13
323.18	1605.61
323.39	1540.07
323.60	1685.48
323.81	1687.53
324.03	1632.23
324.24	1681.38
324.45	1701.86
324.66	1656.81
324.88	1703.91
325.09	1779.68
325.30	1718.25
325.52	1708.01
325.73	1662.95
325.94	1662.95
326.15	1658.85
326.37	1677.29
326.58	1665.00
326.79	1787.88
327.00	1636.33
327.22	1751.01
327.43	1681.38
327.64	1658.85
327.85	1775.59
328.07	1744.87
328.28	1802.21
328.49	1673.19
328.70	1685.48
328.92	1667.05
329.13	1646.57
329.34	1726.44
329.55	1785.83
329.76	1724.39
329.98	1714.15
330.19	1775.59
330.40	1689.57
330.61	1648.61
330.83	1705.96
331.04	1671.14
331.25	1763.30
331.46	1677.29
331.68	1609.70
331.89	1761.25
332.10	1701.86
332.31	1689.57
332.52	1718.25
332.74	1769.44
332.95	1624.04
333.16	1744.87
333.37	1699.81
333.58	1697.77
333.80	1689.57
334.01	1609.70
334.22	1705.96
334.43	1665.00
334.64	1656.81
334.86	1595.37
335.07	1644.52
335.28	1814.50
335.49	1585.13
335.70	1693.67
335.92	1734.63
336.13	1773.54
336.34	1779.68
336.55	1753.06
336.76	1617.90
336.98	1681.38
337.19	1685.48
337.40	1765.35
337.61	1851.36
337.82	1669.09
338.04	1820.64
338.25	1642.47
338.46	1660.90
338.67	1699.81
338.88	1644.52
339.09	1693.67
339.31	1650.66
339.52	1648.61
339.73	1628.14
339.94	1771.49
340.15	1828.84
340.36	1660.90
340.58	1708.01
340.79	1650.66
341.00	1763.30
341.21	1652.71
341.42	1751.01
341.63	1636.33
341.85	1767.40
342.06	1779.68
342.27	1695.72
342.48	1755.11
342.69	1626.09
342.90	1697.77
343.12	1654.76
343.33	1644.52
343.54	1736.68
343.75	1800.16
343.96	1718.25
344.17	1689.57
344.38	1681.38
344.60	1613.80
344.81	1650.66
345.02	1734.63
345.23	1744.87
345.44	1806.31
345.65	1728.49
345.86	1773.54
346.07	1662.95
346.29	1652.71
346.50	1718.25
346.71	1757.16
346.92	1687.53
347.13	1800.16
347.34	1595.37
347.55	1718.25
347.76	1771.49
347.98	1634.28
348.19	1681.38
348.40	1798.12
348.61	1671.14
348.82	1800.16
349.03	1771.49
349.24	1656.81
349.45	1742.82
349.66	1576.94
349.88	1724.39
350.09	1546.22
350.30	1763.30
350.51	1734.63
350.72	1660.90
350.93	1648.61
351.14	1658.85
351.35	1687.53
351.56	1712.10
351.77	1726.44
351.99	1695.72
352.20	1718.25
352.41	1734.63
352.62	1652.71
352.83	1681.38
353.04	1732.58
353.25	1769.44
353.46	1791.97
353.67	1787.88
353.88	1566.70
354.09	1673.19
354.30	1646.57
354.52	1722.34
354.73	1632.23
354.94	1677.29
355.15	1646.57
355.36	1775.59
355.57	1730.53
355.78	1738.73
355.99	1634.28
356.20	1642.47
356.41	1736.68
356.62	1748.97
356.83	1667.05
357.04	1693.67
357.25	1619.94
357.46	1615.85
357.68	1720.29
357.89	1628.14
358.10	1630.18
358.31	1677.29
358.52	1697.77
358.73	1669.09
358.94	1624.04
359.15	1724.39
359.36	1816.55
359.57	1660.90
359.78	1748.97
359.99	1757.16
360.20	1581.03
360.41	1681.38
360.62	1769.44
360.83	1703.91
361.04	1697.77
361.25	1703.91
361.46	1824.74
361.67	1767.40
361.88	1740.77
362.09	1839.08
362.30	1697.77
362.51	1646.57
362.72	1708.01
362.93	1787.88
363.14	1759.21
363.35	1771.49
363.56	1609.70
363.78	1742.82
363.99	1708.01
364.20	1697.77
364.41	1763.30
364.62	1845.22
364.83	1677.29
365.04	1705.96
365.25	1695.72
365.46	1843.17
365.67	1730.53
365.88	1599.46
366.09	1714.15
366.30	1708.01
366.51	1701.86
366.72	1667.05
366.93	1730.53
367.14	1771.49
367.35	1791.97
367.56	1787.88
367.77	1763.30
367.98	1697.77
368.18	1703.91
368.39	1808.36
368.60	1611.75
368.81	1693.67
369.02	1689.57
369.23	1714.15
369.44	1607.66
369.65	1722.34
369.86	1718.25
370.07	1720.29
370.28	1683.43
370.49	1730.53
370.70	1781.73
370.91	1679.33
371.12	1710.05
371.33	1726.44
371.54	1730.53
371.75	1783.78
371.96	1697.77
372.17	1697.77
372.38	1681.38
372.59	1800.16
372.80	1640.42
373.01	1677.29
373.22	1726.44
373.43	1685.48
373.64	1673.19
373.85	1751.01
374.06	1804.26
374.26	1720.29
374.47	1724.39
374.68	1767.40
374.89	1673.19
375.10	1699.81
375.31	1837.03
375.52	1708.01
375.73	1714.15
375.94	1646.57
376.15	1773.54
376.36	1693.67
376.57	1687.53
376.78	1583.08
376.99	1658.85
377.20	1828.84
377.40	1689.57
377.61	1798.12
377.82	1677.29
378.03	1761.25
378.24	1796.07
378.45	1648.61
378.66	1796.07
378.87	1570.79
379.08	1630.18
379.29	1683.43
379.50	1783.78
379.71	1673.19
379.91	1705.96
380.12	1693.67
380.33	1691.62
380.54	1662.95
380.75	1736.68
380.96	1675.24
381.17	1732.58
381.38	1718.25
381.59	1730.53
381.80	1671.14
382.00	1855.46
382.21	1722.34
382.42	1789.92
382.63	1830.88
382.84	1796.07
383.05	1845.22
383.26	1832.93
383.47	1689.57
383.68	1673.19
383.88	1763.30
384.09	1691.62
384.30	1832.93
384.51	1787.88
384.72	1681.38
384.93	1679.33
385.14	1791.97
385.35	1714.15
385.55	1656.81
385.76	1787.88
385.97	1740.77
386.18	1669.09
386.39	1652.71
386.60	1732.58
386.81	1685.48
387.02	1687.53
387.22	1646.57
387.43	1740.77
387.64	1738.73
387.85	2000.87
388.06	2260.96
388.27	4347.84
388.48	6782.87
388.68	8361.86
388.89	9752.43
389.10	9881.45
389.31	8712.06
389.52	7561.10
389.73	6709.15
389.93	6221.73
390.14	5826.47
390.35	5361.58
390.56	4532.15
390.77	3708.87
390.98	3098.58
391.18	2533.34
391.39	2082.78
391.60	1818.60
391.81	1828.84
392.02	1722.34
392.23	1841.12
392.43	1665.00
392.64	1791.97
392.85	1753.06
393.06	1822.69
393.27	1722.34
393.47	1638.38
393.68	1734.63
393.89	1710.05
394.10	1800.16
394.31	1703.91
394.52	1619.94
394.72	1683.43
394.93	1824.74
395.14	1599.46
395.35	1679.33
395.56	1667.05
395.76	1712.10
395.97	1753.06
396.18	1845.22
396.39	1828.84
396.60	1949.67
396.80	1834.98
397.01	1765.35
397.22	1851.36
397.43	1859.56
397.64	1777.64
397.84	1765.35
398.05	1839.08
398.26	1736.68
398.47	1716.20
398.67	1740.77
398.88	1689.57
399.09	1820.64
399.30	1751.01
399.51	1757.16
399.71	1677.29
399.92	1710.05
400.13	1718.25
400.34	1673.19
400.54	1710.05
400.75	1806.31
400.96	1697.77
401.17	1839.08
401.37	1734.63
401.58	1660.90
401.79	1734.63
402.00	1871.84
402.21	2050.02
402.41	1941.47
402.62	2064.35
402.83	2064.35
403.04	1943.52
403.24	2142.18
403.45	1843.17
403.66	1898.47
403.87	1834.98
404.07	1898.47
404.28	1925.09
404.49	1841.12
404.70	1773.54
404.90	1789.92
405.11	1699.81
405.32	1730.53
405.52	1742.82
405.73	1697.77
405.94	1642.47
406.15	1675.24
406.35	1699.81
406.56	1773.54
406.77	1673.19
406.98	1765.35
407.18	1699.81
407.39	1849.32
407.60	1732.58
407.80	1699.81
408.01	1669.09
408.22	1730.53
408.43	1662.95
408.63	1765.35
408.84	1720.29
409.05	1791.97
409.25	1648.61
409.46	1558.50
409.67	1705.96
409.88	1675.24
410.08	1648.61
410.29	1714.15
410.50	1779.68
410.70	1667.05
410.91	1644.52
411.12	1755.11
411.32	1685.48
411.53	1617.90
411.74	1781.73
411.95	1791.97
412.15	1708.01
412.36	1748.97
412.57	1794.02
412.77	1732.58
412.98	1728.49
413.19	1763.30
413.39	1755.11
413.60	1732.58
413.81	1863.65
414.01	1603.56
414.22	1763.30
414.43	1816.55
414.63	1689.57
414.84	1734.63
415.05	1757.16
415.25	1570.79
415.46	1695.72
415.67	1730.53
415.87	1722.34
416.08	1693.67
416.29	1701.86
416.49	1757.16
416.70	1691.62
416.91	1624.04
417.11	1646.57
417.32	1691.62
417.53	1777.64
417.73	1757.16
417.94	1656.81
418.15	1667.05
418.35	1744.87
418.56	1650.66
418.77	1779.68
418.97	1630.18
419.18	1705.96
419.38	1710.05
419.59	1624.04
419.80	1785.83
420.00	1673.19
420.21	1617.90
420.42	1736.68
420.62	1769.44
420.83	1619.94
421.04	1660.90
421.24	1685.48
421.45	1685.48
421.65	1712.10
421.86	1816.55
422.07	1744.87
422.27	1763.30
422.48	1705.96
422.69	1652.71
422.89	1687.53
423.10	1679.33
423.30	1716.20
423.51	1681.38
423.72	1638.38
423.92	1703.91
424.13	1691.62
424.33	1714.15
424.54	1777.64
424.75	1654.76
424.95	1746.92
425.16	1746.92
425.36	1703.91
425.57	1681.38
425.78	1740.77
425.98	1730.53
426.19	1693.67
426.39	1677.29
426.60	1789.92
426.81	1738.73
427.01	1744.87
427.22	1693.67
427.42	1609.70
427.63	1652.71
427.83	1777.64
428.04	1816.55
428.25	1699.81
428.45	1857.51
428.66	1761.25
428.86	1675.24
429.07	1781.73
429.28	1705.96
429.48	1705.96
429.69	1656.81
429.89	1771.49
430.10	1673.19
430.30	1617.90
430.51	1734.63
430.71	1689.57
430.92	1728.49
431.13	1671.14
431.33	1718.25
431.54	1689.57
431.74	1826.79
431.95	1816.55
432.15	1667.05
432.36	1722.34
432.56	1824.74
432.77	1812.45
432.98	1765.35
433.18	1767.40
433.39	1667.05
433.59	1675.24
433.80	1828.84
434.00	1832.93
434.21	1699.81
434.41	1732.58
434.62	1865.70
434.82	1634.28
435.03	1714.15
435.23	1624.04
435.44	1648.61
435.64	1726.44
435.85	1728.49
436.06	1787.88
436.26	1787.88
436.47	1736.68
436.67	1697.77
436.88	1654.76
437.08	1759.21
437.29	1812.45
437.49	1652.71
437.70	1728.49
437.90	1791.97
438.11	1869.80
438.31	1800.16
438.52	1892.32
438.72	1765.35
438.93	1910.75
439.13	1812.45
439.34	1787.88
439.54	1816.55
439.75	1796.07
439.95	1796.07
440.16	1716.20
440.36	1732.58
440.57	1751.01
440.77	1740.77
440.98	1708.01
441.18	1667.05
441.39	1675.24
441.59	1636.33
441.80	1828.84
442.00	1785.83
442.21	1847.27
442.41	1677.29
442.62	1748.97
442.82	1658.85
443.02	1767.40
443.23	1710.05
443.43	1697.77
443.64	1837.03
443.84	1712.10
444.05	1861.60
444.25	1679.33
444.46	1685.48
444.66	1722.34
444.87	1892.32
445.07	1658.85
445.28	1726.44
445.48	1806.31
445.69	1740.77
445.89	1910.75
446.09	1714.15
446.30	1935.33
446.50	2701.27
446.71	3694.54
446.91	4452.28
447.12	4743.10
447.32	4782.01
447.53	4550.59
447.73	3823.56
447.93	3502.03
448.14	3307.47
448.34	3205.07
448.55	2918.36
448.75	2772.95
448.96	2576.34
449.16	2336.73
449.36	2357.21
449.57	2076.64
449.77	1966.05
449.98	1744.87
450.18	1779.68
450.39	1796.07
450.59	1781.73
450.79	1773.54
451.00	1705.96
451.20	1769.44
451.41	1732.58
451.61	1710.05
451.81	1691.62
452.02	1722.34
452.22	1695.72
452.43	1712.10
452.63	1722.34
