SpectraSuite Data File
++++++++++++++++++++++++++++++++++++
Date: Mon Jun 06 13:14:17 CEST 2016
User: root
Dark Spectrum Present: No
Reference Spectrum Present: No
Number of Sampled Component Spectra: 1
Spectrometers: USB4C02835
Integration Time (usec): 100000 (USB4C02835)
Spectra Averaged: 1 (USB4C02835)
Boxcar Smoothing: 0 (USB4C02835)
Correct for Electrical Dark: No (USB4C02835)
Strobe/Lamp Enabled: No (USB4C02835)
Correct for Detector Non-linearity: No (USB4C02835)
Correct for Stray Light: No (USB4C02835)
Number of Pixels in Processed Spectrum: 3648
>>>>>Begin Processed Spectral Data<<<<<
177.47	1441.77
177.69	1441.77
177.91	1441.77
178.13	1488.87
178.36	1429.48
178.58	1636.33
178.80	1705.96
179.02	1673.19
179.24	1595.37
179.46	1732.58
179.68	1736.68
179.90	1697.77
180.13	1703.91
180.35	1609.70
180.57	1726.44
180.79	1740.77
181.01	1650.66
181.23	1771.49
181.45	1746.92
181.67	1771.49
181.90	1714.15
182.12	1642.47
182.34	1671.14
182.56	1781.73
182.78	1683.43
183.00	1708.01
183.22	1736.68
183.44	1564.65
183.66	1839.08
183.89	1720.29
184.11	1730.53
184.33	1718.25
184.55	1720.29
184.77	1710.05
184.99	1675.24
185.21	1685.48
185.43	1830.88
185.65	1685.48
185.87	1736.68
186.10	1832.93
186.32	1830.88
186.54	1757.16
186.76	1705.96
186.98	1718.25
187.20	1773.54
187.42	1726.44
187.64	1728.49
187.86	1734.63
188.08	1767.40
188.30	1628.14
188.52	1677.29
188.75	1722.34
188.97	1757.16
189.19	1667.05
189.41	1677.29
189.63	1744.87
189.85	1640.42
190.07	1624.04
190.29	1626.09
190.51	1740.77
190.73	1621.99
190.95	1855.46
191.17	1773.54
191.39	1605.61
191.61	1708.01
191.84	1710.05
192.06	1691.62
192.28	1566.70
192.50	1873.89
192.72	1703.91
192.94	1763.30
193.16	1781.73
193.38	1720.29
193.60	1679.33
193.82	1751.01
194.04	1810.40
194.26	1687.53
194.48	1660.90
194.70	1648.61
194.92	1632.23
195.14	1767.40
195.36	1652.71
195.58	1724.39
195.80	1683.43
196.02	1685.48
196.24	1710.05
196.46	1738.73
196.69	1624.04
196.91	1861.60
197.13	1705.96
197.35	1712.10
197.57	1798.12
197.79	1673.19
198.01	1656.81
198.23	1755.11
198.45	1738.73
198.67	1574.89
198.89	1671.14
199.11	1708.01
199.33	1658.85
199.55	1503.21
199.77	1722.34
199.99	1773.54
200.21	1644.52
200.43	1701.86
200.65	1650.66
200.87	1554.41
201.09	1675.24
201.31	1632.23
201.53	1738.73
201.75	1695.72
201.97	1656.81
202.19	1677.29
202.41	1695.72
202.63	1806.31
202.85	1722.34
203.07	1757.16
203.29	1689.57
203.51	1648.61
203.73	1650.66
203.95	1808.36
204.17	1648.61
204.39	1671.14
204.61	1665.00
204.83	1746.92
205.05	1822.69
205.27	1789.92
205.49	1759.21
205.71	1648.61
205.93	1595.37
206.15	1656.81
206.37	1660.90
206.59	1667.05
206.81	1675.24
207.03	1681.38
207.25	1642.47
207.47	1783.78
207.69	1652.71
207.91	1755.11
208.13	1730.53
208.34	1681.38
208.56	1607.66
208.78	1648.61
209.00	1652.71
209.22	1650.66
209.44	1759.21
209.66	1632.23
209.88	1718.25
210.10	1771.49
210.32	1640.42
210.54	1785.83
210.76	1712.10
210.98	1767.40
211.20	1564.65
211.42	1744.87
211.64	1777.64
211.86	1699.81
212.08	1683.43
212.30	1691.62
212.52	1626.09
212.74	1693.67
212.96	1624.04
213.17	1730.53
213.39	1710.05
213.61	1804.26
213.83	1808.36
214.05	1628.14
214.27	1722.34
214.49	1630.18
214.71	1701.86
214.93	1748.97
215.15	1775.59
215.37	1699.81
215.59	1644.52
215.81	1724.39
216.03	1753.06
216.24	1722.34
216.46	1673.19
216.68	1722.34
216.90	1765.35
217.12	1736.68
217.34	1695.72
217.56	1722.34
217.78	1738.73
218.00	1677.29
218.22	1708.01
218.44	1789.92
218.66	1738.73
218.87	1787.88
219.09	1695.72
219.31	1789.92
219.53	1669.09
219.75	1697.77
219.97	1621.99
220.19	1740.77
220.41	1652.71
220.63	1742.82
220.85	1742.82
221.06	1656.81
221.28	1769.44
221.50	1748.97
221.72	1683.43
221.94	1687.53
222.16	1650.66
222.38	1708.01
222.60	1691.62
222.82	1730.53
223.03	1732.58
223.25	1578.98
223.47	1687.53
223.69	1853.41
223.91	1720.29
224.13	1671.14
224.35	1646.57
224.57	1806.31
224.78	1701.86
225.00	1621.99
225.22	1658.85
225.44	1732.58
225.66	1791.97
225.88	1701.86
226.10	1732.58
226.32	1683.43
226.53	1767.40
226.75	1689.57
226.97	1677.29
227.19	1708.01
227.41	1703.91
227.63	1673.19
227.85	1601.51
228.06	1695.72
228.28	1660.90
228.50	1693.67
228.72	1611.75
228.94	1593.32
229.16	1642.47
229.37	1681.38
229.59	1621.99
229.81	1781.73
230.03	1693.67
230.25	1671.14
230.47	1619.94
230.69	1646.57
230.90	1675.24
231.12	1646.57
231.34	1703.91
231.56	1728.49
231.78	1687.53
232.00	1730.53
232.21	1757.16
232.43	1644.52
232.65	1595.37
232.87	1824.74
233.09	1640.42
233.30	1693.67
233.52	1781.73
233.74	1685.48
233.96	1632.23
234.18	1767.40
234.40	1697.77
234.61	1918.95
234.83	1626.09
235.05	1591.27
235.27	1810.40
235.49	1781.73
235.70	1701.86
235.92	1730.53
236.14	1689.57
236.36	1849.32
236.58	1621.99
236.79	1685.48
237.01	1675.24
237.23	1591.27
237.45	1800.16
237.67	1601.51
237.88	1703.91
238.10	1777.64
238.32	1650.66
238.54	1718.25
238.76	1693.67
238.97	1699.81
239.19	1634.28
239.41	1738.73
239.63	1769.44
239.85	1630.18
240.06	1652.71
240.28	1695.72
240.50	1708.01
240.72	1658.85
240.93	1689.57
241.15	1730.53
241.37	1665.00
241.59	1755.11
241.81	1787.88
242.02	1691.62
242.24	1689.57
242.46	1740.77
242.68	1626.09
242.89	1656.81
243.11	1779.68
243.33	1689.57
243.55	1675.24
243.76	1708.01
243.98	1646.57
244.20	1609.70
244.42	1740.77
244.64	1701.86
244.85	1705.96
245.07	1636.33
245.29	1656.81
245.51	1669.09
245.72	1777.64
245.94	1767.40
246.16	1697.77
246.38	1695.72
246.59	1675.24
246.81	1718.25
247.03	1728.49
247.24	1572.84
247.46	1644.52
247.68	1703.91
247.90	1654.76
248.11	1689.57
248.33	1722.34
248.55	1714.15
248.77	1705.96
248.98	1775.59
249.20	1810.40
249.42	1710.05
249.64	1669.09
249.85	1679.33
250.07	1673.19
250.29	1681.38
250.50	1724.39
250.72	1654.76
250.94	1732.58
251.16	1841.12
251.37	1726.44
251.59	1699.81
251.81	1677.29
252.02	1769.44
252.24	1665.00
252.46	1818.60
252.68	1675.24
252.89	1671.14
253.11	1601.51
253.33	1882.08
253.54	1740.77
253.76	1595.37
253.98	1669.09
254.20	1648.61
254.41	1671.14
254.63	1685.48
254.85	1609.70
255.06	1671.14
255.28	1718.25
255.50	1689.57
255.71	1660.90
255.93	1624.04
256.15	1716.20
256.36	1755.11
256.58	1732.58
256.80	1724.39
257.02	1730.53
257.23	1587.18
257.45	1730.53
257.67	1703.91
257.88	1701.86
258.10	1763.30
258.32	1665.00
258.53	1626.09
258.75	1800.16
258.97	1695.72
259.18	1699.81
259.40	1691.62
259.62	1738.73
259.83	1732.58
260.05	1808.36
260.27	1980.39
260.48	1693.67
260.70	1638.38
260.92	1681.38
261.13	1693.67
261.35	1681.38
261.57	1685.48
261.78	1630.18
262.00	1673.19
262.22	1665.00
262.43	1646.57
262.65	1705.96
262.86	1669.09
263.08	1851.36
263.30	1658.85
263.51	1589.22
263.73	1632.23
263.95	1755.11
264.16	1648.61
264.38	1603.56
264.60	1697.77
264.81	1736.68
265.03	1722.34
265.25	1753.06
265.46	1695.72
265.68	1775.59
265.89	1691.62
266.11	1650.66
266.33	1794.02
266.54	1712.10
266.76	1632.23
266.98	1765.35
267.19	1701.86
267.41	1712.10
267.62	1699.81
267.84	1630.18
268.06	1771.49
268.27	1732.58
268.49	1734.63
268.70	1734.63
268.92	1630.18
269.14	1708.01
269.35	1624.04
269.57	1667.05
269.79	1710.05
270.00	1652.71
270.22	1886.18
270.43	1638.38
270.65	1591.27
270.87	1714.15
271.08	1724.39
271.30	1720.29
271.51	1710.05
271.73	1708.01
271.95	1705.96
272.16	1705.96
272.38	1771.49
272.59	1667.05
272.81	1689.57
273.02	1699.81
273.24	1759.21
273.46	1728.49
273.67	1662.95
273.89	1658.85
274.10	1656.81
274.32	1789.92
274.54	1677.29
274.75	1746.92
274.97	1589.22
275.18	1718.25
275.40	1746.92
275.61	1728.49
275.83	1683.43
276.05	1613.80
276.26	1615.85
276.48	1828.84
276.69	1665.00
276.91	1667.05
277.12	1828.84
277.34	1701.86
277.55	1722.34
277.77	1701.86
277.99	1699.81
278.20	1701.86
278.42	1605.61
278.63	1697.77
278.85	1630.18
279.06	1644.52
279.28	1718.25
279.49	1804.26
279.71	1714.15
279.93	1675.24
280.14	1755.11
280.36	1654.76
280.57	1720.29
280.79	1789.92
281.00	1701.86
281.22	1644.52
281.43	1802.21
281.65	1591.27
281.86	1617.90
282.08	1671.14
282.29	1767.40
282.51	1568.74
282.73	1644.52
282.94	1656.81
283.16	1724.39
283.37	1789.92
283.59	1662.95
283.80	1716.20
284.02	1689.57
284.23	1705.96
284.45	1771.49
284.66	1609.70
284.88	1675.24
285.09	1718.25
285.31	1818.60
285.52	1753.06
285.74	1648.61
285.95	1693.67
286.17	1626.09
286.38	1789.92
286.60	1660.90
286.81	1648.61
287.03	1619.94
287.24	1730.53
287.46	1769.44
287.67	1732.58
287.89	1765.35
288.10	1675.24
288.32	1794.02
288.53	1839.08
288.75	1710.05
288.96	1796.07
289.18	1630.18
289.39	1693.67
289.61	1710.05
289.82	1816.55
290.04	1759.21
290.25	1626.09
290.47	1679.33
290.68	1732.58
290.90	1730.53
291.11	1595.37
291.33	1718.25
291.54	1609.70
291.76	1636.33
291.97	1753.06
292.18	1591.27
292.40	1744.87
292.61	1617.90
292.83	1832.93
293.04	1775.59
293.26	1724.39
293.47	1667.05
293.69	1675.24
293.90	1701.86
294.12	1740.77
294.33	1636.33
294.55	1734.63
294.76	1794.02
294.97	1773.54
295.19	1808.36
295.40	1644.52
295.62	1728.49
295.83	1730.53
296.05	1677.29
296.26	1808.36
296.48	1751.01
296.69	1673.19
296.90	1697.77
297.12	1761.25
297.33	1742.82
297.55	1744.87
297.76	1714.15
297.98	1779.68
298.19	1763.30
298.41	1673.19
298.62	1691.62
298.83	1812.45
299.05	1697.77
299.26	1626.09
299.48	1673.19
299.69	1679.33
299.90	1683.43
300.12	1652.71
300.33	1798.12
300.55	1705.96
300.76	1701.86
300.98	1570.79
301.19	1716.20
301.40	1593.32
301.62	1689.57
301.83	1785.83
302.05	1687.53
302.26	1708.01
302.47	1673.19
302.69	1615.85
302.90	1767.40
303.12	1538.02
303.33	1699.81
303.54	1841.12
303.76	1644.52
303.97	1691.62
304.19	1814.50
304.40	1681.38
304.61	1703.91
304.83	1806.31
305.04	1701.86
305.26	1802.21
305.47	1718.25
305.68	1679.33
305.90	1626.09
306.11	1781.73
306.33	1755.11
306.54	1669.09
306.75	1648.61
306.97	1632.23
307.18	1665.00
307.39	1697.77
307.61	1812.45
307.82	1646.57
308.04	1771.49
308.25	1642.47
308.46	1732.58
308.68	1679.33
308.89	1751.01
309.10	1640.42
309.32	1734.63
309.53	1816.55
309.74	1755.11
309.96	1691.62
310.17	1738.73
310.39	1691.62
310.60	1701.86
310.81	1654.76
311.03	1687.53
311.24	1740.77
311.45	1662.95
311.67	1855.46
311.88	1681.38
312.09	1615.85
312.31	1642.47
312.52	1769.44
312.73	1751.01
312.95	1695.72
313.16	1652.71
313.37	1736.68
313.59	1648.61
313.80	1757.16
314.01	1744.87
314.23	1617.90
314.44	1662.95
314.65	1691.62
314.87	1669.09
315.08	1658.85
315.29	1654.76
315.51	1632.23
315.72	1705.96
315.93	1722.34
316.15	1701.86
316.36	1619.94
316.57	1705.96
316.79	1720.29
317.00	1695.72
317.21	1748.97
317.43	1642.47
317.64	1650.66
317.85	1652.71
318.07	1640.42
318.28	1742.82
318.49	1796.07
318.70	1894.37
318.92	1849.32
319.13	1800.16
319.34	1794.02
319.56	1724.39
319.77	1718.25
319.98	1726.44
320.20	1796.07
320.41	1779.68
320.62	1728.49
320.83	1767.40
321.05	1837.03
321.26	1765.35
321.47	1751.01
321.69	1789.92
321.90	1648.61
322.11	1619.94
322.32	1710.05
322.54	1726.44
322.75	1732.58
322.96	1785.83
323.18	1638.38
323.39	1611.75
323.60	1638.38
323.81	1781.73
324.03	1632.23
324.24	1648.61
324.45	1685.48
324.66	1722.34
324.88	1738.73
325.09	1800.16
325.30	1662.95
325.52	1736.68
325.73	1660.90
325.94	1607.66
326.15	1640.42
326.37	1675.24
326.58	1718.25
326.79	1765.35
327.00	1638.38
327.22	1720.29
327.43	1628.14
327.64	1636.33
327.85	1806.31
328.07	1728.49
328.28	1834.98
328.49	1718.25
328.70	1683.43
328.92	1683.43
329.13	1685.48
329.34	1736.68
329.55	1839.08
329.76	1783.78
329.98	1716.20
330.19	1726.44
330.40	1716.20
330.61	1708.01
330.83	1773.54
331.04	1652.71
331.25	1722.34
331.46	1744.87
331.68	1601.51
331.89	1757.16
332.10	1712.10
332.31	1660.90
332.52	1656.81
332.74	1708.01
332.95	1587.18
333.16	1693.67
333.37	1742.82
333.58	1626.09
333.80	1785.83
334.01	1617.90
334.22	1615.85
334.43	1673.19
334.64	1734.63
334.86	1630.18
335.07	1634.28
335.28	1804.26
335.49	1601.51
335.70	1746.92
335.92	1730.53
336.13	1849.32
336.34	1683.43
336.55	1763.30
336.76	1732.58
336.98	1585.13
337.19	1642.47
337.40	1722.34
337.61	1861.60
337.82	1662.95
338.04	1738.73
338.25	1607.66
338.46	1689.57
338.67	1724.39
338.88	1687.53
339.09	1636.33
339.31	1640.42
339.52	1662.95
339.73	1689.57
339.94	1665.00
340.15	1705.96
340.36	1634.28
340.58	1689.57
340.79	1697.77
341.00	1716.20
341.21	1572.84
341.42	1761.25
341.63	1642.47
341.85	1705.96
342.06	1724.39
342.27	1615.85
342.48	1724.39
342.69	1562.60
342.90	1738.73
343.12	1683.43
343.33	1654.76
343.54	1789.92
343.75	1837.03
343.96	1740.77
344.17	1640.42
344.38	1712.10
344.60	1611.75
344.81	1632.23
345.02	1718.25
345.23	1699.81
345.44	1779.68
345.65	1703.91
345.86	1730.53
346.07	1720.29
346.29	1662.95
346.50	1779.68
346.71	1718.25
346.92	1779.68
347.13	1847.27
347.34	1753.06
347.55	1699.81
347.76	1767.40
347.98	1595.37
348.19	1642.47
348.40	1746.92
348.61	1675.24
348.82	1773.54
349.03	1767.40
349.24	1689.57
349.45	1824.74
349.66	1605.61
349.88	1644.52
350.09	1656.81
350.30	1783.78
350.51	1837.03
350.72	1697.77
350.93	1740.77
351.14	1660.90
351.35	1691.62
351.56	1728.49
351.77	1658.85
351.99	1693.67
352.20	1818.60
352.41	1763.30
352.62	1583.08
352.83	1671.14
353.04	1691.62
353.25	1728.49
353.46	1789.92
353.67	1687.53
353.88	1570.79
354.09	1646.57
354.30	1718.25
354.52	1703.91
354.73	1644.52
354.94	1644.52
355.15	1656.81
355.36	1757.16
355.57	1658.85
355.78	1779.68
355.99	1615.85
356.20	1712.10
356.41	1769.44
356.62	1675.24
356.83	1697.77
357.04	1847.27
357.25	1595.37
357.46	1595.37
357.68	1710.05
357.89	1734.63
358.10	1699.81
358.31	1652.71
358.52	1652.71
358.73	1605.61
358.94	1646.57
359.15	1658.85
359.36	1722.34
359.57	1746.92
359.78	1654.76
359.99	1746.92
360.20	1703.91
360.41	1640.42
360.62	1757.16
360.83	1734.63
361.04	1671.14
361.25	1677.29
361.46	1847.27
361.67	1810.40
361.88	1687.53
362.09	1742.82
362.30	1689.57
362.51	1615.85
362.72	1730.53
362.93	1720.29
363.14	1777.64
363.35	1734.63
363.56	1658.85
363.78	1765.35
363.99	1757.16
364.20	1685.48
364.41	1732.58
364.62	1785.83
364.83	1701.86
365.04	1689.57
365.25	1685.48
365.46	1832.93
365.67	1656.81
365.88	1671.14
366.09	1677.29
366.30	1644.52
366.51	1685.48
366.72	1636.33
366.93	1748.97
367.14	1675.24
367.35	1837.03
367.56	1724.39
367.77	1824.74
367.98	1669.09
368.18	1714.15
368.39	1779.68
368.60	1554.41
368.81	1703.91
369.02	1724.39
369.23	1734.63
369.44	1492.97
369.65	1646.57
369.86	1710.05
370.07	1773.54
370.28	1724.39
370.49	1693.67
370.70	1757.16
370.91	1685.48
371.12	1587.18
371.33	1722.34
371.54	1724.39
371.75	1775.59
371.96	1595.37
372.17	1732.58
372.38	1787.88
372.59	1728.49
372.80	1703.91
373.01	1660.90
373.22	1687.53
373.43	1691.62
373.64	1669.09
373.85	1816.55
374.06	1751.01
374.26	1716.20
374.47	1689.57
374.68	1767.40
374.89	1734.63
375.10	1714.15
375.31	1757.16
375.52	1628.14
375.73	1714.15
375.94	1640.42
376.15	1685.48
376.36	1710.05
376.57	1648.61
376.78	1640.42
376.99	1650.66
377.20	1736.68
377.40	1687.53
377.61	1834.98
377.82	1646.57
378.03	1855.46
378.24	1800.16
378.45	1726.44
378.66	1720.29
378.87	1644.52
379.08	1581.03
379.29	1710.05
379.50	1714.15
379.71	1714.15
379.91	1796.07
380.12	1673.19
380.33	1722.34
380.54	1701.86
380.75	1732.58
380.96	1628.14
381.17	1757.16
381.38	1697.77
381.59	1734.63
381.80	1673.19
382.00	1884.13
382.21	1701.86
382.42	1783.78
382.63	1898.47
382.84	1703.91
383.05	1812.45
383.26	1861.60
383.47	1806.31
383.68	1802.21
383.88	1714.15
384.09	1730.53
384.30	1783.78
384.51	1689.57
384.72	1648.61
384.93	1611.75
385.14	1662.95
385.35	1738.73
385.55	1673.19
385.76	1789.92
385.97	1708.01
386.18	1656.81
386.39	1624.04
386.60	1722.34
386.81	1617.90
387.02	1658.85
387.22	1601.51
387.43	1777.64
387.64	1839.08
387.85	1839.08
388.06	2242.53
388.27	4145.09
388.48	6610.84
388.68	8144.77
388.89	9467.76
389.10	9566.06
389.31	8482.69
389.52	7446.41
389.73	6649.75
389.93	6211.49
390.14	5769.13
390.35	5191.60
390.56	4589.50
390.77	3753.93
390.98	3041.23
391.18	2459.61
391.39	2060.26
391.60	1837.03
391.81	1847.27
392.02	1681.38
392.23	1816.55
392.43	1730.53
392.64	1751.01
392.85	1742.82
393.06	1789.92
393.27	1689.57
393.47	1644.52
393.68	1644.52
393.89	1693.67
394.10	1763.30
394.31	1736.68
394.52	1609.70
394.72	1605.61
394.93	1820.64
395.14	1634.28
395.35	1785.83
395.56	1626.09
395.76	1755.11
395.97	1791.97
396.18	1871.84
396.39	1822.69
396.60	2025.44
396.80	1886.18
397.01	1869.80
397.22	1882.08
397.43	1791.97
397.64	1800.16
397.84	1779.68
398.05	1865.70
398.26	1775.59
398.47	1763.30
398.67	1742.82
398.88	1652.71
399.09	1699.81
399.30	1646.57
399.51	1658.85
399.71	1675.24
399.92	1751.01
400.13	1720.29
400.34	1796.07
400.54	1646.57
400.75	1689.57
400.96	1761.25
401.17	1818.60
401.37	1796.07
401.58	1697.77
401.79	1738.73
402.00	1845.22
402.21	2015.20
402.41	1968.10
402.62	1961.95
402.83	2027.49
403.04	1937.38
403.24	2013.15
403.45	1910.75
403.66	1867.75
403.87	1853.41
404.07	1886.18
404.28	2021.35
404.49	1832.93
404.70	1773.54
404.90	1730.53
405.11	1759.21
405.32	1730.53
405.52	1705.96
405.73	1660.90
405.94	1683.43
406.15	1667.05
406.35	1740.77
406.56	1798.12
406.77	1736.68
406.98	1677.29
407.18	1624.04
407.39	1830.88
407.60	1736.68
407.80	1697.77
408.01	1689.57
408.22	1736.68
408.43	1722.34
408.63	1759.21
408.84	1685.48
409.05	1644.52
409.25	1701.86
409.46	1677.29
409.67	1705.96
409.88	1681.38
410.08	1732.58
410.29	1679.33
410.50	1732.58
410.70	1730.53
410.91	1611.75
411.12	1781.73
411.32	1642.47
411.53	1708.01
411.74	1882.08
411.95	1738.73
412.15	1736.68
412.36	1837.03
412.57	1757.16
412.77	1767.40
412.98	1746.92
413.19	1722.34
413.39	1761.25
413.60	1724.39
413.81	1755.11
414.01	1665.00
414.22	1730.53
414.43	1761.25
414.63	1675.24
414.84	1818.60
415.05	1705.96
415.25	1566.70
415.46	1738.73
415.67	1656.81
415.87	1775.59
416.08	1683.43
416.29	1656.81
416.49	1755.11
416.70	1689.57
416.91	1669.09
417.11	1716.20
417.32	1697.77
417.53	1712.10
417.73	1685.48
417.94	1738.73
418.15	1746.92
418.35	1742.82
418.56	1697.77
418.77	1763.30
418.97	1642.47
419.18	1726.44
419.38	1591.27
419.59	1665.00
419.80	1744.87
420.00	1714.15
420.21	1687.53
420.42	1757.16
420.62	1787.88
420.83	1591.27
421.04	1734.63
421.24	1708.01
421.45	1753.06
421.65	1689.57
421.86	1681.38
422.07	1718.25
422.27	1736.68
422.48	1722.34
422.69	1689.57
422.89	1669.09
423.10	1689.57
423.30	1652.71
423.51	1705.96
423.72	1785.83
423.92	1738.73
424.13	1703.91
424.33	1652.71
424.54	1691.62
424.75	1761.25
424.95	1775.59
425.16	1736.68
425.36	1679.33
425.57	1765.35
425.78	1775.59
425.98	1751.01
426.19	1652.71
426.39	1601.51
426.60	1767.40
426.81	1751.01
427.01	1728.49
427.22	1691.62
427.42	1578.98
427.63	1634.28
427.83	1689.57
428.04	1781.73
428.25	1853.41
428.45	1798.12
428.66	1685.48
428.86	1705.96
429.07	1705.96
429.28	1748.97
429.48	1652.71
429.69	1748.97
429.89	1763.30
430.10	1599.46
430.30	1818.60
430.51	1787.88
430.71	1636.33
430.92	1652.71
431.13	1683.43
431.33	1751.01
431.54	1677.29
431.74	1810.40
431.95	1804.26
432.15	1681.38
432.36	1728.49
432.56	1722.34
432.77	1794.02
432.98	1808.36
433.18	1738.73
433.39	1751.01
433.59	1699.81
433.80	1746.92
434.00	1847.27
434.21	1703.91
434.41	1679.33
434.62	1939.43
434.82	1671.14
435.03	1652.71
435.23	1730.53
435.44	1646.57
435.64	1718.25
435.85	1765.35
436.06	1789.92
436.26	1771.49
436.47	1744.87
436.67	1621.99
436.88	1701.86
437.08	1730.53
437.29	1765.35
437.49	1718.25
437.70	1800.16
437.90	1708.01
438.11	1806.31
438.31	1800.16
438.52	1824.74
438.72	1798.12
438.93	1890.28
439.13	1759.21
439.34	1779.68
439.54	1781.73
439.75	1771.49
439.95	1761.25
440.16	1726.44
440.36	1640.42
440.57	1767.40
440.77	1763.30
440.98	1673.19
441.18	1769.44
441.39	1654.76
441.59	1687.53
441.80	1877.99
442.00	1681.38
442.21	1769.44
442.41	1650.66
442.62	1839.08
442.82	1673.19
443.02	1681.38
443.23	1728.49
443.43	1761.25
443.64	1781.73
443.84	1595.37
444.05	1871.84
444.25	1761.25
444.46	1730.53
444.66	1699.81
444.87	1796.07
445.07	1644.52
445.28	1667.05
445.48	1800.16
445.69	1886.18
445.89	1804.26
446.09	1736.68
446.30	2062.30
446.50	2572.25
446.71	3719.11
446.91	4435.90
447.12	4843.45
447.32	4804.53
447.53	4261.82
447.73	3764.17
447.93	3549.13
448.14	3315.66
448.34	3145.68
448.55	2879.44
448.75	2889.68
448.96	2664.41
449.16	2371.55
449.36	2254.81
449.57	2052.06
449.77	1886.18
449.98	1763.30
450.18	1761.25
450.39	1888.23
450.59	1765.35
450.79	1716.20
451.00	1787.88
451.20	1740.77
451.41	1724.39
451.61	1834.98
451.81	1785.83
452.02	1665.00
452.22	1742.82
452.43	1562.60
452.63	1708.01
