SpectraSuite Data File
++++++++++++++++++++++++++++++++++++
Date: Mon Jun 06 16:53:17 CEST 2016
User: root
Dark Spectrum Present: No
Reference Spectrum Present: No
Number of Sampled Component Spectra: 1
Spectrometers: USB4C02835
Integration Time (usec): 100000 (USB4C02835)
Spectra Averaged: 1 (USB4C02835)
Boxcar Smoothing: 0 (USB4C02835)
Correct for Electrical Dark: No (USB4C02835)
Strobe/Lamp Enabled: No (USB4C02835)
Correct for Detector Non-linearity: No (USB4C02835)
Correct for Stray Light: No (USB4C02835)
Number of Pixels in Processed Spectrum: 3648
>>>>>Begin Processed Spectral Data<<<<<
177.47	1456.11
177.69	1456.11
177.91	1456.11
178.13	1480.68
178.36	1441.77
178.58	1603.56
178.80	1714.15
179.02	1660.90
179.24	1730.53
179.46	1701.86
179.68	1847.27
179.90	1763.30
180.13	1681.38
180.35	1538.02
180.57	1652.71
180.79	1730.53
181.01	1769.44
181.23	1701.86
181.45	1746.92
181.67	1736.68
181.90	1728.49
182.12	1699.81
182.34	1642.47
182.56	1757.16
182.78	1705.96
183.00	1667.05
183.22	1710.05
183.44	1638.38
183.66	1849.32
183.89	1796.07
184.11	1748.97
184.33	1746.92
184.55	1779.68
184.77	1691.62
184.99	1714.15
185.21	1675.24
185.43	1800.16
185.65	1646.57
185.87	1761.25
186.10	1802.21
186.32	1763.30
186.54	1701.86
186.76	1765.35
186.98	1740.77
187.20	1638.38
187.42	1736.68
187.64	1777.64
187.86	1775.59
188.08	1785.83
188.30	1724.39
188.52	1675.24
188.75	1697.77
188.97	1734.63
189.19	1730.53
189.41	1716.20
189.63	1796.07
189.85	1751.01
190.07	1624.04
190.29	1609.70
190.51	1710.05
190.73	1619.94
190.95	1775.59
191.17	1708.01
191.39	1593.32
191.61	1742.82
191.84	1677.29
192.06	1726.44
192.28	1636.33
192.50	1900.52
192.72	1685.48
192.94	1687.53
193.16	1779.68
193.38	1816.55
193.60	1656.81
193.82	1705.96
194.04	1755.11
194.26	1689.57
194.48	1710.05
194.70	1667.05
194.92	1671.14
195.14	1894.37
195.36	1638.38
195.58	1669.09
195.80	1720.29
196.02	1669.09
196.24	1699.81
196.46	1753.06
196.69	1689.57
196.91	1845.22
197.13	1804.26
197.35	1734.63
197.57	1765.35
197.79	1710.05
198.01	1740.77
198.23	1705.96
198.45	1785.83
198.67	1621.99
198.89	1705.96
199.11	1746.92
199.33	1742.82
199.55	1613.80
199.77	1687.53
199.99	1775.59
200.21	1722.34
200.43	1710.05
200.65	1660.90
200.87	1611.75
201.09	1687.53
201.31	1726.44
201.53	1783.78
201.75	1677.29
201.97	1755.11
202.19	1742.82
202.41	1685.48
202.63	1834.98
202.85	1736.68
203.07	1695.72
203.29	1695.72
203.51	1630.18
203.73	1699.81
203.95	1841.12
204.17	1681.38
204.39	1705.96
204.61	1669.09
204.83	1685.48
205.05	1769.44
205.27	1722.34
205.49	1746.92
205.71	1714.15
205.93	1638.38
206.15	1658.85
206.37	1734.63
206.59	1679.33
206.81	1595.37
207.03	1722.34
207.25	1677.29
207.47	1755.11
207.69	1671.14
207.91	1820.64
208.13	1779.68
208.34	1675.24
208.56	1699.81
208.78	1746.92
209.00	1687.53
209.22	1693.67
209.44	1753.06
209.66	1705.96
209.88	1683.43
210.10	1705.96
210.32	1779.68
210.54	1785.83
210.76	1669.09
210.98	1724.39
211.20	1542.12
211.42	1683.43
211.64	1794.02
211.86	1720.29
212.08	1710.05
212.30	1673.19
212.52	1691.62
212.74	1722.34
212.96	1796.07
213.17	1660.90
213.39	1757.16
213.61	1818.60
213.83	1738.73
214.05	1630.18
214.27	1777.64
214.49	1687.53
214.71	1636.33
214.93	1769.44
215.15	1718.25
215.37	1759.21
215.59	1607.66
215.81	1787.88
216.03	1816.55
216.24	1640.42
216.46	1695.72
216.68	1843.17
216.90	1755.11
217.12	1681.38
217.34	1703.91
217.56	1753.06
217.78	1787.88
218.00	1753.06
218.22	1693.67
218.44	1738.73
218.66	1763.30
218.87	1689.57
219.09	1628.14
219.31	1771.49
219.53	1744.87
219.75	1699.81
219.97	1654.76
220.19	1757.16
220.41	1703.91
220.63	1787.88
220.85	1748.97
221.06	1642.47
221.28	1763.30
221.50	1740.77
221.72	1716.20
221.94	1740.77
222.16	1703.91
222.38	1769.44
222.60	1777.64
222.82	1632.23
223.03	1732.58
223.25	1626.09
223.47	1683.43
223.69	1806.31
223.91	1781.73
224.13	1650.66
224.35	1703.91
224.57	1824.74
224.78	1716.20
225.00	1558.50
225.22	1738.73
225.44	1783.78
225.66	1701.86
225.88	1732.58
226.10	1748.97
226.32	1738.73
226.53	1726.44
226.75	1636.33
226.97	1691.62
227.19	1714.15
227.41	1742.82
227.63	1689.57
227.85	1665.00
228.06	1744.87
228.28	1675.24
228.50	1767.40
228.72	1658.85
228.94	1695.72
229.16	1607.66
229.37	1675.24
229.59	1697.77
229.81	1794.02
230.03	1687.53
230.25	1673.19
230.47	1716.20
230.69	1775.59
230.90	1761.25
231.12	1728.49
231.34	1667.05
231.56	1816.55
231.78	1585.13
232.00	1773.54
232.21	1710.05
232.43	1685.48
232.65	1578.98
232.87	1681.38
233.09	1695.72
233.30	1697.77
233.52	1736.68
233.74	1712.10
233.96	1726.44
234.18	1730.53
234.40	1689.57
234.61	1894.37
234.83	1718.25
235.05	1679.33
235.27	1820.64
235.49	1787.88
235.70	1679.33
235.92	1794.02
236.14	1705.96
236.36	1849.32
236.58	1578.98
236.79	1724.39
237.01	1724.39
237.23	1683.43
237.45	1796.07
237.67	1675.24
237.88	1726.44
238.10	1804.26
238.32	1609.70
238.54	1714.15
238.76	1697.77
238.97	1673.19
239.19	1740.77
239.41	1773.54
239.63	1755.11
239.85	1687.53
240.06	1746.92
240.28	1640.42
240.50	1759.21
240.72	1736.68
240.93	1701.86
241.15	1755.11
241.37	1728.49
241.59	1816.55
241.81	1714.15
242.02	1705.96
242.24	1724.39
242.46	1736.68
242.68	1628.14
242.89	1744.87
243.11	1699.81
243.33	1726.44
243.55	1734.63
243.76	1746.92
243.98	1726.44
244.20	1669.09
244.42	1742.82
244.64	1628.14
244.85	1656.81
245.07	1648.61
245.29	1767.40
245.51	1689.57
245.72	1777.64
245.94	1787.88
246.16	1695.72
246.38	1759.21
246.59	1677.29
246.81	1650.66
247.03	1691.62
247.24	1624.04
247.46	1734.63
247.68	1736.68
247.90	1748.97
248.11	1689.57
248.33	1648.61
248.55	1697.77
248.77	1742.82
248.98	1722.34
249.20	1734.63
249.42	1701.86
249.64	1740.77
249.85	1726.44
250.07	1677.29
250.29	1800.16
250.50	1669.09
250.72	1650.66
250.94	1722.34
251.16	1798.12
251.37	1724.39
251.59	1822.69
251.81	1769.44
252.02	1800.16
252.24	1759.21
252.46	1763.30
252.68	1615.85
252.89	1652.71
253.11	1632.23
253.33	1773.54
253.54	1726.44
253.76	1642.47
253.98	1677.29
254.20	1665.00
254.41	1595.37
254.63	1783.78
254.85	1642.47
255.06	1693.67
255.28	1658.85
255.50	1748.97
255.71	1648.61
255.93	1667.05
256.15	1632.23
256.36	1648.61
256.58	1665.00
256.80	1720.29
257.02	1716.20
257.23	1681.38
257.45	1681.38
257.67	1812.45
257.88	1695.72
258.10	1714.15
258.32	1677.29
258.53	1705.96
258.75	1816.55
258.97	1677.29
259.18	1697.77
259.40	1689.57
259.62	1728.49
259.83	1738.73
260.05	1683.43
260.27	1943.52
260.48	1738.73
260.70	1605.61
260.92	1683.43
261.13	1798.12
261.35	1687.53
261.57	1732.58
261.78	1595.37
262.00	1667.05
262.22	1759.21
262.43	1730.53
262.65	1695.72
262.86	1708.01
263.08	1839.08
263.30	1679.33
263.51	1648.61
263.73	1685.48
263.95	1736.68
264.16	1699.81
264.38	1701.86
264.60	1718.25
264.81	1691.62
265.03	1779.68
265.25	1705.96
265.46	1675.24
265.68	1765.35
265.89	1722.34
266.11	1624.04
266.33	1818.60
266.54	1814.50
266.76	1798.12
266.98	1841.12
267.19	1802.21
267.41	1763.30
267.62	1716.20
267.84	1624.04
268.06	1783.78
268.27	1718.25
268.49	1734.63
268.70	1701.86
268.92	1644.52
269.14	1755.11
269.35	1591.27
269.57	1730.53
269.79	1812.45
270.00	1648.61
270.22	1861.60
270.43	1708.01
270.65	1578.98
270.87	1705.96
271.08	1710.05
271.30	1714.15
271.51	1697.77
271.73	1724.39
271.95	1839.08
272.16	1652.71
272.38	1753.06
272.59	1720.29
272.81	1679.33
273.02	1665.00
273.24	1701.86
273.46	1789.92
273.67	1632.23
273.89	1724.39
274.10	1656.81
274.32	1781.73
274.54	1722.34
274.75	1683.43
274.97	1732.58
275.18	1689.57
275.40	1765.35
275.61	1763.30
275.83	1679.33
276.05	1591.27
276.26	1716.20
276.48	1701.86
276.69	1665.00
276.91	1763.30
277.12	1804.26
277.34	1847.27
277.55	1701.86
277.77	1712.10
277.99	1699.81
278.20	1626.09
278.42	1722.34
278.63	1652.71
278.85	1691.62
279.06	1613.80
279.28	1736.68
279.49	1740.77
279.71	1744.87
279.93	1748.97
280.14	1654.76
280.36	1697.77
280.57	1820.64
280.79	1720.29
281.00	1652.71
281.22	1656.81
281.43	1751.01
281.65	1578.98
281.86	1681.38
282.08	1734.63
282.29	1757.16
282.51	1615.85
282.73	1689.57
282.94	1576.94
283.16	1705.96
283.37	1777.64
283.59	1730.53
283.80	1691.62
284.02	1742.82
284.23	1710.05
284.45	1652.71
284.66	1683.43
284.88	1679.33
285.09	1759.21
285.31	1720.29
285.52	1753.06
285.74	1634.28
285.95	1734.63
286.17	1697.77
286.38	1822.69
286.60	1703.91
286.81	1681.38
287.03	1687.53
287.24	1679.33
287.46	1662.95
287.67	1757.16
287.89	1837.03
288.10	1736.68
288.32	1654.76
288.53	1740.77
288.75	1714.15
288.96	1845.22
289.18	1722.34
289.39	1671.14
289.61	1783.78
289.82	1826.79
290.04	1810.40
290.25	1634.28
290.47	1701.86
290.68	1712.10
290.90	1728.49
291.11	1615.85
291.33	1740.77
291.54	1546.22
291.76	1697.77
291.97	1705.96
292.18	1712.10
292.40	1703.91
292.61	1675.24
292.83	1822.69
293.04	1722.34
293.26	1769.44
293.47	1730.53
293.69	1648.61
293.90	1718.25
294.12	1791.97
294.33	1697.77
294.55	1712.10
294.76	1837.03
294.97	1843.17
295.19	1808.36
295.40	1669.09
295.62	1724.39
295.83	1755.11
296.05	1634.28
296.26	1744.87
296.48	1624.04
296.69	1685.48
296.90	1726.44
297.12	1687.53
297.33	1693.67
297.55	1652.71
297.76	1773.54
297.98	1800.16
298.19	1675.24
298.41	1665.00
298.62	1697.77
298.83	1820.64
299.05	1763.30
299.26	1755.11
299.48	1675.24
299.69	1779.68
299.90	1744.87
300.12	1613.80
300.33	1699.81
300.55	1597.42
300.76	1724.39
300.98	1667.05
301.19	1755.11
301.40	1642.47
301.62	1673.19
301.83	1769.44
302.05	1705.96
302.26	1691.62
302.47	1683.43
302.69	1679.33
302.90	1662.95
303.12	1667.05
303.33	1812.45
303.54	1832.93
303.76	1671.14
303.97	1742.82
304.19	1777.64
304.40	1585.13
304.61	1734.63
304.83	1769.44
305.04	1843.17
305.26	1736.68
305.47	1656.81
305.68	1677.29
305.90	1640.42
306.11	1742.82
306.33	1765.35
306.54	1712.10
306.75	1619.94
306.97	1564.65
307.18	1679.33
307.39	1677.29
307.61	1726.44
307.82	1730.53
308.04	1708.01
308.25	1660.90
308.46	1763.30
308.68	1699.81
308.89	1675.24
309.10	1687.53
309.32	1740.77
309.53	1658.85
309.74	1779.68
309.96	1701.86
310.17	1789.92
310.39	1726.44
310.60	1753.06
310.81	1689.57
311.03	1648.61
311.24	1814.50
311.45	1755.11
311.67	1828.84
311.88	1677.29
312.09	1665.00
312.31	1697.77
312.52	1742.82
312.73	1693.67
312.95	1687.53
313.16	1658.85
313.37	1751.01
313.59	1716.20
313.80	1759.21
314.01	1851.36
314.23	1654.76
314.44	1638.38
314.65	1619.94
314.87	1646.57
315.08	1648.61
315.29	1646.57
315.51	1644.52
315.72	1615.85
315.93	1804.26
316.15	1738.73
316.36	1636.33
316.57	1683.43
316.79	1716.20
317.00	1722.34
317.21	1759.21
317.43	1640.42
317.64	1714.15
317.85	1671.14
318.07	1665.00
318.28	1728.49
318.49	1785.83
318.70	1884.13
318.92	1902.56
319.13	1789.92
319.34	1869.80
319.56	1837.03
319.77	1789.92
319.98	1783.78
320.20	1828.84
320.41	1730.53
320.62	1796.07
320.83	1679.33
321.05	1812.45
321.26	1730.53
321.47	1722.34
321.69	1781.73
321.90	1685.48
322.11	1646.57
322.32	1705.96
322.54	1710.05
322.75	1669.09
322.96	1863.65
323.18	1597.42
323.39	1683.43
323.60	1677.29
323.81	1787.88
324.03	1720.29
324.24	1695.72
324.45	1667.05
324.66	1638.38
324.88	1794.02
325.09	1826.79
325.30	1699.81
325.52	1767.40
325.73	1828.84
325.94	1630.18
326.15	1619.94
326.37	1656.81
326.58	1710.05
326.79	1757.16
327.00	1720.29
327.22	1693.67
327.43	1687.53
327.64	1591.27
327.85	1755.11
328.07	1693.67
328.28	1783.78
328.49	1640.42
328.70	1634.28
328.92	1687.53
329.13	1675.24
329.34	1734.63
329.55	1808.36
329.76	1708.01
329.98	1619.94
330.19	1753.06
330.40	1751.01
330.61	1724.39
330.83	1785.83
331.04	1665.00
331.25	1718.25
331.46	1646.57
331.68	1693.67
331.89	1726.44
332.10	1755.11
332.31	1624.04
332.52	1669.09
332.74	1816.55
332.95	1624.04
333.16	1697.77
333.37	1814.50
333.58	1626.09
333.80	1708.01
334.01	1652.71
334.22	1671.14
334.43	1683.43
334.64	1689.57
334.86	1675.24
335.07	1656.81
335.28	1712.10
335.49	1617.90
335.70	1730.53
335.92	1806.31
336.13	1873.89
336.34	1734.63
336.55	1722.34
336.76	1710.05
336.98	1611.75
337.19	1740.77
337.40	1880.04
337.61	1851.36
337.82	1673.19
338.04	1785.83
338.25	1624.04
338.46	1669.09
338.67	1720.29
338.88	1699.81
339.09	1591.27
339.31	1648.61
339.52	1673.19
339.73	1589.22
339.94	1705.96
340.15	1705.96
340.36	1728.49
340.58	1742.82
340.79	1632.23
341.00	1677.29
341.21	1751.01
341.42	1714.15
341.63	1767.40
341.85	1751.01
342.06	1720.29
342.27	1705.96
342.48	1730.53
342.69	1640.42
342.90	1785.83
343.12	1722.34
343.33	1687.53
343.54	1652.71
343.75	1796.07
343.96	1738.73
344.17	1648.61
344.38	1746.92
344.60	1693.67
344.81	1662.95
345.02	1632.23
345.23	1800.16
345.44	1820.64
345.65	1697.77
345.86	1746.92
346.07	1742.82
346.29	1730.53
346.50	1742.82
346.71	1708.01
346.92	1820.64
347.13	1853.41
347.34	1779.68
347.55	1716.20
347.76	1740.77
347.98	1652.71
348.19	1701.86
348.40	1812.45
348.61	1810.40
348.82	1740.77
349.03	1759.21
349.24	1652.71
349.45	1812.45
349.66	1634.28
349.88	1646.57
350.09	1677.29
350.30	1744.87
350.51	1775.59
350.72	1748.97
350.93	1673.19
351.14	1650.66
351.35	1685.48
351.56	1697.77
351.77	1650.66
351.99	1757.16
352.20	1732.58
352.41	1763.30
352.62	1597.42
352.83	1642.47
353.04	1724.39
353.25	1642.47
353.46	1812.45
353.67	1843.17
353.88	1634.28
354.09	1734.63
354.30	1658.85
354.52	1722.34
354.73	1695.72
354.94	1675.24
355.15	1736.68
355.36	1847.27
355.57	1761.25
355.78	1720.29
355.99	1683.43
356.20	1714.15
356.41	1755.11
356.62	1730.53
356.83	1785.83
357.04	1759.21
357.25	1640.42
357.46	1732.58
357.68	1718.25
357.89	1619.94
358.10	1730.53
358.31	1665.00
358.52	1732.58
358.73	1624.04
358.94	1710.05
359.15	1689.57
359.36	1683.43
359.57	1734.63
359.78	1740.77
359.99	1681.38
360.20	1595.37
360.41	1660.90
360.62	1757.16
360.83	1828.84
361.04	1691.62
361.25	1769.44
361.46	1742.82
361.67	1689.57
361.88	1773.54
362.09	1755.11
362.30	1742.82
362.51	1660.90
362.72	1681.38
362.93	1787.88
363.14	1791.97
363.35	1753.06
363.56	1669.09
363.78	1791.97
363.99	1744.87
364.20	1687.53
364.41	1693.67
364.62	1898.47
364.83	1777.64
365.04	1648.61
365.25	1609.70
365.46	1820.64
365.67	1669.09
365.88	1640.42
366.09	1755.11
366.30	1693.67
366.51	1714.15
366.72	1656.81
366.93	1726.44
367.14	1705.96
367.35	1871.84
367.56	1691.62
367.77	1779.68
367.98	1757.16
368.18	1681.38
368.39	1802.21
368.60	1652.71
368.81	1728.49
369.02	1808.36
369.23	1755.11
369.44	1599.46
369.65	1607.66
369.86	1699.81
370.07	1724.39
370.28	1665.00
370.49	1738.73
370.70	1769.44
370.91	1646.57
371.12	1693.67
371.33	1820.64
371.54	1632.23
371.75	1834.98
371.96	1615.85
372.17	1669.09
372.38	1636.33
372.59	1742.82
372.80	1628.14
373.01	1724.39
373.22	1671.14
373.43	1724.39
373.64	1669.09
373.85	1791.97
374.06	1761.25
374.26	1777.64
374.47	1685.48
374.68	1802.21
374.89	1806.31
375.10	1656.81
375.31	1810.40
375.52	1687.53
375.73	1746.92
375.94	1621.99
376.15	1820.64
376.36	1603.56
376.57	1650.66
376.78	1708.01
376.99	1796.07
377.20	1794.02
377.40	1665.00
377.61	1765.35
377.82	1679.33
378.03	1820.64
378.24	1748.97
378.45	1708.01
378.66	1712.10
378.87	1630.18
379.08	1634.28
379.29	1656.81
379.50	1763.30
379.71	1734.63
379.91	1718.25
380.12	1697.77
380.33	1740.77
380.54	1695.72
380.75	1679.33
380.96	1701.86
381.17	1828.84
381.38	1767.40
381.59	1755.11
381.80	1746.92
382.00	1789.92
382.21	1742.82
382.42	1888.23
382.63	1820.64
382.84	1806.31
383.05	1708.01
383.26	1857.51
383.47	1671.14
383.68	1779.68
383.88	1697.77
384.09	1732.58
384.30	1816.55
384.51	1800.16
384.72	1624.04
384.93	1656.81
385.14	1734.63
385.35	1763.30
385.55	1642.47
385.76	1738.73
385.97	1732.58
386.18	1624.04
386.39	1708.01
386.60	1755.11
386.81	1761.25
387.02	1730.53
387.22	1648.61
387.43	1777.64
387.64	1720.29
387.85	1929.19
388.06	2207.71
388.27	4317.12
388.48	6768.54
388.68	8374.14
388.89	9670.51
389.10	9832.30
389.31	8621.95
389.52	7577.48
389.73	6576.03
389.93	6254.50
390.14	5756.84
390.35	5142.45
390.56	4634.55
390.77	3690.44
390.98	3100.62
391.18	2443.23
391.39	2160.61
391.60	1853.41
391.81	1851.36
392.02	1751.01
392.23	1839.08
392.43	1746.92
392.64	1755.11
392.85	1783.78
393.06	1781.73
393.27	1681.38
393.47	1738.73
393.68	1771.49
393.89	1699.81
394.10	1841.12
394.31	1665.00
394.52	1636.33
394.72	1705.96
394.93	1746.92
395.14	1685.48
395.35	1683.43
395.56	1703.91
395.76	1705.96
395.97	1742.82
396.18	1800.16
396.39	1847.27
396.60	1986.53
396.80	1859.56
397.01	1834.98
397.22	1853.41
397.43	1865.70
397.64	1755.11
397.84	1863.65
398.05	1802.21
398.26	1751.01
398.47	1839.08
398.67	1695.72
398.88	1738.73
399.09	1726.44
399.30	1644.52
399.51	1814.50
399.71	1753.06
399.92	1699.81
400.13	1771.49
400.34	1718.25
400.54	1740.77
400.75	1843.17
400.96	1708.01
401.17	1777.64
401.37	1753.06
401.58	1718.25
401.79	1728.49
402.00	1961.95
402.21	2004.96
402.41	1935.33
402.62	1964.00
402.83	1929.19
403.04	1902.56
403.24	2021.35
403.45	1912.80
403.66	1908.71
403.87	1976.29
404.07	1970.15
404.28	1849.32
404.49	1904.61
404.70	1880.04
404.90	1740.77
405.11	1820.64
405.32	1671.14
405.52	1767.40
405.73	1714.15
405.94	1703.91
406.15	1685.48
406.35	1791.97
406.56	1830.88
406.77	1771.49
406.98	1748.97
407.18	1671.14
407.39	1810.40
407.60	1769.44
407.80	1775.59
408.01	1703.91
408.22	1701.86
408.43	1630.18
408.63	1748.97
408.84	1769.44
409.05	1730.53
409.25	1720.29
409.46	1617.90
409.67	1665.00
409.88	1689.57
410.08	1796.07
410.29	1669.09
410.50	1730.53
410.70	1755.11
410.91	1624.04
411.12	1781.73
411.32	1755.11
411.53	1718.25
411.74	1861.60
411.95	1761.25
412.15	1796.07
412.36	1800.16
412.57	1744.87
412.77	1765.35
412.98	1703.91
413.19	1730.53
413.39	1740.77
413.60	1804.26
413.81	1791.97
414.01	1693.67
414.22	1779.68
414.43	1730.53
414.63	1703.91
414.84	1757.16
415.05	1736.68
415.25	1695.72
415.46	1824.74
415.67	1624.04
415.87	1810.40
416.08	1697.77
416.29	1740.77
416.49	1712.10
416.70	1650.66
416.91	1708.01
417.11	1673.19
417.32	1800.16
417.53	1814.50
417.73	1710.05
417.94	1705.96
418.15	1804.26
418.35	1683.43
418.56	1755.11
418.77	1822.69
418.97	1753.06
419.18	1687.53
419.38	1626.09
419.59	1714.15
419.80	1746.92
420.00	1679.33
420.21	1687.53
420.42	1781.73
420.62	1716.20
420.83	1613.80
421.04	1724.39
421.24	1732.58
421.45	1763.30
421.65	1734.63
421.86	1691.62
422.07	1734.63
422.27	1681.38
422.48	1800.16
422.69	1748.97
422.89	1779.68
423.10	1679.33
423.30	1624.04
423.51	1730.53
423.72	1738.73
423.92	1691.62
424.13	1638.38
424.33	1742.82
424.54	1683.43
424.75	1720.29
424.95	1869.80
425.16	1712.10
425.36	1708.01
425.57	1712.10
425.78	1751.01
425.98	1726.44
426.19	1720.29
426.39	1642.47
426.60	1722.34
426.81	1839.08
427.01	1744.87
427.22	1705.96
427.42	1669.09
427.63	1660.90
427.83	1755.11
428.04	1814.50
428.25	1802.21
428.45	1771.49
428.66	1736.68
428.86	1751.01
429.07	1703.91
429.28	1742.82
429.48	1746.92
429.69	1615.85
429.89	1710.05
430.10	1681.38
430.30	1697.77
430.51	1759.21
430.71	1640.42
430.92	1767.40
431.13	1665.00
431.33	1755.11
431.54	1748.97
431.74	1798.12
431.95	1837.03
432.15	1691.62
432.36	1771.49
432.56	1689.57
432.77	1853.41
432.98	1806.31
433.18	1720.29
433.39	1742.82
433.59	1732.58
433.80	1771.49
434.00	1865.70
434.21	1660.90
434.41	1675.24
434.62	1859.56
434.82	1632.23
435.03	1718.25
435.23	1746.92
435.44	1669.09
435.64	1724.39
435.85	1820.64
436.06	1839.08
436.26	1830.88
436.47	1738.73
436.67	1689.57
436.88	1744.87
437.08	1791.97
437.29	1822.69
437.49	1761.25
437.70	1755.11
437.90	1720.29
438.11	1804.26
438.31	1751.01
438.52	1863.65
438.72	1851.36
438.93	1933.28
439.13	1845.22
439.34	1810.40
439.54	1712.10
439.75	1812.45
439.95	1800.16
440.16	1751.01
440.36	1665.00
440.57	1789.92
440.77	1740.77
440.98	1728.49
441.18	1824.74
441.39	1660.90
441.59	1683.43
441.80	1849.32
442.00	1681.38
442.21	1748.97
442.41	1746.92
442.62	1802.21
442.82	1740.77
443.02	1701.86
443.23	1771.49
443.43	1755.11
443.64	1771.49
443.84	1624.04
444.05	1826.79
444.25	1751.01
444.46	1687.53
444.66	1718.25
444.87	1765.35
445.07	1628.14
445.28	1652.71
445.48	1800.16
445.69	1753.06
445.89	1873.89
446.09	1830.88
446.30	2101.22
446.50	2648.02
446.71	3794.89
446.91	4276.16
447.12	4796.34
447.32	4896.69
447.53	4345.79
447.73	3737.54
447.93	3678.15
448.14	3282.89
448.34	3178.45
448.55	2934.74
448.75	2803.67
448.96	2752.47
449.16	2459.61
449.36	2271.20
449.57	2045.92
449.77	1888.23
449.98	1828.84
450.18	1894.37
450.39	1728.49
450.59	1734.63
450.79	1763.30
451.00	1751.01
451.20	1820.64
451.41	1726.44
451.61	1753.06
451.81	1744.87
452.02	1624.04
452.22	1667.05
452.43	1716.20
452.63	1753.06
