SpectraSuite Data File
++++++++++++++++++++++++++++++++++++
Date: Mon Jun 06 12:45:37 CEST 2016
User: root
Dark Spectrum Present: No
Reference Spectrum Present: No
Number of Sampled Component Spectra: 1
Spectrometers: USB4C02835
Integration Time (usec): 100000 (USB4C02835)
Spectra Averaged: 1 (USB4C02835)
Boxcar Smoothing: 0 (USB4C02835)
Correct for Electrical Dark: No (USB4C02835)
Strobe/Lamp Enabled: No (USB4C02835)
Correct for Detector Non-linearity: No (USB4C02835)
Correct for Stray Light: No (USB4C02835)
Number of Pixels in Processed Spectrum: 3648
>>>>>Begin Processed Spectral Data<<<<<
177.47	1425.39
177.69	1425.39
177.91	1425.39
178.13	1472.49
178.36	1439.72
178.58	1654.76
178.80	1712.10
179.02	1611.75
179.24	1656.81
179.46	1646.57
179.68	1814.50
179.90	1656.81
180.13	1648.61
180.35	1701.86
180.57	1591.27
180.79	1710.05
181.01	1656.81
181.23	1755.11
181.45	1761.25
181.67	1691.62
181.90	1716.20
182.12	1660.90
182.34	1632.23
182.56	1781.73
182.78	1710.05
183.00	1685.48
183.22	1769.44
183.44	1587.18
183.66	1832.93
183.89	1804.26
184.11	1738.73
184.33	1710.05
184.55	1800.16
184.77	1656.81
184.99	1720.29
185.21	1710.05
185.43	1828.84
185.65	1601.51
185.87	1722.34
186.10	1794.02
186.32	1802.21
186.54	1662.95
186.76	1740.77
186.98	1691.62
187.20	1697.77
187.42	1595.37
187.64	1632.23
187.86	1834.98
188.08	1720.29
188.30	1626.09
188.52	1681.38
188.75	1699.81
188.97	1746.92
189.19	1650.66
189.41	1671.14
189.63	1732.58
189.85	1705.96
190.07	1621.99
190.29	1671.14
190.51	1636.33
190.73	1560.55
190.95	1820.64
191.17	1642.47
191.39	1650.66
191.61	1585.13
191.84	1689.57
192.06	1722.34
192.28	1605.61
192.50	1841.12
192.72	1675.24
192.94	1656.81
193.16	1798.12
193.38	1810.40
193.60	1669.09
193.82	1648.61
194.04	1771.49
194.26	1679.33
194.48	1771.49
194.70	1703.91
194.92	1640.42
195.14	1714.15
195.36	1683.43
195.58	1761.25
195.80	1724.39
196.02	1724.39
196.24	1632.23
196.46	1724.39
196.69	1660.90
196.91	1794.02
197.13	1738.73
197.35	1648.61
197.57	1724.39
197.79	1695.72
198.01	1748.97
198.23	1677.29
198.45	1697.77
198.67	1654.76
198.89	1632.23
199.11	1685.48
199.33	1683.43
199.55	1607.66
199.77	1738.73
199.99	1826.79
200.21	1781.73
200.43	1701.86
200.65	1636.33
200.87	1552.36
201.09	1751.01
201.31	1611.75
201.53	1796.07
201.75	1759.21
201.97	1718.25
202.19	1710.05
202.41	1800.16
202.63	1845.22
202.85	1730.53
203.07	1691.62
203.29	1654.76
203.51	1667.05
203.73	1681.38
203.95	1853.41
204.17	1685.48
204.39	1759.21
204.61	1679.33
204.83	1726.44
205.05	1826.79
205.27	1742.82
205.49	1820.64
205.71	1705.96
205.93	1636.33
206.15	1644.52
206.37	1718.25
206.59	1673.19
206.81	1591.27
207.03	1667.05
207.25	1656.81
207.47	1677.29
207.69	1660.90
207.91	1791.97
208.13	1769.44
208.34	1654.76
208.56	1667.05
208.78	1673.19
209.00	1703.91
209.22	1703.91
209.44	1650.66
209.66	1648.61
209.88	1671.14
210.10	1665.00
210.32	1673.19
210.54	1726.44
210.76	1742.82
210.98	1697.77
211.20	1593.32
211.42	1753.06
211.64	1851.36
211.86	1679.33
212.08	1720.29
212.30	1765.35
212.52	1675.24
212.74	1705.96
212.96	1693.67
213.17	1742.82
213.39	1708.01
213.61	1746.92
213.83	1662.95
214.05	1628.14
214.27	1759.21
214.49	1671.14
214.71	1734.63
214.93	1720.29
215.15	1755.11
215.37	1763.30
215.59	1554.41
215.81	1687.53
216.03	1740.77
216.24	1677.29
216.46	1773.54
216.68	1656.81
216.90	1716.20
217.12	1789.92
217.34	1773.54
217.56	1732.58
217.78	1732.58
218.00	1767.40
218.22	1687.53
218.44	1697.77
218.66	1753.06
218.87	1765.35
219.09	1654.76
219.31	1755.11
219.53	1751.01
219.75	1640.42
219.97	1691.62
220.19	1714.15
220.41	1689.57
220.63	1800.16
220.85	1757.16
221.06	1699.81
221.28	1744.87
221.50	1738.73
221.72	1736.68
221.94	1718.25
222.16	1705.96
222.38	1787.88
222.60	1683.43
222.82	1636.33
223.03	1742.82
223.25	1587.18
223.47	1720.29
223.69	1789.92
223.91	1724.39
224.13	1705.96
224.35	1662.95
224.57	1757.16
224.78	1697.77
225.00	1671.14
225.22	1751.01
225.44	1689.57
225.66	1683.43
225.88	1693.67
226.10	1740.77
226.32	1730.53
226.53	1738.73
226.75	1693.67
226.97	1697.77
227.19	1757.16
227.41	1728.49
227.63	1732.58
227.85	1615.85
228.06	1736.68
228.28	1693.67
228.50	1740.77
228.72	1605.61
228.94	1732.58
229.16	1574.89
229.37	1609.70
229.59	1662.95
229.81	1753.06
230.03	1677.29
230.25	1628.14
230.47	1693.67
230.69	1609.70
230.90	1767.40
231.12	1665.00
231.34	1632.23
231.56	1712.10
231.78	1562.60
232.00	1722.34
232.21	1724.39
232.43	1755.11
232.65	1581.03
232.87	1740.77
233.09	1640.42
233.30	1689.57
233.52	1748.97
233.74	1763.30
233.96	1654.76
234.18	1734.63
234.40	1662.95
234.61	1781.73
234.83	1587.18
235.05	1609.70
235.27	1841.12
235.49	1763.30
235.70	1703.91
235.92	1794.02
236.14	1773.54
236.36	1867.75
236.58	1658.85
236.79	1703.91
237.01	1683.43
237.23	1669.09
237.45	1814.50
237.67	1634.28
237.88	1697.77
238.10	1812.45
238.32	1689.57
238.54	1662.95
238.76	1703.91
238.97	1648.61
239.19	1693.67
239.41	1724.39
239.63	1738.73
239.85	1724.39
240.06	1687.53
240.28	1685.48
240.50	1763.30
240.72	1716.20
240.93	1677.29
241.15	1787.88
241.37	1716.20
241.59	1806.31
241.81	1681.38
242.02	1669.09
242.24	1669.09
242.46	1746.92
242.68	1660.90
242.89	1773.54
243.11	1705.96
243.33	1693.67
243.55	1787.88
243.76	1679.33
243.98	1685.48
244.20	1703.91
244.42	1648.61
244.64	1656.81
244.85	1671.14
245.07	1730.53
245.29	1695.72
245.51	1667.05
245.72	1693.67
245.94	1703.91
246.16	1679.33
246.38	1822.69
246.59	1660.90
246.81	1669.09
247.03	1724.39
247.24	1658.85
247.46	1720.29
247.68	1716.20
247.90	1669.09
248.11	1583.08
248.33	1738.73
248.55	1742.82
248.77	1701.86
248.98	1783.78
249.20	1740.77
249.42	1695.72
249.64	1703.91
249.85	1673.19
250.07	1712.10
250.29	1773.54
250.50	1742.82
250.72	1632.23
250.94	1775.59
251.16	1783.78
251.37	1767.40
251.59	1759.21
251.81	1728.49
252.02	1839.08
252.24	1656.81
252.46	1804.26
252.68	1691.62
252.89	1710.05
253.11	1560.55
253.33	1804.26
253.54	1781.73
253.76	1671.14
253.98	1646.57
254.20	1716.20
254.41	1665.00
254.63	1665.00
254.85	1648.61
255.06	1656.81
255.28	1681.38
255.50	1740.77
255.71	1583.08
255.93	1632.23
256.15	1693.67
256.36	1640.42
256.58	1640.42
256.80	1740.77
257.02	1691.62
257.23	1646.57
257.45	1724.39
257.67	1767.40
257.88	1667.05
258.10	1703.91
258.32	1748.97
258.53	1671.14
258.75	1777.64
258.97	1685.48
259.18	1632.23
259.40	1720.29
259.62	1740.77
259.83	1796.07
260.05	1656.81
260.27	1978.34
260.48	1742.82
260.70	1669.09
260.92	1675.24
261.13	1570.79
261.35	1734.63
261.57	1714.15
261.78	1521.64
262.00	1626.09
262.22	1691.62
262.43	1675.24
262.65	1636.33
262.86	1697.77
263.08	1791.97
263.30	1744.87
263.51	1640.42
263.73	1675.24
263.95	1685.48
264.16	1689.57
264.38	1734.63
264.60	1746.92
264.81	1679.33
265.03	1656.81
265.25	1804.26
265.46	1624.04
265.68	1675.24
265.89	1673.19
266.11	1599.46
266.33	1724.39
266.54	1732.58
266.76	1708.01
266.98	1812.45
267.19	1783.78
267.41	1701.86
267.62	1599.46
267.84	1628.14
268.06	1728.49
268.27	1617.90
268.49	1759.21
268.70	1730.53
268.92	1685.48
269.14	1693.67
269.35	1632.23
269.57	1644.52
269.79	1779.68
270.00	1677.29
270.22	1765.35
270.43	1705.96
270.65	1611.75
270.87	1724.39
271.08	1675.24
271.30	1763.30
271.51	1685.48
271.73	1716.20
271.95	1796.07
272.16	1732.58
272.38	1667.05
272.59	1722.34
272.81	1687.53
273.02	1710.05
273.24	1722.34
273.46	1755.11
273.67	1722.34
273.89	1640.42
274.10	1619.94
274.32	1751.01
274.54	1761.25
274.75	1744.87
274.97	1691.62
275.18	1732.58
275.40	1742.82
275.61	1673.19
275.83	1740.77
276.05	1640.42
276.26	1675.24
276.48	1777.64
276.69	1683.43
276.91	1560.55
277.12	1699.81
277.34	1834.98
277.55	1744.87
277.77	1648.61
277.99	1630.18
278.20	1576.94
278.42	1656.81
278.63	1675.24
278.85	1640.42
279.06	1617.90
279.28	1734.63
279.49	1718.25
279.71	1701.86
279.93	1746.92
280.14	1714.15
280.36	1650.66
280.57	1718.25
280.79	1738.73
281.00	1701.86
281.22	1710.05
281.43	1751.01
281.65	1617.90
281.86	1642.47
282.08	1671.14
282.29	1775.59
282.51	1546.22
282.73	1675.24
282.94	1615.85
283.16	1759.21
283.37	1703.91
283.59	1703.91
283.80	1697.77
284.02	1673.19
284.23	1687.53
284.45	1685.48
284.66	1628.14
284.88	1689.57
285.09	1724.39
285.31	1746.92
285.52	1710.05
285.74	1634.28
285.95	1718.25
286.17	1785.83
286.38	1751.01
286.60	1695.72
286.81	1624.04
287.03	1611.75
287.24	1691.62
287.46	1681.38
287.67	1728.49
287.89	1767.40
288.10	1718.25
288.32	1654.76
288.53	1808.36
288.75	1701.86
288.96	1730.53
289.18	1615.85
289.39	1708.01
289.61	1802.21
289.82	1742.82
290.04	1824.74
290.25	1607.66
290.47	1662.95
290.68	1740.77
290.90	1748.97
291.11	1644.52
291.33	1755.11
291.54	1583.08
291.76	1693.67
291.97	1716.20
292.18	1736.68
292.40	1665.00
292.61	1615.85
292.83	1839.08
293.04	1681.38
293.26	1759.21
293.47	1681.38
293.69	1650.66
293.90	1716.20
294.12	1748.97
294.33	1710.05
294.55	1648.61
294.76	1679.33
294.97	1730.53
295.19	1791.97
295.40	1685.48
295.62	1712.10
295.83	1746.92
296.05	1632.23
296.26	1765.35
296.48	1681.38
296.69	1738.73
296.90	1708.01
297.12	1789.92
297.33	1689.57
297.55	1669.09
297.76	1683.43
297.98	1765.35
298.19	1669.09
298.41	1660.90
298.62	1761.25
298.83	1769.44
299.05	1705.96
299.26	1703.91
299.48	1742.82
299.69	1703.91
299.90	1746.92
300.12	1587.18
300.33	1701.86
300.55	1650.66
300.76	1665.00
300.98	1652.71
301.19	1804.26
301.40	1652.71
301.62	1730.53
301.83	1679.33
302.05	1665.00
302.26	1617.90
302.47	1712.10
302.69	1650.66
302.90	1720.29
303.12	1581.03
303.33	1748.97
303.54	1902.56
303.76	1650.66
303.97	1724.39
304.19	1667.05
304.40	1738.73
304.61	1697.77
304.83	1808.36
305.04	1777.64
305.26	1781.73
305.47	1634.28
305.68	1710.05
305.90	1626.09
306.11	1726.44
306.33	1734.63
306.54	1636.33
306.75	1699.81
306.97	1601.51
307.18	1703.91
307.39	1601.51
307.61	1665.00
307.82	1667.05
308.04	1728.49
308.25	1714.15
308.46	1687.53
308.68	1673.19
308.89	1689.57
309.10	1699.81
309.32	1673.19
309.53	1689.57
309.74	1695.72
309.96	1570.79
310.17	1775.59
310.39	1658.85
310.60	1787.88
310.81	1726.44
311.03	1642.47
311.24	1718.25
311.45	1701.86
311.67	1869.80
311.88	1724.39
312.09	1619.94
312.31	1667.05
312.52	1681.38
312.73	1687.53
312.95	1611.75
313.16	1699.81
313.37	1818.60
313.59	1710.05
313.80	1796.07
314.01	1765.35
314.23	1650.66
314.44	1681.38
314.65	1581.03
314.87	1691.62
315.08	1763.30
315.29	1578.98
315.51	1714.15
315.72	1638.38
315.93	1890.28
316.15	1773.54
316.36	1703.91
316.57	1673.19
316.79	1650.66
317.00	1701.86
317.21	1773.54
317.43	1671.14
317.64	1726.44
317.85	1648.61
318.07	1646.57
318.28	1679.33
318.49	1775.59
318.70	1927.14
318.92	1796.07
319.13	1830.88
319.34	1837.03
319.56	1834.98
319.77	1839.08
319.98	1712.10
320.20	1738.73
320.41	1714.15
320.62	1812.45
320.83	1646.57
321.05	1865.70
321.26	1732.58
321.47	1693.67
321.69	1812.45
321.90	1628.14
322.11	1697.77
322.32	1705.96
322.54	1738.73
322.75	1679.33
322.96	1882.08
323.18	1595.37
323.39	1566.70
323.60	1619.94
323.81	1714.15
324.03	1638.38
324.24	1644.52
324.45	1681.38
324.66	1716.20
324.88	1789.92
325.09	1767.40
325.30	1683.43
325.52	1654.76
325.73	1699.81
325.94	1736.68
326.15	1591.27
326.37	1691.62
326.58	1800.16
326.79	1822.69
327.00	1632.23
327.22	1693.67
327.43	1654.76
327.64	1626.09
327.85	1755.11
328.07	1665.00
328.28	1837.03
328.49	1652.71
328.70	1636.33
328.92	1695.72
329.13	1744.87
329.34	1718.25
329.55	1837.03
329.76	1726.44
329.98	1695.72
330.19	1757.16
330.40	1730.53
330.61	1746.92
330.83	1705.96
331.04	1693.67
331.25	1638.38
331.46	1679.33
331.68	1636.33
331.89	1740.77
332.10	1662.95
332.31	1665.00
332.52	1624.04
332.74	1746.92
332.95	1566.70
333.16	1681.38
333.37	1683.43
333.58	1718.25
333.80	1730.53
334.01	1658.85
334.22	1687.53
334.43	1722.34
334.64	1751.01
334.86	1581.03
335.07	1675.24
335.28	1789.92
335.49	1544.17
335.70	1767.40
335.92	1761.25
336.13	1804.26
336.34	1785.83
336.55	1710.05
336.76	1714.15
336.98	1587.18
337.19	1742.82
337.40	1806.31
337.61	1834.98
337.82	1658.85
338.04	1789.92
338.25	1601.51
338.46	1705.96
338.67	1642.47
338.88	1613.80
339.09	1665.00
339.31	1609.70
339.52	1714.15
339.73	1710.05
339.94	1675.24
340.15	1748.97
340.36	1613.80
340.58	1656.81
340.79	1640.42
341.00	1701.86
341.21	1642.47
341.42	1796.07
341.63	1757.16
341.85	1742.82
342.06	1701.86
342.27	1665.00
342.48	1708.01
342.69	1595.37
342.90	1665.00
343.12	1826.79
343.33	1681.38
343.54	1742.82
343.75	1738.73
343.96	1701.86
344.17	1683.43
344.38	1601.51
344.60	1650.66
344.81	1589.22
345.02	1705.96
345.23	1828.84
345.44	1773.54
345.65	1693.67
345.86	1722.34
346.07	1681.38
346.29	1652.71
346.50	1669.09
346.71	1781.73
346.92	1806.31
347.13	1751.01
347.34	1720.29
347.55	1675.24
347.76	1701.86
347.98	1638.38
348.19	1636.33
348.40	1783.78
348.61	1556.46
348.82	1753.06
349.03	1732.58
349.24	1681.38
349.45	1769.44
349.66	1578.98
349.88	1744.87
350.09	1640.42
350.30	1804.26
350.51	1834.98
350.72	1677.29
350.93	1775.59
351.14	1722.34
351.35	1746.92
351.56	1804.26
351.77	1722.34
351.99	1763.30
352.20	1832.93
352.41	1726.44
352.62	1548.26
352.83	1660.90
353.04	1710.05
353.25	1636.33
353.46	1771.49
353.67	1755.11
353.88	1648.61
354.09	1787.88
354.30	1710.05
354.52	1695.72
354.73	1656.81
354.94	1648.61
355.15	1679.33
355.36	1814.50
355.57	1665.00
355.78	1726.44
355.99	1689.57
356.20	1726.44
356.41	1767.40
356.62	1759.21
356.83	1667.05
357.04	1822.69
357.25	1621.99
357.46	1683.43
357.68	1667.05
357.89	1656.81
358.10	1673.19
358.31	1617.90
358.52	1718.25
358.73	1628.14
358.94	1683.43
359.15	1726.44
359.36	1728.49
359.57	1734.63
359.78	1724.39
359.99	1734.63
360.20	1621.99
360.41	1718.25
360.62	1675.24
360.83	1708.01
361.04	1673.19
361.25	1726.44
361.46	1742.82
361.67	1826.79
361.88	1740.77
362.09	1798.12
362.30	1675.24
362.51	1654.76
362.72	1705.96
362.93	1730.53
363.14	1726.44
363.35	1726.44
363.56	1695.72
363.78	1744.87
363.99	1765.35
364.20	1652.71
364.41	1746.92
364.62	1812.45
364.83	1746.92
365.04	1718.25
365.25	1665.00
365.46	1849.32
365.67	1605.61
365.88	1687.53
366.09	1679.33
366.30	1677.29
366.51	1695.72
366.72	1615.85
366.93	1677.29
367.14	1767.40
367.35	1767.40
367.56	1605.61
367.77	1740.77
367.98	1662.95
368.18	1691.62
368.39	1712.10
368.60	1624.04
368.81	1763.30
369.02	1708.01
369.23	1714.15
369.44	1601.51
369.65	1667.05
369.86	1730.53
370.07	1789.92
370.28	1681.38
370.49	1724.39
370.70	1753.06
370.91	1679.33
371.12	1640.42
371.33	1728.49
371.54	1699.81
371.75	1816.55
371.96	1564.65
372.17	1722.34
372.38	1742.82
372.59	1718.25
372.80	1699.81
373.01	1705.96
373.22	1701.86
373.43	1683.43
373.64	1652.71
373.85	1771.49
374.06	1794.02
374.26	1662.95
374.47	1722.34
374.68	1824.74
374.89	1726.44
375.10	1634.28
375.31	1738.73
375.52	1759.21
375.73	1734.63
375.94	1703.91
376.15	1740.77
376.36	1679.33
376.57	1613.80
376.78	1628.14
376.99	1705.96
377.20	1816.55
377.40	1669.09
377.61	1791.97
377.82	1632.23
378.03	1755.11
378.24	1734.63
378.45	1708.01
378.66	1701.86
378.87	1662.95
379.08	1683.43
379.29	1746.92
379.50	1785.83
379.71	1681.38
379.91	1755.11
380.12	1681.38
380.33	1714.15
380.54	1728.49
380.75	1675.24
380.96	1720.29
381.17	1705.96
381.38	1679.33
381.59	1742.82
381.80	1697.77
382.00	1832.93
382.21	1789.92
382.42	1804.26
382.63	1966.05
382.84	1759.21
383.05	1757.16
383.26	1712.10
383.47	1779.68
383.68	1806.31
383.88	1789.92
384.09	1730.53
384.30	1814.50
384.51	1710.05
384.72	1667.05
384.93	1601.51
385.14	1718.25
385.35	1804.26
385.55	1656.81
385.76	1849.32
385.97	1716.20
386.18	1628.14
386.39	1695.72
386.60	1732.58
386.81	1751.01
387.02	1648.61
387.22	1640.42
387.43	1802.21
387.64	1744.87
387.85	1918.95
388.06	2197.47
388.27	4284.35
388.48	6729.63
388.68	8277.89
388.89	9676.65
389.10	9754.48
389.31	8638.33
389.52	7432.08
389.73	6766.49
389.93	6104.99
390.14	5943.21
390.35	5181.36
390.56	4626.36
390.77	3753.93
390.98	3096.53
391.18	2459.61
391.39	2117.60
391.60	2000.87
391.81	1890.28
392.02	1740.77
392.23	1830.88
392.43	1697.77
392.64	1701.86
392.85	1685.48
393.06	1861.60
393.27	1705.96
393.47	1683.43
393.68	1734.63
393.89	1638.38
394.10	1765.35
394.31	1619.94
394.52	1640.42
394.72	1648.61
394.93	1812.45
395.14	1679.33
395.35	1681.38
395.56	1585.13
395.76	1714.15
395.97	1703.91
396.18	1880.04
396.39	1824.74
396.60	2066.40
396.80	1898.47
397.01	1804.26
397.22	1867.75
397.43	1877.99
397.64	1654.76
397.84	1783.78
398.05	1923.04
398.26	1816.55
398.47	1796.07
398.67	1753.06
398.88	1726.44
399.09	1675.24
399.30	1562.60
399.51	1763.30
399.71	1609.70
399.92	1755.11
400.13	1708.01
400.34	1716.20
400.54	1767.40
400.75	1744.87
400.96	1658.85
401.17	1748.97
401.37	1675.24
401.58	1654.76
401.79	1687.53
402.00	1834.98
402.21	2021.35
402.41	1966.05
402.62	1959.91
402.83	2041.82
403.04	2050.02
403.24	2078.69
403.45	1724.39
403.66	1849.32
403.87	1845.22
404.07	1927.14
404.28	1857.51
404.49	1808.36
404.70	1769.44
404.90	1769.44
405.11	1748.97
405.32	1765.35
405.52	1619.94
405.73	1677.29
405.94	1654.76
406.15	1677.29
406.35	1796.07
406.56	1712.10
406.77	1755.11
406.98	1705.96
407.18	1603.56
407.39	1779.68
407.60	1652.71
407.80	1701.86
408.01	1675.24
408.22	1726.44
408.43	1662.95
408.63	1718.25
408.84	1787.88
409.05	1687.53
409.25	1669.09
409.46	1634.28
409.67	1708.01
409.88	1732.58
410.08	1751.01
410.29	1718.25
410.50	1798.12
410.70	1736.68
410.91	1705.96
411.12	1683.43
411.32	1681.38
411.53	1632.23
411.74	1697.77
411.95	1787.88
412.15	1791.97
412.36	1787.88
412.57	1748.97
412.77	1767.40
412.98	1746.92
413.19	1634.28
413.39	1757.16
413.60	1859.56
413.81	1773.54
414.01	1640.42
414.22	1763.30
414.43	1783.78
414.63	1677.29
414.84	1705.96
415.05	1656.81
415.25	1703.91
415.46	1660.90
415.67	1632.23
415.87	1738.73
416.08	1687.53
416.29	1673.19
416.49	1730.53
416.70	1642.47
416.91	1699.81
417.11	1800.16
417.32	1722.34
417.53	1718.25
417.73	1765.35
417.94	1689.57
418.15	1697.77
418.35	1681.38
418.56	1751.01
418.77	1832.93
418.97	1658.85
419.18	1619.94
419.38	1566.70
419.59	1740.77
419.80	1761.25
420.00	1642.47
420.21	1753.06
420.42	1777.64
420.62	1718.25
420.83	1716.20
421.04	1611.75
421.24	1679.33
421.45	1759.21
421.65	1736.68
421.86	1642.47
422.07	1820.64
422.27	1753.06
422.48	1810.40
422.69	1611.75
422.89	1791.97
423.10	1665.00
423.30	1648.61
423.51	1652.71
423.72	1726.44
423.92	1712.10
424.13	1644.52
424.33	1693.67
424.54	1832.93
424.75	1751.01
424.95	1779.68
425.16	1753.06
425.36	1648.61
425.57	1755.11
425.78	1755.11
425.98	1740.77
426.19	1603.56
426.39	1603.56
426.60	1642.47
426.81	1796.07
427.01	1724.39
427.22	1730.53
427.42	1658.85
427.63	1609.70
427.83	1734.63
428.04	1787.88
428.25	1796.07
428.45	1761.25
428.66	1742.82
428.86	1714.15
429.07	1689.57
429.28	1726.44
429.48	1710.05
429.69	1636.33
429.89	1744.87
430.10	1601.51
430.30	1783.78
430.51	1740.77
430.71	1662.95
430.92	1738.73
431.13	1621.99
431.33	1685.48
431.54	1742.82
431.74	1783.78
431.95	1751.01
432.15	1652.71
432.36	1669.09
432.56	1759.21
432.77	1818.60
432.98	1781.73
433.18	1638.38
433.39	1718.25
433.59	1693.67
433.80	1755.11
434.00	1867.75
434.21	1646.57
434.41	1710.05
434.62	1843.17
434.82	1646.57
435.03	1691.62
435.23	1718.25
435.44	1636.33
435.64	1728.49
435.85	1757.16
436.06	1736.68
436.26	1789.92
436.47	1753.06
436.67	1658.85
436.88	1712.10
437.08	1742.82
437.29	1865.70
437.49	1765.35
437.70	1742.82
437.90	1673.19
438.11	1802.21
438.31	1728.49
438.52	1806.31
438.72	1867.75
438.93	1974.24
439.13	1683.43
439.34	1773.54
439.54	1705.96
439.75	1837.03
439.95	1708.01
440.16	1703.91
440.36	1781.73
440.57	1712.10
440.77	1767.40
440.98	1712.10
441.18	1765.35
441.39	1632.23
441.59	1638.38
441.80	1816.55
442.00	1738.73
442.21	1748.97
442.41	1636.33
442.62	1720.29
442.82	1699.81
443.02	1761.25
443.23	1642.47
443.43	1683.43
443.64	1794.02
443.84	1687.53
444.05	1802.21
444.25	1714.15
444.46	1640.42
444.66	1773.54
444.87	1845.22
445.07	1648.61
445.28	1724.39
445.48	1824.74
445.69	1875.94
445.89	1789.92
446.09	1748.97
446.30	2064.35
446.50	2691.03
446.71	3631.05
446.91	4253.63
447.12	4794.29
447.32	4765.62
447.53	4196.29
447.73	3987.40
447.93	3551.18
448.14	3334.09
448.34	3100.62
448.55	2834.39
448.75	2901.97
448.96	2645.98
449.16	2420.70
449.36	2281.44
449.57	2115.55
449.77	1929.19
449.98	1769.44
450.18	1832.93
450.39	1859.56
450.59	1746.92
450.79	1730.53
451.00	1640.42
451.20	1693.67
451.41	1720.29
451.61	1673.19
451.81	1683.43
452.02	1783.78
452.22	1755.11
452.43	1697.77
452.63	1714.15
