SpectraSuite Data File
++++++++++++++++++++++++++++++++++++
Date: Mon Jun 06 12:34:57 CEST 2016
User: root
Dark Spectrum Present: No
Reference Spectrum Present: No
Number of Sampled Component Spectra: 1
Spectrometers: USB4C02835
Integration Time (usec): 100000 (USB4C02835)
Spectra Averaged: 1 (USB4C02835)
Boxcar Smoothing: 0 (USB4C02835)
Correct for Electrical Dark: No (USB4C02835)
Strobe/Lamp Enabled: No (USB4C02835)
Correct for Detector Non-linearity: No (USB4C02835)
Correct for Stray Light: No (USB4C02835)
Number of Pixels in Processed Spectrum: 3648
>>>>>Begin Processed Spectral Data<<<<<
177.47	1505.26
177.69	1505.26
177.91	1505.26
178.13	1492.97
178.36	1464.30
178.58	1619.94
178.80	1757.16
179.02	1619.94
179.24	1609.70
179.46	1673.19
179.68	1728.49
179.90	1607.66
180.13	1730.53
180.35	1642.47
180.57	1712.10
180.79	1722.34
181.01	1683.43
181.23	1726.44
181.45	1806.31
181.67	1681.38
181.90	1742.82
182.12	1603.56
182.34	1619.94
182.56	1738.73
182.78	1599.46
183.00	1720.29
183.22	1699.81
183.44	1615.85
183.66	1775.59
183.89	1679.33
184.11	1716.20
184.33	1691.62
184.55	1828.84
184.77	1736.68
184.99	1748.97
185.21	1652.71
185.43	1951.71
185.65	1656.81
185.87	1697.77
186.10	1822.69
186.32	1839.08
186.54	1685.48
186.76	1744.87
186.98	1710.05
187.20	1626.09
187.42	1710.05
187.64	1767.40
187.86	1722.34
188.08	1796.07
188.30	1732.58
188.52	1710.05
188.75	1718.25
188.97	1830.88
189.19	1665.00
189.41	1712.10
189.63	1701.86
189.85	1638.38
190.07	1646.57
190.29	1718.25
190.51	1636.33
190.73	1646.57
190.95	1755.11
191.17	1665.00
191.39	1656.81
191.61	1636.33
191.84	1660.90
192.06	1701.86
192.28	1697.77
192.50	1894.37
192.72	1783.78
192.94	1677.29
193.16	1789.92
193.38	1695.72
193.60	1708.01
193.82	1701.86
194.04	1710.05
194.26	1716.20
194.48	1679.33
194.70	1681.38
194.92	1687.53
195.14	1763.30
195.36	1660.90
195.58	1654.76
195.80	1656.81
196.02	1736.68
196.24	1681.38
196.46	1646.57
196.69	1665.00
196.91	1865.70
197.13	1765.35
197.35	1624.04
197.57	1748.97
197.79	1775.59
198.01	1701.86
198.23	1720.29
198.45	1716.20
198.67	1642.47
198.89	1671.14
199.11	1695.72
199.33	1665.00
199.55	1562.60
199.77	1689.57
199.99	1791.97
200.21	1699.81
200.43	1728.49
200.65	1669.09
200.87	1691.62
201.09	1681.38
201.31	1652.71
201.53	1789.92
201.75	1681.38
201.97	1759.21
202.19	1705.96
202.41	1660.90
202.63	1832.93
202.85	1718.25
203.07	1746.92
203.29	1679.33
203.51	1648.61
203.73	1728.49
203.95	1806.31
204.17	1677.29
204.39	1697.77
204.61	1687.53
204.83	1683.43
205.05	1787.88
205.27	1773.54
205.49	1775.59
205.71	1759.21
205.93	1630.18
206.15	1665.00
206.37	1726.44
206.59	1621.99
206.81	1699.81
207.03	1644.52
207.25	1632.23
207.47	1726.44
207.69	1667.05
207.91	1765.35
208.13	1791.97
208.34	1665.00
208.56	1648.61
208.78	1740.77
209.00	1722.34
209.22	1693.67
209.44	1691.62
209.66	1564.65
209.88	1730.53
210.10	1650.66
210.32	1660.90
210.54	1701.86
210.76	1701.86
210.98	1771.49
211.20	1675.24
211.42	1658.85
211.64	1744.87
211.86	1759.21
212.08	1740.77
212.30	1685.48
212.52	1748.97
212.74	1720.29
212.96	1667.05
213.17	1845.22
213.39	1705.96
213.61	1771.49
213.83	1662.95
214.05	1597.42
214.27	1761.25
214.49	1511.40
214.71	1650.66
214.93	1716.20
215.15	1673.19
215.37	1714.15
215.59	1630.18
215.81	1689.57
216.03	1787.88
216.24	1708.01
216.46	1632.23
216.68	1724.39
216.90	1751.01
217.12	1773.54
217.34	1714.15
217.56	1742.82
217.78	1716.20
218.00	1677.29
218.22	1705.96
218.44	1677.29
218.66	1638.38
218.87	1744.87
219.09	1705.96
219.31	1775.59
219.53	1769.44
219.75	1712.10
219.97	1699.81
220.19	1660.90
220.41	1714.15
220.63	1691.62
220.85	1753.06
221.06	1587.18
221.28	1730.53
221.50	1718.25
221.72	1665.00
221.94	1673.19
222.16	1755.11
222.38	1638.38
222.60	1804.26
222.82	1671.14
223.03	1683.43
223.25	1677.29
223.47	1802.21
223.69	1816.55
223.91	1755.11
224.13	1681.38
224.35	1673.19
224.57	1738.73
224.78	1689.57
225.00	1648.61
225.22	1640.42
225.44	1730.53
225.66	1783.78
225.88	1658.85
226.10	1738.73
226.32	1728.49
226.53	1787.88
226.75	1765.35
226.97	1689.57
227.19	1800.16
227.41	1595.37
227.63	1644.52
227.85	1570.79
228.06	1718.25
228.28	1744.87
228.50	1662.95
228.72	1640.42
228.94	1636.33
229.16	1646.57
229.37	1636.33
229.59	1714.15
229.81	1769.44
230.03	1658.85
230.25	1615.85
230.47	1681.38
230.69	1652.71
230.90	1796.07
231.12	1689.57
231.34	1751.01
231.56	1732.58
231.78	1757.16
232.00	1728.49
232.21	1673.19
232.43	1683.43
232.65	1654.76
232.87	1736.68
233.09	1716.20
233.30	1683.43
233.52	1785.83
233.74	1763.30
233.96	1624.04
234.18	1703.91
234.40	1648.61
234.61	1783.78
234.83	1605.61
235.05	1574.89
235.27	1794.02
235.49	1757.16
235.70	1746.92
235.92	1791.97
236.14	1699.81
236.36	1818.60
236.58	1681.38
236.79	1810.40
237.01	1755.11
237.23	1650.66
237.45	1740.77
237.67	1615.85
237.88	1671.14
238.10	1880.04
238.32	1652.71
238.54	1787.88
238.76	1675.24
238.97	1681.38
239.19	1595.37
239.41	1759.21
239.63	1710.05
239.85	1757.16
240.06	1689.57
240.28	1738.73
240.50	1779.68
240.72	1722.34
240.93	1660.90
241.15	1740.77
241.37	1687.53
241.59	1748.97
241.81	1777.64
242.02	1667.05
242.24	1748.97
242.46	1681.38
242.68	1615.85
242.89	1771.49
243.11	1710.05
243.33	1621.99
243.55	1638.38
243.76	1781.73
243.98	1648.61
244.20	1669.09
244.42	1638.38
244.64	1732.58
244.85	1585.13
245.07	1617.90
245.29	1751.01
245.51	1757.16
245.72	1665.00
245.94	1761.25
246.16	1761.25
246.38	1769.44
246.59	1687.53
246.81	1576.94
247.03	1669.09
247.24	1599.46
247.46	1630.18
247.68	1634.28
247.90	1595.37
248.11	1656.81
248.33	1744.87
248.55	1705.96
248.77	1687.53
248.98	1759.21
249.20	1832.93
249.42	1697.77
249.64	1701.86
249.85	1636.33
250.07	1714.15
250.29	1708.01
250.50	1742.82
250.72	1589.22
250.94	1675.24
251.16	1736.68
251.37	1812.45
251.59	1751.01
251.81	1697.77
252.02	1771.49
252.24	1705.96
252.46	1820.64
252.68	1632.23
252.89	1626.09
253.11	1693.67
253.33	1757.16
253.54	1767.40
253.76	1642.47
253.98	1708.01
254.20	1685.48
254.41	1570.79
254.63	1603.56
254.85	1644.52
255.06	1671.14
255.28	1701.86
255.50	1642.47
255.71	1634.28
255.93	1583.08
256.15	1757.16
256.36	1667.05
256.58	1650.66
256.80	1642.47
257.02	1687.53
257.23	1746.92
257.45	1714.15
257.67	1681.38
257.88	1695.72
258.10	1726.44
258.32	1728.49
258.53	1697.77
258.75	1781.73
258.97	1705.96
259.18	1726.44
259.40	1701.86
259.62	1712.10
259.83	1726.44
260.05	1826.79
260.27	1951.71
260.48	1746.92
260.70	1650.66
260.92	1730.53
261.13	1677.29
261.35	1687.53
261.57	1677.29
261.78	1710.05
262.00	1679.33
262.22	1681.38
262.43	1712.10
262.65	1665.00
262.86	1714.15
263.08	1877.99
263.30	1695.72
263.51	1599.46
263.73	1697.77
263.95	1691.62
264.16	1695.72
264.38	1617.90
264.60	1748.97
264.81	1665.00
265.03	1751.01
265.25	1796.07
265.46	1703.91
265.68	1714.15
265.89	1775.59
266.11	1572.84
266.33	1648.61
266.54	1779.68
266.76	1759.21
266.98	1667.05
267.19	1763.30
267.41	1734.63
267.62	1665.00
267.84	1634.28
268.06	1759.21
268.27	1665.00
268.49	1740.77
268.70	1730.53
268.92	1755.11
269.14	1687.53
269.35	1632.23
269.57	1658.85
269.79	1785.83
270.00	1746.92
270.22	1767.40
270.43	1628.14
270.65	1509.35
270.87	1771.49
271.08	1761.25
271.30	1699.81
271.51	1689.57
271.73	1712.10
271.95	1779.68
272.16	1687.53
272.38	1705.96
272.59	1642.47
272.81	1748.97
273.02	1773.54
273.24	1728.49
273.46	1716.20
273.67	1665.00
273.89	1728.49
274.10	1617.90
274.32	1765.35
274.54	1705.96
274.75	1757.16
274.97	1638.38
275.18	1742.82
275.40	1740.77
275.61	1701.86
275.83	1677.29
276.05	1619.94
276.26	1615.85
276.48	1742.82
276.69	1660.90
276.91	1708.01
277.12	1861.60
277.34	1722.34
277.55	1812.45
277.77	1683.43
277.99	1693.67
278.20	1624.04
278.42	1605.61
278.63	1683.43
278.85	1705.96
279.06	1642.47
279.28	1748.97
279.49	1755.11
279.71	1656.81
279.93	1710.05
280.14	1699.81
280.36	1654.76
280.57	1779.68
280.79	1746.92
281.00	1691.62
281.22	1667.05
281.43	1744.87
281.65	1578.98
281.86	1603.56
282.08	1740.77
282.29	1802.21
282.51	1613.80
282.73	1632.23
282.94	1591.27
283.16	1693.67
283.37	1820.64
283.59	1626.09
283.80	1746.92
284.02	1658.85
284.23	1679.33
284.45	1675.24
284.66	1683.43
284.88	1650.66
285.09	1697.77
285.31	1736.68
285.52	1685.48
285.74	1558.50
285.95	1722.34
286.17	1652.71
286.38	1740.77
286.60	1595.37
286.81	1691.62
287.03	1660.90
287.24	1677.29
287.46	1761.25
287.67	1746.92
287.89	1834.98
288.10	1638.38
288.32	1626.09
288.53	1783.78
288.75	1738.73
288.96	1708.01
289.18	1724.39
289.39	1648.61
289.61	1718.25
289.82	1746.92
290.04	1830.88
290.25	1683.43
290.47	1658.85
290.68	1617.90
290.90	1714.15
291.11	1601.51
291.33	1744.87
291.54	1691.62
291.76	1626.09
291.97	1718.25
292.18	1753.06
292.40	1609.70
292.61	1705.96
292.83	1857.51
293.04	1742.82
293.26	1630.18
293.47	1732.58
293.69	1619.94
293.90	1728.49
294.12	1708.01
294.33	1734.63
294.55	1763.30
294.76	1705.96
294.97	1763.30
295.19	1816.55
295.40	1673.19
295.62	1644.52
295.83	1732.58
296.05	1677.29
296.26	1775.59
296.48	1624.04
296.69	1695.72
296.90	1654.76
297.12	1710.05
297.33	1683.43
297.55	1728.49
297.76	1650.66
297.98	1712.10
298.19	1691.62
298.41	1722.34
298.62	1601.51
298.83	1798.12
299.05	1693.67
299.26	1722.34
299.48	1650.66
299.69	1693.67
299.90	1773.54
300.12	1624.04
300.33	1722.34
300.55	1716.20
300.76	1708.01
300.98	1626.09
301.19	1744.87
301.40	1705.96
301.62	1689.57
301.83	1728.49
302.05	1642.47
302.26	1740.77
302.47	1732.58
302.69	1642.47
302.90	1736.68
303.12	1632.23
303.33	1714.15
303.54	1804.26
303.76	1667.05
303.97	1708.01
304.19	1765.35
304.40	1624.04
304.61	1738.73
304.83	1773.54
305.04	1779.68
305.26	1683.43
305.47	1650.66
305.68	1642.47
305.90	1650.66
306.11	1708.01
306.33	1757.16
306.54	1677.29
306.75	1611.75
306.97	1574.89
307.18	1642.47
307.39	1708.01
307.61	1748.97
307.82	1728.49
308.04	1716.20
308.25	1722.34
308.46	1705.96
308.68	1636.33
308.89	1699.81
309.10	1712.10
309.32	1708.01
309.53	1669.09
309.74	1736.68
309.96	1732.58
310.17	1761.25
310.39	1675.24
310.60	1695.72
310.81	1687.53
311.03	1665.00
311.24	1787.88
311.45	1667.05
311.67	1808.36
311.88	1665.00
312.09	1714.15
312.31	1656.81
312.52	1722.34
312.73	1732.58
312.95	1605.61
313.16	1634.28
313.37	1734.63
313.59	1697.77
313.80	1710.05
314.01	1779.68
314.23	1689.57
314.44	1687.53
314.65	1570.79
314.87	1726.44
315.08	1703.91
315.29	1652.71
315.51	1615.85
315.72	1693.67
315.93	1789.92
316.15	1748.97
316.36	1576.94
316.57	1621.99
316.79	1781.73
317.00	1673.19
317.21	1726.44
317.43	1609.70
317.64	1705.96
317.85	1689.57
318.07	1691.62
318.28	1759.21
318.49	1830.88
318.70	1839.08
318.92	1822.69
319.13	1916.90
319.34	1830.88
319.56	1732.58
319.77	1755.11
319.98	1800.16
320.20	1769.44
320.41	1779.68
320.62	1689.57
320.83	1636.33
321.05	1834.98
321.26	1673.19
321.47	1669.09
321.69	1787.88
321.90	1609.70
322.11	1687.53
322.32	1710.05
322.54	1775.59
322.75	1689.57
322.96	1730.53
323.18	1671.14
323.39	1574.89
323.60	1640.42
323.81	1767.40
324.03	1740.77
324.24	1644.52
324.45	1689.57
324.66	1636.33
324.88	1777.64
325.09	1808.36
325.30	1634.28
325.52	1650.66
325.73	1728.49
325.94	1697.77
326.15	1574.89
326.37	1671.14
326.58	1765.35
326.79	1775.59
327.00	1566.70
327.22	1765.35
327.43	1697.77
327.64	1626.09
327.85	1718.25
328.07	1771.49
328.28	1775.59
328.49	1638.38
328.70	1769.44
328.92	1703.91
329.13	1683.43
329.34	1689.57
329.55	1832.93
329.76	1748.97
329.98	1613.80
330.19	1804.26
330.40	1718.25
330.61	1708.01
330.83	1736.68
331.04	1615.85
331.25	1728.49
331.46	1689.57
331.68	1652.71
331.89	1697.77
332.10	1687.53
332.31	1642.47
332.52	1665.00
332.74	1687.53
332.95	1662.95
333.16	1632.23
333.37	1757.16
333.58	1669.09
333.80	1742.82
334.01	1583.08
334.22	1636.33
334.43	1716.20
334.64	1660.90
334.86	1724.39
335.07	1630.18
335.28	1742.82
335.49	1611.75
335.70	1701.86
335.92	1740.77
336.13	1861.60
336.34	1748.97
336.55	1665.00
336.76	1791.97
336.98	1650.66
337.19	1640.42
337.40	1837.03
337.61	1806.31
337.82	1687.53
338.04	1810.40
338.25	1617.90
338.46	1701.86
338.67	1724.39
338.88	1673.19
339.09	1632.23
339.31	1636.33
339.52	1648.61
339.73	1660.90
339.94	1591.27
340.15	1757.16
340.36	1679.33
340.58	1656.81
340.79	1656.81
341.00	1701.86
341.21	1562.60
341.42	1845.22
341.63	1701.86
341.85	1701.86
342.06	1597.42
342.27	1658.85
342.48	1732.58
342.69	1548.26
342.90	1806.31
343.12	1699.81
343.33	1697.77
343.54	1740.77
343.75	1683.43
343.96	1710.05
344.17	1607.66
344.38	1689.57
344.60	1685.48
344.81	1521.64
345.02	1718.25
345.23	1781.73
345.44	1832.93
345.65	1705.96
345.86	1699.81
346.07	1755.11
346.29	1648.61
346.50	1644.52
346.71	1716.20
346.92	1761.25
347.13	1865.70
347.34	1716.20
347.55	1658.85
347.76	1681.38
347.98	1636.33
348.19	1683.43
348.40	1755.11
348.61	1630.18
348.82	1775.59
349.03	1687.53
349.24	1650.66
349.45	1837.03
349.66	1624.04
349.88	1660.90
350.09	1658.85
350.30	1806.31
350.51	1787.88
350.72	1763.30
350.93	1734.63
351.14	1646.57
351.35	1769.44
351.56	1734.63
351.77	1679.33
351.99	1730.53
352.20	1812.45
352.41	1798.12
352.62	1583.08
352.83	1705.96
353.04	1685.48
353.25	1695.72
353.46	1751.01
353.67	1716.20
353.88	1624.04
354.09	1662.95
354.30	1689.57
354.52	1689.57
354.73	1697.77
354.94	1628.14
355.15	1722.34
355.36	1832.93
355.57	1656.81
355.78	1722.34
355.99	1728.49
356.20	1695.72
356.41	1718.25
356.62	1669.09
356.83	1628.14
357.04	1796.07
357.25	1552.36
357.46	1658.85
357.68	1621.99
357.89	1718.25
358.10	1615.85
358.31	1685.48
358.52	1648.61
358.73	1619.94
358.94	1630.18
359.15	1667.05
359.36	1759.21
359.57	1771.49
359.78	1691.62
359.99	1740.77
360.20	1593.32
360.41	1669.09
360.62	1783.78
360.83	1746.92
361.04	1689.57
361.25	1695.72
361.46	1757.16
361.67	1806.31
361.88	1720.29
362.09	1753.06
362.30	1667.05
362.51	1669.09
362.72	1730.53
362.93	1716.20
363.14	1734.63
363.35	1695.72
363.56	1703.91
363.78	1800.16
363.99	1736.68
364.20	1693.67
364.41	1722.34
364.62	1800.16
364.83	1757.16
365.04	1710.05
365.25	1671.14
365.46	1875.94
365.67	1675.24
365.88	1705.96
366.09	1628.14
366.30	1654.76
366.51	1697.77
366.72	1603.56
366.93	1771.49
367.14	1665.00
367.35	1732.58
367.56	1759.21
367.77	1740.77
367.98	1644.52
368.18	1744.87
368.39	1701.86
368.60	1599.46
368.81	1683.43
369.02	1730.53
369.23	1665.00
369.44	1617.90
369.65	1609.70
369.86	1834.98
370.07	1744.87
370.28	1624.04
370.49	1763.30
370.70	1765.35
370.91	1712.10
371.12	1642.47
371.33	1724.39
371.54	1652.71
371.75	1765.35
371.96	1574.89
372.17	1714.15
372.38	1689.57
372.59	1726.44
372.80	1757.16
373.01	1687.53
373.22	1681.38
373.43	1701.86
373.64	1665.00
373.85	1773.54
374.06	1826.79
374.26	1705.96
374.47	1708.01
374.68	1744.87
374.89	1658.85
375.10	1718.25
375.31	1736.68
375.52	1683.43
375.73	1634.28
375.94	1677.29
376.15	1753.06
376.36	1669.09
376.57	1609.70
376.78	1673.19
376.99	1714.15
377.20	1761.25
377.40	1673.19
377.61	1716.20
377.82	1626.09
378.03	1742.82
378.24	1724.39
378.45	1720.29
378.66	1746.92
378.87	1603.56
379.08	1611.75
379.29	1662.95
379.50	1755.11
379.71	1638.38
379.91	1710.05
380.12	1683.43
380.33	1665.00
380.54	1605.61
380.75	1644.52
380.96	1701.86
381.17	1812.45
381.38	1697.77
381.59	1722.34
381.80	1761.25
382.00	1943.52
382.21	1763.30
382.42	1859.56
382.63	1837.03
382.84	1718.25
383.05	1730.53
383.26	1806.31
383.47	1705.96
383.68	1751.01
383.88	1699.81
384.09	1746.92
384.30	1751.01
384.51	1724.39
384.72	1591.27
384.93	1642.47
385.14	1748.97
385.35	1757.16
385.55	1630.18
385.76	1806.31
385.97	1714.15
386.18	1640.42
386.39	1648.61
386.60	1759.21
386.81	1681.38
387.02	1685.48
387.22	1626.09
387.43	1748.97
387.64	1834.98
387.85	1939.43
388.06	2140.13
388.27	4321.21
388.48	6858.65
388.68	8349.57
388.89	9869.16
389.10	9897.83
389.31	8714.11
389.52	7735.18
389.73	6913.94
389.93	6461.34
390.14	5996.45
390.35	5248.94
390.56	4726.71
390.77	3827.65
390.98	3059.67
391.18	2537.43
391.39	2064.35
391.60	1880.04
391.81	1912.80
392.02	1734.63
392.23	1794.02
392.43	1699.81
392.64	1734.63
392.85	1695.72
393.06	1773.54
393.27	1673.19
393.47	1689.57
393.68	1820.64
393.89	1755.11
394.10	1808.36
394.31	1626.09
394.52	1665.00
394.72	1691.62
394.93	1751.01
395.14	1705.96
395.35	1720.29
395.56	1628.14
395.76	1734.63
395.97	1789.92
396.18	1826.79
396.39	1748.97
396.60	1939.43
396.80	1927.14
397.01	1851.36
397.22	1806.31
397.43	1869.80
397.64	1681.38
397.84	1734.63
398.05	1855.46
398.26	1656.81
398.47	1814.50
398.67	1812.45
398.88	1730.53
399.09	1677.29
399.30	1757.16
399.51	1689.57
399.71	1640.42
399.92	1665.00
400.13	1734.63
400.34	1714.15
400.54	1708.01
400.75	1826.79
400.96	1677.29
401.17	1804.26
401.37	1828.84
401.58	1705.96
401.79	1695.72
402.00	1816.55
402.21	1904.61
402.41	1933.28
402.62	1994.72
402.83	1992.67
403.04	2021.35
403.24	2004.96
403.45	1841.12
403.66	1896.42
403.87	1808.36
404.07	1837.03
404.28	1945.57
404.49	1923.04
404.70	1730.53
404.90	1837.03
405.11	1746.92
405.32	1716.20
405.52	1638.38
405.73	1587.18
405.94	1673.19
406.15	1712.10
406.35	1705.96
406.56	1765.35
406.77	1742.82
406.98	1683.43
407.18	1621.99
407.39	1769.44
407.60	1638.38
407.80	1699.81
408.01	1734.63
408.22	1722.34
408.43	1658.85
408.63	1689.57
408.84	1781.73
409.05	1800.16
409.25	1652.71
409.46	1701.86
409.67	1665.00
409.88	1669.09
410.08	1716.20
410.29	1697.77
410.50	1804.26
410.70	1746.92
410.91	1613.80
411.12	1736.68
411.32	1650.66
411.53	1640.42
411.74	1773.54
411.95	1683.43
412.15	1742.82
412.36	1816.55
412.57	1714.15
412.77	1783.78
412.98	1683.43
413.19	1705.96
413.39	1781.73
413.60	1798.12
413.81	1808.36
414.01	1642.47
414.22	1673.19
414.43	1746.92
414.63	1648.61
414.84	1753.06
415.05	1699.81
415.25	1718.25
415.46	1624.04
415.67	1718.25
415.87	1681.38
416.08	1675.24
416.29	1667.05
416.49	1765.35
416.70	1646.57
416.91	1681.38
417.11	1636.33
417.32	1669.09
417.53	1697.77
417.73	1708.01
417.94	1710.05
418.15	1691.62
418.35	1736.68
418.56	1734.63
418.77	1892.32
418.97	1685.48
419.18	1665.00
419.38	1646.57
419.59	1640.42
419.80	1837.03
420.00	1705.96
420.21	1722.34
420.42	1767.40
420.62	1679.33
420.83	1648.61
421.04	1675.24
421.24	1648.61
421.45	1757.16
421.65	1738.73
421.86	1701.86
422.07	1695.72
422.27	1712.10
422.48	1802.21
422.69	1677.29
422.89	1689.57
423.10	1652.71
423.30	1585.13
423.51	1728.49
423.72	1710.05
423.92	1791.97
424.13	1650.66
424.33	1716.20
424.54	1789.92
424.75	1732.58
424.95	1761.25
425.16	1753.06
425.36	1642.47
425.57	1892.32
425.78	1728.49
425.98	1699.81
426.19	1697.77
426.39	1624.04
426.60	1726.44
426.81	1748.97
427.01	1660.90
427.22	1650.66
427.42	1562.60
427.63	1615.85
427.83	1732.58
428.04	1769.44
428.25	1732.58
428.45	1751.01
428.66	1705.96
428.86	1697.77
429.07	1677.29
429.28	1714.15
429.48	1681.38
429.69	1636.33
429.89	1679.33
430.10	1687.53
430.30	1779.68
430.51	1697.77
430.71	1718.25
430.92	1722.34
431.13	1697.77
431.33	1705.96
431.54	1753.06
431.74	1824.74
431.95	1855.46
432.15	1644.52
432.36	1730.53
432.56	1751.01
432.77	1771.49
432.98	1779.68
433.18	1779.68
433.39	1642.47
433.59	1710.05
433.80	1832.93
434.00	1837.03
434.21	1630.18
434.41	1615.85
434.62	1761.25
434.82	1628.14
435.03	1732.58
435.23	1759.21
435.44	1609.70
435.64	1732.58
435.85	1732.58
436.06	1767.40
436.26	1810.40
436.47	1669.09
436.67	1701.86
436.88	1679.33
437.08	1806.31
437.29	1820.64
437.49	1701.86
437.70	1705.96
437.90	1771.49
438.11	1820.64
438.31	1738.73
438.52	1834.98
438.72	1886.18
438.93	1955.81
439.13	1761.25
439.34	1826.79
439.54	1695.72
439.75	1818.60
439.95	1740.77
440.16	1685.48
440.36	1845.22
440.57	1804.26
440.77	1787.88
440.98	1736.68
441.18	1720.29
441.39	1724.39
441.59	1615.85
441.80	1824.74
442.00	1689.57
442.21	1796.07
442.41	1665.00
442.62	1777.64
442.82	1642.47
443.02	1708.01
443.23	1697.77
443.43	1746.92
443.64	1810.40
443.84	1703.91
444.05	1796.07
444.25	1781.73
444.46	1712.10
444.66	1714.15
444.87	1837.03
445.07	1705.96
445.28	1615.85
445.48	1783.78
445.69	1783.78
445.89	1849.32
446.09	1710.05
446.30	2047.97
446.50	2686.94
446.71	3827.65
446.91	4370.37
447.12	4616.12
447.32	4915.12
447.53	4356.03
447.73	3909.57
447.93	3540.94
448.14	3311.57
448.34	3278.80
448.55	2901.97
448.75	2828.24
448.96	2668.50
449.16	2463.71
449.36	2289.63
449.57	2099.17
449.77	1896.42
449.98	1701.86
450.18	1804.26
450.39	1853.41
450.59	1787.88
450.79	1726.44
451.00	1705.96
451.20	1800.16
451.41	1705.96
451.61	1732.58
451.81	1693.67
452.02	1726.44
452.22	1705.96
452.43	1693.67
452.63	1722.34
