SpectraSuite Data File
++++++++++++++++++++++++++++++++++++
Date: Mon Jun 06 15:16:17 CEST 2016
User: root
Dark Spectrum Present: No
Reference Spectrum Present: No
Number of Sampled Component Spectra: 1
Spectrometers: USB4C02835
Integration Time (usec): 100000 (USB4C02835)
Spectra Averaged: 1 (USB4C02835)
Boxcar Smoothing: 0 (USB4C02835)
Correct for Electrical Dark: No (USB4C02835)
Strobe/Lamp Enabled: No (USB4C02835)
Correct for Detector Non-linearity: No (USB4C02835)
Correct for Stray Light: No (USB4C02835)
Number of Pixels in Processed Spectrum: 3648
>>>>>Begin Processed Spectral Data<<<<<
177.47	1492.97
177.69	1492.97
177.91	1492.97
178.13	1509.35
178.36	1445.87
178.58	1630.18
178.80	1718.25
179.02	1646.57
179.24	1679.33
179.46	1626.09
179.68	1734.63
179.90	1710.05
180.13	1689.57
180.35	1656.81
180.57	1734.63
180.79	1773.54
181.01	1683.43
181.23	1734.63
181.45	1812.45
181.67	1769.44
181.90	1808.36
182.12	1673.19
182.34	1652.71
182.56	1728.49
182.78	1791.97
183.00	1669.09
183.22	1714.15
183.44	1611.75
183.66	1818.60
183.89	1783.78
184.11	1679.33
184.33	1679.33
184.55	1753.06
184.77	1660.90
184.99	1708.01
185.21	1679.33
185.43	1820.64
185.65	1673.19
185.87	1720.29
186.10	1791.97
186.32	1779.68
186.54	1697.77
186.76	1765.35
186.98	1769.44
187.20	1718.25
187.42	1648.61
187.64	1708.01
187.86	1748.97
188.08	1767.40
188.30	1714.15
188.52	1728.49
188.75	1771.49
188.97	1779.68
189.19	1630.18
189.41	1648.61
189.63	1753.06
189.85	1685.48
190.07	1632.23
190.29	1652.71
190.51	1677.29
190.73	1640.42
190.95	1810.40
191.17	1693.67
191.39	1611.75
191.61	1697.77
191.84	1746.92
192.06	1742.82
192.28	1683.43
192.50	1890.28
192.72	1718.25
192.94	1673.19
193.16	1746.92
193.38	1714.15
193.60	1710.05
193.82	1689.57
194.04	1755.11
194.26	1734.63
194.48	1679.33
194.70	1714.15
194.92	1644.52
195.14	1718.25
195.36	1638.38
195.58	1732.58
195.80	1621.99
196.02	1710.05
196.24	1759.21
196.46	1705.96
196.69	1656.81
196.91	1902.56
197.13	1656.81
197.35	1650.66
197.57	1798.12
197.79	1740.77
198.01	1724.39
198.23	1710.05
198.45	1771.49
198.67	1632.23
198.89	1624.04
199.11	1708.01
199.33	1724.39
199.55	1581.03
199.77	1720.29
199.99	1689.57
200.21	1730.53
200.43	1646.57
200.65	1691.62
200.87	1660.90
201.09	1650.66
201.31	1691.62
201.53	1748.97
201.75	1744.87
201.97	1665.00
202.19	1693.67
202.41	1716.20
202.63	1839.08
202.85	1787.88
203.07	1722.34
203.29	1730.53
203.51	1697.77
203.73	1650.66
203.95	1906.66
204.17	1693.67
204.39	1751.01
204.61	1630.18
204.83	1619.94
205.05	1777.64
205.27	1689.57
205.49	1898.47
205.71	1656.81
205.93	1578.98
206.15	1681.38
206.37	1689.57
206.59	1665.00
206.81	1714.15
207.03	1613.80
207.25	1714.15
207.47	1716.20
207.69	1644.52
207.91	1843.17
208.13	1697.77
208.34	1671.14
208.56	1685.48
208.78	1724.39
209.00	1679.33
209.22	1699.81
209.44	1699.81
209.66	1681.38
209.88	1777.64
210.10	1699.81
210.32	1656.81
210.54	1783.78
210.76	1765.35
210.98	1759.21
211.20	1540.07
211.42	1710.05
211.64	1814.50
211.86	1738.73
212.08	1771.49
212.30	1693.67
212.52	1708.01
212.74	1699.81
212.96	1699.81
213.17	1783.78
213.39	1751.01
213.61	1763.30
213.83	1726.44
214.05	1630.18
214.27	1765.35
214.49	1660.90
214.71	1705.96
214.93	1777.64
215.15	1703.91
215.37	1812.45
215.59	1652.71
215.81	1652.71
216.03	1755.11
216.24	1656.81
216.46	1720.29
216.68	1675.24
216.90	1796.07
217.12	1726.44
217.34	1736.68
217.56	1716.20
217.78	1759.21
218.00	1769.44
218.22	1654.76
218.44	1753.06
218.66	1695.72
218.87	1779.68
219.09	1658.85
219.31	1689.57
219.53	1755.11
219.75	1708.01
219.97	1671.14
220.19	1683.43
220.41	1685.48
220.63	1806.31
220.85	1736.68
221.06	1722.34
221.28	1783.78
221.50	1755.11
221.72	1638.38
221.94	1757.16
222.16	1679.33
222.38	1771.49
222.60	1736.68
222.82	1669.09
223.03	1757.16
223.25	1689.57
223.47	1728.49
223.69	1810.40
223.91	1662.95
224.13	1652.71
224.35	1626.09
224.57	1665.00
224.78	1705.96
225.00	1761.25
225.22	1708.01
225.44	1751.01
225.66	1759.21
225.88	1732.58
226.10	1796.07
226.32	1714.15
226.53	1724.39
226.75	1693.67
226.97	1679.33
227.19	1705.96
227.41	1681.38
227.63	1593.32
227.85	1597.42
228.06	1726.44
228.28	1738.73
228.50	1806.31
228.72	1753.06
228.94	1697.77
229.16	1693.67
229.37	1744.87
229.59	1626.09
229.81	1759.21
230.03	1722.34
230.25	1667.05
230.47	1705.96
230.69	1658.85
230.90	1759.21
231.12	1669.09
231.34	1751.01
231.56	1751.01
231.78	1656.81
232.00	1658.85
232.21	1722.34
232.43	1730.53
232.65	1593.32
232.87	1701.86
233.09	1638.38
233.30	1667.05
233.52	1726.44
233.74	1730.53
233.96	1648.61
234.18	1730.53
234.40	1708.01
234.61	1863.65
234.83	1654.76
235.05	1662.95
235.27	1894.37
235.49	1824.74
235.70	1761.25
235.92	1808.36
236.14	1736.68
236.36	1935.33
236.58	1634.28
236.79	1744.87
237.01	1681.38
237.23	1728.49
237.45	1787.88
237.67	1681.38
237.88	1718.25
238.10	1771.49
238.32	1710.05
238.54	1746.92
238.76	1701.86
238.97	1708.01
239.19	1615.85
239.41	1798.12
239.63	1738.73
239.85	1718.25
240.06	1656.81
240.28	1650.66
240.50	1783.78
240.72	1763.30
240.93	1683.43
241.15	1740.77
241.37	1716.20
241.59	1759.21
241.81	1744.87
242.02	1624.04
242.24	1787.88
242.46	1824.74
242.68	1757.16
242.89	1705.96
243.11	1808.36
243.33	1675.24
243.55	1734.63
243.76	1703.91
243.98	1648.61
244.20	1722.34
244.42	1714.15
244.64	1638.38
244.85	1609.70
245.07	1669.09
245.29	1736.68
245.51	1705.96
245.72	1732.58
245.94	1773.54
246.16	1718.25
246.38	1787.88
246.59	1636.33
246.81	1656.81
247.03	1646.57
247.24	1654.76
247.46	1728.49
247.68	1701.86
247.90	1691.62
248.11	1705.96
248.33	1818.60
248.55	1654.76
248.77	1624.04
248.98	1714.15
249.20	1816.55
249.42	1703.91
249.64	1669.09
249.85	1660.90
250.07	1671.14
250.29	1740.77
250.50	1767.40
250.72	1687.53
250.94	1810.40
251.16	1816.55
251.37	1716.20
251.59	1757.16
251.81	1693.67
252.02	1730.53
252.24	1677.29
252.46	1775.59
252.68	1621.99
252.89	1697.77
253.11	1671.14
253.33	1744.87
253.54	1751.01
253.76	1689.57
253.98	1705.96
254.20	1681.38
254.41	1724.39
254.63	1728.49
254.85	1605.61
255.06	1763.30
255.28	1730.53
255.50	1695.72
255.71	1648.61
255.93	1538.02
256.15	1775.59
256.36	1746.92
256.58	1683.43
256.80	1660.90
257.02	1726.44
257.23	1675.24
257.45	1689.57
257.67	1798.12
257.88	1591.27
258.10	1710.05
258.32	1734.63
258.53	1761.25
258.75	1781.73
258.97	1679.33
259.18	1685.48
259.40	1689.57
259.62	1814.50
259.83	1824.74
260.05	1746.92
260.27	1884.13
260.48	1808.36
260.70	1638.38
260.92	1681.38
261.13	1744.87
261.35	1716.20
261.57	1740.77
261.78	1605.61
262.00	1621.99
262.22	1675.24
262.43	1691.62
262.65	1732.58
262.86	1648.61
263.08	1777.64
263.30	1748.97
263.51	1648.61
263.73	1697.77
263.95	1710.05
264.16	1662.95
264.38	1708.01
264.60	1685.48
264.81	1730.53
265.03	1763.30
265.25	1773.54
265.46	1681.38
265.68	1812.45
265.89	1753.06
266.11	1607.66
266.33	1779.68
266.54	1716.20
266.76	1710.05
266.98	1740.77
267.19	1716.20
267.41	1714.15
267.62	1748.97
267.84	1654.76
268.06	1746.92
268.27	1697.77
268.49	1705.96
268.70	1781.73
268.92	1740.77
269.14	1617.90
269.35	1742.82
269.57	1718.25
269.79	1726.44
270.00	1634.28
270.22	1888.23
270.43	1552.36
270.65	1605.61
270.87	1646.57
271.08	1777.64
271.30	1767.40
271.51	1712.10
271.73	1738.73
271.95	1738.73
272.16	1781.73
272.38	1753.06
272.59	1697.77
272.81	1789.92
273.02	1736.68
273.24	1765.35
273.46	1722.34
273.67	1591.27
273.89	1638.38
274.10	1599.46
274.32	1767.40
274.54	1734.63
274.75	1796.07
274.97	1630.18
275.18	1787.88
275.40	1699.81
275.61	1673.19
275.83	1771.49
276.05	1705.96
276.26	1714.15
276.48	1755.11
276.69	1665.00
276.91	1665.00
277.12	1771.49
277.34	1748.97
277.55	1763.30
277.77	1712.10
277.99	1712.10
278.20	1642.47
278.42	1540.07
278.63	1685.48
278.85	1638.38
279.06	1701.86
279.28	1744.87
279.49	1787.88
279.71	1796.07
279.93	1810.40
280.14	1689.57
280.36	1681.38
280.57	1751.01
280.79	1699.81
281.00	1669.09
281.22	1665.00
281.43	1808.36
281.65	1589.22
281.86	1595.37
282.08	1636.33
282.29	1796.07
282.51	1619.94
282.73	1638.38
282.94	1675.24
283.16	1748.97
283.37	1806.31
283.59	1685.48
283.80	1761.25
284.02	1714.15
284.23	1728.49
284.45	1628.14
284.66	1564.65
284.88	1677.29
285.09	1769.44
285.31	1726.44
285.52	1708.01
285.74	1615.85
285.95	1771.49
286.17	1777.64
286.38	1753.06
286.60	1691.62
286.81	1705.96
287.03	1671.14
287.24	1796.07
287.46	1675.24
287.67	1705.96
287.89	1841.12
288.10	1703.91
288.32	1636.33
288.53	1822.69
288.75	1710.05
288.96	1771.49
289.18	1683.43
289.39	1689.57
289.61	1681.38
289.82	1875.94
290.04	1853.41
290.25	1673.19
290.47	1708.01
290.68	1675.24
290.90	1785.83
291.11	1546.22
291.33	1853.41
291.54	1726.44
291.76	1628.14
291.97	1693.67
292.18	1734.63
292.40	1667.05
292.61	1683.43
292.83	1871.84
293.04	1685.48
293.26	1761.25
293.47	1699.81
293.69	1628.14
293.90	1681.38
294.12	1757.16
294.33	1656.81
294.55	1683.43
294.76	1724.39
294.97	1726.44
295.19	1851.36
295.40	1755.11
295.62	1695.72
295.83	1757.16
296.05	1662.95
296.26	1757.16
296.48	1648.61
296.69	1624.04
296.90	1726.44
297.12	1755.11
297.33	1820.64
297.55	1728.49
297.76	1730.53
297.98	1837.03
298.19	1712.10
298.41	1705.96
298.62	1656.81
298.83	1822.69
299.05	1718.25
299.26	1601.51
299.48	1687.53
299.69	1671.14
299.90	1697.77
300.12	1677.29
300.33	1765.35
300.55	1677.29
300.76	1718.25
300.98	1671.14
301.19	1744.87
301.40	1656.81
301.62	1656.81
301.83	1730.53
302.05	1726.44
302.26	1677.29
302.47	1660.90
302.69	1685.48
302.90	1667.05
303.12	1626.09
303.33	1744.87
303.54	1753.06
303.76	1640.42
303.97	1800.16
304.19	1796.07
304.40	1683.43
304.61	1794.02
304.83	1871.84
305.04	1806.31
305.26	1814.50
305.47	1611.75
305.68	1681.38
305.90	1697.77
306.11	1732.58
306.33	1734.63
306.54	1673.19
306.75	1619.94
306.97	1634.28
307.18	1746.92
307.39	1671.14
307.61	1701.86
307.82	1705.96
308.04	1765.35
308.25	1710.05
308.46	1722.34
308.68	1701.86
308.89	1730.53
309.10	1767.40
309.32	1716.20
309.53	1681.38
309.74	1646.57
309.96	1667.05
310.17	1718.25
310.39	1699.81
310.60	1697.77
310.81	1730.53
311.03	1568.74
311.24	1785.83
311.45	1638.38
311.67	1867.75
311.88	1681.38
312.09	1613.80
312.31	1693.67
312.52	1673.19
312.73	1761.25
312.95	1640.42
313.16	1662.95
313.37	1855.46
313.59	1800.16
313.80	1738.73
314.01	1869.80
314.23	1736.68
314.44	1714.15
314.65	1615.85
314.87	1632.23
315.08	1714.15
315.29	1646.57
315.51	1665.00
315.72	1665.00
315.93	1900.52
316.15	1804.26
316.36	1685.48
316.57	1777.64
316.79	1789.92
317.00	1781.73
317.21	1816.55
317.43	1624.04
317.64	1671.14
317.85	1714.15
318.07	1714.15
318.28	1730.53
318.49	1765.35
318.70	1972.19
318.92	1832.93
319.13	1861.60
319.34	1910.75
319.56	1828.84
319.77	1751.01
319.98	1837.03
320.20	1757.16
320.41	1789.92
320.62	1695.72
320.83	1619.94
321.05	1843.17
321.26	1740.77
321.47	1689.57
321.69	1849.32
321.90	1687.53
322.11	1732.58
322.32	1697.77
322.54	1832.93
322.75	1673.19
322.96	1843.17
323.18	1589.22
323.39	1564.65
323.60	1636.33
323.81	1794.02
324.03	1656.81
324.24	1689.57
324.45	1722.34
324.66	1705.96
324.88	1716.20
325.09	1798.12
325.30	1697.77
325.52	1738.73
325.73	1810.40
325.94	1714.15
326.15	1697.77
326.37	1685.48
326.58	1804.26
326.79	1761.25
327.00	1669.09
327.22	1693.67
327.43	1675.24
327.64	1656.81
327.85	1673.19
328.07	1771.49
328.28	1759.21
328.49	1632.23
328.70	1746.92
328.92	1703.91
329.13	1734.63
329.34	1714.15
329.55	1771.49
329.76	1767.40
329.98	1652.71
330.19	1791.97
330.40	1761.25
330.61	1732.58
330.83	1787.88
331.04	1665.00
331.25	1714.15
331.46	1689.57
331.68	1644.52
331.89	1755.11
332.10	1746.92
332.31	1652.71
332.52	1710.05
332.74	1740.77
332.95	1646.57
333.16	1697.77
333.37	1662.95
333.58	1724.39
333.80	1761.25
334.01	1591.27
334.22	1632.23
334.43	1681.38
334.64	1699.81
334.86	1712.10
335.07	1656.81
335.28	1740.77
335.49	1591.27
335.70	1687.53
335.92	1732.58
336.13	1873.89
336.34	1697.77
336.55	1697.77
336.76	1726.44
336.98	1591.27
337.19	1730.53
337.40	1867.75
337.61	1855.46
337.82	1687.53
338.04	1822.69
338.25	1607.66
338.46	1683.43
338.67	1638.38
338.88	1603.56
339.09	1624.04
339.31	1730.53
339.52	1607.66
339.73	1683.43
339.94	1632.23
340.15	1744.87
340.36	1697.77
340.58	1677.29
340.79	1689.57
341.00	1728.49
341.21	1650.66
341.42	1791.97
341.63	1736.68
341.85	1755.11
342.06	1697.77
342.27	1640.42
342.48	1738.73
342.69	1617.90
342.90	1726.44
343.12	1777.64
343.33	1708.01
343.54	1693.67
343.75	1753.06
343.96	1687.53
344.17	1662.95
344.38	1697.77
344.60	1648.61
344.81	1728.49
345.02	1658.85
345.23	1746.92
345.44	1787.88
345.65	1818.60
345.86	1695.72
346.07	1660.90
346.29	1667.05
346.50	1726.44
346.71	1746.92
346.92	1812.45
347.13	1847.27
347.34	1710.05
347.55	1714.15
347.76	1677.29
347.98	1632.23
348.19	1691.62
348.40	1832.93
348.61	1644.52
348.82	1769.44
349.03	1796.07
349.24	1632.23
349.45	1769.44
349.66	1630.18
349.88	1718.25
350.09	1642.47
350.30	1771.49
350.51	1800.16
350.72	1732.58
350.93	1744.87
351.14	1624.04
351.35	1722.34
351.56	1667.05
351.77	1757.16
351.99	1767.40
352.20	1763.30
352.41	1773.54
352.62	1603.56
352.83	1722.34
353.04	1675.24
353.25	1722.34
353.46	1779.68
353.67	1755.11
353.88	1572.84
354.09	1751.01
354.30	1724.39
354.52	1744.87
354.73	1689.57
354.94	1607.66
355.15	1722.34
355.36	1726.44
355.57	1841.12
355.78	1748.97
355.99	1632.23
356.20	1652.71
356.41	1787.88
356.62	1732.58
356.83	1656.81
357.04	1783.78
357.25	1601.51
357.46	1675.24
357.68	1652.71
357.89	1685.48
358.10	1722.34
358.31	1765.35
358.52	1638.38
358.73	1619.94
358.94	1710.05
359.15	1650.66
359.36	1691.62
359.57	1675.24
359.78	1695.72
359.99	1761.25
360.20	1605.61
360.41	1697.77
360.62	1763.30
360.83	1718.25
361.04	1703.91
361.25	1759.21
361.46	1767.40
361.67	1730.53
361.88	1755.11
362.09	1734.63
362.30	1687.53
362.51	1617.90
362.72	1697.77
362.93	1771.49
363.14	1703.91
363.35	1683.43
363.56	1587.18
363.78	1757.16
363.99	1761.25
364.20	1708.01
364.41	1697.77
364.62	1873.89
364.83	1785.83
365.04	1646.57
365.25	1746.92
365.46	1822.69
365.67	1671.14
365.88	1689.57
366.09	1681.38
366.30	1656.81
366.51	1748.97
366.72	1689.57
366.93	1730.53
367.14	1722.34
367.35	1728.49
367.56	1769.44
367.77	1828.84
367.98	1677.29
368.18	1732.58
368.39	1710.05
368.60	1671.14
368.81	1796.07
369.02	1736.68
369.23	1693.67
369.44	1650.66
369.65	1681.38
369.86	1722.34
370.07	1804.26
370.28	1654.76
370.49	1744.87
370.70	1771.49
370.91	1689.57
371.12	1738.73
371.33	1867.75
371.54	1691.62
371.75	1779.68
371.96	1603.56
372.17	1769.44
372.38	1724.39
372.59	1697.77
372.80	1648.61
373.01	1642.47
373.22	1744.87
373.43	1673.19
373.64	1746.92
373.85	1785.83
374.06	1822.69
374.26	1740.77
374.47	1658.85
374.68	1806.31
374.89	1683.43
375.10	1660.90
375.31	1732.58
375.52	1757.16
375.73	1708.01
375.94	1644.52
376.15	1791.97
376.36	1640.42
376.57	1626.09
376.78	1687.53
376.99	1693.67
377.20	1824.74
377.40	1732.58
377.61	1742.82
377.82	1695.72
378.03	1763.30
378.24	1757.16
378.45	1656.81
378.66	1746.92
378.87	1619.94
379.08	1552.36
379.29	1730.53
379.50	1787.88
379.71	1673.19
379.91	1765.35
380.12	1634.28
380.33	1701.86
380.54	1697.77
380.75	1701.86
380.96	1798.12
381.17	1746.92
381.38	1669.09
381.59	1695.72
381.80	1789.92
382.00	1791.97
382.21	1718.25
382.42	1796.07
382.63	1918.95
382.84	1712.10
383.05	1779.68
383.26	1787.88
383.47	1742.82
383.68	1773.54
383.88	1757.16
384.09	1705.96
384.30	1779.68
384.51	1789.92
384.72	1673.19
384.93	1667.05
385.14	1763.30
385.35	1769.44
385.55	1611.75
385.76	1763.30
385.97	1703.91
386.18	1738.73
386.39	1748.97
386.60	1710.05
386.81	1679.33
387.02	1665.00
387.22	1695.72
387.43	1703.91
387.64	1832.93
387.85	1863.65
388.06	2189.28
388.27	4175.81
388.48	6655.90
388.68	8021.89
388.89	9404.27
389.10	9432.94
389.31	8208.26
389.52	7491.47
389.73	6549.40
389.93	6059.94
390.14	5746.60
390.35	5224.37
390.56	4419.52
390.77	3723.21
390.98	2987.99
391.18	2478.04
391.39	2115.55
391.60	1769.44
391.81	1845.22
392.02	1648.61
392.23	1875.94
392.43	1775.59
392.64	1810.40
392.85	1732.58
393.06	1814.50
393.27	1705.96
393.47	1634.28
393.68	1628.14
393.89	1665.00
394.10	1791.97
394.31	1656.81
394.52	1634.28
394.72	1712.10
394.93	1742.82
395.14	1605.61
395.35	1798.12
395.56	1679.33
395.76	1810.40
395.97	1742.82
396.18	1806.31
396.39	1726.44
396.60	1990.63
396.80	1832.93
397.01	1853.41
397.22	1822.69
397.43	1818.60
397.64	1781.73
397.84	1779.68
398.05	1847.27
398.26	1787.88
398.47	1755.11
398.67	1789.92
398.88	1718.25
399.09	1689.57
399.30	1642.47
399.51	1775.59
399.71	1738.73
399.92	1685.48
400.13	1720.29
400.34	1691.62
400.54	1751.01
400.75	1734.63
400.96	1697.77
401.17	1757.16
401.37	1722.34
401.58	1720.29
401.79	1755.11
402.00	1908.71
402.21	2004.96
402.41	1959.91
402.62	1953.76
402.83	2007.01
403.04	1931.23
403.24	2093.02
403.45	1783.78
403.66	1886.18
403.87	1845.22
404.07	1886.18
404.28	1880.04
404.49	1841.12
404.70	1808.36
404.90	1781.73
405.11	1708.01
405.32	1699.81
405.52	1728.49
405.73	1665.00
405.94	1720.29
406.15	1798.12
406.35	1837.03
406.56	1759.21
406.77	1759.21
406.98	1740.77
407.18	1685.48
407.39	1773.54
407.60	1730.53
407.80	1699.81
408.01	1658.85
408.22	1689.57
408.43	1658.85
408.63	1765.35
408.84	1701.86
409.05	1787.88
409.25	1591.27
409.46	1728.49
409.67	1742.82
409.88	1683.43
410.08	1804.26
410.29	1667.05
410.50	1826.79
410.70	1726.44
410.91	1652.71
411.12	1685.48
411.32	1695.72
411.53	1642.47
411.74	1857.51
411.95	1753.06
412.15	1671.14
412.36	1699.81
412.57	1718.25
412.77	1839.08
412.98	1605.61
413.19	1632.23
413.39	1791.97
413.60	1765.35
413.81	1853.41
414.01	1636.33
414.22	1720.29
414.43	1748.97
414.63	1695.72
414.84	1763.30
415.05	1798.12
415.25	1658.85
415.46	1787.88
415.67	1660.90
415.87	1679.33
416.08	1769.44
416.29	1632.23
416.49	1757.16
416.70	1744.87
416.91	1673.19
417.11	1705.96
417.32	1730.53
417.53	1726.44
417.73	1796.07
417.94	1656.81
418.15	1701.86
418.35	1728.49
418.56	1740.77
418.77	1812.45
418.97	1660.90
419.18	1773.54
419.38	1609.70
419.59	1783.78
419.80	1822.69
420.00	1708.01
420.21	1691.62
420.42	1798.12
420.62	1791.97
420.83	1673.19
421.04	1732.58
421.24	1681.38
421.45	1685.48
421.65	1751.01
421.86	1705.96
422.07	1779.68
422.27	1697.77
422.48	1726.44
422.69	1652.71
422.89	1724.39
423.10	1658.85
423.30	1685.48
423.51	1703.91
423.72	1779.68
423.92	1806.31
424.13	1638.38
424.33	1681.38
424.54	1781.73
424.75	1738.73
424.95	1841.12
425.16	1787.88
425.36	1681.38
425.57	1771.49
425.78	1738.73
425.98	1783.78
426.19	1746.92
426.39	1693.67
426.60	1742.82
426.81	1791.97
427.01	1722.34
427.22	1716.20
427.42	1656.81
427.63	1665.00
427.83	1746.92
428.04	1775.59
428.25	1718.25
428.45	1730.53
428.66	1697.77
428.86	1759.21
429.07	1722.34
429.28	1740.77
429.48	1724.39
429.69	1683.43
429.89	1650.66
430.10	1619.94
430.30	1689.57
430.51	1787.88
430.71	1730.53
430.92	1671.14
431.13	1656.81
431.33	1748.97
431.54	1759.21
431.74	1880.04
431.95	1767.40
432.15	1705.96
432.36	1742.82
432.56	1847.27
432.77	1814.50
432.98	1822.69
433.18	1718.25
433.39	1710.05
433.59	1773.54
433.80	1796.07
434.00	1945.57
434.21	1667.05
434.41	1679.33
434.62	1869.80
434.82	1705.96
435.03	1632.23
435.23	1693.67
435.44	1658.85
435.64	1714.15
435.85	1757.16
436.06	1828.84
436.26	1716.20
436.47	1751.01
436.67	1705.96
436.88	1718.25
437.08	1740.77
437.29	1753.06
437.49	1736.68
437.70	1804.26
437.90	1718.25
438.11	1880.04
438.31	1714.15
438.52	1904.61
438.72	1853.41
438.93	1857.51
439.13	1773.54
439.34	1880.04
439.54	1675.24
439.75	1826.79
439.95	1759.21
440.16	1669.09
440.36	1787.88
440.57	1759.21
440.77	1820.64
440.98	1742.82
441.18	1677.29
441.39	1744.87
441.59	1724.39
441.80	1839.08
442.00	1724.39
442.21	1777.64
442.41	1755.11
442.62	1783.78
442.82	1703.91
443.02	1701.86
443.23	1783.78
443.43	1677.29
443.64	1796.07
443.84	1693.67
444.05	1724.39
444.25	1777.64
444.46	1787.88
444.66	1718.25
444.87	1839.08
445.07	1687.53
445.28	1730.53
445.48	1812.45
445.69	1726.44
445.89	1873.89
446.09	1730.53
446.30	2060.26
446.50	2615.26
446.71	3669.96
446.91	4167.62
447.12	4566.97
447.32	4630.46
447.53	4374.46
447.73	3792.84
447.93	3409.87
448.14	3254.22
448.34	3123.15
448.55	2947.03
448.75	2787.29
448.96	2695.13
449.16	2377.69
449.36	2314.20
449.57	2060.26
449.77	1882.08
449.98	1847.27
450.18	1779.68
450.39	1818.60
450.59	1714.15
450.79	1734.63
451.00	1656.81
451.20	1826.79
451.41	1759.21
451.61	1767.40
451.81	1714.15
452.02	1687.53
452.22	1759.21
452.43	1677.29
452.63	1716.20
