SpectraSuite Data File
++++++++++++++++++++++++++++++++++++
Date: Mon Jun 06 15:03:57 CEST 2016
User: root
Dark Spectrum Present: No
Reference Spectrum Present: No
Number of Sampled Component Spectra: 1
Spectrometers: USB4C02835
Integration Time (usec): 100000 (USB4C02835)
Spectra Averaged: 1 (USB4C02835)
Boxcar Smoothing: 0 (USB4C02835)
Correct for Electrical Dark: No (USB4C02835)
Strobe/Lamp Enabled: No (USB4C02835)
Correct for Detector Non-linearity: No (USB4C02835)
Correct for Stray Light: No (USB4C02835)
Number of Pixels in Processed Spectrum: 3648
>>>>>Begin Processed Spectral Data<<<<<
177.47	1427.43
177.69	1427.43
177.91	1427.43
178.13	1486.83
178.36	1499.11
178.58	1654.76
178.80	1665.00
179.02	1617.90
179.24	1615.85
179.46	1683.43
179.68	1679.33
179.90	1701.86
180.13	1730.53
180.35	1677.29
180.57	1675.24
180.79	1757.16
181.01	1695.72
181.23	1699.81
181.45	1769.44
181.67	1761.25
181.90	1738.73
182.12	1638.38
182.34	1576.94
182.56	1720.29
182.78	1714.15
183.00	1722.34
183.22	1751.01
183.44	1619.94
183.66	1867.75
183.89	1720.29
184.11	1689.57
184.33	1650.66
184.55	1734.63
184.77	1660.90
184.99	1708.01
185.21	1652.71
185.43	1832.93
185.65	1652.71
185.87	1753.06
186.10	1779.68
186.32	1832.93
186.54	1656.81
186.76	1761.25
186.98	1712.10
187.20	1673.19
187.42	1708.01
187.64	1677.29
187.86	1746.92
188.08	1730.53
188.30	1710.05
188.52	1675.24
188.75	1740.77
188.97	1767.40
189.19	1669.09
189.41	1669.09
189.63	1712.10
189.85	1576.94
190.07	1644.52
190.29	1578.98
190.51	1703.91
190.73	1654.76
190.95	1791.97
191.17	1687.53
191.39	1581.03
191.61	1675.24
191.84	1712.10
192.06	1718.25
192.28	1619.94
192.50	1849.32
192.72	1730.53
192.94	1767.40
193.16	1712.10
193.38	1789.92
193.60	1642.47
193.82	1748.97
194.04	1730.53
194.26	1744.87
194.48	1724.39
194.70	1605.61
194.92	1716.20
195.14	1763.30
195.36	1617.90
195.58	1683.43
195.80	1708.01
196.02	1662.95
196.24	1660.90
196.46	1728.49
196.69	1667.05
196.91	1943.52
197.13	1636.33
197.35	1607.66
197.57	1738.73
197.79	1759.21
198.01	1712.10
198.23	1695.72
198.45	1683.43
198.67	1662.95
198.89	1748.97
199.11	1708.01
199.33	1638.38
199.55	1570.79
199.77	1734.63
199.99	1714.15
200.21	1685.48
200.43	1654.76
200.65	1615.85
200.87	1593.32
201.09	1730.53
201.31	1751.01
201.53	1818.60
201.75	1703.91
201.97	1708.01
202.19	1728.49
202.41	1710.05
202.63	1783.78
202.85	1687.53
203.07	1626.09
203.29	1675.24
203.51	1656.81
203.73	1662.95
203.95	1884.13
204.17	1665.00
204.39	1724.39
204.61	1683.43
204.83	1595.37
205.05	1785.83
205.27	1726.44
205.49	1855.46
205.71	1734.63
205.93	1671.14
206.15	1636.33
206.37	1740.77
206.59	1673.19
206.81	1705.96
207.03	1679.33
207.25	1632.23
207.47	1783.78
207.69	1650.66
207.91	1796.07
208.13	1740.77
208.34	1560.55
208.56	1654.76
208.78	1697.77
209.00	1658.85
209.22	1638.38
209.44	1730.53
209.66	1611.75
209.88	1705.96
210.10	1683.43
210.32	1748.97
210.54	1693.67
210.76	1636.33
210.98	1789.92
211.20	1617.90
211.42	1695.72
211.64	1816.55
211.86	1724.39
212.08	1763.30
212.30	1671.14
212.52	1660.90
212.74	1677.29
212.96	1720.29
213.17	1755.11
213.39	1724.39
213.61	1785.83
213.83	1632.23
214.05	1640.42
214.27	1710.05
214.49	1611.75
214.71	1673.19
214.93	1771.49
215.15	1714.15
215.37	1736.68
215.59	1566.70
215.81	1718.25
216.03	1767.40
216.24	1708.01
216.46	1693.67
216.68	1607.66
216.90	1718.25
217.12	1767.40
217.34	1726.44
217.56	1783.78
217.78	1718.25
218.00	1839.08
218.22	1662.95
218.44	1710.05
218.66	1794.02
218.87	1845.22
219.09	1642.47
219.31	1757.16
219.53	1710.05
219.75	1619.94
219.97	1697.77
220.19	1677.29
220.41	1767.40
220.63	1767.40
220.85	1726.44
221.06	1699.81
221.28	1812.45
221.50	1689.57
221.72	1722.34
221.94	1724.39
222.16	1720.29
222.38	1761.25
222.60	1791.97
222.82	1732.58
223.03	1697.77
223.25	1611.75
223.47	1636.33
223.69	1787.88
223.91	1710.05
224.13	1701.86
224.35	1660.90
224.57	1785.83
224.78	1697.77
225.00	1529.83
225.22	1724.39
225.44	1718.25
225.66	1787.88
225.88	1656.81
226.10	1757.16
226.32	1767.40
226.53	1791.97
226.75	1679.33
226.97	1705.96
227.19	1701.86
227.41	1642.47
227.63	1689.57
227.85	1654.76
228.06	1718.25
228.28	1755.11
228.50	1800.16
228.72	1697.77
228.94	1652.71
229.16	1552.36
229.37	1648.61
229.59	1636.33
229.81	1785.83
230.03	1716.20
230.25	1632.23
230.47	1660.90
230.69	1673.19
230.90	1703.91
231.12	1683.43
231.34	1665.00
231.56	1755.11
231.78	1603.56
232.00	1759.21
232.21	1656.81
232.43	1728.49
232.65	1605.61
232.87	1769.44
233.09	1648.61
233.30	1648.61
233.52	1722.34
233.74	1712.10
233.96	1650.66
234.18	1763.30
234.40	1687.53
234.61	1796.07
234.83	1576.94
235.05	1636.33
235.27	1865.70
235.49	1763.30
235.70	1665.00
235.92	1728.49
236.14	1742.82
236.36	1916.90
236.58	1589.22
236.79	1763.30
237.01	1646.57
237.23	1558.50
237.45	1841.12
237.67	1730.53
237.88	1703.91
238.10	1826.79
238.32	1605.61
238.54	1628.14
238.76	1722.34
238.97	1679.33
239.19	1650.66
239.41	1775.59
239.63	1775.59
239.85	1638.38
240.06	1800.16
240.28	1751.01
240.50	1759.21
240.72	1681.38
240.93	1611.75
241.15	1689.57
241.37	1683.43
241.59	1828.84
241.81	1714.15
242.02	1671.14
242.24	1759.21
242.46	1705.96
242.68	1748.97
242.89	1665.00
243.11	1718.25
243.33	1732.58
243.55	1748.97
243.76	1734.63
243.98	1652.71
244.20	1681.38
244.42	1660.90
244.64	1744.87
244.85	1646.57
245.07	1679.33
245.29	1656.81
245.51	1748.97
245.72	1798.12
245.94	1812.45
246.16	1712.10
246.38	1703.91
246.59	1601.51
246.81	1679.33
247.03	1724.39
247.24	1535.98
247.46	1679.33
247.68	1652.71
247.90	1689.57
248.11	1667.05
248.33	1675.24
248.55	1656.81
248.77	1665.00
248.98	1740.77
249.20	1769.44
249.42	1732.58
249.64	1732.58
249.85	1646.57
250.07	1677.29
250.29	1751.01
250.50	1746.92
250.72	1648.61
250.94	1699.81
251.16	1759.21
251.37	1726.44
251.59	1736.68
251.81	1736.68
252.02	1785.83
252.24	1720.29
252.46	1746.92
252.68	1671.14
252.89	1675.24
253.11	1603.56
253.33	1781.73
253.54	1837.03
253.76	1626.09
253.98	1675.24
254.20	1689.57
254.41	1671.14
254.63	1736.68
254.85	1636.33
255.06	1781.73
255.28	1712.10
255.50	1687.53
255.71	1609.70
255.93	1640.42
256.15	1716.20
256.36	1724.39
256.58	1658.85
256.80	1773.54
257.02	1718.25
257.23	1669.09
257.45	1755.11
257.67	1673.19
257.88	1712.10
258.10	1677.29
258.32	1736.68
258.53	1759.21
258.75	1726.44
258.97	1605.61
259.18	1669.09
259.40	1722.34
259.62	1781.73
259.83	1775.59
260.05	1718.25
260.27	2002.91
260.48	1775.59
260.70	1705.96
260.92	1689.57
261.13	1677.29
261.35	1697.77
261.57	1695.72
261.78	1681.38
262.00	1593.32
262.22	1765.35
262.43	1673.19
262.65	1640.42
262.86	1714.15
263.08	1816.55
263.30	1665.00
263.51	1617.90
263.73	1671.14
263.95	1853.41
264.16	1675.24
264.38	1599.46
264.60	1787.88
264.81	1673.19
265.03	1736.68
265.25	1730.53
265.46	1726.44
265.68	1814.50
265.89	1687.53
266.11	1589.22
266.33	1734.63
266.54	1798.12
266.76	1730.53
266.98	1722.34
267.19	1769.44
267.41	1714.15
267.62	1783.78
267.84	1593.32
268.06	1740.77
268.27	1595.37
268.49	1716.20
268.70	1767.40
268.92	1658.85
269.14	1701.86
269.35	1656.81
269.57	1695.72
269.79	1669.09
270.00	1617.90
270.22	1791.97
270.43	1673.19
270.65	1548.26
270.87	1726.44
271.08	1718.25
271.30	1714.15
271.51	1689.57
271.73	1695.72
271.95	1755.11
272.16	1779.68
272.38	1701.86
272.59	1695.72
272.81	1734.63
273.02	1779.68
273.24	1744.87
273.46	1736.68
273.67	1681.38
273.89	1611.75
274.10	1681.38
274.32	1783.78
274.54	1701.86
274.75	1716.20
274.97	1677.29
275.18	1769.44
275.40	1677.29
275.61	1644.52
275.83	1771.49
276.05	1685.48
276.26	1746.92
276.48	1736.68
276.69	1703.91
276.91	1613.80
277.12	1785.83
277.34	1763.30
277.55	1718.25
277.77	1681.38
277.99	1628.14
278.20	1652.71
278.42	1605.61
278.63	1665.00
278.85	1646.57
279.06	1640.42
279.28	1697.77
279.49	1832.93
279.71	1753.06
279.93	1738.73
280.14	1703.91
280.36	1607.66
280.57	1798.12
280.79	1718.25
281.00	1701.86
281.22	1628.14
281.43	1800.16
281.65	1599.46
281.86	1624.04
282.08	1705.96
282.29	1742.82
282.51	1665.00
282.73	1656.81
282.94	1607.66
283.16	1755.11
283.37	1787.88
283.59	1681.38
283.80	1740.77
284.02	1654.76
284.23	1640.42
284.45	1687.53
284.66	1677.29
284.88	1595.37
285.09	1689.57
285.31	1757.16
285.52	1791.97
285.74	1615.85
285.95	1738.73
286.17	1703.91
286.38	1748.97
286.60	1632.23
286.81	1675.24
287.03	1744.87
287.24	1691.62
287.46	1751.01
287.67	1716.20
287.89	1781.73
288.10	1636.33
288.32	1621.99
288.53	1828.84
288.75	1675.24
288.96	1763.30
289.18	1646.57
289.39	1650.66
289.61	1722.34
289.82	1771.49
290.04	1738.73
290.25	1689.57
290.47	1697.77
290.68	1724.39
290.90	1767.40
291.11	1615.85
291.33	1724.39
291.54	1636.33
291.76	1681.38
291.97	1665.00
292.18	1765.35
292.40	1714.15
292.61	1619.94
292.83	1804.26
293.04	1771.49
293.26	1669.09
293.47	1730.53
293.69	1626.09
293.90	1656.81
294.12	1820.64
294.33	1783.78
294.55	1757.16
294.76	1660.90
294.97	1755.11
295.19	1814.50
295.40	1642.47
295.62	1816.55
295.83	1732.58
296.05	1685.48
296.26	1794.02
296.48	1708.01
296.69	1626.09
296.90	1685.48
297.12	1677.29
297.33	1820.64
297.55	1679.33
297.76	1751.01
297.98	1800.16
298.19	1738.73
298.41	1658.85
298.62	1656.81
298.83	1808.36
299.05	1722.34
299.26	1736.68
299.48	1720.29
299.69	1755.11
299.90	1722.34
300.12	1691.62
300.33	1722.34
300.55	1675.24
300.76	1683.43
300.98	1597.42
301.19	1716.20
301.40	1621.99
301.62	1679.33
301.83	1705.96
302.05	1677.29
302.26	1681.38
302.47	1720.29
302.69	1654.76
302.90	1720.29
303.12	1527.78
303.33	1763.30
303.54	1861.60
303.76	1708.01
303.97	1787.88
304.19	1796.07
304.40	1697.77
304.61	1777.64
304.83	1779.68
305.04	1751.01
305.26	1751.01
305.47	1642.47
305.68	1730.53
305.90	1603.56
306.11	1755.11
306.33	1765.35
306.54	1648.61
306.75	1656.81
306.97	1634.28
307.18	1658.85
307.39	1634.28
307.61	1724.39
307.82	1669.09
308.04	1679.33
308.25	1665.00
308.46	1769.44
308.68	1728.49
308.89	1644.52
309.10	1742.82
309.32	1701.86
309.53	1673.19
309.74	1714.15
309.96	1665.00
310.17	1783.78
310.39	1615.85
310.60	1662.95
310.81	1665.00
311.03	1699.81
311.24	1800.16
311.45	1673.19
311.67	1880.04
311.88	1677.29
312.09	1658.85
312.31	1630.18
312.52	1712.10
312.73	1705.96
312.95	1654.76
313.16	1730.53
313.37	1757.16
313.59	1789.92
313.80	1744.87
314.01	1763.30
314.23	1703.91
314.44	1626.09
314.65	1656.81
314.87	1673.19
315.08	1738.73
315.29	1640.42
315.51	1640.42
315.72	1609.70
315.93	1791.97
316.15	1689.57
316.36	1671.14
316.57	1714.15
316.79	1738.73
317.00	1628.14
317.21	1724.39
317.43	1703.91
317.64	1724.39
317.85	1617.90
318.07	1626.09
318.28	1699.81
318.49	1826.79
318.70	1947.62
318.92	1812.45
319.13	1796.07
319.34	1855.46
319.56	1771.49
319.77	1734.63
319.98	1832.93
320.20	1816.55
320.41	1685.48
320.62	1681.38
320.83	1646.57
321.05	1824.74
321.26	1699.81
321.47	1689.57
321.69	1744.87
321.90	1656.81
322.11	1660.90
322.32	1728.49
322.54	1734.63
322.75	1689.57
322.96	1875.94
323.18	1652.71
323.39	1607.66
323.60	1671.14
323.81	1732.58
324.03	1665.00
324.24	1650.66
324.45	1697.77
324.66	1744.87
324.88	1837.03
325.09	1816.55
325.30	1730.53
325.52	1794.02
325.73	1710.05
325.94	1755.11
326.15	1662.95
326.37	1744.87
326.58	1716.20
326.79	1748.97
327.00	1662.95
327.22	1736.68
327.43	1675.24
327.64	1624.04
327.85	1636.33
328.07	1656.81
328.28	1781.73
328.49	1642.47
328.70	1646.57
328.92	1693.67
329.13	1665.00
329.34	1703.91
329.55	1781.73
329.76	1703.91
329.98	1712.10
330.19	1775.59
330.40	1679.33
330.61	1718.25
330.83	1710.05
331.04	1662.95
331.25	1738.73
331.46	1695.72
331.68	1648.61
331.89	1740.77
332.10	1681.38
332.31	1652.71
332.52	1718.25
332.74	1732.58
332.95	1638.38
333.16	1691.62
333.37	1761.25
333.58	1685.48
333.80	1660.90
334.01	1626.09
334.22	1695.72
334.43	1646.57
334.64	1683.43
334.86	1654.76
335.07	1701.86
335.28	1853.41
335.49	1646.57
335.70	1722.34
335.92	1714.15
336.13	1869.80
336.34	1761.25
336.55	1740.77
336.76	1652.71
336.98	1517.54
337.19	1781.73
337.40	1890.28
337.61	1822.69
337.82	1654.76
338.04	1789.92
338.25	1611.75
338.46	1697.77
338.67	1720.29
338.88	1701.86
339.09	1640.42
339.31	1665.00
339.52	1648.61
339.73	1654.76
339.94	1658.85
340.15	1714.15
340.36	1656.81
340.58	1710.05
340.79	1724.39
341.00	1708.01
341.21	1734.63
341.42	1841.12
341.63	1671.14
341.85	1734.63
342.06	1728.49
342.27	1701.86
342.48	1687.53
342.69	1607.66
342.90	1665.00
343.12	1710.05
343.33	1640.42
343.54	1703.91
343.75	1769.44
343.96	1660.90
344.17	1691.62
344.38	1642.47
344.60	1632.23
344.81	1642.47
345.02	1718.25
345.23	1773.54
345.44	1738.73
345.65	1791.97
345.86	1796.07
346.07	1726.44
346.29	1728.49
346.50	1798.12
346.71	1783.78
346.92	1728.49
347.13	1806.31
347.34	1683.43
347.55	1693.67
347.76	1685.48
347.98	1673.19
348.19	1621.99
348.40	1726.44
348.61	1665.00
348.82	1812.45
349.03	1732.58
349.24	1654.76
349.45	1814.50
349.66	1607.66
349.88	1693.67
350.09	1624.04
350.30	1808.36
350.51	1818.60
350.72	1736.68
350.93	1714.15
351.14	1619.94
351.35	1728.49
351.56	1712.10
351.77	1675.24
351.99	1699.81
352.20	1812.45
352.41	1798.12
352.62	1591.27
352.83	1718.25
353.04	1708.01
353.25	1722.34
353.46	1771.49
353.67	1726.44
353.88	1603.56
354.09	1710.05
354.30	1644.52
354.52	1769.44
354.73	1675.24
354.94	1630.18
355.15	1722.34
355.36	1802.21
355.57	1613.80
355.78	1724.39
355.99	1701.86
356.20	1710.05
356.41	1722.34
356.62	1734.63
356.83	1708.01
357.04	1742.82
357.25	1607.66
357.46	1685.48
357.68	1654.76
357.89	1583.08
358.10	1691.62
358.31	1714.15
358.52	1689.57
358.73	1624.04
358.94	1591.27
359.15	1617.90
359.36	1683.43
359.57	1650.66
359.78	1699.81
359.99	1705.96
360.20	1617.90
360.41	1705.96
360.62	1744.87
360.83	1718.25
361.04	1660.90
361.25	1677.29
361.46	1841.12
361.67	1671.14
361.88	1677.29
362.09	1751.01
362.30	1714.15
362.51	1697.77
362.72	1703.91
362.93	1736.68
363.14	1794.02
363.35	1710.05
363.56	1636.33
363.78	1810.40
363.99	1767.40
364.20	1644.52
364.41	1703.91
364.62	1830.88
364.83	1683.43
365.04	1738.73
365.25	1703.91
365.46	1781.73
365.67	1691.62
365.88	1658.85
366.09	1705.96
366.30	1724.39
366.51	1726.44
366.72	1611.75
366.93	1683.43
367.14	1681.38
367.35	1769.44
367.56	1740.77
367.77	1826.79
367.98	1763.30
368.18	1689.57
368.39	1734.63
368.60	1689.57
368.81	1757.16
369.02	1771.49
369.23	1705.96
369.44	1746.92
369.65	1642.47
369.86	1773.54
370.07	1785.83
370.28	1697.77
370.49	1732.58
370.70	1742.82
370.91	1642.47
371.12	1636.33
371.33	1710.05
371.54	1689.57
371.75	1775.59
371.96	1558.50
372.17	1755.11
372.38	1673.19
372.59	1705.96
372.80	1624.04
373.01	1742.82
373.22	1685.48
373.43	1728.49
373.64	1591.27
373.85	1699.81
374.06	1888.23
374.26	1759.21
374.47	1701.86
374.68	1740.77
374.89	1691.62
375.10	1708.01
375.31	1748.97
375.52	1701.86
375.73	1679.33
375.94	1662.95
376.15	1769.44
376.36	1595.37
376.57	1658.85
376.78	1626.09
376.99	1724.39
377.20	1800.16
377.40	1667.05
377.61	1816.55
377.82	1675.24
378.03	1722.34
378.24	1732.58
378.45	1673.19
378.66	1783.78
378.87	1583.08
379.08	1595.37
379.29	1675.24
379.50	1779.68
379.71	1665.00
379.91	1771.49
380.12	1638.38
380.33	1736.68
380.54	1644.52
380.75	1650.66
380.96	1712.10
381.17	1724.39
381.38	1753.06
381.59	1755.11
381.80	1677.29
382.00	1857.51
382.21	1787.88
382.42	1783.78
382.63	1884.13
382.84	1800.16
383.05	1761.25
383.26	1755.11
383.47	1714.15
383.68	1771.49
383.88	1761.25
384.09	1691.62
384.30	1777.64
384.51	1708.01
384.72	1734.63
384.93	1699.81
385.14	1701.86
385.35	1787.88
385.55	1669.09
385.76	1837.03
385.97	1789.92
386.18	1638.38
386.39	1640.42
386.60	1648.61
386.81	1660.90
387.02	1636.33
387.22	1636.33
387.43	1730.53
387.64	1722.34
387.85	1867.75
388.06	2193.37
388.27	4220.86
388.48	6504.35
388.68	8015.75
388.89	9095.03
389.10	9645.93
389.31	8324.99
389.52	7280.53
389.73	6535.07
389.93	6148.00
390.14	5568.43
390.35	4964.28
390.56	4370.37
390.77	3737.54
390.98	3080.14
391.18	2435.03
391.39	2095.07
391.60	1812.45
391.81	1837.03
392.02	1712.10
392.23	1806.31
392.43	1705.96
392.64	1767.40
392.85	1751.01
393.06	1791.97
393.27	1746.92
393.47	1667.05
393.68	1738.73
393.89	1722.34
394.10	1816.55
394.31	1732.58
394.52	1718.25
394.72	1581.03
394.93	1769.44
395.14	1679.33
395.35	1699.81
395.56	1689.57
395.76	1689.57
395.97	1847.27
396.18	1789.92
396.39	1855.46
396.60	1961.95
396.80	1894.37
397.01	1837.03
397.22	1779.68
397.43	1900.52
397.64	1691.62
397.84	1816.55
398.05	1853.41
398.26	1671.14
398.47	1812.45
398.67	1830.88
398.88	1744.87
399.09	1783.78
399.30	1658.85
399.51	1787.88
399.71	1669.09
399.92	1701.86
400.13	1726.44
400.34	1691.62
400.54	1712.10
400.75	1867.75
400.96	1740.77
401.17	1806.31
401.37	1720.29
401.58	1767.40
401.79	1691.62
402.00	1875.94
402.21	1937.38
402.41	1943.52
402.62	1916.90
402.83	2068.45
403.04	2041.82
403.24	2131.94
403.45	1816.55
403.66	1892.32
403.87	1857.51
404.07	1927.14
404.28	1912.80
404.49	1839.08
404.70	1763.30
404.90	1767.40
405.11	1773.54
405.32	1681.38
405.52	1748.97
405.73	1599.46
405.94	1673.19
406.15	1699.81
406.35	1781.73
406.56	1705.96
406.77	1695.72
406.98	1804.26
407.18	1710.05
407.39	1839.08
407.60	1671.14
407.80	1757.16
408.01	1667.05
408.22	1681.38
408.43	1636.33
408.63	1722.34
408.84	1736.68
409.05	1849.32
409.25	1708.01
409.46	1656.81
409.67	1599.46
409.88	1681.38
410.08	1714.15
410.29	1718.25
410.50	1744.87
410.70	1701.86
410.91	1673.19
411.12	1757.16
411.32	1621.99
411.53	1738.73
411.74	1789.92
411.95	1802.21
412.15	1769.44
412.36	1800.16
412.57	1734.63
412.77	1839.08
412.98	1632.23
413.19	1683.43
413.39	1757.16
413.60	1808.36
413.81	1826.79
414.01	1665.00
414.22	1740.77
414.43	1808.36
414.63	1679.33
414.84	1751.01
415.05	1685.48
415.25	1628.14
415.46	1697.77
415.67	1662.95
415.87	1767.40
416.08	1736.68
416.29	1703.91
416.49	1755.11
416.70	1640.42
416.91	1634.28
417.11	1658.85
417.32	1767.40
417.53	1779.68
417.73	1724.39
417.94	1675.24
418.15	1710.05
418.35	1615.85
418.56	1687.53
418.77	1810.40
418.97	1714.15
419.18	1677.29
419.38	1638.38
419.59	1677.29
419.80	1787.88
420.00	1607.66
420.21	1705.96
420.42	1775.59
420.62	1740.77
420.83	1642.47
421.04	1669.09
421.24	1632.23
421.45	1714.15
421.65	1728.49
421.86	1675.24
422.07	1736.68
422.27	1724.39
422.48	1730.53
422.69	1570.79
422.89	1724.39
423.10	1724.39
423.30	1591.27
423.51	1708.01
423.72	1732.58
423.92	1685.48
424.13	1689.57
424.33	1732.58
424.54	1767.40
424.75	1652.71
424.95	1800.16
425.16	1720.29
425.36	1673.19
425.57	1757.16
425.78	1753.06
425.98	1751.01
426.19	1646.57
426.39	1640.42
426.60	1773.54
426.81	1812.45
427.01	1791.97
427.22	1607.66
427.42	1642.47
427.63	1646.57
427.83	1791.97
428.04	1837.03
428.25	1800.16
428.45	1794.02
428.66	1783.78
428.86	1718.25
429.07	1724.39
429.28	1796.07
429.48	1683.43
429.69	1658.85
429.89	1746.92
430.10	1607.66
430.30	1769.44
430.51	1724.39
430.71	1624.04
430.92	1734.63
431.13	1726.44
431.33	1726.44
431.54	1724.39
431.74	1820.64
431.95	1818.60
432.15	1626.09
432.36	1753.06
432.56	1738.73
432.77	1841.12
432.98	1796.07
433.18	1712.10
433.39	1722.34
433.59	1705.96
433.80	1779.68
434.00	1810.40
434.21	1693.67
434.41	1726.44
434.62	1843.17
434.82	1624.04
435.03	1583.08
435.23	1710.05
435.44	1685.48
435.64	1710.05
435.85	1732.58
436.06	1800.16
436.26	1742.82
436.47	1667.05
436.67	1722.34
436.88	1751.01
437.08	1832.93
437.29	1742.82
437.49	1708.01
437.70	1826.79
437.90	1757.16
438.11	1873.89
438.31	1757.16
438.52	1894.37
438.72	1830.88
438.93	1834.98
439.13	1785.83
439.34	1751.01
439.54	1734.63
439.75	1863.65
439.95	1816.55
440.16	1703.91
440.36	1697.77
440.57	1763.30
440.77	1746.92
440.98	1757.16
441.18	1740.77
441.39	1722.34
441.59	1714.15
441.80	1861.60
442.00	1748.97
442.21	1755.11
442.41	1671.14
442.62	1763.30
442.82	1746.92
443.02	1730.53
443.23	1740.77
443.43	1724.39
443.64	1796.07
443.84	1654.76
444.05	1820.64
444.25	1703.91
444.46	1740.77
444.66	1755.11
444.87	1847.27
445.07	1611.75
445.28	1716.20
445.48	1777.64
445.69	1767.40
445.89	1873.89
446.09	1724.39
446.30	1964.00
446.50	2584.54
446.71	3737.54
446.91	4159.42
447.12	4622.27
447.32	4720.57
447.53	4192.19
447.73	3844.04
447.93	3422.16
448.14	3235.79
448.34	3209.17
448.55	2904.02
448.75	2830.29
448.96	2602.97
449.16	2451.42
449.36	2338.78
449.57	2025.44
449.77	1861.60
449.98	1761.25
450.18	1828.84
450.39	1796.07
450.59	1751.01
450.79	1751.01
451.00	1726.44
451.20	1841.12
451.41	1728.49
451.61	1726.44
451.81	1742.82
452.02	1726.44
452.22	1726.44
452.43	1724.39
452.63	1685.48
