SpectraSuite Data File
++++++++++++++++++++++++++++++++++++
Date: Mon Jun 06 15:48:17 CEST 2016
User: root
Dark Spectrum Present: No
Reference Spectrum Present: No
Number of Sampled Component Spectra: 1
Spectrometers: USB4C02835
Integration Time (usec): 100000 (USB4C02835)
Spectra Averaged: 1 (USB4C02835)
Boxcar Smoothing: 0 (USB4C02835)
Correct for Electrical Dark: No (USB4C02835)
Strobe/Lamp Enabled: No (USB4C02835)
Correct for Detector Non-linearity: No (USB4C02835)
Correct for Stray Light: No (USB4C02835)
Number of Pixels in Processed Spectrum: 3648
>>>>>Begin Processed Spectral Data<<<<<
177.47	1484.78
177.69	1484.78
177.91	1484.78
178.13	1470.44
178.36	1490.92
178.58	1613.80
178.80	1753.06
179.02	1681.38
179.24	1691.62
179.46	1685.48
179.68	1787.88
179.90	1734.63
180.13	1695.72
180.35	1638.38
180.57	1718.25
180.79	1789.92
181.01	1658.85
181.23	1703.91
181.45	1789.92
181.67	1755.11
181.90	1736.68
182.12	1714.15
182.34	1593.32
182.56	1740.77
182.78	1740.77
183.00	1771.49
183.22	1681.38
183.44	1527.78
183.66	1929.19
183.89	1843.17
184.11	1710.05
184.33	1714.15
184.55	1716.20
184.77	1687.53
184.99	1769.44
185.21	1656.81
185.43	1843.17
185.65	1736.68
185.87	1738.73
186.10	1847.27
186.32	1800.16
186.54	1769.44
186.76	1718.25
186.98	1771.49
187.20	1705.96
187.42	1710.05
187.64	1726.44
187.86	1742.82
188.08	1806.31
188.30	1732.58
188.52	1677.29
188.75	1847.27
188.97	1740.77
189.19	1660.90
189.41	1710.05
189.63	1771.49
189.85	1656.81
190.07	1632.23
190.29	1689.57
190.51	1714.15
190.73	1665.00
190.95	1783.78
191.17	1763.30
191.39	1632.23
191.61	1660.90
191.84	1578.98
192.06	1761.25
192.28	1615.85
192.50	1896.42
192.72	1726.44
192.94	1748.97
193.16	1716.20
193.38	1783.78
193.60	1660.90
193.82	1685.48
194.04	1730.53
194.26	1708.01
194.48	1718.25
194.70	1665.00
194.92	1708.01
195.14	1705.96
195.36	1693.67
195.58	1763.30
195.80	1730.53
196.02	1644.52
196.24	1703.91
196.46	1689.57
196.69	1628.14
196.91	1847.27
197.13	1638.38
197.35	1718.25
197.57	1769.44
197.79	1699.81
198.01	1724.39
198.23	1726.44
198.45	1796.07
198.67	1669.09
198.89	1658.85
199.11	1783.78
199.33	1738.73
199.55	1615.85
199.77	1722.34
199.99	1812.45
200.21	1753.06
200.43	1751.01
200.65	1624.04
200.87	1640.42
201.09	1701.86
201.31	1652.71
201.53	1708.01
201.75	1695.72
201.97	1681.38
202.19	1734.63
202.41	1681.38
202.63	1814.50
202.85	1765.35
203.07	1746.92
203.29	1662.95
203.51	1753.06
203.73	1722.34
203.95	1882.08
204.17	1736.68
204.39	1736.68
204.61	1759.21
204.83	1714.15
205.05	1845.22
205.27	1722.34
205.49	1871.84
205.71	1751.01
205.93	1685.48
206.15	1673.19
206.37	1705.96
206.59	1718.25
206.81	1624.04
207.03	1640.42
207.25	1693.67
207.47	1665.00
207.69	1730.53
207.91	1855.46
208.13	1800.16
208.34	1578.98
208.56	1695.72
208.78	1740.77
209.00	1730.53
209.22	1759.21
209.44	1712.10
209.66	1681.38
209.88	1740.77
210.10	1734.63
210.32	1677.29
210.54	1837.03
210.76	1681.38
210.98	1710.05
211.20	1624.04
211.42	1681.38
211.64	1781.73
211.86	1789.92
212.08	1703.91
212.30	1771.49
212.52	1693.67
212.74	1800.16
212.96	1769.44
213.17	1765.35
213.39	1759.21
213.61	1781.73
213.83	1794.02
214.05	1554.41
214.27	1789.92
214.49	1632.23
214.71	1646.57
214.93	1757.16
215.15	1742.82
215.37	1773.54
215.59	1671.14
215.81	1732.58
216.03	1738.73
216.24	1708.01
216.46	1722.34
216.68	1742.82
216.90	1816.55
217.12	1691.62
217.34	1759.21
217.56	1746.92
217.78	1861.60
218.00	1740.77
218.22	1767.40
218.44	1777.64
218.66	1728.49
218.87	1755.11
219.09	1742.82
219.31	1710.05
219.53	1648.61
219.75	1669.09
219.97	1701.86
220.19	1751.01
220.41	1675.24
220.63	1724.39
220.85	1732.58
221.06	1751.01
221.28	1796.07
221.50	1789.92
221.72	1691.62
221.94	1753.06
222.16	1738.73
222.38	1742.82
222.60	1701.86
222.82	1726.44
223.03	1701.86
223.25	1660.90
223.47	1837.03
223.69	1828.84
223.91	1705.96
224.13	1759.21
224.35	1665.00
224.57	1757.16
224.78	1746.92
225.00	1683.43
225.22	1679.33
225.44	1763.30
225.66	1742.82
225.88	1648.61
226.10	1804.26
226.32	1730.53
226.53	1789.92
226.75	1652.71
226.97	1624.04
227.19	1705.96
227.41	1673.19
227.63	1638.38
227.85	1603.56
228.06	1691.62
228.28	1697.77
228.50	1683.43
228.72	1671.14
228.94	1644.52
229.16	1632.23
229.37	1714.15
229.59	1624.04
229.81	1789.92
230.03	1681.38
230.25	1644.52
230.47	1695.72
230.69	1593.32
230.90	1834.98
231.12	1648.61
231.34	1705.96
231.56	1734.63
231.78	1593.32
232.00	1761.25
232.21	1738.73
232.43	1669.09
232.65	1624.04
232.87	1722.34
233.09	1703.91
233.30	1601.51
233.52	1681.38
233.74	1746.92
233.96	1734.63
234.18	1710.05
234.40	1730.53
234.61	1824.74
234.83	1701.86
235.05	1576.94
235.27	1855.46
235.49	1748.97
235.70	1699.81
235.92	1787.88
236.14	1697.77
236.36	1845.22
236.58	1621.99
236.79	1775.59
237.01	1759.21
237.23	1726.44
237.45	1859.56
237.67	1689.57
237.88	1701.86
238.10	1820.64
238.32	1691.62
238.54	1613.80
238.76	1685.48
238.97	1689.57
239.19	1636.33
239.41	1781.73
239.63	1789.92
239.85	1642.47
240.06	1718.25
240.28	1648.61
240.50	1685.48
240.72	1660.90
240.93	1761.25
241.15	1791.97
241.37	1656.81
241.59	1726.44
241.81	1660.90
242.02	1691.62
242.24	1673.19
242.46	1665.00
242.68	1712.10
242.89	1673.19
243.11	1720.29
243.33	1740.77
243.55	1744.87
243.76	1763.30
243.98	1654.76
244.20	1619.94
244.42	1708.01
244.64	1724.39
244.85	1656.81
245.07	1658.85
245.29	1787.88
245.51	1718.25
245.72	1683.43
245.94	1773.54
246.16	1718.25
246.38	1777.64
246.59	1585.13
246.81	1693.67
247.03	1736.68
247.24	1648.61
247.46	1716.20
247.68	1730.53
247.90	1640.42
248.11	1714.15
248.33	1687.53
248.55	1744.87
248.77	1714.15
248.98	1714.15
249.20	1877.99
249.42	1701.86
249.64	1757.16
249.85	1658.85
250.07	1679.33
250.29	1748.97
250.50	1681.38
250.72	1660.90
250.94	1755.11
251.16	1804.26
251.37	1775.59
251.59	1738.73
251.81	1714.15
252.02	1722.34
252.24	1742.82
252.46	1658.85
252.68	1699.81
252.89	1673.19
253.11	1658.85
253.33	1814.50
253.54	1722.34
253.76	1642.47
253.98	1722.34
254.20	1759.21
254.41	1708.01
254.63	1703.91
254.85	1720.29
255.06	1736.68
255.28	1734.63
255.50	1714.15
255.71	1697.77
255.93	1595.37
256.15	1662.95
256.36	1718.25
256.58	1671.14
256.80	1814.50
257.02	1748.97
257.23	1669.09
257.45	1769.44
257.67	1720.29
257.88	1581.03
258.10	1712.10
258.32	1726.44
258.53	1742.82
258.75	1800.16
258.97	1640.42
259.18	1726.44
259.40	1755.11
259.62	1810.40
259.83	1746.92
260.05	1757.16
260.27	2017.25
260.48	1710.05
260.70	1662.95
260.92	1751.01
261.13	1701.86
261.35	1675.24
261.57	1781.73
261.78	1687.53
262.00	1648.61
262.22	1728.49
262.43	1683.43
262.65	1699.81
262.86	1656.81
263.08	1904.61
263.30	1724.39
263.51	1646.57
263.73	1665.00
263.95	1783.78
264.16	1599.46
264.38	1734.63
264.60	1710.05
264.81	1722.34
265.03	1824.74
265.25	1816.55
265.46	1665.00
265.68	1757.16
265.89	1716.20
266.11	1665.00
266.33	1744.87
266.54	1818.60
266.76	1693.67
266.98	1783.78
267.19	1828.84
267.41	1839.08
267.62	1738.73
267.84	1720.29
268.06	1755.11
268.27	1701.86
268.49	1818.60
268.70	1736.68
268.92	1726.44
269.14	1677.29
269.35	1675.24
269.57	1757.16
269.79	1683.43
270.00	1685.48
270.22	1796.07
270.43	1611.75
270.65	1621.99
270.87	1757.16
271.08	1779.68
271.30	1697.77
271.51	1703.91
271.73	1738.73
271.95	1810.40
272.16	1738.73
272.38	1761.25
272.59	1689.57
272.81	1685.48
273.02	1744.87
273.24	1767.40
273.46	1724.39
273.67	1738.73
273.89	1671.14
274.10	1589.22
274.32	1886.18
274.54	1763.30
274.75	1724.39
274.97	1652.71
275.18	1738.73
275.40	1730.53
275.61	1730.53
275.83	1705.96
276.05	1636.33
276.26	1667.05
276.48	1759.21
276.69	1736.68
276.91	1685.48
277.12	1748.97
277.34	1820.64
277.55	1738.73
277.77	1724.39
277.99	1710.05
278.20	1665.00
278.42	1593.32
278.63	1699.81
278.85	1660.90
279.06	1613.80
279.28	1689.57
279.49	1669.09
279.71	1773.54
279.93	1740.77
280.14	1740.77
280.36	1759.21
280.57	1802.21
280.79	1693.67
281.00	1646.57
281.22	1738.73
281.43	1832.93
281.65	1636.33
281.86	1691.62
282.08	1763.30
282.29	1841.12
282.51	1634.28
282.73	1626.09
282.94	1583.08
283.16	1783.78
283.37	1818.60
283.59	1617.90
283.80	1701.86
284.02	1730.53
284.23	1781.73
284.45	1691.62
284.66	1652.71
284.88	1734.63
285.09	1777.64
285.31	1703.91
285.52	1773.54
285.74	1646.57
285.95	1693.67
286.17	1648.61
286.38	1761.25
286.60	1617.90
286.81	1630.18
287.03	1689.57
287.24	1679.33
287.46	1791.97
287.67	1689.57
287.89	1877.99
288.10	1642.47
288.32	1740.77
288.53	1791.97
288.75	1779.68
288.96	1724.39
289.18	1673.19
289.39	1665.00
289.61	1744.87
289.82	1865.70
290.04	1791.97
290.25	1714.15
290.47	1705.96
290.68	1677.29
290.90	1808.36
291.11	1611.75
291.33	1712.10
291.54	1650.66
291.76	1679.33
291.97	1728.49
292.18	1718.25
292.40	1607.66
292.61	1673.19
292.83	1837.03
293.04	1804.26
293.26	1734.63
293.47	1732.58
293.69	1699.81
293.90	1681.38
294.12	1779.68
294.33	1714.15
294.55	1746.92
294.76	1789.92
294.97	1802.21
295.19	1898.47
295.40	1736.68
295.62	1722.34
295.83	1769.44
296.05	1689.57
296.26	1761.25
296.48	1705.96
296.69	1730.53
296.90	1619.94
297.12	1683.43
297.33	1751.01
297.55	1728.49
297.76	1705.96
297.98	1779.68
298.19	1734.63
298.41	1665.00
298.62	1665.00
298.83	1771.49
299.05	1712.10
299.26	1761.25
299.48	1646.57
299.69	1730.53
299.90	1730.53
300.12	1640.42
300.33	1738.73
300.55	1710.05
300.76	1787.88
300.98	1716.20
301.19	1789.92
301.40	1660.90
301.62	1763.30
301.83	1732.58
302.05	1624.04
302.26	1683.43
302.47	1665.00
302.69	1699.81
302.90	1779.68
303.12	1611.75
303.33	1761.25
303.54	1849.32
303.76	1730.53
303.97	1755.11
304.19	1804.26
304.40	1611.75
304.61	1738.73
304.83	1841.12
305.04	1826.79
305.26	1730.53
305.47	1712.10
305.68	1763.30
305.90	1708.01
306.11	1787.88
306.33	1796.07
306.54	1669.09
306.75	1710.05
306.97	1679.33
307.18	1701.86
307.39	1699.81
307.61	1675.24
307.82	1798.12
308.04	1751.01
308.25	1691.62
308.46	1720.29
308.68	1781.73
308.89	1708.01
309.10	1800.16
309.32	1669.09
309.53	1728.49
309.74	1830.88
309.96	1640.42
310.17	1744.87
310.39	1705.96
310.60	1648.61
310.81	1728.49
311.03	1669.09
311.24	1648.61
311.45	1705.96
311.67	1845.22
311.88	1779.68
312.09	1662.95
312.31	1626.09
312.52	1767.40
312.73	1728.49
312.95	1683.43
313.16	1722.34
313.37	1800.16
313.59	1734.63
313.80	1714.15
314.01	1855.46
314.23	1742.82
314.44	1656.81
314.65	1607.66
314.87	1648.61
315.08	1673.19
315.29	1687.53
315.51	1660.90
315.72	1640.42
315.93	1726.44
316.15	1773.54
316.36	1701.86
316.57	1757.16
316.79	1777.64
317.00	1708.01
317.21	1755.11
317.43	1689.57
317.64	1677.29
317.85	1730.53
318.07	1667.05
318.28	1796.07
318.49	1767.40
318.70	1972.19
318.92	1869.80
319.13	1765.35
319.34	1773.54
319.56	1877.99
319.77	1804.26
319.98	1849.32
320.20	1824.74
320.41	1808.36
320.62	1781.73
320.83	1658.85
321.05	1863.65
321.26	1765.35
321.47	1683.43
321.69	1712.10
321.90	1652.71
322.11	1673.19
322.32	1701.86
322.54	1738.73
322.75	1673.19
322.96	1826.79
323.18	1642.47
323.39	1636.33
323.60	1720.29
323.81	1748.97
324.03	1660.90
324.24	1710.05
324.45	1712.10
324.66	1667.05
324.88	1841.12
325.09	1832.93
325.30	1687.53
325.52	1738.73
325.73	1755.11
325.94	1658.85
326.15	1660.90
326.37	1662.95
326.58	1789.92
326.79	1767.40
327.00	1693.67
327.22	1708.01
327.43	1732.58
327.64	1699.81
327.85	1728.49
328.07	1767.40
328.28	1851.36
328.49	1683.43
328.70	1695.72
328.92	1734.63
329.13	1640.42
329.34	1701.86
329.55	1890.28
329.76	1736.68
329.98	1746.92
330.19	1767.40
330.40	1726.44
330.61	1615.85
330.83	1767.40
331.04	1667.05
331.25	1705.96
331.46	1765.35
331.68	1638.38
331.89	1798.12
332.10	1728.49
332.31	1640.42
332.52	1705.96
332.74	1783.78
332.95	1710.05
333.16	1681.38
333.37	1744.87
333.58	1656.81
333.80	1728.49
334.01	1644.52
334.22	1599.46
334.43	1693.67
334.64	1751.01
334.86	1650.66
335.07	1648.61
335.28	1714.15
335.49	1642.47
335.70	1693.67
335.92	1773.54
336.13	1886.18
336.34	1718.25
336.55	1708.01
336.76	1734.63
336.98	1574.89
337.19	1753.06
337.40	1695.72
337.61	1843.17
337.82	1648.61
338.04	1787.88
338.25	1562.60
338.46	1712.10
338.67	1669.09
338.88	1605.61
339.09	1636.33
339.31	1652.71
339.52	1658.85
339.73	1667.05
339.94	1742.82
340.15	1722.34
340.36	1705.96
340.58	1730.53
340.79	1671.14
341.00	1742.82
341.21	1673.19
341.42	1849.32
341.63	1636.33
341.85	1744.87
342.06	1601.51
342.27	1578.98
342.48	1730.53
342.69	1679.33
342.90	1736.68
343.12	1730.53
343.33	1716.20
343.54	1730.53
343.75	1796.07
343.96	1683.43
344.17	1624.04
344.38	1705.96
344.60	1656.81
344.81	1662.95
345.02	1791.97
345.23	1740.77
345.44	1859.56
345.65	1748.97
345.86	1705.96
346.07	1646.57
346.29	1644.52
346.50	1724.39
346.71	1730.53
346.92	1812.45
347.13	1800.16
347.34	1718.25
347.55	1699.81
347.76	1705.96
347.98	1605.61
348.19	1718.25
348.40	1746.92
348.61	1753.06
348.82	1740.77
349.03	1724.39
349.24	1646.57
349.45	1708.01
349.66	1591.27
349.88	1742.82
350.09	1669.09
350.30	1705.96
350.51	1738.73
350.72	1769.44
350.93	1781.73
351.14	1658.85
351.35	1693.67
351.56	1642.47
351.77	1722.34
351.99	1748.97
352.20	1828.84
352.41	1787.88
352.62	1572.84
352.83	1775.59
353.04	1726.44
353.25	1693.67
353.46	1699.81
353.67	1767.40
353.88	1552.36
354.09	1724.39
354.30	1644.52
354.52	1781.73
354.73	1724.39
354.94	1687.53
355.15	1714.15
355.36	1794.02
355.57	1695.72
355.78	1685.48
355.99	1726.44
356.20	1708.01
356.41	1759.21
356.62	1734.63
356.83	1642.47
357.04	1841.12
357.25	1624.04
357.46	1642.47
357.68	1681.38
357.89	1589.22
358.10	1685.48
358.31	1712.10
358.52	1751.01
358.73	1701.86
358.94	1701.86
359.15	1714.15
359.36	1849.32
359.57	1716.20
359.78	1691.62
359.99	1714.15
360.20	1642.47
360.41	1693.67
360.62	1724.39
360.83	1718.25
361.04	1677.29
361.25	1718.25
361.46	1744.87
361.67	1785.83
361.88	1753.06
362.09	1710.05
362.30	1726.44
362.51	1656.81
362.72	1646.57
362.93	1759.21
363.14	1812.45
363.35	1796.07
363.56	1693.67
363.78	1769.44
363.99	1765.35
364.20	1646.57
364.41	1779.68
364.62	1810.40
364.83	1699.81
365.04	1722.34
365.25	1689.57
365.46	1779.68
365.67	1705.96
365.88	1630.18
366.09	1667.05
366.30	1732.58
366.51	1765.35
366.72	1671.14
366.93	1742.82
367.14	1773.54
367.35	1845.22
367.56	1771.49
367.77	1789.92
367.98	1699.81
368.18	1779.68
368.39	1751.01
368.60	1716.20
368.81	1763.30
369.02	1712.10
369.23	1677.29
369.44	1660.90
369.65	1679.33
369.86	1720.29
370.07	1802.21
370.28	1624.04
370.49	1738.73
370.70	1814.50
370.91	1685.48
371.12	1656.81
371.33	1757.16
371.54	1724.39
371.75	1785.83
371.96	1562.60
372.17	1746.92
372.38	1665.00
372.59	1820.64
372.80	1671.14
373.01	1660.90
373.22	1650.66
373.43	1714.15
373.64	1677.29
373.85	1746.92
374.06	1812.45
374.26	1767.40
374.47	1708.01
374.68	1775.59
374.89	1726.44
375.10	1771.49
375.31	1789.92
375.52	1662.95
375.73	1685.48
375.94	1683.43
376.15	1802.21
376.36	1628.14
376.57	1722.34
376.78	1636.33
376.99	1755.11
377.20	1738.73
377.40	1624.04
377.61	1710.05
377.82	1587.18
378.03	1845.22
378.24	1646.57
378.45	1781.73
378.66	1748.97
378.87	1624.04
379.08	1652.71
379.29	1679.33
379.50	1763.30
379.71	1630.18
379.91	1718.25
380.12	1738.73
380.33	1689.57
380.54	1703.91
380.75	1703.91
380.96	1708.01
381.17	1708.01
381.38	1654.76
381.59	1777.64
381.80	1738.73
382.00	1818.60
382.21	1742.82
382.42	1783.78
382.63	1863.65
382.84	1779.68
383.05	1769.44
383.26	1773.54
383.47	1718.25
383.68	1738.73
383.88	1685.48
384.09	1783.78
384.30	1791.97
384.51	1710.05
384.72	1683.43
384.93	1648.61
385.14	1708.01
385.35	1769.44
385.55	1683.43
385.76	1771.49
385.97	1665.00
386.18	1699.81
386.39	1697.77
386.60	1740.77
386.81	1742.82
387.02	1656.81
387.22	1636.33
387.43	1826.79
387.64	1796.07
387.85	1933.28
388.06	2113.50
388.27	4118.47
388.48	6649.75
388.68	8017.80
388.89	9482.10
389.10	9459.57
389.31	8320.90
389.52	7370.64
389.73	6498.20
389.93	5914.53
390.14	5685.16
390.35	5033.91
390.56	4480.96
390.77	3692.49
390.98	3016.66
391.18	2592.73
391.39	2142.18
391.60	1818.60
391.81	1759.21
392.02	1806.31
392.23	1820.64
392.43	1689.57
392.64	1822.69
392.85	1699.81
393.06	1773.54
393.27	1765.35
393.47	1683.43
393.68	1759.21
393.89	1697.77
394.10	1812.45
394.31	1644.52
394.52	1628.14
394.72	1683.43
394.93	1830.88
395.14	1652.71
395.35	1746.92
395.56	1685.48
395.76	1802.21
395.97	1894.37
396.18	1861.60
396.39	1865.70
396.60	2013.15
396.80	1847.27
397.01	1787.88
397.22	1869.80
397.43	1845.22
397.64	1734.63
397.84	1869.80
398.05	1859.56
398.26	1701.86
398.47	1769.44
398.67	1730.53
398.88	1675.24
399.09	1722.34
399.30	1714.15
399.51	1771.49
399.71	1677.29
399.92	1722.34
400.13	1734.63
400.34	1695.72
400.54	1714.15
400.75	1798.12
400.96	1847.27
401.17	1796.07
401.37	1734.63
401.58	1730.53
401.79	1769.44
402.00	1865.70
402.21	1988.58
402.41	1951.71
402.62	1972.19
402.83	2062.30
403.04	1943.52
403.24	2060.26
403.45	1853.41
403.66	1865.70
403.87	1845.22
404.07	1869.80
404.28	1961.95
404.49	1877.99
404.70	1773.54
404.90	1789.92
405.11	1738.73
405.32	1712.10
405.52	1697.77
405.73	1679.33
405.94	1693.67
406.15	1636.33
406.35	1757.16
406.56	1798.12
406.77	1726.44
406.98	1777.64
407.18	1683.43
407.39	1820.64
407.60	1722.34
407.80	1775.59
408.01	1665.00
408.22	1720.29
408.43	1716.20
408.63	1683.43
408.84	1779.68
409.05	1798.12
409.25	1675.24
409.46	1593.32
409.67	1695.72
409.88	1675.24
410.08	1699.81
410.29	1746.92
410.50	1724.39
410.70	1718.25
410.91	1652.71
411.12	1708.01
411.32	1681.38
411.53	1669.09
411.74	1804.26
411.95	1734.63
412.15	1695.72
412.36	1800.16
412.57	1734.63
412.77	1861.60
412.98	1787.88
413.19	1693.67
413.39	1802.21
413.60	1738.73
413.81	1787.88
414.01	1730.53
414.22	1759.21
414.43	1740.77
414.63	1779.68
414.84	1771.49
415.05	1755.11
415.25	1646.57
415.46	1771.49
415.67	1671.14
415.87	1689.57
416.08	1712.10
416.29	1626.09
416.49	1710.05
416.70	1724.39
416.91	1728.49
417.11	1742.82
417.32	1798.12
417.53	1757.16
417.73	1683.43
417.94	1738.73
418.15	1763.30
418.35	1767.40
418.56	1716.20
418.77	1828.84
418.97	1777.64
419.18	1693.67
419.38	1572.84
419.59	1689.57
419.80	1773.54
420.00	1638.38
420.21	1763.30
420.42	1767.40
420.62	1681.38
420.83	1646.57
421.04	1716.20
421.24	1710.05
421.45	1679.33
421.65	1751.01
421.86	1771.49
422.07	1773.54
422.27	1738.73
422.48	1722.34
422.69	1619.94
422.89	1665.00
423.10	1734.63
423.30	1710.05
423.51	1732.58
423.72	1796.07
423.92	1718.25
424.13	1712.10
424.33	1753.06
424.54	1742.82
424.75	1763.30
424.95	1808.36
425.16	1710.05
425.36	1693.67
425.57	1763.30
425.78	1708.01
425.98	1720.29
426.19	1667.05
426.39	1644.52
426.60	1730.53
426.81	1767.40
427.01	1705.96
427.22	1658.85
427.42	1660.90
427.63	1654.76
427.83	1847.27
428.04	1796.07
428.25	1796.07
428.45	1759.21
428.66	1775.59
428.86	1699.81
429.07	1701.86
429.28	1683.43
429.48	1710.05
429.69	1658.85
429.89	1722.34
430.10	1568.74
430.30	1736.68
430.51	1732.58
430.71	1724.39
430.92	1761.25
431.13	1675.24
431.33	1742.82
431.54	1689.57
431.74	1865.70
431.95	1796.07
432.15	1722.34
432.36	1775.59
432.56	1669.09
432.77	1808.36
432.98	1851.36
433.18	1808.36
433.39	1665.00
433.59	1683.43
433.80	1884.13
434.00	1914.85
434.21	1636.33
434.41	1652.71
434.62	1923.04
434.82	1730.53
435.03	1611.75
435.23	1720.29
435.44	1611.75
435.64	1708.01
435.85	1732.58
436.06	1767.40
436.26	1777.64
436.47	1812.45
436.67	1689.57
436.88	1742.82
437.08	1732.58
437.29	1830.88
437.49	1775.59
437.70	1802.21
437.90	1644.52
438.11	1841.12
438.31	1812.45
438.52	1841.12
438.72	1902.56
438.93	1906.66
439.13	1742.82
439.34	1804.26
439.54	1759.21
439.75	1755.11
439.95	1791.97
440.16	1720.29
440.36	1804.26
440.57	1755.11
440.77	1751.01
440.98	1785.83
441.18	1804.26
441.39	1744.87
441.59	1722.34
441.80	1863.65
442.00	1710.05
442.21	1820.64
442.41	1667.05
442.62	1763.30
442.82	1722.34
443.02	1753.06
443.23	1796.07
443.43	1787.88
443.64	1781.73
443.84	1679.33
444.05	1863.65
444.25	1716.20
444.46	1732.58
444.66	1722.34
444.87	1808.36
445.07	1669.09
445.28	1732.58
445.48	1832.93
445.69	1699.81
445.89	1853.41
446.09	1746.92
446.30	2000.87
446.50	2586.58
446.71	3696.58
446.91	4231.10
447.12	4513.72
447.32	4743.10
447.53	4263.87
447.73	3741.64
447.93	3401.68
448.14	3366.86
448.34	3153.87
448.55	2916.31
448.75	2820.05
448.96	2617.30
449.16	2375.64
449.36	2273.25
449.57	2050.02
449.77	1777.64
449.98	1710.05
450.18	1880.04
450.39	1869.80
450.59	1802.21
450.79	1693.67
451.00	1677.29
451.20	1820.64
451.41	1722.34
451.61	1783.78
451.81	1751.01
452.02	1734.63
452.22	1763.30
452.43	1708.01
452.63	1714.15
