SpectraSuite Data File
++++++++++++++++++++++++++++++++++++
Date: Mon Jun 06 15:55:37 CEST 2016
User: root
Dark Spectrum Present: No
Reference Spectrum Present: No
Number of Sampled Component Spectra: 1
Spectrometers: USB4C02835
Integration Time (usec): 100000 (USB4C02835)
Spectra Averaged: 1 (USB4C02835)
Boxcar Smoothing: 0 (USB4C02835)
Correct for Electrical Dark: No (USB4C02835)
Strobe/Lamp Enabled: No (USB4C02835)
Correct for Detector Non-linearity: No (USB4C02835)
Correct for Stray Light: No (USB4C02835)
Number of Pixels in Processed Spectrum: 3648
>>>>>Begin Processed Spectral Data<<<<<
177.47	1505.26
177.69	1505.26
177.91	1505.26
178.13	1460.20
178.36	1511.40
178.58	1685.48
178.80	1730.53
179.02	1685.48
179.24	1671.14
179.46	1728.49
179.68	1853.41
179.90	1783.78
180.13	1726.44
180.35	1724.39
180.57	1685.48
180.79	1730.53
181.01	1697.77
181.23	1839.08
181.45	1798.12
181.67	1714.15
181.90	1822.69
182.12	1681.38
182.34	1589.22
182.56	1744.87
182.78	1812.45
183.00	1710.05
183.22	1812.45
183.44	1621.99
183.66	1845.22
183.89	1816.55
184.11	1746.92
184.33	1738.73
184.55	1748.97
184.77	1740.77
184.99	1730.53
185.21	1689.57
185.43	1806.31
185.65	1720.29
185.87	1705.96
186.10	1865.70
186.32	1937.38
186.54	1699.81
186.76	1710.05
186.98	1751.01
187.20	1673.19
187.42	1624.04
187.64	1738.73
187.86	1775.59
188.08	1691.62
188.30	1644.52
188.52	1677.29
188.75	1746.92
188.97	1783.78
189.19	1656.81
189.41	1607.66
189.63	1761.25
189.85	1710.05
190.07	1665.00
190.29	1605.61
190.51	1718.25
190.73	1669.09
190.95	1783.78
191.17	1748.97
191.39	1628.14
191.61	1652.71
191.84	1687.53
192.06	1648.61
192.28	1572.84
192.50	1951.71
192.72	1722.34
192.94	1710.05
193.16	1755.11
193.38	1765.35
193.60	1671.14
193.82	1638.38
194.04	1787.88
194.26	1734.63
194.48	1656.81
194.70	1667.05
194.92	1658.85
195.14	1742.82
195.36	1681.38
195.58	1765.35
195.80	1765.35
196.02	1697.77
196.24	1658.85
196.46	1710.05
196.69	1765.35
196.91	1871.84
197.13	1800.16
197.35	1667.05
197.57	1839.08
197.79	1714.15
198.01	1720.29
198.23	1824.74
198.45	1699.81
198.67	1763.30
198.89	1736.68
199.11	1695.72
199.33	1736.68
199.55	1646.57
199.77	1681.38
199.99	1773.54
200.21	1628.14
200.43	1644.52
200.65	1644.52
200.87	1611.75
201.09	1753.06
201.31	1744.87
201.53	1714.15
201.75	1648.61
201.97	1722.34
202.19	1609.70
202.41	1777.64
202.63	1832.93
202.85	1732.58
203.07	1742.82
203.29	1665.00
203.51	1673.19
203.73	1699.81
203.95	1906.66
204.17	1726.44
204.39	1787.88
204.61	1687.53
204.83	1699.81
205.05	1675.24
205.27	1716.20
205.49	1867.75
205.71	1712.10
205.93	1570.79
206.15	1673.19
206.37	1726.44
206.59	1720.29
206.81	1660.90
207.03	1642.47
207.25	1587.18
207.47	1683.43
207.69	1775.59
207.91	1767.40
208.13	1853.41
208.34	1703.91
208.56	1648.61
208.78	1665.00
209.00	1673.19
209.22	1718.25
209.44	1705.96
209.66	1650.66
209.88	1658.85
210.10	1656.81
210.32	1720.29
210.54	1781.73
210.76	1683.43
210.98	1763.30
211.20	1619.94
211.42	1748.97
211.64	1693.67
211.86	1779.68
212.08	1736.68
212.30	1714.15
212.52	1699.81
212.74	1722.34
212.96	1685.48
213.17	1779.68
213.39	1757.16
213.61	1773.54
213.83	1746.92
214.05	1685.48
214.27	1845.22
214.49	1681.38
214.71	1583.08
214.93	1789.92
215.15	1740.77
215.37	1777.64
215.59	1595.37
215.81	1845.22
216.03	1703.91
216.24	1785.83
216.46	1744.87
216.68	1765.35
216.90	1781.73
217.12	1808.36
217.34	1746.92
217.56	1806.31
217.78	1812.45
218.00	1751.01
218.22	1751.01
218.44	1732.58
218.66	1681.38
218.87	1830.88
219.09	1724.39
219.31	1673.19
219.53	1642.47
219.75	1689.57
219.97	1703.91
220.19	1757.16
220.41	1736.68
220.63	1748.97
220.85	1734.63
221.06	1644.52
221.28	1769.44
221.50	1789.92
221.72	1669.09
221.94	1624.04
222.16	1783.78
222.38	1687.53
222.60	1746.92
222.82	1708.01
223.03	1781.73
223.25	1671.14
223.47	1740.77
223.69	1798.12
223.91	1738.73
224.13	1710.05
224.35	1697.77
224.57	1736.68
224.78	1781.73
225.00	1595.37
225.22	1763.30
225.44	1699.81
225.66	1744.87
225.88	1650.66
226.10	1851.36
226.32	1777.64
226.53	1787.88
226.75	1712.10
226.97	1746.92
227.19	1732.58
227.41	1691.62
227.63	1636.33
227.85	1554.41
228.06	1714.15
228.28	1734.63
228.50	1755.11
228.72	1654.76
228.94	1619.94
229.16	1621.99
229.37	1583.08
229.59	1642.47
229.81	1814.50
230.03	1763.30
230.25	1695.72
230.47	1728.49
230.69	1599.46
230.90	1724.39
231.12	1689.57
231.34	1716.20
231.56	1726.44
231.78	1621.99
232.00	1742.82
232.21	1656.81
232.43	1654.76
232.65	1628.14
232.87	1699.81
233.09	1650.66
233.30	1712.10
233.52	1861.60
233.74	1759.21
233.96	1712.10
234.18	1710.05
234.40	1638.38
234.61	1824.74
234.83	1716.20
235.05	1677.29
235.27	1791.97
235.49	1761.25
235.70	1763.30
235.92	1705.96
236.14	1763.30
236.36	1894.37
236.58	1617.90
236.79	1730.53
237.01	1742.82
237.23	1722.34
237.45	1802.21
237.67	1658.85
237.88	1730.53
238.10	1818.60
238.32	1599.46
238.54	1644.52
238.76	1669.09
238.97	1705.96
239.19	1697.77
239.41	1746.92
239.63	1769.44
239.85	1732.58
240.06	1656.81
240.28	1746.92
240.50	1646.57
240.72	1689.57
240.93	1656.81
241.15	1824.74
241.37	1644.52
241.59	1847.27
241.81	1673.19
242.02	1732.58
242.24	1667.05
242.46	1748.97
242.68	1708.01
242.89	1738.73
243.11	1730.53
243.33	1726.44
243.55	1722.34
243.76	1720.29
243.98	1683.43
244.20	1736.68
244.42	1816.55
244.64	1667.05
244.85	1687.53
245.07	1687.53
245.29	1699.81
245.51	1712.10
245.72	1714.15
245.94	1687.53
246.16	1669.09
246.38	1849.32
246.59	1708.01
246.81	1656.81
247.03	1736.68
247.24	1589.22
247.46	1716.20
247.68	1695.72
247.90	1742.82
248.11	1712.10
248.33	1759.21
248.55	1658.85
248.77	1714.15
248.98	1744.87
249.20	1767.40
249.42	1691.62
249.64	1660.90
249.85	1691.62
250.07	1667.05
250.29	1773.54
250.50	1662.95
250.72	1693.67
250.94	1777.64
251.16	1851.36
251.37	1773.54
251.59	1839.08
251.81	1816.55
252.02	1798.12
252.24	1652.71
252.46	1753.06
252.68	1697.77
252.89	1656.81
253.11	1658.85
253.33	1791.97
253.54	1765.35
253.76	1665.00
253.98	1724.39
254.20	1595.37
254.41	1630.18
254.63	1730.53
254.85	1626.09
255.06	1746.92
255.28	1667.05
255.50	1658.85
255.71	1701.86
255.93	1589.22
256.15	1720.29
256.36	1763.30
256.58	1566.70
256.80	1714.15
257.02	1775.59
257.23	1697.77
257.45	1689.57
257.67	1787.88
257.88	1671.14
258.10	1720.29
258.32	1683.43
258.53	1675.24
258.75	1775.59
258.97	1693.67
259.18	1689.57
259.40	1705.96
259.62	1853.41
259.83	1775.59
260.05	1769.44
260.27	1953.76
260.48	1771.49
260.70	1652.71
260.92	1665.00
261.13	1722.34
261.35	1708.01
261.57	1787.88
261.78	1603.56
262.00	1691.62
262.22	1695.72
262.43	1667.05
262.65	1687.53
262.86	1736.68
263.08	1847.27
263.30	1710.05
263.51	1656.81
263.73	1665.00
263.95	1775.59
264.16	1665.00
264.38	1656.81
264.60	1769.44
264.81	1669.09
265.03	1773.54
265.25	1796.07
265.46	1710.05
265.68	1777.64
265.89	1763.30
266.11	1632.23
266.33	1742.82
266.54	1722.34
266.76	1761.25
266.98	1742.82
267.19	1822.69
267.41	1800.16
267.62	1634.28
267.84	1697.77
268.06	1660.90
268.27	1777.64
268.49	1781.73
268.70	1679.33
268.92	1730.53
269.14	1648.61
269.35	1634.28
269.57	1736.68
269.79	1755.11
270.00	1665.00
270.22	1798.12
270.43	1671.14
270.65	1509.35
270.87	1742.82
271.08	1763.30
271.30	1742.82
271.51	1722.34
271.73	1783.78
271.95	1712.10
272.16	1687.53
272.38	1701.86
272.59	1716.20
272.81	1728.49
273.02	1728.49
273.24	1779.68
273.46	1718.25
273.67	1630.18
273.89	1746.92
274.10	1722.34
274.32	1796.07
274.54	1753.06
274.75	1720.29
274.97	1710.05
275.18	1734.63
275.40	1703.91
275.61	1724.39
275.83	1650.66
276.05	1716.20
276.26	1689.57
276.48	1763.30
276.69	1652.71
276.91	1589.22
277.12	1828.84
277.34	1746.92
277.55	1796.07
277.77	1650.66
277.99	1658.85
278.20	1574.89
278.42	1621.99
278.63	1671.14
278.85	1718.25
279.06	1609.70
279.28	1708.01
279.49	1773.54
279.71	1732.58
279.93	1660.90
280.14	1732.58
280.36	1677.29
280.57	1767.40
280.79	1693.67
281.00	1712.10
281.22	1701.86
281.43	1785.83
281.65	1558.50
281.86	1703.91
282.08	1748.97
282.29	1853.41
282.51	1681.38
282.73	1714.15
282.94	1630.18
283.16	1644.52
283.37	1777.64
283.59	1701.86
283.80	1759.21
284.02	1693.67
284.23	1636.33
284.45	1658.85
284.66	1642.47
284.88	1601.51
285.09	1708.01
285.31	1783.78
285.52	1771.49
285.74	1615.85
285.95	1726.44
286.17	1740.77
286.38	1705.96
286.60	1673.19
286.81	1681.38
287.03	1746.92
287.24	1656.81
287.46	1753.06
287.67	1675.24
287.89	1783.78
288.10	1777.64
288.32	1751.01
288.53	1763.30
288.75	1732.58
288.96	1757.16
289.18	1615.85
289.39	1701.86
289.61	1765.35
289.82	1818.60
290.04	1839.08
290.25	1648.61
290.47	1687.53
290.68	1662.95
290.90	1871.84
291.11	1587.18
291.33	1779.68
291.54	1572.84
291.76	1738.73
291.97	1740.77
292.18	1765.35
292.40	1720.29
292.61	1718.25
292.83	1830.88
293.04	1650.66
293.26	1769.44
293.47	1646.57
293.69	1693.67
293.90	1689.57
294.12	1769.44
294.33	1701.86
294.55	1693.67
294.76	1802.21
294.97	1767.40
295.19	1875.94
295.40	1693.67
295.62	1730.53
295.83	1812.45
296.05	1605.61
296.26	1796.07
296.48	1708.01
296.69	1691.62
296.90	1669.09
297.12	1779.68
297.33	1816.55
297.55	1761.25
297.76	1710.05
297.98	1779.68
298.19	1689.57
298.41	1748.97
298.62	1660.90
298.83	1810.40
299.05	1744.87
299.26	1679.33
299.48	1630.18
299.69	1751.01
299.90	1669.09
300.12	1601.51
300.33	1720.29
300.55	1785.83
300.76	1751.01
300.98	1613.80
301.19	1734.63
301.40	1738.73
301.62	1753.06
301.83	1785.83
302.05	1710.05
302.26	1804.26
302.47	1730.53
302.69	1595.37
302.90	1718.25
303.12	1669.09
303.33	1681.38
303.54	1929.19
303.76	1693.67
303.97	1800.16
304.19	1740.77
304.40	1759.21
304.61	1732.58
304.83	1857.51
305.04	1808.36
305.26	1736.68
305.47	1705.96
305.68	1703.91
305.90	1626.09
306.11	1832.93
306.33	1734.63
306.54	1732.58
306.75	1671.14
306.97	1630.18
307.18	1646.57
307.39	1689.57
307.61	1824.74
307.82	1708.01
308.04	1714.15
308.25	1701.86
308.46	1748.97
308.68	1705.96
308.89	1626.09
309.10	1744.87
309.32	1724.39
309.53	1748.97
309.74	1746.92
309.96	1669.09
310.17	1798.12
310.39	1632.23
310.60	1759.21
310.81	1726.44
311.03	1609.70
311.24	1794.02
311.45	1738.73
311.67	1867.75
311.88	1742.82
312.09	1716.20
312.31	1693.67
312.52	1705.96
312.73	1683.43
312.95	1542.12
313.16	1652.71
313.37	1785.83
313.59	1722.34
313.80	1783.78
314.01	1794.02
314.23	1613.80
314.44	1689.57
314.65	1728.49
314.87	1738.73
315.08	1646.57
315.29	1697.77
315.51	1679.33
315.72	1669.09
315.93	1814.50
316.15	1718.25
316.36	1757.16
316.57	1677.29
316.79	1791.97
317.00	1751.01
317.21	1718.25
317.43	1685.48
317.64	1689.57
317.85	1673.19
318.07	1644.52
318.28	1744.87
318.49	1808.36
318.70	1920.99
318.92	1841.12
319.13	1740.77
319.34	1970.15
319.56	1853.41
319.77	1861.60
319.98	1769.44
320.20	1806.31
320.41	1794.02
320.62	1755.11
320.83	1724.39
321.05	1839.08
321.26	1699.81
321.47	1728.49
321.69	1771.49
321.90	1736.68
322.11	1800.16
322.32	1808.36
322.54	1814.50
322.75	1662.95
322.96	1834.98
323.18	1642.47
323.39	1646.57
323.60	1712.10
323.81	1728.49
324.03	1718.25
324.24	1665.00
324.45	1648.61
324.66	1708.01
324.88	1814.50
325.09	1783.78
325.30	1748.97
325.52	1785.83
325.73	1748.97
325.94	1710.05
326.15	1675.24
326.37	1759.21
326.58	1744.87
326.79	1765.35
327.00	1630.18
327.22	1691.62
327.43	1738.73
327.64	1648.61
327.85	1669.09
328.07	1665.00
328.28	1794.02
328.49	1624.04
328.70	1703.91
328.92	1740.77
329.13	1832.93
329.34	1746.92
329.55	1839.08
329.76	1791.97
329.98	1738.73
330.19	1771.49
330.40	1710.05
330.61	1775.59
330.83	1775.59
331.04	1656.81
331.25	1748.97
331.46	1761.25
331.68	1630.18
331.89	1773.54
332.10	1767.40
332.31	1634.28
332.52	1665.00
332.74	1755.11
332.95	1710.05
333.16	1656.81
333.37	1634.28
333.58	1689.57
333.80	1734.63
334.01	1624.04
334.22	1660.90
334.43	1605.61
334.64	1759.21
334.86	1673.19
335.07	1685.48
335.28	1785.83
335.49	1648.61
335.70	1802.21
335.92	1724.39
336.13	1796.07
336.34	1734.63
336.55	1697.77
336.76	1673.19
336.98	1609.70
337.19	1732.58
337.40	1871.84
337.61	1855.46
337.82	1640.42
338.04	1753.06
338.25	1632.23
338.46	1732.58
338.67	1673.19
338.88	1656.81
339.09	1693.67
339.31	1673.19
339.52	1656.81
339.73	1634.28
339.94	1751.01
340.15	1841.12
340.36	1640.42
340.58	1755.11
340.79	1689.57
341.00	1763.30
341.21	1615.85
341.42	1839.08
341.63	1718.25
341.85	1796.07
342.06	1751.01
342.27	1636.33
342.48	1808.36
342.69	1742.82
342.90	1775.59
343.12	1796.07
343.33	1705.96
343.54	1771.49
343.75	1765.35
343.96	1759.21
344.17	1751.01
344.38	1675.24
344.60	1603.56
344.81	1732.58
345.02	1734.63
345.23	1791.97
345.44	1789.92
345.65	1738.73
345.86	1710.05
346.07	1716.20
346.29	1681.38
346.50	1654.76
346.71	1744.87
346.92	1812.45
347.13	1822.69
347.34	1755.11
347.55	1652.71
347.76	1767.40
347.98	1591.27
348.19	1630.18
348.40	1808.36
348.61	1757.16
348.82	1806.31
349.03	1761.25
349.24	1673.19
349.45	1824.74
349.66	1626.09
349.88	1791.97
350.09	1601.51
350.30	1787.88
350.51	1781.73
350.72	1716.20
350.93	1722.34
351.14	1617.90
351.35	1755.11
351.56	1675.24
351.77	1697.77
351.99	1693.67
352.20	1826.79
352.41	1781.73
352.62	1626.09
352.83	1726.44
353.04	1697.77
353.25	1703.91
353.46	1822.69
353.67	1716.20
353.88	1601.51
354.09	1800.16
354.30	1763.30
354.52	1755.11
354.73	1697.77
354.94	1679.33
355.15	1744.87
355.36	1720.29
355.57	1691.62
355.78	1767.40
355.99	1701.86
356.20	1662.95
356.41	1757.16
356.62	1744.87
356.83	1720.29
357.04	1816.55
357.25	1687.53
357.46	1683.43
357.68	1572.84
357.89	1722.34
358.10	1710.05
358.31	1753.06
358.52	1677.29
358.73	1564.65
358.94	1660.90
359.15	1714.15
359.36	1789.92
359.57	1800.16
359.78	1718.25
359.99	1765.35
360.20	1630.18
360.41	1757.16
360.62	1736.68
360.83	1742.82
361.04	1679.33
361.25	1744.87
361.46	1802.21
361.67	1800.16
361.88	1763.30
362.09	1763.30
362.30	1736.68
362.51	1732.58
362.72	1771.49
362.93	1753.06
363.14	1830.88
363.35	1673.19
363.56	1652.71
363.78	1712.10
363.99	1804.26
364.20	1630.18
364.41	1695.72
364.62	1824.74
364.83	1710.05
365.04	1667.05
365.25	1722.34
365.46	1767.40
365.67	1669.09
365.88	1628.14
366.09	1726.44
366.30	1689.57
366.51	1658.85
366.72	1619.94
366.93	1683.43
367.14	1683.43
367.35	1767.40
367.56	1716.20
367.77	1775.59
367.98	1757.16
368.18	1673.19
368.39	1748.97
368.60	1640.42
368.81	1712.10
369.02	1689.57
369.23	1744.87
369.44	1658.85
369.65	1658.85
369.86	1767.40
370.07	1746.92
370.28	1751.01
370.49	1812.45
370.70	1826.79
370.91	1630.18
371.12	1665.00
371.33	1804.26
371.54	1648.61
371.75	1771.49
371.96	1593.32
372.17	1712.10
372.38	1681.38
372.59	1779.68
372.80	1697.77
373.01	1804.26
373.22	1730.53
373.43	1718.25
373.64	1650.66
373.85	1755.11
374.06	1845.22
374.26	1710.05
374.47	1726.44
374.68	1751.01
374.89	1691.62
375.10	1667.05
375.31	1779.68
375.52	1744.87
375.73	1691.62
375.94	1675.24
376.15	1765.35
376.36	1632.23
376.57	1624.04
376.78	1656.81
376.99	1736.68
377.20	1773.54
377.40	1679.33
377.61	1834.98
377.82	1652.71
378.03	1798.12
378.24	1796.07
378.45	1806.31
378.66	1730.53
378.87	1685.48
379.08	1632.23
379.29	1691.62
379.50	1718.25
379.71	1718.25
379.91	1763.30
380.12	1687.53
380.33	1697.77
380.54	1681.38
380.75	1640.42
380.96	1824.74
381.17	1728.49
381.38	1712.10
381.59	1777.64
381.80	1781.73
382.00	1853.41
382.21	1763.30
382.42	1855.46
382.63	1894.37
382.84	1781.73
383.05	1826.79
383.26	1783.78
383.47	1775.59
383.68	1771.49
383.88	1804.26
384.09	1751.01
384.30	1814.50
384.51	1775.59
384.72	1730.53
384.93	1648.61
385.14	1734.63
385.35	1851.36
385.55	1611.75
385.76	1783.78
385.97	1621.99
386.18	1714.15
386.39	1701.86
386.60	1722.34
386.81	1755.11
387.02	1611.75
387.22	1646.57
387.43	1845.22
387.64	1826.79
387.85	1920.99
388.06	2174.94
388.27	4171.71
388.48	6797.21
388.68	8107.91
388.89	9586.54
389.10	9518.96
389.31	8550.27
389.52	7370.64
389.73	6623.13
389.93	6096.80
390.14	5789.61
390.35	5144.50
390.56	4558.78
390.77	3794.89
390.98	3028.95
391.18	2521.05
391.39	2179.04
391.60	1822.69
391.81	1814.50
392.02	1746.92
392.23	1869.80
392.43	1691.62
392.64	1832.93
392.85	1742.82
393.06	1828.84
393.27	1683.43
393.47	1662.95
393.68	1755.11
393.89	1773.54
394.10	1777.64
394.31	1671.14
394.52	1685.48
394.72	1671.14
394.93	1847.27
395.14	1617.90
395.35	1796.07
395.56	1689.57
395.76	1748.97
395.97	1826.79
396.18	1894.37
396.39	1843.17
396.60	2107.36
396.80	1853.41
397.01	1832.93
397.22	1785.83
397.43	1857.51
397.64	1744.87
397.84	1796.07
398.05	1824.74
398.26	1812.45
398.47	1751.01
398.67	1771.49
398.88	1738.73
399.09	1769.44
399.30	1681.38
399.51	1775.59
399.71	1681.38
399.92	1779.68
400.13	1789.92
400.34	1748.97
400.54	1726.44
400.75	1837.03
400.96	1742.82
401.17	1791.97
401.37	1751.01
401.58	1714.15
401.79	1746.92
402.00	1867.75
402.21	2086.88
402.41	1970.15
402.62	2019.30
402.83	2050.02
403.04	2060.26
403.24	2162.66
403.45	1804.26
403.66	1851.36
403.87	1828.84
404.07	1964.00
404.28	1980.39
404.49	1839.08
404.70	1806.31
404.90	1847.27
405.11	1781.73
405.32	1708.01
405.52	1701.86
405.73	1722.34
405.94	1710.05
406.15	1755.11
406.35	1742.82
406.56	1855.46
406.77	1746.92
406.98	1724.39
407.18	1691.62
407.39	1724.39
407.60	1726.44
407.80	1779.68
408.01	1763.30
408.22	1736.68
408.43	1611.75
408.63	1714.15
408.84	1765.35
409.05	1794.02
409.25	1705.96
409.46	1724.39
409.67	1683.43
409.88	1701.86
410.08	1724.39
410.29	1687.53
410.50	1769.44
410.70	1697.77
410.91	1675.24
411.12	1744.87
411.32	1648.61
411.53	1679.33
411.74	1787.88
411.95	1796.07
412.15	1761.25
412.36	1742.82
412.57	1857.51
412.77	1814.50
412.98	1759.21
413.19	1765.35
413.39	1734.63
413.60	1740.77
413.81	1761.25
414.01	1652.71
414.22	1777.64
414.43	1736.68
414.63	1763.30
414.84	1738.73
415.05	1669.09
415.25	1646.57
415.46	1744.87
415.67	1691.62
415.87	1783.78
416.08	1675.24
416.29	1685.48
416.49	1791.97
416.70	1675.24
416.91	1691.62
417.11	1761.25
417.32	1789.92
417.53	1730.53
417.73	1660.90
417.94	1746.92
418.15	1724.39
418.35	1669.09
418.56	1693.67
418.77	1865.70
418.97	1691.62
419.18	1746.92
419.38	1648.61
419.59	1681.38
419.80	1818.60
420.00	1701.86
420.21	1736.68
420.42	1812.45
420.62	1773.54
420.83	1671.14
421.04	1740.77
421.24	1667.05
421.45	1736.68
421.65	1703.91
421.86	1679.33
422.07	1785.83
422.27	1804.26
422.48	1710.05
422.69	1701.86
422.89	1730.53
423.10	1710.05
423.30	1605.61
423.51	1742.82
423.72	1681.38
423.92	1755.11
424.13	1701.86
424.33	1753.06
424.54	1773.54
424.75	1726.44
424.95	1798.12
425.16	1767.40
425.36	1712.10
425.57	1734.63
425.78	1800.16
425.98	1791.97
426.19	1773.54
426.39	1705.96
426.60	1689.57
426.81	1818.60
427.01	1734.63
427.22	1673.19
427.42	1667.05
427.63	1550.31
427.83	1761.25
428.04	1779.68
428.25	1877.99
428.45	1804.26
428.66	1748.97
428.86	1693.67
429.07	1701.86
429.28	1773.54
429.48	1734.63
429.69	1574.89
429.89	1724.39
430.10	1681.38
430.30	1834.98
430.51	1730.53
430.71	1720.29
430.92	1757.16
431.13	1720.29
431.33	1791.97
431.54	1712.10
431.74	1816.55
431.95	1843.17
432.15	1640.42
432.36	1708.01
432.56	1853.41
432.77	1832.93
432.98	1820.64
433.18	1800.16
433.39	1746.92
433.59	1689.57
433.80	1804.26
434.00	1892.32
434.21	1734.63
434.41	1701.86
434.62	1882.08
434.82	1665.00
435.03	1685.48
435.23	1658.85
435.44	1578.98
435.64	1669.09
435.85	1740.77
436.06	1738.73
436.26	1703.91
436.47	1701.86
436.67	1718.25
436.88	1738.73
437.08	1816.55
437.29	1830.88
437.49	1753.06
437.70	1773.54
437.90	1689.57
438.11	1855.46
438.31	1761.25
438.52	1830.88
438.72	1812.45
438.93	1902.56
439.13	1779.68
439.34	1798.12
439.54	1746.92
439.75	1738.73
439.95	1822.69
440.16	1742.82
440.36	1781.73
440.57	1783.78
440.77	1722.34
440.98	1732.58
441.18	1787.88
441.39	1730.53
441.59	1650.66
441.80	1820.64
442.00	1708.01
442.21	1880.04
442.41	1699.81
442.62	1775.59
442.82	1671.14
443.02	1783.78
443.23	1728.49
443.43	1738.73
443.64	1753.06
443.84	1763.30
444.05	1837.03
444.25	1781.73
444.46	1740.77
444.66	1767.40
444.87	1818.60
445.07	1671.14
445.28	1699.81
445.48	1779.68
445.69	1757.16
445.89	1871.84
446.09	1775.59
446.30	2103.26
446.50	2686.94
446.71	3841.99
446.91	4296.64
447.12	4622.27
447.32	4794.29
447.53	4300.73
447.73	3895.24
447.93	3499.98
448.14	3336.14
448.34	3284.94
448.55	2865.11
448.75	2856.92
448.96	2639.83
449.16	2439.13
449.36	2306.01
449.57	1996.77
449.77	1937.38
449.98	1787.88
450.18	1816.55
450.39	1855.46
450.59	1804.26
450.79	1683.43
451.00	1689.57
451.20	1755.11
451.41	1738.73
451.61	1738.73
451.81	1810.40
452.02	1718.25
452.22	1751.01
452.43	1769.44
452.63	1746.92
