SpectraSuite Data File
++++++++++++++++++++++++++++++++++++
Date: Mon Jun 06 15:18:37 CEST 2016
User: root
Dark Spectrum Present: No
Reference Spectrum Present: No
Number of Sampled Component Spectra: 1
Spectrometers: USB4C02835
Integration Time (usec): 100000 (USB4C02835)
Spectra Averaged: 1 (USB4C02835)
Boxcar Smoothing: 0 (USB4C02835)
Correct for Electrical Dark: No (USB4C02835)
Strobe/Lamp Enabled: No (USB4C02835)
Correct for Detector Non-linearity: No (USB4C02835)
Correct for Stray Light: No (USB4C02835)
Number of Pixels in Processed Spectrum: 3648
>>>>>Begin Processed Spectral Data<<<<<
177.47	1492.97
177.69	1492.97
177.91	1492.97
178.13	1449.96
178.36	1419.24
178.58	1718.25
178.80	1736.68
179.02	1697.77
179.24	1658.85
179.46	1667.05
179.68	1728.49
179.90	1624.04
180.13	1742.82
180.35	1765.35
180.57	1644.52
180.79	1763.30
181.01	1673.19
181.23	1796.07
181.45	1701.86
181.67	1677.29
181.90	1699.81
182.12	1687.53
182.34	1593.32
182.56	1771.49
182.78	1705.96
183.00	1705.96
183.22	1681.38
183.44	1640.42
183.66	1869.80
183.89	1800.16
184.11	1787.88
184.33	1720.29
184.55	1703.91
184.77	1685.48
184.99	1695.72
185.21	1712.10
185.43	1802.21
185.65	1636.33
185.87	1718.25
186.10	1794.02
186.32	1875.94
186.54	1689.57
186.76	1712.10
186.98	1798.12
187.20	1693.67
187.42	1687.53
187.64	1734.63
187.86	1734.63
188.08	1775.59
188.30	1748.97
188.52	1708.01
188.75	1820.64
188.97	1806.31
189.19	1691.62
189.41	1748.97
189.63	1701.86
189.85	1611.75
190.07	1583.08
190.29	1607.66
190.51	1667.05
190.73	1619.94
190.95	1710.05
191.17	1675.24
191.39	1560.55
191.61	1624.04
191.84	1615.85
192.06	1724.39
192.28	1636.33
192.50	1837.03
192.72	1681.38
192.94	1765.35
193.16	1832.93
193.38	1734.63
193.60	1636.33
193.82	1708.01
194.04	1781.73
194.26	1701.86
194.48	1714.15
194.70	1734.63
194.92	1650.66
195.14	1744.87
195.36	1648.61
195.58	1701.86
195.80	1665.00
196.02	1656.81
196.24	1703.91
196.46	1824.74
196.69	1734.63
196.91	1832.93
197.13	1751.01
197.35	1742.82
197.57	1796.07
197.79	1779.68
198.01	1755.11
198.23	1734.63
198.45	1697.77
198.67	1683.43
198.89	1687.53
199.11	1626.09
199.33	1683.43
199.55	1611.75
199.77	1712.10
199.99	1759.21
200.21	1703.91
200.43	1703.91
200.65	1624.04
200.87	1578.98
201.09	1665.00
201.31	1695.72
201.53	1736.68
201.75	1767.40
201.97	1710.05
202.19	1697.77
202.41	1734.63
202.63	1767.40
202.85	1773.54
203.07	1738.73
203.29	1699.81
203.51	1656.81
203.73	1671.14
203.95	1880.04
204.17	1767.40
204.39	1732.58
204.61	1773.54
204.83	1736.68
205.05	1771.49
205.27	1773.54
205.49	1738.73
205.71	1757.16
205.93	1628.14
206.15	1665.00
206.37	1667.05
206.59	1718.25
206.81	1716.20
207.03	1654.76
207.25	1611.75
207.47	1691.62
207.69	1726.44
207.91	1791.97
208.13	1822.69
208.34	1667.05
208.56	1714.15
208.78	1734.63
209.00	1724.39
209.22	1728.49
209.44	1703.91
209.66	1665.00
209.88	1730.53
210.10	1738.73
210.32	1667.05
210.54	1783.78
210.76	1687.53
210.98	1726.44
211.20	1638.38
211.42	1732.58
211.64	1814.50
211.86	1730.53
212.08	1757.16
212.30	1751.01
212.52	1667.05
212.74	1802.21
212.96	1767.40
213.17	1724.39
213.39	1773.54
213.61	1775.59
213.83	1677.29
214.05	1673.19
214.27	1734.63
214.49	1605.61
214.71	1667.05
214.93	1703.91
215.15	1687.53
215.37	1734.63
215.59	1628.14
215.81	1714.15
216.03	1873.89
216.24	1613.80
216.46	1689.57
216.68	1714.15
216.90	1781.73
217.12	1716.20
217.34	1794.02
217.56	1742.82
217.78	1781.73
218.00	1716.20
218.22	1669.09
218.44	1763.30
218.66	1703.91
218.87	1855.46
219.09	1699.81
219.31	1738.73
219.53	1767.40
219.75	1716.20
219.97	1660.90
220.19	1794.02
220.41	1705.96
220.63	1779.68
220.85	1751.01
221.06	1650.66
221.28	1824.74
221.50	1783.78
221.72	1708.01
221.94	1726.44
222.16	1746.92
222.38	1781.73
222.60	1765.35
222.82	1652.71
223.03	1794.02
223.25	1624.04
223.47	1798.12
223.69	1865.70
223.91	1722.34
224.13	1665.00
224.35	1628.14
224.57	1662.95
224.78	1714.15
225.00	1650.66
225.22	1611.75
225.44	1710.05
225.66	1779.68
225.88	1679.33
226.10	1744.87
226.32	1705.96
226.53	1806.31
226.75	1736.68
226.97	1685.48
227.19	1755.11
227.41	1708.01
227.63	1730.53
227.85	1624.04
228.06	1726.44
228.28	1697.77
228.50	1720.29
228.72	1658.85
228.94	1642.47
229.16	1689.57
229.37	1648.61
229.59	1669.09
229.81	1791.97
230.03	1755.11
230.25	1619.94
230.47	1683.43
230.69	1626.09
230.90	1748.97
231.12	1734.63
231.34	1718.25
231.56	1818.60
231.78	1656.81
232.00	1710.05
232.21	1617.90
232.43	1759.21
232.65	1619.94
232.87	1683.43
233.09	1705.96
233.30	1720.29
233.52	1718.25
233.74	1703.91
233.96	1697.77
234.18	1798.12
234.40	1626.09
234.61	1863.65
234.83	1652.71
235.05	1638.38
235.27	1923.04
235.49	1736.68
235.70	1757.16
235.92	1718.25
236.14	1699.81
236.36	1861.60
236.58	1685.48
236.79	1751.01
237.01	1693.67
237.23	1699.81
237.45	1806.31
237.67	1660.90
237.88	1712.10
238.10	1734.63
238.32	1693.67
238.54	1712.10
238.76	1697.77
238.97	1654.76
239.19	1640.42
239.41	1845.22
239.63	1769.44
239.85	1660.90
240.06	1689.57
240.28	1619.94
240.50	1755.11
240.72	1701.86
240.93	1722.34
241.15	1720.29
241.37	1734.63
241.59	1791.97
241.81	1740.77
242.02	1703.91
242.24	1683.43
242.46	1751.01
242.68	1652.71
242.89	1652.71
243.11	1783.78
243.33	1683.43
243.55	1677.29
243.76	1689.57
243.98	1675.24
244.20	1722.34
244.42	1693.67
244.64	1724.39
244.85	1648.61
245.07	1662.95
245.29	1804.26
245.51	1761.25
245.72	1689.57
245.94	1773.54
246.16	1671.14
246.38	1808.36
246.59	1603.56
246.81	1679.33
247.03	1714.15
247.24	1613.80
247.46	1650.66
247.68	1689.57
247.90	1785.83
248.11	1605.61
248.33	1791.97
248.55	1730.53
248.77	1708.01
248.98	1800.16
249.20	1857.51
249.42	1730.53
249.64	1818.60
249.85	1689.57
250.07	1665.00
250.29	1802.21
250.50	1753.06
250.72	1621.99
250.94	1779.68
251.16	1789.92
251.37	1736.68
251.59	1679.33
251.81	1757.16
252.02	1804.26
252.24	1632.23
252.46	1726.44
252.68	1648.61
252.89	1646.57
253.11	1644.52
253.33	1812.45
253.54	1765.35
253.76	1650.66
253.98	1665.00
254.20	1732.58
254.41	1619.94
254.63	1718.25
254.85	1634.28
255.06	1722.34
255.28	1669.09
255.50	1630.18
255.71	1658.85
255.93	1636.33
256.15	1632.23
256.36	1716.20
256.58	1714.15
256.80	1806.31
257.02	1671.14
257.23	1665.00
257.45	1720.29
257.67	1677.29
257.88	1658.85
258.10	1699.81
258.32	1681.38
258.53	1728.49
258.75	1837.03
258.97	1679.33
259.18	1689.57
259.40	1728.49
259.62	1824.74
259.83	1863.65
260.05	1767.40
260.27	1992.67
260.48	1757.16
260.70	1613.80
260.92	1716.20
261.13	1673.19
261.35	1757.16
261.57	1703.91
261.78	1617.90
262.00	1708.01
262.22	1742.82
262.43	1634.28
262.65	1714.15
262.86	1652.71
263.08	1759.21
263.30	1757.16
263.51	1617.90
263.73	1722.34
263.95	1851.36
264.16	1560.55
264.38	1673.19
264.60	1765.35
264.81	1724.39
265.03	1816.55
265.25	1759.21
265.46	1730.53
265.68	1775.59
265.89	1732.58
266.11	1603.56
266.33	1732.58
266.54	1798.12
266.76	1648.61
266.98	1722.34
267.19	1740.77
267.41	1775.59
267.62	1685.48
267.84	1624.04
268.06	1726.44
268.27	1699.81
268.49	1761.25
268.70	1751.01
268.92	1767.40
269.14	1685.48
269.35	1581.03
269.57	1636.33
269.79	1730.53
270.00	1667.05
270.22	1728.49
270.43	1689.57
270.65	1566.70
270.87	1716.20
271.08	1839.08
271.30	1722.34
271.51	1730.53
271.73	1775.59
271.95	1714.15
272.16	1738.73
272.38	1703.91
272.59	1728.49
272.81	1734.63
273.02	1755.11
273.24	1722.34
273.46	1763.30
273.67	1658.85
273.89	1656.81
274.10	1675.24
274.32	1755.11
274.54	1738.73
274.75	1730.53
274.97	1783.78
275.18	1767.40
275.40	1701.86
275.61	1710.05
275.83	1728.49
276.05	1570.79
276.26	1697.77
276.48	1724.39
276.69	1701.86
276.91	1671.14
277.12	1695.72
277.34	1732.58
277.55	1802.21
277.77	1669.09
277.99	1705.96
278.20	1572.84
278.42	1665.00
278.63	1693.67
278.85	1617.90
279.06	1726.44
279.28	1724.39
279.49	1724.39
279.71	1638.38
279.93	1755.11
280.14	1755.11
280.36	1708.01
280.57	1716.20
280.79	1742.82
281.00	1654.76
281.22	1718.25
281.43	1732.58
281.65	1615.85
281.86	1638.38
282.08	1730.53
282.29	1781.73
282.51	1648.61
282.73	1710.05
282.94	1617.90
283.16	1810.40
283.37	1837.03
283.59	1693.67
283.80	1771.49
284.02	1697.77
284.23	1720.29
284.45	1699.81
284.66	1630.18
284.88	1687.53
285.09	1742.82
285.31	1728.49
285.52	1699.81
285.74	1667.05
285.95	1746.92
286.17	1787.88
286.38	1796.07
286.60	1703.91
286.81	1665.00
287.03	1656.81
287.24	1734.63
287.46	1710.05
287.67	1710.05
287.89	1902.56
288.10	1703.91
288.32	1746.92
288.53	1730.53
288.75	1740.77
288.96	1720.29
289.18	1705.96
289.39	1683.43
289.61	1720.29
289.82	1828.84
290.04	1818.60
290.25	1642.47
290.47	1685.48
290.68	1673.19
290.90	1771.49
291.11	1607.66
291.33	1810.40
291.54	1683.43
291.76	1714.15
291.97	1734.63
292.18	1703.91
292.40	1718.25
292.61	1691.62
292.83	1816.55
293.04	1734.63
293.26	1662.95
293.47	1695.72
293.69	1660.90
293.90	1675.24
294.12	1810.40
294.33	1765.35
294.55	1746.92
294.76	1771.49
294.97	1769.44
295.19	1847.27
295.40	1650.66
295.62	1679.33
295.83	1759.21
296.05	1716.20
296.26	1800.16
296.48	1636.33
296.69	1689.57
296.90	1679.33
297.12	1830.88
297.33	1863.65
297.55	1669.09
297.76	1710.05
297.98	1804.26
298.19	1677.29
298.41	1738.73
298.62	1613.80
298.83	1880.04
299.05	1685.48
299.26	1658.85
299.48	1656.81
299.69	1720.29
299.90	1681.38
300.12	1613.80
300.33	1755.11
300.55	1742.82
300.76	1691.62
300.98	1644.52
301.19	1687.53
301.40	1681.38
301.62	1697.77
301.83	1667.05
302.05	1728.49
302.26	1767.40
302.47	1718.25
302.69	1583.08
302.90	1724.39
303.12	1617.90
303.33	1824.74
303.54	1824.74
303.76	1724.39
303.97	1679.33
304.19	1763.30
304.40	1673.19
304.61	1779.68
304.83	1810.40
305.04	1800.16
305.26	1748.97
305.47	1685.48
305.68	1675.24
305.90	1626.09
306.11	1748.97
306.33	1648.61
306.54	1695.72
306.75	1656.81
306.97	1560.55
307.18	1703.91
307.39	1695.72
307.61	1683.43
307.82	1695.72
308.04	1746.92
308.25	1650.66
308.46	1671.14
308.68	1712.10
308.89	1685.48
309.10	1701.86
309.32	1828.84
309.53	1681.38
309.74	1775.59
309.96	1683.43
310.17	1769.44
310.39	1630.18
310.60	1724.39
310.81	1738.73
311.03	1710.05
311.24	1740.77
311.45	1722.34
311.67	1783.78
311.88	1689.57
312.09	1730.53
312.31	1693.67
312.52	1781.73
312.73	1734.63
312.95	1679.33
313.16	1630.18
313.37	1769.44
313.59	1751.01
313.80	1843.17
314.01	1824.74
314.23	1753.06
314.44	1615.85
314.65	1662.95
314.87	1789.92
315.08	1738.73
315.29	1681.38
315.51	1669.09
315.72	1687.53
315.93	1800.16
316.15	1685.48
316.36	1609.70
316.57	1705.96
316.79	1744.87
317.00	1587.18
317.21	1716.20
317.43	1646.57
317.64	1660.90
317.85	1685.48
318.07	1609.70
318.28	1673.19
318.49	1845.22
318.70	1882.08
318.92	1773.54
319.13	1861.60
319.34	1875.94
319.56	1767.40
319.77	1832.93
319.98	1730.53
320.20	1789.92
320.41	1781.73
320.62	1732.58
320.83	1724.39
321.05	1818.60
321.26	1714.15
321.47	1759.21
321.69	1773.54
321.90	1595.37
322.11	1621.99
322.32	1730.53
322.54	1769.44
322.75	1607.66
322.96	1894.37
323.18	1714.15
323.39	1652.71
323.60	1718.25
323.81	1785.83
324.03	1677.29
324.24	1619.94
324.45	1726.44
324.66	1630.18
324.88	1773.54
325.09	1810.40
325.30	1759.21
325.52	1697.77
325.73	1767.40
325.94	1599.46
326.15	1607.66
326.37	1769.44
326.58	1716.20
326.79	1734.63
327.00	1679.33
327.22	1716.20
327.43	1675.24
327.64	1658.85
327.85	1755.11
328.07	1720.29
328.28	1814.50
328.49	1732.58
328.70	1667.05
328.92	1732.58
329.13	1703.91
329.34	1697.77
329.55	1761.25
329.76	1742.82
329.98	1665.00
330.19	1828.84
330.40	1724.39
330.61	1712.10
330.83	1783.78
331.04	1714.15
331.25	1720.29
331.46	1669.09
331.68	1648.61
331.89	1775.59
332.10	1759.21
332.31	1677.29
332.52	1703.91
332.74	1843.17
332.95	1656.81
333.16	1650.66
333.37	1742.82
333.58	1757.16
333.80	1662.95
334.01	1638.38
334.22	1724.39
334.43	1656.81
334.64	1665.00
334.86	1650.66
335.07	1621.99
335.28	1738.73
335.49	1601.51
335.70	1755.11
335.92	1779.68
336.13	1771.49
336.34	1669.09
336.55	1705.96
336.76	1671.14
336.98	1644.52
337.19	1712.10
337.40	1763.30
337.61	1775.59
337.82	1652.71
338.04	1759.21
338.25	1681.38
338.46	1697.77
338.67	1732.58
338.88	1619.94
339.09	1595.37
339.31	1673.19
339.52	1652.71
339.73	1712.10
339.94	1705.96
340.15	1818.60
340.36	1634.28
340.58	1701.86
340.79	1683.43
341.00	1695.72
341.21	1599.46
341.42	1830.88
341.63	1642.47
341.85	1648.61
342.06	1755.11
342.27	1695.72
342.48	1818.60
342.69	1642.47
342.90	1730.53
343.12	1740.77
343.33	1691.62
343.54	1779.68
343.75	1761.25
343.96	1759.21
344.17	1662.95
344.38	1712.10
344.60	1689.57
344.81	1617.90
345.02	1681.38
345.23	1810.40
345.44	1787.88
345.65	1699.81
345.86	1738.73
346.07	1695.72
346.29	1638.38
346.50	1671.14
346.71	1767.40
346.92	1822.69
347.13	1736.68
347.34	1718.25
347.55	1673.19
347.76	1769.44
347.98	1679.33
348.19	1617.90
348.40	1818.60
348.61	1722.34
348.82	1769.44
349.03	1777.64
349.24	1648.61
349.45	1857.51
349.66	1560.55
349.88	1703.91
350.09	1730.53
350.30	1740.77
350.51	1665.00
350.72	1708.01
350.93	1751.01
351.14	1705.96
351.35	1771.49
351.56	1800.16
351.77	1767.40
351.99	1753.06
352.20	1812.45
352.41	1804.26
352.62	1656.81
352.83	1724.39
353.04	1716.20
353.25	1703.91
353.46	1748.97
353.67	1769.44
353.88	1619.94
354.09	1767.40
354.30	1726.44
354.52	1726.44
354.73	1730.53
354.94	1714.15
355.15	1687.53
355.36	1826.79
355.57	1673.19
355.78	1748.97
355.99	1687.53
356.20	1679.33
356.41	1767.40
356.62	1751.01
356.83	1748.97
357.04	1746.92
357.25	1552.36
357.46	1712.10
357.68	1593.32
357.89	1728.49
358.10	1640.42
358.31	1693.67
358.52	1705.96
358.73	1554.41
358.94	1642.47
359.15	1726.44
359.36	1718.25
359.57	1673.19
359.78	1712.10
359.99	1644.52
360.20	1695.72
360.41	1748.97
360.62	1755.11
360.83	1794.02
361.04	1763.30
361.25	1734.63
361.46	1849.32
361.67	1691.62
361.88	1744.87
362.09	1767.40
362.30	1693.67
362.51	1671.14
362.72	1699.81
362.93	1724.39
363.14	1720.29
363.35	1751.01
363.56	1656.81
363.78	1773.54
363.99	1771.49
364.20	1644.52
364.41	1748.97
364.62	1837.03
364.83	1658.85
365.04	1732.58
365.25	1697.77
365.46	1839.08
365.67	1730.53
365.88	1644.52
366.09	1656.81
366.30	1660.90
366.51	1755.11
366.72	1685.48
366.93	1728.49
367.14	1710.05
367.35	1794.02
367.56	1775.59
367.77	1738.73
367.98	1744.87
368.18	1681.38
368.39	1701.86
368.60	1673.19
368.81	1693.67
369.02	1691.62
369.23	1687.53
369.44	1679.33
369.65	1578.98
369.86	1757.16
370.07	1722.34
370.28	1671.14
370.49	1701.86
370.70	1687.53
370.91	1708.01
371.12	1740.77
371.33	1685.48
371.54	1701.86
371.75	1738.73
371.96	1566.70
372.17	1746.92
372.38	1746.92
372.59	1794.02
372.80	1681.38
373.01	1669.09
373.22	1779.68
373.43	1718.25
373.64	1615.85
373.85	1822.69
374.06	1837.03
374.26	1726.44
374.47	1716.20
374.68	1832.93
374.89	1710.05
375.10	1673.19
375.31	1746.92
375.52	1796.07
375.73	1654.76
375.94	1740.77
376.15	1859.56
376.36	1624.04
376.57	1742.82
376.78	1658.85
376.99	1753.06
377.20	1789.92
377.40	1730.53
377.61	1841.12
377.82	1630.18
378.03	1818.60
378.24	1726.44
378.45	1738.73
378.66	1712.10
378.87	1560.55
379.08	1591.27
379.29	1644.52
379.50	1755.11
379.71	1722.34
379.91	1753.06
380.12	1679.33
380.33	1705.96
380.54	1656.81
380.75	1630.18
380.96	1718.25
381.17	1828.84
381.38	1785.83
381.59	1722.34
381.80	1781.73
382.00	1861.60
382.21	1746.92
382.42	1779.68
382.63	1873.89
382.84	1685.48
383.05	1789.92
383.26	1791.97
383.47	1667.05
383.68	1781.73
383.88	1705.96
384.09	1740.77
384.30	1804.26
384.51	1775.59
384.72	1712.10
384.93	1669.09
385.14	1708.01
385.35	1755.11
385.55	1644.52
385.76	1738.73
385.97	1611.75
386.18	1640.42
386.39	1679.33
386.60	1718.25
386.81	1656.81
387.02	1646.57
387.22	1665.00
387.43	1738.73
387.64	1818.60
387.85	1863.65
388.06	2191.33
388.27	4065.22
388.48	6535.07
388.68	7835.53
388.89	9176.95
389.10	9367.41
389.31	8312.71
389.52	7276.43
389.73	6377.37
389.93	5957.54
390.14	5654.44
390.35	4945.84
390.56	4542.39
390.77	3776.45
390.98	3006.42
391.18	2482.14
391.39	2136.03
391.60	1851.36
391.81	1867.75
392.02	1730.53
392.23	1828.84
392.43	1759.21
392.64	1861.60
392.85	1732.58
393.06	1722.34
393.27	1730.53
393.47	1654.76
393.68	1804.26
393.89	1857.51
394.10	1826.79
394.31	1718.25
394.52	1660.90
394.72	1671.14
394.93	1755.11
395.14	1615.85
395.35	1667.05
395.56	1665.00
395.76	1718.25
395.97	1796.07
396.18	1845.22
396.39	1847.27
396.60	2066.40
396.80	1935.33
397.01	1773.54
397.22	1822.69
397.43	1914.85
397.64	1673.19
397.84	1824.74
398.05	1849.32
398.26	1708.01
398.47	1781.73
398.67	1763.30
398.88	1712.10
399.09	1783.78
399.30	1734.63
399.51	1773.54
399.71	1685.48
399.92	1642.47
400.13	1669.09
400.34	1646.57
400.54	1765.35
400.75	1794.02
400.96	1634.28
401.17	1789.92
401.37	1689.57
401.58	1746.92
401.79	1701.86
402.00	1871.84
402.21	1937.38
402.41	1929.19
402.62	2000.87
402.83	1959.91
403.04	1947.62
403.24	2050.02
403.45	1867.75
403.66	1861.60
403.87	1853.41
404.07	1882.08
404.28	1927.14
404.49	1927.14
404.70	1796.07
404.90	1837.03
405.11	1779.68
405.32	1712.10
405.52	1675.24
405.73	1621.99
405.94	1665.00
406.15	1679.33
406.35	1857.51
406.56	1832.93
406.77	1714.15
406.98	1769.44
407.18	1697.77
407.39	1804.26
407.60	1769.44
407.80	1677.29
408.01	1665.00
408.22	1673.19
408.43	1626.09
408.63	1757.16
408.84	1716.20
409.05	1783.78
409.25	1683.43
409.46	1656.81
409.67	1685.48
409.88	1685.48
410.08	1740.77
410.29	1658.85
410.50	1753.06
410.70	1748.97
410.91	1634.28
411.12	1765.35
411.32	1734.63
411.53	1689.57
411.74	1800.16
411.95	1796.07
412.15	1738.73
412.36	1785.83
412.57	1753.06
412.77	1753.06
412.98	1701.86
413.19	1728.49
413.39	1779.68
413.60	1769.44
413.81	1847.27
414.01	1654.76
414.22	1718.25
414.43	1796.07
414.63	1695.72
414.84	1773.54
415.05	1697.77
415.25	1626.09
415.46	1716.20
415.67	1722.34
415.87	1757.16
416.08	1703.91
416.29	1650.66
416.49	1722.34
416.70	1656.81
416.91	1755.11
417.11	1695.72
417.32	1744.87
417.53	1822.69
417.73	1732.58
417.94	1783.78
418.15	1671.14
418.35	1763.30
418.56	1755.11
418.77	1847.27
418.97	1751.01
419.18	1712.10
419.38	1771.49
419.59	1787.88
419.80	1863.65
420.00	1619.94
420.21	1775.59
420.42	1677.29
420.62	1662.95
420.83	1656.81
421.04	1703.91
421.24	1667.05
421.45	1767.40
421.65	1732.58
421.86	1644.52
422.07	1810.40
422.27	1787.88
422.48	1732.58
422.69	1619.94
422.89	1712.10
423.10	1789.92
423.30	1638.38
423.51	1759.21
423.72	1708.01
423.92	1765.35
424.13	1665.00
424.33	1689.57
424.54	1802.21
424.75	1734.63
424.95	1849.32
425.16	1818.60
425.36	1699.81
425.57	1734.63
425.78	1748.97
425.98	1775.59
426.19	1769.44
426.39	1611.75
426.60	1744.87
426.81	1791.97
427.01	1695.72
427.22	1595.37
427.42	1644.52
427.63	1697.77
427.83	1714.15
428.04	1814.50
428.25	1775.59
428.45	1767.40
428.66	1724.39
428.86	1652.71
429.07	1679.33
429.28	1730.53
429.48	1753.06
429.69	1665.00
429.89	1720.29
430.10	1615.85
430.30	1732.58
430.51	1722.34
430.71	1681.38
430.92	1716.20
431.13	1730.53
431.33	1751.01
431.54	1763.30
431.74	1794.02
431.95	1845.22
432.15	1634.28
432.36	1701.86
432.56	1791.97
432.77	1869.80
432.98	1859.56
433.18	1734.63
433.39	1712.10
433.59	1691.62
433.80	1812.45
434.00	1886.18
434.21	1708.01
434.41	1648.61
434.62	1841.12
434.82	1574.89
435.03	1679.33
435.23	1716.20
435.44	1697.77
435.64	1662.95
435.85	1779.68
436.06	1791.97
436.26	1660.90
436.47	1712.10
436.67	1718.25
436.88	1732.58
437.08	1763.30
437.29	1800.16
437.49	1718.25
437.70	1830.88
437.90	1787.88
438.11	1808.36
438.31	1826.79
438.52	1755.11
438.72	1822.69
438.93	1941.47
439.13	1761.25
439.34	1802.21
439.54	1652.71
439.75	1845.22
439.95	1832.93
440.16	1755.11
440.36	1828.84
440.57	1748.97
440.77	1757.16
440.98	1769.44
441.18	1744.87
441.39	1697.77
441.59	1722.34
441.80	1767.40
442.00	1701.86
442.21	1814.50
442.41	1650.66
442.62	1779.68
442.82	1671.14
443.02	1662.95
443.23	1730.53
443.43	1738.73
443.64	1785.83
443.84	1665.00
444.05	1804.26
444.25	1783.78
444.46	1726.44
444.66	1701.86
444.87	1828.84
445.07	1701.86
445.28	1767.40
445.48	1785.83
445.69	1761.25
445.89	1904.61
446.09	1796.07
446.30	2070.50
446.50	2574.30
446.71	3571.66
446.91	4163.52
447.12	4585.40
447.32	4753.34
447.53	4138.94
447.73	3858.37
447.93	3426.25
448.14	3373.00
448.34	3112.91
448.55	2822.10
448.75	2865.11
448.96	2691.03
449.16	2324.44
449.36	2310.11
449.57	2123.74
449.77	1902.56
449.98	1744.87
450.18	1832.93
450.39	1818.60
450.59	1779.68
450.79	1697.77
451.00	1722.34
451.20	1816.55
451.41	1726.44
451.61	1693.67
451.81	1736.68
452.02	1705.96
452.22	1656.81
452.43	1787.88
452.63	1714.15
