SpectraSuite Data File
++++++++++++++++++++++++++++++++++++
Date: Mon Jun 06 13:01:37 CEST 2016
User: root
Dark Spectrum Present: No
Reference Spectrum Present: No
Number of Sampled Component Spectra: 1
Spectrometers: USB4C02835
Integration Time (usec): 100000 (USB4C02835)
Spectra Averaged: 1 (USB4C02835)
Boxcar Smoothing: 0 (USB4C02835)
Correct for Electrical Dark: No (USB4C02835)
Strobe/Lamp Enabled: No (USB4C02835)
Correct for Detector Non-linearity: No (USB4C02835)
Correct for Stray Light: No (USB4C02835)
Number of Pixels in Processed Spectrum: 3648
>>>>>Begin Processed Spectral Data<<<<<
177.47	1519.59
177.69	1519.59
177.91	1519.59
178.13	1398.76
178.36	1458.15
178.58	1636.33
178.80	1703.91
179.02	1597.42
179.24	1640.42
179.46	1734.63
179.68	1718.25
179.90	1593.32
180.13	1667.05
180.35	1679.33
180.57	1636.33
180.79	1775.59
181.01	1705.96
181.23	1730.53
181.45	1773.54
181.67	1689.57
181.90	1738.73
182.12	1710.05
182.34	1673.19
182.56	1751.01
182.78	1767.40
183.00	1697.77
183.22	1746.92
183.44	1615.85
183.66	1882.08
183.89	1800.16
184.11	1716.20
184.33	1734.63
184.55	1748.97
184.77	1681.38
184.99	1710.05
185.21	1660.90
185.43	1828.84
185.65	1728.49
185.87	1732.58
186.10	1783.78
186.32	1787.88
186.54	1736.68
186.76	1724.39
186.98	1755.11
187.20	1728.49
187.42	1699.81
187.64	1646.57
187.86	1677.29
188.08	1796.07
188.30	1759.21
188.52	1716.20
188.75	1826.79
188.97	1847.27
189.19	1701.86
189.41	1675.24
189.63	1777.64
189.85	1667.05
190.07	1685.48
190.29	1617.90
190.51	1734.63
190.73	1630.18
190.95	1796.07
191.17	1697.77
191.39	1611.75
191.61	1630.18
191.84	1744.87
192.06	1667.05
192.28	1558.50
192.50	1914.85
192.72	1779.68
192.94	1683.43
193.16	1775.59
193.38	1716.20
193.60	1654.76
193.82	1646.57
194.04	1730.53
194.26	1761.25
194.48	1699.81
194.70	1642.47
194.92	1648.61
195.14	1712.10
195.36	1703.91
195.58	1691.62
195.80	1705.96
196.02	1667.05
196.24	1609.70
196.46	1683.43
196.69	1708.01
196.91	1841.12
197.13	1597.42
197.35	1632.23
197.57	1802.21
197.79	1746.92
198.01	1685.48
198.23	1785.83
198.45	1730.53
198.67	1613.80
198.89	1660.90
199.11	1839.08
199.33	1554.41
199.55	1574.89
199.77	1718.25
199.99	1701.86
200.21	1642.47
200.43	1726.44
200.65	1658.85
200.87	1648.61
201.09	1681.38
201.31	1714.15
201.53	1677.29
201.75	1734.63
201.97	1699.81
202.19	1724.39
202.41	1722.34
202.63	1775.59
202.85	1753.06
203.07	1667.05
203.29	1722.34
203.51	1611.75
203.73	1621.99
203.95	1843.17
204.17	1712.10
204.39	1693.67
204.61	1609.70
204.83	1658.85
205.05	1746.92
205.27	1808.36
205.49	1773.54
205.71	1701.86
205.93	1595.37
206.15	1691.62
206.37	1673.19
206.59	1699.81
206.81	1650.66
207.03	1607.66
207.25	1718.25
207.47	1703.91
207.69	1714.15
207.91	1820.64
208.13	1757.16
208.34	1708.01
208.56	1617.90
208.78	1779.68
209.00	1609.70
209.22	1697.77
209.44	1646.57
209.66	1722.34
209.88	1710.05
210.10	1722.34
210.32	1642.47
210.54	1732.58
210.76	1695.72
210.98	1787.88
211.20	1630.18
211.42	1671.14
211.64	1800.16
211.86	1712.10
212.08	1775.59
212.30	1718.25
212.52	1691.62
212.74	1646.57
212.96	1699.81
213.17	1773.54
213.39	1660.90
213.61	1748.97
213.83	1830.88
214.05	1650.66
214.27	1722.34
214.49	1619.94
214.71	1587.18
214.93	1763.30
215.15	1662.95
215.37	1769.44
215.59	1546.22
215.81	1748.97
216.03	1777.64
216.24	1634.28
216.46	1681.38
216.68	1650.66
216.90	1789.92
217.12	1841.12
217.34	1693.67
217.56	1738.73
217.78	1769.44
218.00	1748.97
218.22	1722.34
218.44	1689.57
218.66	1785.83
218.87	1787.88
219.09	1685.48
219.31	1730.53
219.53	1748.97
219.75	1621.99
219.97	1757.16
220.19	1679.33
220.41	1642.47
220.63	1802.21
220.85	1757.16
221.06	1710.05
221.28	1841.12
221.50	1783.78
221.72	1757.16
221.94	1730.53
222.16	1691.62
222.38	1734.63
222.60	1744.87
222.82	1648.61
223.03	1665.00
223.25	1630.18
223.47	1783.78
223.69	1822.69
223.91	1746.92
224.13	1675.24
224.35	1705.96
224.57	1734.63
224.78	1767.40
225.00	1613.80
225.22	1714.15
225.44	1708.01
225.66	1720.29
225.88	1644.52
226.10	1781.73
226.32	1724.39
226.53	1761.25
226.75	1640.42
226.97	1697.77
227.19	1689.57
227.41	1650.66
227.63	1642.47
227.85	1636.33
228.06	1687.53
228.28	1662.95
228.50	1765.35
228.72	1665.00
228.94	1626.09
229.16	1560.55
229.37	1683.43
229.59	1642.47
229.81	1839.08
230.03	1650.66
230.25	1636.33
230.47	1554.41
230.69	1591.27
230.90	1718.25
231.12	1693.67
231.34	1789.92
231.56	1818.60
231.78	1632.23
232.00	1671.14
232.21	1665.00
232.43	1718.25
232.65	1562.60
232.87	1697.77
233.09	1624.04
233.30	1599.46
233.52	1714.15
233.74	1701.86
233.96	1656.81
234.18	1648.61
234.40	1681.38
234.61	1787.88
234.83	1644.52
235.05	1603.56
235.27	1884.13
235.49	1802.21
235.70	1660.90
235.92	1765.35
236.14	1761.25
236.36	1882.08
236.58	1650.66
236.79	1771.49
237.01	1744.87
237.23	1755.11
237.45	1822.69
237.67	1675.24
237.88	1724.39
238.10	1744.87
238.32	1581.03
238.54	1744.87
238.76	1724.39
238.97	1613.80
239.19	1757.16
239.41	1781.73
239.63	1775.59
239.85	1757.16
240.06	1726.44
240.28	1697.77
240.50	1714.15
240.72	1757.16
240.93	1599.46
241.15	1755.11
241.37	1710.05
241.59	1755.11
241.81	1679.33
242.02	1656.81
242.24	1744.87
242.46	1697.77
242.68	1669.09
242.89	1701.86
243.11	1828.84
243.33	1701.86
243.55	1843.17
243.76	1714.15
243.98	1708.01
244.20	1744.87
244.42	1632.23
244.64	1748.97
244.85	1617.90
245.07	1665.00
245.29	1734.63
245.51	1755.11
245.72	1708.01
245.94	1777.64
246.16	1767.40
246.38	1740.77
246.59	1689.57
246.81	1667.05
247.03	1617.90
247.24	1667.05
247.46	1617.90
247.68	1732.58
247.90	1669.09
248.11	1712.10
248.33	1714.15
248.55	1667.05
248.77	1714.15
248.98	1775.59
249.20	1841.12
249.42	1730.53
249.64	1779.68
249.85	1681.38
250.07	1636.33
250.29	1705.96
250.50	1777.64
250.72	1628.14
250.94	1732.58
251.16	1902.56
251.37	1732.58
251.59	1697.77
251.81	1736.68
252.02	1912.80
252.24	1673.19
252.46	1767.40
252.68	1662.95
252.89	1687.53
253.11	1693.67
253.33	1839.08
253.54	1779.68
253.76	1650.66
253.98	1662.95
254.20	1736.68
254.41	1640.42
254.63	1755.11
254.85	1667.05
255.06	1705.96
255.28	1705.96
255.50	1763.30
255.71	1705.96
255.93	1626.09
256.15	1617.90
256.36	1763.30
256.58	1708.01
256.80	1697.77
257.02	1656.81
257.23	1685.48
257.45	1701.86
257.67	1710.05
257.88	1689.57
258.10	1751.01
258.32	1677.29
258.53	1695.72
258.75	1777.64
258.97	1624.04
259.18	1685.48
259.40	1703.91
259.62	1769.44
259.83	1816.55
260.05	1609.70
260.27	1984.48
260.48	1744.87
260.70	1658.85
260.92	1689.57
261.13	1722.34
261.35	1628.14
261.57	1742.82
261.78	1640.42
262.00	1669.09
262.22	1667.05
262.43	1587.18
262.65	1699.81
262.86	1628.14
263.08	1751.01
263.30	1714.15
263.51	1712.10
263.73	1736.68
263.95	1812.45
264.16	1628.14
264.38	1605.61
264.60	1724.39
264.81	1650.66
265.03	1734.63
265.25	1769.44
265.46	1705.96
265.68	1757.16
265.89	1669.09
266.11	1626.09
266.33	1761.25
266.54	1779.68
266.76	1705.96
266.98	1753.06
267.19	1740.77
267.41	1751.01
267.62	1640.42
267.84	1630.18
268.06	1679.33
268.27	1665.00
268.49	1781.73
268.70	1798.12
268.92	1677.29
269.14	1687.53
269.35	1568.74
269.57	1656.81
269.79	1740.77
270.00	1679.33
270.22	1773.54
270.43	1654.76
270.65	1587.18
270.87	1701.86
271.08	1759.21
271.30	1716.20
271.51	1683.43
271.73	1765.35
271.95	1763.30
272.16	1626.09
272.38	1708.01
272.59	1628.14
272.81	1675.24
273.02	1708.01
273.24	1701.86
273.46	1689.57
273.67	1646.57
273.89	1642.47
274.10	1654.76
274.32	1722.34
274.54	1720.29
274.75	1683.43
274.97	1634.28
275.18	1667.05
275.40	1726.44
275.61	1714.15
275.83	1673.19
276.05	1730.53
276.26	1705.96
276.48	1708.01
276.69	1667.05
276.91	1646.57
277.12	1812.45
277.34	1705.96
277.55	1820.64
277.77	1734.63
277.99	1775.59
278.20	1626.09
278.42	1636.33
278.63	1673.19
278.85	1660.90
279.06	1624.04
279.28	1656.81
279.49	1718.25
279.71	1816.55
279.93	1722.34
280.14	1714.15
280.36	1693.67
280.57	1718.25
280.79	1689.57
281.00	1710.05
281.22	1685.48
281.43	1767.40
281.65	1609.70
281.86	1699.81
282.08	1746.92
282.29	1767.40
282.51	1650.66
282.73	1640.42
282.94	1624.04
283.16	1757.16
283.37	1787.88
283.59	1742.82
283.80	1652.71
284.02	1712.10
284.23	1681.38
284.45	1685.48
284.66	1685.48
284.88	1615.85
285.09	1691.62
285.31	1722.34
285.52	1718.25
285.74	1632.23
285.95	1665.00
286.17	1732.58
286.38	1771.49
286.60	1660.90
286.81	1685.48
287.03	1705.96
287.24	1630.18
287.46	1722.34
287.67	1628.14
287.89	1763.30
288.10	1736.68
288.32	1738.73
288.53	1761.25
288.75	1638.38
288.96	1740.77
289.18	1773.54
289.39	1744.87
289.61	1832.93
289.82	1783.78
290.04	1832.93
290.25	1652.71
290.47	1650.66
290.68	1736.68
290.90	1675.24
291.11	1630.18
291.33	1712.10
291.54	1613.80
291.76	1632.23
291.97	1751.01
292.18	1673.19
292.40	1662.95
292.61	1720.29
292.83	1914.85
293.04	1769.44
293.26	1697.77
293.47	1718.25
293.69	1626.09
293.90	1746.92
294.12	1714.15
294.33	1730.53
294.55	1748.97
294.76	1714.15
294.97	1783.78
295.19	1832.93
295.40	1642.47
295.62	1689.57
295.83	1699.81
296.05	1603.56
296.26	1830.88
296.48	1699.81
296.69	1691.62
296.90	1662.95
297.12	1775.59
297.33	1757.16
297.55	1695.72
297.76	1746.92
297.98	1740.77
298.19	1683.43
298.41	1687.53
298.62	1699.81
298.83	1798.12
299.05	1730.53
299.26	1613.80
299.48	1634.28
299.69	1726.44
299.90	1687.53
300.12	1662.95
300.33	1667.05
300.55	1753.06
300.76	1779.68
300.98	1576.94
301.19	1726.44
301.40	1695.72
301.62	1630.18
301.83	1767.40
302.05	1705.96
302.26	1693.67
302.47	1761.25
302.69	1591.27
302.90	1724.39
303.12	1558.50
303.33	1773.54
303.54	1808.36
303.76	1640.42
303.97	1636.33
304.19	1806.31
304.40	1644.52
304.61	1789.92
304.83	1808.36
305.04	1808.36
305.26	1789.92
305.47	1736.68
305.68	1705.96
305.90	1675.24
306.11	1695.72
306.33	1712.10
306.54	1632.23
306.75	1718.25
306.97	1634.28
307.18	1634.28
307.39	1671.14
307.61	1787.88
307.82	1605.61
308.04	1695.72
308.25	1687.53
308.46	1683.43
308.68	1722.34
308.89	1671.14
309.10	1753.06
309.32	1738.73
309.53	1695.72
309.74	1701.86
309.96	1755.11
310.17	1832.93
310.39	1681.38
310.60	1761.25
310.81	1677.29
311.03	1609.70
311.24	1742.82
311.45	1648.61
311.67	1781.73
311.88	1689.57
312.09	1638.38
312.31	1716.20
312.52	1669.09
312.73	1587.18
312.95	1722.34
313.16	1652.71
313.37	1796.07
313.59	1665.00
313.80	1740.77
314.01	1818.60
314.23	1677.29
314.44	1648.61
314.65	1697.77
314.87	1640.42
315.08	1583.08
315.29	1665.00
315.51	1570.79
315.72	1626.09
315.93	1806.31
316.15	1730.53
316.36	1710.05
316.57	1673.19
316.79	1732.58
317.00	1656.81
317.21	1728.49
317.43	1673.19
317.64	1662.95
317.85	1648.61
318.07	1607.66
318.28	1779.68
318.49	1818.60
318.70	1843.17
318.92	1791.97
319.13	1837.03
319.34	1933.28
319.56	1718.25
319.77	1783.78
319.98	1781.73
320.20	1746.92
320.41	1714.15
320.62	1746.92
320.83	1599.46
321.05	1845.22
321.26	1763.30
321.47	1785.83
321.69	1861.60
321.90	1634.28
322.11	1667.05
322.32	1748.97
322.54	1722.34
322.75	1658.85
322.96	1822.69
323.18	1619.94
323.39	1710.05
323.60	1665.00
323.81	1759.21
324.03	1640.42
324.24	1628.14
324.45	1759.21
324.66	1648.61
324.88	1687.53
325.09	1798.12
325.30	1705.96
325.52	1665.00
325.73	1748.97
325.94	1689.57
326.15	1642.47
326.37	1667.05
326.58	1791.97
326.79	1804.26
327.00	1658.85
327.22	1630.18
327.43	1705.96
327.64	1589.22
327.85	1673.19
328.07	1722.34
328.28	1779.68
328.49	1621.99
328.70	1744.87
328.92	1667.05
329.13	1701.86
329.34	1718.25
329.55	1753.06
329.76	1736.68
329.98	1648.61
330.19	1777.64
330.40	1787.88
330.61	1755.11
330.83	1781.73
331.04	1669.09
331.25	1662.95
331.46	1689.57
331.68	1712.10
331.89	1730.53
332.10	1673.19
332.31	1624.04
332.52	1699.81
332.74	1816.55
332.95	1662.95
333.16	1691.62
333.37	1710.05
333.58	1675.24
333.80	1751.01
334.01	1683.43
334.22	1712.10
334.43	1654.76
334.64	1656.81
334.86	1644.52
335.07	1675.24
335.28	1777.64
335.49	1685.48
335.70	1789.92
335.92	1683.43
336.13	1820.64
336.34	1675.24
336.55	1746.92
336.76	1673.19
336.98	1632.23
337.19	1642.47
337.40	1777.64
337.61	1808.36
337.82	1710.05
338.04	1761.25
338.25	1574.89
338.46	1646.57
338.67	1640.42
338.88	1683.43
339.09	1646.57
339.31	1656.81
339.52	1583.08
339.73	1667.05
339.94	1667.05
340.15	1693.67
340.36	1718.25
340.58	1689.57
340.79	1652.71
341.00	1689.57
341.21	1652.71
341.42	1785.83
341.63	1683.43
341.85	1796.07
342.06	1718.25
342.27	1603.56
342.48	1724.39
342.69	1587.18
342.90	1740.77
343.12	1714.15
343.33	1624.04
343.54	1724.39
343.75	1769.44
343.96	1701.86
344.17	1730.53
344.38	1642.47
344.60	1701.86
344.81	1636.33
345.02	1687.53
345.23	1718.25
345.44	1808.36
345.65	1759.21
345.86	1751.01
346.07	1638.38
346.29	1697.77
346.50	1662.95
346.71	1767.40
346.92	1779.68
347.13	1806.31
347.34	1726.44
347.55	1658.85
347.76	1722.34
347.98	1642.47
348.19	1638.38
348.40	1787.88
348.61	1658.85
348.82	1779.68
349.03	1724.39
349.24	1703.91
349.45	1855.46
349.66	1585.13
349.88	1714.15
350.09	1736.68
350.30	1806.31
350.51	1806.31
350.72	1671.14
350.93	1748.97
351.14	1658.85
351.35	1687.53
351.56	1638.38
351.77	1791.97
351.99	1732.58
352.20	1865.70
352.41	1746.92
352.62	1589.22
352.83	1701.86
353.04	1734.63
353.25	1667.05
353.46	1785.83
353.67	1726.44
353.88	1533.93
354.09	1722.34
354.30	1673.19
354.52	1785.83
354.73	1714.15
354.94	1667.05
355.15	1652.71
355.36	1781.73
355.57	1660.90
355.78	1697.77
355.99	1628.14
356.20	1652.71
356.41	1769.44
356.62	1667.05
356.83	1671.14
357.04	1843.17
357.25	1628.14
357.46	1705.96
357.68	1591.27
357.89	1634.28
358.10	1785.83
358.31	1744.87
358.52	1703.91
358.73	1656.81
358.94	1644.52
359.15	1658.85
359.36	1748.97
359.57	1695.72
359.78	1708.01
359.99	1763.30
360.20	1601.51
360.41	1675.24
360.62	1767.40
360.83	1787.88
361.04	1667.05
361.25	1705.96
361.46	1824.74
361.67	1740.77
361.88	1722.34
362.09	1720.29
362.30	1671.14
362.51	1771.49
362.72	1744.87
362.93	1800.16
363.14	1710.05
363.35	1718.25
363.56	1621.99
363.78	1701.86
363.99	1814.50
364.20	1636.33
364.41	1769.44
364.62	1783.78
364.83	1626.09
365.04	1730.53
365.25	1677.29
365.46	1908.71
365.67	1615.85
365.88	1587.18
366.09	1624.04
366.30	1781.73
366.51	1755.11
366.72	1581.03
366.93	1689.57
367.14	1759.21
367.35	1800.16
367.56	1718.25
367.77	1812.45
367.98	1667.05
368.18	1708.01
368.39	1759.21
368.60	1654.76
368.81	1761.25
369.02	1662.95
369.23	1740.77
369.44	1642.47
369.65	1640.42
369.86	1732.58
370.07	1742.82
370.28	1705.96
370.49	1703.91
370.70	1757.16
370.91	1599.46
371.12	1705.96
371.33	1820.64
371.54	1724.39
371.75	1767.40
371.96	1595.37
372.17	1744.87
372.38	1703.91
372.59	1687.53
372.80	1720.29
373.01	1656.81
373.22	1734.63
373.43	1730.53
373.64	1669.09
373.85	1818.60
374.06	1787.88
374.26	1728.49
374.47	1652.71
374.68	1806.31
374.89	1681.38
375.10	1708.01
375.31	1773.54
375.52	1714.15
375.73	1695.72
375.94	1671.14
376.15	1869.80
376.36	1587.18
376.57	1689.57
376.78	1722.34
376.99	1769.44
377.20	1808.36
377.40	1695.72
377.61	1708.01
377.82	1699.81
378.03	1728.49
378.24	1724.39
378.45	1701.86
378.66	1710.05
378.87	1626.09
379.08	1585.13
379.29	1626.09
379.50	1779.68
379.71	1732.58
379.91	1742.82
380.12	1687.53
380.33	1744.87
380.54	1660.90
380.75	1652.71
380.96	1652.71
381.17	1773.54
381.38	1701.86
381.59	1675.24
381.80	1671.14
382.00	1826.79
382.21	1804.26
382.42	1789.92
382.63	1828.84
382.84	1753.06
383.05	1822.69
383.26	1771.49
383.47	1689.57
383.68	1789.92
383.88	1722.34
384.09	1714.15
384.30	1822.69
384.51	1738.73
384.72	1650.66
384.93	1617.90
385.14	1730.53
385.35	1757.16
385.55	1583.08
385.76	1736.68
385.97	1714.15
386.18	1652.71
386.39	1687.53
386.60	1697.77
386.81	1675.24
387.02	1632.23
387.22	1669.09
387.43	1759.21
387.64	1687.53
387.85	1961.95
388.06	2293.72
388.27	4181.95
388.48	6932.37
388.68	8458.11
388.89	9772.91
389.10	9785.19
389.31	8681.34
389.52	7579.53
389.73	6850.46
389.93	6227.87
390.14	5906.34
390.35	5064.63
390.56	4589.50
390.77	3940.29
390.98	3080.14
391.18	2488.28
391.39	2123.74
391.60	1847.27
391.81	1871.84
392.02	1685.48
392.23	1855.46
392.43	1730.53
392.64	1789.92
392.85	1689.57
393.06	1820.64
393.27	1779.68
393.47	1642.47
393.68	1703.91
393.89	1652.71
394.10	1826.79
394.31	1619.94
394.52	1574.89
394.72	1642.47
394.93	1742.82
395.14	1708.01
395.35	1720.29
395.56	1650.66
395.76	1718.25
395.97	1767.40
396.18	1849.32
396.39	1822.69
396.60	1968.10
396.80	1898.47
397.01	1931.23
397.22	1791.97
397.43	1834.98
397.64	1814.50
397.84	1843.17
398.05	1851.36
398.26	1763.30
398.47	1771.49
398.67	1791.97
398.88	1736.68
399.09	1746.92
399.30	1695.72
399.51	1775.59
399.71	1681.38
399.92	1669.09
400.13	1716.20
400.34	1714.15
400.54	1701.86
400.75	1800.16
400.96	1697.77
401.17	1806.31
401.37	1771.49
401.58	1742.82
401.79	1712.10
402.00	1818.60
402.21	1992.67
402.41	1890.28
402.62	1980.39
402.83	2015.20
403.04	2013.15
403.24	2037.73
403.45	1900.52
403.66	1927.14
403.87	1810.40
404.07	1841.12
404.28	1869.80
404.49	1886.18
404.70	1804.26
404.90	1783.78
405.11	1705.96
405.32	1732.58
405.52	1675.24
405.73	1691.62
405.94	1714.15
406.15	1685.48
406.35	1687.53
406.56	1763.30
406.77	1701.86
406.98	1691.62
407.18	1640.42
407.39	1740.77
407.60	1667.05
407.80	1699.81
408.01	1667.05
408.22	1714.15
408.43	1742.82
408.63	1841.12
408.84	1720.29
409.05	1753.06
409.25	1638.38
409.46	1671.14
409.67	1636.33
409.88	1650.66
410.08	1732.58
410.29	1742.82
410.50	1740.77
410.70	1658.85
410.91	1658.85
411.12	1738.73
411.32	1646.57
411.53	1628.14
411.74	1826.79
411.95	1777.64
412.15	1781.73
412.36	1796.07
412.57	1771.49
412.77	1820.64
412.98	1773.54
413.19	1740.77
413.39	1677.29
413.60	1748.97
413.81	1775.59
414.01	1652.71
414.22	1761.25
414.43	1761.25
414.63	1660.90
414.84	1877.99
415.05	1804.26
415.25	1656.81
415.46	1720.29
415.67	1685.48
415.87	1753.06
416.08	1732.58
416.29	1675.24
416.49	1734.63
416.70	1712.10
416.91	1658.85
417.11	1716.20
417.32	1705.96
417.53	1734.63
417.73	1763.30
417.94	1755.11
418.15	1726.44
418.35	1699.81
418.56	1673.19
418.77	1787.88
418.97	1695.72
419.18	1738.73
419.38	1626.09
419.59	1665.00
419.80	1847.27
420.00	1691.62
420.21	1734.63
420.42	1693.67
420.62	1748.97
420.83	1617.90
421.04	1660.90
421.24	1648.61
421.45	1771.49
421.65	1689.57
421.86	1679.33
422.07	1755.11
422.27	1746.92
422.48	1701.86
422.69	1714.15
422.89	1652.71
423.10	1740.77
423.30	1638.38
423.51	1665.00
423.72	1714.15
423.92	1708.01
424.13	1619.94
424.33	1665.00
424.54	1794.02
424.75	1714.15
424.95	1742.82
425.16	1689.57
425.36	1708.01
425.57	1814.50
425.78	1734.63
425.98	1759.21
426.19	1675.24
426.39	1644.52
426.60	1714.15
426.81	1791.97
427.01	1671.14
427.22	1609.70
427.42	1757.16
427.63	1734.63
427.83	1669.09
428.04	1832.93
428.25	1755.11
428.45	1714.15
428.66	1761.25
428.86	1718.25
429.07	1617.90
429.28	1685.48
429.48	1679.33
429.69	1683.43
429.89	1710.05
430.10	1587.18
430.30	1683.43
430.51	1681.38
430.71	1689.57
430.92	1767.40
431.13	1681.38
431.33	1753.06
431.54	1728.49
431.74	1783.78
431.95	1808.36
432.15	1660.90
432.36	1673.19
432.56	1685.48
432.77	1849.32
432.98	1894.37
433.18	1693.67
433.39	1718.25
433.59	1738.73
433.80	1873.89
434.00	1800.16
434.21	1705.96
434.41	1703.91
434.62	1841.12
434.82	1658.85
435.03	1599.46
435.23	1763.30
435.44	1626.09
435.64	1693.67
435.85	1718.25
436.06	1767.40
436.26	1753.06
436.47	1716.20
436.67	1763.30
436.88	1644.52
437.08	1718.25
437.29	1796.07
437.49	1765.35
437.70	1753.06
437.90	1669.09
438.11	1818.60
438.31	1757.16
438.52	1845.22
438.72	1806.31
438.93	1964.00
439.13	1751.01
439.34	1830.88
439.54	1763.30
439.75	1804.26
439.95	1816.55
440.16	1685.48
440.36	1751.01
440.57	1798.12
440.77	1781.73
440.98	1751.01
441.18	1740.77
441.39	1640.42
441.59	1642.47
441.80	1832.93
442.00	1726.44
442.21	1777.64
442.41	1624.04
442.62	1748.97
442.82	1689.57
443.02	1705.96
443.23	1673.19
443.43	1722.34
443.64	1771.49
443.84	1669.09
444.05	1802.21
444.25	1787.88
444.46	1736.68
444.66	1783.78
444.87	1798.12
445.07	1628.14
445.28	1697.77
445.48	1779.68
445.69	1730.53
445.89	1826.79
446.09	1773.54
446.30	2056.16
446.50	2598.87
446.71	3729.35
446.91	4360.13
447.12	4691.90
447.32	4761.53
447.53	4278.21
447.73	3946.44
447.93	3637.19
448.14	3360.72
448.34	3170.26
448.55	2877.40
448.75	2901.97
448.96	2781.14
449.16	2385.88
449.36	2287.58
449.57	2095.07
449.77	1988.58
449.98	1791.97
450.18	1873.89
450.39	1767.40
450.59	1775.59
450.79	1710.05
451.00	1732.58
451.20	1755.11
451.41	1734.63
451.61	1710.05
451.81	1695.72
452.02	1669.09
452.22	1726.44
452.43	1738.73
452.63	1730.53
