SpectraSuite Data File
++++++++++++++++++++++++++++++++++++
Date: Mon Jun 06 12:46:57 CEST 2016
User: root
Dark Spectrum Present: No
Reference Spectrum Present: No
Number of Sampled Component Spectra: 1
Spectrometers: USB4C02835
Integration Time (usec): 100000 (USB4C02835)
Spectra Averaged: 1 (USB4C02835)
Boxcar Smoothing: 0 (USB4C02835)
Correct for Electrical Dark: No (USB4C02835)
Strobe/Lamp Enabled: No (USB4C02835)
Correct for Detector Non-linearity: No (USB4C02835)
Correct for Stray Light: No (USB4C02835)
Number of Pixels in Processed Spectrum: 3648
>>>>>Begin Processed Spectral Data<<<<<
177.47	1443.82
177.69	1443.82
177.91	1443.82
178.13	1488.87
178.36	1435.63
178.58	1640.42
178.80	1765.35
179.02	1640.42
179.24	1617.90
179.46	1683.43
179.68	1816.55
179.90	1681.38
180.13	1740.77
180.35	1628.14
180.57	1685.48
180.79	1714.15
181.01	1669.09
181.23	1798.12
181.45	1763.30
181.67	1697.77
181.90	1757.16
182.12	1701.86
182.34	1626.09
182.56	1736.68
182.78	1779.68
183.00	1648.61
183.22	1697.77
183.44	1566.70
183.66	1912.80
183.89	1802.21
184.11	1624.04
184.33	1785.83
184.55	1724.39
184.77	1746.92
184.99	1783.78
185.21	1753.06
185.43	1787.88
185.65	1662.95
185.87	1701.86
186.10	1783.78
186.32	1826.79
186.54	1761.25
186.76	1691.62
186.98	1742.82
187.20	1703.91
187.42	1648.61
187.64	1640.42
187.86	1728.49
188.08	1665.00
188.30	1607.66
188.52	1718.25
188.75	1728.49
188.97	1851.36
189.19	1701.86
189.41	1673.19
189.63	1771.49
189.85	1685.48
190.07	1642.47
190.29	1593.32
190.51	1671.14
190.73	1607.66
190.95	1804.26
191.17	1683.43
191.39	1617.90
191.61	1720.29
191.84	1660.90
192.06	1791.97
192.28	1626.09
192.50	1851.36
192.72	1705.96
192.94	1660.90
193.16	1746.92
193.38	1746.92
193.60	1658.85
193.82	1660.90
194.04	1771.49
194.26	1705.96
194.48	1644.52
194.70	1724.39
194.92	1632.23
195.14	1718.25
195.36	1716.20
195.58	1738.73
195.80	1693.67
196.02	1705.96
196.24	1722.34
196.46	1763.30
196.69	1619.94
196.91	1898.47
197.13	1665.00
197.35	1691.62
197.57	1796.07
197.79	1757.16
198.01	1671.14
198.23	1658.85
198.45	1738.73
198.67	1611.75
198.89	1740.77
199.11	1712.10
199.33	1638.38
199.55	1638.38
199.77	1724.39
199.99	1742.82
200.21	1755.11
200.43	1720.29
200.65	1636.33
200.87	1558.50
201.09	1726.44
201.31	1677.29
201.53	1708.01
201.75	1753.06
201.97	1781.73
202.19	1703.91
202.41	1617.90
202.63	1820.64
202.85	1697.77
203.07	1693.67
203.29	1624.04
203.51	1685.48
203.73	1640.42
203.95	1914.85
204.17	1714.15
204.39	1751.01
204.61	1714.15
204.83	1650.66
205.05	1742.82
205.27	1730.53
205.49	1763.30
205.71	1671.14
205.93	1548.26
206.15	1681.38
206.37	1710.05
206.59	1697.77
206.81	1705.96
207.03	1687.53
207.25	1656.81
207.47	1746.92
207.69	1697.77
207.91	1781.73
208.13	1818.60
208.34	1710.05
208.56	1669.09
208.78	1738.73
209.00	1712.10
209.22	1636.33
209.44	1685.48
209.66	1720.29
209.88	1714.15
210.10	1722.34
210.32	1705.96
210.54	1775.59
210.76	1662.95
210.98	1718.25
211.20	1581.03
211.42	1746.92
211.64	1787.88
211.86	1812.45
212.08	1671.14
212.30	1730.53
212.52	1654.76
212.74	1689.57
212.96	1757.16
213.17	1779.68
213.39	1738.73
213.61	1689.57
213.83	1800.16
214.05	1693.67
214.27	1771.49
214.49	1626.09
214.71	1640.42
214.93	1775.59
215.15	1712.10
215.37	1720.29
215.59	1619.94
215.81	1839.08
216.03	1748.97
216.24	1720.29
216.46	1650.66
216.68	1705.96
216.90	1695.72
217.12	1789.92
217.34	1671.14
217.56	1753.06
217.78	1794.02
218.00	1746.92
218.22	1683.43
218.44	1587.18
218.66	1746.92
218.87	1787.88
219.09	1718.25
219.31	1656.81
219.53	1734.63
219.75	1693.67
219.97	1720.29
220.19	1724.39
220.41	1685.48
220.63	1753.06
220.85	1724.39
221.06	1611.75
221.28	1812.45
221.50	1726.44
221.72	1761.25
221.94	1628.14
222.16	1703.91
222.38	1791.97
222.60	1791.97
222.82	1718.25
223.03	1681.38
223.25	1648.61
223.47	1730.53
223.69	1873.89
223.91	1681.38
224.13	1677.29
224.35	1683.43
224.57	1683.43
224.78	1730.53
225.00	1652.71
225.22	1673.19
225.44	1697.77
225.66	1640.42
225.88	1736.68
226.10	1810.40
226.32	1671.14
226.53	1794.02
226.75	1669.09
226.97	1650.66
227.19	1675.24
227.41	1673.19
227.63	1673.19
227.85	1611.75
228.06	1757.16
228.28	1656.81
228.50	1732.58
228.72	1679.33
228.94	1701.86
229.16	1628.14
229.37	1609.70
229.59	1615.85
229.81	1789.92
230.03	1644.52
230.25	1699.81
230.47	1613.80
230.69	1656.81
230.90	1687.53
231.12	1681.38
231.34	1681.38
231.56	1728.49
231.78	1673.19
232.00	1695.72
232.21	1656.81
232.43	1652.71
232.65	1578.98
232.87	1779.68
233.09	1669.09
233.30	1667.05
233.52	1738.73
233.74	1734.63
233.96	1632.23
234.18	1718.25
234.40	1689.57
234.61	1826.79
234.83	1619.94
235.05	1611.75
235.27	1757.16
235.49	1675.24
235.70	1638.38
235.92	1789.92
236.14	1765.35
236.36	1832.93
236.58	1558.50
236.79	1722.34
237.01	1777.64
237.23	1636.33
237.45	1796.07
237.67	1636.33
237.88	1665.00
238.10	1789.92
238.32	1640.42
238.54	1660.90
238.76	1728.49
238.97	1607.66
239.19	1751.01
239.41	1746.92
239.63	1708.01
239.85	1609.70
240.06	1748.97
240.28	1621.99
240.50	1736.68
240.72	1734.63
240.93	1701.86
241.15	1744.87
241.37	1609.70
241.59	1714.15
241.81	1730.53
242.02	1751.01
242.24	1710.05
242.46	1730.53
242.68	1601.51
242.89	1740.77
243.11	1781.73
243.33	1654.76
243.55	1773.54
243.76	1675.24
243.98	1658.85
244.20	1679.33
244.42	1720.29
244.64	1650.66
244.85	1736.68
245.07	1587.18
245.29	1693.67
245.51	1708.01
245.72	1710.05
245.94	1722.34
246.16	1744.87
246.38	1726.44
246.59	1654.76
246.81	1693.67
247.03	1681.38
247.24	1628.14
247.46	1662.95
247.68	1726.44
247.90	1708.01
248.11	1648.61
248.33	1738.73
248.55	1644.52
248.77	1632.23
248.98	1802.21
249.20	1787.88
249.42	1652.71
249.64	1734.63
249.85	1710.05
250.07	1710.05
250.29	1695.72
250.50	1775.59
250.72	1648.61
250.94	1665.00
251.16	1802.21
251.37	1765.35
251.59	1681.38
251.81	1738.73
252.02	1767.40
252.24	1693.67
252.46	1902.56
252.68	1642.47
252.89	1673.19
253.11	1585.13
253.33	1816.55
253.54	1763.30
253.76	1646.57
253.98	1726.44
254.20	1751.01
254.41	1595.37
254.63	1720.29
254.85	1626.09
255.06	1683.43
255.28	1763.30
255.50	1791.97
255.71	1640.42
255.93	1632.23
256.15	1716.20
256.36	1734.63
256.58	1673.19
256.80	1732.58
257.02	1693.67
257.23	1648.61
257.45	1738.73
257.67	1703.91
257.88	1724.39
258.10	1742.82
258.32	1628.14
258.53	1710.05
258.75	1777.64
258.97	1693.67
259.18	1712.10
259.40	1738.73
259.62	1814.50
259.83	1742.82
260.05	1695.72
260.27	1951.71
260.48	1701.86
260.70	1671.14
260.92	1695.72
261.13	1722.34
261.35	1695.72
261.57	1714.15
261.78	1599.46
262.00	1697.77
262.22	1679.33
262.43	1718.25
262.65	1624.04
262.86	1703.91
263.08	1814.50
263.30	1687.53
263.51	1613.80
263.73	1640.42
263.95	1712.10
264.16	1648.61
264.38	1636.33
264.60	1716.20
264.81	1689.57
265.03	1767.40
265.25	1791.97
265.46	1683.43
265.68	1726.44
265.89	1753.06
266.11	1648.61
266.33	1738.73
266.54	1718.25
266.76	1810.40
266.98	1816.55
267.19	1757.16
267.41	1796.07
267.62	1720.29
267.84	1601.51
268.06	1732.58
268.27	1693.67
268.49	1775.59
268.70	1724.39
268.92	1716.20
269.14	1701.86
269.35	1718.25
269.57	1744.87
269.79	1722.34
270.00	1718.25
270.22	1865.70
270.43	1695.72
270.65	1558.50
270.87	1677.29
271.08	1656.81
271.30	1673.19
271.51	1742.82
271.73	1757.16
271.95	1775.59
272.16	1775.59
272.38	1769.44
272.59	1671.14
272.81	1765.35
273.02	1734.63
273.24	1765.35
273.46	1693.67
273.67	1667.05
273.89	1626.09
274.10	1597.42
274.32	1728.49
274.54	1705.96
274.75	1703.91
274.97	1679.33
275.18	1712.10
275.40	1691.62
275.61	1693.67
275.83	1716.20
276.05	1642.47
276.26	1689.57
276.48	1705.96
276.69	1705.96
276.91	1724.39
277.12	1728.49
277.34	1806.31
277.55	1742.82
277.77	1669.09
277.99	1705.96
278.20	1677.29
278.42	1660.90
278.63	1650.66
278.85	1603.56
279.06	1599.46
279.28	1701.86
279.49	1748.97
279.71	1708.01
279.93	1665.00
280.14	1705.96
280.36	1718.25
280.57	1794.02
280.79	1712.10
281.00	1646.57
281.22	1646.57
281.43	1742.82
281.65	1566.70
281.86	1591.27
282.08	1693.67
282.29	1783.78
282.51	1691.62
282.73	1718.25
282.94	1683.43
283.16	1726.44
283.37	1804.26
283.59	1648.61
283.80	1669.09
284.02	1708.01
284.23	1667.05
284.45	1738.73
284.66	1662.95
284.88	1681.38
285.09	1746.92
285.31	1716.20
285.52	1755.11
285.74	1677.29
285.95	1763.30
286.17	1705.96
286.38	1708.01
286.60	1673.19
286.81	1638.38
287.03	1665.00
287.24	1777.64
287.46	1761.25
287.67	1722.34
287.89	1742.82
288.10	1722.34
288.32	1732.58
288.53	1820.64
288.75	1701.86
288.96	1712.10
289.18	1677.29
289.39	1765.35
289.61	1738.73
289.82	1796.07
290.04	1787.88
290.25	1667.05
290.47	1652.71
290.68	1624.04
290.90	1783.78
291.11	1667.05
291.33	1730.53
291.54	1636.33
291.76	1656.81
291.97	1746.92
292.18	1708.01
292.40	1595.37
292.61	1691.62
292.83	1804.26
293.04	1718.25
293.26	1722.34
293.47	1658.85
293.69	1708.01
293.90	1673.19
294.12	1722.34
294.33	1685.48
294.55	1654.76
294.76	1777.64
294.97	1777.64
295.19	1787.88
295.40	1681.38
295.62	1726.44
295.83	1722.34
296.05	1697.77
296.26	1732.58
296.48	1630.18
296.69	1697.77
296.90	1660.90
297.12	1703.91
297.33	1722.34
297.55	1734.63
297.76	1697.77
297.98	1724.39
298.19	1722.34
298.41	1714.15
298.62	1648.61
298.83	1824.74
299.05	1699.81
299.26	1628.14
299.48	1613.80
299.69	1714.15
299.90	1734.63
300.12	1714.15
300.33	1791.97
300.55	1644.52
300.76	1683.43
300.98	1683.43
301.19	1804.26
301.40	1613.80
301.62	1742.82
301.83	1742.82
302.05	1665.00
302.26	1687.53
302.47	1689.57
302.69	1560.55
302.90	1710.05
303.12	1585.13
303.33	1705.96
303.54	1804.26
303.76	1648.61
303.97	1722.34
304.19	1853.41
304.40	1656.81
304.61	1644.52
304.83	1849.32
305.04	1714.15
305.26	1677.29
305.47	1691.62
305.68	1712.10
305.90	1621.99
306.11	1802.21
306.33	1716.20
306.54	1693.67
306.75	1705.96
306.97	1654.76
307.18	1640.42
307.39	1656.81
307.61	1685.48
307.82	1605.61
308.04	1732.58
308.25	1677.29
308.46	1740.77
308.68	1724.39
308.89	1701.86
309.10	1834.98
309.32	1728.49
309.53	1689.57
309.74	1732.58
309.96	1716.20
310.17	1808.36
310.39	1574.89
310.60	1677.29
310.81	1722.34
311.03	1640.42
311.24	1685.48
311.45	1683.43
311.67	1800.16
311.88	1691.62
312.09	1730.53
312.31	1601.51
312.52	1683.43
312.73	1652.71
312.95	1640.42
313.16	1632.23
313.37	1736.68
313.59	1738.73
313.80	1738.73
314.01	1849.32
314.23	1675.24
314.44	1646.57
314.65	1630.18
314.87	1591.27
315.08	1726.44
315.29	1656.81
315.51	1681.38
315.72	1632.23
315.93	1828.84
316.15	1683.43
316.36	1636.33
316.57	1796.07
316.79	1714.15
317.00	1681.38
317.21	1683.43
317.43	1662.95
317.64	1824.74
317.85	1699.81
318.07	1595.37
318.28	1710.05
318.49	1798.12
318.70	1877.99
318.92	1884.13
319.13	1816.55
319.34	1884.13
319.56	1820.64
319.77	1832.93
319.98	1755.11
320.20	1742.82
320.41	1757.16
320.62	1710.05
320.83	1603.56
321.05	1851.36
321.26	1660.90
321.47	1685.48
321.69	1699.81
321.90	1660.90
322.11	1652.71
322.32	1769.44
322.54	1804.26
322.75	1662.95
322.96	1812.45
323.18	1603.56
323.39	1564.65
323.60	1660.90
323.81	1695.72
324.03	1701.86
324.24	1712.10
324.45	1751.01
324.66	1726.44
324.88	1828.84
325.09	1699.81
325.30	1732.58
325.52	1679.33
325.73	1714.15
325.94	1665.00
326.15	1599.46
326.37	1689.57
326.58	1695.72
326.79	1804.26
327.00	1677.29
327.22	1683.43
327.43	1630.18
327.64	1587.18
327.85	1744.87
328.07	1730.53
328.28	1779.68
328.49	1720.29
328.70	1771.49
328.92	1691.62
329.13	1677.29
329.34	1791.97
329.55	1812.45
329.76	1779.68
329.98	1644.52
330.19	1726.44
330.40	1630.18
330.61	1767.40
330.83	1753.06
331.04	1658.85
331.25	1714.15
331.46	1644.52
331.68	1628.14
331.89	1736.68
332.10	1669.09
332.31	1687.53
332.52	1738.73
332.74	1722.34
332.95	1611.75
333.16	1736.68
333.37	1734.63
333.58	1734.63
333.80	1761.25
334.01	1626.09
334.22	1644.52
334.43	1726.44
334.64	1734.63
334.86	1734.63
335.07	1624.04
335.28	1734.63
335.49	1593.32
335.70	1701.86
335.92	1765.35
336.13	1814.50
336.34	1730.53
336.55	1619.94
336.76	1705.96
336.98	1581.03
337.19	1726.44
337.40	1751.01
337.61	1875.94
337.82	1591.27
338.04	1767.40
338.25	1576.94
338.46	1705.96
338.67	1673.19
338.88	1615.85
339.09	1722.34
339.31	1669.09
339.52	1632.23
339.73	1640.42
339.94	1652.71
340.15	1781.73
340.36	1624.04
340.58	1730.53
340.79	1681.38
341.00	1716.20
341.21	1650.66
341.42	1783.78
341.63	1728.49
341.85	1728.49
342.06	1636.33
342.27	1607.66
342.48	1748.97
342.69	1634.28
342.90	1665.00
343.12	1695.72
343.33	1687.53
343.54	1773.54
343.75	1738.73
343.96	1748.97
344.17	1675.24
344.38	1742.82
344.60	1667.05
344.81	1611.75
345.02	1673.19
345.23	1814.50
345.44	1751.01
345.65	1675.24
345.86	1787.88
346.07	1605.61
346.29	1675.24
346.50	1656.81
346.71	1701.86
346.92	1720.29
347.13	1769.44
347.34	1644.52
347.55	1689.57
347.76	1726.44
347.98	1624.04
348.19	1681.38
348.40	1720.29
348.61	1742.82
348.82	1779.68
349.03	1689.57
349.24	1591.27
349.45	1785.83
349.66	1644.52
349.88	1687.53
350.09	1662.95
350.30	1814.50
350.51	1748.97
350.72	1689.57
350.93	1683.43
351.14	1722.34
351.35	1628.14
351.56	1781.73
351.77	1675.24
351.99	1685.48
352.20	1783.78
352.41	1710.05
352.62	1562.60
352.83	1675.24
353.04	1681.38
353.25	1621.99
353.46	1839.08
353.67	1716.20
353.88	1544.17
354.09	1751.01
354.30	1728.49
354.52	1660.90
354.73	1679.33
354.94	1699.81
355.15	1759.21
355.36	1834.98
355.57	1701.86
355.78	1693.67
355.99	1697.77
356.20	1679.33
356.41	1718.25
356.62	1757.16
356.83	1755.11
357.04	1724.39
357.25	1640.42
357.46	1720.29
357.68	1597.42
357.89	1667.05
358.10	1732.58
358.31	1638.38
358.52	1683.43
358.73	1695.72
358.94	1652.71
359.15	1669.09
359.36	1714.15
359.57	1697.77
359.78	1765.35
359.99	1636.33
360.20	1607.66
360.41	1701.86
360.62	1644.52
360.83	1722.34
361.04	1658.85
361.25	1693.67
361.46	1769.44
361.67	1734.63
361.88	1656.81
362.09	1734.63
362.30	1667.05
362.51	1636.33
362.72	1705.96
362.93	1779.68
363.14	1722.34
363.35	1722.34
363.56	1689.57
363.78	1771.49
363.99	1757.16
364.20	1685.48
364.41	1667.05
364.62	1804.26
364.83	1699.81
365.04	1728.49
365.25	1736.68
365.46	1779.68
365.67	1662.95
365.88	1646.57
366.09	1689.57
366.30	1591.27
366.51	1679.33
366.72	1695.72
366.93	1705.96
367.14	1634.28
367.35	1714.15
367.56	1712.10
367.77	1730.53
367.98	1677.29
368.18	1675.24
368.39	1703.91
368.60	1638.38
368.81	1753.06
369.02	1677.29
369.23	1734.63
369.44	1644.52
369.65	1665.00
369.86	1646.57
370.07	1812.45
370.28	1662.95
370.49	1677.29
370.70	1767.40
370.91	1685.48
371.12	1648.61
371.33	1722.34
371.54	1697.77
371.75	1884.13
371.96	1550.31
372.17	1738.73
372.38	1769.44
372.59	1726.44
372.80	1714.15
373.01	1701.86
373.22	1746.92
373.43	1744.87
373.64	1640.42
373.85	1757.16
374.06	1787.88
374.26	1728.49
374.47	1718.25
374.68	1781.73
374.89	1714.15
375.10	1673.19
375.31	1757.16
375.52	1632.23
375.73	1648.61
375.94	1658.85
376.15	1789.92
376.36	1671.14
376.57	1669.09
376.78	1691.62
376.99	1830.88
377.20	1732.58
377.40	1742.82
377.61	1822.69
377.82	1626.09
378.03	1753.06
378.24	1779.68
378.45	1701.86
378.66	1738.73
378.87	1671.14
379.08	1654.76
379.29	1660.90
379.50	1736.68
379.71	1677.29
379.91	1798.12
380.12	1720.29
380.33	1691.62
380.54	1697.77
380.75	1699.81
380.96	1679.33
381.17	1787.88
381.38	1763.30
381.59	1724.39
381.80	1691.62
382.00	1841.12
382.21	1650.66
382.42	1820.64
382.63	1773.54
382.84	1656.81
383.05	1718.25
383.26	1830.88
383.47	1687.53
383.68	1765.35
383.88	1751.01
384.09	1740.77
384.30	1777.64
384.51	1740.77
384.72	1695.72
384.93	1716.20
385.14	1685.48
385.35	1791.97
385.55	1648.61
385.76	1738.73
385.97	1718.25
386.18	1621.99
386.39	1652.71
386.60	1730.53
386.81	1728.49
387.02	1701.86
387.22	1630.18
387.43	1748.97
387.64	1791.97
387.85	1873.89
388.06	2244.57
388.27	4239.30
388.48	6940.57
388.68	8507.26
388.89	9957.22
389.10	10094.44
389.31	8789.88
389.52	7774.09
389.73	6805.40
389.93	6293.41
390.14	5877.67
390.35	5111.73
390.56	4538.30
390.77	3862.47
390.98	3043.28
391.18	2490.33
391.39	2129.89
391.60	1910.75
391.81	1785.83
392.02	1697.77
392.23	1794.02
392.43	1769.44
392.64	1769.44
392.85	1769.44
393.06	1869.80
393.27	1765.35
393.47	1708.01
393.68	1714.15
393.89	1763.30
394.10	1767.40
394.31	1626.09
394.52	1624.04
394.72	1669.09
394.93	1798.12
395.14	1640.42
395.35	1757.16
395.56	1660.90
395.76	1679.33
395.97	1730.53
396.18	1867.75
396.39	1843.17
396.60	2045.92
396.80	1918.95
397.01	1839.08
397.22	1769.44
397.43	1800.16
397.64	1716.20
397.84	1810.40
398.05	1882.08
398.26	1779.68
398.47	1736.68
398.67	1841.12
398.88	1703.91
399.09	1740.77
399.30	1671.14
399.51	1726.44
399.71	1658.85
399.92	1595.37
400.13	1701.86
400.34	1699.81
400.54	1736.68
400.75	1794.02
400.96	1775.59
401.17	1806.31
401.37	1720.29
401.58	1699.81
401.79	1701.86
402.00	1814.50
402.21	1935.33
402.41	1959.91
402.62	1984.48
402.83	2023.39
403.04	1998.82
403.24	2037.73
403.45	1865.70
403.66	1914.85
403.87	1802.21
404.07	1830.88
404.28	1908.71
404.49	1902.56
404.70	1724.39
404.90	1830.88
405.11	1677.29
405.32	1726.44
405.52	1624.04
405.73	1667.05
405.94	1665.00
406.15	1796.07
406.35	1740.77
406.56	1732.58
406.77	1742.82
406.98	1744.87
407.18	1648.61
407.39	1736.68
407.60	1630.18
407.80	1736.68
408.01	1656.81
408.22	1791.97
408.43	1665.00
408.63	1724.39
408.84	1746.92
409.05	1710.05
409.25	1673.19
409.46	1714.15
409.67	1720.29
409.88	1673.19
410.08	1675.24
410.29	1701.86
410.50	1767.40
410.70	1718.25
410.91	1609.70
411.12	1761.25
411.32	1677.29
411.53	1609.70
411.74	1728.49
411.95	1781.73
412.15	1791.97
412.36	1685.48
412.57	1681.38
412.77	1728.49
412.98	1740.77
413.19	1720.29
413.39	1746.92
413.60	1712.10
413.81	1781.73
414.01	1642.47
414.22	1740.77
414.43	1775.59
414.63	1662.95
414.84	1763.30
415.05	1656.81
415.25	1626.09
415.46	1773.54
415.67	1619.94
415.87	1716.20
416.08	1718.25
416.29	1638.38
416.49	1740.77
416.70	1730.53
416.91	1777.64
417.11	1697.77
417.32	1689.57
417.53	1830.88
417.73	1761.25
417.94	1748.97
418.15	1667.05
418.35	1716.20
418.56	1679.33
418.77	1816.55
418.97	1689.57
419.18	1730.53
419.38	1603.56
419.59	1708.01
419.80	1730.53
420.00	1652.71
420.21	1677.29
420.42	1767.40
420.62	1787.88
420.83	1673.19
421.04	1708.01
421.24	1697.77
421.45	1769.44
421.65	1720.29
421.86	1761.25
422.07	1732.58
422.27	1714.15
422.48	1673.19
422.69	1595.37
422.89	1675.24
423.10	1624.04
423.30	1705.96
423.51	1730.53
423.72	1689.57
423.92	1755.11
424.13	1630.18
424.33	1683.43
424.54	1796.07
424.75	1753.06
424.95	1732.58
425.16	1699.81
425.36	1736.68
425.57	1800.16
425.78	1824.74
425.98	1705.96
426.19	1605.61
426.39	1675.24
426.60	1714.15
426.81	1820.64
427.01	1687.53
427.22	1574.89
427.42	1619.94
427.63	1636.33
427.83	1773.54
428.04	1769.44
428.25	1794.02
428.45	1738.73
428.66	1746.92
428.86	1644.52
429.07	1712.10
429.28	1724.39
429.48	1650.66
429.69	1714.15
429.89	1730.53
430.10	1710.05
430.30	1826.79
430.51	1718.25
430.71	1660.90
430.92	1701.86
431.13	1673.19
431.33	1755.11
431.54	1722.34
431.74	1765.35
431.95	1751.01
432.15	1640.42
432.36	1695.72
432.56	1755.11
432.77	1855.46
432.98	1808.36
433.18	1662.95
433.39	1667.05
433.59	1773.54
433.80	1839.08
434.00	1845.22
434.21	1632.23
434.41	1609.70
434.62	1828.84
434.82	1595.37
435.03	1669.09
435.23	1720.29
435.44	1546.22
435.64	1724.39
435.85	1773.54
436.06	1767.40
436.26	1681.38
436.47	1710.05
436.67	1693.67
436.88	1742.82
437.08	1740.77
437.29	1787.88
437.49	1775.59
437.70	1777.64
437.90	1665.00
438.11	1798.12
438.31	1851.36
438.52	1839.08
438.72	1804.26
438.93	1933.28
439.13	1785.83
439.34	1730.53
439.54	1724.39
439.75	1744.87
439.95	1812.45
440.16	1734.63
440.36	1763.30
440.57	1738.73
440.77	1716.20
440.98	1683.43
441.18	1730.53
441.39	1648.61
441.59	1695.72
441.80	1839.08
442.00	1716.20
442.21	1826.79
442.41	1576.94
442.62	1720.29
442.82	1712.10
443.02	1708.01
443.23	1787.88
443.43	1708.01
443.64	1753.06
443.84	1691.62
444.05	1877.99
444.25	1736.68
444.46	1636.33
444.66	1779.68
444.87	1824.74
445.07	1673.19
445.28	1765.35
445.48	1712.10
445.69	1814.50
445.89	1814.50
446.09	1791.97
446.30	2097.12
446.50	2676.70
446.71	3856.33
446.91	4286.40
447.12	4607.93
447.32	4808.63
447.53	4294.59
447.73	3874.76
447.93	3596.23
448.14	3405.77
448.34	3149.78
448.55	2881.49
448.75	2768.85
448.96	2680.79
449.16	2461.66
449.36	2263.01
449.57	2090.98
449.77	1857.51
449.98	1892.32
450.18	1771.49
450.39	1738.73
450.59	1798.12
450.79	1771.49
451.00	1683.43
451.20	1732.58
451.41	1677.29
451.61	1767.40
451.81	1695.72
452.02	1744.87
452.22	1740.77
452.43	1636.33
452.63	1769.44
