SpectraSuite Data File
++++++++++++++++++++++++++++++++++++
Date: Mon Jun 06 13:07:57 CEST 2016
User: root
Dark Spectrum Present: No
Reference Spectrum Present: No
Number of Sampled Component Spectra: 1
Spectrometers: USB4C02835
Integration Time (usec): 100000 (USB4C02835)
Spectra Averaged: 1 (USB4C02835)
Boxcar Smoothing: 0 (USB4C02835)
Correct for Electrical Dark: No (USB4C02835)
Strobe/Lamp Enabled: No (USB4C02835)
Correct for Detector Non-linearity: No (USB4C02835)
Correct for Stray Light: No (USB4C02835)
Number of Pixels in Processed Spectrum: 3648
>>>>>Begin Processed Spectral Data<<<<<
177.47	1472.49
177.69	1472.49
177.91	1472.49
178.13	1460.20
178.36	1484.78
178.58	1636.33
178.80	1695.72
179.02	1669.09
179.24	1660.90
179.46	1673.19
179.68	1740.77
179.90	1660.90
180.13	1691.62
180.35	1697.77
180.57	1712.10
180.79	1665.00
181.01	1687.53
181.23	1787.88
181.45	1757.16
181.67	1740.77
181.90	1718.25
182.12	1648.61
182.34	1613.80
182.56	1683.43
182.78	1751.01
183.00	1712.10
183.22	1685.48
183.44	1544.17
183.66	1904.61
183.89	1779.68
184.11	1740.77
184.33	1753.06
184.55	1712.10
184.77	1701.86
184.99	1662.95
185.21	1638.38
185.43	1798.12
185.65	1748.97
185.87	1679.33
186.10	1771.49
186.32	1834.98
186.54	1757.16
186.76	1720.29
186.98	1763.30
187.20	1681.38
187.42	1652.71
187.64	1765.35
187.86	1734.63
188.08	1761.25
188.30	1671.14
188.52	1626.09
188.75	1783.78
188.97	1777.64
189.19	1628.14
189.41	1732.58
189.63	1728.49
189.85	1687.53
190.07	1617.90
190.29	1587.18
190.51	1675.24
190.73	1589.22
190.95	1779.68
191.17	1677.29
191.39	1611.75
191.61	1683.43
191.84	1687.53
192.06	1656.81
192.28	1740.77
192.50	1900.52
192.72	1757.16
192.94	1695.72
193.16	1712.10
193.38	1708.01
193.60	1648.61
193.82	1660.90
194.04	1814.50
194.26	1671.14
194.48	1714.15
194.70	1603.56
194.92	1624.04
195.14	1730.53
195.36	1705.96
195.58	1701.86
195.80	1697.77
196.02	1730.53
196.24	1753.06
196.46	1771.49
196.69	1771.49
196.91	1800.16
197.13	1683.43
197.35	1574.89
197.57	1738.73
197.79	1812.45
198.01	1796.07
198.23	1748.97
198.45	1685.48
198.67	1675.24
198.89	1687.53
199.11	1816.55
199.33	1656.81
199.55	1542.12
199.77	1646.57
199.99	1814.50
200.21	1708.01
200.43	1648.61
200.65	1673.19
200.87	1581.03
201.09	1662.95
201.31	1665.00
201.53	1673.19
201.75	1720.29
201.97	1789.92
202.19	1763.30
202.41	1734.63
202.63	1857.51
202.85	1757.16
203.07	1746.92
203.29	1658.85
203.51	1667.05
203.73	1650.66
203.95	1908.71
204.17	1714.15
204.39	1728.49
204.61	1708.01
204.83	1628.14
205.05	1714.15
205.27	1705.96
205.49	1845.22
205.71	1683.43
205.93	1654.76
206.15	1722.34
206.37	1640.42
206.59	1708.01
206.81	1605.61
207.03	1665.00
207.25	1640.42
207.47	1802.21
207.69	1722.34
207.91	1746.92
208.13	1714.15
208.34	1624.04
208.56	1683.43
208.78	1695.72
209.00	1667.05
209.22	1667.05
209.44	1685.48
209.66	1621.99
209.88	1677.29
210.10	1628.14
210.32	1730.53
210.54	1802.21
210.76	1748.97
210.98	1777.64
211.20	1656.81
211.42	1695.72
211.64	1765.35
211.86	1732.58
212.08	1667.05
212.30	1695.72
212.52	1695.72
212.74	1757.16
212.96	1734.63
213.17	1746.92
213.39	1613.80
213.61	1742.82
213.83	1738.73
214.05	1607.66
214.27	1769.44
214.49	1650.66
214.71	1595.37
214.93	1824.74
215.15	1665.00
215.37	1726.44
215.59	1572.84
215.81	1738.73
216.03	1751.01
216.24	1669.09
216.46	1710.05
216.68	1703.91
216.90	1705.96
217.12	1730.53
217.34	1705.96
217.56	1753.06
217.78	1773.54
218.00	1751.01
218.22	1665.00
218.44	1646.57
218.66	1697.77
218.87	1806.31
219.09	1665.00
219.31	1765.35
219.53	1703.91
219.75	1576.94
219.97	1701.86
220.19	1677.29
220.41	1693.67
220.63	1759.21
220.85	1710.05
221.06	1685.48
221.28	1744.87
221.50	1669.09
221.72	1763.30
221.94	1675.24
222.16	1638.38
222.38	1714.15
222.60	1685.48
222.82	1755.11
223.03	1714.15
223.25	1652.71
223.47	1757.16
223.69	1765.35
223.91	1646.57
224.13	1732.58
224.35	1656.81
224.57	1728.49
224.78	1765.35
225.00	1583.08
225.22	1662.95
225.44	1693.67
225.66	1738.73
225.88	1767.40
226.10	1769.44
226.32	1660.90
226.53	1828.84
226.75	1671.14
226.97	1693.67
227.19	1681.38
227.41	1599.46
227.63	1669.09
227.85	1601.51
228.06	1755.11
228.28	1621.99
228.50	1869.80
228.72	1632.23
228.94	1628.14
229.16	1617.90
229.37	1642.47
229.59	1642.47
229.81	1812.45
230.03	1683.43
230.25	1658.85
230.47	1679.33
230.69	1689.57
230.90	1779.68
231.12	1679.33
231.34	1660.90
231.56	1712.10
231.78	1564.65
232.00	1675.24
232.21	1697.77
232.43	1642.47
232.65	1619.94
232.87	1691.62
233.09	1585.13
233.30	1691.62
233.52	1746.92
233.74	1656.81
233.96	1742.82
234.18	1718.25
234.40	1654.76
234.61	1769.44
234.83	1599.46
235.05	1615.85
235.27	1810.40
235.49	1728.49
235.70	1757.16
235.92	1769.44
236.14	1705.96
236.36	1755.11
236.58	1638.38
236.79	1740.77
237.01	1691.62
237.23	1693.67
237.45	1775.59
237.67	1648.61
237.88	1708.01
238.10	1822.69
238.32	1636.33
238.54	1654.76
238.76	1705.96
238.97	1615.85
239.19	1626.09
239.41	1744.87
239.63	1763.30
239.85	1671.14
240.06	1679.33
240.28	1648.61
240.50	1744.87
240.72	1693.67
240.93	1722.34
241.15	1728.49
241.37	1697.77
241.59	1777.64
241.81	1701.86
242.02	1730.53
242.24	1685.48
242.46	1806.31
242.68	1732.58
242.89	1685.48
243.11	1685.48
243.33	1724.39
243.55	1736.68
243.76	1705.96
243.98	1710.05
244.20	1679.33
244.42	1724.39
244.64	1685.48
244.85	1558.50
245.07	1607.66
245.29	1738.73
245.51	1697.77
245.72	1705.96
245.94	1738.73
246.16	1671.14
246.38	1724.39
246.59	1687.53
246.81	1652.71
247.03	1697.77
247.24	1617.90
247.46	1673.19
247.68	1660.90
247.90	1675.24
248.11	1667.05
248.33	1751.01
248.55	1746.92
248.77	1777.64
248.98	1699.81
249.20	1679.33
249.42	1775.59
249.64	1726.44
249.85	1708.01
250.07	1710.05
250.29	1751.01
250.50	1701.86
250.72	1605.61
250.94	1636.33
251.16	1841.12
251.37	1753.06
251.59	1621.99
251.81	1710.05
252.02	1763.30
252.24	1658.85
252.46	1818.60
252.68	1708.01
252.89	1718.25
253.11	1574.89
253.33	1794.02
253.54	1789.92
253.76	1581.03
253.98	1679.33
254.20	1693.67
254.41	1638.38
254.63	1638.38
254.85	1613.80
255.06	1638.38
255.28	1771.49
255.50	1691.62
255.71	1640.42
255.93	1634.28
256.15	1689.57
256.36	1806.31
256.58	1621.99
256.80	1689.57
257.02	1662.95
257.23	1722.34
257.45	1732.58
257.67	1757.16
257.88	1689.57
258.10	1732.58
258.32	1740.77
258.53	1718.25
258.75	1720.29
258.97	1654.76
259.18	1683.43
259.40	1712.10
259.62	1798.12
259.83	1759.21
260.05	1767.40
260.27	1910.75
260.48	1697.77
260.70	1724.39
260.92	1685.48
261.13	1744.87
261.35	1722.34
261.57	1658.85
261.78	1574.89
262.00	1718.25
262.22	1740.77
262.43	1621.99
262.65	1669.09
262.86	1757.16
263.08	1822.69
263.30	1652.71
263.51	1585.13
263.73	1611.75
263.95	1804.26
264.16	1632.23
264.38	1667.05
264.60	1681.38
264.81	1757.16
265.03	1777.64
265.25	1650.66
265.46	1734.63
265.68	1771.49
265.89	1724.39
266.11	1667.05
266.33	1742.82
266.54	1847.27
266.76	1683.43
266.98	1751.01
267.19	1753.06
267.41	1740.77
267.62	1751.01
267.84	1624.04
268.06	1767.40
268.27	1732.58
268.49	1738.73
268.70	1767.40
268.92	1665.00
269.14	1693.67
269.35	1630.18
269.57	1728.49
269.79	1744.87
270.00	1691.62
270.22	1761.25
270.43	1677.29
270.65	1619.94
270.87	1714.15
271.08	1691.62
271.30	1703.91
271.51	1718.25
271.73	1624.04
271.95	1699.81
272.16	1697.77
272.38	1804.26
272.59	1656.81
272.81	1759.21
273.02	1720.29
273.24	1667.05
273.46	1761.25
273.67	1650.66
273.89	1681.38
274.10	1705.96
274.32	1742.82
274.54	1724.39
274.75	1787.88
274.97	1599.46
275.18	1720.29
275.40	1675.24
275.61	1732.58
275.83	1722.34
276.05	1654.76
276.26	1730.53
276.48	1720.29
276.69	1665.00
276.91	1648.61
277.12	1777.64
277.34	1804.26
277.55	1759.21
277.77	1673.19
277.99	1673.19
278.20	1718.25
278.42	1718.25
278.63	1648.61
278.85	1689.57
279.06	1718.25
279.28	1742.82
279.49	1800.16
279.71	1757.16
279.93	1765.35
280.14	1599.46
280.36	1581.03
280.57	1742.82
280.79	1794.02
281.00	1650.66
281.22	1738.73
281.43	1728.49
281.65	1617.90
281.86	1695.72
282.08	1755.11
282.29	1710.05
282.51	1652.71
282.73	1665.00
282.94	1617.90
283.16	1728.49
283.37	1810.40
283.59	1667.05
283.80	1701.86
284.02	1705.96
284.23	1755.11
284.45	1761.25
284.66	1671.14
284.88	1642.47
285.09	1708.01
285.31	1779.68
285.52	1628.14
285.74	1617.90
285.95	1791.97
286.17	1755.11
286.38	1675.24
286.60	1660.90
286.81	1669.09
287.03	1660.90
287.24	1703.91
287.46	1769.44
287.67	1705.96
287.89	1769.44
288.10	1724.39
288.32	1796.07
288.53	1744.87
288.75	1730.53
288.96	1742.82
289.18	1681.38
289.39	1714.15
289.61	1789.92
289.82	1781.73
290.04	1765.35
290.25	1662.95
290.47	1671.14
290.68	1712.10
290.90	1660.90
291.11	1613.80
291.33	1757.16
291.54	1669.09
291.76	1658.85
291.97	1796.07
292.18	1759.21
292.40	1667.05
292.61	1621.99
292.83	1808.36
293.04	1716.20
293.26	1751.01
293.47	1658.85
293.69	1644.52
293.90	1708.01
294.12	1759.21
294.33	1636.33
294.55	1646.57
294.76	1765.35
294.97	1722.34
295.19	1865.70
295.40	1638.38
295.62	1705.96
295.83	1748.97
296.05	1636.33
296.26	1808.36
296.48	1693.67
296.69	1611.75
296.90	1615.85
297.12	1742.82
297.33	1744.87
297.55	1673.19
297.76	1660.90
297.98	1677.29
298.19	1675.24
298.41	1767.40
298.62	1644.52
298.83	1787.88
299.05	1734.63
299.26	1705.96
299.48	1691.62
299.69	1726.44
299.90	1683.43
300.12	1656.81
300.33	1714.15
300.55	1728.49
300.76	1710.05
300.98	1687.53
301.19	1746.92
301.40	1624.04
301.62	1689.57
301.83	1683.43
302.05	1708.01
302.26	1691.62
302.47	1722.34
302.69	1617.90
302.90	1648.61
303.12	1665.00
303.33	1708.01
303.54	1724.39
303.76	1679.33
303.97	1761.25
304.19	1818.60
304.40	1599.46
304.61	1771.49
304.83	1814.50
305.04	1730.53
305.26	1800.16
305.47	1710.05
305.68	1708.01
305.90	1593.32
306.11	1787.88
306.33	1748.97
306.54	1652.71
306.75	1703.91
306.97	1574.89
307.18	1710.05
307.39	1693.67
307.61	1722.34
307.82	1673.19
308.04	1773.54
308.25	1656.81
308.46	1775.59
308.68	1714.15
308.89	1697.77
309.10	1730.53
309.32	1677.29
309.53	1720.29
309.74	1722.34
309.96	1751.01
310.17	1806.31
310.39	1667.05
310.60	1697.77
310.81	1685.48
311.03	1617.90
311.24	1771.49
311.45	1716.20
311.67	1751.01
311.88	1669.09
312.09	1671.14
312.31	1703.91
312.52	1675.24
312.73	1679.33
312.95	1599.46
313.16	1744.87
313.37	1787.88
313.59	1695.72
313.80	1824.74
314.01	1705.96
314.23	1617.90
314.44	1630.18
314.65	1624.04
314.87	1652.71
315.08	1671.14
315.29	1570.79
315.51	1601.51
315.72	1648.61
315.93	1759.21
316.15	1763.30
316.36	1552.36
316.57	1710.05
316.79	1716.20
317.00	1660.90
317.21	1708.01
317.43	1634.28
317.64	1744.87
317.85	1632.23
318.07	1646.57
318.28	1785.83
318.49	1734.63
318.70	1906.66
318.92	1847.27
319.13	1787.88
319.34	1849.32
319.56	1777.64
319.77	1794.02
319.98	1755.11
320.20	1738.73
320.41	1742.82
320.62	1757.16
320.83	1654.76
321.05	1779.68
321.26	1656.81
321.47	1740.77
321.69	1744.87
321.90	1632.23
322.11	1705.96
322.32	1697.77
322.54	1841.12
322.75	1732.58
322.96	1767.40
323.18	1576.94
323.39	1570.79
323.60	1640.42
323.81	1742.82
324.03	1710.05
324.24	1654.76
324.45	1677.29
324.66	1746.92
324.88	1742.82
325.09	1761.25
325.30	1693.67
325.52	1679.33
325.73	1677.29
325.94	1656.81
326.15	1587.18
326.37	1638.38
326.58	1804.26
326.79	1791.97
327.00	1708.01
327.22	1720.29
327.43	1681.38
327.64	1642.47
327.85	1771.49
328.07	1748.97
328.28	1763.30
328.49	1617.90
328.70	1675.24
328.92	1730.53
329.13	1783.78
329.34	1730.53
329.55	1824.74
329.76	1783.78
329.98	1667.05
330.19	1789.92
330.40	1734.63
330.61	1687.53
330.83	1759.21
331.04	1677.29
331.25	1724.39
331.46	1650.66
331.68	1724.39
331.89	1751.01
332.10	1634.28
332.31	1697.77
332.52	1654.76
332.74	1771.49
332.95	1595.37
333.16	1708.01
333.37	1755.11
333.58	1689.57
333.80	1665.00
334.01	1626.09
334.22	1681.38
334.43	1656.81
334.64	1736.68
334.86	1603.56
335.07	1671.14
335.28	1751.01
335.49	1628.14
335.70	1730.53
335.92	1693.67
336.13	1783.78
336.34	1736.68
336.55	1638.38
336.76	1685.48
336.98	1560.55
337.19	1748.97
337.40	1820.64
337.61	1789.92
337.82	1660.90
338.04	1736.68
338.25	1619.94
338.46	1683.43
338.67	1640.42
338.88	1656.81
339.09	1624.04
339.31	1697.77
339.52	1593.32
339.73	1613.80
339.94	1720.29
340.15	1724.39
340.36	1658.85
340.58	1724.39
340.79	1648.61
341.00	1791.97
341.21	1601.51
341.42	1787.88
341.63	1683.43
341.85	1783.78
342.06	1703.91
342.27	1662.95
342.48	1812.45
342.69	1621.99
342.90	1771.49
343.12	1761.25
343.33	1662.95
343.54	1701.86
343.75	1820.64
343.96	1734.63
344.17	1703.91
344.38	1671.14
344.60	1626.09
344.81	1619.94
345.02	1728.49
345.23	1773.54
345.44	1722.34
345.65	1675.24
345.86	1748.97
346.07	1613.80
346.29	1662.95
346.50	1705.96
346.71	1730.53
346.92	1710.05
347.13	1761.25
347.34	1603.56
347.55	1603.56
347.76	1785.83
347.98	1624.04
348.19	1718.25
348.40	1777.64
348.61	1671.14
348.82	1771.49
349.03	1767.40
349.24	1652.71
349.45	1798.12
349.66	1656.81
349.88	1736.68
350.09	1636.33
350.30	1779.68
350.51	1816.55
350.72	1708.01
350.93	1744.87
351.14	1710.05
351.35	1789.92
351.56	1669.09
351.77	1687.53
351.99	1789.92
352.20	1818.60
352.41	1781.73
352.62	1626.09
352.83	1716.20
353.04	1699.81
353.25	1621.99
353.46	1730.53
353.67	1773.54
353.88	1615.85
354.09	1685.48
354.30	1687.53
354.52	1699.81
354.73	1681.38
354.94	1671.14
355.15	1738.73
355.36	1761.25
355.57	1669.09
355.78	1794.02
355.99	1665.00
356.20	1701.86
356.41	1822.69
356.62	1693.67
356.83	1695.72
357.04	1824.74
357.25	1607.66
357.46	1644.52
357.68	1642.47
357.89	1689.57
358.10	1673.19
358.31	1630.18
358.52	1667.05
358.73	1632.23
358.94	1685.48
359.15	1642.47
359.36	1665.00
359.57	1763.30
359.78	1701.86
359.99	1673.19
360.20	1611.75
360.41	1650.66
360.62	1742.82
360.83	1689.57
361.04	1742.82
361.25	1712.10
361.46	1761.25
361.67	1685.48
361.88	1677.29
362.09	1751.01
362.30	1681.38
362.51	1673.19
362.72	1746.92
362.93	1738.73
363.14	1714.15
363.35	1722.34
363.56	1636.33
363.78	1791.97
363.99	1675.24
364.20	1716.20
364.41	1648.61
364.62	1779.68
364.83	1720.29
365.04	1691.62
365.25	1685.48
365.46	1748.97
365.67	1662.95
365.88	1578.98
366.09	1656.81
366.30	1636.33
366.51	1714.15
366.72	1638.38
366.93	1669.09
367.14	1652.71
367.35	1775.59
367.56	1724.39
367.77	1748.97
367.98	1759.21
368.18	1740.77
368.39	1689.57
368.60	1732.58
368.81	1736.68
369.02	1710.05
369.23	1667.05
369.44	1613.80
369.65	1646.57
369.86	1665.00
370.07	1746.92
370.28	1613.80
370.49	1783.78
370.70	1767.40
370.91	1658.85
371.12	1578.98
371.33	1722.34
371.54	1642.47
371.75	1755.11
371.96	1591.27
372.17	1726.44
372.38	1626.09
372.59	1736.68
372.80	1691.62
373.01	1716.20
373.22	1730.53
373.43	1720.29
373.64	1585.13
373.85	1744.87
374.06	1812.45
374.26	1753.06
374.47	1722.34
374.68	1871.84
374.89	1705.96
375.10	1658.85
375.31	1736.68
375.52	1759.21
375.73	1677.29
375.94	1648.61
376.15	1712.10
376.36	1671.14
376.57	1640.42
376.78	1681.38
376.99	1693.67
377.20	1867.75
377.40	1673.19
377.61	1820.64
377.82	1632.23
378.03	1722.34
378.24	1697.77
378.45	1652.71
378.66	1714.15
378.87	1595.37
379.08	1581.03
379.29	1740.77
379.50	1738.73
379.71	1687.53
379.91	1779.68
380.12	1794.02
380.33	1683.43
380.54	1601.51
380.75	1585.13
380.96	1677.29
381.17	1708.01
381.38	1708.01
381.59	1771.49
381.80	1714.15
382.00	1802.21
382.21	1767.40
382.42	1800.16
382.63	1935.33
382.84	1726.44
383.05	1757.16
383.26	1775.59
383.47	1748.97
383.68	1757.16
383.88	1767.40
384.09	1783.78
384.30	1804.26
384.51	1724.39
384.72	1699.81
384.93	1642.47
385.14	1703.91
385.35	1822.69
385.55	1630.18
385.76	1818.60
385.97	1658.85
386.18	1591.27
386.39	1621.99
386.60	1652.71
386.81	1751.01
387.02	1673.19
387.22	1681.38
387.43	1765.35
387.64	1818.60
387.85	1888.23
388.06	2260.96
388.27	4259.78
388.48	6664.09
388.68	8062.85
388.89	9424.75
389.10	9707.37
389.31	8359.81
389.52	7507.85
389.73	6739.87
389.93	6213.54
390.14	5818.28
390.35	5363.63
390.56	4491.20
390.77	3850.18
390.98	3016.66
391.18	2496.47
391.39	2113.50
391.60	1853.41
391.81	1822.69
392.02	1751.01
392.23	1845.22
392.43	1742.82
392.64	1812.45
392.85	1769.44
393.06	1796.07
393.27	1669.09
393.47	1621.99
393.68	1742.82
393.89	1642.47
394.10	1822.69
394.31	1748.97
394.52	1583.08
394.72	1675.24
394.93	1812.45
395.14	1634.28
395.35	1712.10
395.56	1617.90
395.76	1619.94
395.97	1800.16
396.18	1783.78
396.39	1830.88
396.60	1972.19
396.80	1869.80
397.01	1845.22
397.22	1877.99
397.43	1869.80
397.64	1712.10
397.84	1738.73
398.05	1837.03
398.26	1746.92
398.47	1732.58
398.67	1791.97
398.88	1701.86
399.09	1734.63
399.30	1667.05
399.51	1773.54
399.71	1624.04
399.92	1665.00
400.13	1738.73
400.34	1701.86
400.54	1701.86
400.75	1812.45
400.96	1738.73
401.17	1798.12
401.37	1738.73
401.58	1716.20
401.79	1708.01
402.00	1796.07
402.21	2023.39
402.41	1882.08
402.62	2035.68
402.83	1918.95
403.04	1953.76
403.24	2064.35
403.45	1806.31
403.66	1918.95
403.87	1865.70
404.07	1914.85
404.28	1898.47
404.49	1935.33
404.70	1804.26
404.90	1769.44
405.11	1763.30
405.32	1724.39
405.52	1693.67
405.73	1671.14
405.94	1685.48
406.15	1693.67
406.35	1697.77
406.56	1683.43
406.77	1746.92
406.98	1705.96
407.18	1689.57
407.39	1824.74
407.60	1665.00
407.80	1726.44
408.01	1728.49
408.22	1777.64
408.43	1681.38
408.63	1763.30
408.84	1689.57
409.05	1789.92
409.25	1669.09
409.46	1689.57
409.67	1624.04
409.88	1642.47
410.08	1716.20
410.29	1677.29
410.50	1783.78
410.70	1767.40
410.91	1636.33
411.12	1734.63
411.32	1662.95
411.53	1658.85
411.74	1826.79
411.95	1783.78
412.15	1734.63
412.36	1812.45
412.57	1740.77
412.77	1724.39
412.98	1744.87
413.19	1685.48
413.39	1759.21
413.60	1738.73
413.81	1804.26
414.01	1599.46
414.22	1724.39
414.43	1732.58
414.63	1660.90
414.84	1837.03
415.05	1751.01
415.25	1636.33
415.46	1683.43
415.67	1699.81
415.87	1675.24
416.08	1757.16
416.29	1675.24
416.49	1744.87
416.70	1708.01
416.91	1689.57
417.11	1701.86
417.32	1763.30
417.53	1759.21
417.73	1701.86
417.94	1644.52
418.15	1673.19
418.35	1638.38
418.56	1695.72
418.77	1779.68
418.97	1742.82
419.18	1681.38
419.38	1570.79
419.59	1644.52
419.80	1804.26
420.00	1624.04
420.21	1660.90
420.42	1746.92
420.62	1765.35
420.83	1675.24
421.04	1689.57
421.24	1671.14
421.45	1726.44
421.65	1738.73
421.86	1624.04
422.07	1796.07
422.27	1646.57
422.48	1720.29
422.69	1660.90
422.89	1724.39
423.10	1697.77
423.30	1624.04
423.51	1667.05
423.72	1871.84
423.92	1810.40
424.13	1615.85
424.33	1761.25
424.54	1767.40
424.75	1753.06
424.95	1769.44
425.16	1716.20
425.36	1630.18
425.57	1744.87
425.78	1791.97
425.98	1789.92
426.19	1673.19
426.39	1665.00
426.60	1751.01
426.81	1828.84
427.01	1720.29
427.22	1671.14
427.42	1650.66
427.63	1669.09
427.83	1748.97
428.04	1785.83
428.25	1718.25
428.45	1753.06
428.66	1796.07
428.86	1693.67
429.07	1687.53
429.28	1736.68
429.48	1632.23
429.69	1617.90
429.89	1722.34
430.10	1566.70
430.30	1738.73
430.51	1779.68
430.71	1656.81
430.92	1712.10
431.13	1695.72
431.33	1658.85
431.54	1701.86
431.74	1798.12
431.95	1826.79
432.15	1646.57
432.36	1642.47
432.56	1746.92
432.77	1738.73
432.98	1849.32
433.18	1718.25
433.39	1705.96
433.59	1624.04
433.80	1773.54
434.00	1837.03
434.21	1685.48
434.41	1599.46
434.62	1751.01
434.82	1644.52
435.03	1728.49
435.23	1693.67
435.44	1527.78
435.64	1695.72
435.85	1705.96
436.06	1767.40
436.26	1851.36
436.47	1691.62
436.67	1630.18
436.88	1701.86
437.08	1755.11
437.29	1751.01
437.49	1669.09
437.70	1779.68
437.90	1708.01
438.11	1914.85
438.31	1810.40
438.52	1884.13
438.72	1867.75
438.93	1869.80
439.13	1777.64
439.34	1816.55
439.54	1757.16
439.75	1820.64
439.95	1869.80
440.16	1681.38
440.36	1816.55
440.57	1763.30
440.77	1759.21
440.98	1736.68
441.18	1773.54
441.39	1677.29
441.59	1714.15
441.80	1755.11
442.00	1765.35
442.21	1751.01
442.41	1712.10
442.62	1720.29
442.82	1642.47
443.02	1665.00
443.23	1705.96
443.43	1687.53
443.64	1800.16
443.84	1693.67
444.05	1806.31
444.25	1683.43
444.46	1728.49
444.66	1691.62
444.87	1816.55
445.07	1617.90
445.28	1732.58
445.48	1800.16
445.69	1781.73
445.89	1898.47
446.09	1763.30
446.30	2054.11
446.50	2680.79
446.71	3676.10
446.91	4353.98
447.12	4628.41
447.32	4810.68
447.53	4296.64
447.73	3841.99
447.93	3440.59
448.14	3301.33
448.34	3219.41
448.55	2877.40
448.75	2818.00
448.96	2742.23
449.16	2437.08
449.36	2334.68
449.57	1968.10
449.77	1992.67
449.98	1769.44
450.18	1841.12
450.39	1824.74
450.59	1765.35
450.79	1722.34
451.00	1658.85
451.20	1845.22
451.41	1736.68
451.61	1734.63
451.81	1699.81
452.02	1734.63
452.22	1763.30
452.43	1693.67
452.63	1689.57
