SpectraSuite Data File
++++++++++++++++++++++++++++++++++++
Date: Mon Jun 06 13:05:37 CEST 2016
User: root
Dark Spectrum Present: No
Reference Spectrum Present: No
Number of Sampled Component Spectra: 1
Spectrometers: USB4C02835
Integration Time (usec): 100000 (USB4C02835)
Spectra Averaged: 1 (USB4C02835)
Boxcar Smoothing: 0 (USB4C02835)
Correct for Electrical Dark: No (USB4C02835)
Strobe/Lamp Enabled: No (USB4C02835)
Correct for Detector Non-linearity: No (USB4C02835)
Correct for Stray Light: No (USB4C02835)
Number of Pixels in Processed Spectrum: 3648
>>>>>Begin Processed Spectral Data<<<<<
177.47	1501.16
177.69	1501.16
177.91	1501.16
178.13	1421.29
178.36	1456.11
178.58	1710.05
178.80	1746.92
179.02	1642.47
179.24	1642.47
179.46	1761.25
179.68	1746.92
179.90	1699.81
180.13	1705.96
180.35	1562.60
180.57	1619.94
180.79	1669.09
181.01	1701.86
181.23	1783.78
181.45	1744.87
181.67	1748.97
181.90	1759.21
182.12	1683.43
182.34	1585.13
182.56	1705.96
182.78	1681.38
183.00	1689.57
183.22	1722.34
183.44	1648.61
183.66	1869.80
183.89	1777.64
184.11	1691.62
184.33	1775.59
184.55	1775.59
184.77	1738.73
184.99	1662.95
185.21	1689.57
185.43	1871.84
185.65	1708.01
185.87	1722.34
186.10	1789.92
186.32	1875.94
186.54	1718.25
186.76	1722.34
186.98	1794.02
187.20	1732.58
187.42	1603.56
187.64	1767.40
187.86	1675.24
188.08	1755.11
188.30	1656.81
188.52	1679.33
188.75	1753.06
188.97	1703.91
189.19	1691.62
189.41	1671.14
189.63	1697.77
189.85	1736.68
190.07	1640.42
190.29	1675.24
190.51	1726.44
190.73	1691.62
190.95	1789.92
191.17	1751.01
191.39	1652.71
191.61	1654.76
191.84	1677.29
192.06	1716.20
192.28	1669.09
192.50	1841.12
192.72	1761.25
192.94	1669.09
193.16	1724.39
193.38	1728.49
193.60	1761.25
193.82	1619.94
194.04	1681.38
194.26	1777.64
194.48	1640.42
194.70	1574.89
194.92	1677.29
195.14	1718.25
195.36	1644.52
195.58	1755.11
195.80	1689.57
196.02	1738.73
196.24	1697.77
196.46	1748.97
196.69	1605.61
196.91	1777.64
197.13	1648.61
197.35	1667.05
197.57	1765.35
197.79	1685.48
198.01	1728.49
198.23	1703.91
198.45	1701.86
198.67	1624.04
198.89	1697.77
199.11	1677.29
199.33	1634.28
199.55	1507.30
199.77	1652.71
199.99	1689.57
200.21	1587.18
200.43	1669.09
200.65	1687.53
200.87	1572.84
201.09	1654.76
201.31	1773.54
201.53	1712.10
201.75	1658.85
201.97	1697.77
202.19	1748.97
202.41	1701.86
202.63	1720.29
202.85	1630.18
203.07	1671.14
203.29	1689.57
203.51	1701.86
203.73	1656.81
203.95	1959.91
204.17	1667.05
204.39	1722.34
204.61	1689.57
204.83	1732.58
205.05	1751.01
205.27	1703.91
205.49	1814.50
205.71	1693.67
205.93	1611.75
206.15	1648.61
206.37	1742.82
206.59	1732.58
206.81	1562.60
207.03	1701.86
207.25	1681.38
207.47	1703.91
207.69	1589.22
207.91	1724.39
208.13	1716.20
208.34	1673.19
208.56	1728.49
208.78	1808.36
209.00	1701.86
209.22	1632.23
209.44	1718.25
209.66	1662.95
209.88	1662.95
210.10	1673.19
210.32	1716.20
210.54	1652.71
210.76	1658.85
210.98	1796.07
211.20	1589.22
211.42	1724.39
211.64	1777.64
211.86	1697.77
212.08	1699.81
212.30	1818.60
212.52	1691.62
212.74	1791.97
212.96	1687.53
213.17	1751.01
213.39	1796.07
213.61	1816.55
213.83	1738.73
214.05	1652.71
214.27	1798.12
214.49	1628.14
214.71	1685.48
214.93	1839.08
215.15	1703.91
215.37	1759.21
215.59	1554.41
215.81	1722.34
216.03	1736.68
216.24	1708.01
216.46	1671.14
216.68	1667.05
216.90	1689.57
217.12	1740.77
217.34	1671.14
217.56	1744.87
217.78	1732.58
218.00	1654.76
218.22	1771.49
218.44	1714.15
218.66	1691.62
218.87	1755.11
219.09	1640.42
219.31	1689.57
219.53	1615.85
219.75	1662.95
219.97	1683.43
220.19	1703.91
220.41	1683.43
220.63	1748.97
220.85	1779.68
221.06	1621.99
221.28	1798.12
221.50	1724.39
221.72	1679.33
221.94	1777.64
222.16	1710.05
222.38	1746.92
222.60	1734.63
222.82	1677.29
223.03	1779.68
223.25	1695.72
223.47	1808.36
223.69	1822.69
223.91	1730.53
224.13	1695.72
224.35	1705.96
224.57	1779.68
224.78	1703.91
225.00	1681.38
225.22	1710.05
225.44	1705.96
225.66	1761.25
225.88	1683.43
226.10	1734.63
226.32	1675.24
226.53	1748.97
226.75	1708.01
226.97	1683.43
227.19	1652.71
227.41	1695.72
227.63	1662.95
227.85	1621.99
228.06	1660.90
228.28	1693.67
228.50	1736.68
228.72	1689.57
228.94	1669.09
229.16	1703.91
229.37	1628.14
229.59	1669.09
229.81	1683.43
230.03	1669.09
230.25	1619.94
230.47	1595.37
230.69	1656.81
230.90	1789.92
231.12	1646.57
231.34	1677.29
231.56	1845.22
231.78	1574.89
232.00	1660.90
232.21	1742.82
232.43	1665.00
232.65	1597.42
232.87	1738.73
233.09	1705.96
233.30	1671.14
233.52	1722.34
233.74	1714.15
233.96	1669.09
234.18	1732.58
234.40	1677.29
234.61	1824.74
234.83	1677.29
235.05	1644.52
235.27	1798.12
235.49	1796.07
235.70	1742.82
235.92	1746.92
236.14	1607.66
236.36	1796.07
236.58	1662.95
236.79	1714.15
237.01	1683.43
237.23	1705.96
237.45	1787.88
237.67	1652.71
237.88	1689.57
238.10	1773.54
238.32	1677.29
238.54	1681.38
238.76	1710.05
238.97	1644.52
239.19	1722.34
239.41	1730.53
239.63	1814.50
239.85	1679.33
240.06	1757.16
240.28	1644.52
240.50	1877.99
240.72	1695.72
240.93	1648.61
241.15	1777.64
241.37	1673.19
241.59	1783.78
241.81	1644.52
242.02	1722.34
242.24	1742.82
242.46	1748.97
242.68	1677.29
242.89	1675.24
243.11	1703.91
243.33	1734.63
243.55	1779.68
243.76	1771.49
243.98	1632.23
244.20	1800.16
244.42	1710.05
244.64	1677.29
244.85	1687.53
245.07	1757.16
245.29	1710.05
245.51	1689.57
245.72	1714.15
245.94	1755.11
246.16	1794.02
246.38	1738.73
246.59	1650.66
246.81	1628.14
247.03	1691.62
247.24	1636.33
247.46	1800.16
247.68	1697.77
247.90	1697.77
248.11	1730.53
248.33	1767.40
248.55	1685.48
248.77	1660.90
248.98	1753.06
249.20	1841.12
249.42	1667.05
249.64	1732.58
249.85	1736.68
250.07	1660.90
250.29	1732.58
250.50	1746.92
250.72	1632.23
250.94	1681.38
251.16	1865.70
251.37	1763.30
251.59	1732.58
251.81	1775.59
252.02	1812.45
252.24	1671.14
252.46	1783.78
252.68	1640.42
252.89	1716.20
253.11	1687.53
253.33	1804.26
253.54	1724.39
253.76	1597.42
253.98	1638.38
254.20	1642.47
254.41	1636.33
254.63	1701.86
254.85	1669.09
255.06	1671.14
255.28	1689.57
255.50	1671.14
255.71	1691.62
255.93	1656.81
256.15	1738.73
256.36	1730.53
256.58	1677.29
256.80	1724.39
257.02	1595.37
257.23	1669.09
257.45	1681.38
257.67	1724.39
257.88	1667.05
258.10	1730.53
258.32	1705.96
258.53	1681.38
258.75	1781.73
258.97	1705.96
259.18	1593.32
259.40	1683.43
259.62	1775.59
259.83	1763.30
260.05	1753.06
260.27	1914.85
260.48	1730.53
260.70	1665.00
260.92	1660.90
261.13	1617.90
261.35	1710.05
261.57	1699.81
261.78	1677.29
262.00	1605.61
262.22	1718.25
262.43	1697.77
262.65	1624.04
262.86	1683.43
263.08	1818.60
263.30	1697.77
263.51	1576.94
263.73	1671.14
263.95	1824.74
264.16	1628.14
264.38	1658.85
264.60	1720.29
264.81	1681.38
265.03	1722.34
265.25	1781.73
265.46	1738.73
265.68	1806.31
265.89	1730.53
266.11	1681.38
266.33	1701.86
266.54	1804.26
266.76	1724.39
266.98	1712.10
267.19	1769.44
267.41	1720.29
267.62	1679.33
267.84	1662.95
268.06	1712.10
268.27	1730.53
268.49	1789.92
268.70	1751.01
268.92	1726.44
269.14	1671.14
269.35	1624.04
269.57	1705.96
269.79	1755.11
270.00	1673.19
270.22	1820.64
270.43	1642.47
270.65	1624.04
270.87	1728.49
271.08	1804.26
271.30	1751.01
271.51	1757.16
271.73	1730.53
271.95	1863.65
272.16	1724.39
272.38	1685.48
272.59	1642.47
272.81	1820.64
273.02	1710.05
273.24	1658.85
273.46	1716.20
273.67	1652.71
273.89	1744.87
274.10	1626.09
274.32	1748.97
274.54	1644.52
274.75	1748.97
274.97	1605.61
275.18	1746.92
275.40	1738.73
275.61	1744.87
275.83	1763.30
276.05	1675.24
276.26	1640.42
276.48	1783.78
276.69	1665.00
276.91	1693.67
277.12	1789.92
277.34	1748.97
277.55	1726.44
277.77	1771.49
277.99	1660.90
278.20	1558.50
278.42	1658.85
278.63	1675.24
278.85	1701.86
279.06	1648.61
279.28	1730.53
279.49	1791.97
279.71	1738.73
279.93	1673.19
280.14	1675.24
280.36	1736.68
280.57	1787.88
280.79	1771.49
281.00	1687.53
281.22	1705.96
281.43	1759.21
281.65	1597.42
281.86	1705.96
282.08	1744.87
282.29	1806.31
282.51	1652.71
282.73	1662.95
282.94	1642.47
283.16	1769.44
283.37	1826.79
283.59	1714.15
283.80	1781.73
284.02	1693.67
284.23	1681.38
284.45	1685.48
284.66	1673.19
284.88	1732.58
285.09	1718.25
285.31	1689.57
285.52	1699.81
285.74	1634.28
285.95	1755.11
286.17	1720.29
286.38	1818.60
286.60	1658.85
286.81	1667.05
287.03	1642.47
287.24	1681.38
287.46	1683.43
287.67	1630.18
287.89	1675.24
288.10	1683.43
288.32	1701.86
288.53	1837.03
288.75	1705.96
288.96	1785.83
289.18	1611.75
289.39	1640.42
289.61	1767.40
289.82	1824.74
290.04	1787.88
290.25	1605.61
290.47	1726.44
290.68	1689.57
290.90	1808.36
291.11	1632.23
291.33	1763.30
291.54	1648.61
291.76	1730.53
291.97	1683.43
292.18	1724.39
292.40	1722.34
292.61	1619.94
292.83	1824.74
293.04	1777.64
293.26	1794.02
293.47	1767.40
293.69	1609.70
293.90	1681.38
294.12	1755.11
294.33	1724.39
294.55	1701.86
294.76	1742.82
294.97	1765.35
295.19	1851.36
295.40	1650.66
295.62	1734.63
295.83	1783.78
296.05	1714.15
296.26	1804.26
296.48	1712.10
296.69	1699.81
296.90	1638.38
297.12	1734.63
297.33	1724.39
297.55	1687.53
297.76	1736.68
297.98	1773.54
298.19	1636.33
298.41	1697.77
298.62	1636.33
298.83	1773.54
299.05	1722.34
299.26	1722.34
299.48	1624.04
299.69	1712.10
299.90	1728.49
300.12	1644.52
300.33	1712.10
300.55	1720.29
300.76	1740.77
300.98	1683.43
301.19	1708.01
301.40	1665.00
301.62	1652.71
301.83	1748.97
302.05	1667.05
302.26	1726.44
302.47	1759.21
302.69	1765.35
302.90	1634.28
303.12	1576.94
303.33	1722.34
303.54	1800.16
303.76	1660.90
303.97	1644.52
304.19	1865.70
304.40	1669.09
304.61	1769.44
304.83	1834.98
305.04	1746.92
305.26	1734.63
305.47	1667.05
305.68	1689.57
305.90	1640.42
306.11	1740.77
306.33	1658.85
306.54	1556.46
306.75	1636.33
306.97	1574.89
307.18	1689.57
307.39	1730.53
307.61	1730.53
307.82	1671.14
308.04	1724.39
308.25	1640.42
308.46	1710.05
308.68	1748.97
308.89	1775.59
309.10	1828.84
309.32	1746.92
309.53	1722.34
309.74	1791.97
309.96	1673.19
310.17	1761.25
310.39	1658.85
310.60	1716.20
310.81	1763.30
311.03	1636.33
311.24	1714.15
311.45	1712.10
311.67	1818.60
311.88	1726.44
312.09	1619.94
312.31	1630.18
312.52	1675.24
312.73	1644.52
312.95	1636.33
313.16	1662.95
313.37	1783.78
313.59	1744.87
313.80	1755.11
314.01	1820.64
314.23	1687.53
314.44	1691.62
314.65	1677.29
314.87	1716.20
315.08	1658.85
315.29	1718.25
315.51	1656.81
315.72	1611.75
315.93	1818.60
316.15	1769.44
316.36	1644.52
316.57	1773.54
316.79	1744.87
317.00	1740.77
317.21	1736.68
317.43	1685.48
317.64	1748.97
317.85	1673.19
318.07	1781.73
318.28	1738.73
318.49	1755.11
318.70	1980.39
318.92	1802.21
319.13	1820.64
319.34	1841.12
319.56	1714.15
319.77	1802.21
319.98	1738.73
320.20	1779.68
320.41	1744.87
320.62	1722.34
320.83	1630.18
321.05	1843.17
321.26	1714.15
321.47	1632.23
321.69	1783.78
321.90	1675.24
322.11	1677.29
322.32	1708.01
322.54	1800.16
322.75	1699.81
322.96	1871.84
323.18	1605.61
323.39	1640.42
323.60	1660.90
323.81	1712.10
324.03	1630.18
324.24	1695.72
324.45	1679.33
324.66	1662.95
324.88	1759.21
325.09	1740.77
325.30	1771.49
325.52	1708.01
325.73	1800.16
325.94	1640.42
326.15	1669.09
326.37	1652.71
326.58	1773.54
326.79	1765.35
327.00	1652.71
327.22	1699.81
327.43	1699.81
327.64	1599.46
327.85	1755.11
328.07	1742.82
328.28	1779.68
328.49	1619.94
328.70	1681.38
328.92	1714.15
329.13	1722.34
329.34	1691.62
329.55	1726.44
329.76	1738.73
329.98	1726.44
330.19	1734.63
330.40	1728.49
330.61	1710.05
330.83	1695.72
331.04	1710.05
331.25	1667.05
331.46	1714.15
331.68	1642.47
331.89	1769.44
332.10	1697.77
332.31	1656.81
332.52	1703.91
332.74	1783.78
332.95	1617.90
333.16	1601.51
333.37	1779.68
333.58	1611.75
333.80	1761.25
334.01	1689.57
334.22	1681.38
334.43	1675.24
334.64	1718.25
334.86	1656.81
335.07	1685.48
335.28	1830.88
335.49	1626.09
335.70	1746.92
335.92	1738.73
336.13	1857.51
336.34	1660.90
336.55	1658.85
336.76	1734.63
336.98	1615.85
337.19	1724.39
337.40	1767.40
337.61	1867.75
337.82	1794.02
338.04	1800.16
338.25	1718.25
338.46	1757.16
338.67	1667.05
338.88	1656.81
339.09	1613.80
339.31	1695.72
339.52	1683.43
339.73	1675.24
339.94	1648.61
340.15	1818.60
340.36	1636.33
340.58	1665.00
340.79	1640.42
341.00	1769.44
341.21	1628.14
341.42	1777.64
341.63	1703.91
341.85	1724.39
342.06	1779.68
342.27	1658.85
342.48	1800.16
342.69	1617.90
342.90	1755.11
343.12	1681.38
343.33	1669.09
343.54	1769.44
343.75	1775.59
343.96	1660.90
344.17	1695.72
344.38	1638.38
344.60	1679.33
344.81	1626.09
345.02	1718.25
345.23	1705.96
345.44	1798.12
345.65	1787.88
345.86	1687.53
346.07	1658.85
346.29	1763.30
346.50	1703.91
346.71	1705.96
346.92	1804.26
347.13	1808.36
347.34	1748.97
347.55	1771.49
347.76	1683.43
347.98	1675.24
348.19	1617.90
348.40	1796.07
348.61	1636.33
348.82	1726.44
349.03	1777.64
349.24	1632.23
349.45	1771.49
349.66	1669.09
349.88	1761.25
350.09	1644.52
350.30	1746.92
350.51	1773.54
350.72	1748.97
350.93	1740.77
351.14	1660.90
351.35	1755.11
351.56	1789.92
351.77	1632.23
351.99	1695.72
352.20	1740.77
352.41	1701.86
352.62	1587.18
352.83	1644.52
353.04	1759.21
353.25	1728.49
353.46	1789.92
353.67	1796.07
353.88	1628.14
354.09	1681.38
354.30	1708.01
354.52	1703.91
354.73	1746.92
354.94	1658.85
355.15	1675.24
355.36	1773.54
355.57	1712.10
355.78	1669.09
355.99	1660.90
356.20	1673.19
356.41	1718.25
356.62	1753.06
356.83	1726.44
357.04	1810.40
357.25	1658.85
357.46	1693.67
357.68	1615.85
357.89	1677.29
358.10	1695.72
358.31	1683.43
358.52	1703.91
358.73	1677.29
358.94	1683.43
359.15	1636.33
359.36	1781.73
359.57	1701.86
359.78	1708.01
359.99	1763.30
360.20	1640.42
360.41	1646.57
360.62	1722.34
360.83	1693.67
361.04	1693.67
361.25	1759.21
361.46	1820.64
361.67	1710.05
361.88	1787.88
362.09	1662.95
362.30	1703.91
362.51	1714.15
362.72	1730.53
362.93	1785.83
363.14	1656.81
363.35	1796.07
363.56	1640.42
363.78	1763.30
363.99	1800.16
364.20	1636.33
364.41	1697.77
364.62	1830.88
364.83	1699.81
365.04	1703.91
365.25	1705.96
365.46	1787.88
365.67	1689.57
365.88	1656.81
366.09	1660.90
366.30	1722.34
366.51	1660.90
366.72	1687.53
366.93	1722.34
367.14	1691.62
367.35	1789.92
367.56	1685.48
367.77	1798.12
367.98	1728.49
368.18	1665.00
368.39	1683.43
368.60	1523.69
368.81	1738.73
369.02	1783.78
369.23	1703.91
369.44	1624.04
369.65	1669.09
369.86	1757.16
370.07	1757.16
370.28	1660.90
370.49	1767.40
370.70	1746.92
370.91	1677.29
371.12	1626.09
371.33	1730.53
371.54	1689.57
371.75	1753.06
371.96	1583.08
372.17	1771.49
372.38	1695.72
372.59	1755.11
372.80	1718.25
373.01	1738.73
373.22	1708.01
373.43	1728.49
373.64	1673.19
373.85	1724.39
374.06	1853.41
374.26	1744.87
374.47	1691.62
374.68	1791.97
374.89	1681.38
375.10	1753.06
375.31	1736.68
375.52	1669.09
375.73	1718.25
375.94	1607.66
376.15	1810.40
376.36	1572.84
376.57	1695.72
376.78	1665.00
376.99	1699.81
377.20	1740.77
377.40	1730.53
377.61	1804.26
377.82	1699.81
378.03	1826.79
378.24	1742.82
378.45	1705.96
378.66	1742.82
378.87	1593.32
379.08	1656.81
379.29	1669.09
379.50	1798.12
379.71	1665.00
379.91	1734.63
380.12	1673.19
380.33	1767.40
380.54	1689.57
380.75	1652.71
380.96	1714.15
381.17	1794.02
381.38	1714.15
381.59	1738.73
381.80	1748.97
382.00	1869.80
382.21	1746.92
382.42	1849.32
382.63	1845.22
382.84	1800.16
383.05	1830.88
383.26	1703.91
383.47	1718.25
383.68	1705.96
383.88	1773.54
384.09	1720.29
384.30	1777.64
384.51	1738.73
384.72	1662.95
384.93	1574.89
385.14	1734.63
385.35	1769.44
385.55	1587.18
385.76	1791.97
385.97	1669.09
386.18	1640.42
386.39	1642.47
386.60	1679.33
386.81	1671.14
387.02	1685.48
387.22	1642.47
387.43	1773.54
387.64	1724.39
387.85	1918.95
388.06	2174.94
388.27	4188.10
388.48	6772.63
388.68	8204.16
388.89	9627.50
389.10	9971.56
389.31	8638.33
389.52	7602.06
389.73	6793.11
389.93	6148.00
390.14	5836.71
390.35	5226.42
390.56	4663.22
390.77	3831.75
390.98	2994.13
391.18	2691.03
391.39	2131.94
391.60	1949.67
391.81	1853.41
392.02	1753.06
392.23	1783.78
392.43	1757.16
392.64	1816.55
392.85	1724.39
393.06	1855.46
393.27	1677.29
393.47	1689.57
393.68	1746.92
393.89	1667.05
394.10	1708.01
394.31	1679.33
394.52	1609.70
394.72	1632.23
394.93	1800.16
395.14	1701.86
395.35	1658.85
395.56	1654.76
395.76	1710.05
395.97	1796.07
396.18	1800.16
396.39	1826.79
396.60	2000.87
396.80	1918.95
397.01	1773.54
397.22	1812.45
397.43	1826.79
397.64	1763.30
397.84	1826.79
398.05	1843.17
398.26	1656.81
398.47	1736.68
398.67	1798.12
398.88	1691.62
399.09	1800.16
399.30	1705.96
399.51	1697.77
399.71	1699.81
399.92	1669.09
400.13	1753.06
400.34	1640.42
400.54	1656.81
400.75	1800.16
400.96	1718.25
401.17	1814.50
401.37	1767.40
401.58	1642.47
401.79	1751.01
402.00	1845.22
402.21	1955.81
402.41	1937.38
402.62	2011.11
402.83	2002.91
403.04	1927.14
403.24	2109.41
403.45	1763.30
403.66	1875.94
403.87	1767.40
404.07	1955.81
404.28	1896.42
404.49	1832.93
404.70	1779.68
404.90	1830.88
405.11	1757.16
405.32	1730.53
405.52	1665.00
405.73	1683.43
405.94	1730.53
406.15	1779.68
406.35	1796.07
406.56	1746.92
406.77	1609.70
406.98	1755.11
407.18	1673.19
407.39	1845.22
407.60	1742.82
407.80	1722.34
408.01	1605.61
408.22	1693.67
408.43	1701.86
408.63	1779.68
408.84	1736.68
409.05	1697.77
409.25	1595.37
409.46	1628.14
409.67	1621.99
409.88	1605.61
410.08	1761.25
410.29	1681.38
410.50	1697.77
410.70	1759.21
410.91	1636.33
411.12	1722.34
411.32	1703.91
411.53	1632.23
411.74	1822.69
411.95	1787.88
412.15	1683.43
412.36	1771.49
412.57	1738.73
412.77	1804.26
412.98	1771.49
413.19	1732.58
413.39	1769.44
413.60	1740.77
413.81	1834.98
414.01	1714.15
414.22	1746.92
414.43	1828.84
414.63	1767.40
414.84	1740.77
415.05	1683.43
415.25	1648.61
415.46	1755.11
415.67	1681.38
415.87	1744.87
416.08	1728.49
416.29	1628.14
416.49	1691.62
416.70	1665.00
416.91	1640.42
417.11	1742.82
417.32	1732.58
417.53	1746.92
417.73	1787.88
417.94	1705.96
418.15	1652.71
418.35	1701.86
418.56	1669.09
418.77	1800.16
418.97	1714.15
419.18	1679.33
419.38	1560.55
419.59	1724.39
419.80	1824.74
420.00	1656.81
420.21	1738.73
420.42	1810.40
420.62	1757.16
420.83	1716.20
421.04	1648.61
421.24	1740.77
421.45	1791.97
421.65	1689.57
421.86	1693.67
422.07	1724.39
422.27	1708.01
422.48	1677.29
422.69	1679.33
422.89	1687.53
423.10	1677.29
423.30	1658.85
423.51	1667.05
423.72	1726.44
423.92	1757.16
424.13	1656.81
424.33	1697.77
424.54	1773.54
424.75	1687.53
424.95	1830.88
425.16	1724.39
425.36	1675.24
425.57	1765.35
425.78	1683.43
425.98	1794.02
426.19	1712.10
426.39	1644.52
426.60	1732.58
426.81	1773.54
427.01	1753.06
427.22	1699.81
427.42	1595.37
427.63	1683.43
427.83	1779.68
428.04	1853.41
428.25	1746.92
428.45	1781.73
428.66	1738.73
428.86	1730.53
429.07	1726.44
429.28	1697.77
429.48	1732.58
429.69	1654.76
429.89	1695.72
430.10	1673.19
430.30	1832.93
430.51	1804.26
430.71	1714.15
430.92	1693.67
431.13	1673.19
431.33	1781.73
431.54	1712.10
431.74	1783.78
431.95	1759.21
432.15	1634.28
432.36	1669.09
432.56	1636.33
432.77	1857.51
432.98	1796.07
433.18	1720.29
433.39	1630.18
433.59	1724.39
433.80	1843.17
434.00	1757.16
434.21	1667.05
434.41	1675.24
434.62	1867.75
434.82	1714.15
435.03	1726.44
435.23	1699.81
435.44	1609.70
435.64	1761.25
435.85	1730.53
436.06	1777.64
436.26	1767.40
436.47	1632.23
436.67	1703.91
436.88	1710.05
437.08	1751.01
437.29	1812.45
437.49	1722.34
437.70	1814.50
437.90	1693.67
438.11	1925.09
438.31	1738.73
438.52	1841.12
438.72	1961.95
438.93	1906.66
439.13	1746.92
439.34	1814.50
439.54	1753.06
439.75	1751.01
439.95	1861.60
440.16	1740.77
440.36	1732.58
440.57	1769.44
440.77	1812.45
440.98	1728.49
441.18	1785.83
441.39	1679.33
441.59	1679.33
441.80	1781.73
442.00	1710.05
442.21	1843.17
442.41	1636.33
442.62	1710.05
442.82	1587.18
443.02	1673.19
443.23	1816.55
443.43	1712.10
443.64	1867.75
443.84	1681.38
444.05	1863.65
444.25	1650.66
444.46	1701.86
444.66	1673.19
444.87	1839.08
445.07	1636.33
445.28	1667.05
445.48	1791.97
445.69	1777.64
445.89	1851.36
446.09	1720.29
446.30	2011.11
446.50	2705.37
446.71	3719.11
446.91	4401.08
447.12	4706.23
447.32	4853.69
447.53	4421.56
447.73	3917.76
447.93	3502.03
448.14	3235.79
448.34	3121.10
448.55	2906.07
448.75	2719.70
448.96	2715.61
449.16	2512.86
449.36	2303.96
449.57	2058.21
449.77	1871.84
449.98	1855.46
450.18	1789.92
450.39	1849.32
450.59	1744.87
450.79	1761.25
451.00	1603.56
451.20	1830.88
451.41	1740.77
451.61	1705.96
451.81	1763.30
452.02	1712.10
452.22	1812.45
452.43	1697.77
452.63	1703.91
