SpectraSuite Data File
++++++++++++++++++++++++++++++++++++
Date: Mon Jun 06 17:35:37 CEST 2016
User: root
Dark Spectrum Present: No
Reference Spectrum Present: No
Number of Sampled Component Spectra: 1
Spectrometers: USB4C02835
Integration Time (usec): 100000 (USB4C02835)
Spectra Averaged: 1 (USB4C02835)
Boxcar Smoothing: 0 (USB4C02835)
Correct for Electrical Dark: No (USB4C02835)
Strobe/Lamp Enabled: No (USB4C02835)
Correct for Detector Non-linearity: No (USB4C02835)
Correct for Stray Light: No (USB4C02835)
Number of Pixels in Processed Spectrum: 3648
>>>>>Begin Processed Spectral Data<<<<<
177.47	1495.02
177.69	1495.02
177.91	1495.02
178.13	1431.53
178.36	1519.59
178.58	1730.53
178.80	1644.52
179.02	1611.75
179.24	1669.09
179.46	1728.49
179.68	1701.86
179.90	1753.06
180.13	1695.72
180.35	1685.48
180.57	1724.39
180.79	1701.86
181.01	1689.57
181.23	1820.64
181.45	1771.49
181.67	1798.12
181.90	1751.01
182.12	1699.81
182.34	1589.22
182.56	1679.33
182.78	1734.63
183.00	1732.58
183.22	1726.44
183.44	1564.65
183.66	1841.12
183.89	1824.74
184.11	1701.86
184.33	1740.77
184.55	1789.92
184.77	1753.06
184.99	1783.78
185.21	1591.27
185.43	1925.09
185.65	1701.86
185.87	1755.11
186.10	1791.97
186.32	1834.98
186.54	1742.82
186.76	1689.57
186.98	1796.07
187.20	1691.62
187.42	1689.57
187.64	1724.39
187.86	1636.33
188.08	1769.44
188.30	1701.86
188.52	1695.72
188.75	1746.92
188.97	1820.64
189.19	1656.81
189.41	1693.67
189.63	1742.82
189.85	1689.57
190.07	1689.57
190.29	1673.19
190.51	1742.82
190.73	1642.47
190.95	1740.77
191.17	1697.77
191.39	1587.18
191.61	1683.43
191.84	1683.43
192.06	1751.01
192.28	1603.56
192.50	1900.52
192.72	1744.87
192.94	1732.58
193.16	1712.10
193.38	1662.95
193.60	1656.81
193.82	1693.67
194.04	1824.74
194.26	1681.38
194.48	1710.05
194.70	1697.77
194.92	1685.48
195.14	1761.25
195.36	1662.95
195.58	1656.81
195.80	1746.92
196.02	1710.05
196.24	1728.49
196.46	1812.45
196.69	1683.43
196.91	1927.14
197.13	1656.81
197.35	1665.00
197.57	1798.12
197.79	1779.68
198.01	1716.20
198.23	1785.83
198.45	1763.30
198.67	1650.66
198.89	1720.29
199.11	1734.63
199.33	1714.15
199.55	1632.23
199.77	1708.01
199.99	1798.12
200.21	1765.35
200.43	1832.93
200.65	1673.19
200.87	1644.52
201.09	1757.16
201.31	1693.67
201.53	1779.68
201.75	1736.68
201.97	1740.77
202.19	1687.53
202.41	1832.93
202.63	1884.13
202.85	1814.50
203.07	1740.77
203.29	1689.57
203.51	1748.97
203.73	1675.24
203.95	1800.16
204.17	1722.34
204.39	1789.92
204.61	1777.64
204.83	1740.77
205.05	1726.44
205.27	1808.36
205.49	1863.65
205.71	1697.77
205.93	1652.71
206.15	1685.48
206.37	1734.63
206.59	1656.81
206.81	1695.72
207.03	1724.39
207.25	1701.86
207.47	1783.78
207.69	1685.48
207.91	1863.65
208.13	1816.55
208.34	1701.86
208.56	1677.29
208.78	1703.91
209.00	1759.21
209.22	1636.33
209.44	1716.20
209.66	1720.29
209.88	1755.11
210.10	1705.96
210.32	1699.81
210.54	1787.88
210.76	1759.21
210.98	1697.77
211.20	1636.33
211.42	1681.38
211.64	1738.73
211.86	1742.82
212.08	1660.90
212.30	1785.83
212.52	1738.73
212.74	1701.86
212.96	1726.44
213.17	1716.20
213.39	1779.68
213.61	1746.92
213.83	1714.15
214.05	1710.05
214.27	1765.35
214.49	1714.15
214.71	1660.90
214.93	1705.96
215.15	1632.23
215.37	1798.12
215.59	1660.90
215.81	1728.49
216.03	1796.07
216.24	1746.92
216.46	1761.25
216.68	1673.19
216.90	1740.77
217.12	1765.35
217.34	1724.39
217.56	1789.92
217.78	1822.69
218.00	1722.34
218.22	1726.44
218.44	1738.73
218.66	1726.44
218.87	1837.03
219.09	1736.68
219.31	1701.86
219.53	1693.67
219.75	1732.58
219.97	1773.54
220.19	1697.77
220.41	1687.53
220.63	1845.22
220.85	1712.10
221.06	1697.77
221.28	1787.88
221.50	1812.45
221.72	1726.44
221.94	1771.49
222.16	1716.20
222.38	1714.15
222.60	1765.35
222.82	1751.01
223.03	1769.44
223.25	1652.71
223.47	1834.98
223.69	1855.46
223.91	1748.97
224.13	1683.43
224.35	1642.47
224.57	1769.44
224.78	1724.39
225.00	1624.04
225.22	1638.38
225.44	1726.44
225.66	1818.60
225.88	1685.48
226.10	1746.92
226.32	1789.92
226.53	1855.46
226.75	1779.68
226.97	1695.72
227.19	1693.67
227.41	1710.05
227.63	1720.29
227.85	1605.61
228.06	1718.25
228.28	1714.15
228.50	1773.54
228.72	1626.09
228.94	1701.86
229.16	1607.66
229.37	1665.00
229.59	1681.38
229.81	1855.46
230.03	1734.63
230.25	1605.61
230.47	1603.56
230.69	1693.67
230.90	1718.25
231.12	1658.85
231.34	1771.49
231.56	1757.16
231.78	1671.14
232.00	1732.58
232.21	1740.77
232.43	1693.67
232.65	1673.19
232.87	1767.40
233.09	1732.58
233.30	1695.72
233.52	1828.84
233.74	1730.53
233.96	1697.77
234.18	1712.10
234.40	1611.75
234.61	1783.78
234.83	1691.62
235.05	1689.57
235.27	1877.99
235.49	1759.21
235.70	1722.34
235.92	1847.27
236.14	1773.54
236.36	1837.03
236.58	1615.85
236.79	1761.25
237.01	1722.34
237.23	1644.52
237.45	1853.41
237.67	1695.72
237.88	1771.49
238.10	1837.03
238.32	1656.81
238.54	1730.53
238.76	1722.34
238.97	1699.81
239.19	1673.19
239.41	1822.69
239.63	1771.49
239.85	1710.05
240.06	1685.48
240.28	1681.38
240.50	1767.40
240.72	1681.38
240.93	1628.14
241.15	1767.40
241.37	1742.82
241.59	1771.49
241.81	1714.15
242.02	1673.19
242.24	1705.96
242.46	1738.73
242.68	1675.24
242.89	1755.11
243.11	1662.95
243.33	1691.62
243.55	1794.02
243.76	1755.11
243.98	1705.96
244.20	1720.29
244.42	1728.49
244.64	1693.67
244.85	1683.43
245.07	1683.43
245.29	1742.82
245.51	1789.92
245.72	1720.29
245.94	1832.93
246.16	1710.05
246.38	1722.34
246.59	1742.82
246.81	1644.52
247.03	1724.39
247.24	1591.27
247.46	1671.14
247.68	1789.92
247.90	1726.44
248.11	1697.77
248.33	1740.77
248.55	1691.62
248.77	1701.86
248.98	1732.58
249.20	1820.64
249.42	1597.42
249.64	1722.34
249.85	1759.21
250.07	1581.03
250.29	1755.11
250.50	1748.97
250.72	1626.09
250.94	1755.11
251.16	1742.82
251.37	1832.93
251.59	1736.68
251.81	1746.92
252.02	1748.97
252.24	1765.35
252.46	1724.39
252.68	1746.92
252.89	1705.96
253.11	1634.28
253.33	1802.21
253.54	1761.25
253.76	1634.28
253.98	1736.68
254.20	1708.01
254.41	1611.75
254.63	1714.15
254.85	1650.66
255.06	1691.62
255.28	1783.78
255.50	1679.33
255.71	1642.47
255.93	1677.29
256.15	1777.64
256.36	1853.41
256.58	1658.85
256.80	1734.63
257.02	1689.57
257.23	1697.77
257.45	1714.15
257.67	1654.76
257.88	1685.48
258.10	1730.53
258.32	1718.25
258.53	1779.68
258.75	1871.84
258.97	1662.95
259.18	1724.39
259.40	1701.86
259.62	1769.44
259.83	1812.45
260.05	1728.49
260.27	2017.25
260.48	1751.01
260.70	1675.24
260.92	1748.97
261.13	1665.00
261.35	1740.77
261.57	1669.09
261.78	1646.57
262.00	1681.38
262.22	1798.12
262.43	1689.57
262.65	1675.24
262.86	1691.62
263.08	1816.55
263.30	1730.53
263.51	1658.85
263.73	1732.58
263.95	1730.53
264.16	1710.05
264.38	1691.62
264.60	1714.15
264.81	1734.63
265.03	1771.49
265.25	1789.92
265.46	1728.49
265.68	1757.16
265.89	1781.73
266.11	1576.94
266.33	1744.87
266.54	1783.78
266.76	1683.43
266.98	1687.53
267.19	1828.84
267.41	1839.08
267.62	1669.09
267.84	1681.38
268.06	1744.87
268.27	1734.63
268.49	1767.40
268.70	1777.64
268.92	1734.63
269.14	1718.25
269.35	1665.00
269.57	1708.01
269.79	1775.59
270.00	1714.15
270.22	1800.16
270.43	1746.92
270.65	1566.70
270.87	1744.87
271.08	1669.09
271.30	1800.16
271.51	1679.33
271.73	1732.58
271.95	1800.16
272.16	1755.11
272.38	1716.20
272.59	1705.96
272.81	1720.29
273.02	1767.40
273.24	1652.71
273.46	1769.44
273.67	1703.91
273.89	1624.04
274.10	1714.15
274.32	1767.40
274.54	1708.01
274.75	1773.54
274.97	1722.34
275.18	1800.16
275.40	1728.49
275.61	1652.71
275.83	1759.21
276.05	1658.85
276.26	1718.25
276.48	1728.49
276.69	1720.29
276.91	1626.09
277.12	1800.16
277.34	1773.54
277.55	1699.81
277.77	1769.44
277.99	1708.01
278.20	1585.13
278.42	1671.14
278.63	1701.86
278.85	1701.86
279.06	1697.77
279.28	1746.92
279.49	1734.63
279.71	1742.82
279.93	1728.49
280.14	1697.77
280.36	1650.66
280.57	1834.98
280.79	1791.97
281.00	1658.85
281.22	1656.81
281.43	1816.55
281.65	1654.76
281.86	1605.61
282.08	1755.11
282.29	1791.97
282.51	1609.70
282.73	1658.85
282.94	1654.76
283.16	1763.30
283.37	1781.73
283.59	1791.97
283.80	1716.20
284.02	1646.57
284.23	1759.21
284.45	1738.73
284.66	1609.70
284.88	1615.85
285.09	1624.04
285.31	1771.49
285.52	1708.01
285.74	1705.96
285.95	1812.45
286.17	1787.88
286.38	1765.35
286.60	1693.67
286.81	1695.72
287.03	1658.85
287.24	1695.72
287.46	1722.34
287.67	1742.82
287.89	1800.16
288.10	1689.57
288.32	1695.72
288.53	1714.15
288.75	1730.53
288.96	1718.25
289.18	1681.38
289.39	1726.44
289.61	1712.10
289.82	1884.13
290.04	1816.55
290.25	1714.15
290.47	1683.43
290.68	1708.01
290.90	1843.17
291.11	1593.32
291.33	1751.01
291.54	1656.81
291.76	1667.05
291.97	1710.05
292.18	1693.67
292.40	1734.63
292.61	1662.95
292.83	1828.84
293.04	1748.97
293.26	1820.64
293.47	1734.63
293.69	1681.38
293.90	1744.87
294.12	1726.44
294.33	1695.72
294.55	1751.01
294.76	1783.78
294.97	1714.15
295.19	1845.22
295.40	1607.66
295.62	1697.77
295.83	1837.03
296.05	1669.09
296.26	1746.92
296.48	1755.11
296.69	1744.87
296.90	1714.15
297.12	1685.48
297.33	1802.21
297.55	1746.92
297.76	1724.39
297.98	1765.35
298.19	1775.59
298.41	1679.33
298.62	1642.47
298.83	1814.50
299.05	1767.40
299.26	1683.43
299.48	1650.66
299.69	1736.68
299.90	1761.25
300.12	1605.61
300.33	1738.73
300.55	1669.09
300.76	1771.49
300.98	1675.24
301.19	1736.68
301.40	1687.53
301.62	1771.49
301.83	1814.50
302.05	1681.38
302.26	1755.11
302.47	1763.30
302.69	1660.90
302.90	1714.15
303.12	1607.66
303.33	1759.21
303.54	1783.78
303.76	1677.29
303.97	1691.62
304.19	1783.78
304.40	1667.05
304.61	1755.11
304.83	1820.64
305.04	1753.06
305.26	1796.07
305.47	1669.09
305.68	1626.09
305.90	1687.53
306.11	1824.74
306.33	1689.57
306.54	1644.52
306.75	1648.61
306.97	1660.90
307.18	1667.05
307.39	1740.77
307.61	1738.73
307.82	1687.53
308.04	1714.15
308.25	1599.46
308.46	1800.16
308.68	1687.53
308.89	1742.82
309.10	1830.88
309.32	1771.49
309.53	1763.30
309.74	1761.25
309.96	1699.81
310.17	1775.59
310.39	1632.23
310.60	1691.62
310.81	1665.00
311.03	1667.05
311.24	1748.97
311.45	1751.01
311.67	1802.21
311.88	1740.77
312.09	1658.85
312.31	1681.38
312.52	1798.12
312.73	1710.05
312.95	1644.52
313.16	1701.86
313.37	1804.26
313.59	1701.86
313.80	1763.30
314.01	1863.65
314.23	1697.77
314.44	1751.01
314.65	1660.90
314.87	1675.24
315.08	1761.25
315.29	1632.23
315.51	1673.19
315.72	1738.73
315.93	1865.70
316.15	1710.05
316.36	1751.01
316.57	1746.92
316.79	1712.10
317.00	1650.66
317.21	1779.68
317.43	1652.71
317.64	1683.43
317.85	1697.77
318.07	1693.67
318.28	1681.38
318.49	1847.27
318.70	1918.95
318.92	1851.36
319.13	1839.08
319.34	1832.93
319.56	1849.32
319.77	1845.22
319.98	1742.82
320.20	1798.12
320.41	1726.44
320.62	1748.97
320.83	1669.09
321.05	1804.26
321.26	1738.73
321.47	1742.82
321.69	1728.49
321.90	1665.00
322.11	1734.63
322.32	1738.73
322.54	1755.11
322.75	1759.21
322.96	1931.23
323.18	1609.70
323.39	1689.57
323.60	1705.96
323.81	1755.11
324.03	1665.00
324.24	1820.64
324.45	1669.09
324.66	1675.24
324.88	1755.11
325.09	1783.78
325.30	1656.81
325.52	1730.53
325.73	1779.68
325.94	1632.23
326.15	1607.66
326.37	1667.05
326.58	1802.21
326.79	1789.92
327.00	1732.58
327.22	1703.91
327.43	1648.61
327.64	1675.24
327.85	1755.11
328.07	1789.92
328.28	1777.64
328.49	1730.53
328.70	1648.61
328.92	1734.63
329.13	1722.34
329.34	1746.92
329.55	1832.93
329.76	1781.73
329.98	1710.05
330.19	1755.11
330.40	1769.44
330.61	1759.21
330.83	1669.09
331.04	1630.18
331.25	1738.73
331.46	1724.39
331.68	1644.52
331.89	1744.87
332.10	1771.49
332.31	1669.09
332.52	1683.43
332.74	1761.25
332.95	1638.38
333.16	1681.38
333.37	1763.30
333.58	1654.76
333.80	1789.92
334.01	1638.38
334.22	1665.00
334.43	1671.14
334.64	1751.01
334.86	1751.01
335.07	1693.67
335.28	1845.22
335.49	1677.29
335.70	1800.16
335.92	1794.02
336.13	1951.71
336.34	1765.35
336.55	1759.21
336.76	1728.49
336.98	1667.05
337.19	1658.85
337.40	1804.26
337.61	1873.89
337.82	1644.52
338.04	1789.92
338.25	1601.51
338.46	1693.67
338.67	1705.96
338.88	1701.86
339.09	1628.14
339.31	1671.14
339.52	1644.52
339.73	1640.42
339.94	1726.44
340.15	1738.73
340.36	1775.59
340.58	1759.21
340.79	1712.10
341.00	1679.33
341.21	1667.05
341.42	1751.01
341.63	1697.77
341.85	1753.06
342.06	1662.95
342.27	1679.33
342.48	1751.01
342.69	1650.66
342.90	1697.77
343.12	1804.26
343.33	1705.96
343.54	1755.11
343.75	1851.36
343.96	1693.67
344.17	1656.81
344.38	1697.77
344.60	1626.09
344.81	1726.44
345.02	1648.61
345.23	1820.64
345.44	1791.97
345.65	1787.88
345.86	1736.68
346.07	1771.49
346.29	1699.81
346.50	1816.55
346.71	1763.30
346.92	1824.74
347.13	1869.80
347.34	1724.39
347.55	1673.19
347.76	1779.68
347.98	1617.90
348.19	1687.53
348.40	1849.32
348.61	1671.14
348.82	1802.21
349.03	1779.68
349.24	1722.34
349.45	1806.31
349.66	1566.70
349.88	1714.15
350.09	1634.28
350.30	1804.26
350.51	1812.45
350.72	1730.53
350.93	1701.86
351.14	1591.27
351.35	1730.53
351.56	1740.77
351.77	1751.01
351.99	1746.92
352.20	1751.01
352.41	1775.59
352.62	1642.47
352.83	1744.87
353.04	1726.44
353.25	1703.91
353.46	1812.45
353.67	1802.21
353.88	1583.08
354.09	1738.73
354.30	1818.60
354.52	1734.63
354.73	1738.73
354.94	1669.09
355.15	1720.29
355.36	1898.47
355.57	1642.47
355.78	1751.01
355.99	1640.42
356.20	1683.43
356.41	1751.01
356.62	1783.78
356.83	1697.77
357.04	1796.07
357.25	1628.14
357.46	1671.14
357.68	1673.19
357.89	1640.42
358.10	1630.18
358.31	1718.25
358.52	1730.53
358.73	1669.09
358.94	1646.57
359.15	1720.29
359.36	1722.34
359.57	1751.01
359.78	1746.92
359.99	1705.96
360.20	1710.05
360.41	1673.19
360.62	1798.12
360.83	1802.21
361.04	1718.25
361.25	1775.59
361.46	1769.44
361.67	1697.77
361.88	1767.40
362.09	1773.54
362.30	1722.34
362.51	1687.53
362.72	1746.92
362.93	1798.12
363.14	1730.53
363.35	1851.36
363.56	1632.23
363.78	1757.16
363.99	1746.92
364.20	1705.96
364.41	1748.97
364.62	1886.18
364.83	1667.05
365.04	1710.05
365.25	1685.48
365.46	1861.60
365.67	1714.15
365.88	1652.71
366.09	1732.58
366.30	1667.05
366.51	1769.44
366.72	1714.15
366.93	1724.39
367.14	1689.57
367.35	1810.40
367.56	1662.95
367.77	1843.17
367.98	1724.39
368.18	1708.01
368.39	1767.40
368.60	1665.00
368.81	1753.06
369.02	1681.38
369.23	1755.11
369.44	1693.67
369.65	1791.97
369.86	1718.25
370.07	1740.77
370.28	1644.52
370.49	1781.73
370.70	1820.64
370.91	1712.10
371.12	1705.96
371.33	1789.92
371.54	1658.85
371.75	1789.92
371.96	1642.47
372.17	1675.24
372.38	1697.77
372.59	1740.77
372.80	1673.19
373.01	1767.40
373.22	1736.68
373.43	1740.77
373.64	1665.00
373.85	1822.69
374.06	1771.49
374.26	1761.25
374.47	1705.96
374.68	1746.92
374.89	1681.38
375.10	1714.15
375.31	1771.49
375.52	1701.86
375.73	1699.81
375.94	1591.27
376.15	1771.49
376.36	1673.19
376.57	1724.39
376.78	1701.86
376.99	1681.38
377.20	1769.44
377.40	1660.90
377.61	1800.16
377.82	1667.05
378.03	1826.79
378.24	1730.53
378.45	1665.00
378.66	1703.91
378.87	1611.75
379.08	1681.38
379.29	1781.73
379.50	1863.65
379.71	1712.10
379.91	1716.20
380.12	1742.82
380.33	1781.73
380.54	1654.76
380.75	1665.00
380.96	1722.34
381.17	1789.92
381.38	1787.88
381.59	1755.11
381.80	1824.74
382.00	1822.69
382.21	1834.98
382.42	1826.79
382.63	1861.60
382.84	1738.73
383.05	1779.68
383.26	1824.74
383.47	1753.06
383.68	1845.22
383.88	1757.16
384.09	1730.53
384.30	1855.46
384.51	1843.17
384.72	1617.90
384.93	1636.33
385.14	1626.09
385.35	1824.74
385.55	1669.09
385.76	1845.22
385.97	1769.44
386.18	1607.66
386.39	1708.01
386.60	1738.73
386.81	1796.07
387.02	1703.91
387.22	1697.77
387.43	1779.68
387.64	1773.54
387.85	1812.45
388.06	2142.18
388.27	4181.95
388.48	6803.35
388.68	8245.12
388.89	9574.25
389.10	9930.60
389.31	8474.49
389.52	7698.31
389.73	6692.76
389.93	6266.78
390.14	5785.51
390.35	5269.42
390.56	4634.55
390.77	3772.36
390.98	2957.27
391.18	2516.95
391.39	2136.03
391.60	1884.13
391.81	1931.23
392.02	1732.58
392.23	1853.41
392.43	1812.45
392.64	1818.60
392.85	1726.44
393.06	1789.92
393.27	1777.64
393.47	1644.52
393.68	1746.92
393.89	1681.38
394.10	1841.12
394.31	1724.39
394.52	1656.81
394.72	1714.15
394.93	1826.79
395.14	1638.38
395.35	1763.30
395.56	1658.85
395.76	1753.06
395.97	1798.12
396.18	1808.36
396.39	1783.78
396.60	1988.58
396.80	1906.66
397.01	1832.93
397.22	1886.18
397.43	1834.98
397.64	1742.82
397.84	1787.88
398.05	1853.41
398.26	1804.26
398.47	1781.73
398.67	1841.12
398.88	1757.16
399.09	1826.79
399.30	1658.85
399.51	1730.53
399.71	1669.09
399.92	1687.53
400.13	1771.49
400.34	1847.27
400.54	1722.34
400.75	1779.68
400.96	1660.90
401.17	1865.70
401.37	1710.05
401.58	1742.82
401.79	1718.25
402.00	1914.85
402.21	2058.21
402.41	1925.09
402.62	2000.87
402.83	2037.73
403.04	2009.06
403.24	2090.98
403.45	1826.79
403.66	1882.08
403.87	1923.04
404.07	1978.34
404.28	1886.18
404.49	1757.16
404.70	1796.07
404.90	1794.02
405.11	1746.92
405.32	1685.48
405.52	1658.85
405.73	1675.24
405.94	1708.01
406.15	1728.49
406.35	1775.59
406.56	1796.07
406.77	1708.01
406.98	1701.86
407.18	1777.64
407.39	1753.06
407.60	1751.01
407.80	1855.46
408.01	1710.05
408.22	1759.21
408.43	1658.85
408.63	1718.25
408.84	1767.40
409.05	1779.68
409.25	1767.40
409.46	1677.29
409.67	1691.62
409.88	1802.21
410.08	1730.53
410.29	1718.25
410.50	1767.40
410.70	1751.01
410.91	1650.66
411.12	1730.53
411.32	1669.09
411.53	1710.05
411.74	1744.87
411.95	1828.84
412.15	1814.50
412.36	1859.56
412.57	1775.59
412.77	1808.36
412.98	1787.88
413.19	1726.44
413.39	1824.74
413.60	1730.53
413.81	1800.16
414.01	1685.48
414.22	1718.25
414.43	1730.53
414.63	1716.20
414.84	1751.01
415.05	1677.29
415.25	1671.14
415.46	1722.34
415.67	1705.96
415.87	1744.87
416.08	1746.92
416.29	1679.33
416.49	1746.92
416.70	1726.44
416.91	1699.81
417.11	1765.35
417.32	1773.54
417.53	1759.21
417.73	1755.11
417.94	1701.86
418.15	1740.77
418.35	1763.30
418.56	1734.63
418.77	1896.42
418.97	1652.71
419.18	1691.62
419.38	1576.94
419.59	1712.10
419.80	1826.79
420.00	1654.76
420.21	1757.16
420.42	1744.87
420.62	1681.38
420.83	1656.81
421.04	1665.00
421.24	1708.01
421.45	1800.16
421.65	1773.54
421.86	1658.85
422.07	1732.58
422.27	1724.39
422.48	1722.34
422.69	1681.38
422.89	1718.25
423.10	1732.58
423.30	1722.34
423.51	1710.05
423.72	1708.01
423.92	1724.39
424.13	1578.98
424.33	1785.83
424.54	1759.21
424.75	1748.97
424.95	1818.60
425.16	1740.77
425.36	1699.81
425.57	1814.50
425.78	1802.21
425.98	1740.77
426.19	1730.53
426.39	1669.09
426.60	1677.29
426.81	1794.02
427.01	1699.81
427.22	1753.06
427.42	1673.19
427.63	1644.52
427.83	1759.21
428.04	1757.16
428.25	1804.26
428.45	1755.11
428.66	1724.39
428.86	1734.63
429.07	1748.97
429.28	1783.78
429.48	1714.15
429.69	1701.86
429.89	1652.71
430.10	1691.62
430.30	1794.02
430.51	1855.46
430.71	1732.58
430.92	1701.86
431.13	1802.21
431.33	1787.88
431.54	1726.44
431.74	1775.59
431.95	1892.32
432.15	1621.99
432.36	1744.87
432.56	1773.54
432.77	1865.70
432.98	1837.03
433.18	1759.21
433.39	1742.82
433.59	1656.81
433.80	1863.65
434.00	1882.08
434.21	1656.81
434.41	1705.96
434.62	1877.99
434.82	1652.71
435.03	1660.90
435.23	1742.82
435.44	1683.43
435.64	1830.88
435.85	1708.01
436.06	1748.97
436.26	1761.25
436.47	1716.20
436.67	1611.75
436.88	1771.49
437.08	1771.49
437.29	1771.49
437.49	1726.44
437.70	1751.01
437.90	1765.35
438.11	1861.60
438.31	1806.31
438.52	1837.03
438.72	1820.64
438.93	1904.61
439.13	1759.21
439.34	1845.22
439.54	1773.54
439.75	1828.84
439.95	1839.08
440.16	1689.57
440.36	1740.77
440.57	1757.16
440.77	1708.01
440.98	1722.34
441.18	1738.73
441.39	1775.59
441.59	1697.77
441.80	1918.95
442.00	1685.48
442.21	1900.52
442.41	1718.25
442.62	1712.10
442.82	1742.82
443.02	1714.15
443.23	1779.68
443.43	1687.53
443.64	1896.42
443.84	1660.90
444.05	1796.07
444.25	1796.07
444.46	1710.05
444.66	1787.88
444.87	1873.89
445.07	1662.95
445.28	1730.53
445.48	1796.07
445.69	1851.36
445.89	1900.52
446.09	1787.88
446.30	2088.93
446.50	2611.16
446.71	3663.82
446.91	4411.32
447.12	4861.88
447.32	4890.55
447.53	4370.37
447.73	3792.84
447.93	3559.37
448.14	3317.71
448.34	3291.09
448.55	2951.12
448.75	2899.92
448.96	2707.41
449.16	2424.80
449.36	2336.73
449.57	2150.37
449.77	1902.56
449.98	1785.83
450.18	1783.78
450.39	1791.97
450.59	1834.98
450.79	1781.73
451.00	1701.86
451.20	1832.93
451.41	1734.63
451.61	1808.36
451.81	1751.01
452.02	1718.25
452.22	1779.68
452.43	1714.15
452.63	1718.25
