SpectraSuite Data File
++++++++++++++++++++++++++++++++++++
Date: Mon Jun 06 12:10:17 CEST 2016
User: root
Dark Spectrum Present: No
Reference Spectrum Present: No
Number of Sampled Component Spectra: 1
Spectrometers: USB4C02835
Integration Time (usec): 100000 (USB4C02835)
Spectra Averaged: 1 (USB4C02835)
Boxcar Smoothing: 0 (USB4C02835)
Correct for Electrical Dark: No (USB4C02835)
Strobe/Lamp Enabled: No (USB4C02835)
Correct for Detector Non-linearity: No (USB4C02835)
Correct for Stray Light: No (USB4C02835)
Number of Pixels in Processed Spectrum: 3648
>>>>>Begin Processed Spectral Data<<<<<
177.47	1447.91
177.69	1447.91
177.91	1447.91
178.13	1445.87
178.36	1443.82
178.58	1632.23
178.80	1591.27
179.02	1640.42
179.24	1660.90
179.46	1673.19
179.68	1808.36
179.90	1722.34
180.13	1708.01
180.35	1578.98
180.57	1708.01
180.79	1673.19
181.01	1644.52
181.23	1765.35
181.45	1812.45
181.67	1740.77
181.90	1834.98
182.12	1677.29
182.34	1591.27
182.56	1699.81
182.78	1699.81
183.00	1628.14
183.22	1710.05
183.44	1603.56
183.66	1812.45
183.89	1755.11
184.11	1677.29
184.33	1710.05
184.55	1720.29
184.77	1716.20
184.99	1771.49
185.21	1660.90
185.43	1804.26
185.65	1638.38
185.87	1675.24
186.10	1785.83
186.32	1804.26
186.54	1732.58
186.76	1671.14
186.98	1798.12
187.20	1660.90
187.42	1722.34
187.64	1722.34
187.86	1714.15
188.08	1685.48
188.30	1648.61
188.52	1644.52
188.75	1757.16
188.97	1769.44
189.19	1703.91
189.41	1607.66
189.63	1734.63
189.85	1667.05
190.07	1599.46
190.29	1492.97
190.51	1705.96
190.73	1607.66
190.95	1716.20
191.17	1683.43
191.39	1617.90
191.61	1673.19
191.84	1658.85
192.06	1748.97
192.28	1581.03
192.50	1857.51
192.72	1759.21
192.94	1665.00
193.16	1791.97
193.38	1667.05
193.60	1628.14
193.82	1693.67
194.04	1800.16
194.26	1738.73
194.48	1697.77
194.70	1658.85
194.92	1619.94
195.14	1693.67
195.36	1656.81
195.58	1710.05
195.80	1650.66
196.02	1568.74
196.24	1644.52
196.46	1681.38
196.69	1665.00
196.91	1828.84
197.13	1710.05
197.35	1638.38
197.57	1753.06
197.79	1712.10
198.01	1728.49
198.23	1736.68
198.45	1701.86
198.67	1617.90
198.89	1712.10
199.11	1714.15
199.33	1658.85
199.55	1640.42
199.77	1681.38
199.99	1705.96
200.21	1595.37
200.43	1654.76
200.65	1576.94
200.87	1548.26
201.09	1695.72
201.31	1701.86
201.53	1720.29
201.75	1744.87
201.97	1705.96
202.19	1718.25
202.41	1650.66
202.63	1814.50
202.85	1691.62
203.07	1714.15
203.29	1642.47
203.51	1677.29
203.73	1658.85
203.95	1896.42
204.17	1714.15
204.39	1705.96
204.61	1689.57
204.83	1642.47
205.05	1681.38
205.27	1691.62
205.49	1837.03
205.71	1710.05
205.93	1658.85
206.15	1665.00
206.37	1701.86
206.59	1679.33
206.81	1591.27
207.03	1683.43
207.25	1667.05
207.47	1708.01
207.69	1675.24
207.91	1683.43
208.13	1837.03
208.34	1578.98
208.56	1710.05
208.78	1791.97
209.00	1636.33
209.22	1650.66
209.44	1681.38
209.66	1697.77
209.88	1683.43
210.10	1767.40
210.32	1726.44
210.54	1769.44
210.76	1626.09
210.98	1671.14
211.20	1587.18
211.42	1763.30
211.64	1716.20
211.86	1734.63
212.08	1728.49
212.30	1734.63
212.52	1683.43
212.74	1751.01
212.96	1730.53
213.17	1757.16
213.39	1753.06
213.61	1751.01
213.83	1775.59
214.05	1593.32
214.27	1734.63
214.49	1652.71
214.71	1619.94
214.93	1773.54
215.15	1673.19
215.37	1785.83
215.59	1630.18
215.81	1734.63
216.03	1771.49
216.24	1718.25
216.46	1660.90
216.68	1701.86
216.90	1746.92
217.12	1767.40
217.34	1810.40
217.56	1730.53
217.78	1740.77
218.00	1724.39
218.22	1705.96
218.44	1677.29
218.66	1759.21
218.87	1773.54
219.09	1652.71
219.31	1753.06
219.53	1755.11
219.75	1701.86
219.97	1720.29
220.19	1724.39
220.41	1648.61
220.63	1787.88
220.85	1675.24
221.06	1642.47
221.28	1708.01
221.50	1814.50
221.72	1669.09
221.94	1662.95
222.16	1654.76
222.38	1699.81
222.60	1701.86
222.82	1697.77
223.03	1791.97
223.25	1583.08
223.47	1783.78
223.69	1894.37
223.91	1687.53
224.13	1689.57
224.35	1650.66
224.57	1738.73
224.78	1751.01
225.00	1705.96
225.22	1613.80
225.44	1667.05
225.66	1806.31
225.88	1607.66
226.10	1773.54
226.32	1730.53
226.53	1785.83
226.75	1722.34
226.97	1609.70
227.19	1705.96
227.41	1626.09
227.63	1581.03
227.85	1605.61
228.06	1642.47
228.28	1669.09
228.50	1724.39
228.72	1630.18
228.94	1648.61
229.16	1679.33
229.37	1624.04
229.59	1720.29
229.81	1742.82
230.03	1699.81
230.25	1626.09
230.47	1578.98
230.69	1673.19
230.90	1732.58
231.12	1617.90
231.34	1693.67
231.56	1675.24
231.78	1642.47
232.00	1705.96
232.21	1763.30
232.43	1669.09
232.65	1691.62
232.87	1660.90
233.09	1630.18
233.30	1646.57
233.52	1828.84
233.74	1748.97
233.96	1644.52
234.18	1757.16
234.40	1732.58
234.61	1822.69
234.83	1603.56
235.05	1638.38
235.27	1857.51
235.49	1775.59
235.70	1687.53
235.92	1757.16
236.14	1720.29
236.36	1873.89
236.58	1578.98
236.79	1691.62
237.01	1640.42
237.23	1712.10
237.45	1771.49
237.67	1720.29
237.88	1634.28
238.10	1832.93
238.32	1708.01
238.54	1658.85
238.76	1695.72
238.97	1679.33
239.19	1605.61
239.41	1689.57
239.63	1802.21
239.85	1705.96
240.06	1636.33
240.28	1677.29
240.50	1746.92
240.72	1705.96
240.93	1726.44
241.15	1705.96
241.37	1650.66
241.59	1699.81
241.81	1681.38
242.02	1667.05
242.24	1751.01
242.46	1771.49
242.68	1550.31
242.89	1738.73
243.11	1734.63
243.33	1718.25
243.55	1710.05
243.76	1742.82
243.98	1624.04
244.20	1710.05
244.42	1742.82
244.64	1724.39
244.85	1597.42
245.07	1585.13
245.29	1746.92
245.51	1652.71
245.72	1738.73
245.94	1699.81
246.16	1728.49
246.38	1681.38
246.59	1638.38
246.81	1656.81
247.03	1613.80
247.24	1642.47
247.46	1638.38
247.68	1714.15
247.90	1642.47
248.11	1705.96
248.33	1640.42
248.55	1718.25
248.77	1665.00
248.98	1689.57
249.20	1757.16
249.42	1730.53
249.64	1607.66
249.85	1763.30
250.07	1701.86
250.29	1738.73
250.50	1812.45
250.72	1538.02
250.94	1757.16
251.16	1824.74
251.37	1677.29
251.59	1728.49
251.81	1757.16
252.02	1734.63
252.24	1753.06
252.46	1822.69
252.68	1626.09
252.89	1677.29
253.11	1621.99
253.33	1783.78
253.54	1746.92
253.76	1636.33
253.98	1648.61
254.20	1640.42
254.41	1591.27
254.63	1630.18
254.85	1615.85
255.06	1687.53
255.28	1691.62
255.50	1722.34
255.71	1642.47
255.93	1601.51
256.15	1662.95
256.36	1734.63
256.58	1597.42
256.80	1746.92
257.02	1777.64
257.23	1697.77
257.45	1652.71
257.67	1789.92
257.88	1656.81
258.10	1748.97
258.32	1751.01
258.53	1728.49
258.75	1757.16
258.97	1675.24
259.18	1691.62
259.40	1652.71
259.62	1800.16
259.83	1742.82
260.05	1644.52
260.27	1939.43
260.48	1755.11
260.70	1753.06
260.92	1673.19
261.13	1640.42
261.35	1660.90
261.57	1765.35
261.78	1599.46
262.00	1675.24
262.22	1714.15
262.43	1665.00
262.65	1621.99
262.86	1712.10
263.08	1849.32
263.30	1697.77
263.51	1570.79
263.73	1624.04
263.95	1732.58
264.16	1693.67
264.38	1628.14
264.60	1697.77
264.81	1732.58
265.03	1824.74
265.25	1740.77
265.46	1679.33
265.68	1740.77
265.89	1779.68
266.11	1607.66
266.33	1681.38
266.54	1767.40
266.76	1644.52
266.98	1683.43
267.19	1785.83
267.41	1810.40
267.62	1732.58
267.84	1607.66
268.06	1665.00
268.27	1718.25
268.49	1746.92
268.70	1755.11
268.92	1728.49
269.14	1589.22
269.35	1617.90
269.57	1673.19
269.79	1681.38
270.00	1673.19
270.22	1783.78
270.43	1703.91
270.65	1531.88
270.87	1665.00
271.08	1785.83
271.30	1703.91
271.51	1632.23
271.73	1671.14
271.95	1718.25
272.16	1724.39
272.38	1722.34
272.59	1695.72
272.81	1667.05
273.02	1691.62
273.24	1728.49
273.46	1665.00
273.67	1609.70
273.89	1660.90
274.10	1671.14
274.32	1673.19
274.54	1712.10
274.75	1658.85
274.97	1673.19
275.18	1691.62
275.40	1728.49
275.61	1681.38
275.83	1667.05
276.05	1669.09
276.26	1695.72
276.48	1685.48
276.69	1669.09
276.91	1693.67
277.12	1761.25
277.34	1683.43
277.55	1738.73
277.77	1730.53
277.99	1554.41
278.20	1587.18
278.42	1597.42
278.63	1624.04
278.85	1642.47
279.06	1568.74
279.28	1617.90
279.49	1701.86
279.71	1730.53
279.93	1767.40
280.14	1689.57
280.36	1705.96
280.57	1738.73
280.79	1781.73
281.00	1576.94
281.22	1638.38
281.43	1736.68
281.65	1583.08
281.86	1617.90
282.08	1736.68
282.29	1834.98
282.51	1662.95
282.73	1613.80
282.94	1574.89
283.16	1726.44
283.37	1751.01
283.59	1757.16
283.80	1695.72
284.02	1669.09
284.23	1720.29
284.45	1681.38
284.66	1613.80
284.88	1628.14
285.09	1693.67
285.31	1728.49
285.52	1650.66
285.74	1605.61
285.95	1683.43
286.17	1681.38
286.38	1771.49
286.60	1697.77
286.81	1667.05
287.03	1695.72
287.24	1609.70
287.46	1732.58
287.67	1667.05
287.89	1757.16
288.10	1697.77
288.32	1714.15
288.53	1740.77
288.75	1697.77
288.96	1665.00
289.18	1689.57
289.39	1732.58
289.61	1738.73
289.82	1781.73
290.04	1716.20
290.25	1634.28
290.47	1669.09
290.68	1708.01
290.90	1763.30
291.11	1589.22
291.33	1755.11
291.54	1720.29
291.76	1609.70
291.97	1662.95
292.18	1705.96
292.40	1658.85
292.61	1546.22
292.83	1779.68
293.04	1669.09
293.26	1712.10
293.47	1689.57
293.69	1628.14
293.90	1673.19
294.12	1742.82
294.33	1681.38
294.55	1718.25
294.76	1802.21
294.97	1693.67
295.19	1834.98
295.40	1646.57
295.62	1710.05
295.83	1695.72
296.05	1591.27
296.26	1730.53
296.48	1652.71
296.69	1654.76
296.90	1744.87
297.12	1724.39
297.33	1675.24
297.55	1644.52
297.76	1675.24
297.98	1779.68
298.19	1716.20
298.41	1626.09
298.62	1656.81
298.83	1808.36
299.05	1656.81
299.26	1658.85
299.48	1636.33
299.69	1773.54
299.90	1697.77
300.12	1638.38
300.33	1648.61
300.55	1689.57
300.76	1675.24
300.98	1636.33
301.19	1710.05
301.40	1677.29
301.62	1720.29
301.83	1658.85
302.05	1675.24
302.26	1634.28
302.47	1693.67
302.69	1669.09
302.90	1736.68
303.12	1603.56
303.33	1691.62
303.54	1779.68
303.76	1767.40
303.97	1683.43
304.19	1705.96
304.40	1591.27
304.61	1724.39
304.83	1757.16
305.04	1757.16
305.26	1765.35
305.47	1671.14
305.68	1636.33
305.90	1638.38
306.11	1736.68
306.33	1714.15
306.54	1656.81
306.75	1689.57
306.97	1560.55
307.18	1687.53
307.39	1679.33
307.61	1714.15
307.82	1730.53
308.04	1740.77
308.25	1642.47
308.46	1716.20
308.68	1671.14
308.89	1746.92
309.10	1761.25
309.32	1642.47
309.53	1708.01
309.74	1650.66
309.96	1650.66
310.17	1746.92
310.39	1646.57
310.60	1865.70
310.81	1638.38
311.03	1728.49
311.24	1691.62
311.45	1677.29
311.67	1832.93
311.88	1701.86
312.09	1763.30
312.31	1638.38
312.52	1671.14
312.73	1677.29
312.95	1574.89
313.16	1601.51
313.37	1701.86
313.59	1691.62
313.80	1693.67
314.01	1765.35
314.23	1630.18
314.44	1621.99
314.65	1695.72
314.87	1624.04
315.08	1648.61
315.29	1677.29
315.51	1656.81
315.72	1595.37
315.93	1806.31
316.15	1699.81
316.36	1671.14
316.57	1646.57
316.79	1744.87
317.00	1724.39
317.21	1736.68
317.43	1652.71
317.64	1679.33
317.85	1626.09
318.07	1626.09
318.28	1673.19
318.49	1767.40
318.70	1886.18
318.92	1810.40
319.13	1761.25
319.34	1814.50
319.56	1763.30
319.77	1728.49
319.98	1767.40
320.20	1806.31
320.41	1738.73
320.62	1763.30
320.83	1665.00
321.05	1832.93
321.26	1703.91
321.47	1660.90
321.69	1730.53
321.90	1609.70
322.11	1683.43
322.32	1708.01
322.54	1685.48
322.75	1697.77
322.96	1820.64
323.18	1617.90
323.39	1609.70
323.60	1656.81
323.81	1718.25
324.03	1644.52
324.24	1675.24
324.45	1699.81
324.66	1714.15
324.88	1734.63
325.09	1761.25
325.30	1636.33
325.52	1669.09
325.73	1716.20
325.94	1576.94
326.15	1589.22
326.37	1642.47
326.58	1753.06
326.79	1708.01
327.00	1652.71
327.22	1675.24
327.43	1617.90
327.64	1646.57
327.85	1781.73
328.07	1722.34
328.28	1826.79
328.49	1697.77
328.70	1644.52
328.92	1691.62
329.13	1701.86
329.34	1751.01
329.55	1804.26
329.76	1771.49
329.98	1734.63
330.19	1820.64
330.40	1734.63
330.61	1703.91
330.83	1775.59
331.04	1601.51
331.25	1697.77
331.46	1689.57
331.68	1636.33
331.89	1765.35
332.10	1716.20
332.31	1609.70
332.52	1718.25
332.74	1761.25
332.95	1652.71
333.16	1716.20
333.37	1759.21
333.58	1621.99
333.80	1636.33
334.01	1640.42
334.22	1734.63
334.43	1658.85
334.64	1681.38
334.86	1640.42
335.07	1665.00
335.28	1761.25
335.49	1626.09
335.70	1718.25
335.92	1716.20
336.13	1882.08
336.34	1667.05
336.55	1740.77
336.76	1683.43
336.98	1605.61
337.19	1603.56
337.40	1783.78
337.61	1814.50
337.82	1724.39
338.04	1687.53
338.25	1587.18
338.46	1632.23
338.67	1681.38
338.88	1646.57
339.09	1652.71
339.31	1658.85
339.52	1650.66
339.73	1554.41
339.94	1652.71
340.15	1742.82
340.36	1685.48
340.58	1665.00
340.79	1628.14
341.00	1738.73
341.21	1701.86
341.42	1783.78
341.63	1697.77
341.85	1753.06
342.06	1685.48
342.27	1660.90
342.48	1722.34
342.69	1603.56
342.90	1699.81
343.12	1761.25
343.33	1630.18
343.54	1798.12
343.75	1798.12
343.96	1695.72
344.17	1628.14
344.38	1642.47
344.60	1660.90
344.81	1728.49
345.02	1605.61
345.23	1767.40
345.44	1769.44
345.65	1738.73
345.86	1767.40
346.07	1615.85
346.29	1675.24
346.50	1738.73
346.71	1814.50
346.92	1759.21
347.13	1814.50
347.34	1689.57
347.55	1675.24
347.76	1742.82
347.98	1646.57
348.19	1636.33
348.40	1781.73
348.61	1671.14
348.82	1822.69
349.03	1771.49
349.24	1648.61
349.45	1755.11
349.66	1585.13
349.88	1673.19
350.09	1681.38
350.30	1728.49
350.51	1716.20
350.72	1716.20
350.93	1656.81
351.14	1611.75
351.35	1785.83
351.56	1757.16
351.77	1628.14
351.99	1640.42
352.20	1806.31
352.41	1820.64
352.62	1613.80
352.83	1683.43
353.04	1615.85
353.25	1689.57
353.46	1806.31
353.67	1755.11
353.88	1619.94
354.09	1751.01
354.30	1691.62
354.52	1675.24
354.73	1673.19
354.94	1677.29
355.15	1722.34
355.36	1779.68
355.57	1677.29
355.78	1695.72
355.99	1648.61
356.20	1654.76
356.41	1732.58
356.62	1679.33
356.83	1734.63
357.04	1828.84
357.25	1638.38
357.46	1583.08
357.68	1665.00
357.89	1689.57
358.10	1642.47
358.31	1656.81
358.52	1720.29
358.73	1599.46
358.94	1665.00
359.15	1691.62
359.36	1753.06
359.57	1644.52
359.78	1675.24
359.99	1708.01
360.20	1636.33
360.41	1648.61
360.62	1660.90
360.83	1646.57
361.04	1677.29
361.25	1826.79
361.46	1751.01
361.67	1716.20
361.88	1736.68
362.09	1742.82
362.30	1753.06
362.51	1646.57
362.72	1607.66
362.93	1712.10
363.14	1724.39
363.35	1697.77
363.56	1699.81
363.78	1759.21
363.99	1812.45
364.20	1665.00
364.41	1665.00
364.62	1777.64
364.83	1736.68
365.04	1671.14
365.25	1681.38
365.46	1800.16
365.67	1677.29
365.88	1603.56
366.09	1681.38
366.30	1603.56
366.51	1648.61
366.72	1652.71
366.93	1697.77
367.14	1656.81
367.35	1722.34
367.56	1771.49
367.77	1806.31
367.98	1712.10
368.18	1648.61
368.39	1675.24
368.60	1615.85
368.81	1761.25
369.02	1685.48
369.23	1701.86
369.44	1564.65
369.65	1662.95
369.86	1742.82
370.07	1710.05
370.28	1644.52
370.49	1734.63
370.70	1738.73
370.91	1632.23
371.12	1619.94
371.33	1722.34
371.54	1660.90
371.75	1726.44
371.96	1601.51
372.17	1699.81
372.38	1726.44
372.59	1667.05
372.80	1746.92
373.01	1679.33
373.22	1714.15
373.43	1732.58
373.64	1697.77
373.85	1769.44
374.06	1714.15
374.26	1738.73
374.47	1708.01
374.68	1744.87
374.89	1693.67
375.10	1640.42
375.31	1693.67
375.52	1748.97
375.73	1695.72
375.94	1636.33
376.15	1746.92
376.36	1667.05
376.57	1621.99
376.78	1693.67
376.99	1697.77
377.20	1794.02
377.40	1724.39
377.61	1816.55
377.82	1630.18
378.03	1740.77
378.24	1771.49
378.45	1685.48
378.66	1660.90
378.87	1587.18
379.08	1613.80
379.29	1626.09
379.50	1710.05
379.71	1687.53
379.91	1734.63
380.12	1689.57
380.33	1761.25
380.54	1632.23
380.75	1679.33
380.96	1679.33
381.17	1705.96
381.38	1728.49
381.59	1644.52
381.80	1714.15
382.00	1779.68
382.21	1726.44
382.42	1794.02
382.63	1847.27
382.84	1726.44
383.05	1738.73
383.26	1830.88
383.47	1740.77
383.68	1730.53
383.88	1791.97
384.09	1673.19
384.30	1837.03
384.51	1742.82
384.72	1689.57
384.93	1693.67
385.14	1646.57
385.35	1730.53
385.55	1673.19
385.76	1691.62
385.97	1777.64
386.18	1595.37
386.39	1660.90
386.60	1673.19
386.81	1753.06
387.02	1656.81
387.22	1581.03
387.43	1705.96
387.64	1732.58
387.85	1832.93
388.06	2224.09
388.27	4470.72
388.48	6924.18
388.68	8429.44
388.89	9756.52
389.10	10227.56
389.31	8707.96
389.52	7729.03
389.73	6784.92
389.93	6283.17
390.14	5959.59
390.35	5181.36
390.56	4583.35
390.77	3868.61
390.98	3037.14
391.18	2553.82
391.39	2127.84
391.60	1886.18
391.81	1802.21
392.02	1654.76
392.23	1808.36
392.43	1738.73
392.64	1730.53
392.85	1767.40
393.06	1757.16
393.27	1699.81
393.47	1656.81
393.68	1687.53
393.89	1671.14
394.10	1718.25
394.31	1689.57
394.52	1656.81
394.72	1679.33
394.93	1769.44
395.14	1619.94
395.35	1652.71
395.56	1646.57
395.76	1722.34
395.97	1791.97
396.18	1855.46
396.39	1775.59
396.60	1992.67
396.80	1851.36
397.01	1785.83
397.22	1834.98
397.43	1859.56
397.64	1738.73
397.84	1763.30
398.05	1890.28
398.26	1785.83
398.47	1841.12
398.67	1796.07
398.88	1660.90
399.09	1720.29
399.30	1773.54
399.51	1779.68
399.71	1654.76
399.92	1712.10
400.13	1734.63
400.34	1597.42
400.54	1669.09
400.75	1787.88
400.96	1718.25
401.17	1787.88
401.37	1744.87
401.58	1720.29
401.79	1759.21
402.00	1853.41
402.21	1974.24
402.41	1931.23
402.62	1951.71
402.83	1992.67
403.04	1933.28
403.24	2025.44
403.45	1839.08
403.66	1867.75
403.87	1912.80
404.07	1886.18
404.28	1927.14
404.49	1863.65
404.70	1742.82
404.90	1742.82
405.11	1763.30
405.32	1716.20
405.52	1687.53
405.73	1640.42
405.94	1564.65
406.15	1687.53
406.35	1726.44
406.56	1779.68
406.77	1718.25
406.98	1675.24
407.18	1609.70
407.39	1724.39
407.60	1648.61
407.80	1677.29
408.01	1660.90
408.22	1685.48
408.43	1665.00
408.63	1730.53
408.84	1802.21
409.05	1728.49
409.25	1675.24
409.46	1697.77
409.67	1669.09
409.88	1648.61
410.08	1734.63
410.29	1624.04
410.50	1669.09
410.70	1726.44
410.91	1662.95
411.12	1667.05
411.32	1699.81
411.53	1710.05
411.74	1812.45
411.95	1712.10
412.15	1699.81
412.36	1726.44
412.57	1757.16
412.77	1751.01
412.98	1763.30
413.19	1746.92
413.39	1736.68
413.60	1765.35
413.81	1769.44
414.01	1634.28
414.22	1724.39
414.43	1705.96
414.63	1718.25
414.84	1796.07
415.05	1705.96
415.25	1617.90
415.46	1722.34
415.67	1687.53
415.87	1716.20
416.08	1656.81
416.29	1665.00
416.49	1699.81
416.70	1650.66
416.91	1662.95
417.11	1662.95
417.32	1742.82
417.53	1791.97
417.73	1665.00
417.94	1785.83
418.15	1671.14
418.35	1740.77
418.56	1693.67
418.77	1857.51
418.97	1689.57
419.18	1718.25
419.38	1640.42
419.59	1693.67
419.80	1787.88
420.00	1679.33
420.21	1669.09
420.42	1732.58
420.62	1693.67
420.83	1611.75
421.04	1699.81
421.24	1689.57
421.45	1703.91
421.65	1691.62
421.86	1679.33
422.07	1746.92
422.27	1724.39
422.48	1671.14
422.69	1662.95
422.89	1691.62
423.10	1677.29
423.30	1695.72
423.51	1699.81
423.72	1699.81
423.92	1730.53
424.13	1568.74
424.33	1679.33
424.54	1744.87
424.75	1716.20
424.95	1763.30
425.16	1771.49
425.36	1615.85
425.57	1691.62
425.78	1732.58
425.98	1755.11
426.19	1669.09
426.39	1673.19
426.60	1726.44
426.81	1814.50
427.01	1740.77
427.22	1660.90
427.42	1609.70
427.63	1658.85
427.83	1728.49
428.04	1763.30
428.25	1808.36
428.45	1755.11
428.66	1738.73
428.86	1701.86
429.07	1665.00
429.28	1693.67
429.48	1638.38
429.69	1687.53
429.89	1748.97
430.10	1566.70
430.30	1636.33
430.51	1705.96
430.71	1619.94
430.92	1724.39
431.13	1677.29
431.33	1734.63
431.54	1669.09
431.74	1699.81
431.95	1767.40
432.15	1646.57
432.36	1693.67
432.56	1783.78
432.77	1800.16
432.98	1753.06
433.18	1708.01
433.39	1634.28
433.59	1767.40
433.80	1773.54
434.00	1814.50
434.21	1763.30
434.41	1624.04
434.62	1814.50
434.82	1626.09
435.03	1658.85
435.23	1720.29
435.44	1566.70
435.64	1654.76
435.85	1691.62
436.06	1703.91
436.26	1730.53
436.47	1701.86
436.67	1691.62
436.88	1714.15
437.08	1722.34
437.29	1757.16
437.49	1671.14
437.70	1755.11
437.90	1681.38
438.11	1816.55
438.31	1722.34
438.52	1769.44
438.72	1837.03
438.93	1820.64
439.13	1736.68
439.34	1791.97
439.54	1785.83
439.75	1787.88
439.95	1824.74
440.16	1671.14
440.36	1748.97
440.57	1763.30
440.77	1783.78
440.98	1771.49
441.18	1683.43
441.39	1710.05
441.59	1697.77
441.80	1828.84
442.00	1675.24
442.21	1759.21
442.41	1667.05
442.62	1740.77
442.82	1658.85
443.02	1722.34
443.23	1773.54
443.43	1728.49
443.64	1779.68
443.84	1648.61
444.05	1800.16
444.25	1724.39
444.46	1761.25
444.66	1718.25
444.87	1751.01
445.07	1667.05
445.28	1673.19
445.48	1734.63
445.69	1763.30
445.89	1822.69
446.09	1783.78
446.30	2088.93
446.50	2678.74
446.71	3831.75
446.91	4413.37
447.12	4779.96
447.32	4902.84
447.53	4407.23
447.73	3923.91
447.93	3528.65
448.14	3323.85
448.34	3219.41
448.55	2832.34
448.75	2848.72
448.96	2715.61
449.16	2389.98
449.36	2275.29
449.57	2027.49
449.77	1837.03
449.98	1800.16
450.18	1857.51
450.39	1886.18
450.59	1783.78
450.79	1763.30
451.00	1708.01
451.20	1712.10
451.41	1699.81
451.61	1748.97
451.81	1693.67
452.02	1732.58
452.22	1710.05
452.43	1650.66
452.63	1695.72
