SpectraSuite Data File
++++++++++++++++++++++++++++++++++++
Date: Mon Jun 06 16:35:57 CEST 2016
User: root
Dark Spectrum Present: No
Reference Spectrum Present: No
Number of Sampled Component Spectra: 1
Spectrometers: USB4C02835
Integration Time (usec): 100000 (USB4C02835)
Spectra Averaged: 1 (USB4C02835)
Boxcar Smoothing: 0 (USB4C02835)
Correct for Electrical Dark: No (USB4C02835)
Strobe/Lamp Enabled: No (USB4C02835)
Correct for Detector Non-linearity: No (USB4C02835)
Correct for Stray Light: No (USB4C02835)
Number of Pixels in Processed Spectrum: 3648
>>>>>Begin Processed Spectral Data<<<<<
177.47	1521.64
177.69	1521.64
177.91	1521.64
178.13	1445.87
178.36	1497.07
178.58	1708.01
178.80	1732.58
179.02	1656.81
179.24	1693.67
179.46	1667.05
179.68	1794.02
179.90	1685.48
180.13	1660.90
180.35	1665.00
180.57	1806.31
180.79	1730.53
181.01	1708.01
181.23	1804.26
181.45	1714.15
181.67	1697.77
181.90	1767.40
182.12	1687.53
182.34	1628.14
182.56	1722.34
182.78	1705.96
183.00	1742.82
183.22	1665.00
183.44	1595.37
183.66	1867.75
183.89	1740.77
184.11	1746.92
184.33	1728.49
184.55	1732.58
184.77	1705.96
184.99	1689.57
185.21	1662.95
185.43	1873.89
185.65	1677.29
185.87	1703.91
186.10	1822.69
186.32	1814.50
186.54	1708.01
186.76	1705.96
186.98	1708.01
187.20	1648.61
187.42	1646.57
187.64	1705.96
187.86	1677.29
188.08	1681.38
188.30	1730.53
188.52	1738.73
188.75	1753.06
188.97	1753.06
189.19	1626.09
189.41	1738.73
189.63	1732.58
189.85	1691.62
190.07	1628.14
190.29	1656.81
190.51	1777.64
190.73	1693.67
190.95	1796.07
191.17	1695.72
191.39	1626.09
191.61	1732.58
191.84	1640.42
192.06	1751.01
192.28	1656.81
192.50	1820.64
192.72	1781.73
192.94	1722.34
193.16	1710.05
193.38	1681.38
193.60	1642.47
193.82	1667.05
194.04	1777.64
194.26	1689.57
194.48	1736.68
194.70	1767.40
194.92	1683.43
195.14	1724.39
195.36	1638.38
195.58	1648.61
195.80	1718.25
196.02	1710.05
196.24	1775.59
196.46	1675.24
196.69	1665.00
196.91	1929.19
197.13	1662.95
197.35	1705.96
197.57	1820.64
197.79	1734.63
198.01	1736.68
198.23	1705.96
198.45	1746.92
198.67	1642.47
198.89	1740.77
199.11	1736.68
199.33	1693.67
199.55	1570.79
199.77	1675.24
199.99	1734.63
200.21	1632.23
200.43	1718.25
200.65	1611.75
200.87	1574.89
201.09	1697.77
201.31	1693.67
201.53	1779.68
201.75	1738.73
201.97	1714.15
202.19	1691.62
202.41	1689.57
202.63	1869.80
202.85	1781.73
203.07	1763.30
203.29	1654.76
203.51	1611.75
203.73	1708.01
203.95	1920.99
204.17	1730.53
204.39	1708.01
204.61	1701.86
204.83	1650.66
205.05	1763.30
205.27	1757.16
205.49	1851.36
205.71	1701.86
205.93	1656.81
206.15	1634.28
206.37	1699.81
206.59	1697.77
206.81	1617.90
207.03	1667.05
207.25	1587.18
207.47	1748.97
207.69	1693.67
207.91	1853.41
208.13	1796.07
208.34	1646.57
208.56	1718.25
208.78	1744.87
209.00	1693.67
209.22	1746.92
209.44	1673.19
209.66	1681.38
209.88	1714.15
210.10	1730.53
210.32	1681.38
210.54	1787.88
210.76	1665.00
210.98	1761.25
211.20	1474.54
211.42	1732.58
211.64	1705.96
211.86	1759.21
212.08	1705.96
212.30	1681.38
212.52	1607.66
212.74	1755.11
212.96	1763.30
213.17	1724.39
213.39	1699.81
213.61	1818.60
213.83	1744.87
214.05	1652.71
214.27	1710.05
214.49	1693.67
214.71	1669.09
214.93	1886.18
215.15	1671.14
215.37	1779.68
215.59	1658.85
215.81	1628.14
216.03	1751.01
216.24	1732.58
216.46	1712.10
216.68	1734.63
216.90	1732.58
217.12	1761.25
217.34	1736.68
217.56	1697.77
217.78	1777.64
218.00	1746.92
218.22	1734.63
218.44	1726.44
218.66	1681.38
218.87	1779.68
219.09	1656.81
219.31	1705.96
219.53	1791.97
219.75	1744.87
219.97	1748.97
220.19	1701.86
220.41	1691.62
220.63	1847.27
220.85	1720.29
221.06	1669.09
221.28	1839.08
221.50	1660.90
221.72	1726.44
221.94	1730.53
222.16	1718.25
222.38	1751.01
222.60	1794.02
222.82	1673.19
223.03	1748.97
223.25	1697.77
223.47	1720.29
223.69	1679.33
223.91	1744.87
224.13	1794.02
224.35	1619.94
224.57	1798.12
224.78	1714.15
225.00	1712.10
225.22	1714.15
225.44	1685.48
225.66	1746.92
225.88	1759.21
226.10	1689.57
226.32	1689.57
226.53	1705.96
226.75	1722.34
226.97	1740.77
227.19	1722.34
227.41	1665.00
227.63	1669.09
227.85	1621.99
228.06	1757.16
228.28	1679.33
228.50	1677.29
228.72	1720.29
228.94	1685.48
229.16	1665.00
229.37	1595.37
229.59	1703.91
229.81	1816.55
230.03	1673.19
230.25	1611.75
230.47	1640.42
230.69	1665.00
230.90	1710.05
231.12	1613.80
231.34	1728.49
231.56	1779.68
231.78	1628.14
232.00	1740.77
232.21	1710.05
232.43	1714.15
232.65	1562.60
232.87	1712.10
233.09	1656.81
233.30	1605.61
233.52	1720.29
233.74	1662.95
233.96	1658.85
234.18	1654.76
234.40	1695.72
234.61	1822.69
234.83	1744.87
235.05	1583.08
235.27	1882.08
235.49	1738.73
235.70	1689.57
235.92	1812.45
236.14	1652.71
236.36	1877.99
236.58	1669.09
236.79	1746.92
237.01	1740.77
237.23	1626.09
237.45	1779.68
237.67	1669.09
237.88	1732.58
238.10	1728.49
238.32	1671.14
238.54	1701.86
238.76	1703.91
238.97	1667.05
239.19	1665.00
239.41	1746.92
239.63	1720.29
239.85	1665.00
240.06	1783.78
240.28	1656.81
240.50	1701.86
240.72	1603.56
240.93	1669.09
241.15	1767.40
241.37	1703.91
241.59	1748.97
241.81	1644.52
242.02	1781.73
242.24	1669.09
242.46	1767.40
242.68	1662.95
242.89	1763.30
243.11	1798.12
243.33	1763.30
243.55	1763.30
243.76	1722.34
243.98	1660.90
244.20	1763.30
244.42	1718.25
244.64	1718.25
244.85	1738.73
245.07	1714.15
245.29	1751.01
245.51	1714.15
245.72	1742.82
245.94	1697.77
246.16	1644.52
246.38	1765.35
246.59	1677.29
246.81	1693.67
247.03	1708.01
247.24	1632.23
247.46	1685.48
247.68	1791.97
247.90	1693.67
248.11	1644.52
248.33	1699.81
248.55	1720.29
248.77	1710.05
248.98	1716.20
249.20	1765.35
249.42	1708.01
249.64	1812.45
249.85	1695.72
250.07	1689.57
250.29	1687.53
250.50	1779.68
250.72	1656.81
250.94	1808.36
251.16	1822.69
251.37	1796.07
251.59	1689.57
251.81	1810.40
252.02	1759.21
252.24	1742.82
252.46	1746.92
252.68	1656.81
252.89	1681.38
253.11	1648.61
253.33	1798.12
253.54	1787.88
253.76	1656.81
253.98	1660.90
254.20	1658.85
254.41	1595.37
254.63	1648.61
254.85	1636.33
255.06	1767.40
255.28	1703.91
255.50	1665.00
255.71	1656.81
255.93	1681.38
256.15	1665.00
256.36	1789.92
256.58	1734.63
256.80	1791.97
257.02	1716.20
257.23	1671.14
257.45	1675.24
257.67	1748.97
257.88	1656.81
258.10	1748.97
258.32	1724.39
258.53	1689.57
258.75	1882.08
258.97	1626.09
259.18	1720.29
259.40	1761.25
259.62	1812.45
259.83	1753.06
260.05	1781.73
260.27	2002.91
260.48	1824.74
260.70	1583.08
260.92	1738.73
261.13	1730.53
261.35	1705.96
261.57	1722.34
261.78	1644.52
262.00	1695.72
262.22	1693.67
262.43	1630.18
262.65	1697.77
262.86	1724.39
263.08	1808.36
263.30	1740.77
263.51	1589.22
263.73	1699.81
263.95	1822.69
264.16	1679.33
264.38	1679.33
264.60	1746.92
264.81	1660.90
265.03	1732.58
265.25	1759.21
265.46	1734.63
265.68	1720.29
265.89	1724.39
266.11	1662.95
266.33	1734.63
266.54	1703.91
266.76	1759.21
266.98	1787.88
267.19	1765.35
267.41	1810.40
267.62	1665.00
267.84	1624.04
268.06	1697.77
268.27	1742.82
268.49	1783.78
268.70	1703.91
268.92	1677.29
269.14	1578.98
269.35	1607.66
269.57	1728.49
269.79	1804.26
270.00	1669.09
270.22	1730.53
270.43	1675.24
270.65	1665.00
270.87	1669.09
271.08	1738.73
271.30	1775.59
271.51	1714.15
271.73	1808.36
271.95	1820.64
272.16	1708.01
272.38	1755.11
272.59	1728.49
272.81	1724.39
273.02	1722.34
273.24	1703.91
273.46	1794.02
273.67	1587.18
273.89	1710.05
274.10	1687.53
274.32	1841.12
274.54	1755.11
274.75	1785.83
274.97	1660.90
275.18	1701.86
275.40	1691.62
275.61	1759.21
275.83	1769.44
276.05	1712.10
276.26	1705.96
276.48	1773.54
276.69	1624.04
276.91	1667.05
277.12	1769.44
277.34	1771.49
277.55	1804.26
277.77	1718.25
277.99	1755.11
278.20	1656.81
278.42	1658.85
278.63	1699.81
278.85	1677.29
279.06	1617.90
279.28	1736.68
279.49	1720.29
279.71	1726.44
279.93	1718.25
280.14	1730.53
280.36	1718.25
280.57	1705.96
280.79	1755.11
281.00	1697.77
281.22	1638.38
281.43	1769.44
281.65	1626.09
281.86	1665.00
282.08	1771.49
282.29	1722.34
282.51	1599.46
282.73	1667.05
282.94	1619.94
283.16	1771.49
283.37	1841.12
283.59	1683.43
283.80	1740.77
284.02	1730.53
284.23	1751.01
284.45	1697.77
284.66	1667.05
284.88	1628.14
285.09	1669.09
285.31	1714.15
285.52	1746.92
285.74	1617.90
285.95	1761.25
286.17	1759.21
286.38	1740.77
286.60	1687.53
286.81	1679.33
287.03	1687.53
287.24	1656.81
287.46	1714.15
287.67	1605.61
287.89	1832.93
288.10	1677.29
288.32	1636.33
288.53	1785.83
288.75	1687.53
288.96	1779.68
289.18	1742.82
289.39	1738.73
289.61	1783.78
289.82	1779.68
290.04	1757.16
290.25	1710.05
290.47	1660.90
290.68	1640.42
290.90	1820.64
291.11	1714.15
291.33	1671.14
291.54	1630.18
291.76	1656.81
291.97	1742.82
292.18	1771.49
292.40	1689.57
292.61	1652.71
292.83	1808.36
293.04	1738.73
293.26	1751.01
293.47	1748.97
293.69	1691.62
293.90	1701.86
294.12	1732.58
294.33	1638.38
294.55	1624.04
294.76	1724.39
294.97	1738.73
295.19	1812.45
295.40	1669.09
295.62	1767.40
295.83	1779.68
296.05	1726.44
296.26	1791.97
296.48	1675.24
296.69	1701.86
296.90	1679.33
297.12	1775.59
297.33	1763.30
297.55	1718.25
297.76	1681.38
297.98	1802.21
298.19	1775.59
298.41	1720.29
298.62	1699.81
298.83	1785.83
299.05	1746.92
299.26	1630.18
299.48	1693.67
299.69	1716.20
299.90	1765.35
300.12	1607.66
300.33	1712.10
300.55	1759.21
300.76	1685.48
300.98	1613.80
301.19	1724.39
301.40	1722.34
301.62	1705.96
301.83	1753.06
302.05	1730.53
302.26	1802.21
302.47	1720.29
302.69	1644.52
302.90	1800.16
303.12	1556.46
303.33	1718.25
303.54	1783.78
303.76	1628.14
303.97	1705.96
304.19	1816.55
304.40	1656.81
304.61	1732.58
304.83	1789.92
305.04	1798.12
305.26	1730.53
305.47	1648.61
305.68	1734.63
305.90	1681.38
306.11	1751.01
306.33	1779.68
306.54	1568.74
306.75	1685.48
306.97	1652.71
307.18	1708.01
307.39	1734.63
307.61	1755.11
307.82	1693.67
308.04	1705.96
308.25	1638.38
308.46	1748.97
308.68	1673.19
308.89	1726.44
309.10	1828.84
309.32	1748.97
309.53	1619.94
309.74	1712.10
309.96	1699.81
310.17	1779.68
310.39	1677.29
310.60	1693.67
310.81	1722.34
311.03	1660.90
311.24	1753.06
311.45	1751.01
311.67	1822.69
311.88	1705.96
312.09	1697.77
312.31	1665.00
312.52	1585.13
312.73	1701.86
312.95	1665.00
313.16	1650.66
313.37	1791.97
313.59	1757.16
313.80	1708.01
314.01	1839.08
314.23	1699.81
314.44	1691.62
314.65	1677.29
314.87	1669.09
315.08	1759.21
315.29	1665.00
315.51	1591.27
315.72	1601.51
315.93	1822.69
316.15	1683.43
316.36	1738.73
316.57	1667.05
316.79	1607.66
317.00	1683.43
317.21	1748.97
317.43	1640.42
317.64	1718.25
317.85	1724.39
318.07	1710.05
318.28	1738.73
318.49	1855.46
318.70	1861.60
318.92	1757.16
319.13	1722.34
319.34	1847.27
319.56	1861.60
319.77	1695.72
319.98	1902.56
320.20	1724.39
320.41	1714.15
320.62	1748.97
320.83	1720.29
321.05	1841.12
321.26	1716.20
321.47	1591.27
321.69	1734.63
321.90	1724.39
322.11	1697.77
322.32	1720.29
322.54	1748.97
322.75	1716.20
322.96	1837.03
323.18	1689.57
323.39	1560.55
323.60	1720.29
323.81	1759.21
324.03	1734.63
324.24	1720.29
324.45	1669.09
324.66	1734.63
324.88	1787.88
325.09	1759.21
325.30	1765.35
325.52	1742.82
325.73	1705.96
325.94	1603.56
326.15	1599.46
326.37	1656.81
326.58	1810.40
326.79	1810.40
327.00	1646.57
327.22	1705.96
327.43	1660.90
327.64	1638.38
327.85	1767.40
328.07	1708.01
328.28	1804.26
328.49	1714.15
328.70	1734.63
328.92	1681.38
329.13	1757.16
329.34	1738.73
329.55	1769.44
329.76	1746.92
329.98	1660.90
330.19	1808.36
330.40	1681.38
330.61	1769.44
330.83	1734.63
331.04	1638.38
331.25	1759.21
331.46	1689.57
331.68	1642.47
331.89	1730.53
332.10	1742.82
332.31	1611.75
332.52	1724.39
332.74	1777.64
332.95	1626.09
333.16	1689.57
333.37	1738.73
333.58	1640.42
333.80	1742.82
334.01	1632.23
334.22	1628.14
334.43	1636.33
334.64	1673.19
334.86	1658.85
335.07	1646.57
335.28	1716.20
335.49	1626.09
335.70	1748.97
335.92	1775.59
336.13	1837.03
336.34	1755.11
336.55	1720.29
336.76	1730.53
336.98	1558.50
337.19	1730.53
337.40	1751.01
337.61	1845.22
337.82	1705.96
338.04	1798.12
338.25	1617.90
338.46	1746.92
338.67	1697.77
338.88	1621.99
339.09	1654.76
339.31	1675.24
339.52	1605.61
339.73	1634.28
339.94	1722.34
340.15	1714.15
340.36	1646.57
340.58	1716.20
340.79	1650.66
341.00	1710.05
341.21	1636.33
341.42	1812.45
341.63	1691.62
341.85	1751.01
342.06	1701.86
342.27	1648.61
342.48	1812.45
342.69	1673.19
342.90	1699.81
343.12	1732.58
343.33	1732.58
343.54	1796.07
343.75	1746.92
343.96	1710.05
344.17	1667.05
344.38	1705.96
344.60	1656.81
344.81	1708.01
345.02	1701.86
345.23	1730.53
345.44	1775.59
345.65	1738.73
345.86	1761.25
346.07	1648.61
346.29	1759.21
346.50	1759.21
346.71	1824.74
346.92	1802.21
347.13	1849.32
347.34	1742.82
347.55	1679.33
347.76	1720.29
347.98	1617.90
348.19	1687.53
348.40	1783.78
348.61	1648.61
348.82	1847.27
349.03	1748.97
349.24	1654.76
349.45	1779.68
349.66	1675.24
349.88	1689.57
350.09	1685.48
350.30	1771.49
350.51	1687.53
350.72	1658.85
350.93	1763.30
351.14	1640.42
351.35	1777.64
351.56	1712.10
351.77	1779.68
351.99	1763.30
352.20	1787.88
352.41	1814.50
352.62	1650.66
352.83	1679.33
353.04	1693.67
353.25	1673.19
353.46	1765.35
353.67	1757.16
353.88	1597.42
354.09	1699.81
354.30	1697.77
354.52	1738.73
354.73	1695.72
354.94	1628.14
355.15	1773.54
355.36	1783.78
355.57	1687.53
355.78	1798.12
355.99	1648.61
356.20	1681.38
356.41	1824.74
356.62	1763.30
356.83	1619.94
357.04	1804.26
357.25	1658.85
357.46	1705.96
357.68	1677.29
357.89	1689.57
358.10	1740.77
358.31	1714.15
358.52	1669.09
358.73	1736.68
358.94	1673.19
359.15	1734.63
359.36	1714.15
359.57	1716.20
359.78	1671.14
359.99	1677.29
360.20	1644.52
360.41	1708.01
360.62	1738.73
360.83	1701.86
361.04	1648.61
361.25	1716.20
361.46	1845.22
361.67	1730.53
361.88	1755.11
362.09	1769.44
362.30	1677.29
362.51	1722.34
362.72	1714.15
362.93	1734.63
363.14	1755.11
363.35	1662.95
363.56	1640.42
363.78	1800.16
363.99	1697.77
364.20	1689.57
364.41	1697.77
364.62	1845.22
364.83	1687.53
365.04	1701.86
365.25	1738.73
365.46	1871.84
365.67	1675.24
365.88	1679.33
366.09	1685.48
366.30	1677.29
366.51	1662.95
366.72	1687.53
366.93	1714.15
367.14	1804.26
367.35	1777.64
367.56	1677.29
367.77	1728.49
367.98	1748.97
368.18	1761.25
368.39	1726.44
368.60	1689.57
368.81	1710.05
369.02	1775.59
369.23	1720.29
369.44	1587.18
369.65	1710.05
369.86	1736.68
370.07	1763.30
370.28	1673.19
370.49	1769.44
370.70	1787.88
370.91	1734.63
371.12	1632.23
371.33	1705.96
371.54	1689.57
371.75	1845.22
371.96	1640.42
372.17	1671.14
372.38	1662.95
372.59	1730.53
372.80	1609.70
373.01	1748.97
373.22	1640.42
373.43	1636.33
373.64	1722.34
373.85	1777.64
374.06	1804.26
374.26	1791.97
374.47	1689.57
374.68	1816.55
374.89	1716.20
375.10	1685.48
375.31	1845.22
375.52	1644.52
375.73	1681.38
375.94	1675.24
376.15	1763.30
376.36	1609.70
376.57	1701.86
376.78	1701.86
376.99	1691.62
377.20	1726.44
377.40	1642.47
377.61	1796.07
377.82	1728.49
378.03	1820.64
378.24	1710.05
378.45	1767.40
378.66	1634.28
378.87	1603.56
379.08	1607.66
379.29	1703.91
379.50	1845.22
379.71	1634.28
379.91	1828.84
380.12	1703.91
380.33	1695.72
380.54	1677.29
380.75	1734.63
380.96	1681.38
381.17	1834.98
381.38	1726.44
381.59	1683.43
381.80	1804.26
382.00	1839.08
382.21	1753.06
382.42	1796.07
382.63	1855.46
382.84	1828.84
383.05	1761.25
383.26	1810.40
383.47	1791.97
383.68	1759.21
383.88	1740.77
384.09	1773.54
384.30	1736.68
384.51	1791.97
384.72	1662.95
384.93	1542.12
385.14	1695.72
385.35	1734.63
385.55	1654.76
385.76	1777.64
385.97	1701.86
386.18	1619.94
386.39	1667.05
386.60	1630.18
386.81	1734.63
387.02	1693.67
387.22	1697.77
387.43	1826.79
387.64	1771.49
387.85	1896.42
388.06	2183.13
388.27	4313.02
388.48	6631.32
388.68	8155.01
388.89	9555.82
389.10	9561.97
389.31	8517.50
389.52	7475.09
389.73	6784.92
389.93	6195.11
390.14	5799.85
390.35	5173.17
390.56	4536.25
390.77	3737.54
390.98	3049.43
391.18	2541.53
391.39	2127.84
391.60	1843.17
391.81	1855.46
392.02	1710.05
392.23	1923.04
392.43	1687.53
392.64	1730.53
392.85	1689.57
393.06	1820.64
393.27	1791.97
393.47	1689.57
393.68	1724.39
393.89	1716.20
394.10	1830.88
394.31	1617.90
394.52	1658.85
394.72	1617.90
394.93	1767.40
395.14	1619.94
395.35	1734.63
395.56	1669.09
395.76	1716.20
395.97	1785.83
396.18	1855.46
396.39	1832.93
396.60	2082.78
396.80	1865.70
397.01	1841.12
397.22	1816.55
397.43	1849.32
397.64	1708.01
397.84	1761.25
398.05	1902.56
398.26	1785.83
398.47	1837.03
398.67	1863.65
398.88	1744.87
399.09	1673.19
399.30	1648.61
399.51	1775.59
399.71	1689.57
399.92	1673.19
400.13	1734.63
400.34	1701.86
400.54	1738.73
400.75	1859.56
400.96	1740.77
401.17	1734.63
401.37	1697.77
401.58	1693.67
401.79	1751.01
402.00	1871.84
402.21	1972.19
402.41	1957.86
402.62	1968.10
402.83	2002.91
403.04	1994.72
403.24	1968.10
403.45	1853.41
403.66	2000.87
403.87	1845.22
404.07	1914.85
404.28	1927.14
404.49	1843.17
404.70	1794.02
404.90	1738.73
405.11	1751.01
405.32	1691.62
405.52	1740.77
405.73	1681.38
405.94	1693.67
406.15	1726.44
406.35	1779.68
406.56	1675.24
406.77	1787.88
406.98	1708.01
407.18	1705.96
407.39	1853.41
407.60	1662.95
407.80	1751.01
408.01	1697.77
408.22	1736.68
408.43	1697.77
408.63	1660.90
408.84	1738.73
409.05	1732.58
409.25	1693.67
409.46	1705.96
409.67	1652.71
409.88	1738.73
410.08	1701.86
410.29	1724.39
410.50	1751.01
410.70	1818.60
410.91	1677.29
411.12	1703.91
411.32	1681.38
411.53	1591.27
411.74	1751.01
411.95	1802.21
412.15	1697.77
412.36	1804.26
412.57	1796.07
412.77	1855.46
412.98	1769.44
413.19	1605.61
413.39	1736.68
413.60	1767.40
413.81	1683.43
414.01	1634.28
414.22	1681.38
414.43	1789.92
414.63	1658.85
414.84	1828.84
415.05	1751.01
415.25	1615.85
415.46	1722.34
415.67	1578.98
415.87	1746.92
416.08	1714.15
416.29	1640.42
416.49	1767.40
416.70	1742.82
416.91	1697.77
417.11	1763.30
417.32	1751.01
417.53	1841.12
417.73	1765.35
417.94	1712.10
418.15	1693.67
418.35	1693.67
418.56	1673.19
418.77	1834.98
418.97	1771.49
419.18	1630.18
419.38	1570.79
419.59	1748.97
419.80	1857.51
420.00	1751.01
420.21	1773.54
420.42	1730.53
420.62	1675.24
420.83	1730.53
421.04	1701.86
421.24	1712.10
421.45	1736.68
421.65	1691.62
421.86	1740.77
422.07	1767.40
422.27	1818.60
422.48	1769.44
422.69	1636.33
422.89	1642.47
423.10	1736.68
423.30	1628.14
423.51	1703.91
423.72	1697.77
423.92	1703.91
424.13	1656.81
424.33	1665.00
424.54	1759.21
424.75	1742.82
424.95	1853.41
425.16	1705.96
425.36	1636.33
425.57	1689.57
425.78	1763.30
425.98	1779.68
426.19	1648.61
426.39	1660.90
426.60	1798.12
426.81	1794.02
427.01	1685.48
427.22	1667.05
427.42	1658.85
427.63	1675.24
427.83	1748.97
428.04	1710.05
428.25	1849.32
428.45	1736.68
428.66	1736.68
428.86	1687.53
429.07	1773.54
429.28	1789.92
429.48	1738.73
429.69	1679.33
429.89	1763.30
430.10	1632.23
430.30	1775.59
430.51	1765.35
430.71	1632.23
430.92	1687.53
431.13	1685.48
431.33	1783.78
431.54	1789.92
431.74	1804.26
431.95	1744.87
432.15	1712.10
432.36	1693.67
432.56	1742.82
432.77	1841.12
432.98	1894.37
433.18	1738.73
433.39	1673.19
433.59	1724.39
433.80	1812.45
434.00	1748.97
434.21	1691.62
434.41	1718.25
434.62	1855.46
434.82	1671.14
435.03	1689.57
435.23	1738.73
435.44	1648.61
435.64	1697.77
435.85	1699.81
436.06	1796.07
436.26	1773.54
436.47	1753.06
436.67	1667.05
436.88	1710.05
437.08	1820.64
437.29	1800.16
437.49	1781.73
437.70	1794.02
437.90	1701.86
438.11	1820.64
438.31	1796.07
438.52	1869.80
438.72	1851.36
438.93	1918.95
439.13	1708.01
439.34	1855.46
439.54	1771.49
439.75	1789.92
439.95	1812.45
440.16	1738.73
440.36	1742.82
440.57	1771.49
440.77	1808.36
440.98	1716.20
441.18	1828.84
441.39	1681.38
441.59	1693.67
441.80	1779.68
442.00	1796.07
442.21	1791.97
442.41	1597.42
442.62	1832.93
442.82	1708.01
443.02	1671.14
443.23	1699.81
443.43	1669.09
443.64	1763.30
443.84	1714.15
444.05	1822.69
444.25	1763.30
444.46	1716.20
444.66	1783.78
444.87	1798.12
445.07	1624.04
445.28	1683.43
445.48	1791.97
445.69	1753.06
445.89	1869.80
446.09	1755.11
446.30	1996.77
446.50	2627.54
446.71	3577.80
446.91	4167.62
447.12	4822.97
447.32	4876.21
447.53	4227.01
447.73	3813.32
447.93	3532.75
448.14	3289.04
448.34	3192.78
448.55	2994.13
448.75	2901.97
448.96	2734.04
449.16	2473.95
449.36	2240.48
449.57	2060.26
449.77	1943.52
449.98	1832.93
450.18	1828.84
450.39	1720.29
450.59	1783.78
450.79	1730.53
451.00	1705.96
451.20	1783.78
451.41	1730.53
451.61	1722.34
451.81	1787.88
452.02	1759.21
452.22	1751.01
452.43	1621.99
452.63	1675.24
