SpectraSuite Data File
++++++++++++++++++++++++++++++++++++
Date: Mon Jun 06 17:18:17 CEST 2016
User: root
Dark Spectrum Present: No
Reference Spectrum Present: No
Number of Sampled Component Spectra: 1
Spectrometers: USB4C02835
Integration Time (usec): 100000 (USB4C02835)
Spectra Averaged: 1 (USB4C02835)
Boxcar Smoothing: 0 (USB4C02835)
Correct for Electrical Dark: No (USB4C02835)
Strobe/Lamp Enabled: No (USB4C02835)
Correct for Detector Non-linearity: No (USB4C02835)
Correct for Stray Light: No (USB4C02835)
Number of Pixels in Processed Spectrum: 3648
>>>>>Begin Processed Spectral Data<<<<<
177.47	1492.97
177.69	1492.97
177.91	1492.97
178.13	1482.73
178.36	1533.93
178.58	1695.72
178.80	1730.53
179.02	1626.09
179.24	1648.61
179.46	1722.34
179.68	1757.16
179.90	1679.33
180.13	1787.88
180.35	1683.43
180.57	1740.77
180.79	1681.38
181.01	1722.34
181.23	1771.49
181.45	1812.45
181.67	1718.25
181.90	1671.14
182.12	1703.91
182.34	1683.43
182.56	1716.20
182.78	1759.21
183.00	1636.33
183.22	1773.54
183.44	1626.09
183.66	1863.65
183.89	1759.21
184.11	1710.05
184.33	1708.01
184.55	1789.92
184.77	1701.86
184.99	1650.66
185.21	1775.59
185.43	1902.56
185.65	1630.18
185.87	1689.57
186.10	1824.74
186.32	1875.94
186.54	1734.63
186.76	1703.91
186.98	1759.21
187.20	1662.95
187.42	1671.14
187.64	1691.62
187.86	1779.68
188.08	1820.64
188.30	1699.81
188.52	1693.67
188.75	1695.72
188.97	1775.59
189.19	1615.85
189.41	1755.11
189.63	1718.25
189.85	1718.25
190.07	1665.00
190.29	1601.51
190.51	1765.35
190.73	1644.52
190.95	1740.77
191.17	1720.29
191.39	1638.38
191.61	1710.05
191.84	1708.01
192.06	1712.10
192.28	1583.08
192.50	1871.84
192.72	1802.21
192.94	1714.15
193.16	1775.59
193.38	1773.54
193.60	1615.85
193.82	1660.90
194.04	1812.45
194.26	1787.88
194.48	1744.87
194.70	1751.01
194.92	1656.81
195.14	1763.30
195.36	1652.71
195.58	1712.10
195.80	1734.63
196.02	1669.09
196.24	1724.39
196.46	1724.39
196.69	1615.85
196.91	1812.45
197.13	1648.61
197.35	1681.38
197.57	1796.07
197.79	1710.05
198.01	1787.88
198.23	1781.73
198.45	1710.05
198.67	1599.46
198.89	1691.62
199.11	1728.49
199.33	1574.89
199.55	1566.70
199.77	1681.38
199.99	1722.34
200.21	1742.82
200.43	1718.25
200.65	1597.42
200.87	1583.08
201.09	1730.53
201.31	1708.01
201.53	1757.16
201.75	1734.63
201.97	1734.63
202.19	1798.12
202.41	1748.97
202.63	1873.89
202.85	1755.11
203.07	1718.25
203.29	1650.66
203.51	1646.57
203.73	1673.19
203.95	1927.14
204.17	1722.34
204.39	1783.78
204.61	1773.54
204.83	1656.81
205.05	1740.77
205.27	1738.73
205.49	1828.84
205.71	1736.68
205.93	1654.76
206.15	1667.05
206.37	1724.39
206.59	1697.77
206.81	1611.75
207.03	1669.09
207.25	1654.76
207.47	1806.31
207.69	1703.91
207.91	1798.12
208.13	1763.30
208.34	1621.99
208.56	1683.43
208.78	1830.88
209.00	1660.90
209.22	1699.81
209.44	1746.92
209.66	1665.00
209.88	1675.24
210.10	1720.29
210.32	1609.70
210.54	1705.96
210.76	1699.81
210.98	1740.77
211.20	1581.03
211.42	1699.81
211.64	1679.33
211.86	1777.64
212.08	1714.15
212.30	1689.57
212.52	1744.87
212.74	1716.20
212.96	1773.54
213.17	1699.81
213.39	1744.87
213.61	1779.68
213.83	1763.30
214.05	1552.36
214.27	1787.88
214.49	1685.48
214.71	1693.67
214.93	1728.49
215.15	1665.00
215.37	1746.92
215.59	1644.52
215.81	1669.09
216.03	1808.36
216.24	1751.01
216.46	1720.29
216.68	1644.52
216.90	1728.49
217.12	1705.96
217.34	1726.44
217.56	1705.96
217.78	1806.31
218.00	1787.88
218.22	1771.49
218.44	1791.97
218.66	1626.09
218.87	1824.74
219.09	1761.25
219.31	1755.11
219.53	1746.92
219.75	1734.63
219.97	1679.33
220.19	1656.81
220.41	1730.53
220.63	1769.44
220.85	1732.58
221.06	1683.43
221.28	1757.16
221.50	1753.06
221.72	1697.77
221.94	1720.29
222.16	1695.72
222.38	1779.68
222.60	1726.44
222.82	1615.85
223.03	1732.58
223.25	1648.61
223.47	1714.15
223.69	1783.78
223.91	1802.21
224.13	1716.20
224.35	1761.25
224.57	1689.57
224.78	1802.21
225.00	1685.48
225.22	1722.34
225.44	1759.21
225.66	1771.49
225.88	1642.47
226.10	1818.60
226.32	1722.34
226.53	1789.92
226.75	1626.09
226.97	1654.76
227.19	1681.38
227.41	1619.94
227.63	1648.61
227.85	1679.33
228.06	1669.09
228.28	1681.38
228.50	1718.25
228.72	1677.29
228.94	1685.48
229.16	1689.57
229.37	1665.00
229.59	1687.53
229.81	1740.77
230.03	1669.09
230.25	1607.66
230.47	1652.71
230.69	1730.53
230.90	1765.35
231.12	1697.77
231.34	1746.92
231.56	1791.97
231.78	1652.71
232.00	1761.25
232.21	1669.09
232.43	1763.30
232.65	1599.46
232.87	1777.64
233.09	1679.33
233.30	1724.39
233.52	1759.21
233.74	1697.77
233.96	1714.15
234.18	1718.25
234.40	1705.96
234.61	1796.07
234.83	1656.81
235.05	1691.62
235.27	1822.69
235.49	1767.40
235.70	1748.97
235.92	1796.07
236.14	1771.49
236.36	1914.85
236.58	1599.46
236.79	1783.78
237.01	1761.25
237.23	1708.01
237.45	1877.99
237.67	1665.00
237.88	1693.67
238.10	1769.44
238.32	1683.43
238.54	1687.53
238.76	1697.77
238.97	1714.15
239.19	1615.85
239.41	1726.44
239.63	1785.83
239.85	1746.92
240.06	1681.38
240.28	1710.05
240.50	1767.40
240.72	1732.58
240.93	1685.48
241.15	1732.58
241.37	1683.43
241.59	1769.44
241.81	1630.18
242.02	1681.38
242.24	1755.11
242.46	1732.58
242.68	1730.53
242.89	1697.77
243.11	1734.63
243.33	1714.15
243.55	1753.06
243.76	1705.96
243.98	1689.57
244.20	1724.39
244.42	1687.53
244.64	1730.53
244.85	1636.33
245.07	1667.05
245.29	1742.82
245.51	1695.72
245.72	1730.53
245.94	1765.35
246.16	1714.15
246.38	1718.25
246.59	1603.56
246.81	1697.77
247.03	1734.63
247.24	1568.74
247.46	1687.53
247.68	1726.44
247.90	1667.05
248.11	1703.91
248.33	1703.91
248.55	1714.15
248.77	1720.29
248.98	1777.64
249.20	1834.98
249.42	1683.43
249.64	1765.35
249.85	1744.87
250.07	1669.09
250.29	1722.34
250.50	1697.77
250.72	1669.09
250.94	1830.88
251.16	1832.93
251.37	1834.98
251.59	1771.49
251.81	1708.01
252.02	1751.01
252.24	1728.49
252.46	1757.16
252.68	1701.86
252.89	1658.85
253.11	1591.27
253.33	1779.68
253.54	1785.83
253.76	1621.99
253.98	1718.25
254.20	1652.71
254.41	1673.19
254.63	1716.20
254.85	1671.14
255.06	1677.29
255.28	1730.53
255.50	1746.92
255.71	1724.39
255.93	1640.42
256.15	1718.25
256.36	1822.69
256.58	1718.25
256.80	1732.58
257.02	1736.68
257.23	1712.10
257.45	1677.29
257.67	1726.44
257.88	1728.49
258.10	1806.31
258.32	1751.01
258.53	1677.29
258.75	1789.92
258.97	1621.99
259.18	1681.38
259.40	1695.72
259.62	1701.86
259.83	1771.49
260.05	1736.68
260.27	2054.11
260.48	1806.31
260.70	1634.28
260.92	1660.90
261.13	1697.77
261.35	1712.10
261.57	1779.68
261.78	1685.48
262.00	1710.05
262.22	1806.31
262.43	1685.48
262.65	1722.34
262.86	1671.14
263.08	1853.41
263.30	1779.68
263.51	1648.61
263.73	1714.15
263.95	1824.74
264.16	1656.81
264.38	1734.63
264.60	1755.11
264.81	1730.53
265.03	1685.48
265.25	1701.86
265.46	1703.91
265.68	1777.64
265.89	1759.21
266.11	1710.05
266.33	1667.05
266.54	1765.35
266.76	1708.01
266.98	1767.40
267.19	1810.40
267.41	1716.20
267.62	1718.25
267.84	1652.71
268.06	1728.49
268.27	1738.73
268.49	1783.78
268.70	1751.01
268.92	1740.77
269.14	1644.52
269.35	1640.42
269.57	1673.19
269.79	1738.73
270.00	1671.14
270.22	1810.40
270.43	1677.29
270.65	1601.51
270.87	1701.86
271.08	1689.57
271.30	1685.48
271.51	1722.34
271.73	1765.35
271.95	1820.64
272.16	1738.73
272.38	1763.30
272.59	1679.33
272.81	1746.92
273.02	1728.49
273.24	1714.15
273.46	1808.36
273.67	1658.85
273.89	1660.90
274.10	1736.68
274.32	1789.92
274.54	1822.69
274.75	1667.05
274.97	1632.23
275.18	1726.44
275.40	1820.64
275.61	1744.87
275.83	1679.33
276.05	1656.81
276.26	1751.01
276.48	1802.21
276.69	1617.90
276.91	1683.43
277.12	1804.26
277.34	1814.50
277.55	1744.87
277.77	1722.34
277.99	1724.39
278.20	1578.98
278.42	1701.86
278.63	1660.90
278.85	1759.21
279.06	1669.09
279.28	1722.34
279.49	1710.05
279.71	1773.54
279.93	1687.53
280.14	1736.68
280.36	1644.52
280.57	1732.58
280.79	1781.73
281.00	1669.09
281.22	1679.33
281.43	1800.16
281.65	1640.42
281.86	1626.09
282.08	1785.83
282.29	1796.07
282.51	1658.85
282.73	1628.14
282.94	1671.14
283.16	1722.34
283.37	1791.97
283.59	1742.82
283.80	1714.15
284.02	1771.49
284.23	1724.39
284.45	1718.25
284.66	1660.90
284.88	1714.15
285.09	1748.97
285.31	1732.58
285.52	1759.21
285.74	1640.42
285.95	1697.77
286.17	1630.18
286.38	1705.96
286.60	1648.61
286.81	1644.52
287.03	1687.53
287.24	1712.10
287.46	1738.73
287.67	1722.34
287.89	1820.64
288.10	1708.01
288.32	1734.63
288.53	1828.84
288.75	1773.54
288.96	1736.68
289.18	1718.25
289.39	1726.44
289.61	1677.29
289.82	1783.78
290.04	1812.45
290.25	1624.04
290.47	1681.38
290.68	1767.40
290.90	1771.49
291.11	1683.43
291.33	1712.10
291.54	1667.05
291.76	1675.24
291.97	1640.42
292.18	1636.33
292.40	1769.44
292.61	1634.28
292.83	1867.75
293.04	1755.11
293.26	1679.33
293.47	1746.92
293.69	1720.29
293.90	1691.62
294.12	1746.92
294.33	1742.82
294.55	1642.47
294.76	1773.54
294.97	1781.73
295.19	1877.99
295.40	1667.05
295.62	1699.81
295.83	1769.44
296.05	1599.46
296.26	1781.73
296.48	1681.38
296.69	1681.38
296.90	1677.29
297.12	1763.30
297.33	1794.02
297.55	1759.21
297.76	1658.85
297.98	1791.97
298.19	1824.74
298.41	1724.39
298.62	1697.77
298.83	1777.64
299.05	1705.96
299.26	1705.96
299.48	1701.86
299.69	1798.12
299.90	1669.09
300.12	1705.96
300.33	1775.59
300.55	1660.90
300.76	1779.68
300.98	1566.70
301.19	1730.53
301.40	1771.49
301.62	1763.30
301.83	1746.92
302.05	1705.96
302.26	1755.11
302.47	1726.44
302.69	1617.90
302.90	1755.11
303.12	1613.80
303.33	1720.29
303.54	1861.60
303.76	1748.97
303.97	1699.81
304.19	1738.73
304.40	1658.85
304.61	1665.00
304.83	1779.68
305.04	1757.16
305.26	1740.77
305.47	1720.29
305.68	1738.73
305.90	1665.00
306.11	1787.88
306.33	1724.39
306.54	1767.40
306.75	1667.05
306.97	1689.57
307.18	1705.96
307.39	1748.97
307.61	1705.96
307.82	1726.44
308.04	1732.58
308.25	1695.72
308.46	1697.77
308.68	1677.29
308.89	1724.39
309.10	1796.07
309.32	1746.92
309.53	1691.62
309.74	1734.63
309.96	1648.61
310.17	1777.64
310.39	1687.53
310.60	1705.96
310.81	1669.09
311.03	1687.53
311.24	1728.49
311.45	1734.63
311.67	1781.73
311.88	1708.01
312.09	1744.87
312.31	1665.00
312.52	1675.24
312.73	1630.18
312.95	1574.89
313.16	1714.15
313.37	1787.88
313.59	1687.53
313.80	1703.91
314.01	1800.16
314.23	1708.01
314.44	1673.19
314.65	1611.75
314.87	1621.99
315.08	1746.92
315.29	1738.73
315.51	1665.00
315.72	1679.33
315.93	1773.54
316.15	1667.05
316.36	1597.42
316.57	1726.44
316.79	1746.92
317.00	1685.48
317.21	1775.59
317.43	1621.99
317.64	1687.53
317.85	1732.58
318.07	1732.58
318.28	1712.10
318.49	1789.92
318.70	1884.13
318.92	1830.88
319.13	1834.98
319.34	1867.75
319.56	1773.54
319.77	1759.21
319.98	1789.92
320.20	1771.49
320.41	1755.11
320.62	1783.78
320.83	1697.77
321.05	1800.16
321.26	1691.62
321.47	1720.29
321.69	1714.15
321.90	1605.61
322.11	1660.90
322.32	1708.01
322.54	1767.40
322.75	1665.00
322.96	1832.93
323.18	1589.22
323.39	1533.93
323.60	1642.47
323.81	1816.55
324.03	1638.38
324.24	1708.01
324.45	1755.11
324.66	1783.78
324.88	1675.24
325.09	1830.88
325.30	1751.01
325.52	1712.10
325.73	1759.21
325.94	1681.38
326.15	1665.00
326.37	1718.25
326.58	1777.64
326.79	1771.49
327.00	1689.57
327.22	1734.63
327.43	1681.38
327.64	1613.80
327.85	1742.82
328.07	1673.19
328.28	1826.79
328.49	1708.01
328.70	1683.43
328.92	1734.63
329.13	1742.82
329.34	1783.78
329.55	1802.21
329.76	1767.40
329.98	1730.53
330.19	1744.87
330.40	1755.11
330.61	1660.90
330.83	1812.45
331.04	1640.42
331.25	1669.09
331.46	1734.63
331.68	1636.33
331.89	1771.49
332.10	1685.48
332.31	1619.94
332.52	1697.77
332.74	1796.07
332.95	1554.41
333.16	1746.92
333.37	1720.29
333.58	1693.67
333.80	1714.15
334.01	1648.61
334.22	1705.96
334.43	1673.19
334.64	1671.14
334.86	1687.53
335.07	1681.38
335.28	1785.83
335.49	1714.15
335.70	1693.67
335.92	1775.59
336.13	1865.70
336.34	1695.72
336.55	1746.92
336.76	1669.09
336.98	1646.57
337.19	1730.53
337.40	1783.78
337.61	1814.50
337.82	1705.96
338.04	1765.35
338.25	1648.61
338.46	1773.54
338.67	1693.67
338.88	1691.62
339.09	1609.70
339.31	1656.81
339.52	1591.27
339.73	1621.99
339.94	1691.62
340.15	1740.77
340.36	1720.29
340.58	1755.11
340.79	1691.62
341.00	1769.44
341.21	1667.05
341.42	1867.75
341.63	1697.77
341.85	1769.44
342.06	1710.05
342.27	1669.09
342.48	1816.55
342.69	1613.80
342.90	1812.45
343.12	1769.44
343.33	1738.73
343.54	1738.73
343.75	1841.12
343.96	1683.43
344.17	1681.38
344.38	1693.67
344.60	1591.27
344.81	1660.90
345.02	1736.68
345.23	1732.58
345.44	1771.49
345.65	1775.59
345.86	1757.16
346.07	1746.92
346.29	1648.61
346.50	1683.43
346.71	1769.44
346.92	1808.36
347.13	1849.32
347.34	1722.34
347.55	1693.67
347.76	1712.10
347.98	1591.27
348.19	1650.66
348.40	1785.83
348.61	1734.63
348.82	1796.07
349.03	1761.25
349.24	1697.77
349.45	1800.16
349.66	1640.42
349.88	1665.00
350.09	1681.38
350.30	1785.83
350.51	1810.40
350.72	1689.57
350.93	1734.63
351.14	1619.94
351.35	1789.92
351.56	1806.31
351.77	1667.05
351.99	1824.74
352.20	1779.68
352.41	1845.22
352.62	1554.41
352.83	1628.14
353.04	1722.34
353.25	1671.14
353.46	1791.97
353.67	1736.68
353.88	1660.90
354.09	1730.53
354.30	1677.29
354.52	1687.53
354.73	1751.01
354.94	1757.16
355.15	1714.15
355.36	1755.11
355.57	1656.81
355.78	1683.43
355.99	1695.72
356.20	1669.09
356.41	1779.68
356.62	1722.34
356.83	1669.09
357.04	1761.25
357.25	1587.18
357.46	1673.19
357.68	1591.27
357.89	1660.90
358.10	1662.95
358.31	1691.62
358.52	1665.00
358.73	1632.23
358.94	1646.57
359.15	1712.10
359.36	1730.53
359.57	1679.33
359.78	1785.83
359.99	1738.73
360.20	1675.24
360.41	1675.24
360.62	1757.16
360.83	1691.62
361.04	1669.09
361.25	1724.39
361.46	1808.36
361.67	1775.59
361.88	1781.73
362.09	1771.49
362.30	1681.38
362.51	1640.42
362.72	1658.85
362.93	1703.91
363.14	1794.02
363.35	1705.96
363.56	1671.14
363.78	1777.64
363.99	1699.81
364.20	1728.49
364.41	1730.53
364.62	1865.70
364.83	1740.77
365.04	1648.61
365.25	1654.76
365.46	1777.64
365.67	1662.95
365.88	1685.48
366.09	1716.20
366.30	1665.00
366.51	1669.09
366.72	1626.09
366.93	1718.25
367.14	1755.11
367.35	1820.64
367.56	1710.05
367.77	1886.18
367.98	1681.38
368.18	1685.48
368.39	1810.40
368.60	1644.52
368.81	1832.93
369.02	1716.20
369.23	1710.05
369.44	1638.38
369.65	1724.39
369.86	1740.77
370.07	1767.40
370.28	1556.46
370.49	1744.87
370.70	1726.44
370.91	1681.38
371.12	1681.38
371.33	1722.34
371.54	1658.85
371.75	1867.75
371.96	1611.75
372.17	1800.16
372.38	1722.34
372.59	1691.62
372.80	1697.77
373.01	1699.81
373.22	1724.39
373.43	1662.95
373.64	1630.18
373.85	1847.27
374.06	1779.68
374.26	1798.12
374.47	1673.19
374.68	1814.50
374.89	1757.16
375.10	1730.53
375.31	1759.21
375.52	1660.90
375.73	1705.96
375.94	1675.24
376.15	1789.92
376.36	1691.62
376.57	1691.62
376.78	1693.67
376.99	1644.52
377.20	1814.50
377.40	1693.67
377.61	1832.93
377.82	1671.14
378.03	1839.08
378.24	1691.62
378.45	1820.64
378.66	1646.57
378.87	1636.33
379.08	1632.23
379.29	1757.16
379.50	1757.16
379.71	1671.14
379.91	1730.53
380.12	1697.77
380.33	1773.54
380.54	1587.18
380.75	1748.97
380.96	1654.76
381.17	1738.73
381.38	1699.81
381.59	1720.29
381.80	1701.86
382.00	1861.60
382.21	1800.16
382.42	1832.93
382.63	1884.13
382.84	1732.58
383.05	1775.59
383.26	1783.78
383.47	1761.25
383.68	1759.21
383.88	1722.34
384.09	1701.86
384.30	1828.84
384.51	1814.50
384.72	1757.16
384.93	1636.33
385.14	1683.43
385.35	1757.16
385.55	1644.52
385.76	1875.94
385.97	1677.29
386.18	1648.61
386.39	1705.96
386.60	1746.92
386.81	1691.62
387.02	1660.90
387.22	1738.73
387.43	1796.07
387.64	1841.12
387.85	1910.75
388.06	2176.99
388.27	4331.45
388.48	6856.60
388.68	8359.81
388.89	9652.08
389.10	9785.19
389.31	8601.47
389.52	7550.86
389.73	6733.72
389.93	6211.49
390.14	5924.77
390.35	5230.51
390.56	4536.25
390.77	3860.42
390.98	3098.58
391.18	2549.72
391.39	2142.18
391.60	1804.26
391.81	1845.22
392.02	1726.44
392.23	1877.99
392.43	1781.73
392.64	1808.36
392.85	1714.15
393.06	1806.31
393.27	1720.29
393.47	1669.09
393.68	1753.06
393.89	1675.24
394.10	1798.12
394.31	1724.39
394.52	1681.38
394.72	1699.81
394.93	1804.26
395.14	1644.52
395.35	1832.93
395.56	1665.00
395.76	1751.01
395.97	1751.01
396.18	1767.40
396.39	1873.89
396.60	2060.26
396.80	1828.84
397.01	1851.36
397.22	1888.23
397.43	1877.99
397.64	1726.44
397.84	1826.79
398.05	1871.84
398.26	1720.29
398.47	1839.08
398.67	1845.22
398.88	1763.30
399.09	1712.10
399.30	1656.81
399.51	1730.53
399.71	1724.39
399.92	1714.15
400.13	1710.05
400.34	1689.57
400.54	1708.01
400.75	1804.26
400.96	1708.01
401.17	1757.16
401.37	1699.81
401.58	1667.05
401.79	1761.25
402.00	1929.19
402.21	2027.49
402.41	1994.72
402.62	1945.57
402.83	2050.02
403.04	1937.38
403.24	2148.32
403.45	1859.56
403.66	1828.84
403.87	1886.18
404.07	1888.23
404.28	1888.23
404.49	1892.32
404.70	1830.88
404.90	1753.06
405.11	1814.50
405.32	1806.31
405.52	1677.29
405.73	1658.85
405.94	1634.28
406.15	1783.78
406.35	1783.78
406.56	1763.30
406.77	1834.98
406.98	1755.11
407.18	1636.33
407.39	1771.49
407.60	1738.73
407.80	1742.82
408.01	1669.09
408.22	1757.16
408.43	1683.43
408.63	1710.05
408.84	1675.24
409.05	1710.05
409.25	1771.49
409.46	1705.96
409.67	1621.99
409.88	1669.09
410.08	1632.23
410.29	1695.72
410.50	1685.48
410.70	1783.78
410.91	1644.52
411.12	1843.17
411.32	1769.44
411.53	1648.61
411.74	1791.97
411.95	1728.49
412.15	1695.72
412.36	1728.49
412.57	1753.06
412.77	1820.64
412.98	1685.48
413.19	1681.38
413.39	1740.77
413.60	1779.68
413.81	1839.08
414.01	1718.25
414.22	1779.68
414.43	1732.58
414.63	1718.25
414.84	1785.83
415.05	1681.38
415.25	1634.28
415.46	1773.54
415.67	1738.73
415.87	1746.92
416.08	1650.66
416.29	1619.94
416.49	1751.01
416.70	1687.53
416.91	1703.91
417.11	1746.92
417.32	1771.49
417.53	1689.57
417.73	1751.01
417.94	1751.01
418.15	1761.25
418.35	1761.25
418.56	1695.72
418.77	1912.80
418.97	1685.48
419.18	1751.01
419.38	1607.66
419.59	1734.63
419.80	1755.11
420.00	1714.15
420.21	1814.50
420.42	1779.68
420.62	1767.40
420.83	1722.34
421.04	1693.67
421.24	1742.82
421.45	1763.30
421.65	1699.81
421.86	1746.92
422.07	1798.12
422.27	1658.85
422.48	1742.82
422.69	1728.49
422.89	1652.71
423.10	1746.92
423.30	1626.09
423.51	1697.77
423.72	1673.19
423.92	1759.21
424.13	1728.49
424.33	1738.73
424.54	1759.21
424.75	1681.38
424.95	1787.88
425.16	1691.62
425.36	1669.09
425.57	1798.12
425.78	1779.68
425.98	1787.88
426.19	1720.29
426.39	1687.53
426.60	1712.10
426.81	1828.84
427.01	1765.35
427.22	1634.28
427.42	1599.46
427.63	1542.12
427.83	1818.60
428.04	1877.99
428.25	1783.78
428.45	1820.64
428.66	1712.10
428.86	1699.81
429.07	1675.24
429.28	1751.01
429.48	1638.38
429.69	1658.85
429.89	1701.86
430.10	1689.57
430.30	1763.30
430.51	1794.02
430.71	1763.30
430.92	1718.25
431.13	1671.14
431.33	1742.82
431.54	1722.34
431.74	1832.93
431.95	1777.64
432.15	1679.33
432.36	1794.02
432.56	1736.68
432.77	1726.44
432.98	1841.12
433.18	1765.35
433.39	1673.19
433.59	1683.43
433.80	1839.08
434.00	1925.09
434.21	1736.68
434.41	1685.48
434.62	1910.75
434.82	1658.85
435.03	1665.00
435.23	1722.34
435.44	1591.27
435.64	1730.53
435.85	1748.97
436.06	1681.38
436.26	1748.97
436.47	1722.34
436.67	1683.43
436.88	1753.06
437.08	1804.26
437.29	1843.17
437.49	1746.92
437.70	1818.60
437.90	1761.25
438.11	1843.17
438.31	1808.36
438.52	1861.60
438.72	1871.84
438.93	1908.71
439.13	1865.70
439.34	1859.56
439.54	1812.45
439.75	1812.45
439.95	1701.86
440.16	1771.49
440.36	1753.06
440.57	1824.74
440.77	1771.49
440.98	1775.59
441.18	1773.54
441.39	1714.15
441.59	1648.61
441.80	1912.80
442.00	1861.60
442.21	1820.64
442.41	1650.66
442.62	1837.03
442.82	1705.96
443.02	1734.63
443.23	1730.53
443.43	1767.40
443.64	1781.73
443.84	1691.62
444.05	1822.69
444.25	1769.44
444.46	1697.77
444.66	1884.13
444.87	1814.50
445.07	1685.48
445.28	1746.92
445.48	1742.82
445.69	1796.07
445.89	1902.56
446.09	1798.12
446.30	2013.15
446.50	2695.13
446.71	3817.41
446.91	4231.10
447.12	4829.11
447.32	4782.01
447.53	4433.85
447.73	3844.04
447.93	3549.13
448.14	3344.33
448.34	3235.79
448.55	3014.61
448.75	2871.25
448.96	2713.56
449.16	2435.03
449.36	2258.91
449.57	1978.34
449.77	1837.03
449.98	1820.64
450.18	1765.35
450.39	1832.93
450.59	1886.18
450.79	1699.81
451.00	1744.87
451.20	1808.36
451.41	1785.83
451.61	1767.40
451.81	1777.64
452.02	1660.90
452.22	1728.49
452.43	1759.21
452.63	1742.82
