SpectraSuite Data File
++++++++++++++++++++++++++++++++++++
Date: Mon Jun 06 12:53:57 CEST 2016
User: root
Dark Spectrum Present: No
Reference Spectrum Present: No
Number of Sampled Component Spectra: 1
Spectrometers: USB4C02835
Integration Time (usec): 100000 (USB4C02835)
Spectra Averaged: 1 (USB4C02835)
Boxcar Smoothing: 0 (USB4C02835)
Correct for Electrical Dark: No (USB4C02835)
Strobe/Lamp Enabled: No (USB4C02835)
Correct for Detector Non-linearity: No (USB4C02835)
Correct for Stray Light: No (USB4C02835)
Number of Pixels in Processed Spectrum: 3648
>>>>>Begin Processed Spectral Data<<<<<
177.47	1398.76
177.69	1398.76
177.91	1398.76
178.13	1474.54
178.36	1423.34
178.58	1665.00
178.80	1712.10
179.02	1583.08
179.24	1642.47
179.46	1699.81
179.68	1767.40
179.90	1687.53
180.13	1720.29
180.35	1660.90
180.57	1710.05
180.79	1701.86
181.01	1667.05
181.23	1779.68
181.45	1771.49
181.67	1724.39
181.90	1681.38
182.12	1710.05
182.34	1603.56
182.56	1705.96
182.78	1775.59
183.00	1660.90
183.22	1757.16
183.44	1601.51
183.66	1841.12
183.89	1832.93
184.11	1679.33
184.33	1705.96
184.55	1724.39
184.77	1763.30
184.99	1755.11
185.21	1632.23
185.43	1816.55
185.65	1679.33
185.87	1748.97
186.10	1769.44
186.32	1908.71
186.54	1785.83
186.76	1705.96
186.98	1751.01
187.20	1640.42
187.42	1685.48
187.64	1738.73
187.86	1665.00
188.08	1673.19
188.30	1673.19
188.52	1640.42
188.75	1742.82
188.97	1724.39
189.19	1730.53
189.41	1656.81
189.63	1646.57
189.85	1665.00
190.07	1611.75
190.29	1681.38
190.51	1660.90
190.73	1619.94
190.95	1820.64
191.17	1738.73
191.39	1564.65
191.61	1675.24
191.84	1617.90
192.06	1687.53
192.28	1611.75
192.50	1824.74
192.72	1765.35
192.94	1677.29
193.16	1746.92
193.38	1632.23
193.60	1599.46
193.82	1669.09
194.04	1726.44
194.26	1773.54
194.48	1705.96
194.70	1740.77
194.92	1673.19
195.14	1775.59
195.36	1638.38
195.58	1683.43
195.80	1654.76
196.02	1748.97
196.24	1734.63
196.46	1687.53
196.69	1673.19
196.91	1812.45
197.13	1716.20
197.35	1624.04
197.57	1816.55
197.79	1751.01
198.01	1703.91
198.23	1722.34
198.45	1806.31
198.67	1617.90
198.89	1630.18
199.11	1673.19
199.33	1650.66
199.55	1587.18
199.77	1701.86
199.99	1755.11
200.21	1722.34
200.43	1669.09
200.65	1693.67
200.87	1593.32
201.09	1722.34
201.31	1679.33
201.53	1753.06
201.75	1701.86
201.97	1767.40
202.19	1722.34
202.41	1693.67
202.63	1808.36
202.85	1716.20
203.07	1724.39
203.29	1619.94
203.51	1646.57
203.73	1581.03
203.95	1863.65
204.17	1718.25
204.39	1683.43
204.61	1802.21
204.83	1708.01
205.05	1781.73
205.27	1681.38
205.49	1818.60
205.71	1652.71
205.93	1621.99
206.15	1535.98
206.37	1726.44
206.59	1712.10
206.81	1693.67
207.03	1642.47
207.25	1605.61
207.47	1718.25
207.69	1675.24
207.91	1783.78
208.13	1751.01
208.34	1660.90
208.56	1683.43
208.78	1785.83
209.00	1644.52
209.22	1703.91
209.44	1654.76
209.66	1662.95
209.88	1679.33
210.10	1679.33
210.32	1740.77
210.54	1839.08
210.76	1638.38
210.98	1673.19
211.20	1505.26
211.42	1611.75
211.64	1712.10
211.86	1757.16
212.08	1708.01
212.30	1691.62
212.52	1714.15
212.74	1775.59
212.96	1710.05
213.17	1808.36
213.39	1791.97
213.61	1740.77
213.83	1691.62
214.05	1665.00
214.27	1710.05
214.49	1648.61
214.71	1665.00
214.93	1779.68
215.15	1632.23
215.37	1722.34
215.59	1597.42
215.81	1710.05
216.03	1832.93
216.24	1693.67
216.46	1638.38
216.68	1718.25
216.90	1808.36
217.12	1755.11
217.34	1697.77
217.56	1677.29
217.78	1769.44
218.00	1695.72
218.22	1665.00
218.44	1732.58
218.66	1679.33
218.87	1759.21
219.09	1669.09
219.31	1779.68
219.53	1755.11
219.75	1708.01
219.97	1642.47
220.19	1671.14
220.41	1703.91
220.63	1814.50
220.85	1736.68
221.06	1693.67
221.28	1718.25
221.50	1701.86
221.72	1683.43
221.94	1681.38
222.16	1671.14
222.38	1685.48
222.60	1781.73
222.82	1699.81
223.03	1804.26
223.25	1677.29
223.47	1751.01
223.69	1857.51
223.91	1757.16
224.13	1697.77
224.35	1665.00
224.57	1779.68
224.78	1703.91
225.00	1617.90
225.22	1630.18
225.44	1740.77
225.66	1728.49
225.88	1665.00
226.10	1732.58
226.32	1734.63
226.53	1753.06
226.75	1660.90
226.97	1669.09
227.19	1658.85
227.41	1669.09
227.63	1732.58
227.85	1611.75
228.06	1681.38
228.28	1679.33
228.50	1791.97
228.72	1652.71
228.94	1640.42
229.16	1556.46
229.37	1634.28
229.59	1640.42
229.81	1789.92
230.03	1615.85
230.25	1644.52
230.47	1660.90
230.69	1587.18
230.90	1755.11
231.12	1617.90
231.34	1701.86
231.56	1742.82
231.78	1695.72
232.00	1695.72
232.21	1650.66
232.43	1738.73
232.65	1658.85
232.87	1685.48
233.09	1630.18
233.30	1619.94
233.52	1738.73
233.74	1730.53
233.96	1646.57
234.18	1746.92
234.40	1732.58
234.61	1832.93
234.83	1628.14
235.05	1626.09
235.27	1808.36
235.49	1837.03
235.70	1701.86
235.92	1740.77
236.14	1767.40
236.36	1828.84
236.58	1609.70
236.79	1712.10
237.01	1720.29
237.23	1714.15
237.45	1839.08
237.67	1652.71
237.88	1720.29
238.10	1865.70
238.32	1697.77
238.54	1722.34
238.76	1705.96
238.97	1654.76
239.19	1613.80
239.41	1757.16
239.63	1720.29
239.85	1615.85
240.06	1640.42
240.28	1755.11
240.50	1726.44
240.72	1689.57
240.93	1722.34
241.15	1753.06
241.37	1722.34
241.59	1761.25
241.81	1697.77
242.02	1712.10
242.24	1738.73
242.46	1779.68
242.68	1669.09
242.89	1759.21
243.11	1763.30
243.33	1718.25
243.55	1710.05
243.76	1789.92
243.98	1603.56
244.20	1691.62
244.42	1712.10
244.64	1824.74
244.85	1652.71
245.07	1656.81
245.29	1742.82
245.51	1759.21
245.72	1652.71
245.94	1732.58
246.16	1699.81
246.38	1685.48
246.59	1658.85
246.81	1535.98
247.03	1705.96
247.24	1517.54
247.46	1734.63
247.68	1740.77
247.90	1656.81
248.11	1687.53
248.33	1710.05
248.55	1673.19
248.77	1634.28
248.98	1783.78
249.20	1755.11
249.42	1740.77
249.64	1730.53
249.85	1726.44
250.07	1726.44
250.29	1783.78
250.50	1691.62
250.72	1677.29
250.94	1699.81
251.16	1798.12
251.37	1697.77
251.59	1763.30
251.81	1718.25
252.02	1759.21
252.24	1697.77
252.46	1816.55
252.68	1689.57
252.89	1656.81
253.11	1581.03
253.33	1837.03
253.54	1785.83
253.76	1671.14
253.98	1681.38
254.20	1738.73
254.41	1673.19
254.63	1626.09
254.85	1665.00
255.06	1669.09
255.28	1738.73
255.50	1624.04
255.71	1648.61
255.93	1644.52
256.15	1716.20
256.36	1763.30
256.58	1656.81
256.80	1755.11
257.02	1683.43
257.23	1673.19
257.45	1755.11
257.67	1691.62
257.88	1589.22
258.10	1726.44
258.32	1640.42
258.53	1687.53
258.75	1791.97
258.97	1763.30
259.18	1753.06
259.40	1636.33
259.62	1771.49
259.83	1765.35
260.05	1728.49
260.27	1968.10
260.48	1769.44
260.70	1697.77
260.92	1699.81
261.13	1695.72
261.35	1755.11
261.57	1736.68
261.78	1691.62
262.00	1568.74
262.22	1716.20
262.43	1646.57
262.65	1726.44
262.86	1658.85
263.08	1779.68
263.30	1595.37
263.51	1554.41
263.73	1656.81
263.95	1810.40
264.16	1673.19
264.38	1765.35
264.60	1701.86
264.81	1624.04
265.03	1697.77
265.25	1705.96
265.46	1699.81
265.68	1720.29
265.89	1802.21
266.11	1546.22
266.33	1736.68
266.54	1726.44
266.76	1705.96
266.98	1763.30
267.19	1865.70
267.41	1710.05
267.62	1775.59
267.84	1632.23
268.06	1724.39
268.27	1683.43
268.49	1716.20
268.70	1771.49
268.92	1708.01
269.14	1734.63
269.35	1597.42
269.57	1724.39
269.79	1716.20
270.00	1683.43
270.22	1863.65
270.43	1689.57
270.65	1533.93
270.87	1624.04
271.08	1693.67
271.30	1771.49
271.51	1671.14
271.73	1783.78
271.95	1855.46
272.16	1730.53
272.38	1673.19
272.59	1656.81
272.81	1726.44
273.02	1722.34
273.24	1730.53
273.46	1796.07
273.67	1613.80
273.89	1712.10
274.10	1685.48
274.32	1781.73
274.54	1718.25
274.75	1701.86
274.97	1671.14
275.18	1740.77
275.40	1757.16
275.61	1681.38
275.83	1724.39
276.05	1712.10
276.26	1691.62
276.48	1734.63
276.69	1607.66
276.91	1710.05
277.12	1738.73
277.34	1679.33
277.55	1746.92
277.77	1724.39
277.99	1755.11
278.20	1611.75
278.42	1689.57
278.63	1703.91
278.85	1642.47
279.06	1632.23
279.28	1656.81
279.49	1738.73
279.71	1761.25
279.93	1652.71
280.14	1705.96
280.36	1701.86
280.57	1632.23
280.79	1777.64
281.00	1619.94
281.22	1705.96
281.43	1718.25
281.65	1587.18
281.86	1730.53
282.08	1689.57
282.29	1853.41
282.51	1640.42
282.73	1716.20
282.94	1599.46
283.16	1677.29
283.37	1804.26
283.59	1660.90
283.80	1734.63
284.02	1726.44
284.23	1724.39
284.45	1658.85
284.66	1648.61
284.88	1755.11
285.09	1660.90
285.31	1779.68
285.52	1800.16
285.74	1669.09
285.95	1726.44
286.17	1667.05
286.38	1769.44
286.60	1660.90
286.81	1626.09
287.03	1718.25
287.24	1603.56
287.46	1773.54
287.67	1744.87
287.89	1832.93
288.10	1705.96
288.32	1656.81
288.53	1769.44
288.75	1742.82
288.96	1701.86
289.18	1697.77
289.39	1718.25
289.61	1761.25
289.82	1767.40
290.04	1714.15
290.25	1601.51
290.47	1691.62
290.68	1658.85
290.90	1730.53
291.11	1585.13
291.33	1665.00
291.54	1660.90
291.76	1701.86
291.97	1742.82
292.18	1722.34
292.40	1667.05
292.61	1677.29
292.83	1869.80
293.04	1753.06
293.26	1667.05
293.47	1673.19
293.69	1679.33
293.90	1734.63
294.12	1767.40
294.33	1736.68
294.55	1593.32
294.76	1714.15
294.97	1765.35
295.19	1816.55
295.40	1732.58
295.62	1775.59
295.83	1763.30
296.05	1603.56
296.26	1845.22
296.48	1583.08
296.69	1630.18
296.90	1669.09
297.12	1785.83
297.33	1751.01
297.55	1685.48
297.76	1728.49
297.98	1748.97
298.19	1720.29
298.41	1691.62
298.62	1605.61
298.83	1687.53
299.05	1753.06
299.26	1687.53
299.48	1658.85
299.69	1658.85
299.90	1714.15
300.12	1665.00
300.33	1738.73
300.55	1656.81
300.76	1757.16
300.98	1642.47
301.19	1695.72
301.40	1746.92
301.62	1734.63
301.83	1632.23
302.05	1669.09
302.26	1638.38
302.47	1685.48
302.69	1738.73
302.90	1779.68
303.12	1527.78
303.33	1699.81
303.54	1753.06
303.76	1726.44
303.97	1617.90
304.19	1732.58
304.40	1644.52
304.61	1744.87
304.83	1804.26
305.04	1804.26
305.26	1691.62
305.47	1658.85
305.68	1619.94
305.90	1716.20
306.11	1675.24
306.33	1689.57
306.54	1710.05
306.75	1550.31
306.97	1644.52
307.18	1662.95
307.39	1693.67
307.61	1765.35
307.82	1726.44
308.04	1755.11
308.25	1572.84
308.46	1701.86
308.68	1642.47
308.89	1763.30
309.10	1736.68
309.32	1753.06
309.53	1638.38
309.74	1732.58
309.96	1712.10
310.17	1740.77
310.39	1667.05
310.60	1753.06
310.81	1656.81
311.03	1640.42
311.24	1726.44
311.45	1751.01
311.67	1857.51
311.88	1773.54
312.09	1703.91
312.31	1681.38
312.52	1648.61
312.73	1701.86
312.95	1628.14
313.16	1695.72
313.37	1708.01
313.59	1710.05
313.80	1771.49
314.01	1724.39
314.23	1665.00
314.44	1710.05
314.65	1638.38
314.87	1656.81
315.08	1658.85
315.29	1699.81
315.51	1597.42
315.72	1636.33
315.93	1785.83
316.15	1773.54
316.36	1681.38
316.57	1691.62
316.79	1724.39
317.00	1673.19
317.21	1740.77
317.43	1628.14
317.64	1642.47
317.85	1685.48
318.07	1660.90
318.28	1789.92
318.49	1751.01
318.70	1832.93
318.92	1828.84
319.13	1785.83
319.34	1839.08
319.56	1753.06
319.77	1775.59
319.98	1744.87
320.20	1767.40
320.41	1755.11
320.62	1722.34
320.83	1712.10
321.05	1859.56
321.26	1687.53
321.47	1695.72
321.69	1826.79
321.90	1656.81
322.11	1695.72
322.32	1726.44
322.54	1748.97
322.75	1679.33
322.96	1759.21
323.18	1660.90
323.39	1597.42
323.60	1648.61
323.81	1773.54
324.03	1632.23
324.24	1732.58
324.45	1646.57
324.66	1683.43
324.88	1755.11
325.09	1740.77
325.30	1675.24
325.52	1777.64
325.73	1640.42
325.94	1640.42
326.15	1652.71
326.37	1650.66
326.58	1734.63
326.79	1775.59
327.00	1654.76
327.22	1724.39
327.43	1662.95
327.64	1587.18
327.85	1759.21
328.07	1703.91
328.28	1736.68
328.49	1648.61
328.70	1626.09
328.92	1718.25
329.13	1734.63
329.34	1742.82
329.55	1705.96
329.76	1728.49
329.98	1617.90
330.19	1828.84
330.40	1740.77
330.61	1718.25
330.83	1751.01
331.04	1685.48
331.25	1703.91
331.46	1714.15
331.68	1644.52
331.89	1798.12
332.10	1742.82
332.31	1630.18
332.52	1701.86
332.74	1798.12
332.95	1689.57
333.16	1609.70
333.37	1724.39
333.58	1683.43
333.80	1658.85
334.01	1581.03
334.22	1736.68
334.43	1697.77
334.64	1742.82
334.86	1546.22
335.07	1640.42
335.28	1753.06
335.49	1667.05
335.70	1718.25
335.92	1783.78
336.13	1800.16
336.34	1800.16
336.55	1779.68
336.76	1710.05
336.98	1615.85
337.19	1683.43
337.40	1845.22
337.61	1820.64
337.82	1636.33
338.04	1720.29
338.25	1646.57
338.46	1734.63
338.67	1597.42
338.88	1648.61
339.09	1626.09
339.31	1726.44
339.52	1675.24
339.73	1617.90
339.94	1669.09
340.15	1718.25
340.36	1722.34
340.58	1681.38
340.79	1683.43
341.00	1757.16
341.21	1673.19
341.42	1685.48
341.63	1744.87
341.85	1703.91
342.06	1738.73
342.27	1626.09
342.48	1771.49
342.69	1578.98
342.90	1685.48
343.12	1734.63
343.33	1701.86
343.54	1740.77
343.75	1785.83
343.96	1716.20
344.17	1626.09
344.38	1671.14
344.60	1621.99
344.81	1685.48
345.02	1699.81
345.23	1773.54
345.44	1724.39
345.65	1697.77
345.86	1746.92
346.07	1779.68
346.29	1609.70
346.50	1802.21
346.71	1755.11
346.92	1701.86
347.13	1794.02
347.34	1634.28
347.55	1716.20
347.76	1697.77
347.98	1656.81
348.19	1652.71
348.40	1714.15
348.61	1773.54
348.82	1830.88
349.03	1730.53
349.24	1624.04
349.45	1826.79
349.66	1640.42
349.88	1632.23
350.09	1648.61
350.30	1681.38
350.51	1736.68
350.72	1703.91
350.93	1718.25
351.14	1679.33
351.35	1746.92
351.56	1732.58
351.77	1656.81
351.99	1718.25
352.20	1779.68
352.41	1705.96
352.62	1578.98
352.83	1677.29
353.04	1744.87
353.25	1730.53
353.46	1818.60
353.67	1718.25
353.88	1650.66
354.09	1669.09
354.30	1779.68
354.52	1669.09
354.73	1689.57
354.94	1619.94
355.15	1654.76
355.36	1791.97
355.57	1630.18
355.78	1738.73
355.99	1624.04
356.20	1619.94
356.41	1812.45
356.62	1705.96
356.83	1705.96
357.04	1746.92
357.25	1593.32
357.46	1703.91
357.68	1558.50
357.89	1677.29
358.10	1673.19
358.31	1654.76
358.52	1654.76
358.73	1660.90
358.94	1656.81
359.15	1673.19
359.36	1665.00
359.57	1705.96
359.78	1636.33
359.99	1724.39
360.20	1665.00
360.41	1710.05
360.62	1689.57
360.83	1718.25
361.04	1734.63
361.25	1736.68
361.46	1804.26
361.67	1712.10
361.88	1771.49
362.09	1775.59
362.30	1755.11
362.51	1648.61
362.72	1720.29
362.93	1767.40
363.14	1736.68
363.35	1722.34
363.56	1613.80
363.78	1808.36
363.99	1708.01
364.20	1697.77
364.41	1714.15
364.62	1755.11
364.83	1816.55
365.04	1703.91
365.25	1685.48
365.46	1808.36
365.67	1624.04
365.88	1634.28
366.09	1656.81
366.30	1679.33
366.51	1710.05
366.72	1675.24
366.93	1697.77
367.14	1705.96
367.35	1781.73
367.56	1687.53
367.77	1802.21
367.98	1738.73
368.18	1720.29
368.39	1765.35
368.60	1673.19
368.81	1751.01
369.02	1738.73
369.23	1730.53
369.44	1638.38
369.65	1687.53
369.86	1687.53
370.07	1755.11
370.28	1669.09
370.49	1718.25
370.70	1726.44
370.91	1640.42
371.12	1646.57
371.33	1681.38
371.54	1617.90
371.75	1818.60
371.96	1607.66
372.17	1697.77
372.38	1656.81
372.59	1787.88
372.80	1652.71
373.01	1689.57
373.22	1730.53
373.43	1728.49
373.64	1697.77
373.85	1679.33
374.06	1822.69
374.26	1708.01
374.47	1718.25
374.68	1777.64
374.89	1656.81
375.10	1693.67
375.31	1748.97
375.52	1710.05
375.73	1701.86
375.94	1605.61
376.15	1779.68
376.36	1703.91
376.57	1738.73
376.78	1697.77
376.99	1705.96
377.20	1742.82
377.40	1634.28
377.61	1877.99
377.82	1636.33
378.03	1769.44
378.24	1740.77
378.45	1673.19
378.66	1755.11
378.87	1572.84
379.08	1574.89
379.29	1693.67
379.50	1699.81
379.71	1746.92
379.91	1800.16
380.12	1697.77
380.33	1724.39
380.54	1677.29
380.75	1757.16
380.96	1744.87
381.17	1718.25
381.38	1701.86
381.59	1728.49
381.80	1714.15
382.00	1847.27
382.21	1710.05
382.42	1808.36
382.63	1941.47
382.84	1773.54
383.05	1746.92
383.26	1804.26
383.47	1662.95
383.68	1732.58
383.88	1699.81
384.09	1791.97
384.30	1798.12
384.51	1687.53
384.72	1697.77
384.93	1712.10
385.14	1701.86
385.35	1765.35
385.55	1654.76
385.76	1834.98
385.97	1681.38
386.18	1714.15
386.39	1705.96
386.60	1689.57
386.81	1718.25
387.02	1701.86
387.22	1652.71
387.43	1800.16
387.64	1814.50
387.85	1867.75
388.06	2277.34
388.27	4310.97
388.48	6938.52
388.68	8404.86
388.89	9867.11
389.10	10004.33
389.31	8884.09
389.52	7862.15
389.73	6903.70
389.93	6358.94
390.14	5947.30
390.35	5285.81
390.56	4784.06
390.77	3815.37
390.98	3151.82
391.18	2519.00
391.39	2086.88
391.60	1845.22
391.81	1802.21
392.02	1746.92
392.23	1800.16
392.43	1730.53
392.64	1847.27
392.85	1732.58
393.06	1791.97
393.27	1677.29
393.47	1636.33
393.68	1759.21
393.89	1710.05
394.10	1726.44
394.31	1693.67
394.52	1638.38
394.72	1615.85
394.93	1771.49
395.14	1685.48
395.35	1759.21
395.56	1691.62
395.76	1755.11
395.97	1775.59
396.18	1798.12
396.39	1826.79
396.60	2039.78
396.80	1834.98
397.01	1832.93
397.22	1898.47
397.43	1810.40
397.64	1718.25
397.84	1834.98
398.05	1751.01
398.26	1771.49
398.47	1746.92
398.67	1826.79
398.88	1687.53
399.09	1828.84
399.30	1605.61
399.51	1765.35
399.71	1726.44
399.92	1665.00
400.13	1751.01
400.34	1677.29
400.54	1714.15
400.75	1787.88
400.96	1732.58
401.17	1759.21
401.37	1726.44
401.58	1708.01
401.79	1734.63
402.00	1935.33
402.21	2013.15
402.41	1871.84
402.62	1957.86
402.83	1982.43
403.04	1986.53
403.24	2060.26
403.45	1865.70
403.66	1968.10
403.87	1912.80
404.07	1939.43
404.28	1912.80
404.49	1886.18
404.70	1802.21
404.90	1755.11
405.11	1761.25
405.32	1710.05
405.52	1691.62
405.73	1693.67
405.94	1689.57
406.15	1708.01
406.35	1763.30
406.56	1800.16
406.77	1720.29
406.98	1722.34
407.18	1671.14
407.39	1787.88
407.60	1722.34
407.80	1777.64
408.01	1722.34
408.22	1732.58
408.43	1689.57
408.63	1693.67
408.84	1806.31
409.05	1693.67
409.25	1636.33
409.46	1679.33
409.67	1677.29
409.88	1632.23
410.08	1748.97
410.29	1634.28
410.50	1718.25
410.70	1779.68
410.91	1626.09
411.12	1822.69
411.32	1691.62
411.53	1636.33
411.74	1826.79
411.95	1722.34
412.15	1785.83
412.36	1802.21
412.57	1740.77
412.77	1798.12
412.98	1644.52
413.19	1740.77
413.39	1814.50
413.60	1742.82
413.81	1875.94
414.01	1583.08
414.22	1724.39
414.43	1742.82
414.63	1718.25
414.84	1773.54
415.05	1703.91
415.25	1728.49
415.46	1763.30
415.67	1619.94
415.87	1738.73
416.08	1714.15
416.29	1673.19
416.49	1726.44
416.70	1710.05
416.91	1640.42
417.11	1734.63
417.32	1718.25
417.53	1738.73
417.73	1671.14
417.94	1744.87
418.15	1802.21
418.35	1695.72
418.56	1689.57
418.77	1798.12
418.97	1726.44
419.18	1689.57
419.38	1628.14
419.59	1671.14
419.80	1785.83
420.00	1705.96
420.21	1708.01
420.42	1746.92
420.62	1757.16
420.83	1689.57
421.04	1681.38
421.24	1710.05
421.45	1726.44
421.65	1757.16
421.86	1652.71
422.07	1701.86
422.27	1665.00
422.48	1701.86
422.69	1632.23
422.89	1736.68
423.10	1642.47
423.30	1662.95
423.51	1714.15
423.72	1718.25
423.92	1728.49
424.13	1630.18
424.33	1679.33
424.54	1730.53
424.75	1787.88
424.95	1830.88
425.16	1755.11
425.36	1630.18
425.57	1800.16
425.78	1763.30
425.98	1828.84
426.19	1708.01
426.39	1621.99
426.60	1703.91
426.81	1757.16
427.01	1697.77
427.22	1667.05
427.42	1574.89
427.63	1669.09
427.83	1775.59
428.04	1806.31
428.25	1701.86
428.45	1841.12
428.66	1812.45
428.86	1628.14
429.07	1683.43
429.28	1802.21
429.48	1640.42
429.69	1671.14
429.89	1689.57
430.10	1683.43
430.30	1681.38
430.51	1765.35
430.71	1658.85
430.92	1771.49
431.13	1695.72
431.33	1669.09
431.54	1705.96
431.74	1800.16
431.95	1828.84
432.15	1595.37
432.36	1652.71
432.56	1644.52
432.77	1880.04
432.98	1806.31
433.18	1667.05
433.39	1689.57
433.59	1748.97
433.80	1853.41
434.00	1890.28
434.21	1652.71
434.41	1652.71
434.62	1894.37
434.82	1626.09
435.03	1673.19
435.23	1673.19
435.44	1593.32
435.64	1708.01
435.85	1785.83
436.06	1775.59
436.26	1722.34
436.47	1693.67
436.67	1724.39
436.88	1757.16
437.08	1734.63
437.29	1863.65
437.49	1683.43
437.70	1810.40
437.90	1742.82
438.11	1925.09
438.31	1714.15
438.52	1849.32
438.72	1847.27
438.93	1935.33
439.13	1800.16
439.34	1755.11
439.54	1726.44
439.75	1890.28
439.95	1822.69
440.16	1724.39
440.36	1697.77
440.57	1769.44
440.77	1779.68
440.98	1744.87
441.18	1738.73
441.39	1689.57
441.59	1677.29
441.80	1816.55
442.00	1775.59
442.21	1894.37
442.41	1665.00
442.62	1753.06
442.82	1781.73
443.02	1779.68
443.23	1738.73
443.43	1710.05
443.64	1787.88
443.84	1667.05
444.05	1726.44
444.25	1732.58
444.46	1724.39
444.66	1746.92
444.87	1812.45
445.07	1695.72
445.28	1765.35
445.48	1802.21
445.69	1787.88
445.89	1851.36
446.09	1808.36
446.30	2004.96
446.50	2633.69
446.71	3672.01
446.91	4485.05
447.12	4859.83
447.32	4870.07
447.53	4353.98
447.73	3862.47
447.93	3659.72
448.14	3397.58
448.34	3237.84
448.55	2906.07
448.75	2869.20
448.96	2676.70
449.16	2463.71
449.36	2303.96
449.57	2056.16
449.77	1964.00
449.98	1775.59
450.18	1804.26
450.39	1812.45
450.59	1740.77
450.79	1710.05
451.00	1642.47
451.20	1748.97
451.41	1796.07
451.61	1804.26
451.81	1787.88
452.02	1679.33
452.22	1669.09
452.43	1738.73
452.63	1673.19
