SpectraSuite Data File
++++++++++++++++++++++++++++++++++++
Date: Mon Jun 06 15:24:17 CEST 2016
User: root
Dark Spectrum Present: No
Reference Spectrum Present: No
Number of Sampled Component Spectra: 1
Spectrometers: USB4C02835
Integration Time (usec): 100000 (USB4C02835)
Spectra Averaged: 1 (USB4C02835)
Boxcar Smoothing: 0 (USB4C02835)
Correct for Electrical Dark: No (USB4C02835)
Strobe/Lamp Enabled: No (USB4C02835)
Correct for Detector Non-linearity: No (USB4C02835)
Correct for Stray Light: No (USB4C02835)
Number of Pixels in Processed Spectrum: 3648
>>>>>Begin Processed Spectral Data<<<<<
177.47	1472.49
177.69	1472.49
177.91	1472.49
178.13	1445.87
178.36	1503.21
178.58	1658.85
178.80	1730.53
179.02	1607.66
179.24	1656.81
179.46	1730.53
179.68	1744.87
179.90	1742.82
180.13	1761.25
180.35	1712.10
180.57	1695.72
180.79	1734.63
181.01	1699.81
181.23	1697.77
181.45	1761.25
181.67	1669.09
181.90	1775.59
182.12	1722.34
182.34	1628.14
182.56	1798.12
182.78	1675.24
183.00	1667.05
183.22	1740.77
183.44	1636.33
183.66	1914.85
183.89	1732.58
184.11	1732.58
184.33	1773.54
184.55	1794.02
184.77	1753.06
184.99	1693.67
185.21	1669.09
185.43	1816.55
185.65	1669.09
185.87	1742.82
186.10	1814.50
186.32	1902.56
186.54	1728.49
186.76	1683.43
186.98	1726.44
187.20	1638.38
187.42	1728.49
187.64	1742.82
187.86	1695.72
188.08	1787.88
188.30	1689.57
188.52	1714.15
188.75	1783.78
188.97	1806.31
189.19	1675.24
189.41	1656.81
189.63	1751.01
189.85	1751.01
190.07	1638.38
190.29	1626.09
190.51	1740.77
190.73	1624.04
190.95	1769.44
191.17	1763.30
191.39	1662.95
191.61	1679.33
191.84	1652.71
192.06	1755.11
192.28	1652.71
192.50	1910.75
192.72	1761.25
192.94	1681.38
193.16	1742.82
193.38	1732.58
193.60	1726.44
193.82	1648.61
194.04	1816.55
194.26	1701.86
194.48	1753.06
194.70	1761.25
194.92	1742.82
195.14	1703.91
195.36	1656.81
195.58	1703.91
195.80	1640.42
196.02	1685.48
196.24	1675.24
196.46	1718.25
196.69	1689.57
196.91	1875.94
197.13	1736.68
197.35	1667.05
197.57	1816.55
197.79	1736.68
198.01	1742.82
198.23	1751.01
198.45	1769.44
198.67	1640.42
198.89	1677.29
199.11	1757.16
199.33	1697.77
199.55	1564.65
199.77	1763.30
199.99	1736.68
200.21	1642.47
200.43	1759.21
200.65	1673.19
200.87	1566.70
201.09	1607.66
201.31	1746.92
201.53	1755.11
201.75	1701.86
201.97	1718.25
202.19	1718.25
202.41	1755.11
202.63	1875.94
202.85	1708.01
203.07	1703.91
203.29	1757.16
203.51	1626.09
203.73	1685.48
203.95	1880.04
204.17	1705.96
204.39	1697.77
204.61	1732.58
204.83	1767.40
205.05	1742.82
205.27	1693.67
205.49	1916.90
205.71	1718.25
205.93	1605.61
206.15	1673.19
206.37	1724.39
206.59	1689.57
206.81	1656.81
207.03	1673.19
207.25	1642.47
207.47	1740.77
207.69	1681.38
207.91	1779.68
208.13	1783.78
208.34	1667.05
208.56	1755.11
208.78	1808.36
209.00	1615.85
209.22	1755.11
209.44	1761.25
209.66	1607.66
209.88	1748.97
210.10	1722.34
210.32	1763.30
210.54	1757.16
210.76	1642.47
210.98	1769.44
211.20	1560.55
211.42	1736.68
211.64	1740.77
211.86	1714.15
212.08	1693.67
212.30	1736.68
212.52	1687.53
212.74	1732.58
212.96	1736.68
213.17	1742.82
213.39	1712.10
213.61	1824.74
213.83	1748.97
214.05	1675.24
214.27	1759.21
214.49	1654.76
214.71	1710.05
214.93	1849.32
215.15	1712.10
215.37	1763.30
215.59	1697.77
215.81	1732.58
216.03	1767.40
216.24	1720.29
216.46	1705.96
216.68	1767.40
216.90	1697.77
217.12	1757.16
217.34	1697.77
217.56	1767.40
217.78	1771.49
218.00	1681.38
218.22	1720.29
218.44	1730.53
218.66	1718.25
218.87	1834.98
219.09	1728.49
219.31	1722.34
219.53	1705.96
219.75	1697.77
219.97	1748.97
220.19	1679.33
220.41	1724.39
220.63	1785.83
220.85	1675.24
221.06	1722.34
221.28	1810.40
221.50	1728.49
221.72	1636.33
221.94	1708.01
222.16	1693.67
222.38	1777.64
222.60	1763.30
222.82	1671.14
223.03	1671.14
223.25	1665.00
223.47	1845.22
223.69	1824.74
223.91	1665.00
224.13	1710.05
224.35	1746.92
224.57	1785.83
224.78	1746.92
225.00	1595.37
225.22	1767.40
225.44	1656.81
225.66	1771.49
225.88	1744.87
226.10	1785.83
226.32	1722.34
226.53	1843.17
226.75	1648.61
226.97	1701.86
227.19	1697.77
227.41	1691.62
227.63	1613.80
227.85	1617.90
228.06	1710.05
228.28	1742.82
228.50	1806.31
228.72	1697.77
228.94	1734.63
229.16	1652.71
229.37	1673.19
229.59	1701.86
229.81	1914.85
230.03	1609.70
230.25	1652.71
230.47	1677.29
230.69	1705.96
230.90	1744.87
231.12	1677.29
231.34	1785.83
231.56	1783.78
231.78	1665.00
232.00	1714.15
232.21	1695.72
232.43	1636.33
232.65	1583.08
232.87	1697.77
233.09	1699.81
233.30	1589.22
233.52	1785.83
233.74	1708.01
233.96	1712.10
234.18	1695.72
234.40	1681.38
234.61	1849.32
234.83	1697.77
235.05	1589.22
235.27	1851.36
235.49	1783.78
235.70	1767.40
235.92	1806.31
236.14	1767.40
236.36	1880.04
236.58	1662.95
236.79	1761.25
237.01	1660.90
237.23	1705.96
237.45	1880.04
237.67	1656.81
237.88	1720.29
238.10	1869.80
238.32	1708.01
238.54	1751.01
238.76	1718.25
238.97	1691.62
239.19	1630.18
239.41	1742.82
239.63	1669.09
239.85	1611.75
240.06	1685.48
240.28	1673.19
240.50	1800.16
240.72	1675.24
240.93	1681.38
241.15	1771.49
241.37	1669.09
241.59	1779.68
241.81	1685.48
242.02	1693.67
242.24	1755.11
242.46	1755.11
242.68	1593.32
242.89	1755.11
243.11	1763.30
243.33	1738.73
243.55	1673.19
243.76	1761.25
243.98	1695.72
244.20	1660.90
244.42	1722.34
244.64	1720.29
244.85	1718.25
245.07	1589.22
245.29	1701.86
245.51	1705.96
245.72	1650.66
245.94	1701.86
246.16	1712.10
246.38	1824.74
246.59	1662.95
246.81	1613.80
247.03	1669.09
247.24	1626.09
247.46	1677.29
247.68	1699.81
247.90	1708.01
248.11	1691.62
248.33	1791.97
248.55	1681.38
248.77	1718.25
248.98	1789.92
249.20	1886.18
249.42	1769.44
249.64	1787.88
249.85	1722.34
250.07	1701.86
250.29	1720.29
250.50	1738.73
250.72	1601.51
250.94	1673.19
251.16	1816.55
251.37	1796.07
251.59	1800.16
251.81	1730.53
252.02	1718.25
252.24	1628.14
252.46	1783.78
252.68	1589.22
252.89	1761.25
253.11	1624.04
253.33	1845.22
253.54	1812.45
253.76	1656.81
253.98	1648.61
254.20	1595.37
254.41	1609.70
254.63	1660.90
254.85	1632.23
255.06	1697.77
255.28	1787.88
255.50	1779.68
255.71	1736.68
255.93	1669.09
256.15	1718.25
256.36	1787.88
256.58	1742.82
256.80	1740.77
257.02	1687.53
257.23	1673.19
257.45	1775.59
257.67	1802.21
257.88	1734.63
258.10	1714.15
258.32	1734.63
258.53	1714.15
258.75	1806.31
258.97	1667.05
259.18	1757.16
259.40	1687.53
259.62	1789.92
259.83	1732.58
260.05	1732.58
260.27	1968.10
260.48	1779.68
260.70	1669.09
260.92	1730.53
261.13	1822.69
261.35	1619.94
261.57	1697.77
261.78	1595.37
262.00	1673.19
262.22	1781.73
262.43	1734.63
262.65	1714.15
262.86	1746.92
263.08	1841.12
263.30	1837.03
263.51	1658.85
263.73	1607.66
263.95	1777.64
264.16	1652.71
264.38	1566.70
264.60	1771.49
264.81	1714.15
265.03	1771.49
265.25	1751.01
265.46	1691.62
265.68	1742.82
265.89	1802.21
266.11	1626.09
266.33	1744.87
266.54	1785.83
266.76	1722.34
266.98	1742.82
267.19	1714.15
267.41	1765.35
267.62	1714.15
267.84	1687.53
268.06	1720.29
268.27	1730.53
268.49	1824.74
268.70	1794.02
268.92	1708.01
269.14	1642.47
269.35	1595.37
269.57	1732.58
269.79	1800.16
270.00	1742.82
270.22	1777.64
270.43	1669.09
270.65	1599.46
270.87	1705.96
271.08	1779.68
271.30	1771.49
271.51	1740.77
271.73	1759.21
271.95	1798.12
272.16	1703.91
272.38	1699.81
272.59	1699.81
272.81	1701.86
273.02	1734.63
273.24	1796.07
273.46	1751.01
273.67	1652.71
273.89	1699.81
274.10	1656.81
274.32	1794.02
274.54	1677.29
274.75	1699.81
274.97	1677.29
275.18	1789.92
275.40	1718.25
275.61	1697.77
275.83	1685.48
276.05	1617.90
276.26	1712.10
276.48	1746.92
276.69	1726.44
276.91	1634.28
277.12	1755.11
277.34	1757.16
277.55	1718.25
277.77	1730.53
277.99	1658.85
278.20	1595.37
278.42	1636.33
278.63	1658.85
278.85	1722.34
279.06	1654.76
279.28	1816.55
279.49	1757.16
279.71	1691.62
279.93	1726.44
280.14	1681.38
280.36	1671.14
280.57	1744.87
280.79	1751.01
281.00	1607.66
281.22	1691.62
281.43	1765.35
281.65	1560.55
281.86	1624.04
282.08	1765.35
282.29	1863.65
282.51	1556.46
282.73	1669.09
282.94	1605.61
283.16	1720.29
283.37	1777.64
283.59	1738.73
283.80	1775.59
284.02	1679.33
284.23	1759.21
284.45	1697.77
284.66	1632.23
284.88	1673.19
285.09	1730.53
285.31	1740.77
285.52	1767.40
285.74	1667.05
285.95	1751.01
286.17	1791.97
286.38	1810.40
286.60	1607.66
286.81	1654.76
287.03	1732.58
287.24	1644.52
287.46	1722.34
287.67	1695.72
287.89	1834.98
288.10	1771.49
288.32	1798.12
288.53	1855.46
288.75	1763.30
288.96	1802.21
289.18	1712.10
289.39	1746.92
289.61	1722.34
289.82	1851.36
290.04	1851.36
290.25	1675.24
290.47	1710.05
290.68	1691.62
290.90	1746.92
291.11	1630.18
291.33	1779.68
291.54	1609.70
291.76	1624.04
291.97	1746.92
292.18	1773.54
292.40	1654.76
292.61	1628.14
292.83	1880.04
293.04	1660.90
293.26	1740.77
293.47	1677.29
293.69	1656.81
293.90	1603.56
294.12	1779.68
294.33	1765.35
294.55	1699.81
294.76	1724.39
294.97	1746.92
295.19	1814.50
295.40	1644.52
295.62	1775.59
295.83	1800.16
296.05	1701.86
296.26	1765.35
296.48	1705.96
296.69	1679.33
296.90	1730.53
297.12	1753.06
297.33	1763.30
297.55	1667.05
297.76	1710.05
297.98	1804.26
298.19	1689.57
298.41	1677.29
298.62	1642.47
298.83	1771.49
299.05	1699.81
299.26	1615.85
299.48	1697.77
299.69	1701.86
299.90	1665.00
300.12	1644.52
300.33	1705.96
300.55	1648.61
300.76	1673.19
300.98	1642.47
301.19	1714.15
301.40	1679.33
301.62	1691.62
301.83	1714.15
302.05	1744.87
302.26	1716.20
302.47	1656.81
302.69	1677.29
302.90	1681.38
303.12	1650.66
303.33	1740.77
303.54	1806.31
303.76	1742.82
303.97	1705.96
304.19	1791.97
304.40	1617.90
304.61	1634.28
304.83	1728.49
305.04	1701.86
305.26	1669.09
305.47	1667.05
305.68	1710.05
305.90	1689.57
306.11	1808.36
306.33	1683.43
306.54	1693.67
306.75	1705.96
306.97	1619.94
307.18	1681.38
307.39	1695.72
307.61	1724.39
307.82	1718.25
308.04	1718.25
308.25	1710.05
308.46	1636.33
308.68	1742.82
308.89	1697.77
309.10	1798.12
309.32	1697.77
309.53	1757.16
309.74	1787.88
309.96	1669.09
310.17	1851.36
310.39	1624.04
310.60	1775.59
310.81	1740.77
311.03	1662.95
311.24	1753.06
311.45	1761.25
311.67	1812.45
311.88	1693.67
312.09	1703.91
312.31	1619.94
312.52	1669.09
312.73	1609.70
312.95	1683.43
313.16	1642.47
313.37	1796.07
313.59	1783.78
313.80	1726.44
314.01	1724.39
314.23	1660.90
314.44	1730.53
314.65	1591.27
314.87	1658.85
315.08	1652.71
315.29	1628.14
315.51	1665.00
315.72	1658.85
315.93	1847.27
316.15	1767.40
316.36	1671.14
316.57	1705.96
316.79	1677.29
317.00	1642.47
317.21	1751.01
317.43	1677.29
317.64	1767.40
317.85	1642.47
318.07	1703.91
318.28	1751.01
318.49	1820.64
318.70	1875.94
318.92	1845.22
319.13	1714.15
319.34	1884.13
319.56	1839.08
319.77	1791.97
319.98	1759.21
320.20	1824.74
320.41	1730.53
320.62	1773.54
320.83	1646.57
321.05	1798.12
321.26	1712.10
321.47	1665.00
321.69	1804.26
321.90	1644.52
322.11	1681.38
322.32	1712.10
322.54	1746.92
322.75	1730.53
322.96	1787.88
323.18	1621.99
323.39	1595.37
323.60	1714.15
323.81	1816.55
324.03	1722.34
324.24	1683.43
324.45	1718.25
324.66	1691.62
324.88	1787.88
325.09	1843.17
325.30	1689.57
325.52	1753.06
325.73	1703.91
325.94	1714.15
326.15	1568.74
326.37	1781.73
326.58	1779.68
326.79	1765.35
327.00	1648.61
327.22	1726.44
327.43	1734.63
327.64	1656.81
327.85	1746.92
328.07	1767.40
328.28	1769.44
328.49	1777.64
328.70	1761.25
328.92	1683.43
329.13	1716.20
329.34	1705.96
329.55	1851.36
329.76	1710.05
329.98	1759.21
330.19	1814.50
330.40	1765.35
330.61	1646.57
330.83	1687.53
331.04	1646.57
331.25	1800.16
331.46	1634.28
331.68	1615.85
331.89	1726.44
332.10	1742.82
332.31	1691.62
332.52	1718.25
332.74	1814.50
332.95	1613.80
333.16	1724.39
333.37	1722.34
333.58	1589.22
333.80	1738.73
334.01	1732.58
334.22	1681.38
334.43	1714.15
334.64	1697.77
334.86	1648.61
335.07	1628.14
335.28	1820.64
335.49	1685.48
335.70	1710.05
335.92	1726.44
336.13	1880.04
336.34	1722.34
336.55	1779.68
336.76	1759.21
336.98	1581.03
337.19	1687.53
337.40	1796.07
337.61	1875.94
337.82	1705.96
338.04	1849.32
338.25	1642.47
338.46	1665.00
338.67	1665.00
338.88	1638.38
339.09	1630.18
339.31	1638.38
339.52	1609.70
339.73	1660.90
339.94	1697.77
340.15	1783.78
340.36	1687.53
340.58	1703.91
340.79	1671.14
341.00	1691.62
341.21	1658.85
341.42	1828.84
341.63	1730.53
341.85	1732.58
342.06	1724.39
342.27	1626.09
342.48	1722.34
342.69	1683.43
342.90	1761.25
343.12	1789.92
343.33	1662.95
343.54	1767.40
343.75	1808.36
343.96	1589.22
344.17	1722.34
344.38	1742.82
344.60	1626.09
344.81	1628.14
345.02	1699.81
345.23	1755.11
345.44	1775.59
345.65	1798.12
345.86	1785.83
346.07	1660.90
346.29	1652.71
346.50	1728.49
346.71	1800.16
346.92	1720.29
347.13	1904.61
347.34	1816.55
347.55	1660.90
347.76	1671.14
347.98	1581.03
348.19	1738.73
348.40	1769.44
348.61	1658.85
348.82	1714.15
349.03	1681.38
349.24	1630.18
349.45	1847.27
349.66	1601.51
349.88	1701.86
350.09	1667.05
350.30	1808.36
350.51	1775.59
350.72	1693.67
350.93	1781.73
351.14	1748.97
351.35	1736.68
351.56	1640.42
351.77	1732.58
351.99	1736.68
352.20	1810.40
352.41	1748.97
352.62	1599.46
352.83	1638.38
353.04	1701.86
353.25	1716.20
353.46	1783.78
353.67	1699.81
353.88	1595.37
354.09	1665.00
354.30	1744.87
354.52	1748.97
354.73	1710.05
354.94	1673.19
355.15	1726.44
355.36	1771.49
355.57	1665.00
355.78	1777.64
355.99	1705.96
356.20	1619.94
356.41	1875.94
356.62	1720.29
356.83	1791.97
357.04	1826.79
357.25	1652.71
357.46	1648.61
357.68	1621.99
357.89	1617.90
358.10	1736.68
358.31	1740.77
358.52	1681.38
358.73	1626.09
358.94	1714.15
359.15	1646.57
359.36	1722.34
359.57	1679.33
359.78	1804.26
359.99	1734.63
360.20	1634.28
360.41	1695.72
360.62	1744.87
360.83	1712.10
361.04	1652.71
361.25	1816.55
361.46	1861.60
361.67	1703.91
361.88	1746.92
362.09	1746.92
362.30	1736.68
362.51	1685.48
362.72	1718.25
362.93	1796.07
363.14	1775.59
363.35	1710.05
363.56	1695.72
363.78	1787.88
363.99	1775.59
364.20	1679.33
364.41	1701.86
364.62	1759.21
364.83	1714.15
365.04	1722.34
365.25	1642.47
365.46	1775.59
365.67	1669.09
365.88	1669.09
366.09	1687.53
366.30	1667.05
366.51	1728.49
366.72	1634.28
366.93	1681.38
367.14	1724.39
367.35	1834.98
367.56	1777.64
367.77	1828.84
367.98	1718.25
368.18	1726.44
368.39	1714.15
368.60	1628.14
368.81	1755.11
369.02	1734.63
369.23	1636.33
369.44	1660.90
369.65	1757.16
369.86	1732.58
370.07	1728.49
370.28	1656.81
370.49	1753.06
370.70	1736.68
370.91	1665.00
371.12	1695.72
371.33	1755.11
371.54	1646.57
371.75	1847.27
371.96	1587.18
372.17	1697.77
372.38	1601.51
372.59	1689.57
372.80	1716.20
373.01	1742.82
373.22	1804.26
373.43	1783.78
373.64	1640.42
373.85	1763.30
374.06	1812.45
374.26	1736.68
374.47	1718.25
374.68	1822.69
374.89	1751.01
375.10	1703.91
375.31	1789.92
375.52	1703.91
375.73	1730.53
375.94	1720.29
376.15	1755.11
376.36	1724.39
376.57	1660.90
376.78	1566.70
376.99	1783.78
377.20	1812.45
377.40	1689.57
377.61	1839.08
377.82	1617.90
378.03	1810.40
378.24	1785.83
378.45	1720.29
378.66	1779.68
378.87	1538.02
379.08	1619.94
379.29	1701.86
379.50	1818.60
379.71	1746.92
379.91	1769.44
380.12	1675.24
380.33	1751.01
380.54	1710.05
380.75	1699.81
380.96	1652.71
381.17	1822.69
381.38	1789.92
381.59	1769.44
381.80	1710.05
382.00	1826.79
382.21	1705.96
382.42	1781.73
382.63	1841.12
382.84	1779.68
383.05	1767.40
383.26	1804.26
383.47	1687.53
383.68	1826.79
383.88	1724.39
384.09	1710.05
384.30	1804.26
384.51	1609.70
384.72	1755.11
384.93	1683.43
385.14	1775.59
385.35	1808.36
385.55	1626.09
385.76	1751.01
385.97	1738.73
386.18	1632.23
386.39	1771.49
386.60	1714.15
386.81	1681.38
387.02	1658.85
387.22	1628.14
387.43	1724.39
387.64	1808.36
387.85	1767.40
388.06	2324.44
388.27	4175.81
388.48	6664.09
388.68	8054.66
388.89	9451.38
389.10	9660.27
389.31	8292.23
389.52	7427.98
389.73	6510.49
389.93	6121.38
390.14	5785.51
390.35	5095.35
390.56	4480.96
390.77	3762.12
390.98	2977.75
391.18	2394.08
391.39	2086.88
391.60	1789.92
391.81	1828.84
392.02	1757.16
392.23	1904.61
392.43	1804.26
392.64	1865.70
392.85	1683.43
393.06	1812.45
393.27	1732.58
393.47	1644.52
393.68	1763.30
393.89	1769.44
394.10	1753.06
394.31	1712.10
394.52	1724.39
394.72	1634.28
394.93	1845.22
395.14	1634.28
395.35	1767.40
395.56	1679.33
395.76	1716.20
395.97	1796.07
396.18	1849.32
396.39	1832.93
396.60	2090.98
396.80	1945.57
397.01	1820.64
397.22	1849.32
397.43	1886.18
397.64	1708.01
397.84	1818.60
398.05	1824.74
398.26	1708.01
398.47	1810.40
398.67	1783.78
398.88	1806.31
399.09	1755.11
399.30	1681.38
399.51	1697.77
399.71	1619.94
399.92	1763.30
400.13	1705.96
400.34	1691.62
400.54	1701.86
400.75	1820.64
400.96	1775.59
401.17	1740.77
401.37	1755.11
401.58	1699.81
401.79	1742.82
402.00	1812.45
402.21	2035.68
402.41	1925.09
402.62	2004.96
402.83	2060.26
403.04	2004.96
403.24	2068.45
403.45	1871.84
403.66	1910.75
403.87	1904.61
404.07	1935.33
404.28	1918.95
404.49	1900.52
404.70	1783.78
404.90	1730.53
405.11	1703.91
405.32	1767.40
405.52	1640.42
405.73	1691.62
405.94	1726.44
406.15	1701.86
406.35	1820.64
406.56	1746.92
406.77	1654.76
406.98	1763.30
407.18	1673.19
407.39	1798.12
407.60	1726.44
407.80	1748.97
408.01	1685.48
408.22	1722.34
408.43	1636.33
408.63	1763.30
408.84	1816.55
409.05	1746.92
409.25	1673.19
409.46	1689.57
409.67	1783.78
409.88	1662.95
410.08	1712.10
410.29	1667.05
410.50	1767.40
410.70	1757.16
410.91	1720.29
411.12	1751.01
411.32	1853.41
411.53	1677.29
411.74	1753.06
411.95	1804.26
412.15	1777.64
412.36	1783.78
412.57	1802.21
412.77	1765.35
412.98	1761.25
413.19	1730.53
413.39	1771.49
413.60	1847.27
413.81	1830.88
414.01	1619.94
414.22	1787.88
414.43	1820.64
414.63	1628.14
414.84	1781.73
415.05	1708.01
415.25	1689.57
415.46	1759.21
415.67	1669.09
415.87	1738.73
416.08	1693.67
416.29	1695.72
416.49	1796.07
416.70	1699.81
416.91	1718.25
417.11	1740.77
417.32	1730.53
417.53	1826.79
417.73	1689.57
417.94	1716.20
418.15	1675.24
418.35	1730.53
418.56	1726.44
418.77	1869.80
418.97	1718.25
419.18	1751.01
419.38	1685.48
419.59	1693.67
419.80	1830.88
420.00	1695.72
420.21	1720.29
420.42	1759.21
420.62	1740.77
420.83	1650.66
421.04	1665.00
421.24	1687.53
421.45	1718.25
421.65	1826.79
421.86	1746.92
422.07	1773.54
422.27	1691.62
422.48	1714.15
422.69	1605.61
422.89	1734.63
423.10	1693.67
423.30	1679.33
423.51	1763.30
423.72	1748.97
423.92	1771.49
424.13	1648.61
424.33	1730.53
424.54	1765.35
424.75	1755.11
424.95	1824.74
425.16	1724.39
425.36	1730.53
425.57	1828.84
425.78	1751.01
425.98	1738.73
426.19	1755.11
426.39	1605.61
426.60	1697.77
426.81	1900.52
427.01	1703.91
427.22	1685.48
427.42	1628.14
427.63	1712.10
427.83	1824.74
428.04	1882.08
428.25	1761.25
428.45	1683.43
428.66	1732.58
428.86	1746.92
429.07	1699.81
429.28	1689.57
429.48	1703.91
429.69	1765.35
429.89	1736.68
430.10	1683.43
430.30	1828.84
430.51	1806.31
430.71	1708.01
430.92	1716.20
431.13	1708.01
431.33	1767.40
431.54	1744.87
431.74	1861.60
431.95	1845.22
432.15	1658.85
432.36	1675.24
432.56	1691.62
432.77	1796.07
432.98	1796.07
433.18	1685.48
433.39	1802.21
433.59	1738.73
433.80	1757.16
434.00	1849.32
434.21	1712.10
434.41	1681.38
434.62	1873.89
434.82	1746.92
435.03	1720.29
435.23	1761.25
435.44	1714.15
435.64	1744.87
435.85	1753.06
436.06	1740.77
436.26	1773.54
436.47	1642.47
436.67	1658.85
436.88	1691.62
437.08	1710.05
437.29	1810.40
437.49	1697.77
437.70	1746.92
437.90	1726.44
438.11	1892.32
438.31	1882.08
438.52	1912.80
438.72	1771.49
438.93	1894.37
439.13	1796.07
439.34	1853.41
439.54	1757.16
439.75	1812.45
439.95	1800.16
440.16	1691.62
440.36	1794.02
440.57	1828.84
440.77	1767.40
440.98	1722.34
441.18	1748.97
441.39	1767.40
441.59	1658.85
441.80	1851.36
442.00	1675.24
442.21	1771.49
442.41	1638.38
442.62	1791.97
442.82	1665.00
443.02	1783.78
443.23	1687.53
443.43	1832.93
443.64	1837.03
443.84	1677.29
444.05	1839.08
444.25	1730.53
444.46	1742.82
444.66	1744.87
444.87	1812.45
445.07	1662.95
445.28	1734.63
445.48	1798.12
445.69	1763.30
445.89	1927.14
446.09	1816.55
446.30	2000.87
446.50	2598.87
446.71	3755.97
446.91	4208.58
447.12	4708.28
447.32	4749.24
447.53	4431.80
447.73	3807.17
447.93	3487.69
448.14	3229.65
448.34	3192.78
448.55	2906.07
448.75	2828.24
448.96	2680.79
449.16	2437.08
449.36	2215.90
449.57	2115.55
449.77	1929.19
449.98	1761.25
450.18	1810.40
450.39	1863.65
450.59	1824.74
450.79	1724.39
451.00	1755.11
451.20	1789.92
451.41	1738.73
451.61	1691.62
451.81	1769.44
452.02	1656.81
452.22	1728.49
452.43	1650.66
452.63	1708.01
