SpectraSuite Data File
++++++++++++++++++++++++++++++++++++
Date: Mon Jun 06 17:06:57 CEST 2016
User: root
Dark Spectrum Present: No
Reference Spectrum Present: No
Number of Sampled Component Spectra: 1
Spectrometers: USB4C02835
Integration Time (usec): 100000 (USB4C02835)
Spectra Averaged: 1 (USB4C02835)
Boxcar Smoothing: 0 (USB4C02835)
Correct for Electrical Dark: No (USB4C02835)
Strobe/Lamp Enabled: No (USB4C02835)
Correct for Detector Non-linearity: No (USB4C02835)
Correct for Stray Light: No (USB4C02835)
Number of Pixels in Processed Spectrum: 3648
>>>>>Begin Processed Spectral Data<<<<<
177.47	1376.24
177.69	1376.24
177.91	1376.24
178.13	1443.82
178.36	1456.11
178.58	1728.49
178.80	1712.10
179.02	1578.98
179.24	1656.81
179.46	1681.38
179.68	1662.95
179.90	1644.52
180.13	1626.09
180.35	1712.10
180.57	1636.33
180.79	1779.68
181.01	1730.53
181.23	1730.53
181.45	1746.92
181.67	1722.34
181.90	1812.45
182.12	1673.19
182.34	1748.97
182.56	1763.30
182.78	1687.53
183.00	1669.09
183.22	1714.15
183.44	1621.99
183.66	1804.26
183.89	1847.27
184.11	1699.81
184.33	1755.11
184.55	1845.22
184.77	1691.62
184.99	1785.83
185.21	1656.81
185.43	1822.69
185.65	1732.58
185.87	1720.29
186.10	1802.21
186.32	1877.99
186.54	1753.06
186.76	1736.68
186.98	1705.96
187.20	1695.72
187.42	1687.53
187.64	1640.42
187.86	1765.35
188.08	1710.05
188.30	1716.20
188.52	1644.52
188.75	1800.16
188.97	1701.86
189.19	1671.14
189.41	1761.25
189.63	1718.25
189.85	1671.14
190.07	1611.75
190.29	1681.38
190.51	1767.40
190.73	1542.12
190.95	1771.49
191.17	1746.92
191.39	1626.09
191.61	1728.49
191.84	1681.38
192.06	1816.55
192.28	1609.70
192.50	1886.18
192.72	1763.30
192.94	1724.39
193.16	1814.50
193.38	1744.87
193.60	1660.90
193.82	1726.44
194.04	1746.92
194.26	1665.00
194.48	1732.58
194.70	1730.53
194.92	1691.62
195.14	1755.11
195.36	1681.38
195.58	1701.86
195.80	1720.29
196.02	1673.19
196.24	1705.96
196.46	1710.05
196.69	1585.13
196.91	1886.18
197.13	1626.09
197.35	1679.33
197.57	1826.79
197.79	1714.15
198.01	1718.25
198.23	1748.97
198.45	1734.63
198.67	1685.48
198.89	1642.47
199.11	1697.77
199.33	1621.99
199.55	1566.70
199.77	1765.35
199.99	1724.39
200.21	1755.11
200.43	1742.82
200.65	1624.04
200.87	1589.22
201.09	1710.05
201.31	1718.25
201.53	1779.68
201.75	1736.68
201.97	1697.77
202.19	1734.63
202.41	1732.58
202.63	1773.54
202.85	1787.88
203.07	1748.97
203.29	1673.19
203.51	1671.14
203.73	1652.71
203.95	1912.80
204.17	1759.21
204.39	1701.86
204.61	1693.67
204.83	1673.19
205.05	1787.88
205.27	1767.40
205.49	1853.41
205.71	1691.62
205.93	1681.38
206.15	1652.71
206.37	1687.53
206.59	1769.44
206.81	1621.99
207.03	1568.74
207.25	1679.33
207.47	1746.92
207.69	1738.73
207.91	1759.21
208.13	1781.73
208.34	1578.98
208.56	1632.23
208.78	1714.15
209.00	1699.81
209.22	1691.62
209.44	1658.85
209.66	1621.99
209.88	1681.38
210.10	1730.53
210.32	1656.81
210.54	1783.78
210.76	1646.57
210.98	1765.35
211.20	1574.89
211.42	1726.44
211.64	1820.64
211.86	1693.67
212.08	1705.96
212.30	1736.68
212.52	1736.68
212.74	1744.87
212.96	1748.97
213.17	1716.20
213.39	1753.06
213.61	1796.07
213.83	1785.83
214.05	1652.71
214.27	1888.23
214.49	1613.80
214.71	1658.85
214.93	1849.32
215.15	1687.53
215.37	1783.78
215.59	1619.94
215.81	1771.49
216.03	1804.26
216.24	1708.01
216.46	1726.44
216.68	1677.29
216.90	1796.07
217.12	1751.01
217.34	1773.54
217.56	1683.43
217.78	1763.30
218.00	1800.16
218.22	1718.25
218.44	1769.44
218.66	1714.15
218.87	1832.93
219.09	1662.95
219.31	1730.53
219.53	1785.83
219.75	1744.87
219.97	1681.38
220.19	1779.68
220.41	1687.53
220.63	1853.41
220.85	1681.38
221.06	1634.28
221.28	1722.34
221.50	1736.68
221.72	1669.09
221.94	1617.90
222.16	1654.76
222.38	1759.21
222.60	1791.97
222.82	1787.88
223.03	1763.30
223.25	1589.22
223.47	1781.73
223.69	1828.84
223.91	1753.06
224.13	1669.09
224.35	1673.19
224.57	1746.92
224.78	1800.16
225.00	1652.71
225.22	1705.96
225.44	1681.38
225.66	1791.97
225.88	1712.10
226.10	1841.12
226.32	1701.86
226.53	1730.53
226.75	1624.04
226.97	1658.85
227.19	1650.66
227.41	1710.05
227.63	1734.63
227.85	1648.61
228.06	1781.73
228.28	1660.90
228.50	1839.08
228.72	1716.20
228.94	1673.19
229.16	1615.85
229.37	1677.29
229.59	1728.49
229.81	1767.40
230.03	1730.53
230.25	1609.70
230.47	1669.09
230.69	1660.90
230.90	1771.49
231.12	1650.66
231.34	1757.16
231.56	1746.92
231.78	1685.48
232.00	1699.81
232.21	1724.39
232.43	1730.53
232.65	1581.03
232.87	1624.04
233.09	1615.85
233.30	1710.05
233.52	1722.34
233.74	1693.67
233.96	1757.16
234.18	1695.72
234.40	1628.14
234.61	1769.44
234.83	1654.76
235.05	1576.94
235.27	1906.66
235.49	1783.78
235.70	1728.49
235.92	1746.92
236.14	1761.25
236.36	1894.37
236.58	1583.08
236.79	1697.77
237.01	1665.00
237.23	1730.53
237.45	1826.79
237.67	1652.71
237.88	1685.48
238.10	1861.60
238.32	1626.09
238.54	1740.77
238.76	1806.31
238.97	1665.00
239.19	1656.81
239.41	1744.87
239.63	1804.26
239.85	1730.53
240.06	1730.53
240.28	1708.01
240.50	1728.49
240.72	1816.55
240.93	1689.57
241.15	1800.16
241.37	1671.14
241.59	1667.05
241.81	1714.15
242.02	1716.20
242.24	1687.53
242.46	1734.63
242.68	1669.09
242.89	1781.73
243.11	1710.05
243.33	1689.57
243.55	1683.43
243.76	1787.88
243.98	1632.23
244.20	1800.16
244.42	1722.34
244.64	1734.63
244.85	1597.42
245.07	1671.14
245.29	1771.49
245.51	1753.06
245.72	1695.72
245.94	1775.59
246.16	1705.96
246.38	1748.97
246.59	1615.85
246.81	1701.86
247.03	1669.09
247.24	1595.37
247.46	1683.43
247.68	1718.25
247.90	1671.14
248.11	1722.34
248.33	1718.25
248.55	1640.42
248.77	1638.38
248.98	1796.07
249.20	1779.68
249.42	1730.53
249.64	1777.64
249.85	1667.05
250.07	1705.96
250.29	1757.16
250.50	1779.68
250.72	1589.22
250.94	1681.38
251.16	1902.56
251.37	1734.63
251.59	1820.64
251.81	1718.25
252.02	1863.65
252.24	1722.34
252.46	1859.56
252.68	1589.22
252.89	1660.90
253.11	1593.32
253.33	1765.35
253.54	1705.96
253.76	1626.09
253.98	1708.01
254.20	1710.05
254.41	1697.77
254.63	1697.77
254.85	1660.90
255.06	1679.33
255.28	1720.29
255.50	1640.42
255.71	1691.62
255.93	1589.22
256.15	1718.25
256.36	1755.11
256.58	1673.19
256.80	1763.30
257.02	1767.40
257.23	1724.39
257.45	1730.53
257.67	1789.92
257.88	1669.09
258.10	1753.06
258.32	1714.15
258.53	1738.73
258.75	1775.59
258.97	1656.81
259.18	1705.96
259.40	1697.77
259.62	1814.50
259.83	1820.64
260.05	1748.97
260.27	2052.06
260.48	1689.57
260.70	1650.66
260.92	1685.48
261.13	1656.81
261.35	1734.63
261.57	1806.31
261.78	1693.67
262.00	1724.39
262.22	1679.33
262.43	1722.34
262.65	1689.57
262.86	1683.43
263.08	1892.32
263.30	1724.39
263.51	1660.90
263.73	1712.10
263.95	1796.07
264.16	1712.10
264.38	1687.53
264.60	1742.82
264.81	1705.96
265.03	1775.59
265.25	1775.59
265.46	1701.86
265.68	1755.11
265.89	1742.82
266.11	1685.48
266.33	1728.49
266.54	1685.48
266.76	1755.11
266.98	1765.35
267.19	1753.06
267.41	1755.11
267.62	1718.25
267.84	1656.81
268.06	1763.30
268.27	1687.53
268.49	1830.88
268.70	1736.68
268.92	1714.15
269.14	1619.94
269.35	1603.56
269.57	1767.40
269.79	1771.49
270.00	1669.09
270.22	1853.41
270.43	1687.53
270.65	1554.41
270.87	1769.44
271.08	1673.19
271.30	1718.25
271.51	1718.25
271.73	1691.62
271.95	1814.50
272.16	1744.87
272.38	1746.92
272.59	1701.86
272.81	1740.77
273.02	1751.01
273.24	1673.19
273.46	1779.68
273.67	1630.18
273.89	1671.14
274.10	1650.66
274.32	1761.25
274.54	1695.72
274.75	1800.16
274.97	1708.01
275.18	1751.01
275.40	1730.53
275.61	1695.72
275.83	1691.62
276.05	1601.51
276.26	1732.58
276.48	1789.92
276.69	1687.53
276.91	1679.33
277.12	1783.78
277.34	1726.44
277.55	1763.30
277.77	1685.48
277.99	1697.77
278.20	1636.33
278.42	1642.47
278.63	1714.15
278.85	1710.05
279.06	1671.14
279.28	1732.58
279.49	1718.25
279.71	1724.39
279.93	1771.49
280.14	1742.82
280.36	1650.66
280.57	1871.84
280.79	1767.40
281.00	1671.14
281.22	1681.38
281.43	1783.78
281.65	1619.94
281.86	1609.70
282.08	1726.44
282.29	1796.07
282.51	1650.66
282.73	1626.09
282.94	1660.90
283.16	1740.77
283.37	1849.32
283.59	1726.44
283.80	1787.88
284.02	1644.52
284.23	1660.90
284.45	1697.77
284.66	1630.18
284.88	1673.19
285.09	1796.07
285.31	1751.01
285.52	1724.39
285.74	1572.84
285.95	1726.44
286.17	1640.42
286.38	1771.49
286.60	1714.15
286.81	1687.53
287.03	1712.10
287.24	1589.22
287.46	1687.53
287.67	1697.77
287.89	1771.49
288.10	1683.43
288.32	1705.96
288.53	1779.68
288.75	1681.38
288.96	1753.06
289.18	1673.19
289.39	1726.44
289.61	1796.07
289.82	1810.40
290.04	1871.84
290.25	1642.47
290.47	1720.29
290.68	1673.19
290.90	1746.92
291.11	1701.86
291.33	1740.77
291.54	1683.43
291.76	1683.43
291.97	1683.43
292.18	1677.29
292.40	1699.81
292.61	1718.25
292.83	1849.32
293.04	1755.11
293.26	1716.20
293.47	1603.56
293.69	1660.90
293.90	1773.54
294.12	1748.97
294.33	1656.81
294.55	1669.09
294.76	1798.12
294.97	1785.83
295.19	1746.92
295.40	1728.49
295.62	1765.35
295.83	1738.73
296.05	1636.33
296.26	1800.16
296.48	1675.24
296.69	1753.06
296.90	1746.92
297.12	1759.21
297.33	1789.92
297.55	1718.25
297.76	1697.77
297.98	1791.97
298.19	1681.38
298.41	1716.20
298.62	1665.00
298.83	1810.40
299.05	1710.05
299.26	1740.77
299.48	1701.86
299.69	1751.01
299.90	1699.81
300.12	1644.52
300.33	1742.82
300.55	1646.57
300.76	1765.35
300.98	1642.47
301.19	1732.58
301.40	1681.38
301.62	1621.99
301.83	1806.31
302.05	1691.62
302.26	1691.62
302.47	1777.64
302.69	1679.33
302.90	1728.49
303.12	1632.23
303.33	1634.28
303.54	1830.88
303.76	1677.29
303.97	1681.38
304.19	1761.25
304.40	1646.57
304.61	1720.29
304.83	1884.13
305.04	1755.11
305.26	1810.40
305.47	1652.71
305.68	1738.73
305.90	1652.71
306.11	1740.77
306.33	1652.71
306.54	1724.39
306.75	1652.71
306.97	1648.61
307.18	1681.38
307.39	1687.53
307.61	1699.81
307.82	1720.29
308.04	1757.16
308.25	1701.86
308.46	1785.83
308.68	1767.40
308.89	1693.67
309.10	1804.26
309.32	1779.68
309.53	1693.67
309.74	1757.16
309.96	1621.99
310.17	1771.49
310.39	1652.71
310.60	1722.34
310.81	1738.73
311.03	1640.42
311.24	1777.64
311.45	1708.01
311.67	1843.17
311.88	1736.68
312.09	1671.14
312.31	1695.72
312.52	1675.24
312.73	1708.01
312.95	1615.85
313.16	1691.62
313.37	1734.63
313.59	1703.91
313.80	1759.21
314.01	1777.64
314.23	1673.19
314.44	1609.70
314.65	1685.48
314.87	1644.52
315.08	1667.05
315.29	1689.57
315.51	1712.10
315.72	1607.66
315.93	1724.39
316.15	1779.68
316.36	1650.66
316.57	1642.47
316.79	1765.35
317.00	1697.77
317.21	1751.01
317.43	1656.81
317.64	1708.01
317.85	1669.09
318.07	1755.11
318.28	1738.73
318.49	1814.50
318.70	1906.66
318.92	1751.01
319.13	1818.60
319.34	1744.87
319.56	1851.36
319.77	1771.49
319.98	1804.26
320.20	1794.02
320.41	1767.40
320.62	1757.16
320.83	1650.66
321.05	1898.47
321.26	1748.97
321.47	1796.07
321.69	1746.92
321.90	1587.18
322.11	1648.61
322.32	1675.24
322.54	1810.40
322.75	1714.15
322.96	1773.54
323.18	1665.00
323.39	1611.75
323.60	1679.33
323.81	1763.30
324.03	1677.29
324.24	1697.77
324.45	1705.96
324.66	1695.72
324.88	1701.86
325.09	1751.01
325.30	1712.10
325.52	1708.01
325.73	1638.38
325.94	1691.62
326.15	1636.33
326.37	1695.72
326.58	1728.49
326.79	1767.40
327.00	1636.33
327.22	1718.25
327.43	1695.72
327.64	1697.77
327.85	1660.90
328.07	1767.40
328.28	1896.42
328.49	1697.77
328.70	1712.10
328.92	1695.72
329.13	1679.33
329.34	1744.87
329.55	1714.15
329.76	1843.17
329.98	1677.29
330.19	1738.73
330.40	1746.92
330.61	1697.77
330.83	1791.97
331.04	1679.33
331.25	1679.33
331.46	1683.43
331.68	1640.42
331.89	1841.12
332.10	1671.14
332.31	1677.29
332.52	1667.05
332.74	1771.49
332.95	1581.03
333.16	1722.34
333.37	1755.11
333.58	1691.62
333.80	1732.58
334.01	1640.42
334.22	1753.06
334.43	1640.42
334.64	1705.96
334.86	1701.86
335.07	1748.97
335.28	1804.26
335.49	1718.25
335.70	1716.20
335.92	1816.55
336.13	1771.49
336.34	1693.67
336.55	1785.83
336.76	1738.73
336.98	1576.94
337.19	1697.77
337.40	1773.54
337.61	1806.31
337.82	1738.73
338.04	1724.39
338.25	1601.51
338.46	1644.52
338.67	1714.15
338.88	1685.48
339.09	1685.48
339.31	1710.05
339.52	1636.33
339.73	1681.38
339.94	1693.67
340.15	1763.30
340.36	1687.53
340.58	1794.02
340.79	1626.09
341.00	1716.20
341.21	1712.10
341.42	1816.55
341.63	1720.29
341.85	1794.02
342.06	1773.54
342.27	1624.04
342.48	1693.67
342.69	1697.77
342.90	1693.67
343.12	1800.16
343.33	1718.25
343.54	1773.54
343.75	1837.03
343.96	1708.01
344.17	1714.15
344.38	1736.68
344.60	1652.71
344.81	1669.09
345.02	1705.96
345.23	1726.44
345.44	1812.45
345.65	1734.63
345.86	1800.16
346.07	1681.38
346.29	1691.62
346.50	1763.30
346.71	1716.20
346.92	1728.49
347.13	1843.17
347.34	1701.86
347.55	1673.19
347.76	1693.67
347.98	1681.38
348.19	1722.34
348.40	1740.77
348.61	1705.96
348.82	1783.78
349.03	1804.26
349.24	1650.66
349.45	1794.02
349.66	1593.32
349.88	1775.59
350.09	1630.18
350.30	1820.64
350.51	1787.88
350.72	1779.68
350.93	1708.01
351.14	1732.58
351.35	1783.78
351.56	1685.48
351.77	1693.67
351.99	1697.77
352.20	1791.97
352.41	1720.29
352.62	1632.23
352.83	1675.24
353.04	1687.53
353.25	1677.29
353.46	1804.26
353.67	1728.49
353.88	1658.85
354.09	1677.29
354.30	1695.72
354.52	1791.97
354.73	1746.92
354.94	1617.90
355.15	1751.01
355.36	1798.12
355.57	1660.90
355.78	1726.44
355.99	1640.42
356.20	1677.29
356.41	1759.21
356.62	1724.39
356.83	1648.61
357.04	1798.12
357.25	1628.14
357.46	1761.25
357.68	1583.08
357.89	1638.38
358.10	1726.44
358.31	1685.48
358.52	1695.72
358.73	1662.95
358.94	1587.18
359.15	1660.90
359.36	1695.72
359.57	1738.73
359.78	1665.00
359.99	1748.97
360.20	1595.37
360.41	1662.95
360.62	1810.40
360.83	1642.47
361.04	1767.40
361.25	1742.82
361.46	1732.58
361.67	1691.62
361.88	1703.91
362.09	1710.05
362.30	1796.07
362.51	1697.77
362.72	1767.40
362.93	1751.01
363.14	1763.30
363.35	1789.92
363.56	1650.66
363.78	1736.68
363.99	1726.44
364.20	1683.43
364.41	1732.58
364.62	1789.92
364.83	1716.20
365.04	1722.34
365.25	1710.05
365.46	1781.73
365.67	1665.00
365.88	1628.14
366.09	1658.85
366.30	1638.38
366.51	1665.00
366.72	1531.88
366.93	1744.87
367.14	1701.86
367.35	1755.11
367.56	1746.92
367.77	1841.12
367.98	1652.71
368.18	1779.68
368.39	1785.83
368.60	1621.99
368.81	1748.97
369.02	1722.34
369.23	1763.30
369.44	1619.94
369.65	1665.00
369.86	1748.97
370.07	1783.78
370.28	1681.38
370.49	1740.77
370.70	1753.06
370.91	1624.04
371.12	1597.42
371.33	1783.78
371.54	1679.33
371.75	1812.45
371.96	1603.56
372.17	1755.11
372.38	1701.86
372.59	1765.35
372.80	1667.05
373.01	1669.09
373.22	1710.05
373.43	1710.05
373.64	1617.90
373.85	1763.30
374.06	1826.79
374.26	1783.78
374.47	1738.73
374.68	1781.73
374.89	1691.62
375.10	1689.57
375.31	1775.59
375.52	1710.05
375.73	1716.20
375.94	1636.33
376.15	1796.07
376.36	1603.56
376.57	1656.81
376.78	1693.67
376.99	1689.57
377.20	1716.20
377.40	1667.05
377.61	1839.08
377.82	1738.73
378.03	1826.79
378.24	1699.81
378.45	1775.59
378.66	1732.58
378.87	1673.19
379.08	1685.48
379.29	1712.10
379.50	1791.97
379.71	1693.67
379.91	1775.59
380.12	1701.86
380.33	1789.92
380.54	1718.25
380.75	1677.29
380.96	1791.97
381.17	1767.40
381.38	1751.01
381.59	1705.96
381.80	1728.49
382.00	1812.45
382.21	1695.72
382.42	1863.65
382.63	1896.42
382.84	1699.81
383.05	1802.21
383.26	1828.84
383.47	1732.58
383.68	1861.60
383.88	1849.32
384.09	1679.33
384.30	1802.21
384.51	1718.25
384.72	1679.33
384.93	1644.52
385.14	1703.91
385.35	1802.21
385.55	1658.85
385.76	1742.82
385.97	1646.57
386.18	1683.43
386.39	1687.53
386.60	1705.96
386.81	1665.00
387.02	1689.57
387.22	1652.71
387.43	1740.77
387.64	1859.56
387.85	1886.18
388.06	2152.42
388.27	4296.64
388.48	6807.45
388.68	8312.71
388.89	9336.69
389.10	9797.48
389.31	8419.20
389.52	7335.82
389.73	6719.39
389.93	6018.98
390.14	5932.97
390.35	5195.70
390.56	4491.20
390.77	3725.26
390.98	3022.80
391.18	2547.67
391.39	2107.36
391.60	1857.51
391.81	1791.97
392.02	1705.96
392.23	1869.80
392.43	1759.21
392.64	1845.22
392.85	1746.92
393.06	1857.51
393.27	1787.88
393.47	1626.09
393.68	1701.86
393.89	1660.90
394.10	1765.35
394.31	1693.67
394.52	1652.71
394.72	1652.71
394.93	1839.08
395.14	1658.85
395.35	1710.05
395.56	1718.25
395.76	1716.20
395.97	1832.93
396.18	1834.98
396.39	1845.22
396.60	2029.54
396.80	1912.80
397.01	1861.60
397.22	1839.08
397.43	1837.03
397.64	1746.92
397.84	1787.88
398.05	1857.51
398.26	1763.30
398.47	1742.82
398.67	1746.92
398.88	1742.82
399.09	1814.50
399.30	1710.05
399.51	1714.15
399.71	1665.00
399.92	1763.30
400.13	1787.88
400.34	1712.10
400.54	1638.38
400.75	1841.12
400.96	1820.64
401.17	1820.64
401.37	1783.78
401.58	1722.34
401.79	1726.44
402.00	1861.60
402.21	2060.26
402.41	1972.19
402.62	2099.17
402.83	1966.05
403.04	1904.61
403.24	2084.83
403.45	1855.46
403.66	1927.14
403.87	1880.04
404.07	1896.42
404.28	1898.47
404.49	1869.80
404.70	1794.02
404.90	1783.78
405.11	1728.49
405.32	1789.92
405.52	1665.00
405.73	1652.71
405.94	1693.67
406.15	1724.39
406.35	1787.88
406.56	1765.35
406.77	1730.53
406.98	1759.21
407.18	1679.33
407.39	1822.69
407.60	1726.44
407.80	1685.48
408.01	1636.33
408.22	1697.77
408.43	1613.80
408.63	1742.82
408.84	1757.16
409.05	1720.29
409.25	1658.85
409.46	1656.81
409.67	1652.71
409.88	1708.01
410.08	1748.97
410.29	1683.43
410.50	1808.36
410.70	1718.25
410.91	1681.38
411.12	1757.16
411.32	1675.24
411.53	1679.33
411.74	1767.40
411.95	1791.97
412.15	1771.49
412.36	1759.21
412.57	1753.06
412.77	1816.55
412.98	1740.77
413.19	1675.24
413.39	1732.58
413.60	1755.11
413.81	1789.92
414.01	1746.92
414.22	1710.05
414.43	1773.54
414.63	1714.15
414.84	1722.34
415.05	1697.77
415.25	1576.94
415.46	1705.96
415.67	1742.82
415.87	1783.78
416.08	1757.16
416.29	1654.76
416.49	1769.44
416.70	1652.71
416.91	1791.97
417.11	1726.44
417.32	1769.44
417.53	1734.63
417.73	1785.83
417.94	1746.92
418.15	1718.25
418.35	1757.16
418.56	1748.97
418.77	1923.04
418.97	1683.43
419.18	1730.53
419.38	1640.42
419.59	1673.19
419.80	1892.32
420.00	1763.30
420.21	1755.11
420.42	1824.74
420.62	1710.05
420.83	1785.83
421.04	1714.15
421.24	1689.57
421.45	1757.16
421.65	1708.01
421.86	1665.00
422.07	1769.44
422.27	1781.73
422.48	1654.76
422.69	1644.52
422.89	1728.49
423.10	1673.19
423.30	1746.92
423.51	1699.81
423.72	1796.07
423.92	1816.55
424.13	1638.38
424.33	1777.64
424.54	1732.58
424.75	1695.72
424.95	1714.15
425.16	1691.62
425.36	1722.34
425.57	1765.35
425.78	1734.63
425.98	1796.07
426.19	1701.86
426.39	1757.16
426.60	1714.15
426.81	1816.55
427.01	1748.97
427.22	1665.00
427.42	1673.19
427.63	1675.24
427.83	1820.64
428.04	1796.07
428.25	1722.34
428.45	1783.78
428.66	1742.82
428.86	1718.25
429.07	1777.64
429.28	1683.43
429.48	1656.81
429.69	1619.94
429.89	1755.11
430.10	1654.76
430.30	1802.21
430.51	1771.49
430.71	1630.18
430.92	1656.81
431.13	1613.80
431.33	1787.88
431.54	1738.73
431.74	1798.12
431.95	1855.46
432.15	1673.19
432.36	1763.30
432.56	1708.01
432.77	1851.36
432.98	1798.12
433.18	1738.73
433.39	1652.71
433.59	1658.85
433.80	1781.73
434.00	1806.31
434.21	1677.29
434.41	1667.05
434.62	1937.38
434.82	1705.96
435.03	1695.72
435.23	1705.96
435.44	1671.14
435.64	1767.40
435.85	1732.58
436.06	1755.11
436.26	1755.11
436.47	1691.62
436.67	1660.90
436.88	1701.86
437.08	1675.24
437.29	1900.52
437.49	1794.02
437.70	1757.16
437.90	1652.71
438.11	1849.32
438.31	1861.60
438.52	1845.22
438.72	1834.98
438.93	1896.42
439.13	1742.82
439.34	1810.40
439.54	1714.15
439.75	1794.02
439.95	1808.36
440.16	1685.48
440.36	1732.58
440.57	1703.91
440.77	1767.40
440.98	1757.16
441.18	1769.44
441.39	1722.34
441.59	1699.81
441.80	1880.04
442.00	1718.25
442.21	1832.93
442.41	1677.29
442.62	1828.84
442.82	1724.39
443.02	1783.78
443.23	1726.44
443.43	1662.95
443.64	1820.64
443.84	1732.58
444.05	1818.60
444.25	1740.77
444.46	1681.38
444.66	1730.53
444.87	1812.45
445.07	1742.82
445.28	1703.91
445.48	1726.44
445.69	1767.40
445.89	1853.41
446.09	1642.47
446.30	2013.15
446.50	2596.82
446.71	3626.95
446.91	4276.16
447.12	4581.31
447.32	4804.53
447.53	4329.41
447.73	3831.75
447.93	3588.04
448.14	3311.57
448.34	3213.26
448.55	2949.08
448.75	2785.24
448.96	2752.47
449.16	2430.94
449.36	2252.77
449.57	1990.63
449.77	1892.32
449.98	1775.59
450.18	1826.79
450.39	1886.18
450.59	1830.88
450.79	1726.44
451.00	1779.68
451.20	1814.50
451.41	1765.35
451.61	1730.53
451.81	1746.92
452.02	1769.44
452.22	1667.05
452.43	1759.21
452.63	1722.34
