SpectraSuite Data File
++++++++++++++++++++++++++++++++++++
Date: Mon Jun 06 16:09:37 CEST 2016
User: root
Dark Spectrum Present: No
Reference Spectrum Present: No
Number of Sampled Component Spectra: 1
Spectrometers: USB4C02835
Integration Time (usec): 100000 (USB4C02835)
Spectra Averaged: 1 (USB4C02835)
Boxcar Smoothing: 0 (USB4C02835)
Correct for Electrical Dark: No (USB4C02835)
Strobe/Lamp Enabled: No (USB4C02835)
Correct for Detector Non-linearity: No (USB4C02835)
Correct for Stray Light: No (USB4C02835)
Number of Pixels in Processed Spectrum: 3648
>>>>>Begin Processed Spectral Data<<<<<
177.47	1476.59
177.69	1476.59
177.91	1476.59
178.13	1437.67
178.36	1411.05
178.58	1677.29
178.80	1738.73
179.02	1646.57
179.24	1740.77
179.46	1683.43
179.68	1665.00
179.90	1617.90
180.13	1712.10
180.35	1671.14
180.57	1691.62
180.79	1773.54
181.01	1701.86
181.23	1751.01
181.45	1765.35
181.67	1710.05
181.90	1732.58
182.12	1685.48
182.34	1665.00
182.56	1654.76
182.78	1744.87
183.00	1705.96
183.22	1751.01
183.44	1677.29
183.66	1748.97
183.89	1800.16
184.11	1773.54
184.33	1802.21
184.55	1851.36
184.77	1742.82
184.99	1730.53
185.21	1693.67
185.43	1845.22
185.65	1669.09
185.87	1779.68
186.10	1849.32
186.32	1804.26
186.54	1730.53
186.76	1753.06
186.98	1736.68
187.20	1693.67
187.42	1615.85
187.64	1763.30
187.86	1730.53
188.08	1820.64
188.30	1800.16
188.52	1718.25
188.75	1724.39
188.97	1779.68
189.19	1693.67
189.41	1691.62
189.63	1822.69
189.85	1665.00
190.07	1566.70
190.29	1638.38
190.51	1716.20
190.73	1656.81
190.95	1781.73
191.17	1771.49
191.39	1611.75
191.61	1654.76
191.84	1722.34
192.06	1718.25
192.28	1656.81
192.50	1933.28
192.72	1779.68
192.94	1736.68
193.16	1753.06
193.38	1669.09
193.60	1669.09
193.82	1656.81
194.04	1777.64
194.26	1798.12
194.48	1773.54
194.70	1660.90
194.92	1681.38
195.14	1777.64
195.36	1722.34
195.58	1755.11
195.80	1738.73
196.02	1679.33
196.24	1771.49
196.46	1726.44
196.69	1660.90
196.91	1830.88
197.13	1669.09
197.35	1601.51
197.57	1820.64
197.79	1757.16
198.01	1732.58
198.23	1724.39
198.45	1738.73
198.67	1722.34
198.89	1677.29
199.11	1669.09
199.33	1697.77
199.55	1548.26
199.77	1705.96
199.99	1804.26
200.21	1624.04
200.43	1708.01
200.65	1697.77
200.87	1636.33
201.09	1744.87
201.31	1740.77
201.53	1640.42
201.75	1744.87
201.97	1742.82
202.19	1689.57
202.41	1718.25
202.63	1822.69
202.85	1755.11
203.07	1714.15
203.29	1722.34
203.51	1656.81
203.73	1673.19
203.95	1857.51
204.17	1708.01
204.39	1785.83
204.61	1673.19
204.83	1681.38
205.05	1673.19
205.27	1841.12
205.49	1902.56
205.71	1724.39
205.93	1697.77
206.15	1671.14
206.37	1697.77
206.59	1767.40
206.81	1593.32
207.03	1710.05
207.25	1646.57
207.47	1751.01
207.69	1708.01
207.91	1779.68
208.13	1816.55
208.34	1708.01
208.56	1595.37
208.78	1779.68
209.00	1691.62
209.22	1730.53
209.44	1705.96
209.66	1746.92
209.88	1728.49
210.10	1689.57
210.32	1712.10
210.54	1830.88
210.76	1697.77
210.98	1742.82
211.20	1644.52
211.42	1726.44
211.64	1771.49
211.86	1779.68
212.08	1738.73
212.30	1677.29
212.52	1681.38
212.74	1787.88
212.96	1755.11
213.17	1722.34
213.39	1710.05
213.61	1789.92
213.83	1722.34
214.05	1685.48
214.27	1806.31
214.49	1671.14
214.71	1648.61
214.93	1859.56
215.15	1685.48
215.37	1804.26
215.59	1617.90
215.81	1769.44
216.03	1785.83
216.24	1687.53
216.46	1726.44
216.68	1755.11
216.90	1757.16
217.12	1732.58
217.34	1757.16
217.56	1716.20
217.78	1816.55
218.00	1781.73
218.22	1753.06
218.44	1748.97
218.66	1767.40
218.87	1777.64
219.09	1726.44
219.31	1730.53
219.53	1660.90
219.75	1687.53
219.97	1740.77
220.19	1755.11
220.41	1720.29
220.63	1837.03
220.85	1685.48
221.06	1705.96
221.28	1761.25
221.50	1751.01
221.72	1763.30
221.94	1726.44
222.16	1726.44
222.38	1720.29
222.60	1751.01
222.82	1642.47
223.03	1804.26
223.25	1662.95
223.47	1751.01
223.69	1800.16
223.91	1767.40
224.13	1734.63
224.35	1714.15
224.57	1779.68
224.78	1804.26
225.00	1656.81
225.22	1742.82
225.44	1751.01
225.66	1781.73
225.88	1669.09
226.10	1798.12
226.32	1681.38
226.53	1834.98
226.75	1718.25
226.97	1636.33
227.19	1765.35
227.41	1626.09
227.63	1673.19
227.85	1626.09
228.06	1791.97
228.28	1650.66
228.50	1826.79
228.72	1714.15
228.94	1708.01
229.16	1562.60
229.37	1701.86
229.59	1601.51
229.81	1834.98
230.03	1669.09
230.25	1722.34
230.47	1628.14
230.69	1646.57
230.90	1687.53
231.12	1675.24
231.34	1761.25
231.56	1755.11
231.78	1646.57
232.00	1691.62
232.21	1714.15
232.43	1769.44
232.65	1595.37
232.87	1779.68
233.09	1665.00
233.30	1689.57
233.52	1732.58
233.74	1636.33
233.96	1701.86
234.18	1783.78
234.40	1732.58
234.61	1834.98
234.83	1652.71
235.05	1630.18
235.27	1886.18
235.49	1755.11
235.70	1673.19
235.92	1796.07
236.14	1662.95
236.36	1904.61
236.58	1628.14
236.79	1763.30
237.01	1636.33
237.23	1632.23
237.45	1841.12
237.67	1705.96
237.88	1724.39
238.10	1789.92
238.32	1712.10
238.54	1714.15
238.76	1693.67
238.97	1636.33
239.19	1732.58
239.41	1712.10
239.63	1783.78
239.85	1748.97
240.06	1681.38
240.28	1730.53
240.50	1689.57
240.72	1714.15
240.93	1685.48
241.15	1736.68
241.37	1722.34
241.59	1834.98
241.81	1722.34
242.02	1730.53
242.24	1714.15
242.46	1759.21
242.68	1640.42
242.89	1789.92
243.11	1660.90
243.33	1787.88
243.55	1753.06
243.76	1665.00
243.98	1689.57
244.20	1683.43
244.42	1714.15
244.64	1712.10
244.85	1650.66
245.07	1679.33
245.29	1757.16
245.51	1746.92
245.72	1742.82
245.94	1810.40
246.16	1685.48
246.38	1777.64
246.59	1685.48
246.81	1665.00
247.03	1722.34
247.24	1626.09
247.46	1722.34
247.68	1722.34
247.90	1636.33
248.11	1689.57
248.33	1757.16
248.55	1753.06
248.77	1656.81
248.98	1744.87
249.20	1816.55
249.42	1730.53
249.64	1763.30
249.85	1789.92
250.07	1654.76
250.29	1771.49
250.50	1806.31
250.72	1671.14
250.94	1820.64
251.16	1839.08
251.37	1832.93
251.59	1712.10
251.81	1789.92
252.02	1759.21
252.24	1708.01
252.46	1785.83
252.68	1722.34
252.89	1724.39
253.11	1626.09
253.33	1863.65
253.54	1757.16
253.76	1671.14
253.98	1691.62
254.20	1708.01
254.41	1660.90
254.63	1687.53
254.85	1697.77
255.06	1757.16
255.28	1763.30
255.50	1736.68
255.71	1611.75
255.93	1601.51
256.15	1689.57
256.36	1724.39
256.58	1681.38
256.80	1726.44
257.02	1712.10
257.23	1730.53
257.45	1701.86
257.67	1730.53
257.88	1763.30
258.10	1755.11
258.32	1742.82
258.53	1701.86
258.75	1810.40
258.97	1767.40
259.18	1677.29
259.40	1765.35
259.62	1798.12
259.83	1771.49
260.05	1800.16
260.27	1996.77
260.48	1732.58
260.70	1703.91
260.92	1675.24
261.13	1708.01
261.35	1697.77
261.57	1730.53
261.78	1652.71
262.00	1654.76
262.22	1759.21
262.43	1675.24
262.65	1650.66
262.86	1796.07
263.08	1873.89
263.30	1744.87
263.51	1660.90
263.73	1705.96
263.95	1826.79
264.16	1671.14
264.38	1693.67
264.60	1812.45
264.81	1660.90
265.03	1787.88
265.25	1728.49
265.46	1730.53
265.68	1757.16
265.89	1705.96
266.11	1638.38
266.33	1720.29
266.54	1738.73
266.76	1712.10
266.98	1759.21
267.19	1845.22
267.41	1728.49
267.62	1765.35
267.84	1626.09
268.06	1701.86
268.27	1716.20
268.49	1753.06
268.70	1855.46
268.92	1697.77
269.14	1695.72
269.35	1689.57
269.57	1634.28
269.79	1726.44
270.00	1673.19
270.22	1849.32
270.43	1681.38
270.65	1601.51
270.87	1744.87
271.08	1746.92
271.30	1669.09
271.51	1669.09
271.73	1744.87
271.95	1812.45
272.16	1710.05
272.38	1718.25
272.59	1681.38
272.81	1812.45
273.02	1675.24
273.24	1705.96
273.46	1722.34
273.67	1673.19
273.89	1601.51
274.10	1685.48
274.32	1773.54
274.54	1791.97
274.75	1732.58
274.97	1632.23
275.18	1767.40
275.40	1728.49
275.61	1683.43
275.83	1732.58
276.05	1662.95
276.26	1753.06
276.48	1683.43
276.69	1689.57
276.91	1671.14
277.12	1804.26
277.34	1789.92
277.55	1826.79
277.77	1748.97
277.99	1740.77
278.20	1667.05
278.42	1710.05
278.63	1759.21
278.85	1689.57
279.06	1576.94
279.28	1742.82
279.49	1751.01
279.71	1726.44
279.93	1660.90
280.14	1675.24
280.36	1658.85
280.57	1757.16
280.79	1695.72
281.00	1667.05
281.22	1712.10
281.43	1796.07
281.65	1589.22
281.86	1714.15
282.08	1734.63
282.29	1814.50
282.51	1603.56
282.73	1703.91
282.94	1519.59
283.16	1757.16
283.37	1746.92
283.59	1675.24
283.80	1710.05
284.02	1746.92
284.23	1785.83
284.45	1681.38
284.66	1638.38
284.88	1763.30
285.09	1800.16
285.31	1812.45
285.52	1771.49
285.74	1669.09
285.95	1775.59
286.17	1775.59
286.38	1748.97
286.60	1697.77
286.81	1621.99
287.03	1738.73
287.24	1738.73
287.46	1757.16
287.67	1658.85
287.89	1824.74
288.10	1714.15
288.32	1685.48
288.53	1765.35
288.75	1701.86
288.96	1748.97
289.18	1677.29
289.39	1714.15
289.61	1777.64
289.82	1843.17
290.04	1845.22
290.25	1632.23
290.47	1726.44
290.68	1685.48
290.90	1781.73
291.11	1611.75
291.33	1753.06
291.54	1660.90
291.76	1593.32
291.97	1683.43
292.18	1746.92
292.40	1687.53
292.61	1656.81
292.83	1949.67
293.04	1730.53
293.26	1769.44
293.47	1734.63
293.69	1665.00
293.90	1781.73
294.12	1734.63
294.33	1771.49
294.55	1705.96
294.76	1789.92
294.97	1841.12
295.19	1861.60
295.40	1681.38
295.62	1767.40
295.83	1753.06
296.05	1619.94
296.26	1771.49
296.48	1669.09
296.69	1771.49
296.90	1671.14
297.12	1751.01
297.33	1771.49
297.55	1693.67
297.76	1697.77
297.98	1845.22
298.19	1787.88
298.41	1777.64
298.62	1626.09
298.83	1798.12
299.05	1673.19
299.26	1665.00
299.48	1660.90
299.69	1757.16
299.90	1759.21
300.12	1587.18
300.33	1734.63
300.55	1759.21
300.76	1765.35
300.98	1591.27
301.19	1683.43
301.40	1695.72
301.62	1693.67
301.83	1730.53
302.05	1728.49
302.26	1820.64
302.47	1714.15
302.69	1638.38
302.90	1742.82
303.12	1617.90
303.33	1742.82
303.54	1849.32
303.76	1716.20
303.97	1753.06
304.19	1771.49
304.40	1671.14
304.61	1740.77
304.83	1832.93
305.04	1804.26
305.26	1785.83
305.47	1691.62
305.68	1767.40
305.90	1691.62
306.11	1796.07
306.33	1720.29
306.54	1681.38
306.75	1640.42
306.97	1626.09
307.18	1640.42
307.39	1712.10
307.61	1791.97
307.82	1660.90
308.04	1701.86
308.25	1621.99
308.46	1724.39
308.68	1701.86
308.89	1673.19
309.10	1787.88
309.32	1693.67
309.53	1765.35
309.74	1779.68
309.96	1699.81
310.17	1775.59
310.39	1624.04
310.60	1697.77
310.81	1779.68
311.03	1660.90
311.24	1714.15
311.45	1675.24
311.67	1802.21
311.88	1716.20
312.09	1730.53
312.31	1642.47
312.52	1847.27
312.73	1740.77
312.95	1630.18
313.16	1693.67
313.37	1753.06
313.59	1763.30
313.80	1701.86
314.01	1724.39
314.23	1671.14
314.44	1785.83
314.65	1636.33
314.87	1689.57
315.08	1697.77
315.29	1687.53
315.51	1638.38
315.72	1597.42
315.93	1783.78
316.15	1810.40
316.36	1744.87
316.57	1740.77
316.79	1730.53
317.00	1683.43
317.21	1808.36
317.43	1740.77
317.64	1716.20
317.85	1689.57
318.07	1636.33
318.28	1748.97
318.49	1916.90
318.70	2004.96
318.92	1818.60
319.13	1800.16
319.34	1812.45
319.56	1816.55
319.77	1828.84
319.98	1832.93
320.20	1804.26
320.41	1798.12
320.62	1763.30
320.83	1714.15
321.05	1818.60
321.26	1751.01
321.47	1767.40
321.69	1855.46
321.90	1738.73
322.11	1603.56
322.32	1716.20
322.54	1767.40
322.75	1667.05
322.96	1890.28
323.18	1624.04
323.39	1644.52
323.60	1773.54
323.81	1775.59
324.03	1726.44
324.24	1734.63
324.45	1699.81
324.66	1665.00
324.88	1796.07
325.09	1785.83
325.30	1667.05
325.52	1804.26
325.73	1812.45
325.94	1667.05
326.15	1538.02
326.37	1697.77
326.58	1845.22
326.79	1783.78
327.00	1687.53
327.22	1705.96
327.43	1712.10
327.64	1605.61
327.85	1781.73
328.07	1705.96
328.28	1779.68
328.49	1714.15
328.70	1714.15
328.92	1697.77
329.13	1669.09
329.34	1677.29
329.55	1863.65
329.76	1740.77
329.98	1720.29
330.19	1769.44
330.40	1742.82
330.61	1730.53
330.83	1742.82
331.04	1681.38
331.25	1763.30
331.46	1730.53
331.68	1638.38
331.89	1775.59
332.10	1705.96
332.31	1673.19
332.52	1601.51
332.74	1789.92
332.95	1626.09
333.16	1755.11
333.37	1740.77
333.58	1656.81
333.80	1814.50
334.01	1695.72
334.22	1677.29
334.43	1673.19
334.64	1578.98
334.86	1660.90
335.07	1619.94
335.28	1806.31
335.49	1648.61
335.70	1730.53
335.92	1773.54
336.13	1834.98
336.34	1720.29
336.55	1652.71
336.76	1681.38
336.98	1615.85
337.19	1734.63
337.40	1818.60
337.61	1822.69
337.82	1650.66
338.04	1718.25
338.25	1611.75
338.46	1687.53
338.67	1660.90
338.88	1675.24
339.09	1650.66
339.31	1705.96
339.52	1595.37
339.73	1650.66
339.94	1789.92
340.15	1798.12
340.36	1615.85
340.58	1718.25
340.79	1685.48
341.00	1796.07
341.21	1599.46
341.42	1765.35
341.63	1736.68
341.85	1730.53
342.06	1779.68
342.27	1703.91
342.48	1767.40
342.69	1708.01
342.90	1748.97
343.12	1701.86
343.33	1667.05
343.54	1744.87
343.75	1796.07
343.96	1671.14
344.17	1632.23
344.38	1742.82
344.60	1718.25
344.81	1658.85
345.02	1689.57
345.23	1730.53
345.44	1892.32
345.65	1732.58
345.86	1742.82
346.07	1679.33
346.29	1712.10
346.50	1689.57
346.71	1736.68
346.92	1771.49
347.13	1796.07
347.34	1673.19
347.55	1636.33
347.76	1777.64
347.98	1648.61
348.19	1609.70
348.40	1783.78
348.61	1722.34
348.82	1832.93
349.03	1748.97
349.24	1693.67
349.45	1841.12
349.66	1628.14
349.88	1675.24
350.09	1689.57
350.30	1808.36
350.51	1808.36
350.72	1744.87
350.93	1781.73
351.14	1748.97
351.35	1783.78
351.56	1730.53
351.77	1691.62
351.99	1746.92
352.20	1875.94
352.41	1714.15
352.62	1542.12
352.83	1697.77
353.04	1802.21
353.25	1689.57
353.46	1794.02
353.67	1755.11
353.88	1562.60
354.09	1708.01
354.30	1708.01
354.52	1732.58
354.73	1720.29
354.94	1734.63
355.15	1662.95
355.36	1828.84
355.57	1744.87
355.78	1812.45
355.99	1658.85
356.20	1705.96
356.41	1785.83
356.62	1714.15
356.83	1650.66
357.04	1748.97
357.25	1611.75
357.46	1667.05
357.68	1619.94
357.89	1652.71
358.10	1730.53
358.31	1687.53
358.52	1648.61
358.73	1681.38
358.94	1683.43
359.15	1708.01
359.36	1771.49
359.57	1710.05
359.78	1742.82
359.99	1726.44
360.20	1691.62
360.41	1665.00
360.62	1656.81
360.83	1683.43
361.04	1761.25
361.25	1691.62
361.46	1789.92
361.67	1710.05
361.88	1683.43
362.09	1761.25
362.30	1673.19
362.51	1701.86
362.72	1624.04
362.93	1734.63
363.14	1718.25
363.35	1787.88
363.56	1656.81
363.78	1828.84
363.99	1810.40
364.20	1693.67
364.41	1761.25
364.62	1800.16
364.83	1634.28
365.04	1689.57
365.25	1757.16
365.46	1822.69
365.67	1701.86
365.88	1667.05
366.09	1697.77
366.30	1689.57
366.51	1730.53
366.72	1658.85
366.93	1714.15
367.14	1751.01
367.35	1775.59
367.56	1687.53
367.77	1800.16
367.98	1738.73
368.18	1697.77
368.39	1775.59
368.60	1714.15
368.81	1751.01
369.02	1708.01
369.23	1748.97
369.44	1578.98
369.65	1806.31
369.86	1734.63
370.07	1744.87
370.28	1689.57
370.49	1781.73
370.70	1732.58
370.91	1665.00
371.12	1628.14
371.33	1767.40
371.54	1658.85
371.75	1863.65
371.96	1630.18
372.17	1673.19
372.38	1667.05
372.59	1759.21
372.80	1669.09
373.01	1724.39
373.22	1812.45
373.43	1726.44
373.64	1677.29
373.85	1822.69
374.06	1888.23
374.26	1763.30
374.47	1726.44
374.68	1843.17
374.89	1746.92
375.10	1679.33
375.31	1759.21
375.52	1730.53
375.73	1755.11
375.94	1660.90
376.15	1802.21
376.36	1640.42
376.57	1724.39
376.78	1691.62
376.99	1689.57
377.20	1794.02
377.40	1718.25
377.61	1804.26
377.82	1683.43
378.03	1855.46
378.24	1785.83
378.45	1722.34
378.66	1697.77
378.87	1617.90
379.08	1624.04
379.29	1730.53
379.50	1804.26
379.71	1773.54
379.91	1726.44
380.12	1691.62
380.33	1722.34
380.54	1691.62
380.75	1726.44
380.96	1732.58
381.17	1689.57
381.38	1642.47
381.59	1738.73
381.80	1695.72
382.00	1841.12
382.21	1708.01
382.42	1798.12
382.63	1941.47
382.84	1765.35
383.05	1755.11
383.26	1761.25
383.47	1783.78
383.68	1699.81
383.88	1767.40
384.09	1697.77
384.30	1837.03
384.51	1689.57
384.72	1720.29
384.93	1648.61
385.14	1708.01
385.35	1771.49
385.55	1685.48
385.76	1857.51
385.97	1617.90
386.18	1755.11
386.39	1681.38
386.60	1712.10
386.81	1640.42
387.02	1632.23
387.22	1656.81
387.43	1767.40
387.64	1785.83
387.85	1888.23
388.06	2226.14
388.27	4200.38
388.48	6659.99
388.68	8251.27
388.89	9551.73
389.10	9791.34
389.31	8607.61
389.52	7536.52
389.73	6737.82
389.93	6268.83
390.14	5894.05
390.35	5207.98
390.56	4630.46
390.77	3661.77
390.98	3004.37
391.18	2488.28
391.39	2185.18
391.60	1822.69
391.81	1796.07
392.02	1716.20
392.23	1859.56
392.43	1703.91
392.64	1757.16
392.85	1777.64
393.06	1830.88
393.27	1742.82
393.47	1740.77
393.68	1718.25
393.89	1699.81
394.10	1757.16
394.31	1683.43
394.52	1742.82
394.72	1771.49
394.93	1726.44
395.14	1699.81
395.35	1806.31
395.56	1642.47
395.76	1728.49
395.97	1763.30
396.18	1798.12
396.39	1818.60
396.60	2082.78
396.80	1896.42
397.01	1736.68
397.22	1859.56
397.43	1914.85
397.64	1746.92
397.84	1804.26
398.05	1886.18
398.26	1773.54
398.47	1771.49
398.67	1759.21
398.88	1808.36
399.09	1744.87
399.30	1718.25
399.51	1814.50
399.71	1636.33
399.92	1714.15
400.13	1695.72
400.34	1703.91
400.54	1669.09
400.75	1701.86
400.96	1757.16
401.17	1834.98
401.37	1740.77
401.58	1751.01
401.79	1769.44
402.00	1910.75
402.21	2009.06
402.41	1947.62
402.62	2023.39
402.83	2050.02
403.04	1994.72
403.24	2045.92
403.45	1845.22
403.66	1941.47
403.87	1906.66
404.07	1943.52
404.28	1945.57
404.49	1900.52
404.70	1785.83
404.90	1761.25
405.11	1771.49
405.32	1751.01
405.52	1710.05
405.73	1738.73
405.94	1675.24
406.15	1730.53
406.35	1759.21
406.56	1773.54
406.77	1669.09
406.98	1775.59
407.18	1669.09
407.39	1742.82
407.60	1687.53
407.80	1837.03
408.01	1669.09
408.22	1761.25
408.43	1708.01
408.63	1738.73
408.84	1755.11
409.05	1728.49
409.25	1703.91
409.46	1730.53
409.67	1669.09
409.88	1687.53
410.08	1771.49
410.29	1697.77
410.50	1789.92
410.70	1761.25
410.91	1669.09
411.12	1726.44
411.32	1724.39
411.53	1710.05
411.74	1890.28
411.95	1849.32
412.15	1712.10
412.36	1867.75
412.57	1847.27
412.77	1867.75
412.98	1681.38
413.19	1765.35
413.39	1794.02
413.60	1779.68
413.81	1880.04
414.01	1679.33
414.22	1769.44
414.43	1775.59
414.63	1695.72
414.84	1775.59
415.05	1716.20
415.25	1726.44
415.46	1791.97
415.67	1712.10
415.87	1777.64
416.08	1732.58
416.29	1736.68
416.49	1722.34
416.70	1732.58
416.91	1624.04
417.11	1720.29
417.32	1708.01
417.53	1705.96
417.73	1703.91
417.94	1738.73
418.15	1773.54
418.35	1777.64
418.56	1787.88
418.77	1886.18
418.97	1705.96
419.18	1724.39
419.38	1599.46
419.59	1753.06
419.80	1734.63
420.00	1699.81
420.21	1773.54
420.42	1798.12
420.62	1783.78
420.83	1779.68
421.04	1705.96
421.24	1740.77
421.45	1812.45
421.65	1720.29
421.86	1759.21
422.07	1748.97
422.27	1783.78
422.48	1615.85
422.69	1705.96
422.89	1746.92
423.10	1660.90
423.30	1714.15
423.51	1650.66
423.72	1746.92
423.92	1746.92
424.13	1681.38
424.33	1691.62
424.54	1839.08
424.75	1695.72
424.95	1828.84
425.16	1781.73
425.36	1665.00
425.57	1818.60
425.78	1748.97
425.98	1714.15
426.19	1656.81
426.39	1679.33
426.60	1730.53
426.81	1837.03
427.01	1753.06
427.22	1671.14
427.42	1578.98
427.63	1648.61
427.83	1808.36
428.04	1804.26
428.25	1828.84
428.45	1820.64
428.66	1681.38
428.86	1736.68
429.07	1667.05
429.28	1789.92
429.48	1689.57
429.69	1687.53
429.89	1755.11
430.10	1656.81
430.30	1736.68
430.51	1798.12
430.71	1632.23
430.92	1734.63
431.13	1718.25
431.33	1796.07
431.54	1822.69
431.74	1839.08
431.95	1796.07
432.15	1703.91
432.36	1728.49
432.56	1742.82
432.77	1857.51
432.98	1912.80
433.18	1738.73
433.39	1689.57
433.59	1751.01
433.80	1896.42
434.00	1804.26
434.21	1705.96
434.41	1697.77
434.62	1855.46
434.82	1619.94
435.03	1697.77
435.23	1791.97
435.44	1601.51
435.64	1779.68
435.85	1728.49
436.06	1779.68
436.26	1744.87
436.47	1771.49
436.67	1665.00
436.88	1732.58
437.08	1738.73
437.29	1783.78
437.49	1746.92
437.70	1824.74
437.90	1695.72
438.11	1904.61
438.31	1783.78
438.52	1816.55
438.72	1789.92
438.93	1943.52
439.13	1832.93
439.34	1736.68
439.54	1751.01
439.75	1861.60
439.95	1755.11
440.16	1718.25
440.36	1808.36
440.57	1818.60
440.77	1783.78
440.98	1748.97
441.18	1716.20
441.39	1767.40
441.59	1609.70
441.80	1855.46
442.00	1740.77
442.21	1771.49
442.41	1697.77
442.62	1845.22
442.82	1619.94
443.02	1740.77
443.23	1763.30
443.43	1732.58
443.64	1828.84
443.84	1693.67
444.05	1775.59
444.25	1712.10
444.46	1710.05
444.66	1755.11
444.87	1779.68
445.07	1693.67
445.28	1693.67
445.48	1824.74
445.69	1779.68
445.89	1902.56
446.09	1708.01
446.30	2058.21
446.50	2648.02
446.71	3608.52
446.91	4347.84
447.12	4753.34
447.32	4888.50
447.53	4376.51
447.73	3917.76
447.93	3428.30
448.14	3370.96
448.34	3248.08
448.55	2938.84
448.75	2836.44
448.96	2684.89
449.16	2406.36
449.36	2283.49
449.57	2121.70
449.77	1865.70
449.98	1839.08
450.18	1796.07
450.39	1818.60
450.59	1787.88
450.79	1712.10
451.00	1710.05
451.20	1712.10
451.41	1740.77
451.61	1724.39
451.81	1730.53
452.02	1710.05
452.22	1660.90
452.43	1718.25
452.63	1730.53
