SpectraSuite Data File
++++++++++++++++++++++++++++++++++++
Date: Mon Jun 06 15:18:17 CEST 2016
User: root
Dark Spectrum Present: No
Reference Spectrum Present: No
Number of Sampled Component Spectra: 1
Spectrometers: USB4C02835
Integration Time (usec): 100000 (USB4C02835)
Spectra Averaged: 1 (USB4C02835)
Boxcar Smoothing: 0 (USB4C02835)
Correct for Electrical Dark: No (USB4C02835)
Strobe/Lamp Enabled: No (USB4C02835)
Correct for Detector Non-linearity: No (USB4C02835)
Correct for Stray Light: No (USB4C02835)
Number of Pixels in Processed Spectrum: 3648
>>>>>Begin Processed Spectral Data<<<<<
177.47	1470.44
177.69	1470.44
177.91	1470.44
178.13	1486.83
178.36	1441.77
178.58	1628.14
178.80	1675.24
179.02	1714.15
179.24	1671.14
179.46	1722.34
179.68	1796.07
179.90	1689.57
180.13	1718.25
180.35	1699.81
180.57	1701.86
180.79	1726.44
181.01	1732.58
181.23	1808.36
181.45	1734.63
181.67	1755.11
181.90	1685.48
182.12	1671.14
182.34	1626.09
182.56	1685.48
182.78	1691.62
183.00	1701.86
183.22	1714.15
183.44	1662.95
183.66	1843.17
183.89	1722.34
184.11	1658.85
184.33	1730.53
184.55	1791.97
184.77	1722.34
184.99	1726.44
185.21	1685.48
185.43	1765.35
185.65	1619.94
185.87	1767.40
186.10	1816.55
186.32	1914.85
186.54	1753.06
186.76	1746.92
186.98	1732.58
187.20	1679.33
187.42	1660.90
187.64	1685.48
187.86	1804.26
188.08	1789.92
188.30	1675.24
188.52	1712.10
188.75	1796.07
188.97	1744.87
189.19	1681.38
189.41	1757.16
189.63	1761.25
189.85	1748.97
190.07	1611.75
190.29	1662.95
190.51	1808.36
190.73	1667.05
190.95	1736.68
191.17	1736.68
191.39	1603.56
191.61	1673.19
191.84	1697.77
192.06	1705.96
192.28	1591.27
192.50	1796.07
192.72	1708.01
192.94	1728.49
193.16	1785.83
193.38	1701.86
193.60	1650.66
193.82	1652.71
194.04	1763.30
194.26	1642.47
194.48	1722.34
194.70	1724.39
194.92	1689.57
195.14	1697.77
195.36	1669.09
195.58	1722.34
195.80	1695.72
196.02	1644.52
196.24	1703.91
196.46	1744.87
196.69	1751.01
196.91	1945.57
197.13	1759.21
197.35	1638.38
197.57	1816.55
197.79	1732.58
198.01	1671.14
198.23	1642.47
198.45	1691.62
198.67	1632.23
198.89	1712.10
199.11	1755.11
199.33	1599.46
199.55	1587.18
199.77	1708.01
199.99	1732.58
200.21	1667.05
200.43	1742.82
200.65	1636.33
200.87	1515.50
201.09	1744.87
201.31	1667.05
201.53	1695.72
201.75	1734.63
201.97	1660.90
202.19	1632.23
202.41	1662.95
202.63	1796.07
202.85	1738.73
203.07	1695.72
203.29	1730.53
203.51	1607.66
203.73	1640.42
203.95	1832.93
204.17	1687.53
204.39	1732.58
204.61	1720.29
204.83	1714.15
205.05	1740.77
205.27	1728.49
205.49	1837.03
205.71	1718.25
205.93	1636.33
206.15	1695.72
206.37	1769.44
206.59	1705.96
206.81	1640.42
207.03	1708.01
207.25	1669.09
207.47	1693.67
207.69	1638.38
207.91	1751.01
208.13	1855.46
208.34	1650.66
208.56	1685.48
208.78	1753.06
209.00	1697.77
209.22	1689.57
209.44	1710.05
209.66	1738.73
209.88	1685.48
210.10	1699.81
210.32	1595.37
210.54	1796.07
210.76	1761.25
210.98	1816.55
211.20	1605.61
211.42	1662.95
211.64	1810.40
211.86	1802.21
212.08	1759.21
212.30	1753.06
212.52	1634.28
212.74	1720.29
212.96	1685.48
213.17	1742.82
213.39	1732.58
213.61	1796.07
213.83	1740.77
214.05	1712.10
214.27	1769.44
214.49	1677.29
214.71	1654.76
214.93	1671.14
215.15	1699.81
215.37	1761.25
215.59	1591.27
215.81	1724.39
216.03	1765.35
216.24	1732.58
216.46	1673.19
216.68	1697.77
216.90	1738.73
217.12	1787.88
217.34	1705.96
217.56	1753.06
217.78	1775.59
218.00	1794.02
218.22	1714.15
218.44	1751.01
218.66	1714.15
218.87	1736.68
219.09	1708.01
219.31	1787.88
219.53	1714.15
219.75	1695.72
219.97	1689.57
220.19	1712.10
220.41	1638.38
220.63	1802.21
220.85	1740.77
221.06	1656.81
221.28	1775.59
221.50	1800.16
221.72	1708.01
221.94	1728.49
222.16	1695.72
222.38	1798.12
222.60	1673.19
222.82	1697.77
223.03	1740.77
223.25	1640.42
223.47	1718.25
223.69	1859.56
223.91	1742.82
224.13	1683.43
224.35	1685.48
224.57	1759.21
224.78	1798.12
225.00	1570.79
225.22	1667.05
225.44	1744.87
225.66	1714.15
225.88	1705.96
226.10	1800.16
226.32	1730.53
226.53	1804.26
226.75	1703.91
226.97	1695.72
227.19	1714.15
227.41	1716.20
227.63	1648.61
227.85	1689.57
228.06	1634.28
228.28	1763.30
228.50	1783.78
228.72	1656.81
228.94	1738.73
229.16	1634.28
229.37	1611.75
229.59	1609.70
229.81	1830.88
230.03	1677.29
230.25	1624.04
230.47	1550.31
230.69	1650.66
230.90	1783.78
231.12	1652.71
231.34	1791.97
231.56	1791.97
231.78	1624.04
232.00	1722.34
232.21	1693.67
232.43	1665.00
232.65	1630.18
232.87	1751.01
233.09	1630.18
233.30	1714.15
233.52	1775.59
233.74	1712.10
233.96	1714.15
234.18	1720.29
234.40	1705.96
234.61	1757.16
234.83	1593.32
235.05	1677.29
235.27	1867.75
235.49	1841.12
235.70	1703.91
235.92	1748.97
236.14	1658.85
236.36	1826.79
236.58	1699.81
236.79	1738.73
237.01	1710.05
237.23	1654.76
237.45	1837.03
237.67	1662.95
237.88	1681.38
238.10	1804.26
238.32	1728.49
238.54	1669.09
238.76	1759.21
238.97	1632.23
239.19	1708.01
239.41	1771.49
239.63	1787.88
239.85	1673.19
240.06	1679.33
240.28	1667.05
240.50	1738.73
240.72	1697.77
240.93	1705.96
241.15	1886.18
241.37	1683.43
241.59	1810.40
241.81	1705.96
242.02	1675.24
242.24	1738.73
242.46	1710.05
242.68	1693.67
242.89	1658.85
243.11	1740.77
243.33	1722.34
243.55	1722.34
243.76	1746.92
243.98	1658.85
244.20	1722.34
244.42	1726.44
244.64	1677.29
244.85	1644.52
245.07	1730.53
245.29	1740.77
245.51	1654.76
245.72	1718.25
245.94	1753.06
246.16	1730.53
246.38	1656.81
246.59	1730.53
246.81	1687.53
247.03	1683.43
247.24	1665.00
247.46	1753.06
247.68	1751.01
247.90	1691.62
248.11	1665.00
248.33	1699.81
248.55	1796.07
248.77	1712.10
248.98	1847.27
249.20	1761.25
249.42	1771.49
249.64	1757.16
249.85	1683.43
250.07	1646.57
250.29	1730.53
250.50	1728.49
250.72	1642.47
250.94	1695.72
251.16	1812.45
251.37	1742.82
251.59	1783.78
251.81	1646.57
252.02	1757.16
252.24	1685.48
252.46	1828.84
252.68	1626.09
252.89	1755.11
253.11	1630.18
253.33	1783.78
253.54	1828.84
253.76	1665.00
253.98	1677.29
254.20	1679.33
254.41	1708.01
254.63	1781.73
254.85	1658.85
255.06	1673.19
255.28	1718.25
255.50	1728.49
255.71	1589.22
255.93	1732.58
256.15	1726.44
256.36	1650.66
256.58	1712.10
256.80	1730.53
257.02	1697.77
257.23	1656.81
257.45	1591.27
257.67	1714.15
257.88	1669.09
258.10	1771.49
258.32	1716.20
258.53	1691.62
258.75	1824.74
258.97	1689.57
259.18	1646.57
259.40	1708.01
259.62	1824.74
259.83	1800.16
260.05	1699.81
260.27	1937.38
260.48	1755.11
260.70	1642.47
260.92	1720.29
261.13	1740.77
261.35	1726.44
261.57	1677.29
261.78	1630.18
262.00	1578.98
262.22	1777.64
262.43	1693.67
262.65	1718.25
262.86	1699.81
263.08	1826.79
263.30	1761.25
263.51	1697.77
263.73	1656.81
263.95	1773.54
264.16	1671.14
264.38	1669.09
264.60	1744.87
264.81	1697.77
265.03	1746.92
265.25	1720.29
265.46	1650.66
265.68	1742.82
265.89	1740.77
266.11	1693.67
266.33	1826.79
266.54	1767.40
266.76	1755.11
266.98	1693.67
267.19	1753.06
267.41	1791.97
267.62	1773.54
267.84	1648.61
268.06	1777.64
268.27	1759.21
268.49	1810.40
268.70	1769.44
268.92	1701.86
269.14	1687.53
269.35	1642.47
269.57	1738.73
269.79	1787.88
270.00	1705.96
270.22	1775.59
270.43	1638.38
270.65	1636.33
270.87	1699.81
271.08	1759.21
271.30	1708.01
271.51	1652.71
271.73	1667.05
271.95	1751.01
272.16	1787.88
272.38	1728.49
272.59	1763.30
272.81	1787.88
273.02	1765.35
273.24	1753.06
273.46	1734.63
273.67	1693.67
273.89	1656.81
274.10	1644.52
274.32	1726.44
274.54	1771.49
274.75	1730.53
274.97	1673.19
275.18	1751.01
275.40	1662.95
275.61	1654.76
275.83	1691.62
276.05	1687.53
276.26	1636.33
276.48	1695.72
276.69	1722.34
276.91	1695.72
277.12	1843.17
277.34	1808.36
277.55	1781.73
277.77	1675.24
277.99	1601.51
278.20	1634.28
278.42	1671.14
278.63	1689.57
278.85	1640.42
279.06	1677.29
279.28	1761.25
279.49	1722.34
279.71	1804.26
279.93	1730.53
280.14	1714.15
280.36	1740.77
280.57	1673.19
280.79	1806.31
281.00	1632.23
281.22	1665.00
281.43	1802.21
281.65	1617.90
281.86	1617.90
282.08	1849.32
282.29	1806.31
282.51	1675.24
282.73	1617.90
282.94	1658.85
283.16	1791.97
283.37	1779.68
283.59	1699.81
283.80	1777.64
284.02	1681.38
284.23	1644.52
284.45	1691.62
284.66	1693.67
284.88	1726.44
285.09	1662.95
285.31	1796.07
285.52	1740.77
285.74	1636.33
285.95	1828.84
286.17	1791.97
286.38	1763.30
286.60	1691.62
286.81	1662.95
287.03	1705.96
287.24	1718.25
287.46	1718.25
287.67	1726.44
287.89	1894.37
288.10	1742.82
288.32	1777.64
288.53	1884.13
288.75	1724.39
288.96	1732.58
289.18	1763.30
289.39	1767.40
289.61	1740.77
289.82	1804.26
290.04	1902.56
290.25	1685.48
290.47	1773.54
290.68	1722.34
290.90	1837.03
291.11	1626.09
291.33	1798.12
291.54	1572.84
291.76	1675.24
291.97	1716.20
292.18	1736.68
292.40	1683.43
292.61	1703.91
292.83	1896.42
293.04	1730.53
293.26	1734.63
293.47	1683.43
293.69	1591.27
293.90	1613.80
294.12	1716.20
294.33	1683.43
294.55	1671.14
294.76	1791.97
294.97	1681.38
295.19	1761.25
295.40	1679.33
295.62	1763.30
295.83	1759.21
296.05	1617.90
296.26	1775.59
296.48	1673.19
296.69	1742.82
296.90	1699.81
297.12	1677.29
297.33	1726.44
297.55	1705.96
297.76	1724.39
297.98	1720.29
298.19	1705.96
298.41	1730.53
298.62	1697.77
298.83	1814.50
299.05	1675.24
299.26	1769.44
299.48	1665.00
299.69	1722.34
299.90	1738.73
300.12	1619.94
300.33	1708.01
300.55	1730.53
300.76	1751.01
300.98	1660.90
301.19	1757.16
301.40	1677.29
301.62	1755.11
301.83	1759.21
302.05	1710.05
302.26	1648.61
302.47	1642.47
302.69	1667.05
302.90	1798.12
303.12	1538.02
303.33	1667.05
303.54	1777.64
303.76	1652.71
303.97	1714.15
304.19	1812.45
304.40	1671.14
304.61	1728.49
304.83	1802.21
305.04	1722.34
305.26	1697.77
305.47	1671.14
305.68	1726.44
305.90	1665.00
306.11	1712.10
306.33	1646.57
306.54	1789.92
306.75	1628.14
306.97	1648.61
307.18	1617.90
307.39	1685.48
307.61	1742.82
307.82	1697.77
308.04	1652.71
308.25	1701.86
308.46	1748.97
308.68	1755.11
308.89	1689.57
309.10	1791.97
309.32	1660.90
309.53	1687.53
309.74	1751.01
309.96	1746.92
310.17	1802.21
310.39	1609.70
310.60	1791.97
310.81	1769.44
311.03	1679.33
311.24	1757.16
311.45	1667.05
311.67	1785.83
311.88	1689.57
312.09	1687.53
312.31	1683.43
312.52	1769.44
312.73	1730.53
312.95	1617.90
313.16	1634.28
313.37	1841.12
313.59	1675.24
313.80	1681.38
314.01	1757.16
314.23	1757.16
314.44	1703.91
314.65	1656.81
314.87	1675.24
315.08	1630.18
315.29	1679.33
315.51	1656.81
315.72	1701.86
315.93	1812.45
316.15	1740.77
316.36	1642.47
316.57	1693.67
316.79	1757.16
317.00	1691.62
317.21	1777.64
317.43	1718.25
317.64	1675.24
317.85	1636.33
318.07	1705.96
318.28	1734.63
318.49	1757.16
318.70	1990.63
318.92	1849.32
319.13	1871.84
319.34	1861.60
319.56	1798.12
319.77	1814.50
319.98	1828.84
320.20	1744.87
320.41	1765.35
320.62	1755.11
320.83	1660.90
321.05	1882.08
321.26	1761.25
321.47	1705.96
321.69	1746.92
321.90	1662.95
322.11	1646.57
322.32	1693.67
322.54	1701.86
322.75	1751.01
322.96	1853.41
323.18	1636.33
323.39	1636.33
323.60	1679.33
323.81	1714.15
324.03	1624.04
324.24	1667.05
324.45	1771.49
324.66	1628.14
324.88	1732.58
325.09	1697.77
325.30	1681.38
325.52	1726.44
325.73	1728.49
325.94	1742.82
326.15	1617.90
326.37	1714.15
326.58	1753.06
326.79	1820.64
327.00	1689.57
327.22	1677.29
327.43	1648.61
327.64	1701.86
327.85	1820.64
328.07	1689.57
328.28	1767.40
328.49	1644.52
328.70	1714.15
328.92	1759.21
329.13	1779.68
329.34	1765.35
329.55	1810.40
329.76	1697.77
329.98	1695.72
330.19	1820.64
330.40	1726.44
330.61	1732.58
330.83	1703.91
331.04	1603.56
331.25	1771.49
331.46	1703.91
331.68	1617.90
331.89	1789.92
332.10	1675.24
332.31	1675.24
332.52	1693.67
332.74	1757.16
332.95	1621.99
333.16	1634.28
333.37	1734.63
333.58	1705.96
333.80	1740.77
334.01	1634.28
334.22	1718.25
334.43	1656.81
334.64	1689.57
334.86	1679.33
335.07	1744.87
335.28	1804.26
335.49	1611.75
335.70	1679.33
335.92	1880.04
336.13	1742.82
336.34	1718.25
336.55	1716.20
336.76	1656.81
336.98	1644.52
337.19	1695.72
337.40	1763.30
337.61	1828.84
337.82	1703.91
338.04	1806.31
338.25	1677.29
338.46	1671.14
338.67	1738.73
338.88	1601.51
339.09	1572.84
339.31	1669.09
339.52	1619.94
339.73	1638.38
339.94	1722.34
340.15	1734.63
340.36	1679.33
340.58	1701.86
340.79	1619.94
341.00	1728.49
341.21	1630.18
341.42	1814.50
341.63	1705.96
341.85	1771.49
342.06	1705.96
342.27	1701.86
342.48	1771.49
342.69	1587.18
342.90	1738.73
343.12	1705.96
343.33	1669.09
343.54	1718.25
343.75	1763.30
343.96	1708.01
344.17	1687.53
344.38	1716.20
344.60	1681.38
344.81	1650.66
345.02	1679.33
345.23	1748.97
345.44	1763.30
345.65	1781.73
345.86	1634.28
346.07	1671.14
346.29	1652.71
346.50	1812.45
346.71	1724.39
346.92	1804.26
347.13	1800.16
347.34	1701.86
347.55	1628.14
347.76	1703.91
347.98	1599.46
348.19	1677.29
348.40	1845.22
348.61	1695.72
348.82	1847.27
349.03	1812.45
349.24	1691.62
349.45	1816.55
349.66	1583.08
349.88	1714.15
350.09	1705.96
350.30	1789.92
350.51	1791.97
350.72	1740.77
350.93	1726.44
351.14	1710.05
351.35	1718.25
351.56	1718.25
351.77	1679.33
351.99	1765.35
352.20	1753.06
352.41	1742.82
352.62	1642.47
352.83	1734.63
353.04	1693.67
353.25	1671.14
353.46	1794.02
353.67	1767.40
353.88	1667.05
354.09	1701.86
354.30	1675.24
354.52	1751.01
354.73	1654.76
354.94	1669.09
355.15	1693.67
355.36	1712.10
355.57	1722.34
355.78	1714.15
355.99	1681.38
356.20	1679.33
356.41	1757.16
356.62	1613.80
356.83	1765.35
357.04	1789.92
357.25	1589.22
357.46	1763.30
357.68	1693.67
357.89	1687.53
358.10	1703.91
358.31	1708.01
358.52	1718.25
358.73	1583.08
358.94	1660.90
359.15	1683.43
359.36	1779.68
359.57	1761.25
359.78	1726.44
359.99	1746.92
360.20	1710.05
360.41	1734.63
360.62	1697.77
360.83	1720.29
361.04	1710.05
361.25	1677.29
361.46	1800.16
361.67	1746.92
361.88	1771.49
362.09	1689.57
362.30	1843.17
362.51	1693.67
362.72	1736.68
362.93	1746.92
363.14	1771.49
363.35	1753.06
363.56	1796.07
363.78	1742.82
363.99	1759.21
364.20	1656.81
364.41	1693.67
364.62	1843.17
364.83	1771.49
365.04	1763.30
365.25	1650.66
365.46	1822.69
365.67	1710.05
365.88	1656.81
366.09	1689.57
366.30	1732.58
366.51	1691.62
366.72	1669.09
366.93	1708.01
367.14	1744.87
367.35	1794.02
367.56	1755.11
367.77	1800.16
367.98	1644.52
368.18	1773.54
368.39	1748.97
368.60	1613.80
368.81	1730.53
369.02	1732.58
369.23	1640.42
369.44	1624.04
369.65	1667.05
369.86	1697.77
370.07	1755.11
370.28	1677.29
370.49	1757.16
370.70	1746.92
370.91	1716.20
371.12	1640.42
371.33	1828.84
371.54	1683.43
371.75	1834.98
371.96	1587.18
372.17	1685.48
372.38	1763.30
372.59	1800.16
372.80	1611.75
373.01	1695.72
373.22	1724.39
373.43	1736.68
373.64	1722.34
373.85	1724.39
374.06	1847.27
374.26	1763.30
374.47	1697.77
374.68	1828.84
374.89	1667.05
375.10	1648.61
375.31	1839.08
375.52	1761.25
375.73	1724.39
375.94	1767.40
376.15	1841.12
376.36	1665.00
376.57	1708.01
376.78	1605.61
376.99	1755.11
377.20	1720.29
377.40	1759.21
377.61	1800.16
377.82	1714.15
378.03	1755.11
378.24	1681.38
378.45	1646.57
378.66	1699.81
378.87	1603.56
379.08	1568.74
379.29	1718.25
379.50	1789.92
379.71	1738.73
379.91	1662.95
380.12	1724.39
380.33	1734.63
380.54	1705.96
380.75	1662.95
380.96	1679.33
381.17	1748.97
381.38	1718.25
381.59	1783.78
381.80	1685.48
382.00	1853.41
382.21	1714.15
382.42	1796.07
382.63	1861.60
382.84	1771.49
383.05	1834.98
383.26	1796.07
383.47	1769.44
383.68	1755.11
383.88	1771.49
384.09	1640.42
384.30	1869.80
384.51	1705.96
384.72	1636.33
384.93	1648.61
385.14	1619.94
385.35	1744.87
385.55	1632.23
385.76	1742.82
385.97	1677.29
386.18	1660.90
386.39	1634.28
386.60	1687.53
386.81	1660.90
387.02	1716.20
387.22	1665.00
387.43	1759.21
387.64	1722.34
387.85	1865.70
388.06	2176.99
388.27	4073.41
388.48	6602.65
388.68	7960.45
388.89	9215.86
389.10	9576.30
389.31	8343.42
389.52	7403.41
389.73	6520.73
389.93	6107.04
390.14	5740.46
390.35	5171.12
390.56	4548.54
390.77	3798.98
390.98	3018.71
391.18	2527.19
391.39	2084.83
391.60	1902.56
391.81	1834.98
392.02	1720.29
392.23	1869.80
392.43	1802.21
392.64	1863.65
392.85	1695.72
393.06	1783.78
393.27	1722.34
393.47	1640.42
393.68	1755.11
393.89	1726.44
394.10	1814.50
394.31	1626.09
394.52	1751.01
394.72	1730.53
394.93	1779.68
395.14	1687.53
395.35	1740.77
395.56	1716.20
395.76	1808.36
395.97	1789.92
396.18	1773.54
396.39	1867.75
396.60	2031.58
396.80	1849.32
397.01	1839.08
397.22	1845.22
397.43	1789.92
397.64	1697.77
397.84	1775.59
398.05	1867.75
398.26	1824.74
398.47	1769.44
398.67	1814.50
398.88	1679.33
399.09	1695.72
399.30	1724.39
399.51	1828.84
399.71	1613.80
399.92	1687.53
400.13	1738.73
400.34	1726.44
400.54	1667.05
400.75	1822.69
400.96	1744.87
401.17	1880.04
401.37	1681.38
401.58	1742.82
401.79	1753.06
402.00	1820.64
402.21	1988.58
402.41	1974.24
402.62	1988.58
402.83	2002.91
403.04	1992.67
403.24	2136.03
403.45	1845.22
403.66	2025.44
403.87	1886.18
404.07	1978.34
404.28	1955.81
404.49	1841.12
404.70	1845.22
404.90	1808.36
405.11	1724.39
405.32	1808.36
405.52	1691.62
405.73	1703.91
405.94	1652.71
406.15	1708.01
406.35	1773.54
406.56	1740.77
406.77	1744.87
406.98	1732.58
407.18	1699.81
407.39	1796.07
407.60	1669.09
407.80	1783.78
408.01	1710.05
408.22	1734.63
408.43	1753.06
408.63	1685.48
408.84	1746.92
409.05	1748.97
409.25	1640.42
409.46	1689.57
409.67	1720.29
409.88	1630.18
410.08	1710.05
410.29	1613.80
410.50	1765.35
410.70	1673.19
410.91	1665.00
411.12	1705.96
411.32	1705.96
411.53	1691.62
411.74	1785.83
411.95	1814.50
412.15	1738.73
412.36	1724.39
412.57	1675.24
412.77	1761.25
412.98	1701.86
413.19	1660.90
413.39	1687.53
413.60	1712.10
413.81	1785.83
414.01	1683.43
414.22	1732.58
414.43	1675.24
414.63	1632.23
414.84	1796.07
415.05	1722.34
415.25	1654.76
415.46	1810.40
415.67	1626.09
415.87	1648.61
416.08	1724.39
416.29	1605.61
416.49	1832.93
416.70	1716.20
416.91	1689.57
417.11	1697.77
417.32	1740.77
417.53	1787.88
417.73	1794.02
417.94	1708.01
418.15	1724.39
418.35	1662.95
418.56	1736.68
418.77	1867.75
418.97	1703.91
419.18	1761.25
419.38	1597.42
419.59	1794.02
419.80	1804.26
420.00	1685.48
420.21	1722.34
420.42	1804.26
420.62	1820.64
420.83	1624.04
421.04	1746.92
421.24	1660.90
421.45	1744.87
421.65	1751.01
421.86	1652.71
422.07	1773.54
422.27	1779.68
422.48	1714.15
422.69	1748.97
422.89	1703.91
423.10	1746.92
423.30	1693.67
423.51	1681.38
423.72	1710.05
423.92	1812.45
424.13	1687.53
424.33	1724.39
424.54	1761.25
424.75	1742.82
424.95	1744.87
425.16	1722.34
425.36	1726.44
425.57	1794.02
425.78	1775.59
425.98	1759.21
426.19	1710.05
426.39	1675.24
426.60	1744.87
426.81	1757.16
427.01	1748.97
427.22	1720.29
427.42	1646.57
427.63	1724.39
427.83	1728.49
428.04	1755.11
428.25	1783.78
428.45	1755.11
428.66	1759.21
428.86	1722.34
429.07	1779.68
429.28	1720.29
429.48	1683.43
429.69	1673.19
429.89	1796.07
430.10	1685.48
430.30	1781.73
430.51	1732.58
430.71	1695.72
430.92	1751.01
431.13	1759.21
431.33	1683.43
431.54	1728.49
431.74	1826.79
431.95	1851.36
432.15	1654.76
432.36	1730.53
432.56	1755.11
432.77	1785.83
432.98	1687.53
433.18	1769.44
433.39	1712.10
433.59	1695.72
433.80	1814.50
434.00	1941.47
434.21	1726.44
434.41	1656.81
434.62	1839.08
434.82	1736.68
435.03	1701.86
435.23	1763.30
435.44	1632.23
435.64	1683.43
435.85	1746.92
436.06	1775.59
436.26	1839.08
436.47	1703.91
436.67	1679.33
436.88	1740.77
437.08	1791.97
437.29	1804.26
437.49	1730.53
437.70	1808.36
437.90	1748.97
438.11	1851.36
438.31	1830.88
438.52	1798.12
438.72	1855.46
438.93	1890.28
439.13	1693.67
439.34	1822.69
439.54	1748.97
439.75	1796.07
439.95	1726.44
440.16	1652.71
440.36	1802.21
440.57	1740.77
440.77	1701.86
440.98	1691.62
441.18	1742.82
441.39	1734.63
441.59	1714.15
441.80	1892.32
442.00	1761.25
442.21	1882.08
442.41	1669.09
442.62	1740.77
442.82	1660.90
443.02	1708.01
443.23	1710.05
443.43	1648.61
443.64	1830.88
443.84	1748.97
444.05	1800.16
444.25	1744.87
444.46	1716.20
444.66	1726.44
444.87	1843.17
445.07	1648.61
445.28	1738.73
445.48	1855.46
445.69	1798.12
445.89	1880.04
446.09	1740.77
446.30	2068.45
446.50	2623.45
446.71	3639.24
446.91	4284.35
447.12	4495.29
447.32	4722.62
447.53	4323.26
447.73	3766.21
447.93	3469.26
448.14	3186.64
448.34	3125.20
448.55	2869.20
448.75	2869.20
448.96	2678.74
449.16	2404.32
449.36	2174.94
449.57	2013.15
449.77	1826.79
449.98	1771.49
450.18	1828.84
450.39	1791.97
450.59	1769.44
450.79	1693.67
451.00	1695.72
451.20	1734.63
451.41	1701.86
451.61	1824.74
451.81	1751.01
452.02	1671.14
452.22	1744.87
452.43	1748.97
452.63	1677.29
