SpectraSuite Data File
++++++++++++++++++++++++++++++++++++
Date: Mon Jun 06 17:04:57 CEST 2016
User: root
Dark Spectrum Present: No
Reference Spectrum Present: No
Number of Sampled Component Spectra: 1
Spectrometers: USB4C02835
Integration Time (usec): 100000 (USB4C02835)
Spectra Averaged: 1 (USB4C02835)
Boxcar Smoothing: 0 (USB4C02835)
Correct for Electrical Dark: No (USB4C02835)
Strobe/Lamp Enabled: No (USB4C02835)
Correct for Detector Non-linearity: No (USB4C02835)
Correct for Stray Light: No (USB4C02835)
Number of Pixels in Processed Spectrum: 3648
>>>>>Begin Processed Spectral Data<<<<<
177.47	1470.44
177.69	1470.44
177.91	1470.44
178.13	1429.48
178.36	1525.74
178.58	1617.90
178.80	1740.77
179.02	1644.52
179.24	1656.81
179.46	1720.29
179.68	1779.68
179.90	1736.68
180.13	1791.97
180.35	1624.04
180.57	1673.19
180.79	1736.68
181.01	1632.23
181.23	1724.39
181.45	1767.40
181.67	1660.90
181.90	1802.21
182.12	1644.52
182.34	1675.24
182.56	1775.59
182.78	1738.73
183.00	1658.85
183.22	1753.06
183.44	1615.85
183.66	1853.41
183.89	1826.79
184.11	1718.25
184.33	1660.90
184.55	1902.56
184.77	1736.68
184.99	1742.82
185.21	1658.85
185.43	1837.03
185.65	1679.33
185.87	1701.86
186.10	1880.04
186.32	1787.88
186.54	1785.83
186.76	1800.16
186.98	1724.39
187.20	1634.28
187.42	1810.40
187.64	1703.91
187.86	1746.92
188.08	1726.44
188.30	1728.49
188.52	1724.39
188.75	1779.68
188.97	1839.08
189.19	1701.86
189.41	1738.73
189.63	1671.14
189.85	1634.28
190.07	1660.90
190.29	1650.66
190.51	1748.97
190.73	1689.57
190.95	1791.97
191.17	1705.96
191.39	1599.46
191.61	1697.77
191.84	1644.52
192.06	1755.11
192.28	1644.52
192.50	1865.70
192.72	1710.05
192.94	1671.14
193.16	1779.68
193.38	1650.66
193.60	1701.86
193.82	1693.67
194.04	1832.93
194.26	1742.82
194.48	1753.06
194.70	1685.48
194.92	1642.47
195.14	1726.44
195.36	1656.81
195.58	1705.96
195.80	1613.80
196.02	1677.29
196.24	1703.91
196.46	1753.06
196.69	1673.19
196.91	1830.88
197.13	1650.66
197.35	1720.29
197.57	1787.88
197.79	1732.58
198.01	1734.63
198.23	1722.34
198.45	1722.34
198.67	1693.67
198.89	1660.90
199.11	1798.12
199.33	1669.09
199.55	1638.38
199.77	1697.77
199.99	1732.58
200.21	1658.85
200.43	1783.78
200.65	1628.14
200.87	1595.37
201.09	1746.92
201.31	1654.76
201.53	1734.63
201.75	1734.63
201.97	1697.77
202.19	1714.15
202.41	1740.77
202.63	1890.28
202.85	1728.49
203.07	1777.64
203.29	1710.05
203.51	1619.94
203.73	1677.29
203.95	1896.42
204.17	1742.82
204.39	1773.54
204.61	1701.86
204.83	1681.38
205.05	1748.97
205.27	1675.24
205.49	1828.84
205.71	1732.58
205.93	1624.04
206.15	1632.23
206.37	1712.10
206.59	1712.10
206.81	1617.90
207.03	1646.57
207.25	1652.71
207.47	1720.29
207.69	1636.33
207.91	1820.64
208.13	1738.73
208.34	1685.48
208.56	1734.63
208.78	1759.21
209.00	1687.53
209.22	1746.92
209.44	1660.90
209.66	1705.96
209.88	1697.77
210.10	1726.44
210.32	1642.47
210.54	1769.44
210.76	1701.86
210.98	1695.72
211.20	1587.18
211.42	1712.10
211.64	1791.97
211.86	1624.04
212.08	1699.81
212.30	1781.73
212.52	1697.77
212.74	1685.48
212.96	1722.34
213.17	1679.33
213.39	1767.40
213.61	1728.49
213.83	1734.63
214.05	1634.28
214.27	1730.53
214.49	1677.29
214.71	1665.00
214.93	1751.01
215.15	1722.34
215.37	1769.44
215.59	1640.42
215.81	1699.81
216.03	1683.43
216.24	1716.20
216.46	1611.75
216.68	1665.00
216.90	1722.34
217.12	1763.30
217.34	1703.91
217.56	1691.62
217.78	1785.83
218.00	1730.53
218.22	1732.58
218.44	1763.30
218.66	1697.77
218.87	1771.49
219.09	1703.91
219.31	1714.15
219.53	1759.21
219.75	1626.09
219.97	1646.57
220.19	1669.09
220.41	1654.76
220.63	1769.44
220.85	1765.35
221.06	1695.72
221.28	1822.69
221.50	1753.06
221.72	1718.25
221.94	1685.48
222.16	1742.82
222.38	1804.26
222.60	1759.21
222.82	1615.85
223.03	1755.11
223.25	1607.66
223.47	1759.21
223.69	1830.88
223.91	1728.49
224.13	1677.29
224.35	1705.96
224.57	1742.82
224.78	1697.77
225.00	1703.91
225.22	1630.18
225.44	1789.92
225.66	1712.10
225.88	1656.81
226.10	1822.69
226.32	1744.87
226.53	1789.92
226.75	1693.67
226.97	1755.11
227.19	1689.57
227.41	1665.00
227.63	1738.73
227.85	1662.95
228.06	1671.14
228.28	1744.87
228.50	1773.54
228.72	1679.33
228.94	1640.42
229.16	1605.61
229.37	1615.85
229.59	1665.00
229.81	1767.40
230.03	1589.22
230.25	1701.86
230.47	1638.38
230.69	1689.57
230.90	1777.64
231.12	1738.73
231.34	1781.73
231.56	1763.30
231.78	1681.38
232.00	1753.06
232.21	1683.43
232.43	1712.10
232.65	1597.42
232.87	1681.38
233.09	1703.91
233.30	1689.57
233.52	1798.12
233.74	1669.09
233.96	1736.68
234.18	1722.34
234.40	1685.48
234.61	1855.46
234.83	1595.37
235.05	1658.85
235.27	1849.32
235.49	1718.25
235.70	1746.92
235.92	1693.67
236.14	1736.68
236.36	1804.26
236.58	1654.76
236.79	1742.82
237.01	1695.72
237.23	1740.77
237.45	1775.59
237.67	1685.48
237.88	1757.16
238.10	1839.08
238.32	1654.76
238.54	1748.97
238.76	1744.87
238.97	1689.57
239.19	1677.29
239.41	1730.53
239.63	1742.82
239.85	1720.29
240.06	1636.33
240.28	1695.72
240.50	1728.49
240.72	1738.73
240.93	1675.24
241.15	1787.88
241.37	1742.82
241.59	1773.54
241.81	1742.82
242.02	1718.25
242.24	1656.81
242.46	1783.78
242.68	1755.11
242.89	1685.48
243.11	1789.92
243.33	1605.61
243.55	1699.81
243.76	1673.19
243.98	1701.86
244.20	1734.63
244.42	1787.88
244.64	1656.81
244.85	1687.53
245.07	1574.89
245.29	1703.91
245.51	1718.25
245.72	1746.92
245.94	1763.30
246.16	1691.62
246.38	1761.25
246.59	1667.05
246.81	1652.71
247.03	1761.25
247.24	1599.46
247.46	1669.09
247.68	1753.06
247.90	1683.43
248.11	1648.61
248.33	1765.35
248.55	1720.29
248.77	1818.60
248.98	1738.73
249.20	1832.93
249.42	1734.63
249.64	1693.67
249.85	1697.77
250.07	1685.48
250.29	1742.82
250.50	1785.83
250.72	1640.42
250.94	1732.58
251.16	1800.16
251.37	1738.73
251.59	1697.77
251.81	1693.67
252.02	1771.49
252.24	1642.47
252.46	1806.31
252.68	1632.23
252.89	1615.85
253.11	1574.89
253.33	1781.73
253.54	1767.40
253.76	1683.43
253.98	1654.76
254.20	1701.86
254.41	1665.00
254.63	1751.01
254.85	1648.61
255.06	1703.91
255.28	1753.06
255.50	1732.58
255.71	1695.72
255.93	1644.52
256.15	1701.86
256.36	1712.10
256.58	1738.73
256.80	1804.26
257.02	1693.67
257.23	1724.39
257.45	1681.38
257.67	1806.31
257.88	1740.77
258.10	1718.25
258.32	1755.11
258.53	1705.96
258.75	1818.60
258.97	1626.09
259.18	1710.05
259.40	1714.15
259.62	1857.51
259.83	1804.26
260.05	1820.64
260.27	1943.52
260.48	1824.74
260.70	1630.18
260.92	1644.52
261.13	1671.14
261.35	1710.05
261.57	1718.25
261.78	1615.85
262.00	1740.77
262.22	1701.86
262.43	1656.81
262.65	1683.43
262.86	1751.01
263.08	1871.84
263.30	1732.58
263.51	1720.29
263.73	1667.05
263.95	1804.26
264.16	1732.58
264.38	1708.01
264.60	1718.25
264.81	1695.72
265.03	1775.59
265.25	1742.82
265.46	1730.53
265.68	1753.06
265.89	1703.91
266.11	1632.23
266.33	1771.49
266.54	1814.50
266.76	1744.87
266.98	1722.34
267.19	1761.25
267.41	1820.64
267.62	1685.48
267.84	1626.09
268.06	1728.49
268.27	1697.77
268.49	1761.25
268.70	1720.29
268.92	1718.25
269.14	1701.86
269.35	1705.96
269.57	1710.05
269.79	1716.20
270.00	1701.86
270.22	1796.07
270.43	1640.42
270.65	1626.09
270.87	1746.92
271.08	1681.38
271.30	1748.97
271.51	1683.43
271.73	1775.59
271.95	1746.92
272.16	1769.44
272.38	1732.58
272.59	1689.57
272.81	1730.53
273.02	1753.06
273.24	1779.68
273.46	1734.63
273.67	1648.61
273.89	1669.09
274.10	1689.57
274.32	1746.92
274.54	1757.16
274.75	1720.29
274.97	1667.05
275.18	1755.11
275.40	1773.54
275.61	1722.34
275.83	1693.67
276.05	1644.52
276.26	1697.77
276.48	1738.73
276.69	1624.04
276.91	1710.05
277.12	1771.49
277.34	1746.92
277.55	1761.25
277.77	1773.54
277.99	1673.19
278.20	1601.51
278.42	1708.01
278.63	1734.63
278.85	1662.95
279.06	1574.89
279.28	1794.02
279.49	1757.16
279.71	1722.34
279.93	1699.81
280.14	1798.12
280.36	1722.34
280.57	1712.10
280.79	1705.96
281.00	1693.67
281.22	1695.72
281.43	1753.06
281.65	1667.05
281.86	1679.33
282.08	1724.39
282.29	1832.93
282.51	1619.94
282.73	1605.61
282.94	1650.66
283.16	1814.50
283.37	1810.40
283.59	1673.19
283.80	1736.68
284.02	1757.16
284.23	1732.58
284.45	1677.29
284.66	1691.62
284.88	1679.33
285.09	1753.06
285.31	1742.82
285.52	1697.77
285.74	1677.29
285.95	1802.21
286.17	1773.54
286.38	1759.21
286.60	1695.72
286.81	1662.95
287.03	1673.19
287.24	1744.87
287.46	1755.11
287.67	1685.48
287.89	1802.21
288.10	1705.96
288.32	1726.44
288.53	1763.30
288.75	1708.01
288.96	1744.87
289.18	1658.85
289.39	1738.73
289.61	1724.39
289.82	1865.70
290.04	1751.01
290.25	1656.81
290.47	1705.96
290.68	1753.06
290.90	1787.88
291.11	1662.95
291.33	1785.83
291.54	1652.71
291.76	1738.73
291.97	1703.91
292.18	1757.16
292.40	1652.71
292.61	1665.00
292.83	1761.25
293.04	1658.85
293.26	1681.38
293.47	1722.34
293.69	1652.71
293.90	1701.86
294.12	1767.40
294.33	1677.29
294.55	1726.44
294.76	1714.15
294.97	1736.68
295.19	1861.60
295.40	1681.38
295.62	1751.01
295.83	1746.92
296.05	1656.81
296.26	1814.50
296.48	1642.47
296.69	1714.15
296.90	1658.85
297.12	1779.68
297.33	1738.73
297.55	1759.21
297.76	1724.39
297.98	1812.45
298.19	1734.63
298.41	1628.14
298.62	1699.81
298.83	1716.20
299.05	1736.68
299.26	1656.81
299.48	1695.72
299.69	1734.63
299.90	1763.30
300.12	1703.91
300.33	1738.73
300.55	1693.67
300.76	1705.96
300.98	1597.42
301.19	1722.34
301.40	1615.85
301.62	1679.33
301.83	1759.21
302.05	1703.91
302.26	1734.63
302.47	1718.25
302.69	1636.33
302.90	1734.63
303.12	1613.80
303.33	1738.73
303.54	1759.21
303.76	1748.97
303.97	1755.11
304.19	1767.40
304.40	1642.47
304.61	1697.77
304.83	1757.16
305.04	1720.29
305.26	1689.57
305.47	1671.14
305.68	1726.44
305.90	1683.43
306.11	1783.78
306.33	1660.90
306.54	1646.57
306.75	1679.33
306.97	1671.14
307.18	1611.75
307.39	1708.01
307.61	1746.92
307.82	1689.57
308.04	1753.06
308.25	1650.66
308.46	1759.21
308.68	1775.59
308.89	1755.11
309.10	1761.25
309.32	1697.77
309.53	1748.97
309.74	1710.05
309.96	1632.23
310.17	1808.36
310.39	1693.67
310.60	1740.77
310.81	1695.72
311.03	1689.57
311.24	1708.01
311.45	1722.34
311.67	1841.12
311.88	1701.86
312.09	1712.10
312.31	1636.33
312.52	1738.73
312.73	1671.14
312.95	1599.46
313.16	1716.20
313.37	1798.12
313.59	1689.57
313.80	1746.92
314.01	1832.93
314.23	1738.73
314.44	1636.33
314.65	1699.81
314.87	1693.67
315.08	1759.21
315.29	1595.37
315.51	1576.94
315.72	1673.19
315.93	1798.12
316.15	1826.79
316.36	1665.00
316.57	1667.05
316.79	1748.97
317.00	1648.61
317.21	1730.53
317.43	1710.05
317.64	1697.77
317.85	1673.19
318.07	1685.48
318.28	1742.82
318.49	1757.16
318.70	1976.29
318.92	1753.06
319.13	1771.49
319.34	1902.56
319.56	1716.20
319.77	1830.88
319.98	1873.89
320.20	1716.20
320.41	1708.01
320.62	1693.67
320.83	1624.04
321.05	1834.98
321.26	1726.44
321.47	1705.96
321.69	1718.25
321.90	1648.61
322.11	1650.66
322.32	1693.67
322.54	1810.40
322.75	1630.18
322.96	1796.07
323.18	1667.05
323.39	1679.33
323.60	1652.71
323.81	1787.88
324.03	1685.48
324.24	1726.44
324.45	1806.31
324.66	1730.53
324.88	1767.40
325.09	1816.55
325.30	1660.90
325.52	1742.82
325.73	1738.73
325.94	1732.58
326.15	1671.14
326.37	1738.73
326.58	1771.49
326.79	1742.82
327.00	1617.90
327.22	1732.58
327.43	1763.30
327.64	1656.81
327.85	1806.31
328.07	1722.34
328.28	1732.58
328.49	1605.61
328.70	1783.78
328.92	1669.09
329.13	1697.77
329.34	1722.34
329.55	1769.44
329.76	1779.68
329.98	1753.06
330.19	1789.92
330.40	1794.02
330.61	1734.63
330.83	1841.12
331.04	1607.66
331.25	1769.44
331.46	1703.91
331.68	1656.81
331.89	1814.50
332.10	1830.88
332.31	1722.34
332.52	1665.00
332.74	1730.53
332.95	1640.42
333.16	1785.83
333.37	1748.97
333.58	1699.81
333.80	1720.29
334.01	1587.18
334.22	1736.68
334.43	1689.57
334.64	1818.60
334.86	1648.61
335.07	1634.28
335.28	1761.25
335.49	1574.89
335.70	1773.54
335.92	1718.25
336.13	1861.60
336.34	1705.96
336.55	1710.05
336.76	1740.77
336.98	1591.27
337.19	1665.00
337.40	1824.74
337.61	1816.55
337.82	1697.77
338.04	1746.92
338.25	1642.47
338.46	1705.96
338.67	1746.92
338.88	1636.33
339.09	1660.90
339.31	1632.23
339.52	1597.42
339.73	1693.67
339.94	1673.19
340.15	1771.49
340.36	1613.80
340.58	1718.25
340.79	1689.57
341.00	1712.10
341.21	1636.33
341.42	1791.97
341.63	1703.91
341.85	1701.86
342.06	1697.77
342.27	1611.75
342.48	1800.16
342.69	1626.09
342.90	1736.68
343.12	1652.71
343.33	1730.53
343.54	1720.29
343.75	1830.88
343.96	1660.90
344.17	1701.86
344.38	1740.77
344.60	1632.23
344.81	1716.20
345.02	1687.53
345.23	1683.43
345.44	1755.11
345.65	1716.20
345.86	1740.77
346.07	1626.09
346.29	1634.28
346.50	1705.96
346.71	1697.77
346.92	1720.29
347.13	1837.03
347.34	1644.52
347.55	1705.96
347.76	1730.53
347.98	1660.90
348.19	1673.19
348.40	1740.77
348.61	1656.81
348.82	1775.59
349.03	1660.90
349.24	1685.48
349.45	1863.65
349.66	1578.98
349.88	1755.11
350.09	1658.85
350.30	1746.92
350.51	1791.97
350.72	1648.61
350.93	1785.83
351.14	1642.47
351.35	1656.81
351.56	1734.63
351.77	1667.05
351.99	1714.15
352.20	1804.26
352.41	1765.35
352.62	1628.14
352.83	1775.59
353.04	1730.53
353.25	1689.57
353.46	1783.78
353.67	1806.31
353.88	1601.51
354.09	1665.00
354.30	1718.25
354.52	1765.35
354.73	1679.33
354.94	1730.53
355.15	1660.90
355.36	1724.39
355.57	1728.49
355.78	1689.57
355.99	1611.75
356.20	1697.77
356.41	1787.88
356.62	1660.90
356.83	1730.53
357.04	1714.15
357.25	1685.48
357.46	1728.49
357.68	1662.95
357.89	1665.00
358.10	1689.57
358.31	1697.77
358.52	1648.61
358.73	1662.95
358.94	1646.57
359.15	1615.85
359.36	1714.15
359.57	1695.72
359.78	1699.81
359.99	1705.96
360.20	1665.00
360.41	1740.77
360.62	1691.62
360.83	1710.05
361.04	1730.53
361.25	1773.54
361.46	1828.84
361.67	1699.81
361.88	1740.77
362.09	1808.36
362.30	1744.87
362.51	1714.15
362.72	1794.02
362.93	1736.68
363.14	1796.07
363.35	1789.92
363.56	1685.48
363.78	1730.53
363.99	1753.06
364.20	1689.57
364.41	1798.12
364.62	1787.88
364.83	1667.05
365.04	1761.25
365.25	1679.33
365.46	1820.64
365.67	1665.00
365.88	1638.38
366.09	1685.48
366.30	1621.99
366.51	1759.21
366.72	1615.85
366.93	1771.49
367.14	1722.34
367.35	1791.97
367.56	1710.05
367.77	1826.79
367.98	1599.46
368.18	1775.59
368.39	1738.73
368.60	1636.33
368.81	1757.16
369.02	1685.48
369.23	1652.71
369.44	1640.42
369.65	1697.77
369.86	1716.20
370.07	1699.81
370.28	1705.96
370.49	1660.90
370.70	1748.97
370.91	1660.90
371.12	1689.57
371.33	1757.16
371.54	1728.49
371.75	1777.64
371.96	1634.28
372.17	1687.53
372.38	1714.15
372.59	1757.16
372.80	1687.53
373.01	1742.82
373.22	1748.97
373.43	1771.49
373.64	1740.77
373.85	1820.64
374.06	1787.88
374.26	1796.07
374.47	1697.77
374.68	1724.39
374.89	1677.29
375.10	1716.20
375.31	1796.07
375.52	1746.92
375.73	1710.05
375.94	1638.38
376.15	1830.88
376.36	1634.28
376.57	1595.37
376.78	1667.05
376.99	1751.01
377.20	1773.54
377.40	1689.57
377.61	1832.93
377.82	1689.57
378.03	1705.96
378.24	1771.49
378.45	1679.33
378.66	1691.62
378.87	1601.51
379.08	1630.18
379.29	1656.81
379.50	1839.08
379.71	1732.58
379.91	1730.53
380.12	1722.34
380.33	1697.77
380.54	1691.62
380.75	1744.87
380.96	1746.92
381.17	1763.30
381.38	1765.35
381.59	1740.77
381.80	1742.82
382.00	1789.92
382.21	1722.34
382.42	1789.92
382.63	1869.80
382.84	1710.05
383.05	1796.07
383.26	1751.01
383.47	1736.68
383.68	1822.69
383.88	1761.25
384.09	1726.44
384.30	1826.79
384.51	1714.15
384.72	1761.25
384.93	1587.18
385.14	1681.38
385.35	1720.29
385.55	1632.23
385.76	1826.79
385.97	1771.49
386.18	1658.85
386.39	1673.19
386.60	1712.10
386.81	1775.59
387.02	1712.10
387.22	1675.24
387.43	1800.16
387.64	1771.49
387.85	1910.75
388.06	2217.95
388.27	4229.06
388.48	6703.00
388.68	8161.16
388.89	9660.27
389.10	9639.79
389.31	8451.97
389.52	7657.36
389.73	6737.82
389.93	6129.57
390.14	5767.08
390.35	5173.17
390.56	4466.62
390.77	3704.78
390.98	3082.19
391.18	2486.23
391.39	2129.89
391.60	1902.56
391.81	1845.22
392.02	1753.06
392.23	1861.60
392.43	1777.64
392.64	1771.49
392.85	1800.16
393.06	1822.69
393.27	1710.05
393.47	1726.44
393.68	1665.00
393.89	1605.61
394.10	1802.21
394.31	1669.09
394.52	1744.87
394.72	1701.86
394.93	1773.54
395.14	1691.62
395.35	1687.53
395.56	1685.48
395.76	1779.68
395.97	1769.44
396.18	1886.18
396.39	1834.98
396.60	2090.98
396.80	1869.80
397.01	1812.45
397.22	1855.46
397.43	1896.42
397.64	1730.53
397.84	1837.03
398.05	1834.98
398.26	1763.30
398.47	1751.01
398.67	1791.97
398.88	1742.82
399.09	1732.58
399.30	1691.62
399.51	1720.29
399.71	1654.76
399.92	1640.42
400.13	1734.63
400.34	1699.81
400.54	1759.21
400.75	1771.49
400.96	1665.00
401.17	1763.30
401.37	1769.44
401.58	1722.34
401.79	1779.68
402.00	1855.46
402.21	1986.53
402.41	1935.33
402.62	1980.39
402.83	2072.54
403.04	1996.77
403.24	2066.40
403.45	1849.32
403.66	1927.14
403.87	1884.13
404.07	1912.80
404.28	1929.19
404.49	1961.95
404.70	1800.16
404.90	1763.30
405.11	1777.64
405.32	1716.20
405.52	1695.72
405.73	1656.81
405.94	1728.49
406.15	1652.71
406.35	1658.85
406.56	1765.35
406.77	1726.44
406.98	1814.50
407.18	1687.53
407.39	1787.88
407.60	1648.61
407.80	1769.44
408.01	1701.86
408.22	1767.40
408.43	1675.24
408.63	1718.25
408.84	1763.30
409.05	1722.34
409.25	1742.82
409.46	1656.81
409.67	1732.58
409.88	1667.05
410.08	1665.00
410.29	1714.15
410.50	1779.68
410.70	1691.62
410.91	1748.97
411.12	1708.01
411.32	1679.33
411.53	1740.77
411.74	1767.40
411.95	1832.93
412.15	1824.74
412.36	1746.92
412.57	1796.07
412.77	1808.36
412.98	1673.19
413.19	1654.76
413.39	1744.87
413.60	1665.00
413.81	1837.03
414.01	1624.04
414.22	1718.25
414.43	1753.06
414.63	1736.68
414.84	1779.68
415.05	1748.97
415.25	1583.08
415.46	1751.01
415.67	1732.58
415.87	1728.49
416.08	1728.49
416.29	1748.97
416.49	1697.77
416.70	1738.73
416.91	1685.48
417.11	1697.77
417.32	1804.26
417.53	1853.41
417.73	1779.68
417.94	1742.82
418.15	1697.77
418.35	1693.67
418.56	1632.23
418.77	1804.26
418.97	1757.16
419.18	1753.06
419.38	1556.46
419.59	1718.25
419.80	1781.73
420.00	1751.01
420.21	1691.62
420.42	1800.16
420.62	1708.01
420.83	1697.77
421.04	1740.77
421.24	1722.34
421.45	1751.01
421.65	1714.15
421.86	1716.20
422.07	1712.10
422.27	1753.06
422.48	1722.34
422.69	1642.47
422.89	1636.33
423.10	1732.58
423.30	1681.38
423.51	1722.34
423.72	1734.63
423.92	1685.48
424.13	1656.81
424.33	1724.39
424.54	1742.82
424.75	1724.39
424.95	1857.51
425.16	1767.40
425.36	1662.95
425.57	1783.78
425.78	1736.68
425.98	1734.63
426.19	1677.29
426.39	1638.38
426.60	1689.57
426.81	1785.83
427.01	1802.21
427.22	1660.90
427.42	1621.99
427.63	1662.95
427.83	1734.63
428.04	1802.21
428.25	1777.64
428.45	1785.83
428.66	1724.39
428.86	1703.91
429.07	1730.53
429.28	1712.10
429.48	1701.86
429.69	1667.05
429.89	1759.21
430.10	1650.66
430.30	1773.54
430.51	1791.97
430.71	1658.85
430.92	1693.67
431.13	1681.38
431.33	1755.11
431.54	1736.68
431.74	1826.79
431.95	1851.36
432.15	1593.32
432.36	1679.33
432.56	1800.16
432.77	1781.73
432.98	1890.28
433.18	1753.06
433.39	1714.15
433.59	1740.77
433.80	1880.04
434.00	1890.28
434.21	1662.95
434.41	1771.49
434.62	1847.27
434.82	1673.19
435.03	1617.90
435.23	1767.40
435.44	1644.52
435.64	1740.77
435.85	1695.72
436.06	1648.61
436.26	1675.24
436.47	1683.43
436.67	1642.47
436.88	1736.68
437.08	1730.53
437.29	1798.12
437.49	1763.30
437.70	1828.84
437.90	1765.35
438.11	1814.50
438.31	1787.88
438.52	1920.99
438.72	1923.04
438.93	1976.29
439.13	1781.73
439.34	1753.06
439.54	1779.68
439.75	1828.84
439.95	1789.92
440.16	1722.34
440.36	1728.49
440.57	1740.77
440.77	1775.59
440.98	1773.54
441.18	1763.30
441.39	1673.19
441.59	1691.62
441.80	1826.79
442.00	1710.05
442.21	1798.12
442.41	1654.76
442.62	1779.68
442.82	1667.05
443.02	1748.97
443.23	1796.07
443.43	1738.73
443.64	1814.50
443.84	1675.24
444.05	1798.12
444.25	1705.96
444.46	1665.00
444.66	1755.11
444.87	1865.70
445.07	1677.29
445.28	1824.74
445.48	1865.70
445.69	1746.92
445.89	1904.61
446.09	1767.40
446.30	2062.30
446.50	2697.17
446.71	3825.61
446.91	4349.89
447.12	4739.00
447.32	4859.83
447.53	4257.73
447.73	3841.99
447.93	3516.36
448.14	3205.07
448.34	3225.55
448.55	2965.46
448.75	2791.38
448.96	2674.65
449.16	2408.41
449.36	2248.67
449.57	2064.35
449.77	1880.04
449.98	1771.49
450.18	1783.78
450.39	1830.88
450.59	1830.88
450.79	1779.68
451.00	1632.23
451.20	1769.44
451.41	1656.81
451.61	1810.40
451.81	1783.78
452.02	1794.02
452.22	1722.34
452.43	1669.09
452.63	1726.44
