SpectraSuite Data File
++++++++++++++++++++++++++++++++++++
Date: Mon Jun 06 14:07:37 CEST 2016
User: root
Dark Spectrum Present: No
Reference Spectrum Present: No
Number of Sampled Component Spectra: 1
Spectrometers: USB4C02835
Integration Time (usec): 100000 (USB4C02835)
Spectra Averaged: 1 (USB4C02835)
Boxcar Smoothing: 0 (USB4C02835)
Correct for Electrical Dark: No (USB4C02835)
Strobe/Lamp Enabled: No (USB4C02835)
Correct for Detector Non-linearity: No (USB4C02835)
Correct for Stray Light: No (USB4C02835)
Number of Pixels in Processed Spectrum: 3648
>>>>>Begin Processed Spectral Data<<<<<
177.47	1435.63
177.69	1435.63
177.91	1435.63
178.13	1447.91
178.36	1466.35
178.58	1669.09
178.80	1687.53
179.02	1665.00
179.24	1611.75
179.46	1679.33
179.68	1746.92
179.90	1648.61
180.13	1665.00
180.35	1683.43
180.57	1744.87
180.79	1742.82
181.01	1652.71
181.23	1722.34
181.45	1757.16
181.67	1722.34
181.90	1798.12
182.12	1638.38
182.34	1640.42
182.56	1701.86
182.78	1695.72
183.00	1574.89
183.22	1677.29
183.44	1570.79
183.66	1849.32
183.89	1841.12
184.11	1685.48
184.33	1714.15
184.55	1769.44
184.77	1726.44
184.99	1701.86
185.21	1615.85
185.43	1771.49
185.65	1626.09
185.87	1724.39
186.10	1849.32
186.32	1830.88
186.54	1697.77
186.76	1703.91
186.98	1726.44
187.20	1654.76
187.42	1583.08
187.64	1710.05
187.86	1718.25
188.08	1763.30
188.30	1705.96
188.52	1656.81
188.75	1857.51
188.97	1751.01
189.19	1685.48
189.41	1708.01
189.63	1746.92
189.85	1665.00
190.07	1626.09
190.29	1601.51
190.51	1728.49
190.73	1599.46
190.95	1791.97
191.17	1769.44
191.39	1585.13
191.61	1685.48
191.84	1621.99
192.06	1701.86
192.28	1585.13
192.50	1890.28
192.72	1722.34
192.94	1683.43
193.16	1724.39
193.38	1685.48
193.60	1665.00
193.82	1675.24
194.04	1724.39
194.26	1732.58
194.48	1775.59
194.70	1685.48
194.92	1710.05
195.14	1783.78
195.36	1621.99
195.58	1665.00
195.80	1679.33
196.02	1703.91
196.24	1710.05
196.46	1695.72
196.69	1613.80
196.91	1898.47
197.13	1648.61
197.35	1730.53
197.57	1826.79
197.79	1722.34
198.01	1806.31
198.23	1691.62
198.45	1734.63
198.67	1611.75
198.89	1691.62
199.11	1683.43
199.33	1714.15
199.55	1626.09
199.77	1671.14
199.99	1777.64
200.21	1718.25
200.43	1740.77
200.65	1685.48
200.87	1560.55
201.09	1708.01
201.31	1697.77
201.53	1800.16
201.75	1724.39
201.97	1738.73
202.19	1705.96
202.41	1800.16
202.63	1763.30
202.85	1751.01
203.07	1671.14
203.29	1644.52
203.51	1630.18
203.73	1650.66
203.95	1849.32
204.17	1681.38
204.39	1755.11
204.61	1701.86
204.83	1708.01
205.05	1775.59
205.27	1742.82
205.49	1781.73
205.71	1689.57
205.93	1644.52
206.15	1648.61
206.37	1728.49
206.59	1716.20
206.81	1654.76
207.03	1667.05
207.25	1652.71
207.47	1771.49
207.69	1724.39
207.91	1734.63
208.13	1791.97
208.34	1640.42
208.56	1630.18
208.78	1763.30
209.00	1695.72
209.22	1689.57
209.44	1660.90
209.66	1714.15
209.88	1789.92
210.10	1724.39
210.32	1693.67
210.54	1734.63
210.76	1675.24
210.98	1677.29
211.20	1626.09
211.42	1677.29
211.64	1808.36
211.86	1712.10
212.08	1722.34
212.30	1718.25
212.52	1673.19
212.74	1732.58
212.96	1660.90
213.17	1732.58
213.39	1673.19
213.61	1806.31
213.83	1744.87
214.05	1703.91
214.27	1744.87
214.49	1642.47
214.71	1615.85
214.93	1673.19
215.15	1640.42
215.37	1673.19
215.59	1589.22
215.81	1718.25
216.03	1769.44
216.24	1665.00
216.46	1736.68
216.68	1693.67
216.90	1789.92
217.12	1783.78
217.34	1708.01
217.56	1779.68
217.78	1824.74
218.00	1689.57
218.22	1724.39
218.44	1794.02
218.66	1738.73
218.87	1765.35
219.09	1595.37
219.31	1695.72
219.53	1722.34
219.75	1677.29
219.97	1636.33
220.19	1714.15
220.41	1626.09
220.63	1730.53
220.85	1740.77
221.06	1716.20
221.28	1832.93
221.50	1773.54
221.72	1722.34
221.94	1671.14
222.16	1634.28
222.38	1851.36
222.60	1679.33
222.82	1642.47
223.03	1710.05
223.25	1677.29
223.47	1763.30
223.69	1798.12
223.91	1728.49
224.13	1650.66
224.35	1703.91
224.57	1697.77
224.78	1705.96
225.00	1583.08
225.22	1751.01
225.44	1636.33
225.66	1744.87
225.88	1738.73
226.10	1757.16
226.32	1746.92
226.53	1755.11
226.75	1630.18
226.97	1753.06
227.19	1701.86
227.41	1636.33
227.63	1726.44
227.85	1693.67
228.06	1671.14
228.28	1636.33
228.50	1753.06
228.72	1671.14
228.94	1613.80
229.16	1619.94
229.37	1679.33
229.59	1685.48
229.81	1656.81
230.03	1673.19
230.25	1640.42
230.47	1634.28
230.69	1607.66
230.90	1683.43
231.12	1689.57
231.34	1744.87
231.56	1656.81
231.78	1632.23
232.00	1755.11
232.21	1765.35
232.43	1683.43
232.65	1570.79
232.87	1669.09
233.09	1656.81
233.30	1591.27
233.52	1730.53
233.74	1740.77
233.96	1689.57
234.18	1697.77
234.40	1712.10
234.61	1800.16
234.83	1593.32
235.05	1621.99
235.27	1806.31
235.49	1757.16
235.70	1736.68
235.92	1847.27
236.14	1794.02
236.36	1828.84
236.58	1591.27
236.79	1785.83
237.01	1652.71
237.23	1738.73
237.45	1763.30
237.67	1689.57
237.88	1722.34
238.10	1802.21
238.32	1656.81
238.54	1597.42
238.76	1771.49
238.97	1607.66
239.19	1705.96
239.41	1775.59
239.63	1800.16
239.85	1683.43
240.06	1669.09
240.28	1746.92
240.50	1714.15
240.72	1710.05
240.93	1644.52
241.15	1730.53
241.37	1701.86
241.59	1724.39
241.81	1638.38
242.02	1775.59
242.24	1753.06
242.46	1724.39
242.68	1679.33
242.89	1730.53
243.11	1730.53
243.33	1656.81
243.55	1646.57
243.76	1798.12
243.98	1650.66
244.20	1574.89
244.42	1773.54
244.64	1689.57
244.85	1742.82
245.07	1619.94
245.29	1710.05
245.51	1665.00
245.72	1718.25
245.94	1779.68
246.16	1724.39
246.38	1771.49
246.59	1585.13
246.81	1617.90
247.03	1675.24
247.24	1558.50
247.46	1724.39
247.68	1746.92
247.90	1722.34
248.11	1681.38
248.33	1746.92
248.55	1699.81
248.77	1710.05
248.98	1742.82
249.20	1773.54
249.42	1777.64
249.64	1693.67
249.85	1693.67
250.07	1615.85
250.29	1769.44
250.50	1800.16
250.72	1679.33
250.94	1671.14
251.16	1849.32
251.37	1869.80
251.59	1710.05
251.81	1736.68
252.02	1804.26
252.24	1656.81
252.46	1767.40
252.68	1607.66
252.89	1644.52
253.11	1630.18
253.33	1796.07
253.54	1724.39
253.76	1652.71
253.98	1677.29
254.20	1730.53
254.41	1699.81
254.63	1601.51
254.85	1587.18
255.06	1701.86
255.28	1671.14
255.50	1722.34
255.71	1644.52
255.93	1638.38
256.15	1701.86
256.36	1734.63
256.58	1613.80
256.80	1607.66
257.02	1734.63
257.23	1730.53
257.45	1716.20
257.67	1740.77
257.88	1642.47
258.10	1759.21
258.32	1718.25
258.53	1718.25
258.75	1724.39
258.97	1687.53
259.18	1708.01
259.40	1699.81
259.62	1777.64
259.83	1777.64
260.05	1757.16
260.27	1957.86
260.48	1787.88
260.70	1650.66
260.92	1693.67
261.13	1619.94
261.35	1714.15
261.57	1755.11
261.78	1597.42
262.00	1681.38
262.22	1748.97
262.43	1693.67
262.65	1650.66
262.86	1703.91
263.08	1841.12
263.30	1671.14
263.51	1650.66
263.73	1710.05
263.95	1894.37
264.16	1718.25
264.38	1677.29
264.60	1708.01
264.81	1685.48
265.03	1796.07
265.25	1798.12
265.46	1665.00
265.68	1830.88
265.89	1730.53
266.11	1535.98
266.33	1722.34
266.54	1732.58
266.76	1720.29
266.98	1771.49
267.19	1746.92
267.41	1785.83
267.62	1624.04
267.84	1650.66
268.06	1722.34
268.27	1693.67
268.49	1769.44
268.70	1736.68
268.92	1673.19
269.14	1656.81
269.35	1615.85
269.57	1703.91
269.79	1708.01
270.00	1667.05
270.22	1716.20
270.43	1660.90
270.65	1615.85
270.87	1714.15
271.08	1759.21
271.30	1691.62
271.51	1675.24
271.73	1660.90
271.95	1765.35
272.16	1718.25
272.38	1669.09
272.59	1693.67
272.81	1656.81
273.02	1724.39
273.24	1675.24
273.46	1759.21
273.67	1615.85
273.89	1689.57
274.10	1654.76
274.32	1699.81
274.54	1667.05
274.75	1761.25
274.97	1699.81
275.18	1691.62
275.40	1763.30
275.61	1671.14
275.83	1804.26
276.05	1634.28
276.26	1683.43
276.48	1767.40
276.69	1644.52
276.91	1595.37
277.12	1773.54
277.34	1751.01
277.55	1769.44
277.77	1671.14
277.99	1685.48
278.20	1636.33
278.42	1601.51
278.63	1662.95
278.85	1636.33
279.06	1628.14
279.28	1734.63
279.49	1757.16
279.71	1759.21
279.93	1658.85
280.14	1705.96
280.36	1642.47
280.57	1730.53
280.79	1816.55
281.00	1650.66
281.22	1654.76
281.43	1767.40
281.65	1630.18
281.86	1621.99
282.08	1742.82
282.29	1810.40
282.51	1714.15
282.73	1640.42
282.94	1617.90
283.16	1755.11
283.37	1763.30
283.59	1708.01
283.80	1748.97
284.02	1697.77
284.23	1652.71
284.45	1673.19
284.66	1615.85
284.88	1736.68
285.09	1689.57
285.31	1718.25
285.52	1714.15
285.74	1621.99
285.95	1773.54
286.17	1775.59
286.38	1742.82
286.60	1669.09
286.81	1658.85
287.03	1740.77
287.24	1679.33
287.46	1681.38
287.67	1677.29
287.89	1767.40
288.10	1708.01
288.32	1710.05
288.53	1751.01
288.75	1716.20
288.96	1654.76
289.18	1648.61
289.39	1683.43
289.61	1718.25
289.82	1857.51
290.04	1738.73
290.25	1673.19
290.47	1730.53
290.68	1667.05
290.90	1736.68
291.11	1636.33
291.33	1744.87
291.54	1691.62
291.76	1619.94
291.97	1671.14
292.18	1699.81
292.40	1695.72
292.61	1665.00
292.83	1832.93
293.04	1710.05
293.26	1671.14
293.47	1701.86
293.69	1605.61
293.90	1722.34
294.12	1691.62
294.33	1669.09
294.55	1685.48
294.76	1722.34
294.97	1714.15
295.19	1791.97
295.40	1699.81
295.62	1841.12
295.83	1722.34
296.05	1693.67
296.26	1712.10
296.48	1667.05
296.69	1703.91
296.90	1677.29
297.12	1728.49
297.33	1730.53
297.55	1738.73
297.76	1736.68
297.98	1705.96
298.19	1775.59
298.41	1652.71
298.62	1533.93
298.83	1769.44
299.05	1695.72
299.26	1630.18
299.48	1638.38
299.69	1748.97
299.90	1740.77
300.12	1703.91
300.33	1714.15
300.55	1718.25
300.76	1738.73
300.98	1638.38
301.19	1705.96
301.40	1759.21
301.62	1771.49
301.83	1777.64
302.05	1671.14
302.26	1712.10
302.47	1691.62
302.69	1607.66
302.90	1683.43
303.12	1572.84
303.33	1738.73
303.54	1779.68
303.76	1665.00
303.97	1753.06
304.19	1806.31
304.40	1687.53
304.61	1773.54
304.83	1812.45
305.04	1732.58
305.26	1714.15
305.47	1603.56
305.68	1726.44
305.90	1628.14
306.11	1765.35
306.33	1734.63
306.54	1671.14
306.75	1628.14
306.97	1683.43
307.18	1732.58
307.39	1697.77
307.61	1695.72
307.82	1828.84
308.04	1738.73
308.25	1648.61
308.46	1695.72
308.68	1644.52
308.89	1728.49
309.10	1753.06
309.32	1724.39
309.53	1675.24
309.74	1728.49
309.96	1630.18
310.17	1820.64
310.39	1705.96
310.60	1742.82
310.81	1722.34
311.03	1669.09
311.24	1644.52
311.45	1683.43
311.67	1767.40
311.88	1728.49
312.09	1710.05
312.31	1712.10
312.52	1714.15
312.73	1689.57
312.95	1607.66
313.16	1691.62
313.37	1783.78
313.59	1691.62
313.80	1783.78
314.01	1798.12
314.23	1667.05
314.44	1658.85
314.65	1636.33
314.87	1628.14
315.08	1703.91
315.29	1611.75
315.51	1681.38
315.72	1589.22
315.93	1867.75
316.15	1726.44
316.36	1673.19
316.57	1679.33
316.79	1673.19
317.00	1652.71
317.21	1730.53
317.43	1669.09
317.64	1757.16
317.85	1677.29
318.07	1701.86
318.28	1736.68
318.49	1830.88
318.70	1929.19
318.92	1783.78
319.13	1853.41
319.34	1841.12
319.56	1769.44
319.77	1789.92
319.98	1832.93
320.20	1824.74
320.41	1806.31
320.62	1665.00
320.83	1652.71
321.05	1834.98
321.26	1691.62
321.47	1691.62
321.69	1761.25
321.90	1724.39
322.11	1685.48
322.32	1746.92
322.54	1740.77
322.75	1611.75
322.96	1849.32
323.18	1611.75
323.39	1591.27
323.60	1667.05
323.81	1710.05
324.03	1728.49
324.24	1728.49
324.45	1791.97
324.66	1701.86
324.88	1728.49
325.09	1777.64
325.30	1697.77
325.52	1683.43
325.73	1697.77
325.94	1675.24
326.15	1679.33
326.37	1601.51
326.58	1740.77
326.79	1771.49
327.00	1701.86
327.22	1697.77
327.43	1593.32
327.64	1595.37
327.85	1703.91
328.07	1726.44
328.28	1824.74
328.49	1587.18
328.70	1574.89
328.92	1718.25
329.13	1705.96
329.34	1755.11
329.55	1841.12
329.76	1714.15
329.98	1689.57
330.19	1865.70
330.40	1755.11
330.61	1693.67
330.83	1703.91
331.04	1671.14
331.25	1650.66
331.46	1708.01
331.68	1617.90
331.89	1765.35
332.10	1681.38
332.31	1648.61
332.52	1703.91
332.74	1710.05
332.95	1761.25
333.16	1642.47
333.37	1841.12
333.58	1718.25
333.80	1732.58
334.01	1671.14
334.22	1697.77
334.43	1648.61
334.64	1683.43
334.86	1681.38
335.07	1574.89
335.28	1761.25
335.49	1572.84
335.70	1796.07
335.92	1714.15
336.13	1839.08
336.34	1705.96
336.55	1685.48
336.76	1724.39
336.98	1599.46
337.19	1753.06
337.40	1841.12
337.61	1855.46
337.82	1636.33
338.04	1765.35
338.25	1609.70
338.46	1681.38
338.67	1685.48
338.88	1738.73
339.09	1638.38
339.31	1665.00
339.52	1695.72
339.73	1650.66
339.94	1703.91
340.15	1783.78
340.36	1660.90
340.58	1708.01
340.79	1705.96
341.00	1767.40
341.21	1583.08
341.42	1705.96
341.63	1687.53
341.85	1726.44
342.06	1648.61
342.27	1652.71
342.48	1730.53
342.69	1648.61
342.90	1665.00
343.12	1658.85
343.33	1677.29
343.54	1667.05
343.75	1808.36
343.96	1689.57
344.17	1683.43
344.38	1695.72
344.60	1681.38
344.81	1662.95
345.02	1703.91
345.23	1781.73
345.44	1794.02
345.65	1765.35
345.86	1693.67
346.07	1728.49
346.29	1654.76
346.50	1708.01
346.71	1755.11
346.92	1757.16
347.13	1834.98
347.34	1736.68
347.55	1669.09
347.76	1787.88
347.98	1642.47
348.19	1730.53
348.40	1783.78
348.61	1665.00
348.82	1828.84
349.03	1804.26
349.24	1626.09
349.45	1789.92
349.66	1593.32
349.88	1699.81
350.09	1734.63
350.30	1837.03
350.51	1771.49
350.72	1712.10
350.93	1751.01
351.14	1679.33
351.35	1691.62
351.56	1662.95
351.77	1652.71
351.99	1763.30
352.20	1785.83
352.41	1812.45
352.62	1599.46
352.83	1665.00
353.04	1679.33
353.25	1693.67
353.46	1746.92
353.67	1765.35
353.88	1562.60
354.09	1779.68
354.30	1656.81
354.52	1751.01
354.73	1691.62
354.94	1665.00
355.15	1705.96
355.36	1886.18
355.57	1687.53
355.78	1742.82
355.99	1677.29
356.20	1662.95
356.41	1781.73
356.62	1708.01
356.83	1730.53
357.04	1798.12
357.25	1685.48
357.46	1712.10
357.68	1667.05
357.89	1550.31
358.10	1779.68
358.31	1716.20
358.52	1648.61
358.73	1669.09
358.94	1665.00
359.15	1603.56
359.36	1675.24
359.57	1681.38
359.78	1726.44
359.99	1701.86
360.20	1699.81
360.41	1693.67
360.62	1761.25
360.83	1701.86
361.04	1705.96
361.25	1660.90
361.46	1855.46
361.67	1761.25
361.88	1730.53
362.09	1748.97
362.30	1681.38
362.51	1669.09
362.72	1644.52
362.93	1753.06
363.14	1689.57
363.35	1648.61
363.56	1759.21
363.78	1732.58
363.99	1718.25
364.20	1683.43
364.41	1656.81
364.62	1761.25
364.83	1689.57
365.04	1658.85
365.25	1718.25
365.46	1814.50
365.67	1662.95
365.88	1615.85
366.09	1667.05
366.30	1583.08
366.51	1685.48
366.72	1646.57
366.93	1710.05
367.14	1769.44
367.35	1757.16
367.56	1667.05
367.77	1832.93
367.98	1718.25
368.18	1722.34
368.39	1705.96
368.60	1642.47
368.81	1763.30
369.02	1722.34
369.23	1673.19
369.44	1576.94
369.65	1648.61
369.86	1712.10
370.07	1791.97
370.28	1673.19
370.49	1751.01
370.70	1732.58
370.91	1683.43
371.12	1646.57
371.33	1730.53
371.54	1669.09
371.75	1785.83
371.96	1568.74
372.17	1703.91
372.38	1669.09
372.59	1744.87
372.80	1646.57
373.01	1669.09
373.22	1660.90
373.43	1667.05
373.64	1667.05
373.85	1822.69
374.06	1789.92
374.26	1818.60
374.47	1773.54
374.68	1753.06
374.89	1665.00
375.10	1705.96
375.31	1828.84
375.52	1767.40
375.73	1765.35
375.94	1685.48
376.15	1718.25
376.36	1638.38
376.57	1703.91
376.78	1603.56
376.99	1740.77
377.20	1708.01
377.40	1712.10
377.61	1822.69
377.82	1621.99
378.03	1806.31
378.24	1748.97
378.45	1701.86
378.66	1796.07
378.87	1617.90
379.08	1665.00
379.29	1603.56
379.50	1787.88
379.71	1652.71
379.91	1822.69
380.12	1632.23
380.33	1660.90
380.54	1656.81
380.75	1800.16
380.96	1646.57
381.17	1722.34
381.38	1665.00
381.59	1779.68
381.80	1755.11
382.00	1814.50
382.21	1755.11
382.42	1816.55
382.63	1867.75
382.84	1771.49
383.05	1822.69
383.26	1759.21
383.47	1689.57
383.68	1779.68
383.88	1773.54
384.09	1730.53
384.30	1779.68
384.51	1671.14
384.72	1617.90
384.93	1673.19
385.14	1632.23
385.35	1769.44
385.55	1665.00
385.76	1808.36
385.97	1630.18
386.18	1583.08
386.39	1697.77
386.60	1687.53
386.81	1667.05
387.02	1613.80
387.22	1652.71
387.43	1787.88
387.64	1777.64
387.85	1882.08
388.06	2148.32
388.27	4143.04
388.48	6645.66
388.68	8163.20
388.89	9578.35
389.10	9557.87
389.31	8376.19
389.52	7452.56
389.73	6614.94
389.93	6096.80
390.14	5824.42
390.35	5193.65
390.56	4462.52
390.77	3741.64
390.98	3102.67
391.18	2611.16
391.39	2125.79
391.60	1841.12
391.81	1918.95
392.02	1718.25
392.23	1855.46
392.43	1716.20
392.64	1822.69
392.85	1708.01
393.06	1773.54
393.27	1708.01
393.47	1648.61
393.68	1757.16
393.89	1701.86
394.10	1787.88
394.31	1591.27
394.52	1642.47
394.72	1648.61
394.93	1845.22
395.14	1691.62
395.35	1802.21
395.56	1673.19
395.76	1798.12
395.97	1789.92
396.18	1767.40
396.39	1796.07
396.60	2058.21
396.80	1978.34
397.01	1916.90
397.22	1869.80
397.43	1841.12
397.64	1757.16
397.84	1822.69
398.05	1902.56
398.26	1787.88
398.47	1789.92
398.67	1804.26
398.88	1689.57
399.09	1722.34
399.30	1677.29
399.51	1728.49
399.71	1685.48
399.92	1593.32
400.13	1697.77
400.34	1691.62
400.54	1710.05
400.75	1796.07
400.96	1703.91
401.17	1830.88
401.37	1685.48
401.58	1699.81
401.79	1775.59
402.00	1861.60
402.21	2025.44
402.41	2025.44
402.62	2058.21
402.83	1990.63
403.04	2000.87
403.24	2123.74
403.45	1826.79
403.66	1853.41
403.87	1910.75
404.07	1914.85
404.28	1931.23
404.49	1855.46
404.70	1742.82
404.90	1808.36
405.11	1748.97
405.32	1710.05
405.52	1677.29
405.73	1708.01
405.94	1628.14
406.15	1751.01
406.35	1753.06
406.56	1769.44
406.77	1722.34
406.98	1740.77
407.18	1626.09
407.39	1808.36
407.60	1724.39
407.80	1742.82
408.01	1685.48
408.22	1718.25
408.43	1656.81
408.63	1681.38
408.84	1705.96
409.05	1710.05
409.25	1662.95
409.46	1671.14
409.67	1748.97
409.88	1757.16
410.08	1748.97
410.29	1669.09
410.50	1656.81
410.70	1673.19
410.91	1595.37
411.12	1673.19
411.32	1738.73
411.53	1673.19
411.74	1814.50
411.95	1779.68
412.15	1705.96
412.36	1812.45
412.57	1769.44
412.77	1712.10
412.98	1693.67
413.19	1660.90
413.39	1765.35
413.60	1794.02
413.81	1769.44
414.01	1656.81
414.22	1708.01
414.43	1763.30
414.63	1759.21
414.84	1693.67
415.05	1716.20
415.25	1656.81
415.46	1748.97
415.67	1681.38
415.87	1779.68
416.08	1732.58
416.29	1708.01
416.49	1755.11
416.70	1746.92
416.91	1650.66
417.11	1687.53
417.32	1738.73
417.53	1763.30
417.73	1769.44
417.94	1728.49
418.15	1736.68
418.35	1685.48
418.56	1646.57
418.77	1812.45
418.97	1646.57
419.18	1710.05
419.38	1628.14
419.59	1685.48
419.80	1818.60
420.00	1650.66
420.21	1779.68
420.42	1806.31
420.62	1746.92
420.83	1734.63
421.04	1681.38
421.24	1771.49
421.45	1771.49
421.65	1691.62
421.86	1712.10
422.07	1660.90
422.27	1691.62
422.48	1746.92
422.69	1697.77
422.89	1736.68
423.10	1648.61
423.30	1624.04
423.51	1687.53
423.72	1755.11
423.92	1771.49
424.13	1624.04
424.33	1771.49
424.54	1681.38
424.75	1685.48
424.95	1816.55
425.16	1732.58
425.36	1697.77
425.57	1791.97
425.78	1759.21
425.98	1757.16
426.19	1720.29
426.39	1687.53
426.60	1710.05
426.81	1787.88
427.01	1732.58
427.22	1708.01
427.42	1613.80
427.63	1683.43
427.83	1732.58
428.04	1791.97
428.25	1822.69
428.45	1818.60
428.66	1783.78
428.86	1701.86
429.07	1636.33
429.28	1697.77
429.48	1697.77
429.69	1603.56
429.89	1705.96
430.10	1695.72
430.30	1777.64
430.51	1791.97
430.71	1679.33
430.92	1703.91
431.13	1722.34
431.33	1785.83
431.54	1716.20
431.74	1804.26
431.95	1781.73
432.15	1613.80
432.36	1705.96
432.56	1773.54
432.77	1794.02
432.98	1718.25
433.18	1679.33
433.39	1689.57
433.59	1753.06
433.80	1820.64
434.00	1818.60
434.21	1710.05
434.41	1648.61
434.62	1830.88
434.82	1701.86
435.03	1697.77
435.23	1759.21
435.44	1648.61
435.64	1681.38
435.85	1726.44
436.06	1710.05
436.26	1816.55
436.47	1716.20
436.67	1748.97
436.88	1705.96
437.08	1810.40
437.29	1808.36
437.49	1593.32
437.70	1714.15
437.90	1730.53
438.11	1865.70
438.31	1791.97
438.52	1845.22
438.72	1863.65
438.93	1890.28
439.13	1789.92
439.34	1785.83
439.54	1779.68
439.75	1863.65
439.95	1751.01
440.16	1716.20
440.36	1783.78
440.57	1779.68
440.77	1757.16
440.98	1708.01
441.18	1779.68
441.39	1599.46
441.59	1673.19
441.80	1746.92
442.00	1738.73
442.21	1753.06
442.41	1701.86
442.62	1662.95
442.82	1697.77
443.02	1703.91
443.23	1734.63
443.43	1710.05
443.64	1714.15
443.84	1665.00
444.05	1736.68
444.25	1685.48
444.46	1710.05
444.66	1683.43
444.87	1804.26
445.07	1679.33
445.28	1693.67
445.48	1761.25
445.69	1748.97
445.89	1877.99
446.09	1761.25
446.30	2035.68
446.50	2486.23
446.71	3643.34
446.91	4382.65
447.12	4775.86
447.32	4851.64
447.53	4253.63
447.73	3932.10
447.93	3514.31
448.14	3260.37
448.34	3147.73
448.55	2836.44
448.75	2772.95
448.96	2695.13
449.16	2301.92
449.36	2289.63
449.57	2111.46
449.77	1939.43
449.98	1822.69
450.18	1810.40
450.39	1826.79
450.59	1765.35
450.79	1716.20
451.00	1740.77
451.20	1826.79
451.41	1695.72
451.61	1787.88
451.81	1699.81
452.02	1714.15
452.22	1736.68
452.43	1748.97
452.63	1757.16
