SpectraSuite Data File
++++++++++++++++++++++++++++++++++++
Date: Mon Jun 06 13:11:17 CEST 2016
User: root
Dark Spectrum Present: No
Reference Spectrum Present: No
Number of Sampled Component Spectra: 1
Spectrometers: USB4C02835
Integration Time (usec): 100000 (USB4C02835)
Spectra Averaged: 1 (USB4C02835)
Boxcar Smoothing: 0 (USB4C02835)
Correct for Electrical Dark: No (USB4C02835)
Strobe/Lamp Enabled: No (USB4C02835)
Correct for Detector Non-linearity: No (USB4C02835)
Correct for Stray Light: No (USB4C02835)
Number of Pixels in Processed Spectrum: 3648
>>>>>Begin Processed Spectral Data<<<<<
177.47	1472.49
177.69	1472.49
177.91	1472.49
178.13	1466.35
178.36	1396.71
178.58	1554.41
178.80	1730.53
179.02	1611.75
179.24	1644.52
179.46	1667.05
179.68	1785.83
179.90	1654.76
180.13	1767.40
180.35	1681.38
180.57	1667.05
180.79	1722.34
181.01	1628.14
181.23	1757.16
181.45	1757.16
181.67	1693.67
181.90	1738.73
182.12	1673.19
182.34	1626.09
182.56	1804.26
182.78	1699.81
183.00	1708.01
183.22	1714.15
183.44	1658.85
183.66	1912.80
183.89	1777.64
184.11	1689.57
184.33	1730.53
184.55	1757.16
184.77	1755.11
184.99	1691.62
185.21	1665.00
185.43	1759.21
185.65	1646.57
185.87	1722.34
186.10	1845.22
186.32	1837.03
186.54	1705.96
186.76	1757.16
186.98	1751.01
187.20	1673.19
187.42	1748.97
187.64	1751.01
187.86	1671.14
188.08	1710.05
188.30	1712.10
188.52	1695.72
188.75	1728.49
188.97	1740.77
189.19	1701.86
189.41	1742.82
189.63	1685.48
189.85	1705.96
190.07	1634.28
190.29	1671.14
190.51	1779.68
190.73	1638.38
190.95	1716.20
191.17	1609.70
191.39	1669.09
191.61	1617.90
191.84	1732.58
192.06	1751.01
192.28	1609.70
192.50	2002.91
192.72	1738.73
192.94	1701.86
193.16	1761.25
193.38	1734.63
193.60	1636.33
193.82	1683.43
194.04	1728.49
194.26	1687.53
194.48	1722.34
194.70	1679.33
194.92	1660.90
195.14	1757.16
195.36	1677.29
195.58	1755.11
195.80	1693.67
196.02	1685.48
196.24	1712.10
196.46	1648.61
196.69	1669.09
196.91	1789.92
197.13	1667.05
197.35	1650.66
197.57	1791.97
197.79	1728.49
198.01	1728.49
198.23	1658.85
198.45	1720.29
198.67	1681.38
198.89	1730.53
199.11	1681.38
199.33	1658.85
199.55	1558.50
199.77	1693.67
199.99	1796.07
200.21	1685.48
200.43	1773.54
200.65	1595.37
200.87	1617.90
201.09	1679.33
201.31	1705.96
201.53	1851.36
201.75	1751.01
201.97	1746.92
202.19	1687.53
202.41	1718.25
202.63	1720.29
202.85	1806.31
203.07	1753.06
203.29	1656.81
203.51	1656.81
203.73	1607.66
203.95	1925.09
204.17	1722.34
204.39	1787.88
204.61	1671.14
204.83	1638.38
205.05	1697.77
205.27	1775.59
205.49	1822.69
205.71	1726.44
205.93	1662.95
206.15	1585.13
206.37	1720.29
206.59	1718.25
206.81	1693.67
207.03	1613.80
207.25	1595.37
207.47	1724.39
207.69	1652.71
207.91	1730.53
208.13	1804.26
208.34	1667.05
208.56	1640.42
208.78	1767.40
209.00	1626.09
209.22	1722.34
209.44	1648.61
209.66	1697.77
209.88	1699.81
210.10	1648.61
210.32	1621.99
210.54	1783.78
210.76	1673.19
210.98	1718.25
211.20	1615.85
211.42	1753.06
211.64	1759.21
211.86	1785.83
212.08	1726.44
212.30	1744.87
212.52	1705.96
212.74	1652.71
212.96	1769.44
213.17	1697.77
213.39	1685.48
213.61	1730.53
213.83	1763.30
214.05	1673.19
214.27	1765.35
214.49	1679.33
214.71	1724.39
214.93	1751.01
215.15	1742.82
215.37	1726.44
215.59	1742.82
215.81	1703.91
216.03	1802.21
216.24	1681.38
216.46	1673.19
216.68	1642.47
216.90	1751.01
217.12	1853.41
217.34	1732.58
217.56	1753.06
217.78	1751.01
218.00	1738.73
218.22	1763.30
218.44	1728.49
218.66	1722.34
218.87	1740.77
219.09	1724.39
219.31	1734.63
219.53	1728.49
219.75	1634.28
219.97	1667.05
220.19	1640.42
220.41	1705.96
220.63	1726.44
220.85	1800.16
221.06	1609.70
221.28	1814.50
221.50	1716.20
221.72	1726.44
221.94	1656.81
222.16	1716.20
222.38	1824.74
222.60	1757.16
222.82	1624.04
223.03	1726.44
223.25	1634.28
223.47	1695.72
223.69	1804.26
223.91	1703.91
224.13	1638.38
224.35	1644.52
224.57	1751.01
224.78	1746.92
225.00	1544.17
225.22	1667.05
225.44	1730.53
225.66	1755.11
225.88	1699.81
226.10	1759.21
226.32	1765.35
226.53	1751.01
226.75	1628.14
226.97	1714.15
227.19	1716.20
227.41	1671.14
227.63	1667.05
227.85	1576.94
228.06	1785.83
228.28	1693.67
228.50	1703.91
228.72	1599.46
228.94	1648.61
229.16	1624.04
229.37	1662.95
229.59	1710.05
229.81	1722.34
230.03	1624.04
230.25	1638.38
230.47	1693.67
230.69	1638.38
230.90	1802.21
231.12	1697.77
231.34	1636.33
231.56	1761.25
231.78	1648.61
232.00	1755.11
232.21	1656.81
232.43	1626.09
232.65	1613.80
232.87	1759.21
233.09	1679.33
233.30	1714.15
233.52	1744.87
233.74	1740.77
233.96	1679.33
234.18	1624.04
234.40	1761.25
234.61	1802.21
234.83	1689.57
235.05	1671.14
235.27	1834.98
235.49	1779.68
235.70	1755.11
235.92	1738.73
236.14	1683.43
236.36	1880.04
236.58	1613.80
236.79	1689.57
237.01	1701.86
237.23	1701.86
237.45	1798.12
237.67	1607.66
237.88	1675.24
238.10	1824.74
238.32	1648.61
238.54	1662.95
238.76	1724.39
238.97	1685.48
239.19	1650.66
239.41	1775.59
239.63	1685.48
239.85	1699.81
240.06	1681.38
240.28	1669.09
240.50	1667.05
240.72	1724.39
240.93	1710.05
241.15	1767.40
241.37	1638.38
241.59	1800.16
241.81	1728.49
242.02	1685.48
242.24	1722.34
242.46	1705.96
242.68	1738.73
242.89	1681.38
243.11	1701.86
243.33	1740.77
243.55	1708.01
243.76	1703.91
243.98	1650.66
244.20	1740.77
244.42	1779.68
244.64	1722.34
244.85	1570.79
245.07	1665.00
245.29	1738.73
245.51	1648.61
245.72	1646.57
245.94	1744.87
246.16	1599.46
246.38	1763.30
246.59	1644.52
246.81	1642.47
247.03	1660.90
247.24	1660.90
247.46	1658.85
247.68	1751.01
247.90	1699.81
248.11	1652.71
248.33	1701.86
248.55	1722.34
248.77	1712.10
248.98	1720.29
249.20	1773.54
249.42	1701.86
249.64	1789.92
249.85	1779.68
250.07	1712.10
250.29	1722.34
250.50	1748.97
250.72	1660.90
250.94	1748.97
251.16	1812.45
251.37	1771.49
251.59	1757.16
251.81	1699.81
252.02	1738.73
252.24	1599.46
252.46	1718.25
252.68	1636.33
252.89	1673.19
253.11	1636.33
253.33	1796.07
253.54	1796.07
253.76	1611.75
253.98	1648.61
254.20	1738.73
254.41	1640.42
254.63	1730.53
254.85	1638.38
255.06	1710.05
255.28	1720.29
255.50	1705.96
255.71	1679.33
255.93	1607.66
256.15	1599.46
256.36	1730.53
256.58	1699.81
256.80	1738.73
257.02	1667.05
257.23	1687.53
257.45	1701.86
257.67	1681.38
257.88	1665.00
258.10	1683.43
258.32	1640.42
258.53	1728.49
258.75	1763.30
258.97	1763.30
259.18	1705.96
259.40	1720.29
259.62	1746.92
259.83	1771.49
260.05	1791.97
260.27	1882.08
260.48	1656.81
260.70	1632.23
260.92	1765.35
261.13	1708.01
261.35	1671.14
261.57	1722.34
261.78	1630.18
262.00	1679.33
262.22	1775.59
262.43	1572.84
262.65	1718.25
262.86	1667.05
263.08	1873.89
263.30	1634.28
263.51	1646.57
263.73	1613.80
263.95	1800.16
264.16	1673.19
264.38	1669.09
264.60	1697.77
264.81	1677.29
265.03	1726.44
265.25	1763.30
265.46	1712.10
265.68	1761.25
265.89	1810.40
266.11	1615.85
266.33	1738.73
266.54	1773.54
266.76	1705.96
266.98	1705.96
267.19	1763.30
267.41	1714.15
267.62	1724.39
267.84	1621.99
268.06	1693.67
268.27	1691.62
268.49	1804.26
268.70	1771.49
268.92	1626.09
269.14	1646.57
269.35	1585.13
269.57	1687.53
269.79	1728.49
270.00	1636.33
270.22	1800.16
270.43	1648.61
270.65	1603.56
270.87	1658.85
271.08	1701.86
271.30	1763.30
271.51	1671.14
271.73	1759.21
271.95	1740.77
272.16	1681.38
272.38	1699.81
272.59	1677.29
272.81	1701.86
273.02	1675.24
273.24	1683.43
273.46	1708.01
273.67	1626.09
273.89	1642.47
274.10	1636.33
274.32	1773.54
274.54	1726.44
274.75	1710.05
274.97	1740.77
275.18	1730.53
275.40	1783.78
275.61	1714.15
275.83	1736.68
276.05	1669.09
276.26	1712.10
276.48	1753.06
276.69	1658.85
276.91	1730.53
277.12	1738.73
277.34	1791.97
277.55	1746.92
277.77	1621.99
277.99	1613.80
278.20	1544.17
278.42	1615.85
278.63	1671.14
278.85	1638.38
279.06	1662.95
279.28	1691.62
279.49	1685.48
279.71	1738.73
279.93	1710.05
280.14	1714.15
280.36	1753.06
280.57	1789.92
280.79	1701.86
281.00	1638.38
281.22	1605.61
281.43	1746.92
281.65	1603.56
281.86	1597.42
282.08	1730.53
282.29	1810.40
282.51	1626.09
282.73	1615.85
282.94	1632.23
283.16	1851.36
283.37	1705.96
283.59	1665.00
283.80	1679.33
284.02	1673.19
284.23	1701.86
284.45	1683.43
284.66	1738.73
284.88	1632.23
285.09	1746.92
285.31	1779.68
285.52	1767.40
285.74	1578.98
285.95	1755.11
286.17	1705.96
286.38	1716.20
286.60	1722.34
286.81	1710.05
287.03	1652.71
287.24	1736.68
287.46	1710.05
287.67	1626.09
287.89	1794.02
288.10	1712.10
288.32	1728.49
288.53	1730.53
288.75	1720.29
288.96	1732.58
289.18	1648.61
289.39	1642.47
289.61	1783.78
289.82	1822.69
290.04	1773.54
290.25	1658.85
290.47	1667.05
290.68	1636.33
290.90	1732.58
291.11	1593.32
291.33	1742.82
291.54	1566.70
291.76	1615.85
291.97	1650.66
292.18	1691.62
292.40	1681.38
292.61	1738.73
292.83	1802.21
293.04	1714.15
293.26	1746.92
293.47	1736.68
293.69	1574.89
293.90	1753.06
294.12	1712.10
294.33	1708.01
294.55	1755.11
294.76	1683.43
294.97	1765.35
295.19	1875.94
295.40	1744.87
295.62	1640.42
295.83	1730.53
296.05	1652.71
296.26	1751.01
296.48	1665.00
296.69	1650.66
296.90	1751.01
297.12	1705.96
297.33	1779.68
297.55	1720.29
297.76	1720.29
297.98	1849.32
298.19	1693.67
298.41	1669.09
298.62	1634.28
298.83	1767.40
299.05	1693.67
299.26	1621.99
299.48	1718.25
299.69	1746.92
299.90	1722.34
300.12	1650.66
300.33	1742.82
300.55	1665.00
300.76	1722.34
300.98	1683.43
301.19	1687.53
301.40	1677.29
301.62	1744.87
301.83	1767.40
302.05	1710.05
302.26	1757.16
302.47	1710.05
302.69	1609.70
302.90	1683.43
303.12	1550.31
303.33	1710.05
303.54	1765.35
303.76	1675.24
303.97	1660.90
304.19	1843.17
304.40	1701.86
304.61	1726.44
304.83	1767.40
305.04	1783.78
305.26	1728.49
305.47	1705.96
305.68	1736.68
305.90	1660.90
306.11	1730.53
306.33	1656.81
306.54	1650.66
306.75	1570.79
306.97	1648.61
307.18	1665.00
307.39	1638.38
307.61	1730.53
307.82	1581.03
308.04	1685.48
308.25	1703.91
308.46	1755.11
308.68	1656.81
308.89	1656.81
309.10	1830.88
309.32	1716.20
309.53	1736.68
309.74	1660.90
309.96	1710.05
310.17	1783.78
310.39	1687.53
310.60	1742.82
310.81	1697.77
311.03	1654.76
311.24	1687.53
311.45	1740.77
311.67	1759.21
311.88	1691.62
312.09	1624.04
312.31	1673.19
312.52	1734.63
312.73	1619.94
312.95	1576.94
313.16	1675.24
313.37	1777.64
313.59	1683.43
313.80	1748.97
314.01	1777.64
314.23	1722.34
314.44	1710.05
314.65	1574.89
314.87	1650.66
315.08	1681.38
315.29	1660.90
315.51	1656.81
315.72	1652.71
315.93	1818.60
316.15	1667.05
316.36	1710.05
316.57	1615.85
316.79	1789.92
317.00	1654.76
317.21	1716.20
317.43	1646.57
317.64	1691.62
317.85	1601.51
318.07	1683.43
318.28	1699.81
318.49	1820.64
318.70	1886.18
318.92	1761.25
319.13	1767.40
319.34	1761.25
319.56	1787.88
319.77	1759.21
319.98	1718.25
320.20	1755.11
320.41	1773.54
320.62	1771.49
320.83	1724.39
321.05	1787.88
321.26	1746.92
321.47	1673.19
321.69	1726.44
321.90	1746.92
322.11	1701.86
322.32	1683.43
322.54	1748.97
322.75	1697.77
322.96	1828.84
323.18	1640.42
323.39	1619.94
323.60	1716.20
323.81	1765.35
324.03	1660.90
324.24	1648.61
324.45	1712.10
324.66	1697.77
324.88	1681.38
325.09	1796.07
325.30	1671.14
325.52	1771.49
325.73	1662.95
325.94	1640.42
326.15	1673.19
326.37	1656.81
326.58	1755.11
326.79	1771.49
327.00	1673.19
327.22	1724.39
327.43	1656.81
327.64	1607.66
327.85	1693.67
328.07	1722.34
328.28	1724.39
328.49	1714.15
328.70	1775.59
328.92	1753.06
329.13	1669.09
329.34	1804.26
329.55	1808.36
329.76	1783.78
329.98	1689.57
330.19	1703.91
330.40	1744.87
330.61	1718.25
330.83	1677.29
331.04	1630.18
331.25	1630.18
331.46	1689.57
331.68	1652.71
331.89	1689.57
332.10	1708.01
332.31	1574.89
332.52	1718.25
332.74	1734.63
332.95	1628.14
333.16	1619.94
333.37	1736.68
333.58	1703.91
333.80	1662.95
334.01	1611.75
334.22	1755.11
334.43	1619.94
334.64	1619.94
334.86	1669.09
335.07	1710.05
335.28	1796.07
335.49	1599.46
335.70	1746.92
335.92	1742.82
336.13	1783.78
336.34	1732.58
336.55	1693.67
336.76	1755.11
336.98	1669.09
337.19	1665.00
337.40	1804.26
337.61	1794.02
337.82	1720.29
338.04	1775.59
338.25	1568.74
338.46	1681.38
338.67	1705.96
338.88	1695.72
339.09	1656.81
339.31	1671.14
339.52	1679.33
339.73	1619.94
339.94	1675.24
340.15	1781.73
340.36	1636.33
340.58	1738.73
340.79	1644.52
341.00	1705.96
341.21	1669.09
341.42	1810.40
341.63	1681.38
341.85	1740.77
342.06	1732.58
342.27	1621.99
342.48	1720.29
342.69	1632.23
342.90	1705.96
343.12	1630.18
343.33	1710.05
343.54	1722.34
343.75	1751.01
343.96	1673.19
344.17	1671.14
344.38	1755.11
344.60	1652.71
344.81	1689.57
345.02	1689.57
345.23	1783.78
345.44	1804.26
345.65	1767.40
345.86	1656.81
346.07	1677.29
346.29	1679.33
346.50	1771.49
346.71	1814.50
346.92	1857.51
347.13	1759.21
347.34	1675.24
347.55	1665.00
347.76	1732.58
347.98	1626.09
348.19	1683.43
348.40	1841.12
348.61	1751.01
348.82	1812.45
349.03	1724.39
349.24	1634.28
349.45	1796.07
349.66	1558.50
349.88	1742.82
350.09	1773.54
350.30	1849.32
350.51	1802.21
350.72	1687.53
350.93	1701.86
351.14	1699.81
351.35	1705.96
351.56	1714.15
351.77	1767.40
351.99	1701.86
352.20	1824.74
352.41	1771.49
352.62	1529.83
352.83	1718.25
353.04	1718.25
353.25	1705.96
353.46	1744.87
353.67	1667.05
353.88	1595.37
354.09	1662.95
354.30	1679.33
354.52	1804.26
354.73	1708.01
354.94	1656.81
355.15	1744.87
355.36	1787.88
355.57	1642.47
355.78	1708.01
355.99	1636.33
356.20	1660.90
356.41	1722.34
356.62	1703.91
356.83	1687.53
357.04	1759.21
357.25	1591.27
357.46	1574.89
357.68	1691.62
357.89	1619.94
358.10	1724.39
358.31	1697.77
358.52	1705.96
358.73	1619.94
358.94	1679.33
359.15	1660.90
359.36	1693.67
359.57	1703.91
359.78	1699.81
359.99	1708.01
360.20	1630.18
360.41	1730.53
360.62	1734.63
360.83	1738.73
361.04	1701.86
361.25	1798.12
361.46	1861.60
361.67	1751.01
361.88	1800.16
362.09	1781.73
362.30	1716.20
362.51	1660.90
362.72	1693.67
362.93	1837.03
363.14	1708.01
363.35	1650.66
363.56	1662.95
363.78	1746.92
363.99	1728.49
364.20	1617.90
364.41	1671.14
364.62	1783.78
364.83	1669.09
365.04	1730.53
365.25	1697.77
365.46	1738.73
365.67	1632.23
365.88	1597.42
366.09	1665.00
366.30	1703.91
366.51	1634.28
366.72	1619.94
366.93	1718.25
367.14	1714.15
367.35	1751.01
367.56	1767.40
367.77	1810.40
367.98	1701.86
368.18	1718.25
368.39	1662.95
368.60	1624.04
368.81	1748.97
369.02	1759.21
369.23	1591.27
369.44	1585.13
369.65	1691.62
369.86	1777.64
370.07	1740.77
370.28	1716.20
370.49	1722.34
370.70	1718.25
370.91	1642.47
371.12	1595.37
371.33	1712.10
371.54	1691.62
371.75	1796.07
371.96	1554.41
372.17	1701.86
372.38	1722.34
372.59	1734.63
372.80	1654.76
373.01	1697.77
373.22	1763.30
373.43	1734.63
373.64	1593.32
373.85	1759.21
374.06	1828.84
374.26	1712.10
374.47	1720.29
374.68	1667.05
374.89	1744.87
375.10	1718.25
375.31	1748.97
375.52	1730.53
375.73	1697.77
375.94	1519.59
376.15	1738.73
376.36	1683.43
376.57	1609.70
376.78	1701.86
376.99	1705.96
377.20	1708.01
377.40	1671.14
377.61	1796.07
377.82	1576.94
378.03	1781.73
378.24	1701.86
378.45	1746.92
378.66	1705.96
378.87	1626.09
379.08	1644.52
379.29	1697.77
379.50	1740.77
379.71	1699.81
379.91	1775.59
380.12	1658.85
380.33	1714.15
380.54	1693.67
380.75	1691.62
380.96	1654.76
381.17	1830.88
381.38	1681.38
381.59	1730.53
381.80	1681.38
382.00	1920.99
382.21	1681.38
382.42	1779.68
382.63	1912.80
382.84	1802.21
383.05	1751.01
383.26	1810.40
383.47	1716.20
383.68	1662.95
383.88	1716.20
384.09	1716.20
384.30	1814.50
384.51	1691.62
384.72	1732.58
384.93	1634.28
385.14	1656.81
385.35	1744.87
385.55	1681.38
385.76	1755.11
385.97	1785.83
386.18	1673.19
386.39	1619.94
386.60	1763.30
386.81	1736.68
387.02	1632.23
387.22	1654.76
387.43	1787.88
387.64	1796.07
387.85	1904.61
388.06	2265.05
388.27	4401.08
388.48	6956.95
388.68	8292.23
388.89	9559.92
389.10	9754.48
389.31	8589.18
389.52	7612.30
389.73	6834.07
389.93	6158.24
390.14	5824.42
390.35	5230.51
390.56	4689.85
390.77	3835.85
390.98	3125.20
391.18	2553.82
391.39	2088.93
391.60	1828.84
391.81	1796.07
392.02	1771.49
392.23	1882.08
392.43	1701.86
392.64	1806.31
392.85	1701.86
393.06	1826.79
393.27	1650.66
393.47	1646.57
393.68	1677.29
393.89	1691.62
394.10	1746.92
394.31	1650.66
394.52	1695.72
394.72	1634.28
394.93	1859.56
395.14	1636.33
395.35	1677.29
395.56	1609.70
395.76	1703.91
395.97	1781.73
396.18	1853.41
396.39	1828.84
396.60	1910.75
396.80	1892.32
397.01	1796.07
397.22	1828.84
397.43	1896.42
397.64	1720.29
397.84	1765.35
398.05	1871.84
398.26	1714.15
398.47	1861.60
398.67	1730.53
398.88	1726.44
399.09	1665.00
399.30	1693.67
399.51	1759.21
399.71	1697.77
399.92	1718.25
400.13	1656.81
400.34	1691.62
400.54	1757.16
400.75	1763.30
400.96	1652.71
401.17	1814.50
401.37	1753.06
401.58	1699.81
401.79	1691.62
402.00	1882.08
402.21	2090.98
402.41	1898.47
402.62	2009.06
402.83	2002.91
403.04	1990.63
403.24	2095.07
403.45	1783.78
403.66	1882.08
403.87	1845.22
404.07	1888.23
404.28	1880.04
404.49	1892.32
404.70	1798.12
404.90	1757.16
405.11	1710.05
405.32	1738.73
405.52	1687.53
405.73	1613.80
405.94	1730.53
406.15	1755.11
406.35	1681.38
406.56	1669.09
406.77	1722.34
406.98	1726.44
407.18	1693.67
407.39	1804.26
407.60	1695.72
407.80	1699.81
408.01	1697.77
408.22	1675.24
408.43	1675.24
408.63	1742.82
408.84	1736.68
409.05	1814.50
409.25	1687.53
409.46	1644.52
409.67	1644.52
409.88	1615.85
410.08	1701.86
410.29	1671.14
410.50	1691.62
410.70	1697.77
410.91	1591.27
411.12	1695.72
411.32	1714.15
411.53	1732.58
411.74	1730.53
411.95	1742.82
412.15	1781.73
412.36	1718.25
412.57	1759.21
412.77	1773.54
412.98	1730.53
413.19	1794.02
413.39	1796.07
413.60	1781.73
413.81	1841.12
414.01	1667.05
414.22	1695.72
414.43	1773.54
414.63	1740.77
414.84	1718.25
415.05	1636.33
415.25	1619.94
415.46	1791.97
415.67	1617.90
415.87	1714.15
416.08	1730.53
416.29	1660.90
416.49	1728.49
416.70	1701.86
416.91	1712.10
417.11	1712.10
417.32	1722.34
417.53	1748.97
417.73	1722.34
417.94	1796.07
418.15	1751.01
418.35	1693.67
418.56	1699.81
418.77	1865.70
418.97	1699.81
419.18	1730.53
419.38	1646.57
419.59	1710.05
419.80	1804.26
420.00	1607.66
420.21	1763.30
420.42	1726.44
420.62	1638.38
420.83	1634.28
421.04	1703.91
421.24	1777.64
421.45	1732.58
421.65	1683.43
421.86	1728.49
422.07	1796.07
422.27	1751.01
422.48	1759.21
422.69	1593.32
422.89	1734.63
423.10	1693.67
423.30	1640.42
423.51	1798.12
423.72	1705.96
423.92	1771.49
424.13	1607.66
424.33	1779.68
424.54	1757.16
424.75	1654.76
424.95	1791.97
425.16	1691.62
425.36	1726.44
425.57	1742.82
425.78	1714.15
425.98	1757.16
426.19	1734.63
426.39	1681.38
426.60	1755.11
426.81	1818.60
427.01	1683.43
427.22	1665.00
427.42	1601.51
427.63	1603.56
427.83	1759.21
428.04	1814.50
428.25	1800.16
428.45	1757.16
428.66	1761.25
428.86	1697.77
429.07	1662.95
429.28	1703.91
429.48	1646.57
429.69	1650.66
429.89	1654.76
430.10	1701.86
430.30	1701.86
430.51	1718.25
430.71	1705.96
430.92	1617.90
431.13	1697.77
431.33	1759.21
431.54	1785.83
431.74	1816.55
431.95	1781.73
432.15	1632.23
432.36	1650.66
432.56	1781.73
432.77	1845.22
432.98	1824.74
433.18	1751.01
433.39	1675.24
433.59	1669.09
433.80	1822.69
434.00	1867.75
434.21	1636.33
434.41	1667.05
434.62	1783.78
434.82	1607.66
435.03	1642.47
435.23	1685.48
435.44	1646.57
435.64	1746.92
435.85	1738.73
436.06	1705.96
436.26	1701.86
436.47	1757.16
436.67	1658.85
436.88	1658.85
437.08	1683.43
437.29	1773.54
437.49	1628.14
437.70	1693.67
437.90	1804.26
438.11	1816.55
438.31	1738.73
438.52	1779.68
438.72	1861.60
438.93	1904.61
439.13	1771.49
439.34	1687.53
439.54	1697.77
439.75	1789.92
439.95	1787.88
440.16	1679.33
440.36	1716.20
440.57	1748.97
440.77	1775.59
440.98	1734.63
441.18	1789.92
441.39	1761.25
441.59	1708.01
441.80	1904.61
442.00	1769.44
442.21	1787.88
442.41	1697.77
442.62	1781.73
442.82	1671.14
443.02	1785.83
443.23	1755.11
443.43	1665.00
443.64	1855.46
443.84	1648.61
444.05	1873.89
444.25	1724.39
444.46	1705.96
444.66	1744.87
444.87	1798.12
445.07	1626.09
445.28	1728.49
445.48	1777.64
445.69	1785.83
445.89	1857.51
446.09	1699.81
446.30	2017.25
446.50	2574.30
446.71	3770.31
446.91	4358.08
447.12	4622.27
447.32	4941.75
447.53	4323.26
447.73	3815.37
447.93	3561.42
448.14	3239.89
448.34	3213.26
448.55	2861.01
448.75	2920.40
448.96	2674.65
449.16	2332.64
449.36	2314.20
449.57	2000.87
449.77	1945.57
449.98	1767.40
450.18	1810.40
450.39	1853.41
450.59	1781.73
450.79	1669.09
451.00	1710.05
451.20	1796.07
451.41	1705.96
451.61	1677.29
451.81	1708.01
452.02	1728.49
452.22	1642.47
452.43	1736.68
452.63	1675.24
