SpectraSuite Data File
++++++++++++++++++++++++++++++++++++
Date: Mon Jun 06 16:05:57 CEST 2016
User: root
Dark Spectrum Present: No
Reference Spectrum Present: No
Number of Sampled Component Spectra: 1
Spectrometers: USB4C02835
Integration Time (usec): 100000 (USB4C02835)
Spectra Averaged: 1 (USB4C02835)
Boxcar Smoothing: 0 (USB4C02835)
Correct for Electrical Dark: No (USB4C02835)
Strobe/Lamp Enabled: No (USB4C02835)
Correct for Detector Non-linearity: No (USB4C02835)
Correct for Stray Light: No (USB4C02835)
Number of Pixels in Processed Spectrum: 3648
>>>>>Begin Processed Spectral Data<<<<<
177.47	1447.91
177.69	1447.91
177.91	1447.91
178.13	1486.83
178.36	1492.97
178.58	1636.33
178.80	1732.58
179.02	1570.79
179.24	1697.77
179.46	1736.68
179.68	1708.01
179.90	1728.49
180.13	1779.68
180.35	1689.57
180.57	1734.63
180.79	1769.44
181.01	1728.49
181.23	1703.91
181.45	1824.74
181.67	1808.36
181.90	1765.35
182.12	1712.10
182.34	1640.42
182.56	1738.73
182.78	1796.07
183.00	1685.48
183.22	1755.11
183.44	1646.57
183.66	1875.94
183.89	1816.55
184.11	1710.05
184.33	1665.00
184.55	1726.44
184.77	1810.40
184.99	1748.97
185.21	1695.72
185.43	1773.54
185.65	1640.42
185.87	1763.30
186.10	1804.26
186.32	1873.89
186.54	1732.58
186.76	1796.07
186.98	1777.64
187.20	1689.57
187.42	1685.48
187.64	1699.81
187.86	1763.30
188.08	1726.44
188.30	1691.62
188.52	1722.34
188.75	1767.40
188.97	1804.26
189.19	1642.47
189.41	1746.92
189.63	1718.25
189.85	1751.01
190.07	1658.85
190.29	1699.81
190.51	1777.64
190.73	1628.14
190.95	1839.08
191.17	1740.77
191.39	1624.04
191.61	1699.81
191.84	1685.48
192.06	1728.49
192.28	1626.09
192.50	1894.37
192.72	1757.16
192.94	1648.61
193.16	1806.31
193.38	1687.53
193.60	1634.28
193.82	1732.58
194.04	1761.25
194.26	1767.40
194.48	1699.81
194.70	1593.32
194.92	1658.85
195.14	1773.54
195.36	1658.85
195.58	1714.15
195.80	1624.04
196.02	1710.05
196.24	1738.73
196.46	1773.54
196.69	1726.44
196.91	1826.79
197.13	1671.14
197.35	1675.24
197.57	1816.55
197.79	1712.10
198.01	1701.86
198.23	1796.07
198.45	1642.47
198.67	1734.63
198.89	1714.15
199.11	1785.83
199.33	1646.57
199.55	1538.02
199.77	1693.67
199.99	1787.88
200.21	1728.49
200.43	1816.55
200.65	1660.90
200.87	1552.36
201.09	1757.16
201.31	1757.16
201.53	1714.15
201.75	1716.20
201.97	1673.19
202.19	1714.15
202.41	1769.44
202.63	1826.79
202.85	1748.97
203.07	1724.39
203.29	1691.62
203.51	1636.33
203.73	1683.43
203.95	1945.57
204.17	1757.16
204.39	1785.83
204.61	1642.47
204.83	1695.72
205.05	1761.25
205.27	1779.68
205.49	1798.12
205.71	1689.57
205.93	1621.99
206.15	1644.52
206.37	1738.73
206.59	1705.96
206.81	1646.57
207.03	1638.38
207.25	1722.34
207.47	1683.43
207.69	1632.23
207.91	1779.68
208.13	1763.30
208.34	1691.62
208.56	1728.49
208.78	1697.77
209.00	1660.90
209.22	1609.70
209.44	1734.63
209.66	1673.19
209.88	1757.16
210.10	1679.33
210.32	1636.33
210.54	1820.64
210.76	1687.53
210.98	1771.49
211.20	1677.29
211.42	1734.63
211.64	1773.54
211.86	1685.48
212.08	1720.29
212.30	1814.50
212.52	1720.29
212.74	1720.29
212.96	1683.43
213.17	1720.29
213.39	1796.07
213.61	1806.31
213.83	1742.82
214.05	1593.32
214.27	1744.87
214.49	1619.94
214.71	1679.33
214.93	1787.88
215.15	1738.73
215.37	1767.40
215.59	1656.81
215.81	1734.63
216.03	1820.64
216.24	1671.14
216.46	1779.68
216.68	1751.01
216.90	1746.92
217.12	1759.21
217.34	1759.21
217.56	1691.62
217.78	1794.02
218.00	1810.40
218.22	1726.44
218.44	1779.68
218.66	1732.58
218.87	1757.16
219.09	1705.96
219.31	1759.21
219.53	1755.11
219.75	1730.53
219.97	1751.01
220.19	1724.39
220.41	1699.81
220.63	1837.03
220.85	1832.93
221.06	1681.38
221.28	1841.12
221.50	1648.61
221.72	1708.01
221.94	1773.54
222.16	1701.86
222.38	1781.73
222.60	1650.66
222.82	1660.90
223.03	1730.53
223.25	1716.20
223.47	1746.92
223.69	1794.02
223.91	1753.06
224.13	1656.81
224.35	1759.21
224.57	1744.87
224.78	1705.96
225.00	1665.00
225.22	1624.04
225.44	1671.14
225.66	1822.69
225.88	1677.29
226.10	1693.67
226.32	1736.68
226.53	1726.44
226.75	1716.20
226.97	1693.67
227.19	1665.00
227.41	1701.86
227.63	1681.38
227.85	1556.46
228.06	1691.62
228.28	1691.62
228.50	1744.87
228.72	1671.14
228.94	1708.01
229.16	1617.90
229.37	1671.14
229.59	1691.62
229.81	1837.03
230.03	1726.44
230.25	1636.33
230.47	1660.90
230.69	1587.18
230.90	1763.30
231.12	1650.66
231.34	1742.82
231.56	1775.59
231.78	1599.46
232.00	1755.11
232.21	1652.71
232.43	1654.76
232.65	1652.71
232.87	1720.29
233.09	1681.38
233.30	1712.10
233.52	1714.15
233.74	1683.43
233.96	1667.05
234.18	1640.42
234.40	1724.39
234.61	1910.75
234.83	1658.85
235.05	1634.28
235.27	1875.94
235.49	1839.08
235.70	1718.25
235.92	1796.07
236.14	1789.92
236.36	1851.36
236.58	1617.90
236.79	1798.12
237.01	1718.25
237.23	1699.81
237.45	1746.92
237.67	1689.57
237.88	1669.09
238.10	1761.25
238.32	1703.91
238.54	1746.92
238.76	1738.73
238.97	1681.38
239.19	1714.15
239.41	1796.07
239.63	1759.21
239.85	1740.77
240.06	1775.59
240.28	1697.77
240.50	1816.55
240.72	1689.57
240.93	1679.33
241.15	1789.92
241.37	1656.81
241.59	1808.36
241.81	1695.72
242.02	1714.15
242.24	1716.20
242.46	1681.38
242.68	1691.62
242.89	1816.55
243.11	1771.49
243.33	1705.96
243.55	1812.45
243.76	1705.96
243.98	1671.14
244.20	1697.77
244.42	1685.48
244.64	1744.87
244.85	1640.42
245.07	1738.73
245.29	1728.49
245.51	1738.73
245.72	1781.73
245.94	1828.84
246.16	1738.73
246.38	1724.39
246.59	1701.86
246.81	1658.85
247.03	1687.53
247.24	1621.99
247.46	1701.86
247.68	1677.29
247.90	1646.57
248.11	1658.85
248.33	1755.11
248.55	1722.34
248.77	1685.48
248.98	1783.78
249.20	1808.36
249.42	1714.15
249.64	1759.21
249.85	1710.05
250.07	1685.48
250.29	1800.16
250.50	1746.92
250.72	1648.61
250.94	1755.11
251.16	1763.30
251.37	1769.44
251.59	1697.77
251.81	1708.01
252.02	1812.45
252.24	1693.67
252.46	1812.45
252.68	1654.76
252.89	1669.09
253.11	1605.61
253.33	1810.40
253.54	1734.63
253.76	1650.66
253.98	1736.68
254.20	1705.96
254.41	1665.00
254.63	1693.67
254.85	1683.43
255.06	1714.15
255.28	1705.96
255.50	1775.59
255.71	1687.53
255.93	1607.66
256.15	1728.49
256.36	1740.77
256.58	1734.63
256.80	1722.34
257.02	1662.95
257.23	1726.44
257.45	1708.01
257.67	1734.63
257.88	1740.77
258.10	1820.64
258.32	1695.72
258.53	1732.58
258.75	1777.64
258.97	1650.66
259.18	1654.76
259.40	1695.72
259.62	1820.64
259.83	1746.92
260.05	1740.77
260.27	1910.75
260.48	1765.35
260.70	1652.71
260.92	1755.11
261.13	1656.81
261.35	1810.40
261.57	1728.49
261.78	1665.00
262.00	1708.01
262.22	1695.72
262.43	1683.43
262.65	1669.09
262.86	1683.43
263.08	1777.64
263.30	1732.58
263.51	1589.22
263.73	1720.29
263.95	1753.06
264.16	1685.48
264.38	1681.38
264.60	1714.15
264.81	1710.05
265.03	1753.06
265.25	1722.34
265.46	1714.15
265.68	1734.63
265.89	1781.73
266.11	1611.75
266.33	1730.53
266.54	1755.11
266.76	1722.34
266.98	1708.01
267.19	1732.58
267.41	1701.86
267.62	1724.39
267.84	1601.51
268.06	1726.44
268.27	1716.20
268.49	1798.12
268.70	1773.54
268.92	1673.19
269.14	1701.86
269.35	1642.47
269.57	1691.62
269.79	1699.81
270.00	1660.90
270.22	1734.63
270.43	1705.96
270.65	1619.94
270.87	1791.97
271.08	1773.54
271.30	1728.49
271.51	1738.73
271.73	1781.73
271.95	1824.74
272.16	1722.34
272.38	1665.00
272.59	1669.09
272.81	1755.11
273.02	1736.68
273.24	1705.96
273.46	1697.77
273.67	1679.33
273.89	1718.25
274.10	1683.43
274.32	1834.98
274.54	1705.96
274.75	1748.97
274.97	1705.96
275.18	1726.44
275.40	1746.92
275.61	1699.81
275.83	1687.53
276.05	1675.24
276.26	1714.15
276.48	1755.11
276.69	1599.46
276.91	1685.48
277.12	1755.11
277.34	1673.19
277.55	1804.26
277.77	1667.05
277.99	1728.49
278.20	1679.33
278.42	1601.51
278.63	1619.94
278.85	1681.38
279.06	1695.72
279.28	1742.82
279.49	1773.54
279.71	1665.00
279.93	1724.39
280.14	1658.85
280.36	1683.43
280.57	1708.01
280.79	1812.45
281.00	1638.38
281.22	1665.00
281.43	1781.73
281.65	1601.51
281.86	1708.01
282.08	1746.92
282.29	1779.68
282.51	1621.99
282.73	1619.94
282.94	1617.90
283.16	1818.60
283.37	1789.92
283.59	1710.05
283.80	1755.11
284.02	1712.10
284.23	1785.83
284.45	1728.49
284.66	1607.66
284.88	1691.62
285.09	1755.11
285.31	1738.73
285.52	1753.06
285.74	1644.52
285.95	1832.93
286.17	1771.49
286.38	1816.55
286.60	1691.62
286.81	1662.95
287.03	1746.92
287.24	1718.25
287.46	1722.34
287.67	1761.25
287.89	1834.98
288.10	1751.01
288.32	1726.44
288.53	1753.06
288.75	1740.77
288.96	1757.16
289.18	1669.09
289.39	1714.15
289.61	1740.77
289.82	1855.46
290.04	1824.74
290.25	1703.91
290.47	1777.64
290.68	1724.39
290.90	1832.93
291.11	1636.33
291.33	1767.40
291.54	1685.48
291.76	1738.73
291.97	1730.53
292.18	1736.68
292.40	1654.76
292.61	1697.77
292.83	1855.46
293.04	1730.53
293.26	1681.38
293.47	1609.70
293.69	1572.84
293.90	1695.72
294.12	1843.17
294.33	1675.24
294.55	1683.43
294.76	1822.69
294.97	1726.44
295.19	1804.26
295.40	1744.87
295.62	1767.40
295.83	1724.39
296.05	1660.90
296.26	1746.92
296.48	1660.90
296.69	1642.47
296.90	1669.09
297.12	1708.01
297.33	1728.49
297.55	1695.72
297.76	1691.62
297.98	1808.36
298.19	1705.96
298.41	1740.77
298.62	1701.86
298.83	1794.02
299.05	1781.73
299.26	1720.29
299.48	1689.57
299.69	1716.20
299.90	1738.73
300.12	1697.77
300.33	1812.45
300.55	1667.05
300.76	1695.72
300.98	1636.33
301.19	1734.63
301.40	1705.96
301.62	1746.92
301.83	1765.35
302.05	1798.12
302.26	1691.62
302.47	1730.53
302.69	1638.38
302.90	1683.43
303.12	1542.12
303.33	1779.68
303.54	1802.21
303.76	1652.71
303.97	1722.34
304.19	1789.92
304.40	1693.67
304.61	1740.77
304.83	1861.60
305.04	1794.02
305.26	1757.16
305.47	1705.96
305.68	1705.96
305.90	1697.77
306.11	1662.95
306.33	1777.64
306.54	1701.86
306.75	1617.90
306.97	1589.22
307.18	1619.94
307.39	1695.72
307.61	1789.92
307.82	1712.10
308.04	1742.82
308.25	1662.95
308.46	1802.21
308.68	1701.86
308.89	1705.96
309.10	1826.79
309.32	1701.86
309.53	1710.05
309.74	1689.57
309.96	1720.29
310.17	1791.97
310.39	1671.14
310.60	1712.10
310.81	1714.15
311.03	1609.70
311.24	1732.58
311.45	1681.38
311.67	1816.55
311.88	1683.43
312.09	1644.52
312.31	1746.92
312.52	1673.19
312.73	1650.66
312.95	1587.18
313.16	1679.33
313.37	1785.83
313.59	1714.15
313.80	1730.53
314.01	1798.12
314.23	1736.68
314.44	1648.61
314.65	1597.42
314.87	1679.33
315.08	1697.77
315.29	1699.81
315.51	1691.62
315.72	1669.09
315.93	1861.60
316.15	1767.40
316.36	1705.96
316.57	1658.85
316.79	1763.30
317.00	1691.62
317.21	1767.40
317.43	1705.96
317.64	1746.92
317.85	1624.04
318.07	1701.86
318.28	1669.09
318.49	1834.98
318.70	1986.53
318.92	1896.42
319.13	1820.64
319.34	1920.99
319.56	1820.64
319.77	1861.60
319.98	1767.40
320.20	1769.44
320.41	1705.96
320.62	1738.73
320.83	1658.85
321.05	1783.78
321.26	1783.78
321.47	1759.21
321.69	1789.92
321.90	1669.09
322.11	1679.33
322.32	1716.20
322.54	1820.64
322.75	1595.37
322.96	1880.04
323.18	1646.57
323.39	1644.52
323.60	1689.57
323.81	1769.44
324.03	1705.96
324.24	1693.67
324.45	1710.05
324.66	1757.16
324.88	1818.60
325.09	1783.78
325.30	1728.49
325.52	1763.30
325.73	1822.69
325.94	1677.29
326.15	1656.81
326.37	1691.62
326.58	1753.06
326.79	1808.36
327.00	1693.67
327.22	1667.05
327.43	1683.43
327.64	1718.25
327.85	1755.11
328.07	1771.49
328.28	1837.03
328.49	1675.24
328.70	1740.77
328.92	1714.15
329.13	1683.43
329.34	1767.40
329.55	1849.32
329.76	1744.87
329.98	1699.81
330.19	1740.77
330.40	1736.68
330.61	1787.88
330.83	1714.15
331.04	1685.48
331.25	1650.66
331.46	1703.91
331.68	1636.33
331.89	1718.25
332.10	1671.14
332.31	1591.27
332.52	1701.86
332.74	1742.82
332.95	1578.98
333.16	1732.58
333.37	1722.34
333.58	1667.05
333.80	1675.24
334.01	1654.76
334.22	1742.82
334.43	1691.62
334.64	1718.25
334.86	1619.94
335.07	1619.94
335.28	1800.16
335.49	1677.29
335.70	1765.35
335.92	1742.82
336.13	1804.26
336.34	1767.40
336.55	1691.62
336.76	1767.40
336.98	1648.61
337.19	1681.38
337.40	1800.16
337.61	1853.41
337.82	1691.62
338.04	1818.60
338.25	1665.00
338.46	1705.96
338.67	1613.80
338.88	1660.90
339.09	1701.86
339.31	1708.01
339.52	1669.09
339.73	1646.57
339.94	1662.95
340.15	1748.97
340.36	1693.67
340.58	1763.30
340.79	1638.38
341.00	1761.25
341.21	1665.00
341.42	1791.97
341.63	1736.68
341.85	1812.45
342.06	1763.30
342.27	1714.15
342.48	1826.79
342.69	1601.51
342.90	1652.71
343.12	1675.24
343.33	1636.33
343.54	1826.79
343.75	1828.84
343.96	1740.77
344.17	1720.29
344.38	1742.82
344.60	1650.66
344.81	1568.74
345.02	1673.19
345.23	1755.11
345.44	1847.27
345.65	1867.75
345.86	1785.83
346.07	1675.24
346.29	1716.20
346.50	1724.39
346.71	1746.92
346.92	1800.16
347.13	1863.65
347.34	1755.11
347.55	1703.91
347.76	1746.92
347.98	1656.81
348.19	1650.66
348.40	1894.37
348.61	1636.33
348.82	1757.16
349.03	1783.78
349.24	1644.52
349.45	1882.08
349.66	1669.09
349.88	1673.19
350.09	1683.43
350.30	1751.01
350.51	1736.68
350.72	1777.64
350.93	1781.73
351.14	1667.05
351.35	1714.15
351.56	1736.68
351.77	1761.25
351.99	1687.53
352.20	1804.26
352.41	1783.78
352.62	1609.70
352.83	1746.92
353.04	1763.30
353.25	1705.96
353.46	1757.16
353.67	1789.92
353.88	1595.37
354.09	1714.15
354.30	1771.49
354.52	1769.44
354.73	1689.57
354.94	1652.71
355.15	1783.78
355.36	1781.73
355.57	1712.10
355.78	1646.57
355.99	1734.63
356.20	1658.85
356.41	1816.55
356.62	1699.81
356.83	1748.97
357.04	1710.05
357.25	1648.61
357.46	1681.38
357.68	1640.42
357.89	1716.20
358.10	1708.01
358.31	1687.53
358.52	1748.97
358.73	1619.94
358.94	1650.66
359.15	1636.33
359.36	1761.25
359.57	1693.67
359.78	1691.62
359.99	1732.58
360.20	1650.66
360.41	1701.86
360.62	1720.29
360.83	1703.91
361.04	1744.87
361.25	1636.33
361.46	1808.36
361.67	1769.44
361.88	1779.68
362.09	1677.29
362.30	1763.30
362.51	1777.64
362.72	1671.14
362.93	1703.91
363.14	1738.73
363.35	1785.83
363.56	1654.76
363.78	1785.83
363.99	1746.92
364.20	1675.24
364.41	1714.15
364.62	1824.74
364.83	1675.24
365.04	1744.87
365.25	1724.39
365.46	1855.46
365.67	1609.70
365.88	1705.96
366.09	1718.25
366.30	1681.38
366.51	1695.72
366.72	1609.70
366.93	1726.44
367.14	1757.16
367.35	1830.88
367.56	1689.57
367.77	1777.64
367.98	1710.05
368.18	1742.82
368.39	1738.73
368.60	1636.33
368.81	1812.45
369.02	1703.91
369.23	1683.43
369.44	1646.57
369.65	1648.61
369.86	1701.86
370.07	1839.08
370.28	1650.66
370.49	1832.93
370.70	1718.25
370.91	1726.44
371.12	1656.81
371.33	1714.15
371.54	1669.09
371.75	1787.88
371.96	1685.48
372.17	1714.15
372.38	1734.63
372.59	1755.11
372.80	1689.57
373.01	1693.67
373.22	1775.59
373.43	1718.25
373.64	1605.61
373.85	1794.02
374.06	1791.97
374.26	1701.86
374.47	1710.05
374.68	1812.45
374.89	1712.10
375.10	1671.14
375.31	1718.25
375.52	1738.73
375.73	1738.73
375.94	1638.38
376.15	1837.03
376.36	1644.52
376.57	1718.25
376.78	1757.16
376.99	1701.86
377.20	1759.21
377.40	1738.73
377.61	1802.21
377.82	1595.37
378.03	1763.30
378.24	1755.11
378.45	1697.77
378.66	1751.01
378.87	1613.80
379.08	1628.14
379.29	1677.29
379.50	1853.41
379.71	1697.77
379.91	1765.35
380.12	1658.85
380.33	1726.44
380.54	1763.30
380.75	1699.81
380.96	1738.73
381.17	1779.68
381.38	1759.21
381.59	1765.35
381.80	1775.59
382.00	1791.97
382.21	1767.40
382.42	1822.69
382.63	1865.70
382.84	1839.08
383.05	1710.05
383.26	1804.26
383.47	1814.50
383.68	1738.73
383.88	1746.92
384.09	1681.38
384.30	1761.25
384.51	1773.54
384.72	1644.52
384.93	1652.71
385.14	1779.68
385.35	1802.21
385.55	1638.38
385.76	1755.11
385.97	1665.00
386.18	1695.72
386.39	1689.57
386.60	1705.96
386.81	1673.19
387.02	1675.24
387.22	1771.49
387.43	1812.45
387.64	1701.86
387.85	1918.95
388.06	2252.77
388.27	4091.84
388.48	6711.19
388.68	8091.52
388.89	9480.05
389.10	9674.60
389.31	8574.85
389.52	7593.87
389.73	6625.18
389.93	6156.19
390.14	5894.05
390.35	5091.25
390.56	4736.95
390.77	3712.97
390.98	3010.51
391.18	2510.81
391.39	2140.13
391.60	1923.04
391.81	1828.84
392.02	1699.81
392.23	1804.26
392.43	1701.86
392.64	1849.32
392.85	1638.38
393.06	1867.75
393.27	1693.67
393.47	1742.82
393.68	1695.72
393.89	1650.66
394.10	1816.55
394.31	1662.95
394.52	1685.48
394.72	1724.39
394.93	1910.75
395.14	1581.03
395.35	1767.40
395.56	1705.96
395.76	1675.24
395.97	1789.92
396.18	1865.70
396.39	1869.80
396.60	2025.44
396.80	1896.42
397.01	1796.07
397.22	1773.54
397.43	1869.80
397.64	1755.11
397.84	1769.44
398.05	1808.36
398.26	1755.11
398.47	1714.15
398.67	1824.74
398.88	1779.68
399.09	1730.53
399.30	1687.53
399.51	1751.01
399.71	1712.10
399.92	1765.35
400.13	1787.88
400.34	1701.86
400.54	1794.02
400.75	1787.88
400.96	1712.10
401.17	1759.21
401.37	1738.73
401.58	1759.21
401.79	1652.71
402.00	1789.92
402.21	2037.73
402.41	1972.19
402.62	1937.38
402.83	2000.87
403.04	2029.54
403.24	2050.02
403.45	1908.71
403.66	1880.04
403.87	1877.99
404.07	1918.95
404.28	1914.85
404.49	1867.75
404.70	1773.54
404.90	1712.10
405.11	1703.91
405.32	1810.40
405.52	1705.96
405.73	1662.95
405.94	1705.96
406.15	1726.44
406.35	1759.21
406.56	1783.78
406.77	1720.29
406.98	1718.25
407.18	1728.49
407.39	1783.78
407.60	1695.72
407.80	1726.44
408.01	1646.57
408.22	1755.11
408.43	1677.29
408.63	1724.39
408.84	1695.72
409.05	1777.64
409.25	1652.71
409.46	1665.00
409.67	1693.67
409.88	1626.09
410.08	1720.29
410.29	1714.15
410.50	1753.06
410.70	1685.48
410.91	1589.22
411.12	1812.45
411.32	1736.68
411.53	1714.15
411.74	1816.55
411.95	1775.59
412.15	1783.78
412.36	1751.01
412.57	1724.39
412.77	1806.31
412.98	1738.73
413.19	1718.25
413.39	1718.25
413.60	1810.40
413.81	1818.60
414.01	1585.13
414.22	1738.73
414.43	1757.16
414.63	1769.44
414.84	1742.82
415.05	1746.92
415.25	1681.38
415.46	1699.81
415.67	1699.81
415.87	1773.54
416.08	1714.15
416.29	1689.57
416.49	1732.58
416.70	1720.29
416.91	1697.77
417.11	1722.34
417.32	1767.40
417.53	1810.40
417.73	1744.87
417.94	1691.62
418.15	1738.73
418.35	1718.25
418.56	1779.68
418.77	1841.12
418.97	1759.21
419.18	1673.19
419.38	1476.59
419.59	1761.25
419.80	1832.93
420.00	1712.10
420.21	1751.01
420.42	1837.03
420.62	1701.86
420.83	1724.39
421.04	1656.81
421.24	1746.92
421.45	1708.01
421.65	1693.67
421.86	1644.52
422.07	1703.91
422.27	1697.77
422.48	1773.54
422.69	1720.29
422.89	1697.77
423.10	1701.86
423.30	1675.24
423.51	1701.86
423.72	1685.48
423.92	1804.26
424.13	1705.96
424.33	1757.16
424.54	1826.79
424.75	1777.64
424.95	1796.07
425.16	1710.05
425.36	1671.14
425.57	1734.63
425.78	1732.58
425.98	1763.30
426.19	1732.58
426.39	1726.44
426.60	1728.49
426.81	1867.75
427.01	1634.28
427.22	1691.62
427.42	1644.52
427.63	1693.67
427.83	1775.59
428.04	1849.32
428.25	1865.70
428.45	1759.21
428.66	1748.97
428.86	1687.53
429.07	1644.52
429.28	1775.59
429.48	1669.09
429.69	1734.63
429.89	1761.25
430.10	1644.52
430.30	1781.73
430.51	1748.97
430.71	1699.81
430.92	1722.34
431.13	1611.75
431.33	1779.68
431.54	1785.83
431.74	1810.40
431.95	1837.03
432.15	1691.62
432.36	1724.39
432.56	1783.78
432.77	1775.59
432.98	1826.79
433.18	1800.16
433.39	1757.16
433.59	1695.72
433.80	1896.42
434.00	1847.27
434.21	1642.47
434.41	1703.91
434.62	1812.45
434.82	1660.90
435.03	1667.05
435.23	1632.23
435.44	1605.61
435.64	1759.21
435.85	1748.97
436.06	1724.39
436.26	1783.78
436.47	1730.53
436.67	1656.81
436.88	1720.29
437.08	1810.40
437.29	1748.97
437.49	1716.20
437.70	1822.69
437.90	1763.30
438.11	1863.65
438.31	1785.83
438.52	1937.38
438.72	1851.36
438.93	1916.90
439.13	1853.41
439.34	1906.66
439.54	1732.58
439.75	1863.65
439.95	1757.16
440.16	1708.01
440.36	1804.26
440.57	1767.40
440.77	1763.30
440.98	1771.49
441.18	1808.36
441.39	1734.63
441.59	1665.00
441.80	1824.74
442.00	1757.16
442.21	1890.28
442.41	1642.47
442.62	1738.73
442.82	1683.43
443.02	1755.11
443.23	1740.77
443.43	1777.64
443.64	1806.31
443.84	1748.97
444.05	1841.12
444.25	1718.25
444.46	1691.62
444.66	1675.24
444.87	1775.59
445.07	1640.42
445.28	1765.35
445.48	1791.97
445.69	1843.17
445.89	1931.23
446.09	1787.88
446.30	2011.11
446.50	2574.30
446.71	3723.21
446.91	4218.82
447.12	4726.71
447.32	4835.25
447.53	4263.87
447.73	3911.62
447.93	3553.23
448.14	3315.66
448.34	3252.17
448.55	3014.61
448.75	2856.92
448.96	2725.85
449.16	2422.75
449.36	2254.81
449.57	2039.78
449.77	1939.43
449.98	1746.92
450.18	1839.08
450.39	1746.92
450.59	1804.26
450.79	1818.60
451.00	1748.97
451.20	1794.02
451.41	1658.85
451.61	1689.57
451.81	1720.29
452.02	1703.91
452.22	1738.73
452.43	1771.49
452.63	1687.53
