SpectraSuite Data File
++++++++++++++++++++++++++++++++++++
Date: Mon Jun 06 14:21:57 CEST 2016
User: root
Dark Spectrum Present: No
Reference Spectrum Present: No
Number of Sampled Component Spectra: 1
Spectrometers: USB4C02835
Integration Time (usec): 100000 (USB4C02835)
Spectra Averaged: 1 (USB4C02835)
Boxcar Smoothing: 0 (USB4C02835)
Correct for Electrical Dark: No (USB4C02835)
Strobe/Lamp Enabled: No (USB4C02835)
Correct for Detector Non-linearity: No (USB4C02835)
Correct for Stray Light: No (USB4C02835)
Number of Pixels in Processed Spectrum: 3648
>>>>>Begin Processed Spectral Data<<<<<
177.47	1470.44
177.69	1470.44
177.91	1470.44
178.13	1480.68
178.36	1445.87
178.58	1695.72
178.80	1685.48
179.02	1669.09
179.24	1701.86
179.46	1693.67
179.68	1814.50
179.90	1619.94
180.13	1765.35
180.35	1644.52
180.57	1712.10
180.79	1765.35
181.01	1726.44
181.23	1757.16
181.45	1759.21
181.67	1667.05
181.90	1710.05
182.12	1648.61
182.34	1665.00
182.56	1681.38
182.78	1746.92
183.00	1697.77
183.22	1726.44
183.44	1613.80
183.66	1837.03
183.89	1785.83
184.11	1716.20
184.33	1685.48
184.55	1789.92
184.77	1660.90
184.99	1640.42
185.21	1714.15
185.43	1816.55
185.65	1701.86
185.87	1595.37
186.10	1841.12
186.32	1800.16
186.54	1730.53
186.76	1705.96
186.98	1712.10
187.20	1777.64
187.42	1652.71
187.64	1787.88
187.86	1677.29
188.08	1759.21
188.30	1705.96
188.52	1718.25
188.75	1851.36
188.97	1777.64
189.19	1710.05
189.41	1673.19
189.63	1703.91
189.85	1689.57
190.07	1562.60
190.29	1683.43
190.51	1642.47
190.73	1660.90
190.95	1779.68
191.17	1697.77
191.39	1619.94
191.61	1773.54
191.84	1650.66
192.06	1656.81
192.28	1617.90
192.50	1886.18
192.72	1683.43
192.94	1677.29
193.16	1718.25
193.38	1728.49
193.60	1685.48
193.82	1708.01
194.04	1777.64
194.26	1691.62
194.48	1705.96
194.70	1626.09
194.92	1710.05
195.14	1726.44
195.36	1693.67
195.58	1757.16
195.80	1683.43
196.02	1642.47
196.24	1701.86
196.46	1710.05
196.69	1710.05
196.91	1820.64
197.13	1703.91
197.35	1654.76
197.57	1732.58
197.79	1701.86
198.01	1740.77
198.23	1804.26
198.45	1783.78
198.67	1650.66
198.89	1710.05
199.11	1761.25
199.33	1718.25
199.55	1574.89
199.77	1701.86
199.99	1789.92
200.21	1675.24
200.43	1775.59
200.65	1615.85
200.87	1554.41
201.09	1615.85
201.31	1722.34
201.53	1796.07
201.75	1806.31
201.97	1665.00
202.19	1738.73
202.41	1763.30
202.63	1822.69
202.85	1720.29
203.07	1685.48
203.29	1720.29
203.51	1642.47
203.73	1632.23
203.95	1804.26
204.17	1718.25
204.39	1761.25
204.61	1710.05
204.83	1714.15
205.05	1695.72
205.27	1767.40
205.49	1812.45
205.71	1710.05
205.93	1607.66
206.15	1767.40
206.37	1701.86
206.59	1699.81
206.81	1568.74
207.03	1617.90
207.25	1615.85
207.47	1845.22
207.69	1615.85
207.91	1828.84
208.13	1744.87
208.34	1628.14
208.56	1699.81
208.78	1761.25
209.00	1683.43
209.22	1679.33
209.44	1665.00
209.66	1669.09
209.88	1730.53
210.10	1671.14
210.32	1617.90
210.54	1785.83
210.76	1665.00
210.98	1712.10
211.20	1640.42
211.42	1728.49
211.64	1773.54
211.86	1777.64
212.08	1691.62
212.30	1722.34
212.52	1714.15
212.74	1701.86
212.96	1712.10
213.17	1822.69
213.39	1710.05
213.61	1742.82
213.83	1591.27
214.05	1705.96
214.27	1742.82
214.49	1648.61
214.71	1638.38
214.93	1853.41
215.15	1636.33
215.37	1765.35
215.59	1652.71
215.81	1681.38
216.03	1738.73
216.24	1730.53
216.46	1751.01
216.68	1699.81
216.90	1769.44
217.12	1820.64
217.34	1736.68
217.56	1798.12
217.78	1728.49
218.00	1705.96
218.22	1687.53
218.44	1830.88
218.66	1757.16
218.87	1753.06
219.09	1665.00
219.31	1685.48
219.53	1730.53
219.75	1667.05
219.97	1648.61
220.19	1697.77
220.41	1757.16
220.63	1779.68
220.85	1734.63
221.06	1658.85
221.28	1736.68
221.50	1732.58
221.72	1665.00
221.94	1669.09
222.16	1744.87
222.38	1757.16
222.60	1691.62
222.82	1683.43
223.03	1769.44
223.25	1607.66
223.47	1806.31
223.69	1828.84
223.91	1679.33
224.13	1708.01
224.35	1710.05
224.57	1724.39
224.78	1744.87
225.00	1685.48
225.22	1708.01
225.44	1714.15
225.66	1726.44
225.88	1673.19
226.10	1822.69
226.32	1691.62
226.53	1718.25
226.75	1626.09
226.97	1701.86
227.19	1714.15
227.41	1595.37
227.63	1685.48
227.85	1611.75
228.06	1697.77
228.28	1726.44
228.50	1728.49
228.72	1619.94
228.94	1718.25
229.16	1611.75
229.37	1636.33
229.59	1669.09
229.81	1830.88
230.03	1708.01
230.25	1591.27
230.47	1642.47
230.69	1644.52
230.90	1685.48
231.12	1642.47
231.34	1658.85
231.56	1791.97
231.78	1646.57
232.00	1701.86
232.21	1832.93
232.43	1675.24
232.65	1607.66
232.87	1646.57
233.09	1621.99
233.30	1646.57
233.52	1656.81
233.74	1673.19
233.96	1675.24
234.18	1728.49
234.40	1746.92
234.61	1855.46
234.83	1675.24
235.05	1658.85
235.27	1828.84
235.49	1785.83
235.70	1701.86
235.92	1822.69
236.14	1742.82
236.36	1746.92
236.58	1640.42
236.79	1806.31
237.01	1722.34
237.23	1701.86
237.45	1853.41
237.67	1662.95
237.88	1718.25
238.10	1834.98
238.32	1595.37
238.54	1656.81
238.76	1642.47
238.97	1603.56
239.19	1642.47
239.41	1675.24
239.63	1759.21
239.85	1679.33
240.06	1718.25
240.28	1658.85
240.50	1820.64
240.72	1765.35
240.93	1755.11
241.15	1775.59
241.37	1738.73
241.59	1761.25
241.81	1658.85
242.02	1732.58
242.24	1732.58
242.46	1714.15
242.68	1693.67
242.89	1648.61
243.11	1724.39
243.33	1732.58
243.55	1689.57
243.76	1736.68
243.98	1632.23
244.20	1697.77
244.42	1683.43
244.64	1658.85
244.85	1640.42
245.07	1710.05
245.29	1710.05
245.51	1669.09
245.72	1742.82
245.94	1740.77
246.16	1726.44
246.38	1755.11
246.59	1638.38
246.81	1685.48
247.03	1689.57
247.24	1710.05
247.46	1703.91
247.68	1697.77
247.90	1689.57
248.11	1693.67
248.33	1796.07
248.55	1800.16
248.77	1683.43
248.98	1740.77
249.20	1757.16
249.42	1757.16
249.64	1714.15
249.85	1718.25
250.07	1662.95
250.29	1718.25
250.50	1732.58
250.72	1642.47
250.94	1763.30
251.16	1761.25
251.37	1722.34
251.59	1775.59
251.81	1789.92
252.02	1732.58
252.24	1669.09
252.46	1794.02
252.68	1703.91
252.89	1695.72
253.11	1642.47
253.33	1765.35
253.54	1834.98
253.76	1576.94
253.98	1783.78
254.20	1656.81
254.41	1648.61
254.63	1621.99
254.85	1714.15
255.06	1724.39
255.28	1722.34
255.50	1658.85
255.71	1689.57
255.93	1640.42
256.15	1648.61
256.36	1748.97
256.58	1648.61
256.80	1718.25
257.02	1636.33
257.23	1669.09
257.45	1734.63
257.67	1845.22
257.88	1669.09
258.10	1689.57
258.32	1708.01
258.53	1652.71
258.75	1753.06
258.97	1771.49
259.18	1671.14
259.40	1675.24
259.62	1832.93
259.83	1806.31
260.05	1755.11
260.27	1953.76
260.48	1779.68
260.70	1619.94
260.92	1714.15
261.13	1691.62
261.35	1718.25
261.57	1695.72
261.78	1650.66
262.00	1632.23
262.22	1720.29
262.43	1611.75
262.65	1689.57
262.86	1644.52
263.08	1796.07
263.30	1654.76
263.51	1624.04
263.73	1599.46
263.95	1728.49
264.16	1636.33
264.38	1687.53
264.60	1730.53
264.81	1728.49
265.03	1722.34
265.25	1738.73
265.46	1673.19
265.68	1681.38
265.89	1759.21
266.11	1685.48
266.33	1767.40
266.54	1755.11
266.76	1708.01
266.98	1656.81
267.19	1728.49
267.41	1716.20
267.62	1611.75
267.84	1634.28
268.06	1699.81
268.27	1742.82
268.49	1796.07
268.70	1689.57
268.92	1667.05
269.14	1699.81
269.35	1591.27
269.57	1724.39
269.79	1773.54
270.00	1710.05
270.22	1755.11
270.43	1671.14
270.65	1574.89
270.87	1710.05
271.08	1695.72
271.30	1773.54
271.51	1705.96
271.73	1683.43
271.95	1767.40
272.16	1742.82
272.38	1685.48
272.59	1714.15
272.81	1730.53
273.02	1644.52
273.24	1705.96
273.46	1718.25
273.67	1656.81
273.89	1671.14
274.10	1679.33
274.32	1656.81
274.54	1722.34
274.75	1701.86
274.97	1683.43
275.18	1751.01
275.40	1673.19
275.61	1712.10
275.83	1714.15
276.05	1583.08
276.26	1681.38
276.48	1734.63
276.69	1736.68
276.91	1632.23
277.12	1769.44
277.34	1673.19
277.55	1736.68
277.77	1738.73
277.99	1710.05
278.20	1611.75
278.42	1673.19
278.63	1705.96
278.85	1648.61
279.06	1626.09
279.28	1701.86
279.49	1724.39
279.71	1685.48
279.93	1734.63
280.14	1714.15
280.36	1656.81
280.57	1720.29
280.79	1826.79
281.00	1601.51
281.22	1720.29
281.43	1808.36
281.65	1570.79
281.86	1658.85
282.08	1740.77
282.29	1802.21
282.51	1662.95
282.73	1591.27
282.94	1636.33
283.16	1650.66
283.37	1800.16
283.59	1675.24
283.80	1748.97
284.02	1667.05
284.23	1712.10
284.45	1667.05
284.66	1656.81
284.88	1734.63
285.09	1665.00
285.31	1712.10
285.52	1699.81
285.74	1662.95
285.95	1802.21
286.17	1773.54
286.38	1763.30
286.60	1587.18
286.81	1673.19
287.03	1681.38
287.24	1697.77
287.46	1746.92
287.67	1728.49
287.89	1779.68
288.10	1714.15
288.32	1648.61
288.53	1800.16
288.75	1736.68
288.96	1761.25
289.18	1665.00
289.39	1738.73
289.61	1703.91
289.82	1841.12
290.04	1691.62
290.25	1640.42
290.47	1691.62
290.68	1720.29
290.90	1744.87
291.11	1597.42
291.33	1703.91
291.54	1665.00
291.76	1708.01
291.97	1734.63
292.18	1738.73
292.40	1671.14
292.61	1689.57
292.83	1853.41
293.04	1705.96
293.26	1675.24
293.47	1769.44
293.69	1605.61
293.90	1726.44
294.12	1755.11
294.33	1759.21
294.55	1673.19
294.76	1734.63
294.97	1767.40
295.19	1871.84
295.40	1714.15
295.62	1699.81
295.83	1671.14
296.05	1673.19
296.26	1671.14
296.48	1671.14
296.69	1673.19
296.90	1757.16
297.12	1779.68
297.33	1814.50
297.55	1697.77
297.76	1691.62
297.98	1808.36
298.19	1763.30
298.41	1667.05
298.62	1705.96
298.83	1730.53
299.05	1740.77
299.26	1716.20
299.48	1722.34
299.69	1785.83
299.90	1658.85
300.12	1669.09
300.33	1775.59
300.55	1697.77
300.76	1759.21
300.98	1724.39
301.19	1771.49
301.40	1703.91
301.62	1693.67
301.83	1722.34
302.05	1677.29
302.26	1673.19
302.47	1744.87
302.69	1662.95
302.90	1705.96
303.12	1585.13
303.33	1820.64
303.54	1791.97
303.76	1746.92
303.97	1660.90
304.19	1753.06
304.40	1599.46
304.61	1742.82
304.83	1843.17
305.04	1751.01
305.26	1671.14
305.47	1730.53
305.68	1585.13
305.90	1621.99
306.11	1759.21
306.33	1732.58
306.54	1656.81
306.75	1585.13
306.97	1619.94
307.18	1644.52
307.39	1712.10
307.61	1710.05
307.82	1767.40
308.04	1753.06
308.25	1595.37
308.46	1687.53
308.68	1714.15
308.89	1722.34
309.10	1777.64
309.32	1710.05
309.53	1660.90
309.74	1726.44
309.96	1679.33
310.17	1722.34
310.39	1595.37
310.60	1759.21
310.81	1714.15
311.03	1691.62
311.24	1710.05
311.45	1716.20
311.67	1789.92
311.88	1673.19
312.09	1599.46
312.31	1689.57
312.52	1714.15
312.73	1683.43
312.95	1681.38
313.16	1634.28
313.37	1826.79
313.59	1662.95
313.80	1714.15
314.01	1810.40
314.23	1652.71
314.44	1660.90
314.65	1665.00
314.87	1650.66
315.08	1710.05
315.29	1648.61
315.51	1683.43
315.72	1597.42
315.93	1759.21
316.15	1708.01
316.36	1691.62
316.57	1757.16
316.79	1701.86
317.00	1720.29
317.21	1705.96
317.43	1650.66
317.64	1722.34
317.85	1630.18
318.07	1648.61
318.28	1785.83
318.49	1769.44
318.70	1882.08
318.92	1787.88
319.13	1898.47
319.34	1902.56
319.56	1695.72
319.77	1761.25
319.98	1759.21
320.20	1726.44
320.41	1779.68
320.62	1724.39
320.83	1671.14
321.05	1794.02
321.26	1773.54
321.47	1677.29
321.69	1789.92
321.90	1556.46
322.11	1712.10
322.32	1646.57
322.54	1755.11
322.75	1738.73
322.96	1853.41
323.18	1636.33
323.39	1574.89
323.60	1662.95
323.81	1718.25
324.03	1617.90
324.24	1763.30
324.45	1730.53
324.66	1673.19
324.88	1736.68
325.09	1763.30
325.30	1730.53
325.52	1685.48
325.73	1794.02
325.94	1617.90
326.15	1656.81
326.37	1720.29
326.58	1755.11
326.79	1783.78
327.00	1583.08
327.22	1726.44
327.43	1744.87
327.64	1597.42
327.85	1675.24
328.07	1748.97
328.28	1814.50
328.49	1689.57
328.70	1697.77
328.92	1656.81
329.13	1718.25
329.34	1699.81
329.55	1900.52
329.76	1751.01
329.98	1710.05
330.19	1830.88
330.40	1757.16
330.61	1689.57
330.83	1724.39
331.04	1685.48
331.25	1654.76
331.46	1705.96
331.68	1632.23
331.89	1679.33
332.10	1722.34
332.31	1718.25
332.52	1697.77
332.74	1783.78
332.95	1687.53
333.16	1722.34
333.37	1781.73
333.58	1654.76
333.80	1724.39
334.01	1599.46
334.22	1699.81
334.43	1662.95
334.64	1611.75
334.86	1673.19
335.07	1685.48
335.28	1820.64
335.49	1648.61
335.70	1755.11
335.92	1660.90
336.13	1822.69
336.34	1660.90
336.55	1660.90
336.76	1759.21
336.98	1644.52
337.19	1759.21
337.40	1804.26
337.61	1910.75
337.82	1730.53
338.04	1763.30
338.25	1648.61
338.46	1695.72
338.67	1708.01
338.88	1613.80
339.09	1497.07
339.31	1628.14
339.52	1652.71
339.73	1681.38
339.94	1710.05
340.15	1763.30
340.36	1669.09
340.58	1775.59
340.79	1667.05
341.00	1732.58
341.21	1621.99
341.42	1822.69
341.63	1665.00
341.85	1779.68
342.06	1716.20
342.27	1652.71
342.48	1748.97
342.69	1611.75
342.90	1742.82
343.12	1660.90
343.33	1646.57
343.54	1681.38
343.75	1751.01
343.96	1679.33
344.17	1671.14
344.38	1685.48
344.60	1705.96
344.81	1687.53
345.02	1681.38
345.23	1837.03
345.44	1779.68
345.65	1800.16
345.86	1685.48
346.07	1640.42
346.29	1718.25
346.50	1714.15
346.71	1779.68
346.92	1736.68
347.13	1816.55
347.34	1695.72
347.55	1751.01
347.76	1816.55
347.98	1583.08
348.19	1722.34
348.40	1738.73
348.61	1722.34
348.82	1845.22
349.03	1742.82
349.24	1665.00
349.45	1728.49
349.66	1624.04
349.88	1718.25
350.09	1638.38
350.30	1710.05
350.51	1708.01
350.72	1738.73
350.93	1746.92
351.14	1728.49
351.35	1687.53
351.56	1679.33
351.77	1648.61
351.99	1697.77
352.20	1783.78
352.41	1734.63
352.62	1628.14
352.83	1705.96
353.04	1648.61
353.25	1703.91
353.46	1665.00
353.67	1763.30
353.88	1665.00
354.09	1722.34
354.30	1730.53
354.52	1677.29
354.73	1718.25
354.94	1691.62
355.15	1689.57
355.36	1775.59
355.57	1609.70
355.78	1738.73
355.99	1615.85
356.20	1671.14
356.41	1738.73
356.62	1705.96
356.83	1734.63
357.04	1769.44
357.25	1662.95
357.46	1632.23
357.68	1691.62
357.89	1662.95
358.10	1708.01
358.31	1695.72
358.52	1705.96
358.73	1566.70
358.94	1669.09
359.15	1669.09
359.36	1734.63
359.57	1681.38
359.78	1720.29
359.99	1679.33
360.20	1656.81
360.41	1724.39
360.62	1769.44
360.83	1742.82
361.04	1746.92
361.25	1767.40
361.46	1781.73
361.67	1701.86
361.88	1730.53
362.09	1722.34
362.30	1722.34
362.51	1632.23
362.72	1624.04
362.93	1802.21
363.14	1658.85
363.35	1669.09
363.56	1642.47
363.78	1728.49
363.99	1757.16
364.20	1665.00
364.41	1765.35
364.62	1834.98
364.83	1716.20
365.04	1665.00
365.25	1710.05
365.46	1853.41
365.67	1624.04
365.88	1630.18
366.09	1615.85
366.30	1650.66
366.51	1730.53
366.72	1701.86
366.93	1685.48
367.14	1669.09
367.35	1779.68
367.56	1718.25
367.77	1753.06
367.98	1705.96
368.18	1724.39
368.39	1701.86
368.60	1638.38
368.81	1710.05
369.02	1687.53
369.23	1726.44
369.44	1617.90
369.65	1722.34
369.86	1773.54
370.07	1740.77
370.28	1652.71
370.49	1718.25
370.70	1753.06
370.91	1703.91
371.12	1699.81
371.33	1757.16
371.54	1755.11
371.75	1691.62
371.96	1613.80
372.17	1742.82
372.38	1695.72
372.59	1681.38
372.80	1720.29
373.01	1652.71
373.22	1718.25
373.43	1634.28
373.64	1671.14
373.85	1781.73
374.06	1808.36
374.26	1746.92
374.47	1656.81
374.68	1789.92
374.89	1697.77
375.10	1716.20
375.31	1742.82
375.52	1767.40
375.73	1656.81
375.94	1683.43
376.15	1781.73
376.36	1712.10
376.57	1697.77
376.78	1693.67
376.99	1757.16
377.20	1787.88
377.40	1624.04
377.61	1812.45
377.82	1740.77
378.03	1757.16
378.24	1665.00
378.45	1722.34
378.66	1697.77
378.87	1538.02
379.08	1665.00
379.29	1685.48
379.50	1728.49
379.71	1718.25
379.91	1697.77
380.12	1708.01
380.33	1730.53
380.54	1648.61
380.75	1705.96
380.96	1652.71
381.17	1771.49
381.38	1734.63
381.59	1667.05
381.80	1722.34
382.00	1845.22
382.21	1677.29
382.42	1841.12
382.63	1832.93
382.84	1769.44
383.05	1720.29
383.26	1781.73
383.47	1660.90
383.68	1718.25
383.88	1705.96
384.09	1665.00
384.30	1779.68
384.51	1728.49
384.72	1689.57
384.93	1591.27
385.14	1751.01
385.35	1800.16
385.55	1712.10
385.76	1744.87
385.97	1759.21
386.18	1654.76
386.39	1597.42
386.60	1726.44
386.81	1695.72
387.02	1636.33
387.22	1642.47
387.43	1705.96
387.64	1736.68
387.85	1816.55
388.06	2125.79
388.27	4296.64
388.48	6907.80
388.68	8275.84
388.89	9699.18
389.10	10073.96
389.31	8558.46
389.52	7622.54
389.73	6721.43
389.93	6301.60
390.14	5820.33
390.35	5318.57
390.56	4638.65
390.77	3770.31
390.98	3076.05
391.18	2588.63
391.39	2111.46
391.60	1853.41
391.81	1839.08
392.02	1744.87
392.23	1859.56
392.43	1722.34
392.64	1773.54
392.85	1755.11
393.06	1812.45
393.27	1730.53
393.47	1626.09
393.68	1742.82
393.89	1644.52
394.10	1722.34
394.31	1701.86
394.52	1624.04
394.72	1628.14
394.93	1736.68
395.14	1630.18
395.35	1732.58
395.56	1691.62
395.76	1781.73
395.97	1734.63
396.18	1824.74
396.39	1806.31
396.60	2025.44
396.80	1925.09
397.01	1853.41
397.22	1789.92
397.43	1746.92
397.64	1763.30
397.84	1785.83
398.05	1843.17
398.26	1755.11
398.47	1761.25
398.67	1755.11
398.88	1716.20
399.09	1783.78
399.30	1632.23
399.51	1832.93
399.71	1712.10
399.92	1693.67
400.13	1722.34
400.34	1665.00
400.54	1712.10
400.75	1781.73
400.96	1726.44
401.17	1787.88
401.37	1769.44
401.58	1689.57
401.79	1732.58
402.00	1826.79
402.21	2068.45
402.41	1957.86
402.62	2052.06
402.83	2039.78
403.04	1976.29
403.24	2142.18
403.45	1851.36
403.66	1896.42
403.87	1910.75
404.07	1869.80
404.28	1939.43
404.49	1882.08
404.70	1839.08
404.90	1724.39
405.11	1689.57
405.32	1730.53
405.52	1621.99
405.73	1685.48
405.94	1636.33
406.15	1802.21
406.35	1748.97
406.56	1837.03
406.77	1681.38
406.98	1667.05
407.18	1665.00
407.39	1789.92
407.60	1652.71
407.80	1789.92
408.01	1621.99
408.22	1703.91
408.43	1746.92
408.63	1720.29
408.84	1775.59
409.05	1734.63
409.25	1728.49
409.46	1691.62
409.67	1644.52
409.88	1685.48
410.08	1734.63
410.29	1624.04
410.50	1732.58
410.70	1628.14
410.91	1710.05
411.12	1761.25
411.32	1681.38
411.53	1718.25
411.74	1816.55
411.95	1779.68
412.15	1773.54
412.36	1839.08
412.57	1779.68
412.77	1794.02
412.98	1751.01
413.19	1652.71
413.39	1720.29
413.60	1697.77
413.81	1791.97
414.01	1730.53
414.22	1730.53
414.43	1796.07
414.63	1619.94
414.84	1742.82
415.05	1710.05
415.25	1722.34
415.46	1834.98
415.67	1619.94
415.87	1652.71
416.08	1648.61
416.29	1736.68
416.49	1693.67
416.70	1726.44
416.91	1701.86
417.11	1675.24
417.32	1781.73
417.53	1783.78
417.73	1759.21
417.94	1728.49
418.15	1732.58
418.35	1654.76
418.56	1779.68
418.77	1896.42
418.97	1685.48
419.18	1671.14
419.38	1574.89
419.59	1701.86
419.80	1767.40
420.00	1626.09
420.21	1712.10
420.42	1773.54
420.62	1765.35
420.83	1693.67
421.04	1703.91
421.24	1677.29
421.45	1751.01
421.65	1720.29
421.86	1755.11
422.07	1673.19
422.27	1697.77
422.48	1726.44
422.69	1624.04
422.89	1751.01
423.10	1662.95
423.30	1660.90
423.51	1705.96
423.72	1693.67
423.92	1695.72
424.13	1634.28
424.33	1771.49
424.54	1722.34
424.75	1685.48
424.95	1806.31
425.16	1757.16
425.36	1621.99
425.57	1841.12
425.78	1808.36
425.98	1734.63
426.19	1693.67
426.39	1662.95
426.60	1671.14
426.81	1771.49
427.01	1679.33
427.22	1683.43
427.42	1560.55
427.63	1714.15
427.83	1783.78
428.04	1822.69
428.25	1781.73
428.45	1816.55
428.66	1720.29
428.86	1714.15
429.07	1722.34
429.28	1671.14
429.48	1701.86
429.69	1691.62
429.89	1640.42
430.10	1552.36
430.30	1751.01
430.51	1755.11
430.71	1673.19
430.92	1724.39
431.13	1681.38
431.33	1769.44
431.54	1724.39
431.74	1845.22
431.95	1824.74
432.15	1671.14
432.36	1769.44
432.56	1650.66
432.77	1808.36
432.98	1820.64
433.18	1619.94
433.39	1679.33
433.59	1714.15
433.80	1796.07
434.00	1859.56
434.21	1755.11
434.41	1705.96
434.62	1810.40
434.82	1615.85
435.03	1699.81
435.23	1626.09
435.44	1607.66
435.64	1695.72
435.85	1656.81
436.06	1732.58
436.26	1769.44
436.47	1669.09
436.67	1718.25
436.88	1773.54
437.08	1728.49
437.29	1822.69
437.49	1779.68
437.70	1705.96
437.90	1748.97
438.11	1812.45
438.31	1732.58
438.52	1834.98
438.72	1902.56
438.93	1947.62
439.13	1791.97
439.34	1841.12
439.54	1767.40
439.75	1853.41
439.95	1712.10
440.16	1660.90
440.36	1630.18
440.57	1759.21
440.77	1693.67
440.98	1728.49
441.18	1765.35
441.39	1703.91
441.59	1761.25
441.80	1841.12
442.00	1689.57
442.21	1808.36
442.41	1628.14
442.62	1687.53
442.82	1562.60
443.02	1687.53
443.23	1753.06
443.43	1650.66
443.64	1814.50
443.84	1722.34
444.05	1791.97
444.25	1685.48
444.46	1703.91
444.66	1665.00
444.87	1857.51
445.07	1667.05
445.28	1746.92
445.48	1822.69
445.69	1845.22
445.89	1914.85
446.09	1751.01
446.30	2050.02
446.50	2674.65
446.71	3590.09
446.91	4351.93
447.12	4845.49
447.32	4929.46
447.53	4392.89
447.73	4050.88
447.93	3549.13
448.14	3200.98
448.34	3207.12
448.55	2887.64
448.75	2928.60
448.96	2643.93
449.16	2441.18
449.36	2297.82
449.57	1994.72
449.77	1959.91
449.98	1759.21
450.18	1859.56
450.39	1781.73
450.59	1753.06
450.79	1751.01
451.00	1705.96
451.20	1748.97
451.41	1738.73
451.61	1814.50
451.81	1718.25
452.02	1757.16
452.22	1732.58
452.43	1669.09
452.63	1763.30
