SpectraSuite Data File
++++++++++++++++++++++++++++++++++++
Date: Mon Jun 06 14:09:17 CEST 2016
User: root
Dark Spectrum Present: No
Reference Spectrum Present: No
Number of Sampled Component Spectra: 1
Spectrometers: USB4C02835
Integration Time (usec): 100000 (USB4C02835)
Spectra Averaged: 1 (USB4C02835)
Boxcar Smoothing: 0 (USB4C02835)
Correct for Electrical Dark: No (USB4C02835)
Strobe/Lamp Enabled: No (USB4C02835)
Correct for Detector Non-linearity: No (USB4C02835)
Correct for Stray Light: No (USB4C02835)
Number of Pixels in Processed Spectrum: 3648
>>>>>Begin Processed Spectral Data<<<<<
177.47	1456.11
177.69	1456.11
177.91	1456.11
178.13	1476.59
178.36	1470.44
178.58	1558.50
178.80	1687.53
179.02	1648.61
179.24	1685.48
179.46	1689.57
179.68	1755.11
179.90	1640.42
180.13	1767.40
180.35	1685.48
180.57	1724.39
180.79	1722.34
181.01	1673.19
181.23	1779.68
181.45	1730.53
181.67	1679.33
181.90	1734.63
182.12	1624.04
182.34	1660.90
182.56	1728.49
182.78	1718.25
183.00	1726.44
183.22	1675.24
183.44	1619.94
183.66	1849.32
183.89	1791.97
184.11	1726.44
184.33	1751.01
184.55	1746.92
184.77	1714.15
184.99	1753.06
185.21	1675.24
185.43	1798.12
185.65	1624.04
185.87	1757.16
186.10	1759.21
186.32	1785.83
186.54	1732.58
186.76	1886.18
186.98	1791.97
187.20	1656.81
187.42	1681.38
187.64	1740.77
187.86	1703.91
188.08	1683.43
188.30	1718.25
188.52	1671.14
188.75	1658.85
188.97	1757.16
189.19	1585.13
189.41	1644.52
189.63	1679.33
189.85	1722.34
190.07	1540.07
190.29	1628.14
190.51	1697.77
190.73	1578.98
190.95	1746.92
191.17	1736.68
191.39	1619.94
191.61	1634.28
191.84	1718.25
192.06	1689.57
192.28	1644.52
192.50	1871.84
192.72	1720.29
192.94	1648.61
193.16	1728.49
193.38	1785.83
193.60	1644.52
193.82	1683.43
194.04	1720.29
194.26	1652.71
194.48	1675.24
194.70	1701.86
194.92	1703.91
195.14	1738.73
195.36	1689.57
195.58	1738.73
195.80	1681.38
196.02	1728.49
196.24	1667.05
196.46	1765.35
196.69	1732.58
196.91	1810.40
197.13	1683.43
197.35	1642.47
197.57	1781.73
197.79	1736.68
198.01	1785.83
198.23	1748.97
198.45	1744.87
198.67	1597.42
198.89	1624.04
199.11	1751.01
199.33	1685.48
199.55	1591.27
199.77	1677.29
199.99	1814.50
200.21	1654.76
200.43	1779.68
200.65	1656.81
200.87	1601.51
201.09	1646.57
201.31	1689.57
201.53	1667.05
201.75	1701.86
201.97	1714.15
202.19	1746.92
202.41	1730.53
202.63	1884.13
202.85	1740.77
203.07	1654.76
203.29	1710.05
203.51	1689.57
203.73	1652.71
203.95	1808.36
204.17	1695.72
204.39	1689.57
204.61	1734.63
204.83	1714.15
205.05	1814.50
205.27	1761.25
205.49	1904.61
205.71	1671.14
205.93	1636.33
206.15	1673.19
206.37	1650.66
206.59	1703.91
206.81	1605.61
207.03	1632.23
207.25	1656.81
207.47	1677.29
207.69	1644.52
207.91	1763.30
208.13	1802.21
208.34	1714.15
208.56	1699.81
208.78	1689.57
209.00	1701.86
209.22	1581.03
209.44	1716.20
209.66	1603.56
209.88	1624.04
210.10	1703.91
210.32	1679.33
210.54	1830.88
210.76	1685.48
210.98	1701.86
211.20	1540.07
211.42	1712.10
211.64	1789.92
211.86	1697.77
212.08	1763.30
212.30	1767.40
212.52	1712.10
212.74	1746.92
212.96	1697.77
213.17	1730.53
213.39	1624.04
213.61	1783.78
213.83	1734.63
214.05	1626.09
214.27	1757.16
214.49	1671.14
214.71	1701.86
214.93	1800.16
215.15	1703.91
215.37	1705.96
215.59	1671.14
215.81	1732.58
216.03	1808.36
216.24	1687.53
216.46	1624.04
216.68	1769.44
216.90	1703.91
217.12	1748.97
217.34	1652.71
217.56	1718.25
217.78	1742.82
218.00	1724.39
218.22	1722.34
218.44	1771.49
218.66	1699.81
218.87	1738.73
219.09	1626.09
219.31	1716.20
219.53	1677.29
219.75	1689.57
219.97	1660.90
220.19	1697.77
220.41	1595.37
220.63	1789.92
220.85	1730.53
221.06	1685.48
221.28	1746.92
221.50	1742.82
221.72	1669.09
221.94	1701.86
222.16	1732.58
222.38	1691.62
222.60	1777.64
222.82	1708.01
223.03	1701.86
223.25	1654.76
223.47	1736.68
223.69	1843.17
223.91	1722.34
224.13	1697.77
224.35	1693.67
224.57	1757.16
224.78	1652.71
225.00	1574.89
225.22	1712.10
225.44	1705.96
225.66	1705.96
225.88	1656.81
226.10	1816.55
226.32	1730.53
226.53	1791.97
226.75	1650.66
226.97	1648.61
227.19	1796.07
227.41	1716.20
227.63	1619.94
227.85	1607.66
228.06	1718.25
228.28	1716.20
228.50	1697.77
228.72	1644.52
228.94	1648.61
229.16	1632.23
229.37	1730.53
229.59	1691.62
229.81	1755.11
230.03	1572.84
230.25	1648.61
230.47	1630.18
230.69	1609.70
230.90	1738.73
231.12	1658.85
231.34	1685.48
231.56	1726.44
231.78	1701.86
232.00	1699.81
232.21	1724.39
232.43	1726.44
232.65	1591.27
232.87	1755.11
233.09	1701.86
233.30	1595.37
233.52	1732.58
233.74	1697.77
233.96	1652.71
234.18	1658.85
234.40	1695.72
234.61	1804.26
234.83	1730.53
235.05	1628.14
235.27	1753.06
235.49	1734.63
235.70	1683.43
235.92	1789.92
236.14	1730.53
236.36	1859.56
236.58	1644.52
236.79	1767.40
237.01	1718.25
237.23	1708.01
237.45	1865.70
237.67	1697.77
237.88	1626.09
238.10	1816.55
238.32	1701.86
238.54	1683.43
238.76	1646.57
238.97	1648.61
239.19	1636.33
239.41	1748.97
239.63	1855.46
239.85	1693.67
240.06	1703.91
240.28	1646.57
240.50	1687.53
240.72	1800.16
240.93	1710.05
241.15	1765.35
241.37	1703.91
241.59	1757.16
241.81	1677.29
242.02	1705.96
242.24	1853.41
242.46	1722.34
242.68	1667.05
242.89	1742.82
243.11	1767.40
243.33	1697.77
243.55	1703.91
243.76	1677.29
243.98	1617.90
244.20	1738.73
244.42	1615.85
244.64	1746.92
244.85	1636.33
245.07	1638.38
245.29	1734.63
245.51	1732.58
245.72	1693.67
245.94	1771.49
246.16	1671.14
246.38	1783.78
246.59	1738.73
246.81	1617.90
247.03	1601.51
247.24	1648.61
247.46	1587.18
247.68	1681.38
247.90	1611.75
248.11	1654.76
248.33	1705.96
248.55	1687.53
248.77	1734.63
248.98	1791.97
249.20	1841.12
249.42	1720.29
249.64	1742.82
249.85	1689.57
250.07	1671.14
250.29	1712.10
250.50	1781.73
250.72	1607.66
250.94	1703.91
251.16	1822.69
251.37	1787.88
251.59	1781.73
251.81	1742.82
252.02	1787.88
252.24	1621.99
252.46	1787.88
252.68	1673.19
252.89	1656.81
253.11	1677.29
253.33	1830.88
253.54	1726.44
253.76	1615.85
253.98	1591.27
254.20	1705.96
254.41	1640.42
254.63	1667.05
254.85	1615.85
255.06	1619.94
255.28	1714.15
255.50	1648.61
255.71	1724.39
255.93	1695.72
256.15	1708.01
256.36	1673.19
256.58	1658.85
256.80	1687.53
257.02	1683.43
257.23	1740.77
257.45	1693.67
257.67	1771.49
257.88	1714.15
258.10	1738.73
258.32	1710.05
258.53	1722.34
258.75	1839.08
258.97	1669.09
259.18	1755.11
259.40	1646.57
259.62	1755.11
259.83	1730.53
260.05	1656.81
260.27	1980.39
260.48	1751.01
260.70	1593.32
260.92	1701.86
261.13	1644.52
261.35	1740.77
261.57	1660.90
261.78	1667.05
262.00	1656.81
262.22	1693.67
262.43	1619.94
262.65	1677.29
262.86	1689.57
263.08	1843.17
263.30	1695.72
263.51	1671.14
263.73	1644.52
263.95	1802.21
264.16	1693.67
264.38	1642.47
264.60	1667.05
264.81	1701.86
265.03	1736.68
265.25	1773.54
265.46	1671.14
265.68	1794.02
265.89	1728.49
266.11	1562.60
266.33	1744.87
266.54	1781.73
266.76	1718.25
266.98	1703.91
267.19	1783.78
267.41	1808.36
267.62	1681.38
267.84	1667.05
268.06	1705.96
268.27	1644.52
268.49	1730.53
268.70	1718.25
268.92	1736.68
269.14	1658.85
269.35	1640.42
269.57	1730.53
269.79	1736.68
270.00	1726.44
270.22	1832.93
270.43	1708.01
270.65	1599.46
270.87	1701.86
271.08	1798.12
271.30	1812.45
271.51	1675.24
271.73	1724.39
271.95	1787.88
272.16	1671.14
272.38	1794.02
272.59	1701.86
272.81	1775.59
273.02	1748.97
273.24	1714.15
273.46	1720.29
273.67	1679.33
273.89	1619.94
274.10	1648.61
274.32	1714.15
274.54	1705.96
274.75	1693.67
274.97	1679.33
275.18	1748.97
275.40	1650.66
275.61	1665.00
275.83	1726.44
276.05	1640.42
276.26	1708.01
276.48	1755.11
276.69	1607.66
276.91	1697.77
277.12	1802.21
277.34	1783.78
277.55	1806.31
277.77	1769.44
277.99	1714.15
278.20	1701.86
278.42	1679.33
278.63	1640.42
278.85	1650.66
279.06	1654.76
279.28	1724.39
279.49	1757.16
279.71	1761.25
279.93	1746.92
280.14	1751.01
280.36	1703.91
280.57	1789.92
280.79	1755.11
281.00	1681.38
281.22	1660.90
281.43	1794.02
281.65	1550.31
281.86	1626.09
282.08	1638.38
282.29	1746.92
282.51	1599.46
282.73	1642.47
282.94	1570.79
283.16	1697.77
283.37	1738.73
283.59	1660.90
283.80	1771.49
284.02	1636.33
284.23	1746.92
284.45	1665.00
284.66	1662.95
284.88	1611.75
285.09	1697.77
285.31	1705.96
285.52	1697.77
285.74	1615.85
285.95	1726.44
286.17	1683.43
286.38	1783.78
286.60	1636.33
286.81	1667.05
287.03	1724.39
287.24	1701.86
287.46	1710.05
287.67	1671.14
287.89	1775.59
288.10	1732.58
288.32	1673.19
288.53	1869.80
288.75	1742.82
288.96	1798.12
289.18	1673.19
289.39	1636.33
289.61	1669.09
289.82	1863.65
290.04	1777.64
290.25	1626.09
290.47	1626.09
290.68	1675.24
290.90	1808.36
291.11	1617.90
291.33	1820.64
291.54	1644.52
291.76	1654.76
291.97	1751.01
292.18	1800.16
292.40	1675.24
292.61	1683.43
292.83	1837.03
293.04	1714.15
293.26	1683.43
293.47	1718.25
293.69	1710.05
293.90	1693.67
294.12	1742.82
294.33	1671.14
294.55	1701.86
294.76	1746.92
294.97	1853.41
295.19	1839.08
295.40	1712.10
295.62	1767.40
295.83	1753.06
296.05	1667.05
296.26	1746.92
296.48	1705.96
296.69	1720.29
296.90	1705.96
297.12	1748.97
297.33	1763.30
297.55	1677.29
297.76	1751.01
297.98	1773.54
298.19	1734.63
298.41	1621.99
298.62	1619.94
298.83	1742.82
299.05	1656.81
299.26	1693.67
299.48	1732.58
299.69	1734.63
299.90	1658.85
300.12	1648.61
300.33	1722.34
300.55	1777.64
300.76	1742.82
300.98	1644.52
301.19	1763.30
301.40	1587.18
301.62	1683.43
301.83	1718.25
302.05	1767.40
302.26	1615.85
302.47	1724.39
302.69	1662.95
302.90	1665.00
303.12	1535.98
303.33	1779.68
303.54	1746.92
303.76	1718.25
303.97	1714.15
304.19	1759.21
304.40	1705.96
304.61	1695.72
304.83	1751.01
305.04	1738.73
305.26	1685.48
305.47	1724.39
305.68	1662.95
305.90	1652.71
306.11	1730.53
306.33	1658.85
306.54	1624.04
306.75	1675.24
306.97	1617.90
307.18	1673.19
307.39	1632.23
307.61	1755.11
307.82	1644.52
308.04	1693.67
308.25	1660.90
308.46	1775.59
308.68	1730.53
308.89	1722.34
309.10	1716.20
309.32	1624.04
309.53	1708.01
309.74	1714.15
309.96	1677.29
310.17	1697.77
310.39	1683.43
310.60	1769.44
310.81	1726.44
311.03	1585.13
311.24	1712.10
311.45	1716.20
311.67	1845.22
311.88	1785.83
312.09	1689.57
312.31	1699.81
312.52	1695.72
312.73	1685.48
312.95	1675.24
313.16	1656.81
313.37	1787.88
313.59	1691.62
313.80	1742.82
314.01	1796.07
314.23	1640.42
314.44	1669.09
314.65	1644.52
314.87	1742.82
315.08	1587.18
315.29	1652.71
315.51	1562.60
315.72	1605.61
315.93	1742.82
316.15	1714.15
316.36	1667.05
316.57	1746.92
316.79	1699.81
317.00	1734.63
317.21	1812.45
317.43	1652.71
317.64	1660.90
317.85	1669.09
318.07	1679.33
318.28	1740.77
318.49	1824.74
318.70	1918.95
318.92	1906.66
319.13	1855.46
319.34	1777.64
319.56	1818.60
319.77	1662.95
319.98	1812.45
320.20	1769.44
320.41	1687.53
320.62	1681.38
320.83	1632.23
321.05	1855.46
321.26	1697.77
321.47	1648.61
321.69	1755.11
321.90	1607.66
322.11	1718.25
322.32	1796.07
322.54	1814.50
322.75	1677.29
322.96	1787.88
323.18	1587.18
323.39	1605.61
323.60	1695.72
323.81	1773.54
324.03	1746.92
324.24	1746.92
324.45	1722.34
324.66	1685.48
324.88	1816.55
325.09	1771.49
325.30	1730.53
325.52	1693.67
325.73	1757.16
325.94	1632.23
326.15	1652.71
326.37	1708.01
326.58	1755.11
326.79	1796.07
327.00	1615.85
327.22	1714.15
327.43	1644.52
327.64	1658.85
327.85	1671.14
328.07	1751.01
328.28	1767.40
328.49	1671.14
328.70	1669.09
328.92	1755.11
329.13	1656.81
329.34	1726.44
329.55	1867.75
329.76	1728.49
329.98	1665.00
330.19	1804.26
330.40	1693.67
330.61	1673.19
330.83	1730.53
331.04	1662.95
331.25	1697.77
331.46	1619.94
331.68	1597.42
331.89	1757.16
332.10	1753.06
332.31	1587.18
332.52	1652.71
332.74	1732.58
332.95	1703.91
333.16	1755.11
333.37	1755.11
333.58	1630.18
333.80	1740.77
334.01	1570.79
334.22	1652.71
334.43	1662.95
334.64	1638.38
334.86	1589.22
335.07	1619.94
335.28	1755.11
335.49	1595.37
335.70	1759.21
335.92	1714.15
336.13	1812.45
336.34	1695.72
336.55	1683.43
336.76	1769.44
336.98	1591.27
337.19	1677.29
337.40	1763.30
337.61	1802.21
337.82	1708.01
338.04	1783.78
338.25	1546.22
338.46	1755.11
338.67	1798.12
338.88	1703.91
339.09	1648.61
339.31	1576.94
339.52	1628.14
339.73	1675.24
339.94	1685.48
340.15	1708.01
340.36	1730.53
340.58	1628.14
340.79	1708.01
341.00	1693.67
341.21	1669.09
341.42	1783.78
341.63	1751.01
341.85	1781.73
342.06	1646.57
342.27	1644.52
342.48	1781.73
342.69	1570.79
342.90	1755.11
343.12	1701.86
343.33	1695.72
343.54	1726.44
343.75	1830.88
343.96	1665.00
344.17	1669.09
344.38	1689.57
344.60	1626.09
344.81	1630.18
345.02	1705.96
345.23	1748.97
345.44	1751.01
345.65	1734.63
345.86	1759.21
346.07	1761.25
346.29	1697.77
346.50	1791.97
346.71	1697.77
346.92	1742.82
347.13	1851.36
347.34	1699.81
347.55	1693.67
347.76	1730.53
347.98	1583.08
348.19	1660.90
348.40	1777.64
348.61	1689.57
348.82	1759.21
349.03	1755.11
349.24	1693.67
349.45	1767.40
349.66	1650.66
349.88	1675.24
350.09	1603.56
350.30	1767.40
350.51	1673.19
350.72	1689.57
350.93	1746.92
351.14	1724.39
351.35	1585.13
351.56	1710.05
351.77	1685.48
351.99	1742.82
352.20	1822.69
352.41	1814.50
352.62	1632.23
352.83	1671.14
353.04	1732.58
353.25	1720.29
353.46	1773.54
353.67	1744.87
353.88	1581.03
354.09	1757.16
354.30	1597.42
354.52	1746.92
354.73	1716.20
354.94	1697.77
355.15	1689.57
355.36	1728.49
355.57	1665.00
355.78	1785.83
355.99	1652.71
356.20	1677.29
356.41	1744.87
356.62	1724.39
356.83	1669.09
357.04	1847.27
357.25	1642.47
357.46	1710.05
357.68	1513.45
357.89	1601.51
358.10	1685.48
358.31	1695.72
358.52	1677.29
358.73	1619.94
358.94	1613.80
359.15	1691.62
359.36	1744.87
359.57	1728.49
359.78	1708.01
359.99	1736.68
360.20	1650.66
360.41	1656.81
360.62	1712.10
360.83	1744.87
361.04	1681.38
361.25	1728.49
361.46	1800.16
361.67	1763.30
361.88	1726.44
362.09	1695.72
362.30	1693.67
362.51	1615.85
362.72	1726.44
362.93	1771.49
363.14	1751.01
363.35	1656.81
363.56	1568.74
363.78	1800.16
363.99	1710.05
364.20	1681.38
364.41	1785.83
364.62	1880.04
364.83	1703.91
365.04	1740.77
365.25	1722.34
365.46	1826.79
365.67	1646.57
365.88	1609.70
366.09	1699.81
366.30	1675.24
366.51	1732.58
366.72	1638.38
366.93	1710.05
367.14	1689.57
367.35	1783.78
367.56	1705.96
367.77	1773.54
367.98	1714.15
368.18	1755.11
368.39	1697.77
368.60	1650.66
368.81	1757.16
369.02	1732.58
369.23	1714.15
369.44	1630.18
369.65	1742.82
369.86	1763.30
370.07	1753.06
370.28	1636.33
370.49	1787.88
370.70	1701.86
370.91	1654.76
371.12	1648.61
371.33	1716.20
371.54	1697.77
371.75	1771.49
371.96	1648.61
372.17	1759.21
372.38	1636.33
372.59	1775.59
372.80	1734.63
373.01	1619.94
373.22	1742.82
373.43	1710.05
373.64	1644.52
373.85	1787.88
374.06	1779.68
374.26	1765.35
374.47	1679.33
374.68	1808.36
374.89	1722.34
375.10	1697.77
375.31	1685.48
375.52	1804.26
375.73	1697.77
375.94	1591.27
376.15	1775.59
376.36	1638.38
376.57	1718.25
376.78	1697.77
376.99	1630.18
377.20	1847.27
377.40	1603.56
377.61	1763.30
377.82	1703.91
378.03	1720.29
378.24	1777.64
378.45	1755.11
378.66	1705.96
378.87	1570.79
379.08	1673.19
379.29	1708.01
379.50	1759.21
379.71	1742.82
379.91	1728.49
380.12	1687.53
380.33	1687.53
380.54	1689.57
380.75	1744.87
380.96	1677.29
381.17	1751.01
381.38	1734.63
381.59	1662.95
381.80	1703.91
382.00	1916.90
382.21	1753.06
382.42	1828.84
382.63	1918.95
382.84	1738.73
383.05	1837.03
383.26	1775.59
383.47	1726.44
383.68	1714.15
383.88	1687.53
384.09	1710.05
384.30	1867.75
384.51	1683.43
384.72	1630.18
384.93	1542.12
385.14	1687.53
385.35	1773.54
385.55	1593.32
385.76	1712.10
385.97	1716.20
386.18	1640.42
386.39	1656.81
386.60	1669.09
386.81	1771.49
387.02	1753.06
387.22	1593.32
387.43	1828.84
387.64	1787.88
387.85	1830.88
388.06	2150.37
388.27	4200.38
388.48	6670.23
388.68	8173.44
388.89	9357.17
389.10	9946.98
389.31	8689.53
389.52	7593.87
389.73	6686.62
389.93	6150.05
390.14	5869.48
390.35	5275.57
390.56	4579.26
390.77	3835.85
390.98	3065.81
391.18	2418.65
391.39	2158.56
391.60	1886.18
391.81	1779.68
392.02	1730.53
392.23	1865.70
392.43	1705.96
392.64	1771.49
392.85	1755.11
393.06	1804.26
393.27	1646.57
393.47	1683.43
393.68	1763.30
393.89	1675.24
394.10	1791.97
394.31	1648.61
394.52	1687.53
394.72	1740.77
394.93	1804.26
395.14	1583.08
395.35	1665.00
395.56	1679.33
395.76	1718.25
395.97	1718.25
396.18	1800.16
396.39	1886.18
396.60	2017.25
396.80	1933.28
397.01	1843.17
397.22	1746.92
397.43	1845.22
397.64	1738.73
397.84	1746.92
398.05	1877.99
398.26	1734.63
398.47	1777.64
398.67	1751.01
398.88	1742.82
399.09	1796.07
399.30	1636.33
399.51	1742.82
399.71	1665.00
399.92	1697.77
400.13	1757.16
400.34	1660.90
400.54	1667.05
400.75	1880.04
400.96	1685.48
401.17	1820.64
401.37	1779.68
401.58	1685.48
401.79	1705.96
402.00	1865.70
402.21	1988.58
402.41	1994.72
402.62	2041.82
402.83	2004.96
403.04	1966.05
403.24	2009.06
403.45	1865.70
403.66	1877.99
403.87	1902.56
404.07	1933.28
404.28	1867.75
404.49	1882.08
404.70	1779.68
404.90	1822.69
405.11	1767.40
405.32	1724.39
405.52	1710.05
405.73	1675.24
405.94	1701.86
406.15	1685.48
406.35	1732.58
406.56	1746.92
406.77	1708.01
406.98	1708.01
407.18	1626.09
407.39	1753.06
407.60	1697.77
407.80	1794.02
408.01	1665.00
408.22	1798.12
408.43	1679.33
408.63	1724.39
408.84	1771.49
409.05	1714.15
409.25	1640.42
409.46	1722.34
409.67	1675.24
409.88	1703.91
410.08	1748.97
410.29	1673.19
410.50	1708.01
410.70	1718.25
410.91	1574.89
411.12	1798.12
411.32	1705.96
411.53	1619.94
411.74	1720.29
411.95	1722.34
412.15	1716.20
412.36	1796.07
412.57	1701.86
412.77	1781.73
412.98	1701.86
413.19	1671.14
413.39	1771.49
413.60	1724.39
413.81	1777.64
414.01	1708.01
414.22	1685.48
414.43	1736.68
414.63	1726.44
414.84	1755.11
415.05	1656.81
415.25	1599.46
415.46	1771.49
415.67	1718.25
415.87	1712.10
416.08	1759.21
416.29	1660.90
416.49	1722.34
416.70	1683.43
416.91	1697.77
417.11	1644.52
417.32	1673.19
417.53	1806.31
417.73	1726.44
417.94	1630.18
418.15	1748.97
418.35	1779.68
418.56	1718.25
418.77	1812.45
418.97	1681.38
419.18	1726.44
419.38	1517.54
419.59	1734.63
419.80	1804.26
420.00	1695.72
420.21	1632.23
420.42	1718.25
420.62	1681.38
420.83	1667.05
421.04	1705.96
421.24	1710.05
421.45	1748.97
421.65	1791.97
421.86	1683.43
422.07	1716.20
422.27	1708.01
422.48	1732.58
422.69	1648.61
422.89	1755.11
423.10	1732.58
423.30	1697.77
423.51	1701.86
423.72	1712.10
423.92	1726.44
424.13	1673.19
424.33	1701.86
424.54	1759.21
424.75	1726.44
424.95	1804.26
425.16	1734.63
425.36	1689.57
425.57	1759.21
425.78	1703.91
425.98	1765.35
426.19	1705.96
426.39	1583.08
426.60	1689.57
426.81	1822.69
427.01	1671.14
427.22	1730.53
427.42	1591.27
427.63	1624.04
427.83	1775.59
428.04	1861.60
428.25	1818.60
428.45	1785.83
428.66	1796.07
428.86	1675.24
429.07	1646.57
429.28	1722.34
429.48	1662.95
429.69	1714.15
429.89	1746.92
430.10	1624.04
430.30	1718.25
430.51	1744.87
430.71	1703.91
430.92	1626.09
431.13	1632.23
431.33	1755.11
431.54	1726.44
431.74	1777.64
431.95	1804.26
432.15	1636.33
432.36	1679.33
432.56	1724.39
432.77	1839.08
432.98	1871.84
433.18	1738.73
433.39	1626.09
433.59	1744.87
433.80	1824.74
434.00	1847.27
434.21	1695.72
434.41	1658.85
434.62	1863.65
434.82	1667.05
435.03	1734.63
435.23	1683.43
435.44	1615.85
435.64	1642.47
435.85	1708.01
436.06	1734.63
436.26	1699.81
436.47	1771.49
436.67	1640.42
436.88	1722.34
437.08	1665.00
437.29	1841.12
437.49	1798.12
437.70	1808.36
437.90	1732.58
438.11	1843.17
438.31	1767.40
438.52	1884.13
438.72	1910.75
438.93	1988.58
439.13	1746.92
439.34	1867.75
439.54	1730.53
439.75	1800.16
439.95	1808.36
440.16	1718.25
440.36	1785.83
440.57	1812.45
440.77	1732.58
440.98	1736.68
441.18	1730.53
441.39	1665.00
441.59	1658.85
441.80	1804.26
442.00	1767.40
442.21	1783.78
442.41	1626.09
442.62	1744.87
442.82	1720.29
443.02	1779.68
443.23	1736.68
443.43	1703.91
443.64	1789.92
443.84	1644.52
444.05	1820.64
444.25	1773.54
444.46	1675.24
444.66	1746.92
444.87	1779.68
445.07	1648.61
445.28	1685.48
445.48	1871.84
445.69	1773.54
445.89	1863.65
446.09	1757.16
446.30	2021.35
446.50	2635.74
446.71	3696.58
446.91	4257.73
447.12	4796.34
447.32	4839.35
447.53	4370.37
447.73	3909.57
447.93	3516.36
448.14	3254.22
448.34	3303.37
448.55	2992.08
448.75	2801.62
448.96	2791.38
449.16	2461.66
449.36	2297.82
449.57	2115.55
449.77	1923.04
449.98	1824.74
450.18	1834.98
450.39	1837.03
450.59	1783.78
450.79	1726.44
451.00	1734.63
451.20	1837.03
451.41	1773.54
451.61	1765.35
451.81	1794.02
452.02	1785.83
452.22	1691.62
452.43	1624.04
452.63	1648.61
