SpectraSuite Data File
++++++++++++++++++++++++++++++++++++
Date: Mon Jun 06 17:32:37 CEST 2016
User: root
Dark Spectrum Present: No
Reference Spectrum Present: No
Number of Sampled Component Spectra: 1
Spectrometers: USB4C02835
Integration Time (usec): 100000 (USB4C02835)
Spectra Averaged: 1 (USB4C02835)
Boxcar Smoothing: 0 (USB4C02835)
Correct for Electrical Dark: No (USB4C02835)
Strobe/Lamp Enabled: No (USB4C02835)
Correct for Detector Non-linearity: No (USB4C02835)
Correct for Stray Light: No (USB4C02835)
Number of Pixels in Processed Spectrum: 3648
>>>>>Begin Processed Spectral Data<<<<<
177.47	1437.67
177.69	1437.67
177.91	1437.67
178.13	1476.59
178.36	1478.63
178.58	1624.04
178.80	1746.92
179.02	1593.32
179.24	1644.52
179.46	1761.25
179.68	1757.16
179.90	1687.53
180.13	1675.24
180.35	1662.95
180.57	1777.64
180.79	1830.88
181.01	1671.14
181.23	1828.84
181.45	1763.30
181.67	1656.81
181.90	1695.72
182.12	1681.38
182.34	1638.38
182.56	1798.12
182.78	1724.39
183.00	1671.14
183.22	1708.01
183.44	1626.09
183.66	1787.88
183.89	1798.12
184.11	1798.12
184.33	1714.15
184.55	1814.50
184.77	1652.71
184.99	1804.26
185.21	1705.96
185.43	1800.16
185.65	1683.43
185.87	1722.34
186.10	1789.92
186.32	1841.12
186.54	1654.76
186.76	1798.12
186.98	1718.25
187.20	1658.85
187.42	1669.09
187.64	1724.39
187.86	1781.73
188.08	1845.22
188.30	1677.29
188.52	1697.77
188.75	1746.92
188.97	1818.60
189.19	1677.29
189.41	1730.53
189.63	1734.63
189.85	1669.09
190.07	1591.27
190.29	1560.55
190.51	1720.29
190.73	1648.61
190.95	1791.97
191.17	1714.15
191.39	1617.90
191.61	1716.20
191.84	1757.16
192.06	1775.59
192.28	1605.61
192.50	1859.56
192.72	1710.05
192.94	1656.81
193.16	1701.86
193.38	1802.21
193.60	1646.57
193.82	1732.58
194.04	1785.83
194.26	1722.34
194.48	1671.14
194.70	1607.66
194.92	1632.23
195.14	1753.06
195.36	1648.61
195.58	1722.34
195.80	1736.68
196.02	1677.29
196.24	1779.68
196.46	1732.58
196.69	1662.95
196.91	1826.79
197.13	1724.39
197.35	1701.86
197.57	1740.77
197.79	1734.63
198.01	1769.44
198.23	1689.57
198.45	1746.92
198.67	1705.96
198.89	1660.90
199.11	1648.61
199.33	1658.85
199.55	1587.18
199.77	1734.63
199.99	1798.12
200.21	1759.21
200.43	1730.53
200.65	1681.38
200.87	1613.80
201.09	1603.56
201.31	1724.39
201.53	1730.53
201.75	1771.49
201.97	1742.82
202.19	1714.15
202.41	1726.44
202.63	1964.00
202.85	1808.36
203.07	1783.78
203.29	1742.82
203.51	1644.52
203.73	1681.38
203.95	1865.70
204.17	1646.57
204.39	1763.30
204.61	1644.52
204.83	1628.14
205.05	1742.82
205.27	1742.82
205.49	1914.85
205.71	1724.39
205.93	1697.77
206.15	1724.39
206.37	1761.25
206.59	1734.63
206.81	1656.81
207.03	1652.71
207.25	1748.97
207.47	1763.30
207.69	1720.29
207.91	1814.50
208.13	1796.07
208.34	1734.63
208.56	1626.09
208.78	1710.05
209.00	1763.30
209.22	1683.43
209.44	1748.97
209.66	1701.86
209.88	1697.77
210.10	1722.34
210.32	1697.77
210.54	1828.84
210.76	1734.63
210.98	1730.53
211.20	1576.94
211.42	1728.49
211.64	1789.92
211.86	1679.33
212.08	1742.82
212.30	1685.48
212.52	1671.14
212.74	1746.92
212.96	1783.78
213.17	1755.11
213.39	1826.79
213.61	1777.64
213.83	1714.15
214.05	1658.85
214.27	1732.58
214.49	1638.38
214.71	1693.67
214.93	1796.07
215.15	1701.86
215.37	1779.68
215.59	1671.14
215.81	1828.84
216.03	1742.82
216.24	1732.58
216.46	1722.34
216.68	1656.81
216.90	1716.20
217.12	1771.49
217.34	1679.33
217.56	1724.39
217.78	1865.70
218.00	1728.49
218.22	1695.72
218.44	1738.73
218.66	1722.34
218.87	1808.36
219.09	1650.66
219.31	1796.07
219.53	1716.20
219.75	1763.30
219.97	1783.78
220.19	1714.15
220.41	1685.48
220.63	1798.12
220.85	1744.87
221.06	1689.57
221.28	1816.55
221.50	1718.25
221.72	1730.53
221.94	1742.82
222.16	1730.53
222.38	1779.68
222.60	1767.40
222.82	1740.77
223.03	1820.64
223.25	1689.57
223.47	1804.26
223.69	1808.36
223.91	1783.78
224.13	1746.92
224.35	1687.53
224.57	1806.31
224.78	1765.35
225.00	1658.85
225.22	1693.67
225.44	1665.00
225.66	1683.43
225.88	1732.58
226.10	1687.53
226.32	1773.54
226.53	1740.77
226.75	1697.77
226.97	1687.53
227.19	1689.57
227.41	1781.73
227.63	1744.87
227.85	1595.37
228.06	1814.50
228.28	1660.90
228.50	1693.67
228.72	1673.19
228.94	1675.24
229.16	1548.26
229.37	1648.61
229.59	1736.68
229.81	1748.97
230.03	1658.85
230.25	1624.04
230.47	1652.71
230.69	1630.18
230.90	1722.34
231.12	1652.71
231.34	1703.91
231.56	1804.26
231.78	1599.46
232.00	1777.64
232.21	1660.90
232.43	1746.92
232.65	1619.94
232.87	1705.96
233.09	1763.30
233.30	1683.43
233.52	1734.63
233.74	1697.77
233.96	1744.87
234.18	1714.15
234.40	1648.61
234.61	1847.27
234.83	1634.28
235.05	1605.61
235.27	1796.07
235.49	1787.88
235.70	1759.21
235.92	1849.32
236.14	1673.19
236.36	1832.93
236.58	1650.66
236.79	1736.68
237.01	1791.97
237.23	1736.68
237.45	1824.74
237.67	1697.77
237.88	1755.11
238.10	1869.80
238.32	1617.90
238.54	1726.44
238.76	1695.72
238.97	1701.86
239.19	1697.77
239.41	1652.71
239.63	1734.63
239.85	1761.25
240.06	1693.67
240.28	1685.48
240.50	1828.84
240.72	1734.63
240.93	1722.34
241.15	1806.31
241.37	1798.12
241.59	1777.64
241.81	1689.57
242.02	1738.73
242.24	1740.77
242.46	1726.44
242.68	1701.86
242.89	1777.64
243.11	1720.29
243.33	1697.77
243.55	1697.77
243.76	1759.21
243.98	1667.05
244.20	1671.14
244.42	1804.26
244.64	1814.50
244.85	1660.90
245.07	1705.96
245.29	1753.06
245.51	1769.44
245.72	1714.15
245.94	1765.35
246.16	1763.30
246.38	1806.31
246.59	1701.86
246.81	1783.78
247.03	1769.44
247.24	1619.94
247.46	1755.11
247.68	1648.61
247.90	1730.53
248.11	1759.21
248.33	1769.44
248.55	1705.96
248.77	1773.54
248.98	1773.54
249.20	1863.65
249.42	1665.00
249.64	1777.64
249.85	1691.62
250.07	1601.51
250.29	1720.29
250.50	1796.07
250.72	1638.38
250.94	1748.97
251.16	1847.27
251.37	1773.54
251.59	1705.96
251.81	1789.92
252.02	1767.40
252.24	1689.57
252.46	1812.45
252.68	1699.81
252.89	1648.61
253.11	1556.46
253.33	1871.84
253.54	1820.64
253.76	1722.34
253.98	1675.24
254.20	1714.15
254.41	1611.75
254.63	1728.49
254.85	1708.01
255.06	1701.86
255.28	1804.26
255.50	1722.34
255.71	1650.66
255.93	1634.28
256.15	1665.00
256.36	1732.58
256.58	1681.38
256.80	1761.25
257.02	1695.72
257.23	1710.05
257.45	1714.15
257.67	1822.69
257.88	1638.38
258.10	1753.06
258.32	1705.96
258.53	1712.10
258.75	1814.50
258.97	1685.48
259.18	1675.24
259.40	1714.15
259.62	1869.80
259.83	1748.97
260.05	1730.53
260.27	2013.15
260.48	1714.15
260.70	1701.86
260.92	1753.06
261.13	1830.88
261.35	1691.62
261.57	1730.53
261.78	1599.46
262.00	1617.90
262.22	1656.81
262.43	1748.97
262.65	1763.30
262.86	1820.64
263.08	1810.40
263.30	1730.53
263.51	1603.56
263.73	1687.53
263.95	1816.55
264.16	1748.97
264.38	1640.42
264.60	1734.63
264.81	1744.87
265.03	1779.68
265.25	1812.45
265.46	1775.59
265.68	1759.21
265.89	1816.55
266.11	1630.18
266.33	1705.96
266.54	1746.92
266.76	1740.77
266.98	1804.26
267.19	1738.73
267.41	1843.17
267.62	1701.86
267.84	1652.71
268.06	1814.50
268.27	1703.91
268.49	1804.26
268.70	1837.03
268.92	1716.20
269.14	1673.19
269.35	1617.90
269.57	1720.29
269.79	1689.57
270.00	1748.97
270.22	1775.59
270.43	1673.19
270.65	1589.22
270.87	1691.62
271.08	1746.92
271.30	1777.64
271.51	1705.96
271.73	1691.62
271.95	1714.15
272.16	1748.97
272.38	1734.63
272.59	1722.34
272.81	1730.53
273.02	1722.34
273.24	1796.07
273.46	1806.31
273.67	1652.71
273.89	1636.33
274.10	1591.27
274.32	1832.93
274.54	1683.43
274.75	1720.29
274.97	1730.53
275.18	1789.92
275.40	1738.73
275.61	1693.67
275.83	1755.11
276.05	1656.81
276.26	1671.14
276.48	1738.73
276.69	1691.62
276.91	1695.72
277.12	1806.31
277.34	1824.74
277.55	1802.21
277.77	1787.88
277.99	1685.48
278.20	1675.24
278.42	1679.33
278.63	1599.46
278.85	1642.47
279.06	1662.95
279.28	1751.01
279.49	1740.77
279.71	1802.21
279.93	1654.76
280.14	1703.91
280.36	1732.58
280.57	1761.25
280.79	1806.31
281.00	1675.24
281.22	1695.72
281.43	1787.88
281.65	1658.85
281.86	1669.09
282.08	1705.96
282.29	1828.84
282.51	1636.33
282.73	1654.76
282.94	1648.61
283.16	1671.14
283.37	1740.77
283.59	1738.73
283.80	1712.10
284.02	1753.06
284.23	1673.19
284.45	1734.63
284.66	1624.04
284.88	1675.24
285.09	1724.39
285.31	1699.81
285.52	1665.00
285.74	1597.42
285.95	1728.49
286.17	1634.28
286.38	1771.49
286.60	1644.52
286.81	1738.73
287.03	1681.38
287.24	1753.06
287.46	1712.10
287.67	1738.73
287.89	1773.54
288.10	1755.11
288.32	1765.35
288.53	1816.55
288.75	1759.21
288.96	1800.16
289.18	1652.71
289.39	1689.57
289.61	1787.88
289.82	1822.69
290.04	1822.69
290.25	1660.90
290.47	1634.28
290.68	1683.43
290.90	1744.87
291.11	1646.57
291.33	1818.60
291.54	1673.19
291.76	1656.81
291.97	1777.64
292.18	1730.53
292.40	1724.39
292.61	1736.68
292.83	1843.17
293.04	1765.35
293.26	1724.39
293.47	1710.05
293.69	1695.72
293.90	1648.61
294.12	1722.34
294.33	1767.40
294.55	1705.96
294.76	1783.78
294.97	1789.92
295.19	1722.34
295.40	1710.05
295.62	1665.00
295.83	1820.64
296.05	1628.14
296.26	1777.64
296.48	1689.57
296.69	1724.39
296.90	1724.39
297.12	1779.68
297.33	1722.34
297.55	1763.30
297.76	1730.53
297.98	1785.83
298.19	1751.01
298.41	1697.77
298.62	1785.83
298.83	1869.80
299.05	1742.82
299.26	1638.38
299.48	1679.33
299.69	1789.92
299.90	1714.15
300.12	1691.62
300.33	1703.91
300.55	1708.01
300.76	1699.81
300.98	1683.43
301.19	1757.16
301.40	1665.00
301.62	1710.05
301.83	1730.53
302.05	1675.24
302.26	1716.20
302.47	1652.71
302.69	1718.25
302.90	1730.53
303.12	1607.66
303.33	1812.45
303.54	1810.40
303.76	1685.48
303.97	1738.73
304.19	1796.07
304.40	1652.71
304.61	1730.53
304.83	1869.80
305.04	1730.53
305.26	1755.11
305.47	1685.48
305.68	1718.25
305.90	1667.05
306.11	1767.40
306.33	1689.57
306.54	1691.62
306.75	1673.19
306.97	1624.04
307.18	1734.63
307.39	1650.66
307.61	1742.82
307.82	1685.48
308.04	1820.64
308.25	1665.00
308.46	1746.92
308.68	1708.01
308.89	1794.02
309.10	1791.97
309.32	1730.53
309.53	1722.34
309.74	1763.30
309.96	1746.92
310.17	1730.53
310.39	1699.81
310.60	1751.01
310.81	1753.06
311.03	1656.81
311.24	1769.44
311.45	1740.77
311.67	1796.07
311.88	1724.39
312.09	1673.19
312.31	1691.62
312.52	1685.48
312.73	1695.72
312.95	1660.90
313.16	1675.24
313.37	1804.26
313.59	1763.30
313.80	1789.92
314.01	1732.58
314.23	1683.43
314.44	1695.72
314.65	1605.61
314.87	1718.25
315.08	1714.15
315.29	1689.57
315.51	1597.42
315.72	1658.85
315.93	1767.40
316.15	1730.53
316.36	1632.23
316.57	1720.29
316.79	1748.97
317.00	1730.53
317.21	1734.63
317.43	1695.72
317.64	1677.29
317.85	1693.67
318.07	1695.72
318.28	1785.83
318.49	1861.60
318.70	1863.65
318.92	1742.82
319.13	1812.45
319.34	1748.97
319.56	1812.45
319.77	1763.30
319.98	1751.01
320.20	1802.21
320.41	1779.68
320.62	1699.81
320.83	1691.62
321.05	1920.99
321.26	1738.73
321.47	1689.57
321.69	1757.16
321.90	1689.57
322.11	1744.87
322.32	1759.21
322.54	1853.41
322.75	1689.57
322.96	1832.93
323.18	1726.44
323.39	1689.57
323.60	1658.85
323.81	1716.20
324.03	1689.57
324.24	1722.34
324.45	1677.29
324.66	1755.11
324.88	1761.25
325.09	1796.07
325.30	1771.49
325.52	1720.29
325.73	1775.59
325.94	1677.29
326.15	1642.47
326.37	1732.58
326.58	1771.49
326.79	1851.36
327.00	1638.38
327.22	1810.40
327.43	1716.20
327.64	1626.09
327.85	1744.87
328.07	1773.54
328.28	1810.40
328.49	1742.82
328.70	1693.67
328.92	1748.97
329.13	1665.00
329.34	1726.44
329.55	1775.59
329.76	1834.98
329.98	1728.49
330.19	1771.49
330.40	1779.68
330.61	1685.48
330.83	1744.87
331.04	1613.80
331.25	1746.92
331.46	1683.43
331.68	1619.94
331.89	1787.88
332.10	1779.68
332.31	1665.00
332.52	1734.63
332.74	1824.74
332.95	1599.46
333.16	1718.25
333.37	1791.97
333.58	1728.49
333.80	1777.64
334.01	1652.71
334.22	1695.72
334.43	1697.77
334.64	1648.61
334.86	1695.72
335.07	1624.04
335.28	1769.44
335.49	1638.38
335.70	1728.49
335.92	1816.55
336.13	1863.65
336.34	1683.43
336.55	1701.86
336.76	1746.92
336.98	1611.75
337.19	1619.94
337.40	1851.36
337.61	1851.36
337.82	1685.48
338.04	1757.16
338.25	1669.09
338.46	1720.29
338.67	1693.67
338.88	1701.86
339.09	1738.73
339.31	1701.86
339.52	1599.46
339.73	1669.09
339.94	1753.06
340.15	1886.18
340.36	1679.33
340.58	1724.39
340.79	1740.77
341.00	1841.12
341.21	1699.81
341.42	1773.54
341.63	1658.85
341.85	1746.92
342.06	1718.25
342.27	1685.48
342.48	1789.92
342.69	1720.29
342.90	1763.30
343.12	1730.53
343.33	1681.38
343.54	1791.97
343.75	1781.73
343.96	1759.21
344.17	1671.14
344.38	1710.05
344.60	1677.29
344.81	1683.43
345.02	1763.30
345.23	1763.30
345.44	1832.93
345.65	1650.66
345.86	1740.77
346.07	1671.14
346.29	1683.43
346.50	1746.92
346.71	1783.78
346.92	1789.92
347.13	1888.23
347.34	1734.63
347.55	1779.68
347.76	1771.49
347.98	1693.67
348.19	1632.23
348.40	1834.98
348.61	1658.85
348.82	1828.84
349.03	1775.59
349.24	1658.85
349.45	1814.50
349.66	1564.65
349.88	1732.58
350.09	1718.25
350.30	1804.26
350.51	1773.54
350.72	1771.49
350.93	1720.29
351.14	1716.20
351.35	1783.78
351.56	1714.15
351.77	1748.97
351.99	1742.82
352.20	1794.02
352.41	1773.54
352.62	1648.61
352.83	1665.00
353.04	1660.90
353.25	1673.19
353.46	1738.73
353.67	1791.97
353.88	1609.70
354.09	1701.86
354.30	1665.00
354.52	1640.42
354.73	1687.53
354.94	1716.20
355.15	1718.25
355.36	1726.44
355.57	1652.71
355.78	1783.78
355.99	1695.72
356.20	1763.30
356.41	1802.21
356.62	1736.68
356.83	1724.39
357.04	1830.88
357.25	1693.67
357.46	1710.05
357.68	1669.09
357.89	1683.43
358.10	1714.15
358.31	1716.20
358.52	1691.62
358.73	1650.66
358.94	1662.95
359.15	1671.14
359.36	1771.49
359.57	1710.05
359.78	1712.10
359.99	1804.26
360.20	1642.47
360.41	1693.67
360.62	1695.72
360.83	1736.68
361.04	1722.34
361.25	1748.97
361.46	1779.68
361.67	1712.10
361.88	1685.48
362.09	1689.57
362.30	1775.59
362.51	1685.48
362.72	1746.92
362.93	1761.25
363.14	1740.77
363.35	1740.77
363.56	1697.77
363.78	1818.60
363.99	1775.59
364.20	1679.33
364.41	1730.53
364.62	1796.07
364.83	1757.16
365.04	1742.82
365.25	1675.24
365.46	1837.03
365.67	1644.52
365.88	1642.47
366.09	1677.29
366.30	1665.00
366.51	1695.72
366.72	1613.80
366.93	1681.38
367.14	1769.44
367.35	1804.26
367.56	1640.42
367.77	1761.25
367.98	1712.10
368.18	1771.49
368.39	1763.30
368.60	1656.81
368.81	1744.87
369.02	1753.06
369.23	1695.72
369.44	1714.15
369.65	1697.77
369.86	1769.44
370.07	1857.51
370.28	1671.14
370.49	1808.36
370.70	1812.45
370.91	1624.04
371.12	1636.33
371.33	1826.79
371.54	1796.07
371.75	1794.02
371.96	1599.46
372.17	1683.43
372.38	1740.77
372.59	1789.92
372.80	1689.57
373.01	1660.90
373.22	1748.97
373.43	1714.15
373.64	1718.25
373.85	1787.88
374.06	1796.07
374.26	1773.54
374.47	1740.77
374.68	1769.44
374.89	1736.68
375.10	1757.16
375.31	1798.12
375.52	1800.16
375.73	1726.44
375.94	1667.05
376.15	1755.11
376.36	1648.61
376.57	1587.18
376.78	1728.49
376.99	1636.33
377.20	1828.84
377.40	1679.33
377.61	1775.59
377.82	1662.95
378.03	1798.12
378.24	1714.15
378.45	1748.97
378.66	1742.82
378.87	1646.57
379.08	1710.05
379.29	1673.19
379.50	1736.68
379.71	1716.20
379.91	1763.30
380.12	1757.16
380.33	1742.82
380.54	1728.49
380.75	1654.76
380.96	1667.05
381.17	1744.87
381.38	1775.59
381.59	1796.07
381.80	1722.34
382.00	1843.17
382.21	1738.73
382.42	1841.12
382.63	1916.90
382.84	1769.44
383.05	1769.44
383.26	1785.83
383.47	1724.39
383.68	1796.07
383.88	1734.63
384.09	1691.62
384.30	1798.12
384.51	1716.20
384.72	1714.15
384.93	1619.94
385.14	1744.87
385.35	1798.12
385.55	1673.19
385.76	1767.40
385.97	1761.25
386.18	1632.23
386.39	1689.57
386.60	1753.06
386.81	1695.72
387.02	1716.20
387.22	1703.91
387.43	1828.84
387.64	1806.31
387.85	1837.03
388.06	2131.94
388.27	4216.77
388.48	6703.00
388.68	8228.74
388.89	9615.21
389.10	9832.30
389.31	8562.56
389.52	7520.14
389.73	6735.77
389.93	6145.95
390.14	5765.03
390.35	5189.55
390.56	4544.44
390.77	3831.75
390.98	2973.65
391.18	2637.78
391.39	2099.17
391.60	1884.13
391.81	1810.40
392.02	1683.43
392.23	1855.46
392.43	1691.62
392.64	1861.60
392.85	1677.29
393.06	1851.36
393.27	1693.67
393.47	1730.53
393.68	1673.19
393.89	1708.01
394.10	1771.49
394.31	1703.91
394.52	1650.66
394.72	1665.00
394.93	1841.12
395.14	1599.46
395.35	1783.78
395.56	1687.53
395.76	1701.86
395.97	1771.49
396.18	1877.99
396.39	1853.41
396.60	2060.26
396.80	1900.52
397.01	1869.80
397.22	1910.75
397.43	1894.37
397.64	1787.88
397.84	1853.41
398.05	1906.66
398.26	1820.64
398.47	1736.68
398.67	1755.11
398.88	1783.78
399.09	1757.16
399.30	1656.81
399.51	1736.68
399.71	1718.25
399.92	1746.92
400.13	1847.27
400.34	1685.48
400.54	1687.53
400.75	1906.66
400.96	1738.73
401.17	1787.88
401.37	1714.15
401.58	1736.68
401.79	1755.11
402.00	1892.32
402.21	2013.15
402.41	1935.33
402.62	1943.52
402.83	2072.54
403.04	2029.54
403.24	2084.83
403.45	1892.32
403.66	1968.10
403.87	1943.52
404.07	1884.13
404.28	1857.51
404.49	1871.84
404.70	1810.40
404.90	1738.73
405.11	1789.92
405.32	1648.61
405.52	1605.61
405.73	1691.62
405.94	1673.19
406.15	1742.82
406.35	1740.77
406.56	1771.49
406.77	1720.29
406.98	1761.25
407.18	1673.19
407.39	1804.26
407.60	1728.49
407.80	1781.73
408.01	1722.34
408.22	1734.63
408.43	1683.43
408.63	1730.53
408.84	1746.92
409.05	1789.92
409.25	1681.38
409.46	1665.00
409.67	1685.48
409.88	1716.20
410.08	1722.34
410.29	1708.01
410.50	1779.68
410.70	1791.97
410.91	1718.25
411.12	1763.30
411.32	1708.01
411.53	1708.01
411.74	1794.02
411.95	1832.93
412.15	1816.55
412.36	1779.68
412.57	1783.78
412.77	1771.49
412.98	1763.30
413.19	1742.82
413.39	1746.92
413.60	1830.88
413.81	1894.37
414.01	1708.01
414.22	1794.02
414.43	1804.26
414.63	1697.77
414.84	1785.83
415.05	1714.15
415.25	1646.57
415.46	1746.92
415.67	1734.63
415.87	1771.49
416.08	1716.20
416.29	1718.25
416.49	1734.63
416.70	1763.30
416.91	1763.30
417.11	1658.85
417.32	1802.21
417.53	1761.25
417.73	1689.57
417.94	1718.25
418.15	1794.02
418.35	1689.57
418.56	1730.53
418.77	1847.27
418.97	1785.83
419.18	1708.01
419.38	1570.79
419.59	1658.85
419.80	1798.12
420.00	1794.02
420.21	1763.30
420.42	1746.92
420.62	1650.66
420.83	1736.68
421.04	1705.96
421.24	1703.91
421.45	1705.96
421.65	1701.86
421.86	1804.26
422.07	1812.45
422.27	1812.45
422.48	1767.40
422.69	1697.77
422.89	1773.54
423.10	1689.57
423.30	1691.62
423.51	1728.49
423.72	1675.24
423.92	1798.12
424.13	1701.86
424.33	1773.54
424.54	1812.45
424.75	1726.44
424.95	1865.70
425.16	1742.82
425.36	1699.81
425.57	1736.68
425.78	1740.77
425.98	1787.88
426.19	1710.05
426.39	1708.01
426.60	1755.11
426.81	1837.03
427.01	1708.01
427.22	1673.19
427.42	1656.81
427.63	1685.48
427.83	1796.07
428.04	1845.22
428.25	1841.12
428.45	1771.49
428.66	1753.06
428.86	1716.20
429.07	1769.44
429.28	1779.68
429.48	1656.81
429.69	1662.95
429.89	1818.60
430.10	1691.62
430.30	1718.25
430.51	1814.50
430.71	1769.44
430.92	1716.20
431.13	1708.01
431.33	1722.34
431.54	1726.44
431.74	1783.78
431.95	1798.12
432.15	1691.62
432.36	1669.09
432.56	1804.26
432.77	1798.12
432.98	1824.74
433.18	1761.25
433.39	1738.73
433.59	1652.71
433.80	1832.93
434.00	1816.55
434.21	1703.91
434.41	1804.26
434.62	1826.79
434.82	1714.15
435.03	1642.47
435.23	1716.20
435.44	1658.85
435.64	1757.16
435.85	1669.09
436.06	1775.59
436.26	1818.60
436.47	1710.05
436.67	1718.25
436.88	1753.06
437.08	1816.55
437.29	1859.56
437.49	1755.11
437.70	1777.64
437.90	1738.73
438.11	1753.06
438.31	1761.25
438.52	1820.64
438.72	1871.84
438.93	1867.75
439.13	1730.53
439.34	1826.79
439.54	1730.53
439.75	1810.40
439.95	1781.73
440.16	1742.82
440.36	1744.87
440.57	1701.86
440.77	1761.25
440.98	1777.64
441.18	1777.64
441.39	1708.01
441.59	1705.96
441.80	1837.03
442.00	1720.29
442.21	1841.12
442.41	1697.77
442.62	1845.22
442.82	1658.85
443.02	1730.53
443.23	1751.01
443.43	1677.29
443.64	1847.27
443.84	1701.86
444.05	1816.55
444.25	1806.31
444.46	1722.34
444.66	1753.06
444.87	1820.64
445.07	1570.79
445.28	1732.58
445.48	1738.73
445.69	1734.63
445.89	1853.41
446.09	1841.12
446.30	1988.58
446.50	2654.17
446.71	3669.96
446.91	4425.66
447.12	4712.38
447.32	4720.57
447.53	4384.70
447.73	3835.85
447.93	3510.22
448.14	3231.69
448.34	3229.65
448.55	2926.55
448.75	2758.61
448.96	2629.59
449.16	2424.80
449.36	2267.10
449.57	2103.26
449.77	1939.43
449.98	1800.16
450.18	1882.08
450.39	1828.84
450.59	1789.92
450.79	1757.16
451.00	1722.34
451.20	1785.83
451.41	1742.82
451.61	1746.92
451.81	1740.77
452.02	1703.91
452.22	1710.05
452.43	1718.25
452.63	1712.10
