SpectraSuite Data File
++++++++++++++++++++++++++++++++++++
Date: Mon Jun 06 14:36:17 CEST 2016
User: root
Dark Spectrum Present: No
Reference Spectrum Present: No
Number of Sampled Component Spectra: 1
Spectrometers: USB4C02835
Integration Time (usec): 100000 (USB4C02835)
Spectra Averaged: 1 (USB4C02835)
Boxcar Smoothing: 0 (USB4C02835)
Correct for Electrical Dark: No (USB4C02835)
Strobe/Lamp Enabled: No (USB4C02835)
Correct for Detector Non-linearity: No (USB4C02835)
Correct for Stray Light: No (USB4C02835)
Number of Pixels in Processed Spectrum: 3648
>>>>>Begin Processed Spectral Data<<<<<
177.47	1480.68
177.69	1480.68
177.91	1480.68
178.13	1480.68
178.36	1490.92
178.58	1660.90
178.80	1697.77
179.02	1568.74
179.24	1652.71
179.46	1714.15
179.68	1738.73
179.90	1763.30
180.13	1640.42
180.35	1742.82
180.57	1791.97
180.79	1734.63
181.01	1732.58
181.23	1753.06
181.45	1742.82
181.67	1671.14
181.90	1738.73
182.12	1646.57
182.34	1587.18
182.56	1687.53
182.78	1701.86
183.00	1687.53
183.22	1697.77
183.44	1587.18
183.66	1830.88
183.89	1824.74
184.11	1673.19
184.33	1703.91
184.55	1759.21
184.77	1755.11
184.99	1746.92
185.21	1667.05
185.43	1849.32
185.65	1646.57
185.87	1697.77
186.10	1773.54
186.32	1824.74
186.54	1751.01
186.76	1767.40
186.98	1800.16
187.20	1687.53
187.42	1687.53
187.64	1658.85
187.86	1716.20
188.08	1767.40
188.30	1677.29
188.52	1732.58
188.75	1722.34
188.97	1765.35
189.19	1642.47
189.41	1632.23
189.63	1705.96
189.85	1581.03
190.07	1640.42
190.29	1615.85
190.51	1746.92
190.73	1726.44
190.95	1734.63
191.17	1697.77
191.39	1595.37
191.61	1718.25
191.84	1630.18
192.06	1673.19
192.28	1615.85
192.50	1912.80
192.72	1722.34
192.94	1697.77
193.16	1738.73
193.38	1746.92
193.60	1650.66
193.82	1679.33
194.04	1783.78
194.26	1767.40
194.48	1648.61
194.70	1572.84
194.92	1613.80
195.14	1718.25
195.36	1722.34
195.58	1783.78
195.80	1697.77
196.02	1685.48
196.24	1708.01
196.46	1683.43
196.69	1636.33
196.91	1843.17
197.13	1757.16
197.35	1691.62
197.57	1796.07
197.79	1755.11
198.01	1693.67
198.23	1695.72
198.45	1796.07
198.67	1708.01
198.89	1677.29
199.11	1691.62
199.33	1617.90
199.55	1550.31
199.77	1640.42
199.99	1703.91
200.21	1650.66
200.43	1705.96
200.65	1624.04
200.87	1605.61
201.09	1705.96
201.31	1748.97
201.53	1714.15
201.75	1755.11
201.97	1681.38
202.19	1775.59
202.41	1740.77
202.63	1783.78
202.85	1675.24
203.07	1693.67
203.29	1650.66
203.51	1642.47
203.73	1642.47
203.95	1914.85
204.17	1673.19
204.39	1640.42
204.61	1699.81
204.83	1734.63
205.05	1744.87
205.27	1722.34
205.49	1779.68
205.71	1665.00
205.93	1607.66
206.15	1708.01
206.37	1671.14
206.59	1689.57
206.81	1607.66
207.03	1619.94
207.25	1652.71
207.47	1736.68
207.69	1705.96
207.91	1785.83
208.13	1746.92
208.34	1667.05
208.56	1660.90
208.78	1755.11
209.00	1761.25
209.22	1640.42
209.44	1685.48
209.66	1646.57
209.88	1638.38
210.10	1665.00
210.32	1677.29
210.54	1822.69
210.76	1642.47
210.98	1781.73
211.20	1624.04
211.42	1726.44
211.64	1755.11
211.86	1759.21
212.08	1775.59
212.30	1757.16
212.52	1705.96
212.74	1681.38
212.96	1751.01
213.17	1796.07
213.39	1738.73
213.61	1763.30
213.83	1726.44
214.05	1593.32
214.27	1779.68
214.49	1675.24
214.71	1681.38
214.93	1812.45
215.15	1656.81
215.37	1746.92
215.59	1628.14
215.81	1697.77
216.03	1763.30
216.24	1705.96
216.46	1673.19
216.68	1685.48
216.90	1773.54
217.12	1738.73
217.34	1722.34
217.56	1751.01
217.78	1757.16
218.00	1744.87
218.22	1681.38
218.44	1718.25
218.66	1730.53
218.87	1869.80
219.09	1691.62
219.31	1791.97
219.53	1738.73
219.75	1626.09
219.97	1665.00
220.19	1691.62
220.41	1716.20
220.63	1712.10
220.85	1798.12
221.06	1675.24
221.28	1724.39
221.50	1742.82
221.72	1728.49
221.94	1714.15
222.16	1712.10
222.38	1837.03
222.60	1773.54
222.82	1634.28
223.03	1705.96
223.25	1683.43
223.47	1802.21
223.69	1787.88
223.91	1726.44
224.13	1738.73
224.35	1742.82
224.57	1703.91
224.78	1691.62
225.00	1640.42
225.22	1689.57
225.44	1730.53
225.66	1794.02
225.88	1654.76
226.10	1746.92
226.32	1710.05
226.53	1822.69
226.75	1675.24
226.97	1722.34
227.19	1771.49
227.41	1677.29
227.63	1689.57
227.85	1607.66
228.06	1685.48
228.28	1611.75
228.50	1802.21
228.72	1615.85
228.94	1601.51
229.16	1568.74
229.37	1681.38
229.59	1695.72
229.81	1802.21
230.03	1699.81
230.25	1613.80
230.47	1681.38
230.69	1585.13
230.90	1691.62
231.12	1650.66
231.34	1669.09
231.56	1794.02
231.78	1660.90
232.00	1697.77
232.21	1693.67
232.43	1681.38
232.65	1591.27
232.87	1726.44
233.09	1658.85
233.30	1755.11
233.52	1691.62
233.74	1755.11
233.96	1662.95
234.18	1730.53
234.40	1654.76
234.61	1851.36
234.83	1585.13
235.05	1595.37
235.27	1755.11
235.49	1798.12
235.70	1693.67
235.92	1771.49
236.14	1738.73
236.36	1816.55
236.58	1568.74
236.79	1794.02
237.01	1730.53
237.23	1683.43
237.45	1814.50
237.67	1636.33
237.88	1699.81
238.10	1812.45
238.32	1628.14
238.54	1667.05
238.76	1683.43
238.97	1669.09
239.19	1748.97
239.41	1699.81
239.63	1777.64
239.85	1656.81
240.06	1726.44
240.28	1658.85
240.50	1734.63
240.72	1726.44
240.93	1658.85
241.15	1744.87
241.37	1687.53
241.59	1755.11
241.81	1714.15
242.02	1697.77
242.24	1718.25
242.46	1673.19
242.68	1648.61
242.89	1722.34
243.11	1789.92
243.33	1703.91
243.55	1703.91
243.76	1757.16
243.98	1630.18
244.20	1738.73
244.42	1755.11
244.64	1701.86
244.85	1677.29
245.07	1677.29
245.29	1763.30
245.51	1652.71
245.72	1703.91
245.94	1736.68
246.16	1675.24
246.38	1845.22
246.59	1679.33
246.81	1640.42
247.03	1685.48
247.24	1546.22
247.46	1724.39
247.68	1677.29
247.90	1626.09
248.11	1673.19
248.33	1720.29
248.55	1726.44
248.77	1660.90
248.98	1705.96
249.20	1802.21
249.42	1695.72
249.64	1675.24
249.85	1662.95
250.07	1697.77
250.29	1714.15
250.50	1722.34
250.72	1634.28
250.94	1695.72
251.16	1834.98
251.37	1755.11
251.59	1722.34
251.81	1789.92
252.02	1806.31
252.24	1671.14
252.46	1785.83
252.68	1636.33
252.89	1695.72
253.11	1595.37
253.33	1867.75
253.54	1783.78
253.76	1626.09
253.98	1652.71
254.20	1718.25
254.41	1583.08
254.63	1722.34
254.85	1642.47
255.06	1761.25
255.28	1626.09
255.50	1638.38
255.71	1671.14
255.93	1660.90
256.15	1665.00
256.36	1730.53
256.58	1689.57
256.80	1667.05
257.02	1638.38
257.23	1732.58
257.45	1691.62
257.67	1742.82
257.88	1681.38
258.10	1689.57
258.32	1726.44
258.53	1734.63
258.75	1767.40
258.97	1701.86
259.18	1673.19
259.40	1697.77
259.62	1826.79
259.83	1771.49
260.05	1744.87
260.27	1959.91
260.48	1761.25
260.70	1632.23
260.92	1656.81
261.13	1685.48
261.35	1681.38
261.57	1789.92
261.78	1525.74
262.00	1671.14
262.22	1787.88
262.43	1689.57
262.65	1740.77
262.86	1658.85
263.08	1880.04
263.30	1681.38
263.51	1667.05
263.73	1765.35
263.95	1761.25
264.16	1648.61
264.38	1681.38
264.60	1718.25
264.81	1724.39
265.03	1671.14
265.25	1751.01
265.46	1716.20
265.68	1775.59
265.89	1732.58
266.11	1648.61
266.33	1781.73
266.54	1722.34
266.76	1708.01
266.98	1773.54
267.19	1783.78
267.41	1722.34
267.62	1677.29
267.84	1705.96
268.06	1689.57
268.27	1691.62
268.49	1794.02
268.70	1748.97
268.92	1611.75
269.14	1685.48
269.35	1621.99
269.57	1656.81
269.79	1783.78
270.00	1646.57
270.22	1855.46
270.43	1718.25
270.65	1585.13
270.87	1716.20
271.08	1703.91
271.30	1708.01
271.51	1662.95
271.73	1693.67
271.95	1761.25
272.16	1789.92
272.38	1730.53
272.59	1697.77
272.81	1738.73
273.02	1759.21
273.24	1708.01
273.46	1736.68
273.67	1605.61
273.89	1730.53
274.10	1685.48
274.32	1808.36
274.54	1716.20
274.75	1679.33
274.97	1613.80
275.18	1796.07
275.40	1693.67
275.61	1705.96
275.83	1646.57
276.05	1591.27
276.26	1718.25
276.48	1644.52
276.69	1724.39
276.91	1689.57
277.12	1755.11
277.34	1814.50
277.55	1773.54
277.77	1712.10
277.99	1681.38
278.20	1613.80
278.42	1691.62
278.63	1658.85
278.85	1691.62
279.06	1609.70
279.28	1685.48
279.49	1779.68
279.71	1714.15
279.93	1742.82
280.14	1691.62
280.36	1681.38
280.57	1677.29
280.79	1689.57
281.00	1685.48
281.22	1722.34
281.43	1828.84
281.65	1570.79
281.86	1615.85
282.08	1746.92
282.29	1859.56
282.51	1621.99
282.73	1656.81
282.94	1558.50
283.16	1765.35
283.37	1771.49
283.59	1634.28
283.80	1728.49
284.02	1658.85
284.23	1716.20
284.45	1654.76
284.66	1691.62
284.88	1681.38
285.09	1738.73
285.31	1761.25
285.52	1753.06
285.74	1667.05
285.95	1771.49
286.17	1765.35
286.38	1691.62
286.60	1662.95
286.81	1683.43
287.03	1703.91
287.24	1718.25
287.46	1730.53
287.67	1701.86
287.89	1822.69
288.10	1697.77
288.32	1716.20
288.53	1681.38
288.75	1636.33
288.96	1728.49
289.18	1650.66
289.39	1751.01
289.61	1669.09
289.82	1744.87
290.04	1748.97
290.25	1581.03
290.47	1667.05
290.68	1806.31
290.90	1718.25
291.11	1650.66
291.33	1742.82
291.54	1685.48
291.76	1689.57
291.97	1718.25
292.18	1685.48
292.40	1714.15
292.61	1675.24
292.83	1820.64
293.04	1708.01
293.26	1662.95
293.47	1687.53
293.69	1644.52
293.90	1687.53
294.12	1808.36
294.33	1699.81
294.55	1701.86
294.76	1767.40
294.97	1751.01
295.19	1789.92
295.40	1746.92
295.62	1724.39
295.83	1718.25
296.05	1652.71
296.26	1832.93
296.48	1609.70
296.69	1642.47
296.90	1689.57
297.12	1683.43
297.33	1804.26
297.55	1675.24
297.76	1708.01
297.98	1710.05
298.19	1722.34
298.41	1667.05
298.62	1730.53
298.83	1775.59
299.05	1683.43
299.26	1714.15
299.48	1695.72
299.69	1732.58
299.90	1662.95
300.12	1714.15
300.33	1783.78
300.55	1710.05
300.76	1728.49
300.98	1679.33
301.19	1687.53
301.40	1630.18
301.62	1703.91
301.83	1746.92
302.05	1755.11
302.26	1660.90
302.47	1712.10
302.69	1681.38
302.90	1710.05
303.12	1562.60
303.33	1681.38
303.54	1812.45
303.76	1642.47
303.97	1683.43
304.19	1769.44
304.40	1636.33
304.61	1740.77
304.83	1808.36
305.04	1656.81
305.26	1806.31
305.47	1697.77
305.68	1681.38
305.90	1693.67
306.11	1705.96
306.33	1691.62
306.54	1652.71
306.75	1634.28
306.97	1578.98
307.18	1685.48
307.39	1644.52
307.61	1820.64
307.82	1685.48
308.04	1697.77
308.25	1634.28
308.46	1716.20
308.68	1759.21
308.89	1738.73
309.10	1757.16
309.32	1705.96
309.53	1701.86
309.74	1748.97
309.96	1718.25
310.17	1691.62
310.39	1669.09
310.60	1689.57
310.81	1650.66
311.03	1658.85
311.24	1787.88
311.45	1640.42
311.67	1845.22
311.88	1734.63
312.09	1775.59
312.31	1656.81
312.52	1693.67
312.73	1634.28
312.95	1566.70
313.16	1697.77
313.37	1810.40
313.59	1818.60
313.80	1787.88
314.01	1726.44
314.23	1703.91
314.44	1599.46
314.65	1648.61
314.87	1710.05
315.08	1714.15
315.29	1646.57
315.51	1701.86
315.72	1650.66
315.93	1861.60
316.15	1724.39
316.36	1660.90
316.57	1791.97
316.79	1787.88
317.00	1669.09
317.21	1726.44
317.43	1667.05
317.64	1767.40
317.85	1648.61
318.07	1660.90
318.28	1683.43
318.49	1826.79
318.70	1914.85
318.92	1832.93
319.13	1755.11
319.34	1857.51
319.56	1775.59
319.77	1775.59
319.98	1748.97
320.20	1822.69
320.41	1748.97
320.62	1765.35
320.83	1583.08
321.05	1781.73
321.26	1751.01
321.47	1720.29
321.69	1783.78
321.90	1578.98
322.11	1646.57
322.32	1671.14
322.54	1732.58
322.75	1673.19
322.96	1820.64
323.18	1540.07
323.39	1615.85
323.60	1615.85
323.81	1720.29
324.03	1673.19
324.24	1718.25
324.45	1636.33
324.66	1681.38
324.88	1806.31
325.09	1736.68
325.30	1683.43
325.52	1667.05
325.73	1691.62
325.94	1675.24
326.15	1695.72
326.37	1675.24
326.58	1779.68
326.79	1857.51
327.00	1587.18
327.22	1695.72
327.43	1650.66
327.64	1632.23
327.85	1767.40
328.07	1806.31
328.28	1763.30
328.49	1708.01
328.70	1669.09
328.92	1667.05
329.13	1634.28
329.34	1755.11
329.55	1748.97
329.76	1787.88
329.98	1742.82
330.19	1773.54
330.40	1746.92
330.61	1714.15
330.83	1705.96
331.04	1714.15
331.25	1687.53
331.46	1658.85
331.68	1673.19
331.89	1718.25
332.10	1685.48
332.31	1650.66
332.52	1689.57
332.74	1763.30
332.95	1636.33
333.16	1601.51
333.37	1763.30
333.58	1753.06
333.80	1697.77
334.01	1601.51
334.22	1642.47
334.43	1652.71
334.64	1640.42
334.86	1609.70
335.07	1675.24
335.28	1845.22
335.49	1611.75
335.70	1791.97
335.92	1701.86
336.13	1804.26
336.34	1761.25
336.55	1665.00
336.76	1703.91
336.98	1628.14
337.19	1681.38
337.40	1789.92
337.61	1869.80
337.82	1665.00
338.04	1773.54
338.25	1660.90
338.46	1687.53
338.67	1728.49
338.88	1636.33
339.09	1687.53
339.31	1632.23
339.52	1591.27
339.73	1722.34
339.94	1824.74
340.15	1804.26
340.36	1687.53
340.58	1677.29
340.79	1689.57
341.00	1755.11
341.21	1665.00
341.42	1783.78
341.63	1628.14
341.85	1736.68
342.06	1746.92
342.27	1615.85
342.48	1816.55
342.69	1636.33
342.90	1753.06
343.12	1722.34
343.33	1701.86
343.54	1757.16
343.75	1845.22
343.96	1701.86
344.17	1652.71
344.38	1640.42
344.60	1648.61
344.81	1693.67
345.02	1652.71
345.23	1785.83
345.44	1703.91
345.65	1751.01
345.86	1656.81
346.07	1726.44
346.29	1673.19
346.50	1759.21
346.71	1798.12
346.92	1769.44
347.13	1861.60
347.34	1669.09
347.55	1742.82
347.76	1708.01
347.98	1572.84
348.19	1714.15
348.40	1712.10
348.61	1695.72
348.82	1697.77
349.03	1736.68
349.24	1652.71
349.45	1796.07
349.66	1568.74
349.88	1648.61
350.09	1693.67
350.30	1806.31
350.51	1808.36
350.72	1726.44
350.93	1826.79
351.14	1673.19
351.35	1685.48
351.56	1753.06
351.77	1742.82
351.99	1751.01
352.20	1794.02
352.41	1796.07
352.62	1607.66
352.83	1753.06
353.04	1714.15
353.25	1673.19
353.46	1744.87
353.67	1812.45
353.88	1626.09
354.09	1703.91
354.30	1726.44
354.52	1732.58
354.73	1691.62
354.94	1665.00
355.15	1767.40
355.36	1822.69
355.57	1718.25
355.78	1703.91
355.99	1656.81
356.20	1621.99
356.41	1746.92
356.62	1781.73
356.83	1734.63
357.04	1771.49
357.25	1644.52
357.46	1701.86
357.68	1648.61
357.89	1667.05
358.10	1689.57
358.31	1679.33
358.52	1714.15
358.73	1669.09
358.94	1740.77
359.15	1652.71
359.36	1783.78
359.57	1671.14
359.78	1705.96
359.99	1724.39
360.20	1560.55
360.41	1603.56
360.62	1701.86
360.83	1630.18
361.04	1689.57
361.25	1697.77
361.46	1802.21
361.67	1783.78
361.88	1734.63
362.09	1742.82
362.30	1771.49
362.51	1599.46
362.72	1628.14
362.93	1814.50
363.14	1734.63
363.35	1703.91
363.56	1671.14
363.78	1863.65
363.99	1740.77
364.20	1669.09
364.41	1753.06
364.62	1777.64
364.83	1712.10
365.04	1701.86
365.25	1708.01
365.46	1777.64
365.67	1595.37
365.88	1656.81
366.09	1677.29
366.30	1726.44
366.51	1724.39
366.72	1509.35
366.93	1667.05
367.14	1724.39
367.35	1740.77
367.56	1757.16
367.77	1777.64
367.98	1732.58
368.18	1687.53
368.39	1673.19
368.60	1644.52
368.81	1724.39
369.02	1671.14
369.23	1638.38
369.44	1648.61
369.65	1705.96
369.86	1718.25
370.07	1751.01
370.28	1681.38
370.49	1658.85
370.70	1781.73
370.91	1665.00
371.12	1638.38
371.33	1685.48
371.54	1665.00
371.75	1814.50
371.96	1671.14
372.17	1697.77
372.38	1683.43
372.59	1656.81
372.80	1636.33
373.01	1695.72
373.22	1669.09
373.43	1679.33
373.64	1587.18
373.85	1789.92
374.06	1871.84
374.26	1718.25
374.47	1734.63
374.68	1767.40
374.89	1746.92
375.10	1697.77
375.31	1748.97
375.52	1757.16
375.73	1751.01
375.94	1662.95
376.15	1789.92
376.36	1665.00
376.57	1734.63
376.78	1654.76
376.99	1748.97
377.20	1753.06
377.40	1652.71
377.61	1837.03
377.82	1646.57
378.03	1798.12
378.24	1781.73
378.45	1662.95
378.66	1701.86
378.87	1660.90
379.08	1615.85
379.29	1728.49
379.50	1748.97
379.71	1681.38
379.91	1759.21
380.12	1650.66
380.33	1673.19
380.54	1677.29
380.75	1660.90
380.96	1710.05
381.17	1832.93
381.38	1697.77
381.59	1787.88
381.80	1722.34
382.00	1816.55
382.21	1716.20
382.42	1794.02
382.63	1957.86
382.84	1656.81
383.05	1734.63
383.26	1746.92
383.47	1701.86
383.68	1767.40
383.88	1677.29
384.09	1724.39
384.30	1775.59
384.51	1701.86
384.72	1697.77
384.93	1650.66
385.14	1628.14
385.35	1763.30
385.55	1593.32
385.76	1832.93
385.97	1677.29
386.18	1656.81
386.39	1681.38
386.60	1646.57
386.81	1775.59
387.02	1621.99
387.22	1650.66
387.43	1744.87
387.64	1761.25
387.85	1914.85
388.06	2191.33
388.27	4132.80
388.48	6862.74
388.68	8462.21
388.89	9699.18
389.10	10026.86
389.31	8548.22
389.52	7552.91
389.73	6838.17
389.93	6188.96
390.14	5980.07
390.35	5142.45
390.56	4528.06
390.77	3766.21
390.98	3067.86
391.18	2553.82
391.39	2170.85
391.60	1773.54
391.81	1822.69
392.02	1681.38
392.23	1791.97
392.43	1712.10
392.64	1748.97
392.85	1703.91
393.06	1847.27
393.27	1734.63
393.47	1646.57
393.68	1765.35
393.89	1662.95
394.10	1695.72
394.31	1699.81
394.52	1662.95
394.72	1705.96
394.93	1777.64
395.14	1656.81
395.35	1755.11
395.56	1683.43
395.76	1804.26
395.97	1722.34
396.18	1820.64
396.39	1814.50
396.60	2035.68
396.80	1918.95
397.01	1820.64
397.22	1755.11
397.43	1845.22
397.64	1689.57
397.84	1841.12
398.05	1886.18
398.26	1708.01
398.47	1818.60
398.67	1818.60
398.88	1683.43
399.09	1775.59
399.30	1710.05
399.51	1742.82
399.71	1638.38
399.92	1714.15
400.13	1673.19
400.34	1712.10
400.54	1677.29
400.75	1732.58
400.96	1697.77
401.17	1779.68
401.37	1757.16
401.58	1658.85
401.79	1714.15
402.00	1785.83
402.21	1953.76
402.41	1894.37
402.62	2009.06
402.83	2097.12
403.04	1918.95
403.24	2074.59
403.45	1837.03
403.66	1920.99
403.87	1865.70
404.07	1863.65
404.28	1914.85
404.49	1785.83
404.70	1830.88
404.90	1785.83
405.11	1804.26
405.32	1748.97
405.52	1650.66
405.73	1652.71
405.94	1687.53
406.15	1755.11
406.35	1726.44
406.56	1730.53
406.77	1712.10
406.98	1759.21
407.18	1660.90
407.39	1773.54
407.60	1740.77
407.80	1665.00
408.01	1687.53
408.22	1693.67
408.43	1691.62
408.63	1804.26
408.84	1705.96
409.05	1796.07
409.25	1628.14
409.46	1611.75
409.67	1759.21
409.88	1689.57
410.08	1683.43
410.29	1662.95
410.50	1789.92
410.70	1742.82
410.91	1673.19
411.12	1724.39
411.32	1699.81
411.53	1648.61
411.74	1800.16
411.95	1763.30
412.15	1710.05
412.36	1751.01
412.57	1746.92
412.77	1751.01
412.98	1697.77
413.19	1712.10
413.39	1693.67
413.60	1705.96
413.81	1742.82
414.01	1683.43
414.22	1744.87
414.43	1781.73
414.63	1718.25
414.84	1734.63
415.05	1687.53
415.25	1632.23
415.46	1726.44
415.67	1669.09
415.87	1763.30
416.08	1759.21
416.29	1644.52
416.49	1703.91
416.70	1648.61
416.91	1712.10
417.11	1730.53
417.32	1675.24
417.53	1712.10
417.73	1648.61
417.94	1724.39
418.15	1796.07
418.35	1716.20
418.56	1726.44
418.77	1843.17
418.97	1710.05
419.18	1662.95
419.38	1568.74
419.59	1656.81
419.80	1742.82
420.00	1718.25
420.21	1734.63
420.42	1830.88
420.62	1658.85
420.83	1695.72
421.04	1757.16
421.24	1697.77
421.45	1771.49
421.65	1775.59
421.86	1695.72
422.07	1773.54
422.27	1726.44
422.48	1705.96
422.69	1677.29
422.89	1658.85
423.10	1751.01
423.30	1644.52
423.51	1722.34
423.72	1742.82
423.92	1804.26
424.13	1701.86
424.33	1656.81
424.54	1740.77
424.75	1759.21
424.95	1728.49
425.16	1665.00
425.36	1689.57
425.57	1675.24
425.78	1742.82
425.98	1765.35
426.19	1679.33
426.39	1714.15
426.60	1728.49
426.81	1791.97
427.01	1779.68
427.22	1634.28
427.42	1685.48
427.63	1697.77
427.83	1746.92
428.04	1755.11
428.25	1712.10
428.45	1789.92
428.66	1710.05
428.86	1697.77
429.07	1681.38
429.28	1718.25
429.48	1693.67
429.69	1658.85
429.89	1800.16
430.10	1626.09
430.30	1779.68
430.51	1753.06
430.71	1673.19
430.92	1773.54
431.13	1701.86
431.33	1724.39
431.54	1742.82
431.74	1773.54
431.95	1791.97
432.15	1648.61
432.36	1636.33
432.56	1796.07
432.77	1794.02
432.98	1804.26
433.18	1675.24
433.39	1726.44
433.59	1689.57
433.80	1832.93
434.00	1861.60
434.21	1673.19
434.41	1615.85
434.62	1806.31
434.82	1712.10
435.03	1665.00
435.23	1806.31
435.44	1650.66
435.64	1812.45
435.85	1722.34
436.06	1771.49
436.26	1744.87
436.47	1681.38
436.67	1667.05
436.88	1695.72
437.08	1748.97
437.29	1757.16
437.49	1724.39
437.70	1785.83
437.90	1699.81
438.11	1837.03
438.31	1785.83
438.52	1896.42
438.72	1837.03
438.93	1939.43
439.13	1802.21
439.34	1863.65
439.54	1769.44
439.75	1742.82
439.95	1828.84
440.16	1650.66
440.36	1773.54
440.57	1761.25
440.77	1777.64
440.98	1720.29
441.18	1796.07
441.39	1652.71
441.59	1648.61
441.80	1828.84
442.00	1687.53
442.21	1832.93
442.41	1636.33
442.62	1816.55
442.82	1720.29
443.02	1736.68
443.23	1712.10
443.43	1691.62
443.64	1902.56
443.84	1675.24
444.05	1798.12
444.25	1685.48
444.46	1732.58
444.66	1755.11
444.87	1802.21
445.07	1640.42
445.28	1765.35
445.48	1794.02
445.69	1789.92
445.89	1900.52
446.09	1714.15
446.30	2033.63
446.50	2600.92
446.71	3807.17
446.91	4255.68
447.12	4638.65
447.32	4861.88
447.53	4339.65
447.73	3829.70
447.93	3624.90
448.14	3239.89
448.34	3344.33
448.55	2932.69
448.75	2863.06
448.96	2754.52
449.16	2451.42
449.36	2256.86
449.57	2060.26
449.77	1855.46
449.98	1824.74
450.18	1880.04
450.39	1808.36
450.59	1714.15
450.79	1738.73
451.00	1685.48
451.20	1783.78
451.41	1656.81
451.61	1804.26
451.81	1716.20
452.02	1660.90
452.22	1652.71
452.43	1769.44
452.63	1648.61
