SpectraSuite Data File
++++++++++++++++++++++++++++++++++++
Date: Mon Jun 06 17:41:17 CEST 2016
User: root
Dark Spectrum Present: No
Reference Spectrum Present: No
Number of Sampled Component Spectra: 1
Spectrometers: USB4C02835
Integration Time (usec): 100000 (USB4C02835)
Spectra Averaged: 1 (USB4C02835)
Boxcar Smoothing: 0 (USB4C02835)
Correct for Electrical Dark: No (USB4C02835)
Strobe/Lamp Enabled: No (USB4C02835)
Correct for Detector Non-linearity: No (USB4C02835)
Correct for Stray Light: No (USB4C02835)
Number of Pixels in Processed Spectrum: 3648
>>>>>Begin Processed Spectral Data<<<<<
177.47	1464.30
177.69	1464.30
177.91	1464.30
178.13	1431.53
178.36	1495.02
178.58	1687.53
178.80	1738.73
179.02	1583.08
179.24	1615.85
179.46	1800.16
179.68	1806.31
179.90	1699.81
180.13	1726.44
180.35	1693.67
180.57	1644.52
180.79	1689.57
181.01	1724.39
181.23	1765.35
181.45	1738.73
181.67	1763.30
181.90	1800.16
182.12	1673.19
182.34	1685.48
182.56	1732.58
182.78	1720.29
183.00	1753.06
183.22	1820.64
183.44	1621.99
183.66	1914.85
183.89	1820.64
184.11	1712.10
184.33	1740.77
184.55	1812.45
184.77	1781.73
184.99	1751.01
185.21	1732.58
185.43	1869.80
185.65	1652.71
185.87	1673.19
186.10	1898.47
186.32	1843.17
186.54	1701.86
186.76	1701.86
186.98	1740.77
187.20	1761.25
187.42	1720.29
187.64	1736.68
187.86	1748.97
188.08	1767.40
188.30	1769.44
188.52	1767.40
188.75	1751.01
188.97	1843.17
189.19	1722.34
189.41	1601.51
189.63	1742.82
189.85	1624.04
190.07	1644.52
190.29	1640.42
190.51	1818.60
190.73	1597.42
190.95	1814.50
191.17	1675.24
191.39	1644.52
191.61	1724.39
191.84	1748.97
192.06	1755.11
192.28	1687.53
192.50	1877.99
192.72	1691.62
192.94	1669.09
193.16	1710.05
193.38	1759.21
193.60	1650.66
193.82	1699.81
194.04	1722.34
194.26	1789.92
194.48	1751.01
194.70	1683.43
194.92	1679.33
195.14	1777.64
195.36	1802.21
195.58	1746.92
195.80	1753.06
196.02	1607.66
196.24	1724.39
196.46	1740.77
196.69	1630.18
196.91	1898.47
197.13	1744.87
197.35	1693.67
197.57	1861.60
197.79	1820.64
198.01	1783.78
198.23	1779.68
198.45	1654.76
198.67	1595.37
198.89	1708.01
199.11	1716.20
199.33	1644.52
199.55	1564.65
199.77	1759.21
199.99	1734.63
200.21	1738.73
200.43	1800.16
200.65	1683.43
200.87	1607.66
201.09	1679.33
201.31	1675.24
201.53	1808.36
201.75	1742.82
201.97	1667.05
202.19	1660.90
202.41	1728.49
202.63	1816.55
202.85	1820.64
203.07	1767.40
203.29	1708.01
203.51	1699.81
203.73	1685.48
203.95	1892.32
204.17	1787.88
204.39	1751.01
204.61	1746.92
204.83	1779.68
205.05	1732.58
205.27	1839.08
205.49	1794.02
205.71	1705.96
205.93	1585.13
206.15	1640.42
206.37	1742.82
206.59	1697.77
206.81	1646.57
207.03	1691.62
207.25	1617.90
207.47	1697.77
207.69	1695.72
207.91	1816.55
208.13	1740.77
208.34	1701.86
208.56	1644.52
208.78	1714.15
209.00	1662.95
209.22	1800.16
209.44	1619.94
209.66	1757.16
209.88	1753.06
210.10	1710.05
210.32	1703.91
210.54	1781.73
210.76	1689.57
210.98	1759.21
211.20	1587.18
211.42	1740.77
211.64	1769.44
211.86	1701.86
212.08	1761.25
212.30	1693.67
212.52	1751.01
212.74	1761.25
212.96	1697.77
213.17	1722.34
213.39	1773.54
213.61	1849.32
213.83	1802.21
214.05	1701.86
214.27	1812.45
214.49	1648.61
214.71	1703.91
214.93	1794.02
215.15	1691.62
215.37	1775.59
215.59	1695.72
215.81	1753.06
216.03	1773.54
216.24	1677.29
216.46	1730.53
216.68	1742.82
216.90	1804.26
217.12	1771.49
217.34	1716.20
217.56	1765.35
217.78	1734.63
218.00	1757.16
218.22	1638.38
218.44	1703.91
218.66	1738.73
218.87	1859.56
219.09	1697.77
219.31	1748.97
219.53	1744.87
219.75	1734.63
219.97	1716.20
220.19	1800.16
220.41	1718.25
220.63	1861.60
220.85	1769.44
221.06	1671.14
221.28	1837.03
221.50	1794.02
221.72	1718.25
221.94	1701.86
222.16	1720.29
222.38	1773.54
222.60	1753.06
222.82	1740.77
223.03	1789.92
223.25	1607.66
223.47	1769.44
223.69	1773.54
223.91	1841.12
224.13	1671.14
224.35	1710.05
224.57	1771.49
224.78	1748.97
225.00	1591.27
225.22	1683.43
225.44	1665.00
225.66	1718.25
225.88	1671.14
226.10	1673.19
226.32	1691.62
226.53	1830.88
226.75	1687.53
226.97	1734.63
227.19	1677.29
227.41	1712.10
227.63	1677.29
227.85	1593.32
228.06	1837.03
228.28	1710.05
228.50	1757.16
228.72	1693.67
228.94	1744.87
229.16	1677.29
229.37	1630.18
229.59	1710.05
229.81	1783.78
230.03	1593.32
230.25	1574.89
230.47	1644.52
230.69	1665.00
230.90	1652.71
231.12	1681.38
231.34	1763.30
231.56	1832.93
231.78	1603.56
232.00	1738.73
232.21	1746.92
232.43	1697.77
232.65	1603.56
232.87	1740.77
233.09	1683.43
233.30	1781.73
233.52	1767.40
233.74	1742.82
233.96	1701.86
234.18	1746.92
234.40	1812.45
234.61	1920.99
234.83	1656.81
235.05	1624.04
235.27	1812.45
235.49	1861.60
235.70	1732.58
235.92	1761.25
236.14	1736.68
236.36	1798.12
236.58	1658.85
236.79	1685.48
237.01	1753.06
237.23	1728.49
237.45	1796.07
237.67	1691.62
237.88	1726.44
238.10	1751.01
238.32	1640.42
238.54	1665.00
238.76	1658.85
238.97	1718.25
239.19	1736.68
239.41	1789.92
239.63	1738.73
239.85	1726.44
240.06	1644.52
240.28	1640.42
240.50	1775.59
240.72	1787.88
240.93	1726.44
241.15	1855.46
241.37	1669.09
241.59	1787.88
241.81	1751.01
242.02	1619.94
242.24	1789.92
242.46	1783.78
242.68	1662.95
242.89	1734.63
243.11	1751.01
243.33	1673.19
243.55	1744.87
243.76	1830.88
243.98	1638.38
244.20	1636.33
244.42	1705.96
244.64	1781.73
244.85	1669.09
245.07	1648.61
245.29	1738.73
245.51	1673.19
245.72	1691.62
245.94	1849.32
246.16	1726.44
246.38	1759.21
246.59	1677.29
246.81	1673.19
247.03	1691.62
247.24	1619.94
247.46	1687.53
247.68	1724.39
247.90	1646.57
248.11	1703.91
248.33	1742.82
248.55	1710.05
248.77	1683.43
248.98	1779.68
249.20	1765.35
249.42	1759.21
249.64	1695.72
249.85	1759.21
250.07	1679.33
250.29	1708.01
250.50	1781.73
250.72	1683.43
250.94	1738.73
251.16	1837.03
251.37	1720.29
251.59	1697.77
251.81	1767.40
252.02	1800.16
252.24	1681.38
252.46	1791.97
252.68	1644.52
252.89	1734.63
253.11	1597.42
253.33	1800.16
253.54	1718.25
253.76	1681.38
253.98	1697.77
254.20	1718.25
254.41	1728.49
254.63	1716.20
254.85	1671.14
255.06	1775.59
255.28	1820.64
255.50	1730.53
255.71	1595.37
255.93	1677.29
256.15	1785.83
256.36	1699.81
256.58	1628.14
256.80	1730.53
257.02	1712.10
257.23	1744.87
257.45	1746.92
257.67	1779.68
257.88	1665.00
258.10	1777.64
258.32	1728.49
258.53	1746.92
258.75	1763.30
258.97	1708.01
259.18	1732.58
259.40	1738.73
259.62	1834.98
259.83	1794.02
260.05	1771.49
260.27	2025.44
260.48	1714.15
260.70	1697.77
260.92	1748.97
261.13	1710.05
261.35	1765.35
261.57	1720.29
261.78	1679.33
262.00	1650.66
262.22	1716.20
262.43	1654.76
262.65	1701.86
262.86	1757.16
263.08	1843.17
263.30	1705.96
263.51	1652.71
263.73	1701.86
263.95	1757.16
264.16	1628.14
264.38	1703.91
264.60	1753.06
264.81	1763.30
265.03	1734.63
265.25	1783.78
265.46	1665.00
265.68	1814.50
265.89	1753.06
266.11	1648.61
266.33	1757.16
266.54	1806.31
266.76	1783.78
266.98	1761.25
267.19	1808.36
267.41	1853.41
267.62	1726.44
267.84	1609.70
268.06	1744.87
268.27	1730.53
268.49	1728.49
268.70	1726.44
268.92	1806.31
269.14	1681.38
269.35	1673.19
269.57	1722.34
269.79	1775.59
270.00	1753.06
270.22	1896.42
270.43	1638.38
270.65	1595.37
270.87	1746.92
271.08	1808.36
271.30	1732.58
271.51	1822.69
271.73	1761.25
271.95	1851.36
272.16	1732.58
272.38	1751.01
272.59	1660.90
272.81	1697.77
273.02	1728.49
273.24	1705.96
273.46	1783.78
273.67	1679.33
273.89	1714.15
274.10	1652.71
274.32	1800.16
274.54	1683.43
274.75	1773.54
274.97	1738.73
275.18	1775.59
275.40	1789.92
275.61	1728.49
275.83	1746.92
276.05	1689.57
276.26	1732.58
276.48	1681.38
276.69	1730.53
276.91	1761.25
277.12	1798.12
277.34	1746.92
277.55	1808.36
277.77	1714.15
277.99	1753.06
278.20	1644.52
278.42	1671.14
278.63	1552.36
278.85	1665.00
279.06	1652.71
279.28	1748.97
279.49	1681.38
279.71	1691.62
279.93	1703.91
280.14	1685.48
280.36	1708.01
280.57	1765.35
280.79	1732.58
281.00	1640.42
281.22	1705.96
281.43	1785.83
281.65	1558.50
281.86	1679.33
282.08	1806.31
282.29	1847.27
282.51	1634.28
282.73	1617.90
282.94	1685.48
283.16	1791.97
283.37	1791.97
283.59	1818.60
283.80	1714.15
284.02	1753.06
284.23	1773.54
284.45	1710.05
284.66	1705.96
284.88	1638.38
285.09	1802.21
285.31	1781.73
285.52	1798.12
285.74	1687.53
285.95	1808.36
286.17	1699.81
286.38	1787.88
286.60	1730.53
286.81	1712.10
287.03	1644.52
287.24	1722.34
287.46	1699.81
287.67	1673.19
287.89	1851.36
288.10	1763.30
288.32	1644.52
288.53	1812.45
288.75	1787.88
288.96	1724.39
289.18	1703.91
289.39	1699.81
289.61	1746.92
289.82	1855.46
290.04	1861.60
290.25	1673.19
290.47	1742.82
290.68	1748.97
290.90	1695.72
291.11	1671.14
291.33	1763.30
291.54	1667.05
291.76	1746.92
291.97	1755.11
292.18	1677.29
292.40	1705.96
292.61	1791.97
292.83	1877.99
293.04	1695.72
293.26	1734.63
293.47	1667.05
293.69	1730.53
293.90	1724.39
294.12	1863.65
294.33	1734.63
294.55	1669.09
294.76	1763.30
294.97	1880.04
295.19	1787.88
295.40	1679.33
295.62	1853.41
295.83	1775.59
296.05	1642.47
296.26	1804.26
296.48	1689.57
296.69	1677.29
296.90	1798.12
297.12	1757.16
297.33	1796.07
297.55	1773.54
297.76	1761.25
297.98	1734.63
298.19	1755.11
298.41	1751.01
298.62	1626.09
298.83	1791.97
299.05	1728.49
299.26	1724.39
299.48	1716.20
299.69	1769.44
299.90	1695.72
300.12	1724.39
300.33	1785.83
300.55	1681.38
300.76	1751.01
300.98	1642.47
301.19	1757.16
301.40	1656.81
301.62	1732.58
301.83	1818.60
302.05	1791.97
302.26	1773.54
302.47	1718.25
302.69	1669.09
302.90	1746.92
303.12	1568.74
303.33	1746.92
303.54	1877.99
303.76	1738.73
303.97	1759.21
304.19	1800.16
304.40	1652.71
304.61	1755.11
304.83	1826.79
305.04	1828.84
305.26	1716.20
305.47	1683.43
305.68	1771.49
305.90	1615.85
306.11	1775.59
306.33	1710.05
306.54	1783.78
306.75	1665.00
306.97	1648.61
307.18	1738.73
307.39	1597.42
307.61	1708.01
307.82	1644.52
308.04	1751.01
308.25	1683.43
308.46	1738.73
308.68	1798.12
308.89	1685.48
309.10	1806.31
309.32	1683.43
309.53	1703.91
309.74	1669.09
309.96	1714.15
310.17	1816.55
310.39	1636.33
310.60	1714.15
310.81	1693.67
311.03	1689.57
311.24	1699.81
311.45	1755.11
311.67	1810.40
311.88	1705.96
312.09	1648.61
312.31	1673.19
312.52	1732.58
312.73	1705.96
312.95	1671.14
313.16	1646.57
313.37	1822.69
313.59	1738.73
313.80	1771.49
314.01	1853.41
314.23	1699.81
314.44	1712.10
314.65	1665.00
314.87	1681.38
315.08	1685.48
315.29	1751.01
315.51	1703.91
315.72	1660.90
315.93	1849.32
316.15	1761.25
316.36	1716.20
316.57	1818.60
316.79	1726.44
317.00	1705.96
317.21	1789.92
317.43	1685.48
317.64	1714.15
317.85	1708.01
318.07	1683.43
318.28	1773.54
318.49	1839.08
318.70	1994.72
318.92	1810.40
319.13	1812.45
319.34	1927.14
319.56	1798.12
319.77	1857.51
319.98	1730.53
320.20	1802.21
320.41	1785.83
320.62	1761.25
320.83	1587.18
321.05	1912.80
321.26	1734.63
321.47	1755.11
321.69	1814.50
321.90	1671.14
322.11	1740.77
322.32	1775.59
322.54	1791.97
322.75	1740.77
322.96	1884.13
323.18	1650.66
323.39	1689.57
323.60	1638.38
323.81	1777.64
324.03	1679.33
324.24	1785.83
324.45	1703.91
324.66	1628.14
324.88	1853.41
325.09	1843.17
325.30	1777.64
325.52	1761.25
325.73	1781.73
325.94	1701.86
326.15	1652.71
326.37	1685.48
326.58	1742.82
326.79	1781.73
327.00	1626.09
327.22	1759.21
327.43	1695.72
327.64	1642.47
327.85	1765.35
328.07	1699.81
328.28	1837.03
328.49	1695.72
328.70	1710.05
328.92	1734.63
329.13	1673.19
329.34	1820.64
329.55	1843.17
329.76	1820.64
329.98	1697.77
330.19	1705.96
330.40	1757.16
330.61	1716.20
330.83	1800.16
331.04	1748.97
331.25	1769.44
331.46	1691.62
331.68	1634.28
331.89	1740.77
332.10	1781.73
332.31	1642.47
332.52	1669.09
332.74	1820.64
332.95	1689.57
333.16	1683.43
333.37	1732.58
333.58	1673.19
333.80	1818.60
334.01	1609.70
334.22	1681.38
334.43	1658.85
334.64	1697.77
334.86	1576.94
335.07	1642.47
335.28	1826.79
335.49	1648.61
335.70	1791.97
335.92	1738.73
336.13	1796.07
336.34	1755.11
336.55	1777.64
336.76	1820.64
336.98	1574.89
337.19	1646.57
337.40	1810.40
337.61	1839.08
337.82	1667.05
338.04	1755.11
338.25	1673.19
338.46	1656.81
338.67	1673.19
338.88	1769.44
339.09	1699.81
339.31	1624.04
339.52	1656.81
339.73	1681.38
339.94	1742.82
340.15	1744.87
340.36	1728.49
340.58	1691.62
340.79	1662.95
341.00	1724.39
341.21	1595.37
341.42	1857.51
341.63	1730.53
341.85	1775.59
342.06	1710.05
342.27	1699.81
342.48	1685.48
342.69	1724.39
342.90	1800.16
343.12	1646.57
343.33	1675.24
343.54	1773.54
343.75	1763.30
343.96	1634.28
344.17	1744.87
344.38	1753.06
344.60	1667.05
344.81	1714.15
345.02	1734.63
345.23	1714.15
345.44	1804.26
345.65	1781.73
345.86	1806.31
346.07	1701.86
346.29	1673.19
346.50	1751.01
346.71	1753.06
346.92	1812.45
347.13	1853.41
347.34	1701.86
347.55	1703.91
347.76	1720.29
347.98	1572.84
348.19	1722.34
348.40	1746.92
348.61	1693.67
348.82	1859.56
349.03	1783.78
349.24	1705.96
349.45	1828.84
349.66	1640.42
349.88	1701.86
350.09	1687.53
350.30	1759.21
350.51	1746.92
350.72	1787.88
350.93	1781.73
351.14	1656.81
351.35	1847.27
351.56	1742.82
351.77	1746.92
351.99	1736.68
352.20	1806.31
352.41	1763.30
352.62	1642.47
352.83	1724.39
353.04	1753.06
353.25	1679.33
353.46	1791.97
353.67	1869.80
353.88	1669.09
354.09	1720.29
354.30	1728.49
354.52	1693.67
354.73	1689.57
354.94	1640.42
355.15	1693.67
355.36	1884.13
355.57	1753.06
355.78	1748.97
355.99	1685.48
356.20	1689.57
356.41	1791.97
356.62	1730.53
356.83	1746.92
357.04	1791.97
357.25	1619.94
357.46	1644.52
357.68	1705.96
357.89	1675.24
358.10	1785.83
358.31	1738.73
358.52	1679.33
358.73	1669.09
358.94	1703.91
359.15	1705.96
359.36	1695.72
359.57	1720.29
359.78	1724.39
359.99	1843.17
360.20	1695.72
360.41	1708.01
360.62	1751.01
360.83	1755.11
361.04	1683.43
361.25	1728.49
361.46	1816.55
361.67	1822.69
361.88	1738.73
362.09	1837.03
362.30	1722.34
362.51	1708.01
362.72	1691.62
362.93	1771.49
363.14	1753.06
363.35	1761.25
363.56	1697.77
363.78	1765.35
363.99	1775.59
364.20	1816.55
364.41	1679.33
364.62	1808.36
364.83	1740.77
365.04	1662.95
365.25	1744.87
365.46	1875.94
365.67	1685.48
365.88	1669.09
366.09	1746.92
366.30	1718.25
366.51	1730.53
366.72	1710.05
366.93	1697.77
367.14	1726.44
367.35	1791.97
367.56	1679.33
367.77	1851.36
367.98	1665.00
368.18	1726.44
368.39	1748.97
368.60	1632.23
368.81	1716.20
369.02	1701.86
369.23	1730.53
369.44	1667.05
369.65	1687.53
369.86	1732.58
370.07	1804.26
370.28	1621.99
370.49	1695.72
370.70	1769.44
370.91	1644.52
371.12	1697.77
371.33	1757.16
371.54	1701.86
371.75	1851.36
371.96	1601.51
372.17	1779.68
372.38	1783.78
372.59	1746.92
372.80	1646.57
373.01	1742.82
373.22	1800.16
373.43	1693.67
373.64	1716.20
373.85	1843.17
374.06	1775.59
374.26	1738.73
374.47	1740.77
374.68	1763.30
374.89	1683.43
375.10	1763.30
375.31	1843.17
375.52	1732.58
375.73	1722.34
375.94	1708.01
376.15	1802.21
376.36	1665.00
376.57	1648.61
376.78	1718.25
376.99	1705.96
377.20	1794.02
377.40	1763.30
377.61	1832.93
377.82	1648.61
378.03	1746.92
378.24	1742.82
378.45	1746.92
378.66	1632.23
378.87	1578.98
379.08	1654.76
379.29	1687.53
379.50	1783.78
379.71	1796.07
379.91	1742.82
380.12	1722.34
380.33	1685.48
380.54	1718.25
380.75	1677.29
380.96	1681.38
381.17	1841.12
381.38	1746.92
381.59	1773.54
381.80	1755.11
382.00	1832.93
382.21	1779.68
382.42	1871.84
382.63	1906.66
382.84	1781.73
383.05	1822.69
383.26	1857.51
383.47	1697.77
383.68	1824.74
383.88	1755.11
384.09	1687.53
384.30	1845.22
384.51	1710.05
384.72	1658.85
384.93	1671.14
385.14	1724.39
385.35	1761.25
385.55	1646.57
385.76	1798.12
385.97	1716.20
386.18	1611.75
386.39	1683.43
386.60	1646.57
386.81	1736.68
387.02	1705.96
387.22	1689.57
387.43	1830.88
387.64	1763.30
387.85	1957.86
388.06	2279.39
388.27	4229.06
388.48	6664.09
388.68	8236.93
388.89	9514.86
389.10	9854.83
389.31	8531.84
389.52	7776.14
389.73	6764.44
389.93	6315.94
390.14	5875.62
390.35	5244.85
390.56	4661.18
390.77	3925.96
390.98	3090.38
391.18	2439.13
391.39	2123.74
391.60	1820.64
391.81	1877.99
392.02	1763.30
392.23	1865.70
392.43	1730.53
392.64	1849.32
392.85	1773.54
393.06	1839.08
393.27	1710.05
393.47	1720.29
393.68	1730.53
393.89	1734.63
394.10	1820.64
394.31	1570.79
394.52	1658.85
394.72	1689.57
394.93	1794.02
395.14	1636.33
395.35	1773.54
395.56	1718.25
395.76	1755.11
395.97	1812.45
396.18	1869.80
396.39	1814.50
396.60	2023.39
396.80	1847.27
397.01	1935.33
397.22	1861.60
397.43	1832.93
397.64	1841.12
397.84	1834.98
398.05	1890.28
398.26	1779.68
398.47	1865.70
398.67	1822.69
398.88	1695.72
399.09	1777.64
399.30	1742.82
399.51	1726.44
399.71	1652.71
399.92	1636.33
400.13	1812.45
400.34	1738.73
400.54	1636.33
400.75	1802.21
400.96	1771.49
401.17	1894.37
401.37	1730.53
401.58	1705.96
401.79	1771.49
402.00	1847.27
402.21	2004.96
402.41	1908.71
402.62	1980.39
402.83	2111.46
403.04	2017.25
403.24	2160.61
403.45	1855.46
403.66	1927.14
403.87	1996.77
404.07	1896.42
404.28	1945.57
404.49	1871.84
404.70	1796.07
404.90	1873.89
405.11	1796.07
405.32	1712.10
405.52	1742.82
405.73	1695.72
405.94	1708.01
406.15	1810.40
406.35	1773.54
406.56	1773.54
406.77	1710.05
406.98	1738.73
407.18	1710.05
407.39	1834.98
407.60	1638.38
407.80	1761.25
408.01	1658.85
408.22	1751.01
408.43	1701.86
408.63	1796.07
408.84	1753.06
409.05	1837.03
409.25	1601.51
409.46	1654.76
409.67	1728.49
409.88	1683.43
410.08	1656.81
410.29	1722.34
410.50	1722.34
410.70	1740.77
410.91	1658.85
411.12	1695.72
411.32	1734.63
411.53	1712.10
411.74	1781.73
411.95	1886.18
412.15	1763.30
412.36	1798.12
412.57	1730.53
412.77	1822.69
412.98	1832.93
413.19	1744.87
413.39	1785.83
413.60	1742.82
413.81	1834.98
414.01	1679.33
414.22	1783.78
414.43	1794.02
414.63	1771.49
414.84	1806.31
415.05	1744.87
415.25	1685.48
415.46	1796.07
415.67	1710.05
415.87	1673.19
416.08	1724.39
416.29	1724.39
416.49	1777.64
416.70	1626.09
416.91	1740.77
417.11	1722.34
417.32	1751.01
417.53	1710.05
417.73	1714.15
417.94	1658.85
418.15	1771.49
418.35	1701.86
418.56	1685.48
418.77	1871.84
418.97	1787.88
419.18	1683.43
419.38	1591.27
419.59	1708.01
419.80	1773.54
420.00	1712.10
420.21	1746.92
420.42	1834.98
420.62	1705.96
420.83	1681.38
421.04	1738.73
421.24	1773.54
421.45	1753.06
421.65	1746.92
421.86	1787.88
422.07	1814.50
422.27	1695.72
422.48	1699.81
422.69	1673.19
422.89	1703.91
423.10	1740.77
423.30	1718.25
423.51	1736.68
423.72	1757.16
423.92	1742.82
424.13	1660.90
424.33	1681.38
424.54	1816.55
424.75	1755.11
424.95	1875.94
425.16	1789.92
425.36	1685.48
425.57	1677.29
425.78	1789.92
425.98	1806.31
426.19	1654.76
426.39	1710.05
426.60	1710.05
426.81	1775.59
427.01	1693.67
427.22	1681.38
427.42	1662.95
427.63	1671.14
427.83	1736.68
428.04	1783.78
428.25	1824.74
428.45	1751.01
428.66	1828.84
428.86	1695.72
429.07	1681.38
429.28	1708.01
429.48	1748.97
429.69	1701.86
429.89	1779.68
430.10	1681.38
430.30	1761.25
430.51	1763.30
430.71	1710.05
430.92	1699.81
431.13	1683.43
431.33	1828.84
431.54	1748.97
431.74	1820.64
431.95	1902.56
432.15	1689.57
432.36	1742.82
432.56	1751.01
432.77	1800.16
432.98	1845.22
433.18	1732.58
433.39	1746.92
433.59	1683.43
433.80	1763.30
434.00	1863.65
434.21	1726.44
434.41	1736.68
434.62	1892.32
434.82	1621.99
435.03	1677.29
435.23	1685.48
435.44	1607.66
435.64	1746.92
435.85	1820.64
436.06	1804.26
436.26	1826.79
436.47	1628.14
436.67	1726.44
436.88	1757.16
437.08	1710.05
437.29	1812.45
437.49	1736.68
437.70	1734.63
437.90	1730.53
438.11	1775.59
438.31	1816.55
438.52	1884.13
438.72	1931.23
438.93	1918.95
439.13	1871.84
439.34	1800.16
439.54	1656.81
439.75	1759.21
439.95	1837.03
440.16	1681.38
440.36	1769.44
440.57	1746.92
440.77	1806.31
440.98	1710.05
441.18	1718.25
441.39	1710.05
441.59	1716.20
441.80	1888.23
442.00	1771.49
442.21	1787.88
442.41	1673.19
442.62	1763.30
442.82	1644.52
443.02	1796.07
443.23	1841.12
443.43	1695.72
443.64	1748.97
443.84	1697.77
444.05	1830.88
444.25	1671.14
444.46	1734.63
444.66	1800.16
444.87	1783.78
445.07	1644.52
445.28	1755.11
445.48	1789.92
445.69	1763.30
445.89	1937.38
446.09	1716.20
446.30	2099.17
446.50	2672.60
446.71	3710.92
446.91	4364.22
447.12	4761.53
447.32	4900.79
447.53	4530.11
447.73	3952.58
447.93	3592.14
448.14	3456.97
448.34	3168.21
448.55	2955.22
448.75	2881.49
448.96	2703.32
449.16	2422.75
449.36	2136.03
449.57	2082.78
449.77	1890.28
449.98	1746.92
450.18	1802.21
450.39	1783.78
450.59	1773.54
450.79	1816.55
451.00	1685.48
451.20	1814.50
451.41	1712.10
451.61	1796.07
451.81	1765.35
452.02	1716.20
452.22	1681.38
452.43	1705.96
452.63	1763.30
