SpectraSuite Data File
++++++++++++++++++++++++++++++++++++
Date: Mon Jun 06 12:18:37 CEST 2016
User: root
Dark Spectrum Present: No
Reference Spectrum Present: No
Number of Sampled Component Spectra: 1
Spectrometers: USB4C02835
Integration Time (usec): 100000 (USB4C02835)
Spectra Averaged: 1 (USB4C02835)
Boxcar Smoothing: 0 (USB4C02835)
Correct for Electrical Dark: No (USB4C02835)
Strobe/Lamp Enabled: No (USB4C02835)
Correct for Detector Non-linearity: No (USB4C02835)
Correct for Stray Light: No (USB4C02835)
Number of Pixels in Processed Spectrum: 3648
>>>>>Begin Processed Spectral Data<<<<<
177.47	1484.78
177.69	1484.78
177.91	1484.78
178.13	1497.07
178.36	1492.97
178.58	1634.28
178.80	1718.25
179.02	1626.09
179.24	1576.94
179.46	1681.38
179.68	1726.44
179.90	1658.85
180.13	1660.90
180.35	1669.09
180.57	1660.90
180.79	1740.77
181.01	1689.57
181.23	1746.92
181.45	1771.49
181.67	1753.06
181.90	1798.12
182.12	1656.81
182.34	1638.38
182.56	1695.72
182.78	1724.39
183.00	1675.24
183.22	1761.25
183.44	1621.99
183.66	1875.94
183.89	1751.01
184.11	1701.86
184.33	1742.82
184.55	1798.12
184.77	1730.53
184.99	1691.62
185.21	1644.52
185.43	1890.28
185.65	1617.90
185.87	1687.53
186.10	1783.78
186.32	1853.41
186.54	1804.26
186.76	1662.95
186.98	1802.21
187.20	1656.81
187.42	1628.14
187.64	1660.90
187.86	1775.59
188.08	1757.16
188.30	1658.85
188.52	1677.29
188.75	1746.92
188.97	1812.45
189.19	1671.14
189.41	1630.18
189.63	1720.29
189.85	1652.71
190.07	1632.23
190.29	1634.28
190.51	1689.57
190.73	1597.42
190.95	1769.44
191.17	1691.62
191.39	1562.60
191.61	1615.85
191.84	1634.28
192.06	1660.90
192.28	1693.67
192.50	1865.70
192.72	1675.24
192.94	1667.05
193.16	1769.44
193.38	1804.26
193.60	1677.29
193.82	1671.14
194.04	1759.21
194.26	1679.33
194.48	1677.29
194.70	1720.29
194.92	1624.04
195.14	1705.96
195.36	1585.13
195.58	1708.01
195.80	1695.72
196.02	1607.66
196.24	1578.98
196.46	1742.82
196.69	1697.77
196.91	1773.54
197.13	1640.42
197.35	1742.82
197.57	1802.21
197.79	1646.57
198.01	1726.44
198.23	1699.81
198.45	1712.10
198.67	1644.52
198.89	1695.72
199.11	1748.97
199.33	1652.71
199.55	1552.36
199.77	1640.42
199.99	1726.44
200.21	1753.06
200.43	1624.04
200.65	1593.32
200.87	1566.70
201.09	1685.48
201.31	1699.81
201.53	1708.01
201.75	1714.15
201.97	1630.18
202.19	1689.57
202.41	1703.91
202.63	1802.21
202.85	1689.57
203.07	1718.25
203.29	1642.47
203.51	1607.66
203.73	1624.04
203.95	1781.73
204.17	1746.92
204.39	1746.92
204.61	1738.73
204.83	1640.42
205.05	1814.50
205.27	1748.97
205.49	1808.36
205.71	1632.23
205.93	1695.72
206.15	1681.38
206.37	1656.81
206.59	1761.25
206.81	1660.90
207.03	1619.94
207.25	1675.24
207.47	1796.07
207.69	1671.14
207.91	1705.96
208.13	1712.10
208.34	1701.86
208.56	1710.05
208.78	1714.15
209.00	1708.01
209.22	1673.19
209.44	1726.44
209.66	1740.77
209.88	1708.01
210.10	1583.08
210.32	1677.29
210.54	1695.72
210.76	1695.72
210.98	1705.96
211.20	1542.12
211.42	1648.61
211.64	1804.26
211.86	1728.49
212.08	1699.81
212.30	1703.91
212.52	1642.47
212.74	1677.29
212.96	1705.96
213.17	1677.29
213.39	1738.73
213.61	1759.21
213.83	1742.82
214.05	1691.62
214.27	1755.11
214.49	1554.41
214.71	1738.73
214.93	1755.11
215.15	1527.78
215.37	1632.23
215.59	1650.66
215.81	1673.19
216.03	1748.97
216.24	1671.14
216.46	1687.53
216.68	1781.73
216.90	1665.00
217.12	1763.30
217.34	1697.77
217.56	1730.53
217.78	1730.53
218.00	1677.29
218.22	1652.71
218.44	1740.77
218.66	1714.15
218.87	1802.21
219.09	1724.39
219.31	1679.33
219.53	1716.20
219.75	1589.22
219.97	1724.39
220.19	1763.30
220.41	1693.67
220.63	1810.40
220.85	1705.96
221.06	1669.09
221.28	1773.54
221.50	1730.53
221.72	1699.81
221.94	1667.05
222.16	1751.01
222.38	1681.38
222.60	1761.25
222.82	1681.38
223.03	1802.21
223.25	1640.42
223.47	1685.48
223.69	1779.68
223.91	1671.14
224.13	1640.42
224.35	1673.19
224.57	1681.38
224.78	1757.16
225.00	1638.38
225.22	1746.92
225.44	1669.09
225.66	1699.81
225.88	1665.00
226.10	1759.21
226.32	1669.09
226.53	1736.68
226.75	1589.22
226.97	1693.67
227.19	1697.77
227.41	1636.33
227.63	1671.14
227.85	1576.94
228.06	1746.92
228.28	1710.05
228.50	1740.77
228.72	1656.81
228.94	1701.86
229.16	1554.41
229.37	1624.04
229.59	1644.52
229.81	1751.01
230.03	1630.18
230.25	1576.94
230.47	1656.81
230.69	1697.77
230.90	1757.16
231.12	1650.66
231.34	1726.44
231.56	1673.19
231.78	1660.90
232.00	1665.00
232.21	1642.47
232.43	1677.29
232.65	1615.85
232.87	1728.49
233.09	1630.18
233.30	1648.61
233.52	1732.58
233.74	1701.86
233.96	1648.61
234.18	1642.47
234.40	1669.09
234.61	1834.98
234.83	1644.52
235.05	1624.04
235.27	1857.51
235.49	1744.87
235.70	1734.63
235.92	1794.02
236.14	1691.62
236.36	1828.84
236.58	1611.75
236.79	1691.62
237.01	1689.57
237.23	1691.62
237.45	1763.30
237.67	1642.47
237.88	1705.96
238.10	1812.45
238.32	1685.48
238.54	1656.81
238.76	1708.01
238.97	1535.98
239.19	1669.09
239.41	1677.29
239.63	1753.06
239.85	1662.95
240.06	1712.10
240.28	1673.19
240.50	1712.10
240.72	1781.73
240.93	1669.09
241.15	1714.15
241.37	1644.52
241.59	1789.92
241.81	1677.29
242.02	1634.28
242.24	1683.43
242.46	1703.91
242.68	1626.09
242.89	1728.49
243.11	1759.21
243.33	1683.43
243.55	1691.62
243.76	1689.57
243.98	1648.61
244.20	1751.01
244.42	1697.77
244.64	1619.94
244.85	1619.94
245.07	1667.05
245.29	1748.97
245.51	1675.24
245.72	1730.53
245.94	1738.73
246.16	1665.00
246.38	1755.11
246.59	1644.52
246.81	1650.66
247.03	1738.73
247.24	1574.89
247.46	1628.14
247.68	1687.53
247.90	1599.46
248.11	1652.71
248.33	1841.12
248.55	1669.09
248.77	1751.01
248.98	1730.53
249.20	1722.34
249.42	1679.33
249.64	1730.53
249.85	1783.78
250.07	1753.06
250.29	1693.67
250.50	1828.84
250.72	1619.94
250.94	1689.57
251.16	1796.07
251.37	1722.34
251.59	1755.11
251.81	1802.21
252.02	1767.40
252.24	1705.96
252.46	1736.68
252.68	1658.85
252.89	1652.71
253.11	1609.70
253.33	1834.98
253.54	1689.57
253.76	1681.38
253.98	1671.14
254.20	1636.33
254.41	1613.80
254.63	1712.10
254.85	1613.80
255.06	1681.38
255.28	1718.25
255.50	1724.39
255.71	1642.47
255.93	1642.47
256.15	1701.86
256.36	1714.15
256.58	1648.61
256.80	1705.96
257.02	1662.95
257.23	1658.85
257.45	1685.48
257.67	1796.07
257.88	1587.18
258.10	1734.63
258.32	1685.48
258.53	1683.43
258.75	1837.03
258.97	1660.90
259.18	1687.53
259.40	1665.00
259.62	1798.12
259.83	1787.88
260.05	1712.10
260.27	1972.19
260.48	1734.63
260.70	1617.90
260.92	1691.62
261.13	1687.53
261.35	1693.67
261.57	1716.20
261.78	1593.32
262.00	1669.09
262.22	1783.78
262.43	1730.53
262.65	1644.52
262.86	1712.10
263.08	1804.26
263.30	1662.95
263.51	1640.42
263.73	1679.33
263.95	1882.08
264.16	1595.37
264.38	1738.73
264.60	1685.48
264.81	1716.20
265.03	1687.53
265.25	1693.67
265.46	1648.61
265.68	1699.81
265.89	1763.30
266.11	1574.89
266.33	1724.39
266.54	1718.25
266.76	1779.68
266.98	1738.73
267.19	1759.21
267.41	1742.82
267.62	1646.57
267.84	1665.00
268.06	1720.29
268.27	1773.54
268.49	1748.97
268.70	1718.25
268.92	1642.47
269.14	1619.94
269.35	1662.95
269.57	1632.23
269.79	1777.64
270.00	1640.42
270.22	1734.63
270.43	1632.23
270.65	1542.12
270.87	1691.62
271.08	1779.68
271.30	1751.01
271.51	1730.53
271.73	1695.72
271.95	1765.35
272.16	1687.53
272.38	1742.82
272.59	1613.80
272.81	1677.29
273.02	1742.82
273.24	1724.39
273.46	1826.79
273.67	1638.38
273.89	1617.90
274.10	1691.62
274.32	1710.05
274.54	1787.88
274.75	1748.97
274.97	1607.66
275.18	1765.35
275.40	1755.11
275.61	1738.73
275.83	1630.18
276.05	1607.66
276.26	1687.53
276.48	1701.86
276.69	1587.18
276.91	1648.61
277.12	1673.19
277.34	1771.49
277.55	1695.72
277.77	1685.48
277.99	1652.71
278.20	1591.27
278.42	1576.94
278.63	1656.81
278.85	1699.81
279.06	1535.98
279.28	1824.74
279.49	1718.25
279.71	1701.86
279.93	1757.16
280.14	1736.68
280.36	1605.61
280.57	1759.21
280.79	1765.35
281.00	1693.67
281.22	1634.28
281.43	1789.92
281.65	1601.51
281.86	1585.13
282.08	1722.34
282.29	1748.97
282.51	1533.93
282.73	1652.71
282.94	1634.28
283.16	1665.00
283.37	1834.98
283.59	1722.34
283.80	1644.52
284.02	1679.33
284.23	1648.61
284.45	1726.44
284.66	1628.14
284.88	1671.14
285.09	1689.57
285.31	1734.63
285.52	1693.67
285.74	1589.22
285.95	1757.16
286.17	1722.34
286.38	1757.16
286.60	1621.99
286.81	1617.90
287.03	1634.28
287.24	1615.85
287.46	1769.44
287.67	1691.62
287.89	1775.59
288.10	1689.57
288.32	1669.09
288.53	1845.22
288.75	1708.01
288.96	1753.06
289.18	1665.00
289.39	1730.53
289.61	1742.82
289.82	1822.69
290.04	1796.07
290.25	1632.23
290.47	1701.86
290.68	1675.24
290.90	1710.05
291.11	1642.47
291.33	1705.96
291.54	1681.38
291.76	1718.25
291.97	1771.49
292.18	1703.91
292.40	1644.52
292.61	1648.61
292.83	1800.16
293.04	1630.18
293.26	1730.53
293.47	1714.15
293.69	1583.08
293.90	1667.05
294.12	1759.21
294.33	1669.09
294.55	1632.23
294.76	1683.43
294.97	1705.96
295.19	1777.64
295.40	1656.81
295.62	1712.10
295.83	1734.63
296.05	1617.90
296.26	1738.73
296.48	1665.00
296.69	1712.10
296.90	1662.95
297.12	1720.29
297.33	1779.68
297.55	1648.61
297.76	1728.49
297.98	1716.20
298.19	1787.88
298.41	1703.91
298.62	1691.62
298.83	1748.97
299.05	1732.58
299.26	1634.28
299.48	1710.05
299.69	1773.54
299.90	1656.81
300.12	1640.42
300.33	1748.97
300.55	1708.01
300.76	1816.55
300.98	1603.56
301.19	1683.43
301.40	1693.67
301.62	1728.49
301.83	1767.40
302.05	1710.05
302.26	1638.38
302.47	1724.39
302.69	1562.60
302.90	1710.05
303.12	1621.99
303.33	1765.35
303.54	1796.07
303.76	1669.09
303.97	1742.82
304.19	1718.25
304.40	1695.72
304.61	1714.15
304.83	1837.03
305.04	1691.62
305.26	1658.85
305.47	1710.05
305.68	1638.38
305.90	1564.65
306.11	1724.39
306.33	1646.57
306.54	1636.33
306.75	1595.37
306.97	1654.76
307.18	1605.61
307.39	1628.14
307.61	1701.86
307.82	1738.73
308.04	1755.11
308.25	1712.10
308.46	1675.24
308.68	1662.95
308.89	1689.57
309.10	1787.88
309.32	1673.19
309.53	1660.90
309.74	1787.88
309.96	1685.48
310.17	1681.38
310.39	1710.05
310.60	1761.25
310.81	1695.72
311.03	1644.52
311.24	1677.29
311.45	1628.14
311.67	1818.60
311.88	1632.23
312.09	1658.85
312.31	1648.61
312.52	1736.68
312.73	1665.00
312.95	1591.27
313.16	1648.61
313.37	1794.02
313.59	1751.01
313.80	1748.97
314.01	1742.82
314.23	1634.28
314.44	1615.85
314.65	1613.80
314.87	1658.85
315.08	1613.80
315.29	1705.96
315.51	1525.74
315.72	1603.56
315.93	1779.68
316.15	1746.92
316.36	1628.14
316.57	1660.90
316.79	1705.96
317.00	1658.85
317.21	1665.00
317.43	1644.52
317.64	1691.62
317.85	1619.94
318.07	1638.38
318.28	1693.67
318.49	1800.16
318.70	1937.38
318.92	1785.83
319.13	1820.64
319.34	1880.04
319.56	1843.17
319.77	1777.64
319.98	1740.77
320.20	1732.58
320.41	1708.01
320.62	1736.68
320.83	1687.53
321.05	1904.61
321.26	1685.48
321.47	1654.76
321.69	1820.64
321.90	1665.00
322.11	1699.81
322.32	1656.81
322.54	1806.31
322.75	1652.71
322.96	1814.50
323.18	1642.47
323.39	1621.99
323.60	1691.62
323.81	1775.59
324.03	1601.51
324.24	1681.38
324.45	1712.10
324.66	1677.29
324.88	1748.97
325.09	1830.88
325.30	1767.40
325.52	1705.96
325.73	1671.14
325.94	1597.42
326.15	1644.52
326.37	1658.85
326.58	1771.49
326.79	1671.14
327.00	1660.90
327.22	1697.77
327.43	1654.76
327.64	1609.70
327.85	1738.73
328.07	1701.86
328.28	1751.01
328.49	1710.05
328.70	1673.19
328.92	1673.19
329.13	1636.33
329.34	1722.34
329.55	1810.40
329.76	1779.68
329.98	1630.18
330.19	1826.79
330.40	1710.05
330.61	1677.29
330.83	1683.43
331.04	1689.57
331.25	1644.52
331.46	1660.90
331.68	1599.46
331.89	1730.53
332.10	1691.62
332.31	1654.76
332.52	1662.95
332.74	1775.59
332.95	1587.18
333.16	1624.04
333.37	1738.73
333.58	1621.99
333.80	1703.91
334.01	1640.42
334.22	1683.43
334.43	1581.03
334.64	1636.33
334.86	1585.13
335.07	1646.57
335.28	1767.40
335.49	1617.90
335.70	1697.77
335.92	1812.45
336.13	1861.60
336.34	1806.31
336.55	1681.38
336.76	1720.29
336.98	1558.50
337.19	1671.14
337.40	1796.07
337.61	1826.79
337.82	1667.05
338.04	1765.35
338.25	1677.29
338.46	1742.82
338.67	1720.29
338.88	1595.37
339.09	1687.53
339.31	1650.66
339.52	1665.00
339.73	1638.38
339.94	1687.53
340.15	1818.60
340.36	1673.19
340.58	1646.57
340.79	1705.96
341.00	1660.90
341.21	1681.38
341.42	1839.08
341.63	1619.94
341.85	1712.10
342.06	1673.19
342.27	1660.90
342.48	1724.39
342.69	1595.37
342.90	1732.58
343.12	1734.63
343.33	1685.48
343.54	1759.21
343.75	1744.87
343.96	1701.86
344.17	1611.75
344.38	1738.73
344.60	1628.14
344.81	1617.90
345.02	1679.33
345.23	1665.00
345.44	1746.92
345.65	1818.60
345.86	1716.20
346.07	1689.57
346.29	1660.90
346.50	1628.14
346.71	1675.24
346.92	1787.88
347.13	1703.91
347.34	1660.90
347.55	1673.19
347.76	1759.21
347.98	1609.70
348.19	1712.10
348.40	1800.16
348.61	1650.66
348.82	1779.68
349.03	1744.87
349.24	1650.66
349.45	1806.31
349.66	1570.79
349.88	1605.61
350.09	1634.28
350.30	1722.34
350.51	1732.58
350.72	1710.05
350.93	1755.11
351.14	1687.53
351.35	1798.12
351.56	1712.10
351.77	1730.53
351.99	1644.52
352.20	1765.35
352.41	1697.77
352.62	1630.18
352.83	1673.19
353.04	1687.53
353.25	1732.58
353.46	1656.81
353.67	1701.86
353.88	1562.60
354.09	1734.63
354.30	1671.14
354.52	1701.86
354.73	1697.77
354.94	1654.76
355.15	1785.83
355.36	1818.60
355.57	1669.09
355.78	1675.24
355.99	1728.49
356.20	1597.42
356.41	1773.54
356.62	1722.34
356.83	1665.00
357.04	1761.25
357.25	1599.46
357.46	1593.32
357.68	1599.46
357.89	1665.00
358.10	1777.64
358.31	1677.29
358.52	1662.95
358.73	1568.74
358.94	1624.04
359.15	1632.23
359.36	1763.30
359.57	1681.38
359.78	1677.29
359.99	1691.62
360.20	1642.47
360.41	1665.00
360.62	1683.43
360.83	1681.38
361.04	1667.05
361.25	1687.53
361.46	1699.81
361.67	1650.66
361.88	1773.54
362.09	1771.49
362.30	1667.05
362.51	1626.09
362.72	1736.68
362.93	1781.73
363.14	1789.92
363.35	1652.71
363.56	1710.05
363.78	1728.49
363.99	1748.97
364.20	1671.14
364.41	1677.29
364.62	1802.21
364.83	1695.72
365.04	1683.43
365.25	1714.15
365.46	1796.07
365.67	1644.52
365.88	1589.22
366.09	1677.29
366.30	1665.00
366.51	1685.48
366.72	1699.81
366.93	1703.91
367.14	1710.05
367.35	1726.44
367.56	1632.23
367.77	1798.12
367.98	1652.71
368.18	1691.62
368.39	1771.49
368.60	1681.38
368.81	1740.77
369.02	1724.39
369.23	1685.48
369.44	1714.15
369.65	1683.43
369.86	1701.86
370.07	1714.15
370.28	1685.48
370.49	1722.34
370.70	1703.91
370.91	1566.70
371.12	1605.61
371.33	1718.25
371.54	1636.33
371.75	1808.36
371.96	1621.99
372.17	1693.67
372.38	1652.71
372.59	1726.44
372.80	1669.09
373.01	1724.39
373.22	1701.86
373.43	1656.81
373.64	1640.42
373.85	1705.96
374.06	1783.78
374.26	1738.73
374.47	1763.30
374.68	1755.11
374.89	1718.25
375.10	1626.09
375.31	1761.25
375.52	1787.88
375.73	1683.43
375.94	1705.96
376.15	1779.68
376.36	1662.95
376.57	1708.01
376.78	1789.92
376.99	1656.81
377.20	1783.78
377.40	1673.19
377.61	1705.96
377.82	1718.25
378.03	1751.01
378.24	1753.06
378.45	1736.68
378.66	1708.01
378.87	1652.71
379.08	1603.56
379.29	1689.57
379.50	1777.64
379.71	1693.67
379.91	1681.38
380.12	1726.44
380.33	1763.30
380.54	1710.05
380.75	1685.48
380.96	1673.19
381.17	1775.59
381.38	1685.48
381.59	1697.77
381.80	1624.04
382.00	1877.99
382.21	1734.63
382.42	1791.97
382.63	1814.50
382.84	1716.20
383.05	1726.44
383.26	1738.73
383.47	1685.48
383.68	1755.11
383.88	1755.11
384.09	1685.48
384.30	1808.36
384.51	1665.00
384.72	1687.53
384.93	1685.48
385.14	1671.14
385.35	1771.49
385.55	1669.09
385.76	1785.83
385.97	1634.28
386.18	1652.71
386.39	1734.63
386.60	1730.53
386.81	1650.66
387.02	1689.57
387.22	1740.77
387.43	1779.68
387.64	1730.53
387.85	1888.23
388.06	2258.91
388.27	4448.19
388.48	6938.52
388.68	8353.66
388.89	9756.52
389.10	10141.54
389.31	8746.87
389.52	7524.24
389.73	6748.06
389.93	6344.61
390.14	5961.64
390.35	5210.03
390.56	4421.56
390.77	3801.03
390.98	3117.01
391.18	2484.19
391.39	2199.52
391.60	1888.23
391.81	1777.64
392.02	1652.71
392.23	1824.74
392.43	1683.43
392.64	1800.16
392.85	1689.57
393.06	1759.21
393.27	1621.99
393.47	1626.09
393.68	1705.96
393.89	1695.72
394.10	1769.44
394.31	1701.86
394.52	1656.81
394.72	1679.33
394.93	1773.54
395.14	1744.87
395.35	1726.44
395.56	1679.33
395.76	1691.62
395.97	1779.68
396.18	1808.36
396.39	1851.36
396.60	1976.29
396.80	1880.04
397.01	1808.36
397.22	1820.64
397.43	1830.88
397.64	1671.14
397.84	1781.73
398.05	1816.55
398.26	1728.49
398.47	1751.01
398.67	1769.44
398.88	1728.49
399.09	1695.72
399.30	1669.09
399.51	1751.01
399.71	1621.99
399.92	1701.86
400.13	1773.54
400.34	1728.49
400.54	1617.90
400.75	1849.32
400.96	1759.21
401.17	1759.21
401.37	1728.49
401.58	1693.67
401.79	1660.90
402.00	1886.18
402.21	1984.48
402.41	1978.34
402.62	2068.45
402.83	2019.30
403.04	1996.77
403.24	2054.11
403.45	1871.84
403.66	1980.39
403.87	1859.56
404.07	1871.84
404.28	1888.23
404.49	1869.80
404.70	1744.87
404.90	1720.29
405.11	1724.39
405.32	1681.38
405.52	1714.15
405.73	1662.95
405.94	1630.18
406.15	1667.05
406.35	1656.81
406.56	1779.68
406.77	1685.48
406.98	1748.97
407.18	1599.46
407.39	1800.16
407.60	1677.29
407.80	1673.19
408.01	1703.91
408.22	1773.54
408.43	1642.47
408.63	1705.96
408.84	1738.73
409.05	1660.90
409.25	1632.23
409.46	1632.23
409.67	1628.14
409.88	1699.81
410.08	1654.76
410.29	1728.49
410.50	1800.16
410.70	1746.92
410.91	1624.04
411.12	1716.20
411.32	1691.62
411.53	1630.18
411.74	1734.63
411.95	1794.02
412.15	1714.15
412.36	1837.03
412.57	1710.05
412.77	1730.53
412.98	1755.11
413.19	1677.29
413.39	1775.59
413.60	1724.39
413.81	1804.26
414.01	1632.23
414.22	1732.58
414.43	1708.01
414.63	1712.10
414.84	1806.31
415.05	1740.77
415.25	1554.41
415.46	1759.21
415.67	1638.38
415.87	1710.05
416.08	1671.14
416.29	1677.29
416.49	1742.82
416.70	1646.57
416.91	1621.99
417.11	1705.96
417.32	1691.62
417.53	1679.33
417.73	1757.16
417.94	1677.29
418.15	1736.68
418.35	1681.38
418.56	1675.24
418.77	1826.79
418.97	1755.11
419.18	1687.53
419.38	1609.70
419.59	1656.81
419.80	1740.77
420.00	1705.96
420.21	1681.38
420.42	1697.77
420.62	1687.53
420.83	1708.01
421.04	1705.96
421.24	1652.71
421.45	1806.31
421.65	1697.77
421.86	1642.47
422.07	1718.25
422.27	1703.91
422.48	1773.54
422.69	1665.00
422.89	1728.49
423.10	1673.19
423.30	1615.85
423.51	1738.73
423.72	1736.68
423.92	1757.16
424.13	1595.37
424.33	1662.95
424.54	1720.29
424.75	1673.19
424.95	1708.01
425.16	1755.11
425.36	1714.15
425.57	1800.16
425.78	1746.92
425.98	1763.30
426.19	1701.86
426.39	1660.90
426.60	1669.09
426.81	1771.49
427.01	1703.91
427.22	1699.81
427.42	1533.93
427.63	1636.33
427.83	1761.25
428.04	1800.16
428.25	1761.25
428.45	1742.82
428.66	1816.55
428.86	1632.23
429.07	1708.01
429.28	1654.76
429.48	1732.58
429.69	1726.44
429.89	1693.67
430.10	1695.72
430.30	1716.20
430.51	1820.64
430.71	1626.09
430.92	1673.19
431.13	1746.92
431.33	1771.49
431.54	1648.61
431.74	1771.49
431.95	1806.31
432.15	1613.80
432.36	1675.24
432.56	1734.63
432.77	1853.41
432.98	1794.02
433.18	1705.96
433.39	1714.15
433.59	1712.10
433.80	1777.64
434.00	1738.73
434.21	1738.73
434.41	1611.75
434.62	1849.32
434.82	1605.61
435.03	1671.14
435.23	1769.44
435.44	1705.96
435.64	1689.57
435.85	1732.58
436.06	1757.16
436.26	1841.12
436.47	1689.57
436.67	1673.19
436.88	1685.48
437.08	1765.35
437.29	1830.88
437.49	1746.92
437.70	1710.05
437.90	1628.14
438.11	1800.16
438.31	1679.33
438.52	1877.99
438.72	1851.36
438.93	1884.13
439.13	1736.68
439.34	1794.02
439.54	1796.07
439.75	1783.78
439.95	1746.92
440.16	1751.01
440.36	1753.06
440.57	1732.58
440.77	1683.43
440.98	1710.05
441.18	1718.25
441.39	1699.81
441.59	1785.83
441.80	1861.60
442.00	1738.73
442.21	1810.40
442.41	1626.09
442.62	1714.15
442.82	1652.71
443.02	1718.25
443.23	1751.01
443.43	1738.73
443.64	1705.96
443.84	1613.80
444.05	1798.12
444.25	1701.86
444.46	1720.29
444.66	1705.96
444.87	1708.01
445.07	1591.27
445.28	1718.25
445.48	1761.25
445.69	1814.50
445.89	1802.21
446.09	1742.82
446.30	1976.29
446.50	2598.87
446.71	3755.97
446.91	4374.46
447.12	4777.91
447.32	4777.91
447.53	4403.13
447.73	3925.96
447.93	3540.94
448.14	3428.30
448.34	3215.31
448.55	2949.08
448.75	2891.73
448.96	2631.64
449.16	2361.31
449.36	2344.92
449.57	2058.21
449.77	1892.32
449.98	1734.63
450.18	1832.93
450.39	1716.20
450.59	1662.95
450.79	1726.44
451.00	1691.62
451.20	1761.25
451.41	1697.77
451.61	1806.31
451.81	1665.00
452.02	1697.77
452.22	1751.01
452.43	1710.05
452.63	1673.19
