SpectraSuite Data File
++++++++++++++++++++++++++++++++++++
Date: Mon Jun 06 14:07:57 CEST 2016
User: root
Dark Spectrum Present: No
Reference Spectrum Present: No
Number of Sampled Component Spectra: 1
Spectrometers: USB4C02835
Integration Time (usec): 100000 (USB4C02835)
Spectra Averaged: 1 (USB4C02835)
Boxcar Smoothing: 0 (USB4C02835)
Correct for Electrical Dark: No (USB4C02835)
Strobe/Lamp Enabled: No (USB4C02835)
Correct for Detector Non-linearity: No (USB4C02835)
Correct for Stray Light: No (USB4C02835)
Number of Pixels in Processed Spectrum: 3648
>>>>>Begin Processed Spectral Data<<<<<
177.47	1464.30
177.69	1464.30
177.91	1464.30
178.13	1535.98
178.36	1447.91
178.58	1667.05
178.80	1732.58
179.02	1589.22
179.24	1615.85
179.46	1714.15
179.68	1703.91
179.90	1679.33
180.13	1732.58
180.35	1615.85
180.57	1671.14
180.79	1734.63
181.01	1771.49
181.23	1722.34
181.45	1763.30
181.67	1738.73
181.90	1771.49
182.12	1640.42
182.34	1658.85
182.56	1724.39
182.78	1691.62
183.00	1720.29
183.22	1714.15
183.44	1642.47
183.66	1787.88
183.89	1748.97
184.11	1681.38
184.33	1787.88
184.55	1740.77
184.77	1611.75
184.99	1720.29
185.21	1708.01
185.43	1841.12
185.65	1628.14
185.87	1683.43
186.10	1798.12
186.32	1865.70
186.54	1765.35
186.76	1732.58
186.98	1708.01
187.20	1656.81
187.42	1611.75
187.64	1794.02
187.86	1773.54
188.08	1724.39
188.30	1705.96
188.52	1669.09
188.75	1798.12
188.97	1738.73
189.19	1634.28
189.41	1665.00
189.63	1751.01
189.85	1689.57
190.07	1652.71
190.29	1665.00
190.51	1644.52
190.73	1609.70
190.95	1820.64
191.17	1632.23
191.39	1636.33
191.61	1701.86
191.84	1687.53
192.06	1705.96
192.28	1640.42
192.50	1834.98
192.72	1705.96
192.94	1648.61
193.16	1738.73
193.38	1703.91
193.60	1675.24
193.82	1705.96
194.04	1718.25
194.26	1693.67
194.48	1716.20
194.70	1644.52
194.92	1617.90
195.14	1730.53
195.36	1695.72
195.58	1695.72
195.80	1716.20
196.02	1628.14
196.24	1691.62
196.46	1779.68
196.69	1660.90
196.91	1847.27
197.13	1701.86
197.35	1660.90
197.57	1783.78
197.79	1714.15
198.01	1683.43
198.23	1689.57
198.45	1673.19
198.67	1701.86
198.89	1669.09
199.11	1757.16
199.33	1673.19
199.55	1601.51
199.77	1708.01
199.99	1787.88
200.21	1658.85
200.43	1802.21
200.65	1558.50
200.87	1578.98
201.09	1738.73
201.31	1742.82
201.53	1777.64
201.75	1712.10
201.97	1757.16
202.19	1697.77
202.41	1722.34
202.63	1869.80
202.85	1701.86
203.07	1681.38
203.29	1650.66
203.51	1660.90
203.73	1693.67
203.95	1877.99
204.17	1751.01
204.39	1708.01
204.61	1685.48
204.83	1734.63
205.05	1746.92
205.27	1705.96
205.49	1814.50
205.71	1730.53
205.93	1675.24
206.15	1718.25
206.37	1705.96
206.59	1675.24
206.81	1628.14
207.03	1621.99
207.25	1605.61
207.47	1726.44
207.69	1714.15
207.91	1730.53
208.13	1742.82
208.34	1679.33
208.56	1693.67
208.78	1771.49
209.00	1652.71
209.22	1626.09
209.44	1712.10
209.66	1714.15
209.88	1712.10
210.10	1642.47
210.32	1665.00
210.54	1691.62
210.76	1695.72
210.98	1710.05
211.20	1607.66
211.42	1699.81
211.64	1703.91
211.86	1742.82
212.08	1665.00
212.30	1681.38
212.52	1685.48
212.74	1695.72
212.96	1732.58
213.17	1757.16
213.39	1726.44
213.61	1816.55
213.83	1789.92
214.05	1644.52
214.27	1777.64
214.49	1621.99
214.71	1628.14
214.93	1751.01
215.15	1646.57
215.37	1791.97
215.59	1710.05
215.81	1730.53
216.03	1781.73
216.24	1652.71
216.46	1748.97
216.68	1751.01
216.90	1834.98
217.12	1757.16
217.34	1634.28
217.56	1765.35
217.78	1753.06
218.00	1744.87
218.22	1687.53
218.44	1718.25
218.66	1742.82
218.87	1761.25
219.09	1685.48
219.31	1675.24
219.53	1728.49
219.75	1665.00
219.97	1667.05
220.19	1763.30
220.41	1648.61
220.63	1685.48
220.85	1748.97
221.06	1720.29
221.28	1710.05
221.50	1710.05
221.72	1660.90
221.94	1722.34
222.16	1742.82
222.38	1761.25
222.60	1746.92
222.82	1634.28
223.03	1751.01
223.25	1619.94
223.47	1728.49
223.69	1783.78
223.91	1679.33
224.13	1744.87
224.35	1646.57
224.57	1720.29
224.78	1818.60
225.00	1638.38
225.22	1587.18
225.44	1665.00
225.66	1699.81
225.88	1689.57
226.10	1738.73
226.32	1746.92
226.53	1828.84
226.75	1710.05
226.97	1669.09
227.19	1732.58
227.41	1646.57
227.63	1716.20
227.85	1607.66
228.06	1710.05
228.28	1652.71
228.50	1718.25
228.72	1593.32
228.94	1665.00
229.16	1554.41
229.37	1595.37
229.59	1701.86
229.81	1822.69
230.03	1656.81
230.25	1558.50
230.47	1613.80
230.69	1689.57
230.90	1746.92
231.12	1632.23
231.34	1662.95
231.56	1697.77
231.78	1669.09
232.00	1779.68
232.21	1738.73
232.43	1693.67
232.65	1578.98
232.87	1675.24
233.09	1703.91
233.30	1671.14
233.52	1718.25
233.74	1724.39
233.96	1673.19
234.18	1751.01
234.40	1703.91
234.61	1775.59
234.83	1695.72
235.05	1650.66
235.27	1785.83
235.49	1812.45
235.70	1732.58
235.92	1794.02
236.14	1738.73
236.36	1818.60
236.58	1638.38
236.79	1718.25
237.01	1665.00
237.23	1671.14
237.45	1732.58
237.67	1673.19
237.88	1732.58
238.10	1808.36
238.32	1624.04
238.54	1656.81
238.76	1675.24
238.97	1679.33
239.19	1652.71
239.41	1691.62
239.63	1759.21
239.85	1595.37
240.06	1722.34
240.28	1667.05
240.50	1740.77
240.72	1740.77
240.93	1724.39
241.15	1652.71
241.37	1689.57
241.59	1779.68
241.81	1677.29
242.02	1693.67
242.24	1732.58
242.46	1718.25
242.68	1611.75
242.89	1738.73
243.11	1763.30
243.33	1699.81
243.55	1732.58
243.76	1751.01
243.98	1681.38
244.20	1671.14
244.42	1652.71
244.64	1693.67
244.85	1650.66
245.07	1624.04
245.29	1726.44
245.51	1693.67
245.72	1669.09
245.94	1773.54
246.16	1701.86
246.38	1722.34
246.59	1701.86
246.81	1642.47
247.03	1726.44
247.24	1599.46
247.46	1722.34
247.68	1732.58
247.90	1665.00
248.11	1640.42
248.33	1718.25
248.55	1650.66
248.77	1722.34
248.98	1708.01
249.20	1742.82
249.42	1753.06
249.64	1699.81
249.85	1722.34
250.07	1681.38
250.29	1720.29
250.50	1681.38
250.72	1607.66
250.94	1718.25
251.16	1837.03
251.37	1753.06
251.59	1757.16
251.81	1718.25
252.02	1726.44
252.24	1669.09
252.46	1714.15
252.68	1791.97
252.89	1601.51
253.11	1566.70
253.33	1798.12
253.54	1751.01
253.76	1718.25
253.98	1734.63
254.20	1685.48
254.41	1626.09
254.63	1763.30
254.85	1648.61
255.06	1744.87
255.28	1783.78
255.50	1624.04
255.71	1638.38
255.93	1574.89
256.15	1636.33
256.36	1769.44
256.58	1640.42
256.80	1718.25
257.02	1673.19
257.23	1656.81
257.45	1730.53
257.67	1742.82
257.88	1593.32
258.10	1708.01
258.32	1669.09
258.53	1705.96
258.75	1808.36
258.97	1669.09
259.18	1693.67
259.40	1630.18
259.62	1798.12
259.83	1763.30
260.05	1687.53
260.27	1988.58
260.48	1748.97
260.70	1646.57
260.92	1785.83
261.13	1734.63
261.35	1703.91
261.57	1667.05
261.78	1605.61
262.00	1626.09
262.22	1671.14
262.43	1714.15
262.65	1640.42
262.86	1609.70
263.08	1783.78
263.30	1701.86
263.51	1587.18
263.73	1681.38
263.95	1810.40
264.16	1648.61
264.38	1740.77
264.60	1798.12
264.81	1652.71
265.03	1699.81
265.25	1767.40
265.46	1621.99
265.68	1802.21
265.89	1722.34
266.11	1638.38
266.33	1740.77
266.54	1755.11
266.76	1714.15
266.98	1710.05
267.19	1765.35
267.41	1775.59
267.62	1695.72
267.84	1599.46
268.06	1787.88
268.27	1667.05
268.49	1757.16
268.70	1773.54
268.92	1730.53
269.14	1708.01
269.35	1634.28
269.57	1603.56
269.79	1763.30
270.00	1738.73
270.22	1769.44
270.43	1708.01
270.65	1535.98
270.87	1628.14
271.08	1755.11
271.30	1724.39
271.51	1685.48
271.73	1765.35
271.95	1738.73
272.16	1705.96
272.38	1656.81
272.59	1708.01
272.81	1689.57
273.02	1798.12
273.24	1697.77
273.46	1779.68
273.67	1607.66
273.89	1714.15
274.10	1697.77
274.32	1730.53
274.54	1705.96
274.75	1710.05
274.97	1667.05
275.18	1705.96
275.40	1783.78
275.61	1753.06
275.83	1701.86
276.05	1636.33
276.26	1705.96
276.48	1763.30
276.69	1652.71
276.91	1650.66
277.12	1746.92
277.34	1781.73
277.55	1755.11
277.77	1710.05
277.99	1712.10
278.20	1568.74
278.42	1716.20
278.63	1665.00
278.85	1740.77
279.06	1685.48
279.28	1736.68
279.49	1728.49
279.71	1787.88
279.93	1656.81
280.14	1636.33
280.36	1669.09
280.57	1771.49
280.79	1695.72
281.00	1667.05
281.22	1665.00
281.43	1791.97
281.65	1562.60
281.86	1736.68
282.08	1763.30
282.29	1816.55
282.51	1662.95
282.73	1689.57
282.94	1607.66
283.16	1705.96
283.37	1779.68
283.59	1718.25
283.80	1705.96
284.02	1728.49
284.23	1730.53
284.45	1632.23
284.66	1673.19
284.88	1634.28
285.09	1669.09
285.31	1748.97
285.52	1726.44
285.74	1656.81
285.95	1734.63
286.17	1736.68
286.38	1720.29
286.60	1732.58
286.81	1796.07
287.03	1734.63
287.24	1763.30
287.46	1714.15
287.67	1716.20
287.89	1798.12
288.10	1779.68
288.32	1767.40
288.53	1800.16
288.75	1708.01
288.96	1685.48
289.18	1640.42
289.39	1740.77
289.61	1796.07
289.82	1775.59
290.04	1830.88
290.25	1656.81
290.47	1755.11
290.68	1705.96
290.90	1783.78
291.11	1570.79
291.33	1722.34
291.54	1624.04
291.76	1683.43
291.97	1724.39
292.18	1759.21
292.40	1656.81
292.61	1642.47
292.83	1826.79
293.04	1830.88
293.26	1728.49
293.47	1703.91
293.69	1652.71
293.90	1681.38
294.12	1755.11
294.33	1804.26
294.55	1624.04
294.76	1748.97
294.97	1761.25
295.19	1845.22
295.40	1681.38
295.62	1697.77
295.83	1738.73
296.05	1597.42
296.26	1714.15
296.48	1656.81
296.69	1728.49
296.90	1636.33
297.12	1722.34
297.33	1810.40
297.55	1630.18
297.76	1705.96
297.98	1769.44
298.19	1724.39
298.41	1667.05
298.62	1689.57
298.83	1769.44
299.05	1677.29
299.26	1722.34
299.48	1695.72
299.69	1759.21
299.90	1665.00
300.12	1656.81
300.33	1791.97
300.55	1746.92
300.76	1665.00
300.98	1615.85
301.19	1718.25
301.40	1591.27
301.62	1656.81
301.83	1761.25
302.05	1677.29
302.26	1650.66
302.47	1710.05
302.69	1595.37
302.90	1677.29
303.12	1599.46
303.33	1716.20
303.54	1820.64
303.76	1669.09
303.97	1677.29
304.19	1748.97
304.40	1681.38
304.61	1687.53
304.83	1845.22
305.04	1759.21
305.26	1781.73
305.47	1683.43
305.68	1685.48
305.90	1619.94
306.11	1744.87
306.33	1681.38
306.54	1628.14
306.75	1697.77
306.97	1601.51
307.18	1658.85
307.39	1677.29
307.61	1765.35
307.82	1656.81
308.04	1751.01
308.25	1656.81
308.46	1679.33
308.68	1779.68
308.89	1771.49
309.10	1703.91
309.32	1681.38
309.53	1718.25
309.74	1742.82
309.96	1654.76
310.17	1763.30
310.39	1648.61
310.60	1746.92
310.81	1748.97
311.03	1601.51
311.24	1759.21
311.45	1693.67
311.67	1759.21
311.88	1787.88
312.09	1703.91
312.31	1652.71
312.52	1736.68
312.73	1724.39
312.95	1648.61
313.16	1722.34
313.37	1693.67
313.59	1755.11
313.80	1779.68
314.01	1804.26
314.23	1634.28
314.44	1673.19
314.65	1564.65
314.87	1673.19
315.08	1644.52
315.29	1656.81
315.51	1654.76
315.72	1628.14
315.93	1751.01
316.15	1708.01
316.36	1691.62
316.57	1652.71
316.79	1705.96
317.00	1576.94
317.21	1703.91
317.43	1662.95
317.64	1718.25
317.85	1634.28
318.07	1636.33
318.28	1804.26
318.49	1783.78
318.70	1888.23
318.92	1771.49
319.13	1863.65
319.34	1818.60
319.56	1783.78
319.77	1798.12
319.98	1718.25
320.20	1734.63
320.41	1718.25
320.62	1761.25
320.83	1636.33
321.05	1814.50
321.26	1789.92
321.47	1693.67
321.69	1757.16
321.90	1601.51
322.11	1648.61
322.32	1751.01
322.54	1781.73
322.75	1628.14
322.96	1767.40
323.18	1673.19
323.39	1576.94
323.60	1628.14
323.81	1685.48
324.03	1628.14
324.24	1648.61
324.45	1708.01
324.66	1724.39
324.88	1769.44
325.09	1853.41
325.30	1699.81
325.52	1716.20
325.73	1679.33
325.94	1738.73
326.15	1632.23
326.37	1611.75
326.58	1744.87
326.79	1791.97
327.00	1708.01
327.22	1855.46
327.43	1701.86
327.64	1665.00
327.85	1714.15
328.07	1677.29
328.28	1812.45
328.49	1660.90
328.70	1677.29
328.92	1720.29
329.13	1769.44
329.34	1675.24
329.55	1818.60
329.76	1685.48
329.98	1669.09
330.19	1804.26
330.40	1748.97
330.61	1687.53
330.83	1755.11
331.04	1617.90
331.25	1673.19
331.46	1679.33
331.68	1660.90
331.89	1748.97
332.10	1685.48
332.31	1638.38
332.52	1693.67
332.74	1785.83
332.95	1683.43
333.16	1640.42
333.37	1783.78
333.58	1669.09
333.80	1681.38
334.01	1640.42
334.22	1724.39
334.43	1628.14
334.64	1611.75
334.86	1638.38
335.07	1591.27
335.28	1755.11
335.49	1583.08
335.70	1738.73
335.92	1820.64
336.13	1812.45
336.34	1734.63
336.55	1738.73
336.76	1763.30
336.98	1554.41
337.19	1662.95
337.40	1822.69
337.61	1857.51
337.82	1621.99
338.04	1705.96
338.25	1599.46
338.46	1679.33
338.67	1683.43
338.88	1558.50
339.09	1654.76
339.31	1714.15
339.52	1626.09
339.73	1611.75
339.94	1732.58
340.15	1712.10
340.36	1683.43
340.58	1677.29
340.79	1650.66
341.00	1722.34
341.21	1697.77
341.42	1818.60
341.63	1654.76
341.85	1650.66
342.06	1728.49
342.27	1665.00
342.48	1687.53
342.69	1566.70
342.90	1697.77
343.12	1726.44
343.33	1681.38
343.54	1669.09
343.75	1869.80
343.96	1710.05
344.17	1642.47
344.38	1634.28
344.60	1599.46
344.81	1611.75
345.02	1691.62
345.23	1746.92
345.44	1822.69
345.65	1757.16
345.86	1718.25
346.07	1685.48
346.29	1613.80
346.50	1769.44
346.71	1695.72
346.92	1804.26
347.13	1800.16
347.34	1753.06
347.55	1652.71
347.76	1697.77
347.98	1619.94
348.19	1593.32
348.40	1783.78
348.61	1570.79
348.82	1748.97
349.03	1746.92
349.24	1667.05
349.45	1824.74
349.66	1578.98
349.88	1767.40
350.09	1705.96
350.30	1755.11
350.51	1832.93
350.72	1748.97
350.93	1757.16
351.14	1656.81
351.35	1783.78
351.56	1640.42
351.77	1648.61
351.99	1736.68
352.20	1832.93
352.41	1775.59
352.62	1646.57
352.83	1724.39
353.04	1648.61
353.25	1638.38
353.46	1728.49
353.67	1791.97
353.88	1656.81
354.09	1744.87
354.30	1697.77
354.52	1769.44
354.73	1708.01
354.94	1697.77
355.15	1708.01
355.36	1767.40
355.57	1714.15
355.78	1767.40
355.99	1658.85
356.20	1671.14
356.41	1775.59
356.62	1732.58
356.83	1722.34
357.04	1812.45
357.25	1615.85
357.46	1660.90
357.68	1554.41
357.89	1679.33
358.10	1738.73
358.31	1726.44
358.52	1679.33
358.73	1740.77
358.94	1642.47
359.15	1640.42
359.36	1716.20
359.57	1634.28
359.78	1705.96
359.99	1710.05
360.20	1697.77
360.41	1730.53
360.62	1794.02
360.83	1697.77
361.04	1746.92
361.25	1789.92
361.46	1816.55
361.67	1746.92
361.88	1791.97
362.09	1687.53
362.30	1656.81
362.51	1687.53
362.72	1740.77
362.93	1716.20
363.14	1693.67
363.35	1689.57
363.56	1716.20
363.78	1759.21
363.99	1724.39
364.20	1701.86
364.41	1773.54
364.62	1794.02
364.83	1681.38
365.04	1703.91
365.25	1677.29
365.46	1851.36
365.67	1585.13
365.88	1632.23
366.09	1724.39
366.30	1644.52
366.51	1746.92
366.72	1648.61
366.93	1724.39
367.14	1613.80
367.35	1783.78
367.56	1675.24
367.77	1789.92
367.98	1701.86
368.18	1648.61
368.39	1687.53
368.60	1677.29
368.81	1675.24
369.02	1779.68
369.23	1642.47
369.44	1544.17
369.65	1734.63
369.86	1724.39
370.07	1810.40
370.28	1669.09
370.49	1753.06
370.70	1806.31
370.91	1685.48
371.12	1615.85
371.33	1769.44
371.54	1660.90
371.75	1787.88
371.96	1566.70
372.17	1705.96
372.38	1718.25
372.59	1701.86
372.80	1697.77
373.01	1773.54
373.22	1675.24
373.43	1748.97
373.64	1701.86
373.85	1791.97
374.06	1779.68
374.26	1697.77
374.47	1708.01
374.68	1804.26
374.89	1656.81
375.10	1699.81
375.31	1757.16
375.52	1695.72
375.73	1710.05
375.94	1613.80
376.15	1828.84
376.36	1615.85
376.57	1628.14
376.78	1679.33
376.99	1695.72
377.20	1818.60
377.40	1683.43
377.61	1806.31
377.82	1685.48
378.03	1757.16
378.24	1652.71
378.45	1734.63
378.66	1728.49
378.87	1642.47
379.08	1626.09
379.29	1722.34
379.50	1734.63
379.71	1644.52
379.91	1726.44
380.12	1615.85
380.33	1746.92
380.54	1683.43
380.75	1619.94
380.96	1691.62
381.17	1708.01
381.38	1660.90
381.59	1724.39
381.80	1716.20
382.00	1828.84
382.21	1779.68
382.42	1818.60
382.63	1800.16
382.84	1820.64
383.05	1705.96
383.26	1773.54
383.47	1726.44
383.68	1744.87
383.88	1771.49
384.09	1681.38
384.30	1810.40
384.51	1665.00
384.72	1613.80
384.93	1603.56
385.14	1708.01
385.35	1753.06
385.55	1619.94
385.76	1767.40
385.97	1714.15
386.18	1669.09
386.39	1728.49
386.60	1740.77
386.81	1773.54
387.02	1632.23
387.22	1644.52
387.43	1787.88
387.64	1789.92
387.85	1939.43
388.06	2226.14
388.27	4343.74
388.48	6924.18
388.68	8419.20
388.89	9811.82
389.10	10092.39
389.31	8726.39
389.52	7780.23
389.73	6780.82
389.93	6365.09
390.14	5949.35
390.35	5259.18
390.56	4655.03
390.77	3827.65
390.98	3178.45
391.18	2562.01
391.39	2095.07
391.60	1849.32
391.81	1767.40
392.02	1652.71
392.23	1800.16
392.43	1697.77
392.64	1765.35
392.85	1712.10
393.06	1814.50
393.27	1648.61
393.47	1710.05
393.68	1744.87
393.89	1679.33
394.10	1796.07
394.31	1603.56
394.52	1671.14
394.72	1689.57
394.93	1861.60
395.14	1669.09
395.35	1781.73
395.56	1691.62
395.76	1708.01
395.97	1837.03
396.18	1863.65
396.39	1867.75
396.60	2052.06
396.80	1908.71
397.01	1806.31
397.22	1818.60
397.43	1828.84
397.64	1718.25
397.84	1830.88
398.05	1837.03
398.26	1777.64
398.47	1789.92
398.67	1722.34
398.88	1738.73
399.09	1742.82
399.30	1650.66
399.51	1757.16
399.71	1615.85
399.92	1759.21
400.13	1720.29
400.34	1705.96
400.54	1695.72
400.75	1783.78
400.96	1710.05
401.17	1751.01
401.37	1763.30
401.58	1718.25
401.79	1759.21
402.00	1902.56
402.21	2045.92
402.41	1992.67
402.62	1914.85
402.83	2019.30
403.04	2093.02
403.24	2050.02
403.45	1871.84
403.66	1902.56
403.87	1886.18
404.07	1902.56
404.28	1890.28
404.49	1882.08
404.70	1847.27
404.90	1691.62
405.11	1761.25
405.32	1777.64
405.52	1716.20
405.73	1708.01
405.94	1701.86
406.15	1677.29
406.35	1771.49
406.56	1714.15
406.77	1759.21
406.98	1732.58
407.18	1669.09
407.39	1765.35
407.60	1648.61
407.80	1751.01
408.01	1656.81
408.22	1765.35
408.43	1697.77
408.63	1757.16
408.84	1724.39
409.05	1751.01
409.25	1675.24
409.46	1640.42
409.67	1652.71
409.88	1693.67
410.08	1753.06
410.29	1677.29
410.50	1693.67
410.70	1732.58
410.91	1644.52
411.12	1765.35
411.32	1742.82
411.53	1605.61
411.74	1843.17
411.95	1787.88
412.15	1710.05
412.36	1812.45
412.57	1720.29
412.77	1775.59
412.98	1691.62
413.19	1699.81
413.39	1761.25
413.60	1693.67
413.81	1785.83
414.01	1654.76
414.22	1738.73
414.43	1787.88
414.63	1712.10
414.84	1808.36
415.05	1742.82
415.25	1636.33
415.46	1722.34
415.67	1675.24
415.87	1724.39
416.08	1712.10
416.29	1722.34
416.49	1740.77
416.70	1687.53
416.91	1679.33
417.11	1646.57
417.32	1791.97
417.53	1832.93
417.73	1742.82
417.94	1683.43
418.15	1748.97
418.35	1642.47
418.56	1732.58
418.77	1865.70
418.97	1714.15
419.18	1708.01
419.38	1607.66
419.59	1665.00
419.80	1738.73
420.00	1634.28
420.21	1701.86
420.42	1744.87
420.62	1691.62
420.83	1656.81
421.04	1693.67
421.24	1705.96
421.45	1687.53
421.65	1787.88
421.86	1624.04
422.07	1781.73
422.27	1722.34
422.48	1718.25
422.69	1654.76
422.89	1691.62
423.10	1718.25
423.30	1665.00
423.51	1687.53
423.72	1687.53
423.92	1716.20
424.13	1695.72
424.33	1740.77
424.54	1806.31
424.75	1650.66
424.95	1748.97
425.16	1775.59
425.36	1695.72
425.57	1718.25
425.78	1759.21
425.98	1800.16
426.19	1777.64
426.39	1636.33
426.60	1781.73
426.81	1744.87
427.01	1701.86
427.22	1687.53
427.42	1636.33
427.63	1710.05
427.83	1708.01
428.04	1818.60
428.25	1800.16
428.45	1769.44
428.66	1832.93
428.86	1621.99
429.07	1697.77
429.28	1804.26
429.48	1730.53
429.69	1697.77
429.89	1732.58
430.10	1787.88
430.30	1736.68
430.51	1755.11
430.71	1699.81
430.92	1708.01
431.13	1609.70
431.33	1687.53
431.54	1701.86
431.74	1730.53
431.95	1851.36
432.15	1703.91
432.36	1703.91
432.56	1800.16
432.77	1789.92
432.98	1853.41
433.18	1773.54
433.39	1632.23
433.59	1724.39
433.80	1808.36
434.00	1865.70
434.21	1738.73
434.41	1734.63
434.62	1867.75
434.82	1597.42
435.03	1703.91
435.23	1751.01
435.44	1599.46
435.64	1728.49
435.85	1753.06
436.06	1779.68
436.26	1755.11
436.47	1603.56
436.67	1703.91
436.88	1693.67
437.08	1763.30
437.29	1779.68
437.49	1742.82
437.70	1804.26
437.90	1681.38
438.11	1851.36
438.31	1714.15
438.52	1886.18
438.72	1877.99
438.93	1871.84
439.13	1810.40
439.34	1763.30
439.54	1748.97
439.75	1763.30
439.95	1781.73
440.16	1677.29
440.36	1714.15
440.57	1732.58
440.77	1761.25
440.98	1685.48
441.18	1800.16
441.39	1726.44
441.59	1683.43
441.80	1867.75
442.00	1660.90
442.21	1783.78
442.41	1650.66
442.62	1751.01
442.82	1677.29
443.02	1658.85
443.23	1746.92
443.43	1695.72
443.64	1861.60
443.84	1726.44
444.05	1796.07
444.25	1763.30
444.46	1621.99
444.66	1681.38
444.87	1779.68
445.07	1669.09
445.28	1658.85
445.48	1822.69
445.69	1748.97
445.89	1853.41
446.09	1751.01
446.30	2023.39
446.50	2664.41
446.71	3811.27
446.91	4356.03
447.12	4765.62
447.32	4902.84
447.53	4296.64
447.73	3919.81
447.93	3516.36
448.14	3325.90
448.34	3174.35
448.55	2869.20
448.75	2846.68
448.96	2664.41
449.16	2480.09
449.36	2303.96
449.57	2013.15
449.77	1888.23
449.98	1773.54
450.18	1763.30
450.39	1810.40
450.59	1789.92
450.79	1726.44
451.00	1746.92
451.20	1755.11
451.41	1769.44
451.61	1767.40
451.81	1724.39
452.02	1755.11
452.22	1671.14
452.43	1730.53
452.63	1751.01
