SpectraSuite Data File
++++++++++++++++++++++++++++++++++++
Date: Mon Jun 06 13:18:17 CEST 2016
User: root
Dark Spectrum Present: No
Reference Spectrum Present: No
Number of Sampled Component Spectra: 1
Spectrometers: USB4C02835
Integration Time (usec): 100000 (USB4C02835)
Spectra Averaged: 1 (USB4C02835)
Boxcar Smoothing: 0 (USB4C02835)
Correct for Electrical Dark: No (USB4C02835)
Strobe/Lamp Enabled: No (USB4C02835)
Correct for Detector Non-linearity: No (USB4C02835)
Correct for Stray Light: No (USB4C02835)
Number of Pixels in Processed Spectrum: 3648
>>>>>Begin Processed Spectral Data<<<<<
177.47	1437.67
177.69	1437.67
177.91	1437.67
178.13	1425.39
178.36	1550.31
178.58	1632.23
178.80	1708.01
179.02	1642.47
179.24	1658.85
179.46	1693.67
179.68	1757.16
179.90	1689.57
180.13	1640.42
180.35	1689.57
180.57	1675.24
180.79	1771.49
181.01	1673.19
181.23	1771.49
181.45	1753.06
181.67	1650.66
181.90	1712.10
182.12	1626.09
182.34	1583.08
182.56	1751.01
182.78	1740.77
183.00	1691.62
183.22	1642.47
183.44	1621.99
183.66	1914.85
183.89	1796.07
184.11	1695.72
184.33	1730.53
184.55	1796.07
184.77	1748.97
184.99	1703.91
185.21	1642.47
185.43	1935.33
185.65	1611.75
185.87	1691.62
186.10	1798.12
186.32	1847.27
186.54	1742.82
186.76	1730.53
186.98	1665.00
187.20	1699.81
187.42	1615.85
187.64	1660.90
187.86	1710.05
188.08	1777.64
188.30	1656.81
188.52	1646.57
188.75	1738.73
188.97	1759.21
189.19	1632.23
189.41	1697.77
189.63	1710.05
189.85	1800.16
190.07	1716.20
190.29	1599.46
190.51	1794.02
190.73	1640.42
190.95	1740.77
191.17	1656.81
191.39	1705.96
191.61	1681.38
191.84	1683.43
192.06	1748.97
192.28	1675.24
192.50	1972.19
192.72	1644.52
192.94	1603.56
193.16	1734.63
193.38	1736.68
193.60	1654.76
193.82	1650.66
194.04	1738.73
194.26	1683.43
194.48	1681.38
194.70	1710.05
194.92	1675.24
195.14	1732.58
195.36	1652.71
195.58	1763.30
195.80	1773.54
196.02	1665.00
196.24	1699.81
196.46	1658.85
196.69	1624.04
196.91	1771.49
197.13	1714.15
197.35	1597.42
197.57	1822.69
197.79	1691.62
198.01	1732.58
198.23	1740.77
198.45	1763.30
198.67	1617.90
198.89	1689.57
199.11	1738.73
199.33	1597.42
199.55	1591.27
199.77	1683.43
199.99	1804.26
200.21	1703.91
200.43	1691.62
200.65	1656.81
200.87	1515.50
201.09	1761.25
201.31	1683.43
201.53	1761.25
201.75	1728.49
201.97	1677.29
202.19	1746.92
202.41	1736.68
202.63	1812.45
202.85	1701.86
203.07	1740.77
203.29	1638.38
203.51	1533.93
203.73	1675.24
203.95	1892.32
204.17	1755.11
204.39	1755.11
204.61	1646.57
204.83	1691.62
205.05	1730.53
205.27	1703.91
205.49	1822.69
205.71	1757.16
205.93	1632.23
206.15	1669.09
206.37	1701.86
206.59	1697.77
206.81	1677.29
207.03	1613.80
207.25	1679.33
207.47	1806.31
207.69	1648.61
207.91	1751.01
208.13	1742.82
208.34	1681.38
208.56	1634.28
208.78	1693.67
209.00	1697.77
209.22	1708.01
209.44	1671.14
209.66	1689.57
209.88	1662.95
210.10	1751.01
210.32	1667.05
210.54	1806.31
210.76	1697.77
210.98	1771.49
211.20	1619.94
211.42	1675.24
211.64	1800.16
211.86	1619.94
212.08	1710.05
212.30	1685.48
212.52	1642.47
212.74	1744.87
212.96	1681.38
213.17	1654.76
213.39	1675.24
213.61	1796.07
213.83	1730.53
214.05	1621.99
214.27	1722.34
214.49	1628.14
214.71	1650.66
214.93	1724.39
215.15	1708.01
215.37	1693.67
215.59	1572.84
215.81	1681.38
216.03	1720.29
216.24	1742.82
216.46	1685.48
216.68	1679.33
216.90	1708.01
217.12	1650.66
217.34	1710.05
217.56	1675.24
217.78	1783.78
218.00	1730.53
218.22	1699.81
218.44	1751.01
218.66	1673.19
218.87	1810.40
219.09	1671.14
219.31	1724.39
219.53	1710.05
219.75	1689.57
219.97	1650.66
220.19	1695.72
220.41	1755.11
220.63	1722.34
220.85	1662.95
221.06	1605.61
221.28	1671.14
221.50	1771.49
221.72	1691.62
221.94	1724.39
222.16	1716.20
222.38	1708.01
222.60	1703.91
222.82	1718.25
223.03	1769.44
223.25	1705.96
223.47	1765.35
223.69	1822.69
223.91	1708.01
224.13	1675.24
224.35	1658.85
224.57	1677.29
224.78	1814.50
225.00	1621.99
225.22	1689.57
225.44	1621.99
225.66	1775.59
225.88	1646.57
226.10	1671.14
226.32	1689.57
226.53	1734.63
226.75	1652.71
226.97	1636.33
227.19	1734.63
227.41	1607.66
227.63	1740.77
227.85	1652.71
228.06	1644.52
228.28	1714.15
228.50	1697.77
228.72	1689.57
228.94	1695.72
229.16	1621.99
229.37	1662.95
229.59	1681.38
229.81	1746.92
230.03	1673.19
230.25	1638.38
230.47	1665.00
230.69	1619.94
230.90	1734.63
231.12	1656.81
231.34	1726.44
231.56	1746.92
231.78	1652.71
232.00	1677.29
232.21	1693.67
232.43	1667.05
232.65	1669.09
232.87	1730.53
233.09	1650.66
233.30	1734.63
233.52	1798.12
233.74	1665.00
233.96	1630.18
234.18	1726.44
234.40	1769.44
234.61	1837.03
234.83	1638.38
235.05	1673.19
235.27	1789.92
235.49	1826.79
235.70	1656.81
235.92	1804.26
236.14	1753.06
236.36	1851.36
236.58	1654.76
236.79	1798.12
237.01	1763.30
237.23	1648.61
237.45	1757.16
237.67	1691.62
237.88	1804.26
238.10	1740.77
238.32	1619.94
238.54	1628.14
238.76	1687.53
238.97	1691.62
239.19	1638.38
239.41	1705.96
239.63	1812.45
239.85	1669.09
240.06	1710.05
240.28	1648.61
240.50	1724.39
240.72	1716.20
240.93	1673.19
241.15	1763.30
241.37	1726.44
241.59	1828.84
241.81	1730.53
242.02	1658.85
242.24	1748.97
242.46	1759.21
242.68	1681.38
242.89	1636.33
243.11	1726.44
243.33	1656.81
243.55	1736.68
243.76	1708.01
243.98	1669.09
244.20	1751.01
244.42	1701.86
244.64	1722.34
244.85	1681.38
245.07	1673.19
245.29	1677.29
245.51	1669.09
245.72	1638.38
245.94	1841.12
246.16	1791.97
246.38	1701.86
246.59	1654.76
246.81	1615.85
247.03	1708.01
247.24	1603.56
247.46	1691.62
247.68	1751.01
247.90	1615.85
248.11	1699.81
248.33	1734.63
248.55	1728.49
248.77	1763.30
248.98	1724.39
249.20	1787.88
249.42	1673.19
249.64	1746.92
249.85	1748.97
250.07	1675.24
250.29	1710.05
250.50	1769.44
250.72	1646.57
250.94	1722.34
251.16	1855.46
251.37	1771.49
251.59	1787.88
251.81	1746.92
252.02	1826.79
252.24	1712.10
252.46	1794.02
252.68	1710.05
252.89	1732.58
253.11	1642.47
253.33	1851.36
253.54	1783.78
253.76	1654.76
253.98	1646.57
254.20	1757.16
254.41	1527.78
254.63	1650.66
254.85	1689.57
255.06	1660.90
255.28	1763.30
255.50	1640.42
255.71	1665.00
255.93	1595.37
256.15	1642.47
256.36	1746.92
256.58	1648.61
256.80	1683.43
257.02	1687.53
257.23	1673.19
257.45	1644.52
257.67	1767.40
257.88	1673.19
258.10	1798.12
258.32	1669.09
258.53	1679.33
258.75	1765.35
258.97	1611.75
259.18	1632.23
259.40	1761.25
259.62	1783.78
259.83	1798.12
260.05	1796.07
260.27	1914.85
260.48	1791.97
260.70	1615.85
260.92	1722.34
261.13	1693.67
261.35	1736.68
261.57	1761.25
261.78	1583.08
262.00	1654.76
262.22	1767.40
262.43	1624.04
262.65	1652.71
262.86	1644.52
263.08	1781.73
263.30	1738.73
263.51	1615.85
263.73	1626.09
263.95	1781.73
264.16	1654.76
264.38	1654.76
264.60	1740.77
264.81	1669.09
265.03	1742.82
265.25	1748.97
265.46	1691.62
265.68	1669.09
265.89	1705.96
266.11	1667.05
266.33	1753.06
266.54	1769.44
266.76	1763.30
266.98	1740.77
267.19	1773.54
267.41	1814.50
267.62	1726.44
267.84	1603.56
268.06	1648.61
268.27	1677.29
268.49	1710.05
268.70	1742.82
268.92	1646.57
269.14	1599.46
269.35	1632.23
269.57	1728.49
269.79	1742.82
270.00	1658.85
270.22	1828.84
270.43	1705.96
270.65	1654.76
270.87	1724.39
271.08	1656.81
271.30	1773.54
271.51	1660.90
271.73	1695.72
271.95	1785.83
272.16	1761.25
272.38	1736.68
272.59	1681.38
272.81	1746.92
273.02	1695.72
273.24	1697.77
273.46	1644.52
273.67	1714.15
273.89	1574.89
274.10	1660.90
274.32	1730.53
274.54	1708.01
274.75	1658.85
274.97	1748.97
275.18	1775.59
275.40	1718.25
275.61	1695.72
275.83	1708.01
276.05	1671.14
276.26	1736.68
276.48	1642.47
276.69	1689.57
276.91	1714.15
277.12	1755.11
277.34	1714.15
277.55	1816.55
277.77	1738.73
277.99	1642.47
278.20	1615.85
278.42	1611.75
278.63	1658.85
278.85	1652.71
279.06	1685.48
279.28	1675.24
279.49	1806.31
279.71	1751.01
279.93	1662.95
280.14	1667.05
280.36	1669.09
280.57	1812.45
280.79	1714.15
281.00	1673.19
281.22	1695.72
281.43	1800.16
281.65	1607.66
281.86	1640.42
282.08	1658.85
282.29	1847.27
282.51	1636.33
282.73	1652.71
282.94	1603.56
283.16	1656.81
283.37	1787.88
283.59	1699.81
283.80	1683.43
284.02	1673.19
284.23	1701.86
284.45	1652.71
284.66	1671.14
284.88	1722.34
285.09	1710.05
285.31	1730.53
285.52	1746.92
285.74	1636.33
285.95	1783.78
286.17	1710.05
286.38	1742.82
286.60	1562.60
286.81	1687.53
287.03	1691.62
287.24	1671.14
287.46	1759.21
287.67	1740.77
287.89	1794.02
288.10	1650.66
288.32	1687.53
288.53	1808.36
288.75	1712.10
288.96	1734.63
289.18	1685.48
289.39	1654.76
289.61	1753.06
289.82	1812.45
290.04	1867.75
290.25	1648.61
290.47	1695.72
290.68	1667.05
290.90	1757.16
291.11	1597.42
291.33	1767.40
291.54	1642.47
291.76	1650.66
291.97	1714.15
292.18	1703.91
292.40	1654.76
292.61	1675.24
292.83	1806.31
293.04	1800.16
293.26	1669.09
293.47	1701.86
293.69	1652.71
293.90	1724.39
294.12	1761.25
294.33	1708.01
294.55	1640.42
294.76	1685.48
294.97	1814.50
295.19	1828.84
295.40	1669.09
295.62	1742.82
295.83	1755.11
296.05	1708.01
296.26	1806.31
296.48	1652.71
296.69	1671.14
296.90	1662.95
297.12	1722.34
297.33	1794.02
297.55	1714.15
297.76	1777.64
297.98	1779.68
298.19	1710.05
298.41	1705.96
298.62	1697.77
298.83	1830.88
299.05	1681.38
299.26	1667.05
299.48	1689.57
299.69	1814.50
299.90	1697.77
300.12	1677.29
300.33	1728.49
300.55	1761.25
300.76	1726.44
300.98	1605.61
301.19	1662.95
301.40	1751.01
301.62	1656.81
301.83	1755.11
302.05	1636.33
302.26	1740.77
302.47	1669.09
302.69	1677.29
302.90	1691.62
303.12	1603.56
303.33	1738.73
303.54	1861.60
303.76	1667.05
303.97	1777.64
304.19	1800.16
304.40	1613.80
304.61	1701.86
304.83	1781.73
305.04	1660.90
305.26	1800.16
305.47	1673.19
305.68	1652.71
305.90	1644.52
306.11	1751.01
306.33	1607.66
306.54	1740.77
306.75	1724.39
306.97	1630.18
307.18	1630.18
307.39	1714.15
307.61	1748.97
307.82	1638.38
308.04	1794.02
308.25	1613.80
308.46	1736.68
308.68	1691.62
308.89	1654.76
309.10	1734.63
309.32	1714.15
309.53	1617.90
309.74	1763.30
309.96	1693.67
310.17	1761.25
310.39	1570.79
310.60	1662.95
310.81	1705.96
311.03	1693.67
311.24	1732.58
311.45	1724.39
311.67	1841.12
311.88	1673.19
312.09	1701.86
312.31	1595.37
312.52	1703.91
312.73	1718.25
312.95	1671.14
313.16	1714.15
313.37	1779.68
313.59	1765.35
313.80	1765.35
314.01	1771.49
314.23	1722.34
314.44	1658.85
314.65	1619.94
314.87	1615.85
315.08	1730.53
315.29	1697.77
315.51	1619.94
315.72	1693.67
315.93	1828.84
316.15	1730.53
316.36	1601.51
316.57	1748.97
316.79	1665.00
317.00	1710.05
317.21	1681.38
317.43	1667.05
317.64	1654.76
317.85	1640.42
318.07	1738.73
318.28	1740.77
318.49	1816.55
318.70	1925.09
318.92	1869.80
319.13	1812.45
319.34	1898.47
319.56	1763.30
319.77	1775.59
319.98	1779.68
320.20	1791.97
320.41	1665.00
320.62	1783.78
320.83	1708.01
321.05	1906.66
321.26	1759.21
321.47	1619.94
321.69	1730.53
321.90	1591.27
322.11	1716.20
322.32	1714.15
322.54	1810.40
322.75	1669.09
322.96	1796.07
323.18	1644.52
323.39	1587.18
323.60	1630.18
323.81	1746.92
324.03	1726.44
324.24	1712.10
324.45	1691.62
324.66	1675.24
324.88	1785.83
325.09	1779.68
325.30	1660.90
325.52	1789.92
325.73	1669.09
325.94	1619.94
326.15	1538.02
326.37	1644.52
326.58	1839.08
326.79	1787.88
327.00	1703.91
327.22	1691.62
327.43	1673.19
327.64	1683.43
327.85	1701.86
328.07	1708.01
328.28	1843.17
328.49	1634.28
328.70	1677.29
328.92	1624.04
329.13	1697.77
329.34	1730.53
329.55	1818.60
329.76	1814.50
329.98	1728.49
330.19	1796.07
330.40	1755.11
330.61	1691.62
330.83	1665.00
331.04	1656.81
331.25	1667.05
331.46	1701.86
331.68	1656.81
331.89	1828.84
332.10	1636.33
332.31	1585.13
332.52	1638.38
332.74	1701.86
332.95	1617.90
333.16	1656.81
333.37	1728.49
333.58	1693.67
333.80	1763.30
334.01	1611.75
334.22	1669.09
334.43	1636.33
334.64	1677.29
334.86	1626.09
335.07	1646.57
335.28	1765.35
335.49	1644.52
335.70	1708.01
335.92	1785.83
336.13	1802.21
336.34	1665.00
336.55	1763.30
336.76	1722.34
336.98	1605.61
337.19	1683.43
337.40	1800.16
337.61	1847.27
337.82	1673.19
338.04	1701.86
338.25	1667.05
338.46	1650.66
338.67	1675.24
338.88	1650.66
339.09	1646.57
339.31	1673.19
339.52	1609.70
339.73	1644.52
339.94	1621.99
340.15	1726.44
340.36	1699.81
340.58	1701.86
340.79	1681.38
341.00	1746.92
341.21	1628.14
341.42	1832.93
341.63	1626.09
341.85	1753.06
342.06	1732.58
342.27	1630.18
342.48	1746.92
342.69	1683.43
342.90	1714.15
343.12	1738.73
343.33	1658.85
343.54	1720.29
343.75	1804.26
343.96	1677.29
344.17	1624.04
344.38	1673.19
344.60	1701.86
344.81	1611.75
345.02	1705.96
345.23	1812.45
345.44	1877.99
345.65	1767.40
345.86	1701.86
346.07	1658.85
346.29	1652.71
346.50	1685.48
346.71	1699.81
346.92	1753.06
347.13	1888.23
347.34	1640.42
347.55	1714.15
347.76	1724.39
347.98	1550.31
348.19	1691.62
348.40	1804.26
348.61	1626.09
348.82	1804.26
349.03	1777.64
349.24	1632.23
349.45	1851.36
349.66	1570.79
349.88	1679.33
350.09	1710.05
350.30	1748.97
350.51	1761.25
350.72	1744.87
350.93	1673.19
351.14	1710.05
351.35	1718.25
351.56	1753.06
351.77	1662.95
351.99	1722.34
352.20	1763.30
352.41	1734.63
352.62	1542.12
352.83	1730.53
353.04	1722.34
353.25	1603.56
353.46	1697.77
353.67	1820.64
353.88	1542.12
354.09	1697.77
354.30	1722.34
354.52	1767.40
354.73	1624.04
354.94	1689.57
355.15	1638.38
355.36	1716.20
355.57	1751.01
355.78	1724.39
355.99	1695.72
356.20	1662.95
356.41	1738.73
356.62	1746.92
356.83	1740.77
357.04	1761.25
357.25	1652.71
357.46	1638.38
357.68	1638.38
357.89	1619.94
358.10	1640.42
358.31	1746.92
358.52	1703.91
358.73	1611.75
358.94	1720.29
359.15	1681.38
359.36	1687.53
359.57	1652.71
359.78	1730.53
359.99	1781.73
360.20	1689.57
360.41	1648.61
360.62	1785.83
360.83	1703.91
361.04	1703.91
361.25	1695.72
361.46	1843.17
361.67	1775.59
361.88	1800.16
362.09	1783.78
362.30	1673.19
362.51	1695.72
362.72	1671.14
362.93	1673.19
363.14	1755.11
363.35	1810.40
363.56	1642.47
363.78	1738.73
363.99	1708.01
364.20	1703.91
364.41	1732.58
364.62	1834.98
364.83	1710.05
365.04	1687.53
365.25	1716.20
365.46	1814.50
365.67	1665.00
365.88	1679.33
366.09	1714.15
366.30	1699.81
366.51	1720.29
366.72	1613.80
366.93	1667.05
367.14	1720.29
367.35	1783.78
367.56	1632.23
367.77	1757.16
367.98	1665.00
368.18	1617.90
368.39	1740.77
368.60	1597.42
368.81	1734.63
369.02	1714.15
369.23	1755.11
369.44	1644.52
369.65	1654.76
369.86	1748.97
370.07	1740.77
370.28	1644.52
370.49	1742.82
370.70	1673.19
370.91	1624.04
371.12	1642.47
371.33	1757.16
371.54	1648.61
371.75	1806.31
371.96	1562.60
372.17	1689.57
372.38	1665.00
372.59	1757.16
372.80	1697.77
373.01	1716.20
373.22	1658.85
373.43	1644.52
373.64	1652.71
373.85	1726.44
374.06	1875.94
374.26	1665.00
374.47	1722.34
374.68	1742.82
374.89	1734.63
375.10	1675.24
375.31	1808.36
375.52	1689.57
375.73	1685.48
375.94	1624.04
376.15	1796.07
376.36	1611.75
376.57	1687.53
376.78	1634.28
376.99	1671.14
377.20	1761.25
377.40	1640.42
377.61	1796.07
377.82	1636.33
378.03	1900.52
378.24	1742.82
378.45	1665.00
378.66	1624.04
378.87	1669.09
379.08	1658.85
379.29	1738.73
379.50	1732.58
379.71	1607.66
379.91	1652.71
380.12	1665.00
380.33	1703.91
380.54	1689.57
380.75	1728.49
380.96	1665.00
381.17	1720.29
381.38	1757.16
381.59	1656.81
381.80	1767.40
382.00	1820.64
382.21	1689.57
382.42	1812.45
382.63	1789.92
382.84	1710.05
383.05	1826.79
383.26	1775.59
383.47	1652.71
383.68	1853.41
383.88	1812.45
384.09	1763.30
384.30	1814.50
384.51	1757.16
384.72	1681.38
384.93	1599.46
385.14	1640.42
385.35	1748.97
385.55	1665.00
385.76	1738.73
385.97	1734.63
386.18	1673.19
386.39	1679.33
386.60	1630.18
386.81	1681.38
387.02	1624.04
387.22	1603.56
387.43	1808.36
387.64	1781.73
387.85	1875.94
388.06	2193.37
388.27	4298.69
388.48	6834.07
388.68	8396.67
388.89	9709.42
389.10	10049.38
389.31	8720.25
389.52	7681.93
389.73	6739.87
389.93	6328.22
390.14	5767.08
390.35	5308.34
390.56	4681.66
390.77	3762.12
390.98	2990.03
391.18	2510.81
391.39	2095.07
391.60	1888.23
391.81	1814.50
392.02	1705.96
392.23	1783.78
392.43	1718.25
392.64	1740.77
392.85	1755.11
393.06	1800.16
393.27	1642.47
393.47	1710.05
393.68	1734.63
393.89	1761.25
394.10	1765.35
394.31	1665.00
394.52	1677.29
394.72	1693.67
394.93	1708.01
395.14	1699.81
395.35	1804.26
395.56	1691.62
395.76	1705.96
395.97	1783.78
396.18	1755.11
396.39	1851.36
396.60	2050.02
396.80	1873.89
397.01	1929.19
397.22	1808.36
397.43	1851.36
397.64	1771.49
397.84	1761.25
398.05	1869.80
398.26	1687.53
398.47	1812.45
398.67	1767.40
398.88	1769.44
399.09	1667.05
399.30	1755.11
399.51	1697.77
399.71	1675.24
399.92	1748.97
400.13	1689.57
400.34	1699.81
400.54	1736.68
400.75	1839.08
400.96	1769.44
401.17	1812.45
401.37	1767.40
401.58	1765.35
401.79	1759.21
402.00	1816.55
402.21	2021.35
402.41	1894.37
402.62	1968.10
402.83	2033.63
403.04	1964.00
403.24	2072.54
403.45	1789.92
403.66	1882.08
403.87	1912.80
404.07	1855.46
404.28	1927.14
404.49	1869.80
404.70	1837.03
404.90	1755.11
405.11	1732.58
405.32	1671.14
405.52	1634.28
405.73	1611.75
405.94	1687.53
406.15	1648.61
406.35	1757.16
406.56	1681.38
406.77	1734.63
406.98	1697.77
407.18	1693.67
407.39	1673.19
407.60	1652.71
407.80	1736.68
408.01	1628.14
408.22	1802.21
408.43	1597.42
408.63	1650.66
408.84	1796.07
409.05	1740.77
409.25	1644.52
409.46	1675.24
409.67	1705.96
409.88	1662.95
410.08	1740.77
410.29	1744.87
410.50	1736.68
410.70	1736.68
410.91	1695.72
411.12	1683.43
411.32	1636.33
411.53	1689.57
411.74	1830.88
411.95	1779.68
412.15	1693.67
412.36	1699.81
412.57	1744.87
412.77	1773.54
412.98	1759.21
413.19	1732.58
413.39	1697.77
413.60	1834.98
413.81	1712.10
414.01	1656.81
414.22	1769.44
414.43	1804.26
414.63	1662.95
414.84	1794.02
415.05	1710.05
415.25	1642.47
415.46	1787.88
415.67	1617.90
415.87	1691.62
416.08	1701.86
416.29	1712.10
416.49	1746.92
416.70	1695.72
416.91	1665.00
417.11	1744.87
417.32	1796.07
417.53	1722.34
417.73	1718.25
417.94	1701.86
418.15	1722.34
418.35	1675.24
418.56	1683.43
418.77	1820.64
418.97	1789.92
419.18	1697.77
419.38	1533.93
419.59	1730.53
419.80	1765.35
420.00	1675.24
420.21	1734.63
420.42	1785.83
420.62	1802.21
420.83	1628.14
421.04	1714.15
421.24	1681.38
421.45	1751.01
421.65	1699.81
421.86	1679.33
422.07	1705.96
422.27	1748.97
422.48	1665.00
422.69	1691.62
422.89	1697.77
423.10	1677.29
423.30	1595.37
423.51	1710.05
423.72	1746.92
423.92	1744.87
424.13	1603.56
424.33	1673.19
424.54	1765.35
424.75	1714.15
424.95	1847.27
425.16	1695.72
425.36	1722.34
425.57	1763.30
425.78	1796.07
425.98	1767.40
426.19	1687.53
426.39	1642.47
426.60	1660.90
426.81	1732.58
427.01	1742.82
427.22	1695.72
427.42	1632.23
427.63	1656.81
427.83	1730.53
428.04	1744.87
428.25	1738.73
428.45	1759.21
428.66	1726.44
428.86	1718.25
429.07	1701.86
429.28	1767.40
429.48	1753.06
429.69	1599.46
429.89	1714.15
430.10	1624.04
430.30	1783.78
430.51	1703.91
430.71	1730.53
430.92	1726.44
431.13	1617.90
431.33	1763.30
431.54	1826.79
431.74	1806.31
431.95	1894.37
432.15	1626.09
432.36	1675.24
432.56	1722.34
432.77	1818.60
432.98	1769.44
433.18	1695.72
433.39	1687.53
433.59	1650.66
433.80	1761.25
434.00	1804.26
434.21	1691.62
434.41	1705.96
434.62	1837.03
434.82	1673.19
435.03	1716.20
435.23	1753.06
435.44	1632.23
435.64	1710.05
435.85	1710.05
436.06	1738.73
436.26	1736.68
436.47	1699.81
436.67	1648.61
436.88	1640.42
437.08	1708.01
437.29	1822.69
437.49	1755.11
437.70	1791.97
437.90	1673.19
438.11	1849.32
438.31	1699.81
438.52	1746.92
438.72	1863.65
438.93	1918.95
439.13	1812.45
439.34	1800.16
439.54	1697.77
439.75	1775.59
439.95	1837.03
440.16	1742.82
440.36	1763.30
440.57	1783.78
440.77	1728.49
440.98	1724.39
441.18	1757.16
441.39	1685.48
441.59	1615.85
441.80	1837.03
442.00	1775.59
442.21	1763.30
442.41	1703.91
442.62	1767.40
442.82	1675.24
443.02	1689.57
443.23	1730.53
443.43	1677.29
443.64	1814.50
443.84	1695.72
444.05	1759.21
444.25	1740.77
444.46	1714.15
444.66	1734.63
444.87	1785.83
445.07	1673.19
445.28	1683.43
445.48	1855.46
445.69	1712.10
445.89	1820.64
446.09	1730.53
446.30	2031.58
446.50	2693.08
446.71	3764.17
446.91	4294.59
447.12	4767.67
447.32	4911.03
447.53	4384.70
447.73	4032.45
447.93	3545.03
448.14	3399.63
448.34	3188.69
448.55	2938.84
448.75	2863.06
448.96	2668.50
449.16	2389.98
449.36	2244.57
449.57	2129.89
449.77	1865.70
449.98	1804.26
450.18	1816.55
450.39	1837.03
450.59	1767.40
450.79	1748.97
451.00	1701.86
451.20	1794.02
451.41	1697.77
451.61	1855.46
451.81	1712.10
452.02	1736.68
452.22	1703.91
452.43	1669.09
452.63	1699.81
