SpectraSuite Data File
++++++++++++++++++++++++++++++++++++
Date: Mon Jun 06 12:21:37 CEST 2016
User: root
Dark Spectrum Present: No
Reference Spectrum Present: No
Number of Sampled Component Spectra: 1
Spectrometers: USB4C02835
Integration Time (usec): 100000 (USB4C02835)
Spectra Averaged: 1 (USB4C02835)
Boxcar Smoothing: 0 (USB4C02835)
Correct for Electrical Dark: No (USB4C02835)
Strobe/Lamp Enabled: No (USB4C02835)
Correct for Detector Non-linearity: No (USB4C02835)
Correct for Stray Light: No (USB4C02835)
Number of Pixels in Processed Spectrum: 3648
>>>>>Begin Processed Spectral Data<<<<<
177.47	1439.72
177.69	1439.72
177.91	1439.72
178.13	1419.24
178.36	1478.63
178.58	1640.42
178.80	1714.15
179.02	1658.85
179.24	1656.81
179.46	1691.62
179.68	1726.44
179.90	1685.48
180.13	1697.77
180.35	1669.09
180.57	1658.85
180.79	1691.62
181.01	1673.19
181.23	1796.07
181.45	1742.82
181.67	1712.10
181.90	1738.73
182.12	1636.33
182.34	1658.85
182.56	1753.06
182.78	1658.85
183.00	1621.99
183.22	1769.44
183.44	1607.66
183.66	1812.45
183.89	1712.10
184.11	1677.29
184.33	1685.48
184.55	1789.92
184.77	1718.25
184.99	1730.53
185.21	1667.05
185.43	1769.44
185.65	1660.90
185.87	1781.73
186.10	1763.30
186.32	1787.88
186.54	1665.00
186.76	1794.02
186.98	1681.38
187.20	1665.00
187.42	1689.57
187.64	1718.25
187.86	1738.73
188.08	1746.92
188.30	1703.91
188.52	1607.66
188.75	1710.05
188.97	1755.11
189.19	1634.28
189.41	1640.42
189.63	1734.63
189.85	1728.49
190.07	1605.61
190.29	1591.27
190.51	1761.25
190.73	1685.48
190.95	1810.40
191.17	1705.96
191.39	1607.66
191.61	1603.56
191.84	1675.24
192.06	1689.57
192.28	1632.23
192.50	1906.66
192.72	1679.33
192.94	1673.19
193.16	1779.68
193.38	1695.72
193.60	1640.42
193.82	1705.96
194.04	1726.44
194.26	1769.44
194.48	1765.35
194.70	1675.24
194.92	1626.09
195.14	1683.43
195.36	1656.81
195.58	1701.86
195.80	1660.90
196.02	1738.73
196.24	1662.95
196.46	1691.62
196.69	1581.03
196.91	1804.26
197.13	1685.48
197.35	1669.09
197.57	1738.73
197.79	1718.25
198.01	1652.71
198.23	1701.86
198.45	1759.21
198.67	1564.65
198.89	1726.44
199.11	1722.34
199.33	1613.80
199.55	1552.36
199.77	1642.47
199.99	1722.34
200.21	1662.95
200.43	1746.92
200.65	1628.14
200.87	1587.18
201.09	1683.43
201.31	1599.46
201.53	1681.38
201.75	1662.95
201.97	1685.48
202.19	1687.53
202.41	1746.92
202.63	1798.12
202.85	1738.73
203.07	1685.48
203.29	1634.28
203.51	1638.38
203.73	1597.42
203.95	1789.92
204.17	1693.67
204.39	1726.44
204.61	1599.46
204.83	1714.15
205.05	1628.14
205.27	1710.05
205.49	1720.29
205.71	1783.78
205.93	1640.42
206.15	1656.81
206.37	1675.24
206.59	1759.21
206.81	1619.94
207.03	1632.23
207.25	1691.62
207.47	1697.77
207.69	1626.09
207.91	1763.30
208.13	1718.25
208.34	1685.48
208.56	1660.90
208.78	1701.86
209.00	1630.18
209.22	1673.19
209.44	1681.38
209.66	1669.09
209.88	1734.63
210.10	1624.04
210.32	1689.57
210.54	1681.38
210.76	1669.09
210.98	1730.53
211.20	1611.75
211.42	1701.86
211.64	1765.35
211.86	1683.43
212.08	1685.48
212.30	1804.26
212.52	1761.25
212.74	1732.58
212.96	1687.53
213.17	1722.34
213.39	1689.57
213.61	1806.31
213.83	1757.16
214.05	1595.37
214.27	1712.10
214.49	1550.31
214.71	1699.81
214.93	1834.98
215.15	1677.29
215.37	1779.68
215.59	1708.01
215.81	1724.39
216.03	1781.73
216.24	1673.19
216.46	1607.66
216.68	1734.63
216.90	1722.34
217.12	1718.25
217.34	1720.29
217.56	1644.52
217.78	1845.22
218.00	1744.87
218.22	1652.71
218.44	1761.25
218.66	1693.67
218.87	1855.46
219.09	1630.18
219.31	1685.48
219.53	1646.57
219.75	1652.71
219.97	1710.05
220.19	1724.39
220.41	1687.53
220.63	1800.16
220.85	1783.78
221.06	1660.90
221.28	1677.29
221.50	1726.44
221.72	1677.29
221.94	1775.59
222.16	1667.05
222.38	1708.01
222.60	1722.34
222.82	1667.05
223.03	1607.66
223.25	1654.76
223.47	1798.12
223.69	1781.73
223.91	1736.68
224.13	1669.09
224.35	1660.90
224.57	1685.48
224.78	1726.44
225.00	1658.85
225.22	1679.33
225.44	1671.14
225.66	1777.64
225.88	1748.97
226.10	1693.67
226.32	1701.86
226.53	1748.97
226.75	1642.47
226.97	1644.52
227.19	1642.47
227.41	1726.44
227.63	1691.62
227.85	1675.24
228.06	1656.81
228.28	1671.14
228.50	1728.49
228.72	1683.43
228.94	1673.19
229.16	1599.46
229.37	1636.33
229.59	1632.23
229.81	1779.68
230.03	1761.25
230.25	1617.90
230.47	1658.85
230.69	1636.33
230.90	1669.09
231.12	1667.05
231.34	1730.53
231.56	1708.01
231.78	1638.38
232.00	1621.99
232.21	1665.00
232.43	1634.28
232.65	1521.64
232.87	1693.67
233.09	1654.76
233.30	1650.66
233.52	1710.05
233.74	1705.96
233.96	1669.09
234.18	1656.81
234.40	1693.67
234.61	1779.68
234.83	1665.00
235.05	1601.51
235.27	1773.54
235.49	1839.08
235.70	1738.73
235.92	1779.68
236.14	1662.95
236.36	1738.73
236.58	1638.38
236.79	1767.40
237.01	1632.23
237.23	1642.47
237.45	1849.32
237.67	1611.75
237.88	1593.32
238.10	1701.86
238.32	1603.56
238.54	1619.94
238.76	1734.63
238.97	1742.82
239.19	1718.25
239.41	1734.63
239.63	1691.62
239.85	1722.34
240.06	1703.91
240.28	1697.77
240.50	1767.40
240.72	1712.10
240.93	1724.39
241.15	1757.16
241.37	1646.57
241.59	1687.53
241.81	1701.86
242.02	1675.24
242.24	1689.57
242.46	1716.20
242.68	1644.52
242.89	1669.09
243.11	1751.01
243.33	1691.62
243.55	1658.85
243.76	1734.63
243.98	1626.09
244.20	1615.85
244.42	1728.49
244.64	1730.53
244.85	1638.38
245.07	1640.42
245.29	1724.39
245.51	1701.86
245.72	1699.81
245.94	1785.83
246.16	1660.90
246.38	1710.05
246.59	1662.95
246.81	1636.33
247.03	1675.24
247.24	1607.66
247.46	1628.14
247.68	1673.19
247.90	1648.61
248.11	1703.91
248.33	1767.40
248.55	1626.09
248.77	1689.57
248.98	1697.77
249.20	1808.36
249.42	1675.24
249.64	1730.53
249.85	1691.62
250.07	1685.48
250.29	1712.10
250.50	1773.54
250.72	1628.14
250.94	1689.57
251.16	1746.92
251.37	1697.77
251.59	1732.58
251.81	1679.33
252.02	1769.44
252.24	1626.09
252.46	1755.11
252.68	1685.48
252.89	1638.38
253.11	1642.47
253.33	1759.21
253.54	1742.82
253.76	1632.23
253.98	1671.14
254.20	1724.39
254.41	1626.09
254.63	1656.81
254.85	1646.57
255.06	1732.58
255.28	1646.57
255.50	1697.77
255.71	1712.10
255.93	1599.46
256.15	1699.81
256.36	1728.49
256.58	1708.01
256.80	1679.33
257.02	1687.53
257.23	1699.81
257.45	1708.01
257.67	1693.67
257.88	1701.86
258.10	1722.34
258.32	1734.63
258.53	1703.91
258.75	1718.25
258.97	1632.23
259.18	1689.57
259.40	1695.72
259.62	1851.36
259.83	1771.49
260.05	1738.73
260.27	1970.15
260.48	1695.72
260.70	1710.05
260.92	1691.62
261.13	1728.49
261.35	1726.44
261.57	1660.90
261.78	1730.53
262.00	1708.01
262.22	1654.76
262.43	1658.85
262.65	1705.96
262.86	1699.81
263.08	1767.40
263.30	1648.61
263.51	1669.09
263.73	1626.09
263.95	1761.25
264.16	1644.52
264.38	1710.05
264.60	1640.42
264.81	1736.68
265.03	1701.86
265.25	1718.25
265.46	1701.86
265.68	1691.62
265.89	1789.92
266.11	1476.59
266.33	1742.82
266.54	1751.01
266.76	1685.48
266.98	1730.53
267.19	1726.44
267.41	1794.02
267.62	1640.42
267.84	1611.75
268.06	1693.67
268.27	1796.07
268.49	1839.08
268.70	1753.06
268.92	1689.57
269.14	1605.61
269.35	1609.70
269.57	1712.10
269.79	1724.39
270.00	1728.49
270.22	1742.82
270.43	1636.33
270.65	1595.37
270.87	1728.49
271.08	1718.25
271.30	1705.96
271.51	1679.33
271.73	1751.01
271.95	1673.19
272.16	1656.81
272.38	1769.44
272.59	1609.70
272.81	1646.57
273.02	1675.24
273.24	1708.01
273.46	1777.64
273.67	1603.56
273.89	1679.33
274.10	1705.96
274.32	1796.07
274.54	1712.10
274.75	1724.39
274.97	1601.51
275.18	1726.44
275.40	1736.68
275.61	1703.91
275.83	1634.28
276.05	1683.43
276.26	1714.15
276.48	1789.92
276.69	1673.19
276.91	1681.38
277.12	1732.58
277.34	1755.11
277.55	1755.11
277.77	1658.85
277.99	1667.05
278.20	1605.61
278.42	1644.52
278.63	1624.04
278.85	1583.08
279.06	1693.67
279.28	1724.39
279.49	1761.25
279.71	1699.81
279.93	1662.95
280.14	1724.39
280.36	1630.18
280.57	1738.73
280.79	1724.39
281.00	1662.95
281.22	1748.97
281.43	1820.64
281.65	1615.85
281.86	1669.09
282.08	1714.15
282.29	1757.16
282.51	1605.61
282.73	1603.56
282.94	1603.56
283.16	1746.92
283.37	1822.69
283.59	1724.39
283.80	1722.34
284.02	1634.28
284.23	1671.14
284.45	1685.48
284.66	1605.61
284.88	1638.38
285.09	1734.63
285.31	1732.58
285.52	1687.53
285.74	1632.23
285.95	1755.11
286.17	1689.57
286.38	1734.63
286.60	1607.66
286.81	1675.24
287.03	1720.29
287.24	1712.10
287.46	1740.77
287.67	1732.58
287.89	1839.08
288.10	1738.73
288.32	1681.38
288.53	1769.44
288.75	1685.48
288.96	1734.63
289.18	1673.19
289.39	1671.14
289.61	1679.33
289.82	1767.40
290.04	1828.84
290.25	1642.47
290.47	1703.91
290.68	1677.29
290.90	1710.05
291.11	1595.37
291.33	1791.97
291.54	1652.71
291.76	1605.61
291.97	1679.33
292.18	1808.36
292.40	1621.99
292.61	1652.71
292.83	1888.23
293.04	1753.06
293.26	1712.10
293.47	1716.20
293.69	1703.91
293.90	1695.72
294.12	1708.01
294.33	1695.72
294.55	1609.70
294.76	1699.81
294.97	1779.68
295.19	1814.50
295.40	1671.14
295.62	1738.73
295.83	1693.67
296.05	1632.23
296.26	1687.53
296.48	1609.70
296.69	1671.14
296.90	1681.38
297.12	1740.77
297.33	1726.44
297.55	1665.00
297.76	1820.64
297.98	1771.49
298.19	1693.67
298.41	1736.68
298.62	1607.66
298.83	1767.40
299.05	1693.67
299.26	1697.77
299.48	1601.51
299.69	1718.25
299.90	1683.43
300.12	1656.81
300.33	1734.63
300.55	1697.77
300.76	1703.91
300.98	1634.28
301.19	1783.78
301.40	1630.18
301.62	1718.25
301.83	1656.81
302.05	1697.77
302.26	1658.85
302.47	1673.19
302.69	1656.81
302.90	1673.19
303.12	1619.94
303.33	1685.48
303.54	1740.77
303.76	1687.53
303.97	1697.77
304.19	1742.82
304.40	1732.58
304.61	1697.77
304.83	1843.17
305.04	1736.68
305.26	1716.20
305.47	1687.53
305.68	1755.11
305.90	1609.70
306.11	1736.68
306.33	1714.15
306.54	1626.09
306.75	1599.46
306.97	1585.13
307.18	1615.85
307.39	1712.10
307.61	1724.39
307.82	1617.90
308.04	1746.92
308.25	1652.71
308.46	1656.81
308.68	1656.81
308.89	1712.10
309.10	1746.92
309.32	1787.88
309.53	1632.23
309.74	1728.49
309.96	1730.53
310.17	1781.73
310.39	1652.71
310.60	1691.62
310.81	1679.33
311.03	1673.19
311.24	1705.96
311.45	1730.53
311.67	1794.02
311.88	1667.05
312.09	1767.40
312.31	1632.23
312.52	1701.86
312.73	1767.40
312.95	1572.84
313.16	1607.66
313.37	1759.21
313.59	1720.29
313.80	1693.67
314.01	1740.77
314.23	1679.33
314.44	1714.15
314.65	1691.62
314.87	1607.66
315.08	1689.57
315.29	1656.81
315.51	1646.57
315.72	1624.04
315.93	1753.06
316.15	1755.11
316.36	1617.90
316.57	1736.68
316.79	1771.49
317.00	1714.15
317.21	1697.77
317.43	1624.04
317.64	1665.00
317.85	1603.56
318.07	1730.53
318.28	1697.77
318.49	1775.59
318.70	1808.36
318.92	1781.73
319.13	1818.60
319.34	1925.09
319.56	1769.44
319.77	1808.36
319.98	1744.87
320.20	1771.49
320.41	1802.21
320.62	1722.34
320.83	1656.81
321.05	1869.80
321.26	1798.12
321.47	1652.71
321.69	1789.92
321.90	1712.10
322.11	1644.52
322.32	1648.61
322.54	1755.11
322.75	1691.62
322.96	1828.84
323.18	1671.14
323.39	1576.94
323.60	1689.57
323.81	1689.57
324.03	1714.15
324.24	1734.63
324.45	1728.49
324.66	1597.42
324.88	1691.62
325.09	1791.97
325.30	1691.62
325.52	1703.91
325.73	1705.96
325.94	1609.70
326.15	1646.57
326.37	1642.47
326.58	1761.25
326.79	1724.39
327.00	1730.53
327.22	1726.44
327.43	1720.29
327.64	1624.04
327.85	1683.43
328.07	1691.62
328.28	1826.79
328.49	1619.94
328.70	1724.39
328.92	1779.68
329.13	1667.05
329.34	1685.48
329.55	1816.55
329.76	1710.05
329.98	1640.42
330.19	1771.49
330.40	1759.21
330.61	1720.29
330.83	1677.29
331.04	1693.67
331.25	1759.21
331.46	1595.37
331.68	1644.52
331.89	1736.68
332.10	1751.01
332.31	1654.76
332.52	1734.63
332.74	1656.81
332.95	1587.18
333.16	1701.86
333.37	1748.97
333.58	1638.38
333.80	1693.67
334.01	1630.18
334.22	1630.18
334.43	1726.44
334.64	1755.11
334.86	1576.94
335.07	1624.04
335.28	1724.39
335.49	1644.52
335.70	1728.49
335.92	1779.68
336.13	1871.84
336.34	1744.87
336.55	1679.33
336.76	1662.95
336.98	1578.98
337.19	1638.38
337.40	1755.11
337.61	1824.74
337.82	1675.24
338.04	1669.09
338.25	1556.46
338.46	1650.66
338.67	1662.95
338.88	1628.14
339.09	1603.56
339.31	1613.80
339.52	1624.04
339.73	1648.61
339.94	1636.33
340.15	1783.78
340.36	1660.90
340.58	1679.33
340.79	1638.38
341.00	1767.40
341.21	1703.91
341.42	1767.40
341.63	1660.90
341.85	1769.44
342.06	1685.48
342.27	1646.57
342.48	1779.68
342.69	1597.42
342.90	1681.38
343.12	1695.72
343.33	1693.67
343.54	1708.01
343.75	1732.58
343.96	1712.10
344.17	1597.42
344.38	1757.16
344.60	1683.43
344.81	1658.85
345.02	1720.29
345.23	1734.63
345.44	1785.83
345.65	1783.78
345.86	1730.53
346.07	1765.35
346.29	1568.74
346.50	1718.25
346.71	1716.20
346.92	1734.63
347.13	1834.98
347.34	1699.81
347.55	1701.86
347.76	1710.05
347.98	1640.42
348.19	1728.49
348.40	1714.15
348.61	1607.66
348.82	1841.12
349.03	1689.57
349.24	1597.42
349.45	1765.35
349.66	1552.36
349.88	1820.64
350.09	1636.33
350.30	1796.07
350.51	1769.44
350.72	1763.30
350.93	1648.61
351.14	1742.82
351.35	1789.92
351.56	1644.52
351.77	1685.48
351.99	1740.77
352.20	1779.68
352.41	1789.92
352.62	1546.22
352.83	1621.99
353.04	1689.57
353.25	1652.71
353.46	1722.34
353.67	1757.16
353.88	1591.27
354.09	1630.18
354.30	1667.05
354.52	1746.92
354.73	1677.29
354.94	1650.66
355.15	1662.95
355.36	1781.73
355.57	1720.29
355.78	1777.64
355.99	1644.52
356.20	1665.00
356.41	1763.30
356.62	1654.76
356.83	1714.15
357.04	1736.68
357.25	1673.19
357.46	1742.82
357.68	1640.42
357.89	1697.77
358.10	1687.53
358.31	1703.91
358.52	1689.57
358.73	1617.90
358.94	1652.71
359.15	1679.33
359.36	1671.14
359.57	1654.76
359.78	1714.15
359.99	1736.68
360.20	1665.00
360.41	1687.53
360.62	1738.73
360.83	1689.57
361.04	1712.10
361.25	1736.68
361.46	1710.05
361.67	1650.66
361.88	1689.57
362.09	1767.40
362.30	1697.77
362.51	1656.81
362.72	1644.52
362.93	1742.82
363.14	1708.01
363.35	1665.00
363.56	1695.72
363.78	1722.34
363.99	1759.21
364.20	1644.52
364.41	1732.58
364.62	1820.64
364.83	1646.57
365.04	1662.95
365.25	1740.77
365.46	1728.49
365.67	1667.05
365.88	1662.95
366.09	1693.67
366.30	1693.67
366.51	1722.34
366.72	1611.75
366.93	1697.77
367.14	1662.95
367.35	1703.91
367.56	1716.20
367.77	1800.16
367.98	1660.90
368.18	1728.49
368.39	1716.20
368.60	1640.42
368.81	1722.34
369.02	1683.43
369.23	1642.47
369.44	1593.32
369.65	1683.43
369.86	1804.26
370.07	1748.97
370.28	1656.81
370.49	1710.05
370.70	1787.88
370.91	1671.14
371.12	1644.52
371.33	1746.92
371.54	1634.28
371.75	1802.21
371.96	1558.50
372.17	1712.10
372.38	1738.73
372.59	1726.44
372.80	1665.00
373.01	1644.52
373.22	1638.38
373.43	1732.58
373.64	1630.18
373.85	1746.92
374.06	1794.02
374.26	1671.14
374.47	1740.77
374.68	1761.25
374.89	1794.02
375.10	1644.52
375.31	1697.77
375.52	1701.86
375.73	1722.34
375.94	1681.38
376.15	1816.55
376.36	1675.24
376.57	1615.85
376.78	1701.86
376.99	1722.34
377.20	1757.16
377.40	1662.95
377.61	1769.44
377.82	1701.86
378.03	1708.01
378.24	1738.73
378.45	1718.25
378.66	1726.44
378.87	1509.35
379.08	1677.29
379.29	1665.00
379.50	1769.44
379.71	1675.24
379.91	1771.49
380.12	1636.33
380.33	1730.53
380.54	1775.59
380.75	1691.62
380.96	1839.08
381.17	1656.81
381.38	1675.24
381.59	1761.25
381.80	1732.58
382.00	1783.78
382.21	1691.62
382.42	1771.49
382.63	1837.03
382.84	1734.63
383.05	1791.97
383.26	1761.25
383.47	1703.91
383.68	1796.07
383.88	1724.39
384.09	1738.73
384.30	1748.97
384.51	1783.78
384.72	1779.68
384.93	1630.18
385.14	1607.66
385.35	1726.44
385.55	1632.23
385.76	1746.92
385.97	1640.42
386.18	1607.66
386.39	1708.01
386.60	1640.42
386.81	1671.14
387.02	1648.61
387.22	1662.95
387.43	1740.77
387.64	1734.63
387.85	1814.50
388.06	2230.24
388.27	4280.25
388.48	6717.34
388.68	8411.01
388.89	9631.60
389.10	9799.53
389.31	8583.04
389.52	7612.30
389.73	6711.19
389.93	6219.68
390.14	5953.45
390.35	5287.86
390.56	4638.65
390.77	3829.70
390.98	2998.23
391.18	2494.43
391.39	2131.94
391.60	1845.22
391.81	1898.47
392.02	1656.81
392.23	1777.64
392.43	1759.21
392.64	1681.38
392.85	1691.62
393.06	1810.40
393.27	1683.43
393.47	1722.34
393.68	1617.90
393.89	1693.67
394.10	1845.22
394.31	1714.15
394.52	1681.38
394.72	1624.04
394.93	1808.36
395.14	1630.18
395.35	1718.25
395.56	1654.76
395.76	1656.81
395.97	1746.92
396.18	1834.98
396.39	1859.56
396.60	2013.15
396.80	1834.98
397.01	1906.66
397.22	1740.77
397.43	1822.69
397.64	1705.96
397.84	1796.07
398.05	1861.60
398.26	1755.11
398.47	1759.21
398.67	1843.17
398.88	1718.25
399.09	1710.05
399.30	1675.24
399.51	1708.01
399.71	1679.33
399.92	1662.95
400.13	1701.86
400.34	1665.00
400.54	1718.25
400.75	1800.16
400.96	1722.34
401.17	1785.83
401.37	1742.82
401.58	1695.72
401.79	1748.97
402.00	1785.83
402.21	2029.54
402.41	1947.62
402.62	2000.87
402.83	1998.82
403.04	1982.43
403.24	2111.46
403.45	1761.25
403.66	1865.70
403.87	1865.70
404.07	1896.42
404.28	1945.57
404.49	1857.51
404.70	1802.21
404.90	1714.15
405.11	1748.97
405.32	1665.00
405.52	1677.29
405.73	1640.42
405.94	1640.42
406.15	1751.01
406.35	1808.36
406.56	1796.07
406.77	1763.30
406.98	1740.77
407.18	1611.75
407.39	1785.83
407.60	1697.77
407.80	1796.07
408.01	1746.92
408.22	1722.34
408.43	1640.42
408.63	1769.44
408.84	1738.73
409.05	1775.59
409.25	1613.80
409.46	1638.38
409.67	1675.24
409.88	1642.47
410.08	1791.97
410.29	1628.14
410.50	1779.68
410.70	1763.30
410.91	1675.24
411.12	1728.49
411.32	1740.77
411.53	1679.33
411.74	1775.59
411.95	1775.59
412.15	1773.54
412.36	1738.73
412.57	1796.07
412.77	1806.31
412.98	1710.05
413.19	1681.38
413.39	1769.44
413.60	1759.21
413.81	1720.29
414.01	1671.14
414.22	1789.92
414.43	1775.59
414.63	1730.53
414.84	1798.12
415.05	1720.29
415.25	1665.00
415.46	1677.29
415.67	1722.34
415.87	1654.76
416.08	1650.66
416.29	1687.53
416.49	1677.29
416.70	1605.61
416.91	1726.44
417.11	1593.32
417.32	1814.50
417.53	1814.50
417.73	1693.67
417.94	1675.24
418.15	1697.77
418.35	1791.97
418.56	1675.24
418.77	1767.40
418.97	1705.96
419.18	1632.23
419.38	1583.08
419.59	1669.09
419.80	1863.65
420.00	1652.71
420.21	1697.77
420.42	1660.90
420.62	1695.72
420.83	1634.28
421.04	1701.86
421.24	1671.14
421.45	1746.92
421.65	1652.71
421.86	1699.81
422.07	1642.47
422.27	1667.05
422.48	1710.05
422.69	1599.46
422.89	1722.34
423.10	1724.39
423.30	1630.18
423.51	1667.05
423.72	1628.14
423.92	1697.77
424.13	1646.57
424.33	1689.57
424.54	1697.77
424.75	1744.87
424.95	1765.35
425.16	1701.86
425.36	1656.81
425.57	1748.97
425.78	1720.29
425.98	1763.30
426.19	1662.95
426.39	1624.04
426.60	1740.77
426.81	1783.78
427.01	1701.86
427.22	1603.56
427.42	1578.98
427.63	1685.48
427.83	1806.31
428.04	1800.16
428.25	1742.82
428.45	1771.49
428.66	1771.49
428.86	1630.18
429.07	1662.95
429.28	1718.25
429.48	1736.68
429.69	1697.77
429.89	1718.25
430.10	1591.27
430.30	1763.30
430.51	1748.97
430.71	1630.18
430.92	1742.82
431.13	1642.47
431.33	1748.97
431.54	1617.90
431.74	1781.73
431.95	1855.46
432.15	1667.05
432.36	1699.81
432.56	1808.36
432.77	1837.03
432.98	1830.88
433.18	1724.39
433.39	1738.73
433.59	1736.68
433.80	1869.80
434.00	1851.36
434.21	1748.97
434.41	1617.90
434.62	1867.75
434.82	1636.33
435.03	1642.47
435.23	1679.33
435.44	1552.36
435.64	1667.05
435.85	1748.97
436.06	1767.40
436.26	1834.98
436.47	1683.43
436.67	1699.81
436.88	1699.81
437.08	1742.82
437.29	1773.54
437.49	1779.68
437.70	1810.40
437.90	1736.68
438.11	1892.32
438.31	1798.12
438.52	1806.31
438.72	1837.03
438.93	1890.28
439.13	1779.68
439.34	1777.64
439.54	1783.78
439.75	1738.73
439.95	1802.21
440.16	1716.20
440.36	1734.63
440.57	1796.07
440.77	1746.92
440.98	1755.11
441.18	1738.73
441.39	1636.33
441.59	1691.62
441.80	1777.64
442.00	1716.20
442.21	1824.74
442.41	1656.81
442.62	1767.40
442.82	1673.19
443.02	1677.29
443.23	1759.21
443.43	1654.76
443.64	1787.88
443.84	1673.19
444.05	1744.87
444.25	1693.67
444.46	1701.86
444.66	1675.24
444.87	1812.45
445.07	1677.29
445.28	1730.53
445.48	1847.27
445.69	1708.01
445.89	1920.99
446.09	1742.82
446.30	2025.44
446.50	2697.17
446.71	3790.79
446.91	4417.47
447.12	4755.38
447.32	4804.53
447.53	4399.04
447.73	3911.62
447.93	3473.36
448.14	3352.52
448.34	3184.59
448.55	2899.92
448.75	2719.70
448.96	2627.54
449.16	2461.66
449.36	2226.14
449.57	2050.02
449.77	1900.52
449.98	1759.21
450.18	1834.98
450.39	1834.98
450.59	1796.07
450.79	1748.97
451.00	1667.05
451.20	1820.64
451.41	1740.77
451.61	1767.40
451.81	1740.77
452.02	1703.91
452.22	1691.62
452.43	1705.96
452.63	1720.29
