SpectraSuite Data File
++++++++++++++++++++++++++++++++++++
Date: Mon Jun 06 12:11:57 CEST 2016
User: root
Dark Spectrum Present: No
Reference Spectrum Present: No
Number of Sampled Component Spectra: 1
Spectrometers: USB4C02835
Integration Time (usec): 100000 (USB4C02835)
Spectra Averaged: 1 (USB4C02835)
Boxcar Smoothing: 0 (USB4C02835)
Correct for Electrical Dark: No (USB4C02835)
Strobe/Lamp Enabled: No (USB4C02835)
Correct for Detector Non-linearity: No (USB4C02835)
Correct for Stray Light: No (USB4C02835)
Number of Pixels in Processed Spectrum: 3648
>>>>>Begin Processed Spectral Data<<<<<
177.47	1519.59
177.69	1519.59
177.91	1519.59
178.13	1484.78
178.36	1445.87
178.58	1658.85
178.80	1753.06
179.02	1572.84
179.24	1605.61
179.46	1660.90
179.68	1755.11
179.90	1628.14
180.13	1701.86
180.35	1671.14
180.57	1679.33
180.79	1716.20
181.01	1746.92
181.23	1685.48
181.45	1730.53
181.67	1634.28
181.90	1701.86
182.12	1681.38
182.34	1675.24
182.56	1669.09
182.78	1777.64
183.00	1791.97
183.22	1701.86
183.44	1560.55
183.66	1925.09
183.89	1855.46
184.11	1730.53
184.33	1683.43
184.55	1789.92
184.77	1681.38
184.99	1673.19
185.21	1652.71
185.43	1828.84
185.65	1658.85
185.87	1705.96
186.10	1779.68
186.32	1783.78
186.54	1636.33
186.76	1746.92
186.98	1751.01
187.20	1730.53
187.42	1718.25
187.64	1751.01
187.86	1703.91
188.08	1699.81
188.30	1650.66
188.52	1669.09
188.75	1726.44
188.97	1746.92
189.19	1654.76
189.41	1681.38
189.63	1744.87
189.85	1619.94
190.07	1574.89
190.29	1601.51
190.51	1722.34
190.73	1630.18
190.95	1757.16
191.17	1634.28
191.39	1648.61
191.61	1603.56
191.84	1675.24
192.06	1751.01
192.28	1638.38
192.50	1886.18
192.72	1714.15
192.94	1679.33
193.16	1763.30
193.38	1710.05
193.60	1642.47
193.82	1683.43
194.04	1777.64
194.26	1710.05
194.48	1611.75
194.70	1658.85
194.92	1662.95
195.14	1759.21
195.36	1581.03
195.58	1763.30
195.80	1689.57
196.02	1662.95
196.24	1697.77
196.46	1720.29
196.69	1572.84
196.91	1820.64
197.13	1662.95
197.35	1685.48
197.57	1767.40
197.79	1687.53
198.01	1753.06
198.23	1806.31
198.45	1703.91
198.67	1607.66
198.89	1644.52
199.11	1730.53
199.33	1701.86
199.55	1576.94
199.77	1673.19
199.99	1701.86
200.21	1703.91
200.43	1757.16
200.65	1638.38
200.87	1693.67
201.09	1689.57
201.31	1703.91
201.53	1712.10
201.75	1685.48
201.97	1708.01
202.19	1710.05
202.41	1738.73
202.63	1800.16
202.85	1681.38
203.07	1736.68
203.29	1550.31
203.51	1570.79
203.73	1613.80
203.95	1877.99
204.17	1669.09
204.39	1685.48
204.61	1691.62
204.83	1755.11
205.05	1765.35
205.27	1771.49
205.49	1822.69
205.71	1765.35
205.93	1589.22
206.15	1671.14
206.37	1701.86
206.59	1722.34
206.81	1595.37
207.03	1646.57
207.25	1585.13
207.47	1716.20
207.69	1662.95
207.91	1718.25
208.13	1759.21
208.34	1691.62
208.56	1621.99
208.78	1814.50
209.00	1595.37
209.22	1705.96
209.44	1656.81
209.66	1753.06
209.88	1691.62
210.10	1636.33
210.32	1630.18
210.54	1777.64
210.76	1681.38
210.98	1732.58
211.20	1599.46
211.42	1738.73
211.64	1753.06
211.86	1716.20
212.08	1654.76
212.30	1714.15
212.52	1648.61
212.74	1607.66
212.96	1699.81
213.17	1705.96
213.39	1675.24
213.61	1834.98
213.83	1726.44
214.05	1634.28
214.27	1722.34
214.49	1638.38
214.71	1646.57
214.93	1789.92
215.15	1665.00
215.37	1722.34
215.59	1613.80
215.81	1705.96
216.03	1814.50
216.24	1660.90
216.46	1675.24
216.68	1628.14
216.90	1732.58
217.12	1759.21
217.34	1656.81
217.56	1773.54
217.78	1753.06
218.00	1757.16
218.22	1757.16
218.44	1714.15
218.66	1669.09
218.87	1832.93
219.09	1703.91
219.31	1730.53
219.53	1763.30
219.75	1648.61
219.97	1681.38
220.19	1748.97
220.41	1740.77
220.63	1779.68
220.85	1699.81
221.06	1607.66
221.28	1746.92
221.50	1652.71
221.72	1699.81
221.94	1652.71
222.16	1679.33
222.38	1708.01
222.60	1767.40
222.82	1724.39
223.03	1794.02
223.25	1589.22
223.47	1710.05
223.69	1869.80
223.91	1728.49
224.13	1615.85
224.35	1669.09
224.57	1806.31
224.78	1755.11
225.00	1617.90
225.22	1656.81
225.44	1675.24
225.66	1677.29
225.88	1628.14
226.10	1718.25
226.32	1746.92
226.53	1812.45
226.75	1693.67
226.97	1701.86
227.19	1628.14
227.41	1656.81
227.63	1699.81
227.85	1560.55
228.06	1695.72
228.28	1736.68
228.50	1722.34
228.72	1624.04
228.94	1681.38
229.16	1605.61
229.37	1693.67
229.59	1632.23
229.81	1705.96
230.03	1683.43
230.25	1634.28
230.47	1632.23
230.69	1566.70
230.90	1648.61
231.12	1669.09
231.34	1675.24
231.56	1751.01
231.78	1593.32
232.00	1720.29
232.21	1765.35
232.43	1796.07
232.65	1589.22
232.87	1660.90
233.09	1595.37
233.30	1734.63
233.52	1703.91
233.74	1609.70
233.96	1660.90
234.18	1748.97
234.40	1718.25
234.61	1841.12
234.83	1712.10
235.05	1585.13
235.27	1863.65
235.49	1726.44
235.70	1730.53
235.92	1732.58
236.14	1673.19
236.36	1839.08
236.58	1662.95
236.79	1742.82
237.01	1597.42
237.23	1667.05
237.45	1714.15
237.67	1626.09
237.88	1689.57
238.10	1800.16
238.32	1642.47
238.54	1693.67
238.76	1685.48
238.97	1607.66
239.19	1636.33
239.41	1804.26
239.63	1806.31
239.85	1722.34
240.06	1738.73
240.28	1667.05
240.50	1697.77
240.72	1726.44
240.93	1703.91
241.15	1779.68
241.37	1605.61
241.59	1773.54
241.81	1681.38
242.02	1679.33
242.24	1705.96
242.46	1681.38
242.68	1648.61
242.89	1701.86
243.11	1724.39
243.33	1667.05
243.55	1626.09
243.76	1753.06
243.98	1644.52
244.20	1652.71
244.42	1681.38
244.64	1675.24
244.85	1650.66
245.07	1718.25
245.29	1759.21
245.51	1681.38
245.72	1705.96
245.94	1769.44
246.16	1787.88
246.38	1740.77
246.59	1669.09
246.81	1611.75
247.03	1673.19
247.24	1550.31
247.46	1603.56
247.68	1775.59
247.90	1640.42
248.11	1728.49
248.33	1751.01
248.55	1665.00
248.77	1669.09
248.98	1718.25
249.20	1734.63
249.42	1732.58
249.64	1726.44
249.85	1714.15
250.07	1683.43
250.29	1722.34
250.50	1638.38
250.72	1607.66
250.94	1669.09
251.16	1802.21
251.37	1759.21
251.59	1679.33
251.81	1671.14
252.02	1744.87
252.24	1654.76
252.46	1886.18
252.68	1679.33
252.89	1634.28
253.11	1578.98
253.33	1765.35
253.54	1703.91
253.76	1603.56
253.98	1726.44
254.20	1730.53
254.41	1611.75
254.63	1718.25
254.85	1640.42
255.06	1669.09
255.28	1742.82
255.50	1675.24
255.71	1660.90
255.93	1732.58
256.15	1652.71
256.36	1769.44
256.58	1632.23
256.80	1673.19
257.02	1699.81
257.23	1718.25
257.45	1744.87
257.67	1705.96
257.88	1662.95
258.10	1718.25
258.32	1738.73
258.53	1726.44
258.75	1777.64
258.97	1607.66
259.18	1693.67
259.40	1691.62
259.62	1773.54
259.83	1779.68
260.05	1746.92
260.27	1810.40
260.48	1800.16
260.70	1656.81
260.92	1722.34
261.13	1748.97
261.35	1675.24
261.57	1712.10
261.78	1634.28
262.00	1632.23
262.22	1714.15
262.43	1673.19
262.65	1675.24
262.86	1658.85
263.08	1736.68
263.30	1718.25
263.51	1609.70
263.73	1642.47
263.95	1814.50
264.16	1650.66
264.38	1669.09
264.60	1730.53
264.81	1724.39
265.03	1701.86
265.25	1759.21
265.46	1667.05
265.68	1730.53
265.89	1665.00
266.11	1570.79
266.33	1660.90
266.54	1814.50
266.76	1740.77
266.98	1656.81
267.19	1761.25
267.41	1744.87
267.62	1673.19
267.84	1611.75
268.06	1652.71
268.27	1683.43
268.49	1755.11
268.70	1728.49
268.92	1742.82
269.14	1628.14
269.35	1621.99
269.57	1677.29
269.79	1761.25
270.00	1626.09
270.22	1779.68
270.43	1675.24
270.65	1581.03
270.87	1712.10
271.08	1720.29
271.30	1787.88
271.51	1673.19
271.73	1712.10
271.95	1755.11
272.16	1705.96
272.38	1699.81
272.59	1646.57
272.81	1705.96
273.02	1726.44
273.24	1708.01
273.46	1744.87
273.67	1568.74
273.89	1587.18
274.10	1656.81
274.32	1736.68
274.54	1699.81
274.75	1728.49
274.97	1619.94
275.18	1761.25
275.40	1734.63
275.61	1693.67
275.83	1736.68
276.05	1626.09
276.26	1740.77
276.48	1673.19
276.69	1656.81
276.91	1683.43
277.12	1798.12
277.34	1724.39
277.55	1738.73
277.77	1708.01
277.99	1687.53
278.20	1562.60
278.42	1703.91
278.63	1636.33
278.85	1677.29
279.06	1642.47
279.28	1730.53
279.49	1693.67
279.71	1763.30
279.93	1644.52
280.14	1710.05
280.36	1708.01
280.57	1732.58
280.79	1742.82
281.00	1576.94
281.22	1693.67
281.43	1757.16
281.65	1583.08
281.86	1687.53
282.08	1714.15
282.29	1761.25
282.51	1624.04
282.73	1525.74
282.94	1628.14
283.16	1742.82
283.37	1748.97
283.59	1683.43
283.80	1710.05
284.02	1669.09
284.23	1757.16
284.45	1697.77
284.66	1685.48
284.88	1689.57
285.09	1652.71
285.31	1654.76
285.52	1599.46
285.74	1628.14
285.95	1763.30
286.17	1724.39
286.38	1621.99
286.60	1708.01
286.81	1652.71
287.03	1673.19
287.24	1695.72
287.46	1712.10
287.67	1738.73
287.89	1785.83
288.10	1701.86
288.32	1703.91
288.53	1665.00
288.75	1656.81
288.96	1658.85
289.18	1693.67
289.39	1679.33
289.61	1748.97
289.82	1859.56
290.04	1808.36
290.25	1566.70
290.47	1675.24
290.68	1695.72
290.90	1765.35
291.11	1662.95
291.33	1708.01
291.54	1673.19
291.76	1703.91
291.97	1687.53
292.18	1703.91
292.40	1632.23
292.61	1626.09
292.83	1812.45
293.04	1705.96
293.26	1658.85
293.47	1593.32
293.69	1640.42
293.90	1685.48
294.12	1712.10
294.33	1628.14
294.55	1652.71
294.76	1654.76
294.97	1693.67
295.19	1882.08
295.40	1648.61
295.62	1693.67
295.83	1759.21
296.05	1591.27
296.26	1744.87
296.48	1640.42
296.69	1689.57
296.90	1697.77
297.12	1767.40
297.33	1740.77
297.55	1671.14
297.76	1699.81
297.98	1751.01
298.19	1675.24
298.41	1658.85
298.62	1662.95
298.83	1765.35
299.05	1665.00
299.26	1654.76
299.48	1728.49
299.69	1722.34
299.90	1665.00
300.12	1615.85
300.33	1728.49
300.55	1712.10
300.76	1761.25
300.98	1583.08
301.19	1812.45
301.40	1683.43
301.62	1648.61
301.83	1771.49
302.05	1673.19
302.26	1712.10
302.47	1787.88
302.69	1638.38
302.90	1699.81
303.12	1497.07
303.33	1732.58
303.54	1832.93
303.76	1708.01
303.97	1736.68
304.19	1740.77
304.40	1550.31
304.61	1787.88
304.83	1859.56
305.04	1714.15
305.26	1714.15
305.47	1677.29
305.68	1705.96
305.90	1628.14
306.11	1705.96
306.33	1667.05
306.54	1654.76
306.75	1693.67
306.97	1585.13
307.18	1595.37
307.39	1720.29
307.61	1716.20
307.82	1652.71
308.04	1738.73
308.25	1624.04
308.46	1677.29
308.68	1636.33
308.89	1714.15
309.10	1802.21
309.32	1755.11
309.53	1607.66
309.74	1748.97
309.96	1689.57
310.17	1791.97
310.39	1679.33
310.60	1697.77
310.81	1632.23
311.03	1587.18
311.24	1660.90
311.45	1681.38
311.67	1755.11
311.88	1648.61
312.09	1609.70
312.31	1601.51
312.52	1697.77
312.73	1705.96
312.95	1636.33
313.16	1648.61
313.37	1789.92
313.59	1673.19
313.80	1732.58
314.01	1714.15
314.23	1595.37
314.44	1648.61
314.65	1656.81
314.87	1654.76
315.08	1667.05
315.29	1640.42
315.51	1699.81
315.72	1681.38
315.93	1798.12
316.15	1697.77
316.36	1634.28
316.57	1693.67
316.79	1775.59
317.00	1642.47
317.21	1742.82
317.43	1574.89
317.64	1724.39
317.85	1667.05
318.07	1662.95
318.28	1689.57
318.49	1779.68
318.70	1894.37
318.92	1839.08
319.13	1787.88
319.34	1800.16
319.56	1800.16
319.77	1787.88
319.98	1736.68
320.20	1763.30
320.41	1726.44
320.62	1689.57
320.83	1624.04
321.05	1884.13
321.26	1740.77
321.47	1718.25
321.69	1755.11
321.90	1689.57
322.11	1609.70
322.32	1736.68
322.54	1744.87
322.75	1644.52
322.96	1791.97
323.18	1609.70
323.39	1585.13
323.60	1652.71
323.81	1724.39
324.03	1648.61
324.24	1699.81
324.45	1669.09
324.66	1710.05
324.88	1726.44
325.09	1714.15
325.30	1708.01
325.52	1660.90
325.73	1730.53
325.94	1728.49
326.15	1603.56
326.37	1642.47
326.58	1716.20
326.79	1746.92
327.00	1640.42
327.22	1740.77
327.43	1660.90
327.64	1695.72
327.85	1693.67
328.07	1755.11
328.28	1783.78
328.49	1615.85
328.70	1660.90
328.92	1740.77
329.13	1703.91
329.34	1802.21
329.55	1755.11
329.76	1697.77
329.98	1650.66
330.19	1724.39
330.40	1732.58
330.61	1654.76
330.83	1667.05
331.04	1599.46
331.25	1783.78
331.46	1632.23
331.68	1636.33
331.89	1769.44
332.10	1634.28
332.31	1630.18
332.52	1650.66
332.74	1736.68
332.95	1595.37
333.16	1695.72
333.37	1714.15
333.58	1650.66
333.80	1617.90
334.01	1617.90
334.22	1712.10
334.43	1714.15
334.64	1658.85
334.86	1599.46
335.07	1585.13
335.28	1761.25
335.49	1572.84
335.70	1658.85
335.92	1687.53
336.13	1861.60
336.34	1742.82
336.55	1710.05
336.76	1665.00
336.98	1597.42
337.19	1665.00
337.40	1779.68
337.61	1779.68
337.82	1691.62
338.04	1791.97
338.25	1619.94
338.46	1685.48
338.67	1628.14
338.88	1697.77
339.09	1669.09
339.31	1644.52
339.52	1628.14
339.73	1636.33
339.94	1673.19
340.15	1783.78
340.36	1642.47
340.58	1658.85
340.79	1615.85
341.00	1691.62
341.21	1648.61
341.42	1720.29
341.63	1716.20
341.85	1669.09
342.06	1693.67
342.27	1636.33
342.48	1722.34
342.69	1601.51
342.90	1624.04
343.12	1765.35
343.33	1656.81
343.54	1757.16
343.75	1736.68
343.96	1679.33
344.17	1630.18
344.38	1683.43
344.60	1632.23
344.81	1626.09
345.02	1658.85
345.23	1785.83
345.44	1808.36
345.65	1654.76
345.86	1708.01
346.07	1738.73
346.29	1718.25
346.50	1742.82
346.71	1665.00
346.92	1691.62
347.13	1828.84
347.34	1724.39
347.55	1605.61
347.76	1689.57
347.98	1656.81
348.19	1648.61
348.40	1728.49
348.61	1705.96
348.82	1849.32
349.03	1736.68
349.24	1607.66
349.45	1740.77
349.66	1519.59
349.88	1736.68
350.09	1658.85
350.30	1718.25
350.51	1804.26
350.72	1732.58
350.93	1689.57
351.14	1564.65
351.35	1746.92
351.56	1691.62
351.77	1689.57
351.99	1746.92
352.20	1736.68
352.41	1791.97
352.62	1654.76
352.83	1662.95
353.04	1687.53
353.25	1720.29
353.46	1740.77
353.67	1800.16
353.88	1515.50
354.09	1720.29
354.30	1699.81
354.52	1718.25
354.73	1630.18
354.94	1669.09
355.15	1675.24
355.36	1804.26
355.57	1615.85
355.78	1744.87
355.99	1613.80
356.20	1693.67
356.41	1851.36
356.62	1761.25
356.83	1685.48
357.04	1828.84
357.25	1640.42
357.46	1695.72
357.68	1667.05
357.89	1701.86
358.10	1705.96
358.31	1675.24
358.52	1675.24
358.73	1640.42
358.94	1667.05
359.15	1648.61
359.36	1718.25
359.57	1691.62
359.78	1619.94
359.99	1777.64
360.20	1644.52
360.41	1724.39
360.62	1683.43
360.83	1722.34
361.04	1624.04
361.25	1650.66
361.46	1802.21
361.67	1685.48
361.88	1738.73
362.09	1777.64
362.30	1693.67
362.51	1685.48
362.72	1656.81
362.93	1728.49
363.14	1689.57
363.35	1683.43
363.56	1660.90
363.78	1726.44
363.99	1746.92
364.20	1693.67
364.41	1599.46
364.62	1826.79
364.83	1685.48
365.04	1607.66
365.25	1742.82
365.46	1763.30
365.67	1705.96
365.88	1662.95
366.09	1665.00
366.30	1652.71
366.51	1714.15
366.72	1619.94
366.93	1689.57
367.14	1665.00
367.35	1826.79
367.56	1665.00
367.77	1816.55
367.98	1693.67
368.18	1806.31
368.39	1646.57
368.60	1703.91
368.81	1740.77
369.02	1695.72
369.23	1640.42
369.44	1558.50
369.65	1552.36
369.86	1718.25
370.07	1736.68
370.28	1654.76
370.49	1685.48
370.70	1689.57
370.91	1671.14
371.12	1632.23
371.33	1744.87
371.54	1669.09
371.75	1800.16
371.96	1609.70
372.17	1710.05
372.38	1726.44
372.59	1730.53
372.80	1642.47
373.01	1673.19
373.22	1685.48
373.43	1695.72
373.64	1660.90
373.85	1701.86
374.06	1849.32
374.26	1701.86
374.47	1730.53
374.68	1822.69
374.89	1720.29
375.10	1644.52
375.31	1714.15
375.52	1667.05
375.73	1677.29
375.94	1603.56
376.15	1728.49
376.36	1675.24
376.57	1671.14
376.78	1658.85
376.99	1751.01
377.20	1781.73
377.40	1634.28
377.61	1830.88
377.82	1669.09
378.03	1771.49
378.24	1755.11
378.45	1701.86
378.66	1718.25
378.87	1587.18
379.08	1587.18
379.29	1667.05
379.50	1755.11
379.71	1652.71
379.91	1705.96
380.12	1689.57
380.33	1691.62
380.54	1679.33
380.75	1642.47
380.96	1621.99
381.17	1650.66
381.38	1689.57
381.59	1716.20
381.80	1746.92
382.00	1798.12
382.21	1740.77
382.42	1839.08
382.63	1841.12
382.84	1699.81
383.05	1753.06
383.26	1794.02
383.47	1689.57
383.68	1720.29
383.88	1781.73
384.09	1728.49
384.30	1763.30
384.51	1738.73
384.72	1613.80
384.93	1589.22
385.14	1687.53
385.35	1738.73
385.55	1669.09
385.76	1720.29
385.97	1701.86
386.18	1601.51
386.39	1738.73
386.60	1609.70
386.81	1703.91
387.02	1613.80
387.22	1595.37
387.43	1681.38
387.64	1769.44
387.85	1904.61
388.06	2209.76
388.27	4235.20
388.48	7028.63
388.68	8431.49
388.89	9688.94
389.10	10033.00
389.31	8595.32
389.52	7505.81
389.73	6647.71
389.93	6317.98
390.14	5828.52
390.35	5240.75
390.56	4491.20
390.77	3698.63
390.98	3012.56
391.18	2586.58
391.39	2123.74
391.60	1853.41
391.81	1853.41
392.02	1673.19
392.23	1847.27
392.43	1705.96
392.64	1773.54
392.85	1701.86
393.06	1753.06
393.27	1710.05
393.47	1734.63
393.68	1644.52
393.89	1701.86
394.10	1798.12
394.31	1671.14
394.52	1599.46
394.72	1624.04
394.93	1781.73
395.14	1689.57
395.35	1751.01
395.56	1646.57
395.76	1783.78
395.97	1759.21
396.18	1861.60
396.39	1857.51
396.60	2127.84
396.80	1845.22
397.01	1767.40
397.22	1824.74
397.43	1787.88
397.64	1779.68
397.84	1804.26
398.05	1884.13
398.26	1679.33
398.47	1738.73
398.67	1716.20
398.88	1701.86
399.09	1720.29
399.30	1644.52
399.51	1777.64
399.71	1673.19
399.92	1640.42
400.13	1701.86
400.34	1681.38
400.54	1695.72
400.75	1789.92
400.96	1673.19
401.17	1853.41
401.37	1779.68
401.58	1728.49
401.79	1691.62
402.00	1861.60
402.21	1976.29
402.41	1933.28
402.62	2015.20
402.83	2025.44
403.04	1937.38
403.24	2117.60
403.45	1841.12
403.66	1855.46
403.87	1931.23
404.07	1920.99
404.28	1877.99
404.49	1855.46
404.70	1898.47
404.90	1773.54
405.11	1685.48
405.32	1691.62
405.52	1705.96
405.73	1675.24
405.94	1621.99
406.15	1701.86
406.35	1746.92
406.56	1726.44
406.77	1673.19
406.98	1687.53
407.18	1591.27
407.39	1800.16
407.60	1728.49
407.80	1705.96
408.01	1611.75
408.22	1728.49
408.43	1656.81
408.63	1773.54
408.84	1779.68
409.05	1763.30
409.25	1693.67
409.46	1673.19
409.67	1693.67
409.88	1671.14
410.08	1761.25
410.29	1714.15
410.50	1771.49
410.70	1673.19
410.91	1718.25
411.12	1732.58
411.32	1662.95
411.53	1656.81
411.74	1734.63
411.95	1746.92
412.15	1744.87
412.36	1734.63
412.57	1802.21
412.77	1728.49
412.98	1695.72
413.19	1744.87
413.39	1724.39
413.60	1787.88
413.81	1785.83
414.01	1714.15
414.22	1746.92
414.43	1755.11
414.63	1654.76
414.84	1708.01
415.05	1662.95
415.25	1593.32
415.46	1687.53
415.67	1646.57
415.87	1683.43
416.08	1712.10
416.29	1667.05
416.49	1718.25
416.70	1628.14
416.91	1716.20
417.11	1730.53
417.32	1791.97
417.53	1658.85
417.73	1718.25
417.94	1689.57
418.15	1730.53
418.35	1695.72
418.56	1712.10
418.77	1871.84
418.97	1718.25
419.18	1658.85
419.38	1480.68
419.59	1683.43
419.80	1751.01
420.00	1671.14
420.21	1687.53
420.42	1753.06
420.62	1716.20
420.83	1652.71
421.04	1665.00
421.24	1665.00
421.45	1730.53
421.65	1767.40
421.86	1644.52
422.07	1714.15
422.27	1716.20
422.48	1697.77
422.69	1646.57
422.89	1648.61
423.10	1685.48
423.30	1662.95
423.51	1753.06
423.72	1755.11
423.92	1783.78
424.13	1673.19
424.33	1759.21
424.54	1761.25
424.75	1763.30
424.95	1808.36
425.16	1636.33
425.36	1689.57
425.57	1753.06
425.78	1734.63
425.98	1712.10
426.19	1689.57
426.39	1728.49
426.60	1718.25
426.81	1724.39
427.01	1736.68
427.22	1665.00
427.42	1572.84
427.63	1595.37
427.83	1794.02
428.04	1806.31
428.25	1746.92
428.45	1693.67
428.66	1726.44
428.86	1681.38
429.07	1748.97
429.28	1728.49
429.48	1621.99
429.69	1568.74
429.89	1683.43
430.10	1656.81
430.30	1689.57
430.51	1732.58
430.71	1665.00
430.92	1658.85
431.13	1583.08
431.33	1755.11
431.54	1753.06
431.74	1806.31
431.95	1849.32
432.15	1564.65
432.36	1693.67
432.56	1796.07
432.77	1775.59
432.98	1796.07
433.18	1736.68
433.39	1693.67
433.59	1654.76
433.80	1734.63
434.00	1830.88
434.21	1679.33
434.41	1714.15
434.62	1824.74
434.82	1669.09
435.03	1656.81
435.23	1624.04
435.44	1642.47
435.64	1734.63
435.85	1732.58
436.06	1765.35
436.26	1761.25
436.47	1759.21
436.67	1695.72
436.88	1759.21
437.08	1761.25
437.29	1738.73
437.49	1679.33
437.70	1742.82
437.90	1660.90
438.11	1777.64
438.31	1767.40
438.52	1892.32
438.72	1826.79
438.93	1886.18
439.13	1771.49
439.34	1746.92
439.54	1722.34
439.75	1824.74
439.95	1808.36
440.16	1734.63
440.36	1789.92
440.57	1783.78
440.77	1740.77
440.98	1699.81
441.18	1720.29
441.39	1642.47
441.59	1642.47
441.80	1853.41
442.00	1777.64
442.21	1734.63
442.41	1699.81
442.62	1695.72
442.82	1665.00
443.02	1685.48
443.23	1687.53
443.43	1689.57
443.64	1824.74
443.84	1744.87
444.05	1882.08
444.25	1701.86
444.46	1734.63
444.66	1646.57
444.87	1751.01
445.07	1564.65
445.28	1716.20
445.48	1785.83
445.69	1718.25
445.89	1834.98
446.09	1718.25
446.30	1955.81
446.50	2609.11
446.71	3669.96
446.91	4356.03
447.12	4865.97
447.32	4839.35
447.53	4257.73
447.73	3966.92
447.93	3526.60
448.14	3389.39
448.34	3229.65
448.55	2971.60
448.75	2801.62
448.96	2734.04
449.16	2383.84
449.36	2322.40
449.57	2105.31
449.77	1943.52
449.98	1728.49
450.18	1732.58
450.39	1806.31
450.59	1787.88
450.79	1699.81
451.00	1708.01
451.20	1708.01
451.41	1748.97
451.61	1726.44
451.81	1634.28
452.02	1714.15
452.22	1669.09
452.43	1665.00
452.63	1757.16
