SpectraSuite Data File
++++++++++++++++++++++++++++++++++++
Date: Mon Jun 06 13:38:17 CEST 2016
User: root
Dark Spectrum Present: No
Reference Spectrum Present: No
Number of Sampled Component Spectra: 1
Spectrometers: USB4C02835
Integration Time (usec): 100000 (USB4C02835)
Spectra Averaged: 1 (USB4C02835)
Boxcar Smoothing: 0 (USB4C02835)
Correct for Electrical Dark: No (USB4C02835)
Strobe/Lamp Enabled: No (USB4C02835)
Correct for Detector Non-linearity: No (USB4C02835)
Correct for Stray Light: No (USB4C02835)
Number of Pixels in Processed Spectrum: 3648
>>>>>Begin Processed Spectral Data<<<<<
177.47	1445.87
177.69	1445.87
177.91	1445.87
178.13	1474.54
178.36	1454.06
178.58	1638.38
178.80	1701.86
179.02	1636.33
179.24	1658.85
179.46	1693.67
179.68	1812.45
179.90	1730.53
180.13	1687.53
180.35	1665.00
180.57	1591.27
180.79	1787.88
181.01	1652.71
181.23	1757.16
181.45	1828.84
181.67	1695.72
181.90	1687.53
182.12	1644.52
182.34	1613.80
182.56	1722.34
182.78	1671.14
183.00	1693.67
183.22	1667.05
183.44	1613.80
183.66	1841.12
183.89	1787.88
184.11	1671.14
184.33	1705.96
184.55	1853.41
184.77	1693.67
184.99	1705.96
185.21	1642.47
185.43	1798.12
185.65	1638.38
185.87	1755.11
186.10	1791.97
186.32	1900.52
186.54	1738.73
186.76	1628.14
186.98	1816.55
187.20	1718.25
187.42	1593.32
187.64	1679.33
187.86	1716.20
188.08	1798.12
188.30	1689.57
188.52	1695.72
188.75	1771.49
188.97	1775.59
189.19	1665.00
189.41	1656.81
189.63	1779.68
189.85	1714.15
190.07	1621.99
190.29	1632.23
190.51	1763.30
190.73	1613.80
190.95	1710.05
191.17	1660.90
191.39	1589.22
191.61	1669.09
191.84	1671.14
192.06	1681.38
192.28	1540.07
192.50	1857.51
192.72	1724.39
192.94	1738.73
193.16	1726.44
193.38	1708.01
193.60	1589.22
193.82	1654.76
194.04	1769.44
194.26	1677.29
194.48	1716.20
194.70	1652.71
194.92	1720.29
195.14	1773.54
195.36	1699.81
195.58	1742.82
195.80	1703.91
196.02	1597.42
196.24	1671.14
196.46	1658.85
196.69	1705.96
196.91	1816.55
197.13	1675.24
197.35	1695.72
197.57	1777.64
197.79	1744.87
198.01	1689.57
198.23	1699.81
198.45	1708.01
198.67	1617.90
198.89	1716.20
199.11	1794.02
199.33	1591.27
199.55	1574.89
199.77	1775.59
199.99	1685.48
200.21	1630.18
200.43	1712.10
200.65	1687.53
200.87	1589.22
201.09	1736.68
201.31	1597.42
201.53	1751.01
201.75	1671.14
201.97	1654.76
202.19	1705.96
202.41	1693.67
202.63	1875.94
202.85	1677.29
203.07	1740.77
203.29	1748.97
203.51	1665.00
203.73	1656.81
203.95	1767.40
204.17	1714.15
204.39	1658.85
204.61	1689.57
204.83	1626.09
205.05	1734.63
205.27	1685.48
205.49	1810.40
205.71	1691.62
205.93	1619.94
206.15	1685.48
206.37	1677.29
206.59	1730.53
206.81	1675.24
207.03	1671.14
207.25	1632.23
207.47	1781.73
207.69	1660.90
207.91	1708.01
208.13	1771.49
208.34	1652.71
208.56	1656.81
208.78	1687.53
209.00	1683.43
209.22	1705.96
209.44	1634.28
209.66	1673.19
209.88	1667.05
210.10	1705.96
210.32	1738.73
210.54	1746.92
210.76	1751.01
210.98	1753.06
211.20	1595.37
211.42	1665.00
211.64	1800.16
211.86	1775.59
212.08	1714.15
212.30	1726.44
212.52	1679.33
212.74	1665.00
212.96	1740.77
213.17	1732.58
213.39	1652.71
213.61	1804.26
213.83	1658.85
214.05	1621.99
214.27	1695.72
214.49	1599.46
214.71	1765.35
214.93	1771.49
215.15	1714.15
215.37	1726.44
215.59	1595.37
215.81	1665.00
216.03	1738.73
216.24	1771.49
216.46	1726.44
216.68	1710.05
216.90	1701.86
217.12	1638.38
217.34	1660.90
217.56	1751.01
217.78	1712.10
218.00	1695.72
218.22	1761.25
218.44	1718.25
218.66	1705.96
218.87	1818.60
219.09	1730.53
219.31	1611.75
219.53	1712.10
219.75	1630.18
219.97	1675.24
220.19	1691.62
220.41	1617.90
220.63	1785.83
220.85	1746.92
221.06	1677.29
221.28	1800.16
221.50	1734.63
221.72	1662.95
221.94	1796.07
222.16	1656.81
222.38	1775.59
222.60	1748.97
222.82	1701.86
223.03	1796.07
223.25	1689.57
223.47	1724.39
223.69	1789.92
223.91	1650.66
224.13	1613.80
224.35	1669.09
224.57	1744.87
224.78	1714.15
225.00	1660.90
225.22	1652.71
225.44	1730.53
225.66	1656.81
225.88	1703.91
226.10	1812.45
226.32	1656.81
226.53	1736.68
226.75	1728.49
226.97	1621.99
227.19	1689.57
227.41	1632.23
227.63	1660.90
227.85	1634.28
228.06	1716.20
228.28	1738.73
228.50	1714.15
228.72	1685.48
228.94	1693.67
229.16	1646.57
229.37	1601.51
229.59	1615.85
229.81	1787.88
230.03	1621.99
230.25	1628.14
230.47	1681.38
230.69	1607.66
230.90	1742.82
231.12	1609.70
231.34	1724.39
231.56	1787.88
231.78	1675.24
232.00	1656.81
232.21	1748.97
232.43	1669.09
232.65	1617.90
232.87	1636.33
233.09	1732.58
233.30	1630.18
233.52	1697.77
233.74	1669.09
233.96	1665.00
234.18	1691.62
234.40	1650.66
234.61	1810.40
234.83	1654.76
235.05	1683.43
235.27	1757.16
235.49	1734.63
235.70	1671.14
235.92	1714.15
236.14	1740.77
236.36	1800.16
236.58	1630.18
236.79	1755.11
237.01	1720.29
237.23	1638.38
237.45	1787.88
237.67	1662.95
237.88	1697.77
238.10	1738.73
238.32	1644.52
238.54	1615.85
238.76	1693.67
238.97	1619.94
239.19	1599.46
239.41	1718.25
239.63	1667.05
239.85	1710.05
240.06	1669.09
240.28	1675.24
240.50	1744.87
240.72	1701.86
240.93	1693.67
241.15	1740.77
241.37	1755.11
241.59	1787.88
241.81	1654.76
242.02	1660.90
242.24	1726.44
242.46	1738.73
242.68	1658.85
242.89	1740.77
243.11	1769.44
243.33	1703.91
243.55	1720.29
243.76	1691.62
243.98	1636.33
244.20	1638.38
244.42	1667.05
244.64	1718.25
244.85	1613.80
245.07	1736.68
245.29	1714.15
245.51	1716.20
245.72	1667.05
245.94	1755.11
246.16	1763.30
246.38	1755.11
246.59	1671.14
246.81	1699.81
247.03	1699.81
247.24	1624.04
247.46	1597.42
247.68	1712.10
247.90	1742.82
248.11	1667.05
248.33	1794.02
248.55	1628.14
248.77	1753.06
248.98	1742.82
249.20	1695.72
249.42	1699.81
249.64	1693.67
249.85	1667.05
250.07	1607.66
250.29	1783.78
250.50	1814.50
250.72	1648.61
250.94	1656.81
251.16	1869.80
251.37	1736.68
251.59	1730.53
251.81	1716.20
252.02	1845.22
252.24	1665.00
252.46	1767.40
252.68	1708.01
252.89	1740.77
253.11	1673.19
253.33	1806.31
253.54	1785.83
253.76	1667.05
253.98	1662.95
254.20	1785.83
254.41	1601.51
254.63	1722.34
254.85	1665.00
255.06	1722.34
255.28	1660.90
255.50	1677.29
255.71	1595.37
255.93	1644.52
256.15	1722.34
256.36	1689.57
256.58	1650.66
256.80	1693.67
257.02	1675.24
257.23	1636.33
257.45	1689.57
257.67	1742.82
257.88	1634.28
258.10	1722.34
258.32	1648.61
258.53	1753.06
258.75	1710.05
258.97	1654.76
259.18	1740.77
259.40	1705.96
259.62	1771.49
259.83	1755.11
260.05	1751.01
260.27	2009.06
260.48	1689.57
260.70	1644.52
260.92	1765.35
261.13	1724.39
261.35	1798.12
261.57	1673.19
261.78	1581.03
262.00	1591.27
262.22	1728.49
262.43	1677.29
262.65	1628.14
262.86	1697.77
263.08	1794.02
263.30	1677.29
263.51	1667.05
263.73	1587.18
263.95	1742.82
264.16	1615.85
264.38	1660.90
264.60	1738.73
264.81	1669.09
265.03	1697.77
265.25	1671.14
265.46	1716.20
265.68	1726.44
265.89	1759.21
266.11	1601.51
266.33	1716.20
266.54	1726.44
266.76	1718.25
266.98	1697.77
267.19	1818.60
267.41	1781.73
267.62	1654.76
267.84	1667.05
268.06	1720.29
268.27	1740.77
268.49	1742.82
268.70	1773.54
268.92	1681.38
269.14	1619.94
269.35	1615.85
269.57	1742.82
269.79	1681.38
270.00	1605.61
270.22	1779.68
270.43	1714.15
270.65	1591.27
270.87	1644.52
271.08	1769.44
271.30	1708.01
271.51	1693.67
271.73	1671.14
271.95	1724.39
272.16	1650.66
272.38	1759.21
272.59	1646.57
272.81	1798.12
273.02	1724.39
273.24	1642.47
273.46	1753.06
273.67	1652.71
273.89	1644.52
274.10	1671.14
274.32	1785.83
274.54	1722.34
274.75	1677.29
274.97	1730.53
275.18	1705.96
275.40	1767.40
275.61	1615.85
275.83	1675.24
276.05	1574.89
276.26	1714.15
276.48	1693.67
276.69	1669.09
276.91	1583.08
277.12	1812.45
277.34	1720.29
277.55	1753.06
277.77	1697.77
277.99	1683.43
278.20	1626.09
278.42	1665.00
278.63	1669.09
278.85	1689.57
279.06	1597.42
279.28	1769.44
279.49	1722.34
279.71	1703.91
279.93	1720.29
280.14	1634.28
280.36	1646.57
280.57	1757.16
280.79	1755.11
281.00	1654.76
281.22	1638.38
281.43	1712.10
281.65	1558.50
281.86	1652.71
282.08	1726.44
282.29	1826.79
282.51	1589.22
282.73	1720.29
282.94	1628.14
283.16	1761.25
283.37	1830.88
283.59	1695.72
283.80	1701.86
284.02	1708.01
284.23	1675.24
284.45	1673.19
284.66	1630.18
284.88	1673.19
285.09	1726.44
285.31	1705.96
285.52	1699.81
285.74	1599.46
285.95	1697.77
286.17	1728.49
286.38	1714.15
286.60	1693.67
286.81	1644.52
287.03	1644.52
287.24	1767.40
287.46	1697.77
287.67	1681.38
287.89	1781.73
288.10	1703.91
288.32	1728.49
288.53	1847.27
288.75	1673.19
288.96	1693.67
289.18	1665.00
289.39	1738.73
289.61	1677.29
289.82	1820.64
290.04	1767.40
290.25	1646.57
290.47	1701.86
290.68	1714.15
290.90	1720.29
291.11	1667.05
291.33	1839.08
291.54	1648.61
291.76	1642.47
291.97	1656.81
292.18	1693.67
292.40	1667.05
292.61	1718.25
292.83	1892.32
293.04	1751.01
293.26	1753.06
293.47	1726.44
293.69	1677.29
293.90	1646.57
294.12	1830.88
294.33	1687.53
294.55	1652.71
294.76	1732.58
294.97	1753.06
295.19	1767.40
295.40	1665.00
295.62	1728.49
295.83	1712.10
296.05	1665.00
296.26	1800.16
296.48	1591.27
296.69	1665.00
296.90	1761.25
297.12	1689.57
297.33	1740.77
297.55	1726.44
297.76	1746.92
297.98	1796.07
298.19	1761.25
298.41	1681.38
298.62	1628.14
298.83	1740.77
299.05	1722.34
299.26	1734.63
299.48	1732.58
299.69	1632.23
299.90	1697.77
300.12	1667.05
300.33	1677.29
300.55	1648.61
300.76	1757.16
300.98	1691.62
301.19	1859.56
301.40	1648.61
301.62	1679.33
301.83	1708.01
302.05	1669.09
302.26	1744.87
302.47	1705.96
302.69	1689.57
302.90	1660.90
303.12	1552.36
303.33	1691.62
303.54	1806.31
303.76	1738.73
303.97	1773.54
304.19	1753.06
304.40	1646.57
304.61	1748.97
304.83	1839.08
305.04	1728.49
305.26	1665.00
305.47	1626.09
305.68	1650.66
305.90	1626.09
306.11	1802.21
306.33	1665.00
306.54	1710.05
306.75	1626.09
306.97	1589.22
307.18	1607.66
307.39	1687.53
307.61	1679.33
307.82	1673.19
308.04	1800.16
308.25	1675.24
308.46	1705.96
308.68	1720.29
308.89	1673.19
309.10	1734.63
309.32	1675.24
309.53	1660.90
309.74	1742.82
309.96	1662.95
310.17	1761.25
310.39	1681.38
310.60	1714.15
310.81	1781.73
311.03	1624.04
311.24	1738.73
311.45	1753.06
311.67	1845.22
311.88	1796.07
312.09	1658.85
312.31	1652.71
312.52	1751.01
312.73	1671.14
312.95	1574.89
313.16	1640.42
313.37	1751.01
313.59	1728.49
313.80	1757.16
314.01	1718.25
314.23	1642.47
314.44	1679.33
314.65	1585.13
314.87	1574.89
315.08	1677.29
315.29	1667.05
315.51	1652.71
315.72	1656.81
315.93	1812.45
316.15	1779.68
316.36	1605.61
316.57	1685.48
316.79	1779.68
317.00	1679.33
317.21	1798.12
317.43	1660.90
317.64	1687.53
317.85	1636.33
318.07	1617.90
318.28	1726.44
318.49	1728.49
318.70	1937.38
318.92	1781.73
319.13	1814.50
319.34	1834.98
319.56	1751.01
319.77	1841.12
319.98	1771.49
320.20	1769.44
320.41	1722.34
320.62	1751.01
320.83	1648.61
321.05	1765.35
321.26	1769.44
321.47	1646.57
321.69	1730.53
321.90	1654.76
322.11	1701.86
322.32	1744.87
322.54	1720.29
322.75	1669.09
322.96	1859.56
323.18	1648.61
323.39	1628.14
323.60	1640.42
323.81	1703.91
324.03	1693.67
324.24	1632.23
324.45	1701.86
324.66	1748.97
324.88	1771.49
325.09	1730.53
325.30	1701.86
325.52	1736.68
325.73	1693.67
325.94	1628.14
326.15	1617.90
326.37	1708.01
326.58	1683.43
326.79	1746.92
327.00	1679.33
327.22	1669.09
327.43	1691.62
327.64	1632.23
327.85	1734.63
328.07	1712.10
328.28	1781.73
328.49	1679.33
328.70	1685.48
328.92	1736.68
329.13	1658.85
329.34	1689.57
329.55	1830.88
329.76	1656.81
329.98	1693.67
330.19	1775.59
330.40	1732.58
330.61	1689.57
330.83	1732.58
331.04	1615.85
331.25	1683.43
331.46	1599.46
331.68	1683.43
331.89	1791.97
332.10	1701.86
332.31	1650.66
332.52	1681.38
332.74	1810.40
332.95	1671.14
333.16	1699.81
333.37	1748.97
333.58	1656.81
333.80	1701.86
334.01	1574.89
334.22	1718.25
334.43	1650.66
334.64	1691.62
334.86	1574.89
335.07	1718.25
335.28	1765.35
335.49	1665.00
335.70	1740.77
335.92	1748.97
336.13	1824.74
336.34	1779.68
336.55	1683.43
336.76	1658.85
336.98	1656.81
337.19	1646.57
337.40	1794.02
337.61	1818.60
337.82	1738.73
338.04	1759.21
338.25	1648.61
338.46	1732.58
338.67	1585.13
338.88	1673.19
339.09	1669.09
339.31	1751.01
339.52	1665.00
339.73	1601.51
339.94	1681.38
340.15	1771.49
340.36	1693.67
340.58	1744.87
340.79	1691.62
341.00	1773.54
341.21	1587.18
341.42	1841.12
341.63	1689.57
341.85	1724.39
342.06	1736.68
342.27	1703.91
342.48	1730.53
342.69	1630.18
342.90	1671.14
343.12	1787.88
343.33	1642.47
343.54	1781.73
343.75	1779.68
343.96	1658.85
344.17	1660.90
344.38	1632.23
344.60	1742.82
344.81	1624.04
345.02	1679.33
345.23	1814.50
345.44	1726.44
345.65	1748.97
345.86	1736.68
346.07	1781.73
346.29	1626.09
346.50	1742.82
346.71	1673.19
346.92	1822.69
347.13	1791.97
347.34	1656.81
347.55	1705.96
347.76	1755.11
347.98	1617.90
348.19	1726.44
348.40	1804.26
348.61	1681.38
348.82	1787.88
349.03	1757.16
349.24	1724.39
349.45	1763.30
349.66	1603.56
349.88	1771.49
350.09	1640.42
350.30	1789.92
350.51	1800.16
350.72	1761.25
350.93	1740.77
351.14	1697.77
351.35	1699.81
351.56	1693.67
351.77	1673.19
351.99	1701.86
352.20	1777.64
352.41	1779.68
352.62	1650.66
352.83	1681.38
353.04	1677.29
353.25	1703.91
353.46	1720.29
353.67	1742.82
353.88	1628.14
354.09	1722.34
354.30	1695.72
354.52	1755.11
354.73	1619.94
354.94	1601.51
355.15	1730.53
355.36	1789.92
355.57	1644.52
355.78	1736.68
355.99	1718.25
356.20	1671.14
356.41	1755.11
356.62	1689.57
356.83	1714.15
357.04	1773.54
357.25	1550.31
357.46	1667.05
357.68	1593.32
357.89	1660.90
358.10	1691.62
358.31	1656.81
358.52	1695.72
358.73	1679.33
358.94	1665.00
359.15	1705.96
359.36	1748.97
359.57	1714.15
359.78	1574.89
359.99	1740.77
360.20	1712.10
360.41	1705.96
360.62	1748.97
360.83	1738.73
361.04	1689.57
361.25	1746.92
361.46	1820.64
361.67	1726.44
361.88	1720.29
362.09	1730.53
362.30	1775.59
362.51	1681.38
362.72	1658.85
362.93	1714.15
363.14	1781.73
363.35	1705.96
363.56	1665.00
363.78	1734.63
363.99	1773.54
364.20	1679.33
364.41	1634.28
364.62	1816.55
364.83	1669.09
365.04	1701.86
365.25	1740.77
365.46	1742.82
365.67	1624.04
365.88	1603.56
366.09	1771.49
366.30	1699.81
366.51	1685.48
366.72	1583.08
366.93	1701.86
367.14	1669.09
367.35	1804.26
367.56	1705.96
367.77	1736.68
367.98	1720.29
368.18	1675.24
368.39	1724.39
368.60	1671.14
368.81	1726.44
369.02	1730.53
369.23	1730.53
369.44	1599.46
369.65	1636.33
369.86	1781.73
370.07	1734.63
370.28	1695.72
370.49	1712.10
370.70	1710.05
370.91	1660.90
371.12	1597.42
371.33	1775.59
371.54	1626.09
371.75	1785.83
371.96	1572.84
372.17	1724.39
372.38	1701.86
372.59	1736.68
372.80	1673.19
373.01	1693.67
373.22	1705.96
373.43	1738.73
373.64	1656.81
373.85	1755.11
374.06	1837.03
374.26	1689.57
374.47	1738.73
374.68	1714.15
374.89	1683.43
375.10	1708.01
375.31	1710.05
375.52	1671.14
375.73	1740.77
375.94	1626.09
376.15	1771.49
376.36	1675.24
376.57	1638.38
376.78	1712.10
376.99	1570.79
377.20	1779.68
377.40	1658.85
377.61	1720.29
377.82	1581.03
378.03	1757.16
378.24	1796.07
378.45	1615.85
378.66	1757.16
378.87	1542.12
379.08	1578.98
379.29	1726.44
379.50	1738.73
379.71	1648.61
379.91	1746.92
380.12	1699.81
380.33	1667.05
380.54	1687.53
380.75	1644.52
380.96	1675.24
381.17	1757.16
381.38	1755.11
381.59	1734.63
381.80	1722.34
382.00	1861.60
382.21	1712.10
382.42	1808.36
382.63	1896.42
382.84	1753.06
383.05	1732.58
383.26	1744.87
383.47	1667.05
383.68	1755.11
383.88	1789.92
384.09	1787.88
384.30	1826.79
384.51	1687.53
384.72	1753.06
384.93	1634.28
385.14	1732.58
385.35	1798.12
385.55	1628.14
385.76	1769.44
385.97	1642.47
386.18	1634.28
386.39	1669.09
386.60	1720.29
386.81	1699.81
387.02	1658.85
387.22	1673.19
387.43	1732.58
387.64	1751.01
387.85	1865.70
388.06	2195.42
388.27	4204.48
388.48	6782.87
388.68	8249.22
388.89	9588.59
389.10	9586.54
389.31	8540.03
389.52	7354.26
389.73	6680.47
389.93	6326.18
390.14	5879.72
390.35	5066.67
390.56	4550.59
390.77	3733.45
390.98	2996.18
391.18	2496.47
391.39	2090.98
391.60	1927.14
391.81	1783.78
392.02	1730.53
392.23	1824.74
392.43	1708.01
392.64	1787.88
392.85	1687.53
393.06	1771.49
393.27	1699.81
393.47	1693.67
393.68	1779.68
393.89	1662.95
394.10	1753.06
394.31	1630.18
394.52	1693.67
394.72	1697.77
394.93	1687.53
395.14	1585.13
395.35	1738.73
395.56	1628.14
395.76	1753.06
395.97	1740.77
396.18	1787.88
396.39	1814.50
396.60	2041.82
396.80	1875.94
397.01	1855.46
397.22	1773.54
397.43	1812.45
397.64	1656.81
397.84	1798.12
398.05	1828.84
398.26	1708.01
398.47	1781.73
398.67	1789.92
398.88	1705.96
399.09	1783.78
399.30	1712.10
399.51	1738.73
399.71	1691.62
399.92	1648.61
400.13	1761.25
400.34	1638.38
400.54	1634.28
400.75	1820.64
400.96	1781.73
401.17	1820.64
401.37	1662.95
401.58	1738.73
401.79	1722.34
402.00	1869.80
402.21	2011.11
402.41	2060.26
402.62	1996.77
402.83	2017.25
403.04	1951.71
403.24	2043.87
403.45	1884.13
403.66	1925.09
403.87	1863.65
404.07	1791.97
404.28	1931.23
404.49	1877.99
404.70	1744.87
404.90	1767.40
405.11	1730.53
405.32	1753.06
405.52	1675.24
405.73	1617.90
405.94	1669.09
406.15	1718.25
406.35	1753.06
406.56	1808.36
406.77	1683.43
406.98	1658.85
407.18	1638.38
407.39	1843.17
407.60	1699.81
407.80	1763.30
408.01	1617.90
408.22	1722.34
408.43	1673.19
408.63	1697.77
408.84	1720.29
409.05	1763.30
409.25	1669.09
409.46	1669.09
409.67	1699.81
409.88	1714.15
410.08	1724.39
410.29	1744.87
410.50	1691.62
410.70	1697.77
410.91	1683.43
411.12	1773.54
411.32	1705.96
411.53	1662.95
411.74	1767.40
411.95	1789.92
412.15	1746.92
412.36	1779.68
412.57	1742.82
412.77	1789.92
412.98	1738.73
413.19	1716.20
413.39	1828.84
413.60	1724.39
413.81	1775.59
414.01	1705.96
414.22	1718.25
414.43	1839.08
414.63	1757.16
414.84	1796.07
415.05	1781.73
415.25	1640.42
415.46	1740.77
415.67	1648.61
415.87	1744.87
416.08	1740.77
416.29	1677.29
416.49	1763.30
416.70	1703.91
416.91	1665.00
417.11	1699.81
417.32	1695.72
417.53	1685.48
417.73	1742.82
417.94	1689.57
418.15	1744.87
418.35	1779.68
418.56	1689.57
418.77	1785.83
418.97	1665.00
419.18	1673.19
419.38	1642.47
419.59	1701.86
419.80	1837.03
420.00	1669.09
420.21	1687.53
420.42	1812.45
420.62	1734.63
420.83	1630.18
421.04	1736.68
421.24	1757.16
421.45	1761.25
421.65	1755.11
421.86	1665.00
422.07	1644.52
422.27	1767.40
422.48	1718.25
422.69	1703.91
422.89	1644.52
423.10	1630.18
423.30	1578.98
423.51	1732.58
423.72	1665.00
423.92	1701.86
424.13	1634.28
424.33	1716.20
424.54	1726.44
424.75	1669.09
424.95	1804.26
425.16	1744.87
425.36	1660.90
425.57	1753.06
425.78	1732.58
425.98	1693.67
426.19	1705.96
426.39	1685.48
426.60	1677.29
426.81	1771.49
427.01	1695.72
427.22	1621.99
427.42	1628.14
427.63	1695.72
427.83	1800.16
428.04	1816.55
428.25	1742.82
428.45	1779.68
428.66	1732.58
428.86	1734.63
429.07	1601.51
429.28	1583.08
429.48	1695.72
429.69	1632.23
429.89	1658.85
430.10	1615.85
430.30	1787.88
430.51	1746.92
430.71	1656.81
430.92	1710.05
431.13	1701.86
431.33	1748.97
431.54	1734.63
431.74	1816.55
431.95	1810.40
432.15	1689.57
432.36	1732.58
432.56	1718.25
432.77	1820.64
432.98	1771.49
433.18	1730.53
433.39	1689.57
433.59	1677.29
433.80	1798.12
434.00	1867.75
434.21	1689.57
434.41	1611.75
434.62	1820.64
434.82	1615.85
435.03	1681.38
435.23	1763.30
435.44	1673.19
435.64	1677.29
435.85	1734.63
436.06	1755.11
436.26	1787.88
436.47	1714.15
436.67	1650.66
436.88	1751.01
437.08	1757.16
437.29	1834.98
437.49	1736.68
437.70	1769.44
437.90	1718.25
438.11	1869.80
438.31	1769.44
438.52	1847.27
438.72	1847.27
438.93	1865.70
439.13	1755.11
439.34	1810.40
439.54	1726.44
439.75	1839.08
439.95	1763.30
440.16	1646.57
440.36	1734.63
440.57	1785.83
440.77	1736.68
440.98	1783.78
441.18	1761.25
441.39	1744.87
441.59	1681.38
441.80	1818.60
442.00	1771.49
442.21	1781.73
442.41	1691.62
442.62	1828.84
442.82	1722.34
443.02	1800.16
443.23	1789.92
443.43	1685.48
443.64	1828.84
443.84	1609.70
444.05	1755.11
444.25	1679.33
444.46	1679.33
444.66	1800.16
444.87	1757.16
445.07	1677.29
445.28	1742.82
445.48	1855.46
445.69	1845.22
445.89	1882.08
446.09	1775.59
446.30	2019.30
446.50	2676.70
446.71	3618.76
446.91	4292.54
447.12	4650.94
447.32	4876.21
447.53	4294.59
447.73	3901.38
447.93	3557.32
448.14	3227.60
448.34	3174.35
448.55	2990.03
448.75	2840.53
448.96	2758.61
449.16	2426.84
449.36	2326.49
449.57	2142.18
449.77	1839.08
449.98	1757.16
450.18	1832.93
450.39	1804.26
450.59	1804.26
450.79	1771.49
451.00	1785.83
451.20	1693.67
451.41	1681.38
451.61	1812.45
451.81	1736.68
452.02	1716.20
452.22	1824.74
452.43	1689.57
452.63	1667.05
