SpectraSuite Data File
++++++++++++++++++++++++++++++++++++
Date: Mon Jun 06 13:01:17 CEST 2016
User: root
Dark Spectrum Present: No
Reference Spectrum Present: No
Number of Sampled Component Spectra: 1
Spectrometers: USB4C02835
Integration Time (usec): 100000 (USB4C02835)
Spectra Averaged: 1 (USB4C02835)
Boxcar Smoothing: 0 (USB4C02835)
Correct for Electrical Dark: No (USB4C02835)
Strobe/Lamp Enabled: No (USB4C02835)
Correct for Detector Non-linearity: No (USB4C02835)
Correct for Stray Light: No (USB4C02835)
Number of Pixels in Processed Spectrum: 3648
>>>>>Begin Processed Spectral Data<<<<<
177.47	1454.06
177.69	1454.06
177.91	1454.06
178.13	1505.26
178.36	1458.15
178.58	1687.53
178.80	1691.62
179.02	1574.89
179.24	1675.24
179.46	1681.38
179.68	1701.86
179.90	1703.91
180.13	1640.42
180.35	1667.05
180.57	1697.77
180.79	1814.50
181.01	1679.33
181.23	1812.45
181.45	1755.11
181.67	1732.58
181.90	1755.11
182.12	1685.48
182.34	1634.28
182.56	1669.09
182.78	1759.21
183.00	1638.38
183.22	1722.34
183.44	1566.70
183.66	1783.78
183.89	1767.40
184.11	1693.67
184.33	1738.73
184.55	1718.25
184.77	1708.01
184.99	1722.34
185.21	1691.62
185.43	1820.64
185.65	1574.89
185.87	1722.34
186.10	1763.30
186.32	1826.79
186.54	1718.25
186.76	1751.01
186.98	1722.34
187.20	1656.81
187.42	1689.57
187.64	1699.81
187.86	1726.44
188.08	1748.97
188.30	1675.24
188.52	1675.24
188.75	1767.40
188.97	1824.74
189.19	1673.19
189.41	1642.47
189.63	1691.62
189.85	1716.20
190.07	1660.90
190.29	1660.90
190.51	1716.20
190.73	1662.95
190.95	1890.28
191.17	1656.81
191.39	1636.33
191.61	1685.48
191.84	1599.46
192.06	1656.81
192.28	1646.57
192.50	1816.55
192.72	1761.25
192.94	1681.38
193.16	1730.53
193.38	1744.87
193.60	1675.24
193.82	1648.61
194.04	1734.63
194.26	1673.19
194.48	1761.25
194.70	1703.91
194.92	1667.05
195.14	1665.00
195.36	1644.52
195.58	1689.57
195.80	1652.71
196.02	1656.81
196.24	1675.24
196.46	1626.09
196.69	1642.47
196.91	1865.70
197.13	1681.38
197.35	1593.32
197.57	1841.12
197.79	1726.44
198.01	1638.38
198.23	1771.49
198.45	1660.90
198.67	1703.91
198.89	1617.90
199.11	1689.57
199.33	1665.00
199.55	1529.83
199.77	1677.29
199.99	1798.12
200.21	1679.33
200.43	1691.62
200.65	1687.53
200.87	1568.74
201.09	1691.62
201.31	1638.38
201.53	1701.86
201.75	1738.73
201.97	1742.82
202.19	1646.57
202.41	1687.53
202.63	1800.16
202.85	1787.88
203.07	1722.34
203.29	1669.09
203.51	1583.08
203.73	1712.10
203.95	1849.32
204.17	1740.77
204.39	1699.81
204.61	1656.81
204.83	1632.23
205.05	1626.09
205.27	1730.53
205.49	1839.08
205.71	1681.38
205.93	1603.56
206.15	1652.71
206.37	1705.96
206.59	1722.34
206.81	1667.05
207.03	1673.19
207.25	1675.24
207.47	1755.11
207.69	1681.38
207.91	1740.77
208.13	1822.69
208.34	1753.06
208.56	1681.38
208.78	1771.49
209.00	1648.61
209.22	1624.04
209.44	1677.29
209.66	1681.38
209.88	1673.19
210.10	1656.81
210.32	1605.61
210.54	1746.92
210.76	1683.43
210.98	1742.82
211.20	1642.47
211.42	1724.39
211.64	1761.25
211.86	1746.92
212.08	1767.40
212.30	1675.24
212.52	1742.82
212.74	1626.09
212.96	1740.77
213.17	1767.40
213.39	1742.82
213.61	1710.05
213.83	1771.49
214.05	1560.55
214.27	1775.59
214.49	1652.71
214.71	1665.00
214.93	1837.03
215.15	1701.86
215.37	1763.30
215.59	1626.09
215.81	1679.33
216.03	1755.11
216.24	1738.73
216.46	1740.77
216.68	1734.63
216.90	1708.01
217.12	1667.05
217.34	1736.68
217.56	1693.67
217.78	1800.16
218.00	1759.21
218.22	1714.15
218.44	1736.68
218.66	1742.82
218.87	1826.79
219.09	1679.33
219.31	1658.85
219.53	1703.91
219.75	1683.43
219.97	1710.05
220.19	1757.16
220.41	1753.06
220.63	1796.07
220.85	1800.16
221.06	1699.81
221.28	1816.55
221.50	1744.87
221.72	1673.19
221.94	1740.77
222.16	1673.19
222.38	1781.73
222.60	1654.76
222.82	1738.73
223.03	1757.16
223.25	1626.09
223.47	1765.35
223.69	1822.69
223.91	1689.57
224.13	1705.96
224.35	1644.52
224.57	1834.98
224.78	1726.44
225.00	1667.05
225.22	1648.61
225.44	1771.49
225.66	1703.91
225.88	1705.96
226.10	1675.24
226.32	1646.57
226.53	1748.97
226.75	1658.85
226.97	1685.48
227.19	1714.15
227.41	1689.57
227.63	1708.01
227.85	1636.33
228.06	1787.88
228.28	1675.24
228.50	1685.48
228.72	1697.77
228.94	1673.19
229.16	1570.79
229.37	1626.09
229.59	1710.05
229.81	1804.26
230.03	1658.85
230.25	1699.81
230.47	1701.86
230.69	1687.53
230.90	1847.27
231.12	1697.77
231.34	1683.43
231.56	1748.97
231.78	1632.23
232.00	1677.29
232.21	1660.90
232.43	1640.42
232.65	1603.56
232.87	1783.78
233.09	1611.75
233.30	1650.66
233.52	1828.84
233.74	1695.72
233.96	1685.48
234.18	1720.29
234.40	1677.29
234.61	1763.30
234.83	1634.28
235.05	1638.38
235.27	1884.13
235.49	1746.92
235.70	1636.33
235.92	1804.26
236.14	1691.62
236.36	1791.97
236.58	1613.80
236.79	1744.87
237.01	1671.14
237.23	1656.81
237.45	1791.97
237.67	1640.42
237.88	1673.19
238.10	1820.64
238.32	1640.42
238.54	1607.66
238.76	1710.05
238.97	1658.85
239.19	1644.52
239.41	1697.77
239.63	1783.78
239.85	1699.81
240.06	1753.06
240.28	1675.24
240.50	1736.68
240.72	1695.72
240.93	1734.63
241.15	1802.21
241.37	1724.39
241.59	1794.02
241.81	1671.14
242.02	1679.33
242.24	1689.57
242.46	1746.92
242.68	1636.33
242.89	1703.91
243.11	1789.92
243.33	1751.01
243.55	1728.49
243.76	1751.01
243.98	1591.27
244.20	1636.33
244.42	1708.01
244.64	1722.34
244.85	1689.57
245.07	1667.05
245.29	1716.20
245.51	1693.67
245.72	1689.57
245.94	1734.63
246.16	1716.20
246.38	1773.54
246.59	1685.48
246.81	1640.42
247.03	1652.71
247.24	1624.04
247.46	1701.86
247.68	1675.24
247.90	1650.66
248.11	1724.39
248.33	1730.53
248.55	1587.18
248.77	1718.25
248.98	1728.49
249.20	1834.98
249.42	1736.68
249.64	1710.05
249.85	1667.05
250.07	1687.53
250.29	1783.78
250.50	1767.40
250.72	1619.94
250.94	1689.57
251.16	1822.69
251.37	1771.49
251.59	1705.96
251.81	1708.01
252.02	1787.88
252.24	1634.28
252.46	1779.68
252.68	1656.81
252.89	1667.05
253.11	1599.46
253.33	1812.45
253.54	1800.16
253.76	1621.99
253.98	1615.85
254.20	1667.05
254.41	1615.85
254.63	1656.81
254.85	1609.70
255.06	1703.91
255.28	1724.39
255.50	1632.23
255.71	1644.52
255.93	1638.38
256.15	1671.14
256.36	1671.14
256.58	1675.24
256.80	1691.62
257.02	1699.81
257.23	1632.23
257.45	1705.96
257.67	1675.24
257.88	1662.95
258.10	1646.57
258.32	1732.58
258.53	1722.34
258.75	1794.02
258.97	1640.42
259.18	1693.67
259.40	1669.09
259.62	1880.04
259.83	1771.49
260.05	1697.77
260.27	1988.58
260.48	1775.59
260.70	1626.09
260.92	1656.81
261.13	1656.81
261.35	1681.38
261.57	1644.52
261.78	1611.75
262.00	1648.61
262.22	1771.49
262.43	1728.49
262.65	1683.43
262.86	1714.15
263.08	1832.93
263.30	1665.00
263.51	1599.46
263.73	1673.19
263.95	1755.11
264.16	1652.71
264.38	1673.19
264.60	1697.77
264.81	1673.19
265.03	1722.34
265.25	1728.49
265.46	1710.05
265.68	1748.97
265.89	1763.30
266.11	1613.80
266.33	1761.25
266.54	1699.81
266.76	1726.44
266.98	1646.57
267.19	1783.78
267.41	1773.54
267.62	1722.34
267.84	1599.46
268.06	1748.97
268.27	1675.24
268.49	1699.81
268.70	1626.09
268.92	1724.39
269.14	1648.61
269.35	1632.23
269.57	1730.53
269.79	1699.81
270.00	1652.71
270.22	1783.78
270.43	1701.86
270.65	1593.32
270.87	1755.11
271.08	1667.05
271.30	1693.67
271.51	1759.21
271.73	1761.25
271.95	1742.82
272.16	1681.38
272.38	1734.63
272.59	1742.82
272.81	1703.91
273.02	1654.76
273.24	1769.44
273.46	1767.40
273.67	1689.57
273.89	1681.38
274.10	1652.71
274.32	1796.07
274.54	1669.09
274.75	1714.15
274.97	1677.29
275.18	1708.01
275.40	1794.02
275.61	1712.10
275.83	1712.10
276.05	1628.14
276.26	1669.09
276.48	1744.87
276.69	1570.79
276.91	1683.43
277.12	1734.63
277.34	1724.39
277.55	1740.77
277.77	1681.38
277.99	1718.25
278.20	1665.00
278.42	1632.23
278.63	1646.57
278.85	1689.57
279.06	1628.14
279.28	1757.16
279.49	1771.49
279.71	1673.19
279.93	1658.85
280.14	1699.81
280.36	1701.86
280.57	1746.92
280.79	1794.02
281.00	1685.48
281.22	1644.52
281.43	1755.11
281.65	1615.85
281.86	1642.47
282.08	1654.76
282.29	1806.31
282.51	1607.66
282.73	1601.51
282.94	1585.13
283.16	1740.77
283.37	1828.84
283.59	1695.72
283.80	1685.48
284.02	1746.92
284.23	1703.91
284.45	1626.09
284.66	1652.71
284.88	1695.72
285.09	1671.14
285.31	1802.21
285.52	1748.97
285.74	1708.01
285.95	1701.86
286.17	1665.00
286.38	1699.81
286.60	1681.38
286.81	1613.80
287.03	1636.33
287.24	1726.44
287.46	1652.71
287.67	1701.86
287.89	1898.47
288.10	1652.71
288.32	1734.63
288.53	1789.92
288.75	1771.49
288.96	1660.90
289.18	1658.85
289.39	1791.97
289.61	1769.44
289.82	1826.79
290.04	1763.30
290.25	1611.75
290.47	1611.75
290.68	1710.05
290.90	1722.34
291.11	1615.85
291.33	1720.29
291.54	1634.28
291.76	1648.61
291.97	1693.67
292.18	1689.57
292.40	1705.96
292.61	1626.09
292.83	1783.78
293.04	1746.92
293.26	1744.87
293.47	1646.57
293.69	1656.81
293.90	1650.66
294.12	1794.02
294.33	1736.68
294.55	1671.14
294.76	1753.06
294.97	1751.01
295.19	1832.93
295.40	1662.95
295.62	1710.05
295.83	1679.33
296.05	1753.06
296.26	1773.54
296.48	1642.47
296.69	1691.62
296.90	1607.66
297.12	1679.33
297.33	1722.34
297.55	1642.47
297.76	1783.78
297.98	1810.40
298.19	1689.57
298.41	1648.61
298.62	1601.51
298.83	1681.38
299.05	1671.14
299.26	1748.97
299.48	1693.67
299.69	1742.82
299.90	1751.01
300.12	1677.29
300.33	1730.53
300.55	1701.86
300.76	1738.73
300.98	1603.56
301.19	1673.19
301.40	1730.53
301.62	1734.63
301.83	1740.77
302.05	1675.24
302.26	1691.62
302.47	1757.16
302.69	1656.81
302.90	1697.77
303.12	1648.61
303.33	1798.12
303.54	1830.88
303.76	1638.38
303.97	1726.44
304.19	1783.78
304.40	1589.22
304.61	1736.68
304.83	1773.54
305.04	1781.73
305.26	1656.81
305.47	1632.23
305.68	1703.91
305.90	1652.71
306.11	1734.63
306.33	1673.19
306.54	1650.66
306.75	1644.52
306.97	1669.09
307.18	1660.90
307.39	1703.91
307.61	1763.30
307.82	1669.09
308.04	1730.53
308.25	1665.00
308.46	1716.20
308.68	1718.25
308.89	1681.38
309.10	1781.73
309.32	1742.82
309.53	1740.77
309.74	1785.83
309.96	1662.95
310.17	1726.44
310.39	1757.16
310.60	1677.29
310.81	1736.68
311.03	1716.20
311.24	1814.50
311.45	1718.25
311.67	1769.44
311.88	1779.68
312.09	1687.53
312.31	1599.46
312.52	1683.43
312.73	1648.61
312.95	1656.81
313.16	1679.33
313.37	1722.34
313.59	1703.91
313.80	1755.11
314.01	1832.93
314.23	1679.33
314.44	1669.09
314.65	1634.28
314.87	1675.24
315.08	1697.77
315.29	1736.68
315.51	1591.27
315.72	1591.27
315.93	1855.46
316.15	1714.15
316.36	1683.43
316.57	1763.30
316.79	1730.53
317.00	1667.05
317.21	1779.68
317.43	1714.15
317.64	1781.73
317.85	1714.15
318.07	1599.46
318.28	1665.00
318.49	1740.77
318.70	1902.56
318.92	1841.12
319.13	1828.84
319.34	1877.99
319.56	1728.49
319.77	1785.83
319.98	1818.60
320.20	1802.21
320.41	1714.15
320.62	1634.28
320.83	1722.34
321.05	1771.49
321.26	1681.38
321.47	1669.09
321.69	1773.54
321.90	1689.57
322.11	1646.57
322.32	1730.53
322.54	1787.88
322.75	1759.21
322.96	1845.22
323.18	1585.13
323.39	1607.66
323.60	1634.28
323.81	1779.68
324.03	1687.53
324.24	1669.09
324.45	1746.92
324.66	1642.47
324.88	1738.73
325.09	1771.49
325.30	1708.01
325.52	1744.87
325.73	1751.01
325.94	1593.32
326.15	1660.90
326.37	1646.57
326.58	1716.20
326.79	1796.07
327.00	1697.77
327.22	1732.58
327.43	1691.62
327.64	1624.04
327.85	1712.10
328.07	1660.90
328.28	1853.41
328.49	1732.58
328.70	1718.25
328.92	1697.77
329.13	1611.75
329.34	1753.06
329.55	1794.02
329.76	1763.30
329.98	1673.19
330.19	1808.36
330.40	1742.82
330.61	1693.67
330.83	1705.96
331.04	1517.54
331.25	1736.68
331.46	1673.19
331.68	1611.75
331.89	1712.10
332.10	1730.53
332.31	1705.96
332.52	1677.29
332.74	1816.55
332.95	1624.04
333.16	1701.86
333.37	1695.72
333.58	1726.44
333.80	1748.97
334.01	1603.56
334.22	1685.48
334.43	1662.95
334.64	1693.67
334.86	1585.13
335.07	1628.14
335.28	1765.35
335.49	1617.90
335.70	1728.49
335.92	1693.67
336.13	1798.12
336.34	1718.25
336.55	1755.11
336.76	1746.92
336.98	1599.46
337.19	1648.61
337.40	1816.55
337.61	1802.21
337.82	1671.14
338.04	1621.99
338.25	1624.04
338.46	1695.72
338.67	1642.47
338.88	1628.14
339.09	1683.43
339.31	1769.44
339.52	1630.18
339.73	1640.42
339.94	1716.20
340.15	1781.73
340.36	1714.15
340.58	1730.53
340.79	1603.56
341.00	1724.39
341.21	1619.94
341.42	1839.08
341.63	1738.73
341.85	1730.53
342.06	1648.61
342.27	1632.23
342.48	1720.29
342.69	1628.14
342.90	1662.95
343.12	1755.11
343.33	1652.71
343.54	1771.49
343.75	1851.36
343.96	1671.14
344.17	1632.23
344.38	1687.53
344.60	1699.81
344.81	1642.47
345.02	1665.00
345.23	1759.21
345.44	1796.07
345.65	1712.10
345.86	1730.53
346.07	1681.38
346.29	1652.71
346.50	1712.10
346.71	1769.44
346.92	1794.02
347.13	1783.78
347.34	1611.75
347.55	1685.48
347.76	1775.59
347.98	1714.15
348.19	1646.57
348.40	1832.93
348.61	1640.42
348.82	1744.87
349.03	1796.07
349.24	1671.14
349.45	1802.21
349.66	1601.51
349.88	1667.05
350.09	1607.66
350.30	1806.31
350.51	1757.16
350.72	1746.92
350.93	1755.11
351.14	1644.52
351.35	1751.01
351.56	1658.85
351.77	1632.23
351.99	1771.49
352.20	1845.22
352.41	1755.11
352.62	1554.41
352.83	1736.68
353.04	1683.43
353.25	1585.13
353.46	1708.01
353.67	1830.88
353.88	1617.90
354.09	1736.68
354.30	1648.61
354.52	1685.48
354.73	1701.86
354.94	1720.29
355.15	1667.05
355.36	1804.26
355.57	1685.48
355.78	1738.73
355.99	1644.52
356.20	1656.81
356.41	1705.96
356.62	1738.73
356.83	1693.67
357.04	1742.82
357.25	1607.66
357.46	1646.57
357.68	1591.27
357.89	1691.62
358.10	1722.34
358.31	1648.61
358.52	1638.38
358.73	1705.96
358.94	1669.09
359.15	1607.66
359.36	1740.77
359.57	1632.23
359.78	1693.67
359.99	1740.77
360.20	1683.43
360.41	1673.19
360.62	1753.06
360.83	1767.40
361.04	1718.25
361.25	1748.97
361.46	1865.70
361.67	1771.49
361.88	1718.25
362.09	1656.81
362.30	1736.68
362.51	1650.66
362.72	1695.72
362.93	1751.01
363.14	1751.01
363.35	1720.29
363.56	1599.46
363.78	1677.29
363.99	1728.49
364.20	1624.04
364.41	1724.39
364.62	1810.40
364.83	1626.09
365.04	1636.33
365.25	1689.57
365.46	1849.32
365.67	1636.33
365.88	1634.28
366.09	1624.04
366.30	1615.85
366.51	1720.29
366.72	1685.48
366.93	1611.75
367.14	1691.62
367.35	1779.68
367.56	1716.20
367.77	1730.53
367.98	1689.57
368.18	1755.11
368.39	1738.73
368.60	1683.43
368.81	1708.01
369.02	1714.15
369.23	1716.20
369.44	1640.42
369.65	1689.57
369.86	1765.35
370.07	1767.40
370.28	1695.72
370.49	1722.34
370.70	1730.53
370.91	1591.27
371.12	1529.83
371.33	1710.05
371.54	1695.72
371.75	1728.49
371.96	1609.70
372.17	1708.01
372.38	1728.49
372.59	1746.92
372.80	1685.48
373.01	1648.61
373.22	1644.52
373.43	1683.43
373.64	1609.70
373.85	1726.44
374.06	1834.98
374.26	1826.79
374.47	1720.29
374.68	1779.68
374.89	1724.39
375.10	1695.72
375.31	1787.88
375.52	1779.68
375.73	1708.01
375.94	1617.90
376.15	1861.60
376.36	1617.90
376.57	1535.98
376.78	1665.00
376.99	1669.09
377.20	1722.34
377.40	1714.15
377.61	1787.88
377.82	1662.95
378.03	1767.40
378.24	1714.15
378.45	1650.66
378.66	1687.53
378.87	1595.37
379.08	1640.42
379.29	1701.86
379.50	1800.16
379.71	1726.44
379.91	1755.11
380.12	1761.25
380.33	1742.82
380.54	1644.52
380.75	1658.85
380.96	1675.24
381.17	1761.25
381.38	1732.58
381.59	1781.73
381.80	1718.25
382.00	1867.75
382.21	1734.63
382.42	1794.02
382.63	1904.61
382.84	1613.80
383.05	1826.79
383.26	1779.68
383.47	1744.87
383.68	1769.44
383.88	1777.64
384.09	1746.92
384.30	1818.60
384.51	1796.07
384.72	1611.75
384.93	1652.71
385.14	1691.62
385.35	1767.40
385.55	1630.18
385.76	1718.25
385.97	1812.45
386.18	1722.34
386.39	1681.38
386.60	1685.48
386.81	1697.77
387.02	1644.52
387.22	1671.14
387.43	1818.60
387.64	1820.64
387.85	1867.75
388.06	2242.53
388.27	4247.49
388.48	6901.65
388.68	8187.78
388.89	9647.98
389.10	9824.11
389.31	8599.42
389.52	7579.53
389.73	6748.06
389.93	6205.35
390.14	5896.10
390.35	5218.22
390.56	4655.03
390.77	3661.77
390.98	2953.17
391.18	2541.53
391.39	2152.42
391.60	1910.75
391.81	1855.46
392.02	1691.62
392.23	1828.84
392.43	1712.10
392.64	1826.79
392.85	1746.92
393.06	1736.68
393.27	1759.21
393.47	1705.96
393.68	1763.30
393.89	1630.18
394.10	1751.01
394.31	1683.43
394.52	1644.52
394.72	1726.44
394.93	1755.11
395.14	1630.18
395.35	1800.16
395.56	1593.32
395.76	1701.86
395.97	1808.36
396.18	1904.61
396.39	1927.14
396.60	2004.96
396.80	1912.80
397.01	1886.18
397.22	1826.79
397.43	1890.28
397.64	1771.49
397.84	1763.30
398.05	1851.36
398.26	1726.44
398.47	1736.68
398.67	1800.16
398.88	1794.02
399.09	1796.07
399.30	1714.15
399.51	1738.73
399.71	1636.33
399.92	1714.15
400.13	1718.25
400.34	1644.52
400.54	1746.92
400.75	1740.77
400.96	1660.90
401.17	1802.21
401.37	1710.05
401.58	1630.18
401.79	1669.09
402.00	1869.80
402.21	1990.63
402.41	1871.84
402.62	2017.25
402.83	1947.62
403.04	2041.82
403.24	2058.21
403.45	1861.60
403.66	1968.10
403.87	1890.28
404.07	1892.32
404.28	1925.09
404.49	1865.70
404.70	1810.40
404.90	1697.77
405.11	1742.82
405.32	1740.77
405.52	1673.19
405.73	1738.73
405.94	1685.48
406.15	1660.90
406.35	1751.01
406.56	1742.82
406.77	1665.00
406.98	1771.49
407.18	1716.20
407.39	1816.55
407.60	1714.15
407.80	1742.82
408.01	1581.03
408.22	1726.44
408.43	1619.94
408.63	1744.87
408.84	1755.11
409.05	1665.00
409.25	1689.57
409.46	1720.29
409.67	1728.49
409.88	1693.67
410.08	1746.92
410.29	1677.29
410.50	1771.49
410.70	1746.92
410.91	1572.84
411.12	1718.25
411.32	1824.74
411.53	1673.19
411.74	1779.68
411.95	1746.92
412.15	1703.91
412.36	1800.16
412.57	1771.49
412.77	1828.84
412.98	1730.53
413.19	1724.39
413.39	1720.29
413.60	1789.92
413.81	1818.60
414.01	1640.42
414.22	1691.62
414.43	1720.29
414.63	1701.86
414.84	1748.97
415.05	1624.04
415.25	1675.24
415.46	1699.81
415.67	1732.58
415.87	1730.53
416.08	1705.96
416.29	1681.38
416.49	1695.72
416.70	1714.15
416.91	1634.28
417.11	1748.97
417.32	1656.81
417.53	1748.97
417.73	1757.16
417.94	1720.29
418.15	1763.30
418.35	1740.77
418.56	1679.33
418.77	1794.02
418.97	1656.81
419.18	1714.15
419.38	1519.59
419.59	1609.70
419.80	1705.96
420.00	1714.15
420.21	1648.61
420.42	1851.36
420.62	1796.07
420.83	1665.00
421.04	1656.81
421.24	1693.67
421.45	1712.10
421.65	1812.45
421.86	1730.53
422.07	1802.21
422.27	1705.96
422.48	1732.58
422.69	1597.42
422.89	1673.19
423.10	1718.25
423.30	1589.22
423.51	1720.29
423.72	1720.29
423.92	1728.49
424.13	1601.51
424.33	1820.64
424.54	1701.86
424.75	1697.77
424.95	1806.31
425.16	1693.67
425.36	1646.57
425.57	1716.20
425.78	1812.45
425.98	1785.83
426.19	1658.85
426.39	1648.61
426.60	1781.73
426.81	1720.29
427.01	1746.92
427.22	1634.28
427.42	1654.76
427.63	1654.76
427.83	1693.67
428.04	1787.88
428.25	1789.92
428.45	1775.59
428.66	1753.06
428.86	1734.63
429.07	1701.86
429.28	1742.82
429.48	1699.81
429.69	1685.48
429.89	1710.05
430.10	1679.33
430.30	1699.81
430.51	1777.64
430.71	1607.66
430.92	1699.81
431.13	1722.34
431.33	1746.92
431.54	1720.29
431.74	1877.99
431.95	1845.22
432.15	1611.75
432.36	1681.38
432.56	1757.16
432.77	1785.83
432.98	1822.69
433.18	1759.21
433.39	1681.38
433.59	1710.05
433.80	1867.75
434.00	1822.69
434.21	1628.14
434.41	1621.99
434.62	1798.12
434.82	1662.95
435.03	1689.57
435.23	1791.97
435.44	1662.95
435.64	1734.63
435.85	1746.92
436.06	1718.25
436.26	1845.22
436.47	1644.52
436.67	1716.20
436.88	1748.97
437.08	1699.81
437.29	1736.68
437.49	1701.86
437.70	1732.58
437.90	1669.09
438.11	1914.85
438.31	1789.92
438.52	1830.88
438.72	1789.92
438.93	1935.33
439.13	1853.41
439.34	1789.92
439.54	1751.01
439.75	1779.68
439.95	1849.32
440.16	1744.87
440.36	1800.16
440.57	1839.08
440.77	1728.49
440.98	1757.16
441.18	1785.83
441.39	1746.92
441.59	1681.38
441.80	1773.54
442.00	1716.20
442.21	1746.92
442.41	1640.42
442.62	1681.38
442.82	1712.10
443.02	1669.09
443.23	1755.11
443.43	1722.34
443.64	1783.78
443.84	1708.01
444.05	1798.12
444.25	1648.61
444.46	1691.62
444.66	1742.82
444.87	1806.31
445.07	1640.42
445.28	1746.92
445.48	1796.07
445.69	1683.43
445.89	1888.23
446.09	1714.15
446.30	2080.74
446.50	2623.45
446.71	3649.48
446.91	4321.21
447.12	4693.94
447.32	4835.25
447.53	4274.11
447.73	3786.69
447.93	3520.46
448.14	3258.32
448.34	3219.41
448.55	2934.74
448.75	2807.77
448.96	2688.98
449.16	2459.61
449.36	2287.58
449.57	2093.02
449.77	1824.74
449.98	1822.69
450.18	1751.01
450.39	1832.93
450.59	1773.54
450.79	1810.40
451.00	1685.48
451.20	1726.44
451.41	1699.81
451.61	1777.64
451.81	1714.15
452.02	1695.72
452.22	1736.68
452.43	1640.42
452.63	1730.53
