SpectraSuite Data File
++++++++++++++++++++++++++++++++++++
Date: Mon Jun 06 14:47:57 CEST 2016
User: root
Dark Spectrum Present: No
Reference Spectrum Present: No
Number of Sampled Component Spectra: 1
Spectrometers: USB4C02835
Integration Time (usec): 100000 (USB4C02835)
Spectra Averaged: 1 (USB4C02835)
Boxcar Smoothing: 0 (USB4C02835)
Correct for Electrical Dark: No (USB4C02835)
Strobe/Lamp Enabled: No (USB4C02835)
Correct for Detector Non-linearity: No (USB4C02835)
Correct for Stray Light: No (USB4C02835)
Number of Pixels in Processed Spectrum: 3648
>>>>>Begin Processed Spectral Data<<<<<
177.47	1452.01
177.69	1452.01
177.91	1452.01
178.13	1544.17
178.36	1449.96
178.58	1626.09
178.80	1785.83
179.02	1505.26
179.24	1611.75
179.46	1638.38
179.68	1720.29
179.90	1683.43
180.13	1640.42
180.35	1705.96
180.57	1687.53
180.79	1798.12
181.01	1732.58
181.23	1722.34
181.45	1796.07
181.67	1773.54
181.90	1714.15
182.12	1703.91
182.34	1650.66
182.56	1697.77
182.78	1665.00
183.00	1708.01
183.22	1718.25
183.44	1617.90
183.66	1810.40
183.89	1826.79
184.11	1675.24
184.33	1683.43
184.55	1763.30
184.77	1673.19
184.99	1759.21
185.21	1665.00
185.43	1935.33
185.65	1671.14
185.87	1730.53
186.10	1834.98
186.32	1847.27
186.54	1710.05
186.76	1765.35
186.98	1761.25
187.20	1677.29
187.42	1675.24
187.64	1724.39
187.86	1767.40
188.08	1705.96
188.30	1636.33
188.52	1771.49
188.75	1761.25
188.97	1847.27
189.19	1677.29
189.41	1736.68
189.63	1644.52
189.85	1675.24
190.07	1628.14
190.29	1597.42
190.51	1783.78
190.73	1568.74
190.95	1730.53
191.17	1726.44
191.39	1619.94
191.61	1701.86
191.84	1675.24
192.06	1728.49
192.28	1613.80
192.50	1871.84
192.72	1730.53
192.94	1734.63
193.16	1746.92
193.38	1714.15
193.60	1628.14
193.82	1660.90
194.04	1736.68
194.26	1681.38
194.48	1744.87
194.70	1665.00
194.92	1638.38
195.14	1726.44
195.36	1695.72
195.58	1681.38
195.80	1701.86
196.02	1681.38
196.24	1695.72
196.46	1736.68
196.69	1718.25
196.91	1818.60
197.13	1732.58
197.35	1683.43
197.57	1765.35
197.79	1695.72
198.01	1701.86
198.23	1740.77
198.45	1673.19
198.67	1665.00
198.89	1632.23
199.11	1722.34
199.33	1687.53
199.55	1578.98
199.77	1689.57
199.99	1810.40
200.21	1697.77
200.43	1728.49
200.65	1642.47
200.87	1648.61
201.09	1677.29
201.31	1726.44
201.53	1761.25
201.75	1648.61
201.97	1724.39
202.19	1755.11
202.41	1746.92
202.63	1828.84
202.85	1759.21
203.07	1679.33
203.29	1669.09
203.51	1720.29
203.73	1656.81
203.95	1837.03
204.17	1660.90
204.39	1726.44
204.61	1652.71
204.83	1705.96
205.05	1724.39
205.27	1701.86
205.49	1837.03
205.71	1781.73
205.93	1716.20
206.15	1712.10
206.37	1705.96
206.59	1755.11
206.81	1687.53
207.03	1632.23
207.25	1607.66
207.47	1730.53
207.69	1689.57
207.91	1785.83
208.13	1740.77
208.34	1628.14
208.56	1730.53
208.78	1722.34
209.00	1669.09
209.22	1675.24
209.44	1673.19
209.66	1665.00
209.88	1703.91
210.10	1636.33
210.32	1757.16
210.54	1841.12
210.76	1630.18
210.98	1763.30
211.20	1652.71
211.42	1712.10
211.64	1724.39
211.86	1714.15
212.08	1781.73
212.30	1710.05
212.52	1736.68
212.74	1710.05
212.96	1675.24
213.17	1734.63
213.39	1742.82
213.61	1800.16
213.83	1685.48
214.05	1681.38
214.27	1814.50
214.49	1609.70
214.71	1624.04
214.93	1777.64
215.15	1677.29
215.37	1748.97
215.59	1644.52
215.81	1718.25
216.03	1738.73
216.24	1687.53
216.46	1671.14
216.68	1781.73
216.90	1701.86
217.12	1757.16
217.34	1703.91
217.56	1699.81
217.78	1736.68
218.00	1724.39
218.22	1742.82
218.44	1714.15
218.66	1701.86
218.87	1769.44
219.09	1779.68
219.31	1734.63
219.53	1755.11
219.75	1640.42
219.97	1695.72
220.19	1763.30
220.41	1654.76
220.63	1673.19
220.85	1755.11
221.06	1640.42
221.28	1714.15
221.50	1697.77
221.72	1699.81
221.94	1798.12
222.16	1730.53
222.38	1753.06
222.60	1763.30
222.82	1646.57
223.03	1710.05
223.25	1652.71
223.47	1671.14
223.69	1765.35
223.91	1783.78
224.13	1712.10
224.35	1708.01
224.57	1708.01
224.78	1822.69
225.00	1677.29
225.22	1673.19
225.44	1742.82
225.66	1783.78
225.88	1636.33
226.10	1775.59
226.32	1650.66
226.53	1783.78
226.75	1593.32
226.97	1689.57
227.19	1673.19
227.41	1521.64
227.63	1648.61
227.85	1624.04
228.06	1675.24
228.28	1744.87
228.50	1693.67
228.72	1681.38
228.94	1714.15
229.16	1675.24
229.37	1599.46
229.59	1650.66
229.81	1763.30
230.03	1677.29
230.25	1626.09
230.47	1644.52
230.69	1574.89
230.90	1771.49
231.12	1673.19
231.34	1722.34
231.56	1744.87
231.78	1685.48
232.00	1695.72
232.21	1675.24
232.43	1671.14
232.65	1581.03
232.87	1665.00
233.09	1642.47
233.30	1705.96
233.52	1767.40
233.74	1634.28
233.96	1677.29
234.18	1777.64
234.40	1726.44
234.61	1816.55
234.83	1650.66
235.05	1654.76
235.27	1869.80
235.49	1814.50
235.70	1714.15
235.92	1701.86
236.14	1677.29
236.36	1837.03
236.58	1613.80
236.79	1718.25
237.01	1687.53
237.23	1640.42
237.45	1824.74
237.67	1671.14
237.88	1685.48
238.10	1787.88
238.32	1689.57
238.54	1730.53
238.76	1677.29
238.97	1650.66
239.19	1689.57
239.41	1712.10
239.63	1757.16
239.85	1652.71
240.06	1671.14
240.28	1699.81
240.50	1730.53
240.72	1685.48
240.93	1601.51
241.15	1751.01
241.37	1679.33
241.59	1789.92
241.81	1687.53
242.02	1677.29
242.24	1703.91
242.46	1730.53
242.68	1724.39
242.89	1773.54
243.11	1722.34
243.33	1687.53
243.55	1662.95
243.76	1720.29
243.98	1626.09
244.20	1679.33
244.42	1693.67
244.64	1675.24
244.85	1662.95
245.07	1617.90
245.29	1703.91
245.51	1650.66
245.72	1673.19
245.94	1767.40
246.16	1771.49
246.38	1751.01
246.59	1644.52
246.81	1718.25
247.03	1656.81
247.24	1615.85
247.46	1691.62
247.68	1720.29
247.90	1685.48
248.11	1714.15
248.33	1693.67
248.55	1691.62
248.77	1656.81
248.98	1626.09
249.20	1777.64
249.42	1730.53
249.64	1683.43
249.85	1662.95
250.07	1708.01
250.29	1771.49
250.50	1763.30
250.72	1642.47
250.94	1636.33
251.16	1834.98
251.37	1744.87
251.59	1710.05
251.81	1777.64
252.02	1755.11
252.24	1624.04
252.46	1830.88
252.68	1734.63
252.89	1650.66
253.11	1642.47
253.33	1779.68
253.54	1716.20
253.76	1566.70
253.98	1748.97
254.20	1746.92
254.41	1646.57
254.63	1634.28
254.85	1615.85
255.06	1599.46
255.28	1701.86
255.50	1658.85
255.71	1644.52
255.93	1609.70
256.15	1714.15
256.36	1687.53
256.58	1574.89
256.80	1695.72
257.02	1697.77
257.23	1615.85
257.45	1693.67
257.67	1773.54
257.88	1677.29
258.10	1671.14
258.32	1708.01
258.53	1685.48
258.75	1802.21
258.97	1636.33
259.18	1677.29
259.40	1701.86
259.62	1880.04
259.83	1796.07
260.05	1728.49
260.27	1947.62
260.48	1730.53
260.70	1615.85
260.92	1642.47
261.13	1740.77
261.35	1824.74
261.57	1658.85
261.78	1581.03
262.00	1648.61
262.22	1800.16
262.43	1691.62
262.65	1658.85
262.86	1687.53
263.08	1763.30
263.30	1681.38
263.51	1595.37
263.73	1681.38
263.95	1853.41
264.16	1658.85
264.38	1660.90
264.60	1732.58
264.81	1619.94
265.03	1798.12
265.25	1759.21
265.46	1656.81
265.68	1794.02
265.89	1755.11
266.11	1652.71
266.33	1746.92
266.54	1697.77
266.76	1703.91
266.98	1736.68
267.19	1714.15
267.41	1751.01
267.62	1658.85
267.84	1607.66
268.06	1822.69
268.27	1722.34
268.49	1767.40
268.70	1824.74
268.92	1744.87
269.14	1665.00
269.35	1560.55
269.57	1720.29
269.79	1794.02
270.00	1794.02
270.22	1738.73
270.43	1679.33
270.65	1644.52
270.87	1734.63
271.08	1738.73
271.30	1703.91
271.51	1718.25
271.73	1724.39
271.95	1763.30
272.16	1734.63
272.38	1802.21
272.59	1740.77
272.81	1769.44
273.02	1673.19
273.24	1767.40
273.46	1781.73
273.67	1683.43
273.89	1734.63
274.10	1671.14
274.32	1767.40
274.54	1785.83
274.75	1669.09
274.97	1673.19
275.18	1771.49
275.40	1730.53
275.61	1755.11
275.83	1732.58
276.05	1630.18
276.26	1718.25
276.48	1724.39
276.69	1615.85
276.91	1658.85
277.12	1746.92
277.34	1796.07
277.55	1769.44
277.77	1724.39
277.99	1609.70
278.20	1636.33
278.42	1748.97
278.63	1640.42
278.85	1595.37
279.06	1662.95
279.28	1738.73
279.49	1714.15
279.71	1734.63
279.93	1714.15
280.14	1728.49
280.36	1611.75
280.57	1822.69
280.79	1740.77
281.00	1626.09
281.22	1716.20
281.43	1828.84
281.65	1560.55
281.86	1599.46
282.08	1777.64
282.29	1834.98
282.51	1628.14
282.73	1699.81
282.94	1636.33
283.16	1746.92
283.37	1814.50
283.59	1751.01
283.80	1677.29
284.02	1683.43
284.23	1708.01
284.45	1718.25
284.66	1660.90
284.88	1697.77
285.09	1677.29
285.31	1708.01
285.52	1738.73
285.74	1685.48
285.95	1765.35
286.17	1695.72
286.38	1689.57
286.60	1669.09
286.81	1650.66
287.03	1724.39
287.24	1681.38
287.46	1765.35
287.67	1640.42
287.89	1767.40
288.10	1714.15
288.32	1687.53
288.53	1755.11
288.75	1708.01
288.96	1787.88
289.18	1660.90
289.39	1642.47
289.61	1730.53
289.82	1800.16
290.04	1787.88
290.25	1581.03
290.47	1665.00
290.68	1607.66
290.90	1738.73
291.11	1621.99
291.33	1789.92
291.54	1685.48
291.76	1609.70
291.97	1714.15
292.18	1751.01
292.40	1650.66
292.61	1607.66
292.83	1828.84
293.04	1691.62
293.26	1679.33
293.47	1630.18
293.69	1628.14
293.90	1720.29
294.12	1720.29
294.33	1626.09
294.55	1671.14
294.76	1730.53
294.97	1753.06
295.19	1810.40
295.40	1744.87
295.62	1689.57
295.83	1716.20
296.05	1724.39
296.26	1718.25
296.48	1693.67
296.69	1724.39
296.90	1650.66
297.12	1769.44
297.33	1806.31
297.55	1728.49
297.76	1726.44
297.98	1765.35
298.19	1740.77
298.41	1718.25
298.62	1689.57
298.83	1724.39
299.05	1658.85
299.26	1671.14
299.48	1705.96
299.69	1691.62
299.90	1730.53
300.12	1599.46
300.33	1689.57
300.55	1755.11
300.76	1789.92
300.98	1626.09
301.19	1683.43
301.40	1687.53
301.62	1701.86
301.83	1718.25
302.05	1712.10
302.26	1722.34
302.47	1726.44
302.69	1665.00
302.90	1730.53
303.12	1624.04
303.33	1742.82
303.54	1787.88
303.76	1691.62
303.97	1748.97
304.19	1726.44
304.40	1669.09
304.61	1730.53
304.83	1761.25
305.04	1658.85
305.26	1794.02
305.47	1683.43
305.68	1683.43
305.90	1574.89
306.11	1693.67
306.33	1679.33
306.54	1648.61
306.75	1689.57
306.97	1642.47
307.18	1712.10
307.39	1765.35
307.61	1708.01
307.82	1728.49
308.04	1695.72
308.25	1624.04
308.46	1685.48
308.68	1705.96
308.89	1697.77
309.10	1714.15
309.32	1708.01
309.53	1722.34
309.74	1703.91
309.96	1718.25
310.17	1703.91
310.39	1640.42
310.60	1802.21
310.81	1689.57
311.03	1667.05
311.24	1665.00
311.45	1730.53
311.67	1849.32
311.88	1736.68
312.09	1660.90
312.31	1658.85
312.52	1771.49
312.73	1648.61
312.95	1638.38
313.16	1703.91
313.37	1738.73
313.59	1656.81
313.80	1693.67
314.01	1810.40
314.23	1619.94
314.44	1648.61
314.65	1597.42
314.87	1644.52
315.08	1632.23
315.29	1755.11
315.51	1644.52
315.72	1650.66
315.93	1828.84
316.15	1712.10
316.36	1640.42
316.57	1681.38
316.79	1757.16
317.00	1753.06
317.21	1730.53
317.43	1607.66
317.64	1697.77
317.85	1603.56
318.07	1646.57
318.28	1697.77
318.49	1857.51
318.70	1916.90
318.92	1837.03
319.13	1785.83
319.34	1861.60
319.56	1775.59
319.77	1748.97
319.98	1806.31
320.20	1775.59
320.41	1708.01
320.62	1767.40
320.83	1632.23
321.05	1787.88
321.26	1732.58
321.47	1656.81
321.69	1771.49
321.90	1660.90
322.11	1679.33
322.32	1691.62
322.54	1779.68
322.75	1644.52
322.96	1847.27
323.18	1650.66
323.39	1662.95
323.60	1654.76
323.81	1740.77
324.03	1687.53
324.24	1691.62
324.45	1755.11
324.66	1667.05
324.88	1806.31
325.09	1691.62
325.30	1732.58
325.52	1701.86
325.73	1779.68
325.94	1605.61
326.15	1603.56
326.37	1677.29
326.58	1736.68
326.79	1785.83
327.00	1656.81
327.22	1697.77
327.43	1632.23
327.64	1652.71
327.85	1689.57
328.07	1718.25
328.28	1744.87
328.49	1701.86
328.70	1691.62
328.92	1748.97
329.13	1705.96
329.34	1781.73
329.55	1826.79
329.76	1734.63
329.98	1693.67
330.19	1740.77
330.40	1656.81
330.61	1701.86
330.83	1734.63
331.04	1689.57
331.25	1691.62
331.46	1685.48
331.68	1578.98
331.89	1800.16
332.10	1738.73
332.31	1585.13
332.52	1708.01
332.74	1716.20
332.95	1644.52
333.16	1701.86
333.37	1712.10
333.58	1761.25
333.80	1755.11
334.01	1714.15
334.22	1656.81
334.43	1697.77
334.64	1685.48
334.86	1583.08
335.07	1736.68
335.28	1751.01
335.49	1615.85
335.70	1769.44
335.92	1755.11
336.13	1816.55
336.34	1728.49
336.55	1738.73
336.76	1722.34
336.98	1540.07
337.19	1703.91
337.40	1736.68
337.61	1865.70
337.82	1648.61
338.04	1779.68
338.25	1595.37
338.46	1669.09
338.67	1773.54
338.88	1669.09
339.09	1724.39
339.31	1619.94
339.52	1648.61
339.73	1630.18
339.94	1779.68
340.15	1726.44
340.36	1716.20
340.58	1730.53
340.79	1642.47
341.00	1832.93
341.21	1650.66
341.42	1724.39
341.63	1697.77
341.85	1779.68
342.06	1708.01
342.27	1601.51
342.48	1712.10
342.69	1640.42
342.90	1677.29
343.12	1798.12
343.33	1685.48
343.54	1808.36
343.75	1685.48
343.96	1734.63
344.17	1521.64
344.38	1675.24
344.60	1669.09
344.81	1687.53
345.02	1712.10
345.23	1691.62
345.44	1783.78
345.65	1751.01
345.86	1689.57
346.07	1757.16
346.29	1611.75
346.50	1742.82
346.71	1734.63
346.92	1755.11
347.13	1804.26
347.34	1728.49
347.55	1683.43
347.76	1773.54
347.98	1630.18
348.19	1609.70
348.40	1761.25
348.61	1675.24
348.82	1787.88
349.03	1710.05
349.24	1640.42
349.45	1785.83
349.66	1552.36
349.88	1689.57
350.09	1740.77
350.30	1777.64
350.51	1810.40
350.72	1673.19
350.93	1746.92
351.14	1695.72
351.35	1781.73
351.56	1687.53
351.77	1624.04
351.99	1726.44
352.20	1826.79
352.41	1744.87
352.62	1636.33
352.83	1630.18
353.04	1753.06
353.25	1656.81
353.46	1783.78
353.67	1757.16
353.88	1560.55
354.09	1728.49
354.30	1658.85
354.52	1759.21
354.73	1679.33
354.94	1705.96
355.15	1705.96
355.36	1814.50
355.57	1744.87
355.78	1759.21
355.99	1665.00
356.20	1646.57
356.41	1771.49
356.62	1761.25
356.83	1724.39
357.04	1746.92
357.25	1630.18
357.46	1665.00
357.68	1595.37
357.89	1726.44
358.10	1648.61
358.31	1662.95
358.52	1716.20
358.73	1667.05
358.94	1646.57
359.15	1638.38
359.36	1705.96
359.57	1726.44
359.78	1673.19
359.99	1742.82
360.20	1613.80
360.41	1640.42
360.62	1746.92
360.83	1695.72
361.04	1693.67
361.25	1751.01
361.46	1781.73
361.67	1656.81
361.88	1642.47
362.09	1742.82
362.30	1746.92
362.51	1640.42
362.72	1656.81
362.93	1775.59
363.14	1742.82
363.35	1693.67
363.56	1652.71
363.78	1746.92
363.99	1710.05
364.20	1677.29
364.41	1648.61
364.62	1828.84
364.83	1730.53
365.04	1746.92
365.25	1681.38
365.46	1814.50
365.67	1714.15
365.88	1607.66
366.09	1697.77
366.30	1621.99
366.51	1716.20
366.72	1720.29
366.93	1605.61
367.14	1744.87
367.35	1775.59
367.56	1761.25
367.77	1748.97
367.98	1681.38
368.18	1748.97
368.39	1716.20
368.60	1648.61
368.81	1699.81
369.02	1738.73
369.23	1646.57
369.44	1665.00
369.65	1691.62
369.86	1722.34
370.07	1740.77
370.28	1654.76
370.49	1658.85
370.70	1755.11
370.91	1732.58
371.12	1583.08
371.33	1769.44
371.54	1675.24
371.75	1718.25
371.96	1654.76
372.17	1722.34
372.38	1720.29
372.59	1714.15
372.80	1714.15
373.01	1712.10
373.22	1726.44
373.43	1722.34
373.64	1634.28
373.85	1736.68
374.06	1806.31
374.26	1755.11
374.47	1697.77
374.68	1845.22
374.89	1751.01
375.10	1675.24
375.31	1726.44
375.52	1701.86
375.73	1681.38
375.94	1683.43
376.15	1779.68
376.36	1621.99
376.57	1658.85
376.78	1679.33
376.99	1714.15
377.20	1730.53
377.40	1599.46
377.61	1847.27
377.82	1628.14
378.03	1738.73
378.24	1677.29
378.45	1677.29
378.66	1746.92
378.87	1632.23
379.08	1591.27
379.29	1769.44
379.50	1738.73
379.71	1660.90
379.91	1771.49
380.12	1609.70
380.33	1697.77
380.54	1716.20
380.75	1738.73
380.96	1636.33
381.17	1777.64
381.38	1693.67
381.59	1730.53
381.80	1716.20
382.00	1902.56
382.21	1744.87
382.42	1740.77
382.63	1863.65
382.84	1695.72
383.05	1824.74
383.26	1787.88
383.47	1726.44
383.68	1828.84
383.88	1744.87
384.09	1740.77
384.30	1841.12
384.51	1740.77
384.72	1609.70
384.93	1638.38
385.14	1748.97
385.35	1841.12
385.55	1607.66
385.76	1763.30
385.97	1771.49
386.18	1646.57
386.39	1658.85
386.60	1628.14
386.81	1753.06
387.02	1662.95
387.22	1638.38
387.43	1841.12
387.64	1877.99
387.85	1798.12
388.06	2195.42
388.27	4177.86
388.48	6786.97
388.68	8134.53
388.89	9512.81
389.10	9856.87
389.31	8505.21
389.52	7628.68
389.73	6690.71
389.93	6043.56
390.14	5803.94
390.35	5218.22
390.56	4526.01
390.77	3803.08
390.98	2994.13
391.18	2602.97
391.39	2152.42
391.60	1859.56
391.81	1978.34
392.02	1693.67
392.23	1804.26
392.43	1720.29
392.64	1761.25
392.85	1693.67
393.06	1746.92
393.27	1697.77
393.47	1656.81
393.68	1648.61
393.89	1648.61
394.10	1781.73
394.31	1648.61
394.52	1628.14
394.72	1665.00
394.93	1794.02
395.14	1638.38
395.35	1759.21
395.56	1644.52
395.76	1734.63
395.97	1773.54
396.18	1783.78
396.39	1787.88
396.60	2037.73
396.80	1900.52
397.01	1841.12
397.22	1855.46
397.43	1853.41
397.64	1648.61
397.84	1746.92
398.05	1914.85
398.26	1718.25
398.47	1773.54
398.67	1769.44
398.88	1744.87
399.09	1761.25
399.30	1779.68
399.51	1732.58
399.71	1662.95
399.92	1730.53
400.13	1761.25
400.34	1744.87
400.54	1609.70
400.75	1814.50
400.96	1787.88
401.17	1728.49
401.37	1761.25
401.58	1701.86
401.79	1683.43
402.00	1861.60
402.21	2027.49
402.41	1898.47
402.62	2029.54
402.83	1914.85
403.04	2004.96
403.24	2074.59
403.45	1970.15
403.66	1873.89
403.87	1951.71
404.07	1918.95
404.28	1773.54
404.49	1920.99
404.70	1732.58
404.90	1714.15
405.11	1769.44
405.32	1705.96
405.52	1708.01
405.73	1724.39
405.94	1728.49
406.15	1650.66
406.35	1705.96
406.56	1785.83
406.77	1763.30
406.98	1757.16
407.18	1751.01
407.39	1798.12
407.60	1701.86
407.80	1759.21
408.01	1646.57
408.22	1656.81
408.43	1652.71
408.63	1759.21
408.84	1736.68
409.05	1724.39
409.25	1644.52
409.46	1675.24
409.67	1671.14
409.88	1738.73
410.08	1734.63
410.29	1718.25
410.50	1769.44
410.70	1728.49
410.91	1611.75
411.12	1705.96
411.32	1658.85
411.53	1675.24
411.74	1851.36
411.95	1783.78
412.15	1755.11
412.36	1763.30
412.57	1734.63
412.77	1849.32
412.98	1712.10
413.19	1708.01
413.39	1798.12
413.60	1775.59
413.81	1763.30
414.01	1628.14
414.22	1697.77
414.43	1714.15
414.63	1748.97
414.84	1726.44
415.05	1671.14
415.25	1574.89
415.46	1714.15
415.67	1667.05
415.87	1681.38
416.08	1734.63
416.29	1708.01
416.49	1685.48
416.70	1697.77
416.91	1673.19
417.11	1740.77
417.32	1732.58
417.53	1748.97
417.73	1724.39
417.94	1697.77
418.15	1632.23
418.35	1726.44
418.56	1675.24
418.77	1888.23
418.97	1652.71
419.18	1716.20
419.38	1619.94
419.59	1742.82
419.80	1763.30
420.00	1693.67
420.21	1654.76
420.42	1824.74
420.62	1652.71
420.83	1736.68
421.04	1667.05
421.24	1593.32
421.45	1683.43
421.65	1718.25
421.86	1693.67
422.07	1708.01
422.27	1714.15
422.48	1720.29
422.69	1599.46
422.89	1689.57
423.10	1697.77
423.30	1556.46
423.51	1726.44
423.72	1673.19
423.92	1701.86
424.13	1667.05
424.33	1677.29
424.54	1742.82
424.75	1644.52
424.95	1794.02
425.16	1755.11
425.36	1710.05
425.57	1804.26
425.78	1798.12
425.98	1734.63
426.19	1675.24
426.39	1607.66
426.60	1771.49
426.81	1748.97
427.01	1705.96
427.22	1652.71
427.42	1560.55
427.63	1656.81
427.83	1734.63
428.04	1802.21
428.25	1738.73
428.45	1775.59
428.66	1763.30
428.86	1742.82
429.07	1689.57
429.28	1720.29
429.48	1705.96
429.69	1689.57
429.89	1679.33
430.10	1615.85
430.30	1794.02
430.51	1724.39
430.71	1634.28
430.92	1673.19
431.13	1644.52
431.33	1720.29
431.54	1751.01
431.74	1787.88
431.95	1808.36
432.15	1712.10
432.36	1615.85
432.56	1738.73
432.77	1814.50
432.98	1769.44
433.18	1675.24
433.39	1665.00
433.59	1814.50
433.80	1808.36
434.00	1857.51
434.21	1665.00
434.41	1730.53
434.62	1824.74
434.82	1642.47
435.03	1603.56
435.23	1755.11
435.44	1609.70
435.64	1777.64
435.85	1708.01
436.06	1804.26
436.26	1730.53
436.47	1751.01
436.67	1632.23
436.88	1722.34
437.08	1769.44
437.29	1806.31
437.49	1736.68
437.70	1677.29
437.90	1726.44
438.11	1935.33
438.31	1804.26
438.52	1839.08
438.72	1888.23
438.93	1873.89
439.13	1722.34
439.34	1816.55
439.54	1708.01
439.75	1767.40
439.95	1804.26
440.16	1744.87
440.36	1757.16
440.57	1761.25
440.77	1722.34
440.98	1761.25
441.18	1714.15
441.39	1695.72
441.59	1675.24
441.80	1828.84
442.00	1787.88
442.21	1773.54
442.41	1585.13
442.62	1730.53
442.82	1728.49
443.02	1771.49
443.23	1755.11
443.43	1708.01
443.64	1812.45
443.84	1628.14
444.05	1837.03
444.25	1718.25
444.46	1728.49
444.66	1748.97
444.87	1791.97
445.07	1605.61
445.28	1714.15
445.48	1808.36
445.69	1714.15
445.89	1798.12
446.09	1718.25
446.30	2043.87
446.50	2703.32
446.71	3766.21
446.91	4298.69
447.12	4642.75
447.32	4806.58
447.53	4216.77
447.73	3942.34
447.93	3473.36
448.14	3221.45
448.34	3160.02
448.55	2977.75
448.75	2824.15
448.96	2736.09
449.16	2463.71
449.36	2265.05
449.57	2043.87
449.77	1890.28
449.98	1828.84
450.18	1757.16
450.39	1837.03
450.59	1804.26
450.79	1755.11
451.00	1740.77
451.20	1744.87
451.41	1738.73
451.61	1802.21
451.81	1730.53
452.02	1701.86
452.22	1738.73
452.43	1755.11
452.63	1669.09
