SpectraSuite Data File
++++++++++++++++++++++++++++++++++++
Date: Mon Jun 06 16:24:57 CEST 2016
User: root
Dark Spectrum Present: No
Reference Spectrum Present: No
Number of Sampled Component Spectra: 1
Spectrometers: USB4C02835
Integration Time (usec): 100000 (USB4C02835)
Spectra Averaged: 1 (USB4C02835)
Boxcar Smoothing: 0 (USB4C02835)
Correct for Electrical Dark: No (USB4C02835)
Strobe/Lamp Enabled: No (USB4C02835)
Correct for Detector Non-linearity: No (USB4C02835)
Correct for Stray Light: No (USB4C02835)
Number of Pixels in Processed Spectrum: 3648
>>>>>Begin Processed Spectral Data<<<<<
177.47	1492.97
177.69	1492.97
177.91	1492.97
178.13	1474.54
178.36	1492.97
178.58	1662.95
178.80	1767.40
179.02	1587.18
179.24	1699.81
179.46	1726.44
179.68	1767.40
179.90	1689.57
180.13	1708.01
180.35	1632.23
180.57	1712.10
180.79	1779.68
181.01	1697.77
181.23	1744.87
181.45	1767.40
181.67	1724.39
181.90	1744.87
182.12	1591.27
182.34	1517.54
182.56	1765.35
182.78	1708.01
183.00	1667.05
183.22	1718.25
183.44	1554.41
183.66	1843.17
183.89	1818.60
184.11	1695.72
184.33	1695.72
184.55	1814.50
184.77	1734.63
184.99	1763.30
185.21	1667.05
185.43	1880.04
185.65	1648.61
185.87	1703.91
186.10	1910.75
186.32	1796.07
186.54	1693.67
186.76	1761.25
186.98	1804.26
187.20	1648.61
187.42	1740.77
187.64	1671.14
187.86	1806.31
188.08	1771.49
188.30	1714.15
188.52	1673.19
188.75	1748.97
188.97	1773.54
189.19	1683.43
189.41	1710.05
189.63	1708.01
189.85	1630.18
190.07	1621.99
190.29	1632.23
190.51	1677.29
190.73	1673.19
190.95	1726.44
191.17	1673.19
191.39	1621.99
191.61	1720.29
191.84	1683.43
192.06	1767.40
192.28	1646.57
192.50	1857.51
192.72	1769.44
192.94	1667.05
193.16	1810.40
193.38	1763.30
193.60	1734.63
193.82	1654.76
194.04	1767.40
194.26	1667.05
194.48	1779.68
194.70	1705.96
194.92	1673.19
195.14	1746.92
195.36	1703.91
195.58	1763.30
195.80	1683.43
196.02	1755.11
196.24	1691.62
196.46	1718.25
196.69	1697.77
196.91	1894.37
197.13	1673.19
197.35	1652.71
197.57	1769.44
197.79	1746.92
198.01	1757.16
198.23	1757.16
198.45	1691.62
198.67	1693.67
198.89	1779.68
199.11	1689.57
199.33	1679.33
199.55	1583.08
199.77	1656.81
199.99	1720.29
200.21	1671.14
200.43	1677.29
200.65	1630.18
200.87	1671.14
201.09	1662.95
201.31	1728.49
201.53	1728.49
201.75	1818.60
201.97	1675.24
202.19	1705.96
202.41	1742.82
202.63	1794.02
202.85	1734.63
203.07	1804.26
203.29	1699.81
203.51	1693.67
203.73	1699.81
203.95	1820.64
204.17	1683.43
204.39	1691.62
204.61	1679.33
204.83	1642.47
205.05	1822.69
205.27	1761.25
205.49	1906.66
205.71	1771.49
205.93	1665.00
206.15	1757.16
206.37	1689.57
206.59	1744.87
206.81	1611.75
207.03	1722.34
207.25	1695.72
207.47	1742.82
207.69	1718.25
207.91	1769.44
208.13	1757.16
208.34	1677.29
208.56	1683.43
208.78	1787.88
209.00	1624.04
209.22	1677.29
209.44	1617.90
209.66	1730.53
209.88	1726.44
210.10	1656.81
210.32	1701.86
210.54	1789.92
210.76	1718.25
210.98	1718.25
211.20	1546.22
211.42	1685.48
211.64	1767.40
211.86	1763.30
212.08	1767.40
212.30	1718.25
212.52	1671.14
212.74	1746.92
212.96	1646.57
213.17	1744.87
213.39	1783.78
213.61	1802.21
213.83	1722.34
214.05	1630.18
214.27	1697.77
214.49	1708.01
214.71	1638.38
214.93	1775.59
215.15	1804.26
215.37	1722.34
215.59	1617.90
215.81	1685.48
216.03	1763.30
216.24	1767.40
216.46	1667.05
216.68	1726.44
216.90	1830.88
217.12	1736.68
217.34	1724.39
217.56	1708.01
217.78	1779.68
218.00	1789.92
218.22	1767.40
218.44	1738.73
218.66	1781.73
218.87	1765.35
219.09	1669.09
219.31	1718.25
219.53	1734.63
219.75	1624.04
219.97	1767.40
220.19	1726.44
220.41	1726.44
220.63	1742.82
220.85	1769.44
221.06	1693.67
221.28	1761.25
221.50	1732.58
221.72	1753.06
221.94	1714.15
222.16	1699.81
222.38	1757.16
222.60	1746.92
222.82	1669.09
223.03	1757.16
223.25	1665.00
223.47	1744.87
223.69	1794.02
223.91	1765.35
224.13	1746.92
224.35	1654.76
224.57	1759.21
224.78	1796.07
225.00	1699.81
225.22	1675.24
225.44	1746.92
225.66	1746.92
225.88	1662.95
226.10	1738.73
226.32	1757.16
226.53	1787.88
226.75	1640.42
226.97	1675.24
227.19	1728.49
227.41	1691.62
227.63	1703.91
227.85	1617.90
228.06	1779.68
228.28	1679.33
228.50	1738.73
228.72	1671.14
228.94	1662.95
229.16	1595.37
229.37	1652.71
229.59	1738.73
229.81	1794.02
230.03	1679.33
230.25	1628.14
230.47	1689.57
230.69	1716.20
230.90	1714.15
231.12	1677.29
231.34	1708.01
231.56	1763.30
231.78	1624.04
232.00	1675.24
232.21	1726.44
232.43	1673.19
232.65	1593.32
232.87	1765.35
233.09	1693.67
233.30	1632.23
233.52	1734.63
233.74	1716.20
233.96	1722.34
234.18	1726.44
234.40	1654.76
234.61	1918.95
234.83	1669.09
235.05	1621.99
235.27	1841.12
235.49	1769.44
235.70	1710.05
235.92	1730.53
236.14	1775.59
236.36	1828.84
236.58	1628.14
236.79	1658.85
237.01	1626.09
237.23	1677.29
237.45	1837.03
237.67	1742.82
237.88	1771.49
238.10	1880.04
238.32	1652.71
238.54	1673.19
238.76	1771.49
238.97	1646.57
239.19	1708.01
239.41	1738.73
239.63	1730.53
239.85	1712.10
240.06	1681.38
240.28	1710.05
240.50	1748.97
240.72	1705.96
240.93	1748.97
241.15	1726.44
241.37	1720.29
241.59	1785.83
241.81	1669.09
242.02	1705.96
242.24	1732.58
242.46	1785.83
242.68	1630.18
242.89	1714.15
243.11	1742.82
243.33	1697.77
243.55	1767.40
243.76	1714.15
243.98	1728.49
244.20	1708.01
244.42	1777.64
244.64	1710.05
244.85	1546.22
245.07	1656.81
245.29	1644.52
245.51	1683.43
245.72	1740.77
245.94	1851.36
246.16	1765.35
246.38	1703.91
246.59	1705.96
246.81	1671.14
247.03	1804.26
247.24	1652.71
247.46	1716.20
247.68	1761.25
247.90	1724.39
248.11	1718.25
248.33	1804.26
248.55	1644.52
248.77	1755.11
248.98	1724.39
249.20	1757.16
249.42	1730.53
249.64	1708.01
249.85	1755.11
250.07	1677.29
250.29	1742.82
250.50	1767.40
250.72	1714.15
250.94	1755.11
251.16	1773.54
251.37	1791.97
251.59	1701.86
251.81	1624.04
252.02	1847.27
252.24	1730.53
252.46	1791.97
252.68	1669.09
252.89	1681.38
253.11	1595.37
253.33	1843.17
253.54	1742.82
253.76	1619.94
253.98	1638.38
254.20	1730.53
254.41	1669.09
254.63	1628.14
254.85	1654.76
255.06	1667.05
255.28	1673.19
255.50	1726.44
255.71	1628.14
255.93	1656.81
256.15	1665.00
256.36	1665.00
256.58	1550.31
256.80	1796.07
257.02	1689.57
257.23	1716.20
257.45	1744.87
257.67	1767.40
257.88	1660.90
258.10	1728.49
258.32	1683.43
258.53	1714.15
258.75	1886.18
258.97	1689.57
259.18	1746.92
259.40	1617.90
259.62	1789.92
259.83	1785.83
260.05	1718.25
260.27	1929.19
260.48	1724.39
260.70	1607.66
260.92	1687.53
261.13	1783.78
261.35	1716.20
261.57	1724.39
261.78	1599.46
262.00	1624.04
262.22	1744.87
262.43	1718.25
262.65	1667.05
262.86	1714.15
263.08	1837.03
263.30	1699.81
263.51	1689.57
263.73	1697.77
263.95	1832.93
264.16	1697.77
264.38	1683.43
264.60	1757.16
264.81	1708.01
265.03	1818.60
265.25	1771.49
265.46	1720.29
265.68	1789.92
265.89	1771.49
266.11	1597.42
266.33	1826.79
266.54	1802.21
266.76	1675.24
266.98	1716.20
267.19	1841.12
267.41	1787.88
267.62	1677.29
267.84	1689.57
268.06	1665.00
268.27	1744.87
268.49	1765.35
268.70	1826.79
268.92	1642.47
269.14	1658.85
269.35	1650.66
269.57	1708.01
269.79	1724.39
270.00	1710.05
270.22	1832.93
270.43	1640.42
270.65	1599.46
270.87	1726.44
271.08	1726.44
271.30	1757.16
271.51	1630.18
271.73	1681.38
271.95	1736.68
272.16	1736.68
272.38	1695.72
272.59	1681.38
272.81	1708.01
273.02	1724.39
273.24	1705.96
273.46	1816.55
273.67	1656.81
273.89	1693.67
274.10	1781.73
274.32	1771.49
274.54	1769.44
274.75	1740.77
274.97	1644.52
275.18	1783.78
275.40	1742.82
275.61	1708.01
275.83	1703.91
276.05	1619.94
276.26	1751.01
276.48	1769.44
276.69	1681.38
276.91	1718.25
277.12	1777.64
277.34	1818.60
277.55	1714.15
277.77	1679.33
277.99	1669.09
278.20	1636.33
278.42	1673.19
278.63	1640.42
278.85	1724.39
279.06	1638.38
279.28	1771.49
279.49	1726.44
279.71	1701.86
279.93	1767.40
280.14	1632.23
280.36	1685.48
280.57	1732.58
280.79	1769.44
281.00	1656.81
281.22	1726.44
281.43	1837.03
281.65	1591.27
281.86	1624.04
282.08	1691.62
282.29	1779.68
282.51	1701.86
282.73	1679.33
282.94	1628.14
283.16	1720.29
283.37	1794.02
283.59	1681.38
283.80	1763.30
284.02	1738.73
284.23	1771.49
284.45	1705.96
284.66	1697.77
284.88	1619.94
285.09	1689.57
285.31	1806.31
285.52	1781.73
285.74	1630.18
285.95	1769.44
286.17	1738.73
286.38	1769.44
286.60	1712.10
286.81	1681.38
287.03	1638.38
287.24	1738.73
287.46	1738.73
287.67	1728.49
287.89	1789.92
288.10	1660.90
288.32	1699.81
288.53	1794.02
288.75	1783.78
288.96	1742.82
289.18	1705.96
289.39	1665.00
289.61	1787.88
289.82	1851.36
290.04	1812.45
290.25	1681.38
290.47	1712.10
290.68	1683.43
290.90	1740.77
291.11	1656.81
291.33	1730.53
291.54	1746.92
291.76	1660.90
291.97	1828.84
292.18	1732.58
292.40	1755.11
292.61	1728.49
292.83	1845.22
293.04	1800.16
293.26	1650.66
293.47	1660.90
293.69	1654.76
293.90	1773.54
294.12	1726.44
294.33	1683.43
294.55	1708.01
294.76	1769.44
294.97	1814.50
295.19	1791.97
295.40	1662.95
295.62	1763.30
295.83	1769.44
296.05	1624.04
296.26	1763.30
296.48	1654.76
296.69	1751.01
296.90	1662.95
297.12	1720.29
297.33	1708.01
297.55	1714.15
297.76	1748.97
297.98	1763.30
298.19	1763.30
298.41	1685.48
298.62	1656.81
298.83	1787.88
299.05	1722.34
299.26	1673.19
299.48	1636.33
299.69	1738.73
299.90	1693.67
300.12	1667.05
300.33	1787.88
300.55	1730.53
300.76	1714.15
300.98	1652.71
301.19	1742.82
301.40	1691.62
301.62	1681.38
301.83	1779.68
302.05	1714.15
302.26	1748.97
302.47	1724.39
302.69	1654.76
302.90	1665.00
303.12	1638.38
303.33	1734.63
303.54	1771.49
303.76	1679.33
303.97	1742.82
304.19	1802.21
304.40	1605.61
304.61	1730.53
304.83	1845.22
305.04	1705.96
305.26	1775.59
305.47	1665.00
305.68	1693.67
305.90	1650.66
306.11	1755.11
306.33	1824.74
306.54	1691.62
306.75	1638.38
306.97	1656.81
307.18	1697.77
307.39	1652.71
307.61	1753.06
307.82	1712.10
308.04	1755.11
308.25	1716.20
308.46	1734.63
308.68	1628.14
308.89	1724.39
309.10	1849.32
309.32	1730.53
309.53	1769.44
309.74	1673.19
309.96	1705.96
310.17	1769.44
310.39	1652.71
310.60	1755.11
310.81	1701.86
311.03	1671.14
311.24	1693.67
311.45	1708.01
311.67	1781.73
311.88	1781.73
312.09	1634.28
312.31	1687.53
312.52	1703.91
312.73	1695.72
312.95	1613.80
313.16	1730.53
313.37	1759.21
313.59	1742.82
313.80	1773.54
314.01	1828.84
314.23	1693.67
314.44	1685.48
314.65	1613.80
314.87	1665.00
315.08	1714.15
315.29	1677.29
315.51	1673.19
315.72	1640.42
315.93	1796.07
316.15	1736.68
316.36	1685.48
316.57	1677.29
316.79	1796.07
317.00	1650.66
317.21	1751.01
317.43	1646.57
317.64	1683.43
317.85	1710.05
318.07	1615.85
318.28	1748.97
318.49	1861.60
318.70	1912.80
318.92	1759.21
319.13	1800.16
319.34	1882.08
319.56	1755.11
319.77	1841.12
319.98	1839.08
320.20	1798.12
320.41	1814.50
320.62	1810.40
320.83	1648.61
321.05	1867.75
321.26	1773.54
321.47	1695.72
321.69	1832.93
321.90	1611.75
322.11	1644.52
322.32	1675.24
322.54	1759.21
322.75	1638.38
322.96	1884.13
323.18	1689.57
323.39	1613.80
323.60	1726.44
323.81	1748.97
324.03	1712.10
324.24	1740.77
324.45	1697.77
324.66	1689.57
324.88	1810.40
325.09	1802.21
325.30	1763.30
325.52	1714.15
325.73	1763.30
325.94	1675.24
326.15	1640.42
326.37	1671.14
326.58	1751.01
326.79	1800.16
327.00	1656.81
327.22	1755.11
327.43	1689.57
327.64	1624.04
327.85	1746.92
328.07	1705.96
328.28	1783.78
328.49	1667.05
328.70	1718.25
328.92	1714.15
329.13	1677.29
329.34	1693.67
329.55	1781.73
329.76	1718.25
329.98	1691.62
330.19	1765.35
330.40	1767.40
330.61	1738.73
330.83	1730.53
331.04	1714.15
331.25	1671.14
331.46	1675.24
331.68	1665.00
331.89	1796.07
332.10	1759.21
332.31	1660.90
332.52	1763.30
332.74	1828.84
332.95	1650.66
333.16	1718.25
333.37	1681.38
333.58	1652.71
333.80	1638.38
334.01	1587.18
334.22	1693.67
334.43	1626.09
334.64	1697.77
334.86	1642.47
335.07	1607.66
335.28	1796.07
335.49	1644.52
335.70	1726.44
335.92	1779.68
336.13	1800.16
336.34	1828.84
336.55	1710.05
336.76	1769.44
336.98	1599.46
337.19	1681.38
337.40	1783.78
337.61	1882.08
337.82	1681.38
338.04	1671.14
338.25	1699.81
338.46	1691.62
338.67	1710.05
338.88	1648.61
339.09	1656.81
339.31	1638.38
339.52	1665.00
339.73	1701.86
339.94	1667.05
340.15	1748.97
340.36	1673.19
340.58	1722.34
340.79	1640.42
341.00	1740.77
341.21	1748.97
341.42	1732.58
341.63	1726.44
341.85	1732.58
342.06	1753.06
342.27	1685.48
342.48	1744.87
342.69	1685.48
342.90	1767.40
343.12	1814.50
343.33	1720.29
343.54	1689.57
343.75	1822.69
343.96	1703.91
344.17	1755.11
344.38	1714.15
344.60	1665.00
344.81	1665.00
345.02	1675.24
345.23	1769.44
345.44	1757.16
345.65	1746.92
345.86	1673.19
346.07	1712.10
346.29	1650.66
346.50	1724.39
346.71	1791.97
346.92	1785.83
347.13	1828.84
347.34	1638.38
347.55	1722.34
347.76	1791.97
347.98	1640.42
348.19	1677.29
348.40	1757.16
348.61	1746.92
348.82	1771.49
349.03	1810.40
349.24	1660.90
349.45	1810.40
349.66	1624.04
349.88	1716.20
350.09	1660.90
350.30	1761.25
350.51	1708.01
350.72	1665.00
350.93	1718.25
351.14	1681.38
351.35	1685.48
351.56	1695.72
351.77	1759.21
351.99	1701.86
352.20	1785.83
352.41	1753.06
352.62	1599.46
352.83	1687.53
353.04	1624.04
353.25	1718.25
353.46	1742.82
353.67	1783.78
353.88	1593.32
354.09	1726.44
354.30	1734.63
354.52	1718.25
354.73	1705.96
354.94	1714.15
355.15	1751.01
355.36	1834.98
355.57	1708.01
355.78	1757.16
355.99	1675.24
356.20	1732.58
356.41	1789.92
356.62	1757.16
356.83	1724.39
357.04	1718.25
357.25	1648.61
357.46	1736.68
357.68	1626.09
357.89	1685.48
358.10	1773.54
358.31	1665.00
358.52	1755.11
358.73	1609.70
358.94	1689.57
359.15	1677.29
359.36	1746.92
359.57	1650.66
359.78	1630.18
359.99	1748.97
360.20	1697.77
360.41	1697.77
360.62	1775.59
360.83	1834.98
361.04	1691.62
361.25	1730.53
361.46	1736.68
361.67	1746.92
361.88	1771.49
362.09	1755.11
362.30	1714.15
362.51	1687.53
362.72	1755.11
362.93	1714.15
363.14	1736.68
363.35	1742.82
363.56	1644.52
363.78	1787.88
363.99	1714.15
364.20	1748.97
364.41	1660.90
364.62	1796.07
364.83	1726.44
365.04	1710.05
365.25	1726.44
365.46	1828.84
365.67	1689.57
365.88	1679.33
366.09	1685.48
366.30	1679.33
366.51	1691.62
366.72	1609.70
366.93	1728.49
367.14	1697.77
367.35	1789.92
367.56	1718.25
367.77	1822.69
367.98	1687.53
368.18	1697.77
368.39	1726.44
368.60	1691.62
368.81	1777.64
369.02	1724.39
369.23	1632.23
369.44	1644.52
369.65	1669.09
369.86	1740.77
370.07	1783.78
370.28	1638.38
370.49	1703.91
370.70	1730.53
370.91	1624.04
371.12	1703.91
371.33	1755.11
371.54	1724.39
371.75	1865.70
371.96	1583.08
372.17	1708.01
372.38	1662.95
372.59	1785.83
372.80	1689.57
373.01	1669.09
373.22	1685.48
373.43	1705.96
373.64	1632.23
373.85	1753.06
374.06	1791.97
374.26	1767.40
374.47	1738.73
374.68	1722.34
374.89	1755.11
375.10	1736.68
375.31	1734.63
375.52	1716.20
375.73	1771.49
375.94	1646.57
376.15	1841.12
376.36	1626.09
376.57	1726.44
376.78	1628.14
376.99	1718.25
377.20	1810.40
377.40	1685.48
377.61	1808.36
377.82	1683.43
378.03	1869.80
378.24	1763.30
378.45	1691.62
378.66	1820.64
378.87	1652.71
379.08	1566.70
379.29	1656.81
379.50	1890.28
379.71	1693.67
379.91	1748.97
380.12	1656.81
380.33	1656.81
380.54	1728.49
380.75	1722.34
380.96	1654.76
381.17	1722.34
381.38	1734.63
381.59	1738.73
381.80	1716.20
382.00	1896.42
382.21	1804.26
382.42	1839.08
382.63	1882.08
382.84	1734.63
383.05	1818.60
383.26	1839.08
383.47	1744.87
383.68	1751.01
383.88	1759.21
384.09	1699.81
384.30	1851.36
384.51	1714.15
384.72	1697.77
384.93	1691.62
385.14	1636.33
385.35	1771.49
385.55	1644.52
385.76	1783.78
385.97	1724.39
386.18	1669.09
386.39	1619.94
386.60	1640.42
386.81	1722.34
387.02	1652.71
387.22	1701.86
387.43	1753.06
387.64	1800.16
387.85	1863.65
388.06	2199.52
388.27	4294.59
388.48	6778.78
388.68	8306.56
388.89	9381.74
389.10	9940.84
389.31	8820.60
389.52	7432.08
389.73	6770.58
389.93	6313.89
390.14	5875.62
390.35	5265.33
390.56	4528.06
390.77	3743.69
390.98	3057.62
391.18	2525.15
391.39	2015.20
391.60	1843.17
391.81	1863.65
392.02	1654.76
392.23	1847.27
392.43	1726.44
392.64	1824.74
392.85	1742.82
393.06	1822.69
393.27	1736.68
393.47	1708.01
393.68	1777.64
393.89	1701.86
394.10	1771.49
394.31	1683.43
394.52	1689.57
394.72	1673.19
394.93	1804.26
395.14	1695.72
395.35	1783.78
395.56	1675.24
395.76	1628.14
395.97	1742.82
396.18	1886.18
396.39	1884.13
396.60	2074.59
396.80	1935.33
397.01	1787.88
397.22	1824.74
397.43	1820.64
397.64	1732.58
397.84	1834.98
398.05	1849.32
398.26	1761.25
398.47	1804.26
398.67	1806.31
398.88	1744.87
399.09	1718.25
399.30	1693.67
399.51	1724.39
399.71	1691.62
399.92	1671.14
400.13	1810.40
400.34	1617.90
400.54	1740.77
400.75	1802.21
400.96	1763.30
401.17	1804.26
401.37	1775.59
401.58	1771.49
401.79	1748.97
402.00	1855.46
402.21	2004.96
402.41	1951.71
402.62	2078.69
402.83	2007.01
403.04	2025.44
403.24	2035.68
403.45	1789.92
403.66	1935.33
403.87	1906.66
404.07	1937.38
404.28	1830.88
404.49	1904.61
404.70	1759.21
404.90	1808.36
405.11	1708.01
405.32	1718.25
405.52	1665.00
405.73	1708.01
405.94	1677.29
406.15	1751.01
406.35	1800.16
406.56	1703.91
406.77	1689.57
406.98	1755.11
407.18	1593.32
407.39	1771.49
407.60	1593.32
407.80	1763.30
408.01	1656.81
408.22	1791.97
408.43	1673.19
408.63	1757.16
408.84	1820.64
409.05	1736.68
409.25	1689.57
409.46	1662.95
409.67	1671.14
409.88	1591.27
410.08	1705.96
410.29	1677.29
410.50	1736.68
410.70	1714.15
410.91	1634.28
411.12	1689.57
411.32	1785.83
411.53	1738.73
411.74	1845.22
411.95	1886.18
412.15	1771.49
412.36	1802.21
412.57	1775.59
412.77	1753.06
412.98	1728.49
413.19	1718.25
413.39	1746.92
413.60	1656.81
413.81	1867.75
414.01	1650.66
414.22	1755.11
414.43	1791.97
414.63	1685.48
414.84	1787.88
415.05	1755.11
415.25	1652.71
415.46	1781.73
415.67	1796.07
415.87	1660.90
416.08	1687.53
416.29	1675.24
416.49	1794.02
416.70	1708.01
416.91	1771.49
417.11	1714.15
417.32	1714.15
417.53	1755.11
417.73	1763.30
417.94	1746.92
418.15	1730.53
418.35	1740.77
418.56	1730.53
418.77	1826.79
418.97	1675.24
419.18	1660.90
419.38	1716.20
419.59	1701.86
419.80	1814.50
420.00	1693.67
420.21	1699.81
420.42	1744.87
420.62	1779.68
420.83	1673.19
421.04	1613.80
421.24	1689.57
421.45	1800.16
421.65	1685.48
421.86	1712.10
422.07	1751.01
422.27	1757.16
422.48	1748.97
422.69	1671.14
422.89	1720.29
423.10	1714.15
423.30	1687.53
423.51	1640.42
423.72	1714.15
423.92	1736.68
424.13	1669.09
424.33	1771.49
424.54	1720.29
424.75	1705.96
424.95	1808.36
425.16	1759.21
425.36	1632.23
425.57	1742.82
425.78	1732.58
425.98	1787.88
426.19	1705.96
426.39	1611.75
426.60	1744.87
426.81	1714.15
427.01	1722.34
427.22	1732.58
427.42	1634.28
427.63	1787.88
427.83	1761.25
428.04	1873.89
428.25	1779.68
428.45	1716.20
428.66	1771.49
428.86	1699.81
429.07	1712.10
429.28	1810.40
429.48	1734.63
429.69	1656.81
429.89	1744.87
430.10	1660.90
430.30	1738.73
430.51	1728.49
430.71	1599.46
430.92	1765.35
431.13	1669.09
431.33	1722.34
431.54	1699.81
431.74	1871.84
431.95	1796.07
432.15	1705.96
432.36	1714.15
432.56	1781.73
432.77	1796.07
432.98	1818.60
433.18	1728.49
433.39	1732.58
433.59	1730.53
433.80	1828.84
434.00	1865.70
434.21	1708.01
434.41	1722.34
434.62	1886.18
434.82	1667.05
435.03	1628.14
435.23	1779.68
435.44	1603.56
435.64	1693.67
435.85	1757.16
436.06	1705.96
436.26	1783.78
436.47	1777.64
436.67	1642.47
436.88	1785.83
437.08	1785.83
437.29	1837.03
437.49	1748.97
437.70	1816.55
437.90	1722.34
438.11	1894.37
438.31	1802.21
438.52	1857.51
438.72	1890.28
438.93	1959.91
439.13	1783.78
439.34	1834.98
439.54	1759.21
439.75	1834.98
439.95	1818.60
440.16	1714.15
440.36	1804.26
440.57	1818.60
440.77	1820.64
440.98	1759.21
441.18	1787.88
441.39	1687.53
441.59	1677.29
441.80	1933.28
442.00	1675.24
442.21	1830.88
442.41	1683.43
442.62	1779.68
442.82	1738.73
443.02	1832.93
443.23	1691.62
443.43	1759.21
443.64	1761.25
443.84	1677.29
444.05	1783.78
444.25	1738.73
444.46	1656.81
444.66	1736.68
444.87	1812.45
445.07	1570.79
445.28	1744.87
445.48	1865.70
445.69	1673.19
445.89	1839.08
446.09	1751.01
446.30	1974.24
446.50	2680.79
446.71	3764.17
446.91	4323.26
447.12	4753.34
447.32	4890.55
447.53	4364.22
447.73	3909.57
447.93	3499.98
448.14	3307.47
448.34	3221.45
448.55	2934.74
448.75	2811.86
448.96	2672.60
449.16	2387.93
449.36	2328.54
449.57	2004.96
449.77	1865.70
449.98	1822.69
450.18	1789.92
450.39	1767.40
450.59	1781.73
450.79	1693.67
451.00	1755.11
451.20	1763.30
451.41	1662.95
451.61	1796.07
451.81	1689.57
452.02	1755.11
452.22	1759.21
452.43	1716.20
452.63	1708.01
