SpectraSuite Data File
++++++++++++++++++++++++++++++++++++
Date: Mon Jun 06 13:23:57 CEST 2016
User: root
Dark Spectrum Present: No
Reference Spectrum Present: No
Number of Sampled Component Spectra: 1
Spectrometers: USB4C02835
Integration Time (usec): 100000 (USB4C02835)
Spectra Averaged: 1 (USB4C02835)
Boxcar Smoothing: 0 (USB4C02835)
Correct for Electrical Dark: No (USB4C02835)
Strobe/Lamp Enabled: No (USB4C02835)
Correct for Detector Non-linearity: No (USB4C02835)
Correct for Stray Light: No (USB4C02835)
Number of Pixels in Processed Spectrum: 3648
>>>>>Begin Processed Spectral Data<<<<<
177.47	1406.95
177.69	1406.95
177.91	1406.95
178.13	1443.82
178.36	1380.33
178.58	1642.47
178.80	1775.59
179.02	1710.05
179.24	1640.42
179.46	1751.01
179.68	1781.73
179.90	1720.29
180.13	1722.34
180.35	1621.99
180.57	1656.81
180.79	1681.38
181.01	1783.78
181.23	1789.92
181.45	1708.01
181.67	1761.25
181.90	1699.81
182.12	1679.33
182.34	1705.96
182.56	1720.29
182.78	1732.58
183.00	1654.76
183.22	1658.85
183.44	1556.46
183.66	1798.12
183.89	1759.21
184.11	1724.39
184.33	1753.06
184.55	1738.73
184.77	1742.82
184.99	1691.62
185.21	1677.29
185.43	1828.84
185.65	1640.42
185.87	1675.24
186.10	1814.50
186.32	1894.37
186.54	1734.63
186.76	1671.14
186.98	1705.96
187.20	1636.33
187.42	1720.29
187.64	1570.79
187.86	1728.49
188.08	1708.01
188.30	1619.94
188.52	1718.25
188.75	1705.96
188.97	1783.78
189.19	1658.85
189.41	1660.90
189.63	1669.09
189.85	1654.76
190.07	1695.72
190.29	1660.90
190.51	1697.77
190.73	1615.85
190.95	1759.21
191.17	1791.97
191.39	1542.12
191.61	1740.77
191.84	1660.90
192.06	1738.73
192.28	1607.66
192.50	1875.94
192.72	1730.53
192.94	1783.78
193.16	1748.97
193.38	1712.10
193.60	1630.18
193.82	1718.25
194.04	1794.02
194.26	1632.23
194.48	1683.43
194.70	1675.24
194.92	1642.47
195.14	1796.07
195.36	1597.42
195.58	1791.97
195.80	1695.72
196.02	1685.48
196.24	1675.24
196.46	1777.64
196.69	1607.66
196.91	1734.63
197.13	1650.66
197.35	1679.33
197.57	1794.02
197.79	1708.01
198.01	1689.57
198.23	1738.73
198.45	1720.29
198.67	1648.61
198.89	1667.05
199.11	1675.24
199.33	1640.42
199.55	1540.07
199.77	1771.49
199.99	1755.11
200.21	1685.48
200.43	1660.90
200.65	1642.47
200.87	1564.65
201.09	1736.68
201.31	1744.87
201.53	1763.30
201.75	1710.05
201.97	1720.29
202.19	1732.58
202.41	1665.00
202.63	1808.36
202.85	1748.97
203.07	1722.34
203.29	1593.32
203.51	1652.71
203.73	1660.90
203.95	1892.32
204.17	1740.77
204.39	1710.05
204.61	1691.62
204.83	1724.39
205.05	1716.20
205.27	1689.57
205.49	1800.16
205.71	1708.01
205.93	1632.23
206.15	1714.15
206.37	1728.49
206.59	1679.33
206.81	1714.15
207.03	1687.53
207.25	1624.04
207.47	1675.24
207.69	1740.77
207.91	1771.49
208.13	1808.36
208.34	1656.81
208.56	1740.77
208.78	1628.14
209.00	1699.81
209.22	1658.85
209.44	1691.62
209.66	1613.80
209.88	1632.23
210.10	1642.47
210.32	1658.85
210.54	1822.69
210.76	1644.52
210.98	1675.24
211.20	1550.31
211.42	1781.73
211.64	1787.88
211.86	1755.11
212.08	1726.44
212.30	1646.57
212.52	1697.77
212.74	1804.26
212.96	1767.40
213.17	1689.57
213.39	1748.97
213.61	1746.92
213.83	1755.11
214.05	1611.75
214.27	1701.86
214.49	1689.57
214.71	1669.09
214.93	1726.44
215.15	1722.34
215.37	1791.97
215.59	1642.47
215.81	1703.91
216.03	1791.97
216.24	1708.01
216.46	1722.34
216.68	1644.52
216.90	1712.10
217.12	1789.92
217.34	1763.30
217.56	1708.01
217.78	1810.40
218.00	1705.96
218.22	1742.82
218.44	1667.05
218.66	1718.25
218.87	1685.48
219.09	1695.72
219.31	1761.25
219.53	1732.58
219.75	1701.86
219.97	1779.68
220.19	1687.53
220.41	1701.86
220.63	1734.63
220.85	1730.53
221.06	1693.67
221.28	1773.54
221.50	1673.19
221.72	1753.06
221.94	1687.53
222.16	1652.71
222.38	1738.73
222.60	1708.01
222.82	1742.82
223.03	1779.68
223.25	1642.47
223.47	1714.15
223.69	1830.88
223.91	1734.63
224.13	1689.57
224.35	1693.67
224.57	1632.23
224.78	1701.86
225.00	1605.61
225.22	1646.57
225.44	1689.57
225.66	1716.20
225.88	1650.66
226.10	1781.73
226.32	1685.48
226.53	1728.49
226.75	1607.66
226.97	1644.52
227.19	1656.81
227.41	1681.38
227.63	1558.50
227.85	1628.14
228.06	1691.62
228.28	1669.09
228.50	1708.01
228.72	1662.95
228.94	1732.58
229.16	1578.98
229.37	1621.99
229.59	1630.18
229.81	1724.39
230.03	1634.28
230.25	1650.66
230.47	1650.66
230.69	1648.61
230.90	1783.78
231.12	1605.61
231.34	1673.19
231.56	1742.82
231.78	1644.52
232.00	1714.15
232.21	1673.19
232.43	1650.66
232.65	1564.65
232.87	1679.33
233.09	1621.99
233.30	1677.29
233.52	1740.77
233.74	1685.48
233.96	1716.20
234.18	1740.77
234.40	1714.15
234.61	1724.39
234.83	1652.71
235.05	1648.61
235.27	1775.59
235.49	1830.88
235.70	1673.19
235.92	1677.29
236.14	1734.63
236.36	1822.69
236.58	1619.94
236.79	1732.58
237.01	1697.77
237.23	1679.33
237.45	1837.03
237.67	1626.09
237.88	1724.39
238.10	1779.68
238.32	1669.09
238.54	1718.25
238.76	1746.92
238.97	1591.27
239.19	1648.61
239.41	1746.92
239.63	1718.25
239.85	1710.05
240.06	1732.58
240.28	1726.44
240.50	1738.73
240.72	1697.77
240.93	1691.62
241.15	1751.01
241.37	1599.46
241.59	1742.82
241.81	1642.47
242.02	1714.15
242.24	1722.34
242.46	1802.21
242.68	1611.75
242.89	1671.14
243.11	1753.06
243.33	1734.63
243.55	1660.90
243.76	1773.54
243.98	1697.77
244.20	1740.77
244.42	1675.24
244.64	1728.49
244.85	1626.09
245.07	1671.14
245.29	1738.73
245.51	1650.66
245.72	1714.15
245.94	1724.39
246.16	1759.21
246.38	1683.43
246.59	1656.81
246.81	1667.05
247.03	1648.61
247.24	1578.98
247.46	1705.96
247.68	1753.06
247.90	1730.53
248.11	1644.52
248.33	1791.97
248.55	1691.62
248.77	1781.73
248.98	1796.07
249.20	1822.69
249.42	1738.73
249.64	1658.85
249.85	1667.05
250.07	1644.52
250.29	1742.82
250.50	1748.97
250.72	1597.42
250.94	1693.67
251.16	1853.41
251.37	1759.21
251.59	1759.21
251.81	1681.38
252.02	1724.39
252.24	1662.95
252.46	1789.92
252.68	1626.09
252.89	1675.24
253.11	1632.23
253.33	1804.26
253.54	1740.77
253.76	1603.56
253.98	1671.14
254.20	1632.23
254.41	1648.61
254.63	1695.72
254.85	1630.18
255.06	1751.01
255.28	1705.96
255.50	1720.29
255.71	1646.57
255.93	1656.81
256.15	1726.44
256.36	1660.90
256.58	1669.09
256.80	1769.44
257.02	1636.33
257.23	1697.77
257.45	1665.00
257.67	1804.26
257.88	1648.61
258.10	1724.39
258.32	1689.57
258.53	1714.15
258.75	1808.36
258.97	1615.85
259.18	1710.05
259.40	1705.96
259.62	1738.73
259.83	1773.54
260.05	1722.34
260.27	1984.48
260.48	1718.25
260.70	1638.38
260.92	1675.24
261.13	1720.29
261.35	1734.63
261.57	1722.34
261.78	1591.27
262.00	1640.42
262.22	1695.72
262.43	1648.61
262.65	1671.14
262.86	1683.43
263.08	1740.77
263.30	1812.45
263.51	1654.76
263.73	1656.81
263.95	1859.56
264.16	1681.38
264.38	1607.66
264.60	1697.77
264.81	1619.94
265.03	1763.30
265.25	1732.58
265.46	1761.25
265.68	1755.11
265.89	1757.16
266.11	1583.08
266.33	1708.01
266.54	1689.57
266.76	1734.63
266.98	1763.30
267.19	1789.92
267.41	1689.57
267.62	1619.94
267.84	1615.85
268.06	1757.16
268.27	1714.15
268.49	1710.05
268.70	1773.54
268.92	1640.42
269.14	1695.72
269.35	1650.66
269.57	1697.77
269.79	1804.26
270.00	1708.01
270.22	1744.87
270.43	1714.15
270.65	1609.70
270.87	1693.67
271.08	1693.67
271.30	1712.10
271.51	1681.38
271.73	1716.20
271.95	1751.01
272.16	1687.53
272.38	1703.91
272.59	1695.72
272.81	1697.77
273.02	1763.30
273.24	1708.01
273.46	1718.25
273.67	1699.81
273.89	1675.24
274.10	1644.52
274.32	1777.64
274.54	1705.96
274.75	1708.01
274.97	1638.38
275.18	1787.88
275.40	1730.53
275.61	1773.54
275.83	1689.57
276.05	1626.09
276.26	1654.76
276.48	1789.92
276.69	1656.81
276.91	1671.14
277.12	1798.12
277.34	1757.16
277.55	1708.01
277.77	1714.15
277.99	1757.16
278.20	1654.76
278.42	1624.04
278.63	1656.81
278.85	1624.04
279.06	1611.75
279.28	1744.87
279.49	1767.40
279.71	1736.68
279.93	1632.23
280.14	1732.58
280.36	1656.81
280.57	1714.15
280.79	1824.74
281.00	1665.00
281.22	1615.85
281.43	1763.30
281.65	1572.84
281.86	1581.03
282.08	1691.62
282.29	1716.20
282.51	1689.57
282.73	1636.33
282.94	1644.52
283.16	1730.53
283.37	1757.16
283.59	1703.91
283.80	1705.96
284.02	1656.81
284.23	1671.14
284.45	1593.32
284.66	1642.47
284.88	1685.48
285.09	1730.53
285.31	1689.57
285.52	1742.82
285.74	1595.37
285.95	1667.05
286.17	1718.25
286.38	1751.01
286.60	1613.80
286.81	1695.72
287.03	1642.47
287.24	1636.33
287.46	1708.01
287.67	1683.43
287.89	1783.78
288.10	1705.96
288.32	1726.44
288.53	1763.30
288.75	1763.30
288.96	1722.34
289.18	1542.12
289.39	1699.81
289.61	1761.25
289.82	1775.59
290.04	1808.36
290.25	1650.66
290.47	1693.67
290.68	1738.73
290.90	1765.35
291.11	1648.61
291.33	1761.25
291.54	1636.33
291.76	1628.14
291.97	1708.01
292.18	1712.10
292.40	1703.91
292.61	1646.57
292.83	1814.50
293.04	1718.25
293.26	1722.34
293.47	1748.97
293.69	1648.61
293.90	1652.71
294.12	1744.87
294.33	1755.11
294.55	1732.58
294.76	1675.24
294.97	1738.73
295.19	1843.17
295.40	1673.19
295.62	1740.77
295.83	1763.30
296.05	1597.42
296.26	1761.25
296.48	1687.53
296.69	1695.72
296.90	1736.68
297.12	1771.49
297.33	1773.54
297.55	1761.25
297.76	1714.15
297.98	1767.40
298.19	1650.66
298.41	1677.29
298.62	1638.38
298.83	1738.73
299.05	1722.34
299.26	1695.72
299.48	1630.18
299.69	1800.16
299.90	1708.01
300.12	1591.27
300.33	1712.10
300.55	1667.05
300.76	1771.49
300.98	1578.98
301.19	1718.25
301.40	1677.29
301.62	1675.24
301.83	1705.96
302.05	1697.77
302.26	1701.86
302.47	1697.77
302.69	1703.91
302.90	1722.34
303.12	1550.31
303.33	1740.77
303.54	1798.12
303.76	1718.25
303.97	1744.87
304.19	1759.21
304.40	1630.18
304.61	1732.58
304.83	1771.49
305.04	1701.86
305.26	1759.21
305.47	1585.13
305.68	1687.53
305.90	1626.09
306.11	1755.11
306.33	1681.38
306.54	1619.94
306.75	1638.38
306.97	1628.14
307.18	1669.09
307.39	1691.62
307.61	1703.91
307.82	1742.82
308.04	1687.53
308.25	1734.63
308.46	1667.05
308.68	1710.05
308.89	1732.58
309.10	1744.87
309.32	1761.25
309.53	1746.92
309.74	1734.63
309.96	1718.25
310.17	1726.44
310.39	1681.38
310.60	1753.06
310.81	1728.49
311.03	1595.37
311.24	1718.25
311.45	1675.24
311.67	1820.64
311.88	1656.81
312.09	1722.34
312.31	1724.39
312.52	1660.90
312.73	1699.81
312.95	1619.94
313.16	1662.95
313.37	1718.25
313.59	1665.00
313.80	1642.47
314.01	1841.12
314.23	1626.09
314.44	1660.90
314.65	1583.08
314.87	1634.28
315.08	1624.04
315.29	1714.15
315.51	1650.66
315.72	1589.22
315.93	1769.44
316.15	1720.29
316.36	1746.92
316.57	1691.62
316.79	1675.24
317.00	1701.86
317.21	1728.49
317.43	1681.38
317.64	1685.48
317.85	1722.34
318.07	1669.09
318.28	1759.21
318.49	1830.88
318.70	1953.76
318.92	1812.45
319.13	1802.21
319.34	1916.90
319.56	1796.07
319.77	1773.54
319.98	1812.45
320.20	1826.79
320.41	1761.25
320.62	1693.67
320.83	1636.33
321.05	1810.40
321.26	1769.44
321.47	1757.16
321.69	1730.53
321.90	1708.01
322.11	1693.67
322.32	1673.19
322.54	1837.03
322.75	1710.05
322.96	1834.98
323.18	1621.99
323.39	1591.27
323.60	1685.48
323.81	1736.68
324.03	1705.96
324.24	1720.29
324.45	1730.53
324.66	1710.05
324.88	1701.86
325.09	1720.29
325.30	1656.81
325.52	1777.64
325.73	1697.77
325.94	1687.53
326.15	1607.66
326.37	1681.38
326.58	1728.49
326.79	1783.78
327.00	1681.38
327.22	1744.87
327.43	1603.56
327.64	1638.38
327.85	1734.63
328.07	1794.02
328.28	1880.04
328.49	1619.94
328.70	1568.74
328.92	1734.63
329.13	1687.53
329.34	1751.01
329.55	1816.55
329.76	1693.67
329.98	1728.49
330.19	1783.78
330.40	1693.67
330.61	1675.24
330.83	1810.40
331.04	1642.47
331.25	1644.52
331.46	1669.09
331.68	1687.53
331.89	1744.87
332.10	1757.16
332.31	1665.00
332.52	1730.53
332.74	1773.54
332.95	1732.58
333.16	1691.62
333.37	1703.91
333.58	1568.74
333.80	1662.95
334.01	1619.94
334.22	1642.47
334.43	1669.09
334.64	1669.09
334.86	1685.48
335.07	1652.71
335.28	1769.44
335.49	1691.62
335.70	1748.97
335.92	1791.97
336.13	1765.35
336.34	1650.66
336.55	1734.63
336.76	1724.39
336.98	1587.18
337.19	1705.96
337.40	1837.03
337.61	1810.40
337.82	1630.18
338.04	1816.55
338.25	1603.56
338.46	1679.33
338.67	1656.81
338.88	1632.23
339.09	1699.81
339.31	1671.14
339.52	1718.25
339.73	1581.03
339.94	1660.90
340.15	1738.73
340.36	1677.29
340.58	1734.63
340.79	1642.47
341.00	1738.73
341.21	1617.90
341.42	1826.79
341.63	1652.71
341.85	1716.20
342.06	1742.82
342.27	1609.70
342.48	1804.26
342.69	1624.04
342.90	1732.58
343.12	1732.58
343.33	1755.11
343.54	1671.14
343.75	1681.38
343.96	1732.58
344.17	1699.81
344.38	1720.29
344.60	1646.57
344.81	1673.19
345.02	1660.90
345.23	1746.92
345.44	1718.25
345.65	1705.96
345.86	1644.52
346.07	1714.15
346.29	1632.23
346.50	1728.49
346.71	1730.53
346.92	1701.86
347.13	1802.21
347.34	1607.66
347.55	1619.94
347.76	1685.48
347.98	1591.27
348.19	1652.71
348.40	1757.16
348.61	1714.15
348.82	1779.68
349.03	1673.19
349.24	1626.09
349.45	1841.12
349.66	1603.56
349.88	1691.62
350.09	1685.48
350.30	1769.44
350.51	1779.68
350.72	1712.10
350.93	1757.16
351.14	1646.57
351.35	1662.95
351.56	1691.62
351.77	1671.14
351.99	1734.63
352.20	1710.05
352.41	1712.10
352.62	1648.61
352.83	1675.24
353.04	1740.77
353.25	1619.94
353.46	1789.92
353.67	1712.10
353.88	1550.31
354.09	1712.10
354.30	1687.53
354.52	1751.01
354.73	1636.33
354.94	1662.95
355.15	1716.20
355.36	1798.12
355.57	1689.57
355.78	1726.44
355.99	1658.85
356.20	1658.85
356.41	1751.01
356.62	1740.77
356.83	1703.91
357.04	1734.63
357.25	1568.74
357.46	1665.00
357.68	1626.09
357.89	1699.81
358.10	1738.73
358.31	1626.09
358.52	1642.47
358.73	1646.57
358.94	1591.27
359.15	1714.15
359.36	1757.16
359.57	1693.67
359.78	1744.87
359.99	1753.06
360.20	1642.47
360.41	1695.72
360.62	1648.61
360.83	1779.68
361.04	1703.91
361.25	1681.38
361.46	1837.03
361.67	1714.15
361.88	1779.68
362.09	1777.64
362.30	1679.33
362.51	1665.00
362.72	1665.00
362.93	1726.44
363.14	1734.63
363.35	1679.33
363.56	1591.27
363.78	1726.44
363.99	1761.25
364.20	1609.70
364.41	1755.11
364.62	1779.68
364.83	1703.91
365.04	1656.81
365.25	1720.29
365.46	1771.49
365.67	1652.71
365.88	1714.15
366.09	1691.62
366.30	1710.05
366.51	1638.38
366.72	1648.61
366.93	1716.20
367.14	1714.15
367.35	1738.73
367.56	1669.09
367.77	1751.01
367.98	1736.68
368.18	1773.54
368.39	1660.90
368.60	1654.76
368.81	1716.20
369.02	1648.61
369.23	1757.16
369.44	1708.01
369.65	1683.43
369.86	1703.91
370.07	1740.77
370.28	1607.66
370.49	1689.57
370.70	1693.67
370.91	1632.23
371.12	1644.52
371.33	1671.14
371.54	1685.48
371.75	1775.59
371.96	1531.88
372.17	1689.57
372.38	1703.91
372.59	1812.45
372.80	1619.94
373.01	1601.51
373.22	1671.14
373.43	1755.11
373.64	1638.38
373.85	1685.48
374.06	1798.12
374.26	1796.07
374.47	1685.48
374.68	1769.44
374.89	1662.95
375.10	1701.86
375.31	1832.93
375.52	1548.26
375.73	1779.68
375.94	1628.14
376.15	1820.64
376.36	1652.71
376.57	1689.57
376.78	1593.32
376.99	1732.58
377.20	1759.21
377.40	1746.92
377.61	1767.40
377.82	1658.85
378.03	1771.49
378.24	1693.67
378.45	1691.62
378.66	1740.77
378.87	1626.09
379.08	1593.32
379.29	1705.96
379.50	1773.54
379.71	1703.91
379.91	1671.14
380.12	1705.96
380.33	1718.25
380.54	1642.47
380.75	1718.25
380.96	1728.49
381.17	1755.11
381.38	1751.01
381.59	1699.81
381.80	1761.25
382.00	1849.32
382.21	1732.58
382.42	1816.55
382.63	1843.17
382.84	1730.53
383.05	1796.07
383.26	1779.68
383.47	1755.11
383.68	1791.97
383.88	1734.63
384.09	1757.16
384.30	1806.31
384.51	1777.64
384.72	1689.57
384.93	1677.29
385.14	1705.96
385.35	1703.91
385.55	1607.66
385.76	1810.40
385.97	1642.47
386.18	1617.90
386.39	1619.94
386.60	1658.85
386.81	1789.92
387.02	1658.85
387.22	1613.80
387.43	1755.11
387.64	1804.26
387.85	1767.40
388.06	2189.28
388.27	4251.58
388.48	6789.02
388.68	8155.01
388.89	9750.38
389.10	10071.91
389.31	8449.92
389.52	7602.06
389.73	6911.89
389.93	6215.59
390.14	6018.98
390.35	5347.25
390.56	4638.65
390.77	3823.56
390.98	3047.38
391.18	2508.76
391.39	2142.18
391.60	1775.59
391.81	1796.07
392.02	1675.24
392.23	1787.88
392.43	1736.68
392.64	1806.31
392.85	1759.21
393.06	1791.97
393.27	1693.67
393.47	1701.86
393.68	1746.92
393.89	1728.49
394.10	1824.74
394.31	1681.38
394.52	1667.05
394.72	1722.34
394.93	1693.67
395.14	1624.04
395.35	1714.15
395.56	1681.38
395.76	1753.06
395.97	1851.36
396.18	1781.73
396.39	1785.83
396.60	2027.49
396.80	1841.12
397.01	1814.50
397.22	1865.70
397.43	1843.17
397.64	1738.73
397.84	1781.73
398.05	1865.70
398.26	1806.31
398.47	1767.40
398.67	1769.44
398.88	1697.77
399.09	1718.25
399.30	1660.90
399.51	1726.44
399.71	1669.09
399.92	1712.10
400.13	1675.24
400.34	1779.68
400.54	1660.90
400.75	1800.16
400.96	1648.61
401.17	1806.31
401.37	1771.49
401.58	1746.92
401.79	1724.39
402.00	1906.66
402.21	2017.25
402.41	1892.32
402.62	2007.01
402.83	1892.32
403.04	1920.99
403.24	2058.21
403.45	1832.93
403.66	1877.99
403.87	1796.07
404.07	1855.46
404.28	1947.62
404.49	1822.69
404.70	1755.11
404.90	1787.88
405.11	1636.33
405.32	1767.40
405.52	1650.66
405.73	1675.24
405.94	1660.90
406.15	1693.67
406.35	1691.62
406.56	1691.62
406.77	1740.77
406.98	1789.92
407.18	1685.48
407.39	1822.69
407.60	1636.33
407.80	1742.82
408.01	1685.48
408.22	1757.16
408.43	1710.05
408.63	1783.78
408.84	1755.11
409.05	1796.07
409.25	1632.23
409.46	1632.23
409.67	1689.57
409.88	1589.22
410.08	1777.64
410.29	1619.94
410.50	1751.01
410.70	1742.82
410.91	1667.05
411.12	1685.48
411.32	1658.85
411.53	1746.92
411.74	1781.73
411.95	1748.97
412.15	1732.58
412.36	1767.40
412.57	1738.73
412.77	1794.02
412.98	1804.26
413.19	1708.01
413.39	1810.40
413.60	1806.31
413.81	1818.60
414.01	1687.53
414.22	1746.92
414.43	1714.15
414.63	1675.24
414.84	1757.16
415.05	1763.30
415.25	1652.71
415.46	1748.97
415.67	1722.34
415.87	1724.39
416.08	1730.53
416.29	1585.13
416.49	1755.11
416.70	1652.71
416.91	1665.00
417.11	1646.57
417.32	1791.97
417.53	1712.10
417.73	1701.86
417.94	1708.01
418.15	1701.86
418.35	1744.87
418.56	1740.77
418.77	1812.45
418.97	1712.10
419.18	1738.73
419.38	1550.31
419.59	1703.91
419.80	1818.60
420.00	1724.39
420.21	1675.24
420.42	1845.22
420.62	1730.53
420.83	1638.38
421.04	1714.15
421.24	1738.73
421.45	1751.01
421.65	1718.25
421.86	1640.42
422.07	1742.82
422.27	1726.44
422.48	1640.42
422.69	1687.53
422.89	1689.57
423.10	1685.48
423.30	1566.70
423.51	1640.42
423.72	1644.52
423.92	1726.44
424.13	1619.94
424.33	1669.09
424.54	1740.77
424.75	1673.19
424.95	1724.39
425.16	1761.25
425.36	1746.92
425.57	1748.97
425.78	1769.44
425.98	1765.35
426.19	1679.33
426.39	1609.70
426.60	1671.14
426.81	1779.68
427.01	1744.87
427.22	1640.42
427.42	1646.57
427.63	1628.14
427.83	1748.97
428.04	1779.68
428.25	1812.45
428.45	1726.44
428.66	1753.06
428.86	1685.48
429.07	1691.62
429.28	1697.77
429.48	1662.95
429.69	1656.81
429.89	1648.61
430.10	1654.76
430.30	1718.25
430.51	1804.26
430.71	1652.71
430.92	1636.33
431.13	1679.33
431.33	1693.67
431.54	1712.10
431.74	1771.49
431.95	1814.50
432.15	1654.76
432.36	1708.01
432.56	1667.05
432.77	1816.55
432.98	1775.59
433.18	1708.01
433.39	1671.14
433.59	1701.86
433.80	1830.88
434.00	1832.93
434.21	1646.57
434.41	1619.94
434.62	1906.66
434.82	1660.90
435.03	1665.00
435.23	1685.48
435.44	1615.85
435.64	1648.61
435.85	1724.39
436.06	1769.44
436.26	1724.39
436.47	1691.62
436.67	1642.47
436.88	1736.68
437.08	1751.01
437.29	1828.84
437.49	1732.58
437.70	1730.53
437.90	1751.01
438.11	1847.27
438.31	1734.63
438.52	1857.51
438.72	1800.16
438.93	1877.99
439.13	1789.92
439.34	1826.79
439.54	1787.88
439.75	1857.51
439.95	1726.44
440.16	1761.25
440.36	1767.40
440.57	1714.15
440.77	1808.36
440.98	1771.49
441.18	1759.21
441.39	1673.19
441.59	1605.61
441.80	1832.93
442.00	1761.25
442.21	1748.97
442.41	1710.05
442.62	1695.72
442.82	1738.73
443.02	1730.53
443.23	1769.44
443.43	1658.85
443.64	1816.55
443.84	1634.28
444.05	1796.07
444.25	1767.40
444.46	1665.00
444.66	1789.92
444.87	1806.31
445.07	1607.66
445.28	1742.82
445.48	1716.20
445.69	1697.77
445.89	1820.64
446.09	1748.97
446.30	2013.15
446.50	2625.50
446.71	3684.30
446.91	4378.56
447.12	4724.66
447.32	4759.48
447.53	4310.97
447.73	3811.27
447.93	3487.69
448.14	3258.32
448.34	3143.63
448.55	2887.64
448.75	2840.53
448.96	2641.88
449.16	2459.61
449.36	2334.68
449.57	1992.67
449.77	1947.62
449.98	1761.25
450.18	1820.64
450.39	1767.40
450.59	1763.30
450.79	1771.49
451.00	1738.73
451.20	1800.16
451.41	1712.10
451.61	1751.01
451.81	1738.73
452.02	1742.82
452.22	1693.67
452.43	1673.19
452.63	1767.40
