SpectraSuite Data File
++++++++++++++++++++++++++++++++++++
Date: Mon Jun 06 17:03:57 CEST 2016
User: root
Dark Spectrum Present: No
Reference Spectrum Present: No
Number of Sampled Component Spectra: 1
Spectrometers: USB4C02835
Integration Time (usec): 100000 (USB4C02835)
Spectra Averaged: 1 (USB4C02835)
Boxcar Smoothing: 0 (USB4C02835)
Correct for Electrical Dark: No (USB4C02835)
Strobe/Lamp Enabled: No (USB4C02835)
Correct for Detector Non-linearity: No (USB4C02835)
Correct for Stray Light: No (USB4C02835)
Number of Pixels in Processed Spectrum: 3648
>>>>>Begin Processed Spectral Data<<<<<
177.47	1482.73
177.69	1482.73
177.91	1482.73
178.13	1384.43
178.36	1507.30
178.58	1675.24
178.80	1732.58
179.02	1607.66
179.24	1658.85
179.46	1697.77
179.68	1798.12
179.90	1701.86
180.13	1769.44
180.35	1640.42
180.57	1740.77
180.79	1777.64
181.01	1718.25
181.23	1771.49
181.45	1757.16
181.67	1748.97
181.90	1785.83
182.12	1689.57
182.34	1595.37
182.56	1785.83
182.78	1722.34
183.00	1740.77
183.22	1757.16
183.44	1619.94
183.66	1847.27
183.89	1751.01
184.11	1751.01
184.33	1730.53
184.55	1714.15
184.77	1728.49
184.99	1703.91
185.21	1697.77
185.43	1830.88
185.65	1695.72
185.87	1710.05
186.10	1853.41
186.32	1826.79
186.54	1781.73
186.76	1820.64
186.98	1728.49
187.20	1679.33
187.42	1646.57
187.64	1757.16
187.86	1724.39
188.08	1802.21
188.30	1687.53
188.52	1634.28
188.75	1759.21
188.97	1783.78
189.19	1669.09
189.41	1771.49
189.63	1757.16
189.85	1634.28
190.07	1619.94
190.29	1728.49
190.51	1675.24
190.73	1566.70
190.95	1818.60
191.17	1740.77
191.39	1615.85
191.61	1701.86
191.84	1718.25
192.06	1691.62
192.28	1679.33
192.50	1929.19
192.72	1665.00
192.94	1800.16
193.16	1736.68
193.38	1703.91
193.60	1593.32
193.82	1685.48
194.04	1738.73
194.26	1763.30
194.48	1705.96
194.70	1624.04
194.92	1705.96
195.14	1783.78
195.36	1677.29
195.58	1708.01
195.80	1630.18
196.02	1689.57
196.24	1675.24
196.46	1691.62
196.69	1673.19
196.91	1816.55
197.13	1714.15
197.35	1687.53
197.57	1802.21
197.79	1796.07
198.01	1642.47
198.23	1718.25
198.45	1736.68
198.67	1724.39
198.89	1697.77
199.11	1726.44
199.33	1705.96
199.55	1634.28
199.77	1767.40
199.99	1751.01
200.21	1626.09
200.43	1755.11
200.65	1642.47
200.87	1560.55
201.09	1689.57
201.31	1671.14
201.53	1841.12
201.75	1665.00
201.97	1740.77
202.19	1681.38
202.41	1675.24
202.63	1800.16
202.85	1695.72
203.07	1732.58
203.29	1677.29
203.51	1630.18
203.73	1677.29
203.95	1947.62
204.17	1665.00
204.39	1740.77
204.61	1673.19
204.83	1685.48
205.05	1816.55
205.27	1699.81
205.49	1832.93
205.71	1681.38
205.93	1683.43
206.15	1681.38
206.37	1736.68
206.59	1687.53
206.81	1660.90
207.03	1673.19
207.25	1724.39
207.47	1683.43
207.69	1708.01
207.91	1769.44
208.13	1771.49
208.34	1632.23
208.56	1759.21
208.78	1724.39
209.00	1681.38
209.22	1714.15
209.44	1708.01
209.66	1703.91
209.88	1724.39
210.10	1716.20
210.32	1628.14
210.54	1773.54
210.76	1673.19
210.98	1763.30
211.20	1566.70
211.42	1742.82
211.64	1802.21
211.86	1722.34
212.08	1796.07
212.30	1736.68
212.52	1607.66
212.74	1699.81
212.96	1675.24
213.17	1769.44
213.39	1753.06
213.61	1769.44
213.83	1773.54
214.05	1703.91
214.27	1753.06
214.49	1619.94
214.71	1660.90
214.93	1781.73
215.15	1734.63
215.37	1722.34
215.59	1689.57
215.81	1761.25
216.03	1796.07
216.24	1751.01
216.46	1626.09
216.68	1755.11
216.90	1746.92
217.12	1708.01
217.34	1716.20
217.56	1687.53
217.78	1783.78
218.00	1710.05
218.22	1785.83
218.44	1820.64
218.66	1718.25
218.87	1882.08
219.09	1665.00
219.31	1746.92
219.53	1708.01
219.75	1705.96
219.97	1673.19
220.19	1787.88
220.41	1716.20
220.63	1783.78
220.85	1722.34
221.06	1685.48
221.28	1789.92
221.50	1777.64
221.72	1783.78
221.94	1740.77
222.16	1689.57
222.38	1806.31
222.60	1732.58
222.82	1710.05
223.03	1697.77
223.25	1701.86
223.47	1730.53
223.69	1837.03
223.91	1673.19
224.13	1660.90
224.35	1658.85
224.57	1812.45
224.78	1769.44
225.00	1738.73
225.22	1734.63
225.44	1650.66
225.66	1685.48
225.88	1736.68
226.10	1828.84
226.32	1724.39
226.53	1736.68
226.75	1673.19
226.97	1673.19
227.19	1769.44
227.41	1689.57
227.63	1650.66
227.85	1650.66
228.06	1736.68
228.28	1724.39
228.50	1837.03
228.72	1613.80
228.94	1665.00
229.16	1652.71
229.37	1656.81
229.59	1638.38
229.81	1763.30
230.03	1656.81
230.25	1699.81
230.47	1685.48
230.69	1681.38
230.90	1728.49
231.12	1671.14
231.34	1705.96
231.56	1763.30
231.78	1601.51
232.00	1701.86
232.21	1736.68
232.43	1689.57
232.65	1581.03
232.87	1808.36
233.09	1714.15
233.30	1615.85
233.52	1734.63
233.74	1730.53
233.96	1691.62
234.18	1736.68
234.40	1687.53
234.61	1777.64
234.83	1665.00
235.05	1652.71
235.27	1845.22
235.49	1757.16
235.70	1642.47
235.92	1773.54
236.14	1716.20
236.36	1863.65
236.58	1691.62
236.79	1730.53
237.01	1710.05
237.23	1744.87
237.45	1800.16
237.67	1671.14
237.88	1679.33
238.10	1816.55
238.32	1646.57
238.54	1679.33
238.76	1720.29
238.97	1650.66
239.19	1691.62
239.41	1755.11
239.63	1693.67
239.85	1728.49
240.06	1755.11
240.28	1615.85
240.50	1720.29
240.72	1712.10
240.93	1648.61
241.15	1724.39
241.37	1746.92
241.59	1787.88
241.81	1630.18
242.02	1681.38
242.24	1705.96
242.46	1683.43
242.68	1701.86
242.89	1773.54
243.11	1732.58
243.33	1726.44
243.55	1701.86
243.76	1775.59
243.98	1728.49
244.20	1681.38
244.42	1679.33
244.64	1693.67
244.85	1697.77
245.07	1730.53
245.29	1736.68
245.51	1730.53
245.72	1742.82
245.94	1757.16
246.16	1714.15
246.38	1800.16
246.59	1615.85
246.81	1665.00
247.03	1656.81
247.24	1689.57
247.46	1757.16
247.68	1689.57
247.90	1705.96
248.11	1650.66
248.33	1779.68
248.55	1701.86
248.77	1724.39
248.98	1783.78
249.20	1837.03
249.42	1679.33
249.64	1722.34
249.85	1767.40
250.07	1693.67
250.29	1771.49
250.50	1826.79
250.72	1617.90
250.94	1716.20
251.16	1826.79
251.37	1828.84
251.59	1687.53
251.81	1857.51
252.02	1806.31
252.24	1587.18
252.46	1826.79
252.68	1644.52
252.89	1656.81
253.11	1658.85
253.33	1847.27
253.54	1769.44
253.76	1675.24
253.98	1638.38
254.20	1736.68
254.41	1636.33
254.63	1646.57
254.85	1675.24
255.06	1705.96
255.28	1724.39
255.50	1652.71
255.71	1728.49
255.93	1638.38
256.15	1691.62
256.36	1783.78
256.58	1718.25
256.80	1787.88
257.02	1718.25
257.23	1730.53
257.45	1697.77
257.67	1785.83
257.88	1650.66
258.10	1771.49
258.32	1665.00
258.53	1703.91
258.75	1773.54
258.97	1705.96
259.18	1665.00
259.40	1730.53
259.62	1843.17
259.83	1751.01
260.05	1814.50
260.27	2037.73
260.48	1804.26
260.70	1714.15
260.92	1699.81
261.13	1687.53
261.35	1683.43
261.57	1728.49
261.78	1742.82
262.00	1703.91
262.22	1732.58
262.43	1697.77
262.65	1710.05
262.86	1716.20
263.08	1781.73
263.30	1753.06
263.51	1685.48
263.73	1677.29
263.95	1794.02
264.16	1710.05
264.38	1667.05
264.60	1732.58
264.81	1636.33
265.03	1820.64
265.25	1728.49
265.46	1757.16
265.68	1771.49
265.89	1714.15
266.11	1574.89
266.33	1734.63
266.54	1708.01
266.76	1708.01
266.98	1724.39
267.19	1742.82
267.41	1806.31
267.62	1699.81
267.84	1648.61
268.06	1773.54
268.27	1652.71
268.49	1757.16
268.70	1832.93
268.92	1671.14
269.14	1689.57
269.35	1638.38
269.57	1697.77
269.79	1722.34
270.00	1695.72
270.22	1828.84
270.43	1730.53
270.65	1667.05
270.87	1693.67
271.08	1716.20
271.30	1730.53
271.51	1712.10
271.73	1775.59
271.95	1783.78
272.16	1712.10
272.38	1712.10
272.59	1677.29
272.81	1722.34
273.02	1781.73
273.24	1732.58
273.46	1652.71
273.67	1593.32
273.89	1693.67
274.10	1605.61
274.32	1781.73
274.54	1716.20
274.75	1794.02
274.97	1714.15
275.18	1794.02
275.40	1769.44
275.61	1683.43
275.83	1765.35
276.05	1640.42
276.26	1681.38
276.48	1751.01
276.69	1767.40
276.91	1667.05
277.12	1820.64
277.34	1771.49
277.55	1767.40
277.77	1699.81
277.99	1667.05
278.20	1607.66
278.42	1667.05
278.63	1621.99
278.85	1681.38
279.06	1611.75
279.28	1699.81
279.49	1746.92
279.71	1730.53
279.93	1687.53
280.14	1677.29
280.36	1593.32
280.57	1722.34
280.79	1789.92
281.00	1654.76
281.22	1699.81
281.43	1791.97
281.65	1646.57
281.86	1603.56
282.08	1828.84
282.29	1787.88
282.51	1662.95
282.73	1658.85
282.94	1638.38
283.16	1763.30
283.37	1710.05
283.59	1744.87
283.80	1787.88
284.02	1796.07
284.23	1773.54
284.45	1685.48
284.66	1611.75
284.88	1619.94
285.09	1724.39
285.31	1765.35
285.52	1708.01
285.74	1644.52
285.95	1781.73
286.17	1722.34
286.38	1794.02
286.60	1660.90
286.81	1705.96
287.03	1665.00
287.24	1722.34
287.46	1732.58
287.67	1712.10
287.89	1818.60
288.10	1718.25
288.32	1773.54
288.53	1736.68
288.75	1681.38
288.96	1837.03
289.18	1632.23
289.39	1701.86
289.61	1763.30
289.82	1824.74
290.04	1732.58
290.25	1611.75
290.47	1724.39
290.68	1775.59
290.90	1736.68
291.11	1701.86
291.33	1734.63
291.54	1685.48
291.76	1667.05
291.97	1699.81
292.18	1769.44
292.40	1662.95
292.61	1660.90
292.83	1863.65
293.04	1812.45
293.26	1738.73
293.47	1671.14
293.69	1683.43
293.90	1710.05
294.12	1761.25
294.33	1660.90
294.55	1652.71
294.76	1816.55
294.97	1740.77
295.19	1789.92
295.40	1722.34
295.62	1667.05
295.83	1789.92
296.05	1705.96
296.26	1736.68
296.48	1671.14
296.69	1757.16
296.90	1681.38
297.12	1783.78
297.33	1775.59
297.55	1701.86
297.76	1724.39
297.98	1732.58
298.19	1703.91
298.41	1695.72
298.62	1630.18
298.83	1845.22
299.05	1755.11
299.26	1761.25
299.48	1708.01
299.69	1724.39
299.90	1724.39
300.12	1710.05
300.33	1693.67
300.55	1722.34
300.76	1714.15
300.98	1660.90
301.19	1732.58
301.40	1701.86
301.62	1644.52
301.83	1712.10
302.05	1734.63
302.26	1751.01
302.47	1654.76
302.69	1642.47
302.90	1687.53
303.12	1591.27
303.33	1751.01
303.54	1816.55
303.76	1650.66
303.97	1681.38
304.19	1812.45
304.40	1695.72
304.61	1808.36
304.83	1800.16
305.04	1789.92
305.26	1728.49
305.47	1716.20
305.68	1787.88
305.90	1685.48
306.11	1759.21
306.33	1765.35
306.54	1632.23
306.75	1703.91
306.97	1632.23
307.18	1695.72
307.39	1636.33
307.61	1751.01
307.82	1763.30
308.04	1751.01
308.25	1699.81
308.46	1730.53
308.68	1759.21
308.89	1617.90
309.10	1828.84
309.32	1718.25
309.53	1636.33
309.74	1759.21
309.96	1720.29
310.17	1818.60
310.39	1634.28
310.60	1685.48
310.81	1703.91
311.03	1646.57
311.24	1767.40
311.45	1671.14
311.67	1808.36
311.88	1648.61
312.09	1695.72
312.31	1654.76
312.52	1701.86
312.73	1667.05
312.95	1642.47
313.16	1681.38
313.37	1824.74
313.59	1732.58
313.80	1675.24
314.01	1812.45
314.23	1634.28
314.44	1673.19
314.65	1652.71
314.87	1691.62
315.08	1679.33
315.29	1691.62
315.51	1691.62
315.72	1638.38
315.93	1814.50
316.15	1738.73
316.36	1636.33
316.57	1685.48
316.79	1748.97
317.00	1720.29
317.21	1751.01
317.43	1642.47
317.64	1722.34
317.85	1703.91
318.07	1654.76
318.28	1689.57
318.49	1853.41
318.70	1933.28
318.92	1769.44
319.13	1832.93
319.34	1834.98
319.56	1751.01
319.77	1746.92
319.98	1816.55
320.20	1820.64
320.41	1730.53
320.62	1765.35
320.83	1654.76
321.05	1820.64
321.26	1730.53
321.47	1708.01
321.69	1718.25
321.90	1611.75
322.11	1714.15
322.32	1656.81
322.54	1742.82
322.75	1662.95
322.96	1826.79
323.18	1642.47
323.39	1556.46
323.60	1742.82
323.81	1802.21
324.03	1728.49
324.24	1789.92
324.45	1683.43
324.66	1705.96
324.88	1791.97
325.09	1740.77
325.30	1720.29
325.52	1691.62
325.73	1730.53
325.94	1716.20
326.15	1613.80
326.37	1658.85
326.58	1708.01
326.79	1820.64
327.00	1669.09
327.22	1769.44
327.43	1681.38
327.64	1669.09
327.85	1796.07
328.07	1755.11
328.28	1816.55
328.49	1734.63
328.70	1701.86
328.92	1732.58
329.13	1718.25
329.34	1705.96
329.55	1773.54
329.76	1734.63
329.98	1669.09
330.19	1798.12
330.40	1736.68
330.61	1761.25
330.83	1775.59
331.04	1617.90
331.25	1736.68
331.46	1699.81
331.68	1687.53
331.89	1794.02
332.10	1722.34
332.31	1665.00
332.52	1667.05
332.74	1796.07
332.95	1591.27
333.16	1662.95
333.37	1734.63
333.58	1724.39
333.80	1691.62
334.01	1574.89
334.22	1638.38
334.43	1697.77
334.64	1681.38
334.86	1658.85
335.07	1650.66
335.28	1783.78
335.49	1572.84
335.70	1861.60
335.92	1812.45
336.13	1853.41
336.34	1751.01
336.55	1712.10
336.76	1695.72
336.98	1640.42
337.19	1732.58
337.40	1779.68
337.61	1851.36
337.82	1724.39
338.04	1748.97
338.25	1646.57
338.46	1734.63
338.67	1697.77
338.88	1617.90
339.09	1669.09
339.31	1640.42
339.52	1701.86
339.73	1615.85
339.94	1742.82
340.15	1732.58
340.36	1687.53
340.58	1693.67
340.79	1658.85
341.00	1689.57
341.21	1650.66
341.42	1820.64
341.63	1652.71
341.85	1822.69
342.06	1812.45
342.27	1683.43
342.48	1814.50
342.69	1648.61
342.90	1755.11
343.12	1730.53
343.33	1699.81
343.54	1810.40
343.75	1740.77
343.96	1746.92
344.17	1607.66
344.38	1742.82
344.60	1675.24
344.81	1617.90
345.02	1746.92
345.23	1671.14
345.44	1812.45
345.65	1720.29
345.86	1738.73
346.07	1718.25
346.29	1669.09
346.50	1746.92
346.71	1798.12
346.92	1806.31
347.13	1822.69
347.34	1697.77
347.55	1714.15
347.76	1710.05
347.98	1722.34
348.19	1697.77
348.40	1837.03
348.61	1683.43
348.82	1853.41
349.03	1779.68
349.24	1628.14
349.45	1853.41
349.66	1542.12
349.88	1787.88
350.09	1665.00
350.30	1710.05
350.51	1841.12
350.72	1650.66
350.93	1753.06
351.14	1638.38
351.35	1763.30
351.56	1712.10
351.77	1716.20
351.99	1789.92
352.20	1896.42
352.41	1769.44
352.62	1648.61
352.83	1681.38
353.04	1681.38
353.25	1697.77
353.46	1783.78
353.67	1812.45
353.88	1636.33
354.09	1738.73
354.30	1699.81
354.52	1773.54
354.73	1730.53
354.94	1599.46
355.15	1710.05
355.36	1796.07
355.57	1697.77
355.78	1722.34
355.99	1673.19
356.20	1677.29
356.41	1744.87
356.62	1755.11
356.83	1740.77
357.04	1716.20
357.25	1634.28
357.46	1708.01
357.68	1648.61
357.89	1662.95
358.10	1779.68
358.31	1685.48
358.52	1669.09
358.73	1669.09
358.94	1617.90
359.15	1671.14
359.36	1765.35
359.57	1738.73
359.78	1652.71
359.99	1669.09
360.20	1660.90
360.41	1712.10
360.62	1757.16
360.83	1775.59
361.04	1751.01
361.25	1779.68
361.46	1765.35
361.67	1736.68
361.88	1742.82
362.09	1736.68
362.30	1724.39
362.51	1679.33
362.72	1755.11
362.93	1791.97
363.14	1765.35
363.35	1757.16
363.56	1751.01
363.78	1800.16
363.99	1808.36
364.20	1705.96
364.41	1746.92
364.62	1814.50
364.83	1757.16
365.04	1726.44
365.25	1665.00
365.46	1820.64
365.67	1603.56
365.88	1689.57
366.09	1665.00
366.30	1640.42
366.51	1677.29
366.72	1621.99
366.93	1738.73
367.14	1712.10
367.35	1705.96
367.56	1705.96
367.77	1746.92
367.98	1710.05
368.18	1783.78
368.39	1771.49
368.60	1662.95
368.81	1763.30
369.02	1730.53
369.23	1781.73
369.44	1640.42
369.65	1677.29
369.86	1789.92
370.07	1775.59
370.28	1621.99
370.49	1771.49
370.70	1738.73
370.91	1724.39
371.12	1660.90
371.33	1820.64
371.54	1705.96
371.75	1753.06
371.96	1572.84
372.17	1718.25
372.38	1687.53
372.59	1742.82
372.80	1705.96
373.01	1755.11
373.22	1722.34
373.43	1744.87
373.64	1578.98
373.85	1832.93
374.06	1738.73
374.26	1763.30
374.47	1652.71
374.68	1802.21
374.89	1718.25
375.10	1699.81
375.31	1767.40
375.52	1693.67
375.73	1787.88
375.94	1644.52
376.15	1794.02
376.36	1619.94
376.57	1626.09
376.78	1695.72
376.99	1730.53
377.20	1863.65
377.40	1667.05
377.61	1742.82
377.82	1693.67
378.03	1771.49
378.24	1699.81
378.45	1714.15
378.66	1828.84
378.87	1621.99
379.08	1589.22
379.29	1722.34
379.50	1796.07
379.71	1656.81
379.91	1732.58
380.12	1718.25
380.33	1726.44
380.54	1679.33
380.75	1736.68
380.96	1693.67
381.17	1769.44
381.38	1671.14
381.59	1800.16
381.80	1681.38
382.00	1830.88
382.21	1746.92
382.42	1845.22
382.63	1853.41
382.84	1748.97
383.05	1798.12
383.26	1814.50
383.47	1767.40
383.68	1800.16
383.88	1695.72
384.09	1714.15
384.30	1849.32
384.51	1755.11
384.72	1710.05
384.93	1681.38
385.14	1703.91
385.35	1734.63
385.55	1734.63
385.76	1777.64
385.97	1695.72
386.18	1603.56
386.39	1634.28
386.60	1660.90
386.81	1734.63
387.02	1708.01
387.22	1597.42
387.43	1753.06
387.64	1763.30
387.85	1847.27
388.06	2183.13
388.27	4241.34
388.48	6772.63
388.68	8349.57
388.89	9492.34
389.10	9996.14
389.31	8626.04
389.52	7477.13
389.73	6725.53
389.93	6270.88
390.14	5871.53
390.35	5261.23
390.56	4517.82
390.77	3907.52
390.98	2977.75
391.18	2537.43
391.39	2088.93
391.60	1828.84
391.81	1857.51
392.02	1759.21
392.23	1863.65
392.43	1728.49
392.64	1808.36
392.85	1673.19
393.06	1830.88
393.27	1671.14
393.47	1695.72
393.68	1708.01
393.89	1763.30
394.10	1902.56
394.31	1691.62
394.52	1710.05
394.72	1660.90
394.93	1771.49
395.14	1619.94
395.35	1767.40
395.56	1697.77
395.76	1751.01
395.97	1824.74
396.18	1783.78
396.39	1759.21
396.60	2054.11
396.80	1925.09
397.01	1875.94
397.22	1890.28
397.43	1861.60
397.64	1644.52
397.84	1796.07
398.05	1863.65
398.26	1771.49
398.47	1724.39
398.67	1806.31
398.88	1755.11
399.09	1722.34
399.30	1681.38
399.51	1746.92
399.71	1615.85
399.92	1705.96
400.13	1763.30
400.34	1685.48
400.54	1738.73
400.75	1755.11
400.96	1744.87
401.17	1847.27
401.37	1652.71
401.58	1708.01
401.79	1744.87
402.00	1871.84
402.21	2039.78
402.41	1976.29
402.62	1982.43
402.83	2062.30
403.04	2004.96
403.24	2017.25
403.45	1904.61
403.66	1923.04
403.87	1943.52
404.07	1986.53
404.28	1892.32
404.49	1892.32
404.70	1802.21
404.90	1724.39
405.11	1789.92
405.32	1746.92
405.52	1693.67
405.73	1644.52
405.94	1683.43
406.15	1703.91
406.35	1730.53
406.56	1742.82
406.77	1755.11
406.98	1775.59
407.18	1693.67
407.39	1851.36
407.60	1734.63
407.80	1691.62
408.01	1742.82
408.22	1789.92
408.43	1619.94
408.63	1646.57
408.84	1810.40
409.05	1781.73
409.25	1658.85
409.46	1722.34
409.67	1638.38
409.88	1697.77
410.08	1775.59
410.29	1693.67
410.50	1716.20
410.70	1712.10
410.91	1703.91
411.12	1705.96
411.32	1650.66
411.53	1712.10
411.74	1787.88
411.95	1771.49
412.15	1787.88
412.36	1753.06
412.57	1732.58
412.77	1845.22
412.98	1712.10
413.19	1718.25
413.39	1765.35
413.60	1712.10
413.81	1814.50
414.01	1607.66
414.22	1796.07
414.43	1732.58
414.63	1699.81
414.84	1818.60
415.05	1753.06
415.25	1644.52
415.46	1751.01
415.67	1671.14
415.87	1751.01
416.08	1701.86
416.29	1628.14
416.49	1708.01
416.70	1771.49
416.91	1693.67
417.11	1621.99
417.32	1781.73
417.53	1744.87
417.73	1777.64
417.94	1675.24
418.15	1720.29
418.35	1652.71
418.56	1695.72
418.77	1871.84
418.97	1732.58
419.18	1781.73
419.38	1572.84
419.59	1722.34
419.80	1861.60
420.00	1753.06
420.21	1724.39
420.42	1742.82
420.62	1689.57
420.83	1613.80
421.04	1693.67
421.24	1697.77
421.45	1738.73
421.65	1740.77
421.86	1718.25
422.07	1808.36
422.27	1665.00
422.48	1755.11
422.69	1699.81
422.89	1738.73
423.10	1703.91
423.30	1685.48
423.51	1705.96
423.72	1755.11
423.92	1767.40
424.13	1630.18
424.33	1714.15
424.54	1818.60
424.75	1718.25
424.95	1785.83
425.16	1718.25
425.36	1736.68
425.57	1791.97
425.78	1755.11
425.98	1732.58
426.19	1681.38
426.39	1691.62
426.60	1724.39
426.81	1822.69
427.01	1748.97
427.22	1650.66
427.42	1562.60
427.63	1697.77
427.83	1820.64
428.04	1855.46
428.25	1783.78
428.45	1814.50
428.66	1746.92
428.86	1695.72
429.07	1755.11
429.28	1800.16
429.48	1714.15
429.69	1730.53
429.89	1736.68
430.10	1705.96
430.30	1740.77
430.51	1875.94
430.71	1718.25
430.92	1693.67
431.13	1722.34
431.33	1820.64
431.54	1687.53
431.74	1841.12
431.95	1826.79
432.15	1732.58
432.36	1718.25
432.56	1765.35
432.77	1896.42
432.98	1787.88
433.18	1710.05
433.39	1660.90
433.59	1779.68
433.80	1855.46
434.00	1822.69
434.21	1693.67
434.41	1710.05
434.62	1855.46
434.82	1640.42
435.03	1677.29
435.23	1695.72
435.44	1587.18
435.64	1718.25
435.85	1808.36
436.06	1667.05
436.26	1787.88
436.47	1648.61
436.67	1677.29
436.88	1701.86
437.08	1738.73
437.29	1699.81
437.49	1675.24
437.70	1816.55
437.90	1742.82
438.11	1869.80
438.31	1855.46
438.52	1888.23
438.72	1732.58
438.93	1984.48
439.13	1798.12
439.34	1886.18
439.54	1708.01
439.75	1808.36
439.95	1789.92
440.16	1771.49
440.36	1767.40
440.57	1759.21
440.77	1791.97
440.98	1665.00
441.18	1753.06
441.39	1720.29
441.59	1636.33
441.80	1880.04
442.00	1714.15
442.21	1841.12
442.41	1738.73
442.62	1773.54
442.82	1632.23
443.02	1781.73
443.23	1763.30
443.43	1650.66
443.64	1816.55
443.84	1726.44
444.05	1869.80
444.25	1691.62
444.46	1718.25
444.66	1746.92
444.87	1822.69
445.07	1626.09
445.28	1783.78
445.48	1748.97
445.69	1791.97
445.89	1916.90
446.09	1779.68
446.30	2015.20
446.50	2674.65
446.71	3604.42
446.91	4437.95
447.12	4757.43
447.32	4753.34
447.53	4296.64
447.73	3913.67
447.93	3633.10
448.14	3282.89
448.34	3215.31
448.55	2971.60
448.75	2889.68
448.96	2731.99
449.16	2445.27
449.36	2306.01
449.57	2121.70
449.77	1933.28
449.98	1775.59
450.18	1853.41
450.39	1914.85
450.59	1755.11
450.79	1763.30
451.00	1775.59
451.20	1806.31
451.41	1718.25
451.61	1759.21
451.81	1806.31
452.02	1665.00
452.22	1697.77
452.43	1734.63
452.63	1777.64
