SpectraSuite Data File
++++++++++++++++++++++++++++++++++++
Date: Mon Jun 06 15:48:37 CEST 2016
User: root
Dark Spectrum Present: No
Reference Spectrum Present: No
Number of Sampled Component Spectra: 1
Spectrometers: USB4C02835
Integration Time (usec): 100000 (USB4C02835)
Spectra Averaged: 1 (USB4C02835)
Boxcar Smoothing: 0 (USB4C02835)
Correct for Electrical Dark: No (USB4C02835)
Strobe/Lamp Enabled: No (USB4C02835)
Correct for Detector Non-linearity: No (USB4C02835)
Correct for Stray Light: No (USB4C02835)
Number of Pixels in Processed Spectrum: 3648
>>>>>Begin Processed Spectral Data<<<<<
177.47	1546.22
177.69	1546.22
177.91	1546.22
178.13	1445.87
178.36	1484.78
178.58	1671.14
178.80	1630.18
179.02	1576.94
179.24	1705.96
179.46	1685.48
179.68	1744.87
179.90	1744.87
180.13	1730.53
180.35	1697.77
180.57	1736.68
180.79	1691.62
181.01	1755.11
181.23	1769.44
181.45	1775.59
181.67	1783.78
181.90	1845.22
182.12	1712.10
182.34	1609.70
182.56	1726.44
182.78	1710.05
183.00	1732.58
183.22	1685.48
183.44	1609.70
183.66	1898.47
183.89	1837.03
184.11	1712.10
184.33	1816.55
184.55	1757.16
184.77	1787.88
184.99	1787.88
185.21	1806.31
185.43	1851.36
185.65	1683.43
185.87	1697.77
186.10	1802.21
186.32	1804.26
186.54	1689.57
186.76	1775.59
186.98	1771.49
187.20	1675.24
187.42	1732.58
187.64	1781.73
187.86	1771.49
188.08	1714.15
188.30	1683.43
188.52	1685.48
188.75	1826.79
188.97	1781.73
189.19	1660.90
189.41	1724.39
189.63	1781.73
189.85	1648.61
190.07	1607.66
190.29	1621.99
190.51	1701.86
190.73	1701.86
190.95	1765.35
191.17	1681.38
191.39	1667.05
191.61	1716.20
191.84	1640.42
192.06	1722.34
192.28	1587.18
192.50	1847.27
192.72	1779.68
192.94	1714.15
193.16	1728.49
193.38	1607.66
193.60	1630.18
193.82	1658.85
194.04	1810.40
194.26	1720.29
194.48	1753.06
194.70	1648.61
194.92	1701.86
195.14	1718.25
195.36	1681.38
195.58	1740.77
195.80	1777.64
196.02	1679.33
196.24	1759.21
196.46	1705.96
196.69	1681.38
196.91	1779.68
197.13	1644.52
197.35	1689.57
197.57	1853.41
197.79	1806.31
198.01	1761.25
198.23	1753.06
198.45	1771.49
198.67	1673.19
198.89	1740.77
199.11	1744.87
199.33	1705.96
199.55	1603.56
199.77	1638.38
199.99	1769.44
200.21	1738.73
200.43	1796.07
200.65	1701.86
200.87	1652.71
201.09	1683.43
201.31	1693.67
201.53	1701.86
201.75	1830.88
201.97	1642.47
202.19	1701.86
202.41	1781.73
202.63	1798.12
202.85	1755.11
203.07	1746.92
203.29	1691.62
203.51	1677.29
203.73	1714.15
203.95	1880.04
204.17	1687.53
204.39	1652.71
204.61	1703.91
204.83	1705.96
205.05	1736.68
205.27	1708.01
205.49	1859.56
205.71	1648.61
205.93	1675.24
206.15	1615.85
206.37	1734.63
206.59	1720.29
206.81	1665.00
207.03	1662.95
207.25	1662.95
207.47	1779.68
207.69	1685.48
207.91	1814.50
208.13	1746.92
208.34	1654.76
208.56	1728.49
208.78	1683.43
209.00	1726.44
209.22	1720.29
209.44	1742.82
209.66	1757.16
209.88	1712.10
210.10	1658.85
210.32	1730.53
210.54	1800.16
210.76	1695.72
210.98	1722.34
211.20	1640.42
211.42	1728.49
211.64	1804.26
211.86	1808.36
212.08	1779.68
212.30	1736.68
212.52	1689.57
212.74	1734.63
212.96	1685.48
213.17	1761.25
213.39	1748.97
213.61	1746.92
213.83	1804.26
214.05	1693.67
214.27	1816.55
214.49	1630.18
214.71	1634.28
214.93	1759.21
215.15	1763.30
215.37	1759.21
215.59	1609.70
215.81	1740.77
216.03	1789.92
216.24	1675.24
216.46	1660.90
216.68	1746.92
216.90	1751.01
217.12	1791.97
217.34	1753.06
217.56	1802.21
217.78	1820.64
218.00	1708.01
218.22	1722.34
218.44	1734.63
218.66	1771.49
218.87	1841.12
219.09	1679.33
219.31	1751.01
219.53	1718.25
219.75	1720.29
219.97	1669.09
220.19	1722.34
220.41	1716.20
220.63	1787.88
220.85	1738.73
221.06	1771.49
221.28	1755.11
221.50	1810.40
221.72	1693.67
221.94	1708.01
222.16	1697.77
222.38	1730.53
222.60	1693.67
222.82	1673.19
223.03	1732.58
223.25	1671.14
223.47	1773.54
223.69	1820.64
223.91	1765.35
224.13	1703.91
224.35	1746.92
224.57	1718.25
224.78	1728.49
225.00	1716.20
225.22	1693.67
225.44	1734.63
225.66	1779.68
225.88	1656.81
226.10	1783.78
226.32	1771.49
226.53	1775.59
226.75	1734.63
226.97	1734.63
227.19	1726.44
227.41	1687.53
227.63	1617.90
227.85	1656.81
228.06	1658.85
228.28	1746.92
228.50	1748.97
228.72	1601.51
228.94	1685.48
229.16	1650.66
229.37	1652.71
229.59	1734.63
229.81	1767.40
230.03	1693.67
230.25	1646.57
230.47	1581.03
230.69	1681.38
230.90	1794.02
231.12	1738.73
231.34	1660.90
231.56	1730.53
231.78	1677.29
232.00	1665.00
232.21	1748.97
232.43	1685.48
232.65	1615.85
232.87	1701.86
233.09	1716.20
233.30	1646.57
233.52	1720.29
233.74	1701.86
233.96	1699.81
234.18	1728.49
234.40	1699.81
234.61	1849.32
234.83	1601.51
235.05	1665.00
235.27	1884.13
235.49	1796.07
235.70	1650.66
235.92	1826.79
236.14	1767.40
236.36	1824.74
236.58	1642.47
236.79	1724.39
237.01	1763.30
237.23	1718.25
237.45	1820.64
237.67	1673.19
237.88	1705.96
238.10	1869.80
238.32	1652.71
238.54	1652.71
238.76	1732.58
238.97	1697.77
239.19	1701.86
239.41	1767.40
239.63	1789.92
239.85	1658.85
240.06	1781.73
240.28	1701.86
240.50	1767.40
240.72	1708.01
240.93	1753.06
241.15	1765.35
241.37	1732.58
241.59	1791.97
241.81	1677.29
242.02	1705.96
242.24	1701.86
242.46	1816.55
242.68	1601.51
242.89	1738.73
243.11	1705.96
243.33	1724.39
243.55	1677.29
243.76	1736.68
243.98	1675.24
244.20	1677.29
244.42	1730.53
244.64	1769.44
244.85	1691.62
245.07	1652.71
245.29	1724.39
245.51	1728.49
245.72	1697.77
245.94	1800.16
246.16	1718.25
246.38	1802.21
246.59	1673.19
246.81	1671.14
247.03	1705.96
247.24	1609.70
247.46	1673.19
247.68	1699.81
247.90	1703.91
248.11	1632.23
248.33	1665.00
248.55	1654.76
248.77	1779.68
248.98	1755.11
249.20	1742.82
249.42	1708.01
249.64	1800.16
249.85	1738.73
250.07	1716.20
250.29	1746.92
250.50	1763.30
250.72	1628.14
250.94	1775.59
251.16	1839.08
251.37	1802.21
251.59	1839.08
251.81	1742.82
252.02	1777.64
252.24	1757.16
252.46	1751.01
252.68	1652.71
252.89	1626.09
253.11	1581.03
253.33	1769.44
253.54	1892.32
253.76	1615.85
253.98	1746.92
254.20	1708.01
254.41	1615.85
254.63	1693.67
254.85	1650.66
255.06	1705.96
255.28	1660.90
255.50	1652.71
255.71	1718.25
255.93	1621.99
256.15	1695.72
256.36	1732.58
256.58	1650.66
256.80	1699.81
257.02	1660.90
257.23	1646.57
257.45	1710.05
257.67	1720.29
257.88	1638.38
258.10	1681.38
258.32	1699.81
258.53	1648.61
258.75	1804.26
258.97	1714.15
259.18	1703.91
259.40	1701.86
259.62	1728.49
259.83	1789.92
260.05	1716.20
260.27	1964.00
260.48	1738.73
260.70	1650.66
260.92	1730.53
261.13	1681.38
261.35	1730.53
261.57	1746.92
261.78	1574.89
262.00	1648.61
262.22	1722.34
262.43	1669.09
262.65	1730.53
262.86	1730.53
263.08	1845.22
263.30	1681.38
263.51	1621.99
263.73	1742.82
263.95	1910.75
264.16	1636.33
264.38	1642.47
264.60	1746.92
264.81	1693.67
265.03	1755.11
265.25	1730.53
265.46	1728.49
265.68	1843.17
265.89	1753.06
266.11	1669.09
266.33	1724.39
266.54	1791.97
266.76	1712.10
266.98	1699.81
267.19	1755.11
267.41	1783.78
267.62	1771.49
267.84	1603.56
268.06	1759.21
268.27	1710.05
268.49	1767.40
268.70	1789.92
268.92	1642.47
269.14	1648.61
269.35	1589.22
269.57	1695.72
269.79	1806.31
270.00	1669.09
270.22	1820.64
270.43	1724.39
270.65	1638.38
270.87	1701.86
271.08	1675.24
271.30	1796.07
271.51	1722.34
271.73	1697.77
271.95	1796.07
272.16	1714.15
272.38	1695.72
272.59	1751.01
272.81	1753.06
273.02	1667.05
273.24	1697.77
273.46	1753.06
273.67	1654.76
273.89	1691.62
274.10	1759.21
274.32	1787.88
274.54	1771.49
274.75	1677.29
274.97	1667.05
275.18	1755.11
275.40	1722.34
275.61	1765.35
275.83	1759.21
276.05	1669.09
276.26	1703.91
276.48	1753.06
276.69	1722.34
276.91	1679.33
277.12	1732.58
277.34	1689.57
277.55	1751.01
277.77	1714.15
277.99	1665.00
278.20	1626.09
278.42	1679.33
278.63	1720.29
278.85	1636.33
279.06	1574.89
279.28	1755.11
279.49	1734.63
279.71	1722.34
279.93	1730.53
280.14	1695.72
280.36	1771.49
280.57	1769.44
280.79	1810.40
281.00	1718.25
281.22	1734.63
281.43	1843.17
281.65	1607.66
281.86	1646.57
282.08	1789.92
282.29	1736.68
282.51	1665.00
282.73	1654.76
282.94	1621.99
283.16	1695.72
283.37	1720.29
283.59	1689.57
283.80	1804.26
284.02	1738.73
284.23	1734.63
284.45	1675.24
284.66	1675.24
284.88	1722.34
285.09	1683.43
285.31	1794.02
285.52	1746.92
285.74	1621.99
285.95	1820.64
286.17	1685.48
286.38	1744.87
286.60	1683.43
286.81	1736.68
287.03	1761.25
287.24	1681.38
287.46	1775.59
287.67	1742.82
287.89	1877.99
288.10	1728.49
288.32	1689.57
288.53	1798.12
288.75	1748.97
288.96	1757.16
289.18	1658.85
289.39	1683.43
289.61	1818.60
289.82	1771.49
290.04	1834.98
290.25	1617.90
290.47	1689.57
290.68	1742.82
290.90	1732.58
291.11	1624.04
291.33	1789.92
291.54	1685.48
291.76	1705.96
291.97	1722.34
292.18	1693.67
292.40	1638.38
292.61	1695.72
292.83	1855.46
293.04	1705.96
293.26	1771.49
293.47	1753.06
293.69	1667.05
293.90	1714.15
294.12	1763.30
294.33	1656.81
294.55	1660.90
294.76	1800.16
294.97	1818.60
295.19	1890.28
295.40	1738.73
295.62	1804.26
295.83	1763.30
296.05	1640.42
296.26	1769.44
296.48	1689.57
296.69	1679.33
296.90	1687.53
297.12	1746.92
297.33	1779.68
297.55	1683.43
297.76	1738.73
297.98	1765.35
298.19	1697.77
298.41	1685.48
298.62	1673.19
298.83	1798.12
299.05	1720.29
299.26	1691.62
299.48	1662.95
299.69	1738.73
299.90	1751.01
300.12	1615.85
300.33	1742.82
300.55	1675.24
300.76	1777.64
300.98	1642.47
301.19	1746.92
301.40	1648.61
301.62	1722.34
301.83	1748.97
302.05	1781.73
302.26	1771.49
302.47	1732.58
302.69	1621.99
302.90	1701.86
303.12	1583.08
303.33	1818.60
303.54	1808.36
303.76	1621.99
303.97	1777.64
304.19	1824.74
304.40	1654.76
304.61	1789.92
304.83	1740.77
305.04	1826.79
305.26	1789.92
305.47	1677.29
305.68	1726.44
305.90	1675.24
306.11	1720.29
306.33	1726.44
306.54	1628.14
306.75	1652.71
306.97	1689.57
307.18	1714.15
307.39	1679.33
307.61	1740.77
307.82	1716.20
308.04	1705.96
308.25	1728.49
308.46	1746.92
308.68	1722.34
308.89	1658.85
309.10	1800.16
309.32	1705.96
309.53	1726.44
309.74	1763.30
309.96	1693.67
310.17	1789.92
310.39	1722.34
310.60	1843.17
310.81	1644.52
311.03	1667.05
311.24	1777.64
311.45	1689.57
311.67	1800.16
311.88	1705.96
312.09	1742.82
312.31	1708.01
312.52	1730.53
312.73	1632.23
312.95	1626.09
313.16	1701.86
313.37	1732.58
313.59	1736.68
313.80	1714.15
314.01	1755.11
314.23	1751.01
314.44	1658.85
314.65	1609.70
314.87	1738.73
315.08	1722.34
315.29	1673.19
315.51	1755.11
315.72	1597.42
315.93	1853.41
316.15	1763.30
316.36	1617.90
316.57	1728.49
316.79	1673.19
317.00	1728.49
317.21	1742.82
317.43	1652.71
317.64	1710.05
317.85	1718.25
318.07	1705.96
318.28	1822.69
318.49	1781.73
318.70	2017.25
318.92	1873.89
319.13	1869.80
319.34	1845.22
319.56	1791.97
319.77	1828.84
319.98	1751.01
320.20	1744.87
320.41	1757.16
320.62	1773.54
320.83	1638.38
321.05	1912.80
321.26	1658.85
321.47	1724.39
321.69	1732.58
321.90	1624.04
322.11	1658.85
322.32	1748.97
322.54	1783.78
322.75	1703.91
322.96	1845.22
323.18	1613.80
323.39	1705.96
323.60	1654.76
323.81	1763.30
324.03	1689.57
324.24	1691.62
324.45	1773.54
324.66	1685.48
324.88	1736.68
325.09	1687.53
325.30	1662.95
325.52	1783.78
325.73	1771.49
325.94	1718.25
326.15	1628.14
326.37	1662.95
326.58	1814.50
326.79	1802.21
327.00	1712.10
327.22	1746.92
327.43	1740.77
327.64	1546.22
327.85	1734.63
328.07	1640.42
328.28	1839.08
328.49	1730.53
328.70	1675.24
328.92	1667.05
329.13	1677.29
329.34	1724.39
329.55	1783.78
329.76	1748.97
329.98	1714.15
330.19	1830.88
330.40	1742.82
330.61	1693.67
330.83	1773.54
331.04	1611.75
331.25	1648.61
331.46	1679.33
331.68	1683.43
331.89	1845.22
332.10	1679.33
332.31	1638.38
332.52	1748.97
332.74	1789.92
332.95	1638.38
333.16	1683.43
333.37	1757.16
333.58	1685.48
333.80	1732.58
334.01	1607.66
334.22	1755.11
334.43	1675.24
334.64	1708.01
334.86	1634.28
335.07	1693.67
335.28	1748.97
335.49	1689.57
335.70	1714.15
335.92	1751.01
336.13	1863.65
336.34	1730.53
336.55	1767.40
336.76	1738.73
336.98	1656.81
337.19	1751.01
337.40	1755.11
337.61	1841.12
337.82	1708.01
338.04	1804.26
338.25	1589.22
338.46	1701.86
338.67	1669.09
338.88	1593.32
339.09	1705.96
339.31	1648.61
339.52	1617.90
339.73	1705.96
339.94	1777.64
340.15	1689.57
340.36	1742.82
340.58	1685.48
340.79	1691.62
341.00	1734.63
341.21	1667.05
341.42	1853.41
341.63	1718.25
341.85	1796.07
342.06	1714.15
342.27	1632.23
342.48	1837.03
342.69	1683.43
342.90	1656.81
343.12	1705.96
343.33	1742.82
343.54	1808.36
343.75	1705.96
343.96	1681.38
344.17	1685.48
344.38	1624.04
344.60	1681.38
344.81	1738.73
345.02	1748.97
345.23	1742.82
345.44	1794.02
345.65	1734.63
345.86	1779.68
346.07	1824.74
346.29	1675.24
346.50	1742.82
346.71	1738.73
346.92	1800.16
347.13	1755.11
347.34	1701.86
347.55	1724.39
347.76	1785.83
347.98	1644.52
348.19	1755.11
348.40	1759.21
348.61	1730.53
348.82	1806.31
349.03	1697.77
349.24	1728.49
349.45	1896.42
349.66	1632.23
349.88	1787.88
350.09	1697.77
350.30	1742.82
350.51	1738.73
350.72	1730.53
350.93	1748.97
351.14	1716.20
351.35	1736.68
351.56	1656.81
351.77	1652.71
351.99	1794.02
352.20	1822.69
352.41	1720.29
352.62	1660.90
352.83	1677.29
353.04	1744.87
353.25	1679.33
353.46	1724.39
353.67	1802.21
353.88	1667.05
354.09	1746.92
354.30	1644.52
354.52	1753.06
354.73	1701.86
354.94	1583.08
355.15	1691.62
355.36	1798.12
355.57	1693.67
355.78	1765.35
355.99	1679.33
356.20	1705.96
356.41	1755.11
356.62	1736.68
356.83	1689.57
357.04	1771.49
357.25	1613.80
357.46	1710.05
357.68	1605.61
357.89	1640.42
358.10	1775.59
358.31	1742.82
358.52	1665.00
358.73	1693.67
358.94	1626.09
359.15	1744.87
359.36	1814.50
359.57	1710.05
359.78	1677.29
359.99	1751.01
360.20	1640.42
360.41	1767.40
360.62	1753.06
360.83	1689.57
361.04	1755.11
361.25	1726.44
361.46	1748.97
361.67	1714.15
361.88	1800.16
362.09	1820.64
362.30	1640.42
362.51	1634.28
362.72	1824.74
362.93	1736.68
363.14	1751.01
363.35	1695.72
363.56	1662.95
363.78	1771.49
363.99	1708.01
364.20	1714.15
364.41	1779.68
364.62	1796.07
364.83	1783.78
365.04	1722.34
365.25	1765.35
365.46	1857.51
365.67	1611.75
365.88	1660.90
366.09	1689.57
366.30	1675.24
366.51	1720.29
366.72	1669.09
366.93	1685.48
367.14	1771.49
367.35	1751.01
367.56	1765.35
367.77	1736.68
367.98	1714.15
368.18	1767.40
368.39	1755.11
368.60	1621.99
368.81	1726.44
369.02	1787.88
369.23	1693.67
369.44	1624.04
369.65	1677.29
369.86	1710.05
370.07	1785.83
370.28	1656.81
370.49	1720.29
370.70	1734.63
370.91	1609.70
371.12	1658.85
371.33	1765.35
371.54	1636.33
371.75	1800.16
371.96	1638.38
372.17	1738.73
372.38	1708.01
372.59	1740.77
372.80	1712.10
373.01	1820.64
373.22	1677.29
373.43	1728.49
373.64	1652.71
373.85	1810.40
374.06	1804.26
374.26	1701.86
374.47	1658.85
374.68	1746.92
374.89	1732.58
375.10	1630.18
375.31	1708.01
375.52	1705.96
375.73	1718.25
375.94	1656.81
376.15	1828.84
376.36	1718.25
376.57	1644.52
376.78	1710.05
376.99	1701.86
377.20	1732.58
377.40	1671.14
377.61	1773.54
377.82	1667.05
378.03	1796.07
378.24	1734.63
378.45	1771.49
378.66	1802.21
378.87	1685.48
379.08	1632.23
379.29	1691.62
379.50	1755.11
379.71	1736.68
379.91	1718.25
380.12	1765.35
380.33	1708.01
380.54	1699.81
380.75	1798.12
380.96	1638.38
381.17	1855.46
381.38	1701.86
381.59	1736.68
381.80	1748.97
382.00	1804.26
382.21	1767.40
382.42	1789.92
382.63	1843.17
382.84	1667.05
383.05	1748.97
383.26	1880.04
383.47	1740.77
383.68	1699.81
383.88	1740.77
384.09	1751.01
384.30	1857.51
384.51	1728.49
384.72	1628.14
384.93	1603.56
385.14	1763.30
385.35	1738.73
385.55	1648.61
385.76	1705.96
385.97	1630.18
386.18	1624.04
386.39	1626.09
386.60	1742.82
386.81	1677.29
387.02	1617.90
387.22	1660.90
387.43	1726.44
387.64	1761.25
387.85	1777.64
388.06	2193.37
388.27	4310.97
388.48	6848.41
388.68	8079.24
388.89	9555.82
389.10	9545.58
389.31	8374.14
389.52	7393.17
389.73	6721.43
389.93	6121.38
390.14	5824.42
390.35	5099.44
390.56	4540.35
390.77	3758.02
390.98	3178.45
391.18	2572.25
391.39	2068.45
391.60	1943.52
391.81	1865.70
392.02	1769.44
392.23	1853.41
392.43	1732.58
392.64	1746.92
392.85	1710.05
393.06	1775.59
393.27	1714.15
393.47	1624.04
393.68	1763.30
393.89	1685.48
394.10	1779.68
394.31	1712.10
394.52	1687.53
394.72	1730.53
394.93	1816.55
395.14	1673.19
395.35	1738.73
395.56	1724.39
395.76	1794.02
395.97	1812.45
396.18	1863.65
396.39	1867.75
396.60	2101.22
396.80	1933.28
397.01	1888.23
397.22	1814.50
397.43	1902.56
397.64	1755.11
397.84	1785.83
398.05	1845.22
398.26	1796.07
398.47	1710.05
398.67	1837.03
398.88	1787.88
399.09	1748.97
399.30	1757.16
399.51	1789.92
399.71	1751.01
399.92	1738.73
400.13	1761.25
400.34	1705.96
400.54	1726.44
400.75	1822.69
400.96	1761.25
401.17	1845.22
401.37	1738.73
401.58	1673.19
401.79	1708.01
402.00	1859.56
402.21	2027.49
402.41	1918.95
402.62	2023.39
402.83	2009.06
403.04	1980.39
403.24	2064.35
403.45	1875.94
403.66	1945.57
403.87	1951.71
404.07	1871.84
404.28	1972.19
404.49	1943.52
404.70	1777.64
404.90	1796.07
405.11	1865.70
405.32	1724.39
405.52	1671.14
405.73	1705.96
405.94	1701.86
406.15	1714.15
406.35	1740.77
406.56	1730.53
406.77	1703.91
406.98	1730.53
407.18	1681.38
407.39	1820.64
407.60	1689.57
407.80	1748.97
408.01	1710.05
408.22	1798.12
408.43	1703.91
408.63	1806.31
408.84	1726.44
409.05	1724.39
409.25	1712.10
409.46	1611.75
409.67	1701.86
409.88	1755.11
410.08	1736.68
410.29	1689.57
410.50	1761.25
410.70	1718.25
410.91	1736.68
411.12	1712.10
411.32	1681.38
411.53	1603.56
411.74	1808.36
411.95	1789.92
412.15	1734.63
412.36	1798.12
412.57	1746.92
412.77	1865.70
412.98	1769.44
413.19	1703.91
413.39	1734.63
413.60	1822.69
413.81	1798.12
414.01	1730.53
414.22	1769.44
414.43	1730.53
414.63	1732.58
414.84	1761.25
415.05	1718.25
415.25	1689.57
415.46	1705.96
415.67	1712.10
415.87	1726.44
416.08	1712.10
416.29	1665.00
416.49	1781.73
416.70	1699.81
416.91	1634.28
417.11	1648.61
417.32	1796.07
417.53	1826.79
417.73	1695.72
417.94	1683.43
418.15	1697.77
418.35	1748.97
418.56	1699.81
418.77	1853.41
418.97	1701.86
419.18	1691.62
419.38	1607.66
419.59	1693.67
419.80	1804.26
420.00	1675.24
420.21	1763.30
420.42	1765.35
420.62	1771.49
420.83	1665.00
421.04	1718.25
421.24	1665.00
421.45	1761.25
421.65	1714.15
421.86	1695.72
422.07	1636.33
422.27	1761.25
422.48	1724.39
422.69	1634.28
422.89	1667.05
423.10	1742.82
423.30	1632.23
423.51	1714.15
423.72	1755.11
423.92	1826.79
424.13	1572.84
424.33	1822.69
424.54	1783.78
424.75	1644.52
424.95	1808.36
425.16	1726.44
425.36	1681.38
425.57	1777.64
425.78	1724.39
425.98	1800.16
426.19	1726.44
426.39	1691.62
426.60	1759.21
426.81	1834.98
427.01	1746.92
427.22	1626.09
427.42	1714.15
427.63	1681.38
427.83	1718.25
428.04	1769.44
428.25	1847.27
428.45	1839.08
428.66	1732.58
428.86	1734.63
429.07	1693.67
429.28	1783.78
429.48	1757.16
429.69	1722.34
429.89	1703.91
430.10	1671.14
430.30	1714.15
430.51	1783.78
430.71	1611.75
430.92	1685.48
431.13	1640.42
431.33	1773.54
431.54	1656.81
431.74	1857.51
431.95	1845.22
432.15	1648.61
432.36	1755.11
432.56	1757.16
432.77	1814.50
432.98	1820.64
433.18	1783.78
433.39	1673.19
433.59	1777.64
433.80	1808.36
434.00	1841.12
434.21	1771.49
434.41	1681.38
434.62	1843.17
434.82	1738.73
435.03	1691.62
435.23	1783.78
435.44	1578.98
435.64	1730.53
435.85	1722.34
436.06	1718.25
436.26	1808.36
436.47	1656.81
436.67	1697.77
436.88	1685.48
437.08	1751.01
437.29	1763.30
437.49	1699.81
437.70	1806.31
437.90	1730.53
438.11	1912.80
438.31	1742.82
438.52	1869.80
438.72	1812.45
438.93	1894.37
439.13	1759.21
439.34	1902.56
439.54	1763.30
439.75	1867.75
439.95	1773.54
440.16	1675.24
440.36	1828.84
440.57	1779.68
440.77	1816.55
440.98	1738.73
441.18	1716.20
441.39	1753.06
441.59	1722.34
441.80	1873.89
442.00	1710.05
442.21	1826.79
442.41	1734.63
442.62	1804.26
442.82	1746.92
443.02	1722.34
443.23	1779.68
443.43	1734.63
443.64	1814.50
443.84	1617.90
444.05	1871.84
444.25	1705.96
444.46	1789.92
444.66	1730.53
444.87	1820.64
445.07	1572.84
445.28	1742.82
445.48	1818.60
445.69	1781.73
445.89	1929.19
446.09	1751.01
446.30	2041.82
446.50	2658.26
446.71	3717.06
446.91	4284.35
447.12	4749.24
447.32	4759.48
447.53	4292.54
447.73	3874.76
447.93	3561.42
448.14	3237.84
448.34	3164.11
448.55	2848.72
448.75	2805.72
448.96	2680.79
449.16	2451.42
449.36	2346.97
449.57	1998.82
449.77	1886.18
449.98	1845.22
450.18	1820.64
450.39	1865.70
450.59	1794.02
450.79	1759.21
451.00	1689.57
451.20	1757.16
451.41	1665.00
451.61	1765.35
451.81	1728.49
452.02	1728.49
452.22	1763.30
452.43	1705.96
452.63	1640.42
