SpectraSuite Data File
++++++++++++++++++++++++++++++++++++
Date: Mon Jun 06 17:05:57 CEST 2016
User: root
Dark Spectrum Present: No
Reference Spectrum Present: No
Number of Sampled Component Spectra: 1
Spectrometers: USB4C02835
Integration Time (usec): 100000 (USB4C02835)
Spectra Averaged: 1 (USB4C02835)
Boxcar Smoothing: 0 (USB4C02835)
Correct for Electrical Dark: No (USB4C02835)
Strobe/Lamp Enabled: No (USB4C02835)
Correct for Detector Non-linearity: No (USB4C02835)
Correct for Stray Light: No (USB4C02835)
Number of Pixels in Processed Spectrum: 3648
>>>>>Begin Processed Spectral Data<<<<<
177.47	1486.83
177.69	1486.83
177.91	1486.83
178.13	1472.49
178.36	1378.28
178.58	1714.15
178.80	1722.34
179.02	1697.77
179.24	1634.28
179.46	1587.18
179.68	1783.78
179.90	1701.86
180.13	1697.77
180.35	1656.81
180.57	1658.85
180.79	1755.11
181.01	1697.77
181.23	1703.91
181.45	1855.46
181.67	1691.62
181.90	1787.88
182.12	1591.27
182.34	1669.09
182.56	1740.77
182.78	1718.25
183.00	1671.14
183.22	1730.53
183.44	1611.75
183.66	1822.69
183.89	1753.06
184.11	1722.34
184.33	1718.25
184.55	1744.87
184.77	1744.87
184.99	1681.38
185.21	1705.96
185.43	1859.56
185.65	1650.66
185.87	1675.24
186.10	1832.93
186.32	1894.37
186.54	1757.16
186.76	1736.68
186.98	1828.84
187.20	1658.85
187.42	1716.20
187.64	1701.86
187.86	1738.73
188.08	1742.82
188.30	1660.90
188.52	1716.20
188.75	1775.59
188.97	1820.64
189.19	1665.00
189.41	1697.77
189.63	1742.82
189.85	1722.34
190.07	1619.94
190.29	1597.42
190.51	1734.63
190.73	1599.46
190.95	1814.50
191.17	1796.07
191.39	1646.57
191.61	1730.53
191.84	1757.16
192.06	1779.68
192.28	1601.51
192.50	1945.57
192.72	1718.25
192.94	1662.95
193.16	1701.86
193.38	1777.64
193.60	1642.47
193.82	1652.71
194.04	1726.44
194.26	1779.68
194.48	1654.76
194.70	1685.48
194.92	1722.34
195.14	1740.77
195.36	1691.62
195.58	1699.81
195.80	1693.67
196.02	1685.48
196.24	1728.49
196.46	1777.64
196.69	1701.86
196.91	1875.94
197.13	1724.39
197.35	1632.23
197.57	1759.21
197.79	1751.01
198.01	1755.11
198.23	1751.01
198.45	1724.39
198.67	1650.66
198.89	1660.90
199.11	1769.44
199.33	1652.71
199.55	1667.05
199.77	1832.93
199.99	1732.58
200.21	1716.20
200.43	1703.91
200.65	1677.29
200.87	1593.32
201.09	1728.49
201.31	1652.71
201.53	1722.34
201.75	1718.25
201.97	1689.57
202.19	1705.96
202.41	1755.11
202.63	1814.50
202.85	1738.73
203.07	1681.38
203.29	1665.00
203.51	1675.24
203.73	1581.03
203.95	1884.13
204.17	1730.53
204.39	1740.77
204.61	1720.29
204.83	1681.38
205.05	1726.44
205.27	1740.77
205.49	1812.45
205.71	1802.21
205.93	1662.95
206.15	1699.81
206.37	1771.49
206.59	1705.96
206.81	1615.85
207.03	1724.39
207.25	1665.00
207.47	1716.20
207.69	1675.24
207.91	1757.16
208.13	1759.21
208.34	1650.66
208.56	1658.85
208.78	1722.34
209.00	1683.43
209.22	1624.04
209.44	1679.33
209.66	1720.29
209.88	1765.35
210.10	1636.33
210.32	1693.67
210.54	1802.21
210.76	1683.43
210.98	1718.25
211.20	1585.13
211.42	1671.14
211.64	1843.17
211.86	1669.09
212.08	1740.77
212.30	1689.57
212.52	1689.57
212.74	1769.44
212.96	1763.30
213.17	1751.01
213.39	1736.68
213.61	1812.45
213.83	1714.15
214.05	1650.66
214.27	1712.10
214.49	1687.53
214.71	1689.57
214.93	1779.68
215.15	1685.48
215.37	1804.26
215.59	1630.18
215.81	1722.34
216.03	1787.88
216.24	1708.01
216.46	1654.76
216.68	1730.53
216.90	1710.05
217.12	1771.49
217.34	1722.34
217.56	1679.33
217.78	1802.21
218.00	1789.92
218.22	1693.67
218.44	1724.39
218.66	1699.81
218.87	1810.40
219.09	1638.38
219.31	1746.92
219.53	1734.63
219.75	1671.14
219.97	1695.72
220.19	1708.01
220.41	1701.86
220.63	1839.08
220.85	1775.59
221.06	1695.72
221.28	1755.11
221.50	1685.48
221.72	1712.10
221.94	1712.10
222.16	1677.29
222.38	1796.07
222.60	1740.77
222.82	1665.00
223.03	1748.97
223.25	1646.57
223.47	1791.97
223.69	1818.60
223.91	1714.15
224.13	1755.11
224.35	1677.29
224.57	1755.11
224.78	1748.97
225.00	1595.37
225.22	1685.48
225.44	1732.58
225.66	1789.92
225.88	1689.57
226.10	1722.34
226.32	1689.57
226.53	1787.88
226.75	1638.38
226.97	1687.53
227.19	1734.63
227.41	1681.38
227.63	1632.23
227.85	1656.81
228.06	1646.57
228.28	1689.57
228.50	1759.21
228.72	1724.39
228.94	1640.42
229.16	1665.00
229.37	1587.18
229.59	1679.33
229.81	1763.30
230.03	1720.29
230.25	1634.28
230.47	1652.71
230.69	1587.18
230.90	1783.78
231.12	1724.39
231.34	1695.72
231.56	1710.05
231.78	1564.65
232.00	1746.92
232.21	1751.01
232.43	1683.43
232.65	1597.42
232.87	1746.92
233.09	1669.09
233.30	1646.57
233.52	1701.86
233.74	1757.16
233.96	1681.38
234.18	1683.43
234.40	1658.85
234.61	1804.26
234.83	1574.89
235.05	1665.00
235.27	1869.80
235.49	1804.26
235.70	1722.34
235.92	1781.73
236.14	1759.21
236.36	1806.31
236.58	1548.26
236.79	1785.83
237.01	1644.52
237.23	1654.76
237.45	1812.45
237.67	1658.85
237.88	1679.33
238.10	1732.58
238.32	1701.86
238.54	1714.15
238.76	1677.29
238.97	1626.09
239.19	1691.62
239.41	1808.36
239.63	1730.53
239.85	1642.47
240.06	1705.96
240.28	1638.38
240.50	1785.83
240.72	1640.42
240.93	1681.38
241.15	1775.59
241.37	1701.86
241.59	1830.88
241.81	1693.67
242.02	1691.62
242.24	1718.25
242.46	1748.97
242.68	1718.25
242.89	1722.34
243.11	1791.97
243.33	1751.01
243.55	1701.86
243.76	1710.05
243.98	1673.19
244.20	1714.15
244.42	1710.05
244.64	1748.97
244.85	1632.23
245.07	1718.25
245.29	1705.96
245.51	1689.57
245.72	1681.38
245.94	1798.12
246.16	1699.81
246.38	1742.82
246.59	1759.21
246.81	1681.38
247.03	1681.38
247.24	1654.76
247.46	1687.53
247.68	1689.57
247.90	1730.53
248.11	1695.72
248.33	1759.21
248.55	1722.34
248.77	1769.44
248.98	1722.34
249.20	1796.07
249.42	1636.33
249.64	1736.68
249.85	1718.25
250.07	1660.90
250.29	1826.79
250.50	1800.16
250.72	1654.76
250.94	1693.67
251.16	1798.12
251.37	1751.01
251.59	1798.12
251.81	1701.86
252.02	1822.69
252.24	1675.24
252.46	1767.40
252.68	1685.48
252.89	1748.97
253.11	1576.94
253.33	1789.92
253.54	1757.16
253.76	1601.51
253.98	1714.15
254.20	1638.38
254.41	1607.66
254.63	1710.05
254.85	1705.96
255.06	1697.77
255.28	1693.67
255.50	1693.67
255.71	1705.96
255.93	1615.85
256.15	1728.49
256.36	1683.43
256.58	1681.38
256.80	1779.68
257.02	1648.61
257.23	1699.81
257.45	1652.71
257.67	1697.77
257.88	1705.96
258.10	1777.64
258.32	1712.10
258.53	1757.16
258.75	1746.92
258.97	1642.47
259.18	1759.21
259.40	1652.71
259.62	1882.08
259.83	1812.45
260.05	1703.91
260.27	2031.58
260.48	1796.07
260.70	1656.81
260.92	1673.19
261.13	1730.53
261.35	1687.53
261.57	1705.96
261.78	1546.22
262.00	1667.05
262.22	1775.59
262.43	1603.56
262.65	1726.44
262.86	1843.17
263.08	1865.70
263.30	1759.21
263.51	1652.71
263.73	1630.18
263.95	1834.98
264.16	1669.09
264.38	1656.81
264.60	1763.30
264.81	1658.85
265.03	1853.41
265.25	1742.82
265.46	1720.29
265.68	1828.84
265.89	1773.54
266.11	1693.67
266.33	1771.49
266.54	1787.88
266.76	1748.97
266.98	1785.83
267.19	1822.69
267.41	1775.59
267.62	1708.01
267.84	1628.14
268.06	1742.82
268.27	1732.58
268.49	1742.82
268.70	1734.63
268.92	1718.25
269.14	1632.23
269.35	1640.42
269.57	1718.25
269.79	1722.34
270.00	1642.47
270.22	1853.41
270.43	1714.15
270.65	1550.31
270.87	1759.21
271.08	1761.25
271.30	1826.79
271.51	1765.35
271.73	1755.11
271.95	1816.55
272.16	1726.44
272.38	1712.10
272.59	1693.67
272.81	1738.73
273.02	1708.01
273.24	1779.68
273.46	1751.01
273.67	1658.85
273.89	1716.20
274.10	1636.33
274.32	1779.68
274.54	1728.49
274.75	1718.25
274.97	1662.95
275.18	1695.72
275.40	1732.58
275.61	1740.77
275.83	1726.44
276.05	1609.70
276.26	1662.95
276.48	1804.26
276.69	1660.90
276.91	1669.09
277.12	1783.78
277.34	1738.73
277.55	1761.25
277.77	1695.72
277.99	1613.80
278.20	1652.71
278.42	1652.71
278.63	1677.29
278.85	1652.71
279.06	1601.51
279.28	1740.77
279.49	1738.73
279.71	1884.13
279.93	1695.72
280.14	1705.96
280.36	1667.05
280.57	1755.11
280.79	1728.49
281.00	1626.09
281.22	1697.77
281.43	1814.50
281.65	1615.85
281.86	1644.52
282.08	1726.44
282.29	1751.01
282.51	1644.52
282.73	1646.57
282.94	1619.94
283.16	1677.29
283.37	1744.87
283.59	1773.54
283.80	1708.01
284.02	1730.53
284.23	1783.78
284.45	1607.66
284.66	1646.57
284.88	1697.77
285.09	1767.40
285.31	1757.16
285.52	1771.49
285.74	1662.95
285.95	1742.82
286.17	1736.68
286.38	1744.87
286.60	1669.09
286.81	1716.20
287.03	1681.38
287.24	1722.34
287.46	1830.88
287.67	1806.31
287.89	1839.08
288.10	1730.53
288.32	1744.87
288.53	1777.64
288.75	1691.62
288.96	1751.01
289.18	1689.57
289.39	1712.10
289.61	1767.40
289.82	1818.60
290.04	1794.02
290.25	1646.57
290.47	1712.10
290.68	1722.34
290.90	1773.54
291.11	1615.85
291.33	1685.48
291.54	1685.48
291.76	1681.38
291.97	1726.44
292.18	1712.10
292.40	1716.20
292.61	1650.66
292.83	1787.88
293.04	1744.87
293.26	1742.82
293.47	1757.16
293.69	1732.58
293.90	1697.77
294.12	1755.11
294.33	1630.18
294.55	1775.59
294.76	1800.16
294.97	1734.63
295.19	1769.44
295.40	1644.52
295.62	1691.62
295.83	1777.64
296.05	1642.47
296.26	1734.63
296.48	1665.00
296.69	1677.29
296.90	1683.43
297.12	1761.25
297.33	1798.12
297.55	1732.58
297.76	1722.34
297.98	1751.01
298.19	1748.97
298.41	1714.15
298.62	1626.09
298.83	1826.79
299.05	1783.78
299.26	1638.38
299.48	1691.62
299.69	1665.00
299.90	1753.06
300.12	1710.05
300.33	1783.78
300.55	1705.96
300.76	1767.40
300.98	1597.42
301.19	1771.49
301.40	1695.72
301.62	1687.53
301.83	1777.64
302.05	1773.54
302.26	1736.68
302.47	1689.57
302.69	1615.85
302.90	1703.91
303.12	1650.66
303.33	1785.83
303.54	1839.08
303.76	1650.66
303.97	1716.20
304.19	1796.07
304.40	1708.01
304.61	1722.34
304.83	1816.55
305.04	1767.40
305.26	1802.21
305.47	1650.66
305.68	1783.78
305.90	1626.09
306.11	1732.58
306.33	1718.25
306.54	1669.09
306.75	1724.39
306.97	1695.72
307.18	1646.57
307.39	1675.24
307.61	1826.79
307.82	1736.68
308.04	1757.16
308.25	1720.29
308.46	1691.62
308.68	1726.44
308.89	1708.01
309.10	1816.55
309.32	1777.64
309.53	1779.68
309.74	1695.72
309.96	1724.39
310.17	1810.40
310.39	1665.00
310.60	1712.10
310.81	1755.11
311.03	1730.53
311.24	1740.77
311.45	1701.86
311.67	1818.60
311.88	1667.05
312.09	1695.72
312.31	1673.19
312.52	1730.53
312.73	1722.34
312.95	1636.33
313.16	1716.20
313.37	1804.26
313.59	1748.97
313.80	1736.68
314.01	1779.68
314.23	1699.81
314.44	1673.19
314.65	1624.04
314.87	1691.62
315.08	1705.96
315.29	1683.43
315.51	1660.90
315.72	1644.52
315.93	1890.28
316.15	1697.77
316.36	1720.29
316.57	1722.34
316.79	1781.73
317.00	1626.09
317.21	1753.06
317.43	1677.29
317.64	1640.42
317.85	1660.90
318.07	1644.52
318.28	1789.92
318.49	1736.68
318.70	1943.52
318.92	1822.69
319.13	1814.50
319.34	1955.81
319.56	1785.83
319.77	1800.16
319.98	1810.40
320.20	1796.07
320.41	1806.31
320.62	1748.97
320.83	1619.94
321.05	1832.93
321.26	1744.87
321.47	1789.92
321.69	1751.01
321.90	1687.53
322.11	1673.19
322.32	1769.44
322.54	1763.30
322.75	1710.05
322.96	1882.08
323.18	1630.18
323.39	1656.81
323.60	1636.33
323.81	1787.88
324.03	1712.10
324.24	1802.21
324.45	1769.44
324.66	1697.77
324.88	1806.31
325.09	1777.64
325.30	1734.63
325.52	1742.82
325.73	1705.96
325.94	1669.09
326.15	1683.43
326.37	1642.47
326.58	1794.02
326.79	1759.21
327.00	1673.19
327.22	1712.10
327.43	1658.85
327.64	1656.81
327.85	1724.39
328.07	1755.11
328.28	1802.21
328.49	1648.61
328.70	1738.73
328.92	1669.09
329.13	1679.33
329.34	1726.44
329.55	1826.79
329.76	1720.29
329.98	1703.91
330.19	1789.92
330.40	1738.73
330.61	1642.47
330.83	1691.62
331.04	1722.34
331.25	1667.05
331.46	1652.71
331.68	1599.46
331.89	1783.78
332.10	1679.33
332.31	1691.62
332.52	1695.72
332.74	1812.45
332.95	1681.38
333.16	1703.91
333.37	1724.39
333.58	1574.89
333.80	1683.43
334.01	1648.61
334.22	1722.34
334.43	1660.90
334.64	1642.47
334.86	1691.62
335.07	1617.90
335.28	1828.84
335.49	1519.59
335.70	1796.07
335.92	1791.97
336.13	1824.74
336.34	1791.97
336.55	1619.94
336.76	1714.15
336.98	1546.22
337.19	1705.96
337.40	1763.30
337.61	1898.47
337.82	1718.25
338.04	1767.40
338.25	1574.89
338.46	1732.58
338.67	1716.20
338.88	1722.34
339.09	1665.00
339.31	1650.66
339.52	1677.29
339.73	1611.75
339.94	1738.73
340.15	1714.15
340.36	1671.14
340.58	1724.39
340.79	1734.63
341.00	1601.51
341.21	1640.42
341.42	1798.12
341.63	1789.92
341.85	1710.05
342.06	1802.21
342.27	1609.70
342.48	1718.25
342.69	1613.80
342.90	1746.92
343.12	1753.06
343.33	1632.23
343.54	1771.49
343.75	1730.53
343.96	1683.43
344.17	1630.18
344.38	1710.05
344.60	1648.61
344.81	1699.81
345.02	1658.85
345.23	1757.16
345.44	1718.25
345.65	1771.49
345.86	1746.92
346.07	1740.77
346.29	1708.01
346.50	1787.88
346.71	1703.91
346.92	1728.49
347.13	1884.13
347.34	1650.66
347.55	1642.47
347.76	1699.81
347.98	1648.61
348.19	1685.48
348.40	1802.21
348.61	1691.62
348.82	1710.05
349.03	1720.29
349.24	1654.76
349.45	1820.64
349.66	1601.51
349.88	1656.81
350.09	1681.38
350.30	1742.82
350.51	1763.30
350.72	1759.21
350.93	1738.73
351.14	1710.05
351.35	1734.63
351.56	1691.62
351.77	1714.15
351.99	1679.33
352.20	1861.60
352.41	1771.49
352.62	1603.56
352.83	1710.05
353.04	1732.58
353.25	1701.86
353.46	1746.92
353.67	1763.30
353.88	1593.32
354.09	1765.35
354.30	1740.77
354.52	1699.81
354.73	1736.68
354.94	1685.48
355.15	1673.19
355.36	1843.17
355.57	1671.14
355.78	1701.86
355.99	1634.28
356.20	1697.77
356.41	1720.29
356.62	1644.52
356.83	1689.57
357.04	1789.92
357.25	1611.75
357.46	1699.81
357.68	1650.66
357.89	1673.19
358.10	1685.48
358.31	1708.01
358.52	1742.82
358.73	1593.32
358.94	1648.61
359.15	1652.71
359.36	1687.53
359.57	1763.30
359.78	1667.05
359.99	1724.39
360.20	1636.33
360.41	1712.10
360.62	1714.15
360.83	1724.39
361.04	1673.19
361.25	1777.64
361.46	1820.64
361.67	1781.73
361.88	1839.08
362.09	1730.53
362.30	1703.91
362.51	1712.10
362.72	1675.24
362.93	1714.15
363.14	1785.83
363.35	1769.44
363.56	1671.14
363.78	1802.21
363.99	1732.58
364.20	1744.87
364.41	1738.73
364.62	1763.30
364.83	1742.82
365.04	1705.96
365.25	1685.48
365.46	1724.39
365.67	1738.73
365.88	1619.94
366.09	1703.91
366.30	1673.19
366.51	1732.58
366.72	1673.19
366.93	1732.58
367.14	1736.68
367.35	1757.16
367.56	1697.77
367.77	1830.88
367.98	1773.54
368.18	1689.57
368.39	1732.58
368.60	1658.85
368.81	1730.53
369.02	1726.44
369.23	1734.63
369.44	1615.85
369.65	1644.52
369.86	1701.86
370.07	1751.01
370.28	1642.47
370.49	1703.91
370.70	1779.68
370.91	1642.47
371.12	1615.85
371.33	1703.91
371.54	1660.90
371.75	1796.07
371.96	1607.66
372.17	1781.73
372.38	1705.96
372.59	1814.50
372.80	1693.67
373.01	1705.96
373.22	1697.77
373.43	1724.39
373.64	1615.85
373.85	1748.97
374.06	1810.40
374.26	1685.48
374.47	1701.86
374.68	1820.64
374.89	1667.05
375.10	1597.42
375.31	1824.74
375.52	1699.81
375.73	1751.01
375.94	1644.52
376.15	1843.17
376.36	1748.97
376.57	1683.43
376.78	1730.53
376.99	1652.71
377.20	1753.06
377.40	1658.85
377.61	1759.21
377.82	1642.47
378.03	1787.88
378.24	1716.20
378.45	1781.73
378.66	1738.73
378.87	1640.42
379.08	1595.37
379.29	1685.48
379.50	1812.45
379.71	1677.29
379.91	1794.02
380.12	1730.53
380.33	1583.08
380.54	1701.86
380.75	1681.38
380.96	1624.04
381.17	1769.44
381.38	1781.73
381.59	1755.11
381.80	1705.96
382.00	1877.99
382.21	1665.00
382.42	1837.03
382.63	1830.88
382.84	1724.39
383.05	1767.40
383.26	1806.31
383.47	1759.21
383.68	1705.96
383.88	1720.29
384.09	1767.40
384.30	1775.59
384.51	1669.09
384.72	1652.71
384.93	1619.94
385.14	1726.44
385.35	1789.92
385.55	1665.00
385.76	1861.60
385.97	1687.53
386.18	1689.57
386.39	1697.77
386.60	1697.77
386.81	1714.15
387.02	1597.42
387.22	1589.22
387.43	1828.84
387.64	1783.78
387.85	1839.08
388.06	2271.20
388.27	4188.10
388.48	6707.10
388.68	8324.99
388.89	9670.51
389.10	9817.96
389.31	8570.75
389.52	7597.96
389.73	6690.71
389.93	6148.00
390.14	6043.56
390.35	5130.16
390.56	4550.59
390.77	3755.97
390.98	3067.86
391.18	2539.48
391.39	2125.79
391.60	1871.84
391.81	1832.93
392.02	1693.67
392.23	1877.99
392.43	1812.45
392.64	1746.92
392.85	1738.73
393.06	1828.84
393.27	1695.72
393.47	1634.28
393.68	1718.25
393.89	1746.92
394.10	1839.08
394.31	1718.25
394.52	1693.67
394.72	1667.05
394.93	1822.69
395.14	1681.38
395.35	1763.30
395.56	1683.43
395.76	1708.01
395.97	1775.59
396.18	1888.23
396.39	1808.36
396.60	1970.15
396.80	1888.23
397.01	1847.27
397.22	1882.08
397.43	1785.83
397.64	1763.30
397.84	1763.30
398.05	1841.12
398.26	1730.53
398.47	1853.41
398.67	1810.40
398.88	1722.34
399.09	1714.15
399.30	1685.48
399.51	1710.05
399.71	1617.90
399.92	1691.62
400.13	1753.06
400.34	1658.85
400.54	1701.86
400.75	1771.49
400.96	1679.33
401.17	1830.88
401.37	1748.97
401.58	1742.82
401.79	1710.05
402.00	1912.80
402.21	1998.82
402.41	1902.56
402.62	2033.63
402.83	1986.53
403.04	1945.57
403.24	2084.83
403.45	1841.12
403.66	1884.13
403.87	1834.98
404.07	1851.36
404.28	1953.76
404.49	1824.74
404.70	1757.16
404.90	1800.16
405.11	1677.29
405.32	1746.92
405.52	1660.90
405.73	1710.05
405.94	1669.09
406.15	1701.86
406.35	1744.87
406.56	1679.33
406.77	1746.92
406.98	1699.81
407.18	1718.25
407.39	1802.21
407.60	1650.66
407.80	1798.12
408.01	1638.38
408.22	1740.77
408.43	1626.09
408.63	1755.11
408.84	1771.49
409.05	1697.77
409.25	1638.38
409.46	1689.57
409.67	1576.94
409.88	1697.77
410.08	1783.78
410.29	1656.81
410.50	1746.92
410.70	1763.30
410.91	1738.73
411.12	1703.91
411.32	1734.63
411.53	1671.14
411.74	1777.64
411.95	1785.83
412.15	1759.21
412.36	1783.78
412.57	1759.21
412.77	1837.03
412.98	1728.49
413.19	1662.95
413.39	1759.21
413.60	1751.01
413.81	1796.07
414.01	1634.28
414.22	1718.25
414.43	1740.77
414.63	1714.15
414.84	1773.54
415.05	1722.34
415.25	1632.23
415.46	1718.25
415.67	1730.53
415.87	1748.97
416.08	1722.34
416.29	1714.15
416.49	1771.49
416.70	1732.58
416.91	1753.06
417.11	1701.86
417.32	1726.44
417.53	1665.00
417.73	1765.35
417.94	1697.77
418.15	1748.97
418.35	1710.05
418.56	1712.10
418.77	1900.52
418.97	1699.81
419.18	1683.43
419.38	1638.38
419.59	1636.33
419.80	1808.36
420.00	1697.77
420.21	1761.25
420.42	1755.11
420.62	1710.05
420.83	1658.85
421.04	1656.81
421.24	1687.53
421.45	1755.11
421.65	1722.34
421.86	1703.91
422.07	1759.21
422.27	1724.39
422.48	1679.33
422.69	1634.28
422.89	1742.82
423.10	1740.77
423.30	1665.00
423.51	1710.05
423.72	1656.81
423.92	1841.12
424.13	1636.33
424.33	1689.57
424.54	1769.44
424.75	1665.00
424.95	1808.36
425.16	1763.30
425.36	1695.72
425.57	1871.84
425.78	1730.53
425.98	1765.35
426.19	1697.77
426.39	1658.85
426.60	1820.64
426.81	1810.40
427.01	1728.49
427.22	1652.71
427.42	1566.70
427.63	1607.66
427.83	1765.35
428.04	1757.16
428.25	1726.44
428.45	1820.64
428.66	1767.40
428.86	1697.77
429.07	1683.43
429.28	1781.73
429.48	1765.35
429.69	1662.95
429.89	1693.67
430.10	1660.90
430.30	1683.43
430.51	1716.20
430.71	1648.61
430.92	1742.82
431.13	1671.14
431.33	1812.45
431.54	1712.10
431.74	1861.60
431.95	1859.56
432.15	1652.71
432.36	1699.81
432.56	1732.58
432.77	1751.01
432.98	1761.25
433.18	1685.48
433.39	1789.92
433.59	1693.67
433.80	1857.51
434.00	1861.60
434.21	1644.52
434.41	1685.48
434.62	1906.66
434.82	1646.57
435.03	1695.72
435.23	1761.25
435.44	1599.46
435.64	1701.86
435.85	1746.92
436.06	1830.88
436.26	1759.21
436.47	1826.79
436.67	1755.11
436.88	1716.20
437.08	1724.39
437.29	1771.49
437.49	1791.97
437.70	1806.31
437.90	1781.73
438.11	1845.22
438.31	1787.88
438.52	1908.71
438.72	1816.55
438.93	1865.70
439.13	1730.53
439.34	1834.98
439.54	1777.64
439.75	1822.69
439.95	1755.11
440.16	1826.79
440.36	1804.26
440.57	1787.88
440.77	1800.16
440.98	1740.77
441.18	1753.06
441.39	1683.43
441.59	1660.90
441.80	1873.89
442.00	1746.92
442.21	1759.21
442.41	1656.81
442.62	1763.30
442.82	1726.44
443.02	1773.54
443.23	1796.07
443.43	1611.75
443.64	1837.03
443.84	1650.66
444.05	1728.49
444.25	1701.86
444.46	1769.44
444.66	1730.53
444.87	1837.03
445.07	1609.70
445.28	1775.59
445.48	1753.06
445.69	1816.55
445.89	1869.80
446.09	1837.03
446.30	2004.96
446.50	2711.51
446.71	3663.82
446.91	4329.41
447.12	4714.42
447.32	4810.68
447.53	4392.89
447.73	3938.24
447.93	3590.09
448.14	3483.59
448.34	3239.89
448.55	3043.28
448.75	2889.68
448.96	2725.85
449.16	2394.08
449.36	2324.44
449.57	2150.37
449.77	1882.08
449.98	1818.60
450.18	1804.26
450.39	1894.37
450.59	1796.07
450.79	1746.92
451.00	1726.44
451.20	1708.01
451.41	1740.77
451.61	1789.92
451.81	1845.22
452.02	1726.44
452.22	1765.35
452.43	1726.44
452.63	1740.77
