SpectraSuite Data File
++++++++++++++++++++++++++++++++++++
Date: Mon Jun 06 17:10:17 CEST 2016
User: root
Dark Spectrum Present: No
Reference Spectrum Present: No
Number of Sampled Component Spectra: 1
Spectrometers: USB4C02835
Integration Time (usec): 100000 (USB4C02835)
Spectra Averaged: 1 (USB4C02835)
Boxcar Smoothing: 0 (USB4C02835)
Correct for Electrical Dark: No (USB4C02835)
Strobe/Lamp Enabled: No (USB4C02835)
Correct for Detector Non-linearity: No (USB4C02835)
Correct for Stray Light: No (USB4C02835)
Number of Pixels in Processed Spectrum: 3648
>>>>>Begin Processed Spectral Data<<<<<
177.47	1441.77
177.69	1441.77
177.91	1441.77
178.13	1484.78
178.36	1470.44
178.58	1621.99
178.80	1699.81
179.02	1681.38
179.24	1650.66
179.46	1671.14
179.68	1730.53
179.90	1632.23
180.13	1656.81
180.35	1777.64
180.57	1695.72
180.79	1763.30
181.01	1759.21
181.23	1693.67
181.45	1791.97
181.67	1673.19
181.90	1722.34
182.12	1732.58
182.34	1665.00
182.56	1726.44
182.78	1738.73
183.00	1699.81
183.22	1720.29
183.44	1693.67
183.66	1810.40
183.89	1841.12
184.11	1712.10
184.33	1662.95
184.55	1701.86
184.77	1683.43
184.99	1765.35
185.21	1640.42
185.43	1880.04
185.65	1652.71
185.87	1699.81
186.10	1837.03
186.32	1816.55
186.54	1765.35
186.76	1685.48
186.98	1771.49
187.20	1660.90
187.42	1669.09
187.64	1765.35
187.86	1687.53
188.08	1791.97
188.30	1701.86
188.52	1796.07
188.75	1734.63
188.97	1810.40
189.19	1624.04
189.41	1652.71
189.63	1753.06
189.85	1701.86
190.07	1556.46
190.29	1619.94
190.51	1748.97
190.73	1673.19
190.95	1804.26
191.17	1716.20
191.39	1662.95
191.61	1591.27
191.84	1732.58
192.06	1748.97
192.28	1564.65
192.50	1916.90
192.72	1773.54
192.94	1722.34
193.16	1787.88
193.38	1693.67
193.60	1671.14
193.82	1656.81
194.04	1759.21
194.26	1667.05
194.48	1800.16
194.70	1689.57
194.92	1626.09
195.14	1804.26
195.36	1697.77
195.58	1636.33
195.80	1755.11
196.02	1677.29
196.24	1761.25
196.46	1726.44
196.69	1697.77
196.91	1847.27
197.13	1757.16
197.35	1675.24
197.57	1779.68
197.79	1677.29
198.01	1662.95
198.23	1720.29
198.45	1806.31
198.67	1624.04
198.89	1650.66
199.11	1740.77
199.33	1714.15
199.55	1630.18
199.77	1732.58
199.99	1751.01
200.21	1667.05
200.43	1697.77
200.65	1626.09
200.87	1621.99
201.09	1728.49
201.31	1646.57
201.53	1746.92
201.75	1636.33
201.97	1818.60
202.19	1751.01
202.41	1800.16
202.63	1839.08
202.85	1658.85
203.07	1699.81
203.29	1740.77
203.51	1701.86
203.73	1597.42
203.95	1906.66
204.17	1751.01
204.39	1705.96
204.61	1689.57
204.83	1712.10
205.05	1771.49
205.27	1785.83
205.49	1775.59
205.71	1753.06
205.93	1652.71
206.15	1630.18
206.37	1714.15
206.59	1681.38
206.81	1650.66
207.03	1648.61
207.25	1574.89
207.47	1720.29
207.69	1759.21
207.91	1746.92
208.13	1824.74
208.34	1640.42
208.56	1675.24
208.78	1806.31
209.00	1650.66
209.22	1705.96
209.44	1800.16
209.66	1744.87
209.88	1671.14
210.10	1665.00
210.32	1681.38
210.54	1828.84
210.76	1705.96
210.98	1687.53
211.20	1605.61
211.42	1755.11
211.64	1718.25
211.86	1738.73
212.08	1798.12
212.30	1718.25
212.52	1722.34
212.74	1798.12
212.96	1730.53
213.17	1681.38
213.39	1761.25
213.61	1798.12
213.83	1839.08
214.05	1615.85
214.27	1832.93
214.49	1738.73
214.71	1671.14
214.93	1798.12
215.15	1730.53
215.37	1812.45
215.59	1669.09
215.81	1763.30
216.03	1738.73
216.24	1699.81
216.46	1722.34
216.68	1767.40
216.90	1767.40
217.12	1828.84
217.34	1701.86
217.56	1812.45
217.78	1728.49
218.00	1701.86
218.22	1683.43
218.44	1767.40
218.66	1710.05
218.87	1779.68
219.09	1714.15
219.31	1763.30
219.53	1660.90
219.75	1714.15
219.97	1660.90
220.19	1691.62
220.41	1697.77
220.63	1828.84
220.85	1787.88
221.06	1691.62
221.28	1789.92
221.50	1738.73
221.72	1734.63
221.94	1658.85
222.16	1746.92
222.38	1761.25
222.60	1769.44
222.82	1771.49
223.03	1812.45
223.25	1646.57
223.47	1728.49
223.69	1824.74
223.91	1742.82
224.13	1732.58
224.35	1595.37
224.57	1779.68
224.78	1843.17
225.00	1611.75
225.22	1714.15
225.44	1683.43
225.66	1761.25
225.88	1720.29
226.10	1753.06
226.32	1738.73
226.53	1826.79
226.75	1716.20
226.97	1638.38
227.19	1724.39
227.41	1742.82
227.63	1685.48
227.85	1699.81
228.06	1769.44
228.28	1708.01
228.50	1732.58
228.72	1624.04
228.94	1714.15
229.16	1603.56
229.37	1640.42
229.59	1763.30
229.81	1744.87
230.03	1714.15
230.25	1574.89
230.47	1632.23
230.69	1656.81
230.90	1710.05
231.12	1714.15
231.34	1730.53
231.56	1781.73
231.78	1640.42
232.00	1708.01
232.21	1685.48
232.43	1736.68
232.65	1705.96
232.87	1722.34
233.09	1636.33
233.30	1738.73
233.52	1826.79
233.74	1697.77
233.96	1775.59
234.18	1730.53
234.40	1730.53
234.61	1837.03
234.83	1675.24
235.05	1703.91
235.27	1847.27
235.49	1714.15
235.70	1660.90
235.92	1755.11
236.14	1734.63
236.36	1830.88
236.58	1638.38
236.79	1761.25
237.01	1759.21
237.23	1787.88
237.45	1767.40
237.67	1701.86
237.88	1736.68
238.10	1773.54
238.32	1624.04
238.54	1703.91
238.76	1740.77
238.97	1636.33
239.19	1652.71
239.41	1740.77
239.63	1763.30
239.85	1689.57
240.06	1679.33
240.28	1603.56
240.50	1757.16
240.72	1681.38
240.93	1654.76
241.15	1759.21
241.37	1687.53
241.59	1777.64
241.81	1759.21
242.02	1722.34
242.24	1765.35
242.46	1755.11
242.68	1656.81
242.89	1732.58
243.11	1806.31
243.33	1673.19
243.55	1753.06
243.76	1767.40
243.98	1652.71
244.20	1638.38
244.42	1691.62
244.64	1671.14
244.85	1648.61
245.07	1705.96
245.29	1841.12
245.51	1734.63
245.72	1644.52
245.94	1742.82
246.16	1644.52
246.38	1765.35
246.59	1763.30
246.81	1648.61
247.03	1675.24
247.24	1597.42
247.46	1632.23
247.68	1746.92
247.90	1738.73
248.11	1714.15
248.33	1806.31
248.55	1679.33
248.77	1687.53
248.98	1695.72
249.20	1822.69
249.42	1736.68
249.64	1759.21
249.85	1632.23
250.07	1681.38
250.29	1732.58
250.50	1738.73
250.72	1652.71
250.94	1773.54
251.16	1873.89
251.37	1777.64
251.59	1738.73
251.81	1748.97
252.02	1771.49
252.24	1691.62
252.46	1720.29
252.68	1634.28
252.89	1662.95
253.11	1673.19
253.33	1849.32
253.54	1769.44
253.76	1691.62
253.98	1626.09
254.20	1687.53
254.41	1689.57
254.63	1691.62
254.85	1691.62
255.06	1781.73
255.28	1767.40
255.50	1689.57
255.71	1673.19
255.93	1638.38
256.15	1683.43
256.36	1771.49
256.58	1636.33
256.80	1712.10
257.02	1740.77
257.23	1744.87
257.45	1710.05
257.67	1812.45
257.88	1650.66
258.10	1816.55
258.32	1660.90
258.53	1736.68
258.75	1791.97
258.97	1693.67
259.18	1777.64
259.40	1699.81
259.62	1820.64
259.83	1798.12
260.05	1761.25
260.27	1968.10
260.48	1857.51
260.70	1669.09
260.92	1720.29
261.13	1718.25
261.35	1685.48
261.57	1734.63
261.78	1640.42
262.00	1710.05
262.22	1720.29
262.43	1755.11
262.65	1757.16
262.86	1687.53
263.08	1804.26
263.30	1716.20
263.51	1632.23
263.73	1728.49
263.95	1851.36
264.16	1632.23
264.38	1671.14
264.60	1716.20
264.81	1646.57
265.03	1724.39
265.25	1716.20
265.46	1667.05
265.68	1812.45
265.89	1679.33
266.11	1652.71
266.33	1759.21
266.54	1794.02
266.76	1708.01
266.98	1822.69
267.19	1783.78
267.41	1742.82
267.62	1738.73
267.84	1624.04
268.06	1740.77
268.27	1708.01
268.49	1730.53
268.70	1794.02
268.92	1695.72
269.14	1740.77
269.35	1652.71
269.57	1734.63
269.79	1779.68
270.00	1673.19
270.22	1787.88
270.43	1652.71
270.65	1652.71
270.87	1734.63
271.08	1751.01
271.30	1763.30
271.51	1771.49
271.73	1714.15
271.95	1830.88
272.16	1679.33
272.38	1738.73
272.59	1710.05
272.81	1656.81
273.02	1728.49
273.24	1660.90
273.46	1734.63
273.67	1714.15
273.89	1685.48
274.10	1734.63
274.32	1746.92
274.54	1609.70
274.75	1734.63
274.97	1734.63
275.18	1800.16
275.40	1794.02
275.61	1775.59
275.83	1677.29
276.05	1695.72
276.26	1779.68
276.48	1724.39
276.69	1669.09
276.91	1705.96
277.12	1767.40
277.34	1789.92
277.55	1701.86
277.77	1718.25
277.99	1720.29
278.20	1636.33
278.42	1699.81
278.63	1669.09
278.85	1701.86
279.06	1671.14
279.28	1755.11
279.49	1753.06
279.71	1783.78
279.93	1753.06
280.14	1665.00
280.36	1675.24
280.57	1767.40
280.79	1769.44
281.00	1667.05
281.22	1683.43
281.43	1718.25
281.65	1595.37
281.86	1658.85
282.08	1789.92
282.29	1818.60
282.51	1681.38
282.73	1669.09
282.94	1628.14
283.16	1718.25
283.37	1843.17
283.59	1710.05
283.80	1685.48
284.02	1755.11
284.23	1734.63
284.45	1603.56
284.66	1630.18
284.88	1681.38
285.09	1710.05
285.31	1740.77
285.52	1710.05
285.74	1615.85
285.95	1804.26
286.17	1689.57
286.38	1773.54
286.60	1689.57
286.81	1617.90
287.03	1679.33
287.24	1705.96
287.46	1732.58
287.67	1763.30
287.89	1804.26
288.10	1710.05
288.32	1718.25
288.53	1789.92
288.75	1693.67
288.96	1771.49
289.18	1609.70
289.39	1705.96
289.61	1773.54
289.82	1798.12
290.04	1841.12
290.25	1617.90
290.47	1660.90
290.68	1738.73
290.90	1708.01
291.11	1634.28
291.33	1759.21
291.54	1648.61
291.76	1654.76
291.97	1710.05
292.18	1701.86
292.40	1662.95
292.61	1685.48
292.83	1867.75
293.04	1800.16
293.26	1714.15
293.47	1691.62
293.69	1689.57
293.90	1712.10
294.12	1730.53
294.33	1732.58
294.55	1671.14
294.76	1769.44
294.97	1798.12
295.19	1810.40
295.40	1697.77
295.62	1732.58
295.83	1644.52
296.05	1648.61
296.26	1757.16
296.48	1679.33
296.69	1621.99
296.90	1740.77
297.12	1746.92
297.33	1751.01
297.55	1761.25
297.76	1773.54
297.98	1738.73
298.19	1701.86
298.41	1740.77
298.62	1716.20
298.83	1765.35
299.05	1757.16
299.26	1632.23
299.48	1656.81
299.69	1701.86
299.90	1697.77
300.12	1632.23
300.33	1763.30
300.55	1660.90
300.76	1710.05
300.98	1681.38
301.19	1667.05
301.40	1607.66
301.62	1667.05
301.83	1744.87
302.05	1796.07
302.26	1650.66
302.47	1732.58
302.69	1683.43
302.90	1759.21
303.12	1576.94
303.33	1771.49
303.54	1808.36
303.76	1617.90
303.97	1767.40
304.19	1789.92
304.40	1732.58
304.61	1705.96
304.83	1853.41
305.04	1689.57
305.26	1746.92
305.47	1650.66
305.68	1730.53
305.90	1685.48
306.11	1767.40
306.33	1634.28
306.54	1714.15
306.75	1628.14
306.97	1726.44
307.18	1642.47
307.39	1763.30
307.61	1789.92
307.82	1708.01
308.04	1796.07
308.25	1619.94
308.46	1757.16
308.68	1683.43
308.89	1683.43
309.10	1755.11
309.32	1685.48
309.53	1703.91
309.74	1765.35
309.96	1726.44
310.17	1708.01
310.39	1652.71
310.60	1712.10
310.81	1716.20
311.03	1722.34
311.24	1761.25
311.45	1693.67
311.67	1892.32
311.88	1665.00
312.09	1742.82
312.31	1728.49
312.52	1673.19
312.73	1685.48
312.95	1656.81
313.16	1615.85
313.37	1820.64
313.59	1724.39
313.80	1804.26
314.01	1832.93
314.23	1691.62
314.44	1681.38
314.65	1644.52
314.87	1630.18
315.08	1722.34
315.29	1689.57
315.51	1662.95
315.72	1607.66
315.93	1830.88
316.15	1761.25
316.36	1681.38
316.57	1718.25
316.79	1722.34
317.00	1726.44
317.21	1755.11
317.43	1681.38
317.64	1685.48
317.85	1691.62
318.07	1683.43
318.28	1681.38
318.49	1837.03
318.70	1867.75
318.92	1832.93
319.13	1832.93
319.34	1914.85
319.56	1791.97
319.77	1839.08
319.98	1783.78
320.20	1800.16
320.41	1732.58
320.62	1802.21
320.83	1681.38
321.05	1892.32
321.26	1751.01
321.47	1779.68
321.69	1755.11
321.90	1621.99
322.11	1697.77
322.32	1722.34
322.54	1920.99
322.75	1705.96
322.96	1791.97
323.18	1619.94
323.39	1578.98
323.60	1675.24
323.81	1701.86
324.03	1632.23
324.24	1734.63
324.45	1763.30
324.66	1755.11
324.88	1744.87
325.09	1812.45
325.30	1769.44
325.52	1691.62
325.73	1697.77
325.94	1642.47
326.15	1621.99
326.37	1632.23
326.58	1808.36
326.79	1867.75
327.00	1646.57
327.22	1697.77
327.43	1673.19
327.64	1603.56
327.85	1705.96
328.07	1820.64
328.28	1869.80
328.49	1755.11
328.70	1720.29
328.92	1751.01
329.13	1701.86
329.34	1730.53
329.55	1834.98
329.76	1705.96
329.98	1767.40
330.19	1791.97
330.40	1798.12
330.61	1712.10
330.83	1667.05
331.04	1591.27
331.25	1697.77
331.46	1656.81
331.68	1660.90
331.89	1740.77
332.10	1714.15
332.31	1673.19
332.52	1687.53
332.74	1744.87
332.95	1677.29
333.16	1681.38
333.37	1695.72
333.58	1697.77
333.80	1734.63
334.01	1587.18
334.22	1662.95
334.43	1718.25
334.64	1650.66
334.86	1665.00
335.07	1607.66
335.28	1806.31
335.49	1691.62
335.70	1832.93
335.92	1728.49
336.13	1810.40
336.34	1701.86
336.55	1691.62
336.76	1681.38
336.98	1550.31
337.19	1714.15
337.40	1830.88
337.61	1863.65
337.82	1681.38
338.04	1755.11
338.25	1642.47
338.46	1708.01
338.67	1757.16
338.88	1646.57
339.09	1671.14
339.31	1705.96
339.52	1626.09
339.73	1638.38
339.94	1732.58
340.15	1691.62
340.36	1662.95
340.58	1683.43
340.79	1794.02
341.00	1751.01
341.21	1603.56
341.42	1832.93
341.63	1751.01
341.85	1710.05
342.06	1705.96
342.27	1652.71
342.48	1695.72
342.69	1621.99
342.90	1687.53
343.12	1849.32
343.33	1728.49
343.54	1777.64
343.75	1753.06
343.96	1722.34
344.17	1648.61
344.38	1601.51
344.60	1791.97
344.81	1628.14
345.02	1662.95
345.23	1740.77
345.44	1867.75
345.65	1810.40
345.86	1742.82
346.07	1644.52
346.29	1621.99
346.50	1804.26
346.71	1751.01
346.92	1742.82
347.13	1841.12
347.34	1757.16
347.55	1738.73
347.76	1718.25
347.98	1613.80
348.19	1710.05
348.40	1789.92
348.61	1701.86
348.82	1814.50
349.03	1779.68
349.24	1642.47
349.45	1755.11
349.66	1587.18
349.88	1636.33
350.09	1710.05
350.30	1789.92
350.51	1794.02
350.72	1712.10
350.93	1810.40
351.14	1724.39
351.35	1738.73
351.56	1728.49
351.77	1658.85
351.99	1773.54
352.20	1849.32
352.41	1785.83
352.62	1607.66
352.83	1738.73
353.04	1710.05
353.25	1699.81
353.46	1800.16
353.67	1714.15
353.88	1648.61
354.09	1761.25
354.30	1626.09
354.52	1777.64
354.73	1705.96
354.94	1685.48
355.15	1705.96
355.36	1834.98
355.57	1691.62
355.78	1734.63
355.99	1585.13
356.20	1703.91
356.41	1812.45
356.62	1798.12
356.83	1660.90
357.04	1812.45
357.25	1593.32
357.46	1732.58
357.68	1644.52
357.89	1671.14
358.10	1763.30
358.31	1718.25
358.52	1660.90
358.73	1617.90
358.94	1617.90
359.15	1722.34
359.36	1744.87
359.57	1734.63
359.78	1730.53
359.99	1746.92
360.20	1638.38
360.41	1683.43
360.62	1685.48
360.83	1615.85
361.04	1744.87
361.25	1763.30
361.46	1808.36
361.67	1720.29
361.88	1716.20
362.09	1734.63
362.30	1697.77
362.51	1673.19
362.72	1771.49
362.93	1791.97
363.14	1787.88
363.35	1789.92
363.56	1683.43
363.78	1759.21
363.99	1697.77
364.20	1675.24
364.41	1740.77
364.62	1769.44
364.83	1767.40
365.04	1714.15
365.25	1763.30
365.46	1787.88
365.67	1705.96
365.88	1609.70
366.09	1728.49
366.30	1665.00
366.51	1708.01
366.72	1697.77
366.93	1718.25
367.14	1689.57
367.35	1789.92
367.56	1730.53
367.77	1808.36
367.98	1697.77
368.18	1810.40
368.39	1681.38
368.60	1712.10
368.81	1802.21
369.02	1751.01
369.23	1728.49
369.44	1675.24
369.65	1761.25
369.86	1783.78
370.07	1710.05
370.28	1652.71
370.49	1720.29
370.70	1765.35
370.91	1621.99
371.12	1650.66
371.33	1714.15
371.54	1671.14
371.75	1796.07
371.96	1581.03
372.17	1714.15
372.38	1716.20
372.59	1806.31
372.80	1701.86
373.01	1701.86
373.22	1716.20
373.43	1753.06
373.64	1675.24
373.85	1814.50
374.06	1808.36
374.26	1781.73
374.47	1767.40
374.68	1800.16
374.89	1794.02
375.10	1783.78
375.31	1677.29
375.52	1703.91
375.73	1708.01
375.94	1679.33
376.15	1783.78
376.36	1718.25
376.57	1656.81
376.78	1732.58
376.99	1708.01
377.20	1808.36
377.40	1736.68
377.61	1828.84
377.82	1605.61
378.03	1726.44
378.24	1718.25
378.45	1656.81
378.66	1802.21
378.87	1669.09
379.08	1619.94
379.29	1669.09
379.50	1863.65
379.71	1656.81
379.91	1687.53
380.12	1683.43
380.33	1701.86
380.54	1685.48
380.75	1697.77
380.96	1669.09
381.17	1734.63
381.38	1687.53
381.59	1689.57
381.80	1787.88
382.00	1765.35
382.21	1775.59
382.42	1857.51
382.63	1853.41
382.84	1748.97
383.05	1763.30
383.26	1789.92
383.47	1691.62
383.68	1755.11
383.88	1771.49
384.09	1718.25
384.30	1841.12
384.51	1769.44
384.72	1740.77
384.93	1599.46
385.14	1736.68
385.35	1826.79
385.55	1581.03
385.76	1748.97
385.97	1714.15
386.18	1644.52
386.39	1703.91
386.60	1675.24
386.81	1673.19
387.02	1701.86
387.22	1648.61
387.43	1779.68
387.64	1753.06
387.85	1888.23
388.06	2179.04
388.27	4155.33
388.48	6666.14
388.68	8193.92
388.89	9541.49
389.10	9703.28
389.31	8472.45
389.52	7548.81
389.73	6668.19
389.93	6172.58
390.14	5953.45
390.35	5214.13
390.56	4499.39
390.77	3794.89
390.98	3024.85
391.18	2588.63
391.39	2185.18
391.60	1802.21
391.81	1871.84
392.02	1777.64
392.23	1839.08
392.43	1763.30
392.64	1802.21
392.85	1726.44
393.06	1800.16
393.27	1718.25
393.47	1675.24
393.68	1728.49
393.89	1660.90
394.10	1804.26
394.31	1673.19
394.52	1714.15
394.72	1683.43
394.93	1834.98
395.14	1734.63
395.35	1615.85
395.56	1724.39
395.76	1787.88
395.97	1800.16
396.18	1800.16
396.39	1865.70
396.60	1947.62
396.80	1898.47
397.01	1910.75
397.22	1845.22
397.43	1826.79
397.64	1753.06
397.84	1812.45
398.05	1890.28
398.26	1812.45
398.47	1837.03
398.67	1869.80
398.88	1759.21
399.09	1740.77
399.30	1773.54
399.51	1734.63
399.71	1689.57
399.92	1681.38
400.13	1712.10
400.34	1738.73
400.54	1683.43
400.75	1738.73
400.96	1703.91
401.17	1789.92
401.37	1708.01
401.58	1816.55
401.79	1691.62
402.00	1861.60
402.21	2045.92
402.41	1998.82
402.62	1947.62
402.83	2099.17
403.04	1955.81
403.24	2166.75
403.45	1765.35
403.66	1896.42
403.87	1855.46
404.07	1935.33
404.28	1929.19
404.49	1937.38
404.70	1742.82
404.90	1787.88
405.11	1818.60
405.32	1818.60
405.52	1650.66
405.73	1634.28
405.94	1705.96
406.15	1695.72
406.35	1644.52
406.56	1753.06
406.77	1742.82
406.98	1734.63
407.18	1687.53
407.39	1828.84
407.60	1658.85
407.80	1763.30
408.01	1693.67
408.22	1726.44
408.43	1724.39
408.63	1814.50
408.84	1718.25
409.05	1732.58
409.25	1667.05
409.46	1699.81
409.67	1685.48
409.88	1652.71
410.08	1765.35
410.29	1656.81
410.50	1783.78
410.70	1763.30
410.91	1656.81
411.12	1781.73
411.32	1726.44
411.53	1697.77
411.74	1736.68
411.95	1785.83
412.15	1779.68
412.36	1755.11
412.57	1767.40
412.77	1783.78
412.98	1691.62
413.19	1665.00
413.39	1775.59
413.60	1763.30
413.81	1820.64
414.01	1708.01
414.22	1804.26
414.43	1699.81
414.63	1716.20
414.84	1814.50
415.05	1673.19
415.25	1646.57
415.46	1742.82
415.67	1593.32
415.87	1708.01
416.08	1738.73
416.29	1658.85
416.49	1804.26
416.70	1681.38
416.91	1646.57
417.11	1640.42
417.32	1763.30
417.53	1738.73
417.73	1689.57
417.94	1667.05
418.15	1759.21
418.35	1783.78
418.56	1748.97
418.77	1902.56
418.97	1681.38
419.18	1730.53
419.38	1574.89
419.59	1681.38
419.80	1787.88
420.00	1673.19
420.21	1740.77
420.42	1798.12
420.62	1759.21
420.83	1767.40
421.04	1624.04
421.24	1746.92
421.45	1820.64
421.65	1744.87
421.86	1675.24
422.07	1796.07
422.27	1746.92
422.48	1662.95
422.69	1705.96
422.89	1757.16
423.10	1712.10
423.30	1671.14
423.51	1697.77
423.72	1714.15
423.92	1761.25
424.13	1667.05
424.33	1695.72
424.54	1746.92
424.75	1773.54
424.95	1867.75
425.16	1738.73
425.36	1714.15
425.57	1748.97
425.78	1783.78
425.98	1736.68
426.19	1654.76
426.39	1718.25
426.60	1722.34
426.81	1781.73
427.01	1660.90
427.22	1677.29
427.42	1671.14
427.63	1685.48
427.83	1742.82
428.04	1867.75
428.25	1794.02
428.45	1804.26
428.66	1775.59
428.86	1728.49
429.07	1677.29
429.28	1732.58
429.48	1759.21
429.69	1767.40
429.89	1689.57
430.10	1667.05
430.30	1767.40
430.51	1728.49
430.71	1675.24
430.92	1701.86
431.13	1687.53
431.33	1849.32
431.54	1751.01
431.74	1873.89
431.95	1886.18
432.15	1630.18
432.36	1669.09
432.56	1761.25
432.77	1757.16
432.98	1798.12
433.18	1771.49
433.39	1648.61
433.59	1679.33
433.80	1798.12
434.00	1863.65
434.21	1669.09
434.41	1718.25
434.62	1886.18
434.82	1714.15
435.03	1658.85
435.23	1726.44
435.44	1652.71
435.64	1755.11
435.85	1697.77
436.06	1783.78
436.26	1687.53
436.47	1636.33
436.67	1689.57
436.88	1673.19
437.08	1783.78
437.29	1828.84
437.49	1724.39
437.70	1806.31
437.90	1652.71
438.11	1822.69
438.31	1785.83
438.52	1908.71
438.72	1861.60
438.93	1871.84
439.13	1820.64
439.34	1845.22
439.54	1783.78
439.75	1738.73
439.95	1816.55
440.16	1665.00
440.36	1808.36
440.57	1701.86
440.77	1757.16
440.98	1767.40
441.18	1687.53
441.39	1734.63
441.59	1632.23
441.80	1890.28
442.00	1787.88
442.21	1843.17
442.41	1560.55
442.62	1703.91
442.82	1769.44
443.02	1751.01
443.23	1785.83
443.43	1757.16
443.64	1761.25
443.84	1689.57
444.05	1837.03
444.25	1787.88
444.46	1744.87
444.66	1742.82
444.87	1769.44
445.07	1636.33
445.28	1648.61
445.48	1832.93
445.69	1791.97
445.89	1855.46
446.09	1771.49
446.30	2035.68
446.50	2635.74
446.71	3760.07
446.91	4378.56
447.12	4759.48
447.32	4728.76
447.53	4388.80
447.73	3772.36
447.93	3573.71
448.14	3286.99
448.34	3117.01
448.55	2811.86
448.75	2803.67
448.96	2715.61
449.16	2445.27
449.36	2256.86
449.57	2121.70
449.77	1894.37
449.98	1810.40
450.18	1771.49
450.39	1808.36
450.59	1812.45
450.79	1761.25
451.00	1740.77
451.20	1724.39
451.41	1658.85
451.61	1742.82
451.81	1808.36
452.02	1689.57
452.22	1734.63
452.43	1734.63
452.63	1740.77
