SpectraSuite Data File
++++++++++++++++++++++++++++++++++++
Date: Mon Jun 06 17:35:57 CEST 2016
User: root
Dark Spectrum Present: No
Reference Spectrum Present: No
Number of Sampled Component Spectra: 1
Spectrometers: USB4C02835
Integration Time (usec): 100000 (USB4C02835)
Spectra Averaged: 1 (USB4C02835)
Boxcar Smoothing: 0 (USB4C02835)
Correct for Electrical Dark: No (USB4C02835)
Strobe/Lamp Enabled: No (USB4C02835)
Correct for Detector Non-linearity: No (USB4C02835)
Correct for Stray Light: No (USB4C02835)
Number of Pixels in Processed Spectrum: 3648
>>>>>Begin Processed Spectral Data<<<<<
177.47	1484.78
177.69	1484.78
177.91	1484.78
178.13	1492.97
178.36	1513.45
178.58	1722.34
178.80	1779.68
179.02	1593.32
179.24	1634.28
179.46	1730.53
179.68	1746.92
179.90	1732.58
180.13	1710.05
180.35	1638.38
180.57	1746.92
180.79	1724.39
181.01	1718.25
181.23	1759.21
181.45	1880.04
181.67	1783.78
181.90	1853.41
182.12	1693.67
182.34	1644.52
182.56	1746.92
182.78	1644.52
183.00	1705.96
183.22	1738.73
183.44	1673.19
183.66	1847.27
183.89	1746.92
184.11	1740.77
184.33	1751.01
184.55	1804.26
184.77	1771.49
184.99	1773.54
185.21	1720.29
185.43	1746.92
185.65	1677.29
185.87	1689.57
186.10	1798.12
186.32	1814.50
186.54	1675.24
186.76	1763.30
186.98	1730.53
187.20	1722.34
187.42	1640.42
187.64	1722.34
187.86	1761.25
188.08	1699.81
188.30	1722.34
188.52	1748.97
188.75	1742.82
188.97	1791.97
189.19	1679.33
189.41	1687.53
189.63	1767.40
189.85	1724.39
190.07	1609.70
190.29	1660.90
190.51	1806.31
190.73	1650.66
190.95	1834.98
191.17	1720.29
191.39	1626.09
191.61	1644.52
191.84	1683.43
192.06	1791.97
192.28	1613.80
192.50	1820.64
192.72	1734.63
192.94	1658.85
193.16	1810.40
193.38	1697.77
193.60	1726.44
193.82	1714.15
194.04	1804.26
194.26	1755.11
194.48	1712.10
194.70	1652.71
194.92	1611.75
195.14	1791.97
195.36	1718.25
195.58	1708.01
195.80	1726.44
196.02	1718.25
196.24	1763.30
196.46	1730.53
196.69	1705.96
196.91	1837.03
197.13	1716.20
197.35	1693.67
197.57	1798.12
197.79	1724.39
198.01	1673.19
198.23	1775.59
198.45	1757.16
198.67	1652.71
198.89	1734.63
199.11	1783.78
199.33	1634.28
199.55	1560.55
199.77	1669.09
199.99	1769.44
200.21	1697.77
200.43	1742.82
200.65	1624.04
200.87	1585.13
201.09	1763.30
201.31	1767.40
201.53	1751.01
201.75	1652.71
201.97	1755.11
202.19	1730.53
202.41	1708.01
202.63	1818.60
202.85	1673.19
203.07	1705.96
203.29	1726.44
203.51	1615.85
203.73	1699.81
203.95	1832.93
204.17	1759.21
204.39	1769.44
204.61	1691.62
204.83	1695.72
205.05	1857.51
205.27	1753.06
205.49	1828.84
205.71	1748.97
205.93	1634.28
206.15	1656.81
206.37	1742.82
206.59	1742.82
206.81	1611.75
207.03	1673.19
207.25	1654.76
207.47	1724.39
207.69	1771.49
207.91	1691.62
208.13	1734.63
208.34	1626.09
208.56	1652.71
208.78	1779.68
209.00	1669.09
209.22	1736.68
209.44	1767.40
209.66	1744.87
209.88	1718.25
210.10	1683.43
210.32	1744.87
210.54	1779.68
210.76	1640.42
210.98	1814.50
211.20	1599.46
211.42	1742.82
211.64	1744.87
211.86	1697.77
212.08	1767.40
212.30	1681.38
212.52	1693.67
212.74	1730.53
212.96	1689.57
213.17	1734.63
213.39	1648.61
213.61	1769.44
213.83	1767.40
214.05	1660.90
214.27	1705.96
214.49	1640.42
214.71	1681.38
214.93	1755.11
215.15	1675.24
215.37	1718.25
215.59	1708.01
215.81	1746.92
216.03	1816.55
216.24	1769.44
216.46	1753.06
216.68	1742.82
216.90	1777.64
217.12	1822.69
217.34	1798.12
217.56	1708.01
217.78	1806.31
218.00	1728.49
218.22	1734.63
218.44	1783.78
218.66	1689.57
218.87	1845.22
219.09	1769.44
219.31	1632.23
219.53	1708.01
219.75	1691.62
219.97	1720.29
220.19	1734.63
220.41	1748.97
220.63	1765.35
220.85	1753.06
221.06	1691.62
221.28	1816.55
221.50	1748.97
221.72	1718.25
221.94	1671.14
222.16	1656.81
222.38	1753.06
222.60	1796.07
222.82	1660.90
223.03	1748.97
223.25	1640.42
223.47	1646.57
223.69	1781.73
223.91	1773.54
224.13	1716.20
224.35	1787.88
224.57	1810.40
224.78	1703.91
225.00	1644.52
225.22	1693.67
225.44	1736.68
225.66	1722.34
225.88	1701.86
226.10	1744.87
226.32	1779.68
226.53	1796.07
226.75	1681.38
226.97	1710.05
227.19	1708.01
227.41	1728.49
227.63	1699.81
227.85	1699.81
228.06	1746.92
228.28	1746.92
228.50	1775.59
228.72	1603.56
228.94	1632.23
229.16	1624.04
229.37	1634.28
229.59	1662.95
229.81	1802.21
230.03	1699.81
230.25	1654.76
230.47	1630.18
230.69	1564.65
230.90	1804.26
231.12	1683.43
231.34	1783.78
231.56	1744.87
231.78	1714.15
232.00	1712.10
232.21	1755.11
232.43	1638.38
232.65	1658.85
232.87	1708.01
233.09	1687.53
233.30	1671.14
233.52	1748.97
233.74	1640.42
233.96	1701.86
234.18	1767.40
234.40	1665.00
234.61	1830.88
234.83	1626.09
235.05	1566.70
235.27	1800.16
235.49	1837.03
235.70	1712.10
235.92	1773.54
236.14	1781.73
236.36	1839.08
236.58	1613.80
236.79	1773.54
237.01	1730.53
237.23	1714.15
237.45	1828.84
237.67	1640.42
237.88	1681.38
238.10	1865.70
238.32	1634.28
238.54	1740.77
238.76	1689.57
238.97	1701.86
239.19	1609.70
239.41	1765.35
239.63	1740.77
239.85	1669.09
240.06	1667.05
240.28	1712.10
240.50	1734.63
240.72	1769.44
240.93	1689.57
241.15	1761.25
241.37	1726.44
241.59	1714.15
241.81	1705.96
242.02	1669.09
242.24	1689.57
242.46	1789.92
242.68	1658.85
242.89	1773.54
243.11	1820.64
243.33	1765.35
243.55	1722.34
243.76	1751.01
243.98	1613.80
244.20	1753.06
244.42	1724.39
244.64	1742.82
244.85	1679.33
245.07	1675.24
245.29	1783.78
245.51	1712.10
245.72	1679.33
245.94	1712.10
246.16	1763.30
246.38	1736.68
246.59	1652.71
246.81	1703.91
247.03	1777.64
247.24	1632.23
247.46	1693.67
247.68	1732.58
247.90	1673.19
248.11	1695.72
248.33	1751.01
248.55	1736.68
248.77	1763.30
248.98	1738.73
249.20	1837.03
249.42	1732.58
249.64	1771.49
249.85	1722.34
250.07	1650.66
250.29	1757.16
250.50	1767.40
250.72	1607.66
250.94	1808.36
251.16	1826.79
251.37	1800.16
251.59	1730.53
251.81	1679.33
252.02	1767.40
252.24	1671.14
252.46	1789.92
252.68	1667.05
252.89	1667.05
253.11	1619.94
253.33	1849.32
253.54	1763.30
253.76	1677.29
253.98	1628.14
254.20	1683.43
254.41	1595.37
254.63	1765.35
254.85	1632.23
255.06	1699.81
255.28	1769.44
255.50	1617.90
255.71	1683.43
255.93	1638.38
256.15	1773.54
256.36	1716.20
256.58	1665.00
256.80	1771.49
257.02	1689.57
257.23	1703.91
257.45	1773.54
257.67	1740.77
257.88	1677.29
258.10	1742.82
258.32	1652.71
258.53	1714.15
258.75	1810.40
258.97	1669.09
259.18	1718.25
259.40	1716.20
259.62	1777.64
259.83	1779.68
260.05	1783.78
260.27	2000.87
260.48	1886.18
260.70	1619.94
260.92	1714.15
261.13	1710.05
261.35	1794.02
261.57	1742.82
261.78	1607.66
262.00	1669.09
262.22	1732.58
262.43	1665.00
262.65	1734.63
262.86	1726.44
263.08	1859.56
263.30	1718.25
263.51	1607.66
263.73	1648.61
263.95	1763.30
264.16	1660.90
264.38	1611.75
264.60	1761.25
264.81	1697.77
265.03	1802.21
265.25	1806.31
265.46	1769.44
265.68	1785.83
265.89	1720.29
266.11	1693.67
266.33	1730.53
266.54	1765.35
266.76	1800.16
266.98	1761.25
267.19	1796.07
267.41	1732.58
267.62	1681.38
267.84	1591.27
268.06	1791.97
268.27	1630.18
268.49	1765.35
268.70	1783.78
268.92	1738.73
269.14	1656.81
269.35	1578.98
269.57	1673.19
269.79	1746.92
270.00	1691.62
270.22	1820.64
270.43	1658.85
270.65	1593.32
270.87	1773.54
271.08	1744.87
271.30	1705.96
271.51	1720.29
271.73	1693.67
271.95	1798.12
272.16	1730.53
272.38	1789.92
272.59	1689.57
272.81	1736.68
273.02	1728.49
273.24	1724.39
273.46	1779.68
273.67	1617.90
273.89	1708.01
274.10	1708.01
274.32	1816.55
274.54	1779.68
274.75	1730.53
274.97	1689.57
275.18	1783.78
275.40	1689.57
275.61	1703.91
275.83	1708.01
276.05	1642.47
276.26	1689.57
276.48	1685.48
276.69	1691.62
276.91	1708.01
277.12	1705.96
277.34	1814.50
277.55	1767.40
277.77	1724.39
277.99	1718.25
278.20	1648.61
278.42	1660.90
278.63	1658.85
278.85	1646.57
279.06	1656.81
279.28	1746.92
279.49	1734.63
279.71	1712.10
279.93	1742.82
280.14	1763.30
280.36	1660.90
280.57	1763.30
280.79	1748.97
281.00	1667.05
281.22	1601.51
281.43	1787.88
281.65	1544.17
281.86	1656.81
282.08	1714.15
282.29	1818.60
282.51	1589.22
282.73	1691.62
282.94	1597.42
283.16	1732.58
283.37	1800.16
283.59	1716.20
283.80	1712.10
284.02	1730.53
284.23	1744.87
284.45	1677.29
284.66	1638.38
284.88	1730.53
285.09	1757.16
285.31	1800.16
285.52	1763.30
285.74	1544.17
285.95	1849.32
286.17	1714.15
286.38	1716.20
286.60	1640.42
286.81	1685.48
287.03	1730.53
287.24	1695.72
287.46	1767.40
287.67	1732.58
287.89	1837.03
288.10	1716.20
288.32	1767.40
288.53	1777.64
288.75	1796.07
288.96	1744.87
289.18	1667.05
289.39	1660.90
289.61	1787.88
289.82	1820.64
290.04	1830.88
290.25	1640.42
290.47	1742.82
290.68	1695.72
290.90	1806.31
291.11	1648.61
291.33	1757.16
291.54	1677.29
291.76	1738.73
291.97	1669.09
292.18	1763.30
292.40	1679.33
292.61	1726.44
292.83	1812.45
293.04	1777.64
293.26	1728.49
293.47	1634.28
293.69	1701.86
293.90	1701.86
294.12	1769.44
294.33	1708.01
294.55	1679.33
294.76	1773.54
294.97	1804.26
295.19	1841.12
295.40	1617.90
295.62	1781.73
295.83	1759.21
296.05	1662.95
296.26	1794.02
296.48	1738.73
296.69	1736.68
296.90	1699.81
297.12	1757.16
297.33	1746.92
297.55	1716.20
297.76	1791.97
297.98	1800.16
298.19	1740.77
298.41	1734.63
298.62	1679.33
298.83	1871.84
299.05	1726.44
299.26	1638.38
299.48	1648.61
299.69	1662.95
299.90	1779.68
300.12	1718.25
300.33	1812.45
300.55	1691.62
300.76	1761.25
300.98	1628.14
301.19	1769.44
301.40	1644.52
301.62	1708.01
301.83	1746.92
302.05	1761.25
302.26	1724.39
302.47	1736.68
302.69	1540.07
302.90	1644.52
303.12	1576.94
303.33	1791.97
303.54	1820.64
303.76	1759.21
303.97	1757.16
304.19	1845.22
304.40	1691.62
304.61	1691.62
304.83	1814.50
305.04	1796.07
305.26	1730.53
305.47	1679.33
305.68	1755.11
305.90	1665.00
306.11	1861.60
306.33	1742.82
306.54	1675.24
306.75	1765.35
306.97	1675.24
307.18	1693.67
307.39	1619.94
307.61	1751.01
307.82	1640.42
308.04	1685.48
308.25	1665.00
308.46	1791.97
308.68	1724.39
308.89	1767.40
309.10	1753.06
309.32	1765.35
309.53	1689.57
309.74	1773.54
309.96	1755.11
310.17	1771.49
310.39	1697.77
310.60	1765.35
310.81	1726.44
311.03	1691.62
311.24	1753.06
311.45	1767.40
311.67	1785.83
311.88	1687.53
312.09	1736.68
312.31	1718.25
312.52	1738.73
312.73	1726.44
312.95	1652.71
313.16	1726.44
313.37	1785.83
313.59	1783.78
313.80	1740.77
314.01	1789.92
314.23	1667.05
314.44	1718.25
314.65	1693.67
314.87	1685.48
315.08	1675.24
315.29	1691.62
315.51	1652.71
315.72	1671.14
315.93	1810.40
316.15	1828.84
316.36	1673.19
316.57	1624.04
316.79	1753.06
317.00	1675.24
317.21	1771.49
317.43	1730.53
317.64	1689.57
317.85	1748.97
318.07	1656.81
318.28	1712.10
318.49	1837.03
318.70	1945.57
318.92	1861.60
319.13	1804.26
319.34	1839.08
319.56	1837.03
319.77	1785.83
319.98	1812.45
320.20	1804.26
320.41	1763.30
320.62	1796.07
320.83	1626.09
321.05	1818.60
321.26	1755.11
321.47	1689.57
321.69	1828.84
321.90	1656.81
322.11	1685.48
322.32	1685.48
322.54	1789.92
322.75	1753.06
322.96	1742.82
323.18	1652.71
323.39	1595.37
323.60	1669.09
323.81	1697.77
324.03	1697.77
324.24	1732.58
324.45	1705.96
324.66	1714.15
324.88	1808.36
325.09	1779.68
325.30	1783.78
325.52	1742.82
325.73	1744.87
325.94	1759.21
326.15	1554.41
326.37	1742.82
326.58	1808.36
326.79	1837.03
327.00	1669.09
327.22	1765.35
327.43	1630.18
327.64	1673.19
327.85	1757.16
328.07	1732.58
328.28	1806.31
328.49	1687.53
328.70	1775.59
328.92	1697.77
329.13	1683.43
329.34	1695.72
329.55	1800.16
329.76	1767.40
329.98	1720.29
330.19	1804.26
330.40	1785.83
330.61	1773.54
330.83	1742.82
331.04	1705.96
331.25	1726.44
331.46	1621.99
331.68	1697.77
331.89	1814.50
332.10	1662.95
332.31	1644.52
332.52	1699.81
332.74	1808.36
332.95	1687.53
333.16	1722.34
333.37	1787.88
333.58	1699.81
333.80	1697.77
334.01	1656.81
334.22	1712.10
334.43	1691.62
334.64	1751.01
334.86	1636.33
335.07	1683.43
335.28	1808.36
335.49	1611.75
335.70	1755.11
335.92	1822.69
336.13	1845.22
336.34	1769.44
336.55	1718.25
336.76	1712.10
336.98	1615.85
337.19	1742.82
337.40	1839.08
337.61	1861.60
337.82	1714.15
338.04	1734.63
338.25	1656.81
338.46	1701.86
338.67	1783.78
338.88	1683.43
339.09	1603.56
339.31	1687.53
339.52	1685.48
339.73	1648.61
339.94	1667.05
340.15	1734.63
340.36	1644.52
340.58	1726.44
340.79	1724.39
341.00	1753.06
341.21	1630.18
341.42	1826.79
341.63	1662.95
341.85	1738.73
342.06	1683.43
342.27	1697.77
342.48	1710.05
342.69	1726.44
342.90	1726.44
343.12	1755.11
343.33	1642.47
343.54	1791.97
343.75	1783.78
343.96	1740.77
344.17	1613.80
344.38	1730.53
344.60	1658.85
344.81	1642.47
345.02	1732.58
345.23	1773.54
345.44	1802.21
345.65	1728.49
345.86	1755.11
346.07	1667.05
346.29	1740.77
346.50	1718.25
346.71	1695.72
346.92	1757.16
347.13	1873.89
347.34	1693.67
347.55	1773.54
347.76	1806.31
347.98	1587.18
348.19	1628.14
348.40	1767.40
348.61	1748.97
348.82	1861.60
349.03	1824.74
349.24	1716.20
349.45	1849.32
349.66	1638.38
349.88	1705.96
350.09	1703.91
350.30	1841.12
350.51	1812.45
350.72	1787.88
350.93	1689.57
351.14	1650.66
351.35	1722.34
351.56	1724.39
351.77	1650.66
351.99	1687.53
352.20	1804.26
352.41	1759.21
352.62	1558.50
352.83	1734.63
353.04	1648.61
353.25	1679.33
353.46	1798.12
353.67	1718.25
353.88	1597.42
354.09	1779.68
354.30	1742.82
354.52	1785.83
354.73	1699.81
354.94	1724.39
355.15	1683.43
355.36	1781.73
355.57	1626.09
355.78	1781.73
355.99	1683.43
356.20	1705.96
356.41	1798.12
356.62	1701.86
356.83	1679.33
357.04	1814.50
357.25	1632.23
357.46	1718.25
357.68	1624.04
357.89	1681.38
358.10	1714.15
358.31	1767.40
358.52	1779.68
358.73	1693.67
358.94	1681.38
359.15	1619.94
359.36	1759.21
359.57	1740.77
359.78	1775.59
359.99	1648.61
360.20	1708.01
360.41	1751.01
360.62	1675.24
360.83	1759.21
361.04	1695.72
361.25	1751.01
361.46	1783.78
361.67	1791.97
361.88	1751.01
362.09	1751.01
362.30	1746.92
362.51	1652.71
362.72	1679.33
362.93	1781.73
363.14	1722.34
363.35	1673.19
363.56	1669.09
363.78	1761.25
363.99	1794.02
364.20	1677.29
364.41	1714.15
364.62	1863.65
364.83	1738.73
365.04	1808.36
365.25	1730.53
365.46	1873.89
365.67	1609.70
365.88	1640.42
366.09	1699.81
366.30	1679.33
366.51	1732.58
366.72	1632.23
366.93	1654.76
367.14	1771.49
367.35	1701.86
367.56	1718.25
367.77	1810.40
367.98	1738.73
368.18	1710.05
368.39	1820.64
368.60	1714.15
368.81	1802.21
369.02	1679.33
369.23	1695.72
369.44	1658.85
369.65	1681.38
369.86	1783.78
370.07	1726.44
370.28	1742.82
370.49	1708.01
370.70	1859.56
370.91	1619.94
371.12	1589.22
371.33	1789.92
371.54	1716.20
371.75	1812.45
371.96	1648.61
372.17	1734.63
372.38	1685.48
372.59	1732.58
372.80	1673.19
373.01	1677.29
373.22	1699.81
373.43	1722.34
373.64	1689.57
373.85	1804.26
374.06	1812.45
374.26	1724.39
374.47	1763.30
374.68	1734.63
374.89	1738.73
375.10	1632.23
375.31	1814.50
375.52	1675.24
375.73	1699.81
375.94	1621.99
376.15	1796.07
376.36	1699.81
376.57	1703.91
376.78	1699.81
376.99	1767.40
377.20	1826.79
377.40	1642.47
377.61	1789.92
377.82	1693.67
378.03	1794.02
378.24	1796.07
378.45	1734.63
378.66	1687.53
378.87	1628.14
379.08	1626.09
379.29	1662.95
379.50	1742.82
379.71	1656.81
379.91	1783.78
380.12	1705.96
380.33	1736.68
380.54	1714.15
380.75	1800.16
380.96	1673.19
381.17	1810.40
381.38	1769.44
381.59	1695.72
381.80	1716.20
382.00	1841.12
382.21	1740.77
382.42	1880.04
382.63	1931.23
382.84	1779.68
383.05	1728.49
383.26	1824.74
383.47	1794.02
383.68	1783.78
383.88	1742.82
384.09	1675.24
384.30	1812.45
384.51	1763.30
384.72	1650.66
384.93	1665.00
385.14	1781.73
385.35	1834.98
385.55	1626.09
385.76	1845.22
385.97	1757.16
386.18	1681.38
386.39	1710.05
386.60	1687.53
386.81	1722.34
387.02	1763.30
387.22	1683.43
387.43	1767.40
387.64	1720.29
387.85	1849.32
388.06	2199.52
388.27	4153.28
388.48	6627.23
388.68	8023.94
388.89	9500.53
389.10	9650.03
389.31	8660.86
389.52	7487.37
389.73	6713.24
389.93	6174.63
390.14	5816.23
390.35	5226.42
390.56	4638.65
390.77	3731.40
390.98	3033.04
391.18	2596.82
391.39	2103.26
391.60	1888.23
391.81	1841.12
392.02	1769.44
392.23	1935.33
392.43	1705.96
392.64	1896.42
392.85	1791.97
393.06	1832.93
393.27	1724.39
393.47	1669.09
393.68	1796.07
393.89	1658.85
394.10	1853.41
394.31	1742.82
394.52	1658.85
394.72	1681.38
394.93	1845.22
395.14	1732.58
395.35	1771.49
395.56	1753.06
395.76	1746.92
395.97	1814.50
396.18	1851.36
396.39	1816.55
396.60	1990.63
396.80	1849.32
397.01	1916.90
397.22	1832.93
397.43	1845.22
397.64	1693.67
397.84	1814.50
398.05	1902.56
398.26	1796.07
398.47	1804.26
398.67	1652.71
398.88	1767.40
399.09	1714.15
399.30	1662.95
399.51	1824.74
399.71	1673.19
399.92	1724.39
400.13	1755.11
400.34	1738.73
400.54	1681.38
400.75	1826.79
400.96	1683.43
401.17	1869.80
401.37	1724.39
401.58	1667.05
401.79	1730.53
402.00	1914.85
402.21	2070.50
402.41	1998.82
402.62	1927.14
402.83	2017.25
403.04	2000.87
403.24	2070.50
403.45	1888.23
403.66	2052.06
403.87	1839.08
404.07	1912.80
404.28	1988.58
404.49	1849.32
404.70	1755.11
404.90	1830.88
405.11	1806.31
405.32	1816.55
405.52	1671.14
405.73	1648.61
405.94	1626.09
406.15	1687.53
406.35	1732.58
406.56	1822.69
406.77	1746.92
406.98	1738.73
407.18	1632.23
407.39	1810.40
407.60	1693.67
407.80	1738.73
408.01	1644.52
408.22	1734.63
408.43	1730.53
408.63	1708.01
408.84	1812.45
409.05	1759.21
409.25	1697.77
409.46	1722.34
409.67	1687.53
409.88	1638.38
410.08	1769.44
410.29	1679.33
410.50	1800.16
410.70	1738.73
410.91	1636.33
411.12	1722.34
411.32	1710.05
411.53	1716.20
411.74	1824.74
411.95	1824.74
412.15	1824.74
412.36	1804.26
412.57	1837.03
412.77	1796.07
412.98	1722.34
413.19	1722.34
413.39	1708.01
413.60	1814.50
413.81	1847.27
414.01	1724.39
414.22	1734.63
414.43	1755.11
414.63	1679.33
414.84	1810.40
415.05	1697.77
415.25	1605.61
415.46	1761.25
415.67	1720.29
415.87	1781.73
416.08	1681.38
416.29	1746.92
416.49	1796.07
416.70	1712.10
416.91	1640.42
417.11	1746.92
417.32	1800.16
417.53	1761.25
417.73	1708.01
417.94	1679.33
418.15	1736.68
418.35	1714.15
418.56	1771.49
418.77	1851.36
418.97	1642.47
419.18	1683.43
419.38	1617.90
419.59	1771.49
419.80	1830.88
420.00	1667.05
420.21	1712.10
420.42	1742.82
420.62	1787.88
420.83	1656.81
421.04	1742.82
421.24	1738.73
421.45	1804.26
421.65	1802.21
421.86	1673.19
422.07	1748.97
422.27	1818.60
422.48	1781.73
422.69	1726.44
422.89	1695.72
423.10	1728.49
423.30	1644.52
423.51	1773.54
423.72	1732.58
423.92	1748.97
424.13	1701.86
424.33	1703.91
424.54	1812.45
424.75	1679.33
424.95	1746.92
425.16	1812.45
425.36	1724.39
425.57	1736.68
425.78	1746.92
425.98	1724.39
426.19	1685.48
426.39	1675.24
426.60	1722.34
426.81	1701.86
427.01	1759.21
427.22	1681.38
427.42	1652.71
427.63	1726.44
427.83	1771.49
428.04	1796.07
428.25	1857.51
428.45	1808.36
428.66	1767.40
428.86	1699.81
429.07	1628.14
429.28	1705.96
429.48	1710.05
429.69	1630.18
429.89	1677.29
430.10	1591.27
430.30	1761.25
430.51	1828.84
430.71	1724.39
430.92	1748.97
431.13	1697.77
431.33	1781.73
431.54	1734.63
431.74	1808.36
431.95	1837.03
432.15	1652.71
432.36	1742.82
432.56	1736.68
432.77	1834.98
432.98	1837.03
433.18	1742.82
433.39	1779.68
433.59	1667.05
433.80	1802.21
434.00	1939.43
434.21	1730.53
434.41	1683.43
434.62	1920.99
434.82	1648.61
435.03	1650.66
435.23	1751.01
435.44	1648.61
435.64	1875.94
435.85	1755.11
436.06	1843.17
436.26	1787.88
436.47	1695.72
436.67	1685.48
436.88	1722.34
437.08	1720.29
437.29	1824.74
437.49	1748.97
437.70	1796.07
437.90	1785.83
438.11	1837.03
438.31	1779.68
438.52	1927.14
438.72	1865.70
438.93	1914.85
439.13	1783.78
439.34	1859.56
439.54	1708.01
439.75	1814.50
439.95	1759.21
440.16	1738.73
440.36	1822.69
440.57	1759.21
440.77	1814.50
440.98	1685.48
441.18	1753.06
441.39	1734.63
441.59	1705.96
441.80	1796.07
442.00	1701.86
442.21	1787.88
442.41	1628.14
442.62	1812.45
442.82	1744.87
443.02	1798.12
443.23	1757.16
443.43	1775.59
443.64	1804.26
443.84	1695.72
444.05	1802.21
444.25	1757.16
444.46	1714.15
444.66	1804.26
444.87	1834.98
445.07	1701.86
445.28	1748.97
445.48	1703.91
445.69	1771.49
445.89	1908.71
446.09	1777.64
446.30	2039.78
446.50	2645.98
446.71	3729.35
446.91	4313.02
447.12	4759.48
447.32	4794.29
447.53	4374.46
447.73	3925.96
447.93	3583.95
448.14	3289.04
448.34	3295.18
448.55	2914.26
448.75	2750.42
448.96	2760.66
449.16	2418.65
449.36	2271.20
449.57	2031.58
449.77	1955.81
449.98	1755.11
450.18	1847.27
450.39	1839.08
450.59	1761.25
450.79	1748.97
451.00	1720.29
451.20	1837.03
451.41	1730.53
451.61	1783.78
451.81	1736.68
452.02	1716.20
452.22	1730.53
452.43	1726.44
452.63	1761.25
