SpectraSuite Data File
++++++++++++++++++++++++++++++++++++
Date: Mon Jun 06 13:21:17 CEST 2016
User: root
Dark Spectrum Present: No
Reference Spectrum Present: No
Number of Sampled Component Spectra: 1
Spectrometers: USB4C02835
Integration Time (usec): 100000 (USB4C02835)
Spectra Averaged: 1 (USB4C02835)
Boxcar Smoothing: 0 (USB4C02835)
Correct for Electrical Dark: No (USB4C02835)
Strobe/Lamp Enabled: No (USB4C02835)
Correct for Detector Non-linearity: No (USB4C02835)
Correct for Stray Light: No (USB4C02835)
Number of Pixels in Processed Spectrum: 3648
>>>>>Begin Processed Spectral Data<<<<<
177.47	1427.43
177.69	1427.43
177.91	1427.43
178.13	1513.45
178.36	1411.05
178.58	1658.85
178.80	1714.15
179.02	1671.14
179.24	1712.10
179.46	1656.81
179.68	1703.91
179.90	1726.44
180.13	1710.05
180.35	1673.19
180.57	1732.58
180.79	1734.63
181.01	1642.47
181.23	1720.29
181.45	1814.50
181.67	1714.15
181.90	1697.77
182.12	1546.22
182.34	1673.19
182.56	1775.59
182.78	1722.34
183.00	1689.57
183.22	1763.30
183.44	1576.94
183.66	1894.37
183.89	1765.35
184.11	1697.77
184.33	1705.96
184.55	1771.49
184.77	1804.26
184.99	1681.38
185.21	1613.80
185.43	1843.17
185.65	1617.90
185.87	1724.39
186.10	1755.11
186.32	1843.17
186.54	1685.48
186.76	1808.36
186.98	1720.29
187.20	1714.15
187.42	1677.29
187.64	1671.14
187.86	1677.29
188.08	1734.63
188.30	1656.81
188.52	1712.10
188.75	1744.87
188.97	1773.54
189.19	1691.62
189.41	1740.77
189.63	1671.14
189.85	1675.24
190.07	1619.94
190.29	1615.85
190.51	1697.77
190.73	1550.31
190.95	1806.31
191.17	1699.81
191.39	1615.85
191.61	1648.61
191.84	1648.61
192.06	1662.95
192.28	1619.94
192.50	1806.31
192.72	1701.86
192.94	1720.29
193.16	1722.34
193.38	1738.73
193.60	1621.99
193.82	1763.30
194.04	1773.54
194.26	1671.14
194.48	1679.33
194.70	1705.96
194.92	1650.66
195.14	1671.14
195.36	1648.61
195.58	1587.18
195.80	1730.53
196.02	1583.08
196.24	1671.14
196.46	1730.53
196.69	1687.53
196.91	1855.46
197.13	1710.05
197.35	1677.29
197.57	1822.69
197.79	1742.82
198.01	1687.53
198.23	1773.54
198.45	1714.15
198.67	1808.36
198.89	1746.92
199.11	1718.25
199.33	1667.05
199.55	1597.42
199.77	1705.96
199.99	1732.58
200.21	1634.28
200.43	1701.86
200.65	1607.66
200.87	1624.04
201.09	1689.57
201.31	1761.25
201.53	1708.01
201.75	1685.48
201.97	1732.58
202.19	1675.24
202.41	1738.73
202.63	1779.68
202.85	1650.66
203.07	1691.62
203.29	1632.23
203.51	1671.14
203.73	1640.42
203.95	1882.08
204.17	1738.73
204.39	1648.61
204.61	1650.66
204.83	1656.81
205.05	1705.96
205.27	1740.77
205.49	1804.26
205.71	1738.73
205.93	1665.00
206.15	1728.49
206.37	1675.24
206.59	1697.77
206.81	1638.38
207.03	1656.81
207.25	1626.09
207.47	1695.72
207.69	1658.85
207.91	1796.07
208.13	1787.88
208.34	1640.42
208.56	1621.99
208.78	1734.63
209.00	1695.72
209.22	1634.28
209.44	1615.85
209.66	1687.53
209.88	1705.96
210.10	1611.75
210.32	1685.48
210.54	1724.39
210.76	1673.19
210.98	1751.01
211.20	1601.51
211.42	1726.44
211.64	1785.83
211.86	1667.05
212.08	1693.67
212.30	1767.40
212.52	1683.43
212.74	1722.34
212.96	1683.43
213.17	1730.53
213.39	1742.82
213.61	1753.06
213.83	1773.54
214.05	1714.15
214.27	1816.55
214.49	1656.81
214.71	1656.81
214.93	1806.31
215.15	1679.33
215.37	1716.20
215.59	1599.46
215.81	1746.92
216.03	1802.21
216.24	1648.61
216.46	1677.29
216.68	1734.63
216.90	1759.21
217.12	1812.45
217.34	1675.24
217.56	1689.57
217.78	1820.64
218.00	1656.81
218.22	1683.43
218.44	1710.05
218.66	1757.16
218.87	1798.12
219.09	1603.56
219.31	1632.23
219.53	1624.04
219.75	1611.75
219.97	1710.05
220.19	1769.44
220.41	1734.63
220.63	1771.49
220.85	1728.49
221.06	1714.15
221.28	1769.44
221.50	1714.15
221.72	1599.46
221.94	1730.53
222.16	1720.29
222.38	1791.97
222.60	1679.33
222.82	1689.57
223.03	1751.01
223.25	1619.94
223.47	1802.21
223.69	1740.77
223.91	1728.49
224.13	1767.40
224.35	1699.81
224.57	1716.20
224.78	1703.91
225.00	1705.96
225.22	1689.57
225.44	1751.01
225.66	1767.40
225.88	1697.77
226.10	1740.77
226.32	1722.34
226.53	1810.40
226.75	1642.47
226.97	1701.86
227.19	1710.05
227.41	1640.42
227.63	1671.14
227.85	1681.38
228.06	1712.10
228.28	1726.44
228.50	1722.34
228.72	1525.74
228.94	1732.58
229.16	1597.42
229.37	1634.28
229.59	1662.95
229.81	1720.29
230.03	1716.20
230.25	1599.46
230.47	1656.81
230.69	1564.65
230.90	1660.90
231.12	1665.00
231.34	1740.77
231.56	1767.40
231.78	1599.46
232.00	1636.33
232.21	1697.77
232.43	1701.86
232.65	1556.46
232.87	1697.77
233.09	1734.63
233.30	1609.70
233.52	1734.63
233.74	1681.38
233.96	1732.58
234.18	1654.76
234.40	1681.38
234.61	1904.61
234.83	1681.38
235.05	1615.85
235.27	1912.80
235.49	1767.40
235.70	1722.34
235.92	1763.30
236.14	1675.24
236.36	1816.55
236.58	1628.14
236.79	1761.25
237.01	1662.95
237.23	1644.52
237.45	1798.12
237.67	1703.91
237.88	1673.19
238.10	1804.26
238.32	1636.33
238.54	1638.38
238.76	1769.44
238.97	1705.96
239.19	1669.09
239.41	1693.67
239.63	1777.64
239.85	1654.76
240.06	1724.39
240.28	1708.01
240.50	1746.92
240.72	1765.35
240.93	1734.63
241.15	1736.68
241.37	1660.90
241.59	1742.82
241.81	1738.73
242.02	1708.01
242.24	1716.20
242.46	1746.92
242.68	1611.75
242.89	1761.25
243.11	1742.82
243.33	1730.53
243.55	1695.72
243.76	1798.12
243.98	1630.18
244.20	1730.53
244.42	1677.29
244.64	1697.77
244.85	1650.66
245.07	1681.38
245.29	1761.25
245.51	1777.64
245.72	1726.44
245.94	1765.35
246.16	1697.77
246.38	1751.01
246.59	1601.51
246.81	1685.48
247.03	1617.90
247.24	1611.75
247.46	1660.90
247.68	1683.43
247.90	1652.71
248.11	1609.70
248.33	1730.53
248.55	1710.05
248.77	1726.44
248.98	1773.54
249.20	1757.16
249.42	1736.68
249.64	1669.09
249.85	1712.10
250.07	1621.99
250.29	1648.61
250.50	1679.33
250.72	1636.33
250.94	1777.64
251.16	1822.69
251.37	1652.71
251.59	1734.63
251.81	1710.05
252.02	1746.92
252.24	1742.82
252.46	1804.26
252.68	1763.30
252.89	1701.86
253.11	1640.42
253.33	1822.69
253.54	1755.11
253.76	1642.47
253.98	1773.54
254.20	1677.29
254.41	1681.38
254.63	1685.48
254.85	1554.41
255.06	1746.92
255.28	1730.53
255.50	1669.09
255.71	1689.57
255.93	1583.08
256.15	1681.38
256.36	1710.05
256.58	1632.23
256.80	1720.29
257.02	1699.81
257.23	1708.01
257.45	1683.43
257.67	1757.16
257.88	1677.29
258.10	1716.20
258.32	1740.77
258.53	1718.25
258.75	1767.40
258.97	1593.32
259.18	1726.44
259.40	1720.29
259.62	1785.83
259.83	1812.45
260.05	1705.96
260.27	1968.10
260.48	1769.44
260.70	1636.33
260.92	1665.00
261.13	1626.09
261.35	1650.66
261.57	1734.63
261.78	1628.14
262.00	1662.95
262.22	1689.57
262.43	1658.85
262.65	1652.71
262.86	1720.29
263.08	1869.80
263.30	1683.43
263.51	1656.81
263.73	1675.24
263.95	1730.53
264.16	1644.52
264.38	1640.42
264.60	1720.29
264.81	1734.63
265.03	1708.01
265.25	1757.16
265.46	1679.33
265.68	1705.96
265.89	1724.39
266.11	1593.32
266.33	1636.33
266.54	1722.34
266.76	1730.53
266.98	1650.66
267.19	1794.02
267.41	1720.29
267.62	1656.81
267.84	1634.28
268.06	1753.06
268.27	1714.15
268.49	1712.10
268.70	1767.40
268.92	1697.77
269.14	1603.56
269.35	1585.13
269.57	1689.57
269.79	1738.73
270.00	1681.38
270.22	1716.20
270.43	1673.19
270.65	1538.02
270.87	1718.25
271.08	1687.53
271.30	1744.87
271.51	1677.29
271.73	1789.92
271.95	1808.36
272.16	1816.55
272.38	1701.86
272.59	1665.00
272.81	1726.44
273.02	1654.76
273.24	1771.49
273.46	1820.64
273.67	1650.66
273.89	1644.52
274.10	1640.42
274.32	1730.53
274.54	1705.96
274.75	1785.83
274.97	1640.42
275.18	1759.21
275.40	1691.62
275.61	1679.33
275.83	1681.38
276.05	1634.28
276.26	1746.92
276.48	1742.82
276.69	1716.20
276.91	1669.09
277.12	1794.02
277.34	1718.25
277.55	1751.01
277.77	1705.96
277.99	1638.38
278.20	1667.05
278.42	1650.66
278.63	1615.85
278.85	1656.81
279.06	1665.00
279.28	1730.53
279.49	1800.16
279.71	1695.72
279.93	1712.10
280.14	1671.14
280.36	1630.18
280.57	1789.92
280.79	1744.87
281.00	1701.86
281.22	1671.14
281.43	1845.22
281.65	1597.42
281.86	1624.04
282.08	1681.38
282.29	1839.08
282.51	1650.66
282.73	1589.22
282.94	1617.90
283.16	1779.68
283.37	1753.06
283.59	1703.91
283.80	1683.43
284.02	1693.67
284.23	1693.67
284.45	1654.76
284.66	1624.04
284.88	1689.57
285.09	1681.38
285.31	1742.82
285.52	1677.29
285.74	1695.72
285.95	1675.24
286.17	1705.96
286.38	1714.15
286.60	1687.53
286.81	1621.99
287.03	1740.77
287.24	1669.09
287.46	1746.92
287.67	1728.49
287.89	1816.55
288.10	1650.66
288.32	1738.73
288.53	1755.11
288.75	1685.48
288.96	1763.30
289.18	1675.24
289.39	1624.04
289.61	1740.77
289.82	1828.84
290.04	1822.69
290.25	1624.04
290.47	1714.15
290.68	1695.72
290.90	1800.16
291.11	1685.48
291.33	1675.24
291.54	1593.32
291.76	1687.53
291.97	1646.57
292.18	1787.88
292.40	1652.71
292.61	1671.14
292.83	1873.89
293.04	1710.05
293.26	1730.53
293.47	1701.86
293.69	1576.94
293.90	1638.38
294.12	1800.16
294.33	1671.14
294.55	1718.25
294.76	1757.16
294.97	1724.39
295.19	1832.93
295.40	1673.19
295.62	1705.96
295.83	1769.44
296.05	1611.75
296.26	1761.25
296.48	1669.09
296.69	1652.71
296.90	1730.53
297.12	1742.82
297.33	1669.09
297.55	1720.29
297.76	1671.14
297.98	1716.20
298.19	1740.77
298.41	1658.85
298.62	1652.71
298.83	1847.27
299.05	1738.73
299.26	1697.77
299.48	1671.14
299.69	1755.11
299.90	1656.81
300.12	1673.19
300.33	1779.68
300.55	1679.33
300.76	1775.59
300.98	1675.24
301.19	1736.68
301.40	1644.52
301.62	1744.87
301.83	1771.49
302.05	1665.00
302.26	1744.87
302.47	1683.43
302.69	1675.24
302.90	1718.25
303.12	1548.26
303.33	1693.67
303.54	1859.56
303.76	1705.96
303.97	1710.05
304.19	1742.82
304.40	1662.95
304.61	1771.49
304.83	1742.82
305.04	1789.92
305.26	1740.77
305.47	1624.04
305.68	1722.34
305.90	1634.28
306.11	1691.62
306.33	1662.95
306.54	1656.81
306.75	1658.85
306.97	1716.20
307.18	1736.68
307.39	1769.44
307.61	1748.97
307.82	1677.29
308.04	1779.68
308.25	1718.25
308.46	1787.88
308.68	1638.38
308.89	1746.92
309.10	1796.07
309.32	1687.53
309.53	1669.09
309.74	1712.10
309.96	1679.33
310.17	1839.08
310.39	1607.66
310.60	1710.05
310.81	1716.20
311.03	1619.94
311.24	1685.48
311.45	1693.67
311.67	1769.44
311.88	1757.16
312.09	1689.57
312.31	1656.81
312.52	1652.71
312.73	1689.57
312.95	1628.14
313.16	1619.94
313.37	1714.15
313.59	1804.26
313.80	1781.73
314.01	1777.64
314.23	1683.43
314.44	1640.42
314.65	1626.09
314.87	1630.18
315.08	1624.04
315.29	1652.71
315.51	1695.72
315.72	1593.32
315.93	1771.49
316.15	1699.81
316.36	1650.66
316.57	1763.30
316.79	1720.29
317.00	1699.81
317.21	1744.87
317.43	1699.81
317.64	1734.63
317.85	1652.71
318.07	1675.24
318.28	1689.57
318.49	1808.36
318.70	1855.46
318.92	1785.83
319.13	1781.73
319.34	1908.71
319.56	1777.64
319.77	1810.40
319.98	1765.35
320.20	1714.15
320.41	1724.39
320.62	1710.05
320.83	1636.33
321.05	1869.80
321.26	1683.43
321.47	1665.00
321.69	1683.43
321.90	1710.05
322.11	1699.81
322.32	1726.44
322.54	1722.34
322.75	1730.53
322.96	1785.83
323.18	1597.42
323.39	1626.09
323.60	1703.91
323.81	1742.82
324.03	1714.15
324.24	1705.96
324.45	1738.73
324.66	1693.67
324.88	1771.49
325.09	1734.63
325.30	1730.53
325.52	1638.38
325.73	1748.97
325.94	1628.14
326.15	1636.33
326.37	1652.71
326.58	1718.25
326.79	1794.02
327.00	1683.43
327.22	1738.73
327.43	1693.67
327.64	1617.90
327.85	1644.52
328.07	1718.25
328.28	1804.26
328.49	1634.28
328.70	1712.10
328.92	1712.10
329.13	1763.30
329.34	1734.63
329.55	1806.31
329.76	1730.53
329.98	1718.25
330.19	1716.20
330.40	1755.11
330.61	1705.96
330.83	1693.67
331.04	1691.62
331.25	1742.82
331.46	1679.33
331.68	1626.09
331.89	1763.30
332.10	1746.92
332.31	1675.24
332.52	1671.14
332.74	1714.15
332.95	1705.96
333.16	1687.53
333.37	1701.86
333.58	1660.90
333.80	1802.21
334.01	1583.08
334.22	1757.16
334.43	1591.27
334.64	1710.05
334.86	1644.52
335.07	1675.24
335.28	1798.12
335.49	1626.09
335.70	1716.20
335.92	1748.97
336.13	1841.12
336.34	1785.83
336.55	1751.01
336.76	1738.73
336.98	1589.22
337.19	1673.19
337.40	1730.53
337.61	1865.70
337.82	1691.62
338.04	1732.58
338.25	1517.54
338.46	1714.15
338.67	1609.70
338.88	1710.05
339.09	1746.92
339.31	1669.09
339.52	1599.46
339.73	1609.70
339.94	1720.29
340.15	1624.04
340.36	1730.53
340.58	1669.09
340.79	1685.48
341.00	1710.05
341.21	1595.37
341.42	1732.58
341.63	1624.04
341.85	1820.64
342.06	1708.01
342.27	1699.81
342.48	1789.92
342.69	1597.42
342.90	1632.23
343.12	1757.16
343.33	1632.23
343.54	1794.02
343.75	1783.78
343.96	1658.85
344.17	1658.85
344.38	1693.67
344.60	1656.81
344.81	1583.08
345.02	1681.38
345.23	1746.92
345.44	1773.54
345.65	1621.99
345.86	1691.62
346.07	1730.53
346.29	1568.74
346.50	1695.72
346.71	1716.20
346.92	1785.83
347.13	1783.78
347.34	1722.34
347.55	1675.24
347.76	1775.59
347.98	1675.24
348.19	1697.77
348.40	1845.22
348.61	1675.24
348.82	1767.40
349.03	1724.39
349.24	1607.66
349.45	1841.12
349.66	1560.55
349.88	1724.39
350.09	1699.81
350.30	1740.77
350.51	1718.25
350.72	1748.97
350.93	1722.34
351.14	1695.72
351.35	1699.81
351.56	1734.63
351.77	1771.49
351.99	1662.95
352.20	1806.31
352.41	1769.44
352.62	1531.88
352.83	1710.05
353.04	1693.67
353.25	1689.57
353.46	1757.16
353.67	1767.40
353.88	1525.74
354.09	1693.67
354.30	1697.77
354.52	1669.09
354.73	1718.25
354.94	1675.24
355.15	1710.05
355.36	1791.97
355.57	1691.62
355.78	1734.63
355.99	1710.05
356.20	1718.25
356.41	1695.72
356.62	1701.86
356.83	1683.43
357.04	1800.16
357.25	1617.90
357.46	1712.10
357.68	1570.79
357.89	1722.34
358.10	1705.96
358.31	1718.25
358.52	1753.06
358.73	1636.33
358.94	1724.39
359.15	1671.14
359.36	1716.20
359.57	1710.05
359.78	1712.10
359.99	1687.53
360.20	1601.51
360.41	1683.43
360.62	1775.59
360.83	1763.30
361.04	1744.87
361.25	1728.49
361.46	1746.92
361.67	1685.48
361.88	1773.54
362.09	1748.97
362.30	1705.96
362.51	1656.81
362.72	1773.54
362.93	1726.44
363.14	1687.53
363.35	1703.91
363.56	1673.19
363.78	1658.85
363.99	1710.05
364.20	1599.46
364.41	1740.77
364.62	1839.08
364.83	1656.81
365.04	1658.85
365.25	1736.68
365.46	1857.51
365.67	1675.24
365.88	1660.90
366.09	1619.94
366.30	1667.05
366.51	1691.62
366.72	1621.99
366.93	1746.92
367.14	1693.67
367.35	1761.25
367.56	1695.72
367.77	1800.16
367.98	1791.97
368.18	1748.97
368.39	1683.43
368.60	1601.51
368.81	1736.68
369.02	1665.00
369.23	1730.53
369.44	1624.04
369.65	1658.85
369.86	1697.77
370.07	1798.12
370.28	1689.57
370.49	1761.25
370.70	1660.90
370.91	1669.09
371.12	1646.57
371.33	1734.63
371.54	1660.90
371.75	1777.64
371.96	1533.93
372.17	1673.19
372.38	1615.85
372.59	1771.49
372.80	1728.49
373.01	1712.10
373.22	1576.94
373.43	1644.52
373.64	1681.38
373.85	1742.82
374.06	1767.40
374.26	1714.15
374.47	1742.82
374.68	1757.16
374.89	1710.05
375.10	1619.94
375.31	1708.01
375.52	1753.06
375.73	1681.38
375.94	1683.43
376.15	1751.01
376.36	1626.09
376.57	1669.09
376.78	1691.62
376.99	1789.92
377.20	1783.78
377.40	1642.47
377.61	1816.55
377.82	1599.46
378.03	1841.12
378.24	1777.64
378.45	1701.86
378.66	1673.19
378.87	1550.31
379.08	1681.38
379.29	1677.29
379.50	1740.77
379.71	1679.33
379.91	1738.73
380.12	1722.34
380.33	1697.77
380.54	1722.34
380.75	1652.71
380.96	1640.42
381.17	1744.87
381.38	1679.33
381.59	1732.58
381.80	1697.77
382.00	1867.75
382.21	1789.92
382.42	1798.12
382.63	1914.85
382.84	1689.57
383.05	1710.05
383.26	1812.45
383.47	1705.96
383.68	1738.73
383.88	1755.11
384.09	1714.15
384.30	1751.01
384.51	1769.44
384.72	1669.09
384.93	1744.87
385.14	1734.63
385.35	1783.78
385.55	1609.70
385.76	1783.78
385.97	1671.14
386.18	1574.89
386.39	1691.62
386.60	1695.72
386.81	1681.38
387.02	1708.01
387.22	1699.81
387.43	1779.68
387.64	1773.54
387.85	1869.80
388.06	2179.04
388.27	4267.97
388.48	6610.84
388.68	8099.72
388.89	9453.42
389.10	9588.59
389.31	8564.61
389.52	7634.83
389.73	6549.40
389.93	6109.09
390.14	5750.70
390.35	5146.55
390.56	4542.39
390.77	3762.12
390.98	3024.85
391.18	2469.85
391.39	2103.26
391.60	1920.99
391.81	1787.88
392.02	1728.49
392.23	1851.36
392.43	1701.86
392.64	1779.68
392.85	1667.05
393.06	1863.65
393.27	1720.29
393.47	1658.85
393.68	1681.38
393.89	1675.24
394.10	1789.92
394.31	1628.14
394.52	1675.24
394.72	1691.62
394.93	1820.64
395.14	1687.53
395.35	1748.97
395.56	1642.47
395.76	1714.15
395.97	1658.85
396.18	1826.79
396.39	1837.03
396.60	2011.11
396.80	1820.64
397.01	1783.78
397.22	1781.73
397.43	1794.02
397.64	1730.53
397.84	1755.11
398.05	1791.97
398.26	1718.25
398.47	1779.68
398.67	1726.44
398.88	1781.73
399.09	1773.54
399.30	1619.94
399.51	1755.11
399.71	1681.38
399.92	1701.86
400.13	1724.39
400.34	1695.72
400.54	1804.26
400.75	1775.59
400.96	1785.83
401.17	1826.79
401.37	1843.17
401.58	1722.34
401.79	1703.91
402.00	1937.38
402.21	1937.38
402.41	1906.66
402.62	2002.91
402.83	1998.82
403.04	2029.54
403.24	2031.58
403.45	1861.60
403.66	1877.99
403.87	1873.89
404.07	1843.17
404.28	1929.19
404.49	1886.18
404.70	1697.77
404.90	1740.77
405.11	1736.68
405.32	1699.81
405.52	1636.33
405.73	1716.20
405.94	1628.14
406.15	1734.63
406.35	1783.78
406.56	1779.68
406.77	1738.73
406.98	1771.49
407.18	1671.14
407.39	1814.50
407.60	1650.66
407.80	1714.15
408.01	1730.53
408.22	1685.48
408.43	1718.25
408.63	1642.47
408.84	1796.07
409.05	1738.73
409.25	1695.72
409.46	1671.14
409.67	1691.62
409.88	1640.42
410.08	1648.61
410.29	1685.48
410.50	1849.32
410.70	1771.49
410.91	1656.81
411.12	1701.86
411.32	1703.91
411.53	1679.33
411.74	1849.32
411.95	1726.44
412.15	1703.91
412.36	1787.88
412.57	1734.63
412.77	1773.54
412.98	1665.00
413.19	1703.91
413.39	1728.49
413.60	1783.78
413.81	1789.92
414.01	1720.29
414.22	1640.42
414.43	1794.02
414.63	1753.06
414.84	1769.44
415.05	1699.81
415.25	1638.38
415.46	1759.21
415.67	1673.19
415.87	1728.49
416.08	1703.91
416.29	1621.99
416.49	1656.81
416.70	1644.52
416.91	1685.48
417.11	1734.63
417.32	1783.78
417.53	1800.16
417.73	1789.92
417.94	1716.20
418.15	1689.57
418.35	1652.71
418.56	1665.00
418.77	1791.97
418.97	1746.92
419.18	1650.66
419.38	1556.46
419.59	1695.72
419.80	1908.71
420.00	1646.57
420.21	1800.16
420.42	1841.12
420.62	1734.63
420.83	1648.61
421.04	1728.49
421.24	1687.53
421.45	1746.92
421.65	1662.95
421.86	1673.19
422.07	1791.97
422.27	1699.81
422.48	1683.43
422.69	1673.19
422.89	1662.95
423.10	1722.34
423.30	1685.48
423.51	1656.81
423.72	1722.34
423.92	1763.30
424.13	1617.90
424.33	1718.25
424.54	1683.43
424.75	1742.82
424.95	1802.21
425.16	1701.86
425.36	1726.44
425.57	1724.39
425.78	1783.78
425.98	1734.63
426.19	1654.76
426.39	1679.33
426.60	1763.30
426.81	1767.40
427.01	1642.47
427.22	1675.24
427.42	1624.04
427.63	1701.86
427.83	1761.25
428.04	1794.02
428.25	1800.16
428.45	1744.87
428.66	1800.16
428.86	1687.53
429.07	1738.73
429.28	1724.39
429.48	1705.96
429.69	1652.71
429.89	1769.44
430.10	1603.56
430.30	1730.53
430.51	1789.92
430.71	1658.85
430.92	1734.63
431.13	1662.95
431.33	1738.73
431.54	1746.92
431.74	1822.69
431.95	1832.93
432.15	1677.29
432.36	1697.77
432.56	1763.30
432.77	1798.12
432.98	1828.84
433.18	1718.25
433.39	1734.63
433.59	1646.57
433.80	1787.88
434.00	1834.98
434.21	1656.81
434.41	1693.67
434.62	1841.12
434.82	1634.28
435.03	1599.46
435.23	1710.05
435.44	1550.31
435.64	1781.73
435.85	1673.19
436.06	1779.68
436.26	1771.49
436.47	1703.91
436.67	1677.29
436.88	1701.86
437.08	1787.88
437.29	1865.70
437.49	1691.62
437.70	1744.87
437.90	1697.77
438.11	1890.28
438.31	1757.16
438.52	1896.42
438.72	1804.26
438.93	1863.65
439.13	1812.45
439.34	1744.87
439.54	1771.49
439.75	1798.12
439.95	1918.95
440.16	1689.57
440.36	1736.68
440.57	1753.06
440.77	1751.01
440.98	1689.57
441.18	1753.06
441.39	1671.14
441.59	1679.33
441.80	1902.56
442.00	1738.73
442.21	1730.53
442.41	1597.42
442.62	1802.21
442.82	1624.04
443.02	1695.72
443.23	1681.38
443.43	1748.97
443.64	1740.77
443.84	1660.90
444.05	1746.92
444.25	1734.63
444.46	1740.77
444.66	1748.97
444.87	1818.60
445.07	1628.14
445.28	1689.57
445.48	1783.78
445.69	1742.82
445.89	1814.50
446.09	1755.11
446.30	1994.72
446.50	2584.54
446.71	3723.21
446.91	4339.65
447.12	4573.11
447.32	4728.76
447.53	4302.78
447.73	3923.91
447.93	3502.03
448.14	3295.18
448.34	3192.78
448.55	2891.73
448.75	2797.53
448.96	2670.55
449.16	2349.02
449.36	2299.87
449.57	2072.54
449.77	1871.84
449.98	1800.16
450.18	1755.11
450.39	1804.26
450.59	1785.83
450.79	1675.24
451.00	1654.76
451.20	1720.29
451.41	1677.29
451.61	1837.03
451.81	1742.82
452.02	1656.81
452.22	1632.23
452.43	1695.72
452.63	1691.62
