SpectraSuite Data File
++++++++++++++++++++++++++++++++++++
Date: Mon Jun 06 13:56:17 CEST 2016
User: root
Dark Spectrum Present: No
Reference Spectrum Present: No
Number of Sampled Component Spectra: 1
Spectrometers: USB4C02835
Integration Time (usec): 100000 (USB4C02835)
Spectra Averaged: 1 (USB4C02835)
Boxcar Smoothing: 0 (USB4C02835)
Correct for Electrical Dark: No (USB4C02835)
Strobe/Lamp Enabled: No (USB4C02835)
Correct for Detector Non-linearity: No (USB4C02835)
Correct for Stray Light: No (USB4C02835)
Number of Pixels in Processed Spectrum: 3648
>>>>>Begin Processed Spectral Data<<<<<
177.47	1452.01
177.69	1452.01
177.91	1452.01
178.13	1435.63
178.36	1495.02
178.58	1634.28
178.80	1736.68
179.02	1589.22
179.24	1601.51
179.46	1771.49
179.68	1691.62
179.90	1665.00
180.13	1712.10
180.35	1656.81
180.57	1728.49
180.79	1708.01
181.01	1705.96
181.23	1669.09
181.45	1785.83
181.67	1714.15
181.90	1673.19
182.12	1669.09
182.34	1683.43
182.56	1705.96
182.78	1665.00
183.00	1742.82
183.22	1701.86
183.44	1630.18
183.66	1826.79
183.89	1781.73
184.11	1740.77
184.33	1736.68
184.55	1820.64
184.77	1642.47
184.99	1769.44
185.21	1689.57
185.43	1871.84
185.65	1673.19
185.87	1714.15
186.10	1804.26
186.32	1800.16
186.54	1763.30
186.76	1746.92
186.98	1791.97
187.20	1714.15
187.42	1638.38
187.64	1730.53
187.86	1722.34
188.08	1789.92
188.30	1605.61
188.52	1720.29
188.75	1769.44
188.97	1740.77
189.19	1658.85
189.41	1658.85
189.63	1759.21
189.85	1697.77
190.07	1552.36
190.29	1660.90
190.51	1693.67
190.73	1607.66
190.95	1781.73
191.17	1687.53
191.39	1583.08
191.61	1603.56
191.84	1626.09
192.06	1832.93
192.28	1546.22
192.50	1830.88
192.72	1767.40
192.94	1689.57
193.16	1808.36
193.38	1710.05
193.60	1652.71
193.82	1695.72
194.04	1832.93
194.26	1671.14
194.48	1701.86
194.70	1689.57
194.92	1603.56
195.14	1705.96
195.36	1617.90
195.58	1667.05
195.80	1675.24
196.02	1673.19
196.24	1697.77
196.46	1748.97
196.69	1630.18
196.91	1779.68
197.13	1718.25
197.35	1585.13
197.57	1828.84
197.79	1738.73
198.01	1736.68
198.23	1697.77
198.45	1722.34
198.67	1640.42
198.89	1667.05
199.11	1712.10
199.33	1701.86
199.55	1609.70
199.77	1669.09
199.99	1710.05
200.21	1634.28
200.43	1697.77
200.65	1607.66
200.87	1525.74
201.09	1611.75
201.31	1783.78
201.53	1789.92
201.75	1710.05
201.97	1728.49
202.19	1685.48
202.41	1673.19
202.63	1798.12
202.85	1718.25
203.07	1695.72
203.29	1681.38
203.51	1669.09
203.73	1654.76
203.95	1861.60
204.17	1738.73
204.39	1798.12
204.61	1593.32
204.83	1716.20
205.05	1765.35
205.27	1742.82
205.49	1779.68
205.71	1640.42
205.93	1654.76
206.15	1605.61
206.37	1812.45
206.59	1714.15
206.81	1617.90
207.03	1626.09
207.25	1611.75
207.47	1773.54
207.69	1751.01
207.91	1753.06
208.13	1755.11
208.34	1650.66
208.56	1693.67
208.78	1693.67
209.00	1701.86
209.22	1689.57
209.44	1681.38
209.66	1669.09
209.88	1769.44
210.10	1691.62
210.32	1712.10
210.54	1785.83
210.76	1656.81
210.98	1726.44
211.20	1617.90
211.42	1662.95
211.64	1806.31
211.86	1697.77
212.08	1665.00
212.30	1681.38
212.52	1640.42
212.74	1718.25
212.96	1710.05
213.17	1718.25
213.39	1710.05
213.61	1761.25
213.83	1691.62
214.05	1656.81
214.27	1802.21
214.49	1681.38
214.71	1658.85
214.93	1794.02
215.15	1685.48
215.37	1705.96
215.59	1632.23
215.81	1730.53
216.03	1718.25
216.24	1697.77
216.46	1652.71
216.68	1634.28
216.90	1746.92
217.12	1781.73
217.34	1630.18
217.56	1740.77
217.78	1822.69
218.00	1746.92
218.22	1765.35
218.44	1665.00
218.66	1660.90
218.87	1767.40
219.09	1636.33
219.31	1748.97
219.53	1712.10
219.75	1658.85
219.97	1636.33
220.19	1726.44
220.41	1675.24
220.63	1718.25
220.85	1728.49
221.06	1673.19
221.28	1669.09
221.50	1767.40
221.72	1767.40
221.94	1654.76
222.16	1736.68
222.38	1755.11
222.60	1634.28
222.82	1728.49
223.03	1777.64
223.25	1675.24
223.47	1759.21
223.69	1796.07
223.91	1683.43
224.13	1732.58
224.35	1673.19
224.57	1732.58
224.78	1685.48
225.00	1630.18
225.22	1652.71
225.44	1699.81
225.66	1767.40
225.88	1703.91
226.10	1783.78
226.32	1746.92
226.53	1746.92
226.75	1685.48
226.97	1703.91
227.19	1683.43
227.41	1665.00
227.63	1578.98
227.85	1587.18
228.06	1738.73
228.28	1755.11
228.50	1681.38
228.72	1697.77
228.94	1615.85
229.16	1636.33
229.37	1703.91
229.59	1646.57
229.81	1724.39
230.03	1701.86
230.25	1648.61
230.47	1689.57
230.69	1683.43
230.90	1775.59
231.12	1599.46
231.34	1710.05
231.56	1767.40
231.78	1615.85
232.00	1695.72
232.21	1699.81
232.43	1671.14
232.65	1615.85
232.87	1755.11
233.09	1644.52
233.30	1665.00
233.52	1742.82
233.74	1687.53
233.96	1703.91
234.18	1650.66
234.40	1640.42
234.61	1748.97
234.83	1652.71
235.05	1572.84
235.27	1906.66
235.49	1732.58
235.70	1691.62
235.92	1800.16
236.14	1796.07
236.36	1824.74
236.58	1624.04
236.79	1740.77
237.01	1658.85
237.23	1658.85
237.45	1746.92
237.67	1658.85
237.88	1705.96
238.10	1791.97
238.32	1677.29
238.54	1677.29
238.76	1656.81
238.97	1667.05
239.19	1654.76
239.41	1679.33
239.63	1769.44
239.85	1632.23
240.06	1701.86
240.28	1656.81
240.50	1718.25
240.72	1728.49
240.93	1638.38
241.15	1775.59
241.37	1669.09
241.59	1796.07
241.81	1640.42
242.02	1648.61
242.24	1640.42
242.46	1775.59
242.68	1638.38
242.89	1701.86
243.11	1720.29
243.33	1683.43
243.55	1748.97
243.76	1701.86
243.98	1744.87
244.20	1757.16
244.42	1728.49
244.64	1632.23
244.85	1671.14
245.07	1673.19
245.29	1771.49
245.51	1744.87
245.72	1714.15
245.94	1765.35
246.16	1730.53
246.38	1710.05
246.59	1652.71
246.81	1685.48
247.03	1685.48
247.24	1531.88
247.46	1570.79
247.68	1677.29
247.90	1701.86
248.11	1708.01
248.33	1712.10
248.55	1718.25
248.77	1703.91
248.98	1779.68
249.20	1787.88
249.42	1681.38
249.64	1755.11
249.85	1683.43
250.07	1624.04
250.29	1738.73
250.50	1703.91
250.72	1634.28
250.94	1748.97
251.16	1863.65
251.37	1748.97
251.59	1779.68
251.81	1798.12
252.02	1796.07
252.24	1595.37
252.46	1771.49
252.68	1636.33
252.89	1656.81
253.11	1603.56
253.33	1812.45
253.54	1757.16
253.76	1636.33
253.98	1716.20
254.20	1728.49
254.41	1560.55
254.63	1794.02
254.85	1667.05
255.06	1695.72
255.28	1755.11
255.50	1656.81
255.71	1665.00
255.93	1626.09
256.15	1712.10
256.36	1744.87
256.58	1611.75
256.80	1763.30
257.02	1677.29
257.23	1732.58
257.45	1693.67
257.67	1738.73
257.88	1695.72
258.10	1703.91
258.32	1781.73
258.53	1660.90
258.75	1738.73
258.97	1646.57
259.18	1669.09
259.40	1755.11
259.62	1789.92
259.83	1841.12
260.05	1753.06
260.27	1947.62
260.48	1720.29
260.70	1626.09
260.92	1662.95
261.13	1761.25
261.35	1705.96
261.57	1761.25
261.78	1650.66
262.00	1656.81
262.22	1751.01
262.43	1638.38
262.65	1630.18
262.86	1726.44
263.08	1837.03
263.30	1671.14
263.51	1669.09
263.73	1687.53
263.95	1763.30
264.16	1675.24
264.38	1677.29
264.60	1675.24
264.81	1581.03
265.03	1738.73
265.25	1683.43
265.46	1673.19
265.68	1771.49
265.89	1677.29
266.11	1615.85
266.33	1718.25
266.54	1812.45
266.76	1802.21
266.98	1705.96
267.19	1816.55
267.41	1703.91
267.62	1728.49
267.84	1638.38
268.06	1751.01
268.27	1748.97
268.49	1746.92
268.70	1705.96
268.92	1730.53
269.14	1636.33
269.35	1636.33
269.57	1615.85
269.79	1734.63
270.00	1669.09
270.22	1773.54
270.43	1687.53
270.65	1591.27
270.87	1695.72
271.08	1669.09
271.30	1736.68
271.51	1689.57
271.73	1708.01
271.95	1814.50
272.16	1691.62
272.38	1708.01
272.59	1630.18
272.81	1689.57
273.02	1693.67
273.24	1744.87
273.46	1716.20
273.67	1630.18
273.89	1683.43
274.10	1761.25
274.32	1740.77
274.54	1751.01
274.75	1781.73
274.97	1671.14
275.18	1837.03
275.40	1687.53
275.61	1701.86
275.83	1740.77
276.05	1632.23
276.26	1755.11
276.48	1779.68
276.69	1656.81
276.91	1697.77
277.12	1812.45
277.34	1785.83
277.55	1753.06
277.77	1624.04
277.99	1701.86
278.20	1652.71
278.42	1665.00
278.63	1621.99
278.85	1621.99
279.06	1673.19
279.28	1665.00
279.49	1712.10
279.71	1726.44
279.93	1689.57
280.14	1689.57
280.36	1648.61
280.57	1748.97
280.79	1689.57
281.00	1679.33
281.22	1640.42
281.43	1740.77
281.65	1619.94
281.86	1740.77
282.08	1685.48
282.29	1822.69
282.51	1591.27
282.73	1626.09
282.94	1599.46
283.16	1708.01
283.37	1773.54
283.59	1771.49
283.80	1746.92
284.02	1669.09
284.23	1714.15
284.45	1701.86
284.66	1615.85
284.88	1648.61
285.09	1716.20
285.31	1689.57
285.52	1705.96
285.74	1660.90
285.95	1724.39
286.17	1740.77
286.38	1734.63
286.60	1634.28
286.81	1654.76
287.03	1681.38
287.24	1648.61
287.46	1740.77
287.67	1714.15
287.89	1853.41
288.10	1671.14
288.32	1738.73
288.53	1779.68
288.75	1646.57
288.96	1734.63
289.18	1720.29
289.39	1726.44
289.61	1716.20
289.82	1837.03
290.04	1740.77
290.25	1609.70
290.47	1685.48
290.68	1730.53
290.90	1775.59
291.11	1671.14
291.33	1767.40
291.54	1652.71
291.76	1669.09
291.97	1681.38
292.18	1763.30
292.40	1662.95
292.61	1656.81
292.83	1748.97
293.04	1796.07
293.26	1708.01
293.47	1705.96
293.69	1699.81
293.90	1771.49
294.12	1789.92
294.33	1693.67
294.55	1583.08
294.76	1685.48
294.97	1724.39
295.19	1814.50
295.40	1671.14
295.62	1728.49
295.83	1800.16
296.05	1726.44
296.26	1800.16
296.48	1687.53
296.69	1697.77
296.90	1740.77
297.12	1769.44
297.33	1712.10
297.55	1677.29
297.76	1777.64
297.98	1718.25
298.19	1724.39
298.41	1677.29
298.62	1626.09
298.83	1767.40
299.05	1697.77
299.26	1724.39
299.48	1734.63
299.69	1714.15
299.90	1644.52
300.12	1681.38
300.33	1716.20
300.55	1712.10
300.76	1730.53
300.98	1628.14
301.19	1667.05
301.40	1693.67
301.62	1722.34
301.83	1744.87
302.05	1771.49
302.26	1685.48
302.47	1705.96
302.69	1607.66
302.90	1675.24
303.12	1632.23
303.33	1746.92
303.54	1773.54
303.76	1615.85
303.97	1630.18
304.19	1853.41
304.40	1638.38
304.61	1699.81
304.83	1757.16
305.04	1679.33
305.26	1669.09
305.47	1628.14
305.68	1681.38
305.90	1630.18
306.11	1771.49
306.33	1734.63
306.54	1689.57
306.75	1744.87
306.97	1642.47
307.18	1660.90
307.39	1589.22
307.61	1744.87
307.82	1695.72
308.04	1724.39
308.25	1646.57
308.46	1687.53
308.68	1656.81
308.89	1699.81
309.10	1736.68
309.32	1689.57
309.53	1685.48
309.74	1677.29
309.96	1724.39
310.17	1751.01
310.39	1761.25
310.60	1820.64
310.81	1619.94
311.03	1605.61
311.24	1718.25
311.45	1755.11
311.67	1742.82
311.88	1740.77
312.09	1697.77
312.31	1587.18
312.52	1683.43
312.73	1703.91
312.95	1619.94
313.16	1695.72
313.37	1808.36
313.59	1765.35
313.80	1746.92
314.01	1781.73
314.23	1646.57
314.44	1656.81
314.65	1630.18
314.87	1630.18
315.08	1685.48
315.29	1669.09
315.51	1611.75
315.72	1695.72
315.93	1832.93
316.15	1796.07
316.36	1675.24
316.57	1718.25
316.79	1789.92
317.00	1658.85
317.21	1771.49
317.43	1628.14
317.64	1691.62
317.85	1654.76
318.07	1632.23
318.28	1765.35
318.49	1746.92
318.70	1845.22
318.92	1822.69
319.13	1839.08
319.34	1898.47
319.56	1785.83
319.77	1845.22
319.98	1742.82
320.20	1742.82
320.41	1769.44
320.62	1771.49
320.83	1581.03
321.05	1906.66
321.26	1693.67
321.47	1710.05
321.69	1820.64
321.90	1691.62
322.11	1652.71
322.32	1652.71
322.54	1775.59
322.75	1636.33
322.96	1847.27
323.18	1615.85
323.39	1615.85
323.60	1677.29
323.81	1791.97
324.03	1646.57
324.24	1626.09
324.45	1652.71
324.66	1609.70
324.88	1867.75
325.09	1748.97
325.30	1669.09
325.52	1691.62
325.73	1722.34
325.94	1728.49
326.15	1556.46
326.37	1689.57
326.58	1689.57
326.79	1777.64
327.00	1638.38
327.22	1667.05
327.43	1660.90
327.64	1671.14
327.85	1755.11
328.07	1751.01
328.28	1785.83
328.49	1636.33
328.70	1695.72
328.92	1712.10
329.13	1679.33
329.34	1640.42
329.55	1839.08
329.76	1820.64
329.98	1685.48
330.19	1763.30
330.40	1744.87
330.61	1738.73
330.83	1773.54
331.04	1626.09
331.25	1597.42
331.46	1742.82
331.68	1708.01
331.89	1765.35
332.10	1603.56
332.31	1654.76
332.52	1703.91
332.74	1775.59
332.95	1695.72
333.16	1744.87
333.37	1728.49
333.58	1681.38
333.80	1712.10
334.01	1699.81
334.22	1624.04
334.43	1679.33
334.64	1662.95
334.86	1609.70
335.07	1656.81
335.28	1789.92
335.49	1630.18
335.70	1722.34
335.92	1755.11
336.13	1781.73
336.34	1757.16
336.55	1710.05
336.76	1648.61
336.98	1656.81
337.19	1701.86
337.40	1718.25
337.61	1886.18
337.82	1708.01
338.04	1757.16
338.25	1630.18
338.46	1646.57
338.67	1677.29
338.88	1685.48
339.09	1626.09
339.31	1609.70
339.52	1687.53
339.73	1591.27
339.94	1705.96
340.15	1742.82
340.36	1767.40
340.58	1753.06
340.79	1675.24
341.00	1665.00
341.21	1632.23
341.42	1755.11
341.63	1669.09
341.85	1777.64
342.06	1714.15
342.27	1667.05
342.48	1800.16
342.69	1648.61
342.90	1763.30
343.12	1720.29
343.33	1652.71
343.54	1730.53
343.75	1802.21
343.96	1705.96
344.17	1734.63
344.38	1683.43
344.60	1607.66
344.81	1673.19
345.02	1646.57
345.23	1816.55
345.44	1777.64
345.65	1757.16
345.86	1720.29
346.07	1665.00
346.29	1687.53
346.50	1736.68
346.71	1660.90
346.92	1722.34
347.13	1798.12
347.34	1669.09
347.55	1710.05
347.76	1724.39
347.98	1578.98
348.19	1630.18
348.40	1748.97
348.61	1722.34
348.82	1820.64
349.03	1699.81
349.24	1665.00
349.45	1751.01
349.66	1611.75
349.88	1804.26
350.09	1681.38
350.30	1789.92
350.51	1775.59
350.72	1751.01
350.93	1695.72
351.14	1687.53
351.35	1697.77
351.56	1691.62
351.77	1603.56
351.99	1765.35
352.20	1742.82
352.41	1730.53
352.62	1675.24
352.83	1789.92
353.04	1691.62
353.25	1765.35
353.46	1769.44
353.67	1742.82
353.88	1714.15
354.09	1789.92
354.30	1687.53
354.52	1736.68
354.73	1662.95
354.94	1644.52
355.15	1699.81
355.36	1746.92
355.57	1679.33
355.78	1681.38
355.99	1628.14
356.20	1755.11
356.41	1732.58
356.62	1710.05
356.83	1695.72
357.04	1826.79
357.25	1642.47
357.46	1656.81
357.68	1681.38
357.89	1662.95
358.10	1677.29
358.31	1687.53
358.52	1730.53
358.73	1658.85
358.94	1708.01
359.15	1685.48
359.36	1738.73
359.57	1701.86
359.78	1732.58
359.99	1730.53
360.20	1593.32
360.41	1656.81
360.62	1728.49
360.83	1650.66
361.04	1701.86
361.25	1671.14
361.46	1900.52
361.67	1695.72
361.88	1734.63
362.09	1746.92
362.30	1701.86
362.51	1683.43
362.72	1746.92
362.93	1716.20
363.14	1837.03
363.35	1595.37
363.56	1621.99
363.78	1738.73
363.99	1746.92
364.20	1689.57
364.41	1710.05
364.62	1791.97
364.83	1781.73
365.04	1724.39
365.25	1740.77
365.46	1722.34
365.67	1675.24
365.88	1724.39
366.09	1671.14
366.30	1632.23
366.51	1714.15
366.72	1638.38
366.93	1677.29
367.14	1738.73
367.35	1785.83
367.56	1697.77
367.77	1759.21
367.98	1671.14
368.18	1710.05
368.39	1789.92
368.60	1740.77
368.81	1751.01
369.02	1699.81
369.23	1636.33
369.44	1591.27
369.65	1656.81
369.86	1656.81
370.07	1763.30
370.28	1673.19
370.49	1722.34
370.70	1722.34
370.91	1546.22
371.12	1650.66
371.33	1697.77
371.54	1626.09
371.75	1808.36
371.96	1626.09
372.17	1679.33
372.38	1662.95
372.59	1779.68
372.80	1726.44
373.01	1677.29
373.22	1748.97
373.43	1755.11
373.64	1671.14
373.85	1779.68
374.06	1796.07
374.26	1755.11
374.47	1658.85
374.68	1773.54
374.89	1705.96
375.10	1630.18
375.31	1742.82
375.52	1775.59
375.73	1714.15
375.94	1628.14
376.15	1759.21
376.36	1665.00
376.57	1587.18
376.78	1673.19
376.99	1701.86
377.20	1761.25
377.40	1669.09
377.61	1875.94
377.82	1607.66
378.03	1837.03
378.24	1806.31
378.45	1624.04
378.66	1730.53
378.87	1597.42
379.08	1669.09
379.29	1667.05
379.50	1738.73
379.71	1751.01
379.91	1800.16
380.12	1658.85
380.33	1699.81
380.54	1781.73
380.75	1634.28
380.96	1652.71
381.17	1769.44
381.38	1718.25
381.59	1785.83
381.80	1771.49
382.00	1769.44
382.21	1724.39
382.42	1777.64
382.63	1880.04
382.84	1734.63
383.05	1767.40
383.26	1748.97
383.47	1736.68
383.68	1787.88
383.88	1734.63
384.09	1640.42
384.30	1804.26
384.51	1693.67
384.72	1712.10
384.93	1640.42
385.14	1736.68
385.35	1751.01
385.55	1665.00
385.76	1746.92
385.97	1681.38
386.18	1648.61
386.39	1681.38
386.60	1665.00
386.81	1730.53
387.02	1695.72
387.22	1728.49
387.43	1767.40
387.64	1767.40
387.85	1851.36
388.06	2203.61
388.27	4345.79
388.48	6911.89
388.68	8464.25
388.89	9815.91
389.10	9965.42
389.31	8671.10
389.52	7698.31
389.73	6711.19
389.93	6289.31
390.14	5887.91
390.35	5199.79
390.56	4493.24
390.77	3735.50
390.98	3123.15
391.18	2523.10
391.39	2174.94
391.60	1816.55
391.81	1796.07
392.02	1708.01
392.23	1855.46
392.43	1705.96
392.64	1763.30
392.85	1656.81
393.06	1757.16
393.27	1742.82
393.47	1636.33
393.68	1681.38
393.89	1716.20
394.10	1804.26
394.31	1656.81
394.52	1753.06
394.72	1681.38
394.93	1806.31
395.14	1617.90
395.35	1742.82
395.56	1626.09
395.76	1732.58
395.97	1800.16
396.18	1841.12
396.39	1853.41
396.60	2023.39
396.80	1927.14
397.01	1765.35
397.22	1890.28
397.43	1871.84
397.64	1703.91
397.84	1851.36
398.05	1843.17
398.26	1800.16
398.47	1785.83
398.67	1742.82
398.88	1798.12
399.09	1722.34
399.30	1671.14
399.51	1783.78
399.71	1665.00
399.92	1716.20
400.13	1691.62
400.34	1660.90
400.54	1669.09
400.75	1857.51
400.96	1681.38
401.17	1746.92
401.37	1708.01
401.58	1691.62
401.79	1712.10
402.00	1857.51
402.21	2013.15
402.41	1923.04
402.62	1880.04
402.83	1988.58
403.04	1978.34
403.24	2019.30
403.45	1810.40
403.66	1933.28
403.87	1892.32
404.07	1886.18
404.28	1943.52
404.49	1888.23
404.70	1824.74
404.90	1751.01
405.11	1751.01
405.32	1746.92
405.52	1726.44
405.73	1656.81
405.94	1693.67
406.15	1728.49
406.35	1646.57
406.56	1771.49
406.77	1652.71
406.98	1740.77
407.18	1701.86
407.39	1812.45
407.60	1701.86
407.80	1716.20
408.01	1677.29
408.22	1675.24
408.43	1697.77
408.63	1763.30
408.84	1714.15
409.05	1787.88
409.25	1669.09
409.46	1636.33
409.67	1787.88
409.88	1687.53
410.08	1705.96
410.29	1665.00
410.50	1722.34
410.70	1703.91
410.91	1710.05
411.12	1650.66
411.32	1681.38
411.53	1691.62
411.74	1714.15
411.95	1746.92
412.15	1714.15
412.36	1775.59
412.57	1726.44
412.77	1822.69
412.98	1740.77
413.19	1638.38
413.39	1763.30
413.60	1710.05
413.81	1748.97
414.01	1613.80
414.22	1787.88
414.43	1794.02
414.63	1703.91
414.84	1710.05
415.05	1757.16
415.25	1617.90
415.46	1714.15
415.67	1767.40
415.87	1695.72
416.08	1744.87
416.29	1669.09
416.49	1703.91
416.70	1642.47
416.91	1697.77
417.11	1687.53
417.32	1697.77
417.53	1763.30
417.73	1695.72
417.94	1669.09
418.15	1677.29
418.35	1714.15
418.56	1720.29
418.77	1839.08
418.97	1701.86
419.18	1667.05
419.38	1544.17
419.59	1665.00
419.80	1845.22
420.00	1619.94
420.21	1716.20
420.42	1650.66
420.62	1746.92
420.83	1636.33
421.04	1675.24
421.24	1701.86
421.45	1687.53
421.65	1724.39
421.86	1662.95
422.07	1763.30
422.27	1783.78
422.48	1705.96
422.69	1634.28
422.89	1669.09
423.10	1642.47
423.30	1628.14
423.51	1742.82
423.72	1703.91
423.92	1798.12
424.13	1636.33
424.33	1746.92
424.54	1748.97
424.75	1751.01
424.95	1820.64
425.16	1701.86
425.36	1593.32
425.57	1701.86
425.78	1798.12
425.98	1718.25
426.19	1697.77
426.39	1636.33
426.60	1746.92
426.81	1734.63
427.01	1693.67
427.22	1671.14
427.42	1564.65
427.63	1718.25
427.83	1742.82
428.04	1796.07
428.25	1751.01
428.45	1775.59
428.66	1828.84
428.86	1570.79
429.07	1716.20
429.28	1746.92
429.48	1691.62
429.69	1662.95
429.89	1687.53
430.10	1650.66
430.30	1751.01
430.51	1771.49
430.71	1679.33
430.92	1646.57
431.13	1724.39
431.33	1710.05
431.54	1683.43
431.74	1849.32
431.95	1800.16
432.15	1624.04
432.36	1724.39
432.56	1779.68
432.77	1808.36
432.98	1839.08
433.18	1705.96
433.39	1730.53
433.59	1677.29
433.80	1794.02
434.00	1886.18
434.21	1681.38
434.41	1681.38
434.62	1806.31
434.82	1693.67
435.03	1615.85
435.23	1710.05
435.44	1632.23
435.64	1691.62
435.85	1748.97
436.06	1730.53
436.26	1734.63
436.47	1716.20
436.67	1732.58
436.88	1640.42
437.08	1712.10
437.29	1832.93
437.49	1751.01
437.70	1818.60
437.90	1687.53
438.11	1855.46
438.31	1830.88
438.52	1832.93
438.72	1824.74
438.93	1937.38
439.13	1865.70
439.34	1759.21
439.54	1716.20
439.75	1775.59
439.95	1828.84
440.16	1744.87
440.36	1738.73
440.57	1732.58
440.77	1728.49
440.98	1738.73
441.18	1763.30
441.39	1720.29
441.59	1732.58
441.80	1886.18
442.00	1712.10
442.21	1724.39
442.41	1589.22
442.62	1708.01
442.82	1677.29
443.02	1671.14
443.23	1738.73
443.43	1716.20
443.64	1796.07
443.84	1669.09
444.05	1781.73
444.25	1728.49
444.46	1720.29
444.66	1693.67
444.87	1818.60
445.07	1630.18
445.28	1783.78
445.48	1802.21
445.69	1773.54
445.89	1791.97
446.09	1779.68
446.30	2004.96
446.50	2660.31
446.71	3747.78
446.91	4333.50
447.12	4673.46
447.32	4847.54
447.53	4327.36
447.73	3942.34
447.93	3506.12
448.14	3198.93
448.34	3186.64
448.55	2940.88
448.75	2699.22
448.96	2766.81
449.16	2289.63
449.36	2328.54
449.57	2025.44
449.77	1923.04
449.98	1785.83
450.18	1804.26
450.39	1865.70
450.59	1685.48
450.79	1703.91
451.00	1757.16
451.20	1775.59
451.41	1728.49
451.61	1791.97
451.81	1773.54
452.02	1757.16
452.22	1761.25
452.43	1783.78
452.63	1765.35
