SpectraSuite Data File
++++++++++++++++++++++++++++++++++++
Date: Mon Jun 06 13:06:17 CEST 2016
User: root
Dark Spectrum Present: No
Reference Spectrum Present: No
Number of Sampled Component Spectra: 1
Spectrometers: USB4C02835
Integration Time (usec): 100000 (USB4C02835)
Spectra Averaged: 1 (USB4C02835)
Boxcar Smoothing: 0 (USB4C02835)
Correct for Electrical Dark: No (USB4C02835)
Strobe/Lamp Enabled: No (USB4C02835)
Correct for Detector Non-linearity: No (USB4C02835)
Correct for Stray Light: No (USB4C02835)
Number of Pixels in Processed Spectrum: 3648
>>>>>Begin Processed Spectral Data<<<<<
177.47	1411.05
177.69	1411.05
177.91	1411.05
178.13	1423.34
178.36	1503.21
178.58	1636.33
178.80	1687.53
179.02	1665.00
179.24	1636.33
179.46	1726.44
179.68	1662.95
179.90	1662.95
180.13	1712.10
180.35	1628.14
180.57	1660.90
180.79	1794.02
181.01	1628.14
181.23	1720.29
181.45	1751.01
181.67	1705.96
181.90	1714.15
182.12	1677.29
182.34	1589.22
182.56	1705.96
182.78	1708.01
183.00	1681.38
183.22	1656.81
183.44	1640.42
183.66	1927.14
183.89	1730.53
184.11	1697.77
184.33	1734.63
184.55	1773.54
184.77	1705.96
184.99	1714.15
185.21	1705.96
185.43	1855.46
185.65	1611.75
185.87	1691.62
186.10	1781.73
186.32	1800.16
186.54	1734.63
186.76	1734.63
186.98	1769.44
187.20	1687.53
187.42	1720.29
187.64	1652.71
187.86	1734.63
188.08	1742.82
188.30	1662.95
188.52	1712.10
188.75	1734.63
188.97	1828.84
189.19	1691.62
189.41	1689.57
189.63	1761.25
189.85	1685.48
190.07	1638.38
190.29	1710.05
190.51	1722.34
190.73	1683.43
190.95	1816.55
191.17	1679.33
191.39	1589.22
191.61	1605.61
191.84	1681.38
192.06	1763.30
192.28	1572.84
192.50	1845.22
192.72	1748.97
192.94	1624.04
193.16	1830.88
193.38	1697.77
193.60	1667.05
193.82	1701.86
194.04	1746.92
194.26	1783.78
194.48	1765.35
194.70	1765.35
194.92	1648.61
195.14	1748.97
195.36	1740.77
195.58	1732.58
195.80	1656.81
196.02	1697.77
196.24	1683.43
196.46	1748.97
196.69	1671.14
196.91	1869.80
197.13	1636.33
197.35	1634.28
197.57	1837.03
197.79	1677.29
198.01	1718.25
198.23	1730.53
198.45	1615.85
198.67	1609.70
198.89	1593.32
199.11	1675.24
199.33	1669.09
199.55	1617.90
199.77	1697.77
199.99	1699.81
200.21	1632.23
200.43	1689.57
200.65	1640.42
200.87	1558.50
201.09	1695.72
201.31	1683.43
201.53	1736.68
201.75	1701.86
201.97	1708.01
202.19	1650.66
202.41	1648.61
202.63	1736.68
202.85	1679.33
203.07	1724.39
203.29	1615.85
203.51	1722.34
203.73	1681.38
203.95	1910.75
204.17	1771.49
204.39	1683.43
204.61	1671.14
204.83	1658.85
205.05	1775.59
205.27	1697.77
205.49	1773.54
205.71	1716.20
205.93	1648.61
206.15	1677.29
206.37	1718.25
206.59	1697.77
206.81	1656.81
207.03	1611.75
207.25	1681.38
207.47	1693.67
207.69	1703.91
207.91	1767.40
208.13	1769.44
208.34	1693.67
208.56	1638.38
208.78	1703.91
209.00	1701.86
209.22	1685.48
209.44	1695.72
209.66	1705.96
209.88	1665.00
210.10	1632.23
210.32	1695.72
210.54	1771.49
210.76	1710.05
210.98	1798.12
211.20	1583.08
211.42	1722.34
211.64	1757.16
211.86	1662.95
212.08	1679.33
212.30	1660.90
212.52	1642.47
212.74	1648.61
212.96	1722.34
213.17	1712.10
213.39	1812.45
213.61	1736.68
213.83	1787.88
214.05	1673.19
214.27	1748.97
214.49	1695.72
214.71	1691.62
214.93	1742.82
215.15	1708.01
215.37	1740.77
215.59	1572.84
215.81	1726.44
216.03	1746.92
216.24	1783.78
216.46	1632.23
216.68	1699.81
216.90	1763.30
217.12	1716.20
217.34	1744.87
217.56	1798.12
217.78	1755.11
218.00	1689.57
218.22	1650.66
218.44	1699.81
218.66	1726.44
218.87	1828.84
219.09	1679.33
219.31	1738.73
219.53	1675.24
219.75	1652.71
219.97	1699.81
220.19	1712.10
220.41	1705.96
220.63	1757.16
220.85	1662.95
221.06	1628.14
221.28	1728.49
221.50	1685.48
221.72	1689.57
221.94	1705.96
222.16	1675.24
222.38	1732.58
222.60	1751.01
222.82	1632.23
223.03	1726.44
223.25	1595.37
223.47	1740.77
223.69	1705.96
223.91	1705.96
224.13	1667.05
224.35	1716.20
224.57	1697.77
224.78	1732.58
225.00	1654.76
225.22	1697.77
225.44	1806.31
225.66	1685.48
225.88	1683.43
226.10	1765.35
226.32	1697.77
226.53	1781.73
226.75	1628.14
226.97	1751.01
227.19	1783.78
227.41	1603.56
227.63	1714.15
227.85	1689.57
228.06	1650.66
228.28	1667.05
228.50	1742.82
228.72	1726.44
228.94	1665.00
229.16	1607.66
229.37	1648.61
229.59	1728.49
229.81	1746.92
230.03	1703.91
230.25	1697.77
230.47	1658.85
230.69	1624.04
230.90	1746.92
231.12	1681.38
231.34	1705.96
231.56	1736.68
231.78	1691.62
232.00	1685.48
232.21	1679.33
232.43	1605.61
232.65	1615.85
232.87	1705.96
233.09	1652.71
233.30	1626.09
233.52	1789.92
233.74	1716.20
233.96	1787.88
234.18	1724.39
234.40	1705.96
234.61	1736.68
234.83	1648.61
235.05	1624.04
235.27	1869.80
235.49	1800.16
235.70	1675.24
235.92	1779.68
236.14	1679.33
236.36	1826.79
236.58	1638.38
236.79	1751.01
237.01	1705.96
237.23	1652.71
237.45	1845.22
237.67	1638.38
237.88	1746.92
238.10	1837.03
238.32	1660.90
238.54	1718.25
238.76	1714.15
238.97	1675.24
239.19	1675.24
239.41	1667.05
239.63	1783.78
239.85	1681.38
240.06	1656.81
240.28	1665.00
240.50	1724.39
240.72	1804.26
240.93	1687.53
241.15	1818.60
241.37	1628.14
241.59	1787.88
241.81	1638.38
242.02	1773.54
242.24	1814.50
242.46	1744.87
242.68	1603.56
242.89	1705.96
243.11	1705.96
243.33	1722.34
243.55	1730.53
243.76	1656.81
243.98	1685.48
244.20	1710.05
244.42	1701.86
244.64	1697.77
244.85	1648.61
245.07	1689.57
245.29	1730.53
245.51	1675.24
245.72	1675.24
245.94	1718.25
246.16	1742.82
246.38	1716.20
246.59	1671.14
246.81	1701.86
247.03	1632.23
247.24	1609.70
247.46	1679.33
247.68	1642.47
247.90	1681.38
248.11	1628.14
248.33	1808.36
248.55	1732.58
248.77	1683.43
248.98	1822.69
249.20	1828.84
249.42	1751.01
249.64	1714.15
249.85	1722.34
250.07	1603.56
250.29	1712.10
250.50	1806.31
250.72	1669.09
250.94	1746.92
251.16	1742.82
251.37	1765.35
251.59	1705.96
251.81	1724.39
252.02	1767.40
252.24	1712.10
252.46	1748.97
252.68	1621.99
252.89	1632.23
253.11	1634.28
253.33	1773.54
253.54	1787.88
253.76	1656.81
253.98	1669.09
254.20	1783.78
254.41	1624.04
254.63	1730.53
254.85	1634.28
255.06	1697.77
255.28	1710.05
255.50	1689.57
255.71	1708.01
255.93	1578.98
256.15	1689.57
256.36	1808.36
256.58	1697.77
256.80	1724.39
257.02	1705.96
257.23	1660.90
257.45	1718.25
257.67	1763.30
257.88	1681.38
258.10	1673.19
258.32	1789.92
258.53	1708.01
258.75	1789.92
258.97	1619.94
259.18	1767.40
259.40	1667.05
259.62	1853.41
259.83	1728.49
260.05	1728.49
260.27	1988.58
260.48	1705.96
260.70	1607.66
260.92	1619.94
261.13	1691.62
261.35	1630.18
261.57	1724.39
261.78	1593.32
262.00	1665.00
262.22	1671.14
262.43	1621.99
262.65	1708.01
262.86	1646.57
263.08	1705.96
263.30	1794.02
263.51	1613.80
263.73	1673.19
263.95	1783.78
264.16	1609.70
264.38	1656.81
264.60	1787.88
264.81	1630.18
265.03	1703.91
265.25	1716.20
265.46	1736.68
265.68	1806.31
265.89	1738.73
266.11	1562.60
266.33	1765.35
266.54	1789.92
266.76	1740.77
266.98	1763.30
267.19	1724.39
267.41	1818.60
267.62	1703.91
267.84	1591.27
268.06	1751.01
268.27	1705.96
268.49	1738.73
268.70	1767.40
268.92	1724.39
269.14	1654.76
269.35	1630.18
269.57	1701.86
269.79	1724.39
270.00	1671.14
270.22	1742.82
270.43	1675.24
270.65	1581.03
270.87	1802.21
271.08	1755.11
271.30	1683.43
271.51	1753.06
271.73	1720.29
271.95	1804.26
272.16	1724.39
272.38	1593.32
272.59	1714.15
272.81	1718.25
273.02	1769.44
273.24	1683.43
273.46	1712.10
273.67	1593.32
273.89	1689.57
274.10	1656.81
274.32	1779.68
274.54	1734.63
274.75	1722.34
274.97	1599.46
275.18	1730.53
275.40	1714.15
275.61	1648.61
275.83	1705.96
276.05	1613.80
276.26	1687.53
276.48	1740.77
276.69	1675.24
276.91	1640.42
277.12	1810.40
277.34	1730.53
277.55	1687.53
277.77	1669.09
277.99	1691.62
278.20	1609.70
278.42	1650.66
278.63	1607.66
278.85	1765.35
279.06	1638.38
279.28	1685.48
279.49	1734.63
279.71	1763.30
279.93	1648.61
280.14	1712.10
280.36	1662.95
280.57	1787.88
280.79	1705.96
281.00	1634.28
281.22	1730.53
281.43	1791.97
281.65	1646.57
281.86	1644.52
282.08	1738.73
282.29	1755.11
282.51	1607.66
282.73	1640.42
282.94	1576.94
283.16	1687.53
283.37	1787.88
283.59	1712.10
283.80	1738.73
284.02	1693.67
284.23	1687.53
284.45	1654.76
284.66	1652.71
284.88	1634.28
285.09	1751.01
285.31	1683.43
285.52	1703.91
285.74	1617.90
285.95	1757.16
286.17	1755.11
286.38	1755.11
286.60	1701.86
286.81	1693.67
287.03	1726.44
287.24	1628.14
287.46	1765.35
287.67	1712.10
287.89	1779.68
288.10	1648.61
288.32	1665.00
288.53	1720.29
288.75	1693.67
288.96	1814.50
289.18	1701.86
289.39	1681.38
289.61	1738.73
289.82	1769.44
290.04	1888.23
290.25	1654.76
290.47	1701.86
290.68	1646.57
290.90	1751.01
291.11	1683.43
291.33	1775.59
291.54	1591.27
291.76	1691.62
291.97	1701.86
292.18	1724.39
292.40	1652.71
292.61	1628.14
292.83	1779.68
293.04	1714.15
293.26	1640.42
293.47	1628.14
293.69	1626.09
293.90	1658.85
294.12	1806.31
294.33	1701.86
294.55	1677.29
294.76	1738.73
294.97	1763.30
295.19	1851.36
295.40	1662.95
295.62	1736.68
295.83	1724.39
296.05	1724.39
296.26	1796.07
296.48	1644.52
296.69	1665.00
296.90	1701.86
297.12	1779.68
297.33	1742.82
297.55	1708.01
297.76	1746.92
297.98	1761.25
298.19	1675.24
298.41	1662.95
298.62	1587.18
298.83	1722.34
299.05	1755.11
299.26	1703.91
299.48	1671.14
299.69	1652.71
299.90	1712.10
300.12	1683.43
300.33	1695.72
300.55	1683.43
300.76	1720.29
300.98	1679.33
301.19	1748.97
301.40	1673.19
301.62	1789.92
301.83	1658.85
302.05	1640.42
302.26	1687.53
302.47	1781.73
302.69	1697.77
302.90	1681.38
303.12	1548.26
303.33	1757.16
303.54	1751.01
303.76	1718.25
303.97	1673.19
304.19	1771.49
304.40	1638.38
304.61	1732.58
304.83	1777.64
305.04	1789.92
305.26	1660.90
305.47	1660.90
305.68	1665.00
305.90	1609.70
306.11	1736.68
306.33	1646.57
306.54	1652.71
306.75	1673.19
306.97	1611.75
307.18	1632.23
307.39	1708.01
307.61	1746.92
307.82	1658.85
308.04	1689.57
308.25	1646.57
308.46	1681.38
308.68	1736.68
308.89	1669.09
309.10	1759.21
309.32	1728.49
309.53	1640.42
309.74	1767.40
309.96	1673.19
310.17	1673.19
310.39	1730.53
310.60	1724.39
310.81	1656.81
311.03	1675.24
311.24	1800.16
311.45	1617.90
311.67	1826.79
311.88	1710.05
312.09	1679.33
312.31	1726.44
312.52	1626.09
312.73	1691.62
312.95	1619.94
313.16	1628.14
313.37	1712.10
313.59	1703.91
313.80	1787.88
314.01	1744.87
314.23	1613.80
314.44	1576.94
314.65	1628.14
314.87	1722.34
315.08	1730.53
315.29	1626.09
315.51	1699.81
315.72	1578.98
315.93	1777.64
316.15	1759.21
316.36	1656.81
316.57	1730.53
316.79	1783.78
317.00	1699.81
317.21	1685.48
317.43	1636.33
317.64	1740.77
317.85	1667.05
318.07	1701.86
318.28	1718.25
318.49	1751.01
318.70	1877.99
318.92	1851.36
319.13	1818.60
319.34	1837.03
319.56	1798.12
319.77	1714.15
319.98	1820.64
320.20	1753.06
320.41	1761.25
320.62	1730.53
320.83	1640.42
321.05	1841.12
321.26	1794.02
321.47	1736.68
321.69	1841.12
321.90	1714.15
322.11	1640.42
322.32	1714.15
322.54	1802.21
322.75	1609.70
322.96	1728.49
323.18	1656.81
323.39	1656.81
323.60	1679.33
323.81	1738.73
324.03	1691.62
324.24	1718.25
324.45	1683.43
324.66	1687.53
324.88	1716.20
325.09	1708.01
325.30	1722.34
325.52	1669.09
325.73	1714.15
325.94	1654.76
326.15	1634.28
326.37	1730.53
326.58	1808.36
326.79	1773.54
327.00	1654.76
327.22	1673.19
327.43	1654.76
327.64	1632.23
327.85	1656.81
328.07	1769.44
328.28	1783.78
328.49	1650.66
328.70	1748.97
328.92	1681.38
329.13	1685.48
329.34	1695.72
329.55	1814.50
329.76	1753.06
329.98	1638.38
330.19	1775.59
330.40	1716.20
330.61	1722.34
330.83	1730.53
331.04	1671.14
331.25	1701.86
331.46	1636.33
331.68	1585.13
331.89	1773.54
332.10	1624.04
332.31	1697.77
332.52	1722.34
332.74	1826.79
332.95	1652.71
333.16	1683.43
333.37	1779.68
333.58	1689.57
333.80	1740.77
334.01	1617.90
334.22	1669.09
334.43	1685.48
334.64	1763.30
334.86	1603.56
335.07	1605.61
335.28	1826.79
335.49	1650.66
335.70	1708.01
335.92	1796.07
336.13	1796.07
336.34	1673.19
336.55	1673.19
336.76	1617.90
336.98	1632.23
337.19	1708.01
337.40	1769.44
337.61	1767.40
337.82	1660.90
338.04	1720.29
338.25	1609.70
338.46	1671.14
338.67	1665.00
338.88	1617.90
339.09	1595.37
339.31	1644.52
339.52	1574.89
339.73	1636.33
339.94	1660.90
340.15	1740.77
340.36	1648.61
340.58	1656.81
340.79	1667.05
341.00	1736.68
341.21	1566.70
341.42	1710.05
341.63	1636.33
341.85	1722.34
342.06	1820.64
342.27	1648.61
342.48	1753.06
342.69	1597.42
342.90	1751.01
343.12	1681.38
343.33	1705.96
343.54	1720.29
343.75	1800.16
343.96	1675.24
344.17	1748.97
344.38	1689.57
344.60	1691.62
344.81	1673.19
345.02	1634.28
345.23	1738.73
345.44	1748.97
345.65	1697.77
345.86	1791.97
346.07	1722.34
346.29	1660.90
346.50	1800.16
346.71	1699.81
346.92	1718.25
347.13	1828.84
347.34	1648.61
347.55	1679.33
347.76	1748.97
347.98	1609.70
348.19	1628.14
348.40	1769.44
348.61	1730.53
348.82	1802.21
349.03	1742.82
349.24	1613.80
349.45	1804.26
349.66	1634.28
349.88	1665.00
350.09	1636.33
350.30	1650.66
350.51	1712.10
350.72	1769.44
350.93	1718.25
351.14	1648.61
351.35	1708.01
351.56	1710.05
351.77	1669.09
351.99	1734.63
352.20	1779.68
352.41	1761.25
352.62	1587.18
352.83	1681.38
353.04	1701.86
353.25	1699.81
353.46	1810.40
353.67	1708.01
353.88	1576.94
354.09	1652.71
354.30	1777.64
354.52	1714.15
354.73	1648.61
354.94	1673.19
355.15	1759.21
355.36	1800.16
355.57	1714.15
355.78	1673.19
355.99	1718.25
356.20	1730.53
356.41	1730.53
356.62	1699.81
356.83	1675.24
357.04	1757.16
357.25	1656.81
357.46	1724.39
357.68	1558.50
357.89	1652.71
358.10	1642.47
358.31	1685.48
358.52	1658.85
358.73	1613.80
358.94	1683.43
359.15	1595.37
359.36	1701.86
359.57	1652.71
359.78	1675.24
359.99	1722.34
360.20	1701.86
360.41	1685.48
360.62	1665.00
360.83	1685.48
361.04	1746.92
361.25	1759.21
361.46	1908.71
361.67	1728.49
361.88	1703.91
362.09	1732.58
362.30	1746.92
362.51	1697.77
362.72	1689.57
362.93	1724.39
363.14	1671.14
363.35	1687.53
363.56	1714.15
363.78	1818.60
363.99	1722.34
364.20	1630.18
364.41	1683.43
364.62	1775.59
364.83	1693.67
365.04	1658.85
365.25	1685.48
365.46	1773.54
365.67	1638.38
365.88	1675.24
366.09	1757.16
366.30	1656.81
366.51	1601.51
366.72	1697.77
366.93	1644.52
367.14	1724.39
367.35	1806.31
367.56	1701.86
367.77	1789.92
367.98	1720.29
368.18	1656.81
368.39	1755.11
368.60	1667.05
368.81	1683.43
369.02	1710.05
369.23	1736.68
369.44	1593.32
369.65	1724.39
369.86	1748.97
370.07	1677.29
370.28	1730.53
370.49	1730.53
370.70	1689.57
370.91	1673.19
371.12	1615.85
371.33	1810.40
371.54	1689.57
371.75	1812.45
371.96	1597.42
372.17	1701.86
372.38	1755.11
372.59	1789.92
372.80	1685.48
373.01	1673.19
373.22	1728.49
373.43	1671.14
373.64	1656.81
373.85	1695.72
374.06	1816.55
374.26	1734.63
374.47	1656.81
374.68	1832.93
374.89	1683.43
375.10	1714.15
375.31	1748.97
375.52	1648.61
375.73	1662.95
375.94	1628.14
376.15	1798.12
376.36	1703.91
376.57	1658.85
376.78	1658.85
376.99	1740.77
377.20	1787.88
377.40	1656.81
377.61	1869.80
377.82	1632.23
378.03	1781.73
378.24	1714.15
378.45	1673.19
378.66	1683.43
378.87	1650.66
379.08	1615.85
379.29	1626.09
379.50	1781.73
379.71	1626.09
379.91	1824.74
380.12	1744.87
380.33	1763.30
380.54	1738.73
380.75	1718.25
380.96	1691.62
381.17	1722.34
381.38	1767.40
381.59	1728.49
381.80	1748.97
382.00	1906.66
382.21	1677.29
382.42	1820.64
382.63	1800.16
382.84	1767.40
383.05	1757.16
383.26	1800.16
383.47	1804.26
383.68	1718.25
383.88	1800.16
384.09	1681.38
384.30	1800.16
384.51	1708.01
384.72	1687.53
384.93	1615.85
385.14	1751.01
385.35	1730.53
385.55	1607.66
385.76	1787.88
385.97	1705.96
386.18	1595.37
386.39	1658.85
386.60	1644.52
386.81	1746.92
387.02	1593.32
387.22	1656.81
387.43	1785.83
387.64	1728.49
387.85	1918.95
388.06	2263.01
388.27	4218.82
388.48	6664.09
388.68	8169.35
388.89	9478.00
389.10	9727.85
389.31	8472.45
389.52	7798.66
389.73	6688.67
389.93	6305.70
390.14	5949.35
390.35	5162.93
390.56	4702.14
390.77	3913.67
390.98	3063.76
391.18	2541.53
391.39	2158.56
391.60	1810.40
391.81	1847.27
392.02	1724.39
392.23	1837.03
392.43	1718.25
392.64	1789.92
392.85	1708.01
393.06	1857.51
393.27	1714.15
393.47	1665.00
393.68	1681.38
393.89	1755.11
394.10	1753.06
394.31	1679.33
394.52	1658.85
394.72	1660.90
394.93	1746.92
395.14	1658.85
395.35	1665.00
395.56	1681.38
395.76	1759.21
395.97	1822.69
396.18	1738.73
396.39	1828.84
396.60	2033.63
396.80	1800.16
397.01	1847.27
397.22	1849.32
397.43	1832.93
397.64	1734.63
397.84	1738.73
398.05	1826.79
398.26	1759.21
398.47	1712.10
398.67	1820.64
398.88	1693.67
399.09	1738.73
399.30	1679.33
399.51	1744.87
399.71	1644.52
399.92	1578.98
400.13	1699.81
400.34	1730.53
400.54	1720.29
400.75	1794.02
400.96	1728.49
401.17	1765.35
401.37	1726.44
401.58	1656.81
401.79	1755.11
402.00	1859.56
402.21	2041.82
402.41	1925.09
402.62	2068.45
402.83	2033.63
403.04	2058.21
403.24	2088.93
403.45	1865.70
403.66	1851.36
403.87	1910.75
404.07	1816.55
404.28	1959.91
404.49	1877.99
404.70	1777.64
404.90	1757.16
405.11	1757.16
405.32	1763.30
405.52	1724.39
405.73	1677.29
405.94	1665.00
406.15	1714.15
406.35	1761.25
406.56	1800.16
406.77	1718.25
406.98	1771.49
407.18	1675.24
407.39	1783.78
407.60	1613.80
407.80	1738.73
408.01	1624.04
408.22	1744.87
408.43	1611.75
408.63	1787.88
408.84	1675.24
409.05	1722.34
409.25	1589.22
409.46	1644.52
409.67	1640.42
409.88	1691.62
410.08	1763.30
410.29	1648.61
410.50	1787.88
410.70	1673.19
410.91	1626.09
411.12	1757.16
411.32	1789.92
411.53	1677.29
411.74	1705.96
411.95	1771.49
412.15	1841.12
412.36	1708.01
412.57	1742.82
412.77	1738.73
412.98	1716.20
413.19	1642.47
413.39	1712.10
413.60	1806.31
413.81	1880.04
414.01	1644.52
414.22	1771.49
414.43	1683.43
414.63	1660.90
414.84	1744.87
415.05	1738.73
415.25	1665.00
415.46	1710.05
415.67	1691.62
415.87	1669.09
416.08	1689.57
416.29	1714.15
416.49	1751.01
416.70	1665.00
416.91	1581.03
417.11	1742.82
417.32	1746.92
417.53	1769.44
417.73	1638.38
417.94	1728.49
418.15	1636.33
418.35	1712.10
418.56	1689.57
418.77	1832.93
418.97	1671.14
419.18	1757.16
419.38	1560.55
419.59	1652.71
419.80	1816.55
420.00	1660.90
420.21	1771.49
420.42	1689.57
420.62	1740.77
420.83	1648.61
421.04	1646.57
421.24	1734.63
421.45	1787.88
421.65	1773.54
421.86	1681.38
422.07	1714.15
422.27	1685.48
422.48	1656.81
422.69	1761.25
422.89	1681.38
423.10	1716.20
423.30	1710.05
423.51	1740.77
423.72	1679.33
423.92	1671.14
424.13	1603.56
424.33	1665.00
424.54	1730.53
424.75	1724.39
424.95	1789.92
425.16	1775.59
425.36	1712.10
425.57	1763.30
425.78	1734.63
425.98	1726.44
426.19	1675.24
426.39	1658.85
426.60	1785.83
426.81	1781.73
427.01	1705.96
427.22	1669.09
427.42	1646.57
427.63	1630.18
427.83	1773.54
428.04	1837.03
428.25	1834.98
428.45	1775.59
428.66	1789.92
428.86	1662.95
429.07	1669.09
429.28	1759.21
429.48	1691.62
429.69	1697.77
429.89	1783.78
430.10	1609.70
430.30	1693.67
430.51	1681.38
430.71	1683.43
430.92	1699.81
431.13	1634.28
431.33	1656.81
431.54	1699.81
431.74	1808.36
431.95	1806.31
432.15	1624.04
432.36	1701.86
432.56	1763.30
432.77	1759.21
432.98	1865.70
433.18	1718.25
433.39	1710.05
433.59	1630.18
433.80	1761.25
434.00	1812.45
434.21	1665.00
434.41	1716.20
434.62	1839.08
434.82	1630.18
435.03	1628.14
435.23	1794.02
435.44	1638.38
435.64	1763.30
435.85	1673.19
436.06	1730.53
436.26	1751.01
436.47	1722.34
436.67	1695.72
436.88	1652.71
437.08	1683.43
437.29	1779.68
437.49	1718.25
437.70	1773.54
437.90	1718.25
438.11	1851.36
438.31	1796.07
438.52	1845.22
438.72	1812.45
438.93	1902.56
439.13	1787.88
439.34	1832.93
439.54	1705.96
439.75	1822.69
439.95	1703.91
440.16	1738.73
440.36	1710.05
440.57	1714.15
440.77	1691.62
440.98	1726.44
441.18	1722.34
441.39	1689.57
441.59	1720.29
441.80	1804.26
442.00	1691.62
442.21	1796.07
442.41	1712.10
442.62	1781.73
442.82	1648.61
443.02	1701.86
443.23	1759.21
443.43	1665.00
443.64	1814.50
443.84	1677.29
444.05	1755.11
444.25	1724.39
444.46	1716.20
444.66	1683.43
444.87	1837.03
445.07	1656.81
445.28	1773.54
445.48	1806.31
445.69	1746.92
445.89	1830.88
446.09	1746.92
446.30	2000.87
446.50	2703.32
446.71	3643.34
446.91	4351.93
447.12	4695.99
447.32	4765.62
447.53	4456.38
447.73	3821.51
447.93	3569.61
448.14	3280.85
448.34	3198.93
448.55	2947.03
448.75	2813.91
448.96	2605.02
449.16	2439.13
449.36	2275.29
449.57	2002.91
449.77	1980.39
449.98	1814.50
450.18	1837.03
450.39	1888.23
450.59	1785.83
450.79	1787.88
451.00	1751.01
451.20	1794.02
451.41	1732.58
451.61	1773.54
451.81	1794.02
452.02	1648.61
452.22	1724.39
452.43	1712.10
452.63	1624.04
