SpectraSuite Data File
++++++++++++++++++++++++++++++++++++
Date: Mon Jun 06 17:36:17 CEST 2016
User: root
Dark Spectrum Present: No
Reference Spectrum Present: No
Number of Sampled Component Spectra: 1
Spectrometers: USB4C02835
Integration Time (usec): 100000 (USB4C02835)
Spectra Averaged: 1 (USB4C02835)
Boxcar Smoothing: 0 (USB4C02835)
Correct for Electrical Dark: No (USB4C02835)
Strobe/Lamp Enabled: No (USB4C02835)
Correct for Detector Non-linearity: No (USB4C02835)
Correct for Stray Light: No (USB4C02835)
Number of Pixels in Processed Spectrum: 3648
>>>>>Begin Processed Spectral Data<<<<<
177.47	1495.02
177.69	1495.02
177.91	1495.02
178.13	1480.68
178.36	1443.82
178.58	1648.61
178.80	1789.92
179.02	1599.46
179.24	1642.47
179.46	1677.29
179.68	1740.77
179.90	1734.63
180.13	1775.59
180.35	1634.28
180.57	1689.57
180.79	1720.29
181.01	1736.68
181.23	1785.83
181.45	1884.13
181.67	1712.10
181.90	1812.45
182.12	1671.14
182.34	1742.82
182.56	1761.25
182.78	1718.25
183.00	1746.92
183.22	1685.48
183.44	1662.95
183.66	1890.28
183.89	1771.49
184.11	1724.39
184.33	1783.78
184.55	1759.21
184.77	1720.29
184.99	1718.25
185.21	1710.05
185.43	1937.38
185.65	1640.42
185.87	1769.44
186.10	1794.02
186.32	1839.08
186.54	1755.11
186.76	1695.72
186.98	1738.73
187.20	1693.67
187.42	1656.81
187.64	1718.25
187.86	1726.44
188.08	1787.88
188.30	1665.00
188.52	1701.86
188.75	1671.14
188.97	1796.07
189.19	1669.09
189.41	1615.85
189.63	1765.35
189.85	1701.86
190.07	1595.37
190.29	1648.61
190.51	1757.16
190.73	1640.42
190.95	1855.46
191.17	1671.14
191.39	1638.38
191.61	1665.00
191.84	1748.97
192.06	1740.77
192.28	1597.42
192.50	1920.99
192.72	1763.30
192.94	1615.85
193.16	1794.02
193.38	1777.64
193.60	1585.13
193.82	1732.58
194.04	1769.44
194.26	1767.40
194.48	1738.73
194.70	1740.77
194.92	1697.77
195.14	1789.92
195.36	1693.67
195.58	1683.43
195.80	1667.05
196.02	1665.00
196.24	1697.77
196.46	1732.58
196.69	1656.81
196.91	1822.69
197.13	1708.01
197.35	1677.29
197.57	1777.64
197.79	1757.16
198.01	1791.97
198.23	1837.03
198.45	1769.44
198.67	1685.48
198.89	1689.57
199.11	1642.47
199.33	1658.85
199.55	1560.55
199.77	1667.05
199.99	1779.68
200.21	1736.68
200.43	1746.92
200.65	1751.01
200.87	1667.05
201.09	1732.58
201.31	1665.00
201.53	1763.30
201.75	1755.11
201.97	1640.42
202.19	1734.63
202.41	1775.59
202.63	1816.55
202.85	1687.53
203.07	1753.06
203.29	1697.77
203.51	1693.67
203.73	1718.25
203.95	1873.89
204.17	1765.35
204.39	1769.44
204.61	1753.06
204.83	1732.58
205.05	1730.53
205.27	1757.16
205.49	1789.92
205.71	1724.39
205.93	1701.86
206.15	1687.53
206.37	1691.62
206.59	1742.82
206.81	1681.38
207.03	1726.44
207.25	1621.99
207.47	1714.15
207.69	1734.63
207.91	1896.42
208.13	1802.21
208.34	1746.92
208.56	1662.95
208.78	1736.68
209.00	1738.73
209.22	1636.33
209.44	1734.63
209.66	1656.81
209.88	1701.86
210.10	1697.77
210.32	1701.86
210.54	1775.59
210.76	1705.96
210.98	1794.02
211.20	1679.33
211.42	1751.01
211.64	1730.53
211.86	1748.97
212.08	1697.77
212.30	1746.92
212.52	1751.01
212.74	1685.48
212.96	1740.77
213.17	1751.01
213.39	1728.49
213.61	1816.55
213.83	1708.01
214.05	1660.90
214.27	1740.77
214.49	1613.80
214.71	1619.94
214.93	1724.39
215.15	1767.40
215.37	1740.77
215.59	1632.23
215.81	1740.77
216.03	1806.31
216.24	1722.34
216.46	1708.01
216.68	1742.82
216.90	1765.35
217.12	1787.88
217.34	1746.92
217.56	1708.01
217.78	1804.26
218.00	1771.49
218.22	1765.35
218.44	1763.30
218.66	1718.25
218.87	1705.96
219.09	1593.32
219.31	1748.97
219.53	1703.91
219.75	1646.57
219.97	1726.44
220.19	1767.40
220.41	1652.71
220.63	1718.25
220.85	1744.87
221.06	1705.96
221.28	1884.13
221.50	1714.15
221.72	1673.19
221.94	1660.90
222.16	1738.73
222.38	1679.33
222.60	1738.73
222.82	1722.34
223.03	1734.63
223.25	1697.77
223.47	1703.91
223.69	1853.41
223.91	1742.82
224.13	1677.29
224.35	1740.77
224.57	1734.63
224.78	1779.68
225.00	1658.85
225.22	1652.71
225.44	1746.92
225.66	1685.48
225.88	1775.59
226.10	1724.39
226.32	1769.44
226.53	1746.92
226.75	1722.34
226.97	1710.05
227.19	1767.40
227.41	1765.35
227.63	1695.72
227.85	1667.05
228.06	1759.21
228.28	1685.48
228.50	1781.73
228.72	1669.09
228.94	1673.19
229.16	1597.42
229.37	1644.52
229.59	1675.24
229.81	1742.82
230.03	1685.48
230.25	1578.98
230.47	1708.01
230.69	1640.42
230.90	1787.88
231.12	1693.67
231.34	1751.01
231.56	1736.68
231.78	1578.98
232.00	1665.00
232.21	1693.67
232.43	1613.80
232.65	1652.71
232.87	1728.49
233.09	1693.67
233.30	1626.09
233.52	1785.83
233.74	1667.05
233.96	1740.77
234.18	1806.31
234.40	1677.29
234.61	1855.46
234.83	1671.14
235.05	1595.37
235.27	1882.08
235.49	1757.16
235.70	1669.09
235.92	1791.97
236.14	1732.58
236.36	1894.37
236.58	1589.22
236.79	1787.88
237.01	1660.90
237.23	1697.77
237.45	1810.40
237.67	1728.49
237.88	1685.48
238.10	1851.36
238.32	1652.71
238.54	1685.48
238.76	1712.10
238.97	1673.19
239.19	1677.29
239.41	1755.11
239.63	1818.60
239.85	1726.44
240.06	1730.53
240.28	1755.11
240.50	1687.53
240.72	1703.91
240.93	1699.81
241.15	1769.44
241.37	1687.53
241.59	1787.88
241.81	1683.43
242.02	1714.15
242.24	1824.74
242.46	1712.10
242.68	1660.90
242.89	1779.68
243.11	1746.92
243.33	1675.24
243.55	1701.86
243.76	1820.64
243.98	1683.43
244.20	1728.49
244.42	1769.44
244.64	1716.20
244.85	1658.85
245.07	1689.57
245.29	1720.29
245.51	1671.14
245.72	1683.43
245.94	1748.97
246.16	1681.38
246.38	1767.40
246.59	1673.19
246.81	1732.58
247.03	1748.97
247.24	1583.08
247.46	1644.52
247.68	1732.58
247.90	1673.19
248.11	1689.57
248.33	1789.92
248.55	1714.15
248.77	1722.34
248.98	1777.64
249.20	1789.92
249.42	1769.44
249.64	1773.54
249.85	1738.73
250.07	1728.49
250.29	1732.58
250.50	1779.68
250.72	1611.75
250.94	1789.92
251.16	1845.22
251.37	1761.25
251.59	1742.82
251.81	1675.24
252.02	1794.02
252.24	1728.49
252.46	1718.25
252.68	1673.19
252.89	1693.67
253.11	1660.90
253.33	1851.36
253.54	1834.98
253.76	1695.72
253.98	1701.86
254.20	1724.39
254.41	1683.43
254.63	1744.87
254.85	1585.13
255.06	1669.09
255.28	1783.78
255.50	1701.86
255.71	1683.43
255.93	1665.00
256.15	1689.57
256.36	1748.97
256.58	1673.19
256.80	1724.39
257.02	1703.91
257.23	1662.95
257.45	1765.35
257.67	1808.36
257.88	1705.96
258.10	1759.21
258.32	1665.00
258.53	1779.68
258.75	1804.26
258.97	1716.20
259.18	1716.20
259.40	1771.49
259.62	1837.03
259.83	1763.30
260.05	1712.10
260.27	2013.15
260.48	1841.12
260.70	1730.53
260.92	1681.38
261.13	1689.57
261.35	1624.04
261.57	1722.34
261.78	1642.47
262.00	1687.53
262.22	1796.07
262.43	1701.86
262.65	1685.48
262.86	1736.68
263.08	1851.36
263.30	1720.29
263.51	1593.32
263.73	1714.15
263.95	1804.26
264.16	1726.44
264.38	1722.34
264.60	1771.49
264.81	1791.97
265.03	1740.77
265.25	1759.21
265.46	1708.01
265.68	1734.63
265.89	1726.44
266.11	1689.57
266.33	1767.40
266.54	1736.68
266.76	1714.15
266.98	1796.07
267.19	1802.21
267.41	1828.84
267.62	1736.68
267.84	1611.75
268.06	1806.31
268.27	1761.25
268.49	1783.78
268.70	1761.25
268.92	1775.59
269.14	1669.09
269.35	1609.70
269.57	1755.11
269.79	1748.97
270.00	1687.53
270.22	1808.36
270.43	1665.00
270.65	1662.95
270.87	1738.73
271.08	1714.15
271.30	1796.07
271.51	1705.96
271.73	1763.30
271.95	1738.73
272.16	1757.16
272.38	1722.34
272.59	1726.44
272.81	1724.39
273.02	1712.10
273.24	1800.16
273.46	1763.30
273.67	1673.19
273.89	1722.34
274.10	1611.75
274.32	1728.49
274.54	1748.97
274.75	1824.74
274.97	1689.57
275.18	1777.64
275.40	1738.73
275.61	1683.43
275.83	1779.68
276.05	1617.90
276.26	1615.85
276.48	1710.05
276.69	1693.67
276.91	1638.38
277.12	1832.93
277.34	1755.11
277.55	1806.31
277.77	1712.10
277.99	1656.81
278.20	1501.16
278.42	1648.61
278.63	1667.05
278.85	1619.94
279.06	1697.77
279.28	1773.54
279.49	1714.15
279.71	1763.30
279.93	1681.38
280.14	1748.97
280.36	1673.19
280.57	1812.45
280.79	1736.68
281.00	1603.56
281.22	1679.33
281.43	1728.49
281.65	1673.19
281.86	1681.38
282.08	1662.95
282.29	1787.88
282.51	1615.85
282.73	1601.51
282.94	1634.28
283.16	1714.15
283.37	1816.55
283.59	1751.01
283.80	1783.78
284.02	1726.44
284.23	1669.09
284.45	1617.90
284.66	1677.29
284.88	1652.71
285.09	1732.58
285.31	1742.82
285.52	1748.97
285.74	1619.94
285.95	1734.63
286.17	1740.77
286.38	1861.60
286.60	1734.63
286.81	1714.15
287.03	1683.43
287.24	1742.82
287.46	1716.20
287.67	1728.49
287.89	1804.26
288.10	1716.20
288.32	1687.53
288.53	1861.60
288.75	1671.14
288.96	1773.54
289.18	1738.73
289.39	1736.68
289.61	1787.88
289.82	1837.03
290.04	1800.16
290.25	1730.53
290.47	1732.58
290.68	1705.96
290.90	1775.59
291.11	1650.66
291.33	1763.30
291.54	1730.53
291.76	1617.90
291.97	1763.30
292.18	1677.29
292.40	1710.05
292.61	1710.05
292.83	1834.98
293.04	1726.44
293.26	1708.01
293.47	1705.96
293.69	1628.14
293.90	1746.92
294.12	1806.31
294.33	1757.16
294.55	1703.91
294.76	1804.26
294.97	1757.16
295.19	1820.64
295.40	1667.05
295.62	1746.92
295.83	1794.02
296.05	1591.27
296.26	1718.25
296.48	1687.53
296.69	1800.16
296.90	1724.39
297.12	1777.64
297.33	1722.34
297.55	1675.24
297.76	1734.63
297.98	1796.07
298.19	1718.25
298.41	1726.44
298.62	1675.24
298.83	1767.40
299.05	1720.29
299.26	1714.15
299.48	1708.01
299.69	1687.53
299.90	1763.30
300.12	1722.34
300.33	1804.26
300.55	1798.12
300.76	1734.63
300.98	1755.11
301.19	1785.83
301.40	1742.82
301.62	1654.76
301.83	1783.78
302.05	1796.07
302.26	1640.42
302.47	1755.11
302.69	1691.62
302.90	1705.96
303.12	1624.04
303.33	1763.30
303.54	1824.74
303.76	1658.85
303.97	1732.58
304.19	1765.35
304.40	1654.76
304.61	1734.63
304.83	1837.03
305.04	1865.70
305.26	1648.61
305.47	1718.25
305.68	1755.11
305.90	1681.38
306.11	1738.73
306.33	1718.25
306.54	1716.20
306.75	1685.48
306.97	1650.66
307.18	1705.96
307.39	1701.86
307.61	1751.01
307.82	1744.87
308.04	1722.34
308.25	1687.53
308.46	1812.45
308.68	1701.86
308.89	1673.19
309.10	1779.68
309.32	1751.01
309.53	1716.20
309.74	1697.77
309.96	1712.10
310.17	1775.59
310.39	1673.19
310.60	1812.45
310.81	1734.63
311.03	1658.85
311.24	1742.82
311.45	1638.38
311.67	1841.12
311.88	1755.11
312.09	1662.95
312.31	1687.53
312.52	1656.81
312.73	1736.68
312.95	1673.19
313.16	1697.77
313.37	1810.40
313.59	1751.01
313.80	1726.44
314.01	1773.54
314.23	1675.24
314.44	1748.97
314.65	1665.00
314.87	1667.05
315.08	1644.52
315.29	1753.06
315.51	1587.18
315.72	1644.52
315.93	1814.50
316.15	1796.07
316.36	1675.24
316.57	1626.09
316.79	1796.07
317.00	1681.38
317.21	1757.16
317.43	1638.38
317.64	1683.43
317.85	1650.66
318.07	1779.68
318.28	1665.00
318.49	1875.94
318.70	1933.28
318.92	1787.88
319.13	1939.43
319.34	1904.61
319.56	1830.88
319.77	1779.68
319.98	1724.39
320.20	1767.40
320.41	1722.34
320.62	1732.58
320.83	1693.67
321.05	1865.70
321.26	1791.97
321.47	1673.19
321.69	1816.55
321.90	1621.99
322.11	1705.96
322.32	1732.58
322.54	1746.92
322.75	1718.25
322.96	1847.27
323.18	1646.57
323.39	1675.24
323.60	1660.90
323.81	1785.83
324.03	1603.56
324.24	1755.11
324.45	1705.96
324.66	1669.09
324.88	1751.01
325.09	1806.31
325.30	1722.34
325.52	1746.92
325.73	1724.39
325.94	1703.91
326.15	1605.61
326.37	1630.18
326.58	1765.35
326.79	1769.44
327.00	1695.72
327.22	1734.63
327.43	1673.19
327.64	1681.38
327.85	1726.44
328.07	1757.16
328.28	1798.12
328.49	1626.09
328.70	1658.85
328.92	1785.83
329.13	1669.09
329.34	1820.64
329.55	1822.69
329.76	1773.54
329.98	1615.85
330.19	1757.16
330.40	1712.10
330.61	1734.63
330.83	1781.73
331.04	1695.72
331.25	1765.35
331.46	1744.87
331.68	1626.09
331.89	1845.22
332.10	1720.29
332.31	1652.71
332.52	1671.14
332.74	1773.54
332.95	1640.42
333.16	1687.53
333.37	1757.16
333.58	1767.40
333.80	1734.63
334.01	1675.24
334.22	1703.91
334.43	1742.82
334.64	1708.01
334.86	1652.71
335.07	1703.91
335.28	1800.16
335.49	1658.85
335.70	1834.98
335.92	1765.35
336.13	1839.08
336.34	1722.34
336.55	1689.57
336.76	1753.06
336.98	1570.79
337.19	1761.25
337.40	1871.84
337.61	1808.36
337.82	1724.39
338.04	1763.30
338.25	1632.23
338.46	1705.96
338.67	1710.05
338.88	1677.29
339.09	1699.81
339.31	1654.76
339.52	1648.61
339.73	1746.92
339.94	1785.83
340.15	1824.74
340.36	1632.23
340.58	1767.40
340.79	1679.33
341.00	1830.88
341.21	1665.00
341.42	1855.46
341.63	1708.01
341.85	1775.59
342.06	1671.14
342.27	1691.62
342.48	1759.21
342.69	1656.81
342.90	1791.97
343.12	1765.35
343.33	1648.61
343.54	1701.86
343.75	1775.59
343.96	1701.86
344.17	1730.53
344.38	1722.34
344.60	1722.34
344.81	1644.52
345.02	1685.48
345.23	1724.39
345.44	1796.07
345.65	1759.21
345.86	1738.73
346.07	1675.24
346.29	1710.05
346.50	1695.72
346.71	1742.82
346.92	1820.64
347.13	1806.31
347.34	1785.83
347.55	1705.96
347.76	1785.83
347.98	1583.08
348.19	1677.29
348.40	1775.59
348.61	1699.81
348.82	1796.07
349.03	1714.15
349.24	1673.19
349.45	1800.16
349.66	1716.20
349.88	1650.66
350.09	1697.77
350.30	1826.79
350.51	1765.35
350.72	1738.73
350.93	1652.71
351.14	1701.86
351.35	1753.06
351.56	1714.15
351.77	1753.06
351.99	1736.68
352.20	1804.26
352.41	1726.44
352.62	1621.99
352.83	1685.48
353.04	1714.15
353.25	1742.82
353.46	1751.01
353.67	1761.25
353.88	1609.70
354.09	1722.34
354.30	1718.25
354.52	1755.11
354.73	1720.29
354.94	1748.97
355.15	1710.05
355.36	1849.32
355.57	1642.47
355.78	1734.63
355.99	1681.38
356.20	1687.53
356.41	1826.79
356.62	1748.97
356.83	1714.15
357.04	1767.40
357.25	1687.53
357.46	1693.67
357.68	1642.47
357.89	1703.91
358.10	1679.33
358.31	1697.77
358.52	1720.29
358.73	1644.52
358.94	1626.09
359.15	1658.85
359.36	1759.21
359.57	1671.14
359.78	1714.15
359.99	1781.73
360.20	1689.57
360.41	1685.48
360.62	1730.53
360.83	1693.67
361.04	1712.10
361.25	1791.97
361.46	1818.60
361.67	1828.84
361.88	1822.69
362.09	1710.05
362.30	1785.83
362.51	1685.48
362.72	1681.38
362.93	1759.21
363.14	1765.35
363.35	1761.25
363.56	1675.24
363.78	1759.21
363.99	1751.01
364.20	1654.76
364.41	1652.71
364.62	1828.84
364.83	1669.09
365.04	1718.25
365.25	1675.24
365.46	1888.23
365.67	1652.71
365.88	1685.48
366.09	1660.90
366.30	1701.86
366.51	1730.53
366.72	1683.43
366.93	1691.62
367.14	1759.21
367.35	1869.80
367.56	1734.63
367.77	1816.55
367.98	1738.73
368.18	1742.82
368.39	1771.49
368.60	1626.09
368.81	1810.40
369.02	1722.34
369.23	1689.57
369.44	1662.95
369.65	1644.52
369.86	1699.81
370.07	1804.26
370.28	1634.28
370.49	1660.90
370.70	1687.53
370.91	1701.86
371.12	1646.57
371.33	1773.54
371.54	1683.43
371.75	1855.46
371.96	1599.46
372.17	1751.01
372.38	1710.05
372.59	1757.16
372.80	1708.01
373.01	1699.81
373.22	1730.53
373.43	1818.60
373.64	1636.33
373.85	1781.73
374.06	1738.73
374.26	1695.72
374.47	1714.15
374.68	1804.26
374.89	1691.62
375.10	1705.96
375.31	1744.87
375.52	1714.15
375.73	1732.58
375.94	1656.81
376.15	1822.69
376.36	1726.44
376.57	1691.62
376.78	1675.24
376.99	1726.44
377.20	1720.29
377.40	1667.05
377.61	1828.84
377.82	1636.33
378.03	1841.12
378.24	1732.58
378.45	1789.92
378.66	1683.43
378.87	1558.50
379.08	1617.90
379.29	1720.29
379.50	1804.26
379.71	1701.86
379.91	1773.54
380.12	1722.34
380.33	1681.38
380.54	1728.49
380.75	1710.05
380.96	1667.05
381.17	1826.79
381.38	1726.44
381.59	1691.62
381.80	1796.07
382.00	1898.47
382.21	1818.60
382.42	1763.30
382.63	1871.84
382.84	1802.21
383.05	1806.31
383.26	1808.36
383.47	1779.68
383.68	1775.59
383.88	1746.92
384.09	1705.96
384.30	1826.79
384.51	1718.25
384.72	1693.67
384.93	1609.70
385.14	1802.21
385.35	1812.45
385.55	1626.09
385.76	1759.21
385.97	1693.67
386.18	1591.27
386.39	1695.72
386.60	1708.01
386.81	1736.68
387.02	1730.53
387.22	1748.97
387.43	1828.84
387.64	1837.03
387.85	1818.60
388.06	2181.09
388.27	4149.18
388.48	6840.22
388.68	7974.79
388.89	9588.59
389.10	9572.21
389.31	8396.67
389.52	7671.69
389.73	6731.67
389.93	6154.15
390.14	5846.95
390.35	5179.31
390.56	4589.50
390.77	3829.70
390.98	3082.19
391.18	2478.04
391.39	2160.61
391.60	1927.14
391.81	1816.55
392.02	1652.71
392.23	1791.97
392.43	1763.30
392.64	1751.01
392.85	1736.68
393.06	1820.64
393.27	1751.01
393.47	1722.34
393.68	1736.68
393.89	1673.19
394.10	1861.60
394.31	1699.81
394.52	1628.14
394.72	1607.66
394.93	1853.41
395.14	1648.61
395.35	1728.49
395.56	1689.57
395.76	1755.11
395.97	1843.17
396.18	1902.56
396.39	1843.17
396.60	2021.35
396.80	1851.36
397.01	1923.04
397.22	1810.40
397.43	1873.89
397.64	1759.21
397.84	1771.49
398.05	1947.62
398.26	1742.82
398.47	1763.30
398.67	1875.94
398.88	1757.16
399.09	1753.06
399.30	1636.33
399.51	1650.66
399.71	1695.72
399.92	1710.05
400.13	1734.63
400.34	1720.29
400.54	1804.26
400.75	1822.69
400.96	1714.15
401.17	1787.88
401.37	1781.73
401.58	1740.77
401.79	1796.07
402.00	1888.23
402.21	2035.68
402.41	2023.39
402.62	2025.44
402.83	2076.64
403.04	2013.15
403.24	2103.26
403.45	1943.52
403.66	1959.91
403.87	1953.76
404.07	1871.84
404.28	1914.85
404.49	1904.61
404.70	1765.35
404.90	1728.49
405.11	1763.30
405.32	1791.97
405.52	1683.43
405.73	1671.14
405.94	1671.14
406.15	1748.97
406.35	1746.92
406.56	1656.81
406.77	1701.86
406.98	1681.38
407.18	1683.43
407.39	1830.88
407.60	1714.15
407.80	1779.68
408.01	1701.86
408.22	1708.01
408.43	1656.81
408.63	1738.73
408.84	1761.25
409.05	1798.12
409.25	1695.72
409.46	1617.90
409.67	1767.40
409.88	1722.34
410.08	1800.16
410.29	1703.91
410.50	1755.11
410.70	1773.54
410.91	1722.34
411.12	1759.21
411.32	1728.49
411.53	1681.38
411.74	1808.36
411.95	1816.55
412.15	1804.26
412.36	1830.88
412.57	1820.64
412.77	1820.64
412.98	1703.91
413.19	1726.44
413.39	1767.40
413.60	1728.49
413.81	1771.49
414.01	1660.90
414.22	1789.92
414.43	1861.60
414.63	1667.05
414.84	1757.16
415.05	1804.26
415.25	1630.18
415.46	1746.92
415.67	1718.25
415.87	1771.49
416.08	1636.33
416.29	1662.95
416.49	1759.21
416.70	1693.67
416.91	1701.86
417.11	1796.07
417.32	1722.34
417.53	1800.16
417.73	1759.21
417.94	1755.11
418.15	1771.49
418.35	1699.81
418.56	1712.10
418.77	1771.49
418.97	1693.67
419.18	1761.25
419.38	1628.14
419.59	1734.63
419.80	1849.32
420.00	1722.34
420.21	1728.49
420.42	1820.64
420.62	1753.06
420.83	1708.01
421.04	1712.10
421.24	1697.77
421.45	1718.25
421.65	1738.73
421.86	1718.25
422.07	1773.54
422.27	1773.54
422.48	1703.91
422.69	1630.18
422.89	1708.01
423.10	1740.77
423.30	1665.00
423.51	1783.78
423.72	1763.30
423.92	1755.11
424.13	1675.24
424.33	1728.49
424.54	1832.93
424.75	1658.85
424.95	1859.56
425.16	1705.96
425.36	1722.34
425.57	1785.83
425.78	1705.96
425.98	1845.22
426.19	1722.34
426.39	1632.23
426.60	1767.40
426.81	1732.58
427.01	1800.16
427.22	1734.63
427.42	1636.33
427.63	1654.76
427.83	1763.30
428.04	1920.99
428.25	1757.16
428.45	1791.97
428.66	1734.63
428.86	1722.34
429.07	1761.25
429.28	1781.73
429.48	1748.97
429.69	1642.47
429.89	1771.49
430.10	1673.19
430.30	1742.82
430.51	1834.98
430.71	1712.10
430.92	1730.53
431.13	1734.63
431.33	1783.78
431.54	1734.63
431.74	1738.73
431.95	1849.32
432.15	1615.85
432.36	1736.68
432.56	1751.01
432.77	1757.16
432.98	1873.89
433.18	1759.21
433.39	1681.38
433.59	1787.88
433.80	1787.88
434.00	1869.80
434.21	1716.20
434.41	1701.86
434.62	1859.56
434.82	1705.96
435.03	1626.09
435.23	1785.83
435.44	1601.51
435.64	1738.73
435.85	1763.30
436.06	1818.60
436.26	1810.40
436.47	1716.20
436.67	1673.19
436.88	1746.92
437.08	1787.88
437.29	1794.02
437.49	1691.62
437.70	1748.97
437.90	1714.15
438.11	1865.70
438.31	1773.54
438.52	1824.74
438.72	1861.60
438.93	1890.28
439.13	1847.27
439.34	1832.93
439.54	1767.40
439.75	1753.06
439.95	1851.36
440.16	1751.01
440.36	1798.12
440.57	1787.88
440.77	1853.41
440.98	1742.82
441.18	1789.92
441.39	1742.82
441.59	1701.86
441.80	1855.46
442.00	1724.39
442.21	1863.65
442.41	1730.53
442.62	1751.01
442.82	1644.52
443.02	1656.81
443.23	1708.01
443.43	1705.96
443.64	1767.40
443.84	1701.86
444.05	1832.93
444.25	1832.93
444.46	1722.34
444.66	1736.68
444.87	1871.84
445.07	1648.61
445.28	1810.40
445.48	1800.16
445.69	1763.30
445.89	1884.13
446.09	1742.82
446.30	2031.58
446.50	2680.79
446.71	3780.55
446.91	4376.51
447.12	4712.38
447.32	4794.29
447.53	4417.47
447.73	3837.89
447.93	3504.07
448.14	3387.34
448.34	3178.45
448.55	3008.47
448.75	2854.87
448.96	2707.41
449.16	2387.93
449.36	2230.24
449.57	2078.69
449.77	1896.42
449.98	1820.64
450.18	1861.60
450.39	1845.22
450.59	1783.78
450.79	1794.02
451.00	1779.68
451.20	1779.68
451.41	1703.91
451.61	1748.97
451.81	1742.82
452.02	1722.34
452.22	1714.15
452.43	1656.81
452.63	1665.00
