SpectraSuite Data File
++++++++++++++++++++++++++++++++++++
Date: Mon Jun 06 15:09:57 CEST 2016
User: root
Dark Spectrum Present: No
Reference Spectrum Present: No
Number of Sampled Component Spectra: 1
Spectrometers: USB4C02835
Integration Time (usec): 100000 (USB4C02835)
Spectra Averaged: 1 (USB4C02835)
Boxcar Smoothing: 0 (USB4C02835)
Correct for Electrical Dark: No (USB4C02835)
Strobe/Lamp Enabled: No (USB4C02835)
Correct for Detector Non-linearity: No (USB4C02835)
Correct for Stray Light: No (USB4C02835)
Number of Pixels in Processed Spectrum: 3648
>>>>>Begin Processed Spectral Data<<<<<
177.47	1458.15
177.69	1458.15
177.91	1458.15
178.13	1390.57
178.36	1406.95
178.58	1650.66
178.80	1771.49
179.02	1689.57
179.24	1642.47
179.46	1710.05
179.68	1753.06
179.90	1687.53
180.13	1669.09
180.35	1660.90
180.57	1705.96
180.79	1703.91
181.01	1628.14
181.23	1783.78
181.45	1751.01
181.67	1755.11
181.90	1691.62
182.12	1681.38
182.34	1689.57
182.56	1744.87
182.78	1787.88
183.00	1611.75
183.22	1716.20
183.44	1632.23
183.66	1900.52
183.89	1746.92
184.11	1740.77
184.33	1710.05
184.55	1740.77
184.77	1804.26
184.99	1751.01
185.21	1742.82
185.43	1826.79
185.65	1646.57
185.87	1806.31
186.10	1818.60
186.32	1857.51
186.54	1726.44
186.76	1759.21
186.98	1740.77
187.20	1730.53
187.42	1703.91
187.64	1673.19
187.86	1714.15
188.08	1826.79
188.30	1695.72
188.52	1736.68
188.75	1736.68
188.97	1699.81
189.19	1624.04
189.41	1738.73
189.63	1734.63
189.85	1681.38
190.07	1591.27
190.29	1665.00
190.51	1761.25
190.73	1695.72
190.95	1808.36
191.17	1738.73
191.39	1773.54
191.61	1675.24
191.84	1697.77
192.06	1675.24
192.28	1613.80
192.50	1755.11
192.72	1730.53
192.94	1720.29
193.16	1753.06
193.38	1695.72
193.60	1654.76
193.82	1710.05
194.04	1814.50
194.26	1703.91
194.48	1681.38
194.70	1705.96
194.92	1687.53
195.14	1714.15
195.36	1646.57
195.58	1722.34
195.80	1673.19
196.02	1665.00
196.24	1640.42
196.46	1699.81
196.69	1624.04
196.91	1863.65
197.13	1695.72
197.35	1662.95
197.57	1736.68
197.79	1771.49
198.01	1826.79
198.23	1691.62
198.45	1738.73
198.67	1673.19
198.89	1642.47
199.11	1718.25
199.33	1636.33
199.55	1607.66
199.77	1742.82
199.99	1767.40
200.21	1687.53
200.43	1699.81
200.65	1718.25
200.87	1501.16
201.09	1714.15
201.31	1621.99
201.53	1785.83
201.75	1751.01
201.97	1744.87
202.19	1650.66
202.41	1683.43
202.63	1791.97
202.85	1746.92
203.07	1753.06
203.29	1677.29
203.51	1667.05
203.73	1667.05
203.95	1902.56
204.17	1701.86
204.39	1718.25
204.61	1693.67
204.83	1644.52
205.05	1755.11
205.27	1654.76
205.49	1853.41
205.71	1656.81
205.93	1591.27
206.15	1689.57
206.37	1619.94
206.59	1740.77
206.81	1613.80
207.03	1716.20
207.25	1546.22
207.47	1724.39
207.69	1693.67
207.91	1771.49
208.13	1742.82
208.34	1699.81
208.56	1705.96
208.78	1742.82
209.00	1667.05
209.22	1601.51
209.44	1662.95
209.66	1730.53
209.88	1689.57
210.10	1722.34
210.32	1669.09
210.54	1779.68
210.76	1697.77
210.98	1771.49
211.20	1566.70
211.42	1693.67
211.64	1779.68
211.86	1748.97
212.08	1701.86
212.30	1712.10
212.52	1771.49
212.74	1753.06
212.96	1665.00
213.17	1802.21
213.39	1718.25
213.61	1751.01
213.83	1662.95
214.05	1617.90
214.27	1730.53
214.49	1642.47
214.71	1628.14
214.93	1757.16
215.15	1624.04
215.37	1730.53
215.59	1632.23
215.81	1689.57
216.03	1812.45
216.24	1656.81
216.46	1755.11
216.68	1708.01
216.90	1724.39
217.12	1734.63
217.34	1716.20
217.56	1714.15
217.78	1818.60
218.00	1689.57
218.22	1671.14
218.44	1687.53
218.66	1728.49
218.87	1832.93
219.09	1724.39
219.31	1716.20
219.53	1710.05
219.75	1624.04
219.97	1681.38
220.19	1728.49
220.41	1710.05
220.63	1773.54
220.85	1763.30
221.06	1683.43
221.28	1810.40
221.50	1669.09
221.72	1708.01
221.94	1755.11
222.16	1691.62
222.38	1628.14
222.60	1724.39
222.82	1708.01
223.03	1751.01
223.25	1581.03
223.47	1714.15
223.69	1863.65
223.91	1738.73
224.13	1660.90
224.35	1697.77
224.57	1753.06
224.78	1699.81
225.00	1587.18
225.22	1646.57
225.44	1648.61
225.66	1773.54
225.88	1699.81
226.10	1755.11
226.32	1679.33
226.53	1685.48
226.75	1708.01
226.97	1714.15
227.19	1701.86
227.41	1615.85
227.63	1650.66
227.85	1599.46
228.06	1681.38
228.28	1789.92
228.50	1681.38
228.72	1667.05
228.94	1746.92
229.16	1585.13
229.37	1626.09
229.59	1695.72
229.81	1783.78
230.03	1665.00
230.25	1640.42
230.47	1665.00
230.69	1632.23
230.90	1720.29
231.12	1720.29
231.34	1656.81
231.56	1748.97
231.78	1662.95
232.00	1746.92
232.21	1716.20
232.43	1675.24
232.65	1540.07
232.87	1671.14
233.09	1660.90
233.30	1613.80
233.52	1720.29
233.74	1730.53
233.96	1720.29
234.18	1699.81
234.40	1640.42
234.61	1853.41
234.83	1630.18
235.05	1697.77
235.27	1824.74
235.49	1783.78
235.70	1660.90
235.92	1712.10
236.14	1667.05
236.36	1918.95
236.58	1632.23
236.79	1777.64
237.01	1648.61
237.23	1687.53
237.45	1853.41
237.67	1550.31
237.88	1708.01
238.10	1732.58
238.32	1740.77
238.54	1675.24
238.76	1695.72
238.97	1701.86
239.19	1615.85
239.41	1710.05
239.63	1730.53
239.85	1675.24
240.06	1716.20
240.28	1689.57
240.50	1765.35
240.72	1730.53
240.93	1650.66
241.15	1761.25
241.37	1744.87
241.59	1736.68
241.81	1673.19
242.02	1648.61
242.24	1710.05
242.46	1791.97
242.68	1699.81
242.89	1796.07
243.11	1779.68
243.33	1769.44
243.55	1675.24
243.76	1794.02
243.98	1644.52
244.20	1714.15
244.42	1656.81
244.64	1738.73
244.85	1615.85
245.07	1675.24
245.29	1712.10
245.51	1730.53
245.72	1691.62
245.94	1773.54
246.16	1722.34
246.38	1722.34
246.59	1673.19
246.81	1609.70
247.03	1683.43
247.24	1585.13
247.46	1746.92
247.68	1667.05
247.90	1673.19
248.11	1648.61
248.33	1673.19
248.55	1644.52
248.77	1703.91
248.98	1701.86
249.20	1859.56
249.42	1794.02
249.64	1746.92
249.85	1691.62
250.07	1656.81
250.29	1695.72
250.50	1693.67
250.72	1660.90
250.94	1710.05
251.16	1843.17
251.37	1759.21
251.59	1642.47
251.81	1763.30
252.02	1746.92
252.24	1646.57
252.46	1681.38
252.68	1699.81
252.89	1728.49
253.11	1546.22
253.33	1722.34
253.54	1767.40
253.76	1570.79
253.98	1759.21
254.20	1673.19
254.41	1589.22
254.63	1685.48
254.85	1675.24
255.06	1673.19
255.28	1748.97
255.50	1751.01
255.71	1660.90
255.93	1636.33
256.15	1648.61
256.36	1703.91
256.58	1691.62
256.80	1779.68
257.02	1728.49
257.23	1712.10
257.45	1742.82
257.67	1714.15
257.88	1742.82
258.10	1765.35
258.32	1685.48
258.53	1755.11
258.75	1763.30
258.97	1656.81
259.18	1751.01
259.40	1705.96
259.62	1761.25
259.83	1751.01
260.05	1730.53
260.27	2033.63
260.48	1726.44
260.70	1634.28
260.92	1656.81
261.13	1681.38
261.35	1767.40
261.57	1748.97
261.78	1501.16
262.00	1673.19
262.22	1789.92
262.43	1691.62
262.65	1656.81
262.86	1683.43
263.08	1855.46
263.30	1656.81
263.51	1640.42
263.73	1732.58
263.95	1781.73
264.16	1669.09
264.38	1658.85
264.60	1712.10
264.81	1714.15
265.03	1781.73
265.25	1755.11
265.46	1693.67
265.68	1791.97
265.89	1787.88
266.11	1529.83
266.33	1777.64
266.54	1667.05
266.76	1722.34
266.98	1701.86
267.19	1810.40
267.41	1722.34
267.62	1693.67
267.84	1613.80
268.06	1714.15
268.27	1652.71
268.49	1744.87
268.70	1800.16
268.92	1703.91
269.14	1712.10
269.35	1568.74
269.57	1685.48
269.79	1757.16
270.00	1630.18
270.22	1726.44
270.43	1691.62
270.65	1648.61
270.87	1753.06
271.08	1658.85
271.30	1769.44
271.51	1681.38
271.73	1816.55
271.95	1808.36
272.16	1740.77
272.38	1722.34
272.59	1724.39
272.81	1730.53
273.02	1755.11
273.24	1783.78
273.46	1785.83
273.67	1648.61
273.89	1581.03
274.10	1671.14
274.32	1722.34
274.54	1699.81
274.75	1763.30
274.97	1708.01
275.18	1710.05
275.40	1697.77
275.61	1689.57
275.83	1720.29
276.05	1699.81
276.26	1724.39
276.48	1767.40
276.69	1712.10
276.91	1632.23
277.12	1738.73
277.34	1683.43
277.55	1701.86
277.77	1730.53
277.99	1712.10
278.20	1693.67
278.42	1675.24
278.63	1732.58
278.85	1658.85
279.06	1730.53
279.28	1755.11
279.49	1761.25
279.71	1716.20
279.93	1644.52
280.14	1673.19
280.36	1640.42
280.57	1681.38
280.79	1763.30
281.00	1654.76
281.22	1757.16
281.43	1763.30
281.65	1638.38
281.86	1679.33
282.08	1693.67
282.29	1847.27
282.51	1660.90
282.73	1660.90
282.94	1605.61
283.16	1740.77
283.37	1830.88
283.59	1753.06
283.80	1689.57
284.02	1656.81
284.23	1683.43
284.45	1691.62
284.66	1619.94
284.88	1601.51
285.09	1703.91
285.31	1740.77
285.52	1726.44
285.74	1599.46
285.95	1687.53
286.17	1699.81
286.38	1738.73
286.60	1691.62
286.81	1660.90
287.03	1714.15
287.24	1699.81
287.46	1755.11
287.67	1753.06
287.89	1798.12
288.10	1665.00
288.32	1644.52
288.53	1730.53
288.75	1744.87
288.96	1804.26
289.18	1740.77
289.39	1658.85
289.61	1681.38
289.82	1830.88
290.04	1789.92
290.25	1730.53
290.47	1697.77
290.68	1658.85
290.90	1722.34
291.11	1617.90
291.33	1699.81
291.54	1644.52
291.76	1611.75
291.97	1726.44
292.18	1681.38
292.40	1718.25
292.61	1640.42
292.83	1777.64
293.04	1748.97
293.26	1767.40
293.47	1619.94
293.69	1619.94
293.90	1611.75
294.12	1794.02
294.33	1626.09
294.55	1730.53
294.76	1869.80
294.97	1734.63
295.19	1796.07
295.40	1724.39
295.62	1730.53
295.83	1777.64
296.05	1685.48
296.26	1783.78
296.48	1638.38
296.69	1695.72
296.90	1640.42
297.12	1742.82
297.33	1755.11
297.55	1761.25
297.76	1755.11
297.98	1748.97
298.19	1738.73
298.41	1744.87
298.62	1630.18
298.83	1779.68
299.05	1757.16
299.26	1695.72
299.48	1691.62
299.69	1714.15
299.90	1763.30
300.12	1683.43
300.33	1748.97
300.55	1712.10
300.76	1720.29
300.98	1542.12
301.19	1816.55
301.40	1640.42
301.62	1693.67
301.83	1734.63
302.05	1722.34
302.26	1701.86
302.47	1712.10
302.69	1697.77
302.90	1773.54
303.12	1546.22
303.33	1748.97
303.54	1781.73
303.76	1673.19
303.97	1736.68
304.19	1847.27
304.40	1708.01
304.61	1656.81
304.83	1867.75
305.04	1740.77
305.26	1705.96
305.47	1636.33
305.68	1693.67
305.90	1648.61
306.11	1683.43
306.33	1742.82
306.54	1730.53
306.75	1626.09
306.97	1730.53
307.18	1669.09
307.39	1697.77
307.61	1689.57
307.82	1681.38
308.04	1701.86
308.25	1714.15
308.46	1714.15
308.68	1761.25
308.89	1748.97
309.10	1787.88
309.32	1687.53
309.53	1689.57
309.74	1742.82
309.96	1693.67
310.17	1685.48
310.39	1648.61
310.60	1779.68
310.81	1662.95
311.03	1603.56
311.24	1685.48
311.45	1642.47
311.67	1841.12
311.88	1757.16
312.09	1667.05
312.31	1705.96
312.52	1742.82
312.73	1722.34
312.95	1712.10
313.16	1660.90
313.37	1730.53
313.59	1611.75
313.80	1783.78
314.01	1849.32
314.23	1665.00
314.44	1595.37
314.65	1660.90
314.87	1656.81
315.08	1689.57
315.29	1746.92
315.51	1660.90
315.72	1599.46
315.93	1742.82
316.15	1732.58
316.36	1642.47
316.57	1703.91
316.79	1738.73
317.00	1665.00
317.21	1691.62
317.43	1699.81
317.64	1679.33
317.85	1658.85
318.07	1634.28
318.28	1662.95
318.49	1847.27
318.70	1900.52
318.92	1855.46
319.13	1877.99
319.34	1798.12
319.56	1785.83
319.77	1736.68
319.98	1767.40
320.20	1775.59
320.41	1724.39
320.62	1804.26
320.83	1691.62
321.05	1851.36
321.26	1738.73
321.47	1705.96
321.69	1677.29
321.90	1669.09
322.11	1673.19
322.32	1818.60
322.54	1771.49
322.75	1753.06
322.96	1808.36
323.18	1683.43
323.39	1626.09
323.60	1705.96
323.81	1740.77
324.03	1671.14
324.24	1718.25
324.45	1744.87
324.66	1642.47
324.88	1787.88
325.09	1806.31
325.30	1708.01
325.52	1705.96
325.73	1734.63
325.94	1685.48
326.15	1673.19
326.37	1675.24
326.58	1773.54
326.79	1662.95
327.00	1556.46
327.22	1673.19
327.43	1665.00
327.64	1658.85
327.85	1722.34
328.07	1753.06
328.28	1796.07
328.49	1673.19
328.70	1654.76
328.92	1689.57
329.13	1695.72
329.34	1724.39
329.55	1726.44
329.76	1767.40
329.98	1667.05
330.19	1712.10
330.40	1720.29
330.61	1691.62
330.83	1740.77
331.04	1636.33
331.25	1771.49
331.46	1738.73
331.68	1693.67
331.89	1818.60
332.10	1730.53
332.31	1652.71
332.52	1712.10
332.74	1806.31
332.95	1603.56
333.16	1642.47
333.37	1708.01
333.58	1722.34
333.80	1746.92
334.01	1652.71
334.22	1662.95
334.43	1660.90
334.64	1689.57
334.86	1648.61
335.07	1683.43
335.28	1798.12
335.49	1695.72
335.70	1746.92
335.92	1761.25
336.13	1865.70
336.34	1789.92
336.55	1740.77
336.76	1710.05
336.98	1638.38
337.19	1681.38
337.40	1763.30
337.61	1865.70
337.82	1708.01
338.04	1722.34
338.25	1640.42
338.46	1677.29
338.67	1650.66
338.88	1624.04
339.09	1681.38
339.31	1748.97
339.52	1599.46
339.73	1705.96
339.94	1679.33
340.15	1722.34
340.36	1662.95
340.58	1734.63
340.79	1667.05
341.00	1744.87
341.21	1601.51
341.42	1796.07
341.63	1677.29
341.85	1738.73
342.06	1718.25
342.27	1734.63
342.48	1675.24
342.69	1619.94
342.90	1740.77
343.12	1730.53
343.33	1642.47
343.54	1777.64
343.75	1763.30
343.96	1665.00
344.17	1710.05
344.38	1660.90
344.60	1624.04
344.81	1644.52
345.02	1662.95
345.23	1781.73
345.44	1822.69
345.65	1789.92
345.86	1693.67
346.07	1691.62
346.29	1708.01
346.50	1734.63
346.71	1753.06
346.92	1734.63
347.13	1869.80
347.34	1685.48
347.55	1796.07
347.76	1769.44
347.98	1634.28
348.19	1685.48
348.40	1810.40
348.61	1732.58
348.82	1814.50
349.03	1722.34
349.24	1652.71
349.45	1757.16
349.66	1576.94
349.88	1687.53
350.09	1613.80
350.30	1775.59
350.51	1773.54
350.72	1687.53
350.93	1751.01
351.14	1767.40
351.35	1794.02
351.56	1789.92
351.77	1726.44
351.99	1669.09
352.20	1742.82
352.41	1818.60
352.62	1624.04
352.83	1619.94
353.04	1695.72
353.25	1697.77
353.46	1697.77
353.67	1759.21
353.88	1644.52
354.09	1703.91
354.30	1710.05
354.52	1828.84
354.73	1658.85
354.94	1722.34
355.15	1730.53
355.36	1769.44
355.57	1726.44
355.78	1771.49
355.99	1669.09
356.20	1628.14
356.41	1742.82
356.62	1771.49
356.83	1685.48
357.04	1816.55
357.25	1638.38
357.46	1693.67
357.68	1624.04
357.89	1621.99
358.10	1689.57
358.31	1738.73
358.52	1697.77
358.73	1650.66
358.94	1667.05
359.15	1675.24
359.36	1705.96
359.57	1632.23
359.78	1736.68
359.99	1796.07
360.20	1591.27
360.41	1671.14
360.62	1742.82
360.83	1708.01
361.04	1724.39
361.25	1755.11
361.46	1746.92
361.67	1671.14
361.88	1791.97
362.09	1734.63
362.30	1765.35
362.51	1648.61
362.72	1693.67
362.93	1685.48
363.14	1783.78
363.35	1689.57
363.56	1597.42
363.78	1751.01
363.99	1806.31
364.20	1671.14
364.41	1683.43
364.62	1882.08
364.83	1716.20
365.04	1677.29
365.25	1677.29
365.46	1796.07
365.67	1632.23
365.88	1640.42
366.09	1642.47
366.30	1693.67
366.51	1716.20
366.72	1638.38
366.93	1732.58
367.14	1808.36
367.35	1767.40
367.56	1757.16
367.77	1748.97
367.98	1677.29
368.18	1740.77
368.39	1703.91
368.60	1726.44
368.81	1787.88
369.02	1705.96
369.23	1714.15
369.44	1642.47
369.65	1603.56
369.86	1775.59
370.07	1724.39
370.28	1626.09
370.49	1705.96
370.70	1699.81
370.91	1626.09
371.12	1675.24
371.33	1728.49
371.54	1644.52
371.75	1757.16
371.96	1599.46
372.17	1710.05
372.38	1671.14
372.59	1783.78
372.80	1675.24
373.01	1705.96
373.22	1738.73
373.43	1605.61
373.64	1697.77
373.85	1734.63
374.06	1800.16
374.26	1757.16
374.47	1685.48
374.68	1849.32
374.89	1724.39
375.10	1681.38
375.31	1802.21
375.52	1738.73
375.73	1677.29
375.94	1669.09
376.15	1837.03
376.36	1693.67
376.57	1677.29
376.78	1703.91
376.99	1763.30
377.20	1802.21
377.40	1687.53
377.61	1875.94
377.82	1697.77
378.03	1728.49
378.24	1697.77
378.45	1658.85
378.66	1718.25
378.87	1611.75
379.08	1626.09
379.29	1755.11
379.50	1869.80
379.71	1724.39
379.91	1763.30
380.12	1705.96
380.33	1763.30
380.54	1763.30
380.75	1685.48
380.96	1695.72
381.17	1802.21
381.38	1744.87
381.59	1734.63
381.80	1728.49
382.00	1904.61
382.21	1845.22
382.42	1767.40
382.63	1916.90
382.84	1695.72
383.05	1728.49
383.26	1710.05
383.47	1738.73
383.68	1757.16
383.88	1724.39
384.09	1773.54
384.30	1742.82
384.51	1740.77
384.72	1726.44
384.93	1636.33
385.14	1777.64
385.35	1714.15
385.55	1751.01
385.76	1781.73
385.97	1705.96
386.18	1673.19
386.39	1624.04
386.60	1689.57
386.81	1669.09
387.02	1656.81
387.22	1652.71
387.43	1798.12
387.64	1839.08
387.85	1859.56
388.06	2240.48
388.27	4087.75
388.48	6563.74
388.68	8161.16
388.89	9406.32
389.10	9535.34
389.31	8378.24
389.52	7399.31
389.73	6641.56
389.93	6207.39
390.14	5652.39
390.35	5130.16
390.56	4497.34
390.77	3803.08
390.98	3004.37
391.18	2430.94
391.39	2078.69
391.60	1787.88
391.81	1828.84
392.02	1722.34
392.23	1822.69
392.43	1693.67
392.64	1812.45
392.85	1687.53
393.06	1728.49
393.27	1662.95
393.47	1669.09
393.68	1748.97
393.89	1693.67
394.10	1757.16
394.31	1665.00
394.52	1660.90
394.72	1695.72
394.93	1828.84
395.14	1701.86
395.35	1773.54
395.56	1755.11
395.76	1683.43
395.97	1767.40
396.18	1826.79
396.39	1869.80
396.60	2037.73
396.80	1822.69
397.01	1796.07
397.22	1828.84
397.43	1873.89
397.64	1720.29
397.84	1810.40
398.05	1867.75
398.26	1714.15
398.47	1773.54
398.67	1718.25
398.88	1654.76
399.09	1759.21
399.30	1695.72
399.51	1767.40
399.71	1665.00
399.92	1693.67
400.13	1734.63
400.34	1656.81
400.54	1640.42
400.75	1785.83
400.96	1746.92
401.17	1759.21
401.37	1714.15
401.58	1687.53
401.79	1759.21
402.00	1816.55
402.21	1982.43
402.41	2041.82
402.62	1910.75
402.83	1994.72
403.04	2015.20
403.24	2068.45
403.45	1791.97
403.66	1914.85
403.87	1875.94
404.07	1961.95
404.28	1908.71
404.49	1871.84
404.70	1742.82
404.90	1845.22
405.11	1701.86
405.32	1677.29
405.52	1640.42
405.73	1642.47
405.94	1599.46
406.15	1703.91
406.35	1671.14
406.56	1767.40
406.77	1779.68
406.98	1710.05
407.18	1703.91
407.39	1769.44
407.60	1644.52
407.80	1708.01
408.01	1634.28
408.22	1689.57
408.43	1736.68
408.63	1681.38
408.84	1611.75
409.05	1716.20
409.25	1581.03
409.46	1667.05
409.67	1646.57
409.88	1581.03
410.08	1726.44
410.29	1656.81
410.50	1800.16
410.70	1787.88
410.91	1632.23
411.12	1763.30
411.32	1767.40
411.53	1652.71
411.74	1787.88
411.95	1697.77
412.15	1697.77
412.36	1861.60
412.57	1740.77
412.77	1869.80
412.98	1695.72
413.19	1718.25
413.39	1757.16
413.60	1820.64
413.81	1773.54
414.01	1626.09
414.22	1757.16
414.43	1742.82
414.63	1652.71
414.84	1853.41
415.05	1699.81
415.25	1589.22
415.46	1779.68
415.67	1765.35
415.87	1716.20
416.08	1746.92
416.29	1648.61
416.49	1689.57
416.70	1581.03
416.91	1599.46
417.11	1621.99
417.32	1724.39
417.53	1705.96
417.73	1697.77
417.94	1689.57
418.15	1675.24
418.35	1648.61
418.56	1724.39
418.77	1759.21
418.97	1701.86
419.18	1650.66
419.38	1591.27
419.59	1769.44
419.80	1771.49
420.00	1658.85
420.21	1712.10
420.42	1740.77
420.62	1796.07
420.83	1636.33
421.04	1761.25
421.24	1701.86
421.45	1794.02
421.65	1767.40
421.86	1722.34
422.07	1718.25
422.27	1714.15
422.48	1695.72
422.69	1665.00
422.89	1638.38
423.10	1712.10
423.30	1615.85
423.51	1695.72
423.72	1714.15
423.92	1746.92
424.13	1640.42
424.33	1718.25
424.54	1724.39
424.75	1701.86
424.95	1800.16
425.16	1695.72
425.36	1726.44
425.57	1767.40
425.78	1800.16
425.98	1714.15
426.19	1705.96
426.39	1650.66
426.60	1742.82
426.81	1785.83
427.01	1683.43
427.22	1658.85
427.42	1591.27
427.63	1671.14
427.83	1763.30
428.04	1822.69
428.25	1755.11
428.45	1773.54
428.66	1746.92
428.86	1662.95
429.07	1701.86
429.28	1710.05
429.48	1746.92
429.69	1695.72
429.89	1718.25
430.10	1642.47
430.30	1808.36
430.51	1763.30
430.71	1636.33
430.92	1701.86
431.13	1746.92
431.33	1697.77
431.54	1755.11
431.74	1814.50
431.95	1828.84
432.15	1744.87
432.36	1812.45
432.56	1726.44
432.77	1757.16
432.98	1814.50
433.18	1716.20
433.39	1742.82
433.59	1714.15
433.80	1796.07
434.00	1787.88
434.21	1705.96
434.41	1697.77
434.62	1820.64
434.82	1652.71
435.03	1652.71
435.23	1787.88
435.44	1611.75
435.64	1658.85
435.85	1695.72
436.06	1779.68
436.26	1753.06
436.47	1679.33
436.67	1718.25
436.88	1712.10
437.08	1718.25
437.29	1877.99
437.49	1742.82
437.70	1777.64
437.90	1705.96
438.11	1863.65
438.31	1777.64
438.52	1869.80
438.72	1828.84
438.93	1964.00
439.13	1751.01
439.34	1798.12
439.54	1753.06
439.75	1777.64
439.95	1845.22
440.16	1765.35
440.36	1773.54
440.57	1787.88
440.77	1828.84
440.98	1767.40
441.18	1818.60
441.39	1658.85
441.59	1703.91
441.80	1871.84
442.00	1679.33
442.21	1751.01
442.41	1603.56
442.62	1720.29
442.82	1671.14
443.02	1675.24
443.23	1652.71
443.43	1660.90
443.64	1820.64
443.84	1710.05
444.05	1830.88
444.25	1693.67
444.46	1730.53
444.66	1791.97
444.87	1783.78
445.07	1650.66
445.28	1693.67
445.48	1771.49
445.69	1728.49
445.89	1875.94
446.09	1732.58
446.30	2041.82
446.50	2652.12
446.71	3745.73
446.91	4196.29
447.12	4693.94
447.32	4872.12
447.53	4229.06
447.73	3811.27
447.93	3508.17
448.14	3305.42
448.34	3082.19
448.55	2942.93
448.75	2824.15
448.96	2559.96
449.16	2418.65
449.36	2160.61
449.57	2033.63
449.77	1914.85
449.98	1849.32
450.18	1789.92
450.39	1822.69
450.59	1777.64
450.79	1681.38
451.00	1693.67
451.20	1718.25
451.41	1708.01
451.61	1728.49
451.81	1697.77
452.02	1726.44
452.22	1746.92
452.43	1687.53
452.63	1714.15
