SpectraSuite Data File
++++++++++++++++++++++++++++++++++++
Date: Mon Jun 06 12:32:17 CEST 2016
User: root
Dark Spectrum Present: No
Reference Spectrum Present: No
Number of Sampled Component Spectra: 1
Spectrometers: USB4C02835
Integration Time (usec): 100000 (USB4C02835)
Spectra Averaged: 1 (USB4C02835)
Boxcar Smoothing: 0 (USB4C02835)
Correct for Electrical Dark: No (USB4C02835)
Strobe/Lamp Enabled: No (USB4C02835)
Correct for Detector Non-linearity: No (USB4C02835)
Correct for Stray Light: No (USB4C02835)
Number of Pixels in Processed Spectrum: 3648
>>>>>Begin Processed Spectral Data<<<<<
177.47	1445.87
177.69	1445.87
177.91	1445.87
178.13	1509.35
178.36	1460.20
178.58	1671.14
178.80	1726.44
179.02	1679.33
179.24	1628.14
179.46	1679.33
179.68	1763.30
179.90	1685.48
180.13	1730.53
180.35	1665.00
180.57	1697.77
180.79	1703.91
181.01	1619.94
181.23	1761.25
181.45	1738.73
181.67	1701.86
181.90	1714.15
182.12	1667.05
182.34	1665.00
182.56	1742.82
182.78	1744.87
183.00	1646.57
183.22	1685.48
183.44	1527.78
183.66	1896.42
183.89	1773.54
184.11	1726.44
184.33	1753.06
184.55	1802.21
184.77	1697.77
184.99	1734.63
185.21	1669.09
185.43	1812.45
185.65	1722.34
185.87	1675.24
186.10	1847.27
186.32	1820.64
186.54	1679.33
186.76	1763.30
186.98	1759.21
187.20	1673.19
187.42	1640.42
187.64	1671.14
187.86	1665.00
188.08	1736.68
188.30	1740.77
188.52	1615.85
188.75	1794.02
188.97	1732.58
189.19	1615.85
189.41	1671.14
189.63	1742.82
189.85	1703.91
190.07	1628.14
190.29	1701.86
190.51	1677.29
190.73	1552.36
190.95	1767.40
191.17	1732.58
191.39	1636.33
191.61	1615.85
191.84	1632.23
192.06	1746.92
192.28	1650.66
192.50	1865.70
192.72	1726.44
192.94	1636.33
193.16	1787.88
193.38	1681.38
193.60	1685.48
193.82	1613.80
194.04	1779.68
194.26	1699.81
194.48	1710.05
194.70	1652.71
194.92	1689.57
195.14	1714.15
195.36	1677.29
195.58	1730.53
195.80	1703.91
196.02	1660.90
196.24	1726.44
196.46	1765.35
196.69	1691.62
196.91	1816.55
197.13	1714.15
197.35	1609.70
197.57	1798.12
197.79	1669.09
198.01	1710.05
198.23	1785.83
198.45	1714.15
198.67	1583.08
198.89	1722.34
199.11	1693.67
199.33	1628.14
199.55	1572.84
199.77	1693.67
199.99	1789.92
200.21	1689.57
200.43	1736.68
200.65	1585.13
200.87	1638.38
201.09	1714.15
201.31	1679.33
201.53	1712.10
201.75	1732.58
201.97	1691.62
202.19	1685.48
202.41	1767.40
202.63	1822.69
202.85	1681.38
203.07	1753.06
203.29	1652.71
203.51	1646.57
203.73	1595.37
203.95	1755.11
204.17	1708.01
204.39	1763.30
204.61	1679.33
204.83	1691.62
205.05	1685.48
205.27	1736.68
205.49	1824.74
205.71	1708.01
205.93	1585.13
206.15	1675.24
206.37	1665.00
206.59	1691.62
206.81	1615.85
207.03	1689.57
207.25	1603.56
207.47	1716.20
207.69	1687.53
207.91	1732.58
208.13	1783.78
208.34	1712.10
208.56	1636.33
208.78	1685.48
209.00	1724.39
209.22	1718.25
209.44	1697.77
209.66	1638.38
209.88	1652.71
210.10	1669.09
210.32	1710.05
210.54	1763.30
210.76	1697.77
210.98	1787.88
211.20	1564.65
211.42	1726.44
211.64	1724.39
211.86	1732.58
212.08	1728.49
212.30	1642.47
212.52	1714.15
212.74	1789.92
212.96	1648.61
213.17	1718.25
213.39	1687.53
213.61	1802.21
213.83	1746.92
214.05	1609.70
214.27	1763.30
214.49	1716.20
214.71	1677.29
214.93	1726.44
215.15	1726.44
215.37	1734.63
215.59	1603.56
215.81	1734.63
216.03	1728.49
216.24	1722.34
216.46	1675.24
216.68	1652.71
216.90	1755.11
217.12	1765.35
217.34	1748.97
217.56	1783.78
217.78	1755.11
218.00	1753.06
218.22	1701.86
218.44	1736.68
218.66	1742.82
218.87	1806.31
219.09	1660.90
219.31	1722.34
219.53	1652.71
219.75	1642.47
219.97	1677.29
220.19	1767.40
220.41	1646.57
220.63	1804.26
220.85	1716.20
221.06	1693.67
221.28	1703.91
221.50	1730.53
221.72	1681.38
221.94	1708.01
222.16	1800.16
222.38	1812.45
222.60	1769.44
222.82	1587.18
223.03	1755.11
223.25	1562.60
223.47	1697.77
223.69	1800.16
223.91	1681.38
224.13	1683.43
224.35	1624.04
224.57	1779.68
224.78	1748.97
225.00	1654.76
225.22	1630.18
225.44	1699.81
225.66	1761.25
225.88	1751.01
226.10	1744.87
226.32	1718.25
226.53	1732.58
226.75	1648.61
226.97	1703.91
227.19	1718.25
227.41	1615.85
227.63	1716.20
227.85	1652.71
228.06	1775.59
228.28	1738.73
228.50	1732.58
228.72	1601.51
228.94	1648.61
229.16	1683.43
229.37	1642.47
229.59	1638.38
229.81	1816.55
230.03	1660.90
230.25	1615.85
230.47	1640.42
230.69	1646.57
230.90	1701.86
231.12	1615.85
231.34	1710.05
231.56	1818.60
231.78	1656.81
232.00	1693.67
232.21	1658.85
232.43	1677.29
232.65	1570.79
232.87	1697.77
233.09	1599.46
233.30	1642.47
233.52	1744.87
233.74	1652.71
233.96	1648.61
234.18	1689.57
234.40	1675.24
234.61	1806.31
234.83	1638.38
235.05	1619.94
235.27	1794.02
235.49	1767.40
235.70	1656.81
235.92	1724.39
236.14	1705.96
236.36	1849.32
236.58	1669.09
236.79	1732.58
237.01	1705.96
237.23	1677.29
237.45	1708.01
237.67	1691.62
237.88	1683.43
238.10	1814.50
238.32	1638.38
238.54	1693.67
238.76	1675.24
238.97	1603.56
239.19	1607.66
239.41	1699.81
239.63	1759.21
239.85	1716.20
240.06	1597.42
240.28	1673.19
240.50	1722.34
240.72	1742.82
240.93	1777.64
241.15	1789.92
241.37	1652.71
241.59	1697.77
241.81	1716.20
242.02	1701.86
242.24	1669.09
242.46	1691.62
242.68	1667.05
242.89	1697.77
243.11	1769.44
243.33	1726.44
243.55	1687.53
243.76	1740.77
243.98	1683.43
244.20	1726.44
244.42	1673.19
244.64	1675.24
244.85	1685.48
245.07	1705.96
245.29	1732.58
245.51	1730.53
245.72	1705.96
245.94	1767.40
246.16	1734.63
246.38	1789.92
246.59	1671.14
246.81	1697.77
247.03	1650.66
247.24	1640.42
247.46	1574.89
247.68	1708.01
247.90	1609.70
248.11	1677.29
248.33	1736.68
248.55	1734.63
248.77	1701.86
248.98	1656.81
249.20	1765.35
249.42	1724.39
249.64	1730.53
249.85	1669.09
250.07	1624.04
250.29	1730.53
250.50	1675.24
250.72	1673.19
250.94	1744.87
251.16	1753.06
251.37	1773.54
251.59	1730.53
251.81	1712.10
252.02	1810.40
252.24	1781.73
252.46	1759.21
252.68	1665.00
252.89	1689.57
253.11	1632.23
253.33	1816.55
253.54	1779.68
253.76	1644.52
253.98	1738.73
254.20	1697.77
254.41	1624.04
254.63	1740.77
254.85	1656.81
255.06	1689.57
255.28	1720.29
255.50	1798.12
255.71	1617.90
255.93	1607.66
256.15	1662.95
256.36	1685.48
256.58	1753.06
256.80	1701.86
257.02	1638.38
257.23	1609.70
257.45	1761.25
257.67	1773.54
257.88	1693.67
258.10	1701.86
258.32	1677.29
258.53	1665.00
258.75	1759.21
258.97	1562.60
259.18	1652.71
259.40	1667.05
259.62	1814.50
259.83	1748.97
260.05	1726.44
260.27	1980.39
260.48	1763.30
260.70	1634.28
260.92	1648.61
261.13	1685.48
261.35	1665.00
261.57	1695.72
261.78	1656.81
262.00	1689.57
262.22	1808.36
262.43	1630.18
262.65	1667.05
262.86	1708.01
263.08	1861.60
263.30	1734.63
263.51	1603.56
263.73	1634.28
263.95	1726.44
264.16	1685.48
264.38	1621.99
264.60	1734.63
264.81	1705.96
265.03	1783.78
265.25	1681.38
265.46	1822.69
265.68	1777.64
265.89	1769.44
266.11	1693.67
266.33	1728.49
266.54	1775.59
266.76	1773.54
266.98	1746.92
267.19	1757.16
267.41	1746.92
267.62	1677.29
267.84	1652.71
268.06	1814.50
268.27	1632.23
268.49	1693.67
268.70	1720.29
268.92	1681.38
269.14	1691.62
269.35	1632.23
269.57	1679.33
269.79	1738.73
270.00	1703.91
270.22	1765.35
270.43	1716.20
270.65	1521.64
270.87	1660.90
271.08	1699.81
271.30	1757.16
271.51	1710.05
271.73	1716.20
271.95	1744.87
272.16	1746.92
272.38	1716.20
272.59	1675.24
272.81	1708.01
273.02	1769.44
273.24	1642.47
273.46	1726.44
273.67	1671.14
273.89	1585.13
274.10	1689.57
274.32	1798.12
274.54	1734.63
274.75	1734.63
274.97	1638.38
275.18	1699.81
275.40	1708.01
275.61	1648.61
275.83	1693.67
276.05	1685.48
276.26	1722.34
276.48	1732.58
276.69	1689.57
276.91	1558.50
277.12	1730.53
277.34	1753.06
277.55	1742.82
277.77	1734.63
277.99	1658.85
278.20	1619.94
278.42	1712.10
278.63	1691.62
278.85	1677.29
279.06	1626.09
279.28	1697.77
279.49	1773.54
279.71	1675.24
279.93	1783.78
280.14	1658.85
280.36	1578.98
280.57	1681.38
280.79	1759.21
281.00	1597.42
281.22	1660.90
281.43	1796.07
281.65	1578.98
281.86	1599.46
282.08	1691.62
282.29	1787.88
282.51	1667.05
282.73	1677.29
282.94	1601.51
283.16	1710.05
283.37	1718.25
283.59	1689.57
283.80	1714.15
284.02	1703.91
284.23	1755.11
284.45	1669.09
284.66	1650.66
284.88	1683.43
285.09	1773.54
285.31	1742.82
285.52	1697.77
285.74	1583.08
285.95	1658.85
286.17	1738.73
286.38	1740.77
286.60	1701.86
286.81	1685.48
287.03	1708.01
287.24	1669.09
287.46	1695.72
287.67	1677.29
287.89	1828.84
288.10	1693.67
288.32	1681.38
288.53	1675.24
288.75	1716.20
288.96	1794.02
289.18	1648.61
289.39	1656.81
289.61	1789.92
289.82	1763.30
290.04	1736.68
290.25	1644.52
290.47	1681.38
290.68	1665.00
290.90	1718.25
291.11	1656.81
291.33	1789.92
291.54	1636.33
291.76	1691.62
291.97	1689.57
292.18	1730.53
292.40	1697.77
292.61	1656.81
292.83	1828.84
293.04	1652.71
293.26	1691.62
293.47	1697.77
293.69	1636.33
293.90	1705.96
294.12	1691.62
294.33	1679.33
294.55	1722.34
294.76	1742.82
294.97	1728.49
295.19	1789.92
295.40	1669.09
295.62	1753.06
295.83	1796.07
296.05	1650.66
296.26	1718.25
296.48	1718.25
296.69	1689.57
296.90	1632.23
297.12	1736.68
297.33	1796.07
297.55	1734.63
297.76	1710.05
297.98	1746.92
298.19	1685.48
298.41	1701.86
298.62	1626.09
298.83	1732.58
299.05	1720.29
299.26	1685.48
299.48	1656.81
299.69	1675.24
299.90	1695.72
300.12	1560.55
300.33	1701.86
300.55	1691.62
300.76	1681.38
300.98	1673.19
301.19	1773.54
301.40	1675.24
301.62	1705.96
301.83	1695.72
302.05	1681.38
302.26	1716.20
302.47	1644.52
302.69	1613.80
302.90	1669.09
303.12	1619.94
303.33	1724.39
303.54	1859.56
303.76	1689.57
303.97	1732.58
304.19	1890.28
304.40	1628.14
304.61	1742.82
304.83	1742.82
305.04	1812.45
305.26	1703.91
305.47	1630.18
305.68	1718.25
305.90	1609.70
306.11	1814.50
306.33	1703.91
306.54	1705.96
306.75	1675.24
306.97	1613.80
307.18	1640.42
307.39	1732.58
307.61	1755.11
307.82	1759.21
308.04	1689.57
308.25	1699.81
308.46	1640.42
308.68	1671.14
308.89	1689.57
309.10	1724.39
309.32	1728.49
309.53	1716.20
309.74	1742.82
309.96	1601.51
310.17	1746.92
310.39	1658.85
310.60	1691.62
310.81	1581.03
311.03	1667.05
311.24	1714.15
311.45	1732.58
311.67	1796.07
311.88	1789.92
312.09	1746.92
312.31	1599.46
312.52	1679.33
312.73	1669.09
312.95	1642.47
313.16	1628.14
313.37	1822.69
313.59	1744.87
313.80	1695.72
314.01	1779.68
314.23	1699.81
314.44	1617.90
314.65	1673.19
314.87	1652.71
315.08	1630.18
315.29	1640.42
315.51	1642.47
315.72	1617.90
315.93	1796.07
316.15	1746.92
316.36	1693.67
316.57	1683.43
316.79	1675.24
317.00	1628.14
317.21	1687.53
317.43	1675.24
317.64	1679.33
317.85	1681.38
318.07	1683.43
318.28	1740.77
318.49	1777.64
318.70	1865.70
318.92	1849.32
319.13	1740.77
319.34	1853.41
319.56	1794.02
319.77	1779.68
319.98	1708.01
320.20	1728.49
320.41	1740.77
320.62	1734.63
320.83	1712.10
321.05	1787.88
321.26	1724.39
321.47	1767.40
321.69	1738.73
321.90	1665.00
322.11	1642.47
322.32	1705.96
322.54	1773.54
322.75	1804.26
322.96	1808.36
323.18	1615.85
323.39	1624.04
323.60	1697.77
323.81	1720.29
324.03	1697.77
324.24	1658.85
324.45	1697.77
324.66	1648.61
324.88	1738.73
325.09	1849.32
325.30	1683.43
325.52	1738.73
325.73	1656.81
325.94	1638.38
326.15	1656.81
326.37	1667.05
326.58	1689.57
326.79	1748.97
327.00	1660.90
327.22	1816.55
327.43	1738.73
327.64	1671.14
327.85	1755.11
328.07	1675.24
328.28	1824.74
328.49	1628.14
328.70	1687.53
328.92	1724.39
329.13	1705.96
329.34	1761.25
329.55	1718.25
329.76	1681.38
329.98	1718.25
330.19	1787.88
330.40	1650.66
330.61	1701.86
330.83	1699.81
331.04	1669.09
331.25	1697.77
331.46	1673.19
331.68	1677.29
331.89	1763.30
332.10	1720.29
332.31	1609.70
332.52	1734.63
332.74	1746.92
332.95	1650.66
333.16	1687.53
333.37	1708.01
333.58	1587.18
333.80	1722.34
334.01	1642.47
334.22	1804.26
334.43	1679.33
334.64	1644.52
334.86	1593.32
335.07	1667.05
335.28	1740.77
335.49	1716.20
335.70	1685.48
335.92	1759.21
336.13	1845.22
336.34	1736.68
336.55	1701.86
336.76	1808.36
336.98	1613.80
337.19	1658.85
337.40	1806.31
337.61	1847.27
337.82	1611.75
338.04	1730.53
338.25	1595.37
338.46	1685.48
338.67	1648.61
338.88	1652.71
339.09	1712.10
339.31	1681.38
339.52	1585.13
339.73	1644.52
339.94	1732.58
340.15	1708.01
340.36	1714.15
340.58	1744.87
340.79	1748.97
341.00	1777.64
341.21	1648.61
341.42	1789.92
341.63	1712.10
341.85	1712.10
342.06	1701.86
342.27	1650.66
342.48	1771.49
342.69	1556.46
342.90	1685.48
343.12	1712.10
343.33	1705.96
343.54	1730.53
343.75	1808.36
343.96	1689.57
344.17	1632.23
344.38	1691.62
344.60	1656.81
344.81	1593.32
345.02	1708.01
345.23	1769.44
345.44	1779.68
345.65	1673.19
345.86	1683.43
346.07	1677.29
346.29	1736.68
346.50	1728.49
346.71	1771.49
346.92	1785.83
347.13	1822.69
347.34	1669.09
347.55	1689.57
347.76	1703.91
347.98	1613.80
348.19	1703.91
348.40	1732.58
348.61	1701.86
348.82	1753.06
349.03	1730.53
349.24	1658.85
349.45	1845.22
349.66	1619.94
349.88	1701.86
350.09	1642.47
350.30	1695.72
350.51	1753.06
350.72	1726.44
350.93	1642.47
351.14	1660.90
351.35	1755.11
351.56	1718.25
351.77	1667.05
351.99	1685.48
352.20	1783.78
352.41	1769.44
352.62	1638.38
352.83	1757.16
353.04	1677.29
353.25	1705.96
353.46	1699.81
353.67	1660.90
353.88	1578.98
354.09	1660.90
354.30	1677.29
354.52	1744.87
354.73	1648.61
354.94	1646.57
355.15	1783.78
355.36	1783.78
355.57	1624.04
355.78	1785.83
355.99	1687.53
356.20	1644.52
356.41	1765.35
356.62	1708.01
356.83	1789.92
357.04	1816.55
357.25	1560.55
357.46	1621.99
357.68	1671.14
357.89	1679.33
358.10	1630.18
358.31	1656.81
358.52	1681.38
358.73	1697.77
358.94	1632.23
359.15	1701.86
359.36	1759.21
359.57	1734.63
359.78	1687.53
359.99	1751.01
360.20	1687.53
360.41	1783.78
360.62	1763.30
360.83	1691.62
361.04	1669.09
361.25	1761.25
361.46	1767.40
361.67	1763.30
361.88	1789.92
362.09	1712.10
362.30	1693.67
362.51	1531.88
362.72	1673.19
362.93	1804.26
363.14	1722.34
363.35	1734.63
363.56	1691.62
363.78	1677.29
363.99	1726.44
364.20	1644.52
364.41	1681.38
364.62	1841.12
364.83	1712.10
365.04	1630.18
365.25	1728.49
365.46	1789.92
365.67	1662.95
365.88	1654.76
366.09	1714.15
366.30	1595.37
366.51	1701.86
366.72	1619.94
366.93	1640.42
367.14	1689.57
367.35	1710.05
367.56	1746.92
367.77	1767.40
367.98	1722.34
368.18	1765.35
368.39	1763.30
368.60	1683.43
368.81	1726.44
369.02	1708.01
369.23	1701.86
369.44	1562.60
369.65	1691.62
369.86	1705.96
370.07	1718.25
370.28	1697.77
370.49	1820.64
370.70	1734.63
370.91	1626.09
371.12	1607.66
371.33	1738.73
371.54	1677.29
371.75	1812.45
371.96	1591.27
372.17	1701.86
372.38	1656.81
372.59	1734.63
372.80	1703.91
373.01	1687.53
373.22	1724.39
373.43	1714.15
373.64	1601.51
373.85	1798.12
374.06	1802.21
374.26	1722.34
374.47	1726.44
374.68	1814.50
374.89	1763.30
375.10	1724.39
375.31	1800.16
375.52	1720.29
375.73	1703.91
375.94	1671.14
376.15	1759.21
376.36	1701.86
376.57	1693.67
376.78	1640.42
376.99	1730.53
377.20	1730.53
377.40	1728.49
377.61	1802.21
377.82	1654.76
378.03	1755.11
378.24	1812.45
378.45	1703.91
378.66	1718.25
378.87	1578.98
379.08	1574.89
379.29	1599.46
379.50	1742.82
379.71	1671.14
379.91	1671.14
380.12	1636.33
380.33	1683.43
380.54	1748.97
380.75	1757.16
380.96	1570.79
381.17	1806.31
381.38	1673.19
381.59	1763.30
381.80	1738.73
382.00	1830.88
382.21	1761.25
382.42	1800.16
382.63	1890.28
382.84	1705.96
383.05	1820.64
383.26	1814.50
383.47	1746.92
383.68	1740.77
383.88	1708.01
384.09	1744.87
384.30	1771.49
384.51	1701.86
384.72	1617.90
384.93	1658.85
385.14	1665.00
385.35	1685.48
385.55	1679.33
385.76	1755.11
385.97	1685.48
386.18	1671.14
386.39	1617.90
386.60	1759.21
386.81	1654.76
387.02	1607.66
387.22	1626.09
387.43	1755.11
387.64	1746.92
387.85	1806.31
388.06	2228.19
388.27	4231.10
388.48	6952.85
388.68	8218.50
388.89	9750.38
389.10	9916.26
389.31	8658.81
389.52	7630.73
389.73	6596.51
389.93	6401.95
390.14	5896.10
390.35	5105.59
390.56	4394.94
390.77	3723.21
390.98	3080.14
391.18	2559.96
391.39	2129.89
391.60	1734.63
391.81	1880.04
392.02	1720.29
392.23	1849.32
392.43	1718.25
392.64	1773.54
392.85	1710.05
393.06	1822.69
393.27	1701.86
393.47	1683.43
393.68	1724.39
393.89	1660.90
394.10	1771.49
394.31	1689.57
394.52	1640.42
394.72	1613.80
394.93	1759.21
395.14	1572.84
395.35	1679.33
395.56	1589.22
395.76	1691.62
395.97	1732.58
396.18	1804.26
396.39	1869.80
396.60	2047.97
396.80	1816.55
397.01	1832.93
397.22	1929.19
397.43	1814.50
397.64	1791.97
397.84	1794.02
398.05	1818.60
398.26	1783.78
398.47	1730.53
398.67	1789.92
398.88	1689.57
399.09	1720.29
399.30	1681.38
399.51	1738.73
399.71	1660.90
399.92	1615.85
400.13	1681.38
400.34	1734.63
400.54	1710.05
400.75	1832.93
400.96	1755.11
401.17	1755.11
401.37	1652.71
401.58	1703.91
401.79	1781.73
402.00	1753.06
402.21	2011.11
402.41	2047.97
402.62	2000.87
402.83	1935.33
403.04	2056.16
403.24	1986.53
403.45	1824.74
403.66	1886.18
403.87	1839.08
404.07	1906.66
404.28	1941.47
404.49	1861.60
404.70	1763.30
404.90	1767.40
405.11	1783.78
405.32	1789.92
405.52	1718.25
405.73	1665.00
405.94	1753.06
406.15	1642.47
406.35	1777.64
406.56	1697.77
406.77	1705.96
406.98	1783.78
407.18	1599.46
407.39	1734.63
407.60	1697.77
407.80	1685.48
408.01	1644.52
408.22	1654.76
408.43	1748.97
408.63	1726.44
408.84	1742.82
409.05	1789.92
409.25	1656.81
409.46	1648.61
409.67	1697.77
409.88	1662.95
410.08	1765.35
410.29	1650.66
410.50	1753.06
410.70	1812.45
410.91	1660.90
411.12	1730.53
411.32	1703.91
411.53	1619.94
411.74	1791.97
411.95	1763.30
412.15	1685.48
412.36	1759.21
412.57	1738.73
412.77	1763.30
412.98	1730.53
413.19	1761.25
413.39	1839.08
413.60	1689.57
413.81	1802.21
414.01	1660.90
414.22	1701.86
414.43	1705.96
414.63	1720.29
414.84	1820.64
415.05	1765.35
415.25	1617.90
415.46	1701.86
415.67	1665.00
415.87	1746.92
416.08	1667.05
416.29	1710.05
416.49	1724.39
416.70	1705.96
416.91	1681.38
417.11	1667.05
417.32	1828.84
417.53	1775.59
417.73	1763.30
417.94	1665.00
418.15	1769.44
418.35	1791.97
418.56	1724.39
418.77	1871.84
418.97	1679.33
419.18	1675.24
419.38	1605.61
419.59	1701.86
419.80	1787.88
420.00	1656.81
420.21	1673.19
420.42	1751.01
420.62	1734.63
420.83	1685.48
421.04	1685.48
421.24	1765.35
421.45	1712.10
421.65	1708.01
421.86	1687.53
422.07	1683.43
422.27	1730.53
422.48	1714.15
422.69	1640.42
422.89	1667.05
423.10	1617.90
423.30	1636.33
423.51	1671.14
423.72	1722.34
423.92	1787.88
424.13	1685.48
424.33	1648.61
424.54	1767.40
424.75	1740.77
424.95	1837.03
425.16	1769.44
425.36	1654.76
425.57	1855.46
425.78	1748.97
425.98	1765.35
426.19	1675.24
426.39	1677.29
426.60	1689.57
426.81	1820.64
427.01	1769.44
427.22	1708.01
427.42	1634.28
427.63	1626.09
427.83	1763.30
428.04	1826.79
428.25	1744.87
428.45	1763.30
428.66	1734.63
428.86	1759.21
429.07	1646.57
429.28	1748.97
429.48	1681.38
429.69	1687.53
429.89	1705.96
430.10	1683.43
430.30	1705.96
430.51	1767.40
430.71	1650.66
430.92	1738.73
431.13	1658.85
431.33	1724.39
431.54	1691.62
431.74	1785.83
431.95	1802.21
432.15	1613.80
432.36	1787.88
432.56	1761.25
432.77	1789.92
432.98	1800.16
433.18	1701.86
433.39	1736.68
433.59	1671.14
433.80	1740.77
434.00	1859.56
434.21	1652.71
434.41	1781.73
434.62	1787.88
434.82	1671.14
435.03	1669.09
435.23	1697.77
435.44	1609.70
435.64	1636.33
435.85	1738.73
436.06	1695.72
436.26	1673.19
436.47	1714.15
436.67	1687.53
436.88	1675.24
437.08	1806.31
437.29	1748.97
437.49	1687.53
437.70	1771.49
437.90	1652.71
438.11	1808.36
438.31	1710.05
438.52	1818.60
438.72	1834.98
438.93	1890.28
439.13	1822.69
439.34	1804.26
439.54	1740.77
439.75	1765.35
439.95	1740.77
440.16	1724.39
440.36	1746.92
440.57	1832.93
440.77	1804.26
440.98	1785.83
441.18	1814.50
441.39	1705.96
441.59	1677.29
441.80	1804.26
442.00	1724.39
442.21	1691.62
442.41	1662.95
442.62	1712.10
442.82	1718.25
443.02	1652.71
443.23	1710.05
443.43	1695.72
443.64	1738.73
443.84	1675.24
444.05	1851.36
444.25	1720.29
444.46	1687.53
444.66	1755.11
444.87	1765.35
445.07	1683.43
445.28	1738.73
445.48	1834.98
445.69	1822.69
445.89	1849.32
446.09	1783.78
446.30	2037.73
446.50	2719.70
446.71	3688.39
446.91	4364.22
447.12	4777.91
447.32	4841.40
447.53	4409.28
447.73	3889.09
447.93	3442.64
448.14	3358.67
448.34	3243.98
448.55	2944.98
448.75	2734.04
448.96	2676.70
449.16	2383.84
449.36	2228.19
449.57	2070.50
449.77	1851.36
449.98	1699.81
450.18	1818.60
450.39	1839.08
450.59	1748.97
450.79	1681.38
451.00	1775.59
451.20	1732.58
451.41	1662.95
451.61	1794.02
451.81	1697.77
452.02	1695.72
452.22	1724.39
452.43	1689.57
452.63	1652.71
