SpectraSuite Data File
++++++++++++++++++++++++++++++++++++
Date: Mon Jun 06 16:55:37 CEST 2016
User: root
Dark Spectrum Present: No
Reference Spectrum Present: No
Number of Sampled Component Spectra: 1
Spectrometers: USB4C02835
Integration Time (usec): 100000 (USB4C02835)
Spectra Averaged: 1 (USB4C02835)
Boxcar Smoothing: 0 (USB4C02835)
Correct for Electrical Dark: No (USB4C02835)
Strobe/Lamp Enabled: No (USB4C02835)
Correct for Detector Non-linearity: No (USB4C02835)
Correct for Stray Light: No (USB4C02835)
Number of Pixels in Processed Spectrum: 3648
>>>>>Begin Processed Spectral Data<<<<<
177.47	1454.06
177.69	1454.06
177.91	1454.06
178.13	1476.59
178.36	1501.16
178.58	1656.81
178.80	1720.29
179.02	1632.23
179.24	1591.27
179.46	1699.81
179.68	1718.25
179.90	1734.63
180.13	1714.15
180.35	1679.33
180.57	1675.24
180.79	1761.25
181.01	1732.58
181.23	1785.83
181.45	1808.36
181.67	1740.77
181.90	1804.26
182.12	1728.49
182.34	1656.81
182.56	1742.82
182.78	1677.29
183.00	1669.09
183.22	1732.58
183.44	1572.84
183.66	1822.69
183.89	1740.77
184.11	1728.49
184.33	1783.78
184.55	1705.96
184.77	1685.48
184.99	1691.62
185.21	1636.33
185.43	1898.47
185.65	1632.23
185.87	1710.05
186.10	1777.64
186.32	1857.51
186.54	1681.38
186.76	1708.01
186.98	1722.34
187.20	1740.77
187.42	1673.19
187.64	1722.34
187.86	1740.77
188.08	1736.68
188.30	1691.62
188.52	1671.14
188.75	1804.26
188.97	1767.40
189.19	1689.57
189.41	1699.81
189.63	1718.25
189.85	1673.19
190.07	1685.48
190.29	1624.04
190.51	1806.31
190.73	1656.81
190.95	1740.77
191.17	1794.02
191.39	1630.18
191.61	1712.10
191.84	1675.24
192.06	1779.68
192.28	1619.94
192.50	1906.66
192.72	1716.20
192.94	1679.33
193.16	1753.06
193.38	1675.24
193.60	1730.53
193.82	1632.23
194.04	1796.07
194.26	1679.33
194.48	1687.53
194.70	1701.86
194.92	1644.52
195.14	1695.72
195.36	1699.81
195.58	1738.73
195.80	1712.10
196.02	1601.51
196.24	1681.38
196.46	1763.30
196.69	1687.53
196.91	1918.95
197.13	1662.95
197.35	1605.61
197.57	1763.30
197.79	1720.29
198.01	1736.68
198.23	1763.30
198.45	1703.91
198.67	1642.47
198.89	1720.29
199.11	1685.48
199.33	1722.34
199.55	1654.76
199.77	1671.14
199.99	1720.29
200.21	1652.71
200.43	1716.20
200.65	1640.42
200.87	1609.70
201.09	1662.95
201.31	1771.49
201.53	1775.59
201.75	1628.14
201.97	1751.01
202.19	1699.81
202.41	1757.16
202.63	1826.79
202.85	1728.49
203.07	1761.25
203.29	1689.57
203.51	1697.77
203.73	1671.14
203.95	1861.60
204.17	1785.83
204.39	1771.49
204.61	1673.19
204.83	1675.24
205.05	1705.96
205.27	1665.00
205.49	1824.74
205.71	1615.85
205.93	1621.99
206.15	1640.42
206.37	1757.16
206.59	1738.73
206.81	1689.57
207.03	1603.56
207.25	1581.03
207.47	1810.40
207.69	1708.01
207.91	1818.60
208.13	1757.16
208.34	1658.85
208.56	1673.19
208.78	1732.58
209.00	1705.96
209.22	1599.46
209.44	1736.68
209.66	1683.43
209.88	1693.67
210.10	1693.67
210.32	1681.38
210.54	1746.92
210.76	1667.05
210.98	1814.50
211.20	1619.94
211.42	1742.82
211.64	1742.82
211.86	1681.38
212.08	1619.94
212.30	1734.63
212.52	1718.25
212.74	1603.56
212.96	1742.82
213.17	1718.25
213.39	1832.93
213.61	1853.41
213.83	1689.57
214.05	1660.90
214.27	1777.64
214.49	1642.47
214.71	1638.38
214.93	1798.12
215.15	1748.97
215.37	1718.25
215.59	1613.80
215.81	1691.62
216.03	1828.84
216.24	1775.59
216.46	1673.19
216.68	1771.49
216.90	1753.06
217.12	1765.35
217.34	1751.01
217.56	1785.83
217.78	1824.74
218.00	1746.92
218.22	1669.09
218.44	1730.53
218.66	1822.69
218.87	1865.70
219.09	1658.85
219.31	1832.93
219.53	1701.86
219.75	1705.96
219.97	1726.44
220.19	1626.09
220.41	1705.96
220.63	1816.55
220.85	1771.49
221.06	1734.63
221.28	1779.68
221.50	1787.88
221.72	1665.00
221.94	1701.86
222.16	1691.62
222.38	1693.67
222.60	1777.64
222.82	1742.82
223.03	1652.71
223.25	1642.47
223.47	1773.54
223.69	1865.70
223.91	1779.68
224.13	1691.62
224.35	1652.71
224.57	1800.16
224.78	1728.49
225.00	1658.85
225.22	1744.87
225.44	1681.38
225.66	1740.77
225.88	1683.43
226.10	1755.11
226.32	1697.77
226.53	1755.11
226.75	1705.96
226.97	1703.91
227.19	1669.09
227.41	1665.00
227.63	1609.70
227.85	1630.18
228.06	1689.57
228.28	1722.34
228.50	1787.88
228.72	1669.09
228.94	1667.05
229.16	1546.22
229.37	1689.57
229.59	1699.81
229.81	1796.07
230.03	1683.43
230.25	1687.53
230.47	1638.38
230.69	1613.80
230.90	1726.44
231.12	1650.66
231.34	1755.11
231.56	1767.40
231.78	1626.09
232.00	1718.25
232.21	1796.07
232.43	1683.43
232.65	1632.23
232.87	1728.49
233.09	1693.67
233.30	1640.42
233.52	1726.44
233.74	1718.25
233.96	1595.37
234.18	1669.09
234.40	1699.81
234.61	1787.88
234.83	1595.37
235.05	1619.94
235.27	1880.04
235.49	1828.84
235.70	1652.71
235.92	1718.25
236.14	1763.30
236.36	1822.69
236.58	1605.61
236.79	1726.44
237.01	1632.23
237.23	1740.77
237.45	1832.93
237.67	1699.81
237.88	1753.06
238.10	1822.69
238.32	1648.61
238.54	1761.25
238.76	1712.10
238.97	1603.56
239.19	1638.38
239.41	1804.26
239.63	1748.97
239.85	1703.91
240.06	1734.63
240.28	1695.72
240.50	1759.21
240.72	1753.06
240.93	1820.64
241.15	1742.82
241.37	1679.33
241.59	1705.96
241.81	1751.01
242.02	1673.19
242.24	1765.35
242.46	1732.58
242.68	1667.05
242.89	1705.96
243.11	1779.68
243.33	1779.68
243.55	1722.34
243.76	1757.16
243.98	1673.19
244.20	1703.91
244.42	1763.30
244.64	1671.14
244.85	1710.05
245.07	1703.91
245.29	1744.87
245.51	1689.57
245.72	1804.26
245.94	1748.97
246.16	1742.82
246.38	1779.68
246.59	1644.52
246.81	1613.80
247.03	1779.68
247.24	1621.99
247.46	1599.46
247.68	1759.21
247.90	1681.38
248.11	1671.14
248.33	1738.73
248.55	1673.19
248.77	1722.34
248.98	1726.44
249.20	1816.55
249.42	1728.49
249.64	1738.73
249.85	1724.39
250.07	1714.15
250.29	1671.14
250.50	1759.21
250.72	1656.81
250.94	1736.68
251.16	1814.50
251.37	1761.25
251.59	1755.11
251.81	1724.39
252.02	1804.26
252.24	1611.75
252.46	1787.88
252.68	1658.85
252.89	1644.52
253.11	1652.71
253.33	1789.92
253.54	1816.55
253.76	1652.71
253.98	1689.57
254.20	1654.76
254.41	1611.75
254.63	1722.34
254.85	1710.05
255.06	1648.61
255.28	1734.63
255.50	1710.05
255.71	1619.94
255.93	1662.95
256.15	1677.29
256.36	1738.73
256.58	1677.29
256.80	1732.58
257.02	1734.63
257.23	1658.85
257.45	1703.91
257.67	1773.54
257.88	1648.61
258.10	1794.02
258.32	1726.44
258.53	1771.49
258.75	1851.36
258.97	1615.85
259.18	1671.14
259.40	1748.97
259.62	1861.60
259.83	1828.84
260.05	1718.25
260.27	2058.21
260.48	1716.20
260.70	1673.19
260.92	1644.52
261.13	1763.30
261.35	1763.30
261.57	1722.34
261.78	1556.46
262.00	1736.68
262.22	1703.91
262.43	1632.23
262.65	1650.66
262.86	1697.77
263.08	1798.12
263.30	1783.78
263.51	1603.56
263.73	1665.00
263.95	1771.49
264.16	1697.77
264.38	1687.53
264.60	1734.63
264.81	1769.44
265.03	1744.87
265.25	1728.49
265.46	1652.71
265.68	1744.87
265.89	1761.25
266.11	1578.98
266.33	1748.97
266.54	1810.40
266.76	1816.55
266.98	1734.63
267.19	1775.59
267.41	1748.97
267.62	1644.52
267.84	1712.10
268.06	1765.35
268.27	1718.25
268.49	1732.58
268.70	1689.57
268.92	1673.19
269.14	1673.19
269.35	1603.56
269.57	1644.52
269.79	1708.01
270.00	1695.72
270.22	1765.35
270.43	1619.94
270.65	1599.46
270.87	1751.01
271.08	1689.57
271.30	1763.30
271.51	1742.82
271.73	1753.06
271.95	1822.69
272.16	1718.25
272.38	1757.16
272.59	1654.76
272.81	1683.43
273.02	1705.96
273.24	1742.82
273.46	1746.92
273.67	1652.71
273.89	1613.80
274.10	1624.04
274.32	1804.26
274.54	1777.64
274.75	1763.30
274.97	1763.30
275.18	1757.16
275.40	1642.47
275.61	1710.05
275.83	1695.72
276.05	1630.18
276.26	1675.24
276.48	1691.62
276.69	1613.80
276.91	1701.86
277.12	1816.55
277.34	1748.97
277.55	1779.68
277.77	1722.34
277.99	1703.91
278.20	1693.67
278.42	1628.14
278.63	1662.95
278.85	1679.33
279.06	1636.33
279.28	1683.43
279.49	1689.57
279.71	1697.77
279.93	1669.09
280.14	1744.87
280.36	1697.77
280.57	1824.74
280.79	1798.12
281.00	1599.46
281.22	1710.05
281.43	1787.88
281.65	1544.17
281.86	1650.66
282.08	1722.34
282.29	1773.54
282.51	1705.96
282.73	1718.25
282.94	1558.50
283.16	1804.26
283.37	1787.88
283.59	1730.53
283.80	1740.77
284.02	1724.39
284.23	1783.78
284.45	1693.67
284.66	1701.86
284.88	1671.14
285.09	1683.43
285.31	1720.29
285.52	1658.85
285.74	1648.61
285.95	1703.91
286.17	1699.81
286.38	1787.88
286.60	1703.91
286.81	1716.20
287.03	1667.05
287.24	1720.29
287.46	1759.21
287.67	1763.30
287.89	1783.78
288.10	1703.91
288.32	1738.73
288.53	1746.92
288.75	1763.30
288.96	1777.64
289.18	1708.01
289.39	1730.53
289.61	1775.59
289.82	1810.40
290.04	1804.26
290.25	1607.66
290.47	1667.05
290.68	1720.29
290.90	1718.25
291.11	1665.00
291.33	1767.40
291.54	1701.86
291.76	1687.53
291.97	1744.87
292.18	1751.01
292.40	1626.09
292.61	1701.86
292.83	1828.84
293.04	1718.25
293.26	1769.44
293.47	1648.61
293.69	1691.62
293.90	1656.81
294.12	1816.55
294.33	1697.77
294.55	1714.15
294.76	1736.68
294.97	1814.50
295.19	1843.17
295.40	1611.75
295.62	1787.88
295.83	1767.40
296.05	1665.00
296.26	1761.25
296.48	1722.34
296.69	1812.45
296.90	1667.05
297.12	1738.73
297.33	1765.35
297.55	1783.78
297.76	1716.20
297.98	1740.77
298.19	1677.29
298.41	1708.01
298.62	1607.66
298.83	1839.08
299.05	1677.29
299.26	1716.20
299.48	1705.96
299.69	1759.21
299.90	1714.15
300.12	1617.90
300.33	1728.49
300.55	1681.38
300.76	1765.35
300.98	1658.85
301.19	1722.34
301.40	1722.34
301.62	1753.06
301.83	1708.01
302.05	1683.43
302.26	1701.86
302.47	1767.40
302.69	1677.29
302.90	1677.29
303.12	1611.75
303.33	1693.67
303.54	1746.92
303.76	1726.44
303.97	1656.81
304.19	1822.69
304.40	1613.80
304.61	1732.58
304.83	1802.21
305.04	1771.49
305.26	1779.68
305.47	1601.51
305.68	1681.38
305.90	1689.57
306.11	1841.12
306.33	1662.95
306.54	1597.42
306.75	1601.51
306.97	1671.14
307.18	1652.71
307.39	1755.11
307.61	1742.82
307.82	1730.53
308.04	1765.35
308.25	1697.77
308.46	1695.72
308.68	1726.44
308.89	1679.33
309.10	1808.36
309.32	1667.05
309.53	1683.43
309.74	1708.01
309.96	1726.44
310.17	1679.33
310.39	1689.57
310.60	1716.20
310.81	1738.73
311.03	1667.05
311.24	1728.49
311.45	1691.62
311.67	1865.70
311.88	1722.34
312.09	1683.43
312.31	1693.67
312.52	1765.35
312.73	1748.97
312.95	1607.66
313.16	1773.54
313.37	1761.25
313.59	1722.34
313.80	1738.73
314.01	1773.54
314.23	1595.37
314.44	1689.57
314.65	1630.18
314.87	1652.71
315.08	1662.95
315.29	1685.48
315.51	1671.14
315.72	1630.18
315.93	1728.49
316.15	1726.44
316.36	1593.32
316.57	1730.53
316.79	1705.96
317.00	1785.83
317.21	1734.63
317.43	1574.89
317.64	1656.81
317.85	1636.33
318.07	1683.43
318.28	1693.67
318.49	1796.07
318.70	1886.18
318.92	1849.32
319.13	1810.40
319.34	1927.14
319.56	1773.54
319.77	1841.12
319.98	1802.21
320.20	1751.01
320.41	1765.35
320.62	1753.06
320.83	1636.33
321.05	1851.36
321.26	1726.44
321.47	1677.29
321.69	1755.11
321.90	1601.51
322.11	1697.77
322.32	1660.90
322.54	1832.93
322.75	1689.57
322.96	1839.08
323.18	1648.61
323.39	1630.18
323.60	1574.89
323.81	1796.07
324.03	1703.91
324.24	1746.92
324.45	1820.64
324.66	1693.67
324.88	1837.03
325.09	1806.31
325.30	1783.78
325.52	1732.58
325.73	1732.58
325.94	1626.09
326.15	1662.95
326.37	1736.68
326.58	1744.87
326.79	1812.45
327.00	1634.28
327.22	1714.15
327.43	1716.20
327.64	1681.38
327.85	1734.63
328.07	1697.77
328.28	1873.89
328.49	1730.53
328.70	1669.09
328.92	1710.05
329.13	1687.53
329.34	1710.05
329.55	1789.92
329.76	1738.73
329.98	1773.54
330.19	1773.54
330.40	1705.96
330.61	1773.54
330.83	1748.97
331.04	1628.14
331.25	1742.82
331.46	1705.96
331.68	1708.01
331.89	1810.40
332.10	1724.39
332.31	1648.61
332.52	1714.15
332.74	1798.12
332.95	1624.04
333.16	1624.04
333.37	1753.06
333.58	1638.38
333.80	1677.29
334.01	1617.90
334.22	1691.62
334.43	1650.66
334.64	1656.81
334.86	1585.13
335.07	1697.77
335.28	1660.90
335.49	1687.53
335.70	1746.92
335.92	1794.02
336.13	1759.21
336.34	1779.68
336.55	1648.61
336.76	1687.53
336.98	1589.22
337.19	1652.71
337.40	1789.92
337.61	1859.56
337.82	1705.96
338.04	1818.60
338.25	1685.48
338.46	1767.40
338.67	1673.19
338.88	1710.05
339.09	1615.85
339.31	1681.38
339.52	1574.89
339.73	1640.42
339.94	1681.38
340.15	1757.16
340.36	1718.25
340.58	1724.39
340.79	1689.57
341.00	1687.53
341.21	1671.14
341.42	1687.53
341.63	1660.90
341.85	1679.33
342.06	1740.77
342.27	1671.14
342.48	1726.44
342.69	1644.52
342.90	1701.86
343.12	1818.60
343.33	1701.86
343.54	1738.73
343.75	1806.31
343.96	1712.10
344.17	1730.53
344.38	1742.82
344.60	1671.14
344.81	1710.05
345.02	1693.67
345.23	1710.05
345.44	1755.11
345.65	1746.92
345.86	1771.49
346.07	1693.67
346.29	1660.90
346.50	1673.19
346.71	1759.21
346.92	1773.54
347.13	1830.88
347.34	1681.38
347.55	1689.57
347.76	1722.34
347.98	1589.22
348.19	1681.38
348.40	1781.73
348.61	1681.38
348.82	1781.73
349.03	1712.10
349.24	1710.05
349.45	1847.27
349.66	1632.23
349.88	1691.62
350.09	1652.71
350.30	1763.30
350.51	1812.45
350.72	1775.59
350.93	1751.01
351.14	1660.90
351.35	1644.52
351.56	1783.78
351.77	1695.72
351.99	1746.92
352.20	1777.64
352.41	1781.73
352.62	1558.50
352.83	1742.82
353.04	1703.91
353.25	1667.05
353.46	1718.25
353.67	1724.39
353.88	1550.31
354.09	1775.59
354.30	1705.96
354.52	1753.06
354.73	1693.67
354.94	1701.86
355.15	1724.39
355.36	1839.08
355.57	1697.77
355.78	1691.62
355.99	1697.77
356.20	1626.09
356.41	1718.25
356.62	1734.63
356.83	1689.57
357.04	1755.11
357.25	1650.66
357.46	1775.59
357.68	1654.76
357.89	1636.33
358.10	1712.10
358.31	1734.63
358.52	1726.44
358.73	1642.47
358.94	1683.43
359.15	1697.77
359.36	1677.29
359.57	1757.16
359.78	1779.68
359.99	1820.64
360.20	1675.24
360.41	1769.44
360.62	1726.44
360.83	1744.87
361.04	1763.30
361.25	1654.76
361.46	1798.12
361.67	1701.86
361.88	1675.24
362.09	1722.34
362.30	1726.44
362.51	1619.94
362.72	1665.00
362.93	1689.57
363.14	1755.11
363.35	1718.25
363.56	1660.90
363.78	1785.83
363.99	1648.61
364.20	1611.75
364.41	1703.91
364.62	1699.81
364.83	1695.72
365.04	1708.01
365.25	1646.57
365.46	1828.84
365.67	1630.18
365.88	1613.80
366.09	1673.19
366.30	1705.96
366.51	1687.53
366.72	1714.15
366.93	1691.62
367.14	1798.12
367.35	1714.15
367.56	1705.96
367.77	1777.64
367.98	1744.87
368.18	1740.77
368.39	1779.68
368.60	1544.17
368.81	1796.07
369.02	1763.30
369.23	1654.76
369.44	1660.90
369.65	1581.03
369.86	1742.82
370.07	1751.01
370.28	1658.85
370.49	1687.53
370.70	1722.34
370.91	1562.60
371.12	1630.18
371.33	1769.44
371.54	1662.95
371.75	1824.74
371.96	1591.27
372.17	1757.16
372.38	1675.24
372.59	1744.87
372.80	1703.91
373.01	1675.24
373.22	1714.15
373.43	1742.82
373.64	1677.29
373.85	1748.97
374.06	1771.49
374.26	1818.60
374.47	1720.29
374.68	1857.51
374.89	1767.40
375.10	1656.81
375.31	1767.40
375.52	1730.53
375.73	1687.53
375.94	1691.62
376.15	1806.31
376.36	1673.19
376.57	1658.85
376.78	1646.57
376.99	1710.05
377.20	1763.30
377.40	1693.67
377.61	1841.12
377.82	1585.13
378.03	1771.49
378.24	1720.29
378.45	1701.86
378.66	1783.78
378.87	1654.76
379.08	1630.18
379.29	1728.49
379.50	1757.16
379.71	1675.24
379.91	1710.05
380.12	1695.72
380.33	1738.73
380.54	1677.29
380.75	1738.73
380.96	1656.81
381.17	1722.34
381.38	1701.86
381.59	1757.16
381.80	1755.11
382.00	1826.79
382.21	1679.33
382.42	1832.93
382.63	1888.23
382.84	1779.68
383.05	1716.20
383.26	1828.84
383.47	1755.11
383.68	1794.02
383.88	1759.21
384.09	1695.72
384.30	1814.50
384.51	1781.73
384.72	1671.14
384.93	1667.05
385.14	1738.73
385.35	1748.97
385.55	1652.71
385.76	1744.87
385.97	1703.91
386.18	1640.42
386.39	1705.96
386.60	1697.77
386.81	1708.01
387.02	1660.90
387.22	1624.04
387.43	1806.31
387.64	1761.25
387.85	1740.77
388.06	2172.89
388.27	4286.40
388.48	6846.36
388.68	8234.88
388.89	9731.95
389.10	9815.91
389.31	8714.11
389.52	7696.27
389.73	6735.77
389.93	6256.54
390.14	5715.88
390.35	5154.74
390.56	4552.63
390.77	3872.71
390.98	2985.94
391.18	2467.80
391.39	2109.41
391.60	1863.65
391.81	1804.26
392.02	1728.49
392.23	1871.84
392.43	1736.68
392.64	1775.59
392.85	1671.14
393.06	1841.12
393.27	1656.81
393.47	1693.67
393.68	1720.29
393.89	1734.63
394.10	1759.21
394.31	1708.01
394.52	1632.23
394.72	1718.25
394.93	1732.58
395.14	1665.00
395.35	1773.54
395.56	1673.19
395.76	1746.92
395.97	1738.73
396.18	1904.61
396.39	1806.31
396.60	2009.06
396.80	1851.36
397.01	1808.36
397.22	1863.65
397.43	1853.41
397.64	1736.68
397.84	1757.16
398.05	1920.99
398.26	1800.16
398.47	1751.01
398.67	1800.16
398.88	1773.54
399.09	1751.01
399.30	1626.09
399.51	1681.38
399.71	1658.85
399.92	1656.81
400.13	1845.22
400.34	1732.58
400.54	1744.87
400.75	1773.54
400.96	1765.35
401.17	1834.98
401.37	1781.73
401.58	1722.34
401.79	1789.92
402.00	1773.54
402.21	1914.85
402.41	1976.29
402.62	2027.49
402.83	2072.54
403.04	1980.39
403.24	2047.97
403.45	1779.68
403.66	1920.99
403.87	1808.36
404.07	1943.52
404.28	1902.56
404.49	1920.99
404.70	1832.93
404.90	1759.21
405.11	1712.10
405.32	1794.02
405.52	1705.96
405.73	1691.62
405.94	1667.05
406.15	1712.10
406.35	1779.68
406.56	1744.87
406.77	1712.10
406.98	1763.30
407.18	1624.04
407.39	1746.92
407.60	1626.09
407.80	1748.97
408.01	1726.44
408.22	1787.88
408.43	1658.85
408.63	1732.58
408.84	1773.54
409.05	1769.44
409.25	1681.38
409.46	1732.58
409.67	1738.73
409.88	1744.87
410.08	1812.45
410.29	1753.06
410.50	1796.07
410.70	1714.15
410.91	1685.48
411.12	1705.96
411.32	1748.97
411.53	1642.47
411.74	1753.06
411.95	1796.07
412.15	1728.49
412.36	1806.31
412.57	1769.44
412.77	1837.03
412.98	1718.25
413.19	1705.96
413.39	1781.73
413.60	1742.82
413.81	1771.49
414.01	1689.57
414.22	1734.63
414.43	1742.82
414.63	1615.85
414.84	1738.73
415.05	1714.15
415.25	1705.96
415.46	1806.31
415.67	1728.49
415.87	1681.38
416.08	1734.63
416.29	1703.91
416.49	1785.83
416.70	1746.92
416.91	1695.72
417.11	1806.31
417.32	1755.11
417.53	1716.20
417.73	1767.40
417.94	1708.01
418.15	1751.01
418.35	1660.90
418.56	1738.73
418.77	1806.31
418.97	1689.57
419.18	1746.92
419.38	1656.81
419.59	1634.28
419.80	1791.97
420.00	1740.77
420.21	1714.15
420.42	1720.29
420.62	1712.10
420.83	1755.11
421.04	1685.48
421.24	1712.10
421.45	1769.44
421.65	1716.20
421.86	1736.68
422.07	1794.02
422.27	1665.00
422.48	1724.39
422.69	1619.94
422.89	1691.62
423.10	1751.01
423.30	1691.62
423.51	1679.33
423.72	1761.25
423.92	1714.15
424.13	1619.94
424.33	1746.92
424.54	1740.77
424.75	1718.25
424.95	1814.50
425.16	1728.49
425.36	1714.15
425.57	1720.29
425.78	1814.50
425.98	1718.25
426.19	1681.38
426.39	1615.85
426.60	1751.01
426.81	1857.51
427.01	1712.10
427.22	1753.06
427.42	1611.75
427.63	1734.63
427.83	1730.53
428.04	1773.54
428.25	1800.16
428.45	1837.03
428.66	1798.12
428.86	1775.59
429.07	1685.48
429.28	1665.00
429.48	1673.19
429.69	1675.24
429.89	1761.25
430.10	1685.48
430.30	1718.25
430.51	1671.14
430.71	1677.29
430.92	1658.85
431.13	1691.62
431.33	1798.12
431.54	1722.34
431.74	1808.36
431.95	1886.18
432.15	1689.57
432.36	1740.77
432.56	1734.63
432.77	1869.80
432.98	1798.12
433.18	1755.11
433.39	1658.85
433.59	1667.05
433.80	1830.88
434.00	1863.65
434.21	1791.97
434.41	1728.49
434.62	1806.31
434.82	1669.09
435.03	1697.77
435.23	1710.05
435.44	1642.47
435.64	1783.78
435.85	1681.38
436.06	1767.40
436.26	1791.97
436.47	1779.68
436.67	1697.77
436.88	1714.15
437.08	1748.97
437.29	1716.20
437.49	1759.21
437.70	1804.26
437.90	1708.01
438.11	1789.92
438.31	1877.99
438.52	1830.88
438.72	1855.46
438.93	1888.23
439.13	1759.21
439.34	1820.64
439.54	1771.49
439.75	1787.88
439.95	1845.22
440.16	1769.44
440.36	1746.92
440.57	1779.68
440.77	1738.73
440.98	1783.78
441.18	1775.59
441.39	1724.39
441.59	1656.81
441.80	1818.60
442.00	1781.73
442.21	1753.06
442.41	1685.48
442.62	1748.97
442.82	1669.09
443.02	1722.34
443.23	1812.45
443.43	1648.61
443.64	1787.88
443.84	1681.38
444.05	1828.84
444.25	1773.54
444.46	1738.73
444.66	1746.92
444.87	1798.12
445.07	1636.33
445.28	1703.91
445.48	1824.74
445.69	1751.01
445.89	1843.17
446.09	1703.91
446.30	2070.50
446.50	2623.45
446.71	3674.06
446.91	4319.17
447.12	4716.47
447.32	4982.71
447.53	4454.33
447.73	3852.23
447.93	3559.37
448.14	3319.76
448.34	3196.88
448.55	3014.61
448.75	2830.29
448.96	2758.61
449.16	2424.80
449.36	2263.01
449.57	2082.78
449.77	1894.37
449.98	1761.25
450.18	1832.93
450.39	1794.02
450.59	1783.78
450.79	1726.44
451.00	1648.61
451.20	1769.44
451.41	1746.92
451.61	1796.07
451.81	1759.21
452.02	1716.20
452.22	1708.01
452.43	1716.20
452.63	1757.16
