SpectraSuite Data File
++++++++++++++++++++++++++++++++++++
Date: Mon Jun 06 12:58:17 CEST 2016
User: root
Dark Spectrum Present: No
Reference Spectrum Present: No
Number of Sampled Component Spectra: 1
Spectrometers: USB4C02835
Integration Time (usec): 100000 (USB4C02835)
Spectra Averaged: 1 (USB4C02835)
Boxcar Smoothing: 0 (USB4C02835)
Correct for Electrical Dark: No (USB4C02835)
Strobe/Lamp Enabled: No (USB4C02835)
Correct for Detector Non-linearity: No (USB4C02835)
Correct for Stray Light: No (USB4C02835)
Number of Pixels in Processed Spectrum: 3648
>>>>>Begin Processed Spectral Data<<<<<
177.47	1542.12
177.69	1542.12
177.91	1542.12
178.13	1443.82
178.36	1492.97
178.58	1630.18
178.80	1761.25
179.02	1581.03
179.24	1662.95
179.46	1685.48
179.68	1736.68
179.90	1673.19
180.13	1718.25
180.35	1761.25
180.57	1632.23
180.79	1728.49
181.01	1665.00
181.23	1767.40
181.45	1779.68
181.67	1660.90
181.90	1755.11
182.12	1671.14
182.34	1601.51
182.56	1679.33
182.78	1775.59
183.00	1722.34
183.22	1730.53
183.44	1533.93
183.66	1738.73
183.89	1759.21
184.11	1644.52
184.33	1673.19
184.55	1705.96
184.77	1703.91
184.99	1748.97
185.21	1638.38
185.43	1918.95
185.65	1697.77
185.87	1665.00
186.10	1818.60
186.32	1794.02
186.54	1667.05
186.76	1703.91
186.98	1697.77
187.20	1716.20
187.42	1693.67
187.64	1640.42
187.86	1734.63
188.08	1783.78
188.30	1640.42
188.52	1716.20
188.75	1798.12
188.97	1753.06
189.19	1619.94
189.41	1626.09
189.63	1761.25
189.85	1662.95
190.07	1601.51
190.29	1665.00
190.51	1708.01
190.73	1697.77
190.95	1755.11
191.17	1679.33
191.39	1554.41
191.61	1675.24
191.84	1751.01
192.06	1689.57
192.28	1562.60
192.50	1796.07
192.72	1699.81
192.94	1656.81
193.16	1746.92
193.38	1771.49
193.60	1613.80
193.82	1665.00
194.04	1814.50
194.26	1736.68
194.48	1695.72
194.70	1650.66
194.92	1662.95
195.14	1759.21
195.36	1624.04
195.58	1734.63
195.80	1626.09
196.02	1632.23
196.24	1712.10
196.46	1783.78
196.69	1699.81
196.91	1839.08
197.13	1578.98
197.35	1724.39
197.57	1767.40
197.79	1751.01
198.01	1681.38
198.23	1773.54
198.45	1601.51
198.67	1595.37
198.89	1691.62
199.11	1710.05
199.33	1601.51
199.55	1505.26
199.77	1632.23
199.99	1791.97
200.21	1738.73
200.43	1714.15
200.65	1646.57
200.87	1544.17
201.09	1624.04
201.31	1632.23
201.53	1716.20
201.75	1720.29
201.97	1638.38
202.19	1736.68
202.41	1744.87
202.63	1787.88
202.85	1701.86
203.07	1714.15
203.29	1624.04
203.51	1687.53
203.73	1681.38
203.95	1820.64
204.17	1748.97
204.39	1736.68
204.61	1712.10
204.83	1693.67
205.05	1667.05
205.27	1759.21
205.49	1859.56
205.71	1697.77
205.93	1607.66
206.15	1699.81
206.37	1673.19
206.59	1665.00
206.81	1634.28
207.03	1619.94
207.25	1679.33
207.47	1677.29
207.69	1673.19
207.91	1779.68
208.13	1669.09
208.34	1689.57
208.56	1634.28
208.78	1757.16
209.00	1701.86
209.22	1566.70
209.44	1677.29
209.66	1701.86
209.88	1705.96
210.10	1726.44
210.32	1640.42
210.54	1697.77
210.76	1693.67
210.98	1744.87
211.20	1542.12
211.42	1671.14
211.64	1761.25
211.86	1798.12
212.08	1730.53
212.30	1644.52
212.52	1632.23
212.74	1732.58
212.96	1660.90
213.17	1703.91
213.39	1693.67
213.61	1734.63
213.83	1814.50
214.05	1615.85
214.27	1703.91
214.49	1574.89
214.71	1675.24
214.93	1716.20
215.15	1748.97
215.37	1746.92
215.59	1570.79
215.81	1671.14
216.03	1748.97
216.24	1759.21
216.46	1761.25
216.68	1693.67
216.90	1755.11
217.12	1736.68
217.34	1710.05
217.56	1740.77
217.78	1730.53
218.00	1740.77
218.22	1732.58
218.44	1693.67
218.66	1716.20
218.87	1845.22
219.09	1705.96
219.31	1658.85
219.53	1761.25
219.75	1701.86
219.97	1708.01
220.19	1701.86
220.41	1665.00
220.63	1769.44
220.85	1656.81
221.06	1658.85
221.28	1724.39
221.50	1861.60
221.72	1652.71
221.94	1748.97
222.16	1701.86
222.38	1808.36
222.60	1789.92
222.82	1638.38
223.03	1746.92
223.25	1667.05
223.47	1730.53
223.69	1804.26
223.91	1763.30
224.13	1697.77
224.35	1720.29
224.57	1796.07
224.78	1712.10
225.00	1667.05
225.22	1691.62
225.44	1738.73
225.66	1703.91
225.88	1685.48
226.10	1787.88
226.32	1701.86
226.53	1712.10
226.75	1701.86
226.97	1718.25
227.19	1695.72
227.41	1558.50
227.63	1699.81
227.85	1662.95
228.06	1736.68
228.28	1746.92
228.50	1732.58
228.72	1730.53
228.94	1730.53
229.16	1626.09
229.37	1671.14
229.59	1673.19
229.81	1753.06
230.03	1689.57
230.25	1660.90
230.47	1601.51
230.69	1728.49
230.90	1861.60
231.12	1609.70
231.34	1685.48
231.56	1751.01
231.78	1648.61
232.00	1757.16
232.21	1677.29
232.43	1705.96
232.65	1630.18
232.87	1734.63
233.09	1634.28
233.30	1710.05
233.52	1812.45
233.74	1773.54
233.96	1703.91
234.18	1656.81
234.40	1671.14
234.61	1775.59
234.83	1624.04
235.05	1669.09
235.27	1808.36
235.49	1722.34
235.70	1722.34
235.92	1855.46
236.14	1691.62
236.36	1828.84
236.58	1642.47
236.79	1697.77
237.01	1634.28
237.23	1687.53
237.45	1730.53
237.67	1658.85
237.88	1701.86
238.10	1730.53
238.32	1593.32
238.54	1685.48
238.76	1685.48
238.97	1667.05
239.19	1658.85
239.41	1701.86
239.63	1767.40
239.85	1683.43
240.06	1689.57
240.28	1734.63
240.50	1658.85
240.72	1628.14
240.93	1736.68
241.15	1767.40
241.37	1681.38
241.59	1742.82
241.81	1648.61
242.02	1687.53
242.24	1730.53
242.46	1722.34
242.68	1710.05
242.89	1718.25
243.11	1740.77
243.33	1687.53
243.55	1695.72
243.76	1714.15
243.98	1562.60
244.20	1697.77
244.42	1724.39
244.64	1712.10
244.85	1642.47
245.07	1689.57
245.29	1732.58
245.51	1759.21
245.72	1697.77
245.94	1798.12
246.16	1621.99
246.38	1742.82
246.59	1736.68
246.81	1685.48
247.03	1722.34
247.24	1540.07
247.46	1621.99
247.68	1628.14
247.90	1638.38
248.11	1712.10
248.33	1710.05
248.55	1753.06
248.77	1753.06
248.98	1718.25
249.20	1802.21
249.42	1632.23
249.64	1746.92
249.85	1724.39
250.07	1574.89
250.29	1841.12
250.50	1658.85
250.72	1669.09
250.94	1755.11
251.16	1736.68
251.37	1714.15
251.59	1685.48
251.81	1800.16
252.02	1822.69
252.24	1662.95
252.46	1775.59
252.68	1615.85
252.89	1613.80
253.11	1593.32
253.33	1822.69
253.54	1789.92
253.76	1581.03
253.98	1595.37
254.20	1765.35
254.41	1652.71
254.63	1705.96
254.85	1632.23
255.06	1654.76
255.28	1738.73
255.50	1658.85
255.71	1648.61
255.93	1652.71
256.15	1638.38
256.36	1650.66
256.58	1652.71
256.80	1781.73
257.02	1624.04
257.23	1755.11
257.45	1712.10
257.67	1705.96
257.88	1665.00
258.10	1679.33
258.32	1632.23
258.53	1691.62
258.75	1732.58
258.97	1624.04
259.18	1740.77
259.40	1755.11
259.62	1789.92
259.83	1761.25
260.05	1705.96
260.27	1976.29
260.48	1724.39
260.70	1626.09
260.92	1626.09
261.13	1791.97
261.35	1681.38
261.57	1671.14
261.78	1599.46
262.00	1665.00
262.22	1746.92
262.43	1677.29
262.65	1658.85
262.86	1673.19
263.08	1828.84
263.30	1751.01
263.51	1574.89
263.73	1654.76
263.95	1779.68
264.16	1685.48
264.38	1662.95
264.60	1800.16
264.81	1734.63
265.03	1755.11
265.25	1757.16
265.46	1673.19
265.68	1802.21
265.89	1673.19
266.11	1687.53
266.33	1718.25
266.54	1669.09
266.76	1689.57
266.98	1781.73
267.19	1779.68
267.41	1708.01
267.62	1742.82
267.84	1697.77
268.06	1652.71
268.27	1681.38
268.49	1730.53
268.70	1783.78
268.92	1703.91
269.14	1621.99
269.35	1593.32
269.57	1660.90
269.79	1720.29
270.00	1603.56
270.22	1806.31
270.43	1658.85
270.65	1556.46
270.87	1683.43
271.08	1794.02
271.30	1658.85
271.51	1671.14
271.73	1724.39
271.95	1724.39
272.16	1718.25
272.38	1689.57
272.59	1710.05
272.81	1726.44
273.02	1683.43
273.24	1796.07
273.46	1742.82
273.67	1640.42
273.89	1634.28
274.10	1591.27
274.32	1712.10
274.54	1724.39
274.75	1683.43
274.97	1607.66
275.18	1808.36
275.40	1763.30
275.61	1630.18
275.83	1742.82
276.05	1611.75
276.26	1628.14
276.48	1718.25
276.69	1636.33
276.91	1550.31
277.12	1769.44
277.34	1746.92
277.55	1726.44
277.77	1736.68
277.99	1644.52
278.20	1683.43
278.42	1701.86
278.63	1726.44
278.85	1611.75
279.06	1644.52
279.28	1671.14
279.49	1767.40
279.71	1740.77
279.93	1667.05
280.14	1671.14
280.36	1628.14
280.57	1746.92
280.79	1744.87
281.00	1673.19
281.22	1583.08
281.43	1742.82
281.65	1638.38
281.86	1677.29
282.08	1763.30
282.29	1822.69
282.51	1669.09
282.73	1701.86
282.94	1552.36
283.16	1726.44
283.37	1746.92
283.59	1740.77
283.80	1828.84
284.02	1677.29
284.23	1755.11
284.45	1673.19
284.66	1677.29
284.88	1701.86
285.09	1746.92
285.31	1740.77
285.52	1691.62
285.74	1628.14
285.95	1742.82
286.17	1732.58
286.38	1693.67
286.60	1738.73
286.81	1667.05
287.03	1591.27
287.24	1681.38
287.46	1763.30
287.67	1748.97
287.89	1875.94
288.10	1677.29
288.32	1726.44
288.53	1736.68
288.75	1703.91
288.96	1744.87
289.18	1708.01
289.39	1683.43
289.61	1787.88
289.82	1777.64
290.04	1755.11
290.25	1652.71
290.47	1665.00
290.68	1708.01
290.90	1771.49
291.11	1693.67
291.33	1669.09
291.54	1734.63
291.76	1605.61
291.97	1726.44
292.18	1701.86
292.40	1640.42
292.61	1656.81
292.83	1791.97
293.04	1679.33
293.26	1755.11
293.47	1726.44
293.69	1632.23
293.90	1650.66
294.12	1763.30
294.33	1669.09
294.55	1681.38
294.76	1730.53
294.97	1822.69
295.19	1904.61
295.40	1744.87
295.62	1669.09
295.83	1744.87
296.05	1660.90
296.26	1712.10
296.48	1699.81
296.69	1689.57
296.90	1798.12
297.12	1728.49
297.33	1773.54
297.55	1759.21
297.76	1689.57
297.98	1777.64
298.19	1789.92
298.41	1638.38
298.62	1628.14
298.83	1785.83
299.05	1751.01
299.26	1689.57
299.48	1634.28
299.69	1736.68
299.90	1759.21
300.12	1667.05
300.33	1763.30
300.55	1724.39
300.76	1783.78
300.98	1624.04
301.19	1753.06
301.40	1720.29
301.62	1675.24
301.83	1722.34
302.05	1759.21
302.26	1746.92
302.47	1679.33
302.69	1687.53
302.90	1675.24
303.12	1578.98
303.33	1718.25
303.54	1800.16
303.76	1697.77
303.97	1712.10
304.19	1818.60
304.40	1708.01
304.61	1714.15
304.83	1826.79
305.04	1796.07
305.26	1734.63
305.47	1636.33
305.68	1656.81
305.90	1652.71
306.11	1705.96
306.33	1679.33
306.54	1738.73
306.75	1646.57
306.97	1548.26
307.18	1722.34
307.39	1669.09
307.61	1802.21
307.82	1667.05
308.04	1720.29
308.25	1652.71
308.46	1689.57
308.68	1708.01
308.89	1681.38
309.10	1736.68
309.32	1765.35
309.53	1738.73
309.74	1705.96
309.96	1673.19
310.17	1771.49
310.39	1675.24
310.60	1681.38
310.81	1730.53
311.03	1675.24
311.24	1722.34
311.45	1701.86
311.67	1828.84
311.88	1753.06
312.09	1685.48
312.31	1656.81
312.52	1691.62
312.73	1578.98
312.95	1679.33
313.16	1652.71
313.37	1775.59
313.59	1701.86
313.80	1794.02
314.01	1789.92
314.23	1683.43
314.44	1673.19
314.65	1669.09
314.87	1710.05
315.08	1677.29
315.29	1687.53
315.51	1615.85
315.72	1591.27
315.93	1785.83
316.15	1718.25
316.36	1691.62
316.57	1648.61
316.79	1714.15
317.00	1650.66
317.21	1699.81
317.43	1607.66
317.64	1751.01
317.85	1665.00
318.07	1611.75
318.28	1710.05
318.49	1828.84
318.70	1935.33
318.92	1839.08
319.13	1861.60
319.34	1841.12
319.56	1816.55
319.77	1761.25
319.98	1767.40
320.20	1712.10
320.41	1761.25
320.62	1708.01
320.83	1757.16
321.05	1810.40
321.26	1705.96
321.47	1671.14
321.69	1763.30
321.90	1656.81
322.11	1683.43
322.32	1730.53
322.54	1808.36
322.75	1656.81
322.96	1800.16
323.18	1619.94
323.39	1550.31
323.60	1708.01
323.81	1763.30
324.03	1673.19
324.24	1716.20
324.45	1843.17
324.66	1732.58
324.88	1769.44
325.09	1798.12
325.30	1703.91
325.52	1683.43
325.73	1757.16
325.94	1615.85
326.15	1619.94
326.37	1656.81
326.58	1714.15
326.79	1787.88
327.00	1632.23
327.22	1771.49
327.43	1628.14
327.64	1605.61
327.85	1757.16
328.07	1703.91
328.28	1802.21
328.49	1595.37
328.70	1660.90
328.92	1697.77
329.13	1636.33
329.34	1679.33
329.55	1820.64
329.76	1789.92
329.98	1718.25
330.19	1744.87
330.40	1738.73
330.61	1681.38
330.83	1708.01
331.04	1669.09
331.25	1630.18
331.46	1759.21
331.68	1685.48
331.89	1751.01
332.10	1732.58
332.31	1628.14
332.52	1701.86
332.74	1761.25
332.95	1675.24
333.16	1746.92
333.37	1746.92
333.58	1683.43
333.80	1712.10
334.01	1587.18
334.22	1734.63
334.43	1667.05
334.64	1716.20
334.86	1634.28
335.07	1642.47
335.28	1753.06
335.49	1583.08
335.70	1796.07
335.92	1761.25
336.13	1763.30
336.34	1646.57
336.55	1687.53
336.76	1669.09
336.98	1630.18
337.19	1767.40
337.40	1755.11
337.61	1910.75
337.82	1679.33
338.04	1802.21
338.25	1681.38
338.46	1662.95
338.67	1671.14
338.88	1677.29
339.09	1587.18
339.31	1744.87
339.52	1624.04
339.73	1685.48
339.94	1789.92
340.15	1783.78
340.36	1652.71
340.58	1701.86
340.79	1593.32
341.00	1779.68
341.21	1615.85
341.42	1748.97
341.63	1640.42
341.85	1800.16
342.06	1755.11
342.27	1646.57
342.48	1816.55
342.69	1656.81
342.90	1656.81
343.12	1691.62
343.33	1650.66
343.54	1773.54
343.75	1853.41
343.96	1705.96
344.17	1636.33
344.38	1689.57
344.60	1705.96
344.81	1671.14
345.02	1691.62
345.23	1802.21
345.44	1781.73
345.65	1755.11
345.86	1718.25
346.07	1703.91
346.29	1632.23
346.50	1744.87
346.71	1755.11
346.92	1771.49
347.13	1920.99
347.34	1699.81
347.55	1734.63
347.76	1681.38
347.98	1509.35
348.19	1757.16
348.40	1791.97
348.61	1728.49
348.82	1804.26
349.03	1710.05
349.24	1665.00
349.45	1748.97
349.66	1603.56
349.88	1652.71
350.09	1652.71
350.30	1791.97
350.51	1710.05
350.72	1662.95
350.93	1732.58
351.14	1697.77
351.35	1738.73
351.56	1726.44
351.77	1781.73
351.99	1740.77
352.20	1812.45
352.41	1783.78
352.62	1665.00
352.83	1669.09
353.04	1613.80
353.25	1630.18
353.46	1806.31
353.67	1773.54
353.88	1576.94
354.09	1718.25
354.30	1740.77
354.52	1712.10
354.73	1675.24
354.94	1667.05
355.15	1705.96
355.36	1892.32
355.57	1701.86
355.78	1748.97
355.99	1673.19
356.20	1665.00
356.41	1759.21
356.62	1755.11
356.83	1675.24
357.04	1853.41
357.25	1632.23
357.46	1716.20
357.68	1597.42
357.89	1619.94
358.10	1712.10
358.31	1624.04
358.52	1695.72
358.73	1642.47
358.94	1634.28
359.15	1687.53
359.36	1755.11
359.57	1648.61
359.78	1722.34
359.99	1779.68
360.20	1681.38
360.41	1753.06
360.62	1818.60
360.83	1679.33
361.04	1675.24
361.25	1751.01
361.46	1779.68
361.67	1730.53
361.88	1826.79
362.09	1746.92
362.30	1806.31
362.51	1705.96
362.72	1714.15
362.93	1767.40
363.14	1738.73
363.35	1712.10
363.56	1652.71
363.78	1843.17
363.99	1724.39
364.20	1628.14
364.41	1703.91
364.62	1851.36
364.83	1765.35
365.04	1708.01
365.25	1724.39
365.46	1781.73
365.67	1673.19
365.88	1677.29
366.09	1671.14
366.30	1662.95
366.51	1656.81
366.72	1595.37
366.93	1673.19
367.14	1755.11
367.35	1697.77
367.56	1662.95
367.77	1746.92
367.98	1742.82
368.18	1742.82
368.39	1730.53
368.60	1593.32
368.81	1720.29
369.02	1761.25
369.23	1689.57
369.44	1593.32
369.65	1708.01
369.86	1710.05
370.07	1714.15
370.28	1634.28
370.49	1652.71
370.70	1734.63
370.91	1665.00
371.12	1617.90
371.33	1693.67
371.54	1638.38
371.75	1785.83
371.96	1546.22
372.17	1744.87
372.38	1632.23
372.59	1701.86
372.80	1736.68
373.01	1656.81
373.22	1757.16
373.43	1736.68
373.64	1736.68
373.85	1767.40
374.06	1738.73
374.26	1746.92
374.47	1673.19
374.68	1791.97
374.89	1660.90
375.10	1763.30
375.31	1761.25
375.52	1757.16
375.73	1718.25
375.94	1669.09
376.15	1777.64
376.36	1740.77
376.57	1742.82
376.78	1693.67
376.99	1730.53
377.20	1773.54
377.40	1572.84
377.61	1787.88
377.82	1644.52
378.03	1720.29
378.24	1765.35
378.45	1710.05
378.66	1779.68
378.87	1615.85
379.08	1599.46
379.29	1718.25
379.50	1777.64
379.71	1695.72
379.91	1769.44
380.12	1708.01
380.33	1689.57
380.54	1798.12
380.75	1624.04
380.96	1712.10
381.17	1748.97
381.38	1728.49
381.59	1730.53
381.80	1695.72
382.00	1839.08
382.21	1687.53
382.42	1841.12
382.63	1871.84
382.84	1789.92
383.05	1845.22
383.26	1837.03
383.47	1722.34
383.68	1791.97
383.88	1718.25
384.09	1732.58
384.30	1826.79
384.51	1779.68
384.72	1691.62
384.93	1697.77
385.14	1712.10
385.35	1708.01
385.55	1681.38
385.76	1791.97
385.97	1728.49
386.18	1619.94
386.39	1611.75
386.60	1673.19
386.81	1748.97
387.02	1621.99
387.22	1628.14
387.43	1804.26
387.64	1736.68
387.85	1908.71
388.06	2232.29
388.27	4239.30
388.48	6758.30
388.68	8189.83
388.89	9791.34
389.10	9881.45
389.31	8648.57
389.52	7503.76
389.73	6588.32
389.93	6258.59
390.14	5769.13
390.35	5181.36
390.56	4495.29
390.77	3833.80
390.98	3041.23
391.18	2435.03
391.39	2142.18
391.60	1810.40
391.81	1873.89
392.02	1685.48
392.23	1882.08
392.43	1726.44
392.64	1816.55
392.85	1683.43
393.06	1863.65
393.27	1675.24
393.47	1724.39
393.68	1722.34
393.89	1636.33
394.10	1771.49
394.31	1581.03
394.52	1640.42
394.72	1710.05
394.93	1781.73
395.14	1601.51
395.35	1718.25
395.56	1697.77
395.76	1726.44
395.97	1771.49
396.18	1818.60
396.39	1853.41
396.60	1959.91
396.80	1935.33
397.01	1839.08
397.22	1832.93
397.43	1775.59
397.64	1705.96
397.84	1767.40
398.05	1865.70
398.26	1755.11
398.47	1800.16
398.67	1716.20
398.88	1726.44
399.09	1753.06
399.30	1648.61
399.51	1673.19
399.71	1695.72
399.92	1753.06
400.13	1671.14
400.34	1591.27
400.54	1710.05
400.75	1796.07
400.96	1740.77
401.17	1849.32
401.37	1712.10
401.58	1603.56
401.79	1708.01
402.00	1796.07
402.21	2000.87
402.41	1964.00
402.62	2009.06
402.83	1974.24
403.04	1935.33
403.24	2076.64
403.45	1861.60
403.66	1976.29
403.87	1863.65
404.07	1966.05
404.28	1867.75
404.49	1818.60
404.70	1718.25
404.90	1837.03
405.11	1759.21
405.32	1759.21
405.52	1615.85
405.73	1665.00
405.94	1665.00
406.15	1730.53
406.35	1771.49
406.56	1751.01
406.77	1677.29
406.98	1771.49
407.18	1640.42
407.39	1787.88
407.60	1662.95
407.80	1734.63
408.01	1669.09
408.22	1777.64
408.43	1591.27
408.63	1716.20
408.84	1759.21
409.05	1736.68
409.25	1724.39
409.46	1624.04
409.67	1742.82
409.88	1675.24
410.08	1755.11
410.29	1607.66
410.50	1734.63
410.70	1724.39
410.91	1679.33
411.12	1722.34
411.32	1685.48
411.53	1691.62
411.74	1732.58
411.95	1726.44
412.15	1751.01
412.36	1734.63
412.57	1716.20
412.77	1779.68
412.98	1691.62
413.19	1765.35
413.39	1742.82
413.60	1771.49
413.81	1794.02
414.01	1642.47
414.22	1775.59
414.43	1802.21
414.63	1726.44
414.84	1781.73
415.05	1660.90
415.25	1585.13
415.46	1824.74
415.67	1652.71
415.87	1775.59
416.08	1726.44
416.29	1695.72
416.49	1638.38
416.70	1687.53
416.91	1705.96
417.11	1695.72
417.32	1662.95
417.53	1740.77
417.73	1785.83
417.94	1609.70
418.15	1695.72
418.35	1677.29
418.56	1710.05
418.77	1722.34
418.97	1716.20
419.18	1710.05
419.38	1656.81
419.59	1722.34
419.80	1732.58
420.00	1621.99
420.21	1695.72
420.42	1751.01
420.62	1720.29
420.83	1636.33
421.04	1701.86
421.24	1759.21
421.45	1718.25
421.65	1693.67
421.86	1656.81
422.07	1769.44
422.27	1701.86
422.48	1695.72
422.69	1665.00
422.89	1701.86
423.10	1705.96
423.30	1677.29
423.51	1728.49
423.72	1665.00
423.92	1748.97
424.13	1632.23
424.33	1775.59
424.54	1826.79
424.75	1783.78
424.95	1759.21
425.16	1701.86
425.36	1708.01
425.57	1748.97
425.78	1834.98
425.98	1746.92
426.19	1710.05
426.39	1677.29
426.60	1689.57
426.81	1751.01
427.01	1712.10
427.22	1673.19
427.42	1648.61
427.63	1619.94
427.83	1718.25
428.04	1714.15
428.25	1722.34
428.45	1816.55
428.66	1824.74
428.86	1701.86
429.07	1703.91
429.28	1724.39
429.48	1599.46
429.69	1652.71
429.89	1619.94
430.10	1628.14
430.30	1681.38
430.51	1740.77
430.71	1683.43
430.92	1708.01
431.13	1732.58
431.33	1765.35
431.54	1736.68
431.74	1824.74
431.95	1820.64
432.15	1615.85
432.36	1765.35
432.56	1816.55
432.77	1783.78
432.98	1847.27
433.18	1726.44
433.39	1703.91
433.59	1699.81
433.80	1773.54
434.00	1888.23
434.21	1740.77
434.41	1683.43
434.62	1787.88
434.82	1650.66
435.03	1689.57
435.23	1728.49
435.44	1591.27
435.64	1687.53
435.85	1759.21
436.06	1734.63
436.26	1757.16
436.47	1730.53
436.67	1769.44
436.88	1697.77
437.08	1665.00
437.29	1837.03
437.49	1718.25
437.70	1775.59
437.90	1757.16
438.11	1755.11
438.31	1748.97
438.52	1873.89
438.72	1961.95
438.93	1927.14
439.13	1814.50
439.34	1820.64
439.54	1701.86
439.75	1839.08
439.95	1800.16
440.16	1761.25
440.36	1759.21
440.57	1802.21
440.77	1728.49
440.98	1753.06
441.18	1718.25
441.39	1728.49
441.59	1740.77
441.80	1863.65
442.00	1689.57
442.21	1865.70
442.41	1703.91
442.62	1822.69
442.82	1734.63
443.02	1695.72
443.23	1644.52
443.43	1781.73
443.64	1746.92
443.84	1673.19
444.05	1798.12
444.25	1759.21
444.46	1740.77
444.66	1728.49
444.87	1824.74
445.07	1570.79
445.28	1695.72
445.48	1841.12
445.69	1808.36
445.89	1871.84
446.09	1738.73
446.30	2125.79
446.50	2576.34
446.71	3657.67
446.91	4184.00
447.12	4759.48
447.32	4806.58
447.53	4267.97
447.73	3919.81
447.93	3481.55
448.14	3315.66
448.34	3110.86
448.55	2885.59
448.75	2875.35
448.96	2680.79
449.16	2490.33
449.36	2244.57
449.57	2035.68
449.77	1898.47
449.98	1740.77
450.18	1785.83
450.39	1849.32
450.59	1791.97
450.79	1791.97
451.00	1740.77
451.20	1796.07
451.41	1681.38
451.61	1824.74
451.81	1710.05
452.02	1720.29
452.22	1675.24
452.43	1687.53
452.63	1703.91
