SpectraSuite Data File
++++++++++++++++++++++++++++++++++++
Date: Mon Jun 06 16:38:37 CEST 2016
User: root
Dark Spectrum Present: No
Reference Spectrum Present: No
Number of Sampled Component Spectra: 1
Spectrometers: USB4C02835
Integration Time (usec): 100000 (USB4C02835)
Spectra Averaged: 1 (USB4C02835)
Boxcar Smoothing: 0 (USB4C02835)
Correct for Electrical Dark: No (USB4C02835)
Strobe/Lamp Enabled: No (USB4C02835)
Correct for Detector Non-linearity: No (USB4C02835)
Correct for Stray Light: No (USB4C02835)
Number of Pixels in Processed Spectrum: 3648
>>>>>Begin Processed Spectral Data<<<<<
177.47	1478.63
177.69	1478.63
177.91	1478.63
178.13	1488.87
178.36	1443.82
178.58	1601.51
178.80	1736.68
179.02	1681.38
179.24	1566.70
179.46	1636.33
179.68	1832.93
179.90	1689.57
180.13	1683.43
180.35	1697.77
180.57	1705.96
180.79	1740.77
181.01	1722.34
181.23	1693.67
181.45	1738.73
181.67	1761.25
181.90	1765.35
182.12	1630.18
182.34	1714.15
182.56	1763.30
182.78	1650.66
183.00	1748.97
183.22	1679.33
183.44	1675.24
183.66	1886.18
183.89	1728.49
184.11	1677.29
184.33	1730.53
184.55	1773.54
184.77	1720.29
184.99	1679.33
185.21	1738.73
185.43	1830.88
185.65	1693.67
185.87	1673.19
186.10	1847.27
186.32	1814.50
186.54	1697.77
186.76	1753.06
186.98	1789.92
187.20	1654.76
187.42	1687.53
187.64	1699.81
187.86	1689.57
188.08	1746.92
188.30	1708.01
188.52	1714.15
188.75	1691.62
188.97	1789.92
189.19	1673.19
189.41	1689.57
189.63	1689.57
189.85	1630.18
190.07	1667.05
190.29	1607.66
190.51	1757.16
190.73	1689.57
190.95	1791.97
191.17	1771.49
191.39	1662.95
191.61	1689.57
191.84	1703.91
192.06	1755.11
192.28	1671.14
192.50	1847.27
192.72	1718.25
192.94	1753.06
193.16	1734.63
193.38	1673.19
193.60	1701.86
193.82	1712.10
194.04	1814.50
194.26	1720.29
194.48	1654.76
194.70	1738.73
194.92	1722.34
195.14	1761.25
195.36	1660.90
195.58	1701.86
195.80	1677.29
196.02	1736.68
196.24	1746.92
196.46	1736.68
196.69	1654.76
196.91	1808.36
197.13	1693.67
197.35	1652.71
197.57	1814.50
197.79	1748.97
198.01	1722.34
198.23	1699.81
198.45	1751.01
198.67	1736.68
198.89	1646.57
199.11	1679.33
199.33	1679.33
199.55	1628.14
199.77	1781.73
199.99	1753.06
200.21	1679.33
200.43	1804.26
200.65	1679.33
200.87	1589.22
201.09	1730.53
201.31	1644.52
201.53	1800.16
201.75	1695.72
201.97	1734.63
202.19	1724.39
202.41	1724.39
202.63	1877.99
202.85	1703.91
203.07	1730.53
203.29	1667.05
203.51	1708.01
203.73	1656.81
203.95	1908.71
204.17	1753.06
204.39	1724.39
204.61	1767.40
204.83	1681.38
205.05	1759.21
205.27	1742.82
205.49	1816.55
205.71	1699.81
205.93	1665.00
206.15	1679.33
206.37	1728.49
206.59	1720.29
206.81	1630.18
207.03	1640.42
207.25	1650.66
207.47	1755.11
207.69	1710.05
207.91	1800.16
208.13	1789.92
208.34	1591.27
208.56	1730.53
208.78	1796.07
209.00	1714.15
209.22	1632.23
209.44	1699.81
209.66	1638.38
209.88	1699.81
210.10	1746.92
210.32	1687.53
210.54	1794.02
210.76	1675.24
210.98	1812.45
211.20	1591.27
211.42	1814.50
211.64	1832.93
211.86	1783.78
212.08	1734.63
212.30	1695.72
212.52	1705.96
212.74	1767.40
212.96	1673.19
213.17	1785.83
213.39	1728.49
213.61	1759.21
213.83	1720.29
214.05	1667.05
214.27	1697.77
214.49	1691.62
214.71	1667.05
214.93	1814.50
215.15	1710.05
215.37	1703.91
215.59	1695.72
215.81	1757.16
216.03	1808.36
216.24	1689.57
216.46	1689.57
216.68	1763.30
216.90	1718.25
217.12	1732.58
217.34	1658.85
217.56	1691.62
217.78	1789.92
218.00	1720.29
218.22	1710.05
218.44	1755.11
218.66	1724.39
218.87	1779.68
219.09	1669.09
219.31	1724.39
219.53	1699.81
219.75	1777.64
219.97	1673.19
220.19	1691.62
220.41	1693.67
220.63	1744.87
220.85	1656.81
221.06	1701.86
221.28	1796.07
221.50	1798.12
221.72	1779.68
221.94	1722.34
222.16	1718.25
222.38	1814.50
222.60	1791.97
222.82	1703.91
223.03	1757.16
223.25	1581.03
223.47	1746.92
223.69	1837.03
223.91	1777.64
224.13	1644.52
224.35	1708.01
224.57	1779.68
224.78	1740.77
225.00	1658.85
225.22	1740.77
225.44	1755.11
225.66	1699.81
225.88	1708.01
226.10	1779.68
226.32	1722.34
226.53	1804.26
226.75	1708.01
226.97	1691.62
227.19	1656.81
227.41	1724.39
227.63	1617.90
227.85	1640.42
228.06	1740.77
228.28	1722.34
228.50	1759.21
228.72	1669.09
228.94	1615.85
229.16	1634.28
229.37	1632.23
229.59	1671.14
229.81	1787.88
230.03	1681.38
230.25	1669.09
230.47	1671.14
230.69	1667.05
230.90	1789.92
231.12	1621.99
231.34	1679.33
231.56	1726.44
231.78	1716.20
232.00	1740.77
232.21	1710.05
232.43	1632.23
232.65	1581.03
232.87	1773.54
233.09	1619.94
233.30	1699.81
233.52	1777.64
233.74	1671.14
233.96	1667.05
234.18	1697.77
234.40	1667.05
234.61	1796.07
234.83	1646.57
235.05	1595.37
235.27	1877.99
235.49	1755.11
235.70	1708.01
235.92	1828.84
236.14	1734.63
236.36	1857.51
236.58	1595.37
236.79	1869.80
237.01	1669.09
237.23	1753.06
237.45	1861.60
237.67	1646.57
237.88	1669.09
238.10	1845.22
238.32	1642.47
238.54	1746.92
238.76	1753.06
238.97	1665.00
239.19	1650.66
239.41	1738.73
239.63	1746.92
239.85	1742.82
240.06	1689.57
240.28	1695.72
240.50	1757.16
240.72	1796.07
240.93	1710.05
241.15	1810.40
241.37	1646.57
241.59	1814.50
241.81	1648.61
242.02	1646.57
242.24	1783.78
242.46	1689.57
242.68	1732.58
242.89	1732.58
243.11	1779.68
243.33	1773.54
243.55	1798.12
243.76	1763.30
243.98	1636.33
244.20	1718.25
244.42	1775.59
244.64	1746.92
244.85	1626.09
245.07	1712.10
245.29	1738.73
245.51	1722.34
245.72	1689.57
245.94	1714.15
246.16	1730.53
246.38	1748.97
246.59	1638.38
246.81	1662.95
247.03	1765.35
247.24	1718.25
247.46	1603.56
247.68	1708.01
247.90	1740.77
248.11	1687.53
248.33	1748.97
248.55	1787.88
248.77	1693.67
248.98	1748.97
249.20	1841.12
249.42	1736.68
249.64	1755.11
249.85	1703.91
250.07	1658.85
250.29	1708.01
250.50	1714.15
250.72	1705.96
250.94	1751.01
251.16	1861.60
251.37	1808.36
251.59	1722.34
251.81	1736.68
252.02	1796.07
252.24	1722.34
252.46	1785.83
252.68	1730.53
252.89	1665.00
253.11	1630.18
253.33	1781.73
253.54	1779.68
253.76	1650.66
253.98	1681.38
254.20	1671.14
254.41	1624.04
254.63	1771.49
254.85	1656.81
255.06	1765.35
255.28	1830.88
255.50	1701.86
255.71	1724.39
255.93	1628.14
256.15	1734.63
256.36	1763.30
256.58	1624.04
256.80	1724.39
257.02	1767.40
257.23	1687.53
257.45	1705.96
257.67	1804.26
257.88	1751.01
258.10	1785.83
258.32	1679.33
258.53	1757.16
258.75	1796.07
258.97	1691.62
259.18	1769.44
259.40	1714.15
259.62	1820.64
259.83	1824.74
260.05	1720.29
260.27	1980.39
260.48	1720.29
260.70	1540.07
260.92	1759.21
261.13	1681.38
261.35	1767.40
261.57	1691.62
261.78	1611.75
262.00	1605.61
262.22	1738.73
262.43	1705.96
262.65	1638.38
262.86	1636.33
263.08	1873.89
263.30	1728.49
263.51	1667.05
263.73	1671.14
263.95	1769.44
264.16	1660.90
264.38	1732.58
264.60	1675.24
264.81	1699.81
265.03	1705.96
265.25	1742.82
265.46	1685.48
265.68	1759.21
265.89	1753.06
266.11	1619.94
266.33	1748.97
266.54	1701.86
266.76	1732.58
266.98	1820.64
267.19	1742.82
267.41	1789.92
267.62	1716.20
267.84	1617.90
268.06	1675.24
268.27	1720.29
268.49	1779.68
268.70	1726.44
268.92	1712.10
269.14	1662.95
269.35	1607.66
269.57	1667.05
269.79	1695.72
270.00	1654.76
270.22	1824.74
270.43	1728.49
270.65	1550.31
270.87	1658.85
271.08	1732.58
271.30	1687.53
271.51	1761.25
271.73	1796.07
271.95	1771.49
272.16	1701.86
272.38	1710.05
272.59	1710.05
272.81	1773.54
273.02	1687.53
273.24	1705.96
273.46	1724.39
273.67	1640.42
273.89	1665.00
274.10	1603.56
274.32	1701.86
274.54	1787.88
274.75	1794.02
274.97	1652.71
275.18	1765.35
275.40	1775.59
275.61	1677.29
275.83	1689.57
276.05	1624.04
276.26	1751.01
276.48	1753.06
276.69	1689.57
276.91	1687.53
277.12	1810.40
277.34	1767.40
277.55	1736.68
277.77	1832.93
277.99	1697.77
278.20	1669.09
278.42	1654.76
278.63	1695.72
278.85	1683.43
279.06	1699.81
279.28	1730.53
279.49	1730.53
279.71	1751.01
279.93	1712.10
280.14	1689.57
280.36	1660.90
280.57	1710.05
280.79	1779.68
281.00	1722.34
281.22	1681.38
281.43	1781.73
281.65	1624.04
281.86	1632.23
282.08	1728.49
282.29	1773.54
282.51	1665.00
282.73	1736.68
282.94	1619.94
283.16	1740.77
283.37	1804.26
283.59	1757.16
283.80	1724.39
284.02	1671.14
284.23	1714.15
284.45	1710.05
284.66	1624.04
284.88	1601.51
285.09	1726.44
285.31	1703.91
285.52	1660.90
285.74	1558.50
285.95	1796.07
286.17	1738.73
286.38	1791.97
286.60	1693.67
286.81	1703.91
287.03	1751.01
287.24	1775.59
287.46	1789.92
287.67	1630.18
287.89	1761.25
288.10	1716.20
288.32	1683.43
288.53	1841.12
288.75	1791.97
288.96	1699.81
289.18	1591.27
289.39	1677.29
289.61	1771.49
289.82	1773.54
290.04	1810.40
290.25	1607.66
290.47	1710.05
290.68	1642.47
290.90	1775.59
291.11	1591.27
291.33	1796.07
291.54	1675.24
291.76	1597.42
291.97	1724.39
292.18	1751.01
292.40	1648.61
292.61	1705.96
292.83	1920.99
293.04	1763.30
293.26	1710.05
293.47	1710.05
293.69	1675.24
293.90	1681.38
294.12	1783.78
294.33	1681.38
294.55	1769.44
294.76	1751.01
294.97	1755.11
295.19	1820.64
295.40	1728.49
295.62	1693.67
295.83	1781.73
296.05	1648.61
296.26	1814.50
296.48	1601.51
296.69	1683.43
296.90	1667.05
297.12	1710.05
297.33	1806.31
297.55	1746.92
297.76	1740.77
297.98	1773.54
298.19	1679.33
298.41	1705.96
298.62	1695.72
298.83	1841.12
299.05	1720.29
299.26	1656.81
299.48	1689.57
299.69	1740.77
299.90	1757.16
300.12	1675.24
300.33	1757.16
300.55	1695.72
300.76	1673.19
300.98	1681.38
301.19	1746.92
301.40	1714.15
301.62	1740.77
301.83	1742.82
302.05	1728.49
302.26	1683.43
302.47	1722.34
302.69	1619.94
302.90	1697.77
303.12	1619.94
303.33	1757.16
303.54	1779.68
303.76	1675.24
303.97	1748.97
304.19	1765.35
304.40	1636.33
304.61	1765.35
304.83	1796.07
305.04	1775.59
305.26	1744.87
305.47	1667.05
305.68	1656.81
305.90	1566.70
306.11	1779.68
306.33	1710.05
306.54	1679.33
306.75	1687.53
306.97	1617.90
307.18	1634.28
307.39	1736.68
307.61	1757.16
307.82	1718.25
308.04	1726.44
308.25	1628.14
308.46	1703.91
308.68	1712.10
308.89	1677.29
309.10	1722.34
309.32	1746.92
309.53	1671.14
309.74	1794.02
309.96	1738.73
310.17	1761.25
310.39	1720.29
310.60	1791.97
310.81	1730.53
311.03	1699.81
311.24	1820.64
311.45	1695.72
311.67	1882.08
311.88	1759.21
312.09	1714.15
312.31	1632.23
312.52	1695.72
312.73	1751.01
312.95	1583.08
313.16	1673.19
313.37	1785.83
313.59	1730.53
313.80	1771.49
314.01	1814.50
314.23	1732.58
314.44	1683.43
314.65	1619.94
314.87	1681.38
315.08	1697.77
315.29	1710.05
315.51	1617.90
315.72	1642.47
315.93	1798.12
316.15	1740.77
316.36	1695.72
316.57	1820.64
316.79	1798.12
317.00	1675.24
317.21	1669.09
317.43	1683.43
317.64	1781.73
317.85	1640.42
318.07	1685.48
318.28	1761.25
318.49	1847.27
318.70	1980.39
318.92	1853.41
319.13	1875.94
319.34	1824.74
319.56	1820.64
319.77	1828.84
319.98	1759.21
320.20	1712.10
320.41	1806.31
320.62	1748.97
320.83	1703.91
321.05	1951.71
321.26	1767.40
321.47	1771.49
321.69	1804.26
321.90	1595.37
322.11	1675.24
322.32	1669.09
322.54	1755.11
322.75	1693.67
322.96	1882.08
323.18	1570.79
323.39	1619.94
323.60	1691.62
323.81	1755.11
324.03	1646.57
324.24	1685.48
324.45	1722.34
324.66	1705.96
324.88	1787.88
325.09	1779.68
325.30	1734.63
325.52	1718.25
325.73	1744.87
325.94	1599.46
326.15	1609.70
326.37	1648.61
326.58	1824.74
326.79	1820.64
327.00	1712.10
327.22	1691.62
327.43	1728.49
327.64	1675.24
327.85	1761.25
328.07	1681.38
328.28	1755.11
328.49	1716.20
328.70	1732.58
328.92	1714.15
329.13	1705.96
329.34	1710.05
329.55	1824.74
329.76	1710.05
329.98	1847.27
330.19	1742.82
330.40	1718.25
330.61	1708.01
330.83	1751.01
331.04	1566.70
331.25	1667.05
331.46	1740.77
331.68	1621.99
331.89	1789.92
332.10	1685.48
332.31	1601.51
332.52	1712.10
332.74	1759.21
332.95	1630.18
333.16	1755.11
333.37	1724.39
333.58	1644.52
333.80	1742.82
334.01	1652.71
334.22	1738.73
334.43	1619.94
334.64	1746.92
334.86	1621.99
335.07	1665.00
335.28	1820.64
335.49	1589.22
335.70	1671.14
335.92	1728.49
336.13	1873.89
336.34	1710.05
336.55	1689.57
336.76	1669.09
336.98	1607.66
337.19	1695.72
337.40	1859.56
337.61	1877.99
337.82	1701.86
338.04	1830.88
338.25	1701.86
338.46	1738.73
338.67	1601.51
338.88	1644.52
339.09	1566.70
339.31	1691.62
339.52	1638.38
339.73	1671.14
339.94	1714.15
340.15	1808.36
340.36	1665.00
340.58	1687.53
340.79	1640.42
341.00	1712.10
341.21	1681.38
341.42	1865.70
341.63	1738.73
341.85	1730.53
342.06	1724.39
342.27	1660.90
342.48	1834.98
342.69	1607.66
342.90	1753.06
343.12	1783.78
343.33	1634.28
343.54	1697.77
343.75	1757.16
343.96	1771.49
344.17	1685.48
344.38	1685.48
344.60	1736.68
344.81	1636.33
345.02	1665.00
345.23	1746.92
345.44	1822.69
345.65	1740.77
345.86	1705.96
346.07	1679.33
346.29	1703.91
346.50	1705.96
346.71	1730.53
346.92	1798.12
347.13	1886.18
347.34	1646.57
347.55	1675.24
347.76	1724.39
347.98	1685.48
348.19	1683.43
348.40	1732.58
348.61	1779.68
348.82	1783.78
349.03	1687.53
349.24	1685.48
349.45	1841.12
349.66	1615.85
349.88	1777.64
350.09	1714.15
350.30	1802.21
350.51	1785.83
350.72	1728.49
350.93	1730.53
351.14	1601.51
351.35	1808.36
351.56	1742.82
351.77	1714.15
351.99	1746.92
352.20	1787.88
352.41	1751.01
352.62	1652.71
352.83	1695.72
353.04	1658.85
353.25	1675.24
353.46	1720.29
353.67	1796.07
353.88	1589.22
354.09	1755.11
354.30	1769.44
354.52	1775.59
354.73	1796.07
354.94	1789.92
355.15	1685.48
355.36	1798.12
355.57	1746.92
355.78	1683.43
355.99	1699.81
356.20	1652.71
356.41	1787.88
356.62	1751.01
356.83	1728.49
357.04	1816.55
357.25	1593.32
357.46	1746.92
357.68	1660.90
357.89	1648.61
358.10	1705.96
358.31	1632.23
358.52	1826.79
358.73	1607.66
358.94	1708.01
359.15	1722.34
359.36	1703.91
359.57	1800.16
359.78	1726.44
359.99	1753.06
360.20	1744.87
360.41	1705.96
360.62	1650.66
360.83	1671.14
361.04	1722.34
361.25	1705.96
361.46	1773.54
361.67	1714.15
361.88	1810.40
362.09	1748.97
362.30	1675.24
362.51	1748.97
362.72	1644.52
362.93	1763.30
363.14	1765.35
363.35	1755.11
363.56	1738.73
363.78	1783.78
363.99	1859.56
364.20	1697.77
364.41	1753.06
364.62	1783.78
364.83	1644.52
365.04	1757.16
365.25	1681.38
365.46	1765.35
365.67	1615.85
365.88	1693.67
366.09	1710.05
366.30	1726.44
366.51	1648.61
366.72	1634.28
366.93	1699.81
367.14	1771.49
367.35	1779.68
367.56	1644.52
367.77	1810.40
367.98	1648.61
368.18	1705.96
368.39	1794.02
368.60	1581.03
368.81	1724.39
369.02	1726.44
369.23	1771.49
369.44	1605.61
369.65	1660.90
369.86	1765.35
370.07	1728.49
370.28	1646.57
370.49	1732.58
370.70	1773.54
370.91	1585.13
371.12	1669.09
371.33	1699.81
371.54	1689.57
371.75	1789.92
371.96	1624.04
372.17	1744.87
372.38	1673.19
372.59	1753.06
372.80	1689.57
373.01	1630.18
373.22	1720.29
373.43	1755.11
373.64	1619.94
373.85	1796.07
374.06	1900.52
374.26	1748.97
374.47	1759.21
374.68	1740.77
374.89	1642.47
375.10	1703.91
375.31	1763.30
375.52	1814.50
375.73	1767.40
375.94	1656.81
376.15	1886.18
376.36	1624.04
376.57	1689.57
376.78	1619.94
376.99	1763.30
377.20	1867.75
377.40	1589.22
377.61	1808.36
377.82	1632.23
378.03	1773.54
378.24	1718.25
378.45	1695.72
378.66	1724.39
378.87	1613.80
379.08	1621.99
379.29	1693.67
379.50	1728.49
379.71	1689.57
379.91	1810.40
380.12	1656.81
380.33	1665.00
380.54	1722.34
380.75	1681.38
380.96	1689.57
381.17	1765.35
381.38	1714.15
381.59	1689.57
381.80	1730.53
382.00	1804.26
382.21	1791.97
382.42	1875.94
382.63	1937.38
382.84	1794.02
383.05	1701.86
383.26	1826.79
383.47	1726.44
383.68	1794.02
383.88	1636.33
384.09	1679.33
384.30	1757.16
384.51	1751.01
384.72	1691.62
384.93	1624.04
385.14	1720.29
385.35	1853.41
385.55	1628.14
385.76	1751.01
385.97	1732.58
386.18	1617.90
386.39	1673.19
386.60	1697.77
386.81	1699.81
387.02	1624.04
387.22	1601.51
387.43	1785.83
387.64	1841.12
387.85	1886.18
388.06	2289.63
388.27	4376.51
388.48	6817.69
388.68	8449.92
388.89	9574.25
389.10	9908.07
389.31	8544.13
389.52	7505.81
389.73	6655.90
389.93	6305.70
390.14	5932.97
390.35	5173.17
390.56	4530.11
390.77	3819.46
390.98	3112.91
391.18	2508.76
391.39	2090.98
391.60	1828.84
391.81	1820.64
392.02	1724.39
392.23	1841.12
392.43	1812.45
392.64	1705.96
392.85	1789.92
393.06	1763.30
393.27	1683.43
393.47	1724.39
393.68	1765.35
393.89	1712.10
394.10	1755.11
394.31	1656.81
394.52	1669.09
394.72	1677.29
394.93	1837.03
395.14	1636.33
395.35	1673.19
395.56	1652.71
395.76	1814.50
395.97	1775.59
396.18	1853.41
396.39	1845.22
396.60	1996.77
396.80	1912.80
397.01	1832.93
397.22	1904.61
397.43	1974.24
397.64	1712.10
397.84	1773.54
398.05	1849.32
398.26	1771.49
398.47	1841.12
398.67	1781.73
398.88	1695.72
399.09	1730.53
399.30	1650.66
399.51	1710.05
399.71	1640.42
399.92	1781.73
400.13	1763.30
400.34	1677.29
400.54	1699.81
400.75	1783.78
400.96	1687.53
401.17	1755.11
401.37	1755.11
401.58	1746.92
401.79	1714.15
402.00	1886.18
402.21	1984.48
402.41	1945.57
402.62	2015.20
402.83	2045.92
403.04	2031.58
403.24	2011.11
403.45	1804.26
403.66	1855.46
403.87	1955.81
404.07	1927.14
404.28	1908.71
404.49	1877.99
404.70	1712.10
404.90	1789.92
405.11	1705.96
405.32	1746.92
405.52	1685.48
405.73	1708.01
405.94	1722.34
406.15	1683.43
406.35	1849.32
406.56	1746.92
406.77	1769.44
406.98	1804.26
407.18	1703.91
407.39	1800.16
407.60	1619.94
407.80	1714.15
408.01	1683.43
408.22	1728.49
408.43	1689.57
408.63	1753.06
408.84	1808.36
409.05	1765.35
409.25	1705.96
409.46	1650.66
409.67	1710.05
409.88	1718.25
410.08	1744.87
410.29	1648.61
410.50	1751.01
410.70	1726.44
410.91	1636.33
411.12	1746.92
411.32	1693.67
411.53	1671.14
411.74	1808.36
411.95	1818.60
412.15	1726.44
412.36	1771.49
412.57	1779.68
412.77	1812.45
412.98	1710.05
413.19	1726.44
413.39	1783.78
413.60	1787.88
413.81	1794.02
414.01	1714.15
414.22	1751.01
414.43	1847.27
414.63	1695.72
414.84	1757.16
415.05	1718.25
415.25	1724.39
415.46	1787.88
415.67	1658.85
415.87	1765.35
416.08	1783.78
416.29	1660.90
416.49	1740.77
416.70	1683.43
416.91	1689.57
417.11	1656.81
417.32	1789.92
417.53	1675.24
417.73	1669.09
417.94	1695.72
418.15	1742.82
418.35	1734.63
418.56	1701.86
418.77	1859.56
418.97	1640.42
419.18	1738.73
419.38	1624.04
419.59	1658.85
419.80	1816.55
420.00	1687.53
420.21	1740.77
420.42	1740.77
420.62	1736.68
420.83	1658.85
421.04	1687.53
421.24	1703.91
421.45	1794.02
421.65	1660.90
421.86	1671.14
422.07	1732.58
422.27	1736.68
422.48	1828.84
422.69	1669.09
422.89	1705.96
423.10	1665.00
423.30	1611.75
423.51	1779.68
423.72	1669.09
423.92	1816.55
424.13	1658.85
424.33	1785.83
424.54	1761.25
424.75	1716.20
424.95	1851.36
425.16	1826.79
425.36	1701.86
425.57	1796.07
425.78	1830.88
425.98	1675.24
426.19	1753.06
426.39	1681.38
426.60	1763.30
426.81	1798.12
427.01	1681.38
427.22	1699.81
427.42	1601.51
427.63	1540.07
427.83	1693.67
428.04	1814.50
428.25	1865.70
428.45	1746.92
428.66	1734.63
428.86	1794.02
429.07	1730.53
429.28	1748.97
429.48	1755.11
429.69	1712.10
429.89	1798.12
430.10	1697.77
430.30	1703.91
430.51	1746.92
430.71	1705.96
430.92	1679.33
431.13	1695.72
431.33	1705.96
431.54	1703.91
431.74	1935.33
431.95	1826.79
432.15	1638.38
432.36	1712.10
432.56	1697.77
432.77	1820.64
432.98	1804.26
433.18	1769.44
433.39	1708.01
433.59	1712.10
433.80	1894.37
434.00	1742.82
434.21	1679.33
434.41	1728.49
434.62	1865.70
434.82	1587.18
435.03	1693.67
435.23	1746.92
435.44	1699.81
435.64	1834.98
435.85	1798.12
436.06	1730.53
436.26	1746.92
436.47	1724.39
436.67	1667.05
436.88	1751.01
437.08	1732.58
437.29	1763.30
437.49	1744.87
437.70	1832.93
437.90	1736.68
438.11	1863.65
438.31	1789.92
438.52	1873.89
438.72	1869.80
438.93	1933.28
439.13	1802.21
439.34	1837.03
439.54	1820.64
439.75	1775.59
439.95	1697.77
440.16	1722.34
440.36	1802.21
440.57	1802.21
440.77	1746.92
440.98	1642.47
441.18	1697.77
441.39	1724.39
441.59	1716.20
441.80	1845.22
442.00	1671.14
442.21	1738.73
442.41	1736.68
442.62	1742.82
442.82	1695.72
443.02	1767.40
443.23	1761.25
443.43	1740.77
443.64	1820.64
443.84	1781.73
444.05	1804.26
444.25	1771.49
444.46	1720.29
444.66	1732.58
444.87	1865.70
445.07	1691.62
445.28	1746.92
445.48	1810.40
445.69	1824.74
445.89	1888.23
446.09	1697.77
446.30	2011.11
446.50	2684.89
446.71	3747.78
446.91	4276.16
447.12	4706.23
447.32	4722.62
447.53	4433.85
447.73	3862.47
447.93	3553.23
448.14	3344.33
448.34	3180.50
448.55	2897.88
448.75	2832.34
448.96	2611.16
449.16	2408.41
449.36	2271.20
449.57	2113.50
449.77	1947.62
449.98	1785.83
450.18	1837.03
450.39	1791.97
450.59	1757.16
450.79	1699.81
451.00	1746.92
451.20	1718.25
451.41	1726.44
451.61	1736.68
451.81	1761.25
452.02	1708.01
452.22	1728.49
452.43	1730.53
452.63	1699.81
