SpectraSuite Data File
++++++++++++++++++++++++++++++++++++
Date: Mon Jun 06 17:04:37 CEST 2016
User: root
Dark Spectrum Present: No
Reference Spectrum Present: No
Number of Sampled Component Spectra: 1
Spectrometers: USB4C02835
Integration Time (usec): 100000 (USB4C02835)
Spectra Averaged: 1 (USB4C02835)
Boxcar Smoothing: 0 (USB4C02835)
Correct for Electrical Dark: No (USB4C02835)
Strobe/Lamp Enabled: No (USB4C02835)
Correct for Detector Non-linearity: No (USB4C02835)
Correct for Stray Light: No (USB4C02835)
Number of Pixels in Processed Spectrum: 3648
>>>>>Begin Processed Spectral Data<<<<<
177.47	1464.30
177.69	1464.30
177.91	1464.30
178.13	1476.59
178.36	1484.78
178.58	1601.51
178.80	1695.72
179.02	1607.66
179.24	1650.66
179.46	1736.68
179.68	1822.69
179.90	1705.96
180.13	1681.38
180.35	1615.85
180.57	1693.67
180.79	1736.68
181.01	1708.01
181.23	1746.92
181.45	1771.49
181.67	1708.01
181.90	1806.31
182.12	1712.10
182.34	1636.33
182.56	1720.29
182.78	1746.92
183.00	1732.58
183.22	1691.62
183.44	1630.18
183.66	1873.89
183.89	1755.11
184.11	1746.92
184.33	1755.11
184.55	1765.35
184.77	1761.25
184.99	1683.43
185.21	1730.53
185.43	1796.07
185.65	1669.09
185.87	1730.53
186.10	1806.31
186.32	1787.88
186.54	1732.58
186.76	1794.02
186.98	1712.10
187.20	1712.10
187.42	1701.86
187.64	1705.96
187.86	1769.44
188.08	1742.82
188.30	1708.01
188.52	1697.77
188.75	1826.79
188.97	1761.25
189.19	1744.87
189.41	1697.77
189.63	1734.63
189.85	1775.59
190.07	1550.31
190.29	1597.42
190.51	1712.10
190.73	1615.85
190.95	1726.44
191.17	1714.15
191.39	1695.72
191.61	1673.19
191.84	1710.05
192.06	1701.86
192.28	1650.66
192.50	1851.36
192.72	1714.15
192.94	1740.77
193.16	1785.83
193.38	1794.02
193.60	1656.81
193.82	1681.38
194.04	1832.93
194.26	1671.14
194.48	1761.25
194.70	1654.76
194.92	1687.53
195.14	1734.63
195.36	1705.96
195.58	1710.05
195.80	1740.77
196.02	1699.81
196.24	1710.05
196.46	1703.91
196.69	1718.25
196.91	1863.65
197.13	1718.25
197.35	1644.52
197.57	1822.69
197.79	1781.73
198.01	1734.63
198.23	1806.31
198.45	1746.92
198.67	1607.66
198.89	1742.82
199.11	1656.81
199.33	1605.61
199.55	1644.52
199.77	1701.86
199.99	1728.49
200.21	1726.44
200.43	1734.63
200.65	1654.76
200.87	1644.52
201.09	1681.38
201.31	1687.53
201.53	1837.03
201.75	1759.21
201.97	1628.14
202.19	1693.67
202.41	1798.12
202.63	1843.17
202.85	1691.62
203.07	1734.63
203.29	1665.00
203.51	1757.16
203.73	1607.66
203.95	1900.52
204.17	1722.34
204.39	1767.40
204.61	1748.97
204.83	1701.86
205.05	1695.72
205.27	1787.88
205.49	1843.17
205.71	1703.91
205.93	1576.94
206.15	1673.19
206.37	1667.05
206.59	1732.58
206.81	1703.91
207.03	1665.00
207.25	1609.70
207.47	1787.88
207.69	1689.57
207.91	1818.60
208.13	1763.30
208.34	1710.05
208.56	1656.81
208.78	1751.01
209.00	1679.33
209.22	1716.20
209.44	1693.67
209.66	1679.33
209.88	1646.57
210.10	1607.66
210.32	1732.58
210.54	1796.07
210.76	1726.44
210.98	1720.29
211.20	1613.80
211.42	1724.39
211.64	1773.54
211.86	1683.43
212.08	1785.83
212.30	1740.77
212.52	1701.86
212.74	1722.34
212.96	1724.39
213.17	1761.25
213.39	1746.92
213.61	1753.06
213.83	1677.29
214.05	1615.85
214.27	1734.63
214.49	1691.62
214.71	1705.96
214.93	1779.68
215.15	1794.02
215.37	1828.84
215.59	1593.32
215.81	1755.11
216.03	1755.11
216.24	1769.44
216.46	1726.44
216.68	1791.97
216.90	1802.21
217.12	1738.73
217.34	1710.05
217.56	1724.39
217.78	1775.59
218.00	1763.30
218.22	1671.14
218.44	1691.62
218.66	1738.73
218.87	1751.01
219.09	1716.20
219.31	1755.11
219.53	1638.38
219.75	1730.53
219.97	1746.92
220.19	1728.49
220.41	1673.19
220.63	1722.34
220.85	1757.16
221.06	1640.42
221.28	1765.35
221.50	1757.16
221.72	1691.62
221.94	1724.39
222.16	1716.20
222.38	1718.25
222.60	1740.77
222.82	1714.15
223.03	1726.44
223.25	1644.52
223.47	1812.45
223.69	1824.74
223.91	1773.54
224.13	1697.77
224.35	1746.92
224.57	1808.36
224.78	1710.05
225.00	1681.38
225.22	1640.42
225.44	1775.59
225.66	1716.20
225.88	1669.09
226.10	1755.11
226.32	1728.49
226.53	1853.41
226.75	1626.09
226.97	1791.97
227.19	1763.30
227.41	1724.39
227.63	1665.00
227.85	1628.14
228.06	1705.96
228.28	1708.01
228.50	1720.29
228.72	1634.28
228.94	1697.77
229.16	1650.66
229.37	1630.18
229.59	1689.57
229.81	1802.21
230.03	1683.43
230.25	1718.25
230.47	1656.81
230.69	1648.61
230.90	1800.16
231.12	1675.24
231.34	1734.63
231.56	1720.29
231.78	1638.38
232.00	1646.57
232.21	1712.10
232.43	1677.29
232.65	1638.38
232.87	1734.63
233.09	1671.14
233.30	1652.71
233.52	1763.30
233.74	1763.30
233.96	1679.33
234.18	1679.33
234.40	1691.62
234.61	1830.88
234.83	1683.43
235.05	1675.24
235.27	1857.51
235.49	1734.63
235.70	1710.05
235.92	1765.35
236.14	1703.91
236.36	1839.08
236.58	1665.00
236.79	1720.29
237.01	1628.14
237.23	1691.62
237.45	1912.80
237.67	1697.77
237.88	1689.57
238.10	1816.55
238.32	1685.48
238.54	1740.77
238.76	1712.10
238.97	1726.44
239.19	1669.09
239.41	1777.64
239.63	1701.86
239.85	1636.33
240.06	1689.57
240.28	1763.30
240.50	1769.44
240.72	1761.25
240.93	1599.46
241.15	1748.97
241.37	1710.05
241.59	1804.26
241.81	1636.33
242.02	1656.81
242.24	1781.73
242.46	1714.15
242.68	1646.57
242.89	1724.39
243.11	1787.88
243.33	1767.40
243.55	1716.20
243.76	1757.16
243.98	1726.44
244.20	1710.05
244.42	1753.06
244.64	1683.43
244.85	1656.81
245.07	1673.19
245.29	1738.73
245.51	1779.68
245.72	1648.61
245.94	1765.35
246.16	1718.25
246.38	1691.62
246.59	1699.81
246.81	1640.42
247.03	1716.20
247.24	1566.70
247.46	1667.05
247.68	1699.81
247.90	1691.62
248.11	1673.19
248.33	1781.73
248.55	1730.53
248.77	1685.48
248.98	1791.97
249.20	1773.54
249.42	1693.67
249.64	1714.15
249.85	1667.05
250.07	1619.94
250.29	1730.53
250.50	1820.64
250.72	1626.09
250.94	1767.40
251.16	1808.36
251.37	1796.07
251.59	1673.19
251.81	1669.09
252.02	1804.26
252.24	1708.01
252.46	1837.03
252.68	1695.72
252.89	1681.38
253.11	1595.37
253.33	1812.45
253.54	1767.40
253.76	1556.46
253.98	1679.33
254.20	1650.66
254.41	1693.67
254.63	1667.05
254.85	1607.66
255.06	1785.83
255.28	1714.15
255.50	1640.42
255.71	1632.23
255.93	1626.09
256.15	1732.58
256.36	1740.77
256.58	1675.24
256.80	1746.92
257.02	1671.14
257.23	1703.91
257.45	1705.96
257.67	1718.25
257.88	1685.48
258.10	1744.87
258.32	1710.05
258.53	1677.29
258.75	1730.53
258.97	1640.42
259.18	1714.15
259.40	1757.16
259.62	1798.12
259.83	1763.30
260.05	1789.92
260.27	1910.75
260.48	1785.83
260.70	1648.61
260.92	1693.67
261.13	1736.68
261.35	1767.40
261.57	1755.11
261.78	1646.57
262.00	1636.33
262.22	1783.78
262.43	1677.29
262.65	1673.19
262.86	1644.52
263.08	1814.50
263.30	1730.53
263.51	1671.14
263.73	1621.99
263.95	1705.96
264.16	1708.01
264.38	1667.05
264.60	1763.30
264.81	1658.85
265.03	1798.12
265.25	1771.49
265.46	1708.01
265.68	1759.21
265.89	1789.92
266.11	1652.71
266.33	1705.96
266.54	1810.40
266.76	1726.44
266.98	1777.64
267.19	1810.40
267.41	1751.01
267.62	1648.61
267.84	1603.56
268.06	1726.44
268.27	1748.97
268.49	1779.68
268.70	1761.25
268.92	1648.61
269.14	1658.85
269.35	1658.85
269.57	1703.91
269.79	1697.77
270.00	1671.14
270.22	1814.50
270.43	1640.42
270.65	1554.41
270.87	1734.63
271.08	1796.07
271.30	1781.73
271.51	1732.58
271.73	1712.10
271.95	1816.55
272.16	1722.34
272.38	1767.40
272.59	1667.05
272.81	1710.05
273.02	1734.63
273.24	1712.10
273.46	1740.77
273.67	1673.19
273.89	1638.38
274.10	1667.05
274.32	1751.01
274.54	1697.77
274.75	1748.97
274.97	1681.38
275.18	1708.01
275.40	1675.24
275.61	1681.38
275.83	1726.44
276.05	1671.14
276.26	1703.91
276.48	1712.10
276.69	1634.28
276.91	1716.20
277.12	1785.83
277.34	1746.92
277.55	1785.83
277.77	1681.38
277.99	1660.90
278.20	1656.81
278.42	1652.71
278.63	1681.38
278.85	1708.01
279.06	1665.00
279.28	1687.53
279.49	1748.97
279.71	1718.25
279.93	1794.02
280.14	1675.24
280.36	1679.33
280.57	1771.49
280.79	1882.08
281.00	1665.00
281.22	1722.34
281.43	1771.49
281.65	1630.18
281.86	1691.62
282.08	1714.15
282.29	1753.06
282.51	1636.33
282.73	1703.91
282.94	1722.34
283.16	1769.44
283.37	1728.49
283.59	1683.43
283.80	1681.38
284.02	1724.39
284.23	1781.73
284.45	1640.42
284.66	1660.90
284.88	1757.16
285.09	1730.53
285.31	1748.97
285.52	1683.43
285.74	1634.28
285.95	1773.54
286.17	1724.39
286.38	1746.92
286.60	1683.43
286.81	1689.57
287.03	1642.47
287.24	1687.53
287.46	1681.38
287.67	1683.43
287.89	1890.28
288.10	1646.57
288.32	1759.21
288.53	1804.26
288.75	1728.49
288.96	1642.47
289.18	1730.53
289.39	1689.57
289.61	1787.88
289.82	1828.84
290.04	1892.32
290.25	1667.05
290.47	1691.62
290.68	1669.09
290.90	1734.63
291.11	1669.09
291.33	1701.86
291.54	1638.38
291.76	1732.58
291.97	1687.53
292.18	1746.92
292.40	1720.29
292.61	1640.42
292.83	1888.23
293.04	1726.44
293.26	1765.35
293.47	1716.20
293.69	1693.67
293.90	1718.25
294.12	1697.77
294.33	1724.39
294.55	1685.48
294.76	1765.35
294.97	1710.05
295.19	1867.75
295.40	1621.99
295.62	1763.30
295.83	1736.68
296.05	1687.53
296.26	1779.68
296.48	1748.97
296.69	1818.60
296.90	1726.44
297.12	1716.20
297.33	1789.92
297.55	1683.43
297.76	1802.21
297.98	1806.31
298.19	1710.05
298.41	1761.25
298.62	1585.13
298.83	1806.31
299.05	1714.15
299.26	1658.85
299.48	1720.29
299.69	1724.39
299.90	1746.92
300.12	1634.28
300.33	1716.20
300.55	1732.58
300.76	1775.59
300.98	1718.25
301.19	1656.81
301.40	1648.61
301.62	1673.19
301.83	1722.34
302.05	1734.63
302.26	1683.43
302.47	1779.68
302.69	1593.32
302.90	1712.10
303.12	1613.80
303.33	1791.97
303.54	1837.03
303.76	1628.14
303.97	1671.14
304.19	1837.03
304.40	1626.09
304.61	1726.44
304.83	1775.59
305.04	1859.56
305.26	1724.39
305.47	1660.90
305.68	1730.53
305.90	1595.37
306.11	1777.64
306.33	1722.34
306.54	1681.38
306.75	1669.09
306.97	1535.98
307.18	1638.38
307.39	1621.99
307.61	1800.16
307.82	1714.15
308.04	1695.72
308.25	1687.53
308.46	1765.35
308.68	1710.05
308.89	1701.86
309.10	1804.26
309.32	1808.36
309.53	1779.68
309.74	1685.48
309.96	1759.21
310.17	1759.21
310.39	1673.19
310.60	1755.11
310.81	1748.97
311.03	1685.48
311.24	1693.67
311.45	1724.39
311.67	1810.40
311.88	1728.49
312.09	1728.49
312.31	1648.61
312.52	1701.86
312.73	1693.67
312.95	1628.14
313.16	1652.71
313.37	1769.44
313.59	1736.68
313.80	1796.07
314.01	1783.78
314.23	1734.63
314.44	1708.01
314.65	1708.01
314.87	1681.38
315.08	1728.49
315.29	1685.48
315.51	1689.57
315.72	1572.84
315.93	1806.31
316.15	1753.06
316.36	1681.38
316.57	1748.97
316.79	1716.20
317.00	1722.34
317.21	1677.29
317.43	1699.81
317.64	1685.48
317.85	1662.95
318.07	1673.19
318.28	1732.58
318.49	1800.16
318.70	1951.71
318.92	1834.98
319.13	1820.64
319.34	1931.23
319.56	1802.21
319.77	1841.12
319.98	1773.54
320.20	1755.11
320.41	1755.11
320.62	1751.01
320.83	1638.38
321.05	1775.59
321.26	1824.74
321.47	1691.62
321.69	1769.44
321.90	1605.61
322.11	1705.96
322.32	1701.86
322.54	1767.40
322.75	1705.96
322.96	1771.49
323.18	1587.18
323.39	1619.94
323.60	1675.24
323.81	1851.36
324.03	1646.57
324.24	1714.15
324.45	1769.44
324.66	1724.39
324.88	1787.88
325.09	1763.30
325.30	1640.42
325.52	1718.25
325.73	1724.39
325.94	1748.97
326.15	1599.46
326.37	1681.38
326.58	1837.03
326.79	1730.53
327.00	1640.42
327.22	1759.21
327.43	1728.49
327.64	1617.90
327.85	1718.25
328.07	1822.69
328.28	1843.17
328.49	1681.38
328.70	1773.54
328.92	1724.39
329.13	1802.21
329.34	1671.14
329.55	1853.41
329.76	1726.44
329.98	1691.62
330.19	1779.68
330.40	1748.97
330.61	1714.15
330.83	1722.34
331.04	1535.98
331.25	1695.72
331.46	1701.86
331.68	1658.85
331.89	1822.69
332.10	1624.04
332.31	1603.56
332.52	1705.96
332.74	1763.30
332.95	1628.14
333.16	1777.64
333.37	1724.39
333.58	1714.15
333.80	1728.49
334.01	1587.18
334.22	1611.75
334.43	1724.39
334.64	1691.62
334.86	1628.14
335.07	1701.86
335.28	1828.84
335.49	1650.66
335.70	1753.06
335.92	1787.88
336.13	1888.23
336.34	1730.53
336.55	1730.53
336.76	1697.77
336.98	1589.22
337.19	1767.40
337.40	1843.17
337.61	1822.69
337.82	1669.09
338.04	1681.38
338.25	1699.81
338.46	1708.01
338.67	1689.57
338.88	1640.42
339.09	1665.00
339.31	1689.57
339.52	1607.66
339.73	1570.79
339.94	1728.49
340.15	1714.15
340.36	1642.47
340.58	1710.05
340.79	1701.86
341.00	1691.62
341.21	1652.71
341.42	1744.87
341.63	1699.81
341.85	1726.44
342.06	1685.48
342.27	1570.79
342.48	1722.34
342.69	1665.00
342.90	1669.09
343.12	1767.40
343.33	1718.25
343.54	1744.87
343.75	1828.84
343.96	1714.15
344.17	1654.76
344.38	1679.33
344.60	1607.66
344.81	1689.57
345.02	1675.24
345.23	1830.88
345.44	1871.84
345.65	1742.82
345.86	1748.97
346.07	1673.19
346.29	1714.15
346.50	1800.16
346.71	1656.81
346.92	1658.85
347.13	1910.75
347.34	1734.63
347.55	1673.19
347.76	1759.21
347.98	1619.94
348.19	1722.34
348.40	1834.98
348.61	1642.47
348.82	1730.53
349.03	1837.03
349.24	1677.29
349.45	1826.79
349.66	1646.57
349.88	1656.81
350.09	1761.25
350.30	1763.30
350.51	1798.12
350.72	1724.39
350.93	1708.01
351.14	1550.31
351.35	1734.63
351.56	1775.59
351.77	1722.34
351.99	1718.25
352.20	1767.40
352.41	1832.93
352.62	1566.70
352.83	1714.15
353.04	1705.96
353.25	1699.81
353.46	1814.50
353.67	1775.59
353.88	1595.37
354.09	1777.64
354.30	1691.62
354.52	1785.83
354.73	1644.52
354.94	1640.42
355.15	1677.29
355.36	1816.55
355.57	1650.66
355.78	1710.05
355.99	1566.70
356.20	1746.92
356.41	1744.87
356.62	1712.10
356.83	1734.63
357.04	1783.78
357.25	1677.29
357.46	1769.44
357.68	1675.24
357.89	1662.95
358.10	1757.16
358.31	1660.90
358.52	1695.72
358.73	1636.33
358.94	1607.66
359.15	1667.05
359.36	1714.15
359.57	1681.38
359.78	1636.33
359.99	1789.92
360.20	1652.71
360.41	1656.81
360.62	1720.29
360.83	1728.49
361.04	1712.10
361.25	1775.59
361.46	1816.55
361.67	1730.53
361.88	1755.11
362.09	1806.31
362.30	1679.33
362.51	1691.62
362.72	1800.16
362.93	1785.83
363.14	1763.30
363.35	1794.02
363.56	1658.85
363.78	1812.45
363.99	1705.96
364.20	1710.05
364.41	1810.40
364.62	1796.07
364.83	1699.81
365.04	1722.34
365.25	1624.04
365.46	1808.36
365.67	1652.71
365.88	1662.95
366.09	1779.68
366.30	1626.09
366.51	1781.73
366.72	1734.63
366.93	1722.34
367.14	1708.01
367.35	1816.55
367.56	1753.06
367.77	1822.69
367.98	1677.29
368.18	1716.20
368.39	1769.44
368.60	1638.38
368.81	1816.55
369.02	1755.11
369.23	1767.40
369.44	1615.85
369.65	1708.01
369.86	1722.34
370.07	1742.82
370.28	1617.90
370.49	1761.25
370.70	1724.39
370.91	1626.09
371.12	1628.14
371.33	1712.10
371.54	1689.57
371.75	1734.63
371.96	1595.37
372.17	1708.01
372.38	1761.25
372.59	1705.96
372.80	1662.95
373.01	1742.82
373.22	1726.44
373.43	1695.72
373.64	1699.81
373.85	1724.39
374.06	1914.85
374.26	1796.07
374.47	1712.10
374.68	1796.07
374.89	1736.68
375.10	1640.42
375.31	1812.45
375.52	1728.49
375.73	1646.57
375.94	1695.72
376.15	1785.83
376.36	1656.81
376.57	1730.53
376.78	1716.20
376.99	1763.30
377.20	1785.83
377.40	1671.14
377.61	1816.55
377.82	1720.29
378.03	1779.68
378.24	1714.15
378.45	1755.11
378.66	1738.73
378.87	1626.09
379.08	1660.90
379.29	1728.49
379.50	1740.77
379.71	1712.10
379.91	1775.59
380.12	1691.62
380.33	1701.86
380.54	1695.72
380.75	1722.34
380.96	1714.15
381.17	1769.44
381.38	1755.11
381.59	1798.12
381.80	1726.44
382.00	1882.08
382.21	1763.30
382.42	1794.02
382.63	1837.03
382.84	1757.16
383.05	1806.31
383.26	1865.70
383.47	1710.05
383.68	1753.06
383.88	1798.12
384.09	1751.01
384.30	1800.16
384.51	1728.49
384.72	1677.29
384.93	1617.90
385.14	1779.68
385.35	1755.11
385.55	1693.67
385.76	1738.73
385.97	1677.29
386.18	1583.08
386.39	1691.62
386.60	1669.09
386.81	1718.25
387.02	1685.48
387.22	1648.61
387.43	1783.78
387.64	1810.40
387.85	1853.41
388.06	2217.95
388.27	4278.21
388.48	6746.01
388.68	8322.94
388.89	9688.94
389.10	9850.73
389.31	8640.38
389.52	7536.52
389.73	6940.57
389.93	6313.89
390.14	5881.77
390.35	5197.74
390.56	4628.41
390.77	3936.20
390.98	3110.86
391.18	2457.56
391.39	2156.51
391.60	1832.93
391.81	1859.56
392.02	1726.44
392.23	1814.50
392.43	1779.68
392.64	1730.53
392.85	1773.54
393.06	1763.30
393.27	1732.58
393.47	1673.19
393.68	1644.52
393.89	1687.53
394.10	1746.92
394.31	1662.95
394.52	1665.00
394.72	1673.19
394.93	1869.80
395.14	1628.14
395.35	1755.11
395.56	1730.53
395.76	1748.97
395.97	1728.49
396.18	1906.66
396.39	1851.36
396.60	2029.54
396.80	1904.61
397.01	1877.99
397.22	1865.70
397.43	1869.80
397.64	1742.82
397.84	1722.34
398.05	1861.60
398.26	1681.38
398.47	1753.06
398.67	1791.97
398.88	1773.54
399.09	1687.53
399.30	1662.95
399.51	1839.08
399.71	1699.81
399.92	1675.24
400.13	1769.44
400.34	1693.67
400.54	1675.24
400.75	1826.79
400.96	1722.34
401.17	1791.97
401.37	1751.01
401.58	1689.57
401.79	1744.87
402.00	1779.68
402.21	1996.77
402.41	1951.71
402.62	1988.58
402.83	2027.49
403.04	2017.25
403.24	2193.37
403.45	1769.44
403.66	1912.80
403.87	1851.36
404.07	1945.57
404.28	1906.66
404.49	1867.75
404.70	1779.68
404.90	1867.75
405.11	1791.97
405.32	1751.01
405.52	1654.76
405.73	1675.24
405.94	1701.86
406.15	1748.97
406.35	1736.68
406.56	1806.31
406.77	1718.25
406.98	1755.11
407.18	1638.38
407.39	1783.78
407.60	1720.29
407.80	1787.88
408.01	1638.38
408.22	1787.88
408.43	1658.85
408.63	1671.14
408.84	1732.58
409.05	1816.55
409.25	1628.14
409.46	1722.34
409.67	1624.04
409.88	1671.14
410.08	1689.57
410.29	1673.19
410.50	1746.92
410.70	1732.58
410.91	1619.94
411.12	1716.20
411.32	1744.87
411.53	1703.91
411.74	1746.92
411.95	1736.68
412.15	1771.49
412.36	1789.92
412.57	1744.87
412.77	1781.73
412.98	1742.82
413.19	1699.81
413.39	1703.91
413.60	1751.01
413.81	1806.31
414.01	1667.05
414.22	1724.39
414.43	1767.40
414.63	1755.11
414.84	1806.31
415.05	1714.15
415.25	1730.53
415.46	1798.12
415.67	1658.85
415.87	1736.68
416.08	1753.06
416.29	1708.01
416.49	1751.01
416.70	1679.33
416.91	1753.06
417.11	1662.95
417.32	1695.72
417.53	1798.12
417.73	1714.15
417.94	1671.14
418.15	1669.09
418.35	1710.05
418.56	1708.01
418.77	1843.17
418.97	1699.81
419.18	1720.29
419.38	1595.37
419.59	1744.87
419.80	1798.12
420.00	1675.24
420.21	1685.48
420.42	1789.92
420.62	1730.53
420.83	1746.92
421.04	1740.77
421.24	1638.38
421.45	1773.54
421.65	1796.07
421.86	1730.53
422.07	1718.25
422.27	1740.77
422.48	1636.33
422.69	1673.19
422.89	1781.73
423.10	1734.63
423.30	1689.57
423.51	1746.92
423.72	1712.10
423.92	1771.49
424.13	1710.05
424.33	1685.48
424.54	1779.68
424.75	1757.16
424.95	1791.97
425.16	1783.78
425.36	1656.81
425.57	1746.92
425.78	1802.21
425.98	1806.31
426.19	1601.51
426.39	1738.73
426.60	1769.44
426.81	1818.60
427.01	1751.01
427.22	1718.25
427.42	1628.14
427.63	1630.18
427.83	1744.87
428.04	1746.92
428.25	1832.93
428.45	1787.88
428.66	1791.97
428.86	1701.86
429.07	1685.48
429.28	1748.97
429.48	1693.67
429.69	1714.15
429.89	1775.59
430.10	1644.52
430.30	1763.30
430.51	1804.26
430.71	1687.53
430.92	1734.63
431.13	1714.15
431.33	1734.63
431.54	1699.81
431.74	1773.54
431.95	1789.92
432.15	1677.29
432.36	1730.53
432.56	1736.68
432.77	1816.55
432.98	1798.12
433.18	1726.44
433.39	1705.96
433.59	1710.05
433.80	1785.83
434.00	1871.84
434.21	1695.72
434.41	1726.44
434.62	1906.66
434.82	1642.47
435.03	1634.28
435.23	1755.11
435.44	1613.80
435.64	1705.96
435.85	1757.16
436.06	1763.30
436.26	1791.97
436.47	1794.02
436.67	1642.47
436.88	1640.42
437.08	1755.11
437.29	1828.84
437.49	1728.49
437.70	1746.92
437.90	1742.82
438.11	1841.12
438.31	1761.25
438.52	1861.60
438.72	1839.08
438.93	1906.66
439.13	1765.35
439.34	1775.59
439.54	1765.35
439.75	1779.68
439.95	1783.78
440.16	1720.29
440.36	1695.72
440.57	1841.12
440.77	1765.35
440.98	1765.35
441.18	1742.82
441.39	1658.85
441.59	1640.42
441.80	1900.52
442.00	1714.15
442.21	1847.27
442.41	1712.10
442.62	1761.25
442.82	1673.19
443.02	1767.40
443.23	1781.73
443.43	1759.21
443.64	1785.83
443.84	1630.18
444.05	1779.68
444.25	1775.59
444.46	1759.21
444.66	1785.83
444.87	1810.40
445.07	1642.47
445.28	1769.44
445.48	1808.36
445.69	1775.59
445.89	1882.08
446.09	1798.12
446.30	1974.24
446.50	2666.46
446.71	3737.54
446.91	4315.07
447.12	4794.29
447.32	4794.29
447.53	4372.41
447.73	3868.61
447.93	3598.28
448.14	3278.80
448.34	3184.59
448.55	2858.96
448.75	2836.44
448.96	2688.98
449.16	2424.80
449.36	2258.91
449.57	2035.68
449.77	1925.09
449.98	1771.49
450.18	1918.95
450.39	1824.74
450.59	1738.73
450.79	1740.77
451.00	1673.19
451.20	1714.15
451.41	1738.73
451.61	1830.88
451.81	1800.16
452.02	1769.44
452.22	1722.34
452.43	1781.73
452.63	1753.06
