SpectraSuite Data File
++++++++++++++++++++++++++++++++++++
Date: Mon Jun 06 13:16:57 CEST 2016
User: root
Dark Spectrum Present: No
Reference Spectrum Present: No
Number of Sampled Component Spectra: 1
Spectrometers: USB4C02835
Integration Time (usec): 100000 (USB4C02835)
Spectra Averaged: 1 (USB4C02835)
Boxcar Smoothing: 0 (USB4C02835)
Correct for Electrical Dark: No (USB4C02835)
Strobe/Lamp Enabled: No (USB4C02835)
Correct for Detector Non-linearity: No (USB4C02835)
Correct for Stray Light: No (USB4C02835)
Number of Pixels in Processed Spectrum: 3648
>>>>>Begin Processed Spectral Data<<<<<
177.47	1464.30
177.69	1464.30
177.91	1464.30
178.13	1423.34
178.36	1464.30
178.58	1646.57
178.80	1673.19
179.02	1617.90
179.24	1732.58
179.46	1718.25
179.68	1687.53
179.90	1673.19
180.13	1658.85
180.35	1619.94
180.57	1669.09
180.79	1748.97
181.01	1656.81
181.23	1730.53
181.45	1740.77
181.67	1732.58
181.90	1730.53
182.12	1626.09
182.34	1570.79
182.56	1759.21
182.78	1738.73
183.00	1730.53
183.22	1673.19
183.44	1630.18
183.66	1851.36
183.89	1812.45
184.11	1695.72
184.33	1761.25
184.55	1798.12
184.77	1712.10
184.99	1705.96
185.21	1714.15
185.43	1867.75
185.65	1492.97
185.87	1708.01
186.10	1787.88
186.32	1722.34
186.54	1722.34
186.76	1667.05
186.98	1779.68
187.20	1751.01
187.42	1644.52
187.64	1767.40
187.86	1753.06
188.08	1761.25
188.30	1624.04
188.52	1687.53
188.75	1765.35
188.97	1746.92
189.19	1765.35
189.41	1722.34
189.63	1685.48
189.85	1712.10
190.07	1599.46
190.29	1583.08
190.51	1757.16
190.73	1740.77
190.95	1744.87
191.17	1648.61
191.39	1621.99
191.61	1689.57
191.84	1697.77
192.06	1714.15
192.28	1624.04
192.50	1886.18
192.72	1783.78
192.94	1636.33
193.16	1783.78
193.38	1681.38
193.60	1722.34
193.82	1755.11
194.04	1751.01
194.26	1691.62
194.48	1720.29
194.70	1634.28
194.92	1685.48
195.14	1705.96
195.36	1744.87
195.58	1695.72
195.80	1685.48
196.02	1742.82
196.24	1691.62
196.46	1771.49
196.69	1636.33
196.91	1896.42
197.13	1708.01
197.35	1644.52
197.57	1812.45
197.79	1703.91
198.01	1662.95
198.23	1730.53
198.45	1755.11
198.67	1628.14
198.89	1644.52
199.11	1669.09
199.33	1609.70
199.55	1626.09
199.77	1681.38
199.99	1726.44
200.21	1681.38
200.43	1685.48
200.65	1656.81
200.87	1611.75
201.09	1697.77
201.31	1644.52
201.53	1779.68
201.75	1779.68
201.97	1751.01
202.19	1701.86
202.41	1673.19
202.63	1720.29
202.85	1748.97
203.07	1746.92
203.29	1738.73
203.51	1591.27
203.73	1677.29
203.95	1847.27
204.17	1697.77
204.39	1681.38
204.61	1624.04
204.83	1650.66
205.05	1687.53
205.27	1751.01
205.49	1824.74
205.71	1648.61
205.93	1587.18
206.15	1730.53
206.37	1703.91
206.59	1693.67
206.81	1574.89
207.03	1619.94
207.25	1638.38
207.47	1767.40
207.69	1689.57
207.91	1724.39
208.13	1808.36
208.34	1693.67
208.56	1603.56
208.78	1697.77
209.00	1634.28
209.22	1691.62
209.44	1705.96
209.66	1671.14
209.88	1656.81
210.10	1662.95
210.32	1718.25
210.54	1722.34
210.76	1708.01
210.98	1781.73
211.20	1562.60
211.42	1730.53
211.64	1820.64
211.86	1738.73
212.08	1687.53
212.30	1638.38
212.52	1589.22
212.74	1667.05
212.96	1710.05
213.17	1781.73
213.39	1689.57
213.61	1802.21
213.83	1775.59
214.05	1642.47
214.27	1732.58
214.49	1691.62
214.71	1716.20
214.93	1771.49
215.15	1595.37
215.37	1759.21
215.59	1630.18
215.81	1718.25
216.03	1710.05
216.24	1722.34
216.46	1687.53
216.68	1681.38
216.90	1710.05
217.12	1767.40
217.34	1712.10
217.56	1685.48
217.78	1734.63
218.00	1646.57
218.22	1820.64
218.44	1746.92
218.66	1744.87
218.87	1726.44
219.09	1748.97
219.31	1691.62
219.53	1695.72
219.75	1611.75
219.97	1642.47
220.19	1751.01
220.41	1628.14
220.63	1753.06
220.85	1708.01
221.06	1624.04
221.28	1787.88
221.50	1671.14
221.72	1697.77
221.94	1722.34
222.16	1732.58
222.38	1757.16
222.60	1789.92
222.82	1687.53
223.03	1755.11
223.25	1560.55
223.47	1759.21
223.69	1814.50
223.91	1714.15
224.13	1742.82
224.35	1636.33
224.57	1724.39
224.78	1742.82
225.00	1675.24
225.22	1787.88
225.44	1642.47
225.66	1740.77
225.88	1687.53
226.10	1734.63
226.32	1736.68
226.53	1761.25
226.75	1650.66
226.97	1660.90
227.19	1685.48
227.41	1611.75
227.63	1654.76
227.85	1550.31
228.06	1732.58
228.28	1742.82
228.50	1771.49
228.72	1640.42
228.94	1691.62
229.16	1613.80
229.37	1675.24
229.59	1669.09
229.81	1681.38
230.03	1677.29
230.25	1660.90
230.47	1630.18
230.69	1632.23
230.90	1722.34
231.12	1642.47
231.34	1740.77
231.56	1748.97
231.78	1632.23
232.00	1677.29
232.21	1710.05
232.43	1595.37
232.65	1601.51
232.87	1783.78
233.09	1572.84
233.30	1650.66
233.52	1738.73
233.74	1718.25
233.96	1665.00
234.18	1628.14
234.40	1644.52
234.61	1769.44
234.83	1615.85
235.05	1603.56
235.27	1794.02
235.49	1660.90
235.70	1669.09
235.92	1757.16
236.14	1765.35
236.36	1804.26
236.58	1581.03
236.79	1755.11
237.01	1673.19
237.23	1628.14
237.45	1755.11
237.67	1630.18
237.88	1693.67
238.10	1828.84
238.32	1558.50
238.54	1734.63
238.76	1681.38
238.97	1542.12
239.19	1652.71
239.41	1839.08
239.63	1738.73
239.85	1634.28
240.06	1691.62
240.28	1701.86
240.50	1765.35
240.72	1738.73
240.93	1734.63
241.15	1765.35
241.37	1697.77
241.59	1763.30
241.81	1673.19
242.02	1667.05
242.24	1701.86
242.46	1763.30
242.68	1667.05
242.89	1685.48
243.11	1703.91
243.33	1656.81
243.55	1757.16
243.76	1736.68
243.98	1644.52
244.20	1746.92
244.42	1681.38
244.64	1767.40
244.85	1683.43
245.07	1650.66
245.29	1724.39
245.51	1712.10
245.72	1681.38
245.94	1730.53
246.16	1740.77
246.38	1738.73
246.59	1650.66
246.81	1607.66
247.03	1697.77
247.24	1585.13
247.46	1646.57
247.68	1673.19
247.90	1693.67
248.11	1689.57
248.33	1691.62
248.55	1687.53
248.77	1636.33
248.98	1722.34
249.20	1773.54
249.42	1646.57
249.64	1740.77
249.85	1681.38
250.07	1667.05
250.29	1742.82
250.50	1671.14
250.72	1638.38
250.94	1683.43
251.16	1847.27
251.37	1755.11
251.59	1753.06
251.81	1753.06
252.02	1751.01
252.24	1703.91
252.46	1716.20
252.68	1646.57
252.89	1652.71
253.11	1615.85
253.33	1675.24
253.54	1742.82
253.76	1626.09
253.98	1640.42
254.20	1748.97
254.41	1607.66
254.63	1689.57
254.85	1595.37
255.06	1693.67
255.28	1718.25
255.50	1695.72
255.71	1662.95
255.93	1617.90
256.15	1757.16
256.36	1751.01
256.58	1650.66
256.80	1773.54
257.02	1742.82
257.23	1673.19
257.45	1703.91
257.67	1708.01
257.88	1660.90
258.10	1685.48
258.32	1654.76
258.53	1642.47
258.75	1808.36
258.97	1710.05
259.18	1763.30
259.40	1679.33
259.62	1701.86
259.83	1822.69
260.05	1796.07
260.27	1988.58
260.48	1703.91
260.70	1662.95
260.92	1634.28
261.13	1755.11
261.35	1665.00
261.57	1705.96
261.78	1597.42
262.00	1591.27
262.22	1714.15
262.43	1648.61
262.65	1691.62
262.86	1714.15
263.08	1820.64
263.30	1685.48
263.51	1615.85
263.73	1630.18
263.95	1806.31
264.16	1591.27
264.38	1619.94
264.60	1740.77
264.81	1718.25
265.03	1734.63
265.25	1779.68
265.46	1728.49
265.68	1679.33
265.89	1640.42
266.11	1638.38
266.33	1697.77
266.54	1677.29
266.76	1710.05
266.98	1693.67
267.19	1828.84
267.41	1697.77
267.62	1652.71
267.84	1628.14
268.06	1689.57
268.27	1640.42
268.49	1705.96
268.70	1800.16
268.92	1753.06
269.14	1605.61
269.35	1587.18
269.57	1685.48
269.79	1724.39
270.00	1718.25
270.22	1779.68
270.43	1671.14
270.65	1632.23
270.87	1624.04
271.08	1753.06
271.30	1748.97
271.51	1652.71
271.73	1767.40
271.95	1763.30
272.16	1720.29
272.38	1722.34
272.59	1640.42
272.81	1757.16
273.02	1611.75
273.24	1794.02
273.46	1695.72
273.67	1634.28
273.89	1589.22
274.10	1658.85
274.32	1763.30
274.54	1697.77
274.75	1669.09
274.97	1642.47
275.18	1753.06
275.40	1708.01
275.61	1724.39
275.83	1714.15
276.05	1611.75
276.26	1611.75
276.48	1800.16
276.69	1685.48
276.91	1687.53
277.12	1812.45
277.34	1753.06
277.55	1834.98
277.77	1687.53
277.99	1679.33
278.20	1652.71
278.42	1650.66
278.63	1640.42
278.85	1669.09
279.06	1581.03
279.28	1685.48
279.49	1822.69
279.71	1730.53
279.93	1675.24
280.14	1703.91
280.36	1697.77
280.57	1785.83
280.79	1740.77
281.00	1630.18
281.22	1720.29
281.43	1777.64
281.65	1570.79
281.86	1716.20
282.08	1742.82
282.29	1824.74
282.51	1601.51
282.73	1748.97
282.94	1558.50
283.16	1716.20
283.37	1718.25
283.59	1675.24
283.80	1759.21
284.02	1724.39
284.23	1712.10
284.45	1699.81
284.66	1669.09
284.88	1634.28
285.09	1677.29
285.31	1744.87
285.52	1712.10
285.74	1572.84
285.95	1708.01
286.17	1669.09
286.38	1742.82
286.60	1644.52
286.81	1669.09
287.03	1703.91
287.24	1656.81
287.46	1755.11
287.67	1636.33
287.89	1816.55
288.10	1724.39
288.32	1759.21
288.53	1759.21
288.75	1767.40
288.96	1755.11
289.18	1673.19
289.39	1710.05
289.61	1710.05
289.82	1837.03
290.04	1810.40
290.25	1624.04
290.47	1736.68
290.68	1652.71
290.90	1685.48
291.11	1632.23
291.33	1783.78
291.54	1648.61
291.76	1667.05
291.97	1738.73
292.18	1714.15
292.40	1712.10
292.61	1595.37
292.83	1800.16
293.04	1714.15
293.26	1665.00
293.47	1726.44
293.69	1648.61
293.90	1701.86
294.12	1773.54
294.33	1613.80
294.55	1744.87
294.76	1771.49
294.97	1701.86
295.19	1839.08
295.40	1691.62
295.62	1675.24
295.83	1710.05
296.05	1705.96
296.26	1662.95
296.48	1712.10
296.69	1673.19
296.90	1705.96
297.12	1732.58
297.33	1746.92
297.55	1671.14
297.76	1679.33
297.98	1767.40
298.19	1728.49
298.41	1667.05
298.62	1572.84
298.83	1880.04
299.05	1712.10
299.26	1648.61
299.48	1714.15
299.69	1748.97
299.90	1714.15
300.12	1714.15
300.33	1763.30
300.55	1652.71
300.76	1759.21
300.98	1683.43
301.19	1773.54
301.40	1671.14
301.62	1697.77
301.83	1724.39
302.05	1658.85
302.26	1665.00
302.47	1771.49
302.69	1619.94
302.90	1693.67
303.12	1611.75
303.33	1736.68
303.54	1777.64
303.76	1724.39
303.97	1701.86
304.19	1826.79
304.40	1667.05
304.61	1656.81
304.83	1757.16
305.04	1816.55
305.26	1730.53
305.47	1609.70
305.68	1703.91
305.90	1660.90
306.11	1748.97
306.33	1681.38
306.54	1644.52
306.75	1697.77
306.97	1640.42
307.18	1652.71
307.39	1652.71
307.61	1763.30
307.82	1646.57
308.04	1791.97
308.25	1585.13
308.46	1656.81
308.68	1751.01
308.89	1669.09
309.10	1763.30
309.32	1699.81
309.53	1710.05
309.74	1726.44
309.96	1701.86
310.17	1814.50
310.39	1769.44
310.60	1724.39
310.81	1658.85
311.03	1570.79
311.24	1703.91
311.45	1691.62
311.67	1761.25
311.88	1681.38
312.09	1652.71
312.31	1656.81
312.52	1748.97
312.73	1693.67
312.95	1660.90
313.16	1699.81
313.37	1787.88
313.59	1714.15
313.80	1748.97
314.01	1736.68
314.23	1753.06
314.44	1675.24
314.65	1665.00
314.87	1669.09
315.08	1724.39
315.29	1638.38
315.51	1593.32
315.72	1667.05
315.93	1679.33
316.15	1765.35
316.36	1732.58
316.57	1714.15
316.79	1710.05
317.00	1636.33
317.21	1691.62
317.43	1628.14
317.64	1714.15
317.85	1765.35
318.07	1638.38
318.28	1785.83
318.49	1789.92
318.70	1970.15
318.92	1904.61
319.13	1877.99
319.34	1847.27
319.56	1804.26
319.77	1738.73
319.98	1812.45
320.20	1726.44
320.41	1808.36
320.62	1765.35
320.83	1634.28
321.05	1873.89
321.26	1685.48
321.47	1658.85
321.69	1830.88
321.90	1613.80
322.11	1648.61
322.32	1675.24
322.54	1824.74
322.75	1734.63
322.96	1742.82
323.18	1669.09
323.39	1699.81
323.60	1570.79
323.81	1734.63
324.03	1669.09
324.24	1748.97
324.45	1746.92
324.66	1665.00
324.88	1812.45
325.09	1769.44
325.30	1722.34
325.52	1765.35
325.73	1681.38
325.94	1697.77
326.15	1591.27
326.37	1650.66
326.58	1703.91
326.79	1841.12
327.00	1615.85
327.22	1724.39
327.43	1718.25
327.64	1624.04
327.85	1746.92
328.07	1708.01
328.28	1806.31
328.49	1712.10
328.70	1705.96
328.92	1693.67
329.13	1701.86
329.34	1769.44
329.55	1755.11
329.76	1710.05
329.98	1714.15
330.19	1785.83
330.40	1710.05
330.61	1734.63
330.83	1748.97
331.04	1673.19
331.25	1736.68
331.46	1691.62
331.68	1591.27
331.89	1761.25
332.10	1785.83
332.31	1667.05
332.52	1667.05
332.74	1789.92
332.95	1591.27
333.16	1730.53
333.37	1740.77
333.58	1742.82
333.80	1757.16
334.01	1650.66
334.22	1685.48
334.43	1599.46
334.64	1705.96
334.86	1576.94
335.07	1605.61
335.28	1744.87
335.49	1570.79
335.70	1724.39
335.92	1714.15
336.13	1810.40
336.34	1691.62
336.55	1812.45
336.76	1736.68
336.98	1562.60
337.19	1650.66
337.40	1783.78
337.61	1857.51
337.82	1705.96
338.04	1800.16
338.25	1601.51
338.46	1720.29
338.67	1603.56
338.88	1691.62
339.09	1675.24
339.31	1607.66
339.52	1587.18
339.73	1640.42
339.94	1640.42
340.15	1683.43
340.36	1681.38
340.58	1693.67
340.79	1656.81
341.00	1734.63
341.21	1617.90
341.42	1761.25
341.63	1697.77
341.85	1722.34
342.06	1705.96
342.27	1638.38
342.48	1710.05
342.69	1630.18
342.90	1671.14
343.12	1716.20
343.33	1593.32
343.54	1632.23
343.75	1783.78
343.96	1701.86
344.17	1644.52
344.38	1642.47
344.60	1609.70
344.81	1652.71
345.02	1646.57
345.23	1853.41
345.44	1755.11
345.65	1806.31
345.86	1732.58
346.07	1665.00
346.29	1638.38
346.50	1685.48
346.71	1708.01
346.92	1771.49
347.13	1796.07
347.34	1730.53
347.55	1697.77
347.76	1673.19
347.98	1673.19
348.19	1646.57
348.40	1798.12
348.61	1693.67
348.82	1779.68
349.03	1673.19
349.24	1656.81
349.45	1693.67
349.66	1552.36
349.88	1734.63
350.09	1650.66
350.30	1730.53
350.51	1736.68
350.72	1636.33
350.93	1718.25
351.14	1673.19
351.35	1724.39
351.56	1683.43
351.77	1640.42
351.99	1736.68
352.20	1814.50
352.41	1751.01
352.62	1593.32
352.83	1722.34
353.04	1667.05
353.25	1652.71
353.46	1751.01
353.67	1759.21
353.88	1470.44
354.09	1654.76
354.30	1753.06
354.52	1765.35
354.73	1662.95
354.94	1615.85
355.15	1714.15
355.36	1740.77
355.57	1695.72
355.78	1730.53
355.99	1689.57
356.20	1665.00
356.41	1767.40
356.62	1693.67
356.83	1677.29
357.04	1794.02
357.25	1597.42
357.46	1718.25
357.68	1615.85
357.89	1675.24
358.10	1701.86
358.31	1691.62
358.52	1726.44
358.73	1613.80
358.94	1654.76
359.15	1642.47
359.36	1722.34
359.57	1701.86
359.78	1718.25
359.99	1779.68
360.20	1648.61
360.41	1691.62
360.62	1771.49
360.83	1722.34
361.04	1712.10
361.25	1687.53
361.46	1755.11
361.67	1665.00
361.88	1693.67
362.09	1763.30
362.30	1789.92
362.51	1648.61
362.72	1724.39
362.93	1697.77
363.14	1722.34
363.35	1705.96
363.56	1677.29
363.78	1779.68
363.99	1693.67
364.20	1691.62
364.41	1695.72
364.62	1775.59
364.83	1763.30
365.04	1730.53
365.25	1744.87
365.46	1773.54
365.67	1683.43
365.88	1660.90
366.09	1597.42
366.30	1605.61
366.51	1681.38
366.72	1609.70
366.93	1689.57
367.14	1755.11
367.35	1841.12
367.56	1640.42
367.77	1791.97
367.98	1753.06
368.18	1701.86
368.39	1675.24
368.60	1652.71
368.81	1746.92
369.02	1746.92
369.23	1740.77
369.44	1589.22
369.65	1693.67
369.86	1705.96
370.07	1755.11
370.28	1671.14
370.49	1759.21
370.70	1667.05
370.91	1681.38
371.12	1607.66
371.33	1703.91
371.54	1746.92
371.75	1753.06
371.96	1632.23
372.17	1777.64
372.38	1703.91
372.59	1722.34
372.80	1722.34
373.01	1738.73
373.22	1773.54
373.43	1726.44
373.64	1591.27
373.85	1710.05
374.06	1820.64
374.26	1759.21
374.47	1669.09
374.68	1730.53
374.89	1648.61
375.10	1630.18
375.31	1738.73
375.52	1693.67
375.73	1654.76
375.94	1650.66
376.15	1888.23
376.36	1652.71
376.57	1673.19
376.78	1679.33
376.99	1730.53
377.20	1722.34
377.40	1654.76
377.61	1767.40
377.82	1654.76
378.03	1746.92
378.24	1779.68
378.45	1724.39
378.66	1708.01
378.87	1636.33
379.08	1626.09
379.29	1695.72
379.50	1808.36
379.71	1714.15
379.91	1769.44
380.12	1650.66
380.33	1769.44
380.54	1703.91
380.75	1691.62
380.96	1724.39
381.17	1742.82
381.38	1718.25
381.59	1738.73
381.80	1730.53
382.00	1834.98
382.21	1816.55
382.42	1787.88
382.63	1834.98
382.84	1753.06
383.05	1751.01
383.26	1861.60
383.47	1822.69
383.68	1726.44
383.88	1771.49
384.09	1763.30
384.30	1785.83
384.51	1720.29
384.72	1662.95
384.93	1681.38
385.14	1710.05
385.35	1730.53
385.55	1538.02
385.76	1783.78
385.97	1738.73
386.18	1665.00
386.39	1615.85
386.60	1685.48
386.81	1648.61
387.02	1638.38
387.22	1646.57
387.43	1759.21
387.64	1718.25
387.85	1869.80
388.06	2242.53
388.27	4184.00
388.48	6768.54
388.68	8081.28
388.89	9426.80
389.10	9879.40
389.31	8458.11
389.52	7339.92
389.73	6690.71
389.93	6166.43
390.14	5797.80
390.35	5263.28
390.56	4503.48
390.77	3649.48
390.98	2996.18
391.18	2629.59
391.39	2127.84
391.60	1849.32
391.81	1828.84
392.02	1677.29
392.23	1865.70
392.43	1828.84
392.64	1720.29
392.85	1742.82
393.06	1763.30
393.27	1679.33
393.47	1617.90
393.68	1685.48
393.89	1626.09
394.10	1783.78
394.31	1681.38
394.52	1677.29
394.72	1675.24
394.93	1787.88
395.14	1662.95
395.35	1740.77
395.56	1794.02
395.76	1683.43
395.97	1732.58
396.18	1810.40
396.39	1884.13
396.60	2029.54
396.80	1880.04
397.01	1818.60
397.22	1808.36
397.43	1820.64
397.64	1691.62
397.84	1808.36
398.05	1847.27
398.26	1734.63
398.47	1787.88
398.67	1734.63
398.88	1744.87
399.09	1738.73
399.30	1720.29
399.51	1660.90
399.71	1562.60
399.92	1683.43
400.13	1683.43
400.34	1730.53
400.54	1720.29
400.75	1812.45
400.96	1705.96
401.17	1810.40
401.37	1771.49
401.58	1691.62
401.79	1708.01
402.00	1839.08
402.21	2033.63
402.41	1994.72
402.62	1992.67
402.83	2037.73
403.04	2009.06
403.24	2009.06
403.45	1830.88
403.66	1882.08
403.87	1849.32
404.07	1931.23
404.28	1871.84
404.49	1929.19
404.70	1710.05
404.90	1796.07
405.11	1679.33
405.32	1771.49
405.52	1630.18
405.73	1628.14
405.94	1701.86
406.15	1703.91
406.35	1683.43
406.56	1712.10
406.77	1695.72
406.98	1593.32
407.18	1716.20
407.39	1796.07
407.60	1578.98
407.80	1673.19
408.01	1654.76
408.22	1728.49
408.43	1656.81
408.63	1714.15
408.84	1753.06
409.05	1761.25
409.25	1605.61
409.46	1685.48
409.67	1687.53
409.88	1693.67
410.08	1716.20
410.29	1642.47
410.50	1705.96
410.70	1660.90
410.91	1662.95
411.12	1738.73
411.32	1677.29
411.53	1677.29
411.74	1769.44
411.95	1781.73
412.15	1759.21
412.36	1804.26
412.57	1791.97
412.77	1783.78
412.98	1734.63
413.19	1693.67
413.39	1693.67
413.60	1744.87
413.81	1794.02
414.01	1628.14
414.22	1759.21
414.43	1691.62
414.63	1705.96
414.84	1779.68
415.05	1755.11
415.25	1728.49
415.46	1775.59
415.67	1730.53
415.87	1751.01
416.08	1667.05
416.29	1673.19
416.49	1712.10
416.70	1701.86
416.91	1667.05
417.11	1685.48
417.32	1714.15
417.53	1730.53
417.73	1740.77
417.94	1703.91
418.15	1748.97
418.35	1722.34
418.56	1671.14
418.77	1773.54
418.97	1791.97
419.18	1751.01
419.38	1578.98
419.59	1718.25
419.80	1726.44
420.00	1673.19
420.21	1660.90
420.42	1740.77
420.62	1722.34
420.83	1689.57
421.04	1705.96
421.24	1703.91
421.45	1773.54
421.65	1679.33
421.86	1660.90
422.07	1705.96
422.27	1642.47
422.48	1722.34
422.69	1693.67
422.89	1683.43
423.10	1710.05
423.30	1650.66
423.51	1716.20
423.72	1714.15
423.92	1746.92
424.13	1712.10
424.33	1701.86
424.54	1853.41
424.75	1677.29
424.95	1779.68
425.16	1730.53
425.36	1691.62
425.57	1783.78
425.78	1685.48
425.98	1720.29
426.19	1687.53
426.39	1609.70
426.60	1705.96
426.81	1781.73
427.01	1650.66
427.22	1642.47
427.42	1597.42
427.63	1669.09
427.83	1791.97
428.04	1871.84
428.25	1800.16
428.45	1763.30
428.66	1779.68
428.86	1732.58
429.07	1738.73
429.28	1716.20
429.48	1734.63
429.69	1583.08
429.89	1755.11
430.10	1693.67
430.30	1804.26
430.51	1691.62
430.71	1640.42
430.92	1691.62
431.13	1701.86
431.33	1695.72
431.54	1697.77
431.74	1759.21
431.95	1742.82
432.15	1689.57
432.36	1759.21
432.56	1681.38
432.77	1814.50
432.98	1767.40
433.18	1730.53
433.39	1701.86
433.59	1705.96
433.80	1820.64
434.00	1828.84
434.21	1695.72
434.41	1683.43
434.62	1888.23
434.82	1617.90
435.03	1648.61
435.23	1736.68
435.44	1587.18
435.64	1677.29
435.85	1730.53
436.06	1785.83
436.26	1828.84
436.47	1695.72
436.67	1714.15
436.88	1712.10
437.08	1718.25
437.29	1746.92
437.49	1804.26
437.70	1832.93
437.90	1716.20
438.11	1851.36
438.31	1779.68
438.52	1808.36
438.72	1800.16
438.93	1736.68
439.13	1783.78
439.34	1828.84
439.54	1755.11
439.75	1814.50
439.95	1779.68
440.16	1693.67
440.36	1699.81
440.57	1779.68
440.77	1691.62
440.98	1785.83
441.18	1757.16
441.39	1656.81
441.59	1644.52
441.80	1884.13
442.00	1740.77
442.21	1845.22
442.41	1603.56
442.62	1759.21
442.82	1769.44
443.02	1689.57
443.23	1773.54
443.43	1732.58
443.64	1806.31
443.84	1718.25
444.05	1728.49
444.25	1724.39
444.46	1705.96
444.66	1746.92
444.87	1802.21
445.07	1681.38
445.28	1732.58
445.48	1787.88
445.69	1830.88
445.89	1910.75
446.09	1740.77
446.30	2039.78
446.50	2631.64
446.71	3729.35
446.91	4302.78
447.12	4640.70
447.32	4822.97
447.53	4323.26
447.73	3755.97
447.93	3483.59
448.14	3327.95
448.34	3119.06
448.55	2834.39
448.75	2766.81
448.96	2666.46
449.16	2363.36
449.36	2201.57
449.57	1978.34
449.77	1943.52
449.98	1732.58
450.18	1761.25
450.39	1802.21
450.59	1736.68
450.79	1744.87
451.00	1677.29
451.20	1810.40
451.41	1689.57
451.61	1681.38
451.81	1724.39
452.02	1701.86
452.22	1673.19
452.43	1691.62
452.63	1730.53
