SpectraSuite Data File
++++++++++++++++++++++++++++++++++++
Date: Mon Jun 06 13:15:37 CEST 2016
User: root
Dark Spectrum Present: No
Reference Spectrum Present: No
Number of Sampled Component Spectra: 1
Spectrometers: USB4C02835
Integration Time (usec): 100000 (USB4C02835)
Spectra Averaged: 1 (USB4C02835)
Boxcar Smoothing: 0 (USB4C02835)
Correct for Electrical Dark: No (USB4C02835)
Strobe/Lamp Enabled: No (USB4C02835)
Correct for Detector Non-linearity: No (USB4C02835)
Correct for Stray Light: No (USB4C02835)
Number of Pixels in Processed Spectrum: 3648
>>>>>Begin Processed Spectral Data<<<<<
177.47	1470.44
177.69	1470.44
177.91	1470.44
178.13	1556.46
178.36	1443.82
178.58	1626.09
178.80	1748.97
179.02	1621.99
179.24	1640.42
179.46	1636.33
179.68	1722.34
179.90	1730.53
180.13	1712.10
180.35	1724.39
180.57	1660.90
180.79	1796.07
181.01	1673.19
181.23	1734.63
181.45	1775.59
181.67	1693.67
181.90	1740.77
182.12	1650.66
182.34	1556.46
182.56	1767.40
182.78	1779.68
183.00	1699.81
183.22	1691.62
183.44	1621.99
183.66	1771.49
183.89	1781.73
184.11	1640.42
184.33	1699.81
184.55	1691.62
184.77	1681.38
184.99	1744.87
185.21	1652.71
185.43	1832.93
185.65	1677.29
185.87	1757.16
186.10	1808.36
186.32	1814.50
186.54	1665.00
186.76	1726.44
186.98	1701.86
187.20	1763.30
187.42	1628.14
187.64	1642.47
187.86	1751.01
188.08	1701.86
188.30	1638.38
188.52	1662.95
188.75	1830.88
188.97	1798.12
189.19	1685.48
189.41	1732.58
189.63	1646.57
189.85	1742.82
190.07	1742.82
190.29	1640.42
190.51	1734.63
190.73	1636.33
190.95	1728.49
191.17	1714.15
191.39	1681.38
191.61	1675.24
191.84	1660.90
192.06	1681.38
192.28	1626.09
192.50	1837.03
192.72	1759.21
192.94	1644.52
193.16	1767.40
193.38	1708.01
193.60	1624.04
193.82	1718.25
194.04	1753.06
194.26	1769.44
194.48	1667.05
194.70	1683.43
194.92	1683.43
195.14	1693.67
195.36	1726.44
195.58	1673.19
195.80	1730.53
196.02	1632.23
196.24	1730.53
196.46	1771.49
196.69	1650.66
196.91	1787.88
197.13	1730.53
197.35	1648.61
197.57	1773.54
197.79	1734.63
198.01	1701.86
198.23	1697.77
198.45	1710.05
198.67	1648.61
198.89	1638.38
199.11	1730.53
199.33	1667.05
199.55	1587.18
199.77	1720.29
199.99	1748.97
200.21	1585.13
200.43	1720.29
200.65	1574.89
200.87	1658.85
201.09	1734.63
201.31	1710.05
201.53	1703.91
201.75	1675.24
201.97	1689.57
202.19	1681.38
202.41	1744.87
202.63	1845.22
202.85	1748.97
203.07	1806.31
203.29	1601.51
203.51	1697.77
203.73	1673.19
203.95	1822.69
204.17	1730.53
204.39	1728.49
204.61	1691.62
204.83	1695.72
205.05	1701.86
205.27	1712.10
205.49	1867.75
205.71	1753.06
205.93	1611.75
206.15	1693.67
206.37	1736.68
206.59	1705.96
206.81	1638.38
207.03	1599.46
207.25	1654.76
207.47	1722.34
207.69	1787.88
207.91	1757.16
208.13	1771.49
208.34	1644.52
208.56	1660.90
208.78	1714.15
209.00	1689.57
209.22	1632.23
209.44	1677.29
209.66	1660.90
209.88	1636.33
210.10	1693.67
210.32	1656.81
210.54	1779.68
210.76	1710.05
210.98	1730.53
211.20	1554.41
211.42	1693.67
211.64	1773.54
211.86	1755.11
212.08	1703.91
212.30	1705.96
212.52	1646.57
212.74	1648.61
212.96	1755.11
213.17	1763.30
213.39	1736.68
213.61	1779.68
213.83	1753.06
214.05	1574.89
214.27	1679.33
214.49	1632.23
214.71	1712.10
214.93	1767.40
215.15	1689.57
215.37	1701.86
215.59	1583.08
215.81	1644.52
216.03	1738.73
216.24	1671.14
216.46	1693.67
216.68	1708.01
216.90	1708.01
217.12	1734.63
217.34	1669.09
217.56	1746.92
217.78	1751.01
218.00	1714.15
218.22	1619.94
218.44	1712.10
218.66	1695.72
218.87	1734.63
219.09	1677.29
219.31	1685.48
219.53	1679.33
219.75	1665.00
219.97	1701.86
220.19	1765.35
220.41	1724.39
220.63	1779.68
220.85	1748.97
221.06	1708.01
221.28	1742.82
221.50	1769.44
221.72	1660.90
221.94	1714.15
222.16	1708.01
222.38	1775.59
222.60	1751.01
222.82	1701.86
223.03	1695.72
223.25	1667.05
223.47	1726.44
223.69	1853.41
223.91	1771.49
224.13	1689.57
224.35	1667.05
224.57	1718.25
224.78	1654.76
225.00	1669.09
225.22	1705.96
225.44	1785.83
225.66	1626.09
225.88	1652.71
226.10	1779.68
226.32	1757.16
226.53	1863.65
226.75	1746.92
226.97	1636.33
227.19	1697.77
227.41	1650.66
227.63	1646.57
227.85	1574.89
228.06	1755.11
228.28	1834.98
228.50	1714.15
228.72	1660.90
228.94	1648.61
229.16	1644.52
229.37	1675.24
229.59	1695.72
229.81	1818.60
230.03	1689.57
230.25	1677.29
230.47	1658.85
230.69	1632.23
230.90	1734.63
231.12	1689.57
231.34	1716.20
231.56	1740.77
231.78	1679.33
232.00	1683.43
232.21	1662.95
232.43	1656.81
232.65	1607.66
232.87	1730.53
233.09	1652.71
233.30	1718.25
233.52	1734.63
233.74	1650.66
233.96	1722.34
234.18	1642.47
234.40	1726.44
234.61	1826.79
234.83	1632.23
235.05	1609.70
235.27	1867.75
235.49	1761.25
235.70	1687.53
235.92	1683.43
236.14	1775.59
236.36	1748.97
236.58	1691.62
236.79	1785.83
237.01	1660.90
237.23	1691.62
237.45	1773.54
237.67	1632.23
237.88	1691.62
238.10	1791.97
238.32	1677.29
238.54	1617.90
238.76	1705.96
238.97	1601.51
239.19	1634.28
239.41	1751.01
239.63	1763.30
239.85	1621.99
240.06	1781.73
240.28	1609.70
240.50	1703.91
240.72	1730.53
240.93	1728.49
241.15	1791.97
241.37	1699.81
241.59	1800.16
241.81	1718.25
242.02	1660.90
242.24	1812.45
242.46	1683.43
242.68	1675.24
242.89	1761.25
243.11	1802.21
243.33	1679.33
243.55	1740.77
243.76	1691.62
243.98	1607.66
244.20	1720.29
244.42	1662.95
244.64	1675.24
244.85	1570.79
245.07	1665.00
245.29	1738.73
245.51	1673.19
245.72	1701.86
245.94	1800.16
246.16	1697.77
246.38	1781.73
246.59	1621.99
246.81	1673.19
247.03	1656.81
247.24	1667.05
247.46	1683.43
247.68	1773.54
247.90	1695.72
248.11	1679.33
248.33	1724.39
248.55	1671.14
248.77	1726.44
248.98	1773.54
249.20	1800.16
249.42	1705.96
249.64	1720.29
249.85	1658.85
250.07	1611.75
250.29	1667.05
250.50	1814.50
250.72	1574.89
250.94	1708.01
251.16	1814.50
251.37	1810.40
251.59	1660.90
251.81	1630.18
252.02	1736.68
252.24	1693.67
252.46	1771.49
252.68	1597.42
252.89	1632.23
253.11	1611.75
253.33	1787.88
253.54	1755.11
253.76	1613.80
253.98	1656.81
254.20	1650.66
254.41	1611.75
254.63	1705.96
254.85	1624.04
255.06	1601.51
255.28	1728.49
255.50	1652.71
255.71	1646.57
255.93	1574.89
256.15	1675.24
256.36	1798.12
256.58	1662.95
256.80	1638.38
257.02	1574.89
257.23	1605.61
257.45	1667.05
257.67	1708.01
257.88	1583.08
258.10	1644.52
258.32	1712.10
258.53	1796.07
258.75	1755.11
258.97	1675.24
259.18	1650.66
259.40	1665.00
259.62	1843.17
259.83	1751.01
260.05	1693.67
260.27	1959.91
260.48	1748.97
260.70	1568.74
260.92	1775.59
261.13	1757.16
261.35	1789.92
261.57	1681.38
261.78	1634.28
262.00	1699.81
262.22	1767.40
262.43	1712.10
262.65	1699.81
262.86	1691.62
263.08	1886.18
263.30	1712.10
263.51	1662.95
263.73	1687.53
263.95	1802.21
264.16	1654.76
264.38	1630.18
264.60	1646.57
264.81	1701.86
265.03	1769.44
265.25	1742.82
265.46	1671.14
265.68	1777.64
265.89	1771.49
266.11	1634.28
266.33	1767.40
266.54	1769.44
266.76	1767.40
266.98	1716.20
267.19	1804.26
267.41	1708.01
267.62	1732.58
267.84	1636.33
268.06	1744.87
268.27	1642.47
268.49	1769.44
268.70	1757.16
268.92	1683.43
269.14	1646.57
269.35	1572.84
269.57	1660.90
269.79	1710.05
270.00	1628.14
270.22	1740.77
270.43	1624.04
270.65	1591.27
270.87	1748.97
271.08	1685.48
271.30	1718.25
271.51	1755.11
271.73	1718.25
271.95	1798.12
272.16	1724.39
272.38	1720.29
272.59	1648.61
272.81	1705.96
273.02	1691.62
273.24	1654.76
273.46	1767.40
273.67	1550.31
273.89	1632.23
274.10	1638.38
274.32	1746.92
274.54	1615.85
274.75	1751.01
274.97	1652.71
275.18	1746.92
275.40	1740.77
275.61	1701.86
275.83	1675.24
276.05	1630.18
276.26	1689.57
276.48	1742.82
276.69	1626.09
276.91	1667.05
277.12	1781.73
277.34	1654.76
277.55	1730.53
277.77	1726.44
277.99	1671.14
278.20	1562.60
278.42	1669.09
278.63	1701.86
278.85	1648.61
279.06	1619.94
279.28	1724.39
279.49	1732.58
279.71	1757.16
279.93	1671.14
280.14	1695.72
280.36	1607.66
280.57	1683.43
280.79	1673.19
281.00	1693.67
281.22	1736.68
281.43	1757.16
281.65	1587.18
281.86	1677.29
282.08	1697.77
282.29	1918.95
282.51	1693.67
282.73	1687.53
282.94	1624.04
283.16	1650.66
283.37	1804.26
283.59	1626.09
283.80	1732.58
284.02	1634.28
284.23	1791.97
284.45	1679.33
284.66	1601.51
284.88	1685.48
285.09	1734.63
285.31	1708.01
285.52	1736.68
285.74	1630.18
285.95	1669.09
286.17	1673.19
286.38	1746.92
286.60	1609.70
286.81	1701.86
287.03	1722.34
287.24	1667.05
287.46	1708.01
287.67	1638.38
287.89	1787.88
288.10	1783.78
288.32	1748.97
288.53	1828.84
288.75	1695.72
288.96	1734.63
289.18	1658.85
289.39	1671.14
289.61	1751.01
289.82	1828.84
290.04	1746.92
290.25	1693.67
290.47	1683.43
290.68	1716.20
290.90	1742.82
291.11	1613.80
291.33	1710.05
291.54	1638.38
291.76	1667.05
291.97	1730.53
292.18	1654.76
292.40	1736.68
292.61	1710.05
292.83	1894.37
293.04	1796.07
293.26	1675.24
293.47	1744.87
293.69	1634.28
293.90	1691.62
294.12	1796.07
294.33	1683.43
294.55	1710.05
294.76	1738.73
294.97	1712.10
295.19	1884.13
295.40	1660.90
295.62	1771.49
295.83	1656.81
296.05	1705.96
296.26	1751.01
296.48	1689.57
296.69	1763.30
296.90	1648.61
297.12	1753.06
297.33	1773.54
297.55	1736.68
297.76	1687.53
297.98	1765.35
298.19	1699.81
298.41	1724.39
298.62	1689.57
298.83	1808.36
299.05	1744.87
299.26	1712.10
299.48	1656.81
299.69	1755.11
299.90	1681.38
300.12	1638.38
300.33	1712.10
300.55	1710.05
300.76	1632.23
300.98	1617.90
301.19	1691.62
301.40	1681.38
301.62	1609.70
301.83	1697.77
302.05	1619.94
302.26	1728.49
302.47	1677.29
302.69	1712.10
302.90	1718.25
303.12	1634.28
303.33	1796.07
303.54	1937.38
303.76	1632.23
303.97	1705.96
304.19	1851.36
304.40	1665.00
304.61	1746.92
304.83	1783.78
305.04	1806.31
305.26	1708.01
305.47	1677.29
305.68	1726.44
305.90	1669.09
306.11	1683.43
306.33	1701.86
306.54	1642.47
306.75	1550.31
306.97	1591.27
307.18	1669.09
307.39	1597.42
307.61	1755.11
307.82	1712.10
308.04	1759.21
308.25	1648.61
308.46	1705.96
308.68	1718.25
308.89	1701.86
309.10	1746.92
309.32	1701.86
309.53	1714.15
309.74	1658.85
309.96	1748.97
310.17	1714.15
310.39	1689.57
310.60	1775.59
310.81	1683.43
311.03	1751.01
311.24	1710.05
311.45	1693.67
311.67	1873.89
311.88	1697.77
312.09	1658.85
312.31	1656.81
312.52	1656.81
312.73	1693.67
312.95	1636.33
313.16	1705.96
313.37	1783.78
313.59	1726.44
313.80	1689.57
314.01	1832.93
314.23	1603.56
314.44	1609.70
314.65	1652.71
314.87	1656.81
315.08	1697.77
315.29	1687.53
315.51	1638.38
315.72	1667.05
315.93	1769.44
316.15	1746.92
316.36	1708.01
316.57	1708.01
316.79	1734.63
317.00	1673.19
317.21	1761.25
317.43	1658.85
317.64	1662.95
317.85	1634.28
318.07	1673.19
318.28	1714.15
318.49	1822.69
318.70	1912.80
318.92	1810.40
319.13	1798.12
319.34	1820.64
319.56	1773.54
319.77	1867.75
319.98	1832.93
320.20	1785.83
320.41	1730.53
320.62	1740.77
320.83	1724.39
321.05	1898.47
321.26	1761.25
321.47	1726.44
321.69	1783.78
321.90	1652.71
322.11	1689.57
322.32	1687.53
322.54	1757.16
322.75	1673.19
322.96	1847.27
323.18	1548.26
323.39	1595.37
323.60	1689.57
323.81	1673.19
324.03	1716.20
324.24	1628.14
324.45	1732.58
324.66	1683.43
324.88	1728.49
325.09	1740.77
325.30	1589.22
325.52	1773.54
325.73	1710.05
325.94	1636.33
326.15	1617.90
326.37	1667.05
326.58	1738.73
326.79	1828.84
327.00	1617.90
327.22	1636.33
327.43	1654.76
327.64	1615.85
327.85	1710.05
328.07	1767.40
328.28	1814.50
328.49	1681.38
328.70	1665.00
328.92	1691.62
329.13	1712.10
329.34	1771.49
329.55	1818.60
329.76	1787.88
329.98	1722.34
330.19	1751.01
330.40	1658.85
330.61	1710.05
330.83	1708.01
331.04	1669.09
331.25	1712.10
331.46	1689.57
331.68	1583.08
331.89	1740.77
332.10	1679.33
332.31	1640.42
332.52	1697.77
332.74	1820.64
332.95	1597.42
333.16	1716.20
333.37	1687.53
333.58	1742.82
333.80	1701.86
334.01	1568.74
334.22	1677.29
334.43	1648.61
334.64	1658.85
334.86	1640.42
335.07	1658.85
335.28	1724.39
335.49	1574.89
335.70	1699.81
335.92	1808.36
336.13	1845.22
336.34	1703.91
336.55	1675.24
336.76	1665.00
336.98	1634.28
337.19	1718.25
337.40	1822.69
337.61	1865.70
337.82	1671.14
338.04	1734.63
338.25	1591.27
338.46	1683.43
338.67	1699.81
338.88	1628.14
339.09	1697.77
339.31	1687.53
339.52	1605.61
339.73	1669.09
339.94	1634.28
340.15	1712.10
340.36	1652.71
340.58	1761.25
340.79	1646.57
341.00	1695.72
341.21	1665.00
341.42	1777.64
341.63	1681.38
341.85	1796.07
342.06	1779.68
342.27	1566.70
342.48	1736.68
342.69	1656.81
342.90	1628.14
343.12	1726.44
343.33	1650.66
343.54	1775.59
343.75	1777.64
343.96	1730.53
344.17	1646.57
344.38	1712.10
344.60	1593.32
344.81	1687.53
345.02	1730.53
345.23	1759.21
345.44	1814.50
345.65	1714.15
345.86	1652.71
346.07	1708.01
346.29	1693.67
346.50	1738.73
346.71	1685.48
346.92	1763.30
347.13	1828.84
347.34	1658.85
347.55	1634.28
347.76	1744.87
347.98	1699.81
348.19	1695.72
348.40	1769.44
348.61	1693.67
348.82	1796.07
349.03	1718.25
349.24	1617.90
349.45	1746.92
349.66	1650.66
349.88	1705.96
350.09	1726.44
350.30	1742.82
350.51	1773.54
350.72	1671.14
350.93	1730.53
351.14	1646.57
351.35	1705.96
351.56	1738.73
351.77	1710.05
351.99	1724.39
352.20	1771.49
352.41	1726.44
352.62	1654.76
352.83	1615.85
353.04	1726.44
353.25	1679.33
353.46	1730.53
353.67	1800.16
353.88	1595.37
354.09	1697.77
354.30	1697.77
354.52	1738.73
354.73	1671.14
354.94	1648.61
355.15	1695.72
355.36	1746.92
355.57	1609.70
355.78	1720.29
355.99	1705.96
356.20	1681.38
356.41	1742.82
356.62	1673.19
356.83	1730.53
357.04	1767.40
357.25	1611.75
357.46	1697.77
357.68	1578.98
357.89	1697.77
358.10	1630.18
358.31	1691.62
358.52	1667.05
358.73	1658.85
358.94	1640.42
359.15	1648.61
359.36	1763.30
359.57	1791.97
359.78	1648.61
359.99	1699.81
360.20	1669.09
360.41	1673.19
360.62	1673.19
360.83	1665.00
361.04	1675.24
361.25	1740.77
361.46	1751.01
361.67	1691.62
361.88	1785.83
362.09	1757.16
362.30	1687.53
362.51	1613.80
362.72	1697.77
362.93	1738.73
363.14	1716.20
363.35	1761.25
363.56	1646.57
363.78	1759.21
363.99	1738.73
364.20	1736.68
364.41	1699.81
364.62	1871.84
364.83	1677.29
365.04	1658.85
365.25	1695.72
365.46	1779.68
365.67	1708.01
365.88	1630.18
366.09	1652.71
366.30	1689.57
366.51	1652.71
366.72	1570.79
366.93	1746.92
367.14	1699.81
367.35	1767.40
367.56	1732.58
367.77	1804.26
367.98	1638.38
368.18	1726.44
368.39	1697.77
368.60	1660.90
368.81	1771.49
369.02	1761.25
369.23	1746.92
369.44	1699.81
369.65	1683.43
369.86	1759.21
370.07	1710.05
370.28	1683.43
370.49	1771.49
370.70	1767.40
370.91	1632.23
371.12	1660.90
371.33	1665.00
371.54	1718.25
371.75	1796.07
371.96	1566.70
372.17	1732.58
372.38	1718.25
372.59	1769.44
372.80	1796.07
373.01	1642.47
373.22	1677.29
373.43	1728.49
373.64	1636.33
373.85	1800.16
374.06	1785.83
374.26	1722.34
374.47	1691.62
374.68	1781.73
374.89	1695.72
375.10	1699.81
375.31	1740.77
375.52	1714.15
375.73	1691.62
375.94	1589.22
376.15	1763.30
376.36	1695.72
376.57	1701.86
376.78	1671.14
376.99	1761.25
377.20	1748.97
377.40	1767.40
377.61	1886.18
377.82	1681.38
378.03	1734.63
378.24	1845.22
378.45	1742.82
378.66	1808.36
378.87	1603.56
379.08	1615.85
379.29	1675.24
379.50	1740.77
379.71	1767.40
379.91	1673.19
380.12	1638.38
380.33	1658.85
380.54	1687.53
380.75	1660.90
380.96	1667.05
381.17	1732.58
381.38	1714.15
381.59	1646.57
381.80	1675.24
382.00	1826.79
382.21	1796.07
382.42	1826.79
382.63	1871.84
382.84	1714.15
383.05	1746.92
383.26	1753.06
383.47	1624.04
383.68	1757.16
383.88	1710.05
384.09	1740.77
384.30	1777.64
384.51	1804.26
384.72	1656.81
384.93	1683.43
385.14	1648.61
385.35	1824.74
385.55	1593.32
385.76	1722.34
385.97	1728.49
386.18	1621.99
386.39	1710.05
386.60	1685.48
386.81	1691.62
387.02	1677.29
387.22	1724.39
387.43	1771.49
387.64	1832.93
387.85	1898.47
388.06	2142.18
388.27	4235.20
388.48	6733.72
388.68	8064.90
388.89	9697.13
389.10	9824.11
389.31	8460.16
389.52	7620.49
389.73	6643.61
389.93	6197.15
390.14	5822.38
390.35	5226.42
390.56	4560.83
390.77	3710.92
390.98	3082.19
391.18	2553.82
391.39	2133.98
391.60	1853.41
391.81	1853.41
392.02	1642.47
392.23	1865.70
392.43	1757.16
392.64	1712.10
392.85	1738.73
393.06	1832.93
393.27	1734.63
393.47	1587.18
393.68	1746.92
393.89	1697.77
394.10	1757.16
394.31	1648.61
394.52	1687.53
394.72	1695.72
394.93	1804.26
395.14	1712.10
395.35	1769.44
395.56	1665.00
395.76	1712.10
395.97	1751.01
396.18	1855.46
396.39	1849.32
396.60	2066.40
396.80	1873.89
397.01	1877.99
397.22	1837.03
397.43	1855.46
397.64	1652.71
397.84	1769.44
398.05	1880.04
398.26	1783.78
398.47	1736.68
398.67	1839.08
398.88	1734.63
399.09	1728.49
399.30	1697.77
399.51	1761.25
399.71	1646.57
399.92	1650.66
400.13	1683.43
400.34	1669.09
400.54	1697.77
400.75	1726.44
400.96	1675.24
401.17	1834.98
401.37	1710.05
401.58	1662.95
401.79	1691.62
402.00	1923.04
402.21	2041.82
402.41	1880.04
402.62	1955.81
402.83	1951.71
403.04	1998.82
403.24	2070.50
403.45	1857.51
403.66	1927.14
403.87	1808.36
404.07	1888.23
404.28	1933.28
404.49	1945.57
404.70	1753.06
404.90	1742.82
405.11	1722.34
405.32	1746.92
405.52	1665.00
405.73	1667.05
405.94	1673.19
406.15	1708.01
406.35	1724.39
406.56	1724.39
406.77	1656.81
406.98	1671.14
407.18	1669.09
407.39	1820.64
407.60	1626.09
407.80	1714.15
408.01	1650.66
408.22	1746.92
408.43	1679.33
408.63	1732.58
408.84	1724.39
409.05	1712.10
409.25	1665.00
409.46	1697.77
409.67	1656.81
409.88	1667.05
410.08	1693.67
410.29	1691.62
410.50	1730.53
410.70	1781.73
410.91	1652.71
411.12	1712.10
411.32	1726.44
411.53	1712.10
411.74	1779.68
411.95	1724.39
412.15	1687.53
412.36	1791.97
412.57	1726.44
412.77	1796.07
412.98	1714.15
413.19	1710.05
413.39	1689.57
413.60	1746.92
413.81	1822.69
414.01	1617.90
414.22	1757.16
414.43	1769.44
414.63	1705.96
414.84	1677.29
415.05	1779.68
415.25	1648.61
415.46	1791.97
415.67	1712.10
415.87	1681.38
416.08	1626.09
416.29	1648.61
416.49	1718.25
416.70	1712.10
416.91	1699.81
417.11	1779.68
417.32	1734.63
417.53	1648.61
417.73	1740.77
417.94	1724.39
418.15	1660.90
418.35	1665.00
418.56	1755.11
418.77	1857.51
418.97	1701.86
419.18	1699.81
419.38	1576.94
419.59	1730.53
419.80	1796.07
420.00	1705.96
420.21	1781.73
420.42	1730.53
420.62	1703.91
420.83	1681.38
421.04	1691.62
421.24	1720.29
421.45	1742.82
421.65	1787.88
421.86	1673.19
422.07	1679.33
422.27	1683.43
422.48	1779.68
422.69	1662.95
422.89	1665.00
423.10	1722.34
423.30	1632.23
423.51	1740.77
423.72	1708.01
423.92	1714.15
424.13	1714.15
424.33	1728.49
424.54	1841.12
424.75	1650.66
424.95	1806.31
425.16	1773.54
425.36	1730.53
425.57	1765.35
425.78	1714.15
425.98	1783.78
426.19	1683.43
426.39	1644.52
426.60	1685.48
426.81	1751.01
427.01	1771.49
427.22	1624.04
427.42	1562.60
427.63	1701.86
427.83	1755.11
428.04	1740.77
428.25	1802.21
428.45	1791.97
428.66	1738.73
428.86	1720.29
429.07	1759.21
429.28	1685.48
429.48	1689.57
429.69	1740.77
429.89	1708.01
430.10	1642.47
430.30	1755.11
430.51	1759.21
430.71	1607.66
430.92	1685.48
431.13	1726.44
431.33	1783.78
431.54	1669.09
431.74	1816.55
431.95	1798.12
432.15	1601.51
432.36	1714.15
432.56	1718.25
432.77	1781.73
432.98	1765.35
433.18	1667.05
433.39	1624.04
433.59	1730.53
433.80	1789.92
434.00	1832.93
434.21	1777.64
434.41	1660.90
434.62	1798.12
434.82	1695.72
435.03	1687.53
435.23	1695.72
435.44	1656.81
435.64	1722.34
435.85	1685.48
436.06	1763.30
436.26	1751.01
436.47	1724.39
436.67	1710.05
436.88	1742.82
437.08	1763.30
437.29	1730.53
437.49	1771.49
437.70	1783.78
437.90	1748.97
438.11	1769.44
438.31	1761.25
438.52	1863.65
438.72	1880.04
438.93	1841.12
439.13	1845.22
439.34	1851.36
439.54	1781.73
439.75	1812.45
439.95	1779.68
440.16	1673.19
440.36	1751.01
440.57	1796.07
440.77	1746.92
440.98	1708.01
441.18	1615.85
441.39	1703.91
441.59	1685.48
441.80	1855.46
442.00	1695.72
442.21	1769.44
442.41	1714.15
442.62	1765.35
442.82	1660.90
443.02	1746.92
443.23	1716.20
443.43	1671.14
443.64	1730.53
443.84	1734.63
444.05	1826.79
444.25	1746.92
444.46	1761.25
444.66	1693.67
444.87	1726.44
445.07	1681.38
445.28	1800.16
445.48	1794.02
445.69	1767.40
445.89	1863.65
446.09	1753.06
446.30	1992.67
446.50	2672.60
446.71	3710.92
446.91	4229.06
447.12	4724.66
447.32	4745.14
447.53	4212.67
447.73	3794.89
447.93	3467.21
448.14	3330.00
448.34	3164.11
448.55	2897.88
448.75	2861.01
448.96	2684.89
449.16	2519.00
449.36	2281.44
449.57	1988.58
449.77	1961.95
449.98	1789.92
450.18	1861.60
450.39	1849.32
450.59	1789.92
450.79	1724.39
451.00	1757.16
451.20	1718.25
451.41	1746.92
451.61	1796.07
451.81	1869.80
452.02	1767.40
452.22	1673.19
452.43	1642.47
452.63	1699.81
