SpectraSuite Data File
++++++++++++++++++++++++++++++++++++
Date: Mon Jun 06 12:19:37 CEST 2016
User: root
Dark Spectrum Present: No
Reference Spectrum Present: No
Number of Sampled Component Spectra: 1
Spectrometers: USB4C02835
Integration Time (usec): 100000 (USB4C02835)
Spectra Averaged: 1 (USB4C02835)
Boxcar Smoothing: 0 (USB4C02835)
Correct for Electrical Dark: No (USB4C02835)
Strobe/Lamp Enabled: No (USB4C02835)
Correct for Detector Non-linearity: No (USB4C02835)
Correct for Stray Light: No (USB4C02835)
Number of Pixels in Processed Spectrum: 3648
>>>>>Begin Processed Spectral Data<<<<<
177.47	1380.33
177.69	1380.33
177.91	1380.33
178.13	1484.78
178.36	1497.07
178.58	1589.22
178.80	1640.42
179.02	1671.14
179.24	1626.09
179.46	1730.53
179.68	1687.53
179.90	1718.25
180.13	1644.52
180.35	1669.09
180.57	1705.96
180.79	1710.05
181.01	1677.29
181.23	1724.39
181.45	1771.49
181.67	1660.90
181.90	1724.39
182.12	1611.75
182.34	1646.57
182.56	1665.00
182.78	1773.54
183.00	1748.97
183.22	1607.66
183.44	1638.38
183.66	1824.74
183.89	1796.07
184.11	1763.30
184.33	1689.57
184.55	1802.21
184.77	1751.01
184.99	1755.11
185.21	1615.85
185.43	1837.03
185.65	1712.10
185.87	1691.62
186.10	1773.54
186.32	1800.16
186.54	1714.15
186.76	1814.50
186.98	1783.78
187.20	1621.99
187.42	1687.53
187.64	1701.86
187.86	1816.55
188.08	1757.16
188.30	1732.58
188.52	1734.63
188.75	1767.40
188.97	1734.63
189.19	1624.04
189.41	1714.15
189.63	1783.78
189.85	1636.33
190.07	1593.32
190.29	1630.18
190.51	1681.38
190.73	1556.46
190.95	1849.32
191.17	1705.96
191.39	1583.08
191.61	1617.90
191.84	1681.38
192.06	1744.87
192.28	1640.42
192.50	1857.51
192.72	1708.01
192.94	1665.00
193.16	1716.20
193.38	1701.86
193.60	1687.53
193.82	1683.43
194.04	1656.81
194.26	1722.34
194.48	1646.57
194.70	1626.09
194.92	1660.90
195.14	1697.77
195.36	1640.42
195.58	1683.43
195.80	1615.85
196.02	1701.86
196.24	1716.20
196.46	1769.44
196.69	1744.87
196.91	1839.08
197.13	1669.09
197.35	1609.70
197.57	1720.29
197.79	1751.01
198.01	1681.38
198.23	1697.77
198.45	1730.53
198.67	1617.90
198.89	1665.00
199.11	1767.40
199.33	1681.38
199.55	1550.31
199.77	1650.66
199.99	1712.10
200.21	1746.92
200.43	1701.86
200.65	1617.90
200.87	1607.66
201.09	1675.24
201.31	1724.39
201.53	1759.21
201.75	1732.58
201.97	1665.00
202.19	1685.48
202.41	1691.62
202.63	1785.83
202.85	1753.06
203.07	1736.68
203.29	1658.85
203.51	1646.57
203.73	1646.57
203.95	1800.16
204.17	1691.62
204.39	1740.77
204.61	1685.48
204.83	1683.43
205.05	1773.54
205.27	1751.01
205.49	1791.97
205.71	1787.88
205.93	1624.04
206.15	1710.05
206.37	1658.85
206.59	1701.86
206.81	1708.01
207.03	1687.53
207.25	1638.38
207.47	1724.39
207.69	1568.74
207.91	1675.24
208.13	1726.44
208.34	1615.85
208.56	1628.14
208.78	1789.92
209.00	1638.38
209.22	1681.38
209.44	1669.09
209.66	1640.42
209.88	1685.48
210.10	1648.61
210.32	1665.00
210.54	1761.25
210.76	1644.52
210.98	1695.72
211.20	1591.27
211.42	1732.58
211.64	1753.06
211.86	1755.11
212.08	1763.30
212.30	1675.24
212.52	1734.63
212.74	1665.00
212.96	1660.90
213.17	1722.34
213.39	1697.77
213.61	1751.01
213.83	1742.82
214.05	1714.15
214.27	1708.01
214.49	1605.61
214.71	1671.14
214.93	1783.78
215.15	1722.34
215.37	1783.78
215.59	1566.70
215.81	1671.14
216.03	1740.77
216.24	1667.05
216.46	1673.19
216.68	1718.25
216.90	1732.58
217.12	1773.54
217.34	1687.53
217.56	1634.28
217.78	1783.78
218.00	1738.73
218.22	1689.57
218.44	1759.21
218.66	1765.35
218.87	1753.06
219.09	1640.42
219.31	1671.14
219.53	1708.01
219.75	1646.57
219.97	1701.86
220.19	1718.25
220.41	1722.34
220.63	1789.92
220.85	1757.16
221.06	1607.66
221.28	1826.79
221.50	1685.48
221.72	1660.90
221.94	1648.61
222.16	1701.86
222.38	1710.05
222.60	1779.68
222.82	1665.00
223.03	1763.30
223.25	1732.58
223.47	1710.05
223.69	1783.78
223.91	1689.57
224.13	1748.97
224.35	1644.52
224.57	1787.88
224.78	1738.73
225.00	1683.43
225.22	1581.03
225.44	1681.38
225.66	1730.53
225.88	1656.81
226.10	1701.86
226.32	1626.09
226.53	1775.59
226.75	1611.75
226.97	1705.96
227.19	1603.56
227.41	1642.47
227.63	1673.19
227.85	1619.94
228.06	1710.05
228.28	1701.86
228.50	1679.33
228.72	1638.38
228.94	1693.67
229.16	1593.32
229.37	1611.75
229.59	1611.75
229.81	1740.77
230.03	1673.19
230.25	1595.37
230.47	1673.19
230.69	1642.47
230.90	1724.39
231.12	1683.43
231.34	1697.77
231.56	1722.34
231.78	1566.70
232.00	1757.16
232.21	1660.90
232.43	1665.00
232.65	1648.61
232.87	1693.67
233.09	1603.56
233.30	1613.80
233.52	1773.54
233.74	1681.38
233.96	1626.09
234.18	1605.61
234.40	1646.57
234.61	1865.70
234.83	1595.37
235.05	1665.00
235.27	1789.92
235.49	1779.68
235.70	1722.34
235.92	1783.78
236.14	1777.64
236.36	1933.28
236.58	1607.66
236.79	1757.16
237.01	1669.09
237.23	1646.57
237.45	1816.55
237.67	1744.87
237.88	1648.61
238.10	1832.93
238.32	1652.71
238.54	1665.00
238.76	1681.38
238.97	1703.91
239.19	1667.05
239.41	1771.49
239.63	1794.02
239.85	1697.77
240.06	1691.62
240.28	1636.33
240.50	1728.49
240.72	1701.86
240.93	1701.86
241.15	1722.34
241.37	1673.19
241.59	1816.55
241.81	1660.90
242.02	1738.73
242.24	1734.63
242.46	1691.62
242.68	1662.95
242.89	1705.96
243.11	1771.49
243.33	1669.09
243.55	1722.34
243.76	1720.29
243.98	1658.85
244.20	1708.01
244.42	1695.72
244.64	1724.39
244.85	1568.74
245.07	1724.39
245.29	1755.11
245.51	1697.77
245.72	1654.76
245.94	1726.44
246.16	1671.14
246.38	1689.57
246.59	1648.61
246.81	1591.27
247.03	1705.96
247.24	1665.00
247.46	1615.85
247.68	1734.63
247.90	1710.05
248.11	1697.77
248.33	1748.97
248.55	1699.81
248.77	1708.01
248.98	1720.29
249.20	1818.60
249.42	1671.14
249.64	1732.58
249.85	1669.09
250.07	1695.72
250.29	1796.07
250.50	1765.35
250.72	1691.62
250.94	1699.81
251.16	1763.30
251.37	1783.78
251.59	1714.15
251.81	1654.76
252.02	1751.01
252.24	1652.71
252.46	1867.75
252.68	1593.32
252.89	1685.48
253.11	1550.31
253.33	1742.82
253.54	1794.02
253.76	1576.94
253.98	1681.38
254.20	1738.73
254.41	1658.85
254.63	1705.96
254.85	1640.42
255.06	1726.44
255.28	1656.81
255.50	1701.86
255.71	1673.19
255.93	1613.80
256.15	1669.09
256.36	1689.57
256.58	1734.63
256.80	1689.57
257.02	1656.81
257.23	1705.96
257.45	1691.62
257.67	1701.86
257.88	1679.33
258.10	1673.19
258.32	1708.01
258.53	1730.53
258.75	1810.40
258.97	1767.40
259.18	1679.33
259.40	1701.86
259.62	1853.41
259.83	1744.87
260.05	1679.33
260.27	1927.14
260.48	1775.59
260.70	1689.57
260.92	1630.18
261.13	1714.15
261.35	1691.62
261.57	1601.51
261.78	1640.42
262.00	1656.81
262.22	1720.29
262.43	1646.57
262.65	1652.71
262.86	1673.19
263.08	1861.60
263.30	1673.19
263.51	1517.54
263.73	1734.63
263.95	1808.36
264.16	1595.37
264.38	1708.01
264.60	1695.72
264.81	1693.67
265.03	1771.49
265.25	1757.16
265.46	1722.34
265.68	1738.73
265.89	1687.53
266.11	1558.50
266.33	1779.68
266.54	1779.68
266.76	1693.67
266.98	1734.63
267.19	1740.77
267.41	1701.86
267.62	1683.43
267.84	1593.32
268.06	1791.97
268.27	1701.86
268.49	1771.49
268.70	1757.16
268.92	1726.44
269.14	1609.70
269.35	1662.95
269.57	1691.62
269.79	1738.73
270.00	1681.38
270.22	1730.53
270.43	1667.05
270.65	1546.22
270.87	1703.91
271.08	1658.85
271.30	1802.21
271.51	1660.90
271.73	1759.21
271.95	1794.02
272.16	1656.81
272.38	1730.53
272.59	1728.49
272.81	1771.49
273.02	1597.42
273.24	1699.81
273.46	1677.29
273.67	1630.18
273.89	1705.96
274.10	1724.39
274.32	1726.44
274.54	1726.44
274.75	1712.10
274.97	1673.19
275.18	1685.48
275.40	1736.68
275.61	1685.48
275.83	1771.49
276.05	1611.75
276.26	1685.48
276.48	1724.39
276.69	1638.38
276.91	1689.57
277.12	1787.88
277.34	1740.77
277.55	1697.77
277.77	1636.33
277.99	1656.81
278.20	1615.85
278.42	1634.28
278.63	1640.42
278.85	1652.71
279.06	1630.18
279.28	1697.77
279.49	1691.62
279.71	1710.05
279.93	1615.85
280.14	1685.48
280.36	1648.61
280.57	1710.05
280.79	1734.63
281.00	1669.09
281.22	1705.96
281.43	1734.63
281.65	1599.46
281.86	1656.81
282.08	1722.34
282.29	1775.59
282.51	1662.95
282.73	1667.05
282.94	1642.47
283.16	1720.29
283.37	1794.02
283.59	1691.62
283.80	1693.67
284.02	1609.70
284.23	1720.29
284.45	1697.77
284.66	1587.18
284.88	1642.47
285.09	1759.21
285.31	1681.38
285.52	1673.19
285.74	1624.04
285.95	1710.05
286.17	1730.53
286.38	1671.14
286.60	1615.85
286.81	1673.19
287.03	1720.29
287.24	1720.29
287.46	1632.23
287.67	1716.20
287.89	1796.07
288.10	1697.77
288.32	1658.85
288.53	1783.78
288.75	1603.56
288.96	1775.59
289.18	1675.24
289.39	1681.38
289.61	1757.16
289.82	1785.83
290.04	1798.12
290.25	1662.95
290.47	1699.81
290.68	1673.19
290.90	1785.83
291.11	1640.42
291.33	1740.77
291.54	1662.95
291.76	1597.42
291.97	1789.92
292.18	1744.87
292.40	1671.14
292.61	1648.61
292.83	1771.49
293.04	1681.38
293.26	1697.77
293.47	1689.57
293.69	1652.71
293.90	1675.24
294.12	1771.49
294.33	1744.87
294.55	1634.28
294.76	1708.01
294.97	1777.64
295.19	1800.16
295.40	1572.84
295.62	1675.24
295.83	1730.53
296.05	1644.52
296.26	1800.16
296.48	1613.80
296.69	1718.25
296.90	1644.52
297.12	1751.01
297.33	1697.77
297.55	1718.25
297.76	1703.91
297.98	1718.25
298.19	1734.63
298.41	1681.38
298.62	1671.14
298.83	1814.50
299.05	1718.25
299.26	1677.29
299.48	1667.05
299.69	1718.25
299.90	1730.53
300.12	1583.08
300.33	1722.34
300.55	1708.01
300.76	1701.86
300.98	1658.85
301.19	1730.53
301.40	1730.53
301.62	1734.63
301.83	1703.91
302.05	1681.38
302.26	1722.34
302.47	1730.53
302.69	1624.04
302.90	1710.05
303.12	1548.26
303.33	1701.86
303.54	1839.08
303.76	1644.52
303.97	1720.29
304.19	1748.97
304.40	1603.56
304.61	1759.21
304.83	1816.55
305.04	1759.21
305.26	1734.63
305.47	1687.53
305.68	1644.52
305.90	1644.52
306.11	1734.63
306.33	1738.73
306.54	1697.77
306.75	1581.03
306.97	1583.08
307.18	1619.94
307.39	1687.53
307.61	1730.53
307.82	1705.96
308.04	1740.77
308.25	1671.14
308.46	1650.66
308.68	1677.29
308.89	1697.77
309.10	1648.61
309.32	1726.44
309.53	1646.57
309.74	1574.89
309.96	1658.85
310.17	1740.77
310.39	1593.32
310.60	1665.00
310.81	1685.48
311.03	1595.37
311.24	1751.01
311.45	1701.86
311.67	1796.07
311.88	1722.34
312.09	1636.33
312.31	1652.71
312.52	1593.32
312.73	1716.20
312.95	1683.43
313.16	1599.46
313.37	1824.74
313.59	1689.57
313.80	1730.53
314.01	1755.11
314.23	1615.85
314.44	1642.47
314.65	1605.61
314.87	1681.38
315.08	1683.43
315.29	1669.09
315.51	1638.38
315.72	1585.13
315.93	1775.59
316.15	1740.77
316.36	1677.29
316.57	1703.91
316.79	1695.72
317.00	1652.71
317.21	1730.53
317.43	1665.00
317.64	1689.57
317.85	1574.89
318.07	1640.42
318.28	1798.12
318.49	1738.73
318.70	1927.14
318.92	1828.84
319.13	1779.68
319.34	1773.54
319.56	1816.55
319.77	1787.88
319.98	1767.40
320.20	1767.40
320.41	1683.43
320.62	1753.06
320.83	1693.67
321.05	1849.32
321.26	1701.86
321.47	1695.72
321.69	1781.73
321.90	1587.18
322.11	1644.52
322.32	1771.49
322.54	1818.60
322.75	1679.33
322.96	1832.93
323.18	1656.81
323.39	1570.79
323.60	1675.24
323.81	1767.40
324.03	1611.75
324.24	1701.86
324.45	1646.57
324.66	1718.25
324.88	1763.30
325.09	1853.41
325.30	1671.14
325.52	1675.24
325.73	1705.96
325.94	1710.05
326.15	1554.41
326.37	1601.51
326.58	1742.82
326.79	1730.53
327.00	1673.19
327.22	1740.77
327.43	1630.18
327.64	1556.46
327.85	1769.44
328.07	1736.68
328.28	1744.87
328.49	1597.42
328.70	1599.46
328.92	1681.38
329.13	1746.92
329.34	1724.39
329.55	1726.44
329.76	1693.67
329.98	1742.82
330.19	1730.53
330.40	1720.29
330.61	1755.11
330.83	1710.05
331.04	1660.90
331.25	1710.05
331.46	1665.00
331.68	1650.66
331.89	1746.92
332.10	1665.00
332.31	1671.14
332.52	1679.33
332.74	1781.73
332.95	1611.75
333.16	1718.25
333.37	1687.53
333.58	1593.32
333.80	1644.52
334.01	1689.57
334.22	1701.86
334.43	1615.85
334.64	1699.81
334.86	1621.99
335.07	1630.18
335.28	1796.07
335.49	1605.61
335.70	1710.05
335.92	1798.12
336.13	1800.16
336.34	1656.81
336.55	1775.59
336.76	1654.76
336.98	1615.85
337.19	1705.96
337.40	1794.02
337.61	1837.03
337.82	1689.57
338.04	1791.97
338.25	1613.80
338.46	1679.33
338.67	1636.33
338.88	1669.09
339.09	1599.46
339.31	1568.74
339.52	1671.14
339.73	1720.29
339.94	1632.23
340.15	1763.30
340.36	1611.75
340.58	1654.76
340.79	1673.19
341.00	1681.38
341.21	1650.66
341.42	1808.36
341.63	1691.62
341.85	1763.30
342.06	1732.58
342.27	1621.99
342.48	1705.96
342.69	1640.42
342.90	1724.39
343.12	1693.67
343.33	1693.67
343.54	1769.44
343.75	1849.32
343.96	1691.62
344.17	1660.90
344.38	1718.25
344.60	1648.61
344.81	1621.99
345.02	1667.05
345.23	1771.49
345.44	1820.64
345.65	1748.97
345.86	1667.05
346.07	1708.01
346.29	1648.61
346.50	1685.48
346.71	1691.62
346.92	1724.39
347.13	1755.11
347.34	1740.77
347.55	1714.15
347.76	1783.78
347.98	1667.05
348.19	1789.92
348.40	1769.44
348.61	1628.14
348.82	1781.73
349.03	1753.06
349.24	1636.33
349.45	1734.63
349.66	1632.23
349.88	1757.16
350.09	1673.19
350.30	1933.28
350.51	1716.20
350.72	1652.71
350.93	1683.43
351.14	1632.23
351.35	1787.88
351.56	1689.57
351.77	1689.57
351.99	1734.63
352.20	1773.54
352.41	1687.53
352.62	1642.47
352.83	1628.14
353.04	1662.95
353.25	1578.98
353.46	1716.20
353.67	1753.06
353.88	1552.36
354.09	1726.44
354.30	1703.91
354.52	1714.15
354.73	1705.96
354.94	1630.18
355.15	1673.19
355.36	1765.35
355.57	1685.48
355.78	1730.53
355.99	1673.19
356.20	1714.15
356.41	1800.16
356.62	1716.20
356.83	1654.76
357.04	1787.88
357.25	1656.81
357.46	1660.90
357.68	1501.16
357.89	1562.60
358.10	1714.15
358.31	1677.29
358.52	1720.29
358.73	1636.33
358.94	1705.96
359.15	1665.00
359.36	1753.06
359.57	1632.23
359.78	1677.29
359.99	1693.67
360.20	1677.29
360.41	1687.53
360.62	1708.01
360.83	1714.15
361.04	1742.82
361.25	1738.73
361.46	1783.78
361.67	1701.86
361.88	1697.77
362.09	1712.10
362.30	1638.38
362.51	1710.05
362.72	1740.77
362.93	1794.02
363.14	1779.68
363.35	1699.81
363.56	1609.70
363.78	1716.20
363.99	1796.07
364.20	1603.56
364.41	1703.91
364.62	1777.64
364.83	1691.62
365.04	1710.05
365.25	1683.43
365.46	1755.11
365.67	1662.95
365.88	1636.33
366.09	1742.82
366.30	1634.28
366.51	1687.53
366.72	1564.65
366.93	1744.87
367.14	1718.25
367.35	1755.11
367.56	1677.29
367.77	1771.49
367.98	1654.76
368.18	1775.59
368.39	1693.67
368.60	1642.47
368.81	1687.53
369.02	1730.53
369.23	1728.49
369.44	1617.90
369.65	1693.67
369.86	1695.72
370.07	1636.33
370.28	1642.47
370.49	1689.57
370.70	1701.86
370.91	1687.53
371.12	1691.62
371.33	1734.63
371.54	1638.38
371.75	1777.64
371.96	1626.09
372.17	1693.67
372.38	1689.57
372.59	1773.54
372.80	1726.44
373.01	1689.57
373.22	1681.38
373.43	1769.44
373.64	1689.57
373.85	1753.06
374.06	1767.40
374.26	1761.25
374.47	1697.77
374.68	1808.36
374.89	1650.66
375.10	1726.44
375.31	1732.58
375.52	1763.30
375.73	1685.48
375.94	1691.62
376.15	1779.68
376.36	1624.04
376.57	1648.61
376.78	1705.96
376.99	1738.73
377.20	1763.30
377.40	1689.57
377.61	1781.73
377.82	1708.01
378.03	1726.44
378.24	1748.97
378.45	1656.81
378.66	1677.29
378.87	1562.60
379.08	1601.51
379.29	1611.75
379.50	1742.82
379.71	1697.77
379.91	1769.44
380.12	1640.42
380.33	1751.01
380.54	1710.05
380.75	1689.57
380.96	1665.00
381.17	1798.12
381.38	1701.86
381.59	1763.30
381.80	1703.91
382.00	1828.84
382.21	1705.96
382.42	1824.74
382.63	1816.55
382.84	1691.62
383.05	1740.77
383.26	1787.88
383.47	1726.44
383.68	1751.01
383.88	1720.29
384.09	1695.72
384.30	1806.31
384.51	1738.73
384.72	1705.96
384.93	1634.28
385.14	1722.34
385.35	1705.96
385.55	1626.09
385.76	1771.49
385.97	1708.01
386.18	1611.75
386.39	1683.43
386.60	1675.24
386.81	1722.34
387.02	1665.00
387.22	1648.61
387.43	1693.67
387.64	1716.20
387.85	1843.17
388.06	2220.00
388.27	4290.49
388.48	6879.13
388.68	8398.72
388.89	9914.22
389.10	10143.59
389.31	8683.39
389.52	7671.69
389.73	6649.75
389.93	6260.64
390.14	5851.05
390.35	5328.81
390.56	4644.79
390.77	3891.14
390.98	3004.37
391.18	2463.71
391.39	2181.09
391.60	1763.30
391.81	1863.65
392.02	1730.53
392.23	1779.68
392.43	1667.05
392.64	1751.01
392.85	1703.91
393.06	1748.97
393.27	1738.73
393.47	1691.62
393.68	1746.92
393.89	1695.72
394.10	1822.69
394.31	1662.95
394.52	1568.74
394.72	1644.52
394.93	1740.77
395.14	1660.90
395.35	1648.61
395.56	1660.90
395.76	1767.40
395.97	1783.78
396.18	1822.69
396.39	1820.64
396.60	2035.68
396.80	1943.52
397.01	1818.60
397.22	1800.16
397.43	1873.89
397.64	1703.91
397.84	1783.78
398.05	1791.97
398.26	1712.10
398.47	1759.21
398.67	1810.40
398.88	1679.33
399.09	1742.82
399.30	1615.85
399.51	1701.86
399.71	1673.19
399.92	1681.38
400.13	1714.15
400.34	1665.00
400.54	1624.04
400.75	1804.26
400.96	1687.53
401.17	1736.68
401.37	1763.30
401.58	1751.01
401.79	1748.97
402.00	1861.60
402.21	2011.11
402.41	1968.10
402.62	1951.71
402.83	1953.76
403.04	2021.35
403.24	2047.97
403.45	1910.75
403.66	1920.99
403.87	1767.40
404.07	1935.33
404.28	1941.47
404.49	1837.03
404.70	1730.53
404.90	1804.26
405.11	1716.20
405.32	1773.54
405.52	1636.33
405.73	1722.34
405.94	1662.95
406.15	1708.01
406.35	1740.77
406.56	1689.57
406.77	1751.01
406.98	1738.73
407.18	1681.38
407.39	1779.68
407.60	1613.80
407.80	1816.55
408.01	1605.61
408.22	1722.34
408.43	1671.14
408.63	1677.29
408.84	1834.98
409.05	1726.44
409.25	1626.09
409.46	1683.43
409.67	1669.09
409.88	1630.18
410.08	1685.48
410.29	1660.90
410.50	1738.73
410.70	1703.91
410.91	1679.33
411.12	1701.86
411.32	1662.95
411.53	1636.33
411.74	1767.40
411.95	1744.87
412.15	1703.91
412.36	1845.22
412.57	1857.51
412.77	1800.16
412.98	1773.54
413.19	1720.29
413.39	1783.78
413.60	1736.68
413.81	1746.92
414.01	1615.85
414.22	1753.06
414.43	1712.10
414.63	1658.85
414.84	1736.68
415.05	1695.72
415.25	1581.03
415.46	1757.16
415.67	1665.00
415.87	1669.09
416.08	1687.53
416.29	1691.62
416.49	1687.53
416.70	1718.25
416.91	1648.61
417.11	1632.23
417.32	1728.49
417.53	1724.39
417.73	1761.25
417.94	1714.15
418.15	1685.48
418.35	1626.09
418.56	1748.97
418.77	1826.79
418.97	1681.38
419.18	1634.28
419.38	1566.70
419.59	1697.77
419.80	1798.12
420.00	1701.86
420.21	1714.15
420.42	1718.25
420.62	1697.77
420.83	1667.05
421.04	1714.15
421.24	1648.61
421.45	1738.73
421.65	1722.34
421.86	1730.53
422.07	1800.16
422.27	1658.85
422.48	1753.06
422.69	1667.05
422.89	1671.14
423.10	1665.00
423.30	1716.20
423.51	1632.23
423.72	1669.09
423.92	1845.22
424.13	1619.94
424.33	1677.29
424.54	1767.40
424.75	1695.72
424.95	1800.16
425.16	1689.57
425.36	1646.57
425.57	1708.01
425.78	1726.44
425.98	1714.15
426.19	1634.28
426.39	1662.95
426.60	1621.99
426.81	1779.68
427.01	1681.38
427.22	1718.25
427.42	1642.47
427.63	1626.09
427.83	1724.39
428.04	1847.27
428.25	1769.44
428.45	1708.01
428.66	1769.44
428.86	1640.42
429.07	1646.57
429.28	1710.05
429.48	1701.86
429.69	1660.90
429.89	1712.10
430.10	1667.05
430.30	1765.35
430.51	1732.58
430.71	1632.23
430.92	1632.23
431.13	1660.90
431.33	1675.24
431.54	1775.59
431.74	1804.26
431.95	1777.64
432.15	1667.05
432.36	1742.82
432.56	1775.59
432.77	1779.68
432.98	1710.05
433.18	1746.92
433.39	1693.67
433.59	1720.29
433.80	1828.84
434.00	1800.16
434.21	1722.34
434.41	1683.43
434.62	1785.83
434.82	1646.57
435.03	1636.33
435.23	1658.85
435.44	1671.14
435.64	1644.52
435.85	1630.18
436.06	1718.25
436.26	1796.07
436.47	1695.72
436.67	1695.72
436.88	1687.53
437.08	1720.29
437.29	1816.55
437.49	1628.14
437.70	1722.34
437.90	1710.05
438.11	1820.64
438.31	1757.16
438.52	1771.49
438.72	1884.13
438.93	1837.03
439.13	1748.97
439.34	1701.86
439.54	1642.47
439.75	1746.92
439.95	1755.11
440.16	1685.48
440.36	1689.57
440.57	1763.30
440.77	1722.34
440.98	1687.53
441.18	1753.06
441.39	1712.10
441.59	1675.24
441.80	1902.56
442.00	1738.73
442.21	1753.06
442.41	1607.66
442.62	1734.63
442.82	1722.34
443.02	1722.34
443.23	1665.00
443.43	1701.86
443.64	1779.68
443.84	1708.01
444.05	1759.21
444.25	1820.64
444.46	1652.71
444.66	1718.25
444.87	1824.74
445.07	1585.13
445.28	1734.63
445.48	1787.88
445.69	1771.49
445.89	1869.80
446.09	1722.34
446.30	1978.34
446.50	2680.79
446.71	3717.06
446.91	4210.62
447.12	4845.49
447.32	4923.32
447.53	4302.78
447.73	3895.24
447.93	3497.93
448.14	3393.48
448.34	3280.85
448.55	2877.40
448.75	2826.20
448.96	2707.41
449.16	2437.08
449.36	2205.66
449.57	2056.16
449.77	1925.09
449.98	1822.69
450.18	1779.68
450.39	1853.41
450.59	1812.45
450.79	1824.74
451.00	1697.77
451.20	1730.53
451.41	1798.12
451.61	1722.34
451.81	1705.96
452.02	1740.77
452.22	1681.38
452.43	1710.05
452.63	1701.86
