SpectraSuite Data File
++++++++++++++++++++++++++++++++++++
Date: Mon Jun 06 13:32:17 CEST 2016
User: root
Dark Spectrum Present: No
Reference Spectrum Present: No
Number of Sampled Component Spectra: 1
Spectrometers: USB4C02835
Integration Time (usec): 100000 (USB4C02835)
Spectra Averaged: 1 (USB4C02835)
Boxcar Smoothing: 0 (USB4C02835)
Correct for Electrical Dark: No (USB4C02835)
Strobe/Lamp Enabled: No (USB4C02835)
Correct for Detector Non-linearity: No (USB4C02835)
Correct for Stray Light: No (USB4C02835)
Number of Pixels in Processed Spectrum: 3648
>>>>>Begin Processed Spectral Data<<<<<
177.47	1411.05
177.69	1411.05
177.91	1411.05
178.13	1490.92
178.36	1402.86
178.58	1642.47
178.80	1726.44
179.02	1611.75
179.24	1624.04
179.46	1720.29
179.68	1728.49
179.90	1660.90
180.13	1652.71
180.35	1628.14
180.57	1753.06
180.79	1710.05
181.01	1697.77
181.23	1744.87
181.45	1761.25
181.67	1673.19
181.90	1751.01
182.12	1675.24
182.34	1656.81
182.56	1658.85
182.78	1681.38
183.00	1693.67
183.22	1730.53
183.44	1624.04
183.66	1789.92
183.89	1771.49
184.11	1679.33
184.33	1724.39
184.55	1783.78
184.77	1701.86
184.99	1748.97
185.21	1687.53
185.43	1791.97
185.65	1742.82
185.87	1685.48
186.10	1775.59
186.32	1765.35
186.54	1728.49
186.76	1744.87
186.98	1738.73
187.20	1742.82
187.42	1617.90
187.64	1683.43
187.86	1689.57
188.08	1789.92
188.30	1689.57
188.52	1689.57
188.75	1742.82
188.97	1755.11
189.19	1642.47
189.41	1603.56
189.63	1730.53
189.85	1648.61
190.07	1621.99
190.29	1636.33
190.51	1671.14
190.73	1632.23
190.95	1773.54
191.17	1667.05
191.39	1630.18
191.61	1665.00
191.84	1712.10
192.06	1708.01
192.28	1628.14
192.50	1818.60
192.72	1773.54
192.94	1738.73
193.16	1673.19
193.38	1787.88
193.60	1585.13
193.82	1757.16
194.04	1769.44
194.26	1636.33
194.48	1716.20
194.70	1595.37
194.92	1697.77
195.14	1697.77
195.36	1654.76
195.58	1722.34
195.80	1736.68
196.02	1628.14
196.24	1693.67
196.46	1730.53
196.69	1675.24
196.91	1849.32
197.13	1671.14
197.35	1648.61
197.57	1890.28
197.79	1734.63
198.01	1732.58
198.23	1683.43
198.45	1703.91
198.67	1652.71
198.89	1607.66
199.11	1718.25
199.33	1617.90
199.55	1587.18
199.77	1691.62
199.99	1732.58
200.21	1689.57
200.43	1724.39
200.65	1673.19
200.87	1593.32
201.09	1708.01
201.31	1656.81
201.53	1804.26
201.75	1701.86
201.97	1685.48
202.19	1695.72
202.41	1714.15
202.63	1765.35
202.85	1681.38
203.07	1691.62
203.29	1679.33
203.51	1607.66
203.73	1595.37
203.95	1859.56
204.17	1718.25
204.39	1783.78
204.61	1689.57
204.83	1634.28
205.05	1777.64
205.27	1787.88
205.49	1779.68
205.71	1685.48
205.93	1654.76
206.15	1671.14
206.37	1667.05
206.59	1677.29
206.81	1665.00
207.03	1665.00
207.25	1621.99
207.47	1699.81
207.69	1757.16
207.91	1720.29
208.13	1800.16
208.34	1687.53
208.56	1685.48
208.78	1691.62
209.00	1654.76
209.22	1691.62
209.44	1722.34
209.66	1673.19
209.88	1693.67
210.10	1675.24
210.32	1632.23
210.54	1767.40
210.76	1687.53
210.98	1794.02
211.20	1568.74
211.42	1724.39
211.64	1716.20
211.86	1689.57
212.08	1738.73
212.30	1714.15
212.52	1673.19
212.74	1683.43
212.96	1681.38
213.17	1710.05
213.39	1718.25
213.61	1779.68
213.83	1617.90
214.05	1574.89
214.27	1687.53
214.49	1648.61
214.71	1751.01
214.93	1734.63
215.15	1710.05
215.37	1759.21
215.59	1652.71
215.81	1755.11
216.03	1681.38
216.24	1675.24
216.46	1789.92
216.68	1710.05
216.90	1699.81
217.12	1730.53
217.34	1761.25
217.56	1654.76
217.78	1769.44
218.00	1691.62
218.22	1712.10
218.44	1744.87
218.66	1673.19
218.87	1757.16
219.09	1654.76
219.31	1761.25
219.53	1660.90
219.75	1619.94
219.97	1691.62
220.19	1738.73
220.41	1718.25
220.63	1779.68
220.85	1695.72
221.06	1656.81
221.28	1742.82
221.50	1708.01
221.72	1701.86
221.94	1738.73
222.16	1697.77
222.38	1728.49
222.60	1685.48
222.82	1718.25
223.03	1755.11
223.25	1744.87
223.47	1689.57
223.69	1802.21
223.91	1714.15
224.13	1697.77
224.35	1591.27
224.57	1679.33
224.78	1748.97
225.00	1621.99
225.22	1730.53
225.44	1718.25
225.66	1736.68
225.88	1644.52
226.10	1773.54
226.32	1630.18
226.53	1800.16
226.75	1736.68
226.97	1597.42
227.19	1681.38
227.41	1724.39
227.63	1695.72
227.85	1648.61
228.06	1677.29
228.28	1636.33
228.50	1789.92
228.72	1662.95
228.94	1630.18
229.16	1570.79
229.37	1591.27
229.59	1697.77
229.81	1714.15
230.03	1624.04
230.25	1656.81
230.47	1613.80
230.69	1648.61
230.90	1767.40
231.12	1648.61
231.34	1718.25
231.56	1742.82
231.78	1644.52
232.00	1654.76
232.21	1722.34
232.43	1685.48
232.65	1490.92
232.87	1703.91
233.09	1669.09
233.30	1720.29
233.52	1617.90
233.74	1693.67
233.96	1673.19
234.18	1714.15
234.40	1693.67
234.61	1777.64
234.83	1634.28
235.05	1583.08
235.27	1794.02
235.49	1773.54
235.70	1662.95
235.92	1804.26
236.14	1699.81
236.36	1830.88
236.58	1689.57
236.79	1736.68
237.01	1720.29
237.23	1720.29
237.45	1751.01
237.67	1636.33
237.88	1685.48
238.10	1708.01
238.32	1677.29
238.54	1726.44
238.76	1677.29
238.97	1628.14
239.19	1636.33
239.41	1765.35
239.63	1767.40
239.85	1667.05
240.06	1644.52
240.28	1732.58
240.50	1724.39
240.72	1685.48
240.93	1722.34
241.15	1763.30
241.37	1681.38
241.59	1691.62
241.81	1693.67
242.02	1753.06
242.24	1732.58
242.46	1806.31
242.68	1624.04
242.89	1695.72
243.11	1732.58
243.33	1681.38
243.55	1714.15
243.76	1687.53
243.98	1652.71
244.20	1665.00
244.42	1757.16
244.64	1726.44
244.85	1648.61
245.07	1591.27
245.29	1714.15
245.51	1691.62
245.72	1646.57
245.94	1773.54
246.16	1718.25
246.38	1748.97
246.59	1677.29
246.81	1683.43
247.03	1660.90
247.24	1581.03
247.46	1705.96
247.68	1746.92
247.90	1624.04
248.11	1636.33
248.33	1699.81
248.55	1665.00
248.77	1691.62
248.98	1761.25
249.20	1736.68
249.42	1722.34
249.64	1775.59
249.85	1644.52
250.07	1621.99
250.29	1689.57
250.50	1781.73
250.72	1587.18
250.94	1703.91
251.16	1785.83
251.37	1718.25
251.59	1740.77
251.81	1654.76
252.02	1755.11
252.24	1714.15
252.46	1812.45
252.68	1654.76
252.89	1650.66
253.11	1558.50
253.33	1746.92
253.54	1740.77
253.76	1615.85
253.98	1603.56
254.20	1701.86
254.41	1609.70
254.63	1703.91
254.85	1578.98
255.06	1701.86
255.28	1740.77
255.50	1714.15
255.71	1654.76
255.93	1718.25
256.15	1671.14
256.36	1751.01
256.58	1634.28
256.80	1718.25
257.02	1656.81
257.23	1626.09
257.45	1705.96
257.67	1732.58
257.88	1611.75
258.10	1732.58
258.32	1646.57
258.53	1732.58
258.75	1794.02
258.97	1624.04
259.18	1736.68
259.40	1757.16
259.62	1802.21
259.83	1769.44
260.05	1722.34
260.27	1908.71
260.48	1779.68
260.70	1652.71
260.92	1705.96
261.13	1755.11
261.35	1728.49
261.57	1693.67
261.78	1611.75
262.00	1720.29
262.22	1734.63
262.43	1644.52
262.65	1689.57
262.86	1667.05
263.08	1820.64
263.30	1720.29
263.51	1615.85
263.73	1667.05
263.95	1757.16
264.16	1607.66
264.38	1675.24
264.60	1730.53
264.81	1740.77
265.03	1763.30
265.25	1751.01
265.46	1685.48
265.68	1800.16
265.89	1804.26
266.11	1669.09
266.33	1701.86
266.54	1689.57
266.76	1785.83
266.98	1722.34
267.19	1882.08
267.41	1787.88
267.62	1718.25
267.84	1634.28
268.06	1730.53
268.27	1716.20
268.49	1708.01
268.70	1679.33
268.92	1691.62
269.14	1626.09
269.35	1609.70
269.57	1722.34
269.79	1812.45
270.00	1578.98
270.22	1812.45
270.43	1679.33
270.65	1603.56
270.87	1662.95
271.08	1667.05
271.30	1712.10
271.51	1681.38
271.73	1734.63
271.95	1761.25
272.16	1669.09
272.38	1724.39
272.59	1632.23
272.81	1730.53
273.02	1619.94
273.24	1732.58
273.46	1722.34
273.67	1587.18
273.89	1679.33
274.10	1675.24
274.32	1744.87
274.54	1642.47
274.75	1746.92
274.97	1677.29
275.18	1820.64
275.40	1718.25
275.61	1648.61
275.83	1701.86
276.05	1708.01
276.26	1679.33
276.48	1665.00
276.69	1642.47
276.91	1636.33
277.12	1796.07
277.34	1701.86
277.55	1685.48
277.77	1683.43
277.99	1705.96
278.20	1603.56
278.42	1630.18
278.63	1624.04
278.85	1599.46
279.06	1652.71
279.28	1695.72
279.49	1718.25
279.71	1779.68
279.93	1689.57
280.14	1599.46
280.36	1574.89
280.57	1724.39
280.79	1755.11
281.00	1669.09
281.22	1701.86
281.43	1804.26
281.65	1568.74
281.86	1611.75
282.08	1787.88
282.29	1722.34
282.51	1658.85
282.73	1665.00
282.94	1599.46
283.16	1738.73
283.37	1683.43
283.59	1699.81
283.80	1791.97
284.02	1675.24
284.23	1695.72
284.45	1648.61
284.66	1658.85
284.88	1665.00
285.09	1705.96
285.31	1791.97
285.52	1679.33
285.74	1611.75
285.95	1726.44
286.17	1761.25
286.38	1761.25
286.60	1642.47
286.81	1644.52
287.03	1597.42
287.24	1640.42
287.46	1701.86
287.67	1644.52
287.89	1769.44
288.10	1703.91
288.32	1701.86
288.53	1759.21
288.75	1730.53
288.96	1742.82
289.18	1624.04
289.39	1699.81
289.61	1771.49
289.82	1701.86
290.04	1785.83
290.25	1609.70
290.47	1699.81
290.68	1740.77
290.90	1771.49
291.11	1683.43
291.33	1759.21
291.54	1576.94
291.76	1744.87
291.97	1718.25
292.18	1675.24
292.40	1675.24
292.61	1607.66
292.83	1843.17
293.04	1710.05
293.26	1669.09
293.47	1691.62
293.69	1624.04
293.90	1642.47
294.12	1757.16
294.33	1714.15
294.55	1734.63
294.76	1742.82
294.97	1703.91
295.19	1810.40
295.40	1736.68
295.62	1796.07
295.83	1746.92
296.05	1605.61
296.26	1845.22
296.48	1677.29
296.69	1683.43
296.90	1669.09
297.12	1763.30
297.33	1716.20
297.55	1671.14
297.76	1800.16
297.98	1777.64
298.19	1689.57
298.41	1656.81
298.62	1642.47
298.83	1849.32
299.05	1648.61
299.26	1677.29
299.48	1667.05
299.69	1705.96
299.90	1695.72
300.12	1634.28
300.33	1789.92
300.55	1777.64
300.76	1779.68
300.98	1619.94
301.19	1708.01
301.40	1683.43
301.62	1724.39
301.83	1708.01
302.05	1728.49
302.26	1718.25
302.47	1722.34
302.69	1681.38
302.90	1757.16
303.12	1601.51
303.33	1763.30
303.54	1787.88
303.76	1658.85
303.97	1724.39
304.19	1761.25
304.40	1697.77
304.61	1697.77
304.83	1800.16
305.04	1771.49
305.26	1695.72
305.47	1626.09
305.68	1617.90
305.90	1665.00
306.11	1712.10
306.33	1652.71
306.54	1714.15
306.75	1669.09
306.97	1603.56
307.18	1599.46
307.39	1728.49
307.61	1732.58
307.82	1714.15
308.04	1736.68
308.25	1621.99
308.46	1748.97
308.68	1697.77
308.89	1642.47
309.10	1726.44
309.32	1726.44
309.53	1671.14
309.74	1697.77
309.96	1665.00
310.17	1781.73
310.39	1628.14
310.60	1701.86
310.81	1603.56
311.03	1640.42
311.24	1687.53
311.45	1675.24
311.67	1796.07
311.88	1671.14
312.09	1718.25
312.31	1648.61
312.52	1638.38
312.73	1728.49
312.95	1621.99
313.16	1675.24
313.37	1703.91
313.59	1675.24
313.80	1724.39
314.01	1734.63
314.23	1677.29
314.44	1677.29
314.65	1632.23
314.87	1648.61
315.08	1677.29
315.29	1624.04
315.51	1640.42
315.72	1677.29
315.93	1851.36
316.15	1738.73
316.36	1658.85
316.57	1683.43
316.79	1712.10
317.00	1681.38
317.21	1744.87
317.43	1701.86
317.64	1681.38
317.85	1611.75
318.07	1675.24
318.28	1669.09
318.49	1814.50
318.70	1859.56
318.92	1800.16
319.13	1806.31
319.34	1882.08
319.56	1845.22
319.77	1708.01
319.98	1742.82
320.20	1708.01
320.41	1648.61
320.62	1683.43
320.83	1722.34
321.05	1718.25
321.26	1740.77
321.47	1689.57
321.69	1769.44
321.90	1613.80
322.11	1673.19
322.32	1787.88
322.54	1757.16
322.75	1708.01
322.96	1804.26
323.18	1603.56
323.39	1679.33
323.60	1650.66
323.81	1722.34
324.03	1648.61
324.24	1646.57
324.45	1685.48
324.66	1644.52
324.88	1736.68
325.09	1691.62
325.30	1738.73
325.52	1646.57
325.73	1728.49
325.94	1652.71
326.15	1601.51
326.37	1667.05
326.58	1802.21
326.79	1716.20
327.00	1671.14
327.22	1759.21
327.43	1695.72
327.64	1597.42
327.85	1673.19
328.07	1718.25
328.28	1705.96
328.49	1699.81
328.70	1740.77
328.92	1667.05
329.13	1687.53
329.34	1753.06
329.55	1832.93
329.76	1794.02
329.98	1677.29
330.19	1796.07
330.40	1708.01
330.61	1734.63
330.83	1794.02
331.04	1699.81
331.25	1656.81
331.46	1683.43
331.68	1615.85
331.89	1662.95
332.10	1697.77
332.31	1626.09
332.52	1699.81
332.74	1808.36
332.95	1626.09
333.16	1697.77
333.37	1789.92
333.58	1626.09
333.80	1742.82
334.01	1677.29
334.22	1683.43
334.43	1648.61
334.64	1644.52
334.86	1683.43
335.07	1583.08
335.28	1740.77
335.49	1673.19
335.70	1722.34
335.92	1796.07
336.13	1824.74
336.34	1742.82
336.55	1640.42
336.76	1730.53
336.98	1585.13
337.19	1734.63
337.40	1791.97
337.61	1775.59
337.82	1730.53
338.04	1689.57
338.25	1650.66
338.46	1687.53
338.67	1705.96
338.88	1697.77
339.09	1646.57
339.31	1665.00
339.52	1671.14
339.73	1689.57
339.94	1748.97
340.15	1765.35
340.36	1648.61
340.58	1699.81
340.79	1712.10
341.00	1730.53
341.21	1679.33
341.42	1855.46
341.63	1724.39
341.85	1828.84
342.06	1726.44
342.27	1634.28
342.48	1775.59
342.69	1613.80
342.90	1705.96
343.12	1779.68
343.33	1718.25
343.54	1732.58
343.75	1810.40
343.96	1669.09
344.17	1757.16
344.38	1632.23
344.60	1636.33
344.81	1654.76
345.02	1615.85
345.23	1761.25
345.44	1865.70
345.65	1714.15
345.86	1697.77
346.07	1677.29
346.29	1613.80
346.50	1665.00
346.71	1652.71
346.92	1800.16
347.13	1800.16
347.34	1669.09
347.55	1705.96
347.76	1765.35
347.98	1677.29
348.19	1634.28
348.40	1748.97
348.61	1611.75
348.82	1779.68
349.03	1697.77
349.24	1699.81
349.45	1804.26
349.66	1624.04
349.88	1624.04
350.09	1615.85
350.30	1761.25
350.51	1769.44
350.72	1660.90
350.93	1705.96
351.14	1626.09
351.35	1748.97
351.56	1656.81
351.77	1640.42
351.99	1675.24
352.20	1783.78
352.41	1769.44
352.62	1640.42
352.83	1652.71
353.04	1679.33
353.25	1671.14
353.46	1789.92
353.67	1779.68
353.88	1642.47
354.09	1734.63
354.30	1708.01
354.52	1714.15
354.73	1806.31
354.94	1642.47
355.15	1685.48
355.36	1746.92
355.57	1687.53
355.78	1755.11
355.99	1642.47
356.20	1724.39
356.41	1722.34
356.62	1710.05
356.83	1675.24
357.04	1763.30
357.25	1644.52
357.46	1710.05
357.68	1609.70
357.89	1718.25
358.10	1732.58
358.31	1613.80
358.52	1675.24
358.73	1689.57
358.94	1734.63
359.15	1611.75
359.36	1763.30
359.57	1642.47
359.78	1683.43
359.99	1730.53
360.20	1605.61
360.41	1701.86
360.62	1746.92
360.83	1746.92
361.04	1720.29
361.25	1802.21
361.46	1800.16
361.67	1695.72
361.88	1730.53
362.09	1742.82
362.30	1724.39
362.51	1744.87
362.72	1646.57
362.93	1703.91
363.14	1765.35
363.35	1820.64
363.56	1697.77
363.78	1718.25
363.99	1734.63
364.20	1695.72
364.41	1771.49
364.62	1724.39
364.83	1712.10
365.04	1650.66
365.25	1673.19
365.46	1767.40
365.67	1648.61
365.88	1675.24
366.09	1632.23
366.30	1615.85
366.51	1710.05
366.72	1646.57
366.93	1652.71
367.14	1658.85
367.35	1734.63
367.56	1683.43
367.77	1843.17
367.98	1708.01
368.18	1740.77
368.39	1685.48
368.60	1718.25
368.81	1769.44
369.02	1685.48
369.23	1744.87
369.44	1626.09
369.65	1644.52
369.86	1730.53
370.07	1742.82
370.28	1605.61
370.49	1746.92
370.70	1767.40
370.91	1656.81
371.12	1527.78
371.33	1742.82
371.54	1710.05
371.75	1865.70
371.96	1656.81
372.17	1701.86
372.38	1724.39
372.59	1748.97
372.80	1669.09
373.01	1662.95
373.22	1609.70
373.43	1732.58
373.64	1640.42
373.85	1763.30
374.06	1683.43
374.26	1755.11
374.47	1769.44
374.68	1787.88
374.89	1679.33
375.10	1611.75
375.31	1849.32
375.52	1689.57
375.73	1789.92
375.94	1636.33
376.15	1771.49
376.36	1591.27
376.57	1638.38
376.78	1695.72
376.99	1710.05
377.20	1714.15
377.40	1689.57
377.61	1818.60
377.82	1656.81
378.03	1767.40
378.24	1683.43
378.45	1683.43
378.66	1685.48
378.87	1630.18
379.08	1574.89
379.29	1656.81
379.50	1816.55
379.71	1570.79
379.91	1751.01
380.12	1665.00
380.33	1671.14
380.54	1697.77
380.75	1630.18
380.96	1683.43
381.17	1720.29
381.38	1714.15
381.59	1716.20
381.80	1693.67
382.00	1888.23
382.21	1767.40
382.42	1857.51
382.63	1855.46
382.84	1804.26
383.05	1791.97
383.26	1742.82
383.47	1726.44
383.68	1830.88
383.88	1724.39
384.09	1736.68
384.30	1761.25
384.51	1742.82
384.72	1585.13
384.93	1681.38
385.14	1671.14
385.35	1765.35
385.55	1607.66
385.76	1828.84
385.97	1726.44
386.18	1634.28
386.39	1662.95
386.60	1730.53
386.81	1687.53
387.02	1560.55
387.22	1562.60
387.43	1765.35
387.64	1673.19
387.85	1855.46
388.06	2189.28
388.27	4259.78
388.48	6848.41
388.68	8146.82
388.89	9650.03
389.10	9885.55
389.31	8660.86
389.52	7573.39
389.73	6676.38
389.93	6180.77
390.14	5920.68
390.35	5191.60
390.56	4609.98
390.77	3751.88
390.98	2930.64
391.18	2525.15
391.39	2181.09
391.60	1845.22
391.81	1841.12
392.02	1638.38
392.23	1861.60
392.43	1796.07
392.64	1728.49
392.85	1757.16
393.06	1808.36
393.27	1734.63
393.47	1595.37
393.68	1746.92
393.89	1693.67
394.10	1771.49
394.31	1742.82
394.52	1611.75
394.72	1701.86
394.93	1740.77
395.14	1583.08
395.35	1740.77
395.56	1724.39
395.76	1726.44
395.97	1759.21
396.18	1851.36
396.39	1869.80
396.60	2007.01
396.80	1837.03
397.01	1804.26
397.22	1875.94
397.43	1869.80
397.64	1748.97
397.84	1800.16
398.05	1767.40
398.26	1812.45
398.47	1757.16
398.67	1804.26
398.88	1746.92
399.09	1683.43
399.30	1712.10
399.51	1742.82
399.71	1626.09
399.92	1677.29
400.13	1703.91
400.34	1628.14
400.54	1757.16
400.75	1771.49
400.96	1787.88
401.17	1755.11
401.37	1773.54
401.58	1689.57
401.79	1697.77
402.00	1845.22
402.21	1955.81
402.41	1955.81
402.62	1992.67
402.83	1964.00
403.04	2064.35
403.24	2054.11
403.45	1824.74
403.66	1910.75
403.87	1869.80
404.07	1896.42
404.28	1873.89
404.49	1806.31
404.70	1808.36
404.90	1646.57
405.11	1746.92
405.32	1681.38
405.52	1685.48
405.73	1652.71
405.94	1642.47
406.15	1703.91
406.35	1748.97
406.56	1703.91
406.77	1761.25
406.98	1648.61
407.18	1644.52
407.39	1828.84
407.60	1722.34
407.80	1767.40
408.01	1671.14
408.22	1708.01
408.43	1617.90
408.63	1738.73
408.84	1740.77
409.05	1781.73
409.25	1681.38
409.46	1705.96
409.67	1691.62
409.88	1714.15
410.08	1798.12
410.29	1740.77
410.50	1787.88
410.70	1689.57
410.91	1609.70
411.12	1746.92
411.32	1751.01
411.53	1695.72
411.74	1796.07
411.95	1804.26
412.15	1755.11
412.36	1773.54
412.57	1751.01
412.77	1765.35
412.98	1724.39
413.19	1751.01
413.39	1710.05
413.60	1781.73
413.81	1847.27
414.01	1677.29
414.22	1751.01
414.43	1849.32
414.63	1724.39
414.84	1798.12
415.05	1755.11
415.25	1699.81
415.46	1695.72
415.67	1703.91
415.87	1746.92
416.08	1695.72
416.29	1640.42
416.49	1691.62
416.70	1734.63
416.91	1665.00
417.11	1691.62
417.32	1800.16
417.53	1763.30
417.73	1732.58
417.94	1722.34
418.15	1679.33
418.35	1689.57
418.56	1740.77
418.77	1908.71
418.97	1626.09
419.18	1646.57
419.38	1550.31
419.59	1671.14
419.80	1738.73
420.00	1677.29
420.21	1726.44
420.42	1724.39
420.62	1710.05
420.83	1693.67
421.04	1789.92
421.24	1687.53
421.45	1736.68
421.65	1726.44
421.86	1634.28
422.07	1712.10
422.27	1765.35
422.48	1701.86
422.69	1624.04
422.89	1669.09
423.10	1705.96
423.30	1654.76
423.51	1701.86
423.72	1656.81
423.92	1783.78
424.13	1669.09
424.33	1751.01
424.54	1724.39
424.75	1687.53
424.95	1796.07
425.16	1779.68
425.36	1673.19
425.57	1697.77
425.78	1697.77
425.98	1740.77
426.19	1662.95
426.39	1632.23
426.60	1806.31
426.81	1773.54
427.01	1683.43
427.22	1658.85
427.42	1603.56
427.63	1667.05
427.83	1738.73
428.04	1834.98
428.25	1757.16
428.45	1724.39
428.66	1744.87
428.86	1710.05
429.07	1683.43
429.28	1757.16
429.48	1689.57
429.69	1658.85
429.89	1697.77
430.10	1615.85
430.30	1714.15
430.51	1861.60
430.71	1611.75
430.92	1730.53
431.13	1626.09
431.33	1662.95
431.54	1681.38
431.74	1779.68
431.95	1742.82
432.15	1675.24
432.36	1697.77
432.56	1740.77
432.77	1765.35
432.98	1746.92
433.18	1759.21
433.39	1671.14
433.59	1665.00
433.80	1794.02
434.00	1882.08
434.21	1673.19
434.41	1671.14
434.62	1923.04
434.82	1634.28
435.03	1693.67
435.23	1728.49
435.44	1665.00
435.64	1691.62
435.85	1744.87
436.06	1757.16
436.26	1787.88
436.47	1679.33
436.67	1626.09
436.88	1738.73
437.08	1699.81
437.29	1783.78
437.49	1683.43
437.70	1769.44
437.90	1705.96
438.11	1857.51
438.31	1781.73
438.52	1918.95
438.72	1834.98
438.93	1939.43
439.13	1775.59
439.34	1843.17
439.54	1724.39
439.75	1787.88
439.95	1781.73
440.16	1667.05
440.36	1787.88
440.57	1730.53
440.77	1763.30
440.98	1708.01
441.18	1720.29
441.39	1591.27
441.59	1667.05
441.80	1820.64
442.00	1767.40
442.21	1824.74
442.41	1689.57
442.62	1820.64
442.82	1654.76
443.02	1658.85
443.23	1689.57
443.43	1687.53
443.64	1802.21
443.84	1693.67
444.05	1767.40
444.25	1830.88
444.46	1626.09
444.66	1726.44
444.87	1769.44
445.07	1591.27
445.28	1748.97
445.48	1832.93
445.69	1820.64
445.89	1898.47
446.09	1755.11
446.30	1990.63
446.50	2631.64
446.71	3631.05
446.91	4325.31
447.12	4798.39
447.32	4884.41
447.53	4401.08
447.73	3901.38
447.93	3588.04
448.14	3221.45
448.34	3166.16
448.55	2930.64
448.75	2746.33
448.96	2660.31
449.16	2394.08
449.36	2240.48
449.57	2037.73
449.77	1931.23
449.98	1798.12
450.18	1830.88
450.39	1761.25
450.59	1785.83
450.79	1648.61
451.00	1724.39
451.20	1810.40
451.41	1710.05
451.61	1755.11
451.81	1763.30
452.02	1789.92
452.22	1710.05
452.43	1630.18
452.63	1728.49
