SpectraSuite Data File
++++++++++++++++++++++++++++++++++++
Date: Mon Jun 06 17:38:37 CEST 2016
User: root
Dark Spectrum Present: No
Reference Spectrum Present: No
Number of Sampled Component Spectra: 1
Spectrometers: USB4C02835
Integration Time (usec): 100000 (USB4C02835)
Spectra Averaged: 1 (USB4C02835)
Boxcar Smoothing: 0 (USB4C02835)
Correct for Electrical Dark: No (USB4C02835)
Strobe/Lamp Enabled: No (USB4C02835)
Correct for Detector Non-linearity: No (USB4C02835)
Correct for Stray Light: No (USB4C02835)
Number of Pixels in Processed Spectrum: 3648
>>>>>Begin Processed Spectral Data<<<<<
177.47	1472.49
177.69	1472.49
177.91	1472.49
178.13	1431.53
178.36	1509.35
178.58	1656.81
178.80	1822.69
179.02	1640.42
179.24	1628.14
179.46	1669.09
179.68	1810.40
179.90	1701.86
180.13	1791.97
180.35	1673.19
180.57	1722.34
180.79	1751.01
181.01	1632.23
181.23	1726.44
181.45	1755.11
181.67	1712.10
181.90	1769.44
182.12	1679.33
182.34	1693.67
182.56	1798.12
182.78	1779.68
183.00	1687.53
183.22	1658.85
183.44	1621.99
183.66	1886.18
183.89	1722.34
184.11	1613.80
184.33	1759.21
184.55	1765.35
184.77	1794.02
184.99	1712.10
185.21	1697.77
185.43	1824.74
185.65	1628.14
185.87	1746.92
186.10	1863.65
186.32	1798.12
186.54	1755.11
186.76	1701.86
186.98	1714.15
187.20	1656.81
187.42	1689.57
187.64	1755.11
187.86	1681.38
188.08	1755.11
188.30	1765.35
188.52	1701.86
188.75	1777.64
188.97	1822.69
189.19	1683.43
189.41	1687.53
189.63	1718.25
189.85	1728.49
190.07	1703.91
190.29	1634.28
190.51	1748.97
190.73	1679.33
190.95	1751.01
191.17	1689.57
191.39	1587.18
191.61	1656.81
191.84	1683.43
192.06	1681.38
192.28	1712.10
192.50	1871.84
192.72	1667.05
192.94	1699.81
193.16	1771.49
193.38	1738.73
193.60	1650.66
193.82	1755.11
194.04	1740.77
194.26	1740.77
194.48	1740.77
194.70	1640.42
194.92	1640.42
195.14	1779.68
195.36	1644.52
195.58	1771.49
195.80	1681.38
196.02	1665.00
196.24	1685.48
196.46	1728.49
196.69	1681.38
196.91	1849.32
197.13	1669.09
197.35	1669.09
197.57	1841.12
197.79	1753.06
198.01	1777.64
198.23	1656.81
198.45	1759.21
198.67	1640.42
198.89	1699.81
199.11	1757.16
199.33	1708.01
199.55	1632.23
199.77	1701.86
199.99	1724.39
200.21	1640.42
200.43	1693.67
200.65	1687.53
200.87	1617.90
201.09	1720.29
201.31	1718.25
201.53	1744.87
201.75	1650.66
201.97	1693.67
202.19	1730.53
202.41	1755.11
202.63	1890.28
202.85	1759.21
203.07	1740.77
203.29	1705.96
203.51	1675.24
203.73	1669.09
203.95	1841.12
204.17	1724.39
204.39	1804.26
204.61	1736.68
204.83	1716.20
205.05	1802.21
205.27	1722.34
205.49	1783.78
205.71	1732.58
205.93	1615.85
206.15	1656.81
206.37	1746.92
206.59	1742.82
206.81	1599.46
207.03	1632.23
207.25	1722.34
207.47	1841.12
207.69	1693.67
207.91	1828.84
208.13	1787.88
208.34	1763.30
208.56	1753.06
208.78	1751.01
209.00	1730.53
209.22	1722.34
209.44	1742.82
209.66	1687.53
209.88	1697.77
210.10	1732.58
210.32	1697.77
210.54	1871.84
210.76	1677.29
210.98	1736.68
211.20	1648.61
211.42	1724.39
211.64	1751.01
211.86	1785.83
212.08	1703.91
212.30	1738.73
212.52	1673.19
212.74	1798.12
212.96	1761.25
213.17	1734.63
213.39	1732.58
213.61	1847.27
213.83	1818.60
214.05	1628.14
214.27	1771.49
214.49	1640.42
214.71	1667.05
214.93	1742.82
215.15	1728.49
215.37	1816.55
215.59	1636.33
215.81	1800.16
216.03	1781.73
216.24	1722.34
216.46	1648.61
216.68	1734.63
216.90	1679.33
217.12	1839.08
217.34	1685.48
217.56	1697.77
217.78	1839.08
218.00	1804.26
218.22	1746.92
218.44	1812.45
218.66	1765.35
218.87	1863.65
219.09	1673.19
219.31	1695.72
219.53	1673.19
219.75	1738.73
219.97	1734.63
220.19	1755.11
220.41	1705.96
220.63	1787.88
220.85	1728.49
221.06	1681.38
221.28	1771.49
221.50	1703.91
221.72	1714.15
221.94	1724.39
222.16	1726.44
222.38	1744.87
222.60	1689.57
222.82	1681.38
223.03	1724.39
223.25	1699.81
223.47	1744.87
223.69	1853.41
223.91	1744.87
224.13	1712.10
224.35	1669.09
224.57	1771.49
224.78	1658.85
225.00	1693.67
225.22	1710.05
225.44	1740.77
225.66	1703.91
225.88	1728.49
226.10	1763.30
226.32	1683.43
226.53	1796.07
226.75	1679.33
226.97	1677.29
227.19	1673.19
227.41	1720.29
227.63	1705.96
227.85	1673.19
228.06	1728.49
228.28	1691.62
228.50	1861.60
228.72	1574.89
228.94	1681.38
229.16	1644.52
229.37	1687.53
229.59	1763.30
229.81	1787.88
230.03	1685.48
230.25	1660.90
230.47	1632.23
230.69	1654.76
230.90	1837.03
231.12	1648.61
231.34	1714.15
231.56	1703.91
231.78	1665.00
232.00	1742.82
232.21	1757.16
232.43	1730.53
232.65	1585.13
232.87	1748.97
233.09	1656.81
233.30	1677.29
233.52	1794.02
233.74	1732.58
233.96	1701.86
234.18	1740.77
234.40	1687.53
234.61	1861.60
234.83	1728.49
235.05	1695.72
235.27	1832.93
235.49	1828.84
235.70	1677.29
235.92	1779.68
236.14	1732.58
236.36	1849.32
236.58	1615.85
236.79	1740.77
237.01	1705.96
237.23	1701.86
237.45	1722.34
237.67	1679.33
237.88	1755.11
238.10	1800.16
238.32	1671.14
238.54	1748.97
238.76	1710.05
238.97	1699.81
239.19	1728.49
239.41	1767.40
239.63	1771.49
239.85	1759.21
240.06	1648.61
240.28	1744.87
240.50	1742.82
240.72	1744.87
240.93	1691.62
241.15	1738.73
241.37	1703.91
241.59	1744.87
241.81	1734.63
242.02	1734.63
242.24	1789.92
242.46	1746.92
242.68	1718.25
242.89	1804.26
243.11	1746.92
243.33	1691.62
243.55	1714.15
243.76	1763.30
243.98	1716.20
244.20	1660.90
244.42	1785.83
244.64	1746.92
244.85	1683.43
245.07	1677.29
245.29	1751.01
245.51	1722.34
245.72	1726.44
245.94	1834.98
246.16	1736.68
246.38	1712.10
246.59	1665.00
246.81	1726.44
247.03	1681.38
247.24	1646.57
247.46	1693.67
247.68	1695.72
247.90	1626.09
248.11	1626.09
248.33	1787.88
248.55	1705.96
248.77	1755.11
248.98	1755.11
249.20	1828.84
249.42	1693.67
249.64	1779.68
249.85	1742.82
250.07	1683.43
250.29	1751.01
250.50	1796.07
250.72	1669.09
250.94	1783.78
251.16	1849.32
251.37	1742.82
251.59	1771.49
251.81	1757.16
252.02	1849.32
252.24	1710.05
252.46	1714.15
252.68	1652.71
252.89	1644.52
253.11	1603.56
253.33	1781.73
253.54	1830.88
253.76	1673.19
253.98	1732.58
254.20	1714.15
254.41	1650.66
254.63	1685.48
254.85	1675.24
255.06	1738.73
255.28	1775.59
255.50	1718.25
255.71	1695.72
255.93	1667.05
256.15	1667.05
256.36	1738.73
256.58	1738.73
256.80	1789.92
257.02	1791.97
257.23	1746.92
257.45	1746.92
257.67	1712.10
257.88	1687.53
258.10	1665.00
258.32	1710.05
258.53	1753.06
258.75	1824.74
258.97	1632.23
259.18	1732.58
259.40	1685.48
259.62	1806.31
259.83	1730.53
260.05	1767.40
260.27	2035.68
260.48	1787.88
260.70	1669.09
260.92	1738.73
261.13	1710.05
261.35	1714.15
261.57	1708.01
261.78	1695.72
262.00	1660.90
262.22	1714.15
262.43	1648.61
262.65	1712.10
262.86	1738.73
263.08	1902.56
263.30	1687.53
263.51	1632.23
263.73	1619.94
263.95	1740.77
264.16	1691.62
264.38	1714.15
264.60	1712.10
264.81	1789.92
265.03	1804.26
265.25	1769.44
265.46	1632.23
265.68	1796.07
265.89	1757.16
266.11	1546.22
266.33	1785.83
266.54	1849.32
266.76	1763.30
266.98	1779.68
267.19	1847.27
267.41	1822.69
267.62	1681.38
267.84	1667.05
268.06	1785.83
268.27	1810.40
268.49	1740.77
268.70	1839.08
268.92	1716.20
269.14	1636.33
269.35	1632.23
269.57	1720.29
269.79	1742.82
270.00	1710.05
270.22	1806.31
270.43	1712.10
270.65	1566.70
270.87	1769.44
271.08	1779.68
271.30	1744.87
271.51	1744.87
271.73	1761.25
271.95	1781.73
272.16	1808.36
272.38	1712.10
272.59	1685.48
272.81	1740.77
273.02	1769.44
273.24	1728.49
273.46	1753.06
273.67	1689.57
273.89	1722.34
274.10	1689.57
274.32	1779.68
274.54	1751.01
274.75	1730.53
274.97	1621.99
275.18	1748.97
275.40	1820.64
275.61	1673.19
275.83	1753.06
276.05	1671.14
276.26	1742.82
276.48	1849.32
276.69	1718.25
276.91	1654.76
277.12	1853.41
277.34	1716.20
277.55	1802.21
277.77	1699.81
277.99	1665.00
278.20	1714.15
278.42	1667.05
278.63	1708.01
278.85	1738.73
279.06	1626.09
279.28	1748.97
279.49	1802.21
279.71	1812.45
279.93	1705.96
280.14	1644.52
280.36	1660.90
280.57	1759.21
280.79	1718.25
281.00	1755.11
281.22	1613.80
281.43	1814.50
281.65	1632.23
281.86	1636.33
282.08	1765.35
282.29	1845.22
282.51	1599.46
282.73	1656.81
282.94	1689.57
283.16	1755.11
283.37	1884.13
283.59	1738.73
283.80	1759.21
284.02	1701.86
284.23	1781.73
284.45	1691.62
284.66	1626.09
284.88	1687.53
285.09	1794.02
285.31	1712.10
285.52	1697.77
285.74	1662.95
285.95	1718.25
286.17	1689.57
286.38	1789.92
286.60	1683.43
286.81	1652.71
287.03	1701.86
287.24	1736.68
287.46	1814.50
287.67	1726.44
287.89	1832.93
288.10	1794.02
288.32	1734.63
288.53	1820.64
288.75	1734.63
288.96	1757.16
289.18	1755.11
289.39	1667.05
289.61	1742.82
289.82	1812.45
290.04	1796.07
290.25	1583.08
290.47	1830.88
290.68	1697.77
290.90	1777.64
291.11	1665.00
291.33	1812.45
291.54	1691.62
291.76	1665.00
291.97	1669.09
292.18	1716.20
292.40	1642.47
292.61	1654.76
292.83	1816.55
293.04	1753.06
293.26	1775.59
293.47	1738.73
293.69	1685.48
293.90	1710.05
294.12	1771.49
294.33	1802.21
294.55	1679.33
294.76	1755.11
294.97	1796.07
295.19	1837.03
295.40	1665.00
295.62	1681.38
295.83	1703.91
296.05	1716.20
296.26	1810.40
296.48	1687.53
296.69	1671.14
296.90	1697.77
297.12	1787.88
297.33	1767.40
297.55	1722.34
297.76	1714.15
297.98	1814.50
298.19	1748.97
298.41	1734.63
298.62	1607.66
298.83	1773.54
299.05	1789.92
299.26	1673.19
299.48	1720.29
299.69	1744.87
299.90	1685.48
300.12	1636.33
300.33	1773.54
300.55	1771.49
300.76	1789.92
300.98	1634.28
301.19	1648.61
301.40	1671.14
301.62	1744.87
301.83	1722.34
302.05	1724.39
302.26	1746.92
302.47	1742.82
302.69	1644.52
302.90	1732.58
303.12	1599.46
303.33	1839.08
303.54	1865.70
303.76	1716.20
303.97	1722.34
304.19	1812.45
304.40	1718.25
304.61	1791.97
304.83	1837.03
305.04	1773.54
305.26	1705.96
305.47	1667.05
305.68	1710.05
305.90	1675.24
306.11	1773.54
306.33	1660.90
306.54	1722.34
306.75	1714.15
306.97	1626.09
307.18	1687.53
307.39	1652.71
307.61	1695.72
307.82	1708.01
308.04	1781.73
308.25	1697.77
308.46	1849.32
308.68	1626.09
308.89	1712.10
309.10	1765.35
309.32	1691.62
309.53	1685.48
309.74	1724.39
309.96	1681.38
310.17	1779.68
310.39	1660.90
310.60	1777.64
310.81	1753.06
311.03	1722.34
311.24	1779.68
311.45	1751.01
311.67	1834.98
311.88	1726.44
312.09	1755.11
312.31	1755.11
312.52	1701.86
312.73	1615.85
312.95	1722.34
313.16	1673.19
313.37	1890.28
313.59	1767.40
313.80	1716.20
314.01	1935.33
314.23	1763.30
314.44	1703.91
314.65	1585.13
314.87	1701.86
315.08	1720.29
315.29	1671.14
315.51	1642.47
315.72	1744.87
315.93	1789.92
316.15	1763.30
316.36	1714.15
316.57	1767.40
316.79	1769.44
317.00	1718.25
317.21	1638.38
317.43	1630.18
317.64	1685.48
317.85	1652.71
318.07	1728.49
318.28	1771.49
318.49	1843.17
318.70	1935.33
318.92	1812.45
319.13	1837.03
319.34	1826.79
319.56	1783.78
319.77	1826.79
319.98	1746.92
320.20	1808.36
320.41	1765.35
320.62	1791.97
320.83	1675.24
321.05	1877.99
321.26	1701.86
321.47	1728.49
321.69	1712.10
321.90	1658.85
322.11	1673.19
322.32	1808.36
322.54	1828.84
322.75	1679.33
322.96	1834.98
323.18	1583.08
323.39	1615.85
323.60	1595.37
323.81	1757.16
324.03	1738.73
324.24	1742.82
324.45	1736.68
324.66	1691.62
324.88	1796.07
325.09	1804.26
325.30	1683.43
325.52	1800.16
325.73	1755.11
325.94	1574.89
326.15	1597.42
326.37	1701.86
326.58	1740.77
326.79	1816.55
327.00	1667.05
327.22	1710.05
327.43	1726.44
327.64	1615.85
327.85	1708.01
328.07	1767.40
328.28	1822.69
328.49	1695.72
328.70	1669.09
328.92	1714.15
329.13	1640.42
329.34	1789.92
329.55	1884.13
329.76	1832.93
329.98	1742.82
330.19	1824.74
330.40	1771.49
330.61	1669.09
330.83	1779.68
331.04	1730.53
331.25	1771.49
331.46	1681.38
331.68	1652.71
331.89	1732.58
332.10	1738.73
332.31	1630.18
332.52	1708.01
332.74	1708.01
332.95	1705.96
333.16	1710.05
333.37	1753.06
333.58	1746.92
333.80	1775.59
334.01	1568.74
334.22	1728.49
334.43	1640.42
334.64	1779.68
334.86	1593.32
335.07	1593.32
335.28	1765.35
335.49	1632.23
335.70	1714.15
335.92	1765.35
336.13	1843.17
336.34	1775.59
336.55	1701.86
336.76	1603.56
336.98	1599.46
337.19	1716.20
337.40	1847.27
337.61	1832.93
337.82	1732.58
338.04	1787.88
338.25	1603.56
338.46	1677.29
338.67	1658.85
338.88	1710.05
339.09	1710.05
339.31	1665.00
339.52	1658.85
339.73	1695.72
339.94	1681.38
340.15	1816.55
340.36	1646.57
340.58	1822.69
340.79	1636.33
341.00	1818.60
341.21	1646.57
341.42	1796.07
341.63	1742.82
341.85	1761.25
342.06	1730.53
342.27	1705.96
342.48	1904.61
342.69	1624.04
342.90	1783.78
343.12	1773.54
343.33	1648.61
343.54	1773.54
343.75	1794.02
343.96	1742.82
344.17	1646.57
344.38	1740.77
344.60	1644.52
344.81	1619.94
345.02	1746.92
345.23	1802.21
345.44	1779.68
345.65	1800.16
345.86	1734.63
346.07	1685.48
346.29	1708.01
346.50	1779.68
346.71	1714.15
346.92	1839.08
347.13	1857.51
347.34	1732.58
347.55	1726.44
347.76	1697.77
347.98	1648.61
348.19	1681.38
348.40	1763.30
348.61	1624.04
348.82	1734.63
349.03	1810.40
349.24	1701.86
349.45	1843.17
349.66	1589.22
349.88	1761.25
350.09	1714.15
350.30	1777.64
350.51	1722.34
350.72	1730.53
350.93	1773.54
351.14	1617.90
351.35	1796.07
351.56	1675.24
351.77	1650.66
351.99	1773.54
352.20	1802.21
352.41	1814.50
352.62	1587.18
352.83	1689.57
353.04	1783.78
353.25	1701.86
353.46	1746.92
353.67	1800.16
353.88	1572.84
354.09	1691.62
354.30	1759.21
354.52	1701.86
354.73	1710.05
354.94	1703.91
355.15	1728.49
355.36	1820.64
355.57	1675.24
355.78	1710.05
355.99	1693.67
356.20	1658.85
356.41	1714.15
356.62	1779.68
356.83	1794.02
357.04	1800.16
357.25	1576.94
357.46	1744.87
357.68	1675.24
357.89	1628.14
358.10	1703.91
358.31	1677.29
358.52	1693.67
358.73	1650.66
358.94	1691.62
359.15	1701.86
359.36	1755.11
359.57	1701.86
359.78	1726.44
359.99	1818.60
360.20	1714.15
360.41	1697.77
360.62	1742.82
360.83	1665.00
361.04	1705.96
361.25	1748.97
361.46	1791.97
361.67	1773.54
361.88	1755.11
362.09	1755.11
362.30	1804.26
362.51	1796.07
362.72	1730.53
362.93	1691.62
363.14	1724.39
363.35	1798.12
363.56	1658.85
363.78	1767.40
363.99	1787.88
364.20	1720.29
364.41	1808.36
364.62	1849.32
364.83	1812.45
365.04	1771.49
365.25	1708.01
365.46	1820.64
365.67	1650.66
365.88	1648.61
366.09	1761.25
366.30	1677.29
366.51	1730.53
366.72	1609.70
366.93	1665.00
367.14	1751.01
367.35	1759.21
367.56	1771.49
367.77	1806.31
367.98	1761.25
368.18	1751.01
368.39	1654.76
368.60	1665.00
368.81	1742.82
369.02	1714.15
369.23	1646.57
369.44	1632.23
369.65	1712.10
369.86	1738.73
370.07	1820.64
370.28	1693.67
370.49	1761.25
370.70	1703.91
370.91	1626.09
371.12	1617.90
371.33	1699.81
371.54	1714.15
371.75	1714.15
371.96	1619.94
372.17	1785.83
372.38	1624.04
372.59	1773.54
372.80	1673.19
373.01	1757.16
373.22	1765.35
373.43	1660.90
373.64	1660.90
373.85	1767.40
374.06	1849.32
374.26	1802.21
374.47	1724.39
374.68	1806.31
374.89	1710.05
375.10	1724.39
375.31	1845.22
375.52	1689.57
375.73	1804.26
375.94	1734.63
376.15	1830.88
376.36	1699.81
376.57	1673.19
376.78	1703.91
376.99	1716.20
377.20	1814.50
377.40	1687.53
377.61	1871.84
377.82	1660.90
378.03	1757.16
378.24	1718.25
378.45	1753.06
378.66	1761.25
378.87	1611.75
379.08	1642.47
379.29	1697.77
379.50	1859.56
379.71	1826.79
379.91	1691.62
380.12	1701.86
380.33	1658.85
380.54	1716.20
380.75	1718.25
380.96	1740.77
381.17	1787.88
381.38	1755.11
381.59	1691.62
381.80	1753.06
382.00	1847.27
382.21	1738.73
382.42	1839.08
382.63	1859.56
382.84	1763.30
383.05	1794.02
383.26	1781.73
383.47	1736.68
383.68	1726.44
383.88	1763.30
384.09	1785.83
384.30	1798.12
384.51	1744.87
384.72	1619.94
384.93	1650.66
385.14	1708.01
385.35	1755.11
385.55	1654.76
385.76	1783.78
385.97	1673.19
386.18	1656.81
386.39	1673.19
386.60	1673.19
386.81	1744.87
387.02	1716.20
387.22	1675.24
387.43	1783.78
387.64	1814.50
387.85	1859.56
388.06	2209.76
388.27	4147.14
388.48	6684.57
388.68	8169.35
388.89	9406.32
389.10	9688.94
389.31	8652.67
389.52	7702.41
389.73	6737.82
389.93	6440.86
390.14	5810.09
390.35	5167.03
390.56	4573.11
390.77	3899.33
390.98	3045.33
391.18	2504.67
391.39	2123.74
391.60	1843.17
391.81	1841.12
392.02	1753.06
392.23	1906.66
392.43	1722.34
392.64	1771.49
392.85	1681.38
393.06	1771.49
393.27	1730.53
393.47	1701.86
393.68	1755.11
393.89	1660.90
394.10	1757.16
394.31	1714.15
394.52	1691.62
394.72	1757.16
394.93	1798.12
395.14	1603.56
395.35	1675.24
395.56	1744.87
395.76	1757.16
395.97	1785.83
396.18	1896.42
396.39	1857.51
396.60	2062.30
396.80	1937.38
397.01	1892.32
397.22	1853.41
397.43	1806.31
397.64	1730.53
397.84	1822.69
398.05	1843.17
398.26	1753.06
398.47	1834.98
398.67	1796.07
398.88	1800.16
399.09	1712.10
399.30	1738.73
399.51	1730.53
399.71	1636.33
399.92	1728.49
400.13	1714.15
400.34	1722.34
400.54	1708.01
400.75	1859.56
400.96	1636.33
401.17	1822.69
401.37	1783.78
401.58	1679.33
401.79	1771.49
402.00	1804.26
402.21	2041.82
402.41	1949.67
402.62	2019.30
402.83	2041.82
403.04	1990.63
403.24	2050.02
403.45	1894.37
403.66	1945.57
403.87	1884.13
404.07	1972.19
404.28	1837.03
404.49	1994.72
404.70	1730.53
404.90	1777.64
405.11	1759.21
405.32	1757.16
405.52	1685.48
405.73	1703.91
405.94	1703.91
406.15	1763.30
406.35	1798.12
406.56	1796.07
406.77	1720.29
406.98	1802.21
407.18	1609.70
407.39	1783.78
407.60	1701.86
407.80	1705.96
408.01	1681.38
408.22	1738.73
408.43	1755.11
408.63	1701.86
408.84	1802.21
409.05	1755.11
409.25	1652.71
409.46	1675.24
409.67	1742.82
409.88	1660.90
410.08	1771.49
410.29	1681.38
410.50	1736.68
410.70	1730.53
410.91	1644.52
411.12	1910.75
411.32	1689.57
411.53	1665.00
411.74	1828.84
411.95	1839.08
412.15	1785.83
412.36	1753.06
412.57	1857.51
412.77	1814.50
412.98	1761.25
413.19	1669.09
413.39	1859.56
413.60	1755.11
413.81	1757.16
414.01	1712.10
414.22	1759.21
414.43	1761.25
414.63	1695.72
414.84	1761.25
415.05	1705.96
415.25	1644.52
415.46	1775.59
415.67	1736.68
415.87	1763.30
416.08	1783.78
416.29	1720.29
416.49	1755.11
416.70	1685.48
416.91	1654.76
417.11	1689.57
417.32	1726.44
417.53	1773.54
417.73	1765.35
417.94	1671.14
418.15	1691.62
418.35	1710.05
418.56	1751.01
418.77	1849.32
418.97	1699.81
419.18	1757.16
419.38	1591.27
419.59	1677.29
419.80	1779.68
420.00	1685.48
420.21	1681.38
420.42	1789.92
420.62	1787.88
420.83	1658.85
421.04	1693.67
421.24	1677.29
421.45	1738.73
421.65	1748.97
421.86	1636.33
422.07	1744.87
422.27	1748.97
422.48	1787.88
422.69	1665.00
422.89	1712.10
423.10	1656.81
423.30	1662.95
423.51	1779.68
423.72	1726.44
423.92	1683.43
424.13	1615.85
424.33	1738.73
424.54	1810.40
424.75	1681.38
424.95	1867.75
425.16	1767.40
425.36	1742.82
425.57	1789.92
425.78	1705.96
425.98	1759.21
426.19	1748.97
426.39	1603.56
426.60	1796.07
426.81	1843.17
427.01	1775.59
427.22	1699.81
427.42	1595.37
427.63	1671.14
427.83	1796.07
428.04	1804.26
428.25	1777.64
428.45	1824.74
428.66	1796.07
428.86	1767.40
429.07	1738.73
429.28	1689.57
429.48	1632.23
429.69	1650.66
429.89	1701.86
430.10	1642.47
430.30	1736.68
430.51	1806.31
430.71	1646.57
430.92	1742.82
431.13	1642.47
431.33	1718.25
431.54	1687.53
431.74	1857.51
431.95	1933.28
432.15	1697.77
432.36	1769.44
432.56	1785.83
432.77	1816.55
432.98	1837.03
433.18	1779.68
433.39	1751.01
433.59	1662.95
433.80	1865.70
434.00	1916.90
434.21	1718.25
434.41	1640.42
434.62	1761.25
434.82	1642.47
435.03	1648.61
435.23	1728.49
435.44	1675.24
435.64	1787.88
435.85	1779.68
436.06	1794.02
436.26	1824.74
436.47	1744.87
436.67	1716.20
436.88	1734.63
437.08	1826.79
437.29	1859.56
437.49	1746.92
437.70	1796.07
437.90	1751.01
438.11	1877.99
438.31	1841.12
438.52	1918.95
438.72	1873.89
438.93	1906.66
439.13	1824.74
439.34	1929.19
439.54	1789.92
439.75	1771.49
439.95	1820.64
440.16	1716.20
440.36	1783.78
440.57	1740.77
440.77	1828.84
440.98	1779.68
441.18	1781.73
441.39	1716.20
441.59	1734.63
441.80	1869.80
442.00	1726.44
442.21	1886.18
442.41	1652.71
442.62	1787.88
442.82	1732.58
443.02	1673.19
443.23	1726.44
443.43	1648.61
443.64	1822.69
443.84	1662.95
444.05	1812.45
444.25	1769.44
444.46	1736.68
444.66	1728.49
444.87	1871.84
445.07	1609.70
445.28	1759.21
445.48	1855.46
445.69	1755.11
445.89	1982.43
446.09	1732.58
446.30	2062.30
446.50	2697.17
446.71	3712.97
446.91	4458.43
447.12	4841.40
447.32	4884.41
447.53	4261.82
447.73	3919.81
447.93	3561.42
448.14	3448.78
448.34	3174.35
448.55	2998.23
448.75	2877.40
448.96	2785.24
449.16	2467.80
449.36	2260.96
449.57	2119.65
449.77	2019.30
449.98	1894.37
450.18	1808.36
450.39	1880.04
450.59	1837.03
450.79	1695.72
451.00	1759.21
451.20	1746.92
451.41	1673.19
451.61	1726.44
451.81	1693.67
452.02	1708.01
452.22	1755.11
452.43	1757.16
452.63	1640.42
