SpectraSuite Data File
++++++++++++++++++++++++++++++++++++
Date: Mon Jun 06 13:08:17 CEST 2016
User: root
Dark Spectrum Present: No
Reference Spectrum Present: No
Number of Sampled Component Spectra: 1
Spectrometers: USB4C02835
Integration Time (usec): 100000 (USB4C02835)
Spectra Averaged: 1 (USB4C02835)
Boxcar Smoothing: 0 (USB4C02835)
Correct for Electrical Dark: No (USB4C02835)
Strobe/Lamp Enabled: No (USB4C02835)
Correct for Detector Non-linearity: No (USB4C02835)
Correct for Stray Light: No (USB4C02835)
Number of Pixels in Processed Spectrum: 3648
>>>>>Begin Processed Spectral Data<<<<<
177.47	1472.49
177.69	1472.49
177.91	1472.49
178.13	1507.30
178.36	1468.39
178.58	1679.33
178.80	1724.39
179.02	1630.18
179.24	1705.96
179.46	1638.38
179.68	1761.25
179.90	1650.66
180.13	1691.62
180.35	1646.57
180.57	1744.87
180.79	1708.01
181.01	1681.38
181.23	1730.53
181.45	1767.40
181.67	1712.10
181.90	1728.49
182.12	1767.40
182.34	1603.56
182.56	1767.40
182.78	1687.53
183.00	1726.44
183.22	1671.14
183.44	1624.04
183.66	1828.84
183.89	1802.21
184.11	1722.34
184.33	1730.53
184.55	1802.21
184.77	1689.57
184.99	1703.91
185.21	1665.00
185.43	1761.25
185.65	1636.33
185.87	1738.73
186.10	1761.25
186.32	1765.35
186.54	1693.67
186.76	1630.18
186.98	1705.96
187.20	1673.19
187.42	1714.15
187.64	1642.47
187.86	1685.48
188.08	1632.23
188.30	1681.38
188.52	1617.90
188.75	1736.68
188.97	1761.25
189.19	1603.56
189.41	1660.90
189.63	1755.11
189.85	1708.01
190.07	1650.66
190.29	1566.70
190.51	1712.10
190.73	1609.70
190.95	1755.11
191.17	1650.66
191.39	1599.46
191.61	1730.53
191.84	1675.24
192.06	1759.21
192.28	1644.52
192.50	1906.66
192.72	1703.91
192.94	1714.15
193.16	1685.48
193.38	1665.00
193.60	1638.38
193.82	1648.61
194.04	1777.64
194.26	1746.92
194.48	1669.09
194.70	1638.38
194.92	1638.38
195.14	1763.30
195.36	1665.00
195.58	1728.49
195.80	1654.76
196.02	1638.38
196.24	1660.90
196.46	1722.34
196.69	1703.91
196.91	1845.22
197.13	1755.11
197.35	1636.33
197.57	1724.39
197.79	1753.06
198.01	1738.73
198.23	1691.62
198.45	1740.77
198.67	1619.94
198.89	1712.10
199.11	1662.95
199.33	1736.68
199.55	1634.28
199.77	1665.00
199.99	1753.06
200.21	1718.25
200.43	1744.87
200.65	1589.22
200.87	1646.57
201.09	1681.38
201.31	1593.32
201.53	1746.92
201.75	1746.92
201.97	1658.85
202.19	1740.77
202.41	1675.24
202.63	1763.30
202.85	1716.20
203.07	1722.34
203.29	1636.33
203.51	1626.09
203.73	1619.94
203.95	1841.12
204.17	1738.73
204.39	1755.11
204.61	1751.01
204.83	1718.25
205.05	1716.20
205.27	1855.46
205.49	1732.58
205.71	1679.33
205.93	1632.23
206.15	1581.03
206.37	1751.01
206.59	1738.73
206.81	1593.32
207.03	1660.90
207.25	1644.52
207.47	1740.77
207.69	1748.97
207.91	1810.40
208.13	1783.78
208.34	1705.96
208.56	1632.23
208.78	1730.53
209.00	1689.57
209.22	1683.43
209.44	1677.29
209.66	1601.51
209.88	1613.80
210.10	1718.25
210.32	1687.53
210.54	1771.49
210.76	1677.29
210.98	1691.62
211.20	1652.71
211.42	1720.29
211.64	1722.34
211.86	1705.96
212.08	1753.06
212.30	1687.53
212.52	1677.29
212.74	1804.26
212.96	1697.77
213.17	1722.34
213.39	1779.68
213.61	1816.55
213.83	1724.39
214.05	1640.42
214.27	1769.44
214.49	1607.66
214.71	1628.14
214.93	1658.85
215.15	1685.48
215.37	1736.68
215.59	1574.89
215.81	1738.73
216.03	1748.97
216.24	1708.01
216.46	1777.64
216.68	1640.42
216.90	1771.49
217.12	1740.77
217.34	1638.38
217.56	1703.91
217.78	1798.12
218.00	1740.77
218.22	1626.09
218.44	1753.06
218.66	1728.49
218.87	1785.83
219.09	1705.96
219.31	1683.43
219.53	1722.34
219.75	1716.20
219.97	1685.48
220.19	1640.42
220.41	1644.52
220.63	1755.11
220.85	1705.96
221.06	1587.18
221.28	1791.97
221.50	1644.52
221.72	1716.20
221.94	1718.25
222.16	1722.34
222.38	1812.45
222.60	1705.96
222.82	1660.90
223.03	1714.15
223.25	1656.81
223.47	1681.38
223.69	1742.82
223.91	1736.68
224.13	1738.73
224.35	1665.00
224.57	1746.92
224.78	1716.20
225.00	1779.68
225.22	1628.14
225.44	1685.48
225.66	1767.40
225.88	1701.86
226.10	1843.17
226.32	1699.81
226.53	1722.34
226.75	1628.14
226.97	1662.95
227.19	1683.43
227.41	1640.42
227.63	1742.82
227.85	1609.70
228.06	1689.57
228.28	1675.24
228.50	1728.49
228.72	1720.29
228.94	1644.52
229.16	1640.42
229.37	1632.23
229.59	1716.20
229.81	1798.12
230.03	1611.75
230.25	1665.00
230.47	1634.28
230.69	1665.00
230.90	1751.01
231.12	1675.24
231.34	1697.77
231.56	1748.97
231.78	1669.09
232.00	1656.81
232.21	1642.47
232.43	1615.85
232.65	1644.52
232.87	1732.58
233.09	1613.80
233.30	1652.71
233.52	1722.34
233.74	1615.85
233.96	1697.77
234.18	1732.58
234.40	1742.82
234.61	1751.01
234.83	1665.00
235.05	1650.66
235.27	1826.79
235.49	1789.92
235.70	1687.53
235.92	1763.30
236.14	1755.11
236.36	1841.12
236.58	1617.90
236.79	1730.53
237.01	1732.58
237.23	1703.91
237.45	1839.08
237.67	1673.19
237.88	1771.49
238.10	1728.49
238.32	1572.84
238.54	1701.86
238.76	1617.90
238.97	1667.05
239.19	1611.75
239.41	1851.36
239.63	1746.92
239.85	1662.95
240.06	1732.58
240.28	1714.15
240.50	1763.30
240.72	1701.86
240.93	1695.72
241.15	1773.54
241.37	1705.96
241.59	1738.73
241.81	1687.53
242.02	1744.87
242.24	1730.53
242.46	1810.40
242.68	1689.57
242.89	1714.15
243.11	1736.68
243.33	1736.68
243.55	1665.00
243.76	1732.58
243.98	1699.81
244.20	1710.05
244.42	1646.57
244.64	1679.33
244.85	1675.24
245.07	1718.25
245.29	1699.81
245.51	1656.81
245.72	1744.87
245.94	1697.77
246.16	1675.24
246.38	1751.01
246.59	1728.49
246.81	1638.38
247.03	1708.01
247.24	1595.37
247.46	1720.29
247.68	1796.07
247.90	1716.20
248.11	1675.24
248.33	1683.43
248.55	1710.05
248.77	1687.53
248.98	1744.87
249.20	1742.82
249.42	1701.86
249.64	1740.77
249.85	1656.81
250.07	1685.48
250.29	1687.53
250.50	1712.10
250.72	1654.76
250.94	1714.15
251.16	1894.37
251.37	1748.97
251.59	1679.33
251.81	1804.26
252.02	1765.35
252.24	1716.20
252.46	1863.65
252.68	1640.42
252.89	1636.33
253.11	1581.03
253.33	1779.68
253.54	1763.30
253.76	1624.04
253.98	1699.81
254.20	1642.47
254.41	1636.33
254.63	1738.73
254.85	1624.04
255.06	1681.38
255.28	1669.09
255.50	1615.85
255.71	1642.47
255.93	1599.46
256.15	1755.11
256.36	1722.34
256.58	1658.85
256.80	1667.05
257.02	1671.14
257.23	1685.48
257.45	1712.10
257.67	1740.77
257.88	1650.66
258.10	1759.21
258.32	1738.73
258.53	1732.58
258.75	1724.39
258.97	1634.28
259.18	1644.52
259.40	1722.34
259.62	1767.40
259.83	1816.55
260.05	1697.77
260.27	1939.43
260.48	1740.77
260.70	1632.23
260.92	1685.48
261.13	1691.62
261.35	1673.19
261.57	1720.29
261.78	1681.38
262.00	1693.67
262.22	1765.35
262.43	1644.52
262.65	1716.20
262.86	1699.81
263.08	1771.49
263.30	1679.33
263.51	1699.81
263.73	1624.04
263.95	1794.02
264.16	1593.32
264.38	1701.86
264.60	1767.40
264.81	1767.40
265.03	1755.11
265.25	1785.83
265.46	1701.86
265.68	1712.10
265.89	1800.16
266.11	1576.94
266.33	1771.49
266.54	1744.87
266.76	1769.44
266.98	1695.72
267.19	1796.07
267.41	1626.09
267.62	1720.29
267.84	1599.46
268.06	1767.40
268.27	1687.53
268.49	1722.34
268.70	1796.07
268.92	1699.81
269.14	1605.61
269.35	1599.46
269.57	1765.35
269.79	1714.15
270.00	1712.10
270.22	1816.55
270.43	1638.38
270.65	1583.08
270.87	1675.24
271.08	1736.68
271.30	1771.49
271.51	1738.73
271.73	1669.09
271.95	1820.64
272.16	1705.96
272.38	1798.12
272.59	1691.62
272.81	1744.87
273.02	1695.72
273.24	1738.73
273.46	1718.25
273.67	1656.81
273.89	1691.62
274.10	1642.47
274.32	1730.53
274.54	1742.82
274.75	1697.77
274.97	1656.81
275.18	1718.25
275.40	1728.49
275.61	1763.30
275.83	1654.76
276.05	1685.48
276.26	1673.19
276.48	1783.78
276.69	1697.77
276.91	1605.61
277.12	1783.78
277.34	1751.01
277.55	1781.73
277.77	1742.82
277.99	1716.20
278.20	1632.23
278.42	1685.48
278.63	1724.39
278.85	1628.14
279.06	1685.48
279.28	1740.77
279.49	1689.57
279.71	1763.30
279.93	1775.59
280.14	1716.20
280.36	1660.90
280.57	1763.30
280.79	1773.54
281.00	1685.48
281.22	1628.14
281.43	1824.74
281.65	1597.42
281.86	1683.43
282.08	1734.63
282.29	1834.98
282.51	1611.75
282.73	1654.76
282.94	1640.42
283.16	1845.22
283.37	1873.89
283.59	1744.87
283.80	1738.73
284.02	1734.63
284.23	1753.06
284.45	1681.38
284.66	1605.61
284.88	1708.01
285.09	1779.68
285.31	1738.73
285.52	1779.68
285.74	1628.14
285.95	1734.63
286.17	1708.01
286.38	1759.21
286.60	1677.29
286.81	1658.85
287.03	1701.86
287.24	1665.00
287.46	1828.84
287.67	1732.58
287.89	1826.79
288.10	1695.72
288.32	1742.82
288.53	1822.69
288.75	1677.29
288.96	1722.34
289.18	1656.81
289.39	1699.81
289.61	1771.49
289.82	1837.03
290.04	1783.78
290.25	1652.71
290.47	1724.39
290.68	1675.24
290.90	1753.06
291.11	1601.51
291.33	1712.10
291.54	1665.00
291.76	1701.86
291.97	1720.29
292.18	1708.01
292.40	1722.34
292.61	1583.08
292.83	1832.93
293.04	1738.73
293.26	1728.49
293.47	1648.61
293.69	1718.25
293.90	1691.62
294.12	1669.09
294.33	1675.24
294.55	1646.57
294.76	1632.23
294.97	1742.82
295.19	1849.32
295.40	1660.90
295.62	1718.25
295.83	1746.92
296.05	1613.80
296.26	1789.92
296.48	1675.24
296.69	1746.92
296.90	1640.42
297.12	1746.92
297.33	1732.58
297.55	1628.14
297.76	1665.00
297.98	1669.09
298.19	1724.39
298.41	1675.24
298.62	1642.47
298.83	1726.44
299.05	1683.43
299.26	1632.23
299.48	1675.24
299.69	1759.21
299.90	1705.96
300.12	1730.53
300.33	1763.30
300.55	1628.14
300.76	1775.59
300.98	1685.48
301.19	1681.38
301.40	1705.96
301.62	1652.71
301.83	1679.33
302.05	1701.86
302.26	1730.53
302.47	1710.05
302.69	1619.94
302.90	1718.25
303.12	1542.12
303.33	1724.39
303.54	1765.35
303.76	1648.61
303.97	1703.91
304.19	1751.01
304.40	1705.96
304.61	1658.85
304.83	1863.65
305.04	1816.55
305.26	1722.34
305.47	1613.80
305.68	1689.57
305.90	1656.81
306.11	1720.29
306.33	1728.49
306.54	1683.43
306.75	1669.09
306.97	1607.66
307.18	1626.09
307.39	1714.15
307.61	1783.78
307.82	1683.43
308.04	1748.97
308.25	1726.44
308.46	1675.24
308.68	1699.81
308.89	1728.49
309.10	1781.73
309.32	1773.54
309.53	1681.38
309.74	1716.20
309.96	1658.85
310.17	1769.44
310.39	1726.44
310.60	1771.49
310.81	1654.76
311.03	1527.78
311.24	1705.96
311.45	1708.01
311.67	1787.88
311.88	1714.15
312.09	1658.85
312.31	1601.51
312.52	1656.81
312.73	1650.66
312.95	1658.85
313.16	1621.99
313.37	1710.05
313.59	1730.53
313.80	1763.30
314.01	1798.12
314.23	1650.66
314.44	1710.05
314.65	1599.46
314.87	1603.56
315.08	1701.86
315.29	1660.90
315.51	1708.01
315.72	1626.09
315.93	1732.58
316.15	1763.30
316.36	1648.61
316.57	1695.72
316.79	1697.77
317.00	1660.90
317.21	1753.06
317.43	1619.94
317.64	1734.63
317.85	1605.61
318.07	1671.14
318.28	1718.25
318.49	1781.73
318.70	1902.56
318.92	1806.31
319.13	1828.84
319.34	1869.80
319.56	1761.25
319.77	1738.73
319.98	1794.02
320.20	1802.21
320.41	1720.29
320.62	1744.87
320.83	1624.04
321.05	1814.50
321.26	1746.92
321.47	1714.15
321.69	1710.05
321.90	1632.23
322.11	1665.00
322.32	1748.97
322.54	1673.19
322.75	1687.53
322.96	1869.80
323.18	1650.66
323.39	1658.85
323.60	1718.25
323.81	1751.01
324.03	1642.47
324.24	1697.77
324.45	1699.81
324.66	1630.18
324.88	1685.48
325.09	1824.74
325.30	1744.87
325.52	1787.88
325.73	1775.59
325.94	1648.61
326.15	1535.98
326.37	1656.81
326.58	1705.96
326.79	1763.30
327.00	1720.29
327.22	1669.09
327.43	1621.99
327.64	1572.84
327.85	1746.92
328.07	1746.92
328.28	1802.21
328.49	1636.33
328.70	1714.15
328.92	1703.91
329.13	1652.71
329.34	1658.85
329.55	1777.64
329.76	1759.21
329.98	1646.57
330.19	1748.97
330.40	1710.05
330.61	1742.82
330.83	1751.01
331.04	1644.52
331.25	1669.09
331.46	1681.38
331.68	1662.95
331.89	1742.82
332.10	1744.87
332.31	1540.07
332.52	1667.05
332.74	1767.40
332.95	1634.28
333.16	1681.38
333.37	1818.60
333.58	1621.99
333.80	1687.53
334.01	1615.85
334.22	1654.76
334.43	1712.10
334.64	1697.77
334.86	1556.46
335.07	1699.81
335.28	1810.40
335.49	1607.66
335.70	1693.67
335.92	1726.44
336.13	1845.22
336.34	1777.64
336.55	1660.90
336.76	1726.44
336.98	1546.22
337.19	1689.57
337.40	1708.01
337.61	1857.51
337.82	1722.34
338.04	1724.39
338.25	1605.61
338.46	1613.80
338.67	1687.53
338.88	1667.05
339.09	1691.62
339.31	1640.42
339.52	1619.94
339.73	1652.71
339.94	1685.48
340.15	1849.32
340.36	1730.53
340.58	1710.05
340.79	1607.66
341.00	1738.73
341.21	1642.47
341.42	1834.98
341.63	1665.00
341.85	1722.34
342.06	1765.35
342.27	1607.66
342.48	1740.77
342.69	1720.29
342.90	1728.49
343.12	1757.16
343.33	1607.66
343.54	1724.39
343.75	1826.79
343.96	1679.33
344.17	1626.09
344.38	1648.61
344.60	1660.90
344.81	1701.86
345.02	1730.53
345.23	1794.02
345.44	1851.36
345.65	1730.53
345.86	1730.53
346.07	1669.09
346.29	1779.68
346.50	1720.29
346.71	1712.10
346.92	1818.60
347.13	1757.16
347.34	1703.91
347.55	1681.38
347.76	1800.16
347.98	1624.04
348.19	1759.21
348.40	1789.92
348.61	1697.77
348.82	1708.01
349.03	1789.92
349.24	1677.29
349.45	1839.08
349.66	1593.32
349.88	1708.01
350.09	1720.29
350.30	1742.82
350.51	1804.26
350.72	1689.57
350.93	1677.29
351.14	1646.57
351.35	1703.91
351.56	1683.43
351.77	1671.14
351.99	1746.92
352.20	1789.92
352.41	1726.44
352.62	1583.08
352.83	1763.30
353.04	1726.44
353.25	1683.43
353.46	1748.97
353.67	1757.16
353.88	1585.13
354.09	1673.19
354.30	1673.19
354.52	1773.54
354.73	1759.21
354.94	1603.56
355.15	1738.73
355.36	1791.97
355.57	1685.48
355.78	1736.68
355.99	1691.62
356.20	1703.91
356.41	1734.63
356.62	1746.92
356.83	1671.14
357.04	1751.01
357.25	1554.41
357.46	1619.94
357.68	1570.79
357.89	1693.67
358.10	1730.53
358.31	1667.05
358.52	1628.14
358.73	1648.61
358.94	1669.09
359.15	1726.44
359.36	1761.25
359.57	1652.71
359.78	1736.68
359.99	1753.06
360.20	1660.90
360.41	1710.05
360.62	1775.59
360.83	1712.10
361.04	1734.63
361.25	1665.00
361.46	1705.96
361.67	1753.06
361.88	1679.33
362.09	1781.73
362.30	1652.71
362.51	1683.43
362.72	1697.77
362.93	1808.36
363.14	1732.58
363.35	1716.20
363.56	1646.57
363.78	1773.54
363.99	1695.72
364.20	1746.92
364.41	1613.80
364.62	1746.92
364.83	1716.20
365.04	1710.05
365.25	1673.19
365.46	1734.63
365.67	1632.23
365.88	1642.47
366.09	1714.15
366.30	1621.99
366.51	1746.92
366.72	1632.23
366.93	1710.05
367.14	1701.86
367.35	1818.60
367.56	1742.82
367.77	1814.50
367.98	1591.27
368.18	1669.09
368.39	1734.63
368.60	1632.23
368.81	1732.58
369.02	1724.39
369.23	1691.62
369.44	1652.71
369.65	1652.71
369.86	1681.38
370.07	1677.29
370.28	1732.58
370.49	1662.95
370.70	1712.10
370.91	1665.00
371.12	1615.85
371.33	1714.15
371.54	1753.06
371.75	1699.81
371.96	1632.23
372.17	1685.48
372.38	1662.95
372.59	1755.11
372.80	1734.63
373.01	1642.47
373.22	1751.01
373.43	1734.63
373.64	1634.28
373.85	1701.86
374.06	1748.97
374.26	1812.45
374.47	1687.53
374.68	1824.74
374.89	1712.10
375.10	1667.05
375.31	1714.15
375.52	1591.27
375.73	1679.33
375.94	1646.57
376.15	1787.88
376.36	1658.85
376.57	1658.85
376.78	1697.77
376.99	1757.16
377.20	1714.15
377.40	1679.33
377.61	1832.93
377.82	1619.94
378.03	1775.59
378.24	1720.29
378.45	1714.15
378.66	1671.14
378.87	1652.71
379.08	1490.92
379.29	1667.05
379.50	1814.50
379.71	1685.48
379.91	1767.40
380.12	1736.68
380.33	1701.86
380.54	1662.95
380.75	1624.04
380.96	1638.38
381.17	1755.11
381.38	1685.48
381.59	1660.90
381.80	1710.05
382.00	1849.32
382.21	1738.73
382.42	1855.46
382.63	1880.04
382.84	1800.16
383.05	1689.57
383.26	1771.49
383.47	1718.25
383.68	1722.34
383.88	1687.53
384.09	1632.23
384.30	1839.08
384.51	1677.29
384.72	1693.67
384.93	1601.51
385.14	1765.35
385.35	1748.97
385.55	1632.23
385.76	1804.26
385.97	1746.92
386.18	1636.33
386.39	1640.42
386.60	1632.23
386.81	1720.29
387.02	1628.14
387.22	1636.33
387.43	1767.40
387.64	1744.87
387.85	1853.41
388.06	2246.62
388.27	4149.18
388.48	6739.87
388.68	8095.62
388.89	9637.74
389.10	9871.21
389.31	8585.08
389.52	7565.20
389.73	6807.45
389.93	6158.24
390.14	5904.29
390.35	5148.59
390.56	4566.97
390.77	3762.12
390.98	3129.30
391.18	2396.12
391.39	2099.17
391.60	1859.56
391.81	1791.97
392.02	1710.05
392.23	1824.74
392.43	1677.29
392.64	1812.45
392.85	1722.34
393.06	1873.89
393.27	1615.85
393.47	1667.05
393.68	1693.67
393.89	1673.19
394.10	1730.53
394.31	1679.33
394.52	1681.38
394.72	1650.66
394.93	1714.15
395.14	1658.85
395.35	1755.11
395.56	1683.43
395.76	1763.30
395.97	1675.24
396.18	1767.40
396.39	1822.69
396.60	1996.77
396.80	1918.95
397.01	1853.41
397.22	1834.98
397.43	1818.60
397.64	1773.54
397.84	1734.63
398.05	1818.60
398.26	1781.73
398.47	1687.53
398.67	1730.53
398.88	1789.92
399.09	1781.73
399.30	1705.96
399.51	1691.62
399.71	1722.34
399.92	1683.43
400.13	1726.44
400.34	1689.57
400.54	1724.39
400.75	1763.30
400.96	1767.40
401.17	1796.07
401.37	1703.91
401.58	1703.91
401.79	1665.00
402.00	1779.68
402.21	1966.05
402.41	1873.89
402.62	2066.40
402.83	1988.58
403.04	1923.04
403.24	2072.54
403.45	1855.46
403.66	1880.04
403.87	1822.69
404.07	1914.85
404.28	1933.28
404.49	1851.36
404.70	1787.88
404.90	1849.32
405.11	1660.90
405.32	1730.53
405.52	1660.90
405.73	1675.24
405.94	1667.05
406.15	1708.01
406.35	1669.09
406.56	1755.11
406.77	1724.39
406.98	1699.81
407.18	1621.99
407.39	1699.81
407.60	1673.19
407.80	1757.16
408.01	1642.47
408.22	1765.35
408.43	1599.46
408.63	1679.33
408.84	1665.00
409.05	1761.25
409.25	1652.71
409.46	1593.32
409.67	1738.73
409.88	1691.62
410.08	1669.09
410.29	1744.87
410.50	1804.26
410.70	1783.78
410.91	1624.04
411.12	1681.38
411.32	1740.77
411.53	1671.14
411.74	1861.60
411.95	1781.73
412.15	1773.54
412.36	1789.92
412.57	1773.54
412.77	1814.50
412.98	1742.82
413.19	1720.29
413.39	1783.78
413.60	1785.83
413.81	1828.84
414.01	1607.66
414.22	1759.21
414.43	1689.57
414.63	1701.86
414.84	1675.24
415.05	1710.05
415.25	1636.33
415.46	1767.40
415.67	1767.40
415.87	1712.10
416.08	1738.73
416.29	1765.35
416.49	1691.62
416.70	1685.48
416.91	1722.34
417.11	1628.14
417.32	1708.01
417.53	1671.14
417.73	1757.16
417.94	1734.63
418.15	1683.43
418.35	1703.91
418.56	1759.21
418.77	1808.36
418.97	1771.49
419.18	1691.62
419.38	1576.94
419.59	1658.85
419.80	1798.12
420.00	1636.33
420.21	1740.77
420.42	1804.26
420.62	1695.72
420.83	1624.04
421.04	1638.38
421.24	1724.39
421.45	1851.36
421.65	1636.33
421.86	1603.56
422.07	1697.77
422.27	1720.29
422.48	1718.25
422.69	1671.14
422.89	1726.44
423.10	1624.04
423.30	1605.61
423.51	1722.34
423.72	1763.30
423.92	1802.21
424.13	1669.09
424.33	1724.39
424.54	1800.16
424.75	1777.64
424.95	1796.07
425.16	1765.35
425.36	1677.29
425.57	1693.67
425.78	1671.14
425.98	1683.43
426.19	1685.48
426.39	1576.94
426.60	1718.25
426.81	1687.53
427.01	1665.00
427.22	1658.85
427.42	1587.18
427.63	1669.09
427.83	1730.53
428.04	1812.45
428.25	1769.44
428.45	1748.97
428.66	1822.69
428.86	1681.38
429.07	1662.95
429.28	1746.92
429.48	1693.67
429.69	1697.77
429.89	1703.91
430.10	1589.22
430.30	1746.92
430.51	1687.53
430.71	1587.18
430.92	1671.14
431.13	1724.39
431.33	1732.58
431.54	1708.01
431.74	1820.64
431.95	1818.60
432.15	1650.66
432.36	1673.19
432.56	1738.73
432.77	1724.39
432.98	1781.73
433.18	1687.53
433.39	1689.57
433.59	1695.72
433.80	1794.02
434.00	1789.92
434.21	1667.05
434.41	1675.24
434.62	1857.51
434.82	1736.68
435.03	1693.67
435.23	1636.33
435.44	1642.47
435.64	1720.29
435.85	1736.68
436.06	1746.92
436.26	1759.21
436.47	1699.81
436.67	1632.23
436.88	1669.09
437.08	1779.68
437.29	1753.06
437.49	1804.26
437.70	1767.40
437.90	1765.35
438.11	1816.55
438.31	1783.78
438.52	1822.69
438.72	1826.79
438.93	1865.70
439.13	1806.31
439.34	1853.41
439.54	1710.05
439.75	1742.82
439.95	1769.44
440.16	1683.43
440.36	1757.16
440.57	1773.54
440.77	1748.97
440.98	1710.05
441.18	1693.67
441.39	1699.81
441.59	1687.53
441.80	1869.80
442.00	1697.77
442.21	1791.97
442.41	1636.33
442.62	1710.05
442.82	1697.77
443.02	1687.53
443.23	1675.24
443.43	1708.01
443.64	1757.16
443.84	1650.66
444.05	1806.31
444.25	1705.96
444.46	1736.68
444.66	1785.83
444.87	1826.79
445.07	1656.81
445.28	1714.15
445.48	1855.46
445.69	1667.05
445.89	1785.83
446.09	1687.53
446.30	1996.77
446.50	2643.93
446.71	3686.34
446.91	4280.25
447.12	4782.01
447.32	4734.90
447.53	4204.48
447.73	3876.80
447.93	3532.75
448.14	3205.07
448.34	3323.85
448.55	2918.36
448.75	2818.00
448.96	2625.50
449.16	2379.74
449.36	2342.88
449.57	2086.88
449.77	1738.73
449.98	1789.92
450.18	1873.89
450.39	1826.79
450.59	1751.01
450.79	1787.88
451.00	1738.73
451.20	1824.74
451.41	1763.30
451.61	1794.02
451.81	1765.35
452.02	1705.96
452.22	1740.77
452.43	1685.48
452.63	1681.38
