SpectraSuite Data File
++++++++++++++++++++++++++++++++++++
Date: Mon Jun 06 17:19:37 CEST 2016
User: root
Dark Spectrum Present: No
Reference Spectrum Present: No
Number of Sampled Component Spectra: 1
Spectrometers: USB4C02835
Integration Time (usec): 100000 (USB4C02835)
Spectra Averaged: 1 (USB4C02835)
Boxcar Smoothing: 0 (USB4C02835)
Correct for Electrical Dark: No (USB4C02835)
Strobe/Lamp Enabled: No (USB4C02835)
Correct for Detector Non-linearity: No (USB4C02835)
Correct for Stray Light: No (USB4C02835)
Number of Pixels in Processed Spectrum: 3648
>>>>>Begin Processed Spectral Data<<<<<
177.47	1511.40
177.69	1511.40
177.91	1511.40
178.13	1462.25
178.36	1456.11
178.58	1689.57
178.80	1755.11
179.02	1621.99
179.24	1667.05
179.46	1642.47
179.68	1779.68
179.90	1691.62
180.13	1738.73
180.35	1671.14
180.57	1736.68
180.79	1689.57
181.01	1701.86
181.23	1775.59
181.45	1785.83
181.67	1720.29
181.90	1843.17
182.12	1685.48
182.34	1615.85
182.56	1748.97
182.78	1724.39
183.00	1746.92
183.22	1740.77
183.44	1636.33
183.66	1925.09
183.89	1812.45
184.11	1654.76
184.33	1701.86
184.55	1753.06
184.77	1705.96
184.99	1722.34
185.21	1726.44
185.43	1871.84
185.65	1693.67
185.87	1794.02
186.10	1810.40
186.32	1787.88
186.54	1673.19
186.76	1689.57
186.98	1775.59
187.20	1734.63
187.42	1681.38
187.64	1794.02
187.86	1753.06
188.08	1794.02
188.30	1634.28
188.52	1708.01
188.75	1779.68
188.97	1791.97
189.19	1628.14
189.41	1681.38
189.63	1798.12
189.85	1685.48
190.07	1595.37
190.29	1665.00
190.51	1722.34
190.73	1652.71
190.95	1794.02
191.17	1757.16
191.39	1658.85
191.61	1751.01
191.84	1689.57
192.06	1730.53
192.28	1683.43
192.50	1898.47
192.72	1695.72
192.94	1748.97
193.16	1755.11
193.38	1769.44
193.60	1652.71
193.82	1648.61
194.04	1837.03
194.26	1734.63
194.48	1677.29
194.70	1640.42
194.92	1679.33
195.14	1755.11
195.36	1736.68
195.58	1722.34
195.80	1705.96
196.02	1679.33
196.24	1640.42
196.46	1767.40
196.69	1576.94
196.91	1886.18
197.13	1617.90
197.35	1675.24
197.57	1804.26
197.79	1757.16
198.01	1791.97
198.23	1714.15
198.45	1742.82
198.67	1626.09
198.89	1708.01
199.11	1685.48
199.33	1736.68
199.55	1599.46
199.77	1701.86
199.99	1810.40
200.21	1738.73
200.43	1705.96
200.65	1640.42
200.87	1642.47
201.09	1720.29
201.31	1685.48
201.53	1755.11
201.75	1726.44
201.97	1669.09
202.19	1724.39
202.41	1742.82
202.63	1832.93
202.85	1796.07
203.07	1673.19
203.29	1607.66
203.51	1662.95
203.73	1665.00
203.95	1953.76
204.17	1656.81
204.39	1763.30
204.61	1708.01
204.83	1648.61
205.05	1812.45
205.27	1775.59
205.49	1843.17
205.71	1685.48
205.93	1603.56
206.15	1648.61
206.37	1705.96
206.59	1759.21
206.81	1650.66
207.03	1734.63
207.25	1642.47
207.47	1777.64
207.69	1650.66
207.91	1753.06
208.13	1806.31
208.34	1683.43
208.56	1646.57
208.78	1722.34
209.00	1714.15
209.22	1708.01
209.44	1665.00
209.66	1660.90
209.88	1746.92
210.10	1708.01
210.32	1710.05
210.54	1796.07
210.76	1710.05
210.98	1812.45
211.20	1613.80
211.42	1730.53
211.64	1714.15
211.86	1669.09
212.08	1779.68
212.30	1705.96
212.52	1753.06
212.74	1785.83
212.96	1742.82
213.17	1783.78
213.39	1765.35
213.61	1816.55
213.83	1730.53
214.05	1685.48
214.27	1785.83
214.49	1599.46
214.71	1685.48
214.93	1742.82
215.15	1677.29
215.37	1798.12
215.59	1648.61
215.81	1738.73
216.03	1775.59
216.24	1751.01
216.46	1673.19
216.68	1753.06
216.90	1728.49
217.12	1708.01
217.34	1730.53
217.56	1785.83
217.78	1744.87
218.00	1714.15
218.22	1730.53
218.44	1769.44
218.66	1738.73
218.87	1800.16
219.09	1687.53
219.31	1671.14
219.53	1730.53
219.75	1662.95
219.97	1720.29
220.19	1744.87
220.41	1726.44
220.63	1748.97
220.85	1746.92
221.06	1761.25
221.28	1791.97
221.50	1738.73
221.72	1738.73
221.94	1722.34
222.16	1699.81
222.38	1765.35
222.60	1755.11
222.82	1642.47
223.03	1685.48
223.25	1609.70
223.47	1808.36
223.69	1806.31
223.91	1789.92
224.13	1689.57
224.35	1714.15
224.57	1779.68
224.78	1738.73
225.00	1675.24
225.22	1732.58
225.44	1710.05
225.66	1822.69
225.88	1636.33
226.10	1753.06
226.32	1660.90
226.53	1748.97
226.75	1714.15
226.97	1671.14
227.19	1742.82
227.41	1708.01
227.63	1740.77
227.85	1654.76
228.06	1710.05
228.28	1730.53
228.50	1791.97
228.72	1611.75
228.94	1763.30
229.16	1613.80
229.37	1624.04
229.59	1640.42
229.81	1789.92
230.03	1699.81
230.25	1652.71
230.47	1677.29
230.69	1648.61
230.90	1781.73
231.12	1748.97
231.34	1710.05
231.56	1804.26
231.78	1667.05
232.00	1781.73
232.21	1781.73
232.43	1703.91
232.65	1599.46
232.87	1824.74
233.09	1697.77
233.30	1667.05
233.52	1814.50
233.74	1683.43
233.96	1630.18
234.18	1718.25
234.40	1767.40
234.61	1734.63
234.83	1595.37
235.05	1603.56
235.27	1869.80
235.49	1783.78
235.70	1722.34
235.92	1759.21
236.14	1759.21
236.36	1845.22
236.58	1607.66
236.79	1734.63
237.01	1673.19
237.23	1660.90
237.45	1843.17
237.67	1548.26
237.88	1746.92
238.10	1718.25
238.32	1679.33
238.54	1718.25
238.76	1687.53
238.97	1675.24
239.19	1720.29
239.41	1763.30
239.63	1755.11
239.85	1675.24
240.06	1667.05
240.28	1638.38
240.50	1736.68
240.72	1703.91
240.93	1685.48
241.15	1673.19
241.37	1751.01
241.59	1861.60
241.81	1677.29
242.02	1691.62
242.24	1763.30
242.46	1703.91
242.68	1683.43
242.89	1667.05
243.11	1748.97
243.33	1689.57
243.55	1701.86
243.76	1712.10
243.98	1658.85
244.20	1703.91
244.42	1726.44
244.64	1740.77
244.85	1619.94
245.07	1636.33
245.29	1728.49
245.51	1654.76
245.72	1673.19
245.94	1814.50
246.16	1693.67
246.38	1755.11
246.59	1683.43
246.81	1669.09
247.03	1650.66
247.24	1648.61
247.46	1732.58
247.68	1714.15
247.90	1689.57
248.11	1632.23
248.33	1751.01
248.55	1703.91
248.77	1710.05
248.98	1777.64
249.20	1851.36
249.42	1730.53
249.64	1736.68
249.85	1734.63
250.07	1716.20
250.29	1777.64
250.50	1710.05
250.72	1613.80
250.94	1611.75
251.16	1886.18
251.37	1761.25
251.59	1751.01
251.81	1642.47
252.02	1847.27
252.24	1730.53
252.46	1773.54
252.68	1660.90
252.89	1669.09
253.11	1601.51
253.33	1845.22
253.54	1857.51
253.76	1697.77
253.98	1705.96
254.20	1714.15
254.41	1587.18
254.63	1699.81
254.85	1560.55
255.06	1763.30
255.28	1722.34
255.50	1689.57
255.71	1746.92
255.93	1621.99
256.15	1703.91
256.36	1804.26
256.58	1689.57
256.80	1804.26
257.02	1701.86
257.23	1662.95
257.45	1695.72
257.67	1761.25
257.88	1648.61
258.10	1759.21
258.32	1687.53
258.53	1681.38
258.75	1759.21
258.97	1695.72
259.18	1720.29
259.40	1695.72
259.62	1810.40
259.83	1816.55
260.05	1742.82
260.27	2025.44
260.48	1710.05
260.70	1705.96
260.92	1703.91
261.13	1724.39
261.35	1724.39
261.57	1802.21
261.78	1681.38
262.00	1654.76
262.22	1767.40
262.43	1665.00
262.65	1644.52
262.86	1669.09
263.08	1824.74
263.30	1701.86
263.51	1636.33
263.73	1677.29
263.95	1845.22
264.16	1734.63
264.38	1640.42
264.60	1832.93
264.81	1726.44
265.03	1744.87
265.25	1673.19
265.46	1648.61
265.68	1812.45
265.89	1722.34
266.11	1601.51
266.33	1794.02
266.54	1757.16
266.76	1800.16
266.98	1679.33
267.19	1794.02
267.41	1779.68
267.62	1705.96
267.84	1628.14
268.06	1708.01
268.27	1687.53
268.49	1781.73
268.70	1703.91
268.92	1736.68
269.14	1638.38
269.35	1632.23
269.57	1736.68
269.79	1722.34
270.00	1654.76
270.22	1814.50
270.43	1658.85
270.65	1564.65
270.87	1705.96
271.08	1720.29
271.30	1789.92
271.51	1667.05
271.73	1701.86
271.95	1789.92
272.16	1736.68
272.38	1697.77
272.59	1716.20
272.81	1732.58
273.02	1759.21
273.24	1734.63
273.46	1714.15
273.67	1687.53
273.89	1642.47
274.10	1656.81
274.32	1763.30
274.54	1667.05
274.75	1779.68
274.97	1753.06
275.18	1787.88
275.40	1820.64
275.61	1691.62
275.83	1736.68
276.05	1671.14
276.26	1755.11
276.48	1708.01
276.69	1624.04
276.91	1736.68
277.12	1804.26
277.34	1767.40
277.55	1771.49
277.77	1689.57
277.99	1626.09
278.20	1703.91
278.42	1640.42
278.63	1652.71
278.85	1689.57
279.06	1675.24
279.28	1736.68
279.49	1734.63
279.71	1738.73
279.93	1669.09
280.14	1726.44
280.36	1597.42
280.57	1781.73
280.79	1736.68
281.00	1656.81
281.22	1683.43
281.43	1755.11
281.65	1611.75
281.86	1607.66
282.08	1691.62
282.29	1875.94
282.51	1654.76
282.73	1654.76
282.94	1626.09
283.16	1757.16
283.37	1822.69
283.59	1746.92
283.80	1710.05
284.02	1697.77
284.23	1689.57
284.45	1701.86
284.66	1667.05
284.88	1628.14
285.09	1759.21
285.31	1777.64
285.52	1730.53
285.74	1705.96
285.95	1732.58
286.17	1740.77
286.38	1675.24
286.60	1755.11
286.81	1697.77
287.03	1710.05
287.24	1796.07
287.46	1769.44
287.67	1742.82
287.89	1828.84
288.10	1675.24
288.32	1744.87
288.53	1806.31
288.75	1738.73
288.96	1728.49
289.18	1681.38
289.39	1642.47
289.61	1771.49
289.82	1845.22
290.04	1912.80
290.25	1693.67
290.47	1665.00
290.68	1708.01
290.90	1832.93
291.11	1628.14
291.33	1685.48
291.54	1636.33
291.76	1669.09
291.97	1685.48
292.18	1734.63
292.40	1730.53
292.61	1669.09
292.83	1820.64
293.04	1757.16
293.26	1753.06
293.47	1755.11
293.69	1701.86
293.90	1693.67
294.12	1718.25
294.33	1738.73
294.55	1691.62
294.76	1800.16
294.97	1834.98
295.19	1796.07
295.40	1660.90
295.62	1751.01
295.83	1755.11
296.05	1728.49
296.26	1757.16
296.48	1642.47
296.69	1658.85
296.90	1671.14
297.12	1800.16
297.33	1804.26
297.55	1734.63
297.76	1708.01
297.98	1701.86
298.19	1746.92
298.41	1742.82
298.62	1695.72
298.83	1804.26
299.05	1683.43
299.26	1726.44
299.48	1744.87
299.69	1767.40
299.90	1744.87
300.12	1665.00
300.33	1728.49
300.55	1789.92
300.76	1722.34
300.98	1683.43
301.19	1783.78
301.40	1748.97
301.62	1775.59
301.83	1708.01
302.05	1662.95
302.26	1621.99
302.47	1755.11
302.69	1665.00
302.90	1603.56
303.12	1574.89
303.33	1693.67
303.54	1746.92
303.76	1632.23
303.97	1705.96
304.19	1748.97
304.40	1708.01
304.61	1734.63
304.83	1861.60
305.04	1757.16
305.26	1712.10
305.47	1675.24
305.68	1746.92
305.90	1624.04
306.11	1802.21
306.33	1695.72
306.54	1736.68
306.75	1654.76
306.97	1562.60
307.18	1693.67
307.39	1701.86
307.61	1677.29
307.82	1726.44
308.04	1728.49
308.25	1687.53
308.46	1699.81
308.68	1761.25
308.89	1693.67
309.10	1767.40
309.32	1736.68
309.53	1648.61
309.74	1753.06
309.96	1667.05
310.17	1785.83
310.39	1687.53
310.60	1791.97
310.81	1728.49
311.03	1689.57
311.24	1748.97
311.45	1689.57
311.67	1824.74
311.88	1755.11
312.09	1777.64
312.31	1658.85
312.52	1697.77
312.73	1726.44
312.95	1578.98
313.16	1619.94
313.37	1837.03
313.59	1734.63
313.80	1822.69
314.01	1791.97
314.23	1632.23
314.44	1646.57
314.65	1718.25
314.87	1609.70
315.08	1726.44
315.29	1687.53
315.51	1742.82
315.72	1619.94
315.93	1730.53
316.15	1877.99
316.36	1673.19
316.57	1736.68
316.79	1705.96
317.00	1705.96
317.21	1675.24
317.43	1691.62
317.64	1753.06
317.85	1736.68
318.07	1683.43
318.28	1712.10
318.49	1748.97
318.70	1912.80
318.92	1751.01
319.13	1783.78
319.34	1939.43
319.56	1863.65
319.77	1789.92
319.98	1710.05
320.20	1779.68
320.41	1728.49
320.62	1753.06
320.83	1619.94
321.05	1849.32
321.26	1701.86
321.47	1683.43
321.69	1798.12
321.90	1595.37
322.11	1746.92
322.32	1771.49
322.54	1828.84
322.75	1722.34
322.96	1894.37
323.18	1613.80
323.39	1562.60
323.60	1685.48
323.81	1802.21
324.03	1665.00
324.24	1681.38
324.45	1673.19
324.66	1669.09
324.88	1865.70
325.09	1726.44
325.30	1673.19
325.52	1734.63
325.73	1779.68
325.94	1642.47
326.15	1665.00
326.37	1675.24
326.58	1691.62
326.79	1753.06
327.00	1671.14
327.22	1744.87
327.43	1662.95
327.64	1636.33
327.85	1740.77
328.07	1714.15
328.28	1837.03
328.49	1714.15
328.70	1675.24
328.92	1689.57
329.13	1652.71
329.34	1730.53
329.55	1877.99
329.76	1826.79
329.98	1693.67
330.19	1775.59
330.40	1722.34
330.61	1746.92
330.83	1728.49
331.04	1640.42
331.25	1718.25
331.46	1701.86
331.68	1677.29
331.89	1755.11
332.10	1626.09
332.31	1587.18
332.52	1773.54
332.74	1812.45
332.95	1626.09
333.16	1810.40
333.37	1722.34
333.58	1638.38
333.80	1665.00
334.01	1615.85
334.22	1736.68
334.43	1681.38
334.64	1705.96
334.86	1585.13
335.07	1617.90
335.28	1765.35
335.49	1605.61
335.70	1660.90
335.92	1771.49
336.13	1832.93
336.34	1708.01
336.55	1724.39
336.76	1699.81
336.98	1605.61
337.19	1703.91
337.40	1759.21
337.61	1822.69
337.82	1712.10
338.04	1744.87
338.25	1667.05
338.46	1693.67
338.67	1742.82
338.88	1638.38
339.09	1685.48
339.31	1677.29
339.52	1734.63
339.73	1589.22
339.94	1712.10
340.15	1787.88
340.36	1699.81
340.58	1718.25
340.79	1673.19
341.00	1687.53
341.21	1679.33
341.42	1812.45
341.63	1708.01
341.85	1759.21
342.06	1705.96
342.27	1671.14
342.48	1769.44
342.69	1638.38
342.90	1695.72
343.12	1740.77
343.33	1712.10
343.54	1746.92
343.75	1732.58
343.96	1710.05
344.17	1658.85
344.38	1691.62
344.60	1689.57
344.81	1611.75
345.02	1705.96
345.23	1712.10
345.44	1820.64
345.65	1759.21
345.86	1718.25
346.07	1677.29
346.29	1722.34
346.50	1740.77
346.71	1781.73
346.92	1812.45
347.13	1847.27
347.34	1644.52
347.55	1740.77
347.76	1759.21
347.98	1617.90
348.19	1714.15
348.40	1787.88
348.61	1695.72
348.82	1785.83
349.03	1748.97
349.24	1658.85
349.45	1791.97
349.66	1634.28
349.88	1777.64
350.09	1662.95
350.30	1804.26
350.51	1771.49
350.72	1691.62
350.93	1708.01
351.14	1613.80
351.35	1751.01
351.56	1708.01
351.77	1763.30
351.99	1740.77
352.20	1812.45
352.41	1794.02
352.62	1632.23
352.83	1632.23
353.04	1748.97
353.25	1679.33
353.46	1800.16
353.67	1755.11
353.88	1611.75
354.09	1705.96
354.30	1740.77
354.52	1757.16
354.73	1722.34
354.94	1718.25
355.15	1759.21
355.36	1814.50
355.57	1724.39
355.78	1734.63
355.99	1687.53
356.20	1671.14
356.41	1773.54
356.62	1724.39
356.83	1699.81
357.04	1759.21
357.25	1636.33
357.46	1736.68
357.68	1628.14
357.89	1636.33
358.10	1759.21
358.31	1685.48
358.52	1714.15
358.73	1626.09
358.94	1677.29
359.15	1656.81
359.36	1781.73
359.57	1675.24
359.78	1687.53
359.99	1785.83
360.20	1533.93
360.41	1644.52
360.62	1753.06
360.83	1775.59
361.04	1738.73
361.25	1755.11
361.46	1753.06
361.67	1705.96
361.88	1783.78
362.09	1808.36
362.30	1761.25
362.51	1736.68
362.72	1644.52
362.93	1755.11
363.14	1734.63
363.35	1781.73
363.56	1642.47
363.78	1771.49
363.99	1761.25
364.20	1699.81
364.41	1691.62
364.62	1929.19
364.83	1746.92
365.04	1748.97
365.25	1738.73
365.46	1861.60
365.67	1675.24
365.88	1632.23
366.09	1626.09
366.30	1578.98
366.51	1677.29
366.72	1621.99
366.93	1691.62
367.14	1703.91
367.35	1751.01
367.56	1724.39
367.77	1746.92
367.98	1738.73
368.18	1708.01
368.39	1775.59
368.60	1708.01
368.81	1683.43
369.02	1677.29
369.23	1652.71
369.44	1638.38
369.65	1677.29
369.86	1699.81
370.07	1771.49
370.28	1652.71
370.49	1701.86
370.70	1718.25
370.91	1638.38
371.12	1673.19
371.33	1824.74
371.54	1712.10
371.75	1761.25
371.96	1570.79
372.17	1730.53
372.38	1712.10
372.59	1755.11
372.80	1695.72
373.01	1738.73
373.22	1687.53
373.43	1730.53
373.64	1705.96
373.85	1740.77
374.06	1861.60
374.26	1796.07
374.47	1705.96
374.68	1730.53
374.89	1724.39
375.10	1697.77
375.31	1812.45
375.52	1775.59
375.73	1742.82
375.94	1665.00
376.15	1779.68
376.36	1660.90
376.57	1779.68
376.78	1761.25
376.99	1708.01
377.20	1800.16
377.40	1673.19
377.61	1796.07
377.82	1648.61
378.03	1824.74
378.24	1765.35
378.45	1759.21
378.66	1720.29
378.87	1642.47
379.08	1640.42
379.29	1697.77
379.50	1802.21
379.71	1734.63
379.91	1787.88
380.12	1730.53
380.33	1689.57
380.54	1675.24
380.75	1693.67
380.96	1734.63
381.17	1816.55
381.38	1699.81
381.59	1742.82
381.80	1796.07
382.00	1871.84
382.21	1746.92
382.42	1791.97
382.63	1851.36
382.84	1681.38
383.05	1796.07
383.26	1744.87
383.47	1800.16
383.68	1736.68
383.88	1802.21
384.09	1640.42
384.30	1783.78
384.51	1738.73
384.72	1687.53
384.93	1658.85
385.14	1695.72
385.35	1861.60
385.55	1632.23
385.76	1730.53
385.97	1683.43
386.18	1624.04
386.39	1687.53
386.60	1669.09
386.81	1693.67
387.02	1683.43
387.22	1656.81
387.43	1796.07
387.64	1787.88
387.85	1877.99
388.06	2220.00
388.27	4239.30
388.48	6764.44
388.68	8255.36
388.89	9680.75
389.10	9813.87
389.31	8664.96
389.52	7640.97
389.73	6817.69
389.93	6268.83
390.14	5851.05
390.35	5126.07
390.56	4747.19
390.77	3758.02
390.98	3067.86
391.18	2521.05
391.39	1994.72
391.60	1847.27
391.81	1898.47
392.02	1722.34
392.23	1861.60
392.43	1710.05
392.64	1777.64
392.85	1742.82
393.06	1857.51
393.27	1679.33
393.47	1689.57
393.68	1681.38
393.89	1734.63
394.10	1738.73
394.31	1681.38
394.52	1705.96
394.72	1615.85
394.93	1832.93
395.14	1654.76
395.35	1742.82
395.56	1667.05
395.76	1781.73
395.97	1800.16
396.18	1808.36
396.39	1865.70
396.60	2101.22
396.80	1906.66
397.01	1822.69
397.22	1818.60
397.43	1845.22
397.64	1785.83
397.84	1701.86
398.05	1855.46
398.26	1705.96
398.47	1888.23
398.67	1806.31
398.88	1763.30
399.09	1714.15
399.30	1714.15
399.51	1689.57
399.71	1708.01
399.92	1785.83
400.13	1712.10
400.34	1763.30
400.54	1732.58
400.75	1828.84
400.96	1695.72
401.17	1779.68
401.37	1726.44
401.58	1740.77
401.79	1701.86
402.00	1902.56
402.21	1994.72
402.41	1931.23
402.62	2035.68
402.83	2013.15
403.04	2011.11
403.24	2072.54
403.45	1945.57
403.66	1951.71
403.87	1898.47
404.07	1892.32
404.28	1886.18
404.49	1951.71
404.70	1828.84
404.90	1757.16
405.11	1722.34
405.32	1771.49
405.52	1701.86
405.73	1650.66
405.94	1714.15
406.15	1671.14
406.35	1726.44
406.56	1687.53
406.77	1777.64
406.98	1701.86
407.18	1710.05
407.39	1912.80
407.60	1701.86
407.80	1726.44
408.01	1681.38
408.22	1724.39
408.43	1671.14
408.63	1759.21
408.84	1738.73
409.05	1740.77
409.25	1705.96
409.46	1683.43
409.67	1681.38
409.88	1708.01
410.08	1767.40
410.29	1724.39
410.50	1718.25
410.70	1716.20
410.91	1683.43
411.12	1685.48
411.32	1740.77
411.53	1697.77
411.74	1779.68
411.95	1812.45
412.15	1697.77
412.36	1832.93
412.57	1734.63
412.77	1761.25
412.98	1728.49
413.19	1736.68
413.39	1857.51
413.60	1810.40
413.81	1748.97
414.01	1697.77
414.22	1677.29
414.43	1755.11
414.63	1652.71
414.84	1787.88
415.05	1697.77
415.25	1624.04
415.46	1687.53
415.67	1742.82
415.87	1685.48
416.08	1714.15
416.29	1708.01
416.49	1689.57
416.70	1656.81
416.91	1656.81
417.11	1691.62
417.32	1783.78
417.53	1730.53
417.73	1708.01
417.94	1640.42
418.15	1638.38
418.35	1691.62
418.56	1689.57
418.77	1882.08
418.97	1728.49
419.18	1671.14
419.38	1638.38
419.59	1679.33
419.80	1755.11
420.00	1718.25
420.21	1765.35
420.42	1789.92
420.62	1789.92
420.83	1578.98
421.04	1744.87
421.24	1685.48
421.45	1812.45
421.65	1679.33
421.86	1742.82
422.07	1748.97
422.27	1751.01
422.48	1722.34
422.69	1632.23
422.89	1742.82
423.10	1722.34
423.30	1638.38
423.51	1744.87
423.72	1757.16
423.92	1804.26
424.13	1617.90
424.33	1693.67
424.54	1701.86
424.75	1742.82
424.95	1845.22
425.16	1726.44
425.36	1730.53
425.57	1724.39
425.78	1810.40
425.98	1794.02
426.19	1732.58
426.39	1667.05
426.60	1720.29
426.81	1763.30
427.01	1730.53
427.22	1708.01
427.42	1675.24
427.63	1654.76
427.83	1710.05
428.04	1820.64
428.25	1796.07
428.45	1761.25
428.66	1636.33
428.86	1683.43
429.07	1718.25
429.28	1726.44
429.48	1789.92
429.69	1679.33
429.89	1765.35
430.10	1662.95
430.30	1720.29
430.51	1771.49
430.71	1705.96
430.92	1742.82
431.13	1675.24
431.33	1722.34
431.54	1679.33
431.74	1853.41
431.95	1908.71
432.15	1632.23
432.36	1675.24
432.56	1759.21
432.77	1892.32
432.98	1804.26
433.18	1761.25
433.39	1648.61
433.59	1687.53
433.80	1800.16
434.00	1947.62
434.21	1697.77
434.41	1662.95
434.62	1873.89
434.82	1652.71
435.03	1654.76
435.23	1765.35
435.44	1697.77
435.64	1761.25
435.85	1718.25
436.06	1753.06
436.26	1820.64
436.47	1701.86
436.67	1738.73
436.88	1697.77
437.08	1708.01
437.29	1765.35
437.49	1783.78
437.70	1755.11
437.90	1775.59
438.11	1810.40
438.31	1789.92
438.52	1841.12
438.72	1875.94
438.93	1847.27
439.13	1718.25
439.34	1779.68
439.54	1802.21
439.75	1746.92
439.95	1880.04
440.16	1687.53
440.36	1746.92
440.57	1798.12
440.77	1806.31
440.98	1699.81
441.18	1796.07
441.39	1695.72
441.59	1593.32
441.80	1798.12
442.00	1732.58
442.21	1853.41
442.41	1660.90
442.62	1804.26
442.82	1718.25
443.02	1748.97
443.23	1783.78
443.43	1703.91
443.64	1816.55
443.84	1667.05
444.05	1812.45
444.25	1716.20
444.46	1724.39
444.66	1847.27
444.87	1837.03
445.07	1642.47
445.28	1746.92
445.48	1787.88
445.69	1849.32
445.89	1812.45
446.09	1718.25
446.30	1980.39
446.50	2697.17
446.71	3698.63
446.91	4337.60
447.12	4851.64
447.32	4771.77
447.53	4349.89
447.73	3966.92
447.93	3567.56
448.14	3389.39
448.34	3203.02
448.55	2996.18
448.75	2760.66
448.96	2658.26
449.16	2396.12
449.36	2199.52
449.57	2037.73
449.77	1894.37
449.98	1736.68
450.18	1824.74
450.39	1822.69
450.59	1773.54
450.79	1738.73
451.00	1677.29
451.20	1818.60
451.41	1734.63
451.61	1834.98
451.81	1716.20
452.02	1779.68
452.22	1800.16
452.43	1720.29
452.63	1703.91
