SpectraSuite Data File
++++++++++++++++++++++++++++++++++++
Date: Mon Jun 06 12:28:17 CEST 2016
User: root
Dark Spectrum Present: No
Reference Spectrum Present: No
Number of Sampled Component Spectra: 1
Spectrometers: USB4C02835
Integration Time (usec): 100000 (USB4C02835)
Spectra Averaged: 1 (USB4C02835)
Boxcar Smoothing: 0 (USB4C02835)
Correct for Electrical Dark: No (USB4C02835)
Strobe/Lamp Enabled: No (USB4C02835)
Correct for Detector Non-linearity: No (USB4C02835)
Correct for Stray Light: No (USB4C02835)
Number of Pixels in Processed Spectrum: 3648
>>>>>Begin Processed Spectral Data<<<<<
177.47	1462.25
177.69	1462.25
177.91	1462.25
178.13	1552.36
178.36	1425.39
178.58	1568.74
178.80	1761.25
179.02	1619.94
179.24	1617.90
179.46	1624.04
179.68	1755.11
179.90	1720.29
180.13	1673.19
180.35	1699.81
180.57	1712.10
180.79	1714.15
181.01	1634.28
181.23	1724.39
181.45	1816.55
181.67	1687.53
181.90	1783.78
182.12	1683.43
182.34	1605.61
182.56	1710.05
182.78	1695.72
183.00	1722.34
183.22	1740.77
183.44	1617.90
183.66	1884.13
183.89	1812.45
184.11	1742.82
184.33	1742.82
184.55	1779.68
184.77	1724.39
184.99	1699.81
185.21	1671.14
185.43	1886.18
185.65	1673.19
185.87	1665.00
186.10	1740.77
186.32	1834.98
186.54	1746.92
186.76	1732.58
186.98	1685.48
187.20	1695.72
187.42	1708.01
187.64	1669.09
187.86	1669.09
188.08	1751.01
188.30	1675.24
188.52	1697.77
188.75	1724.39
188.97	1757.16
189.19	1650.66
189.41	1671.14
189.63	1724.39
189.85	1765.35
190.07	1599.46
190.29	1587.18
190.51	1677.29
190.73	1611.75
190.95	1720.29
191.17	1710.05
191.39	1722.34
191.61	1630.18
191.84	1636.33
192.06	1654.76
192.28	1619.94
192.50	1976.29
192.72	1742.82
192.94	1689.57
193.16	1804.26
193.38	1652.71
193.60	1615.85
193.82	1703.91
194.04	1783.78
194.26	1757.16
194.48	1734.63
194.70	1656.81
194.92	1646.57
195.14	1775.59
195.36	1681.38
195.58	1720.29
195.80	1621.99
196.02	1626.09
196.24	1693.67
196.46	1667.05
196.69	1603.56
196.91	1820.64
197.13	1759.21
197.35	1685.48
197.57	1828.84
197.79	1693.67
198.01	1665.00
198.23	1683.43
198.45	1630.18
198.67	1638.38
198.89	1628.14
199.11	1677.29
199.33	1554.41
199.55	1564.65
199.77	1730.53
199.99	1710.05
200.21	1726.44
200.43	1662.95
200.65	1564.65
200.87	1572.84
201.09	1710.05
201.31	1753.06
201.53	1771.49
201.75	1667.05
201.97	1783.78
202.19	1695.72
202.41	1658.85
202.63	1824.74
202.85	1658.85
203.07	1699.81
203.29	1681.38
203.51	1677.29
203.73	1619.94
203.95	1904.61
204.17	1630.18
204.39	1744.87
204.61	1650.66
204.83	1710.05
205.05	1769.44
205.27	1734.63
205.49	1832.93
205.71	1626.09
205.93	1570.79
206.15	1626.09
206.37	1738.73
206.59	1697.77
206.81	1632.23
207.03	1699.81
207.25	1613.80
207.47	1796.07
207.69	1728.49
207.91	1798.12
208.13	1796.07
208.34	1644.52
208.56	1683.43
208.78	1677.29
209.00	1748.97
209.22	1667.05
209.44	1773.54
209.66	1701.86
209.88	1710.05
210.10	1685.48
210.32	1611.75
210.54	1779.68
210.76	1665.00
210.98	1794.02
211.20	1578.98
211.42	1720.29
211.64	1726.44
211.86	1730.53
212.08	1816.55
212.30	1703.91
212.52	1656.81
212.74	1685.48
212.96	1656.81
213.17	1701.86
213.39	1691.62
213.61	1753.06
213.83	1701.86
214.05	1597.42
214.27	1734.63
214.49	1613.80
214.71	1644.52
214.93	1808.36
215.15	1628.14
215.37	1814.50
215.59	1632.23
215.81	1763.30
216.03	1828.84
216.24	1755.11
216.46	1703.91
216.68	1734.63
216.90	1789.92
217.12	1718.25
217.34	1697.77
217.56	1691.62
217.78	1744.87
218.00	1656.81
218.22	1689.57
218.44	1748.97
218.66	1691.62
218.87	1746.92
219.09	1626.09
219.31	1736.68
219.53	1720.29
219.75	1660.90
219.97	1658.85
220.19	1738.73
220.41	1679.33
220.63	1806.31
220.85	1685.48
221.06	1628.14
221.28	1796.07
221.50	1785.83
221.72	1736.68
221.94	1669.09
222.16	1605.61
222.38	1781.73
222.60	1738.73
222.82	1665.00
223.03	1761.25
223.25	1632.23
223.47	1712.10
223.69	1785.83
223.91	1683.43
224.13	1701.86
224.35	1708.01
224.57	1757.16
224.78	1718.25
225.00	1673.19
225.22	1640.42
225.44	1626.09
225.66	1687.53
225.88	1648.61
226.10	1724.39
226.32	1718.25
226.53	1746.92
226.75	1710.05
226.97	1593.32
227.19	1605.61
227.41	1689.57
227.63	1689.57
227.85	1632.23
228.06	1751.01
228.28	1675.24
228.50	1687.53
228.72	1658.85
228.94	1726.44
229.16	1603.56
229.37	1626.09
229.59	1615.85
229.81	1775.59
230.03	1714.15
230.25	1601.51
230.47	1658.85
230.69	1640.42
230.90	1740.77
231.12	1669.09
231.34	1728.49
231.56	1761.25
231.78	1656.81
232.00	1687.53
232.21	1675.24
232.43	1677.29
232.65	1572.84
232.87	1740.77
233.09	1615.85
233.30	1628.14
233.52	1779.68
233.74	1693.67
233.96	1644.52
234.18	1671.14
234.40	1687.53
234.61	1849.32
234.83	1611.75
235.05	1671.14
235.27	1845.22
235.49	1886.18
235.70	1751.01
235.92	1753.06
236.14	1642.47
236.36	1849.32
236.58	1628.14
236.79	1777.64
237.01	1716.20
237.23	1718.25
237.45	1845.22
237.67	1628.14
237.88	1703.91
238.10	1761.25
238.32	1662.95
238.54	1685.48
238.76	1703.91
238.97	1667.05
239.19	1679.33
239.41	1728.49
239.63	1765.35
239.85	1687.53
240.06	1736.68
240.28	1652.71
240.50	1708.01
240.72	1656.81
240.93	1705.96
241.15	1806.31
241.37	1687.53
241.59	1718.25
241.81	1646.57
242.02	1644.52
242.24	1656.81
242.46	1773.54
242.68	1669.09
242.89	1693.67
243.11	1753.06
243.33	1699.81
243.55	1759.21
243.76	1755.11
243.98	1703.91
244.20	1773.54
244.42	1650.66
244.64	1728.49
244.85	1677.29
245.07	1617.90
245.29	1648.61
245.51	1660.90
245.72	1679.33
245.94	1722.34
246.16	1712.10
246.38	1671.14
246.59	1572.84
246.81	1710.05
247.03	1656.81
247.24	1689.57
247.46	1648.61
247.68	1693.67
247.90	1648.61
248.11	1671.14
248.33	1712.10
248.55	1693.67
248.77	1712.10
248.98	1726.44
249.20	1722.34
249.42	1703.91
249.64	1736.68
249.85	1693.67
250.07	1656.81
250.29	1736.68
250.50	1796.07
250.72	1667.05
250.94	1730.53
251.16	1716.20
251.37	1765.35
251.59	1611.75
251.81	1646.57
252.02	1802.21
252.24	1568.74
252.46	1832.93
252.68	1673.19
252.89	1578.98
253.11	1650.66
253.33	1871.84
253.54	1757.16
253.76	1640.42
253.98	1724.39
254.20	1644.52
254.41	1638.38
254.63	1656.81
254.85	1683.43
255.06	1632.23
255.28	1667.05
255.50	1687.53
255.71	1648.61
255.93	1662.95
256.15	1644.52
256.36	1751.01
256.58	1673.19
256.80	1689.57
257.02	1703.91
257.23	1656.81
257.45	1611.75
257.67	1632.23
257.88	1652.71
258.10	1812.45
258.32	1697.77
258.53	1708.01
258.75	1769.44
258.97	1662.95
259.18	1619.94
259.40	1742.82
259.62	1779.68
259.83	1783.78
260.05	1697.77
260.27	1996.77
260.48	1759.21
260.70	1603.56
260.92	1662.95
261.13	1710.05
261.35	1662.95
261.57	1679.33
261.78	1597.42
262.00	1630.18
262.22	1712.10
262.43	1652.71
262.65	1638.38
262.86	1716.20
263.08	1794.02
263.30	1716.20
263.51	1554.41
263.73	1689.57
263.95	1755.11
264.16	1705.96
264.38	1632.23
264.60	1693.67
264.81	1675.24
265.03	1748.97
265.25	1628.14
265.46	1732.58
265.68	1812.45
265.89	1722.34
266.11	1632.23
266.33	1673.19
266.54	1765.35
266.76	1773.54
266.98	1730.53
267.19	1761.25
267.41	1734.63
267.62	1665.00
267.84	1585.13
268.06	1705.96
268.27	1656.81
268.49	1738.73
268.70	1755.11
268.92	1699.81
269.14	1691.62
269.35	1617.90
269.57	1734.63
269.79	1779.68
270.00	1691.62
270.22	1748.97
270.43	1642.47
270.65	1533.93
270.87	1720.29
271.08	1761.25
271.30	1671.14
271.51	1738.73
271.73	1734.63
271.95	1746.92
272.16	1740.77
272.38	1722.34
272.59	1648.61
272.81	1767.40
273.02	1710.05
273.24	1751.01
273.46	1785.83
273.67	1632.23
273.89	1632.23
274.10	1656.81
274.32	1751.01
274.54	1656.81
274.75	1718.25
274.97	1640.42
275.18	1708.01
275.40	1697.77
275.61	1740.77
275.83	1724.39
276.05	1638.38
276.26	1632.23
276.48	1720.29
276.69	1665.00
276.91	1685.48
277.12	1779.68
277.34	1785.83
277.55	1705.96
277.77	1642.47
277.99	1613.80
278.20	1597.42
278.42	1669.09
278.63	1640.42
278.85	1701.86
279.06	1617.90
279.28	1689.57
279.49	1783.78
279.71	1691.62
279.93	1714.15
280.14	1689.57
280.36	1679.33
280.57	1677.29
280.79	1734.63
281.00	1665.00
281.22	1671.14
281.43	1757.16
281.65	1591.27
281.86	1665.00
282.08	1759.21
282.29	1830.88
282.51	1675.24
282.73	1654.76
282.94	1648.61
283.16	1736.68
283.37	1783.78
283.59	1705.96
283.80	1738.73
284.02	1677.29
284.23	1683.43
284.45	1730.53
284.66	1665.00
284.88	1689.57
285.09	1796.07
285.31	1716.20
285.52	1730.53
285.74	1603.56
285.95	1763.30
286.17	1738.73
286.38	1726.44
286.60	1609.70
286.81	1646.57
287.03	1660.90
287.24	1712.10
287.46	1695.72
287.67	1718.25
287.89	1826.79
288.10	1619.94
288.32	1708.01
288.53	1787.88
288.75	1767.40
288.96	1802.21
289.18	1607.66
289.39	1658.85
289.61	1724.39
289.82	1751.01
290.04	1785.83
290.25	1650.66
290.47	1683.43
290.68	1611.75
290.90	1673.19
291.11	1681.38
291.33	1765.35
291.54	1626.09
291.76	1626.09
291.97	1734.63
292.18	1751.01
292.40	1652.71
292.61	1675.24
292.83	1779.68
293.04	1730.53
293.26	1728.49
293.47	1667.05
293.69	1568.74
293.90	1730.53
294.12	1761.25
294.33	1699.81
294.55	1693.67
294.76	1783.78
294.97	1738.73
295.19	1853.41
295.40	1640.42
295.62	1753.06
295.83	1830.88
296.05	1617.90
296.26	1767.40
296.48	1593.32
296.69	1646.57
296.90	1675.24
297.12	1687.53
297.33	1765.35
297.55	1677.29
297.76	1701.86
297.98	1771.49
298.19	1705.96
298.41	1710.05
298.62	1632.23
298.83	1742.82
299.05	1679.33
299.26	1630.18
299.48	1681.38
299.69	1708.01
299.90	1718.25
300.12	1669.09
300.33	1804.26
300.55	1734.63
300.76	1748.97
300.98	1695.72
301.19	1632.23
301.40	1640.42
301.62	1679.33
301.83	1757.16
302.05	1740.77
302.26	1642.47
302.47	1697.77
302.69	1648.61
302.90	1689.57
303.12	1638.38
303.33	1777.64
303.54	1714.15
303.76	1640.42
303.97	1665.00
304.19	1816.55
304.40	1667.05
304.61	1722.34
304.83	1703.91
305.04	1697.77
305.26	1720.29
305.47	1648.61
305.68	1816.55
305.90	1738.73
306.11	1687.53
306.33	1720.29
306.54	1628.14
306.75	1626.09
306.97	1640.42
307.18	1632.23
307.39	1677.29
307.61	1669.09
307.82	1728.49
308.04	1714.15
308.25	1660.90
308.46	1667.05
308.68	1703.91
308.89	1716.20
309.10	1853.41
309.32	1734.63
309.53	1644.52
309.74	1751.01
309.96	1716.20
310.17	1777.64
310.39	1636.33
310.60	1687.53
310.81	1652.71
311.03	1640.42
311.24	1712.10
311.45	1699.81
311.67	1828.84
311.88	1740.77
312.09	1687.53
312.31	1669.09
312.52	1648.61
312.73	1687.53
312.95	1650.66
313.16	1697.77
313.37	1783.78
313.59	1705.96
313.80	1791.97
314.01	1777.64
314.23	1607.66
314.44	1701.86
314.65	1570.79
314.87	1656.81
315.08	1665.00
315.29	1730.53
315.51	1581.03
315.72	1654.76
315.93	1789.92
316.15	1748.97
316.36	1650.66
316.57	1621.99
316.79	1689.57
317.00	1689.57
317.21	1665.00
317.43	1583.08
317.64	1722.34
317.85	1658.85
318.07	1689.57
318.28	1685.48
318.49	1748.97
318.70	1912.80
318.92	1898.47
319.13	1857.51
319.34	1834.98
319.56	1794.02
319.77	1791.97
319.98	1794.02
320.20	1728.49
320.41	1853.41
320.62	1701.86
320.83	1671.14
321.05	1818.60
321.26	1701.86
321.47	1677.29
321.69	1818.60
321.90	1531.88
322.11	1703.91
322.32	1644.52
322.54	1773.54
322.75	1728.49
322.96	1802.21
323.18	1636.33
323.39	1648.61
323.60	1726.44
323.81	1630.18
324.03	1630.18
324.24	1689.57
324.45	1640.42
324.66	1642.47
324.88	1828.84
325.09	1794.02
325.30	1712.10
325.52	1701.86
325.73	1751.01
325.94	1599.46
326.15	1652.71
326.37	1669.09
326.58	1724.39
326.79	1779.68
327.00	1693.67
327.22	1740.77
327.43	1621.99
327.64	1587.18
327.85	1732.58
328.07	1775.59
328.28	1798.12
328.49	1673.19
328.70	1665.00
328.92	1794.02
329.13	1656.81
329.34	1740.77
329.55	1759.21
329.76	1783.78
329.98	1701.86
330.19	1771.49
330.40	1732.58
330.61	1621.99
330.83	1759.21
331.04	1665.00
331.25	1699.81
331.46	1683.43
331.68	1576.94
331.89	1726.44
332.10	1740.77
332.31	1587.18
332.52	1740.77
332.74	1781.73
332.95	1562.60
333.16	1607.66
333.37	1751.01
333.58	1624.04
333.80	1744.87
334.01	1609.70
334.22	1683.43
334.43	1681.38
334.64	1599.46
334.86	1632.23
335.07	1634.28
335.28	1767.40
335.49	1605.61
335.70	1677.29
335.92	1808.36
336.13	1802.21
336.34	1679.33
336.55	1675.24
336.76	1722.34
336.98	1542.12
337.19	1695.72
337.40	1738.73
337.61	1890.28
337.82	1712.10
338.04	1699.81
338.25	1697.77
338.46	1701.86
338.67	1681.38
338.88	1628.14
339.09	1675.24
339.31	1691.62
339.52	1576.94
339.73	1609.70
339.94	1693.67
340.15	1722.34
340.36	1708.01
340.58	1689.57
340.79	1595.37
341.00	1767.40
341.21	1630.18
341.42	1742.82
341.63	1691.62
341.85	1722.34
342.06	1730.53
342.27	1636.33
342.48	1716.20
342.69	1607.66
342.90	1693.67
343.12	1648.61
343.33	1693.67
343.54	1712.10
343.75	1736.68
343.96	1720.29
344.17	1667.05
344.38	1665.00
344.60	1638.38
344.81	1572.84
345.02	1673.19
345.23	1742.82
345.44	1796.07
345.65	1703.91
345.86	1673.19
346.07	1726.44
346.29	1681.38
346.50	1763.30
346.71	1728.49
346.92	1738.73
347.13	1777.64
347.34	1621.99
347.55	1648.61
347.76	1691.62
347.98	1529.83
348.19	1595.37
348.40	1777.64
348.61	1708.01
348.82	1783.78
349.03	1736.68
349.24	1628.14
349.45	1802.21
349.66	1648.61
349.88	1740.77
350.09	1630.18
350.30	1738.73
350.51	1619.94
350.72	1738.73
350.93	1783.78
351.14	1699.81
351.35	1757.16
351.56	1724.39
351.77	1597.42
351.99	1667.05
352.20	1820.64
352.41	1806.31
352.62	1597.42
352.83	1671.14
353.04	1699.81
353.25	1656.81
353.46	1789.92
353.67	1697.77
353.88	1624.04
354.09	1746.92
354.30	1716.20
354.52	1759.21
354.73	1630.18
354.94	1654.76
355.15	1675.24
355.36	1779.68
355.57	1650.66
355.78	1751.01
355.99	1638.38
356.20	1699.81
356.41	1845.22
356.62	1753.06
356.83	1701.86
357.04	1753.06
357.25	1613.80
357.46	1658.85
357.68	1691.62
357.89	1601.51
358.10	1726.44
358.31	1644.52
358.52	1669.09
358.73	1660.90
358.94	1632.23
359.15	1646.57
359.36	1722.34
359.57	1671.14
359.78	1701.86
359.99	1714.15
360.20	1603.56
360.41	1730.53
360.62	1730.53
360.83	1726.44
361.04	1757.16
361.25	1695.72
361.46	1804.26
361.67	1638.38
361.88	1812.45
362.09	1751.01
362.30	1683.43
362.51	1646.57
362.72	1667.05
362.93	1757.16
363.14	1757.16
363.35	1669.09
363.56	1605.61
363.78	1804.26
363.99	1757.16
364.20	1689.57
364.41	1691.62
364.62	1867.75
364.83	1798.12
365.04	1757.16
365.25	1669.09
365.46	1794.02
365.67	1634.28
365.88	1621.99
366.09	1705.96
366.30	1675.24
366.51	1722.34
366.72	1660.90
366.93	1738.73
367.14	1681.38
367.35	1808.36
367.56	1697.77
367.77	1832.93
367.98	1728.49
368.18	1763.30
368.39	1697.77
368.60	1617.90
368.81	1748.97
369.02	1785.83
369.23	1763.30
369.44	1574.89
369.65	1660.90
369.86	1761.25
370.07	1759.21
370.28	1646.57
370.49	1734.63
370.70	1761.25
370.91	1642.47
371.12	1540.07
371.33	1814.50
371.54	1654.76
371.75	1816.55
371.96	1499.11
372.17	1759.21
372.38	1646.57
372.59	1810.40
372.80	1689.57
373.01	1724.39
373.22	1687.53
373.43	1751.01
373.64	1581.03
373.85	1695.72
374.06	1757.16
374.26	1777.64
374.47	1724.39
374.68	1796.07
374.89	1697.77
375.10	1656.81
375.31	1695.72
375.52	1697.77
375.73	1714.15
375.94	1703.91
376.15	1740.77
376.36	1683.43
376.57	1630.18
376.78	1701.86
376.99	1675.24
377.20	1753.06
377.40	1628.14
377.61	1763.30
377.82	1662.95
378.03	1791.97
378.24	1671.14
378.45	1646.57
378.66	1740.77
378.87	1609.70
379.08	1677.29
379.29	1701.86
379.50	1763.30
379.71	1693.67
379.91	1765.35
380.12	1703.91
380.33	1691.62
380.54	1730.53
380.75	1736.68
380.96	1732.58
381.17	1765.35
381.38	1714.15
381.59	1746.92
381.80	1724.39
382.00	1904.61
382.21	1748.97
382.42	1794.02
382.63	1812.45
382.84	1851.36
383.05	1808.36
383.26	1781.73
383.47	1769.44
383.68	1716.20
383.88	1693.67
384.09	1710.05
384.30	1781.73
384.51	1796.07
384.72	1689.57
384.93	1697.77
385.14	1624.04
385.35	1742.82
385.55	1658.85
385.76	1744.87
385.97	1742.82
386.18	1640.42
386.39	1687.53
386.60	1662.95
386.81	1585.13
387.02	1679.33
387.22	1691.62
387.43	1761.25
387.64	1759.21
387.85	1839.08
388.06	2260.96
388.27	4351.93
388.48	6991.77
388.68	8474.49
388.89	9789.29
389.10	10063.72
389.31	8736.63
389.52	7710.60
389.73	6838.17
389.93	6545.31
390.14	5945.25
390.35	5228.46
390.56	4650.94
390.77	3745.73
390.98	3082.19
391.18	2539.48
391.39	2090.98
391.60	1789.92
391.81	1736.68
392.02	1769.44
392.23	1880.04
392.43	1699.81
392.64	1746.92
392.85	1738.73
393.06	1845.22
393.27	1775.59
393.47	1640.42
393.68	1691.62
393.89	1667.05
394.10	1734.63
394.31	1607.66
394.52	1593.32
394.72	1624.04
394.93	1757.16
395.14	1628.14
395.35	1718.25
395.56	1681.38
395.76	1720.29
395.97	1689.57
396.18	1789.92
396.39	1841.12
396.60	2017.25
396.80	1900.52
397.01	1808.36
397.22	1787.88
397.43	1814.50
397.64	1757.16
397.84	1767.40
398.05	1865.70
398.26	1806.31
398.47	1769.44
398.67	1746.92
398.88	1716.20
399.09	1822.69
399.30	1642.47
399.51	1681.38
399.71	1646.57
399.92	1699.81
400.13	1720.29
400.34	1738.73
400.54	1658.85
400.75	1865.70
400.96	1732.58
401.17	1890.28
401.37	1759.21
401.58	1753.06
401.79	1726.44
402.00	1816.55
402.21	2004.96
402.41	1955.81
402.62	1957.86
402.83	2002.91
403.04	1933.28
403.24	2095.07
403.45	1808.36
403.66	1943.52
403.87	1857.51
404.07	1949.67
404.28	1843.17
404.49	1918.95
404.70	1814.50
404.90	1773.54
405.11	1783.78
405.32	1738.73
405.52	1671.14
405.73	1593.32
405.94	1621.99
406.15	1730.53
406.35	1736.68
406.56	1724.39
406.77	1720.29
406.98	1765.35
407.18	1722.34
407.39	1751.01
407.60	1685.48
407.80	1730.53
408.01	1667.05
408.22	1755.11
408.43	1640.42
408.63	1769.44
408.84	1794.02
409.05	1763.30
409.25	1681.38
409.46	1624.04
409.67	1624.04
409.88	1660.90
410.08	1714.15
410.29	1759.21
410.50	1816.55
410.70	1714.15
410.91	1689.57
411.12	1740.77
411.32	1728.49
411.53	1603.56
411.74	1796.07
411.95	1705.96
412.15	1718.25
412.36	1740.77
412.57	1710.05
412.77	1781.73
412.98	1691.62
413.19	1740.77
413.39	1775.59
413.60	1699.81
413.81	1789.92
414.01	1615.85
414.22	1703.91
414.43	1832.93
414.63	1669.09
414.84	1660.90
415.05	1662.95
415.25	1644.52
415.46	1669.09
415.67	1644.52
415.87	1730.53
416.08	1660.90
416.29	1671.14
416.49	1699.81
416.70	1587.18
416.91	1683.43
417.11	1738.73
417.32	1644.52
417.53	1712.10
417.73	1658.85
417.94	1755.11
418.15	1724.39
418.35	1742.82
418.56	1722.34
418.77	1808.36
418.97	1669.09
419.18	1671.14
419.38	1574.89
419.59	1691.62
419.80	1726.44
420.00	1660.90
420.21	1738.73
420.42	1763.30
420.62	1691.62
420.83	1615.85
421.04	1656.81
421.24	1660.90
421.45	1705.96
421.65	1660.90
421.86	1621.99
422.07	1714.15
422.27	1708.01
422.48	1718.25
422.69	1667.05
422.89	1689.57
423.10	1689.57
423.30	1597.42
423.51	1703.91
423.72	1693.67
423.92	1710.05
424.13	1556.46
424.33	1734.63
424.54	1701.86
424.75	1650.66
424.95	1753.06
425.16	1669.09
425.36	1652.71
425.57	1716.20
425.78	1773.54
425.98	1775.59
426.19	1669.09
426.39	1718.25
426.60	1796.07
426.81	1783.78
427.01	1728.49
427.22	1644.52
427.42	1613.80
427.63	1619.94
427.83	1722.34
428.04	1857.51
428.25	1734.63
428.45	1763.30
428.66	1732.58
428.86	1644.52
429.07	1679.33
429.28	1667.05
429.48	1677.29
429.69	1677.29
429.89	1695.72
430.10	1689.57
430.30	1783.78
430.51	1712.10
430.71	1665.00
430.92	1730.53
431.13	1685.48
431.33	1689.57
431.54	1703.91
431.74	1779.68
431.95	1812.45
432.15	1642.47
432.36	1677.29
432.56	1699.81
432.77	1839.08
432.98	1824.74
433.18	1728.49
433.39	1701.86
433.59	1734.63
433.80	1734.63
434.00	1826.79
434.21	1695.72
434.41	1705.96
434.62	1820.64
434.82	1716.20
435.03	1613.80
435.23	1765.35
435.44	1595.37
435.64	1787.88
435.85	1724.39
436.06	1779.68
436.26	1804.26
436.47	1667.05
436.67	1632.23
436.88	1730.53
437.08	1722.34
437.29	1767.40
437.49	1681.38
437.70	1759.21
437.90	1744.87
438.11	1781.73
438.31	1794.02
438.52	1830.88
438.72	1882.08
438.93	1961.95
439.13	1748.97
439.34	1771.49
439.54	1708.01
439.75	1804.26
439.95	1794.02
440.16	1722.34
440.36	1736.68
440.57	1732.58
440.77	1769.44
440.98	1730.53
441.18	1732.58
441.39	1683.43
441.59	1732.58
441.80	1814.50
442.00	1689.57
442.21	1746.92
442.41	1605.61
442.62	1751.01
442.82	1722.34
443.02	1769.44
443.23	1714.15
443.43	1660.90
443.64	1730.53
443.84	1613.80
444.05	1755.11
444.25	1665.00
444.46	1648.61
444.66	1673.19
444.87	1845.22
445.07	1585.13
445.28	1755.11
445.48	1800.16
445.69	1796.07
445.89	1789.92
446.09	1748.97
446.30	1933.28
446.50	2682.84
446.71	3684.30
446.91	4337.60
447.12	4794.29
447.32	4839.35
447.53	4425.66
447.73	3852.23
447.93	3532.75
448.14	3364.81
448.34	3196.88
448.55	2877.40
448.75	2828.24
448.96	2607.06
449.16	2418.65
449.36	2275.29
449.57	2023.39
449.77	1904.61
449.98	1755.11
450.18	1839.08
450.39	1751.01
450.59	1710.05
450.79	1734.63
451.00	1738.73
451.20	1734.63
451.41	1755.11
451.61	1710.05
451.81	1826.79
452.02	1753.06
452.22	1665.00
452.43	1658.85
452.63	1695.72
