SpectraSuite Data File
++++++++++++++++++++++++++++++++++++
Date: Mon Jun 06 16:17:57 CEST 2016
User: root
Dark Spectrum Present: No
Reference Spectrum Present: No
Number of Sampled Component Spectra: 1
Spectrometers: USB4C02835
Integration Time (usec): 100000 (USB4C02835)
Spectra Averaged: 1 (USB4C02835)
Boxcar Smoothing: 0 (USB4C02835)
Correct for Electrical Dark: No (USB4C02835)
Strobe/Lamp Enabled: No (USB4C02835)
Correct for Detector Non-linearity: No (USB4C02835)
Correct for Stray Light: No (USB4C02835)
Number of Pixels in Processed Spectrum: 3648
>>>>>Begin Processed Spectral Data<<<<<
177.47	1525.74
177.69	1525.74
177.91	1525.74
178.13	1443.82
178.36	1460.20
178.58	1669.09
178.80	1748.97
179.02	1667.05
179.24	1689.57
179.46	1759.21
179.68	1740.77
179.90	1720.29
180.13	1654.76
180.35	1705.96
180.57	1718.25
180.79	1755.11
181.01	1693.67
181.23	1812.45
181.45	1783.78
181.67	1763.30
181.90	1720.29
182.12	1658.85
182.34	1779.68
182.56	1712.10
182.78	1794.02
183.00	1738.73
183.22	1691.62
183.44	1570.79
183.66	1822.69
183.89	1796.07
184.11	1662.95
184.33	1759.21
184.55	1757.16
184.77	1683.43
184.99	1789.92
185.21	1683.43
185.43	1826.79
185.65	1722.34
185.87	1718.25
186.10	1789.92
186.32	1845.22
186.54	1787.88
186.76	1746.92
186.98	1714.15
187.20	1716.20
187.42	1705.96
187.64	1710.05
187.86	1775.59
188.08	1794.02
188.30	1650.66
188.52	1669.09
188.75	1744.87
188.97	1820.64
189.19	1646.57
189.41	1697.77
189.63	1705.96
189.85	1621.99
190.07	1648.61
190.29	1636.33
190.51	1734.63
190.73	1638.38
190.95	1875.94
191.17	1693.67
191.39	1605.61
191.61	1634.28
191.84	1683.43
192.06	1732.58
192.28	1642.47
192.50	1920.99
192.72	1685.48
192.94	1732.58
193.16	1740.77
193.38	1763.30
193.60	1687.53
193.82	1697.77
194.04	1769.44
194.26	1767.40
194.48	1705.96
194.70	1693.67
194.92	1642.47
195.14	1734.63
195.36	1675.24
195.58	1683.43
195.80	1726.44
196.02	1615.85
196.24	1708.01
196.46	1757.16
196.69	1652.71
196.91	1875.94
197.13	1652.71
197.35	1697.77
197.57	1822.69
197.79	1759.21
198.01	1708.01
198.23	1744.87
198.45	1691.62
198.67	1660.90
198.89	1695.72
199.11	1669.09
199.33	1634.28
199.55	1533.93
199.77	1681.38
199.99	1798.12
200.21	1669.09
200.43	1785.83
200.65	1619.94
200.87	1574.89
201.09	1726.44
201.31	1677.29
201.53	1802.21
201.75	1746.92
201.97	1746.92
202.19	1660.90
202.41	1738.73
202.63	1857.51
202.85	1703.91
203.07	1822.69
203.29	1677.29
203.51	1581.03
203.73	1585.13
203.95	1877.99
204.17	1701.86
204.39	1732.58
204.61	1667.05
204.83	1695.72
205.05	1757.16
205.27	1746.92
205.49	1828.84
205.71	1695.72
205.93	1607.66
206.15	1734.63
206.37	1689.57
206.59	1779.68
206.81	1716.20
207.03	1593.32
207.25	1722.34
207.47	1759.21
207.69	1738.73
207.91	1781.73
208.13	1787.88
208.34	1632.23
208.56	1660.90
208.78	1742.82
209.00	1744.87
209.22	1710.05
209.44	1757.16
209.66	1603.56
209.88	1787.88
210.10	1718.25
210.32	1607.66
210.54	1769.44
210.76	1660.90
210.98	1710.05
211.20	1552.36
211.42	1771.49
211.64	1738.73
211.86	1783.78
212.08	1720.29
212.30	1759.21
212.52	1705.96
212.74	1787.88
212.96	1705.96
213.17	1734.63
213.39	1710.05
213.61	1789.92
213.83	1718.25
214.05	1673.19
214.27	1789.92
214.49	1689.57
214.71	1714.15
214.93	1697.77
215.15	1701.86
215.37	1738.73
215.59	1607.66
215.81	1701.86
216.03	1796.07
216.24	1710.05
216.46	1740.77
216.68	1746.92
216.90	1777.64
217.12	1787.88
217.34	1755.11
217.56	1728.49
217.78	1736.68
218.00	1871.84
218.22	1710.05
218.44	1656.81
218.66	1742.82
218.87	1814.50
219.09	1734.63
219.31	1712.10
219.53	1738.73
219.75	1712.10
219.97	1767.40
220.19	1771.49
220.41	1636.33
220.63	1771.49
220.85	1804.26
221.06	1742.82
221.28	1781.73
221.50	1683.43
221.72	1693.67
221.94	1740.77
222.16	1714.15
222.38	1775.59
222.60	1703.91
222.82	1759.21
223.03	1685.48
223.25	1634.28
223.47	1783.78
223.69	1798.12
223.91	1847.27
224.13	1724.39
224.35	1677.29
224.57	1753.06
224.78	1740.77
225.00	1640.42
225.22	1724.39
225.44	1726.44
225.66	1787.88
225.88	1691.62
226.10	1726.44
226.32	1675.24
226.53	1718.25
226.75	1679.33
226.97	1691.62
227.19	1697.77
227.41	1683.43
227.63	1634.28
227.85	1660.90
228.06	1744.87
228.28	1759.21
228.50	1751.01
228.72	1691.62
228.94	1714.15
229.16	1648.61
229.37	1695.72
229.59	1650.66
229.81	1767.40
230.03	1671.14
230.25	1644.52
230.47	1681.38
230.69	1673.19
230.90	1800.16
231.12	1714.15
231.34	1714.15
231.56	1722.34
231.78	1716.20
232.00	1644.52
232.21	1697.77
232.43	1726.44
232.65	1697.77
232.87	1697.77
233.09	1626.09
233.30	1718.25
233.52	1753.06
233.74	1642.47
233.96	1695.72
234.18	1748.97
234.40	1667.05
234.61	1902.56
234.83	1615.85
235.05	1708.01
235.27	1859.56
235.49	1798.12
235.70	1695.72
235.92	1832.93
236.14	1787.88
236.36	1796.07
236.58	1613.80
236.79	1773.54
237.01	1716.20
237.23	1617.90
237.45	1775.59
237.67	1613.80
237.88	1742.82
238.10	1755.11
238.32	1695.72
238.54	1746.92
238.76	1691.62
238.97	1671.14
239.19	1630.18
239.41	1804.26
239.63	1804.26
239.85	1660.90
240.06	1665.00
240.28	1771.49
240.50	1855.46
240.72	1714.15
240.93	1705.96
241.15	1746.92
241.37	1757.16
241.59	1771.49
241.81	1646.57
242.02	1626.09
242.24	1708.01
242.46	1767.40
242.68	1609.70
242.89	1742.82
243.11	1796.07
243.33	1665.00
243.55	1742.82
243.76	1755.11
243.98	1669.09
244.20	1628.14
244.42	1632.23
244.64	1742.82
244.85	1677.29
245.07	1681.38
245.29	1673.19
245.51	1615.85
245.72	1720.29
245.94	1744.87
246.16	1703.91
246.38	1701.86
246.59	1703.91
246.81	1656.81
247.03	1693.67
247.24	1617.90
247.46	1656.81
247.68	1771.49
247.90	1710.05
248.11	1650.66
248.33	1734.63
248.55	1646.57
248.77	1806.31
248.98	1712.10
249.20	1830.88
249.42	1701.86
249.64	1716.20
249.85	1699.81
250.07	1654.76
250.29	1683.43
250.50	1718.25
250.72	1636.33
250.94	1738.73
251.16	1810.40
251.37	1800.16
251.59	1695.72
251.81	1732.58
252.02	1775.59
252.24	1705.96
252.46	1796.07
252.68	1777.64
252.89	1703.91
253.11	1617.90
253.33	1847.27
253.54	1816.55
253.76	1652.71
253.98	1660.90
254.20	1787.88
254.41	1640.42
254.63	1710.05
254.85	1628.14
255.06	1716.20
255.28	1787.88
255.50	1714.15
255.71	1687.53
255.93	1648.61
256.15	1726.44
256.36	1796.07
256.58	1693.67
256.80	1748.97
257.02	1689.57
257.23	1685.48
257.45	1847.27
257.67	1718.25
257.88	1681.38
258.10	1740.77
258.32	1714.15
258.53	1691.62
258.75	1857.51
258.97	1654.76
259.18	1751.01
259.40	1742.82
259.62	1814.50
259.83	1746.92
260.05	1667.05
260.27	2011.11
260.48	1740.77
260.70	1677.29
260.92	1724.39
261.13	1730.53
261.35	1693.67
261.57	1712.10
261.78	1568.74
262.00	1710.05
262.22	1730.53
262.43	1630.18
262.65	1722.34
262.86	1689.57
263.08	1843.17
263.30	1763.30
263.51	1634.28
263.73	1695.72
263.95	1765.35
264.16	1699.81
264.38	1656.81
264.60	1742.82
264.81	1703.91
265.03	1794.02
265.25	1693.67
265.46	1693.67
265.68	1814.50
265.89	1783.78
266.11	1599.46
266.33	1763.30
266.54	1732.58
266.76	1806.31
266.98	1744.87
267.19	1732.58
267.41	1781.73
267.62	1697.77
267.84	1603.56
268.06	1724.39
268.27	1738.73
268.49	1740.77
268.70	1808.36
268.92	1673.19
269.14	1697.77
269.35	1679.33
269.57	1753.06
269.79	1746.92
270.00	1689.57
270.22	1791.97
270.43	1671.14
270.65	1607.66
270.87	1693.67
271.08	1740.77
271.30	1656.81
271.51	1763.30
271.73	1757.16
271.95	1861.60
272.16	1761.25
272.38	1660.90
272.59	1759.21
272.81	1791.97
273.02	1796.07
273.24	1703.91
273.46	1726.44
273.67	1693.67
273.89	1671.14
274.10	1679.33
274.32	1763.30
274.54	1703.91
274.75	1765.35
274.97	1669.09
275.18	1701.86
275.40	1691.62
275.61	1665.00
275.83	1755.11
276.05	1652.71
276.26	1695.72
276.48	1738.73
276.69	1691.62
276.91	1658.85
277.12	1806.31
277.34	1736.68
277.55	1726.44
277.77	1716.20
277.99	1710.05
278.20	1714.15
278.42	1679.33
278.63	1621.99
278.85	1685.48
279.06	1636.33
279.28	1779.68
279.49	1767.40
279.71	1697.77
279.93	1714.15
280.14	1705.96
280.36	1687.53
280.57	1816.55
280.79	1759.21
281.00	1681.38
281.22	1693.67
281.43	1757.16
281.65	1628.14
281.86	1615.85
282.08	1740.77
282.29	1804.26
282.51	1689.57
282.73	1630.18
282.94	1646.57
283.16	1798.12
283.37	1869.80
283.59	1740.77
283.80	1722.34
284.02	1689.57
284.23	1775.59
284.45	1705.96
284.66	1628.14
284.88	1624.04
285.09	1685.48
285.31	1738.73
285.52	1775.59
285.74	1595.37
285.95	1783.78
286.17	1673.19
286.38	1720.29
286.60	1640.42
286.81	1673.19
287.03	1746.92
287.24	1771.49
287.46	1687.53
287.67	1748.97
287.89	1781.73
288.10	1834.98
288.32	1755.11
288.53	1738.73
288.75	1785.83
288.96	1763.30
289.18	1726.44
289.39	1744.87
289.61	1714.15
289.82	1873.89
290.04	1781.73
290.25	1660.90
290.47	1705.96
290.68	1730.53
290.90	1777.64
291.11	1605.61
291.33	1722.34
291.54	1634.28
291.76	1607.66
291.97	1673.19
292.18	1744.87
292.40	1636.33
292.61	1597.42
292.83	1808.36
293.04	1751.01
293.26	1728.49
293.47	1683.43
293.69	1673.19
293.90	1716.20
294.12	1839.08
294.33	1761.25
294.55	1689.57
294.76	1726.44
294.97	1791.97
295.19	1839.08
295.40	1701.86
295.62	1697.77
295.83	1802.21
296.05	1722.34
296.26	1832.93
296.48	1648.61
296.69	1697.77
296.90	1695.72
297.12	1767.40
297.33	1767.40
297.55	1714.15
297.76	1812.45
297.98	1759.21
298.19	1697.77
298.41	1669.09
298.62	1634.28
298.83	1828.84
299.05	1718.25
299.26	1730.53
299.48	1695.72
299.69	1732.58
299.90	1689.57
300.12	1705.96
300.33	1732.58
300.55	1744.87
300.76	1708.01
300.98	1675.24
301.19	1802.21
301.40	1738.73
301.62	1714.15
301.83	1701.86
302.05	1691.62
302.26	1683.43
302.47	1714.15
302.69	1619.94
302.90	1753.06
303.12	1619.94
303.33	1736.68
303.54	1753.06
303.76	1697.77
303.97	1763.30
304.19	1748.97
304.40	1583.08
304.61	1767.40
304.83	1839.08
305.04	1701.86
305.26	1728.49
305.47	1693.67
305.68	1761.25
305.90	1658.85
306.11	1734.63
306.33	1687.53
306.54	1677.29
306.75	1710.05
306.97	1605.61
307.18	1648.61
307.39	1673.19
307.61	1675.24
307.82	1669.09
308.04	1695.72
308.25	1699.81
308.46	1771.49
308.68	1708.01
308.89	1755.11
309.10	1806.31
309.32	1771.49
309.53	1626.09
309.74	1785.83
309.96	1722.34
310.17	1804.26
310.39	1574.89
310.60	1796.07
310.81	1744.87
311.03	1683.43
311.24	1748.97
311.45	1683.43
311.67	1808.36
311.88	1697.77
312.09	1632.23
312.31	1703.91
312.52	1687.53
312.73	1724.39
312.95	1658.85
313.16	1722.34
313.37	1789.92
313.59	1724.39
313.80	1771.49
314.01	1718.25
314.23	1658.85
314.44	1667.05
314.65	1648.61
314.87	1681.38
315.08	1624.04
315.29	1644.52
315.51	1673.19
315.72	1685.48
315.93	1814.50
316.15	1716.20
316.36	1673.19
316.57	1740.77
316.79	1705.96
317.00	1667.05
317.21	1712.10
317.43	1740.77
317.64	1699.81
317.85	1621.99
318.07	1642.47
318.28	1718.25
318.49	1716.20
318.70	1933.28
318.92	1757.16
319.13	1748.97
319.34	1886.18
319.56	1779.68
319.77	1859.56
319.98	1865.70
320.20	1798.12
320.41	1781.73
320.62	1720.29
320.83	1632.23
321.05	1804.26
321.26	1789.92
321.47	1697.77
321.69	1761.25
321.90	1624.04
322.11	1705.96
322.32	1734.63
322.54	1683.43
322.75	1720.29
322.96	1837.03
323.18	1591.27
323.39	1685.48
323.60	1597.42
323.81	1794.02
324.03	1658.85
324.24	1726.44
324.45	1693.67
324.66	1787.88
324.88	1767.40
325.09	1753.06
325.30	1644.52
325.52	1757.16
325.73	1722.34
325.94	1648.61
326.15	1679.33
326.37	1740.77
326.58	1781.73
326.79	1730.53
327.00	1671.14
327.22	1710.05
327.43	1650.66
327.64	1699.81
327.85	1746.92
328.07	1671.14
328.28	1839.08
328.49	1734.63
328.70	1689.57
328.92	1642.47
329.13	1705.96
329.34	1712.10
329.55	1822.69
329.76	1669.09
329.98	1712.10
330.19	1732.58
330.40	1728.49
330.61	1650.66
330.83	1740.77
331.04	1611.75
331.25	1701.86
331.46	1736.68
331.68	1632.23
331.89	1787.88
332.10	1667.05
332.31	1599.46
332.52	1736.68
332.74	1728.49
332.95	1603.56
333.16	1570.79
333.37	1775.59
333.58	1716.20
333.80	1697.77
334.01	1642.47
334.22	1748.97
334.43	1710.05
334.64	1615.85
334.86	1732.58
335.07	1642.47
335.28	1804.26
335.49	1648.61
335.70	1814.50
335.92	1763.30
336.13	1773.54
336.34	1761.25
336.55	1673.19
336.76	1767.40
336.98	1648.61
337.19	1734.63
337.40	1834.98
337.61	1861.60
337.82	1630.18
338.04	1802.21
338.25	1642.47
338.46	1714.15
338.67	1728.49
338.88	1595.37
339.09	1658.85
339.31	1693.67
339.52	1658.85
339.73	1642.47
339.94	1654.76
340.15	1763.30
340.36	1636.33
340.58	1705.96
340.79	1691.62
341.00	1736.68
341.21	1718.25
341.42	1845.22
341.63	1685.48
341.85	1718.25
342.06	1685.48
342.27	1685.48
342.48	1773.54
342.69	1628.14
342.90	1742.82
343.12	1789.92
343.33	1658.85
343.54	1671.14
343.75	1771.49
343.96	1693.67
344.17	1632.23
344.38	1708.01
344.60	1628.14
344.81	1621.99
345.02	1724.39
345.23	1855.46
345.44	1855.46
345.65	1757.16
345.86	1722.34
346.07	1671.14
346.29	1652.71
346.50	1775.59
346.71	1746.92
346.92	1767.40
347.13	1826.79
347.34	1691.62
347.55	1689.57
347.76	1804.26
347.98	1714.15
348.19	1681.38
348.40	1789.92
348.61	1667.05
348.82	1779.68
349.03	1714.15
349.24	1665.00
349.45	1728.49
349.66	1652.71
349.88	1724.39
350.09	1642.47
350.30	1708.01
350.51	1771.49
350.72	1734.63
350.93	1724.39
351.14	1701.86
351.35	1726.44
351.56	1705.96
351.77	1687.53
351.99	1724.39
352.20	1849.32
352.41	1720.29
352.62	1593.32
352.83	1703.91
353.04	1685.48
353.25	1710.05
353.46	1806.31
353.67	1712.10
353.88	1607.66
354.09	1746.92
354.30	1748.97
354.52	1787.88
354.73	1746.92
354.94	1681.38
355.15	1687.53
355.36	1861.60
355.57	1675.24
355.78	1742.82
355.99	1677.29
356.20	1746.92
356.41	1726.44
356.62	1755.11
356.83	1646.57
357.04	1783.78
357.25	1650.66
357.46	1699.81
357.68	1648.61
357.89	1679.33
358.10	1671.14
358.31	1695.72
358.52	1763.30
358.73	1699.81
358.94	1703.91
359.15	1685.48
359.36	1820.64
359.57	1738.73
359.78	1650.66
359.99	1771.49
360.20	1626.09
360.41	1767.40
360.62	1699.81
360.83	1746.92
361.04	1775.59
361.25	1703.91
361.46	1837.03
361.67	1720.29
361.88	1734.63
362.09	1794.02
362.30	1708.01
362.51	1746.92
362.72	1757.16
362.93	1755.11
363.14	1769.44
363.35	1767.40
363.56	1742.82
363.78	1716.20
363.99	1722.34
364.20	1714.15
364.41	1699.81
364.62	1837.03
364.83	1691.62
365.04	1714.15
365.25	1699.81
365.46	1794.02
365.67	1632.23
365.88	1701.86
366.09	1671.14
366.30	1693.67
366.51	1828.84
366.72	1570.79
366.93	1738.73
367.14	1714.15
367.35	1781.73
367.56	1757.16
367.77	1902.56
367.98	1746.92
368.18	1691.62
368.39	1769.44
368.60	1667.05
368.81	1853.41
369.02	1662.95
369.23	1648.61
369.44	1621.99
369.65	1636.33
369.86	1665.00
370.07	1830.88
370.28	1566.70
370.49	1783.78
370.70	1748.97
370.91	1624.04
371.12	1679.33
371.33	1734.63
371.54	1697.77
371.75	1824.74
371.96	1535.98
372.17	1791.97
372.38	1705.96
372.59	1681.38
372.80	1609.70
373.01	1718.25
373.22	1748.97
373.43	1720.29
373.64	1685.48
373.85	1781.73
374.06	1787.88
374.26	1802.21
374.47	1746.92
374.68	1781.73
374.89	1714.15
375.10	1757.16
375.31	1755.11
375.52	1767.40
375.73	1734.63
375.94	1671.14
376.15	1832.93
376.36	1759.21
376.57	1705.96
376.78	1740.77
376.99	1708.01
377.20	1832.93
377.40	1794.02
377.61	1826.79
377.82	1646.57
378.03	1820.64
378.24	1757.16
378.45	1726.44
378.66	1734.63
378.87	1669.09
379.08	1634.28
379.29	1712.10
379.50	1765.35
379.71	1726.44
379.91	1732.58
380.12	1730.53
380.33	1689.57
380.54	1726.44
380.75	1677.29
380.96	1751.01
381.17	1779.68
381.38	1705.96
381.59	1755.11
381.80	1683.43
382.00	1806.31
382.21	1736.68
382.42	1884.13
382.63	1859.56
382.84	1679.33
383.05	1798.12
383.26	1820.64
383.47	1759.21
383.68	1734.63
383.88	1681.38
384.09	1660.90
384.30	1841.12
384.51	1677.29
384.72	1636.33
384.93	1648.61
385.14	1652.71
385.35	1812.45
385.55	1601.51
385.76	1812.45
385.97	1763.30
386.18	1644.52
386.39	1648.61
386.60	1667.05
386.81	1665.00
387.02	1634.28
387.22	1677.29
387.43	1816.55
387.64	1748.97
387.85	1902.56
388.06	2242.53
388.27	4310.97
388.48	6651.80
388.68	8353.66
388.89	9690.99
389.10	9815.91
389.31	8765.31
389.52	7675.79
389.73	6682.52
389.93	6340.51
390.14	5842.85
390.35	5253.04
390.56	4675.51
390.77	3731.40
390.98	3121.10
391.18	2494.43
391.39	2160.61
391.60	1843.17
391.81	1849.32
392.02	1718.25
392.23	1875.94
392.43	1751.01
392.64	1834.98
392.85	1722.34
393.06	1828.84
393.27	1753.06
393.47	1693.67
393.68	1728.49
393.89	1730.53
394.10	1767.40
394.31	1656.81
394.52	1710.05
394.72	1705.96
394.93	1777.64
395.14	1658.85
395.35	1744.87
395.56	1679.33
395.76	1810.40
395.97	1804.26
396.18	1839.08
396.39	1814.50
396.60	1943.52
396.80	1906.66
397.01	1806.31
397.22	1847.27
397.43	1912.80
397.64	1738.73
397.84	1869.80
398.05	1806.31
398.26	1720.29
398.47	1832.93
398.67	1828.84
398.88	1724.39
399.09	1787.88
399.30	1681.38
399.51	1730.53
399.71	1712.10
399.92	1751.01
400.13	1740.77
400.34	1673.19
400.54	1691.62
400.75	1818.60
400.96	1822.69
401.17	1755.11
401.37	1736.68
401.58	1783.78
401.79	1769.44
402.00	1853.41
402.21	1994.72
402.41	1951.71
402.62	2000.87
402.83	2068.45
403.04	1968.10
403.24	2066.40
403.45	1880.04
403.66	1937.38
403.87	1845.22
404.07	1935.33
404.28	1902.56
404.49	1806.31
404.70	1765.35
404.90	1779.68
405.11	1712.10
405.32	1687.53
405.52	1681.38
405.73	1662.95
405.94	1720.29
406.15	1681.38
406.35	1767.40
406.56	1859.56
406.77	1697.77
406.98	1802.21
407.18	1738.73
407.39	1814.50
407.60	1714.15
407.80	1802.21
408.01	1744.87
408.22	1748.97
408.43	1679.33
408.63	1710.05
408.84	1822.69
409.05	1701.86
409.25	1652.71
409.46	1736.68
409.67	1705.96
409.88	1722.34
410.08	1720.29
410.29	1755.11
410.50	1759.21
410.70	1718.25
410.91	1693.67
411.12	1732.58
411.32	1773.54
411.53	1691.62
411.74	1802.21
411.95	1791.97
412.15	1679.33
412.36	1730.53
412.57	1834.98
412.77	1765.35
412.98	1742.82
413.19	1798.12
413.39	1714.15
413.60	1740.77
413.81	1818.60
414.01	1667.05
414.22	1769.44
414.43	1771.49
414.63	1710.05
414.84	1742.82
415.05	1732.58
415.25	1662.95
415.46	1798.12
415.67	1683.43
415.87	1779.68
416.08	1714.15
416.29	1742.82
416.49	1759.21
416.70	1724.39
416.91	1701.86
417.11	1654.76
417.32	1789.92
417.53	1798.12
417.73	1726.44
417.94	1662.95
418.15	1665.00
418.35	1728.49
418.56	1718.25
418.77	1832.93
418.97	1673.19
419.18	1757.16
419.38	1628.14
419.59	1656.81
419.80	1855.46
420.00	1724.39
420.21	1783.78
420.42	1796.07
420.62	1748.97
420.83	1671.14
421.04	1728.49
421.24	1691.62
421.45	1773.54
421.65	1718.25
421.86	1693.67
422.07	1742.82
422.27	1753.06
422.48	1685.48
422.69	1636.33
422.89	1701.86
423.10	1724.39
423.30	1671.14
423.51	1746.92
423.72	1802.21
423.92	1773.54
424.13	1689.57
424.33	1755.11
424.54	1773.54
424.75	1787.88
424.95	1769.44
425.16	1800.16
425.36	1695.72
425.57	1804.26
425.78	1789.92
425.98	1812.45
426.19	1652.71
426.39	1660.90
426.60	1767.40
426.81	1787.88
427.01	1746.92
427.22	1665.00
427.42	1615.85
427.63	1617.90
427.83	1746.92
428.04	1785.83
428.25	1785.83
428.45	1763.30
428.66	1765.35
428.86	1716.20
429.07	1685.48
429.28	1777.64
429.48	1732.58
429.69	1667.05
429.89	1773.54
430.10	1675.24
430.30	1783.78
430.51	1751.01
430.71	1759.21
430.92	1716.20
431.13	1763.30
431.33	1765.35
431.54	1730.53
431.74	1791.97
431.95	1757.16
432.15	1687.53
432.36	1705.96
432.56	1751.01
432.77	1757.16
432.98	1794.02
433.18	1728.49
433.39	1595.37
433.59	1765.35
433.80	1787.88
434.00	1867.75
434.21	1705.96
434.41	1660.90
434.62	1902.56
434.82	1628.14
435.03	1669.09
435.23	1673.19
435.44	1650.66
435.64	1759.21
435.85	1718.25
436.06	1822.69
436.26	1736.68
436.47	1619.94
436.67	1695.72
436.88	1730.53
437.08	1714.15
437.29	1796.07
437.49	1699.81
437.70	1804.26
437.90	1757.16
438.11	1957.86
438.31	1828.84
438.52	1884.13
438.72	1896.42
438.93	1914.85
439.13	1773.54
439.34	1787.88
439.54	1802.21
439.75	1855.46
439.95	1794.02
440.16	1667.05
440.36	1806.31
440.57	1781.73
440.77	1796.07
440.98	1740.77
441.18	1730.53
441.39	1765.35
441.59	1685.48
441.80	1828.84
442.00	1765.35
442.21	1834.98
442.41	1660.90
442.62	1886.18
442.82	1718.25
443.02	1781.73
443.23	1783.78
443.43	1726.44
443.64	1863.65
443.84	1736.68
444.05	1708.01
444.25	1755.11
444.46	1744.87
444.66	1703.91
444.87	1779.68
445.07	1679.33
445.28	1775.59
445.48	1845.22
445.69	1683.43
445.89	1904.61
446.09	1740.77
446.30	2011.11
446.50	2637.78
446.71	3805.13
446.91	4444.09
447.12	4710.33
447.32	4835.25
447.53	4298.69
447.73	3917.76
447.93	3639.24
448.14	3368.91
448.34	3190.74
448.55	3028.95
448.75	2955.22
448.96	2645.98
449.16	2332.64
449.36	2322.40
449.57	2074.59
449.77	1947.62
449.98	1896.42
450.18	1869.80
450.39	1898.47
450.59	1742.82
450.79	1806.31
451.00	1730.53
451.20	1775.59
451.41	1705.96
451.61	1773.54
451.81	1779.68
452.02	1697.77
452.22	1705.96
452.43	1646.57
452.63	1662.95
