SpectraSuite Data File
++++++++++++++++++++++++++++++++++++
Date: Mon Jun 06 13:53:57 CEST 2016
User: root
Dark Spectrum Present: No
Reference Spectrum Present: No
Number of Sampled Component Spectra: 1
Spectrometers: USB4C02835
Integration Time (usec): 100000 (USB4C02835)
Spectra Averaged: 1 (USB4C02835)
Boxcar Smoothing: 0 (USB4C02835)
Correct for Electrical Dark: No (USB4C02835)
Strobe/Lamp Enabled: No (USB4C02835)
Correct for Detector Non-linearity: No (USB4C02835)
Correct for Stray Light: No (USB4C02835)
Number of Pixels in Processed Spectrum: 3648
>>>>>Begin Processed Spectral Data<<<<<
177.47	1533.93
177.69	1533.93
177.91	1533.93
178.13	1492.97
178.36	1445.87
178.58	1632.23
178.80	1671.14
179.02	1697.77
179.24	1609.70
179.46	1683.43
179.68	1794.02
179.90	1677.29
180.13	1626.09
180.35	1654.76
180.57	1677.29
180.79	1785.83
181.01	1775.59
181.23	1693.67
181.45	1728.49
181.67	1755.11
181.90	1751.01
182.12	1691.62
182.34	1671.14
182.56	1712.10
182.78	1742.82
183.00	1683.43
183.22	1763.30
183.44	1642.47
183.66	1869.80
183.89	1685.48
184.11	1634.28
184.33	1720.29
184.55	1839.08
184.77	1769.44
184.99	1714.15
185.21	1652.71
185.43	1888.23
185.65	1640.42
185.87	1634.28
186.10	1863.65
186.32	1820.64
186.54	1724.39
186.76	1748.97
186.98	1800.16
187.20	1689.57
187.42	1738.73
187.64	1652.71
187.86	1730.53
188.08	1806.31
188.30	1669.09
188.52	1738.73
188.75	1703.91
188.97	1812.45
189.19	1730.53
189.41	1665.00
189.63	1660.90
189.85	1746.92
190.07	1648.61
190.29	1591.27
190.51	1656.81
190.73	1652.71
190.95	1791.97
191.17	1687.53
191.39	1644.52
191.61	1755.11
191.84	1652.71
192.06	1791.97
192.28	1650.66
192.50	1824.74
192.72	1759.21
192.94	1728.49
193.16	1718.25
193.38	1781.73
193.60	1650.66
193.82	1708.01
194.04	1806.31
194.26	1658.85
194.48	1689.57
194.70	1662.95
194.92	1638.38
195.14	1619.94
195.36	1650.66
195.58	1744.87
195.80	1734.63
196.02	1699.81
196.24	1722.34
196.46	1638.38
196.69	1689.57
196.91	1861.60
197.13	1699.81
197.35	1640.42
197.57	1724.39
197.79	1755.11
198.01	1681.38
198.23	1804.26
198.45	1775.59
198.67	1648.61
198.89	1683.43
199.11	1751.01
199.33	1679.33
199.55	1548.26
199.77	1722.34
199.99	1748.97
200.21	1779.68
200.43	1644.52
200.65	1689.57
200.87	1570.79
201.09	1755.11
201.31	1681.38
201.53	1755.11
201.75	1705.96
201.97	1746.92
202.19	1695.72
202.41	1665.00
202.63	1806.31
202.85	1697.77
203.07	1710.05
203.29	1687.53
203.51	1605.61
203.73	1630.18
203.95	1806.31
204.17	1701.86
204.39	1748.97
204.61	1679.33
204.83	1677.29
205.05	1699.81
205.27	1757.16
205.49	1765.35
205.71	1671.14
205.93	1677.29
206.15	1705.96
206.37	1634.28
206.59	1673.19
206.81	1595.37
207.03	1587.18
207.25	1595.37
207.47	1751.01
207.69	1718.25
207.91	1796.07
208.13	1777.64
208.34	1685.48
208.56	1611.75
208.78	1765.35
209.00	1624.04
209.22	1691.62
209.44	1675.24
209.66	1669.09
209.88	1656.81
210.10	1673.19
210.32	1671.14
210.54	1671.14
210.76	1763.30
210.98	1710.05
211.20	1556.46
211.42	1628.14
211.64	1691.62
211.86	1656.81
212.08	1693.67
212.30	1718.25
212.52	1662.95
212.74	1773.54
212.96	1740.77
213.17	1714.15
213.39	1681.38
213.61	1773.54
213.83	1761.25
214.05	1527.78
214.27	1789.92
214.49	1701.86
214.71	1619.94
214.93	1757.16
215.15	1724.39
215.37	1767.40
215.59	1628.14
215.81	1746.92
216.03	1761.25
216.24	1724.39
216.46	1691.62
216.68	1697.77
216.90	1740.77
217.12	1660.90
217.34	1794.02
217.56	1779.68
217.78	1804.26
218.00	1667.05
218.22	1689.57
218.44	1695.72
218.66	1748.97
218.87	1869.80
219.09	1693.67
219.31	1648.61
219.53	1728.49
219.75	1724.39
219.97	1722.34
220.19	1718.25
220.41	1705.96
220.63	1751.01
220.85	1703.91
221.06	1744.87
221.28	1753.06
221.50	1615.85
221.72	1662.95
221.94	1755.11
222.16	1742.82
222.38	1720.29
222.60	1720.29
222.82	1699.81
223.03	1716.20
223.25	1581.03
223.47	1755.11
223.69	1818.60
223.91	1748.97
224.13	1740.77
224.35	1642.47
224.57	1791.97
224.78	1691.62
225.00	1705.96
225.22	1683.43
225.44	1691.62
225.66	1705.96
225.88	1695.72
226.10	1726.44
226.32	1732.58
226.53	1849.32
226.75	1691.62
226.97	1699.81
227.19	1665.00
227.41	1628.14
227.63	1617.90
227.85	1640.42
228.06	1697.77
228.28	1730.53
228.50	1714.15
228.72	1687.53
228.94	1677.29
229.16	1642.47
229.37	1671.14
229.59	1560.55
229.81	1730.53
230.03	1685.48
230.25	1699.81
230.47	1617.90
230.69	1591.27
230.90	1759.21
231.12	1671.14
231.34	1683.43
231.56	1724.39
231.78	1636.33
232.00	1730.53
232.21	1689.57
232.43	1683.43
232.65	1609.70
232.87	1771.49
233.09	1603.56
233.30	1617.90
233.52	1734.63
233.74	1691.62
233.96	1710.05
234.18	1740.77
234.40	1681.38
234.61	1871.84
234.83	1626.09
235.05	1726.44
235.27	1855.46
235.49	1824.74
235.70	1800.16
235.92	1763.30
236.14	1775.59
236.36	1871.84
236.58	1714.15
236.79	1693.67
237.01	1744.87
237.23	1679.33
237.45	1802.21
237.67	1685.48
237.88	1693.67
238.10	1787.88
238.32	1685.48
238.54	1675.24
238.76	1650.66
238.97	1691.62
239.19	1617.90
239.41	1703.91
239.63	1714.15
239.85	1722.34
240.06	1726.44
240.28	1738.73
240.50	1757.16
240.72	1703.91
240.93	1726.44
241.15	1699.81
241.37	1701.86
241.59	1726.44
241.81	1642.47
242.02	1699.81
242.24	1689.57
242.46	1732.58
242.68	1611.75
242.89	1718.25
243.11	1732.58
243.33	1644.52
243.55	1710.05
243.76	1699.81
243.98	1677.29
244.20	1693.67
244.42	1687.53
244.64	1669.09
244.85	1607.66
245.07	1656.81
245.29	1693.67
245.51	1642.47
245.72	1687.53
245.94	1808.36
246.16	1763.30
246.38	1830.88
246.59	1720.29
246.81	1585.13
247.03	1748.97
247.24	1558.50
247.46	1699.81
247.68	1738.73
247.90	1615.85
248.11	1708.01
248.33	1765.35
248.55	1746.92
248.77	1775.59
248.98	1785.83
249.20	1775.59
249.42	1726.44
249.64	1757.16
249.85	1685.48
250.07	1685.48
250.29	1732.58
250.50	1767.40
250.72	1640.42
250.94	1716.20
251.16	1765.35
251.37	1773.54
251.59	1705.96
251.81	1679.33
252.02	1779.68
252.24	1656.81
252.46	1738.73
252.68	1652.71
252.89	1638.38
253.11	1662.95
253.33	1759.21
253.54	1742.82
253.76	1609.70
253.98	1730.53
254.20	1656.81
254.41	1624.04
254.63	1712.10
254.85	1599.46
255.06	1716.20
255.28	1671.14
255.50	1634.28
255.71	1626.09
255.93	1632.23
256.15	1662.95
256.36	1781.73
256.58	1591.27
256.80	1710.05
257.02	1581.03
257.23	1644.52
257.45	1699.81
257.67	1738.73
257.88	1587.18
258.10	1648.61
258.32	1716.20
258.53	1757.16
258.75	1767.40
258.97	1714.15
259.18	1681.38
259.40	1654.76
259.62	1781.73
259.83	1851.36
260.05	1742.82
260.27	1988.58
260.48	1748.97
260.70	1669.09
260.92	1681.38
261.13	1671.14
261.35	1742.82
261.57	1720.29
261.78	1599.46
262.00	1560.55
262.22	1736.68
262.43	1691.62
262.65	1705.96
262.86	1669.09
263.08	1841.12
263.30	1705.96
263.51	1621.99
263.73	1640.42
263.95	1837.03
264.16	1599.46
264.38	1632.23
264.60	1685.48
264.81	1693.67
265.03	1877.99
265.25	1689.57
265.46	1712.10
265.68	1722.34
265.89	1720.29
266.11	1683.43
266.33	1722.34
266.54	1830.88
266.76	1673.19
266.98	1693.67
267.19	1855.46
267.41	1751.01
267.62	1681.38
267.84	1654.76
268.06	1718.25
268.27	1744.87
268.49	1703.91
268.70	1738.73
268.92	1734.63
269.14	1619.94
269.35	1587.18
269.57	1679.33
269.79	1773.54
270.00	1658.85
270.22	1777.64
270.43	1728.49
270.65	1607.66
270.87	1683.43
271.08	1697.77
271.30	1757.16
271.51	1714.15
271.73	1755.11
271.95	1783.78
272.16	1650.66
272.38	1636.33
272.59	1632.23
272.81	1753.06
273.02	1710.05
273.24	1755.11
273.46	1740.77
273.67	1591.27
273.89	1642.47
274.10	1624.04
274.32	1794.02
274.54	1800.16
274.75	1677.29
274.97	1757.16
275.18	1708.01
275.40	1722.34
275.61	1683.43
275.83	1697.77
276.05	1667.05
276.26	1669.09
276.48	1765.35
276.69	1638.38
276.91	1634.28
277.12	1746.92
277.34	1837.03
277.55	1781.73
277.77	1685.48
277.99	1681.38
278.20	1652.71
278.42	1628.14
278.63	1644.52
278.85	1601.51
279.06	1581.03
279.28	1730.53
279.49	1767.40
279.71	1693.67
279.93	1689.57
280.14	1644.52
280.36	1673.19
280.57	1695.72
280.79	1775.59
281.00	1669.09
281.22	1634.28
281.43	1746.92
281.65	1626.09
281.86	1689.57
282.08	1769.44
282.29	1787.88
282.51	1615.85
282.73	1683.43
282.94	1634.28
283.16	1697.77
283.37	1828.84
283.59	1685.48
283.80	1732.58
284.02	1701.86
284.23	1730.53
284.45	1714.15
284.66	1660.90
284.88	1701.86
285.09	1785.83
285.31	1714.15
285.52	1742.82
285.74	1644.52
285.95	1718.25
286.17	1728.49
286.38	1744.87
286.60	1712.10
286.81	1673.19
287.03	1669.09
287.24	1687.53
287.46	1738.73
287.67	1669.09
287.89	1748.97
288.10	1689.57
288.32	1714.15
288.53	1787.88
288.75	1654.76
288.96	1748.97
289.18	1716.20
289.39	1751.01
289.61	1783.78
289.82	1837.03
290.04	1779.68
290.25	1591.27
290.47	1740.77
290.68	1722.34
290.90	1734.63
291.11	1681.38
291.33	1728.49
291.54	1656.81
291.76	1691.62
291.97	1740.77
292.18	1746.92
292.40	1673.19
292.61	1617.90
292.83	1808.36
293.04	1724.39
293.26	1724.39
293.47	1658.85
293.69	1738.73
293.90	1648.61
294.12	1806.31
294.33	1697.77
294.55	1730.53
294.76	1710.05
294.97	1693.67
295.19	1851.36
295.40	1699.81
295.62	1701.86
295.83	1722.34
296.05	1669.09
296.26	1800.16
296.48	1615.85
296.69	1689.57
296.90	1662.95
297.12	1812.45
297.33	1822.69
297.55	1669.09
297.76	1708.01
297.98	1748.97
298.19	1755.11
298.41	1701.86
298.62	1650.66
298.83	1763.30
299.05	1708.01
299.26	1685.48
299.48	1675.24
299.69	1681.38
299.90	1830.88
300.12	1607.66
300.33	1703.91
300.55	1710.05
300.76	1705.96
300.98	1628.14
301.19	1708.01
301.40	1665.00
301.62	1695.72
301.83	1724.39
302.05	1652.71
302.26	1687.53
302.47	1751.01
302.69	1665.00
302.90	1687.53
303.12	1576.94
303.33	1720.29
303.54	1828.84
303.76	1736.68
303.97	1667.05
304.19	1832.93
304.40	1691.62
304.61	1718.25
304.83	1808.36
305.04	1787.88
305.26	1640.42
305.47	1634.28
305.68	1759.21
305.90	1562.60
306.11	1769.44
306.33	1691.62
306.54	1712.10
306.75	1658.85
306.97	1615.85
307.18	1642.47
307.39	1691.62
307.61	1734.63
307.82	1654.76
308.04	1734.63
308.25	1656.81
308.46	1744.87
308.68	1736.68
308.89	1626.09
309.10	1742.82
309.32	1746.92
309.53	1665.00
309.74	1644.52
309.96	1683.43
310.17	1724.39
310.39	1695.72
310.60	1662.95
310.81	1710.05
311.03	1607.66
311.24	1714.15
311.45	1712.10
311.67	1837.03
311.88	1753.06
312.09	1710.05
312.31	1699.81
312.52	1716.20
312.73	1667.05
312.95	1628.14
313.16	1617.90
313.37	1796.07
313.59	1728.49
313.80	1728.49
314.01	1732.58
314.23	1740.77
314.44	1638.38
314.65	1619.94
314.87	1632.23
315.08	1728.49
315.29	1673.19
315.51	1656.81
315.72	1646.57
315.93	1804.26
316.15	1724.39
316.36	1669.09
316.57	1652.71
316.79	1728.49
317.00	1695.72
317.21	1710.05
317.43	1634.28
317.64	1679.33
317.85	1603.56
318.07	1687.53
318.28	1791.97
318.49	1791.97
318.70	1877.99
318.92	1798.12
319.13	1802.21
319.34	1830.88
319.56	1787.88
319.77	1753.06
319.98	1777.64
320.20	1691.62
320.41	1837.03
320.62	1730.53
320.83	1689.57
321.05	1853.41
321.26	1748.97
321.47	1806.31
321.69	1724.39
321.90	1650.66
322.11	1683.43
322.32	1748.97
322.54	1753.06
322.75	1697.77
322.96	1814.50
323.18	1583.08
323.39	1650.66
323.60	1703.91
323.81	1789.92
324.03	1660.90
324.24	1697.77
324.45	1781.73
324.66	1642.47
324.88	1685.48
325.09	1783.78
325.30	1687.53
325.52	1699.81
325.73	1767.40
325.94	1660.90
326.15	1601.51
326.37	1689.57
326.58	1783.78
326.79	1757.16
327.00	1658.85
327.22	1740.77
327.43	1556.46
327.64	1632.23
327.85	1609.70
328.07	1658.85
328.28	1789.92
328.49	1642.47
328.70	1667.05
328.92	1675.24
329.13	1640.42
329.34	1697.77
329.55	1710.05
329.76	1755.11
329.98	1740.77
330.19	1718.25
330.40	1769.44
330.61	1697.77
330.83	1757.16
331.04	1671.14
331.25	1677.29
331.46	1652.71
331.68	1558.50
331.89	1765.35
332.10	1705.96
332.31	1687.53
332.52	1619.94
332.74	1828.84
332.95	1693.67
333.16	1644.52
333.37	1724.39
333.58	1621.99
333.80	1726.44
334.01	1542.12
334.22	1753.06
334.43	1656.81
334.64	1665.00
334.86	1609.70
335.07	1613.80
335.28	1796.07
335.49	1611.75
335.70	1759.21
335.92	1691.62
336.13	1859.56
336.34	1701.86
336.55	1771.49
336.76	1701.86
336.98	1650.66
337.19	1697.77
337.40	1738.73
337.61	1880.04
337.82	1662.95
338.04	1716.20
338.25	1560.55
338.46	1689.57
338.67	1665.00
338.88	1626.09
339.09	1656.81
339.31	1624.04
339.52	1673.19
339.73	1624.04
339.94	1673.19
340.15	1730.53
340.36	1658.85
340.58	1640.42
340.79	1660.90
341.00	1712.10
341.21	1665.00
341.42	1794.02
341.63	1679.33
341.85	1658.85
342.06	1667.05
342.27	1667.05
342.48	1796.07
342.69	1607.66
342.90	1658.85
343.12	1728.49
343.33	1671.14
343.54	1789.92
343.75	1800.16
343.96	1701.86
344.17	1671.14
344.38	1605.61
344.60	1603.56
344.81	1705.96
345.02	1640.42
345.23	1732.58
345.44	1775.59
345.65	1763.30
345.86	1712.10
346.07	1679.33
346.29	1650.66
346.50	1816.55
346.71	1730.53
346.92	1724.39
347.13	1820.64
347.34	1650.66
347.55	1632.23
347.76	1726.44
347.98	1665.00
348.19	1714.15
348.40	1847.27
348.61	1677.29
348.82	1871.84
349.03	1681.38
349.24	1669.09
349.45	1796.07
349.66	1538.02
349.88	1755.11
350.09	1624.04
350.30	1800.16
350.51	1820.64
350.72	1730.53
350.93	1753.06
351.14	1726.44
351.35	1789.92
351.56	1726.44
351.77	1710.05
351.99	1759.21
352.20	1845.22
352.41	1718.25
352.62	1646.57
352.83	1683.43
353.04	1624.04
353.25	1656.81
353.46	1732.58
353.67	1708.01
353.88	1550.31
354.09	1738.73
354.30	1677.29
354.52	1660.90
354.73	1689.57
354.94	1632.23
355.15	1632.23
355.36	1734.63
355.57	1685.48
355.78	1767.40
355.99	1658.85
356.20	1708.01
356.41	1734.63
356.62	1705.96
356.83	1619.94
357.04	1812.45
357.25	1525.74
357.46	1673.19
357.68	1683.43
357.89	1724.39
358.10	1683.43
358.31	1689.57
358.52	1683.43
358.73	1658.85
358.94	1613.80
359.15	1638.38
359.36	1773.54
359.57	1660.90
359.78	1697.77
359.99	1730.53
360.20	1675.24
360.41	1650.66
360.62	1703.91
360.83	1681.38
361.04	1652.71
361.25	1720.29
361.46	1812.45
361.67	1677.29
361.88	1742.82
362.09	1687.53
362.30	1740.77
362.51	1685.48
362.72	1708.01
362.93	1718.25
363.14	1755.11
363.35	1751.01
363.56	1751.01
363.78	1726.44
363.99	1810.40
364.20	1626.09
364.41	1738.73
364.62	1820.64
364.83	1757.16
365.04	1728.49
365.25	1773.54
365.46	1742.82
365.67	1652.71
365.88	1677.29
366.09	1646.57
366.30	1665.00
366.51	1718.25
366.72	1679.33
366.93	1632.23
367.14	1701.86
367.35	1769.44
367.56	1677.29
367.77	1755.11
367.98	1654.76
368.18	1722.34
368.39	1736.68
368.60	1691.62
368.81	1759.21
369.02	1685.48
369.23	1685.48
369.44	1652.71
369.65	1720.29
369.86	1667.05
370.07	1822.69
370.28	1632.23
370.49	1720.29
370.70	1769.44
370.91	1687.53
371.12	1630.18
371.33	1742.82
371.54	1738.73
371.75	1828.84
371.96	1677.29
372.17	1730.53
372.38	1648.61
372.59	1726.44
372.80	1646.57
373.01	1708.01
373.22	1716.20
373.43	1691.62
373.64	1753.06
373.85	1716.20
374.06	1755.11
374.26	1740.77
374.47	1751.01
374.68	1738.73
374.89	1646.57
375.10	1656.81
375.31	1746.92
375.52	1599.46
375.73	1720.29
375.94	1669.09
376.15	1748.97
376.36	1638.38
376.57	1652.71
376.78	1677.29
376.99	1601.51
377.20	1880.04
377.40	1734.63
377.61	1773.54
377.82	1648.61
378.03	1787.88
378.24	1722.34
378.45	1654.76
378.66	1656.81
378.87	1570.79
379.08	1558.50
379.29	1695.72
379.50	1744.87
379.71	1744.87
379.91	1718.25
380.12	1652.71
380.33	1662.95
380.54	1720.29
380.75	1699.81
380.96	1738.73
381.17	1742.82
381.38	1693.67
381.59	1708.01
381.80	1673.19
382.00	1783.78
382.21	1742.82
382.42	1802.21
382.63	1857.51
382.84	1742.82
383.05	1753.06
383.26	1841.12
383.47	1691.62
383.68	1695.72
383.88	1732.58
384.09	1716.20
384.30	1843.17
384.51	1771.49
384.72	1621.99
384.93	1599.46
385.14	1642.47
385.35	1705.96
385.55	1636.33
385.76	1740.77
385.97	1652.71
386.18	1697.77
386.39	1708.01
386.60	1677.29
386.81	1660.90
387.02	1720.29
387.22	1642.47
387.43	1886.18
387.64	1800.16
387.85	1920.99
388.06	2232.29
388.27	4274.11
388.48	6848.41
388.68	8241.03
388.89	9623.41
389.10	10041.19
389.31	8650.62
389.52	7614.35
389.73	6805.40
389.93	6387.61
390.14	5885.86
390.35	5158.83
390.56	4554.68
390.77	3792.84
390.98	3026.90
391.18	2543.58
391.39	2213.85
391.60	1906.66
391.81	1820.64
392.02	1722.34
392.23	1837.03
392.43	1722.34
392.64	1837.03
392.85	1726.44
393.06	1787.88
393.27	1693.67
393.47	1687.53
393.68	1652.71
393.89	1730.53
394.10	1759.21
394.31	1648.61
394.52	1646.57
394.72	1697.77
394.93	1787.88
395.14	1609.70
395.35	1703.91
395.56	1669.09
395.76	1697.77
395.97	1763.30
396.18	1830.88
396.39	1871.84
396.60	1992.67
396.80	1857.51
397.01	1837.03
397.22	1740.77
397.43	1871.84
397.64	1699.81
397.84	1798.12
398.05	1824.74
398.26	1738.73
398.47	1785.83
398.67	1744.87
398.88	1763.30
399.09	1710.05
399.30	1712.10
399.51	1791.97
399.71	1636.33
399.92	1703.91
400.13	1751.01
400.34	1656.81
400.54	1720.29
400.75	1853.41
400.96	1775.59
401.17	1839.08
401.37	1734.63
401.58	1624.04
401.79	1712.10
402.00	1904.61
402.21	1957.86
402.41	1953.76
402.62	2054.11
402.83	1935.33
403.04	2037.73
403.24	2072.54
403.45	1841.12
403.66	1849.32
403.87	1920.99
404.07	1929.19
404.28	1871.84
404.49	1898.47
404.70	1708.01
404.90	1771.49
405.11	1705.96
405.32	1765.35
405.52	1644.52
405.73	1689.57
405.94	1660.90
406.15	1718.25
406.35	1755.11
406.56	1779.68
406.77	1759.21
406.98	1644.52
407.18	1621.99
407.39	1771.49
407.60	1648.61
407.80	1712.10
408.01	1650.66
408.22	1771.49
408.43	1636.33
408.63	1753.06
408.84	1710.05
409.05	1746.92
409.25	1671.14
409.46	1630.18
409.67	1697.77
409.88	1693.67
410.08	1722.34
410.29	1607.66
410.50	1689.57
410.70	1734.63
410.91	1697.77
411.12	1708.01
411.32	1712.10
411.53	1648.61
411.74	1720.29
411.95	1785.83
412.15	1738.73
412.36	1771.49
412.57	1783.78
412.77	1818.60
412.98	1712.10
413.19	1662.95
413.39	1849.32
413.60	1773.54
413.81	1861.60
414.01	1675.24
414.22	1660.90
414.43	1732.58
414.63	1619.94
414.84	1830.88
415.05	1689.57
415.25	1636.33
415.46	1837.03
415.67	1669.09
415.87	1730.53
416.08	1697.77
416.29	1699.81
416.49	1734.63
416.70	1732.58
416.91	1669.09
417.11	1705.96
417.32	1757.16
417.53	1783.78
417.73	1683.43
417.94	1751.01
418.15	1734.63
418.35	1697.77
418.56	1677.29
418.77	1839.08
418.97	1722.34
419.18	1742.82
419.38	1589.22
419.59	1660.90
419.80	1755.11
420.00	1638.38
420.21	1669.09
420.42	1738.73
420.62	1761.25
420.83	1638.38
421.04	1660.90
421.24	1675.24
421.45	1693.67
421.65	1697.77
421.86	1693.67
422.07	1802.21
422.27	1658.85
422.48	1687.53
422.69	1785.83
422.89	1726.44
423.10	1753.06
423.30	1681.38
423.51	1611.75
423.72	1669.09
423.92	1658.85
424.13	1665.00
424.33	1787.88
424.54	1681.38
424.75	1697.77
424.95	1814.50
425.16	1722.34
425.36	1699.81
425.57	1798.12
425.78	1773.54
425.98	1771.49
426.19	1681.38
426.39	1658.85
426.60	1673.19
426.81	1871.84
427.01	1738.73
427.22	1685.48
427.42	1624.04
427.63	1691.62
427.83	1720.29
428.04	1746.92
428.25	1794.02
428.45	1763.30
428.66	1675.24
428.86	1718.25
429.07	1619.94
429.28	1669.09
429.48	1701.86
429.69	1617.90
429.89	1660.90
430.10	1632.23
430.30	1755.11
430.51	1802.21
430.71	1646.57
430.92	1726.44
431.13	1677.29
431.33	1718.25
431.54	1703.91
431.74	1787.88
431.95	1761.25
432.15	1581.03
432.36	1628.14
432.56	1812.45
432.77	1695.72
432.98	1830.88
433.18	1732.58
433.39	1718.25
433.59	1710.05
433.80	1820.64
434.00	1890.28
434.21	1697.77
434.41	1646.57
434.62	1824.74
434.82	1621.99
435.03	1705.96
435.23	1699.81
435.44	1599.46
435.64	1708.01
435.85	1755.11
436.06	1755.11
436.26	1810.40
436.47	1722.34
436.67	1722.34
436.88	1714.15
437.08	1783.78
437.29	1794.02
437.49	1718.25
437.70	1771.49
437.90	1751.01
438.11	1871.84
438.31	1822.69
438.52	1892.32
438.72	1798.12
438.93	1916.90
439.13	1738.73
439.34	1796.07
439.54	1716.20
439.75	1800.16
439.95	1814.50
440.16	1671.14
440.36	1759.21
440.57	1714.15
440.77	1699.81
440.98	1677.29
441.18	1746.92
441.39	1730.53
441.59	1599.46
441.80	1814.50
442.00	1771.49
442.21	1845.22
442.41	1673.19
442.62	1736.68
442.82	1718.25
443.02	1748.97
443.23	1783.78
443.43	1746.92
443.64	1730.53
443.84	1679.33
444.05	1826.79
444.25	1761.25
444.46	1726.44
444.66	1742.82
444.87	1804.26
445.07	1650.66
445.28	1714.15
445.48	1820.64
445.69	1662.95
445.89	1867.75
446.09	1716.20
446.30	1976.29
446.50	2693.08
446.71	3696.58
446.91	4341.69
447.12	4822.97
447.32	4753.34
447.53	4364.22
447.73	3874.76
447.93	3581.90
448.14	3278.80
448.34	3243.98
448.55	2901.97
448.75	2889.68
448.96	2713.56
449.16	2453.47
449.36	2303.96
449.57	2027.49
449.77	1923.04
449.98	1781.73
450.18	1794.02
450.39	1841.12
450.59	1675.24
450.79	1703.91
451.00	1691.62
451.20	1701.86
451.41	1730.53
451.61	1734.63
451.81	1726.44
452.02	1755.11
452.22	1705.96
452.43	1665.00
452.63	1697.77
