SpectraSuite Data File
++++++++++++++++++++++++++++++++++++
Date: Mon Jun 06 14:49:37 CEST 2016
User: root
Dark Spectrum Present: No
Reference Spectrum Present: No
Number of Sampled Component Spectra: 1
Spectrometers: USB4C02835
Integration Time (usec): 100000 (USB4C02835)
Spectra Averaged: 1 (USB4C02835)
Boxcar Smoothing: 0 (USB4C02835)
Correct for Electrical Dark: No (USB4C02835)
Strobe/Lamp Enabled: No (USB4C02835)
Correct for Detector Non-linearity: No (USB4C02835)
Correct for Stray Light: No (USB4C02835)
Number of Pixels in Processed Spectrum: 3648
>>>>>Begin Processed Spectral Data<<<<<
177.47	1482.73
177.69	1482.73
177.91	1482.73
178.13	1452.01
178.36	1404.91
178.58	1673.19
178.80	1765.35
179.02	1642.47
179.24	1673.19
179.46	1718.25
179.68	1724.39
179.90	1646.57
180.13	1624.04
180.35	1628.14
180.57	1652.71
180.79	1730.53
181.01	1746.92
181.23	1857.51
181.45	1830.88
181.67	1679.33
181.90	1769.44
182.12	1679.33
182.34	1628.14
182.56	1710.05
182.78	1765.35
183.00	1720.29
183.22	1722.34
183.44	1607.66
183.66	1886.18
183.89	1804.26
184.11	1695.72
184.33	1691.62
184.55	1714.15
184.77	1660.90
184.99	1730.53
185.21	1652.71
185.43	1814.50
185.65	1689.57
185.87	1703.91
186.10	1837.03
186.32	1837.03
186.54	1722.34
186.76	1726.44
186.98	1818.60
187.20	1718.25
187.42	1648.61
187.64	1714.15
187.86	1740.77
188.08	1744.87
188.30	1705.96
188.52	1687.53
188.75	1775.59
188.97	1775.59
189.19	1636.33
189.41	1720.29
189.63	1701.86
189.85	1658.85
190.07	1650.66
190.29	1615.85
190.51	1710.05
190.73	1656.81
190.95	1751.01
191.17	1685.48
191.39	1601.51
191.61	1642.47
191.84	1673.19
192.06	1730.53
192.28	1603.56
192.50	1808.36
192.72	1757.16
192.94	1693.67
193.16	1720.29
193.38	1773.54
193.60	1636.33
193.82	1648.61
194.04	1746.92
194.26	1611.75
194.48	1697.77
194.70	1630.18
194.92	1615.85
195.14	1765.35
195.36	1675.24
195.58	1679.33
195.80	1681.38
196.02	1708.01
196.24	1689.57
196.46	1748.97
196.69	1654.76
196.91	1869.80
197.13	1675.24
197.35	1611.75
197.57	1724.39
197.79	1708.01
198.01	1703.91
198.23	1726.44
198.45	1742.82
198.67	1617.90
198.89	1744.87
199.11	1626.09
199.33	1665.00
199.55	1517.54
199.77	1681.38
199.99	1796.07
200.21	1673.19
200.43	1728.49
200.65	1656.81
200.87	1576.94
201.09	1718.25
201.31	1701.86
201.53	1734.63
201.75	1624.04
201.97	1710.05
202.19	1691.62
202.41	1734.63
202.63	1855.46
202.85	1677.29
203.07	1728.49
203.29	1722.34
203.51	1650.66
203.73	1611.75
203.95	1845.22
204.17	1736.68
204.39	1718.25
204.61	1648.61
204.83	1615.85
205.05	1724.39
205.27	1703.91
205.49	1843.17
205.71	1703.91
205.93	1683.43
206.15	1650.66
206.37	1685.48
206.59	1759.21
206.81	1570.79
207.03	1665.00
207.25	1630.18
207.47	1783.78
207.69	1626.09
207.91	1789.92
208.13	1755.11
208.34	1697.77
208.56	1681.38
208.78	1736.68
209.00	1699.81
209.22	1691.62
209.44	1675.24
209.66	1720.29
209.88	1656.81
210.10	1681.38
210.32	1748.97
210.54	1789.92
210.76	1683.43
210.98	1736.68
211.20	1578.98
211.42	1779.68
211.64	1716.20
211.86	1763.30
212.08	1734.63
212.30	1685.48
212.52	1753.06
212.74	1716.20
212.96	1716.20
213.17	1671.14
213.39	1703.91
213.61	1753.06
213.83	1730.53
214.05	1755.11
214.27	1759.21
214.49	1660.90
214.71	1705.96
214.93	1824.74
215.15	1712.10
215.37	1751.01
215.59	1638.38
215.81	1699.81
216.03	1787.88
216.24	1755.11
216.46	1650.66
216.68	1755.11
216.90	1755.11
217.12	1765.35
217.34	1693.67
217.56	1716.20
217.78	1796.07
218.00	1734.63
218.22	1732.58
218.44	1726.44
218.66	1787.88
218.87	1798.12
219.09	1675.24
219.31	1662.95
219.53	1742.82
219.75	1634.28
219.97	1656.81
220.19	1742.82
220.41	1703.91
220.63	1834.98
220.85	1748.97
221.06	1714.15
221.28	1787.88
221.50	1771.49
221.72	1738.73
221.94	1718.25
222.16	1757.16
222.38	1748.97
222.60	1775.59
222.82	1691.62
223.03	1710.05
223.25	1595.37
223.47	1779.68
223.69	1751.01
223.91	1697.77
224.13	1632.23
224.35	1705.96
224.57	1746.92
224.78	1687.53
225.00	1730.53
225.22	1656.81
225.44	1691.62
225.66	1738.73
225.88	1615.85
226.10	1748.97
226.32	1744.87
226.53	1804.26
226.75	1738.73
226.97	1742.82
227.19	1693.67
227.41	1636.33
227.63	1656.81
227.85	1593.32
228.06	1751.01
228.28	1624.04
228.50	1767.40
228.72	1568.74
228.94	1619.94
229.16	1542.12
229.37	1566.70
229.59	1658.85
229.81	1708.01
230.03	1714.15
230.25	1624.04
230.47	1632.23
230.69	1636.33
230.90	1736.68
231.12	1615.85
231.34	1669.09
231.56	1755.11
231.78	1605.61
232.00	1714.15
232.21	1679.33
232.43	1652.71
232.65	1540.07
232.87	1781.73
233.09	1626.09
233.30	1673.19
233.52	1744.87
233.74	1734.63
233.96	1699.81
234.18	1703.91
234.40	1730.53
234.61	1855.46
234.83	1701.86
235.05	1665.00
235.27	1814.50
235.49	1716.20
235.70	1791.97
235.92	1726.44
236.14	1775.59
236.36	1787.88
236.58	1595.37
236.79	1712.10
237.01	1669.09
237.23	1607.66
237.45	1796.07
237.67	1574.89
237.88	1828.84
238.10	1765.35
238.32	1710.05
238.54	1773.54
238.76	1687.53
238.97	1667.05
239.19	1626.09
239.41	1806.31
239.63	1798.12
239.85	1632.23
240.06	1658.85
240.28	1734.63
240.50	1757.16
240.72	1673.19
240.93	1681.38
241.15	1785.83
241.37	1693.67
241.59	1759.21
241.81	1675.24
242.02	1724.39
242.24	1751.01
242.46	1763.30
242.68	1621.99
242.89	1748.97
243.11	1765.35
243.33	1626.09
243.55	1751.01
243.76	1722.34
243.98	1720.29
244.20	1765.35
244.42	1791.97
244.64	1673.19
244.85	1650.66
245.07	1683.43
245.29	1748.97
245.51	1714.15
245.72	1685.48
245.94	1775.59
246.16	1736.68
246.38	1783.78
246.59	1681.38
246.81	1695.72
247.03	1658.85
247.24	1632.23
247.46	1615.85
247.68	1660.90
247.90	1626.09
248.11	1677.29
248.33	1734.63
248.55	1683.43
248.77	1683.43
248.98	1808.36
249.20	1845.22
249.42	1716.20
249.64	1708.01
249.85	1738.73
250.07	1656.81
250.29	1783.78
250.50	1751.01
250.72	1730.53
250.94	1691.62
251.16	1849.32
251.37	1810.40
251.59	1703.91
251.81	1753.06
252.02	1779.68
252.24	1648.61
252.46	1843.17
252.68	1685.48
252.89	1671.14
253.11	1597.42
253.33	1816.55
253.54	1730.53
253.76	1560.55
253.98	1636.33
254.20	1662.95
254.41	1630.18
254.63	1722.34
254.85	1669.09
255.06	1734.63
255.28	1669.09
255.50	1697.77
255.71	1652.71
255.93	1665.00
256.15	1681.38
256.36	1773.54
256.58	1640.42
256.80	1736.68
257.02	1724.39
257.23	1652.71
257.45	1656.81
257.67	1746.92
257.88	1665.00
258.10	1697.77
258.32	1732.58
258.53	1677.29
258.75	1779.68
258.97	1689.57
259.18	1662.95
259.40	1806.31
259.62	1812.45
259.83	1767.40
260.05	1767.40
260.27	2025.44
260.48	1755.11
260.70	1607.66
260.92	1724.39
261.13	1697.77
261.35	1716.20
261.57	1773.54
261.78	1593.32
262.00	1597.42
262.22	1755.11
262.43	1650.66
262.65	1656.81
262.86	1689.57
263.08	1777.64
263.30	1712.10
263.51	1576.94
263.73	1642.47
263.95	1761.25
264.16	1644.52
264.38	1640.42
264.60	1716.20
264.81	1724.39
265.03	1841.12
265.25	1730.53
265.46	1720.29
265.68	1722.34
265.89	1751.01
266.11	1648.61
266.33	1746.92
266.54	1773.54
266.76	1712.10
266.98	1681.38
267.19	1773.54
267.41	1740.77
267.62	1714.15
267.84	1550.31
268.06	1732.58
268.27	1726.44
268.49	1728.49
268.70	1710.05
268.92	1785.83
269.14	1689.57
269.35	1525.74
269.57	1683.43
269.79	1728.49
270.00	1722.34
270.22	1806.31
270.43	1673.19
270.65	1613.80
270.87	1720.29
271.08	1669.09
271.30	1703.91
271.51	1693.67
271.73	1771.49
271.95	1746.92
272.16	1673.19
272.38	1724.39
272.59	1691.62
272.81	1738.73
273.02	1728.49
273.24	1742.82
273.46	1779.68
273.67	1624.04
273.89	1669.09
274.10	1665.00
274.32	1796.07
274.54	1720.29
274.75	1751.01
274.97	1669.09
275.18	1708.01
275.40	1656.81
275.61	1632.23
275.83	1673.19
276.05	1656.81
276.26	1695.72
276.48	1744.87
276.69	1673.19
276.91	1683.43
277.12	1812.45
277.34	1796.07
277.55	1722.34
277.77	1720.29
277.99	1701.86
278.20	1628.14
278.42	1617.90
278.63	1617.90
278.85	1640.42
279.06	1634.28
279.28	1716.20
279.49	1720.29
279.71	1738.73
279.93	1611.75
280.14	1646.57
280.36	1708.01
280.57	1734.63
280.79	1785.83
281.00	1751.01
281.22	1574.89
281.43	1724.39
281.65	1595.37
281.86	1669.09
282.08	1789.92
282.29	1734.63
282.51	1576.94
282.73	1591.27
282.94	1570.79
283.16	1714.15
283.37	1771.49
283.59	1728.49
283.80	1650.66
284.02	1656.81
284.23	1775.59
284.45	1601.51
284.66	1675.24
284.88	1656.81
285.09	1757.16
285.31	1736.68
285.52	1660.90
285.74	1552.36
285.95	1701.86
286.17	1751.01
286.38	1773.54
286.60	1646.57
286.81	1636.33
287.03	1730.53
287.24	1634.28
287.46	1705.96
287.67	1701.86
287.89	1839.08
288.10	1687.53
288.32	1697.77
288.53	1865.70
288.75	1697.77
288.96	1742.82
289.18	1730.53
289.39	1724.39
289.61	1693.67
289.82	1832.93
290.04	1806.31
290.25	1607.66
290.47	1708.01
290.68	1648.61
290.90	1722.34
291.11	1597.42
291.33	1767.40
291.54	1638.38
291.76	1738.73
291.97	1787.88
292.18	1673.19
292.40	1650.66
292.61	1673.19
292.83	1802.21
293.04	1726.44
293.26	1701.86
293.47	1714.15
293.69	1652.71
293.90	1671.14
294.12	1791.97
294.33	1751.01
294.55	1630.18
294.76	1808.36
294.97	1832.93
295.19	1867.75
295.40	1677.29
295.62	1689.57
295.83	1751.01
296.05	1685.48
296.26	1744.87
296.48	1646.57
296.69	1679.33
296.90	1722.34
297.12	1767.40
297.33	1843.17
297.55	1718.25
297.76	1738.73
297.98	1732.58
298.19	1714.15
298.41	1673.19
298.62	1665.00
298.83	1748.97
299.05	1763.30
299.26	1693.67
299.48	1652.71
299.69	1705.96
299.90	1671.14
300.12	1648.61
300.33	1748.97
300.55	1751.01
300.76	1710.05
300.98	1665.00
301.19	1783.78
301.40	1710.05
301.62	1726.44
301.83	1738.73
302.05	1710.05
302.26	1767.40
302.47	1720.29
302.69	1624.04
302.90	1722.34
303.12	1576.94
303.33	1738.73
303.54	1775.59
303.76	1703.91
303.97	1742.82
304.19	1781.73
304.40	1613.80
304.61	1751.01
304.83	1789.92
305.04	1716.20
305.26	1626.09
305.47	1644.52
305.68	1720.29
305.90	1550.31
306.11	1765.35
306.33	1724.39
306.54	1652.71
306.75	1769.44
306.97	1574.89
307.18	1708.01
307.39	1675.24
307.61	1742.82
307.82	1654.76
308.04	1746.92
308.25	1626.09
308.46	1708.01
308.68	1732.58
308.89	1667.05
309.10	1621.99
309.32	1699.81
309.53	1695.72
309.74	1699.81
309.96	1656.81
310.17	1789.92
310.39	1736.68
310.60	1791.97
310.81	1636.33
311.03	1521.64
311.24	1710.05
311.45	1718.25
311.67	1873.89
311.88	1650.66
312.09	1658.85
312.31	1607.66
312.52	1697.77
312.73	1667.05
312.95	1644.52
313.16	1667.05
313.37	1710.05
313.59	1679.33
313.80	1699.81
314.01	1855.46
314.23	1693.67
314.44	1632.23
314.65	1656.81
314.87	1624.04
315.08	1761.25
315.29	1683.43
315.51	1646.57
315.72	1626.09
315.93	1771.49
316.15	1755.11
316.36	1628.14
316.57	1677.29
316.79	1738.73
317.00	1628.14
317.21	1738.73
317.43	1628.14
317.64	1726.44
317.85	1699.81
318.07	1685.48
318.28	1718.25
318.49	1806.31
318.70	1861.60
318.92	1763.30
319.13	1877.99
319.34	1794.02
319.56	1771.49
319.77	1783.78
319.98	1816.55
320.20	1755.11
320.41	1759.21
320.62	1767.40
320.83	1701.86
321.05	1763.30
321.26	1736.68
321.47	1628.14
321.69	1822.69
321.90	1665.00
322.11	1681.38
322.32	1722.34
322.54	1808.36
322.75	1656.81
322.96	1804.26
323.18	1669.09
323.39	1564.65
323.60	1597.42
323.81	1769.44
324.03	1634.28
324.24	1673.19
324.45	1710.05
324.66	1671.14
324.88	1722.34
325.09	1814.50
325.30	1681.38
325.52	1732.58
325.73	1732.58
325.94	1650.66
326.15	1654.76
326.37	1640.42
326.58	1697.77
326.79	1722.34
327.00	1613.80
327.22	1697.77
327.43	1679.33
327.64	1613.80
327.85	1759.21
328.07	1722.34
328.28	1787.88
328.49	1630.18
328.70	1699.81
328.92	1681.38
329.13	1705.96
329.34	1689.57
329.55	1826.79
329.76	1755.11
329.98	1671.14
330.19	1804.26
330.40	1849.32
330.61	1744.87
330.83	1730.53
331.04	1624.04
331.25	1751.01
331.46	1708.01
331.68	1644.52
331.89	1783.78
332.10	1722.34
332.31	1685.48
332.52	1705.96
332.74	1714.15
332.95	1665.00
333.16	1648.61
333.37	1722.34
333.58	1699.81
333.80	1724.39
334.01	1630.18
334.22	1753.06
334.43	1681.38
334.64	1679.33
334.86	1673.19
335.07	1619.94
335.28	1716.20
335.49	1634.28
335.70	1710.05
335.92	1714.15
336.13	1855.46
336.34	1714.15
336.55	1781.73
336.76	1681.38
336.98	1654.76
337.19	1679.33
337.40	1761.25
337.61	1800.16
337.82	1691.62
338.04	1822.69
338.25	1671.14
338.46	1673.19
338.67	1705.96
338.88	1677.29
339.09	1642.47
339.31	1679.33
339.52	1716.20
339.73	1607.66
339.94	1652.71
340.15	1669.09
340.36	1642.47
340.58	1734.63
340.79	1605.61
341.00	1767.40
341.21	1669.09
341.42	1841.12
341.63	1681.38
341.85	1783.78
342.06	1712.10
342.27	1677.29
342.48	1693.67
342.69	1583.08
342.90	1748.97
343.12	1710.05
343.33	1644.52
343.54	1689.57
343.75	1734.63
343.96	1759.21
344.17	1685.48
344.38	1740.77
344.60	1712.10
344.81	1621.99
345.02	1714.15
345.23	1746.92
345.44	1738.73
345.65	1589.22
345.86	1757.16
346.07	1730.53
346.29	1595.37
346.50	1609.70
346.71	1708.01
346.92	1785.83
347.13	1865.70
347.34	1710.05
347.55	1681.38
347.76	1691.62
347.98	1626.09
348.19	1693.67
348.40	1755.11
348.61	1652.71
348.82	1890.28
349.03	1742.82
349.24	1658.85
349.45	1775.59
349.66	1593.32
349.88	1691.62
350.09	1726.44
350.30	1763.30
350.51	1800.16
350.72	1648.61
350.93	1712.10
351.14	1644.52
351.35	1712.10
351.56	1736.68
351.77	1722.34
351.99	1722.34
352.20	1837.03
352.41	1757.16
352.62	1570.79
352.83	1683.43
353.04	1693.67
353.25	1603.56
353.46	1806.31
353.67	1738.73
353.88	1636.33
354.09	1667.05
354.30	1740.77
354.52	1718.25
354.73	1695.72
354.94	1636.33
355.15	1695.72
355.36	1753.06
355.57	1609.70
355.78	1716.20
355.99	1673.19
356.20	1736.68
356.41	1777.64
356.62	1744.87
356.83	1660.90
357.04	1773.54
357.25	1671.14
357.46	1640.42
357.68	1673.19
357.89	1671.14
358.10	1640.42
358.31	1701.86
358.52	1671.14
358.73	1617.90
358.94	1691.62
359.15	1628.14
359.36	1763.30
359.57	1662.95
359.78	1775.59
359.99	1681.38
360.20	1628.14
360.41	1730.53
360.62	1753.06
360.83	1712.10
361.04	1728.49
361.25	1718.25
361.46	1798.12
361.67	1679.33
361.88	1691.62
362.09	1738.73
362.30	1740.77
362.51	1665.00
362.72	1775.59
362.93	1720.29
363.14	1658.85
363.35	1720.29
363.56	1595.37
363.78	1834.98
363.99	1710.05
364.20	1658.85
364.41	1753.06
364.62	1867.75
364.83	1701.86
365.04	1753.06
365.25	1644.52
365.46	1748.97
365.67	1548.26
365.88	1630.18
366.09	1761.25
366.30	1665.00
366.51	1759.21
366.72	1634.28
366.93	1689.57
367.14	1722.34
367.35	1794.02
367.56	1679.33
367.77	1728.49
367.98	1642.47
368.18	1759.21
368.39	1703.91
368.60	1640.42
368.81	1714.15
369.02	1708.01
369.23	1603.56
369.44	1685.48
369.65	1611.75
369.86	1677.29
370.07	1720.29
370.28	1644.52
370.49	1681.38
370.70	1718.25
370.91	1673.19
371.12	1683.43
371.33	1722.34
371.54	1712.10
371.75	1781.73
371.96	1585.13
372.17	1697.77
372.38	1697.77
372.59	1759.21
372.80	1658.85
373.01	1734.63
373.22	1683.43
373.43	1722.34
373.64	1640.42
373.85	1789.92
374.06	1726.44
374.26	1783.78
374.47	1718.25
374.68	1808.36
374.89	1667.05
375.10	1708.01
375.31	1708.01
375.52	1753.06
375.73	1673.19
375.94	1634.28
376.15	1767.40
376.36	1642.47
376.57	1689.57
376.78	1564.65
376.99	1734.63
377.20	1767.40
377.40	1689.57
377.61	1767.40
377.82	1703.91
378.03	1800.16
378.24	1767.40
378.45	1718.25
378.66	1708.01
378.87	1574.89
379.08	1558.50
379.29	1695.72
379.50	1769.44
379.71	1722.34
379.91	1767.40
380.12	1710.05
380.33	1626.09
380.54	1703.91
380.75	1691.62
380.96	1660.90
381.17	1755.11
381.38	1689.57
381.59	1767.40
381.80	1693.67
382.00	1822.69
382.21	1810.40
382.42	1875.94
382.63	1900.52
382.84	1736.68
383.05	1798.12
383.26	1794.02
383.47	1748.97
383.68	1669.09
383.88	1769.44
384.09	1621.99
384.30	1800.16
384.51	1667.05
384.72	1656.81
384.93	1617.90
385.14	1699.81
385.35	1718.25
385.55	1630.18
385.76	1730.53
385.97	1689.57
386.18	1650.66
386.39	1642.47
386.60	1630.18
386.81	1740.77
387.02	1714.15
387.22	1714.15
387.43	1759.21
387.64	1800.16
387.85	1865.70
388.06	2240.48
388.27	4198.34
388.48	6784.92
388.68	8306.56
388.89	9711.47
389.10	10000.23
389.31	8767.35
389.52	7542.67
389.73	6731.67
389.93	6178.72
390.14	6041.51
390.35	5203.89
390.56	4677.56
390.77	3848.13
390.98	3033.04
391.18	2578.39
391.39	2111.46
391.60	1880.04
391.81	1781.73
392.02	1728.49
392.23	1880.04
392.43	1728.49
392.64	1789.92
392.85	1724.39
393.06	1779.68
393.27	1685.48
393.47	1662.95
393.68	1691.62
393.89	1642.47
394.10	1806.31
394.31	1656.81
394.52	1665.00
394.72	1677.29
394.93	1798.12
395.14	1605.61
395.35	1697.77
395.56	1675.24
395.76	1779.68
395.97	1834.98
396.18	1773.54
396.39	1900.52
396.60	2029.54
396.80	1845.22
397.01	1841.12
397.22	1812.45
397.43	1771.49
397.64	1722.34
397.84	1806.31
398.05	1828.84
398.26	1679.33
398.47	1822.69
398.67	1765.35
398.88	1742.82
399.09	1755.11
399.30	1628.14
399.51	1701.86
399.71	1648.61
399.92	1665.00
400.13	1708.01
400.34	1722.34
400.54	1638.38
400.75	1726.44
400.96	1724.39
401.17	1732.58
401.37	1763.30
401.58	1742.82
401.79	1675.24
402.00	1853.41
402.21	1955.81
402.41	1959.91
402.62	2004.96
402.83	2041.82
403.04	2019.30
403.24	2062.30
403.45	1863.65
403.66	1972.19
403.87	1908.71
404.07	1910.75
404.28	1880.04
404.49	1945.57
404.70	1779.68
404.90	1759.21
405.11	1726.44
405.32	1771.49
405.52	1718.25
405.73	1673.19
405.94	1640.42
406.15	1665.00
406.35	1834.98
406.56	1732.58
406.77	1714.15
406.98	1757.16
407.18	1773.54
407.39	1736.68
407.60	1734.63
407.80	1746.92
408.01	1652.71
408.22	1730.53
408.43	1765.35
408.63	1771.49
408.84	1662.95
409.05	1705.96
409.25	1724.39
409.46	1730.53
409.67	1693.67
409.88	1642.47
410.08	1703.91
410.29	1763.30
410.50	1746.92
410.70	1699.81
410.91	1632.23
411.12	1806.31
411.32	1751.01
411.53	1685.48
411.74	1779.68
411.95	1748.97
412.15	1734.63
412.36	1779.68
412.57	1791.97
412.77	1787.88
412.98	1720.29
413.19	1705.96
413.39	1767.40
413.60	1794.02
413.81	1806.31
414.01	1660.90
414.22	1730.53
414.43	1808.36
414.63	1726.44
414.84	1802.21
415.05	1716.20
415.25	1615.85
415.46	1757.16
415.67	1732.58
415.87	1763.30
416.08	1738.73
416.29	1683.43
416.49	1665.00
416.70	1636.33
416.91	1615.85
417.11	1724.39
417.32	1755.11
417.53	1845.22
417.73	1632.23
417.94	1621.99
418.15	1742.82
418.35	1775.59
418.56	1632.23
418.77	1802.21
418.97	1656.81
419.18	1683.43
419.38	1609.70
419.59	1699.81
419.80	1728.49
420.00	1693.67
420.21	1755.11
420.42	1822.69
420.62	1763.30
420.83	1652.71
421.04	1693.67
421.24	1669.09
421.45	1728.49
421.65	1697.77
421.86	1701.86
422.07	1630.18
422.27	1742.82
422.48	1705.96
422.69	1638.38
422.89	1724.39
423.10	1748.97
423.30	1648.61
423.51	1748.97
423.72	1714.15
423.92	1718.25
424.13	1652.71
424.33	1636.33
424.54	1695.72
424.75	1681.38
424.95	1859.56
425.16	1789.92
425.36	1736.68
425.57	1742.82
425.78	1767.40
425.98	1814.50
426.19	1658.85
426.39	1699.81
426.60	1787.88
426.81	1808.36
427.01	1740.77
427.22	1607.66
427.42	1578.98
427.63	1636.33
427.83	1722.34
428.04	1785.83
428.25	1769.44
428.45	1781.73
428.66	1804.26
428.86	1722.34
429.07	1734.63
429.28	1705.96
429.48	1744.87
429.69	1658.85
429.89	1658.85
430.10	1677.29
430.30	1720.29
430.51	1705.96
430.71	1662.95
430.92	1683.43
431.13	1710.05
431.33	1740.77
431.54	1632.23
431.74	1820.64
431.95	1884.13
432.15	1669.09
432.36	1705.96
432.56	1740.77
432.77	1777.64
432.98	1841.12
433.18	1757.16
433.39	1619.94
433.59	1636.33
433.80	1787.88
434.00	1810.40
434.21	1712.10
434.41	1701.86
434.62	1910.75
434.82	1624.04
435.03	1621.99
435.23	1712.10
435.44	1595.37
435.64	1673.19
435.85	1671.14
436.06	1714.15
436.26	1697.77
436.47	1699.81
436.67	1734.63
436.88	1699.81
437.08	1742.82
437.29	1748.97
437.49	1687.53
437.70	1769.44
437.90	1675.24
438.11	1796.07
438.31	1705.96
438.52	1824.74
438.72	1812.45
438.93	1902.56
439.13	1773.54
439.34	1789.92
439.54	1746.92
439.75	1798.12
439.95	1730.53
440.16	1697.77
440.36	1746.92
440.57	1722.34
440.77	1724.39
440.98	1738.73
441.18	1759.21
441.39	1597.42
441.59	1716.20
441.80	1812.45
442.00	1728.49
442.21	1779.68
442.41	1683.43
442.62	1740.77
442.82	1697.77
443.02	1746.92
443.23	1769.44
443.43	1710.05
443.64	1773.54
443.84	1677.29
444.05	1841.12
444.25	1740.77
444.46	1787.88
444.66	1703.91
444.87	1818.60
445.07	1667.05
445.28	1742.82
445.48	1800.16
445.69	1740.77
445.89	1974.24
446.09	1701.86
446.30	2029.54
446.50	2645.98
446.71	3704.78
446.91	4399.04
447.12	4745.14
447.32	5019.57
447.53	4308.93
447.73	3833.80
447.93	3518.41
448.14	3391.44
448.34	3145.68
448.55	2916.31
448.75	2818.00
448.96	2707.41
449.16	2451.42
449.36	2285.53
449.57	2002.91
449.77	1882.08
449.98	1748.97
450.18	1779.68
450.39	1837.03
450.59	1822.69
450.79	1712.10
451.00	1683.43
451.20	1834.98
451.41	1701.86
451.61	1759.21
451.81	1761.25
452.02	1746.92
452.22	1724.39
452.43	1689.57
452.63	1589.22
