SpectraSuite Data File
++++++++++++++++++++++++++++++++++++
Date: Mon Jun 06 15:01:17 CEST 2016
User: root
Dark Spectrum Present: No
Reference Spectrum Present: No
Number of Sampled Component Spectra: 1
Spectrometers: USB4C02835
Integration Time (usec): 100000 (USB4C02835)
Spectra Averaged: 1 (USB4C02835)
Boxcar Smoothing: 0 (USB4C02835)
Correct for Electrical Dark: No (USB4C02835)
Strobe/Lamp Enabled: No (USB4C02835)
Correct for Detector Non-linearity: No (USB4C02835)
Correct for Stray Light: No (USB4C02835)
Number of Pixels in Processed Spectrum: 3648
>>>>>Begin Processed Spectral Data<<<<<
177.47	1503.21
177.69	1503.21
177.91	1503.21
178.13	1433.58
178.36	1411.05
178.58	1701.86
178.80	1710.05
179.02	1683.43
179.24	1691.62
179.46	1673.19
179.68	1798.12
179.90	1611.75
180.13	1697.77
180.35	1685.48
180.57	1632.23
180.79	1667.05
181.01	1671.14
181.23	1810.40
181.45	1738.73
181.67	1708.01
181.90	1714.15
182.12	1718.25
182.34	1642.47
182.56	1718.25
182.78	1701.86
183.00	1732.58
183.22	1703.91
183.44	1634.28
183.66	1800.16
183.89	1837.03
184.11	1740.77
184.33	1689.57
184.55	1814.50
184.77	1748.97
184.99	1738.73
185.21	1648.61
185.43	1794.02
185.65	1677.29
185.87	1804.26
186.10	1824.74
186.32	1943.52
186.54	1742.82
186.76	1748.97
186.98	1775.59
187.20	1730.53
187.42	1660.90
187.64	1681.38
187.86	1814.50
188.08	1763.30
188.30	1703.91
188.52	1693.67
188.75	1767.40
188.97	1710.05
189.19	1619.94
189.41	1751.01
189.63	1783.78
189.85	1662.95
190.07	1677.29
190.29	1587.18
190.51	1685.48
190.73	1665.00
190.95	1734.63
191.17	1665.00
191.39	1646.57
191.61	1650.66
191.84	1660.90
192.06	1673.19
192.28	1646.57
192.50	1906.66
192.72	1746.92
192.94	1699.81
193.16	1708.01
193.38	1773.54
193.60	1699.81
193.82	1720.29
194.04	1755.11
194.26	1751.01
194.48	1755.11
194.70	1667.05
194.92	1665.00
195.14	1757.16
195.36	1660.90
195.58	1687.53
195.80	1667.05
196.02	1624.04
196.24	1681.38
196.46	1683.43
196.69	1675.24
196.91	1871.84
197.13	1642.47
197.35	1703.91
197.57	1724.39
197.79	1724.39
198.01	1720.29
198.23	1689.57
198.45	1712.10
198.67	1638.38
198.89	1703.91
199.11	1699.81
199.33	1710.05
199.55	1613.80
199.77	1716.20
199.99	1785.83
200.21	1685.48
200.43	1642.47
200.65	1683.43
200.87	1660.90
201.09	1710.05
201.31	1611.75
201.53	1726.44
201.75	1718.25
201.97	1675.24
202.19	1644.52
202.41	1687.53
202.63	1771.49
202.85	1675.24
203.07	1693.67
203.29	1650.66
203.51	1665.00
203.73	1593.32
203.95	1888.23
204.17	1718.25
204.39	1642.47
204.61	1722.34
204.83	1726.44
205.05	1714.15
205.27	1751.01
205.49	1757.16
205.71	1667.05
205.93	1609.70
206.15	1720.29
206.37	1722.34
206.59	1691.62
206.81	1617.90
207.03	1738.73
207.25	1593.32
207.47	1763.30
207.69	1626.09
207.91	1746.92
208.13	1736.68
208.34	1630.18
208.56	1763.30
208.78	1742.82
209.00	1632.23
209.22	1660.90
209.44	1705.96
209.66	1642.47
209.88	1748.97
210.10	1669.09
210.32	1787.88
210.54	1751.01
210.76	1775.59
210.98	1685.48
211.20	1527.78
211.42	1675.24
211.64	1738.73
211.86	1734.63
212.08	1769.44
212.30	1708.01
212.52	1785.83
212.74	1656.81
212.96	1703.91
213.17	1710.05
213.39	1728.49
213.61	1822.69
213.83	1613.80
214.05	1576.94
214.27	1708.01
214.49	1570.79
214.71	1705.96
214.93	1771.49
215.15	1671.14
215.37	1718.25
215.59	1665.00
215.81	1724.39
216.03	1763.30
216.24	1714.15
216.46	1718.25
216.68	1689.57
216.90	1753.06
217.12	1824.74
217.34	1687.53
217.56	1744.87
217.78	1822.69
218.00	1699.81
218.22	1779.68
218.44	1632.23
218.66	1697.77
218.87	1847.27
219.09	1718.25
219.31	1710.05
219.53	1683.43
219.75	1689.57
219.97	1650.66
220.19	1779.68
220.41	1728.49
220.63	1781.73
220.85	1722.34
221.06	1646.57
221.28	1798.12
221.50	1742.82
221.72	1665.00
221.94	1740.77
222.16	1642.47
222.38	1710.05
222.60	1755.11
222.82	1660.90
223.03	1695.72
223.25	1662.95
223.47	1732.58
223.69	1798.12
223.91	1763.30
224.13	1677.29
224.35	1724.39
224.57	1763.30
224.78	1708.01
225.00	1636.33
225.22	1660.90
225.44	1714.15
225.66	1730.53
225.88	1646.57
226.10	1748.97
226.32	1671.14
226.53	1738.73
226.75	1648.61
226.97	1699.81
227.19	1632.23
227.41	1626.09
227.63	1685.48
227.85	1660.90
228.06	1736.68
228.28	1730.53
228.50	1777.64
228.72	1712.10
228.94	1650.66
229.16	1730.53
229.37	1687.53
229.59	1703.91
229.81	1730.53
230.03	1669.09
230.25	1611.75
230.47	1681.38
230.69	1542.12
230.90	1773.54
231.12	1710.05
231.34	1652.71
231.56	1751.01
231.78	1693.67
232.00	1624.04
232.21	1763.30
232.43	1708.01
232.65	1624.04
232.87	1701.86
233.09	1619.94
233.30	1714.15
233.52	1736.68
233.74	1656.81
233.96	1679.33
234.18	1691.62
234.40	1734.63
234.61	1845.22
234.83	1636.33
235.05	1613.80
235.27	1800.16
235.49	1812.45
235.70	1671.14
235.92	1832.93
236.14	1699.81
236.36	1869.80
236.58	1617.90
236.79	1728.49
237.01	1781.73
237.23	1771.49
237.45	1867.75
237.67	1570.79
237.88	1677.29
238.10	1794.02
238.32	1722.34
238.54	1677.29
238.76	1726.44
238.97	1591.27
239.19	1724.39
239.41	1759.21
239.63	1796.07
239.85	1716.20
240.06	1685.48
240.28	1738.73
240.50	1757.16
240.72	1687.53
240.93	1728.49
241.15	1812.45
241.37	1683.43
241.59	1800.16
241.81	1652.71
242.02	1714.15
242.24	1703.91
242.46	1759.21
242.68	1669.09
242.89	1699.81
243.11	1673.19
243.33	1679.33
243.55	1667.05
243.76	1738.73
243.98	1681.38
244.20	1660.90
244.42	1796.07
244.64	1673.19
244.85	1681.38
245.07	1624.04
245.29	1781.73
245.51	1738.73
245.72	1767.40
245.94	1808.36
246.16	1669.09
246.38	1806.31
246.59	1718.25
246.81	1693.67
247.03	1611.75
247.24	1689.57
247.46	1662.95
247.68	1755.11
247.90	1708.01
248.11	1665.00
248.33	1720.29
248.55	1689.57
248.77	1689.57
248.98	1744.87
249.20	1773.54
249.42	1730.53
249.64	1771.49
249.85	1703.91
250.07	1619.94
250.29	1740.77
250.50	1730.53
250.72	1613.80
250.94	1714.15
251.16	1818.60
251.37	1726.44
251.59	1699.81
251.81	1683.43
252.02	1746.92
252.24	1722.34
252.46	1730.53
252.68	1589.22
252.89	1644.52
253.11	1601.51
253.33	1863.65
253.54	1710.05
253.76	1634.28
253.98	1599.46
254.20	1730.53
254.41	1650.66
254.63	1695.72
254.85	1617.90
255.06	1697.77
255.28	1742.82
255.50	1691.62
255.71	1701.86
255.93	1673.19
256.15	1648.61
256.36	1693.67
256.58	1701.86
256.80	1699.81
257.02	1632.23
257.23	1568.74
257.45	1710.05
257.67	1720.29
257.88	1656.81
258.10	1677.29
258.32	1779.68
258.53	1689.57
258.75	1791.97
258.97	1687.53
259.18	1699.81
259.40	1742.82
259.62	1820.64
259.83	1824.74
260.05	1677.29
260.27	1908.71
260.48	1736.68
260.70	1679.33
260.92	1751.01
261.13	1791.97
261.35	1714.15
261.57	1728.49
261.78	1638.38
262.00	1687.53
262.22	1814.50
262.43	1652.71
262.65	1595.37
262.86	1646.57
263.08	1806.31
263.30	1693.67
263.51	1683.43
263.73	1591.27
263.95	1753.06
264.16	1720.29
264.38	1689.57
264.60	1806.31
264.81	1679.33
265.03	1763.30
265.25	1841.12
265.46	1636.33
265.68	1748.97
265.89	1755.11
266.11	1583.08
266.33	1738.73
266.54	1681.38
266.76	1681.38
266.98	1673.19
267.19	1804.26
267.41	1691.62
267.62	1675.24
267.84	1650.66
268.06	1648.61
268.27	1699.81
268.49	1681.38
268.70	1738.73
268.92	1667.05
269.14	1628.14
269.35	1632.23
269.57	1705.96
269.79	1673.19
270.00	1687.53
270.22	1779.68
270.43	1677.29
270.65	1587.18
270.87	1769.44
271.08	1808.36
271.30	1767.40
271.51	1652.71
271.73	1755.11
271.95	1767.40
272.16	1679.33
272.38	1734.63
272.59	1712.10
272.81	1718.25
273.02	1681.38
273.24	1665.00
273.46	1785.83
273.67	1677.29
273.89	1689.57
274.10	1708.01
274.32	1773.54
274.54	1724.39
274.75	1748.97
274.97	1667.05
275.18	1742.82
275.40	1781.73
275.61	1701.86
275.83	1757.16
276.05	1599.46
276.26	1671.14
276.48	1777.64
276.69	1701.86
276.91	1658.85
277.12	1718.25
277.34	1755.11
277.55	1714.15
277.77	1693.67
277.99	1628.14
278.20	1648.61
278.42	1685.48
278.63	1619.94
278.85	1701.86
279.06	1640.42
279.28	1720.29
279.49	1759.21
279.71	1757.16
279.93	1685.48
280.14	1656.81
280.36	1662.95
280.57	1877.99
280.79	1748.97
281.00	1626.09
281.22	1765.35
281.43	1742.82
281.65	1564.65
281.86	1630.18
282.08	1746.92
282.29	1832.93
282.51	1617.90
282.73	1656.81
282.94	1636.33
283.16	1767.40
283.37	1814.50
283.59	1708.01
283.80	1742.82
284.02	1662.95
284.23	1775.59
284.45	1642.47
284.66	1634.28
284.88	1679.33
285.09	1783.78
285.31	1724.39
285.52	1710.05
285.74	1603.56
285.95	1650.66
286.17	1712.10
286.38	1718.25
286.60	1687.53
286.81	1652.71
287.03	1652.71
287.24	1613.80
287.46	1697.77
287.67	1619.94
287.89	1800.16
288.10	1683.43
288.32	1767.40
288.53	1845.22
288.75	1671.14
288.96	1677.29
289.18	1648.61
289.39	1738.73
289.61	1783.78
289.82	1832.93
290.04	1837.03
290.25	1712.10
290.47	1771.49
290.68	1699.81
290.90	1773.54
291.11	1646.57
291.33	1763.30
291.54	1593.32
291.76	1658.85
291.97	1738.73
292.18	1755.11
292.40	1656.81
292.61	1591.27
292.83	1824.74
293.04	1718.25
293.26	1701.86
293.47	1619.94
293.69	1636.33
293.90	1771.49
294.12	1771.49
294.33	1701.86
294.55	1714.15
294.76	1818.60
294.97	1718.25
295.19	1892.32
295.40	1687.53
295.62	1757.16
295.83	1730.53
296.05	1660.90
296.26	1757.16
296.48	1636.33
296.69	1726.44
296.90	1699.81
297.12	1787.88
297.33	1802.21
297.55	1642.47
297.76	1720.29
297.98	1751.01
298.19	1724.39
298.41	1619.94
298.62	1687.53
298.83	1744.87
299.05	1689.57
299.26	1679.33
299.48	1697.77
299.69	1757.16
299.90	1685.48
300.12	1650.66
300.33	1779.68
300.55	1716.20
300.76	1771.49
300.98	1599.46
301.19	1685.48
301.40	1640.42
301.62	1624.04
301.83	1740.77
302.05	1576.94
302.26	1628.14
302.47	1742.82
302.69	1632.23
302.90	1679.33
303.12	1558.50
303.33	1777.64
303.54	1753.06
303.76	1730.53
303.97	1753.06
304.19	1820.64
304.40	1677.29
304.61	1697.77
304.83	1765.35
305.04	1746.92
305.26	1685.48
305.47	1646.57
305.68	1683.43
305.90	1673.19
306.11	1800.16
306.33	1671.14
306.54	1677.29
306.75	1714.15
306.97	1611.75
307.18	1677.29
307.39	1665.00
307.61	1710.05
307.82	1669.09
308.04	1759.21
308.25	1656.81
308.46	1742.82
308.68	1701.86
308.89	1724.39
309.10	1732.58
309.32	1773.54
309.53	1638.38
309.74	1771.49
309.96	1742.82
310.17	1724.39
310.39	1617.90
310.60	1755.11
310.81	1712.10
311.03	1640.42
311.24	1730.53
311.45	1687.53
311.67	1773.54
311.88	1816.55
312.09	1644.52
312.31	1665.00
312.52	1648.61
312.73	1695.72
312.95	1593.32
313.16	1601.51
313.37	1779.68
313.59	1714.15
313.80	1730.53
314.01	1837.03
314.23	1642.47
314.44	1665.00
314.65	1607.66
314.87	1724.39
315.08	1710.05
315.29	1632.23
315.51	1669.09
315.72	1648.61
315.93	1753.06
316.15	1748.97
316.36	1683.43
316.57	1650.66
316.79	1726.44
317.00	1658.85
317.21	1775.59
317.43	1632.23
317.64	1695.72
317.85	1689.57
318.07	1619.94
318.28	1714.15
318.49	1742.82
318.70	1834.98
318.92	1800.16
319.13	1822.69
319.34	1820.64
319.56	1777.64
319.77	1765.35
319.98	1730.53
320.20	1800.16
320.41	1714.15
320.62	1763.30
320.83	1656.81
321.05	1773.54
321.26	1658.85
321.47	1669.09
321.69	1779.68
321.90	1628.14
322.11	1712.10
322.32	1671.14
322.54	1798.12
322.75	1648.61
322.96	1814.50
323.18	1599.46
323.39	1597.42
323.60	1714.15
323.81	1751.01
324.03	1658.85
324.24	1716.20
324.45	1751.01
324.66	1624.04
324.88	1728.49
325.09	1761.25
325.30	1619.94
325.52	1759.21
325.73	1730.53
325.94	1697.77
326.15	1595.37
326.37	1710.05
326.58	1761.25
326.79	1796.07
327.00	1632.23
327.22	1705.96
327.43	1662.95
327.64	1636.33
327.85	1718.25
328.07	1683.43
328.28	1767.40
328.49	1710.05
328.70	1689.57
328.92	1714.15
329.13	1615.85
329.34	1738.73
329.55	1787.88
329.76	1751.01
329.98	1728.49
330.19	1798.12
330.40	1703.91
330.61	1705.96
330.83	1734.63
331.04	1695.72
331.25	1742.82
331.46	1681.38
331.68	1609.70
331.89	1746.92
332.10	1691.62
332.31	1677.29
332.52	1662.95
332.74	1806.31
332.95	1617.90
333.16	1681.38
333.37	1744.87
333.58	1787.88
333.80	1751.01
334.01	1667.05
334.22	1677.29
334.43	1667.05
334.64	1720.29
334.86	1699.81
335.07	1712.10
335.28	1806.31
335.49	1587.18
335.70	1757.16
335.92	1724.39
336.13	1701.86
336.34	1722.34
336.55	1728.49
336.76	1654.76
336.98	1538.02
337.19	1679.33
337.40	1877.99
337.61	1824.74
337.82	1669.09
338.04	1755.11
338.25	1611.75
338.46	1642.47
338.67	1609.70
338.88	1646.57
339.09	1658.85
339.31	1634.28
339.52	1636.33
339.73	1646.57
339.94	1738.73
340.15	1681.38
340.36	1587.18
340.58	1681.38
340.79	1722.34
341.00	1675.24
341.21	1650.66
341.42	1824.74
341.63	1705.96
341.85	1794.02
342.06	1765.35
342.27	1685.48
342.48	1787.88
342.69	1638.38
342.90	1691.62
343.12	1753.06
343.33	1660.90
343.54	1738.73
343.75	1757.16
343.96	1708.01
344.17	1634.28
344.38	1665.00
344.60	1660.90
344.81	1642.47
345.02	1656.81
345.23	1746.92
345.44	1759.21
345.65	1812.45
345.86	1753.06
346.07	1785.83
346.29	1677.29
346.50	1728.49
346.71	1716.20
346.92	1746.92
347.13	1814.50
347.34	1644.52
347.55	1718.25
347.76	1734.63
347.98	1632.23
348.19	1626.09
348.40	1806.31
348.61	1654.76
348.82	1767.40
349.03	1722.34
349.24	1640.42
349.45	1826.79
349.66	1591.27
349.88	1761.25
350.09	1646.57
350.30	1810.40
350.51	1746.92
350.72	1687.53
350.93	1720.29
351.14	1642.47
351.35	1753.06
351.56	1726.44
351.77	1779.68
351.99	1669.09
352.20	1730.53
352.41	1812.45
352.62	1671.14
352.83	1685.48
353.04	1708.01
353.25	1611.75
353.46	1705.96
353.67	1744.87
353.88	1613.80
354.09	1714.15
354.30	1753.06
354.52	1710.05
354.73	1621.99
354.94	1642.47
355.15	1683.43
355.36	1847.27
355.57	1662.95
355.78	1769.44
355.99	1685.48
356.20	1736.68
356.41	1746.92
356.62	1748.97
356.83	1728.49
357.04	1734.63
357.25	1609.70
357.46	1695.72
357.68	1640.42
357.89	1677.29
358.10	1679.33
358.31	1720.29
358.52	1689.57
358.73	1736.68
358.94	1615.85
359.15	1718.25
359.36	1744.87
359.57	1742.82
359.78	1714.15
359.99	1755.11
360.20	1599.46
360.41	1642.47
360.62	1740.77
360.83	1662.95
361.04	1718.25
361.25	1701.86
361.46	1779.68
361.67	1689.57
361.88	1779.68
362.09	1691.62
362.30	1736.68
362.51	1685.48
362.72	1714.15
362.93	1761.25
363.14	1724.39
363.35	1681.38
363.56	1611.75
363.78	1806.31
363.99	1740.77
364.20	1703.91
364.41	1742.82
364.62	1810.40
364.83	1746.92
365.04	1699.81
365.25	1671.14
365.46	1736.68
365.67	1734.63
365.88	1605.61
366.09	1630.18
366.30	1611.75
366.51	1720.29
366.72	1675.24
366.93	1665.00
367.14	1771.49
367.35	1773.54
367.56	1740.77
367.77	1796.07
367.98	1765.35
368.18	1636.33
368.39	1740.77
368.60	1611.75
368.81	1746.92
369.02	1791.97
369.23	1654.76
369.44	1589.22
369.65	1677.29
369.86	1736.68
370.07	1660.90
370.28	1636.33
370.49	1665.00
370.70	1767.40
370.91	1644.52
371.12	1609.70
371.33	1800.16
371.54	1685.48
371.75	1886.18
371.96	1654.76
372.17	1728.49
372.38	1689.57
372.59	1757.16
372.80	1660.90
373.01	1677.29
373.22	1732.58
373.43	1720.29
373.64	1634.28
373.85	1712.10
374.06	1800.16
374.26	1734.63
374.47	1718.25
374.68	1800.16
374.89	1726.44
375.10	1708.01
375.31	1765.35
375.52	1759.21
375.73	1769.44
375.94	1595.37
376.15	1814.50
376.36	1656.81
376.57	1658.85
376.78	1683.43
376.99	1693.67
377.20	1769.44
377.40	1685.48
377.61	1808.36
377.82	1644.52
378.03	1732.58
378.24	1761.25
378.45	1732.58
378.66	1789.92
378.87	1576.94
379.08	1714.15
379.29	1677.29
379.50	1730.53
379.71	1642.47
379.91	1718.25
380.12	1734.63
380.33	1722.34
380.54	1718.25
380.75	1710.05
380.96	1658.85
381.17	1751.01
381.38	1773.54
381.59	1755.11
381.80	1714.15
382.00	1789.92
382.21	1724.39
382.42	1826.79
382.63	1845.22
382.84	1734.63
383.05	1800.16
383.26	1816.55
383.47	1755.11
383.68	1710.05
383.88	1697.77
384.09	1746.92
384.30	1789.92
384.51	1724.39
384.72	1722.34
384.93	1632.23
385.14	1632.23
385.35	1818.60
385.55	1705.96
385.76	1806.31
385.97	1738.73
386.18	1658.85
386.39	1660.90
386.60	1703.91
386.81	1744.87
387.02	1691.62
387.22	1591.27
387.43	1785.83
387.64	1783.78
387.85	1900.52
388.06	2127.84
388.27	4059.07
388.48	6432.67
388.68	8005.51
388.89	9162.61
389.10	9453.42
389.31	8191.88
389.52	7184.27
389.73	6401.95
389.93	5859.24
390.14	5590.95
390.35	5009.33
390.56	4431.80
390.77	3581.90
390.98	2926.55
391.18	2496.47
391.39	2078.69
391.60	1880.04
391.81	1765.35
392.02	1710.05
392.23	1841.12
392.43	1693.67
392.64	1814.50
392.85	1652.71
393.06	1828.84
393.27	1685.48
393.47	1697.77
393.68	1732.58
393.89	1695.72
394.10	1744.87
394.31	1720.29
394.52	1679.33
394.72	1699.81
394.93	1822.69
395.14	1615.85
395.35	1701.86
395.56	1630.18
395.76	1695.72
395.97	1796.07
396.18	1791.97
396.39	1748.97
396.60	2052.06
396.80	1800.16
397.01	1834.98
397.22	1806.31
397.43	1863.65
397.64	1728.49
397.84	1826.79
398.05	1884.13
398.26	1777.64
398.47	1816.55
398.67	1773.54
398.88	1748.97
399.09	1748.97
399.30	1693.67
399.51	1773.54
399.71	1630.18
399.92	1673.19
400.13	1759.21
400.34	1701.86
400.54	1624.04
400.75	1791.97
400.96	1683.43
401.17	1810.40
401.37	1712.10
401.58	1673.19
401.79	1759.21
402.00	1824.74
402.21	2019.30
402.41	1966.05
402.62	1964.00
402.83	1943.52
403.04	1964.00
403.24	2070.50
403.45	1804.26
403.66	1824.74
403.87	1859.56
404.07	1843.17
404.28	1837.03
404.49	1896.42
404.70	1820.64
404.90	1703.91
405.11	1765.35
405.32	1714.15
405.52	1632.23
405.73	1624.04
405.94	1744.87
406.15	1728.49
406.35	1767.40
406.56	1724.39
406.77	1675.24
406.98	1673.19
407.18	1681.38
407.39	1791.97
407.60	1775.59
407.80	1742.82
408.01	1718.25
408.22	1746.92
408.43	1671.14
408.63	1759.21
408.84	1681.38
409.05	1740.77
409.25	1644.52
409.46	1673.19
409.67	1718.25
409.88	1673.19
410.08	1695.72
410.29	1689.57
410.50	1722.34
410.70	1753.06
410.91	1656.81
411.12	1726.44
411.32	1787.88
411.53	1638.38
411.74	1714.15
411.95	1740.77
412.15	1714.15
412.36	1769.44
412.57	1757.16
412.77	1796.07
412.98	1687.53
413.19	1730.53
413.39	1701.86
413.60	1759.21
413.81	1701.86
414.01	1626.09
414.22	1765.35
414.43	1773.54
414.63	1656.81
414.84	1775.59
415.05	1732.58
415.25	1644.52
415.46	1734.63
415.67	1615.85
415.87	1744.87
416.08	1746.92
416.29	1665.00
416.49	1746.92
416.70	1662.95
416.91	1665.00
417.11	1710.05
417.32	1683.43
417.53	1736.68
417.73	1724.39
417.94	1675.24
418.15	1730.53
418.35	1687.53
418.56	1742.82
418.77	1890.28
418.97	1800.16
419.18	1751.01
419.38	1550.31
419.59	1681.38
419.80	1822.69
420.00	1744.87
420.21	1689.57
420.42	1736.68
420.62	1734.63
420.83	1615.85
421.04	1701.86
421.24	1669.09
421.45	1748.97
421.65	1730.53
421.86	1730.53
422.07	1763.30
422.27	1761.25
422.48	1699.81
422.69	1744.87
422.89	1701.86
423.10	1636.33
423.30	1665.00
423.51	1767.40
423.72	1746.92
423.92	1722.34
424.13	1648.61
424.33	1671.14
424.54	1710.05
424.75	1685.48
424.95	1791.97
425.16	1808.36
425.36	1638.38
425.57	1751.01
425.78	1626.09
425.98	1771.49
426.19	1665.00
426.39	1652.71
426.60	1697.77
426.81	1705.96
427.01	1650.66
427.22	1669.09
427.42	1662.95
427.63	1675.24
427.83	1787.88
428.04	1800.16
428.25	1744.87
428.45	1798.12
428.66	1767.40
428.86	1708.01
429.07	1705.96
429.28	1697.77
429.48	1673.19
429.69	1640.42
429.89	1718.25
430.10	1621.99
430.30	1748.97
430.51	1708.01
430.71	1671.14
430.92	1738.73
431.13	1619.94
431.33	1796.07
431.54	1757.16
431.74	1800.16
431.95	1906.66
432.15	1583.08
432.36	1677.29
432.56	1791.97
432.77	1828.84
432.98	1791.97
433.18	1720.29
433.39	1691.62
433.59	1775.59
433.80	1796.07
434.00	1853.41
434.21	1689.57
434.41	1693.67
434.62	1804.26
434.82	1673.19
435.03	1624.04
435.23	1802.21
435.44	1583.08
435.64	1761.25
435.85	1740.77
436.06	1763.30
436.26	1806.31
436.47	1740.77
436.67	1687.53
436.88	1699.81
437.08	1710.05
437.29	1761.25
437.49	1705.96
437.70	1699.81
437.90	1746.92
438.11	1814.50
438.31	1748.97
438.52	1882.08
438.72	1853.41
438.93	1867.75
439.13	1785.83
439.34	1789.92
439.54	1779.68
439.75	1814.50
439.95	1822.69
440.16	1763.30
440.36	1730.53
440.57	1671.14
440.77	1740.77
440.98	1736.68
441.18	1740.77
441.39	1658.85
441.59	1710.05
441.80	1814.50
442.00	1667.05
442.21	1873.89
442.41	1656.81
442.62	1720.29
442.82	1658.85
443.02	1734.63
443.23	1771.49
443.43	1675.24
443.64	1802.21
443.84	1644.52
444.05	1757.16
444.25	1734.63
444.46	1720.29
444.66	1687.53
444.87	1861.60
445.07	1605.61
445.28	1722.34
445.48	1785.83
445.69	1699.81
445.89	1877.99
446.09	1755.11
446.30	1998.82
446.50	2688.98
446.71	3626.95
446.91	4206.53
447.12	4673.46
447.32	4693.94
447.53	4118.47
447.73	3770.31
447.93	3375.05
448.14	3319.76
448.34	3164.11
448.55	2869.20
448.75	2830.29
448.96	2600.92
449.16	2336.73
449.36	2230.24
449.57	2017.25
449.77	1925.09
449.98	1742.82
450.18	1861.60
450.39	1845.22
450.59	1759.21
450.79	1708.01
451.00	1699.81
451.20	1775.59
451.41	1671.14
451.61	1769.44
451.81	1753.06
452.02	1699.81
452.22	1783.78
452.43	1726.44
452.63	1691.62
