SpectraSuite Data File
++++++++++++++++++++++++++++++++++++
Date: Mon Jun 06 14:16:17 CEST 2016
User: root
Dark Spectrum Present: No
Reference Spectrum Present: No
Number of Sampled Component Spectra: 1
Spectrometers: USB4C02835
Integration Time (usec): 100000 (USB4C02835)
Spectra Averaged: 1 (USB4C02835)
Boxcar Smoothing: 0 (USB4C02835)
Correct for Electrical Dark: No (USB4C02835)
Strobe/Lamp Enabled: No (USB4C02835)
Correct for Detector Non-linearity: No (USB4C02835)
Correct for Stray Light: No (USB4C02835)
Number of Pixels in Processed Spectrum: 3648
>>>>>Begin Processed Spectral Data<<<<<
177.47	1490.92
177.69	1490.92
177.91	1490.92
178.13	1468.39
178.36	1419.24
178.58	1609.70
178.80	1714.15
179.02	1595.37
179.24	1685.48
179.46	1660.90
179.68	1789.92
179.90	1796.07
180.13	1710.05
180.35	1699.81
180.57	1703.91
180.79	1689.57
181.01	1726.44
181.23	1703.91
181.45	1773.54
181.67	1699.81
181.90	1746.92
182.12	1712.10
182.34	1570.79
182.56	1683.43
182.78	1746.92
183.00	1705.96
183.22	1703.91
183.44	1636.33
183.66	1861.60
183.89	1802.21
184.11	1720.29
184.33	1695.72
184.55	1808.36
184.77	1683.43
184.99	1714.15
185.21	1583.08
185.43	1824.74
185.65	1640.42
185.87	1685.48
186.10	1748.97
186.32	1841.12
186.54	1687.53
186.76	1734.63
186.98	1726.44
187.20	1632.23
187.42	1705.96
187.64	1796.07
187.86	1718.25
188.08	1746.92
188.30	1660.90
188.52	1679.33
188.75	1755.11
188.97	1746.92
189.19	1617.90
189.41	1732.58
189.63	1785.83
189.85	1644.52
190.07	1550.31
190.29	1574.89
190.51	1701.86
190.73	1642.47
190.95	1781.73
191.17	1708.01
191.39	1619.94
191.61	1679.33
191.84	1662.95
192.06	1714.15
192.28	1638.38
192.50	1896.42
192.72	1751.01
192.94	1665.00
193.16	1777.64
193.38	1695.72
193.60	1667.05
193.82	1660.90
194.04	1757.16
194.26	1769.44
194.48	1685.48
194.70	1703.91
194.92	1716.20
195.14	1697.77
195.36	1767.40
195.58	1642.47
195.80	1652.71
196.02	1656.81
196.24	1714.15
196.46	1757.16
196.69	1726.44
196.91	1820.64
197.13	1617.90
197.35	1658.85
197.57	1839.08
197.79	1787.88
198.01	1732.58
198.23	1769.44
198.45	1677.29
198.67	1708.01
198.89	1654.76
199.11	1732.58
199.33	1697.77
199.55	1583.08
199.77	1667.05
199.99	1757.16
200.21	1708.01
200.43	1732.58
200.65	1636.33
200.87	1558.50
201.09	1761.25
201.31	1669.09
201.53	1708.01
201.75	1800.16
201.97	1693.67
202.19	1703.91
202.41	1687.53
202.63	1787.88
202.85	1718.25
203.07	1662.95
203.29	1603.56
203.51	1599.46
203.73	1597.42
203.95	1894.37
204.17	1673.19
204.39	1742.82
204.61	1683.43
204.83	1619.94
205.05	1787.88
205.27	1697.77
205.49	1791.97
205.71	1691.62
205.93	1662.95
206.15	1718.25
206.37	1714.15
206.59	1658.85
206.81	1679.33
207.03	1644.52
207.25	1601.51
207.47	1697.77
207.69	1662.95
207.91	1779.68
208.13	1785.83
208.34	1710.05
208.56	1646.57
208.78	1705.96
209.00	1697.77
209.22	1742.82
209.44	1679.33
209.66	1624.04
209.88	1718.25
210.10	1732.58
210.32	1742.82
210.54	1796.07
210.76	1646.57
210.98	1740.77
211.20	1632.23
211.42	1748.97
211.64	1724.39
211.86	1687.53
212.08	1761.25
212.30	1693.67
212.52	1708.01
212.74	1697.77
212.96	1681.38
213.17	1734.63
213.39	1781.73
213.61	1757.16
213.83	1830.88
214.05	1634.28
214.27	1787.88
214.49	1611.75
214.71	1716.20
214.93	1796.07
215.15	1640.42
215.37	1714.15
215.59	1636.33
215.81	1701.86
216.03	1779.68
216.24	1665.00
216.46	1679.33
216.68	1722.34
216.90	1720.29
217.12	1708.01
217.34	1720.29
217.56	1642.47
217.78	1650.66
218.00	1783.78
218.22	1708.01
218.44	1755.11
218.66	1730.53
218.87	1865.70
219.09	1718.25
219.31	1693.67
219.53	1689.57
219.75	1644.52
219.97	1638.38
220.19	1693.67
220.41	1673.19
220.63	1775.59
220.85	1718.25
221.06	1697.77
221.28	1679.33
221.50	1701.86
221.72	1669.09
221.94	1746.92
222.16	1648.61
222.38	1763.30
222.60	1656.81
222.82	1665.00
223.03	1755.11
223.25	1624.04
223.47	1744.87
223.69	1810.40
223.91	1724.39
224.13	1665.00
224.35	1609.70
224.57	1814.50
224.78	1683.43
225.00	1665.00
225.22	1708.01
225.44	1662.95
225.66	1773.54
225.88	1734.63
226.10	1808.36
226.32	1746.92
226.53	1738.73
226.75	1619.94
226.97	1626.09
227.19	1660.90
227.41	1624.04
227.63	1728.49
227.85	1642.47
228.06	1712.10
228.28	1722.34
228.50	1730.53
228.72	1691.62
228.94	1677.29
229.16	1609.70
229.37	1576.94
229.59	1630.18
229.81	1671.14
230.03	1673.19
230.25	1640.42
230.47	1638.38
230.69	1636.33
230.90	1718.25
231.12	1601.51
231.34	1742.82
231.56	1775.59
231.78	1632.23
232.00	1789.92
232.21	1730.53
232.43	1593.32
232.65	1640.42
232.87	1796.07
233.09	1646.57
233.30	1601.51
233.52	1794.02
233.74	1724.39
233.96	1697.77
234.18	1648.61
234.40	1677.29
234.61	1794.02
234.83	1665.00
235.05	1642.47
235.27	1843.17
235.49	1820.64
235.70	1736.68
235.92	1779.68
236.14	1728.49
236.36	1857.51
236.58	1642.47
236.79	1775.59
237.01	1695.72
237.23	1671.14
237.45	1812.45
237.67	1648.61
237.88	1693.67
238.10	1810.40
238.32	1679.33
238.54	1699.81
238.76	1650.66
238.97	1597.42
239.19	1689.57
239.41	1720.29
239.63	1832.93
239.85	1714.15
240.06	1656.81
240.28	1656.81
240.50	1779.68
240.72	1720.29
240.93	1689.57
241.15	1740.77
241.37	1701.86
241.59	1802.21
241.81	1636.33
242.02	1648.61
242.24	1708.01
242.46	1691.62
242.68	1640.42
242.89	1810.40
243.11	1695.72
243.33	1632.23
243.55	1691.62
243.76	1734.63
243.98	1703.91
244.20	1646.57
244.42	1673.19
244.64	1755.11
244.85	1642.47
245.07	1740.77
245.29	1802.21
245.51	1701.86
245.72	1718.25
245.94	1757.16
246.16	1748.97
246.38	1757.16
246.59	1609.70
246.81	1656.81
247.03	1726.44
247.24	1648.61
247.46	1689.57
247.68	1681.38
247.90	1683.43
248.11	1667.05
248.33	1794.02
248.55	1751.01
248.77	1683.43
248.98	1730.53
249.20	1808.36
249.42	1677.29
249.64	1689.57
249.85	1730.53
250.07	1665.00
250.29	1777.64
250.50	1710.05
250.72	1621.99
250.94	1726.44
251.16	1853.41
251.37	1810.40
251.59	1744.87
251.81	1708.01
252.02	1818.60
252.24	1705.96
252.46	1755.11
252.68	1640.42
252.89	1615.85
253.11	1701.86
253.33	1765.35
253.54	1734.63
253.76	1642.47
253.98	1669.09
254.20	1673.19
254.41	1648.61
254.63	1710.05
254.85	1634.28
255.06	1734.63
255.28	1673.19
255.50	1642.47
255.71	1685.48
255.93	1593.32
256.15	1578.98
256.36	1691.62
256.58	1615.85
256.80	1783.78
257.02	1644.52
257.23	1699.81
257.45	1658.85
257.67	1759.21
257.88	1740.77
258.10	1732.58
258.32	1687.53
258.53	1712.10
258.75	1789.92
258.97	1615.85
259.18	1640.42
259.40	1804.26
259.62	1837.03
259.83	1757.16
260.05	1642.47
260.27	1972.19
260.48	1808.36
260.70	1671.14
260.92	1687.53
261.13	1677.29
261.35	1681.38
261.57	1708.01
261.78	1738.73
262.00	1742.82
262.22	1740.77
262.43	1607.66
262.65	1658.85
262.86	1728.49
263.08	1865.70
263.30	1767.40
263.51	1572.84
263.73	1685.48
263.95	1812.45
264.16	1642.47
264.38	1648.61
264.60	1720.29
264.81	1677.29
265.03	1800.16
265.25	1693.67
265.46	1624.04
265.68	1816.55
265.89	1673.19
266.11	1660.90
266.33	1796.07
266.54	1720.29
266.76	1783.78
266.98	1765.35
267.19	1730.53
267.41	1800.16
267.62	1632.23
267.84	1607.66
268.06	1757.16
268.27	1718.25
268.49	1736.68
268.70	1732.58
268.92	1722.34
269.14	1599.46
269.35	1585.13
269.57	1728.49
269.79	1763.30
270.00	1677.29
270.22	1716.20
270.43	1671.14
270.65	1613.80
270.87	1681.38
271.08	1818.60
271.30	1769.44
271.51	1701.86
271.73	1718.25
271.95	1757.16
272.16	1683.43
272.38	1794.02
272.59	1681.38
272.81	1710.05
273.02	1738.73
273.24	1728.49
273.46	1785.83
273.67	1609.70
273.89	1628.14
274.10	1671.14
274.32	1828.84
274.54	1779.68
274.75	1724.39
274.97	1761.25
275.18	1767.40
275.40	1681.38
275.61	1652.71
275.83	1755.11
276.05	1658.85
276.26	1642.47
276.48	1744.87
276.69	1654.76
276.91	1617.90
277.12	1785.83
277.34	1773.54
277.55	1771.49
277.77	1693.67
277.99	1671.14
278.20	1693.67
278.42	1757.16
278.63	1726.44
278.85	1632.23
279.06	1681.38
279.28	1673.19
279.49	1714.15
279.71	1703.91
279.93	1724.39
280.14	1658.85
280.36	1644.52
280.57	1701.86
280.79	1757.16
281.00	1681.38
281.22	1591.27
281.43	1822.69
281.65	1542.12
281.86	1595.37
282.08	1718.25
282.29	1755.11
282.51	1615.85
282.73	1595.37
282.94	1714.15
283.16	1740.77
283.37	1730.53
283.59	1720.29
283.80	1691.62
284.02	1634.28
284.23	1734.63
284.45	1632.23
284.66	1662.95
284.88	1628.14
285.09	1695.72
285.31	1718.25
285.52	1689.57
285.74	1585.13
285.95	1722.34
286.17	1740.77
286.38	1802.21
286.60	1689.57
286.81	1726.44
287.03	1708.01
287.24	1779.68
287.46	1728.49
287.67	1791.97
287.89	1828.84
288.10	1681.38
288.32	1671.14
288.53	1796.07
288.75	1744.87
288.96	1691.62
289.18	1677.29
289.39	1734.63
289.61	1771.49
289.82	1746.92
290.04	1753.06
290.25	1667.05
290.47	1640.42
290.68	1675.24
290.90	1728.49
291.11	1576.94
291.33	1773.54
291.54	1626.09
291.76	1679.33
291.97	1716.20
292.18	1705.96
292.40	1701.86
292.61	1726.44
292.83	1826.79
293.04	1771.49
293.26	1757.16
293.47	1665.00
293.69	1591.27
293.90	1714.15
294.12	1781.73
294.33	1794.02
294.55	1697.77
294.76	1665.00
294.97	1785.83
295.19	1816.55
295.40	1677.29
295.62	1722.34
295.83	1771.49
296.05	1646.57
296.26	1765.35
296.48	1712.10
296.69	1662.95
296.90	1695.72
297.12	1742.82
297.33	1832.93
297.55	1789.92
297.76	1673.19
297.98	1726.44
298.19	1660.90
298.41	1695.72
298.62	1685.48
298.83	1800.16
299.05	1761.25
299.26	1607.66
299.48	1650.66
299.69	1738.73
299.90	1753.06
300.12	1662.95
300.33	1714.15
300.55	1677.29
300.76	1722.34
300.98	1714.15
301.19	1687.53
301.40	1626.09
301.62	1683.43
301.83	1728.49
302.05	1701.86
302.26	1710.05
302.47	1716.20
302.69	1675.24
302.90	1724.39
303.12	1583.08
303.33	1660.90
303.54	1789.92
303.76	1630.18
303.97	1765.35
304.19	1746.92
304.40	1634.28
304.61	1753.06
304.83	1779.68
305.04	1693.67
305.26	1697.77
305.47	1632.23
305.68	1697.77
305.90	1640.42
306.11	1775.59
306.33	1673.19
306.54	1689.57
306.75	1660.90
306.97	1636.33
307.18	1634.28
307.39	1671.14
307.61	1697.77
307.82	1673.19
308.04	1759.21
308.25	1603.56
308.46	1726.44
308.68	1671.14
308.89	1712.10
309.10	1751.01
309.32	1722.34
309.53	1748.97
309.74	1728.49
309.96	1660.90
310.17	1693.67
310.39	1685.48
310.60	1662.95
310.81	1708.01
311.03	1628.14
311.24	1767.40
311.45	1708.01
311.67	1789.92
311.88	1716.20
312.09	1656.81
312.31	1669.09
312.52	1718.25
312.73	1654.76
312.95	1652.71
313.16	1634.28
313.37	1822.69
313.59	1742.82
313.80	1722.34
314.01	1728.49
314.23	1718.25
314.44	1697.77
314.65	1740.77
314.87	1626.09
315.08	1703.91
315.29	1675.24
315.51	1699.81
315.72	1665.00
315.93	1767.40
316.15	1771.49
316.36	1656.81
316.57	1675.24
316.79	1640.42
317.00	1693.67
317.21	1650.66
317.43	1658.85
317.64	1767.40
317.85	1744.87
318.07	1626.09
318.28	1705.96
318.49	1804.26
318.70	1920.99
318.92	1802.21
319.13	1796.07
319.34	1871.84
319.56	1740.77
319.77	1816.55
319.98	1798.12
320.20	1826.79
320.41	1783.78
320.62	1771.49
320.83	1683.43
321.05	1845.22
321.26	1794.02
321.47	1677.29
321.69	1730.53
321.90	1691.62
322.11	1722.34
322.32	1724.39
322.54	1724.39
322.75	1718.25
322.96	1810.40
323.18	1619.94
323.39	1660.90
323.60	1662.95
323.81	1789.92
324.03	1652.71
324.24	1689.57
324.45	1746.92
324.66	1746.92
324.88	1732.58
325.09	1759.21
325.30	1695.72
325.52	1722.34
325.73	1798.12
325.94	1578.98
326.15	1603.56
326.37	1656.81
326.58	1732.58
326.79	1798.12
327.00	1617.90
327.22	1755.11
327.43	1656.81
327.64	1656.81
327.85	1777.64
328.07	1716.20
328.28	1845.22
328.49	1691.62
328.70	1714.15
328.92	1712.10
329.13	1681.38
329.34	1697.77
329.55	1787.88
329.76	1728.49
329.98	1660.90
330.19	1832.93
330.40	1769.44
330.61	1701.86
330.83	1697.77
331.04	1708.01
331.25	1820.64
331.46	1705.96
331.68	1613.80
331.89	1724.39
332.10	1708.01
332.31	1650.66
332.52	1640.42
332.74	1800.16
332.95	1685.48
333.16	1689.57
333.37	1730.53
333.58	1652.71
333.80	1636.33
334.01	1576.94
334.22	1595.37
334.43	1691.62
334.64	1660.90
334.86	1619.94
335.07	1591.27
335.28	1802.21
335.49	1636.33
335.70	1669.09
335.92	1765.35
336.13	1785.83
336.34	1714.15
336.55	1630.18
336.76	1697.77
336.98	1609.70
337.19	1753.06
337.40	1828.84
337.61	1820.64
337.82	1574.89
338.04	1777.64
338.25	1642.47
338.46	1624.04
338.67	1736.68
338.88	1665.00
339.09	1626.09
339.31	1679.33
339.52	1687.53
339.73	1619.94
339.94	1683.43
340.15	1738.73
340.36	1683.43
340.58	1703.91
340.79	1621.99
341.00	1808.36
341.21	1660.90
341.42	1744.87
341.63	1632.23
341.85	1761.25
342.06	1736.68
342.27	1654.76
342.48	1714.15
342.69	1615.85
342.90	1683.43
343.12	1810.40
343.33	1662.95
343.54	1744.87
343.75	1755.11
343.96	1697.77
344.17	1712.10
344.38	1744.87
344.60	1650.66
344.81	1660.90
345.02	1769.44
345.23	1712.10
345.44	1681.38
345.65	1722.34
345.86	1722.34
346.07	1710.05
346.29	1667.05
346.50	1767.40
346.71	1724.39
346.92	1771.49
347.13	1822.69
347.34	1748.97
347.55	1703.91
347.76	1685.48
347.98	1652.71
348.19	1730.53
348.40	1767.40
348.61	1699.81
348.82	1742.82
349.03	1667.05
349.24	1685.48
349.45	1765.35
349.66	1560.55
349.88	1675.24
350.09	1568.74
350.30	1685.48
350.51	1722.34
350.72	1726.44
350.93	1708.01
351.14	1595.37
351.35	1716.20
351.56	1712.10
351.77	1699.81
351.99	1701.86
352.20	1746.92
352.41	1789.92
352.62	1509.35
352.83	1732.58
353.04	1720.29
353.25	1681.38
353.46	1798.12
353.67	1796.07
353.88	1621.99
354.09	1695.72
354.30	1689.57
354.52	1746.92
354.73	1683.43
354.94	1665.00
355.15	1716.20
355.36	1810.40
355.57	1652.71
355.78	1736.68
355.99	1660.90
356.20	1691.62
356.41	1740.77
356.62	1720.29
356.83	1665.00
357.04	1816.55
357.25	1587.18
357.46	1691.62
357.68	1621.99
357.89	1587.18
358.10	1718.25
358.31	1714.15
358.52	1767.40
358.73	1638.38
358.94	1652.71
359.15	1667.05
359.36	1787.88
359.57	1679.33
359.78	1718.25
359.99	1734.63
360.20	1718.25
360.41	1673.19
360.62	1742.82
360.83	1728.49
361.04	1681.38
361.25	1648.61
361.46	1812.45
361.67	1665.00
361.88	1757.16
362.09	1771.49
362.30	1748.97
362.51	1689.57
362.72	1632.23
362.93	1769.44
363.14	1728.49
363.35	1626.09
363.56	1685.48
363.78	1728.49
363.99	1708.01
364.20	1710.05
364.41	1685.48
364.62	1755.11
364.83	1761.25
365.04	1660.90
365.25	1730.53
365.46	1867.75
365.67	1703.91
365.88	1597.42
366.09	1644.52
366.30	1746.92
366.51	1728.49
366.72	1609.70
366.93	1587.18
367.14	1730.53
367.35	1769.44
367.56	1710.05
367.77	1773.54
367.98	1734.63
368.18	1718.25
368.39	1718.25
368.60	1638.38
368.81	1701.86
369.02	1746.92
369.23	1640.42
369.44	1658.85
369.65	1621.99
369.86	1714.15
370.07	1771.49
370.28	1642.47
370.49	1708.01
370.70	1693.67
370.91	1675.24
371.12	1648.61
371.33	1810.40
371.54	1669.09
371.75	1779.68
371.96	1587.18
372.17	1736.68
372.38	1732.58
372.59	1744.87
372.80	1726.44
373.01	1669.09
373.22	1656.81
373.43	1748.97
373.64	1675.24
373.85	1775.59
374.06	1673.19
374.26	1785.83
374.47	1726.44
374.68	1787.88
374.89	1722.34
375.10	1763.30
375.31	1728.49
375.52	1740.77
375.73	1665.00
375.94	1642.47
376.15	1771.49
376.36	1679.33
376.57	1703.91
376.78	1738.73
376.99	1701.86
377.20	1771.49
377.40	1687.53
377.61	1720.29
377.82	1681.38
378.03	1751.01
378.24	1755.11
378.45	1712.10
378.66	1685.48
378.87	1605.61
379.08	1667.05
379.29	1681.38
379.50	1771.49
379.71	1638.38
379.91	1718.25
380.12	1716.20
380.33	1730.53
380.54	1703.91
380.75	1744.87
380.96	1667.05
381.17	1763.30
381.38	1697.77
381.59	1734.63
381.80	1665.00
382.00	1855.46
382.21	1703.91
382.42	1796.07
382.63	1841.12
382.84	1841.12
383.05	1806.31
383.26	1779.68
383.47	1669.09
383.68	1748.97
383.88	1769.44
384.09	1708.01
384.30	1775.59
384.51	1775.59
384.72	1685.48
384.93	1679.33
385.14	1689.57
385.35	1722.34
385.55	1621.99
385.76	1781.73
385.97	1673.19
386.18	1609.70
386.39	1650.66
386.60	1738.73
386.81	1712.10
387.02	1652.71
387.22	1642.47
387.43	1742.82
387.64	1767.40
387.85	1773.54
388.06	2160.61
388.27	4210.62
388.48	6969.24
388.68	8529.79
388.89	9897.83
389.10	9949.03
389.31	8712.06
389.52	7769.99
389.73	6723.48
389.93	6162.34
390.14	5873.57
390.35	5238.70
390.56	4601.79
390.77	3809.22
390.98	3030.99
391.18	2469.85
391.39	2107.36
391.60	1871.84
391.81	1888.23
392.02	1751.01
392.23	1814.50
392.43	1769.44
392.64	1730.53
392.85	1673.19
393.06	1785.83
393.27	1660.90
393.47	1695.72
393.68	1726.44
393.89	1677.29
394.10	1765.35
394.31	1757.16
394.52	1644.52
394.72	1640.42
394.93	1753.06
395.14	1644.52
395.35	1720.29
395.56	1624.04
395.76	1744.87
395.97	1890.28
396.18	1800.16
396.39	1847.27
396.60	2000.87
396.80	1855.46
397.01	1892.32
397.22	1863.65
397.43	1808.36
397.64	1748.97
397.84	1859.56
398.05	1796.07
398.26	1718.25
398.47	1785.83
398.67	1800.16
398.88	1705.96
399.09	1695.72
399.30	1730.53
399.51	1730.53
399.71	1708.01
399.92	1744.87
400.13	1746.92
400.34	1697.77
400.54	1769.44
400.75	1791.97
400.96	1726.44
401.17	1818.60
401.37	1716.20
401.58	1724.39
401.79	1656.81
402.00	1916.90
402.21	1939.43
402.41	1988.58
402.62	1863.65
402.83	1986.53
403.04	2000.87
403.24	1996.77
403.45	1814.50
403.66	1949.67
403.87	1853.41
404.07	1882.08
404.28	1912.80
404.49	1869.80
404.70	1806.31
404.90	1705.96
405.11	1779.68
405.32	1763.30
405.52	1681.38
405.73	1660.90
405.94	1683.43
406.15	1712.10
406.35	1769.44
406.56	1755.11
406.77	1685.48
406.98	1654.76
407.18	1615.85
407.39	1748.97
407.60	1681.38
407.80	1699.81
408.01	1695.72
408.22	1697.77
408.43	1669.09
408.63	1714.15
408.84	1720.29
409.05	1746.92
409.25	1636.33
409.46	1634.28
409.67	1650.66
409.88	1691.62
410.08	1685.48
410.29	1671.14
410.50	1777.64
410.70	1751.01
410.91	1611.75
411.12	1757.16
411.32	1746.92
411.53	1654.76
411.74	1808.36
411.95	1753.06
412.15	1791.97
412.36	1763.30
412.57	1763.30
412.77	1791.97
412.98	1728.49
413.19	1669.09
413.39	1734.63
413.60	1787.88
413.81	1818.60
414.01	1757.16
414.22	1656.81
414.43	1804.26
414.63	1720.29
414.84	1742.82
415.05	1626.09
415.25	1667.05
415.46	1699.81
415.67	1722.34
415.87	1759.21
416.08	1628.14
416.29	1693.67
416.49	1708.01
416.70	1703.91
416.91	1716.20
417.11	1718.25
417.32	1771.49
417.53	1796.07
417.73	1796.07
417.94	1646.57
418.15	1759.21
418.35	1675.24
418.56	1650.66
418.77	1826.79
418.97	1652.71
419.18	1734.63
419.38	1609.70
419.59	1619.94
419.80	1828.84
420.00	1685.48
420.21	1685.48
420.42	1810.40
420.62	1724.39
420.83	1710.05
421.04	1697.77
421.24	1677.29
421.45	1673.19
421.65	1746.92
421.86	1640.42
422.07	1757.16
422.27	1705.96
422.48	1656.81
422.69	1648.61
422.89	1660.90
423.10	1662.95
423.30	1617.90
423.51	1677.29
423.72	1765.35
423.92	1804.26
424.13	1640.42
424.33	1679.33
424.54	1818.60
424.75	1728.49
424.95	1769.44
425.16	1757.16
425.36	1665.00
425.57	1716.20
425.78	1628.14
425.98	1796.07
426.19	1660.90
426.39	1656.81
426.60	1718.25
426.81	1826.79
427.01	1658.85
427.22	1642.47
427.42	1648.61
427.63	1660.90
427.83	1822.69
428.04	1759.21
428.25	1794.02
428.45	1718.25
428.66	1810.40
428.86	1701.86
429.07	1703.91
429.28	1724.39
429.48	1675.24
429.69	1628.14
429.89	1701.86
430.10	1644.52
430.30	1701.86
430.51	1810.40
430.71	1732.58
430.92	1734.63
431.13	1654.76
431.33	1787.88
431.54	1720.29
431.74	1824.74
431.95	1824.74
432.15	1671.14
432.36	1716.20
432.56	1781.73
432.77	1800.16
432.98	1763.30
433.18	1787.88
433.39	1783.78
433.59	1689.57
433.80	1744.87
434.00	1832.93
434.21	1689.57
434.41	1587.18
434.62	1820.64
434.82	1675.24
435.03	1726.44
435.23	1710.05
435.44	1570.79
435.64	1677.29
435.85	1761.25
436.06	1744.87
436.26	1779.68
436.47	1619.94
436.67	1685.48
436.88	1695.72
437.08	1767.40
437.29	1744.87
437.49	1773.54
437.70	1830.88
437.90	1689.57
438.11	1894.37
438.31	1828.84
438.52	1865.70
438.72	1863.65
438.93	1910.75
439.13	1814.50
439.34	1841.12
439.54	1734.63
439.75	1810.40
439.95	1746.92
440.16	1796.07
440.36	1695.72
440.57	1769.44
440.77	1728.49
440.98	1765.35
441.18	1804.26
441.39	1617.90
441.59	1689.57
441.80	1865.70
442.00	1654.76
442.21	1789.92
442.41	1720.29
442.62	1808.36
442.82	1617.90
443.02	1736.68
443.23	1732.58
443.43	1652.71
443.64	1677.29
443.84	1714.15
444.05	1798.12
444.25	1773.54
444.46	1738.73
444.66	1720.29
444.87	1834.98
445.07	1609.70
445.28	1654.76
445.48	1763.30
445.69	1796.07
445.89	1800.16
446.09	1789.92
446.30	2017.25
446.50	2688.98
446.71	3835.85
446.91	4343.74
447.12	4728.76
447.32	4941.75
447.53	4483.00
447.73	3975.11
447.93	3575.75
448.14	3301.33
448.34	3243.98
448.55	2938.84
448.75	2863.06
448.96	2693.08
449.16	2457.56
449.36	2279.39
449.57	2074.59
449.77	1945.57
449.98	1683.43
450.18	1789.92
450.39	1828.84
450.59	1761.25
450.79	1699.81
451.00	1673.19
451.20	1699.81
451.41	1736.68
451.61	1769.44
451.81	1679.33
452.02	1718.25
452.22	1730.53
452.43	1718.25
452.63	1619.94
