SpectraSuite Data File
++++++++++++++++++++++++++++++++++++
Date: Mon Jun 06 17:03:17 CEST 2016
User: root
Dark Spectrum Present: No
Reference Spectrum Present: No
Number of Sampled Component Spectra: 1
Spectrometers: USB4C02835
Integration Time (usec): 100000 (USB4C02835)
Spectra Averaged: 1 (USB4C02835)
Boxcar Smoothing: 0 (USB4C02835)
Correct for Electrical Dark: No (USB4C02835)
Strobe/Lamp Enabled: No (USB4C02835)
Correct for Detector Non-linearity: No (USB4C02835)
Correct for Stray Light: No (USB4C02835)
Number of Pixels in Processed Spectrum: 3648
>>>>>Begin Processed Spectral Data<<<<<
177.47	1476.59
177.69	1476.59
177.91	1476.59
178.13	1392.62
178.36	1449.96
178.58	1650.66
178.80	1722.34
179.02	1681.38
179.24	1673.19
179.46	1697.77
179.68	1720.29
179.90	1681.38
180.13	1810.40
180.35	1697.77
180.57	1718.25
180.79	1701.86
181.01	1708.01
181.23	1734.63
181.45	1757.16
181.67	1699.81
181.90	1796.07
182.12	1691.62
182.34	1652.71
182.56	1748.97
182.78	1714.15
183.00	1734.63
183.22	1734.63
183.44	1570.79
183.66	1839.08
183.89	1839.08
184.11	1722.34
184.33	1718.25
184.55	1822.69
184.77	1699.81
184.99	1716.20
185.21	1710.05
185.43	1910.75
185.65	1685.48
185.87	1701.86
186.10	1902.56
186.32	1763.30
186.54	1757.16
186.76	1751.01
186.98	1751.01
187.20	1746.92
187.42	1685.48
187.64	1730.53
187.86	1722.34
188.08	1804.26
188.30	1667.05
188.52	1652.71
188.75	1814.50
188.97	1845.22
189.19	1648.61
189.41	1646.57
189.63	1722.34
189.85	1683.43
190.07	1628.14
190.29	1640.42
190.51	1740.77
190.73	1755.11
190.95	1806.31
191.17	1701.86
191.39	1619.94
191.61	1677.29
191.84	1763.30
192.06	1675.24
192.28	1632.23
192.50	1877.99
192.72	1644.52
192.94	1746.92
193.16	1837.03
193.38	1675.24
193.60	1671.14
193.82	1744.87
194.04	1753.06
194.26	1705.96
194.48	1730.53
194.70	1636.33
194.92	1642.47
195.14	1802.21
195.36	1726.44
195.58	1697.77
195.80	1712.10
196.02	1667.05
196.24	1695.72
196.46	1720.29
196.69	1685.48
196.91	1920.99
197.13	1753.06
197.35	1619.94
197.57	1734.63
197.79	1697.77
198.01	1722.34
198.23	1683.43
198.45	1675.24
198.67	1691.62
198.89	1732.58
199.11	1783.78
199.33	1714.15
199.55	1603.56
199.77	1695.72
199.99	1847.27
200.21	1720.29
200.43	1736.68
200.65	1654.76
200.87	1595.37
201.09	1691.62
201.31	1650.66
201.53	1720.29
201.75	1738.73
201.97	1738.73
202.19	1724.39
202.41	1683.43
202.63	1925.09
202.85	1763.30
203.07	1759.21
203.29	1648.61
203.51	1687.53
203.73	1640.42
203.95	1867.75
204.17	1726.44
204.39	1689.57
204.61	1669.09
204.83	1710.05
205.05	1775.59
205.27	1742.82
205.49	1800.16
205.71	1787.88
205.93	1732.58
206.15	1714.15
206.37	1753.06
206.59	1683.43
206.81	1658.85
207.03	1660.90
207.25	1656.81
207.47	1705.96
207.69	1746.92
207.91	1853.41
208.13	1806.31
208.34	1591.27
208.56	1648.61
208.78	1738.73
209.00	1744.87
209.22	1677.29
209.44	1667.05
209.66	1662.95
209.88	1642.47
210.10	1699.81
210.32	1708.01
210.54	1837.03
210.76	1699.81
210.98	1720.29
211.20	1593.32
211.42	1693.67
211.64	1779.68
211.86	1712.10
212.08	1701.86
212.30	1738.73
212.52	1720.29
212.74	1718.25
212.96	1699.81
213.17	1740.77
213.39	1730.53
213.61	1755.11
213.83	1671.14
214.05	1593.32
214.27	1734.63
214.49	1669.09
214.71	1683.43
214.93	1787.88
215.15	1712.10
215.37	1861.60
215.59	1662.95
215.81	1791.97
216.03	1755.11
216.24	1732.58
216.46	1734.63
216.68	1634.28
216.90	1705.96
217.12	1816.55
217.34	1724.39
217.56	1734.63
217.78	1767.40
218.00	1771.49
218.22	1755.11
218.44	1746.92
218.66	1689.57
218.87	1767.40
219.09	1726.44
219.31	1791.97
219.53	1736.68
219.75	1705.96
219.97	1722.34
220.19	1718.25
220.41	1738.73
220.63	1843.17
220.85	1748.97
221.06	1697.77
221.28	1794.02
221.50	1732.58
221.72	1763.30
221.94	1708.01
222.16	1589.22
222.38	1794.02
222.60	1740.77
222.82	1689.57
223.03	1744.87
223.25	1689.57
223.47	1708.01
223.69	1796.07
223.91	1775.59
224.13	1810.40
224.35	1679.33
224.57	1726.44
224.78	1732.58
225.00	1521.64
225.22	1679.33
225.44	1701.86
225.66	1779.68
225.88	1701.86
226.10	1814.50
226.32	1730.53
226.53	1816.55
226.75	1693.67
226.97	1740.77
227.19	1699.81
227.41	1714.15
227.63	1722.34
227.85	1632.23
228.06	1681.38
228.28	1800.16
228.50	1726.44
228.72	1601.51
228.94	1697.77
229.16	1591.27
229.37	1720.29
229.59	1753.06
229.81	1763.30
230.03	1773.54
230.25	1619.94
230.47	1675.24
230.69	1630.18
230.90	1779.68
231.12	1732.58
231.34	1669.09
231.56	1804.26
231.78	1644.52
232.00	1710.05
232.21	1757.16
232.43	1677.29
232.65	1656.81
232.87	1714.15
233.09	1648.61
233.30	1718.25
233.52	1677.29
233.74	1708.01
233.96	1669.09
234.18	1699.81
234.40	1705.96
234.61	1812.45
234.83	1652.71
235.05	1613.80
235.27	1822.69
235.49	1777.64
235.70	1740.77
235.92	1724.39
236.14	1677.29
236.36	1820.64
236.58	1681.38
236.79	1718.25
237.01	1640.42
237.23	1779.68
237.45	1894.37
237.67	1650.66
237.88	1759.21
238.10	1871.84
238.32	1652.71
238.54	1667.05
238.76	1658.85
238.97	1660.90
239.19	1697.77
239.41	1755.11
239.63	1826.79
239.85	1681.38
240.06	1746.92
240.28	1701.86
240.50	1679.33
240.72	1683.43
240.93	1771.49
241.15	1771.49
241.37	1673.19
241.59	1722.34
241.81	1705.96
242.02	1683.43
242.24	1761.25
242.46	1726.44
242.68	1703.91
242.89	1730.53
243.11	1720.29
243.33	1714.15
243.55	1685.48
243.76	1677.29
243.98	1628.14
244.20	1759.21
244.42	1796.07
244.64	1714.15
244.85	1626.09
245.07	1626.09
245.29	1787.88
245.51	1724.39
245.72	1753.06
245.94	1798.12
246.16	1699.81
246.38	1759.21
246.59	1695.72
246.81	1710.05
247.03	1732.58
247.24	1636.33
247.46	1761.25
247.68	1720.29
247.90	1714.15
248.11	1693.67
248.33	1701.86
248.55	1755.11
248.77	1710.05
248.98	1705.96
249.20	1777.64
249.42	1728.49
249.64	1773.54
249.85	1716.20
250.07	1679.33
250.29	1701.86
250.50	1748.97
250.72	1652.71
250.94	1794.02
251.16	1802.21
251.37	1722.34
251.59	1699.81
251.81	1724.39
252.02	1726.44
252.24	1708.01
252.46	1763.30
252.68	1699.81
252.89	1636.33
253.11	1624.04
253.33	1830.88
253.54	1665.00
253.76	1644.52
253.98	1705.96
254.20	1705.96
254.41	1621.99
254.63	1714.15
254.85	1636.33
255.06	1673.19
255.28	1724.39
255.50	1689.57
255.71	1679.33
255.93	1699.81
256.15	1714.15
256.36	1742.82
256.58	1687.53
256.80	1724.39
257.02	1771.49
257.23	1691.62
257.45	1693.67
257.67	1746.92
257.88	1658.85
258.10	1691.62
258.32	1804.26
258.53	1783.78
258.75	1759.21
258.97	1705.96
259.18	1685.48
259.40	1722.34
259.62	1857.51
259.83	1822.69
260.05	1701.86
260.27	1939.43
260.48	1693.67
260.70	1695.72
260.92	1603.56
261.13	1806.31
261.35	1814.50
261.57	1751.01
261.78	1699.81
262.00	1660.90
262.22	1730.53
262.43	1673.19
262.65	1572.84
262.86	1662.95
263.08	1814.50
263.30	1677.29
263.51	1636.33
263.73	1691.62
263.95	1757.16
264.16	1662.95
264.38	1746.92
264.60	1753.06
264.81	1748.97
265.03	1773.54
265.25	1734.63
265.46	1757.16
265.68	1791.97
265.89	1726.44
266.11	1654.76
266.33	1740.77
266.54	1806.31
266.76	1789.92
266.98	1771.49
267.19	1746.92
267.41	1710.05
267.62	1751.01
267.84	1615.85
268.06	1703.91
268.27	1718.25
268.49	1716.20
268.70	1746.92
268.92	1669.09
269.14	1648.61
269.35	1669.09
269.57	1703.91
269.79	1755.11
270.00	1595.37
270.22	1785.83
270.43	1695.72
270.65	1628.14
270.87	1662.95
271.08	1726.44
271.30	1802.21
271.51	1714.15
271.73	1732.58
271.95	1789.92
272.16	1722.34
272.38	1693.67
272.59	1589.22
272.81	1761.25
273.02	1693.67
273.24	1783.78
273.46	1695.72
273.67	1687.53
273.89	1724.39
274.10	1679.33
274.32	1828.84
274.54	1751.01
274.75	1703.91
274.97	1769.44
275.18	1730.53
275.40	1660.90
275.61	1677.29
275.83	1667.05
276.05	1685.48
276.26	1675.24
276.48	1738.73
276.69	1691.62
276.91	1636.33
277.12	1716.20
277.34	1677.29
277.55	1689.57
277.77	1732.58
277.99	1652.71
278.20	1671.14
278.42	1691.62
278.63	1667.05
278.85	1675.24
279.06	1687.53
279.28	1767.40
279.49	1740.77
279.71	1785.83
279.93	1644.52
280.14	1720.29
280.36	1648.61
280.57	1720.29
280.79	1787.88
281.00	1712.10
281.22	1751.01
281.43	1722.34
281.65	1558.50
281.86	1656.81
282.08	1757.16
282.29	1865.70
282.51	1679.33
282.73	1630.18
282.94	1644.52
283.16	1710.05
283.37	1742.82
283.59	1751.01
283.80	1759.21
284.02	1730.53
284.23	1755.11
284.45	1742.82
284.66	1607.66
284.88	1689.57
285.09	1759.21
285.31	1853.41
285.52	1701.86
285.74	1576.94
285.95	1767.40
286.17	1722.34
286.38	1728.49
286.60	1695.72
286.81	1775.59
287.03	1685.48
287.24	1665.00
287.46	1755.11
287.67	1753.06
287.89	1818.60
288.10	1656.81
288.32	1746.92
288.53	1789.92
288.75	1708.01
288.96	1730.53
289.18	1751.01
289.39	1728.49
289.61	1744.87
289.82	1824.74
290.04	1818.60
290.25	1699.81
290.47	1679.33
290.68	1660.90
290.90	1742.82
291.11	1640.42
291.33	1796.07
291.54	1626.09
291.76	1744.87
291.97	1691.62
292.18	1689.57
292.40	1718.25
292.61	1720.29
292.83	1873.89
293.04	1695.72
293.26	1703.91
293.47	1671.14
293.69	1669.09
293.90	1732.58
294.12	1742.82
294.33	1650.66
294.55	1777.64
294.76	1765.35
294.97	1808.36
295.19	1773.54
295.40	1667.05
295.62	1742.82
295.83	1775.59
296.05	1701.86
296.26	1708.01
296.48	1730.53
296.69	1697.77
296.90	1748.97
297.12	1742.82
297.33	1687.53
297.55	1693.67
297.76	1730.53
297.98	1777.64
298.19	1667.05
298.41	1687.53
298.62	1634.28
298.83	1841.12
299.05	1626.09
299.26	1644.52
299.48	1701.86
299.69	1783.78
299.90	1656.81
300.12	1746.92
300.33	1740.77
300.55	1652.71
300.76	1779.68
300.98	1697.77
301.19	1703.91
301.40	1763.30
301.62	1642.47
301.83	1789.92
302.05	1691.62
302.26	1728.49
302.47	1708.01
302.69	1652.71
302.90	1751.01
303.12	1603.56
303.33	1695.72
303.54	1824.74
303.76	1675.24
303.97	1783.78
304.19	1830.88
304.40	1751.01
304.61	1699.81
304.83	1771.49
305.04	1738.73
305.26	1685.48
305.47	1728.49
305.68	1730.53
305.90	1640.42
306.11	1728.49
306.33	1744.87
306.54	1710.05
306.75	1662.95
306.97	1603.56
307.18	1675.24
307.39	1734.63
307.61	1691.62
307.82	1673.19
308.04	1728.49
308.25	1699.81
308.46	1708.01
308.68	1751.01
308.89	1646.57
309.10	1744.87
309.32	1791.97
309.53	1722.34
309.74	1746.92
309.96	1675.24
310.17	1775.59
310.39	1685.48
310.60	1779.68
310.81	1708.01
311.03	1722.34
311.24	1777.64
311.45	1718.25
311.67	1699.81
311.88	1712.10
312.09	1695.72
312.31	1708.01
312.52	1665.00
312.73	1693.67
312.95	1685.48
313.16	1642.47
313.37	1798.12
313.59	1667.05
313.80	1765.35
314.01	1787.88
314.23	1681.38
314.44	1638.38
314.65	1685.48
314.87	1693.67
315.08	1693.67
315.29	1705.96
315.51	1644.52
315.72	1607.66
315.93	1746.92
316.15	1798.12
316.36	1771.49
316.57	1722.34
316.79	1794.02
317.00	1656.81
317.21	1771.49
317.43	1630.18
317.64	1656.81
317.85	1705.96
318.07	1669.09
318.28	1744.87
318.49	1767.40
318.70	1871.84
318.92	1791.97
319.13	1816.55
319.34	1867.75
319.56	1785.83
319.77	1796.07
319.98	1746.92
320.20	1728.49
320.41	1753.06
320.62	1757.16
320.83	1605.61
321.05	1918.95
321.26	1679.33
321.47	1763.30
321.69	1806.31
321.90	1660.90
322.11	1724.39
322.32	1740.77
322.54	1834.98
322.75	1773.54
322.96	1781.73
323.18	1619.94
323.39	1605.61
323.60	1734.63
323.81	1804.26
324.03	1730.53
324.24	1681.38
324.45	1722.34
324.66	1689.57
324.88	1757.16
325.09	1804.26
325.30	1732.58
325.52	1730.53
325.73	1728.49
325.94	1652.71
326.15	1660.90
326.37	1705.96
326.58	1753.06
326.79	1751.01
327.00	1712.10
327.22	1755.11
327.43	1650.66
327.64	1642.47
327.85	1796.07
328.07	1656.81
328.28	1888.23
328.49	1683.43
328.70	1777.64
328.92	1716.20
329.13	1720.29
329.34	1755.11
329.55	1834.98
329.76	1748.97
329.98	1669.09
330.19	1701.86
330.40	1773.54
330.61	1689.57
330.83	1748.97
331.04	1658.85
331.25	1736.68
331.46	1675.24
331.68	1667.05
331.89	1730.53
332.10	1728.49
332.31	1714.15
332.52	1654.76
332.74	1796.07
332.95	1667.05
333.16	1728.49
333.37	1730.53
333.58	1615.85
333.80	1783.78
334.01	1656.81
334.22	1658.85
334.43	1650.66
334.64	1615.85
334.86	1671.14
335.07	1681.38
335.28	1742.82
335.49	1621.99
335.70	1677.29
335.92	1757.16
336.13	1871.84
336.34	1708.01
336.55	1662.95
336.76	1757.16
336.98	1609.70
337.19	1748.97
337.40	1773.54
337.61	1830.88
337.82	1673.19
338.04	1685.48
338.25	1576.94
338.46	1705.96
338.67	1730.53
338.88	1628.14
339.09	1652.71
339.31	1691.62
339.52	1650.66
339.73	1722.34
339.94	1693.67
340.15	1744.87
340.36	1671.14
340.58	1701.86
340.79	1665.00
341.00	1691.62
341.21	1636.33
341.42	1898.47
341.63	1677.29
341.85	1728.49
342.06	1734.63
342.27	1710.05
342.48	1677.29
342.69	1685.48
342.90	1673.19
343.12	1738.73
343.33	1705.96
343.54	1781.73
343.75	1800.16
343.96	1714.15
344.17	1669.09
344.38	1708.01
344.60	1681.38
344.81	1675.24
345.02	1744.87
345.23	1767.40
345.44	1787.88
345.65	1673.19
345.86	1683.43
346.07	1751.01
346.29	1624.04
346.50	1751.01
346.71	1689.57
346.92	1777.64
347.13	1832.93
347.34	1730.53
347.55	1722.34
347.76	1777.64
347.98	1642.47
348.19	1796.07
348.40	1814.50
348.61	1665.00
348.82	1763.30
349.03	1765.35
349.24	1621.99
349.45	1787.88
349.66	1470.44
349.88	1687.53
350.09	1632.23
350.30	1794.02
350.51	1806.31
350.72	1683.43
350.93	1708.01
351.14	1642.47
351.35	1775.59
351.56	1720.29
351.77	1810.40
351.99	1767.40
352.20	1789.92
352.41	1877.99
352.62	1603.56
352.83	1779.68
353.04	1740.77
353.25	1671.14
353.46	1771.49
353.67	1808.36
353.88	1607.66
354.09	1673.19
354.30	1722.34
354.52	1777.64
354.73	1708.01
354.94	1665.00
355.15	1794.02
355.36	1757.16
355.57	1679.33
355.78	1738.73
355.99	1685.48
356.20	1681.38
356.41	1720.29
356.62	1691.62
356.83	1736.68
357.04	1796.07
357.25	1636.33
357.46	1656.81
357.68	1632.23
357.89	1611.75
358.10	1714.15
358.31	1660.90
358.52	1730.53
358.73	1646.57
358.94	1638.38
359.15	1632.23
359.36	1722.34
359.57	1785.83
359.78	1689.57
359.99	1769.44
360.20	1628.14
360.41	1751.01
360.62	1712.10
360.83	1697.77
361.04	1738.73
361.25	1734.63
361.46	1779.68
361.67	1708.01
361.88	1730.53
362.09	1783.78
362.30	1771.49
362.51	1705.96
362.72	1798.12
362.93	1773.54
363.14	1734.63
363.35	1705.96
363.56	1628.14
363.78	1771.49
363.99	1810.40
364.20	1650.66
364.41	1757.16
364.62	1779.68
364.83	1742.82
365.04	1712.10
365.25	1701.86
365.46	1755.11
365.67	1599.46
365.88	1636.33
366.09	1748.97
366.30	1669.09
366.51	1736.68
366.72	1632.23
366.93	1691.62
367.14	1693.67
367.35	1783.78
367.56	1761.25
367.77	1789.92
367.98	1681.38
368.18	1724.39
368.39	1845.22
368.60	1609.70
368.81	1726.44
369.02	1732.58
369.23	1800.16
369.44	1591.27
369.65	1693.67
369.86	1701.86
370.07	1718.25
370.28	1658.85
370.49	1673.19
370.70	1746.92
370.91	1697.77
371.12	1587.18
371.33	1794.02
371.54	1708.01
371.75	1789.92
371.96	1589.22
372.17	1697.77
372.38	1648.61
372.59	1683.43
372.80	1652.71
373.01	1685.48
373.22	1716.20
373.43	1691.62
373.64	1683.43
373.85	1763.30
374.06	1843.17
374.26	1767.40
374.47	1753.06
374.68	1744.87
374.89	1755.11
375.10	1691.62
375.31	1738.73
375.52	1722.34
375.73	1710.05
375.94	1624.04
376.15	1781.73
376.36	1681.38
376.57	1693.67
376.78	1724.39
376.99	1732.58
377.20	1818.60
377.40	1603.56
377.61	1828.84
377.82	1601.51
378.03	1742.82
378.24	1763.30
378.45	1644.52
378.66	1759.21
378.87	1585.13
379.08	1671.14
379.29	1634.28
379.50	1863.65
379.71	1685.48
379.91	1693.67
380.12	1660.90
380.33	1650.66
380.54	1796.07
380.75	1783.78
380.96	1669.09
381.17	1798.12
381.38	1767.40
381.59	1796.07
381.80	1755.11
382.00	1929.19
382.21	1701.86
382.42	1773.54
382.63	1880.04
382.84	1728.49
383.05	1779.68
383.26	1828.84
383.47	1726.44
383.68	1736.68
383.88	1748.97
384.09	1796.07
384.30	1806.31
384.51	1787.88
384.72	1705.96
384.93	1619.94
385.14	1677.29
385.35	1744.87
385.55	1714.15
385.76	1882.08
385.97	1730.53
386.18	1697.77
386.39	1697.77
386.60	1716.20
386.81	1665.00
387.02	1605.61
387.22	1656.81
387.43	1753.06
387.64	1812.45
387.85	1970.15
388.06	2199.52
388.27	4360.13
388.48	6717.34
388.68	8341.38
388.89	9498.48
389.10	9873.26
389.31	8505.21
389.52	7694.22
389.73	6674.33
389.93	6303.65
390.14	5818.28
390.35	5210.03
390.56	4636.60
390.77	3819.46
390.98	3018.71
391.18	2566.10
391.39	2076.64
391.60	1730.53
391.81	1845.22
392.02	1759.21
392.23	1841.12
392.43	1724.39
392.64	1787.88
392.85	1720.29
393.06	1843.17
393.27	1736.68
393.47	1681.38
393.68	1753.06
393.89	1669.09
394.10	1800.16
394.31	1718.25
394.52	1644.52
394.72	1675.24
394.93	1853.41
395.14	1609.70
395.35	1730.53
395.56	1716.20
395.76	1675.24
395.97	1800.16
396.18	1822.69
396.39	1839.08
396.60	2084.83
396.80	1863.65
397.01	1738.73
397.22	1830.88
397.43	1910.75
397.64	1804.26
397.84	1861.60
398.05	1869.80
398.26	1759.21
398.47	1804.26
398.67	1798.12
398.88	1732.58
399.09	1687.53
399.30	1679.33
399.51	1718.25
399.71	1667.05
399.92	1777.64
400.13	1689.57
400.34	1652.71
400.54	1681.38
400.75	1796.07
400.96	1814.50
401.17	1834.98
401.37	1775.59
401.58	1824.74
401.79	1675.24
402.00	1892.32
402.21	2097.12
402.41	1980.39
402.62	1964.00
402.83	2045.92
403.04	1951.71
403.24	2082.78
403.45	1857.51
403.66	1935.33
403.87	1816.55
404.07	1882.08
404.28	1886.18
404.49	1798.12
404.70	1748.97
404.90	1779.68
405.11	1687.53
405.32	1730.53
405.52	1677.29
405.73	1724.39
405.94	1693.67
406.15	1728.49
406.35	1777.64
406.56	1689.57
406.77	1781.73
406.98	1777.64
407.18	1714.15
407.39	1765.35
407.60	1665.00
407.80	1724.39
408.01	1628.14
408.22	1738.73
408.43	1759.21
408.63	1767.40
408.84	1808.36
409.05	1773.54
409.25	1652.71
409.46	1779.68
409.67	1675.24
409.88	1658.85
410.08	1716.20
410.29	1710.05
410.50	1738.73
410.70	1681.38
410.91	1646.57
411.12	1783.78
411.32	1767.40
411.53	1679.33
411.74	1787.88
411.95	1781.73
412.15	1791.97
412.36	1812.45
412.57	1746.92
412.77	1779.68
412.98	1761.25
413.19	1687.53
413.39	1767.40
413.60	1699.81
413.81	1849.32
414.01	1761.25
414.22	1755.11
414.43	1708.01
414.63	1699.81
414.84	1837.03
415.05	1683.43
415.25	1679.33
415.46	1677.29
415.67	1677.29
415.87	1763.30
416.08	1652.71
416.29	1710.05
416.49	1689.57
416.70	1751.01
416.91	1695.72
417.11	1730.53
417.32	1845.22
417.53	1804.26
417.73	1724.39
417.94	1708.01
418.15	1695.72
418.35	1730.53
418.56	1767.40
418.77	1812.45
418.97	1710.05
419.18	1734.63
419.38	1611.75
419.59	1703.91
419.80	1837.03
420.00	1646.57
420.21	1738.73
420.42	1765.35
420.62	1699.81
420.83	1703.91
421.04	1603.56
421.24	1683.43
421.45	1691.62
421.65	1697.77
421.86	1681.38
422.07	1730.53
422.27	1757.16
422.48	1701.86
422.69	1638.38
422.89	1718.25
423.10	1695.72
423.30	1665.00
423.51	1689.57
423.72	1677.29
423.92	1689.57
424.13	1697.77
424.33	1765.35
424.54	1718.25
424.75	1644.52
424.95	1841.12
425.16	1765.35
425.36	1681.38
425.57	1736.68
425.78	1701.86
425.98	1714.15
426.19	1628.14
426.39	1617.90
426.60	1699.81
426.81	1765.35
427.01	1681.38
427.22	1673.19
427.42	1644.52
427.63	1667.05
427.83	1785.83
428.04	1773.54
428.25	1705.96
428.45	1789.92
428.66	1753.06
428.86	1765.35
429.07	1748.97
429.28	1748.97
429.48	1677.29
429.69	1697.77
429.89	1669.09
430.10	1652.71
430.30	1693.67
430.51	1726.44
430.71	1652.71
430.92	1679.33
431.13	1701.86
431.33	1755.11
431.54	1744.87
431.74	1873.89
431.95	1812.45
432.15	1681.38
432.36	1656.81
432.56	1724.39
432.77	1720.29
432.98	1820.64
433.18	1740.77
433.39	1732.58
433.59	1753.06
433.80	1783.78
434.00	1853.41
434.21	1730.53
434.41	1687.53
434.62	1849.32
434.82	1667.05
435.03	1665.00
435.23	1789.92
435.44	1648.61
435.64	1703.91
435.85	1787.88
436.06	1767.40
436.26	1716.20
436.47	1724.39
436.67	1619.94
436.88	1722.34
437.08	1781.73
437.29	1837.03
437.49	1742.82
437.70	1812.45
437.90	1667.05
438.11	1861.60
438.31	1783.78
438.52	1869.80
438.72	1888.23
438.93	1968.10
439.13	1859.56
439.34	1830.88
439.54	1763.30
439.75	1800.16
439.95	1798.12
440.16	1779.68
440.36	1781.73
440.57	1787.88
440.77	1779.68
440.98	1748.97
441.18	1699.81
441.39	1671.14
441.59	1673.19
441.80	1808.36
442.00	1724.39
442.21	1794.02
442.41	1710.05
442.62	1794.02
442.82	1683.43
443.02	1701.86
443.23	1763.30
443.43	1703.91
443.64	1787.88
443.84	1720.29
444.05	1734.63
444.25	1753.06
444.46	1720.29
444.66	1703.91
444.87	1736.68
445.07	1658.85
445.28	1714.15
445.48	1783.78
445.69	1738.73
445.89	1923.04
446.09	1781.73
446.30	2060.26
446.50	2688.98
446.71	3719.11
446.91	4388.80
447.12	4825.01
447.32	4796.34
447.53	4446.14
447.73	3901.38
447.93	3508.17
448.14	3258.32
448.34	3200.98
448.55	2928.60
448.75	2924.50
448.96	2652.12
449.16	2422.75
449.36	2322.40
449.57	2043.87
449.77	1927.14
449.98	1761.25
450.18	1822.69
450.39	1810.40
450.59	1820.64
450.79	1800.16
451.00	1769.44
451.20	1853.41
451.41	1755.11
451.61	1701.86
451.81	1744.87
452.02	1681.38
452.22	1740.77
452.43	1796.07
452.63	1673.19
