SpectraSuite Data File
++++++++++++++++++++++++++++++++++++
Date: Mon Jun 06 17:03:37 CEST 2016
User: root
Dark Spectrum Present: No
Reference Spectrum Present: No
Number of Sampled Component Spectra: 1
Spectrometers: USB4C02835
Integration Time (usec): 100000 (USB4C02835)
Spectra Averaged: 1 (USB4C02835)
Boxcar Smoothing: 0 (USB4C02835)
Correct for Electrical Dark: No (USB4C02835)
Strobe/Lamp Enabled: No (USB4C02835)
Correct for Detector Non-linearity: No (USB4C02835)
Correct for Stray Light: No (USB4C02835)
Number of Pixels in Processed Spectrum: 3648
>>>>>Begin Processed Spectral Data<<<<<
177.47	1472.49
177.69	1472.49
177.91	1472.49
178.13	1458.15
178.36	1548.26
178.58	1644.52
178.80	1722.34
179.02	1617.90
179.24	1669.09
179.46	1669.09
179.68	1705.96
179.90	1675.24
180.13	1728.49
180.35	1726.44
180.57	1626.09
180.79	1794.02
181.01	1710.05
181.23	1787.88
181.45	1738.73
181.67	1726.44
181.90	1708.01
182.12	1675.24
182.34	1621.99
182.56	1718.25
182.78	1701.86
183.00	1730.53
183.22	1693.67
183.44	1599.46
183.66	1820.64
183.89	1773.54
184.11	1738.73
184.33	1771.49
184.55	1796.07
184.77	1714.15
184.99	1683.43
185.21	1687.53
185.43	1908.71
185.65	1691.62
185.87	1658.85
186.10	1806.31
186.32	1896.42
186.54	1667.05
186.76	1744.87
186.98	1742.82
187.20	1687.53
187.42	1679.33
187.64	1716.20
187.86	1691.62
188.08	1814.50
188.30	1662.95
188.52	1746.92
188.75	1746.92
188.97	1802.21
189.19	1632.23
189.41	1683.43
189.63	1724.39
189.85	1656.81
190.07	1650.66
190.29	1624.04
190.51	1740.77
190.73	1671.14
190.95	1806.31
191.17	1703.91
191.39	1671.14
191.61	1648.61
191.84	1656.81
192.06	1761.25
192.28	1615.85
192.50	1927.14
192.72	1730.53
192.94	1746.92
193.16	1769.44
193.38	1755.11
193.60	1671.14
193.82	1658.85
194.04	1777.64
194.26	1722.34
194.48	1691.62
194.70	1660.90
194.92	1722.34
195.14	1648.61
195.36	1714.15
195.58	1640.42
195.80	1681.38
196.02	1615.85
196.24	1724.39
196.46	1771.49
196.69	1687.53
196.91	1918.95
197.13	1658.85
197.35	1656.81
197.57	1677.29
197.79	1705.96
198.01	1761.25
198.23	1658.85
198.45	1673.19
198.67	1640.42
198.89	1710.05
199.11	1738.73
199.33	1662.95
199.55	1613.80
199.77	1593.32
199.99	1769.44
200.21	1634.28
200.43	1744.87
200.65	1636.33
200.87	1591.27
201.09	1708.01
201.31	1710.05
201.53	1751.01
201.75	1775.59
201.97	1738.73
202.19	1753.06
202.41	1769.44
202.63	1841.12
202.85	1671.14
203.07	1673.19
203.29	1679.33
203.51	1660.90
203.73	1615.85
203.95	1814.50
204.17	1726.44
204.39	1730.53
204.61	1751.01
204.83	1708.01
205.05	1742.82
205.27	1837.03
205.49	1892.32
205.71	1740.77
205.93	1628.14
206.15	1677.29
206.37	1685.48
206.59	1730.53
206.81	1617.90
207.03	1677.29
207.25	1632.23
207.47	1771.49
207.69	1710.05
207.91	1746.92
208.13	1791.97
208.34	1714.15
208.56	1626.09
208.78	1753.06
209.00	1669.09
209.22	1628.14
209.44	1675.24
209.66	1665.00
209.88	1693.67
210.10	1695.72
210.32	1763.30
210.54	1759.21
210.76	1646.57
210.98	1830.88
211.20	1652.71
211.42	1724.39
211.64	1759.21
211.86	1773.54
212.08	1728.49
212.30	1681.38
212.52	1791.97
212.74	1765.35
212.96	1779.68
213.17	1716.20
213.39	1708.01
213.61	1802.21
213.83	1714.15
214.05	1603.56
214.27	1783.78
214.49	1722.34
214.71	1705.96
214.93	1763.30
215.15	1763.30
215.37	1755.11
215.59	1640.42
215.81	1703.91
216.03	1730.53
216.24	1730.53
216.46	1689.57
216.68	1744.87
216.90	1744.87
217.12	1796.07
217.34	1724.39
217.56	1767.40
217.78	1814.50
218.00	1734.63
218.22	1726.44
218.44	1783.78
218.66	1730.53
218.87	1787.88
219.09	1673.19
219.31	1734.63
219.53	1763.30
219.75	1652.71
219.97	1718.25
220.19	1779.68
220.41	1650.66
220.63	1808.36
220.85	1757.16
221.06	1654.76
221.28	1785.83
221.50	1812.45
221.72	1759.21
221.94	1701.86
222.16	1746.92
222.38	1734.63
222.60	1771.49
222.82	1697.77
223.03	1785.83
223.25	1603.56
223.47	1796.07
223.69	1849.32
223.91	1697.77
224.13	1626.09
224.35	1722.34
224.57	1759.21
224.78	1740.77
225.00	1681.38
225.22	1748.97
225.44	1718.25
225.66	1746.92
225.88	1738.73
226.10	1832.93
226.32	1773.54
226.53	1787.88
226.75	1669.09
226.97	1781.73
227.19	1724.39
227.41	1669.09
227.63	1662.95
227.85	1621.99
228.06	1742.82
228.28	1665.00
228.50	1771.49
228.72	1626.09
228.94	1755.11
229.16	1607.66
229.37	1669.09
229.59	1671.14
229.81	1757.16
230.03	1691.62
230.25	1732.58
230.47	1677.29
230.69	1597.42
230.90	1705.96
231.12	1656.81
231.34	1689.57
231.56	1785.83
231.78	1646.57
232.00	1753.06
232.21	1691.62
232.43	1665.00
232.65	1681.38
232.87	1857.51
233.09	1613.80
233.30	1615.85
233.52	1658.85
233.74	1671.14
233.96	1705.96
234.18	1767.40
234.40	1722.34
234.61	1806.31
234.83	1619.94
235.05	1609.70
235.27	1767.40
235.49	1832.93
235.70	1742.82
235.92	1814.50
236.14	1705.96
236.36	1820.64
236.58	1671.14
236.79	1748.97
237.01	1681.38
237.23	1726.44
237.45	1841.12
237.67	1730.53
237.88	1800.16
238.10	1773.54
238.32	1675.24
238.54	1681.38
238.76	1685.48
238.97	1718.25
239.19	1693.67
239.41	1632.23
239.63	1775.59
239.85	1714.15
240.06	1697.77
240.28	1677.29
240.50	1726.44
240.72	1802.21
240.93	1630.18
241.15	1751.01
241.37	1787.88
241.59	1798.12
241.81	1630.18
242.02	1687.53
242.24	1685.48
242.46	1751.01
242.68	1662.95
242.89	1740.77
243.11	1769.44
243.33	1703.91
243.55	1640.42
243.76	1753.06
243.98	1660.90
244.20	1689.57
244.42	1732.58
244.64	1660.90
244.85	1662.95
245.07	1665.00
245.29	1789.92
245.51	1777.64
245.72	1720.29
245.94	1875.94
246.16	1705.96
246.38	1757.16
246.59	1673.19
246.81	1728.49
247.03	1671.14
247.24	1675.24
247.46	1744.87
247.68	1703.91
247.90	1632.23
248.11	1685.48
248.33	1806.31
248.55	1703.91
248.77	1667.05
248.98	1710.05
249.20	1828.84
249.42	1681.38
249.64	1689.57
249.85	1708.01
250.07	1626.09
250.29	1746.92
250.50	1703.91
250.72	1562.60
250.94	1708.01
251.16	1820.64
251.37	1716.20
251.59	1738.73
251.81	1777.64
252.02	1802.21
252.24	1656.81
252.46	1775.59
252.68	1630.18
252.89	1796.07
253.11	1548.26
253.33	1822.69
253.54	1847.27
253.76	1650.66
253.98	1738.73
254.20	1765.35
254.41	1708.01
254.63	1650.66
254.85	1667.05
255.06	1755.11
255.28	1697.77
255.50	1656.81
255.71	1669.09
255.93	1638.38
256.15	1673.19
256.36	1785.83
256.58	1665.00
256.80	1734.63
257.02	1695.72
257.23	1730.53
257.45	1767.40
257.67	1818.60
257.88	1677.29
258.10	1763.30
258.32	1759.21
258.53	1712.10
258.75	1839.08
258.97	1693.67
259.18	1724.39
259.40	1689.57
259.62	1814.50
259.83	1816.55
260.05	1814.50
260.27	1978.34
260.48	1775.59
260.70	1671.14
260.92	1673.19
261.13	1746.92
261.35	1738.73
261.57	1724.39
261.78	1597.42
262.00	1710.05
262.22	1761.25
262.43	1667.05
262.65	1759.21
262.86	1708.01
263.08	1828.84
263.30	1716.20
263.51	1619.94
263.73	1626.09
263.95	1839.08
264.16	1656.81
264.38	1703.91
264.60	1652.71
264.81	1728.49
265.03	1779.68
265.25	1767.40
265.46	1699.81
265.68	1773.54
265.89	1738.73
266.11	1665.00
266.33	1746.92
266.54	1691.62
266.76	1699.81
266.98	1804.26
267.19	1789.92
267.41	1732.58
267.62	1714.15
267.84	1628.14
268.06	1665.00
268.27	1646.57
268.49	1728.49
268.70	1769.44
268.92	1716.20
269.14	1685.48
269.35	1593.32
269.57	1710.05
269.79	1742.82
270.00	1701.86
270.22	1763.30
270.43	1679.33
270.65	1527.78
270.87	1689.57
271.08	1710.05
271.30	1738.73
271.51	1677.29
271.73	1775.59
271.95	1806.31
272.16	1798.12
272.38	1761.25
272.59	1716.20
272.81	1789.92
273.02	1679.33
273.24	1710.05
273.46	1808.36
273.67	1665.00
273.89	1671.14
274.10	1695.72
274.32	1855.46
274.54	1660.90
274.75	1789.92
274.97	1705.96
275.18	1755.11
275.40	1740.77
275.61	1695.72
275.83	1742.82
276.05	1568.74
276.26	1724.39
276.48	1720.29
276.69	1685.48
276.91	1619.94
277.12	1785.83
277.34	1802.21
277.55	1736.68
277.77	1695.72
277.99	1689.57
278.20	1730.53
278.42	1603.56
278.63	1587.18
278.85	1701.86
279.06	1593.32
279.28	1759.21
279.49	1761.25
279.71	1734.63
279.93	1748.97
280.14	1732.58
280.36	1699.81
280.57	1783.78
280.79	1781.73
281.00	1669.09
281.22	1640.42
281.43	1710.05
281.65	1634.28
281.86	1718.25
282.08	1806.31
282.29	1814.50
282.51	1658.85
282.73	1697.77
282.94	1611.75
283.16	1779.68
283.37	1812.45
283.59	1753.06
283.80	1730.53
284.02	1691.62
284.23	1746.92
284.45	1705.96
284.66	1654.76
284.88	1656.81
285.09	1755.11
285.31	1775.59
285.52	1675.24
285.74	1648.61
285.95	1767.40
286.17	1732.58
286.38	1826.79
286.60	1679.33
286.81	1640.42
287.03	1710.05
287.24	1673.19
287.46	1669.09
287.67	1812.45
287.89	1832.93
288.10	1660.90
288.32	1726.44
288.53	1812.45
288.75	1716.20
288.96	1802.21
289.18	1689.57
289.39	1671.14
289.61	1716.20
289.82	1873.89
290.04	1761.25
290.25	1615.85
290.47	1744.87
290.68	1714.15
290.90	1783.78
291.11	1648.61
291.33	1652.71
291.54	1662.95
291.76	1656.81
291.97	1738.73
292.18	1746.92
292.40	1740.77
292.61	1613.80
292.83	1908.71
293.04	1751.01
293.26	1714.15
293.47	1755.11
293.69	1634.28
293.90	1665.00
294.12	1816.55
294.33	1771.49
294.55	1683.43
294.76	1738.73
294.97	1830.88
295.19	1798.12
295.40	1654.76
295.62	1697.77
295.83	1794.02
296.05	1619.94
296.26	1841.12
296.48	1646.57
296.69	1695.72
296.90	1652.71
297.12	1773.54
297.33	1726.44
297.55	1665.00
297.76	1695.72
297.98	1763.30
298.19	1718.25
298.41	1785.83
298.62	1607.66
298.83	1826.79
299.05	1730.53
299.26	1630.18
299.48	1732.58
299.69	1730.53
299.90	1640.42
300.12	1628.14
300.33	1759.21
300.55	1716.20
300.76	1804.26
300.98	1665.00
301.19	1765.35
301.40	1658.85
301.62	1775.59
301.83	1738.73
302.05	1785.83
302.26	1703.91
302.47	1679.33
302.69	1578.98
302.90	1685.48
303.12	1619.94
303.33	1720.29
303.54	1818.60
303.76	1626.09
303.97	1716.20
304.19	1824.74
304.40	1646.57
304.61	1691.62
304.83	1851.36
305.04	1755.11
305.26	1732.58
305.47	1738.73
305.68	1759.21
305.90	1583.08
306.11	1720.29
306.33	1730.53
306.54	1695.72
306.75	1593.32
306.97	1556.46
307.18	1710.05
307.39	1689.57
307.61	1806.31
307.82	1619.94
308.04	1738.73
308.25	1720.29
308.46	1794.02
308.68	1722.34
308.89	1748.97
309.10	1691.62
309.32	1724.39
309.53	1642.47
309.74	1802.21
309.96	1671.14
310.17	1802.21
310.39	1667.05
310.60	1689.57
310.81	1755.11
311.03	1714.15
311.24	1689.57
311.45	1712.10
311.67	1820.64
311.88	1712.10
312.09	1708.01
312.31	1652.71
312.52	1724.39
312.73	1722.34
312.95	1544.17
313.16	1677.29
313.37	1687.53
313.59	1730.53
313.80	1787.88
314.01	1789.92
314.23	1675.24
314.44	1658.85
314.65	1683.43
314.87	1710.05
315.08	1726.44
315.29	1755.11
315.51	1646.57
315.72	1679.33
315.93	1820.64
316.15	1673.19
316.36	1675.24
316.57	1619.94
316.79	1728.49
317.00	1638.38
317.21	1744.87
317.43	1710.05
317.64	1701.86
317.85	1738.73
318.07	1632.23
318.28	1742.82
318.49	1769.44
318.70	1929.19
318.92	1855.46
319.13	1781.73
319.34	1959.91
319.56	1822.69
319.77	1822.69
319.98	1763.30
320.20	1806.31
320.41	1708.01
320.62	1716.20
320.83	1679.33
321.05	1812.45
321.26	1693.67
321.47	1710.05
321.69	1800.16
321.90	1603.56
322.11	1662.95
322.32	1736.68
322.54	1779.68
322.75	1638.38
322.96	1818.60
323.18	1574.89
323.39	1628.14
323.60	1626.09
323.81	1789.92
324.03	1683.43
324.24	1685.48
324.45	1775.59
324.66	1650.66
324.88	1734.63
325.09	1773.54
325.30	1646.57
325.52	1665.00
325.73	1718.25
325.94	1634.28
326.15	1624.04
326.37	1671.14
326.58	1722.34
326.79	1832.93
327.00	1658.85
327.22	1724.39
327.43	1730.53
327.64	1656.81
327.85	1765.35
328.07	1695.72
328.28	1839.08
328.49	1712.10
328.70	1667.05
328.92	1759.21
329.13	1632.23
329.34	1693.67
329.55	1798.12
329.76	1773.54
329.98	1667.05
330.19	1798.12
330.40	1742.82
330.61	1599.46
330.83	1769.44
331.04	1650.66
331.25	1677.29
331.46	1630.18
331.68	1576.94
331.89	1787.88
332.10	1640.42
332.31	1665.00
332.52	1759.21
332.74	1804.26
332.95	1738.73
333.16	1720.29
333.37	1763.30
333.58	1658.85
333.80	1744.87
334.01	1648.61
334.22	1697.77
334.43	1722.34
334.64	1613.80
334.86	1673.19
335.07	1693.67
335.28	1861.60
335.49	1665.00
335.70	1755.11
335.92	1755.11
336.13	1826.79
336.34	1746.92
336.55	1730.53
336.76	1779.68
336.98	1646.57
337.19	1660.90
337.40	1730.53
337.61	1810.40
337.82	1714.15
338.04	1800.16
338.25	1617.90
338.46	1691.62
338.67	1689.57
338.88	1636.33
339.09	1726.44
339.31	1640.42
339.52	1630.18
339.73	1695.72
339.94	1681.38
340.15	1718.25
340.36	1667.05
340.58	1751.01
340.79	1724.39
341.00	1736.68
341.21	1683.43
341.42	1755.11
341.63	1759.21
341.85	1726.44
342.06	1699.81
342.27	1613.80
342.48	1665.00
342.69	1621.99
342.90	1691.62
343.12	1804.26
343.33	1615.85
343.54	1771.49
343.75	1818.60
343.96	1726.44
344.17	1722.34
344.38	1681.38
344.60	1673.19
344.81	1665.00
345.02	1658.85
345.23	1822.69
345.44	1912.80
345.65	1744.87
345.86	1705.96
346.07	1701.86
346.29	1703.91
346.50	1791.97
346.71	1738.73
346.92	1765.35
347.13	1800.16
347.34	1691.62
347.55	1671.14
347.76	1636.33
347.98	1632.23
348.19	1726.44
348.40	1787.88
348.61	1632.23
348.82	1746.92
349.03	1734.63
349.24	1636.33
349.45	1820.64
349.66	1576.94
349.88	1701.86
350.09	1628.14
350.30	1820.64
350.51	1804.26
350.72	1724.39
350.93	1705.96
351.14	1693.67
351.35	1761.25
351.56	1775.59
351.77	1708.01
351.99	1753.06
352.20	1775.59
352.41	1771.49
352.62	1550.31
352.83	1691.62
353.04	1718.25
353.25	1701.86
353.46	1722.34
353.67	1732.58
353.88	1570.79
354.09	1771.49
354.30	1677.29
354.52	1734.63
354.73	1675.24
354.94	1689.57
355.15	1736.68
355.36	1789.92
355.57	1714.15
355.78	1732.58
355.99	1726.44
356.20	1757.16
356.41	1839.08
356.62	1697.77
356.83	1740.77
357.04	1855.46
357.25	1597.42
357.46	1660.90
357.68	1609.70
357.89	1650.66
358.10	1705.96
358.31	1650.66
358.52	1773.54
358.73	1662.95
358.94	1648.61
359.15	1736.68
359.36	1800.16
359.57	1718.25
359.78	1652.71
359.99	1738.73
360.20	1658.85
360.41	1656.81
360.62	1724.39
360.83	1787.88
361.04	1671.14
361.25	1755.11
361.46	1740.77
361.67	1738.73
361.88	1796.07
362.09	1724.39
362.30	1748.97
362.51	1718.25
362.72	1701.86
362.93	1738.73
363.14	1818.60
363.35	1740.77
363.56	1701.86
363.78	1841.12
363.99	1814.50
364.20	1636.33
364.41	1691.62
364.62	1730.53
364.83	1751.01
365.04	1769.44
365.25	1710.05
365.46	1849.32
365.67	1701.86
365.88	1570.79
366.09	1738.73
366.30	1720.29
366.51	1646.57
366.72	1619.94
366.93	1660.90
367.14	1789.92
367.35	1779.68
367.56	1744.87
367.77	1728.49
367.98	1685.48
368.18	1701.86
368.39	1708.01
368.60	1699.81
368.81	1771.49
369.02	1652.71
369.23	1718.25
369.44	1677.29
369.65	1667.05
369.86	1732.58
370.07	1820.64
370.28	1671.14
370.49	1697.77
370.70	1787.88
370.91	1658.85
371.12	1605.61
371.33	1804.26
371.54	1617.90
371.75	1804.26
371.96	1533.93
372.17	1720.29
372.38	1648.61
372.59	1703.91
372.80	1681.38
373.01	1685.48
373.22	1660.90
373.43	1675.24
373.64	1683.43
373.85	1697.77
374.06	1787.88
374.26	1720.29
374.47	1763.30
374.68	1810.40
374.89	1757.16
375.10	1644.52
375.31	1714.15
375.52	1703.91
375.73	1699.81
375.94	1652.71
376.15	1820.64
376.36	1630.18
376.57	1705.96
376.78	1615.85
376.99	1812.45
377.20	1810.40
377.40	1673.19
377.61	1845.22
377.82	1603.56
378.03	1810.40
378.24	1771.49
378.45	1578.98
378.66	1755.11
378.87	1589.22
379.08	1630.18
379.29	1656.81
379.50	1693.67
379.71	1714.15
379.91	1820.64
380.12	1734.63
380.33	1662.95
380.54	1742.82
380.75	1683.43
380.96	1685.48
381.17	1810.40
381.38	1779.68
381.59	1667.05
381.80	1796.07
382.00	1869.80
382.21	1771.49
382.42	1810.40
382.63	1853.41
382.84	1730.53
383.05	1718.25
383.26	1773.54
383.47	1740.77
383.68	1779.68
383.88	1761.25
384.09	1808.36
384.30	1847.27
384.51	1810.40
384.72	1759.21
384.93	1595.37
385.14	1744.87
385.35	1765.35
385.55	1695.72
385.76	1781.73
385.97	1740.77
386.18	1722.34
386.39	1652.71
386.60	1675.24
386.81	1740.77
387.02	1708.01
387.22	1665.00
387.43	1804.26
387.64	1796.07
387.85	1869.80
388.06	2152.42
388.27	4302.78
388.48	6651.80
388.68	8073.09
388.89	9684.84
389.10	9756.52
389.31	8544.13
389.52	7319.44
389.73	6606.75
389.93	5955.49
390.14	5838.76
390.35	5144.50
390.56	4642.75
390.77	3758.02
390.98	3071.95
391.18	2488.28
391.39	2068.45
391.60	1914.85
391.81	1837.03
392.02	1687.53
392.23	1890.28
392.43	1863.65
392.64	1800.16
392.85	1714.15
393.06	1816.55
393.27	1701.86
393.47	1738.73
393.68	1705.96
393.89	1744.87
394.10	1751.01
394.31	1687.53
394.52	1593.32
394.72	1675.24
394.93	1802.21
395.14	1646.57
395.35	1718.25
395.56	1656.81
395.76	1771.49
395.97	1789.92
396.18	1865.70
396.39	1882.08
396.60	2074.59
396.80	1949.67
397.01	1935.33
397.22	1853.41
397.43	1886.18
397.64	1693.67
397.84	1779.68
398.05	1865.70
398.26	1740.77
398.47	1791.97
398.67	1822.69
398.88	1642.47
399.09	1699.81
399.30	1665.00
399.51	1708.01
399.71	1619.94
399.92	1642.47
400.13	1800.16
400.34	1705.96
400.54	1767.40
400.75	1763.30
400.96	1820.64
401.17	1779.68
401.37	1693.67
401.58	1703.91
401.79	1716.20
402.00	1861.60
402.21	2009.06
402.41	1974.24
402.62	2023.39
402.83	2090.98
403.04	2017.25
403.24	2041.82
403.45	1861.60
403.66	1882.08
403.87	1890.28
404.07	1861.60
404.28	1902.56
404.49	1843.17
404.70	1765.35
404.90	1708.01
405.11	1767.40
405.32	1779.68
405.52	1669.09
405.73	1691.62
405.94	1632.23
406.15	1757.16
406.35	1710.05
406.56	1710.05
406.77	1746.92
406.98	1632.23
407.18	1757.16
407.39	1804.26
407.60	1693.67
407.80	1705.96
408.01	1695.72
408.22	1685.48
408.43	1665.00
408.63	1748.97
408.84	1757.16
409.05	1804.26
409.25	1562.60
409.46	1660.90
409.67	1724.39
409.88	1740.77
410.08	1712.10
410.29	1689.57
410.50	1765.35
410.70	1857.51
410.91	1654.76
411.12	1787.88
411.32	1701.86
411.53	1673.19
411.74	1755.11
411.95	1816.55
412.15	1730.53
412.36	1880.04
412.57	1777.64
412.77	1849.32
412.98	1695.72
413.19	1650.66
413.39	1742.82
413.60	1796.07
413.81	1826.79
414.01	1630.18
414.22	1681.38
414.43	1783.78
414.63	1757.16
414.84	1796.07
415.05	1738.73
415.25	1652.71
415.46	1781.73
415.67	1615.85
415.87	1695.72
416.08	1787.88
416.29	1796.07
416.49	1765.35
416.70	1642.47
416.91	1771.49
417.11	1753.06
417.32	1806.31
417.53	1755.11
417.73	1796.07
417.94	1660.90
418.15	1728.49
418.35	1759.21
418.56	1683.43
418.77	1857.51
418.97	1710.05
419.18	1710.05
419.38	1626.09
419.59	1705.96
419.80	1794.02
420.00	1652.71
420.21	1755.11
420.42	1775.59
420.62	1705.96
420.83	1708.01
421.04	1779.68
421.24	1734.63
421.45	1757.16
421.65	1726.44
421.86	1812.45
422.07	1757.16
422.27	1689.57
422.48	1697.77
422.69	1560.55
422.89	1665.00
423.10	1665.00
423.30	1626.09
423.51	1701.86
423.72	1705.96
423.92	1751.01
424.13	1595.37
424.33	1673.19
424.54	1722.34
424.75	1734.63
424.95	1839.08
425.16	1746.92
425.36	1718.25
425.57	1726.44
425.78	1773.54
425.98	1791.97
426.19	1628.14
426.39	1667.05
426.60	1740.77
426.81	1765.35
427.01	1738.73
427.22	1597.42
427.42	1581.03
427.63	1650.66
427.83	1763.30
428.04	1794.02
428.25	1828.84
428.45	1783.78
428.66	1800.16
428.86	1781.73
429.07	1650.66
429.28	1617.90
429.48	1765.35
429.69	1679.33
429.89	1718.25
430.10	1617.90
430.30	1851.36
430.51	1773.54
430.71	1642.47
430.92	1669.09
431.13	1669.09
431.33	1720.29
431.54	1615.85
431.74	1802.21
431.95	1828.84
432.15	1619.94
432.36	1693.67
432.56	1705.96
432.77	1824.74
432.98	1783.78
433.18	1748.97
433.39	1644.52
433.59	1718.25
433.80	1869.80
434.00	1812.45
434.21	1658.85
434.41	1617.90
434.62	1849.32
434.82	1679.33
435.03	1685.48
435.23	1763.30
435.44	1587.18
435.64	1630.18
435.85	1669.09
436.06	1728.49
436.26	1708.01
436.47	1755.11
436.67	1634.28
436.88	1783.78
437.08	1755.11
437.29	1767.40
437.49	1724.39
437.70	1769.44
437.90	1667.05
438.11	1779.68
438.31	1751.01
438.52	1902.56
438.72	1794.02
438.93	1828.84
439.13	1740.77
439.34	1851.36
439.54	1804.26
439.75	1865.70
439.95	1804.26
440.16	1708.01
440.36	1722.34
440.57	1794.02
440.77	1767.40
440.98	1714.15
441.18	1789.92
441.39	1671.14
441.59	1722.34
441.80	1779.68
442.00	1730.53
442.21	1726.44
442.41	1685.48
442.62	1740.77
442.82	1642.47
443.02	1744.87
443.23	1714.15
443.43	1767.40
443.64	1808.36
443.84	1710.05
444.05	1779.68
444.25	1785.83
444.46	1701.86
444.66	1710.05
444.87	1828.84
445.07	1601.51
445.28	1691.62
445.48	1798.12
445.69	1767.40
445.89	1810.40
446.09	1757.16
446.30	2047.97
446.50	2682.84
446.71	3678.15
446.91	4323.26
447.12	4863.93
447.32	4874.17
447.53	4192.19
447.73	3887.04
447.93	3528.65
448.14	3213.26
448.34	3231.69
448.55	2869.20
448.75	2863.06
448.96	2731.99
449.16	2392.03
449.36	2232.29
449.57	2045.92
449.77	1865.70
449.98	1808.36
450.18	1822.69
450.39	1822.69
450.59	1806.31
450.79	1714.15
451.00	1652.71
451.20	1804.26
451.41	1771.49
451.61	1814.50
451.81	1669.09
452.02	1726.44
452.22	1757.16
452.43	1654.76
452.63	1660.90
