SpectraSuite Data File
++++++++++++++++++++++++++++++++++++
Date: Mon Jun 06 13:07:17 CEST 2016
User: root
Dark Spectrum Present: No
Reference Spectrum Present: No
Number of Sampled Component Spectra: 1
Spectrometers: USB4C02835
Integration Time (usec): 100000 (USB4C02835)
Spectra Averaged: 1 (USB4C02835)
Boxcar Smoothing: 0 (USB4C02835)
Correct for Electrical Dark: No (USB4C02835)
Strobe/Lamp Enabled: No (USB4C02835)
Correct for Detector Non-linearity: No (USB4C02835)
Correct for Stray Light: No (USB4C02835)
Number of Pixels in Processed Spectrum: 3648
>>>>>Begin Processed Spectral Data<<<<<
177.47	1495.02
177.69	1495.02
177.91	1495.02
178.13	1505.26
178.36	1417.19
178.58	1640.42
178.80	1656.81
179.02	1597.42
179.24	1730.53
179.46	1718.25
179.68	1730.53
179.90	1675.24
180.13	1677.29
180.35	1687.53
180.57	1662.95
180.79	1716.20
181.01	1708.01
181.23	1699.81
181.45	1728.49
181.67	1703.91
181.90	1712.10
182.12	1615.85
182.34	1646.57
182.56	1777.64
182.78	1681.38
183.00	1683.43
183.22	1662.95
183.44	1634.28
183.66	1828.84
183.89	1742.82
184.11	1742.82
184.33	1648.61
184.55	1763.30
184.77	1720.29
184.99	1708.01
185.21	1669.09
185.43	1837.03
185.65	1720.29
185.87	1691.62
186.10	1845.22
186.32	1775.59
186.54	1712.10
186.76	1746.92
186.98	1746.92
187.20	1712.10
187.42	1654.76
187.64	1665.00
187.86	1722.34
188.08	1798.12
188.30	1695.72
188.52	1699.81
188.75	1746.92
188.97	1867.75
189.19	1697.77
189.41	1673.19
189.63	1740.77
189.85	1728.49
190.07	1685.48
190.29	1613.80
190.51	1710.05
190.73	1611.75
190.95	1755.11
191.17	1802.21
191.39	1591.27
191.61	1679.33
191.84	1693.67
192.06	1730.53
192.28	1665.00
192.50	1828.84
192.72	1701.86
192.94	1644.52
193.16	1791.97
193.38	1685.48
193.60	1630.18
193.82	1710.05
194.04	1621.99
194.26	1746.92
194.48	1769.44
194.70	1650.66
194.92	1679.33
195.14	1748.97
195.36	1609.70
195.58	1716.20
195.80	1615.85
196.02	1644.52
196.24	1783.78
196.46	1642.47
196.69	1665.00
196.91	1820.64
197.13	1626.09
197.35	1634.28
197.57	1787.88
197.79	1718.25
198.01	1753.06
198.23	1722.34
198.45	1804.26
198.67	1611.75
198.89	1665.00
199.11	1628.14
199.33	1683.43
199.55	1607.66
199.77	1712.10
199.99	1738.73
200.21	1724.39
200.43	1677.29
200.65	1654.76
200.87	1601.51
201.09	1710.05
201.31	1646.57
201.53	1722.34
201.75	1757.16
201.97	1646.57
202.19	1761.25
202.41	1662.95
202.63	1783.78
202.85	1759.21
203.07	1675.24
203.29	1691.62
203.51	1644.52
203.73	1699.81
203.95	1892.32
204.17	1738.73
204.39	1763.30
204.61	1681.38
204.83	1769.44
205.05	1697.77
205.27	1744.87
205.49	1875.94
205.71	1656.81
205.93	1654.76
206.15	1601.51
206.37	1744.87
206.59	1718.25
206.81	1677.29
207.03	1658.85
207.25	1611.75
207.47	1748.97
207.69	1636.33
207.91	1791.97
208.13	1724.39
208.34	1740.77
208.56	1601.51
208.78	1708.01
209.00	1718.25
209.22	1720.29
209.44	1703.91
209.66	1685.48
209.88	1671.14
210.10	1626.09
210.32	1697.77
210.54	1869.80
210.76	1685.48
210.98	1648.61
211.20	1630.18
211.42	1681.38
211.64	1751.01
211.86	1695.72
212.08	1732.58
212.30	1736.68
212.52	1634.28
212.74	1677.29
212.96	1746.92
213.17	1693.67
213.39	1775.59
213.61	1800.16
213.83	1796.07
214.05	1624.04
214.27	1755.11
214.49	1603.56
214.71	1662.95
214.93	1806.31
215.15	1654.76
215.37	1722.34
215.59	1624.04
215.81	1718.25
216.03	1789.92
216.24	1736.68
216.46	1691.62
216.68	1708.01
216.90	1810.40
217.12	1732.58
217.34	1683.43
217.56	1697.77
217.78	1738.73
218.00	1771.49
218.22	1658.85
218.44	1763.30
218.66	1673.19
218.87	1839.08
219.09	1665.00
219.31	1746.92
219.53	1705.96
219.75	1654.76
219.97	1634.28
220.19	1753.06
220.41	1669.09
220.63	1814.50
220.85	1755.11
221.06	1658.85
221.28	1751.01
221.50	1701.86
221.72	1673.19
221.94	1783.78
222.16	1679.33
222.38	1722.34
222.60	1697.77
222.82	1675.24
223.03	1697.77
223.25	1634.28
223.47	1763.30
223.69	1849.32
223.91	1730.53
224.13	1595.37
224.35	1697.77
224.57	1759.21
224.78	1814.50
225.00	1662.95
225.22	1695.72
225.44	1722.34
225.66	1785.83
225.88	1669.09
226.10	1740.77
226.32	1718.25
226.53	1761.25
226.75	1669.09
226.97	1738.73
227.19	1705.96
227.41	1689.57
227.63	1716.20
227.85	1669.09
228.06	1771.49
228.28	1595.37
228.50	1746.92
228.72	1621.99
228.94	1689.57
229.16	1642.47
229.37	1613.80
229.59	1695.72
229.81	1726.44
230.03	1675.24
230.25	1613.80
230.47	1712.10
230.69	1603.56
230.90	1675.24
231.12	1673.19
231.34	1757.16
231.56	1740.77
231.78	1581.03
232.00	1722.34
232.21	1699.81
232.43	1675.24
232.65	1552.36
232.87	1701.86
233.09	1667.05
233.30	1669.09
233.52	1650.66
233.74	1687.53
233.96	1673.19
234.18	1718.25
234.40	1656.81
234.61	1808.36
234.83	1611.75
235.05	1679.33
235.27	1871.84
235.49	1787.88
235.70	1660.90
235.92	1775.59
236.14	1679.33
236.36	1884.13
236.58	1662.95
236.79	1736.68
237.01	1771.49
237.23	1730.53
237.45	1888.23
237.67	1671.14
237.88	1701.86
238.10	1789.92
238.32	1654.76
238.54	1695.72
238.76	1646.57
238.97	1650.66
239.19	1609.70
239.41	1810.40
239.63	1765.35
239.85	1689.57
240.06	1667.05
240.28	1718.25
240.50	1728.49
240.72	1726.44
240.93	1624.04
241.15	1783.78
241.37	1714.15
241.59	1796.07
241.81	1736.68
242.02	1779.68
242.24	1777.64
242.46	1742.82
242.68	1630.18
242.89	1718.25
243.11	1732.58
243.33	1716.20
243.55	1730.53
243.76	1771.49
243.98	1560.55
244.20	1689.57
244.42	1740.77
244.64	1718.25
244.85	1656.81
245.07	1636.33
245.29	1781.73
245.51	1757.16
245.72	1693.67
245.94	1730.53
246.16	1673.19
246.38	1806.31
246.59	1660.90
246.81	1687.53
247.03	1613.80
247.24	1583.08
247.46	1751.01
247.68	1654.76
247.90	1669.09
248.11	1771.49
248.33	1753.06
248.55	1665.00
248.77	1679.33
248.98	1781.73
249.20	1767.40
249.42	1656.81
249.64	1753.06
249.85	1736.68
250.07	1660.90
250.29	1757.16
250.50	1785.83
250.72	1574.89
250.94	1773.54
251.16	1837.03
251.37	1736.68
251.59	1732.58
251.81	1740.77
252.02	1767.40
252.24	1671.14
252.46	1759.21
252.68	1705.96
252.89	1667.05
253.11	1648.61
253.33	1806.31
253.54	1785.83
253.76	1626.09
253.98	1710.05
254.20	1746.92
254.41	1585.13
254.63	1665.00
254.85	1609.70
255.06	1697.77
255.28	1736.68
255.50	1681.38
255.71	1671.14
255.93	1615.85
256.15	1714.15
256.36	1669.09
256.58	1685.48
256.80	1730.53
257.02	1677.29
257.23	1640.42
257.45	1703.91
257.67	1722.34
257.88	1603.56
258.10	1691.62
258.32	1703.91
258.53	1728.49
258.75	1753.06
258.97	1654.76
259.18	1679.33
259.40	1728.49
259.62	1849.32
259.83	1767.40
260.05	1673.19
260.27	1961.95
260.48	1687.53
260.70	1687.53
260.92	1652.71
261.13	1681.38
261.35	1726.44
261.57	1730.53
261.78	1595.37
262.00	1656.81
262.22	1761.25
262.43	1642.47
262.65	1693.67
262.86	1642.47
263.08	1785.83
263.30	1673.19
263.51	1609.70
263.73	1650.66
263.95	1693.67
264.16	1681.38
264.38	1642.47
264.60	1669.09
264.81	1726.44
265.03	1689.57
265.25	1722.34
265.46	1716.20
265.68	1740.77
265.89	1714.15
266.11	1605.61
266.33	1779.68
266.54	1742.82
266.76	1794.02
266.98	1771.49
267.19	1742.82
267.41	1724.39
267.62	1675.24
267.84	1640.42
268.06	1691.62
268.27	1705.96
268.49	1783.78
268.70	1791.97
268.92	1689.57
269.14	1683.43
269.35	1591.27
269.57	1673.19
269.79	1716.20
270.00	1699.81
270.22	1822.69
270.43	1662.95
270.65	1587.18
270.87	1777.64
271.08	1714.15
271.30	1751.01
271.51	1732.58
271.73	1791.97
271.95	1806.31
272.16	1718.25
272.38	1679.33
272.59	1656.81
272.81	1705.96
273.02	1740.77
273.24	1746.92
273.46	1853.41
273.67	1697.77
273.89	1660.90
274.10	1683.43
274.32	1740.77
274.54	1763.30
274.75	1740.77
274.97	1611.75
275.18	1695.72
275.40	1728.49
275.61	1689.57
275.83	1683.43
276.05	1675.24
276.26	1746.92
276.48	1763.30
276.69	1642.47
276.91	1658.85
277.12	1769.44
277.34	1791.97
277.55	1757.16
277.77	1673.19
277.99	1724.39
278.20	1572.84
278.42	1601.51
278.63	1679.33
278.85	1681.38
279.06	1572.84
279.28	1724.39
279.49	1826.79
279.71	1771.49
279.93	1730.53
280.14	1742.82
280.36	1710.05
280.57	1708.01
280.79	1732.58
281.00	1714.15
281.22	1691.62
281.43	1753.06
281.65	1609.70
281.86	1675.24
282.08	1732.58
282.29	1787.88
282.51	1601.51
282.73	1683.43
282.94	1628.14
283.16	1734.63
283.37	1763.30
283.59	1685.48
283.80	1779.68
284.02	1705.96
284.23	1732.58
284.45	1654.76
284.66	1705.96
284.88	1628.14
285.09	1800.16
285.31	1742.82
285.52	1724.39
285.74	1607.66
285.95	1724.39
286.17	1691.62
286.38	1759.21
286.60	1705.96
286.81	1656.81
287.03	1644.52
287.24	1785.83
287.46	1669.09
287.67	1683.43
287.89	1814.50
288.10	1697.77
288.32	1712.10
288.53	1751.01
288.75	1708.01
288.96	1695.72
289.18	1644.52
289.39	1757.16
289.61	1748.97
289.82	1906.66
290.04	1767.40
290.25	1603.56
290.47	1753.06
290.68	1636.33
290.90	1773.54
291.11	1630.18
291.33	1757.16
291.54	1687.53
291.76	1703.91
291.97	1697.77
292.18	1732.58
292.40	1652.71
292.61	1617.90
292.83	1863.65
293.04	1701.86
293.26	1695.72
293.47	1665.00
293.69	1626.09
293.90	1689.57
294.12	1720.29
294.33	1621.99
294.55	1746.92
294.76	1736.68
294.97	1808.36
295.19	1841.12
295.40	1679.33
295.62	1746.92
295.83	1759.21
296.05	1738.73
296.26	1794.02
296.48	1636.33
296.69	1701.86
296.90	1675.24
297.12	1716.20
297.33	1742.82
297.55	1701.86
297.76	1710.05
297.98	1832.93
298.19	1748.97
298.41	1632.23
298.62	1648.61
298.83	1687.53
299.05	1746.92
299.26	1708.01
299.48	1671.14
299.69	1722.34
299.90	1738.73
300.12	1615.85
300.33	1785.83
300.55	1740.77
300.76	1636.33
300.98	1636.33
301.19	1765.35
301.40	1740.77
301.62	1683.43
301.83	1720.29
302.05	1716.20
302.26	1638.38
302.47	1767.40
302.69	1611.75
302.90	1740.77
303.12	1587.18
303.33	1703.91
303.54	1800.16
303.76	1656.81
303.97	1654.76
304.19	1722.34
304.40	1642.47
304.61	1701.86
304.83	1794.02
305.04	1771.49
305.26	1701.86
305.47	1576.94
305.68	1681.38
305.90	1632.23
306.11	1816.55
306.33	1753.06
306.54	1697.77
306.75	1701.86
306.97	1624.04
307.18	1675.24
307.39	1681.38
307.61	1722.34
307.82	1675.24
308.04	1699.81
308.25	1644.52
308.46	1687.53
308.68	1679.33
308.89	1669.09
309.10	1775.59
309.32	1785.83
309.53	1728.49
309.74	1730.53
309.96	1591.27
310.17	1806.31
310.39	1669.09
310.60	1734.63
310.81	1708.01
311.03	1689.57
311.24	1763.30
311.45	1695.72
311.67	1857.51
311.88	1636.33
312.09	1683.43
312.31	1607.66
312.52	1705.96
312.73	1726.44
312.95	1648.61
313.16	1687.53
313.37	1853.41
313.59	1755.11
313.80	1767.40
314.01	1773.54
314.23	1669.09
314.44	1624.04
314.65	1626.09
314.87	1636.33
315.08	1689.57
315.29	1718.25
315.51	1662.95
315.72	1578.98
315.93	1787.88
316.15	1781.73
316.36	1652.71
316.57	1652.71
316.79	1732.58
317.00	1769.44
317.21	1685.48
317.43	1689.57
317.64	1734.63
317.85	1656.81
318.07	1712.10
318.28	1681.38
318.49	1765.35
318.70	1896.42
318.92	1849.32
319.13	1791.97
319.34	1855.46
319.56	1849.32
319.77	1818.60
319.98	1773.54
320.20	1744.87
320.41	1755.11
320.62	1744.87
320.83	1570.79
321.05	1898.47
321.26	1732.58
321.47	1748.97
321.69	1724.39
321.90	1607.66
322.11	1738.73
322.32	1693.67
322.54	1794.02
322.75	1667.05
322.96	1845.22
323.18	1671.14
323.39	1613.80
323.60	1601.51
323.81	1673.19
324.03	1679.33
324.24	1681.38
324.45	1755.11
324.66	1746.92
324.88	1822.69
325.09	1767.40
325.30	1687.53
325.52	1746.92
325.73	1697.77
325.94	1587.18
326.15	1576.94
326.37	1638.38
326.58	1834.98
326.79	1837.03
327.00	1640.42
327.22	1734.63
327.43	1728.49
327.64	1636.33
327.85	1763.30
328.07	1755.11
328.28	1851.36
328.49	1689.57
328.70	1628.14
328.92	1712.10
329.13	1755.11
329.34	1728.49
329.55	1763.30
329.76	1767.40
329.98	1675.24
330.19	1769.44
330.40	1755.11
330.61	1691.62
330.83	1701.86
331.04	1609.70
331.25	1703.91
331.46	1665.00
331.68	1619.94
331.89	1773.54
332.10	1673.19
332.31	1634.28
332.52	1779.68
332.74	1736.68
332.95	1634.28
333.16	1699.81
333.37	1759.21
333.58	1687.53
333.80	1726.44
334.01	1589.22
334.22	1728.49
334.43	1665.00
334.64	1722.34
334.86	1619.94
335.07	1624.04
335.28	1824.74
335.49	1648.61
335.70	1740.77
335.92	1748.97
336.13	1880.04
336.34	1712.10
336.55	1740.77
336.76	1740.77
336.98	1701.86
337.19	1687.53
337.40	1771.49
337.61	1828.84
337.82	1591.27
338.04	1710.05
338.25	1650.66
338.46	1761.25
338.67	1673.19
338.88	1671.14
339.09	1619.94
339.31	1730.53
339.52	1652.71
339.73	1710.05
339.94	1681.38
340.15	1695.72
340.36	1607.66
340.58	1685.48
340.79	1660.90
341.00	1767.40
341.21	1705.96
341.42	1796.07
341.63	1705.96
341.85	1722.34
342.06	1783.78
342.27	1693.67
342.48	1806.31
342.69	1609.70
342.90	1693.67
343.12	1759.21
343.33	1681.38
343.54	1722.34
343.75	1755.11
343.96	1621.99
344.17	1705.96
344.38	1714.15
344.60	1708.01
344.81	1710.05
345.02	1695.72
345.23	1853.41
345.44	1771.49
345.65	1769.44
345.86	1763.30
346.07	1734.63
346.29	1624.04
346.50	1755.11
346.71	1673.19
346.92	1824.74
347.13	1769.44
347.34	1748.97
347.55	1681.38
347.76	1757.16
347.98	1626.09
348.19	1701.86
348.40	1757.16
348.61	1644.52
348.82	1804.26
349.03	1775.59
349.24	1656.81
349.45	1824.74
349.66	1542.12
349.88	1708.01
350.09	1654.76
350.30	1789.92
350.51	1769.44
350.72	1665.00
350.93	1738.73
351.14	1685.48
351.35	1722.34
351.56	1689.57
351.77	1714.15
351.99	1689.57
352.20	1804.26
352.41	1810.40
352.62	1601.51
352.83	1665.00
353.04	1691.62
353.25	1697.77
353.46	1722.34
353.67	1732.58
353.88	1638.38
354.09	1660.90
354.30	1724.39
354.52	1720.29
354.73	1667.05
354.94	1681.38
355.15	1712.10
355.36	1800.16
355.57	1705.96
355.78	1775.59
355.99	1691.62
356.20	1624.04
356.41	1783.78
356.62	1740.77
356.83	1685.48
357.04	1802.21
357.25	1538.02
357.46	1722.34
357.68	1605.61
357.89	1636.33
358.10	1665.00
358.31	1761.25
358.52	1738.73
358.73	1603.56
358.94	1576.94
359.15	1695.72
359.36	1697.77
359.57	1689.57
359.78	1681.38
359.99	1726.44
360.20	1619.94
360.41	1619.94
360.62	1701.86
360.83	1710.05
361.04	1683.43
361.25	1712.10
361.46	1728.49
361.67	1806.31
361.88	1705.96
362.09	1730.53
362.30	1722.34
362.51	1681.38
362.72	1693.67
362.93	1703.91
363.14	1732.58
363.35	1736.68
363.56	1591.27
363.78	1693.67
363.99	1755.11
364.20	1714.15
364.41	1716.20
364.62	1759.21
364.83	1746.92
365.04	1693.67
365.25	1724.39
365.46	1820.64
365.67	1624.04
365.88	1581.03
366.09	1691.62
366.30	1654.76
366.51	1718.25
366.72	1628.14
366.93	1734.63
367.14	1730.53
367.35	1757.16
367.56	1683.43
367.77	1740.77
367.98	1687.53
368.18	1746.92
368.39	1771.49
368.60	1626.09
368.81	1773.54
369.02	1734.63
369.23	1671.14
369.44	1660.90
369.65	1677.29
369.86	1734.63
370.07	1708.01
370.28	1652.71
370.49	1728.49
370.70	1751.01
370.91	1667.05
371.12	1634.28
371.33	1748.97
371.54	1667.05
371.75	1847.27
371.96	1564.65
372.17	1748.97
372.38	1671.14
372.59	1732.58
372.80	1718.25
373.01	1673.19
373.22	1732.58
373.43	1675.24
373.64	1689.57
373.85	1779.68
374.06	1806.31
374.26	1738.73
374.47	1675.24
374.68	1822.69
374.89	1755.11
375.10	1638.38
375.31	1732.58
375.52	1640.42
375.73	1703.91
375.94	1691.62
376.15	1732.58
376.36	1671.14
376.57	1738.73
376.78	1724.39
376.99	1785.83
377.20	1697.77
377.40	1701.86
377.61	1765.35
377.82	1675.24
378.03	1712.10
378.24	1673.19
378.45	1767.40
378.66	1667.05
378.87	1671.14
379.08	1634.28
379.29	1714.15
379.50	1759.21
379.71	1652.71
379.91	1763.30
380.12	1660.90
380.33	1652.71
380.54	1769.44
380.75	1734.63
380.96	1636.33
381.17	1703.91
381.38	1665.00
381.59	1744.87
381.80	1710.05
382.00	1943.52
382.21	1820.64
382.42	1859.56
382.63	1859.56
382.84	1681.38
383.05	1777.64
383.26	1892.32
383.47	1746.92
383.68	1796.07
383.88	1714.15
384.09	1648.61
384.30	1773.54
384.51	1771.49
384.72	1634.28
384.93	1673.19
385.14	1697.77
385.35	1769.44
385.55	1695.72
385.76	1877.99
385.97	1701.86
386.18	1566.70
386.39	1642.47
386.60	1681.38
386.81	1697.77
387.02	1742.82
387.22	1640.42
387.43	1769.44
387.64	1847.27
387.85	1890.28
388.06	2203.61
388.27	4233.15
388.48	6690.71
388.68	8257.41
388.89	9848.68
389.10	9969.51
389.31	8695.68
389.52	7669.64
389.73	6811.54
389.93	6178.72
390.14	5797.80
390.35	5285.81
390.56	4528.06
390.77	3786.69
390.98	2967.51
391.18	2543.58
391.39	2068.45
391.60	1830.88
391.81	1812.45
392.02	1759.21
392.23	1746.92
392.43	1783.78
392.64	1841.12
392.85	1769.44
393.06	1789.92
393.27	1763.30
393.47	1716.20
393.68	1726.44
393.89	1656.81
394.10	1841.12
394.31	1724.39
394.52	1716.20
394.72	1710.05
394.93	1847.27
395.14	1712.10
395.35	1779.68
395.56	1722.34
395.76	1726.44
395.97	1701.86
396.18	1828.84
396.39	1804.26
396.60	2062.30
396.80	1851.36
397.01	1810.40
397.22	1816.55
397.43	1847.27
397.64	1800.16
397.84	1714.15
398.05	1853.41
398.26	1746.92
398.47	1791.97
398.67	1779.68
398.88	1767.40
399.09	1730.53
399.30	1656.81
399.51	1818.60
399.71	1597.42
399.92	1675.24
400.13	1738.73
400.34	1650.66
400.54	1611.75
400.75	1812.45
400.96	1753.06
401.17	1771.49
401.37	1740.77
401.58	1652.71
401.79	1691.62
402.00	1875.94
402.21	2078.69
402.41	1888.23
402.62	2004.96
402.83	2054.11
403.04	1925.09
403.24	2078.69
403.45	1802.21
403.66	1867.75
403.87	1884.13
404.07	1873.89
404.28	1900.52
404.49	1890.28
404.70	1769.44
404.90	1740.77
405.11	1771.49
405.32	1753.06
405.52	1656.81
405.73	1683.43
405.94	1669.09
406.15	1695.72
406.35	1720.29
406.56	1669.09
406.77	1685.48
406.98	1751.01
407.18	1595.37
407.39	1714.15
407.60	1660.90
407.80	1718.25
408.01	1665.00
408.22	1806.31
408.43	1642.47
408.63	1738.73
408.84	1683.43
409.05	1744.87
409.25	1689.57
409.46	1683.43
409.67	1685.48
409.88	1669.09
410.08	1685.48
410.29	1685.48
410.50	1738.73
410.70	1683.43
410.91	1607.66
411.12	1695.72
411.32	1769.44
411.53	1720.29
411.74	1808.36
411.95	1757.16
412.15	1697.77
412.36	1767.40
412.57	1828.84
412.77	1785.83
412.98	1761.25
413.19	1683.43
413.39	1724.39
413.60	1742.82
413.81	1847.27
414.01	1738.73
414.22	1755.11
414.43	1761.25
414.63	1687.53
414.84	1701.86
415.05	1662.95
415.25	1634.28
415.46	1787.88
415.67	1710.05
415.87	1714.15
416.08	1734.63
416.29	1699.81
416.49	1691.62
416.70	1626.09
416.91	1716.20
417.11	1693.67
417.32	1802.21
417.53	1779.68
417.73	1691.62
417.94	1712.10
418.15	1718.25
418.35	1714.15
418.56	1751.01
418.77	1826.79
418.97	1644.52
419.18	1669.09
419.38	1595.37
419.59	1734.63
419.80	1791.97
420.00	1734.63
420.21	1716.20
420.42	1810.40
420.62	1748.97
420.83	1656.81
421.04	1757.16
421.24	1716.20
421.45	1710.05
421.65	1724.39
421.86	1667.05
422.07	1714.15
422.27	1644.52
422.48	1695.72
422.69	1652.71
422.89	1748.97
423.10	1689.57
423.30	1624.04
423.51	1822.69
423.72	1728.49
423.92	1648.61
424.13	1673.19
424.33	1714.15
424.54	1759.21
424.75	1759.21
424.95	1816.55
425.16	1734.63
425.36	1685.48
425.57	1744.87
425.78	1808.36
425.98	1800.16
426.19	1665.00
426.39	1621.99
426.60	1761.25
426.81	1810.40
427.01	1708.01
427.22	1662.95
427.42	1656.81
427.63	1705.96
427.83	1742.82
428.04	1839.08
428.25	1841.12
428.45	1822.69
428.66	1705.96
428.86	1724.39
429.07	1714.15
429.28	1683.43
429.48	1730.53
429.69	1634.28
429.89	1693.67
430.10	1675.24
430.30	1718.25
430.51	1771.49
430.71	1687.53
430.92	1689.57
431.13	1642.47
431.33	1730.53
431.54	1734.63
431.74	1771.49
431.95	1849.32
432.15	1718.25
432.36	1621.99
432.56	1742.82
432.77	1886.18
432.98	1714.15
433.18	1804.26
433.39	1710.05
433.59	1640.42
433.80	1787.88
434.00	1779.68
434.21	1650.66
434.41	1763.30
434.62	1816.55
434.82	1644.52
435.03	1689.57
435.23	1824.74
435.44	1589.22
435.64	1738.73
435.85	1699.81
436.06	1685.48
436.26	1834.98
436.47	1773.54
436.67	1701.86
436.88	1669.09
437.08	1734.63
437.29	1806.31
437.49	1744.87
437.70	1779.68
437.90	1738.73
438.11	1802.21
438.31	1767.40
438.52	1900.52
438.72	1849.32
438.93	1931.23
439.13	1681.38
439.34	1826.79
439.54	1685.48
439.75	1851.36
439.95	1724.39
440.16	1724.39
440.36	1761.25
440.57	1757.16
440.77	1773.54
440.98	1771.49
441.18	1703.91
441.39	1652.71
441.59	1652.71
441.80	1849.32
442.00	1734.63
442.21	1820.64
442.41	1611.75
442.62	1826.79
442.82	1722.34
443.02	1660.90
443.23	1828.84
443.43	1742.82
443.64	1773.54
443.84	1673.19
444.05	1746.92
444.25	1781.73
444.46	1726.44
444.66	1640.42
444.87	1851.36
445.07	1634.28
445.28	1740.77
445.48	1804.26
445.69	1775.59
445.89	1935.33
446.09	1734.63
446.30	2025.44
446.50	2668.50
446.71	3745.73
446.91	4302.78
447.12	4753.34
447.32	4941.75
447.53	4374.46
447.73	3991.49
447.93	3559.37
448.14	3368.91
448.34	3274.70
448.55	2994.13
448.75	2828.24
448.96	2582.49
449.16	2435.03
449.36	2287.58
449.57	2095.07
449.77	1900.52
449.98	1736.68
450.18	1744.87
450.39	1828.84
450.59	1796.07
450.79	1738.73
451.00	1679.33
451.20	1781.73
451.41	1697.77
451.61	1806.31
451.81	1695.72
452.02	1646.57
452.22	1667.05
452.43	1742.82
452.63	1681.38
