SpectraSuite Data File
++++++++++++++++++++++++++++++++++++
Date: Mon Jun 06 13:20:37 CEST 2016
User: root
Dark Spectrum Present: No
Reference Spectrum Present: No
Number of Sampled Component Spectra: 1
Spectrometers: USB4C02835
Integration Time (usec): 100000 (USB4C02835)
Spectra Averaged: 1 (USB4C02835)
Boxcar Smoothing: 0 (USB4C02835)
Correct for Electrical Dark: No (USB4C02835)
Strobe/Lamp Enabled: No (USB4C02835)
Correct for Detector Non-linearity: No (USB4C02835)
Correct for Stray Light: No (USB4C02835)
Number of Pixels in Processed Spectrum: 3648
>>>>>Begin Processed Spectral Data<<<<<
177.47	1515.50
177.69	1515.50
177.91	1515.50
178.13	1552.36
178.36	1495.02
178.58	1675.24
178.80	1769.44
179.02	1642.47
179.24	1628.14
179.46	1656.81
179.68	1740.77
179.90	1718.25
180.13	1724.39
180.35	1642.47
180.57	1701.86
180.79	1722.34
181.01	1753.06
181.23	1767.40
181.45	1738.73
181.67	1763.30
181.90	1708.01
182.12	1615.85
182.34	1601.51
182.56	1726.44
182.78	1689.57
183.00	1759.21
183.22	1740.77
183.44	1607.66
183.66	1914.85
183.89	1857.51
184.11	1701.86
184.33	1671.14
184.55	1740.77
184.77	1656.81
184.99	1718.25
185.21	1638.38
185.43	1941.47
185.65	1671.14
185.87	1673.19
186.10	1828.84
186.32	1777.64
186.54	1703.91
186.76	1730.53
186.98	1718.25
187.20	1646.57
187.42	1679.33
187.64	1699.81
187.86	1683.43
188.08	1726.44
188.30	1677.29
188.52	1683.43
188.75	1740.77
188.97	1759.21
189.19	1613.80
189.41	1714.15
189.63	1740.77
189.85	1787.88
190.07	1558.50
190.29	1617.90
190.51	1662.95
190.73	1677.29
190.95	1814.50
191.17	1683.43
191.39	1597.42
191.61	1722.34
191.84	1722.34
192.06	1640.42
192.28	1595.37
192.50	1857.51
192.72	1722.34
192.94	1675.24
193.16	1791.97
193.38	1734.63
193.60	1568.74
193.82	1634.28
194.04	1767.40
194.26	1665.00
194.48	1669.09
194.70	1673.19
194.92	1703.91
195.14	1767.40
195.36	1714.15
195.58	1665.00
195.80	1679.33
196.02	1665.00
196.24	1681.38
196.46	1677.29
196.69	1703.91
196.91	1767.40
197.13	1703.91
197.35	1701.86
197.57	1755.11
197.79	1736.68
198.01	1650.66
198.23	1773.54
198.45	1718.25
198.67	1587.18
198.89	1632.23
199.11	1787.88
199.33	1630.18
199.55	1576.94
199.77	1675.24
199.99	1759.21
200.21	1722.34
200.43	1728.49
200.65	1656.81
200.87	1636.33
201.09	1662.95
201.31	1697.77
201.53	1771.49
201.75	1671.14
201.97	1679.33
202.19	1671.14
202.41	1712.10
202.63	1837.03
202.85	1714.15
203.07	1718.25
203.29	1609.70
203.51	1638.38
203.73	1699.81
203.95	1853.41
204.17	1693.67
204.39	1746.92
204.61	1738.73
204.83	1697.77
205.05	1763.30
205.27	1720.29
205.49	1814.50
205.71	1705.96
205.93	1644.52
206.15	1693.67
206.37	1691.62
206.59	1677.29
206.81	1593.32
207.03	1652.71
207.25	1595.37
207.47	1755.11
207.69	1628.14
207.91	1791.97
208.13	1783.78
208.34	1689.57
208.56	1642.47
208.78	1765.35
209.00	1656.81
209.22	1646.57
209.44	1646.57
209.66	1658.85
209.88	1648.61
210.10	1656.81
210.32	1689.57
210.54	1783.78
210.76	1775.59
210.98	1742.82
211.20	1583.08
211.42	1720.29
211.64	1802.21
211.86	1722.34
212.08	1681.38
212.30	1669.09
212.52	1652.71
212.74	1732.58
212.96	1800.16
213.17	1726.44
213.39	1687.53
213.61	1738.73
213.83	1765.35
214.05	1626.09
214.27	1703.91
214.49	1656.81
214.71	1705.96
214.93	1693.67
215.15	1669.09
215.37	1738.73
215.59	1660.90
215.81	1738.73
216.03	1685.48
216.24	1726.44
216.46	1730.53
216.68	1710.05
216.90	1855.46
217.12	1810.40
217.34	1753.06
217.56	1765.35
217.78	1753.06
218.00	1685.48
218.22	1665.00
218.44	1796.07
218.66	1701.86
218.87	1695.72
219.09	1697.77
219.31	1685.48
219.53	1791.97
219.75	1601.51
219.97	1705.96
220.19	1734.63
220.41	1732.58
220.63	1791.97
220.85	1665.00
221.06	1751.01
221.28	1769.44
221.50	1765.35
221.72	1693.67
221.94	1689.57
222.16	1710.05
222.38	1716.20
222.60	1800.16
222.82	1716.20
223.03	1693.67
223.25	1677.29
223.47	1712.10
223.69	1806.31
223.91	1734.63
224.13	1757.16
224.35	1648.61
224.57	1720.29
224.78	1773.54
225.00	1726.44
225.22	1769.44
225.44	1701.86
225.66	1740.77
225.88	1763.30
226.10	1824.74
226.32	1769.44
226.53	1716.20
226.75	1634.28
226.97	1705.96
227.19	1677.29
227.41	1685.48
227.63	1662.95
227.85	1597.42
228.06	1697.77
228.28	1665.00
228.50	1716.20
228.72	1624.04
228.94	1691.62
229.16	1583.08
229.37	1708.01
229.59	1665.00
229.81	1775.59
230.03	1695.72
230.25	1640.42
230.47	1675.24
230.69	1634.28
230.90	1714.15
231.12	1665.00
231.34	1730.53
231.56	1777.64
231.78	1599.46
232.00	1718.25
232.21	1742.82
232.43	1722.34
232.65	1589.22
232.87	1732.58
233.09	1667.05
233.30	1660.90
233.52	1730.53
233.74	1667.05
233.96	1677.29
234.18	1654.76
234.40	1703.91
234.61	1779.68
234.83	1615.85
235.05	1632.23
235.27	1851.36
235.49	1812.45
235.70	1675.24
235.92	1849.32
236.14	1722.34
236.36	1820.64
236.58	1642.47
236.79	1708.01
237.01	1667.05
237.23	1658.85
237.45	1742.82
237.67	1648.61
237.88	1783.78
238.10	1843.17
238.32	1656.81
238.54	1773.54
238.76	1763.30
238.97	1609.70
239.19	1640.42
239.41	1755.11
239.63	1777.64
239.85	1718.25
240.06	1624.04
240.28	1658.85
240.50	1697.77
240.72	1673.19
240.93	1708.01
241.15	1787.88
241.37	1712.10
241.59	1804.26
241.81	1734.63
242.02	1650.66
242.24	1716.20
242.46	1667.05
242.68	1619.94
242.89	1712.10
243.11	1748.97
243.33	1691.62
243.55	1693.67
243.76	1724.39
243.98	1689.57
244.20	1697.77
244.42	1699.81
244.64	1693.67
244.85	1630.18
245.07	1701.86
245.29	1701.86
245.51	1740.77
245.72	1720.29
245.94	1673.19
246.16	1714.15
246.38	1710.05
246.59	1683.43
246.81	1650.66
247.03	1718.25
247.24	1591.27
247.46	1665.00
247.68	1615.85
247.90	1683.43
248.11	1572.84
248.33	1734.63
248.55	1679.33
248.77	1746.92
248.98	1763.30
249.20	1714.15
249.42	1673.19
249.64	1626.09
249.85	1683.43
250.07	1705.96
250.29	1679.33
250.50	1744.87
250.72	1603.56
250.94	1742.82
251.16	1804.26
251.37	1800.16
251.59	1736.68
251.81	1695.72
252.02	1726.44
252.24	1693.67
252.46	1824.74
252.68	1609.70
252.89	1654.76
253.11	1605.61
253.33	1740.77
253.54	1761.25
253.76	1605.61
253.98	1710.05
254.20	1708.01
254.41	1644.52
254.63	1791.97
254.85	1660.90
255.06	1656.81
255.28	1748.97
255.50	1710.05
255.71	1599.46
255.93	1605.61
256.15	1705.96
256.36	1718.25
256.58	1644.52
256.80	1742.82
257.02	1662.95
257.23	1564.65
257.45	1718.25
257.67	1763.30
257.88	1665.00
258.10	1757.16
258.32	1697.77
258.53	1683.43
258.75	1732.58
258.97	1642.47
259.18	1705.96
259.40	1675.24
259.62	1730.53
259.83	1861.60
260.05	1701.86
260.27	1845.22
260.48	1708.01
260.70	1632.23
260.92	1722.34
261.13	1705.96
261.35	1697.77
261.57	1624.04
261.78	1583.08
262.00	1679.33
262.22	1742.82
262.43	1710.05
262.65	1644.52
262.86	1708.01
263.08	1806.31
263.30	1703.91
263.51	1603.56
263.73	1632.23
263.95	1724.39
264.16	1677.29
264.38	1669.09
264.60	1734.63
264.81	1710.05
265.03	1695.72
265.25	1796.07
265.46	1681.38
265.68	1779.68
265.89	1746.92
266.11	1615.85
266.33	1757.16
266.54	1818.60
266.76	1804.26
266.98	1730.53
267.19	1804.26
267.41	1728.49
267.62	1689.57
267.84	1552.36
268.06	1689.57
268.27	1746.92
268.49	1810.40
268.70	1763.30
268.92	1693.67
269.14	1621.99
269.35	1578.98
269.57	1720.29
269.79	1763.30
270.00	1710.05
270.22	1814.50
270.43	1603.56
270.65	1562.60
270.87	1646.57
271.08	1746.92
271.30	1671.14
271.51	1656.81
271.73	1718.25
271.95	1777.64
272.16	1716.20
272.38	1689.57
272.59	1681.38
272.81	1677.29
273.02	1730.53
273.24	1794.02
273.46	1722.34
273.67	1638.38
273.89	1732.58
274.10	1726.44
274.32	1796.07
274.54	1796.07
274.75	1763.30
274.97	1636.33
275.18	1699.81
275.40	1767.40
275.61	1695.72
275.83	1751.01
276.05	1581.03
276.26	1662.95
276.48	1667.05
276.69	1705.96
276.91	1695.72
277.12	1812.45
277.34	1738.73
277.55	1712.10
277.77	1654.76
277.99	1691.62
278.20	1640.42
278.42	1607.66
278.63	1703.91
278.85	1650.66
279.06	1593.32
279.28	1660.90
279.49	1826.79
279.71	1759.21
279.93	1697.77
280.14	1728.49
280.36	1662.95
280.57	1757.16
280.79	1724.39
281.00	1665.00
281.22	1613.80
281.43	1755.11
281.65	1578.98
281.86	1640.42
282.08	1783.78
282.29	1757.16
282.51	1574.89
282.73	1644.52
282.94	1603.56
283.16	1716.20
283.37	1826.79
283.59	1751.01
283.80	1746.92
284.02	1708.01
284.23	1757.16
284.45	1671.14
284.66	1587.18
284.88	1763.30
285.09	1722.34
285.31	1779.68
285.52	1697.77
285.74	1615.85
285.95	1740.77
286.17	1679.33
286.38	1751.01
286.60	1665.00
286.81	1658.85
287.03	1705.96
287.24	1751.01
287.46	1834.98
287.67	1656.81
287.89	1775.59
288.10	1650.66
288.32	1683.43
288.53	1810.40
288.75	1642.47
288.96	1744.87
289.18	1710.05
289.39	1712.10
289.61	1734.63
289.82	1812.45
290.04	1802.21
290.25	1648.61
290.47	1736.68
290.68	1693.67
290.90	1755.11
291.11	1658.85
291.33	1714.15
291.54	1628.14
291.76	1759.21
291.97	1699.81
292.18	1710.05
292.40	1761.25
292.61	1644.52
292.83	1791.97
293.04	1695.72
293.26	1685.48
293.47	1746.92
293.69	1650.66
293.90	1699.81
294.12	1783.78
294.33	1617.90
294.55	1730.53
294.76	1742.82
294.97	1720.29
295.19	1806.31
295.40	1744.87
295.62	1759.21
295.83	1753.06
296.05	1648.61
296.26	1740.77
296.48	1583.08
296.69	1681.38
296.90	1677.29
297.12	1740.77
297.33	1751.01
297.55	1740.77
297.76	1773.54
297.98	1757.16
298.19	1705.96
298.41	1615.85
298.62	1642.47
298.83	1779.68
299.05	1693.67
299.26	1701.86
299.48	1724.39
299.69	1695.72
299.90	1642.47
300.12	1648.61
300.33	1691.62
300.55	1730.53
300.76	1753.06
300.98	1675.24
301.19	1677.29
301.40	1714.15
301.62	1693.67
301.83	1662.95
302.05	1644.52
302.26	1736.68
302.47	1720.29
302.69	1626.09
302.90	1632.23
303.12	1615.85
303.33	1755.11
303.54	1830.88
303.76	1695.72
303.97	1662.95
304.19	1787.88
304.40	1714.15
304.61	1730.53
304.83	1820.64
305.04	1771.49
305.26	1681.38
305.47	1650.66
305.68	1634.28
305.90	1650.66
306.11	1734.63
306.33	1654.76
306.54	1673.19
306.75	1607.66
306.97	1673.19
307.18	1675.24
307.39	1705.96
307.61	1742.82
307.82	1656.81
308.04	1742.82
308.25	1652.71
308.46	1718.25
308.68	1687.53
308.89	1687.53
309.10	1787.88
309.32	1662.95
309.53	1720.29
309.74	1771.49
309.96	1650.66
310.17	1728.49
310.39	1705.96
310.60	1669.09
310.81	1722.34
311.03	1601.51
311.24	1734.63
311.45	1812.45
311.67	1796.07
311.88	1689.57
312.09	1685.48
312.31	1660.90
312.52	1644.52
312.73	1714.15
312.95	1677.29
313.16	1583.08
313.37	1783.78
313.59	1767.40
313.80	1769.44
314.01	1777.64
314.23	1677.29
314.44	1697.77
314.65	1634.28
314.87	1656.81
315.08	1673.19
315.29	1673.19
315.51	1665.00
315.72	1621.99
315.93	1843.17
316.15	1705.96
316.36	1705.96
316.57	1726.44
316.79	1779.68
317.00	1724.39
317.21	1730.53
317.43	1662.95
317.64	1654.76
317.85	1705.96
318.07	1726.44
318.28	1648.61
318.49	1759.21
318.70	1861.60
318.92	1798.12
319.13	1802.21
319.34	1730.53
319.56	1822.69
319.77	1812.45
319.98	1777.64
320.20	1816.55
320.41	1746.92
320.62	1685.48
320.83	1683.43
321.05	1775.59
321.26	1769.44
321.47	1638.38
321.69	1787.88
321.90	1607.66
322.11	1691.62
322.32	1669.09
322.54	1718.25
322.75	1693.67
322.96	1789.92
323.18	1677.29
323.39	1648.61
323.60	1636.33
323.81	1726.44
324.03	1675.24
324.24	1630.18
324.45	1720.29
324.66	1695.72
324.88	1710.05
325.09	1738.73
325.30	1699.81
325.52	1650.66
325.73	1677.29
325.94	1689.57
326.15	1591.27
326.37	1675.24
326.58	1697.77
326.79	1777.64
327.00	1619.94
327.22	1665.00
327.43	1630.18
327.64	1632.23
327.85	1714.15
328.07	1685.48
328.28	1791.97
328.49	1650.66
328.70	1765.35
328.92	1800.16
329.13	1736.68
329.34	1619.94
329.55	1853.41
329.76	1695.72
329.98	1654.76
330.19	1787.88
330.40	1689.57
330.61	1658.85
330.83	1722.34
331.04	1638.38
331.25	1662.95
331.46	1710.05
331.68	1701.86
331.89	1767.40
332.10	1677.29
332.31	1613.80
332.52	1654.76
332.74	1748.97
332.95	1650.66
333.16	1685.48
333.37	1730.53
333.58	1703.91
333.80	1646.57
334.01	1638.38
334.22	1671.14
334.43	1740.77
334.64	1697.77
334.86	1624.04
335.07	1671.14
335.28	1812.45
335.49	1591.27
335.70	1757.16
335.92	1746.92
336.13	1851.36
336.34	1759.21
336.55	1759.21
336.76	1718.25
336.98	1558.50
337.19	1712.10
337.40	1810.40
337.61	1841.12
337.82	1738.73
338.04	1759.21
338.25	1697.77
338.46	1771.49
338.67	1685.48
338.88	1642.47
339.09	1695.72
339.31	1646.57
339.52	1607.66
339.73	1669.09
339.94	1699.81
340.15	1742.82
340.36	1652.71
340.58	1724.39
340.79	1675.24
341.00	1710.05
341.21	1626.09
341.42	1830.88
341.63	1662.95
341.85	1679.33
342.06	1755.11
342.27	1646.57
342.48	1794.02
342.69	1654.76
342.90	1718.25
343.12	1734.63
343.33	1740.77
343.54	1732.58
343.75	1730.53
343.96	1710.05
344.17	1689.57
344.38	1626.09
344.60	1646.57
344.81	1652.71
345.02	1751.01
345.23	1732.58
345.44	1785.83
345.65	1773.54
345.86	1724.39
346.07	1611.75
346.29	1775.59
346.50	1771.49
346.71	1724.39
346.92	1689.57
347.13	1812.45
347.34	1693.67
347.55	1730.53
347.76	1640.42
347.98	1642.47
348.19	1673.19
348.40	1781.73
348.61	1695.72
348.82	1800.16
349.03	1665.00
349.24	1691.62
349.45	1736.68
349.66	1597.42
349.88	1673.19
350.09	1681.38
350.30	1814.50
350.51	1773.54
350.72	1738.73
350.93	1642.47
351.14	1638.38
351.35	1730.53
351.56	1650.66
351.77	1650.66
351.99	1630.18
352.20	1828.84
352.41	1708.01
352.62	1609.70
352.83	1632.23
353.04	1691.62
353.25	1646.57
353.46	1757.16
353.67	1767.40
353.88	1593.32
354.09	1628.14
354.30	1691.62
354.52	1693.67
354.73	1669.09
354.94	1656.81
355.15	1730.53
355.36	1742.82
355.57	1642.47
355.78	1714.15
355.99	1626.09
356.20	1710.05
356.41	1746.92
356.62	1683.43
356.83	1765.35
357.04	1712.10
357.25	1667.05
357.46	1644.52
357.68	1640.42
357.89	1644.52
358.10	1705.96
358.31	1693.67
358.52	1642.47
358.73	1722.34
358.94	1611.75
359.15	1613.80
359.36	1716.20
359.57	1736.68
359.78	1673.19
359.99	1679.33
360.20	1642.47
360.41	1669.09
360.62	1718.25
360.83	1603.56
361.04	1636.33
361.25	1740.77
361.46	1804.26
361.67	1687.53
361.88	1685.48
362.09	1689.57
362.30	1732.58
362.51	1695.72
362.72	1755.11
362.93	1804.26
363.14	1708.01
363.35	1710.05
363.56	1669.09
363.78	1791.97
363.99	1755.11
364.20	1710.05
364.41	1734.63
364.62	1898.47
364.83	1607.66
365.04	1701.86
365.25	1611.75
365.46	1816.55
365.67	1644.52
365.88	1632.23
366.09	1687.53
366.30	1685.48
366.51	1665.00
366.72	1576.94
366.93	1705.96
367.14	1697.77
367.35	1804.26
367.56	1677.29
367.77	1771.49
367.98	1677.29
368.18	1759.21
368.39	1712.10
368.60	1605.61
368.81	1714.15
369.02	1699.81
369.23	1642.47
369.44	1617.90
369.65	1613.80
369.86	1724.39
370.07	1765.35
370.28	1650.66
370.49	1718.25
370.70	1773.54
370.91	1638.38
371.12	1630.18
371.33	1785.83
371.54	1642.47
371.75	1703.91
371.96	1638.38
372.17	1652.71
372.38	1607.66
372.59	1773.54
372.80	1603.56
373.01	1730.53
373.22	1736.68
373.43	1662.95
373.64	1665.00
373.85	1777.64
374.06	1738.73
374.26	1730.53
374.47	1755.11
374.68	1759.21
374.89	1695.72
375.10	1705.96
375.31	1812.45
375.52	1691.62
375.73	1763.30
375.94	1607.66
376.15	1773.54
376.36	1667.05
376.57	1689.57
376.78	1720.29
376.99	1685.48
377.20	1699.81
377.40	1701.86
377.61	1763.30
377.82	1632.23
378.03	1789.92
378.24	1667.05
378.45	1693.67
378.66	1710.05
378.87	1533.93
379.08	1599.46
379.29	1642.47
379.50	1730.53
379.71	1736.68
379.91	1689.57
380.12	1621.99
380.33	1675.24
380.54	1701.86
380.75	1646.57
380.96	1687.53
381.17	1705.96
381.38	1718.25
381.59	1748.97
381.80	1716.20
382.00	1828.84
382.21	1703.91
382.42	1832.93
382.63	1865.70
382.84	1771.49
383.05	1759.21
383.26	1742.82
383.47	1712.10
383.68	1728.49
383.88	1734.63
384.09	1714.15
384.30	1822.69
384.51	1681.38
384.72	1632.23
384.93	1621.99
385.14	1730.53
385.35	1720.29
385.55	1683.43
385.76	1757.16
385.97	1695.72
386.18	1634.28
386.39	1660.90
386.60	1599.46
386.81	1777.64
387.02	1667.05
387.22	1609.70
387.43	1806.31
387.64	1828.84
387.85	1877.99
388.06	2248.67
388.27	4329.41
388.48	6825.88
388.68	8189.83
388.89	9623.41
389.10	9908.07
389.31	8705.92
389.52	7399.31
389.73	6776.73
389.93	6092.71
390.14	5760.94
390.35	5169.07
390.56	4652.98
390.77	3764.17
390.98	2981.84
391.18	2514.91
391.39	2101.22
391.60	1861.60
391.81	1851.36
392.02	1748.97
392.23	1865.70
392.43	1673.19
392.64	1851.36
392.85	1665.00
393.06	1714.15
393.27	1757.16
393.47	1718.25
393.68	1714.15
393.89	1644.52
394.10	1732.58
394.31	1732.58
394.52	1646.57
394.72	1681.38
394.93	1822.69
395.14	1705.96
395.35	1765.35
395.56	1687.53
395.76	1796.07
395.97	1828.84
396.18	1830.88
396.39	1843.17
396.60	2090.98
396.80	1898.47
397.01	1832.93
397.22	1865.70
397.43	1875.94
397.64	1738.73
397.84	1789.92
398.05	1765.35
398.26	1734.63
398.47	1753.06
398.67	1691.62
398.88	1652.71
399.09	1685.48
399.30	1720.29
399.51	1757.16
399.71	1552.36
399.92	1705.96
400.13	1751.01
400.34	1699.81
400.54	1626.09
400.75	1759.21
400.96	1705.96
401.17	1794.02
401.37	1742.82
401.58	1691.62
401.79	1697.77
402.00	1863.65
402.21	1972.19
402.41	1986.53
402.62	1966.05
402.83	2009.06
403.04	2035.68
403.24	1990.63
403.45	1849.32
403.66	1933.28
403.87	1847.27
404.07	1951.71
404.28	1894.37
404.49	1787.88
404.70	1767.40
404.90	1830.88
405.11	1759.21
405.32	1712.10
405.52	1683.43
405.73	1660.90
405.94	1708.01
406.15	1753.06
406.35	1685.48
406.56	1685.48
406.77	1806.31
406.98	1675.24
407.18	1642.47
407.39	1837.03
407.60	1581.03
407.80	1779.68
408.01	1601.51
408.22	1714.15
408.43	1621.99
408.63	1765.35
408.84	1849.32
409.05	1845.22
409.25	1611.75
409.46	1716.20
409.67	1730.53
409.88	1708.01
410.08	1705.96
410.29	1671.14
410.50	1673.19
410.70	1697.77
410.91	1636.33
411.12	1722.34
411.32	1634.28
411.53	1689.57
411.74	1832.93
411.95	1759.21
412.15	1671.14
412.36	1800.16
412.57	1753.06
412.77	1800.16
412.98	1714.15
413.19	1765.35
413.39	1808.36
413.60	1785.83
413.81	1814.50
414.01	1648.61
414.22	1738.73
414.43	1662.95
414.63	1667.05
414.84	1755.11
415.05	1648.61
415.25	1636.33
415.46	1671.14
415.67	1730.53
415.87	1779.68
416.08	1656.81
416.29	1665.00
416.49	1714.15
416.70	1578.98
416.91	1695.72
417.11	1693.67
417.32	1718.25
417.53	1755.11
417.73	1728.49
417.94	1724.39
418.15	1740.77
418.35	1675.24
418.56	1699.81
418.77	1927.14
418.97	1667.05
419.18	1681.38
419.38	1578.98
419.59	1746.92
419.80	1822.69
420.00	1660.90
420.21	1720.29
420.42	1720.29
420.62	1746.92
420.83	1587.18
421.04	1740.77
421.24	1636.33
421.45	1724.39
421.65	1798.12
421.86	1621.99
422.07	1740.77
422.27	1738.73
422.48	1736.68
422.69	1665.00
422.89	1626.09
423.10	1710.05
423.30	1613.80
423.51	1681.38
423.72	1660.90
423.92	1701.86
424.13	1660.90
424.33	1673.19
424.54	1722.34
424.75	1738.73
424.95	1855.46
425.16	1796.07
425.36	1691.62
425.57	1736.68
425.78	1689.57
425.98	1763.30
426.19	1673.19
426.39	1658.85
426.60	1646.57
426.81	1794.02
427.01	1800.16
427.22	1726.44
427.42	1648.61
427.63	1638.38
427.83	1728.49
428.04	1767.40
428.25	1783.78
428.45	1775.59
428.66	1728.49
428.86	1742.82
429.07	1687.53
429.28	1691.62
429.48	1687.53
429.69	1673.19
429.89	1691.62
430.10	1617.90
430.30	1689.57
430.51	1763.30
430.71	1632.23
430.92	1724.39
431.13	1755.11
431.33	1732.58
431.54	1660.90
431.74	1787.88
431.95	1845.22
432.15	1599.46
432.36	1726.44
432.56	1765.35
432.77	1730.53
432.98	1728.49
433.18	1771.49
433.39	1708.01
433.59	1687.53
433.80	1800.16
434.00	1775.59
434.21	1681.38
434.41	1673.19
434.62	1839.08
434.82	1660.90
435.03	1615.85
435.23	1734.63
435.44	1603.56
435.64	1771.49
435.85	1648.61
436.06	1810.40
436.26	1708.01
436.47	1701.86
436.67	1660.90
436.88	1693.67
437.08	1796.07
437.29	1851.36
437.49	1689.57
437.70	1742.82
437.90	1574.89
438.11	1808.36
438.31	1816.55
438.52	1806.31
438.72	1820.64
438.93	1880.04
439.13	1812.45
439.34	1746.92
439.54	1746.92
439.75	1798.12
439.95	1720.29
440.16	1722.34
440.36	1710.05
440.57	1697.77
440.77	1763.30
440.98	1740.77
441.18	1787.88
441.39	1656.81
441.59	1662.95
441.80	1834.98
442.00	1746.92
442.21	1812.45
442.41	1712.10
442.62	1794.02
442.82	1665.00
443.02	1726.44
443.23	1744.87
443.43	1734.63
443.64	1746.92
443.84	1691.62
444.05	1748.97
444.25	1736.68
444.46	1732.58
444.66	1738.73
444.87	1757.16
445.07	1681.38
445.28	1757.16
445.48	1855.46
445.69	1828.84
445.89	1832.93
446.09	1746.92
446.30	2072.54
446.50	2623.45
446.71	3596.23
446.91	4329.41
447.12	4667.32
447.32	4790.20
447.53	4464.57
447.73	3848.13
447.93	3540.94
448.14	3303.37
448.34	3168.21
448.55	2906.07
448.75	2801.62
448.96	2697.17
449.16	2338.78
449.36	2224.09
449.57	2031.58
449.77	1896.42
449.98	1767.40
450.18	1808.36
450.39	1798.12
450.59	1796.07
450.79	1728.49
451.00	1687.53
451.20	1763.30
451.41	1767.40
451.61	1746.92
451.81	1724.39
452.02	1648.61
452.22	1695.72
452.43	1667.05
452.63	1775.59
