SpectraSuite Data File
++++++++++++++++++++++++++++++++++++
Date: Mon Jun 06 13:06:37 CEST 2016
User: root
Dark Spectrum Present: No
Reference Spectrum Present: No
Number of Sampled Component Spectra: 1
Spectrometers: USB4C02835
Integration Time (usec): 100000 (USB4C02835)
Spectra Averaged: 1 (USB4C02835)
Boxcar Smoothing: 0 (USB4C02835)
Correct for Electrical Dark: No (USB4C02835)
Strobe/Lamp Enabled: No (USB4C02835)
Correct for Detector Non-linearity: No (USB4C02835)
Correct for Stray Light: No (USB4C02835)
Number of Pixels in Processed Spectrum: 3648
>>>>>Begin Processed Spectral Data<<<<<
177.47	1462.25
177.69	1462.25
177.91	1462.25
178.13	1474.54
178.36	1445.87
178.58	1662.95
178.80	1708.01
179.02	1646.57
179.24	1595.37
179.46	1581.03
179.68	1769.44
179.90	1759.21
180.13	1705.96
180.35	1695.72
180.57	1652.71
180.79	1654.76
181.01	1708.01
181.23	1798.12
181.45	1802.21
181.67	1652.71
181.90	1691.62
182.12	1652.71
182.34	1656.81
182.56	1652.71
182.78	1699.81
183.00	1746.92
183.22	1761.25
183.44	1585.13
183.66	1843.17
183.89	1734.63
184.11	1646.57
184.33	1728.49
184.55	1804.26
184.77	1748.97
184.99	1699.81
185.21	1650.66
185.43	1812.45
185.65	1671.14
185.87	1742.82
186.10	1837.03
186.32	1830.88
186.54	1667.05
186.76	1718.25
186.98	1755.11
187.20	1683.43
187.42	1673.19
187.64	1685.48
187.86	1687.53
188.08	1781.73
188.30	1611.75
188.52	1658.85
188.75	1814.50
188.97	1814.50
189.19	1669.09
189.41	1644.52
189.63	1804.26
189.85	1669.09
190.07	1597.42
190.29	1654.76
190.51	1769.44
190.73	1673.19
190.95	1748.97
191.17	1675.24
191.39	1595.37
191.61	1691.62
191.84	1671.14
192.06	1738.73
192.28	1691.62
192.50	1824.74
192.72	1681.38
192.94	1665.00
193.16	1720.29
193.38	1701.86
193.60	1697.77
193.82	1677.29
194.04	1834.98
194.26	1738.73
194.48	1703.91
194.70	1611.75
194.92	1621.99
195.14	1763.30
195.36	1683.43
195.58	1734.63
195.80	1689.57
196.02	1679.33
196.24	1699.81
196.46	1759.21
196.69	1650.66
196.91	1791.97
197.13	1583.08
197.35	1630.18
197.57	1830.88
197.79	1730.53
198.01	1687.53
198.23	1757.16
198.45	1726.44
198.67	1714.15
198.89	1621.99
199.11	1681.38
199.33	1705.96
199.55	1562.60
199.77	1748.97
199.99	1746.92
200.21	1701.86
200.43	1740.77
200.65	1597.42
200.87	1630.18
201.09	1652.71
201.31	1626.09
201.53	1665.00
201.75	1708.01
201.97	1734.63
202.19	1701.86
202.41	1804.26
202.63	1863.65
202.85	1773.54
203.07	1687.53
203.29	1710.05
203.51	1755.11
203.73	1636.33
203.95	1753.06
204.17	1671.14
204.39	1724.39
204.61	1722.34
204.83	1632.23
205.05	1736.68
205.27	1722.34
205.49	1771.49
205.71	1726.44
205.93	1611.75
206.15	1671.14
206.37	1675.24
206.59	1675.24
206.81	1585.13
207.03	1652.71
207.25	1624.04
207.47	1744.87
207.69	1742.82
207.91	1787.88
208.13	1816.55
208.34	1599.46
208.56	1652.71
208.78	1724.39
209.00	1650.66
209.22	1640.42
209.44	1636.33
209.66	1708.01
209.88	1751.01
210.10	1726.44
210.32	1777.64
210.54	1789.92
210.76	1710.05
210.98	1718.25
211.20	1624.04
211.42	1755.11
211.64	1740.77
211.86	1726.44
212.08	1720.29
212.30	1755.11
212.52	1642.47
212.74	1722.34
212.96	1705.96
213.17	1757.16
213.39	1787.88
213.61	1816.55
213.83	1757.16
214.05	1603.56
214.27	1738.73
214.49	1609.70
214.71	1691.62
214.93	1783.78
215.15	1654.76
215.37	1736.68
215.59	1640.42
215.81	1771.49
216.03	1806.31
216.24	1718.25
216.46	1615.85
216.68	1740.77
216.90	1722.34
217.12	1730.53
217.34	1710.05
217.56	1724.39
217.78	1769.44
218.00	1732.58
218.22	1675.24
218.44	1683.43
218.66	1765.35
218.87	1810.40
219.09	1753.06
219.31	1765.35
219.53	1677.29
219.75	1667.05
219.97	1683.43
220.19	1644.52
220.41	1673.19
220.63	1802.21
220.85	1671.14
221.06	1636.33
221.28	1736.68
221.50	1751.01
221.72	1644.52
221.94	1705.96
222.16	1650.66
222.38	1712.10
222.60	1646.57
222.82	1712.10
223.03	1751.01
223.25	1665.00
223.47	1771.49
223.69	1810.40
223.91	1705.96
224.13	1751.01
224.35	1689.57
224.57	1759.21
224.78	1761.25
225.00	1722.34
225.22	1744.87
225.44	1683.43
225.66	1744.87
225.88	1634.28
226.10	1746.92
226.32	1738.73
226.53	1746.92
226.75	1654.76
226.97	1665.00
227.19	1701.86
227.41	1611.75
227.63	1728.49
227.85	1626.09
228.06	1746.92
228.28	1677.29
228.50	1765.35
228.72	1646.57
228.94	1621.99
229.16	1578.98
229.37	1599.46
229.59	1660.90
229.81	1734.63
230.03	1675.24
230.25	1632.23
230.47	1568.74
230.69	1646.57
230.90	1785.83
231.12	1669.09
231.34	1744.87
231.56	1769.44
231.78	1527.78
232.00	1703.91
232.21	1722.34
232.43	1638.38
232.65	1605.61
232.87	1794.02
233.09	1591.27
233.30	1691.62
233.52	1693.67
233.74	1742.82
233.96	1662.95
234.18	1656.81
234.40	1697.77
234.61	1824.74
234.83	1642.47
235.05	1599.46
235.27	1798.12
235.49	1822.69
235.70	1640.42
235.92	1722.34
236.14	1757.16
236.36	1845.22
236.58	1628.14
236.79	1777.64
237.01	1652.71
237.23	1701.86
237.45	1818.60
237.67	1712.10
237.88	1751.01
238.10	1755.11
238.32	1636.33
238.54	1732.58
238.76	1660.90
238.97	1591.27
239.19	1626.09
239.41	1771.49
239.63	1751.01
239.85	1726.44
240.06	1693.67
240.28	1617.90
240.50	1773.54
240.72	1712.10
240.93	1705.96
241.15	1789.92
241.37	1726.44
241.59	1781.73
241.81	1695.72
242.02	1718.25
242.24	1730.53
242.46	1708.01
242.68	1701.86
242.89	1677.29
243.11	1820.64
243.33	1648.61
243.55	1734.63
243.76	1734.63
243.98	1652.71
244.20	1665.00
244.42	1689.57
244.64	1710.05
244.85	1605.61
245.07	1599.46
245.29	1808.36
245.51	1718.25
245.72	1712.10
245.94	1720.29
246.16	1708.01
246.38	1798.12
246.59	1673.19
246.81	1615.85
247.03	1660.90
247.24	1642.47
247.46	1714.15
247.68	1779.68
247.90	1693.67
248.11	1595.37
248.33	1781.73
248.55	1634.28
248.77	1701.86
248.98	1740.77
249.20	1808.36
249.42	1716.20
249.64	1689.57
249.85	1675.24
250.07	1677.29
250.29	1718.25
250.50	1802.21
250.72	1593.32
250.94	1767.40
251.16	1841.12
251.37	1779.68
251.59	1767.40
251.81	1789.92
252.02	1724.39
252.24	1720.29
252.46	1824.74
252.68	1640.42
252.89	1685.48
253.11	1634.28
253.33	1798.12
253.54	1771.49
253.76	1605.61
253.98	1720.29
254.20	1703.91
254.41	1687.53
254.63	1634.28
254.85	1638.38
255.06	1783.78
255.28	1722.34
255.50	1718.25
255.71	1591.27
255.93	1669.09
256.15	1617.90
256.36	1714.15
256.58	1665.00
256.80	1675.24
257.02	1658.85
257.23	1697.77
257.45	1705.96
257.67	1783.78
257.88	1656.81
258.10	1791.97
258.32	1689.57
258.53	1714.15
258.75	1773.54
258.97	1703.91
259.18	1730.53
259.40	1742.82
259.62	1808.36
259.83	1767.40
260.05	1773.54
260.27	1949.67
260.48	1789.92
260.70	1697.77
260.92	1701.86
261.13	1710.05
261.35	1652.71
261.57	1658.85
261.78	1621.99
262.00	1685.48
262.22	1613.80
262.43	1648.61
262.65	1691.62
262.86	1710.05
263.08	1851.36
263.30	1693.67
263.51	1638.38
263.73	1695.72
263.95	1816.55
264.16	1681.38
264.38	1691.62
264.60	1679.33
264.81	1738.73
265.03	1783.78
265.25	1816.55
265.46	1703.91
265.68	1710.05
265.89	1732.58
266.11	1654.76
266.33	1789.92
266.54	1785.83
266.76	1722.34
266.98	1714.15
267.19	1724.39
267.41	1787.88
267.62	1789.92
267.84	1568.74
268.06	1662.95
268.27	1716.20
268.49	1753.06
268.70	1730.53
268.92	1708.01
269.14	1693.67
269.35	1660.90
269.57	1687.53
269.79	1679.33
270.00	1697.77
270.22	1761.25
270.43	1734.63
270.65	1636.33
270.87	1732.58
271.08	1730.53
271.30	1771.49
271.51	1617.90
271.73	1714.15
271.95	1818.60
272.16	1665.00
272.38	1773.54
272.59	1677.29
272.81	1714.15
273.02	1759.21
273.24	1712.10
273.46	1763.30
273.67	1619.94
273.89	1681.38
274.10	1675.24
274.32	1710.05
274.54	1755.11
274.75	1714.15
274.97	1638.38
275.18	1716.20
275.40	1710.05
275.61	1693.67
275.83	1665.00
276.05	1703.91
276.26	1716.20
276.48	1689.57
276.69	1605.61
276.91	1662.95
277.12	1751.01
277.34	1748.97
277.55	1806.31
277.77	1615.85
277.99	1716.20
278.20	1636.33
278.42	1710.05
278.63	1660.90
278.85	1665.00
279.06	1665.00
279.28	1742.82
279.49	1716.20
279.71	1708.01
279.93	1683.43
280.14	1748.97
280.36	1634.28
280.57	1712.10
280.79	1796.07
281.00	1665.00
281.22	1634.28
281.43	1738.73
281.65	1617.90
281.86	1640.42
282.08	1679.33
282.29	1841.12
282.51	1628.14
282.73	1685.48
282.94	1556.46
283.16	1738.73
283.37	1861.60
283.59	1615.85
283.80	1738.73
284.02	1642.47
284.23	1687.53
284.45	1652.71
284.66	1648.61
284.88	1726.44
285.09	1712.10
285.31	1736.68
285.52	1773.54
285.74	1574.89
285.95	1699.81
286.17	1748.97
286.38	1714.15
286.60	1701.86
286.81	1636.33
287.03	1660.90
287.24	1689.57
287.46	1820.64
287.67	1761.25
287.89	1832.93
288.10	1654.76
288.32	1714.15
288.53	1798.12
288.75	1669.09
288.96	1703.91
289.18	1644.52
289.39	1671.14
289.61	1722.34
289.82	1853.41
290.04	1839.08
290.25	1638.38
290.47	1656.81
290.68	1734.63
290.90	1779.68
291.11	1599.46
291.33	1798.12
291.54	1556.46
291.76	1636.33
291.97	1677.29
292.18	1693.67
292.40	1648.61
292.61	1640.42
292.83	1847.27
293.04	1718.25
293.26	1650.66
293.47	1738.73
293.69	1662.95
293.90	1746.92
294.12	1738.73
294.33	1658.85
294.55	1681.38
294.76	1714.15
294.97	1773.54
295.19	1873.89
295.40	1759.21
295.62	1738.73
295.83	1738.73
296.05	1738.73
296.26	1734.63
296.48	1619.94
296.69	1667.05
296.90	1665.00
297.12	1828.84
297.33	1794.02
297.55	1689.57
297.76	1685.48
297.98	1751.01
298.19	1665.00
298.41	1726.44
298.62	1662.95
298.83	1748.97
299.05	1736.68
299.26	1665.00
299.48	1603.56
299.69	1736.68
299.90	1732.58
300.12	1683.43
300.33	1771.49
300.55	1660.90
300.76	1804.26
300.98	1652.71
301.19	1726.44
301.40	1685.48
301.62	1710.05
301.83	1771.49
302.05	1673.19
302.26	1669.09
302.47	1771.49
302.69	1656.81
302.90	1685.48
303.12	1558.50
303.33	1705.96
303.54	1877.99
303.76	1611.75
303.97	1736.68
304.19	1779.68
304.40	1695.72
304.61	1730.53
304.83	1796.07
305.04	1777.64
305.26	1742.82
305.47	1708.01
305.68	1691.62
305.90	1654.76
306.11	1708.01
306.33	1742.82
306.54	1636.33
306.75	1626.09
306.97	1691.62
307.18	1693.67
307.39	1560.55
307.61	1697.77
307.82	1634.28
308.04	1722.34
308.25	1679.33
308.46	1675.24
308.68	1714.15
308.89	1740.77
309.10	1832.93
309.32	1734.63
309.53	1759.21
309.74	1693.67
309.96	1619.94
310.17	1771.49
310.39	1716.20
310.60	1740.77
310.81	1755.11
311.03	1648.61
311.24	1730.53
311.45	1658.85
311.67	1800.16
311.88	1681.38
312.09	1697.77
312.31	1693.67
312.52	1685.48
312.73	1693.67
312.95	1564.65
313.16	1607.66
313.37	1794.02
313.59	1705.96
313.80	1720.29
314.01	1816.55
314.23	1763.30
314.44	1718.25
314.65	1716.20
314.87	1662.95
315.08	1705.96
315.29	1722.34
315.51	1656.81
315.72	1644.52
315.93	1808.36
316.15	1765.35
316.36	1679.33
316.57	1777.64
316.79	1671.14
317.00	1683.43
317.21	1757.16
317.43	1658.85
317.64	1667.05
317.85	1607.66
318.07	1669.09
318.28	1705.96
318.49	1757.16
318.70	1925.09
318.92	1796.07
319.13	1832.93
319.34	1841.12
319.56	1759.21
319.77	1736.68
319.98	1806.31
320.20	1744.87
320.41	1730.53
320.62	1748.97
320.83	1705.96
321.05	1902.56
321.26	1601.51
321.47	1671.14
321.69	1746.92
321.90	1652.71
322.11	1714.15
322.32	1695.72
322.54	1724.39
322.75	1683.43
322.96	1847.27
323.18	1677.29
323.39	1552.36
323.60	1593.32
323.81	1679.33
324.03	1665.00
324.24	1718.25
324.45	1669.09
324.66	1714.15
324.88	1693.67
325.09	1806.31
325.30	1791.97
325.52	1697.77
325.73	1683.43
325.94	1658.85
326.15	1642.47
326.37	1652.71
326.58	1746.92
326.79	1869.80
327.00	1624.04
327.22	1695.72
327.43	1691.62
327.64	1601.51
327.85	1685.48
328.07	1800.16
328.28	1853.41
328.49	1632.23
328.70	1753.06
328.92	1601.51
329.13	1656.81
329.34	1701.86
329.55	1826.79
329.76	1740.77
329.98	1617.90
330.19	1832.93
330.40	1710.05
330.61	1751.01
330.83	1802.21
331.04	1609.70
331.25	1689.57
331.46	1648.61
331.68	1638.38
331.89	1761.25
332.10	1726.44
332.31	1576.94
332.52	1687.53
332.74	1798.12
332.95	1638.38
333.16	1689.57
333.37	1748.97
333.58	1656.81
333.80	1611.75
334.01	1617.90
334.22	1767.40
334.43	1591.27
334.64	1699.81
334.86	1658.85
335.07	1658.85
335.28	1796.07
335.49	1603.56
335.70	1720.29
335.92	1761.25
336.13	1802.21
336.34	1759.21
336.55	1740.77
336.76	1787.88
336.98	1552.36
337.19	1660.90
337.40	1837.03
337.61	1888.23
337.82	1597.42
338.04	1757.16
338.25	1642.47
338.46	1693.67
338.67	1722.34
338.88	1648.61
339.09	1642.47
339.31	1703.91
339.52	1740.77
339.73	1624.04
339.94	1646.57
340.15	1748.97
340.36	1708.01
340.58	1693.67
340.79	1601.51
341.00	1671.14
341.21	1640.42
341.42	1779.68
341.63	1634.28
341.85	1697.77
342.06	1695.72
342.27	1611.75
342.48	1767.40
342.69	1529.83
342.90	1708.01
343.12	1685.48
343.33	1779.68
343.54	1761.25
343.75	1773.54
343.96	1681.38
344.17	1656.81
344.38	1712.10
344.60	1632.23
344.81	1675.24
345.02	1693.67
345.23	1722.34
345.44	1765.35
345.65	1759.21
345.86	1656.81
346.07	1724.39
346.29	1628.14
346.50	1722.34
346.71	1746.92
346.92	1798.12
347.13	1767.40
347.34	1691.62
347.55	1716.20
347.76	1732.58
347.98	1685.48
348.19	1648.61
348.40	1701.86
348.61	1656.81
348.82	1814.50
349.03	1773.54
349.24	1619.94
349.45	1748.97
349.66	1574.89
349.88	1718.25
350.09	1722.34
350.30	1871.84
350.51	1746.92
350.72	1683.43
350.93	1665.00
351.14	1628.14
351.35	1716.20
351.56	1712.10
351.77	1765.35
351.99	1771.49
352.20	1806.31
352.41	1777.64
352.62	1609.70
352.83	1662.95
353.04	1665.00
353.25	1642.47
353.46	1740.77
353.67	1841.12
353.88	1628.14
354.09	1726.44
354.30	1658.85
354.52	1796.07
354.73	1726.44
354.94	1656.81
355.15	1667.05
355.36	1771.49
355.57	1697.77
355.78	1718.25
355.99	1746.92
356.20	1673.19
356.41	1732.58
356.62	1687.53
356.83	1796.07
357.04	1746.92
357.25	1599.46
357.46	1679.33
357.68	1671.14
357.89	1607.66
358.10	1755.11
358.31	1701.86
358.52	1761.25
358.73	1708.01
358.94	1615.85
359.15	1619.94
359.36	1730.53
359.57	1628.14
359.78	1638.38
359.99	1734.63
360.20	1630.18
360.41	1656.81
360.62	1673.19
360.83	1789.92
361.04	1734.63
361.25	1697.77
361.46	1710.05
361.67	1814.50
361.88	1716.20
362.09	1679.33
362.30	1753.06
362.51	1701.86
362.72	1724.39
362.93	1730.53
363.14	1746.92
363.35	1677.29
363.56	1732.58
363.78	1705.96
363.99	1712.10
364.20	1648.61
364.41	1712.10
364.62	1771.49
364.83	1685.48
365.04	1671.14
365.25	1722.34
365.46	1830.88
365.67	1648.61
365.88	1640.42
366.09	1683.43
366.30	1714.15
366.51	1769.44
366.72	1626.09
366.93	1662.95
367.14	1685.48
367.35	1820.64
367.56	1705.96
367.77	1794.02
367.98	1783.78
368.18	1714.15
368.39	1755.11
368.60	1624.04
368.81	1722.34
369.02	1714.15
369.23	1667.05
369.44	1540.07
369.65	1693.67
369.86	1761.25
370.07	1726.44
370.28	1642.47
370.49	1718.25
370.70	1742.82
370.91	1673.19
371.12	1632.23
371.33	1761.25
371.54	1679.33
371.75	1808.36
371.96	1636.33
372.17	1724.39
372.38	1673.19
372.59	1777.64
372.80	1677.29
373.01	1722.34
373.22	1724.39
373.43	1644.52
373.64	1546.22
373.85	1771.49
374.06	1783.78
374.26	1673.19
374.47	1771.49
374.68	1751.01
374.89	1718.25
375.10	1726.44
375.31	1763.30
375.52	1703.91
375.73	1740.77
375.94	1617.90
376.15	1810.40
376.36	1642.47
376.57	1679.33
376.78	1630.18
376.99	1710.05
377.20	1771.49
377.40	1628.14
377.61	1834.98
377.82	1652.71
378.03	1767.40
378.24	1746.92
378.45	1640.42
378.66	1738.73
378.87	1624.04
379.08	1578.98
379.29	1671.14
379.50	1769.44
379.71	1757.16
379.91	1808.36
380.12	1701.86
380.33	1589.22
380.54	1722.34
380.75	1656.81
380.96	1701.86
381.17	1755.11
381.38	1787.88
381.59	1685.48
381.80	1767.40
382.00	1888.23
382.21	1710.05
382.42	1761.25
382.63	1834.98
382.84	1665.00
383.05	1746.92
383.26	1746.92
383.47	1724.39
383.68	1740.77
383.88	1724.39
384.09	1640.42
384.30	1746.92
384.51	1736.68
384.72	1683.43
384.93	1585.13
385.14	1693.67
385.35	1718.25
385.55	1669.09
385.76	1767.40
385.97	1716.20
386.18	1642.47
386.39	1720.29
386.60	1718.25
386.81	1730.53
387.02	1624.04
387.22	1605.61
387.43	1871.84
387.64	1806.31
387.85	1839.08
388.06	2209.76
388.27	4249.54
388.48	6631.32
388.68	8329.09
388.89	9570.16
389.10	9701.23
389.31	8609.66
389.52	7622.54
389.73	6786.97
389.93	6334.37
390.14	5822.38
390.35	5285.81
390.56	4550.59
390.77	3762.12
390.98	3002.32
391.18	2496.47
391.39	2123.74
391.60	1791.97
391.81	1867.75
392.02	1716.20
392.23	1834.98
392.43	1669.09
392.64	1777.64
392.85	1714.15
393.06	1794.02
393.27	1679.33
393.47	1654.76
393.68	1748.97
393.89	1624.04
394.10	1744.87
394.31	1673.19
394.52	1673.19
394.72	1705.96
394.93	1791.97
395.14	1654.76
395.35	1697.77
395.56	1652.71
395.76	1720.29
395.97	1839.08
396.18	1775.59
396.39	1826.79
396.60	2015.20
396.80	1929.19
397.01	1845.22
397.22	1853.41
397.43	1761.25
397.64	1671.14
397.84	1808.36
398.05	1859.56
398.26	1730.53
398.47	1744.87
398.67	1796.07
398.88	1724.39
399.09	1777.64
399.30	1665.00
399.51	1736.68
399.71	1654.76
399.92	1785.83
400.13	1708.01
400.34	1710.05
400.54	1691.62
400.75	1787.88
400.96	1775.59
401.17	1861.60
401.37	1755.11
401.58	1681.38
401.79	1695.72
402.00	1853.41
402.21	2025.44
402.41	1943.52
402.62	1974.24
402.83	1980.39
403.04	1976.29
403.24	2062.30
403.45	1816.55
403.66	1857.51
403.87	1937.38
404.07	1849.32
404.28	1865.70
404.49	1945.57
404.70	1816.55
404.90	1818.60
405.11	1781.73
405.32	1720.29
405.52	1687.53
405.73	1705.96
405.94	1650.66
406.15	1675.24
406.35	1785.83
406.56	1689.57
406.77	1765.35
406.98	1759.21
407.18	1691.62
407.39	1738.73
407.60	1675.24
407.80	1732.58
408.01	1683.43
408.22	1665.00
408.43	1648.61
408.63	1794.02
408.84	1738.73
409.05	1740.77
409.25	1646.57
409.46	1611.75
409.67	1658.85
409.88	1691.62
410.08	1746.92
410.29	1714.15
410.50	1724.39
410.70	1667.05
410.91	1665.00
411.12	1689.57
411.32	1730.53
411.53	1658.85
411.74	1791.97
411.95	1783.78
412.15	1742.82
412.36	1767.40
412.57	1791.97
412.77	1771.49
412.98	1669.09
413.19	1720.29
413.39	1804.26
413.60	1767.40
413.81	1806.31
414.01	1603.56
414.22	1748.97
414.43	1738.73
414.63	1677.29
414.84	1736.68
415.05	1767.40
415.25	1617.90
415.46	1761.25
415.67	1710.05
415.87	1716.20
416.08	1738.73
416.29	1705.96
416.49	1748.97
416.70	1677.29
416.91	1685.48
417.11	1615.85
417.32	1720.29
417.53	1779.68
417.73	1703.91
417.94	1691.62
418.15	1714.15
418.35	1658.85
418.56	1718.25
418.77	1871.84
418.97	1732.58
419.18	1695.72
419.38	1587.18
419.59	1654.76
419.80	1761.25
420.00	1642.47
420.21	1718.25
420.42	1742.82
420.62	1720.29
420.83	1683.43
421.04	1697.77
421.24	1671.14
421.45	1738.73
421.65	1728.49
421.86	1689.57
422.07	1693.67
422.27	1730.53
422.48	1685.48
422.69	1685.48
422.89	1748.97
423.10	1757.16
423.30	1611.75
423.51	1746.92
423.72	1701.86
423.92	1693.67
424.13	1687.53
424.33	1712.10
424.54	1767.40
424.75	1724.39
424.95	1785.83
425.16	1728.49
425.36	1701.86
425.57	1740.77
425.78	1708.01
425.98	1722.34
426.19	1716.20
426.39	1658.85
426.60	1808.36
426.81	1796.07
427.01	1693.67
427.22	1624.04
427.42	1619.94
427.63	1685.48
427.83	1734.63
428.04	1849.32
428.25	1822.69
428.45	1839.08
428.66	1697.77
428.86	1615.85
429.07	1681.38
429.28	1703.91
429.48	1748.97
429.69	1665.00
429.89	1720.29
430.10	1578.98
430.30	1779.68
430.51	1755.11
430.71	1671.14
430.92	1693.67
431.13	1683.43
431.33	1648.61
431.54	1687.53
431.74	1767.40
431.95	1832.93
432.15	1650.66
432.36	1695.72
432.56	1755.11
432.77	1867.75
432.98	1789.92
433.18	1806.31
433.39	1619.94
433.59	1714.15
433.80	1826.79
434.00	1824.74
434.21	1720.29
434.41	1648.61
434.62	1843.17
434.82	1611.75
435.03	1738.73
435.23	1714.15
435.44	1642.47
435.64	1796.07
435.85	1753.06
436.06	1744.87
436.26	1740.77
436.47	1677.29
436.67	1638.38
436.88	1646.57
437.08	1767.40
437.29	1802.21
437.49	1716.20
437.70	1751.01
437.90	1787.88
438.11	1789.92
438.31	1740.77
438.52	1863.65
438.72	1837.03
438.93	1877.99
439.13	1796.07
439.34	1798.12
439.54	1779.68
439.75	1746.92
439.95	1734.63
440.16	1757.16
440.36	1712.10
440.57	1832.93
440.77	1746.92
440.98	1687.53
441.18	1718.25
441.39	1705.96
441.59	1691.62
441.80	1851.36
442.00	1714.15
442.21	1732.58
442.41	1675.24
442.62	1716.20
442.82	1699.81
443.02	1646.57
443.23	1734.63
443.43	1779.68
443.64	1820.64
443.84	1722.34
444.05	1851.36
444.25	1695.72
444.46	1714.15
444.66	1677.29
444.87	1808.36
445.07	1697.77
445.28	1740.77
445.48	1738.73
445.69	1818.60
445.89	1804.26
446.09	1742.82
446.30	1994.72
446.50	2611.16
446.71	3719.11
446.91	4286.40
447.12	4708.28
447.32	4880.31
447.53	4329.41
447.73	3837.89
447.93	3491.79
448.14	3334.09
448.34	3219.41
448.55	2875.35
448.75	2805.72
448.96	2727.89
449.16	2365.40
449.36	2353.12
449.57	2031.58
449.77	1857.51
449.98	1785.83
450.18	1796.07
450.39	1886.18
450.59	1791.97
450.79	1662.95
451.00	1710.05
451.20	1689.57
451.41	1726.44
451.61	1802.21
451.81	1714.15
452.02	1730.53
452.22	1738.73
452.43	1771.49
452.63	1658.85
