SpectraSuite Data File
++++++++++++++++++++++++++++++++++++
Date: Mon Jun 06 13:32:57 CEST 2016
User: root
Dark Spectrum Present: No
Reference Spectrum Present: No
Number of Sampled Component Spectra: 1
Spectrometers: USB4C02835
Integration Time (usec): 100000 (USB4C02835)
Spectra Averaged: 1 (USB4C02835)
Boxcar Smoothing: 0 (USB4C02835)
Correct for Electrical Dark: No (USB4C02835)
Strobe/Lamp Enabled: No (USB4C02835)
Correct for Detector Non-linearity: No (USB4C02835)
Correct for Stray Light: No (USB4C02835)
Number of Pixels in Processed Spectrum: 3648
>>>>>Begin Processed Spectral Data<<<<<
177.47	1415.15
177.69	1415.15
177.91	1415.15
178.13	1449.96
178.36	1417.19
178.58	1626.09
178.80	1763.30
179.02	1632.23
179.24	1619.94
179.46	1677.29
179.68	1785.83
179.90	1761.25
180.13	1693.67
180.35	1585.13
180.57	1730.53
180.79	1775.59
181.01	1703.91
181.23	1734.63
181.45	1724.39
181.67	1703.91
181.90	1722.34
182.12	1697.77
182.34	1560.55
182.56	1665.00
182.78	1718.25
183.00	1615.85
183.22	1699.81
183.44	1601.51
183.66	1824.74
183.89	1687.53
184.11	1767.40
184.33	1748.97
184.55	1810.40
184.77	1748.97
184.99	1656.81
185.21	1626.09
185.43	1861.60
185.65	1619.94
185.87	1712.10
186.10	1910.75
186.32	1796.07
186.54	1693.67
186.76	1722.34
186.98	1710.05
187.20	1724.39
187.42	1722.34
187.64	1701.86
187.86	1734.63
188.08	1660.90
188.30	1693.67
188.52	1693.67
188.75	1755.11
188.97	1738.73
189.19	1712.10
189.41	1648.61
189.63	1624.04
189.85	1695.72
190.07	1591.27
190.29	1677.29
190.51	1759.21
190.73	1646.57
190.95	1708.01
191.17	1652.71
191.39	1609.70
191.61	1691.62
191.84	1673.19
192.06	1675.24
192.28	1634.28
192.50	1865.70
192.72	1687.53
192.94	1667.05
193.16	1775.59
193.38	1730.53
193.60	1615.85
193.82	1656.81
194.04	1785.83
194.26	1675.24
194.48	1697.77
194.70	1673.19
194.92	1685.48
195.14	1851.36
195.36	1734.63
195.58	1753.06
195.80	1738.73
196.02	1675.24
196.24	1677.29
196.46	1712.10
196.69	1677.29
196.91	1806.31
197.13	1677.29
197.35	1667.05
197.57	1775.59
197.79	1759.21
198.01	1705.96
198.23	1716.20
198.45	1701.86
198.67	1617.90
198.89	1685.48
199.11	1679.33
199.33	1685.48
199.55	1558.50
199.77	1693.67
199.99	1722.34
200.21	1693.67
200.43	1701.86
200.65	1656.81
200.87	1570.79
201.09	1683.43
201.31	1722.34
201.53	1714.15
201.75	1722.34
201.97	1742.82
202.19	1673.19
202.41	1806.31
202.63	1812.45
202.85	1683.43
203.07	1755.11
203.29	1693.67
203.51	1673.19
203.73	1701.86
203.95	1855.46
204.17	1714.15
204.39	1669.09
204.61	1742.82
204.83	1730.53
205.05	1746.92
205.27	1730.53
205.49	1771.49
205.71	1646.57
205.93	1636.33
206.15	1740.77
206.37	1636.33
206.59	1761.25
206.81	1650.66
207.03	1683.43
207.25	1589.22
207.47	1757.16
207.69	1656.81
207.91	1800.16
208.13	1718.25
208.34	1667.05
208.56	1615.85
208.78	1808.36
209.00	1693.67
209.22	1607.66
209.44	1742.82
209.66	1677.29
209.88	1683.43
210.10	1681.38
210.32	1718.25
210.54	1775.59
210.76	1669.09
210.98	1705.96
211.20	1615.85
211.42	1671.14
211.64	1740.77
211.86	1722.34
212.08	1675.24
212.30	1701.86
212.52	1591.27
212.74	1794.02
212.96	1779.68
213.17	1710.05
213.39	1744.87
213.61	1798.12
213.83	1652.71
214.05	1710.05
214.27	1759.21
214.49	1667.05
214.71	1630.18
214.93	1794.02
215.15	1712.10
215.37	1716.20
215.59	1640.42
215.81	1705.96
216.03	1740.77
216.24	1710.05
216.46	1710.05
216.68	1669.09
216.90	1740.77
217.12	1759.21
217.34	1685.48
217.56	1689.57
217.78	1779.68
218.00	1738.73
218.22	1673.19
218.44	1718.25
218.66	1693.67
218.87	1742.82
219.09	1669.09
219.31	1673.19
219.53	1777.64
219.75	1656.81
219.97	1742.82
220.19	1687.53
220.41	1738.73
220.63	1820.64
220.85	1763.30
221.06	1693.67
221.28	1759.21
221.50	1748.97
221.72	1660.90
221.94	1677.29
222.16	1683.43
222.38	1736.68
222.60	1726.44
222.82	1652.71
223.03	1685.48
223.25	1705.96
223.47	1687.53
223.69	1882.08
223.91	1697.77
224.13	1628.14
224.35	1642.47
224.57	1695.72
224.78	1757.16
225.00	1648.61
225.22	1720.29
225.44	1716.20
225.66	1722.34
225.88	1644.52
226.10	1812.45
226.32	1718.25
226.53	1746.92
226.75	1632.23
226.97	1742.82
227.19	1650.66
227.41	1693.67
227.63	1656.81
227.85	1624.04
228.06	1697.77
228.28	1765.35
228.50	1798.12
228.72	1658.85
228.94	1654.76
229.16	1673.19
229.37	1619.94
229.59	1681.38
229.81	1759.21
230.03	1740.77
230.25	1621.99
230.47	1650.66
230.69	1603.56
230.90	1779.68
231.12	1609.70
231.34	1691.62
231.56	1703.91
231.78	1624.04
232.00	1697.77
232.21	1681.38
232.43	1693.67
232.65	1644.52
232.87	1744.87
233.09	1681.38
233.30	1621.99
233.52	1785.83
233.74	1730.53
233.96	1685.48
234.18	1675.24
234.40	1675.24
234.61	1755.11
234.83	1595.37
235.05	1560.55
235.27	1802.21
235.49	1775.59
235.70	1660.90
235.92	1816.55
236.14	1689.57
236.36	1927.14
236.58	1578.98
236.79	1789.92
237.01	1693.67
237.23	1677.29
237.45	1781.73
237.67	1593.32
237.88	1689.57
238.10	1771.49
238.32	1701.86
238.54	1691.62
238.76	1748.97
238.97	1591.27
239.19	1665.00
239.41	1695.72
239.63	1732.58
239.85	1689.57
240.06	1705.96
240.28	1691.62
240.50	1744.87
240.72	1658.85
240.93	1714.15
241.15	1730.53
241.37	1677.29
241.59	1802.21
241.81	1775.59
242.02	1734.63
242.24	1689.57
242.46	1798.12
242.68	1669.09
242.89	1710.05
243.11	1740.77
243.33	1720.29
243.55	1708.01
243.76	1767.40
243.98	1708.01
244.20	1683.43
244.42	1683.43
244.64	1621.99
244.85	1685.48
245.07	1564.65
245.29	1738.73
245.51	1632.23
245.72	1673.19
245.94	1716.20
246.16	1636.33
246.38	1736.68
246.59	1691.62
246.81	1671.14
247.03	1705.96
247.24	1566.70
247.46	1648.61
247.68	1722.34
247.90	1585.13
248.11	1646.57
248.33	1816.55
248.55	1591.27
248.77	1746.92
248.98	1712.10
249.20	1765.35
249.42	1744.87
249.64	1701.86
249.85	1708.01
250.07	1751.01
250.29	1767.40
250.50	1726.44
250.72	1689.57
250.94	1695.72
251.16	1834.98
251.37	1781.73
251.59	1748.97
251.81	1753.06
252.02	1834.98
252.24	1693.67
252.46	1705.96
252.68	1665.00
252.89	1605.61
253.11	1560.55
253.33	1816.55
253.54	1701.86
253.76	1605.61
253.98	1632.23
254.20	1718.25
254.41	1626.09
254.63	1703.91
254.85	1605.61
255.06	1652.71
255.28	1738.73
255.50	1638.38
255.71	1695.72
255.93	1621.99
256.15	1624.04
256.36	1697.77
256.58	1644.52
256.80	1779.68
257.02	1708.01
257.23	1648.61
257.45	1746.92
257.67	1693.67
257.88	1693.67
258.10	1685.48
258.32	1724.39
258.53	1705.96
258.75	1751.01
258.97	1619.94
259.18	1767.40
259.40	1646.57
259.62	1777.64
259.83	1785.83
260.05	1665.00
260.27	1898.47
260.48	1753.06
260.70	1601.51
260.92	1689.57
261.13	1716.20
261.35	1638.38
261.57	1705.96
261.78	1630.18
262.00	1650.66
262.22	1708.01
262.43	1599.46
262.65	1712.10
262.86	1642.47
263.08	1820.64
263.30	1763.30
263.51	1615.85
263.73	1644.52
263.95	1843.17
264.16	1679.33
264.38	1687.53
264.60	1734.63
264.81	1683.43
265.03	1775.59
265.25	1683.43
265.46	1650.66
265.68	1744.87
265.89	1785.83
266.11	1556.46
266.33	1755.11
266.54	1773.54
266.76	1779.68
266.98	1662.95
267.19	1716.20
267.41	1728.49
267.62	1671.14
267.84	1609.70
268.06	1697.77
268.27	1705.96
268.49	1746.92
268.70	1753.06
268.92	1613.80
269.14	1675.24
269.35	1613.80
269.57	1669.09
269.79	1742.82
270.00	1712.10
270.22	1791.97
270.43	1693.67
270.65	1574.89
270.87	1638.38
271.08	1763.30
271.30	1804.26
271.51	1656.81
271.73	1693.67
271.95	1736.68
272.16	1675.24
272.38	1757.16
272.59	1644.52
272.81	1716.20
273.02	1650.66
273.24	1775.59
273.46	1775.59
273.67	1624.04
273.89	1621.99
274.10	1669.09
274.32	1748.97
274.54	1701.86
274.75	1712.10
274.97	1658.85
275.18	1738.73
275.40	1685.48
275.61	1607.66
275.83	1738.73
276.05	1589.22
276.26	1746.92
276.48	1787.88
276.69	1667.05
276.91	1710.05
277.12	1773.54
277.34	1720.29
277.55	1767.40
277.77	1681.38
277.99	1681.38
278.20	1642.47
278.42	1634.28
278.63	1642.47
278.85	1636.33
279.06	1595.37
279.28	1730.53
279.49	1730.53
279.71	1775.59
279.93	1699.81
280.14	1619.94
280.36	1673.19
280.57	1753.06
280.79	1767.40
281.00	1665.00
281.22	1714.15
281.43	1781.73
281.65	1632.23
281.86	1509.35
282.08	1716.20
282.29	1798.12
282.51	1650.66
282.73	1658.85
282.94	1619.94
283.16	1722.34
283.37	1779.68
283.59	1730.53
283.80	1775.59
284.02	1665.00
284.23	1755.11
284.45	1644.52
284.66	1632.23
284.88	1742.82
285.09	1738.73
285.31	1726.44
285.52	1728.49
285.74	1626.09
285.95	1720.29
286.17	1751.01
286.38	1703.91
286.60	1710.05
286.81	1628.14
287.03	1732.58
287.24	1689.57
287.46	1724.39
287.67	1691.62
287.89	1798.12
288.10	1699.81
288.32	1697.77
288.53	1804.26
288.75	1703.91
288.96	1705.96
289.18	1650.66
289.39	1673.19
289.61	1775.59
289.82	1732.58
290.04	1828.84
290.25	1648.61
290.47	1693.67
290.68	1652.71
290.90	1732.58
291.11	1581.03
291.33	1740.77
291.54	1691.62
291.76	1679.33
291.97	1708.01
292.18	1716.20
292.40	1718.25
292.61	1624.04
292.83	1837.03
293.04	1718.25
293.26	1722.34
293.47	1673.19
293.69	1681.38
293.90	1691.62
294.12	1814.50
294.33	1671.14
294.55	1677.29
294.76	1722.34
294.97	1804.26
295.19	1832.93
295.40	1697.77
295.62	1677.29
295.83	1794.02
296.05	1691.62
296.26	1789.92
296.48	1624.04
296.69	1619.94
296.90	1679.33
297.12	1781.73
297.33	1736.68
297.55	1669.09
297.76	1677.29
297.98	1728.49
298.19	1757.16
298.41	1648.61
298.62	1675.24
298.83	1742.82
299.05	1656.81
299.26	1650.66
299.48	1695.72
299.69	1705.96
299.90	1677.29
300.12	1683.43
300.33	1802.21
300.55	1628.14
300.76	1648.61
300.98	1693.67
301.19	1748.97
301.40	1656.81
301.62	1656.81
301.83	1740.77
302.05	1736.68
302.26	1740.77
302.47	1714.15
302.69	1603.56
302.90	1685.48
303.12	1638.38
303.33	1687.53
303.54	1861.60
303.76	1624.04
303.97	1673.19
304.19	1775.59
304.40	1697.77
304.61	1716.20
304.83	1757.16
305.04	1771.49
305.26	1703.91
305.47	1605.61
305.68	1681.38
305.90	1621.99
306.11	1740.77
306.33	1640.42
306.54	1628.14
306.75	1648.61
306.97	1589.22
307.18	1701.86
307.39	1724.39
307.61	1796.07
307.82	1697.77
308.04	1697.77
308.25	1648.61
308.46	1796.07
308.68	1697.77
308.89	1693.67
309.10	1820.64
309.32	1759.21
309.53	1734.63
309.74	1771.49
309.96	1677.29
310.17	1720.29
310.39	1665.00
310.60	1783.78
310.81	1771.49
311.03	1640.42
311.24	1667.05
311.45	1671.14
311.67	1779.68
311.88	1744.87
312.09	1705.96
312.31	1652.71
312.52	1671.14
312.73	1697.77
312.95	1581.03
313.16	1603.56
313.37	1751.01
313.59	1708.01
313.80	1753.06
314.01	1763.30
314.23	1607.66
314.44	1703.91
314.65	1587.18
314.87	1636.33
315.08	1648.61
315.29	1712.10
315.51	1646.57
315.72	1638.38
315.93	1851.36
316.15	1755.11
316.36	1658.85
316.57	1746.92
316.79	1761.25
317.00	1650.66
317.21	1718.25
317.43	1621.99
317.64	1652.71
317.85	1714.15
318.07	1636.33
318.28	1675.24
318.49	1806.31
318.70	1845.22
318.92	1820.64
319.13	1804.26
319.34	1767.40
319.56	1871.84
319.77	1773.54
319.98	1714.15
320.20	1796.07
320.41	1742.82
320.62	1755.11
320.83	1683.43
321.05	1843.17
321.26	1697.77
321.47	1640.42
321.69	1769.44
321.90	1587.18
322.11	1669.09
322.32	1695.72
322.54	1763.30
322.75	1708.01
322.96	1847.27
323.18	1687.53
323.39	1628.14
323.60	1660.90
323.81	1757.16
324.03	1634.28
324.24	1665.00
324.45	1665.00
324.66	1736.68
324.88	1771.49
325.09	1763.30
325.30	1734.63
325.52	1728.49
325.73	1693.67
325.94	1669.09
326.15	1628.14
326.37	1691.62
326.58	1669.09
326.79	1718.25
327.00	1660.90
327.22	1611.75
327.43	1644.52
327.64	1615.85
327.85	1767.40
328.07	1708.01
328.28	1820.64
328.49	1675.24
328.70	1652.71
328.92	1669.09
329.13	1638.38
329.34	1689.57
329.55	1748.97
329.76	1779.68
329.98	1724.39
330.19	1773.54
330.40	1697.77
330.61	1640.42
330.83	1757.16
331.04	1677.29
331.25	1685.48
331.46	1644.52
331.68	1593.32
331.89	1746.92
332.10	1648.61
332.31	1693.67
332.52	1634.28
332.74	1765.35
332.95	1624.04
333.16	1728.49
333.37	1697.77
333.58	1609.70
333.80	1689.57
334.01	1677.29
334.22	1742.82
334.43	1636.33
334.64	1681.38
334.86	1593.32
335.07	1634.28
335.28	1744.87
335.49	1609.70
335.70	1761.25
335.92	1648.61
336.13	1787.88
336.34	1783.78
336.55	1689.57
336.76	1660.90
336.98	1615.85
337.19	1619.94
337.40	1841.12
337.61	1822.69
337.82	1624.04
338.04	1718.25
338.25	1568.74
338.46	1751.01
338.67	1728.49
338.88	1642.47
339.09	1624.04
339.31	1683.43
339.52	1560.55
339.73	1632.23
339.94	1714.15
340.15	1767.40
340.36	1613.80
340.58	1714.15
340.79	1656.81
341.00	1757.16
341.21	1640.42
341.42	1820.64
341.63	1720.29
341.85	1771.49
342.06	1667.05
342.27	1665.00
342.48	1693.67
342.69	1642.47
342.90	1656.81
343.12	1755.11
343.33	1675.24
343.54	1761.25
343.75	1806.31
343.96	1703.91
344.17	1642.47
344.38	1724.39
344.60	1697.77
344.81	1646.57
345.02	1718.25
345.23	1806.31
345.44	1865.70
345.65	1746.92
345.86	1753.06
346.07	1656.81
346.29	1671.14
346.50	1646.57
346.71	1665.00
346.92	1705.96
347.13	1865.70
347.34	1751.01
347.55	1732.58
347.76	1703.91
347.98	1505.26
348.19	1654.76
348.40	1779.68
348.61	1689.57
348.82	1785.83
349.03	1705.96
349.24	1601.51
349.45	1798.12
349.66	1658.85
349.88	1767.40
350.09	1685.48
350.30	1744.87
350.51	1767.40
350.72	1667.05
350.93	1730.53
351.14	1677.29
351.35	1624.04
351.56	1724.39
351.77	1722.34
351.99	1734.63
352.20	1771.49
352.41	1806.31
352.62	1640.42
352.83	1675.24
353.04	1751.01
353.25	1632.23
353.46	1744.87
353.67	1728.49
353.88	1650.66
354.09	1712.10
354.30	1665.00
354.52	1716.20
354.73	1648.61
354.94	1691.62
355.15	1691.62
355.36	1832.93
355.57	1654.76
355.78	1697.77
355.99	1640.42
356.20	1703.91
356.41	1808.36
356.62	1748.97
356.83	1671.14
357.04	1779.68
357.25	1587.18
357.46	1689.57
357.68	1736.68
357.89	1626.09
358.10	1683.43
358.31	1626.09
358.52	1728.49
358.73	1613.80
358.94	1677.29
359.15	1740.77
359.36	1734.63
359.57	1681.38
359.78	1689.57
359.99	1775.59
360.20	1640.42
360.41	1626.09
360.62	1701.86
360.83	1701.86
361.04	1744.87
361.25	1683.43
361.46	1765.35
361.67	1732.58
361.88	1742.82
362.09	1757.16
362.30	1722.34
362.51	1722.34
362.72	1695.72
362.93	1718.25
363.14	1763.30
363.35	1712.10
363.56	1640.42
363.78	1798.12
363.99	1759.21
364.20	1724.39
364.41	1687.53
364.62	1736.68
364.83	1662.95
365.04	1730.53
365.25	1710.05
365.46	1853.41
365.67	1603.56
365.88	1630.18
366.09	1738.73
366.30	1656.81
366.51	1648.61
366.72	1599.46
366.93	1613.80
367.14	1728.49
367.35	1740.77
367.56	1748.97
367.77	1789.92
367.98	1693.67
368.18	1767.40
368.39	1730.53
368.60	1595.37
368.81	1804.26
369.02	1765.35
369.23	1720.29
369.44	1636.33
369.65	1638.38
369.86	1697.77
370.07	1732.58
370.28	1683.43
370.49	1708.01
370.70	1794.02
370.91	1595.37
371.12	1665.00
371.33	1771.49
371.54	1695.72
371.75	1802.21
371.96	1511.40
372.17	1755.11
372.38	1642.47
372.59	1736.68
372.80	1695.72
373.01	1695.72
373.22	1677.29
373.43	1712.10
373.64	1654.76
373.85	1746.92
374.06	1726.44
374.26	1693.67
374.47	1712.10
374.68	1837.03
374.89	1724.39
375.10	1656.81
375.31	1861.60
375.52	1712.10
375.73	1693.67
375.94	1636.33
376.15	1738.73
376.36	1705.96
376.57	1730.53
376.78	1646.57
376.99	1679.33
377.20	1761.25
377.40	1699.81
377.61	1683.43
377.82	1671.14
378.03	1748.97
378.24	1738.73
378.45	1714.15
378.66	1718.25
378.87	1587.18
379.08	1628.14
379.29	1681.38
379.50	1726.44
379.71	1716.20
379.91	1689.57
380.12	1714.15
380.33	1697.77
380.54	1695.72
380.75	1726.44
380.96	1724.39
381.17	1660.90
381.38	1662.95
381.59	1679.33
381.80	1736.68
382.00	1834.98
382.21	1785.83
382.42	1769.44
382.63	1804.26
382.84	1636.33
383.05	1769.44
383.26	1785.83
383.47	1759.21
383.68	1787.88
383.88	1748.97
384.09	1724.39
384.30	1771.49
384.51	1658.85
384.72	1685.48
384.93	1673.19
385.14	1716.20
385.35	1771.49
385.55	1658.85
385.76	1794.02
385.97	1640.42
386.18	1658.85
386.39	1667.05
386.60	1744.87
386.81	1699.81
387.02	1568.74
387.22	1689.57
387.43	1798.12
387.64	1824.74
387.85	1814.50
388.06	2250.72
388.27	4253.63
388.48	6834.07
388.68	8357.76
388.89	9807.72
389.10	9854.83
389.31	8630.14
389.52	7573.39
389.73	6737.82
389.93	6479.77
390.14	5910.44
390.35	5109.68
390.56	4663.22
390.77	3821.51
390.98	2981.84
391.18	2510.81
391.39	2090.98
391.60	1892.32
391.81	1806.31
392.02	1730.53
392.23	1851.36
392.43	1769.44
392.64	1763.30
392.85	1705.96
393.06	1812.45
393.27	1755.11
393.47	1646.57
393.68	1726.44
393.89	1722.34
394.10	1755.11
394.31	1587.18
394.52	1576.94
394.72	1763.30
394.93	1773.54
395.14	1673.19
395.35	1738.73
395.56	1601.51
395.76	1662.95
395.97	1771.49
396.18	1828.84
396.39	1800.16
396.60	1972.19
396.80	1873.89
397.01	1873.89
397.22	1798.12
397.43	1800.16
397.64	1724.39
397.84	1806.31
398.05	1865.70
398.26	1789.92
398.47	1847.27
398.67	1839.08
398.88	1728.49
399.09	1738.73
399.30	1701.86
399.51	1746.92
399.71	1689.57
399.92	1624.04
400.13	1746.92
400.34	1697.77
400.54	1806.31
400.75	1837.03
400.96	1730.53
401.17	1800.16
401.37	1638.38
401.58	1757.16
401.79	1669.09
402.00	1853.41
402.21	1994.72
402.41	1916.90
402.62	1978.34
402.83	2011.11
403.04	1945.57
403.24	2037.73
403.45	1785.83
403.66	1947.62
403.87	1861.60
404.07	1865.70
404.28	1947.62
404.49	1877.99
404.70	1769.44
404.90	1732.58
405.11	1751.01
405.32	1736.68
405.52	1646.57
405.73	1746.92
405.94	1593.32
406.15	1742.82
406.35	1679.33
406.56	1767.40
406.77	1644.52
406.98	1736.68
407.18	1560.55
407.39	1822.69
407.60	1673.19
407.80	1730.53
408.01	1695.72
408.22	1738.73
408.43	1687.53
408.63	1730.53
408.84	1740.77
409.05	1681.38
409.25	1632.23
409.46	1673.19
409.67	1662.95
409.88	1716.20
410.08	1697.77
410.29	1685.48
410.50	1781.73
410.70	1660.90
410.91	1693.67
411.12	1755.11
411.32	1689.57
411.53	1681.38
411.74	1730.53
411.95	1824.74
412.15	1751.01
412.36	1734.63
412.57	1806.31
412.77	1787.88
412.98	1701.86
413.19	1714.15
413.39	1800.16
413.60	1744.87
413.81	1802.21
414.01	1689.57
414.22	1779.68
414.43	1689.57
414.63	1681.38
414.84	1806.31
415.05	1718.25
415.25	1718.25
415.46	1789.92
415.67	1693.67
415.87	1703.91
416.08	1736.68
416.29	1652.71
416.49	1658.85
416.70	1734.63
416.91	1689.57
417.11	1714.15
417.32	1761.25
417.53	1742.82
417.73	1701.86
417.94	1662.95
418.15	1705.96
418.35	1742.82
418.56	1726.44
418.77	1841.12
418.97	1703.91
419.18	1714.15
419.38	1568.74
419.59	1746.92
419.80	1736.68
420.00	1728.49
420.21	1681.38
420.42	1728.49
420.62	1693.67
420.83	1685.48
421.04	1689.57
421.24	1699.81
421.45	1841.12
421.65	1738.73
421.86	1583.08
422.07	1673.19
422.27	1720.29
422.48	1736.68
422.69	1603.56
422.89	1648.61
423.10	1734.63
423.30	1662.95
423.51	1746.92
423.72	1683.43
423.92	1734.63
424.13	1656.81
424.33	1646.57
424.54	1710.05
424.75	1724.39
424.95	1777.64
425.16	1804.26
425.36	1675.24
425.57	1796.07
425.78	1736.68
425.98	1787.88
426.19	1712.10
426.39	1681.38
426.60	1730.53
426.81	1773.54
427.01	1720.29
427.22	1644.52
427.42	1574.89
427.63	1673.19
427.83	1732.58
428.04	1832.93
428.25	1701.86
428.45	1804.26
428.66	1744.87
428.86	1718.25
429.07	1816.55
429.28	1687.53
429.48	1650.66
429.69	1677.29
429.89	1703.91
430.10	1660.90
430.30	1769.44
430.51	1765.35
430.71	1642.47
430.92	1703.91
431.13	1701.86
431.33	1730.53
431.54	1769.44
431.74	1824.74
431.95	1755.11
432.15	1720.29
432.36	1742.82
432.56	1759.21
432.77	1830.88
432.98	1912.80
433.18	1720.29
433.39	1701.86
433.59	1640.42
433.80	1826.79
434.00	1822.69
434.21	1751.01
434.41	1632.23
434.62	1847.27
434.82	1658.85
435.03	1642.47
435.23	1726.44
435.44	1628.14
435.64	1628.14
435.85	1810.40
436.06	1724.39
436.26	1742.82
436.47	1710.05
436.67	1671.14
436.88	1732.58
437.08	1759.21
437.29	1802.21
437.49	1751.01
437.70	1738.73
437.90	1746.92
438.11	1796.07
438.31	1742.82
438.52	1851.36
438.72	1826.79
438.93	1927.14
439.13	1798.12
439.34	1798.12
439.54	1791.97
439.75	1796.07
439.95	1789.92
440.16	1660.90
440.36	1681.38
440.57	1726.44
440.77	1748.97
440.98	1740.77
441.18	1783.78
441.39	1734.63
441.59	1656.81
441.80	1794.02
442.00	1691.62
442.21	1814.50
442.41	1640.42
442.62	1812.45
442.82	1636.33
443.02	1746.92
443.23	1675.24
443.43	1693.67
443.64	1746.92
443.84	1685.48
444.05	1834.98
444.25	1822.69
444.46	1640.42
444.66	1763.30
444.87	1884.13
445.07	1656.81
445.28	1755.11
445.48	1826.79
445.69	1728.49
445.89	1898.47
446.09	1765.35
446.30	1994.72
446.50	2719.70
446.71	3798.98
446.91	4308.93
447.12	4923.32
447.32	4739.00
447.53	4456.38
447.73	3755.97
447.93	3532.75
448.14	3315.66
448.34	3139.54
448.55	2834.39
448.75	2885.59
448.96	2705.37
449.16	2539.48
449.36	2263.01
449.57	2064.35
449.77	1791.97
449.98	1830.88
450.18	1837.03
450.39	1855.46
450.59	1693.67
450.79	1652.71
451.00	1691.62
451.20	1798.12
451.41	1716.20
451.61	1775.59
451.81	1687.53
452.02	1726.44
452.22	1597.42
452.43	1648.61
452.63	1724.39
