SpectraSuite Data File
++++++++++++++++++++++++++++++++++++
Date: Mon Jun 06 16:58:57 CEST 2016
User: root
Dark Spectrum Present: No
Reference Spectrum Present: No
Number of Sampled Component Spectra: 1
Spectrometers: USB4C02835
Integration Time (usec): 100000 (USB4C02835)
Spectra Averaged: 1 (USB4C02835)
Boxcar Smoothing: 0 (USB4C02835)
Correct for Electrical Dark: No (USB4C02835)
Strobe/Lamp Enabled: No (USB4C02835)
Correct for Detector Non-linearity: No (USB4C02835)
Correct for Stray Light: No (USB4C02835)
Number of Pixels in Processed Spectrum: 3648
>>>>>Begin Processed Spectral Data<<<<<
177.47	1443.82
177.69	1443.82
177.91	1443.82
178.13	1447.91
178.36	1462.25
178.58	1644.52
178.80	1746.92
179.02	1626.09
179.24	1652.71
179.46	1716.20
179.68	1726.44
179.90	1710.05
180.13	1710.05
180.35	1654.76
180.57	1724.39
180.79	1730.53
181.01	1689.57
181.23	1810.40
181.45	1777.64
181.67	1798.12
181.90	1744.87
182.12	1693.67
182.34	1574.89
182.56	1814.50
182.78	1673.19
183.00	1671.14
183.22	1673.19
183.44	1578.98
183.66	1888.23
183.89	1722.34
184.11	1705.96
184.33	1753.06
184.55	1714.15
184.77	1691.62
184.99	1703.91
185.21	1697.77
185.43	1898.47
185.65	1685.48
185.87	1773.54
186.10	1892.32
186.32	1828.84
186.54	1724.39
186.76	1689.57
186.98	1738.73
187.20	1693.67
187.42	1607.66
187.64	1763.30
187.86	1736.68
188.08	1775.59
188.30	1652.71
188.52	1722.34
188.75	1832.93
188.97	1820.64
189.19	1619.94
189.41	1693.67
189.63	1732.58
189.85	1691.62
190.07	1673.19
190.29	1646.57
190.51	1714.15
190.73	1650.66
190.95	1732.58
191.17	1667.05
191.39	1660.90
191.61	1646.57
191.84	1693.67
192.06	1783.78
192.28	1656.81
192.50	1863.65
192.72	1710.05
192.94	1652.71
193.16	1722.34
193.38	1697.77
193.60	1619.94
193.82	1650.66
194.04	1738.73
194.26	1730.53
194.48	1636.33
194.70	1630.18
194.92	1673.19
195.14	1677.29
195.36	1667.05
195.58	1656.81
195.80	1669.09
196.02	1642.47
196.24	1601.51
196.46	1808.36
196.69	1646.57
196.91	1859.56
197.13	1687.53
197.35	1615.85
197.57	1734.63
197.79	1708.01
198.01	1705.96
198.23	1773.54
198.45	1781.73
198.67	1609.70
198.89	1648.61
199.11	1658.85
199.33	1644.52
199.55	1515.50
199.77	1656.81
199.99	1746.92
200.21	1746.92
200.43	1722.34
200.65	1632.23
200.87	1587.18
201.09	1654.76
201.31	1677.29
201.53	1767.40
201.75	1689.57
201.97	1781.73
202.19	1693.67
202.41	1695.72
202.63	1863.65
202.85	1832.93
203.07	1730.53
203.29	1624.04
203.51	1699.81
203.73	1599.46
203.95	1947.62
204.17	1703.91
204.39	1800.16
204.61	1748.97
204.83	1708.01
205.05	1773.54
205.27	1734.63
205.49	1832.93
205.71	1693.67
205.93	1724.39
206.15	1718.25
206.37	1746.92
206.59	1681.38
206.81	1587.18
207.03	1683.43
207.25	1703.91
207.47	1800.16
207.69	1720.29
207.91	1820.64
208.13	1738.73
208.34	1753.06
208.56	1617.90
208.78	1708.01
209.00	1654.76
209.22	1705.96
209.44	1685.48
209.66	1619.94
209.88	1677.29
210.10	1665.00
210.32	1687.53
210.54	1783.78
210.76	1662.95
210.98	1746.92
211.20	1572.84
211.42	1738.73
211.64	1773.54
211.86	1705.96
212.08	1734.63
212.30	1763.30
212.52	1685.48
212.74	1753.06
212.96	1726.44
213.17	1773.54
213.39	1757.16
213.61	1814.50
213.83	1720.29
214.05	1669.09
214.27	1767.40
214.49	1660.90
214.71	1710.05
214.93	1777.64
215.15	1701.86
215.37	1789.92
215.59	1593.32
215.81	1667.05
216.03	1720.29
216.24	1705.96
216.46	1703.91
216.68	1685.48
216.90	1691.62
217.12	1730.53
217.34	1632.23
217.56	1761.25
217.78	1726.44
218.00	1773.54
218.22	1652.71
218.44	1761.25
218.66	1726.44
218.87	1800.16
219.09	1708.01
219.31	1675.24
219.53	1718.25
219.75	1701.86
219.97	1765.35
220.19	1718.25
220.41	1638.38
220.63	1796.07
220.85	1808.36
221.06	1667.05
221.28	1763.30
221.50	1744.87
221.72	1730.53
221.94	1660.90
222.16	1673.19
222.38	1775.59
222.60	1722.34
222.82	1712.10
223.03	1714.15
223.25	1677.29
223.47	1716.20
223.69	1910.75
223.91	1845.22
224.13	1753.06
224.35	1665.00
224.57	1697.77
224.78	1736.68
225.00	1703.91
225.22	1689.57
225.44	1705.96
225.66	1773.54
225.88	1660.90
226.10	1781.73
226.32	1728.49
226.53	1814.50
226.75	1736.68
226.97	1755.11
227.19	1722.34
227.41	1755.11
227.63	1708.01
227.85	1570.79
228.06	1708.01
228.28	1691.62
228.50	1736.68
228.72	1685.48
228.94	1669.09
229.16	1638.38
229.37	1583.08
229.59	1689.57
229.81	1851.36
230.03	1685.48
230.25	1605.61
230.47	1632.23
230.69	1632.23
230.90	1767.40
231.12	1669.09
231.34	1681.38
231.56	1712.10
231.78	1712.10
232.00	1681.38
232.21	1710.05
232.43	1687.53
232.65	1550.31
232.87	1753.06
233.09	1617.90
233.30	1705.96
233.52	1738.73
233.74	1697.77
233.96	1734.63
234.18	1751.01
234.40	1718.25
234.61	1789.92
234.83	1562.60
235.05	1615.85
235.27	1755.11
235.49	1744.87
235.70	1667.05
235.92	1773.54
236.14	1714.15
236.36	1787.88
236.58	1673.19
236.79	1730.53
237.01	1644.52
237.23	1697.77
237.45	1802.21
237.67	1658.85
237.88	1710.05
238.10	1816.55
238.32	1642.47
238.54	1675.24
238.76	1652.71
238.97	1650.66
239.19	1708.01
239.41	1738.73
239.63	1738.73
239.85	1699.81
240.06	1732.58
240.28	1642.47
240.50	1695.72
240.72	1722.34
240.93	1718.25
241.15	1744.87
241.37	1660.90
241.59	1789.92
241.81	1656.81
242.02	1714.15
242.24	1751.01
242.46	1796.07
242.68	1669.09
242.89	1746.92
243.11	1748.97
243.33	1712.10
243.55	1714.15
243.76	1689.57
243.98	1720.29
244.20	1667.05
244.42	1687.53
244.64	1699.81
244.85	1646.57
245.07	1615.85
245.29	1763.30
245.51	1710.05
245.72	1753.06
245.94	1800.16
246.16	1775.59
246.38	1738.73
246.59	1638.38
246.81	1648.61
247.03	1708.01
247.24	1599.46
247.46	1716.20
247.68	1714.15
247.90	1685.48
248.11	1665.00
248.33	1785.83
248.55	1722.34
248.77	1728.49
248.98	1783.78
249.20	1753.06
249.42	1759.21
249.64	1804.26
249.85	1689.57
250.07	1662.95
250.29	1765.35
250.50	1724.39
250.72	1660.90
250.94	1705.96
251.16	1787.88
251.37	1798.12
251.59	1716.20
251.81	1710.05
252.02	1757.16
252.24	1771.49
252.46	1751.01
252.68	1705.96
252.89	1689.57
253.11	1646.57
253.33	1867.75
253.54	1820.64
253.76	1656.81
253.98	1746.92
254.20	1734.63
254.41	1583.08
254.63	1685.48
254.85	1654.76
255.06	1718.25
255.28	1740.77
255.50	1675.24
255.71	1658.85
255.93	1599.46
256.15	1703.91
256.36	1738.73
256.58	1679.33
256.80	1753.06
257.02	1705.96
257.23	1656.81
257.45	1679.33
257.67	1728.49
257.88	1624.04
258.10	1828.84
258.32	1738.73
258.53	1746.92
258.75	1771.49
258.97	1646.57
259.18	1748.97
259.40	1740.77
259.62	1802.21
259.83	1748.97
260.05	1769.44
260.27	1943.52
260.48	1746.92
260.70	1652.71
260.92	1677.29
261.13	1765.35
261.35	1650.66
261.57	1757.16
261.78	1613.80
262.00	1603.56
262.22	1722.34
262.43	1771.49
262.65	1667.05
262.86	1679.33
263.08	1877.99
263.30	1648.61
263.51	1558.50
263.73	1697.77
263.95	1681.38
264.16	1636.33
264.38	1660.90
264.60	1755.11
264.81	1691.62
265.03	1789.92
265.25	1761.25
265.46	1708.01
265.68	1705.96
265.89	1849.32
266.11	1607.66
266.33	1775.59
266.54	1867.75
266.76	1619.94
266.98	1777.64
267.19	1738.73
267.41	1705.96
267.62	1771.49
267.84	1630.18
268.06	1771.49
268.27	1697.77
268.49	1783.78
268.70	1632.23
268.92	1660.90
269.14	1677.29
269.35	1572.84
269.57	1689.57
269.79	1722.34
270.00	1685.48
270.22	1804.26
270.43	1587.18
270.65	1673.19
270.87	1714.15
271.08	1652.71
271.30	1703.91
271.51	1728.49
271.73	1744.87
271.95	1699.81
272.16	1673.19
272.38	1736.68
272.59	1587.18
272.81	1751.01
273.02	1701.86
273.24	1779.68
273.46	1775.59
273.67	1644.52
273.89	1626.09
274.10	1681.38
274.32	1683.43
274.54	1873.89
274.75	1699.81
274.97	1656.81
275.18	1714.15
275.40	1712.10
275.61	1714.15
275.83	1687.53
276.05	1595.37
276.26	1710.05
276.48	1738.73
276.69	1691.62
276.91	1660.90
277.12	1787.88
277.34	1712.10
277.55	1779.68
277.77	1710.05
277.99	1697.77
278.20	1591.27
278.42	1732.58
278.63	1734.63
278.85	1656.81
279.06	1630.18
279.28	1652.71
279.49	1644.52
279.71	1740.77
279.93	1695.72
280.14	1783.78
280.36	1609.70
280.57	1755.11
280.79	1708.01
281.00	1648.61
281.22	1595.37
281.43	1722.34
281.65	1542.12
281.86	1662.95
282.08	1796.07
282.29	1869.80
282.51	1677.29
282.73	1699.81
282.94	1632.23
283.16	1667.05
283.37	1830.88
283.59	1697.77
283.80	1751.01
284.02	1642.47
284.23	1730.53
284.45	1712.10
284.66	1628.14
284.88	1658.85
285.09	1808.36
285.31	1814.50
285.52	1724.39
285.74	1667.05
285.95	1728.49
286.17	1777.64
286.38	1765.35
286.60	1673.19
286.81	1734.63
287.03	1746.92
287.24	1687.53
287.46	1794.02
287.67	1789.92
287.89	1830.88
288.10	1675.24
288.32	1738.73
288.53	1775.59
288.75	1695.72
288.96	1726.44
289.18	1683.43
289.39	1689.57
289.61	1785.83
289.82	1931.23
290.04	1779.68
290.25	1710.05
290.47	1687.53
290.68	1728.49
290.90	1822.69
291.11	1656.81
291.33	1775.59
291.54	1728.49
291.76	1644.52
291.97	1732.58
292.18	1718.25
292.40	1660.90
292.61	1667.05
292.83	1841.12
293.04	1773.54
293.26	1681.38
293.47	1697.77
293.69	1691.62
293.90	1658.85
294.12	1826.79
294.33	1669.09
294.55	1550.31
294.76	1759.21
294.97	1787.88
295.19	1843.17
295.40	1642.47
295.62	1628.14
295.83	1765.35
296.05	1685.48
296.26	1710.05
296.48	1599.46
296.69	1679.33
296.90	1699.81
297.12	1755.11
297.33	1783.78
297.55	1732.58
297.76	1695.72
297.98	1810.40
298.19	1785.83
298.41	1736.68
298.62	1619.94
298.83	1777.64
299.05	1716.20
299.26	1693.67
299.48	1642.47
299.69	1726.44
299.90	1759.21
300.12	1669.09
300.33	1673.19
300.55	1701.86
300.76	1708.01
300.98	1656.81
301.19	1800.16
301.40	1677.29
301.62	1699.81
301.83	1781.73
302.05	1740.77
302.26	1722.34
302.47	1787.88
302.69	1652.71
302.90	1705.96
303.12	1560.55
303.33	1714.15
303.54	1794.02
303.76	1683.43
303.97	1703.91
304.19	1765.35
304.40	1634.28
304.61	1714.15
304.83	1818.60
305.04	1691.62
305.26	1693.67
305.47	1697.77
305.68	1687.53
305.90	1656.81
306.11	1773.54
306.33	1705.96
306.54	1722.34
306.75	1650.66
306.97	1578.98
307.18	1683.43
307.39	1728.49
307.61	1748.97
307.82	1679.33
308.04	1771.49
308.25	1671.14
308.46	1714.15
308.68	1673.19
308.89	1705.96
309.10	1748.97
309.32	1703.91
309.53	1665.00
309.74	1771.49
309.96	1751.01
310.17	1765.35
310.39	1720.29
310.60	1787.88
310.81	1710.05
311.03	1654.76
311.24	1794.02
311.45	1677.29
311.67	1777.64
311.88	1769.44
312.09	1718.25
312.31	1644.52
312.52	1724.39
312.73	1701.86
312.95	1650.66
313.16	1689.57
313.37	1761.25
313.59	1683.43
313.80	1791.97
314.01	1820.64
314.23	1648.61
314.44	1646.57
314.65	1650.66
314.87	1636.33
315.08	1687.53
315.29	1665.00
315.51	1658.85
315.72	1656.81
315.93	1806.31
316.15	1746.92
316.36	1697.77
316.57	1716.20
316.79	1804.26
317.00	1673.19
317.21	1820.64
317.43	1714.15
317.64	1718.25
317.85	1638.38
318.07	1634.28
318.28	1736.68
318.49	1828.84
318.70	1937.38
318.92	1841.12
319.13	1804.26
319.34	1812.45
319.56	1783.78
319.77	1847.27
319.98	1794.02
320.20	1697.77
320.41	1701.86
320.62	1712.10
320.83	1650.66
321.05	1824.74
321.26	1775.59
321.47	1748.97
321.69	1767.40
321.90	1726.44
322.11	1710.05
322.32	1740.77
322.54	1818.60
322.75	1673.19
322.96	1806.31
323.18	1636.33
323.39	1591.27
323.60	1652.71
323.81	1732.58
324.03	1693.67
324.24	1634.28
324.45	1757.16
324.66	1730.53
324.88	1769.44
325.09	1804.26
325.30	1656.81
325.52	1738.73
325.73	1695.72
325.94	1591.27
326.15	1597.42
326.37	1687.53
326.58	1822.69
326.79	1861.60
327.00	1703.91
327.22	1751.01
327.43	1675.24
327.64	1607.66
327.85	1742.82
328.07	1671.14
328.28	1816.55
328.49	1726.44
328.70	1712.10
328.92	1708.01
329.13	1740.77
329.34	1660.90
329.55	1796.07
329.76	1718.25
329.98	1681.38
330.19	1732.58
330.40	1718.25
330.61	1726.44
330.83	1767.40
331.04	1652.71
331.25	1714.15
331.46	1710.05
331.68	1603.56
331.89	1755.11
332.10	1738.73
332.31	1595.37
332.52	1697.77
332.74	1757.16
332.95	1642.47
333.16	1722.34
333.37	1769.44
333.58	1718.25
333.80	1708.01
334.01	1609.70
334.22	1683.43
334.43	1621.99
334.64	1695.72
334.86	1650.66
335.07	1685.48
335.28	1746.92
335.49	1656.81
335.70	1734.63
335.92	1705.96
336.13	1871.84
336.34	1724.39
336.55	1718.25
336.76	1683.43
336.98	1630.18
337.19	1720.29
337.40	1855.46
337.61	1871.84
337.82	1636.33
338.04	1714.15
338.25	1619.94
338.46	1660.90
338.67	1689.57
338.88	1665.00
339.09	1591.27
339.31	1693.67
339.52	1609.70
339.73	1669.09
339.94	1697.77
340.15	1693.67
340.36	1716.20
340.58	1693.67
340.79	1636.33
341.00	1767.40
341.21	1605.61
341.42	1730.53
341.63	1681.38
341.85	1724.39
342.06	1720.29
342.27	1648.61
342.48	1763.30
342.69	1632.23
342.90	1738.73
343.12	1775.59
343.33	1675.24
343.54	1716.20
343.75	1873.89
343.96	1773.54
344.17	1652.71
344.38	1628.14
344.60	1667.05
344.81	1726.44
345.02	1689.57
345.23	1734.63
345.44	1841.12
345.65	1669.09
345.86	1755.11
346.07	1744.87
346.29	1660.90
346.50	1734.63
346.71	1695.72
346.92	1753.06
347.13	1822.69
347.34	1630.18
347.55	1685.48
347.76	1712.10
347.98	1624.04
348.19	1634.28
348.40	1751.01
348.61	1628.14
348.82	1845.22
349.03	1822.69
349.24	1652.71
349.45	1816.55
349.66	1685.48
349.88	1667.05
350.09	1621.99
350.30	1724.39
350.51	1732.58
350.72	1718.25
350.93	1695.72
351.14	1746.92
351.35	1746.92
351.56	1650.66
351.77	1648.61
351.99	1687.53
352.20	1814.50
352.41	1818.60
352.62	1630.18
352.83	1652.71
353.04	1644.52
353.25	1722.34
353.46	1808.36
353.67	1697.77
353.88	1574.89
354.09	1636.33
354.30	1636.33
354.52	1755.11
354.73	1685.48
354.94	1689.57
355.15	1755.11
355.36	1714.15
355.57	1685.48
355.78	1759.21
355.99	1736.68
356.20	1699.81
356.41	1820.64
356.62	1687.53
356.83	1671.14
357.04	1685.48
357.25	1656.81
357.46	1767.40
357.68	1607.66
357.89	1691.62
358.10	1759.21
358.31	1705.96
358.52	1708.01
358.73	1656.81
358.94	1652.71
359.15	1718.25
359.36	1771.49
359.57	1734.63
359.78	1697.77
359.99	1779.68
360.20	1599.46
360.41	1751.01
360.62	1734.63
360.83	1728.49
361.04	1685.48
361.25	1748.97
361.46	1765.35
361.67	1736.68
361.88	1783.78
362.09	1755.11
362.30	1720.29
362.51	1693.67
362.72	1773.54
362.93	1720.29
363.14	1748.97
363.35	1759.21
363.56	1613.80
363.78	1701.86
363.99	1767.40
364.20	1597.42
364.41	1761.25
364.62	1802.21
364.83	1648.61
365.04	1734.63
365.25	1693.67
365.46	1863.65
365.67	1699.81
365.88	1601.51
366.09	1660.90
366.30	1730.53
366.51	1697.77
366.72	1624.04
366.93	1615.85
367.14	1693.67
367.35	1789.92
367.56	1724.39
367.77	1755.11
367.98	1718.25
368.18	1789.92
368.39	1779.68
368.60	1697.77
368.81	1779.68
369.02	1742.82
369.23	1665.00
369.44	1570.79
369.65	1685.48
369.86	1771.49
370.07	1744.87
370.28	1691.62
370.49	1689.57
370.70	1771.49
370.91	1705.96
371.12	1603.56
371.33	1712.10
371.54	1722.34
371.75	1728.49
371.96	1630.18
372.17	1691.62
372.38	1665.00
372.59	1726.44
372.80	1677.29
373.01	1658.85
373.22	1710.05
373.43	1656.81
373.64	1624.04
373.85	1810.40
374.06	1820.64
374.26	1755.11
374.47	1798.12
374.68	1822.69
374.89	1683.43
375.10	1697.77
375.31	1798.12
375.52	1691.62
375.73	1693.67
375.94	1724.39
376.15	1738.73
376.36	1636.33
376.57	1681.38
376.78	1640.42
376.99	1751.01
377.20	1763.30
377.40	1703.91
377.61	1796.07
377.82	1605.61
378.03	1796.07
378.24	1714.15
378.45	1701.86
378.66	1665.00
378.87	1665.00
379.08	1648.61
379.29	1669.09
379.50	1791.97
379.71	1705.96
379.91	1800.16
380.12	1691.62
380.33	1738.73
380.54	1701.86
380.75	1658.85
380.96	1734.63
381.17	1738.73
381.38	1728.49
381.59	1822.69
381.80	1765.35
382.00	1834.98
382.21	1712.10
382.42	1736.68
382.63	1886.18
382.84	1759.21
383.05	1703.91
383.26	1791.97
383.47	1796.07
383.68	1671.14
383.88	1746.92
384.09	1746.92
384.30	1798.12
384.51	1722.34
384.72	1687.53
384.93	1673.19
385.14	1654.76
385.35	1781.73
385.55	1677.29
385.76	1812.45
385.97	1791.97
386.18	1609.70
386.39	1703.91
386.60	1687.53
386.81	1708.01
387.02	1671.14
387.22	1660.90
387.43	1748.97
387.64	1748.97
387.85	1869.80
388.06	2263.01
388.27	4310.97
388.48	6791.06
388.68	8152.96
388.89	9604.97
389.10	9678.70
389.31	8681.34
389.52	7604.11
389.73	6887.32
389.93	6258.59
390.14	5928.87
390.35	5302.19
390.56	4605.88
390.77	3753.93
390.98	3018.71
391.18	2432.99
391.39	2193.37
391.60	1906.66
391.81	1820.64
392.02	1736.68
392.23	1869.80
392.43	1695.72
392.64	1789.92
392.85	1740.77
393.06	1820.64
393.27	1685.48
393.47	1662.95
393.68	1722.34
393.89	1685.48
394.10	1748.97
394.31	1740.77
394.52	1722.34
394.72	1703.91
394.93	1845.22
395.14	1640.42
395.35	1701.86
395.56	1673.19
395.76	1708.01
395.97	1775.59
396.18	1761.25
396.39	1910.75
396.60	1986.53
396.80	1912.80
397.01	1843.17
397.22	1826.79
397.43	1814.50
397.64	1738.73
397.84	1830.88
398.05	1814.50
398.26	1781.73
398.47	1818.60
398.67	1753.06
398.88	1722.34
399.09	1662.95
399.30	1714.15
399.51	1738.73
399.71	1683.43
399.92	1759.21
400.13	1734.63
400.34	1662.95
400.54	1697.77
400.75	1789.92
400.96	1722.34
401.17	1779.68
401.37	1755.11
401.58	1738.73
401.79	1720.29
402.00	1898.47
402.21	2009.06
402.41	1990.63
402.62	2037.73
402.83	2082.78
403.04	2029.54
403.24	2062.30
403.45	1843.17
403.66	1882.08
403.87	1873.89
404.07	1851.36
404.28	1914.85
404.49	1869.80
404.70	1812.45
404.90	1761.25
405.11	1726.44
405.32	1773.54
405.52	1697.77
405.73	1699.81
405.94	1701.86
406.15	1683.43
406.35	1679.33
406.56	1718.25
406.77	1730.53
406.98	1759.21
407.18	1685.48
407.39	1830.88
407.60	1701.86
407.80	1734.63
408.01	1615.85
408.22	1771.49
408.43	1701.86
408.63	1755.11
408.84	1826.79
409.05	1667.05
409.25	1697.77
409.46	1699.81
409.67	1708.01
409.88	1689.57
410.08	1751.01
410.29	1685.48
410.50	1761.25
410.70	1726.44
410.91	1691.62
411.12	1777.64
411.32	1621.99
411.53	1662.95
411.74	1785.83
411.95	1748.97
412.15	1787.88
412.36	1789.92
412.57	1783.78
412.77	1769.44
412.98	1703.91
413.19	1615.85
413.39	1791.97
413.60	1744.87
413.81	1826.79
414.01	1671.14
414.22	1781.73
414.43	1730.53
414.63	1701.86
414.84	1861.60
415.05	1767.40
415.25	1615.85
415.46	1757.16
415.67	1677.29
415.87	1791.97
416.08	1708.01
416.29	1685.48
416.49	1736.68
416.70	1677.29
416.91	1648.61
417.11	1701.86
417.32	1693.67
417.53	1806.31
417.73	1753.06
417.94	1726.44
418.15	1705.96
418.35	1710.05
418.56	1726.44
418.77	1884.13
418.97	1720.29
419.18	1714.15
419.38	1652.71
419.59	1720.29
419.80	1826.79
420.00	1691.62
420.21	1746.92
420.42	1738.73
420.62	1759.21
420.83	1675.24
421.04	1716.20
421.24	1681.38
421.45	1785.83
421.65	1699.81
421.86	1624.04
422.07	1755.11
422.27	1734.63
422.48	1767.40
422.69	1722.34
422.89	1675.24
423.10	1603.56
423.30	1662.95
423.51	1796.07
423.72	1757.16
423.92	1726.44
424.13	1699.81
424.33	1740.77
424.54	1677.29
424.75	1746.92
424.95	1802.21
425.16	1763.30
425.36	1648.61
425.57	1753.06
425.78	1720.29
425.98	1714.15
426.19	1624.04
426.39	1644.52
426.60	1734.63
426.81	1779.68
427.01	1775.59
427.22	1732.58
427.42	1632.23
427.63	1607.66
427.83	1800.16
428.04	1837.03
428.25	1818.60
428.45	1808.36
428.66	1767.40
428.86	1673.19
429.07	1632.23
429.28	1697.77
429.48	1712.10
429.69	1695.72
429.89	1783.78
430.10	1687.53
430.30	1691.62
430.51	1808.36
430.71	1589.22
430.92	1705.96
431.13	1681.38
431.33	1699.81
431.54	1779.68
431.74	1769.44
431.95	1830.88
432.15	1697.77
432.36	1779.68
432.56	1730.53
432.77	1812.45
432.98	1853.41
433.18	1767.40
433.39	1673.19
433.59	1796.07
433.80	1755.11
434.00	1882.08
434.21	1746.92
434.41	1673.19
434.62	1843.17
434.82	1714.15
435.03	1669.09
435.23	1744.87
435.44	1648.61
435.64	1738.73
435.85	1769.44
436.06	1779.68
436.26	1845.22
436.47	1619.94
436.67	1669.09
436.88	1660.90
437.08	1705.96
437.29	1746.92
437.49	1710.05
437.70	1779.68
437.90	1650.66
438.11	1947.62
438.31	1814.50
438.52	1761.25
438.72	1796.07
438.93	1937.38
439.13	1802.21
439.34	1877.99
439.54	1669.09
439.75	1789.92
439.95	1746.92
440.16	1779.68
440.36	1824.74
440.57	1738.73
440.77	1753.06
440.98	1761.25
441.18	1783.78
441.39	1685.48
441.59	1699.81
441.80	1841.12
442.00	1673.19
442.21	1794.02
442.41	1673.19
442.62	1769.44
442.82	1705.96
443.02	1716.20
443.23	1714.15
443.43	1714.15
443.64	1837.03
443.84	1728.49
444.05	1777.64
444.25	1716.20
444.46	1763.30
444.66	1744.87
444.87	1834.98
445.07	1671.14
445.28	1730.53
445.48	1847.27
445.69	1804.26
445.89	1867.75
446.09	1716.20
446.30	2021.35
446.50	2715.61
446.71	3753.93
446.91	4272.06
447.12	4777.91
447.32	4851.64
447.53	4433.85
447.73	3925.96
447.93	3575.75
448.14	3256.27
448.34	3250.13
448.55	2959.31
448.75	2799.57
448.96	2680.79
449.16	2428.89
449.36	2318.30
449.57	2056.16
449.77	1882.08
449.98	1736.68
450.18	1746.92
450.39	1802.21
450.59	1783.78
450.79	1693.67
451.00	1755.11
451.20	1779.68
451.41	1714.15
451.61	1791.97
451.81	1769.44
452.02	1757.16
452.22	1767.40
452.43	1705.96
452.63	1708.01
