SpectraSuite Data File
++++++++++++++++++++++++++++++++++++
Date: Mon Jun 06 15:13:17 CEST 2016
User: root
Dark Spectrum Present: No
Reference Spectrum Present: No
Number of Sampled Component Spectra: 1
Spectrometers: USB4C02835
Integration Time (usec): 100000 (USB4C02835)
Spectra Averaged: 1 (USB4C02835)
Boxcar Smoothing: 0 (USB4C02835)
Correct for Electrical Dark: No (USB4C02835)
Strobe/Lamp Enabled: No (USB4C02835)
Correct for Detector Non-linearity: No (USB4C02835)
Correct for Stray Light: No (USB4C02835)
Number of Pixels in Processed Spectrum: 3648
>>>>>Begin Processed Spectral Data<<<<<
177.47	1540.07
177.69	1540.07
177.91	1540.07
178.13	1513.45
178.36	1484.78
178.58	1710.05
178.80	1703.91
179.02	1566.70
179.24	1699.81
179.46	1689.57
179.68	1791.97
179.90	1740.77
180.13	1738.73
180.35	1685.48
180.57	1716.20
180.79	1751.01
181.01	1779.68
181.23	1787.88
181.45	1712.10
181.67	1771.49
181.90	1751.01
182.12	1712.10
182.34	1714.15
182.56	1775.59
182.78	1753.06
183.00	1730.53
183.22	1742.82
183.44	1591.27
183.66	1808.36
183.89	1765.35
184.11	1613.80
184.33	1691.62
184.55	1794.02
184.77	1710.05
184.99	1773.54
185.21	1693.67
185.43	1882.08
185.65	1662.95
185.87	1669.09
186.10	1841.12
186.32	1820.64
186.54	1710.05
186.76	1765.35
186.98	1738.73
187.20	1751.01
187.42	1613.80
187.64	1654.76
187.86	1712.10
188.08	1773.54
188.30	1656.81
188.52	1730.53
188.75	1753.06
188.97	1828.84
189.19	1701.86
189.41	1675.24
189.63	1716.20
189.85	1708.01
190.07	1595.37
190.29	1607.66
190.51	1736.68
190.73	1687.53
190.95	1759.21
191.17	1681.38
191.39	1628.14
191.61	1755.11
191.84	1669.09
192.06	1726.44
192.28	1628.14
192.50	1908.71
192.72	1705.96
192.94	1724.39
193.16	1759.21
193.38	1693.67
193.60	1652.71
193.82	1697.77
194.04	1742.82
194.26	1683.43
194.48	1681.38
194.70	1775.59
194.92	1697.77
195.14	1808.36
195.36	1726.44
195.58	1699.81
195.80	1693.67
196.02	1662.95
196.24	1636.33
196.46	1687.53
196.69	1646.57
196.91	1867.75
197.13	1705.96
197.35	1665.00
197.57	1785.83
197.79	1777.64
198.01	1755.11
198.23	1703.91
198.45	1744.87
198.67	1710.05
198.89	1794.02
199.11	1775.59
199.33	1626.09
199.55	1570.79
199.77	1716.20
199.99	1832.93
200.21	1665.00
200.43	1683.43
200.65	1660.90
200.87	1619.94
201.09	1644.52
201.31	1642.47
201.53	1728.49
201.75	1611.75
201.97	1710.05
202.19	1679.33
202.41	1679.33
202.63	1853.41
202.85	1722.34
203.07	1730.53
203.29	1671.14
203.51	1667.05
203.73	1615.85
203.95	1861.60
204.17	1679.33
204.39	1705.96
204.61	1736.68
204.83	1673.19
205.05	1738.73
205.27	1757.16
205.49	1783.78
205.71	1695.72
205.93	1638.38
206.15	1632.23
206.37	1703.91
206.59	1720.29
206.81	1607.66
207.03	1685.48
207.25	1615.85
207.47	1771.49
207.69	1701.86
207.91	1808.36
208.13	1767.40
208.34	1677.29
208.56	1675.24
208.78	1714.15
209.00	1708.01
209.22	1662.95
209.44	1677.29
209.66	1689.57
209.88	1720.29
210.10	1734.63
210.32	1578.98
210.54	1834.98
210.76	1697.77
210.98	1791.97
211.20	1568.74
211.42	1708.01
211.64	1808.36
211.86	1742.82
212.08	1755.11
212.30	1699.81
212.52	1601.51
212.74	1675.24
212.96	1685.48
213.17	1705.96
213.39	1691.62
213.61	1808.36
213.83	1714.15
214.05	1695.72
214.27	1789.92
214.49	1652.71
214.71	1693.67
214.93	1822.69
215.15	1683.43
215.37	1693.67
215.59	1632.23
215.81	1632.23
216.03	1718.25
216.24	1800.16
216.46	1781.73
216.68	1744.87
216.90	1646.57
217.12	1789.92
217.34	1742.82
217.56	1728.49
217.78	1791.97
218.00	1691.62
218.22	1718.25
218.44	1746.92
218.66	1714.15
218.87	1757.16
219.09	1576.94
219.31	1667.05
219.53	1665.00
219.75	1695.72
219.97	1617.90
220.19	1681.38
220.41	1703.91
220.63	1830.88
220.85	1689.57
221.06	1681.38
221.28	1751.01
221.50	1705.96
221.72	1697.77
221.94	1763.30
222.16	1710.05
222.38	1783.78
222.60	1687.53
222.82	1716.20
223.03	1683.43
223.25	1714.15
223.47	1695.72
223.69	1744.87
223.91	1744.87
224.13	1658.85
224.35	1615.85
224.57	1794.02
224.78	1710.05
225.00	1656.81
225.22	1705.96
225.44	1665.00
225.66	1730.53
225.88	1755.11
226.10	1814.50
226.32	1748.97
226.53	1787.88
226.75	1644.52
226.97	1705.96
227.19	1710.05
227.41	1689.57
227.63	1605.61
227.85	1597.42
228.06	1732.58
228.28	1701.86
228.50	1738.73
228.72	1665.00
228.94	1642.47
229.16	1626.09
229.37	1660.90
229.59	1644.52
229.81	1812.45
230.03	1562.60
230.25	1642.47
230.47	1617.90
230.69	1687.53
230.90	1751.01
231.12	1671.14
231.34	1681.38
231.56	1736.68
231.78	1689.57
232.00	1779.68
232.21	1634.28
232.43	1718.25
232.65	1603.56
232.87	1789.92
233.09	1562.60
233.30	1675.24
233.52	1701.86
233.74	1697.77
233.96	1669.09
234.18	1765.35
234.40	1634.28
234.61	1845.22
234.83	1576.94
235.05	1609.70
235.27	1884.13
235.49	1759.21
235.70	1740.77
235.92	1802.21
236.14	1667.05
236.36	1822.69
236.58	1679.33
236.79	1759.21
237.01	1621.99
237.23	1720.29
237.45	1816.55
237.67	1669.09
237.88	1677.29
238.10	1822.69
238.32	1679.33
238.54	1730.53
238.76	1609.70
238.97	1658.85
239.19	1728.49
239.41	1828.84
239.63	1802.21
239.85	1673.19
240.06	1632.23
240.28	1650.66
240.50	1820.64
240.72	1697.77
240.93	1669.09
241.15	1755.11
241.37	1765.35
241.59	1808.36
241.81	1738.73
242.02	1724.39
242.24	1806.31
242.46	1771.49
242.68	1691.62
242.89	1708.01
243.11	1785.83
243.33	1742.82
243.55	1701.86
243.76	1738.73
243.98	1730.53
244.20	1726.44
244.42	1697.77
244.64	1689.57
244.85	1667.05
245.07	1646.57
245.29	1679.33
245.51	1724.39
245.72	1681.38
245.94	1716.20
246.16	1738.73
246.38	1716.20
246.59	1681.38
246.81	1683.43
247.03	1669.09
247.24	1550.31
247.46	1722.34
247.68	1724.39
247.90	1716.20
248.11	1695.72
248.33	1746.92
248.55	1685.48
248.77	1742.82
248.98	1763.30
249.20	1834.98
249.42	1669.09
249.64	1695.72
249.85	1654.76
250.07	1640.42
250.29	1773.54
250.50	1775.59
250.72	1687.53
250.94	1673.19
251.16	1830.88
251.37	1787.88
251.59	1730.53
251.81	1677.29
252.02	1863.65
252.24	1681.38
252.46	1832.93
252.68	1595.37
252.89	1646.57
253.11	1597.42
253.33	1783.78
253.54	1746.92
253.76	1617.90
253.98	1669.09
254.20	1718.25
254.41	1607.66
254.63	1769.44
254.85	1605.61
255.06	1613.80
255.28	1714.15
255.50	1675.24
255.71	1681.38
255.93	1681.38
256.15	1667.05
256.36	1779.68
256.58	1683.43
256.80	1781.73
257.02	1669.09
257.23	1595.37
257.45	1755.11
257.67	1757.16
257.88	1722.34
258.10	1714.15
258.32	1652.71
258.53	1720.29
258.75	1802.21
258.97	1681.38
259.18	1740.77
259.40	1705.96
259.62	1810.40
259.83	1843.17
260.05	1695.72
260.27	1953.76
260.48	1757.16
260.70	1621.99
260.92	1675.24
261.13	1773.54
261.35	1787.88
261.57	1689.57
261.78	1634.28
262.00	1714.15
262.22	1722.34
262.43	1595.37
262.65	1718.25
262.86	1665.00
263.08	1755.11
263.30	1685.48
263.51	1626.09
263.73	1609.70
263.95	1802.21
264.16	1673.19
264.38	1662.95
264.60	1732.58
264.81	1712.10
265.03	1794.02
265.25	1699.81
265.46	1726.44
265.68	1779.68
265.89	1779.68
266.11	1615.85
266.33	1716.20
266.54	1877.99
266.76	1767.40
266.98	1763.30
267.19	1742.82
267.41	1722.34
267.62	1574.89
267.84	1644.52
268.06	1695.72
268.27	1708.01
268.49	1802.21
268.70	1777.64
268.92	1771.49
269.14	1597.42
269.35	1671.14
269.57	1671.14
269.79	1765.35
270.00	1689.57
270.22	1837.03
270.43	1691.62
270.65	1601.51
270.87	1701.86
271.08	1773.54
271.30	1779.68
271.51	1675.24
271.73	1738.73
271.95	1759.21
272.16	1765.35
272.38	1755.11
272.59	1697.77
272.81	1798.12
273.02	1726.44
273.24	1736.68
273.46	1771.49
273.67	1701.86
273.89	1699.81
274.10	1687.53
274.32	1769.44
274.54	1781.73
274.75	1755.11
274.97	1730.53
275.18	1732.58
275.40	1732.58
275.61	1740.77
275.83	1718.25
276.05	1599.46
276.26	1689.57
276.48	1701.86
276.69	1689.57
276.91	1611.75
277.12	1738.73
277.34	1755.11
277.55	1796.07
277.77	1677.29
277.99	1652.71
278.20	1603.56
278.42	1638.38
278.63	1632.23
278.85	1697.77
279.06	1691.62
279.28	1718.25
279.49	1742.82
279.71	1699.81
279.93	1681.38
280.14	1673.19
280.36	1724.39
280.57	1689.57
280.79	1718.25
281.00	1746.92
281.22	1667.05
281.43	1804.26
281.65	1595.37
281.86	1726.44
282.08	1689.57
282.29	1789.92
282.51	1673.19
282.73	1626.09
282.94	1587.18
283.16	1769.44
283.37	1853.41
283.59	1701.86
283.80	1722.34
284.02	1710.05
284.23	1650.66
284.45	1728.49
284.66	1619.94
284.88	1687.53
285.09	1738.73
285.31	1753.06
285.52	1703.91
285.74	1703.91
285.95	1765.35
286.17	1734.63
286.38	1716.20
286.60	1673.19
286.81	1576.94
287.03	1716.20
287.24	1742.82
287.46	1734.63
287.67	1693.67
287.89	1791.97
288.10	1734.63
288.32	1726.44
288.53	1808.36
288.75	1640.42
288.96	1751.01
289.18	1687.53
289.39	1736.68
289.61	1722.34
289.82	1820.64
290.04	1763.30
290.25	1726.44
290.47	1628.14
290.68	1644.52
290.90	1769.44
291.11	1640.42
291.33	1779.68
291.54	1667.05
291.76	1683.43
291.97	1781.73
292.18	1691.62
292.40	1654.76
292.61	1695.72
292.83	1849.32
293.04	1765.35
293.26	1734.63
293.47	1714.15
293.69	1599.46
293.90	1693.67
294.12	1853.41
294.33	1722.34
294.55	1744.87
294.76	1802.21
294.97	1728.49
295.19	1798.12
295.40	1562.60
295.62	1699.81
295.83	1802.21
296.05	1626.09
296.26	1718.25
296.48	1632.23
296.69	1607.66
296.90	1705.96
297.12	1716.20
297.33	1708.01
297.55	1665.00
297.76	1761.25
297.98	1814.50
298.19	1755.11
298.41	1677.29
298.62	1583.08
298.83	1751.01
299.05	1716.20
299.26	1642.47
299.48	1665.00
299.69	1693.67
299.90	1761.25
300.12	1673.19
300.33	1814.50
300.55	1652.71
300.76	1697.77
300.98	1691.62
301.19	1775.59
301.40	1669.09
301.62	1636.33
301.83	1710.05
302.05	1779.68
302.26	1722.34
302.47	1687.53
302.69	1677.29
302.90	1632.23
303.12	1570.79
303.33	1718.25
303.54	1822.69
303.76	1699.81
303.97	1753.06
304.19	1779.68
304.40	1714.15
304.61	1669.09
304.83	1818.60
305.04	1794.02
305.26	1841.12
305.47	1626.09
305.68	1701.86
305.90	1589.22
306.11	1744.87
306.33	1724.39
306.54	1648.61
306.75	1642.47
306.97	1636.33
307.18	1626.09
307.39	1716.20
307.61	1753.06
307.82	1636.33
308.04	1718.25
308.25	1675.24
308.46	1708.01
308.68	1701.86
308.89	1656.81
309.10	1812.45
309.32	1691.62
309.53	1667.05
309.74	1714.15
309.96	1712.10
310.17	1763.30
310.39	1703.91
310.60	1714.15
310.81	1742.82
311.03	1724.39
311.24	1814.50
311.45	1640.42
311.67	1841.12
311.88	1746.92
312.09	1681.38
312.31	1662.95
312.52	1669.09
312.73	1714.15
312.95	1665.00
313.16	1720.29
313.37	1789.92
313.59	1712.10
313.80	1781.73
314.01	1773.54
314.23	1681.38
314.44	1740.77
314.65	1642.47
314.87	1607.66
315.08	1697.77
315.29	1693.67
315.51	1677.29
315.72	1662.95
315.93	1773.54
316.15	1742.82
316.36	1662.95
316.57	1722.34
316.79	1798.12
317.00	1740.77
317.21	1710.05
317.43	1675.24
317.64	1677.29
317.85	1685.48
318.07	1669.09
318.28	1699.81
318.49	1738.73
318.70	1884.13
318.92	1855.46
319.13	1857.51
319.34	1912.80
319.56	1796.07
319.77	1757.16
319.98	1775.59
320.20	1775.59
320.41	1703.91
320.62	1757.16
320.83	1642.47
321.05	1902.56
321.26	1767.40
321.47	1685.48
321.69	1697.77
321.90	1685.48
322.11	1665.00
322.32	1689.57
322.54	1787.88
322.75	1691.62
322.96	1834.98
323.18	1693.67
323.39	1591.27
323.60	1708.01
323.81	1765.35
324.03	1652.71
324.24	1703.91
324.45	1742.82
324.66	1636.33
324.88	1742.82
325.09	1779.68
325.30	1685.48
325.52	1689.57
325.73	1779.68
325.94	1748.97
326.15	1638.38
326.37	1687.53
326.58	1730.53
326.79	1763.30
327.00	1654.76
327.22	1748.97
327.43	1585.13
327.64	1621.99
327.85	1703.91
328.07	1769.44
328.28	1832.93
328.49	1673.19
328.70	1722.34
328.92	1718.25
329.13	1648.61
329.34	1732.58
329.55	1761.25
329.76	1685.48
329.98	1724.39
330.19	1763.30
330.40	1726.44
330.61	1705.96
330.83	1742.82
331.04	1611.75
331.25	1781.73
331.46	1691.62
331.68	1656.81
331.89	1746.92
332.10	1662.95
332.31	1619.94
332.52	1748.97
332.74	1789.92
332.95	1673.19
333.16	1726.44
333.37	1791.97
333.58	1689.57
333.80	1775.59
334.01	1681.38
334.22	1671.14
334.43	1697.77
334.64	1712.10
334.86	1607.66
335.07	1583.08
335.28	1710.05
335.49	1671.14
335.70	1744.87
335.92	1740.77
336.13	1785.83
336.34	1658.85
336.55	1679.33
336.76	1662.95
336.98	1603.56
337.19	1669.09
337.40	1834.98
337.61	1847.27
337.82	1697.77
338.04	1845.22
338.25	1558.50
338.46	1701.86
338.67	1722.34
338.88	1712.10
339.09	1615.85
339.31	1673.19
339.52	1640.42
339.73	1712.10
339.94	1644.52
340.15	1710.05
340.36	1699.81
340.58	1691.62
340.79	1667.05
341.00	1734.63
341.21	1695.72
341.42	1828.84
341.63	1693.67
341.85	1757.16
342.06	1681.38
342.27	1673.19
342.48	1773.54
342.69	1593.32
342.90	1746.92
343.12	1781.73
343.33	1753.06
343.54	1671.14
343.75	1769.44
343.96	1695.72
344.17	1697.77
344.38	1746.92
344.60	1634.28
344.81	1734.63
345.02	1652.71
345.23	1718.25
345.44	1814.50
345.65	1808.36
345.86	1665.00
346.07	1675.24
346.29	1693.67
346.50	1654.76
346.71	1724.39
346.92	1757.16
347.13	1843.17
347.34	1660.90
347.55	1673.19
347.76	1720.29
347.98	1589.22
348.19	1681.38
348.40	1701.86
348.61	1679.33
348.82	1703.91
349.03	1730.53
349.24	1671.14
349.45	1757.16
349.66	1578.98
349.88	1681.38
350.09	1652.71
350.30	1757.16
350.51	1771.49
350.72	1681.38
350.93	1765.35
351.14	1708.01
351.35	1734.63
351.56	1769.44
351.77	1699.81
351.99	1703.91
352.20	1804.26
352.41	1822.69
352.62	1615.85
352.83	1658.85
353.04	1728.49
353.25	1644.52
353.46	1767.40
353.67	1822.69
353.88	1630.18
354.09	1757.16
354.30	1755.11
354.52	1736.68
354.73	1718.25
354.94	1652.71
355.15	1687.53
355.36	1818.60
355.57	1646.57
355.78	1744.87
355.99	1746.92
356.20	1650.66
356.41	1740.77
356.62	1761.25
356.83	1734.63
357.04	1787.88
357.25	1662.95
357.46	1669.09
357.68	1640.42
357.89	1628.14
358.10	1710.05
358.31	1714.15
358.52	1730.53
358.73	1630.18
358.94	1665.00
359.15	1677.29
359.36	1806.31
359.57	1730.53
359.78	1640.42
359.99	1689.57
360.20	1636.33
360.41	1716.20
360.62	1757.16
360.83	1669.09
361.04	1671.14
361.25	1794.02
361.46	1738.73
361.67	1796.07
361.88	1705.96
362.09	1765.35
362.30	1757.16
362.51	1763.30
362.72	1722.34
362.93	1783.78
363.14	1744.87
363.35	1673.19
363.56	1656.81
363.78	1730.53
363.99	1734.63
364.20	1667.05
364.41	1718.25
364.62	1845.22
364.83	1689.57
365.04	1748.97
365.25	1636.33
365.46	1828.84
365.67	1640.42
365.88	1634.28
366.09	1697.77
366.30	1673.19
366.51	1798.12
366.72	1681.38
366.93	1773.54
367.14	1703.91
367.35	1861.60
367.56	1722.34
367.77	1781.73
367.98	1744.87
368.18	1675.24
368.39	1771.49
368.60	1624.04
368.81	1740.77
369.02	1761.25
369.23	1716.20
369.44	1595.37
369.65	1648.61
369.86	1722.34
370.07	1773.54
370.28	1636.33
370.49	1701.86
370.70	1716.20
370.91	1632.23
371.12	1587.18
371.33	1771.49
371.54	1714.15
371.75	1740.77
371.96	1525.74
372.17	1691.62
372.38	1662.95
372.59	1794.02
372.80	1646.57
373.01	1673.19
373.22	1681.38
373.43	1738.73
373.64	1714.15
373.85	1738.73
374.06	1800.16
374.26	1771.49
374.47	1712.10
374.68	1814.50
374.89	1697.77
375.10	1665.00
375.31	1824.74
375.52	1708.01
375.73	1714.15
375.94	1595.37
376.15	1744.87
376.36	1589.22
376.57	1648.61
376.78	1740.77
376.99	1693.67
377.20	1712.10
377.40	1697.77
377.61	1816.55
377.82	1636.33
378.03	1708.01
378.24	1705.96
378.45	1703.91
378.66	1708.01
378.87	1566.70
379.08	1658.85
379.29	1695.72
379.50	1828.84
379.71	1660.90
379.91	1746.92
380.12	1763.30
380.33	1667.05
380.54	1677.29
380.75	1632.23
380.96	1742.82
381.17	1718.25
381.38	1773.54
381.59	1751.01
381.80	1683.43
382.00	1904.61
382.21	1763.30
382.42	1861.60
382.63	1867.75
382.84	1775.59
383.05	1730.53
383.26	1810.40
383.47	1722.34
383.68	1714.15
383.88	1767.40
384.09	1732.58
384.30	1818.60
384.51	1751.01
384.72	1685.48
384.93	1615.85
385.14	1705.96
385.35	1789.92
385.55	1646.57
385.76	1822.69
385.97	1730.53
386.18	1660.90
386.39	1671.14
386.60	1705.96
386.81	1738.73
387.02	1650.66
387.22	1615.85
387.43	1791.97
387.64	1824.74
387.85	1783.78
388.06	2166.75
388.27	4298.69
388.48	6670.23
388.68	8023.94
388.89	9402.22
389.10	9738.09
389.31	8527.74
389.52	7503.76
389.73	6743.96
389.93	6109.09
390.14	5863.33
390.35	5162.93
390.56	4573.11
390.77	3690.44
390.98	3014.61
391.18	2551.77
391.39	2119.65
391.60	1812.45
391.81	1822.69
392.02	1708.01
392.23	1826.79
392.43	1724.39
392.64	1843.17
392.85	1720.29
393.06	1775.59
393.27	1685.48
393.47	1662.95
393.68	1703.91
393.89	1683.43
394.10	1851.36
394.31	1675.24
394.52	1667.05
394.72	1601.51
394.93	1861.60
395.14	1632.23
395.35	1771.49
395.56	1638.38
395.76	1755.11
395.97	1765.35
396.18	1816.55
396.39	1814.50
396.60	2109.41
396.80	1927.14
397.01	1851.36
397.22	1898.47
397.43	1783.78
397.64	1732.58
397.84	1849.32
398.05	1890.28
398.26	1765.35
398.47	1773.54
398.67	1873.89
398.88	1755.11
399.09	1705.96
399.30	1748.97
399.51	1724.39
399.71	1703.91
399.92	1691.62
400.13	1693.67
400.34	1777.64
400.54	1710.05
400.75	1822.69
400.96	1757.16
401.17	1738.73
401.37	1732.58
401.58	1753.06
401.79	1771.49
402.00	1888.23
402.21	2021.35
402.41	1902.56
402.62	1910.75
402.83	2045.92
403.04	1966.05
403.24	2019.30
403.45	1859.56
403.66	1927.14
403.87	1839.08
404.07	1888.23
404.28	1841.12
404.49	1970.15
404.70	1746.92
404.90	1861.60
405.11	1660.90
405.32	1716.20
405.52	1632.23
405.73	1718.25
405.94	1652.71
406.15	1671.14
406.35	1730.53
406.56	1740.77
406.77	1697.77
406.98	1746.92
407.18	1673.19
407.39	1787.88
407.60	1746.92
407.80	1783.78
408.01	1757.16
408.22	1742.82
408.43	1681.38
408.63	1617.90
408.84	1740.77
409.05	1771.49
409.25	1712.10
409.46	1646.57
409.67	1665.00
409.88	1665.00
410.08	1742.82
410.29	1683.43
410.50	1800.16
410.70	1812.45
410.91	1636.33
411.12	1761.25
411.32	1734.63
411.53	1593.32
411.74	1810.40
411.95	1724.39
412.15	1720.29
412.36	1742.82
412.57	1748.97
412.77	1810.40
412.98	1777.64
413.19	1714.15
413.39	1796.07
413.60	1732.58
413.81	1771.49
414.01	1648.61
414.22	1746.92
414.43	1808.36
414.63	1626.09
414.84	1734.63
415.05	1714.15
415.25	1611.75
415.46	1771.49
415.67	1628.14
415.87	1716.20
416.08	1705.96
416.29	1679.33
416.49	1789.92
416.70	1656.81
416.91	1693.67
417.11	1667.05
417.32	1779.68
417.53	1748.97
417.73	1746.92
417.94	1683.43
418.15	1714.15
418.35	1689.57
418.56	1705.96
418.77	1843.17
418.97	1720.29
419.18	1740.77
419.38	1558.50
419.59	1681.38
419.80	1798.12
420.00	1665.00
420.21	1757.16
420.42	1748.97
420.62	1767.40
420.83	1693.67
421.04	1775.59
421.24	1634.28
421.45	1779.68
421.65	1683.43
421.86	1689.57
422.07	1736.68
422.27	1716.20
422.48	1667.05
422.69	1648.61
422.89	1748.97
423.10	1648.61
423.30	1648.61
423.51	1775.59
423.72	1773.54
423.92	1722.34
424.13	1679.33
424.33	1789.92
424.54	1703.91
424.75	1642.47
424.95	1880.04
425.16	1722.34
425.36	1701.86
425.57	1730.53
425.78	1738.73
425.98	1769.44
426.19	1734.63
426.39	1689.57
426.60	1736.68
426.81	1796.07
427.01	1679.33
427.22	1628.14
427.42	1646.57
427.63	1765.35
427.83	1796.07
428.04	1726.44
428.25	1873.89
428.45	1759.21
428.66	1761.25
428.86	1636.33
429.07	1660.90
429.28	1673.19
429.48	1712.10
429.69	1660.90
429.89	1791.97
430.10	1679.33
430.30	1767.40
430.51	1755.11
430.71	1626.09
430.92	1753.06
431.13	1703.91
431.33	1757.16
431.54	1736.68
431.74	1775.59
431.95	1818.60
432.15	1689.57
432.36	1691.62
432.56	1849.32
432.77	1834.98
432.98	1722.34
433.18	1755.11
433.39	1744.87
433.59	1626.09
433.80	1789.92
434.00	1888.23
434.21	1761.25
434.41	1732.58
434.62	1869.80
434.82	1695.72
435.03	1644.52
435.23	1751.01
435.44	1652.71
435.64	1755.11
435.85	1730.53
436.06	1794.02
436.26	1736.68
436.47	1720.29
436.67	1683.43
436.88	1738.73
437.08	1738.73
437.29	1775.59
437.49	1841.12
437.70	1791.97
437.90	1748.97
438.11	1824.74
438.31	1763.30
438.52	1863.65
438.72	1832.93
438.93	1935.33
439.13	1828.84
439.34	1820.64
439.54	1775.59
439.75	1789.92
439.95	1771.49
440.16	1757.16
440.36	1656.81
440.57	1771.49
440.77	1759.21
440.98	1728.49
441.18	1814.50
441.39	1607.66
441.59	1656.81
441.80	1765.35
442.00	1705.96
442.21	1763.30
442.41	1605.61
442.62	1775.59
442.82	1751.01
443.02	1722.34
443.23	1724.39
443.43	1751.01
443.64	1751.01
443.84	1677.29
444.05	1775.59
444.25	1712.10
444.46	1701.86
444.66	1757.16
444.87	1794.02
445.07	1656.81
445.28	1796.07
445.48	1857.51
445.69	1755.11
445.89	1898.47
446.09	1789.92
446.30	2041.82
446.50	2668.50
446.71	3712.97
446.91	4325.31
447.12	4605.88
447.32	4894.65
447.53	4306.88
447.73	3749.83
447.93	3491.79
448.14	3270.61
448.34	3237.84
448.55	2908.12
448.75	2881.49
448.96	2662.36
449.16	2273.25
449.36	2344.92
449.57	2050.02
449.77	1888.23
449.98	1824.74
450.18	1796.07
450.39	1701.86
450.59	1781.73
450.79	1648.61
451.00	1667.05
451.20	1837.03
451.41	1798.12
451.61	1773.54
451.81	1736.68
452.02	1728.49
452.22	1677.29
452.43	1671.14
452.63	1738.73
