SpectraSuite Data File
++++++++++++++++++++++++++++++++++++
Date: Wed May 04 18:44:03 CEST 2016
User: root
Dark Spectrum Present: No
Reference Spectrum Present: No
Number of Sampled Component Spectra: 1
Spectrometers: USB4C02835
Integration Time (usec): 100000 (USB4C02835)
Spectra Averaged: 1 (USB4C02835)
Boxcar Smoothing: 0 (USB4C02835)
Correct for Electrical Dark: No (USB4C02835)
Strobe/Lamp Enabled: No (USB4C02835)
Correct for Detector Non-linearity: No (USB4C02835)
Correct for Stray Light: No (USB4C02835)
Number of Pixels in Processed Spectrum: 3648
>>>>>Begin Processed Spectral Data<<<<<
177.47	1435.63
177.69	1435.63
177.91	1435.63
178.13	1439.72
178.36	1423.34
178.58	1591.27
178.80	1718.25
179.02	1667.05
179.24	1632.23
179.46	1771.49
179.68	1759.21
179.90	1662.95
180.13	1669.09
180.35	1726.44
180.57	1689.57
180.79	1757.16
181.01	1742.82
181.23	1740.77
181.45	1748.97
181.67	1671.14
181.90	1787.88
182.12	1615.85
182.34	1658.85
182.56	1732.58
182.78	1683.43
183.00	1671.14
183.22	1757.16
183.44	1619.94
183.66	1871.84
183.89	1734.63
184.11	1751.01
184.33	1771.49
184.55	1769.44
184.77	1695.72
184.99	1753.06
185.21	1720.29
185.43	1841.12
185.65	1630.18
185.87	1689.57
186.10	1802.21
186.32	1873.89
186.54	1714.15
186.76	1822.69
186.98	1734.63
187.20	1716.20
187.42	1716.20
187.64	1742.82
187.86	1718.25
188.08	1718.25
188.30	1632.23
188.52	1732.58
188.75	1769.44
188.97	1767.40
189.19	1689.57
189.41	1683.43
189.63	1699.81
189.85	1691.62
190.07	1673.19
190.29	1640.42
190.51	1646.57
190.73	1593.32
190.95	1816.55
191.17	1783.78
191.39	1621.99
191.61	1714.15
191.84	1609.70
192.06	1816.55
192.28	1638.38
192.50	1935.33
192.72	1726.44
192.94	1671.14
193.16	1763.30
193.38	1773.54
193.60	1607.66
193.82	1761.25
194.04	1708.01
194.26	1767.40
194.48	1667.05
194.70	1652.71
194.92	1581.03
195.14	1759.21
195.36	1636.33
195.58	1724.39
195.80	1658.85
196.02	1615.85
196.24	1677.29
196.46	1755.11
196.69	1640.42
196.91	1925.09
197.13	1656.81
197.35	1714.15
197.57	1783.78
197.79	1724.39
198.01	1716.20
198.23	1718.25
198.45	1660.90
198.67	1671.14
198.89	1789.92
199.11	1736.68
199.33	1667.05
199.55	1624.04
199.77	1687.53
199.99	1769.44
200.21	1695.72
200.43	1675.24
200.65	1630.18
200.87	1593.32
201.09	1675.24
201.31	1693.67
201.53	1746.92
201.75	1726.44
201.97	1665.00
202.19	1787.88
202.41	1769.44
202.63	1882.08
202.85	1697.77
203.07	1714.15
203.29	1654.76
203.51	1634.28
203.73	1626.09
203.95	1861.60
204.17	1691.62
204.39	1689.57
204.61	1683.43
204.83	1689.57
205.05	1730.53
205.27	1814.50
205.49	1816.55
205.71	1703.91
205.93	1591.27
206.15	1685.48
206.37	1695.72
206.59	1695.72
206.81	1652.71
207.03	1636.33
207.25	1660.90
207.47	1816.55
207.69	1734.63
207.91	1810.40
208.13	1703.91
208.34	1673.19
208.56	1634.28
208.78	1656.81
209.00	1665.00
209.22	1675.24
209.44	1714.15
209.66	1662.95
209.88	1806.31
210.10	1701.86
210.32	1685.48
210.54	1767.40
210.76	1740.77
210.98	1738.73
211.20	1564.65
211.42	1726.44
211.64	1767.40
211.86	1746.92
212.08	1773.54
212.30	1689.57
212.52	1679.33
212.74	1773.54
212.96	1724.39
213.17	1699.81
213.39	1697.77
213.61	1843.17
213.83	1695.72
214.05	1779.68
214.27	1767.40
214.49	1624.04
214.71	1632.23
214.93	1800.16
215.15	1691.62
215.37	1697.77
215.59	1613.80
215.81	1701.86
216.03	1755.11
216.24	1701.86
216.46	1738.73
216.68	1730.53
216.90	1775.59
217.12	1734.63
217.34	1683.43
217.56	1693.67
217.78	1767.40
218.00	1705.96
218.22	1703.91
218.44	1673.19
218.66	1722.34
218.87	1757.16
219.09	1701.86
219.31	1763.30
219.53	1699.81
219.75	1675.24
219.97	1720.29
220.19	1728.49
220.41	1701.86
220.63	1751.01
220.85	1675.24
221.06	1617.90
221.28	1802.21
221.50	1660.90
221.72	1669.09
221.94	1732.58
222.16	1746.92
222.38	1748.97
222.60	1724.39
222.82	1681.38
223.03	1710.05
223.25	1718.25
223.47	1818.60
223.69	1865.70
223.91	1755.11
224.13	1781.73
224.35	1644.52
224.57	1802.21
224.78	1689.57
225.00	1669.09
225.22	1658.85
225.44	1699.81
225.66	1732.58
225.88	1710.05
226.10	1759.21
226.32	1806.31
226.53	1802.21
226.75	1605.61
226.97	1712.10
227.19	1665.00
227.41	1701.86
227.63	1648.61
227.85	1693.67
228.06	1708.01
228.28	1730.53
228.50	1720.29
228.72	1599.46
228.94	1701.86
229.16	1609.70
229.37	1624.04
229.59	1662.95
229.81	1783.78
230.03	1681.38
230.25	1634.28
230.47	1693.67
230.69	1671.14
230.90	1757.16
231.12	1710.05
231.34	1701.86
231.56	1787.88
231.78	1660.90
232.00	1746.92
232.21	1734.63
232.43	1726.44
232.65	1589.22
232.87	1685.48
233.09	1710.05
233.30	1660.90
233.52	1796.07
233.74	1691.62
233.96	1662.95
234.18	1732.58
234.40	1746.92
234.61	1779.68
234.83	1591.27
235.05	1687.53
235.27	1775.59
235.49	1748.97
235.70	1751.01
235.92	1798.12
236.14	1742.82
236.36	1822.69
236.58	1681.38
236.79	1837.03
237.01	1669.09
237.23	1689.57
237.45	1800.16
237.67	1665.00
237.88	1689.57
238.10	1804.26
238.32	1667.05
238.54	1665.00
238.76	1771.49
238.97	1701.86
239.19	1634.28
239.41	1722.34
239.63	1738.73
239.85	1691.62
240.06	1662.95
240.28	1656.81
240.50	1718.25
240.72	1720.29
240.93	1712.10
241.15	1800.16
241.37	1751.01
241.59	1834.98
241.81	1695.72
242.02	1685.48
242.24	1718.25
242.46	1751.01
242.68	1638.38
242.89	1689.57
243.11	1724.39
243.33	1728.49
243.55	1724.39
243.76	1732.58
243.98	1779.68
244.20	1679.33
244.42	1730.53
244.64	1798.12
244.85	1656.81
245.07	1689.57
245.29	1720.29
245.51	1685.48
245.72	1677.29
245.94	1820.64
246.16	1742.82
246.38	1783.78
246.59	1658.85
246.81	1677.29
247.03	1652.71
247.24	1658.85
247.46	1689.57
247.68	1697.77
247.90	1638.38
248.11	1650.66
248.33	1683.43
248.55	1673.19
248.77	1751.01
248.98	1845.22
249.20	1808.36
249.42	1681.38
249.64	1748.97
249.85	1732.58
250.07	1658.85
250.29	1855.46
250.50	1716.20
250.72	1685.48
250.94	1761.25
251.16	1789.92
251.37	1771.49
251.59	1724.39
251.81	1730.53
252.02	1800.16
252.24	1644.52
252.46	1781.73
252.68	1617.90
252.89	1660.90
253.11	1632.23
253.33	1761.25
253.54	1716.20
253.76	1601.51
253.98	1683.43
254.20	1722.34
254.41	1613.80
254.63	1595.37
254.85	1677.29
255.06	1699.81
255.28	1705.96
255.50	1720.29
255.71	1679.33
255.93	1632.23
256.15	1763.30
256.36	1751.01
256.58	1687.53
256.80	1685.48
257.02	1656.81
257.23	1714.15
257.45	1767.40
257.67	1771.49
257.88	1691.62
258.10	1732.58
258.32	1728.49
258.53	1699.81
258.75	1798.12
258.97	1703.91
259.18	1683.43
259.40	1718.25
259.62	1851.36
259.83	1812.45
260.05	1679.33
260.27	1964.00
260.48	1779.68
260.70	1626.09
260.92	1736.68
261.13	1722.34
261.35	1742.82
261.57	1689.57
261.78	1652.71
262.00	1703.91
262.22	1695.72
262.43	1710.05
262.65	1636.33
262.86	1734.63
263.08	1896.42
263.30	1626.09
263.51	1681.38
263.73	1718.25
263.95	1839.08
264.16	1609.70
264.38	1714.15
264.60	1730.53
264.81	1654.76
265.03	1771.49
265.25	1765.35
265.46	1722.34
265.68	1791.97
265.89	1708.01
266.11	1605.61
266.33	1746.92
266.54	1763.30
266.76	1630.18
266.98	1759.21
267.19	1779.68
267.41	1828.84
267.62	1675.24
267.84	1558.50
268.06	1751.01
268.27	1681.38
268.49	1660.90
268.70	1769.44
268.92	1751.01
269.14	1642.47
269.35	1634.28
269.57	1730.53
269.79	1691.62
270.00	1681.38
270.22	1755.11
270.43	1695.72
270.65	1652.71
270.87	1720.29
271.08	1708.01
271.30	1746.92
271.51	1714.15
271.73	1734.63
271.95	1800.16
272.16	1697.77
272.38	1714.15
272.59	1681.38
272.81	1812.45
273.02	1681.38
273.24	1718.25
273.46	1822.69
273.67	1671.14
273.89	1695.72
274.10	1673.19
274.32	1722.34
274.54	1761.25
274.75	1736.68
274.97	1736.68
275.18	1710.05
275.40	1796.07
275.61	1644.52
275.83	1740.77
276.05	1630.18
276.26	1671.14
276.48	1798.12
276.69	1558.50
276.91	1693.67
277.12	1751.01
277.34	1705.96
277.55	1753.06
277.77	1685.48
277.99	1705.96
278.20	1654.76
278.42	1730.53
278.63	1658.85
278.85	1660.90
279.06	1605.61
279.28	1779.68
279.49	1796.07
279.71	1683.43
279.93	1738.73
280.14	1662.95
280.36	1617.90
280.57	1673.19
280.79	1804.26
281.00	1640.42
281.22	1685.48
281.43	1746.92
281.65	1607.66
281.86	1679.33
282.08	1736.68
282.29	1841.12
282.51	1658.85
282.73	1644.52
282.94	1591.27
283.16	1742.82
283.37	1785.83
283.59	1701.86
283.80	1718.25
284.02	1683.43
284.23	1712.10
284.45	1603.56
284.66	1601.51
284.88	1697.77
285.09	1667.05
285.31	1808.36
285.52	1724.39
285.74	1613.80
285.95	1703.91
286.17	1712.10
286.38	1781.73
286.60	1685.48
286.81	1681.38
287.03	1673.19
287.24	1722.34
287.46	1798.12
287.67	1652.71
287.89	1798.12
288.10	1740.77
288.32	1724.39
288.53	1773.54
288.75	1716.20
288.96	1787.88
289.18	1599.46
289.39	1763.30
289.61	1787.88
289.82	1832.93
290.04	1753.06
290.25	1687.53
290.47	1697.77
290.68	1607.66
290.90	1740.77
291.11	1689.57
291.33	1679.33
291.54	1677.29
291.76	1632.23
291.97	1736.68
292.18	1701.86
292.40	1716.20
292.61	1689.57
292.83	1861.60
293.04	1732.58
293.26	1789.92
293.47	1769.44
293.69	1660.90
293.90	1738.73
294.12	1761.25
294.33	1675.24
294.55	1755.11
294.76	1759.21
294.97	1810.40
295.19	1847.27
295.40	1712.10
295.62	1732.58
295.83	1734.63
296.05	1662.95
296.26	1822.69
296.48	1683.43
296.69	1708.01
296.90	1767.40
297.12	1679.33
297.33	1814.50
297.55	1673.19
297.76	1724.39
297.98	1634.28
298.19	1667.05
298.41	1798.12
298.62	1654.76
298.83	1789.92
299.05	1757.16
299.26	1685.48
299.48	1630.18
299.69	1755.11
299.90	1738.73
300.12	1642.47
300.33	1742.82
300.55	1712.10
300.76	1587.18
300.98	1591.27
301.19	1708.01
301.40	1720.29
301.62	1667.05
301.83	1660.90
302.05	1730.53
302.26	1701.86
302.47	1777.64
302.69	1640.42
302.90	1697.77
303.12	1624.04
303.33	1746.92
303.54	1779.68
303.76	1697.77
303.97	1734.63
304.19	1722.34
304.40	1634.28
304.61	1730.53
304.83	1779.68
305.04	1773.54
305.26	1710.05
305.47	1712.10
305.68	1681.38
305.90	1677.29
306.11	1738.73
306.33	1673.19
306.54	1689.57
306.75	1708.01
306.97	1677.29
307.18	1646.57
307.39	1640.42
307.61	1738.73
307.82	1697.77
308.04	1771.49
308.25	1701.86
308.46	1718.25
308.68	1605.61
308.89	1718.25
309.10	1738.73
309.32	1638.38
309.53	1689.57
309.74	1716.20
309.96	1736.68
310.17	1714.15
310.39	1708.01
310.60	1644.52
310.81	1705.96
311.03	1650.66
311.24	1742.82
311.45	1644.52
311.67	1753.06
311.88	1814.50
312.09	1687.53
312.31	1656.81
312.52	1701.86
312.73	1748.97
312.95	1693.67
313.16	1730.53
313.37	1789.92
313.59	1755.11
313.80	1685.48
314.01	1771.49
314.23	1603.56
314.44	1675.24
314.65	1613.80
314.87	1574.89
315.08	1634.28
315.29	1730.53
315.51	1699.81
315.72	1628.14
315.93	1787.88
316.15	1822.69
316.36	1652.71
316.57	1726.44
316.79	1744.87
317.00	1748.97
317.21	1759.21
317.43	1740.77
317.64	1816.55
317.85	1642.47
318.07	1685.48
318.28	1798.12
318.49	1951.71
318.70	1931.23
318.92	1931.23
319.13	1961.95
319.34	1869.80
319.56	1810.40
319.77	1869.80
319.98	1785.83
320.20	1857.51
320.41	1710.05
320.62	1771.49
320.83	1701.86
321.05	1800.16
321.26	1755.11
321.47	1720.29
321.69	1757.16
321.90	1697.77
322.11	1718.25
322.32	1687.53
322.54	1800.16
322.75	1705.96
322.96	1837.03
323.18	1603.56
323.39	1617.90
323.60	1691.62
323.81	1748.97
324.03	1621.99
324.24	1646.57
324.45	1679.33
324.66	1699.81
324.88	1734.63
325.09	1738.73
325.30	1730.53
325.52	1714.15
325.73	1695.72
325.94	1656.81
326.15	1548.26
326.37	1697.77
326.58	1751.01
326.79	1777.64
327.00	1693.67
327.22	1738.73
327.43	1626.09
327.64	1648.61
327.85	1777.64
328.07	1619.94
328.28	1740.77
328.49	1665.00
328.70	1699.81
328.92	1683.43
329.13	1720.29
329.34	1785.83
329.55	1775.59
329.76	1830.88
329.98	1714.15
330.19	1746.92
330.40	1769.44
330.61	1808.36
330.83	1726.44
331.04	1574.89
331.25	1677.29
331.46	1675.24
331.68	1617.90
331.89	1779.68
332.10	1753.06
332.31	1638.38
332.52	1718.25
332.74	1718.25
332.95	1654.76
333.16	1746.92
333.37	1734.63
333.58	1585.13
333.80	1703.91
334.01	1648.61
334.22	1720.29
334.43	1642.47
334.64	1621.99
334.86	1628.14
335.07	1673.19
335.28	1765.35
335.49	1628.14
335.70	1697.77
335.92	1779.68
336.13	1908.71
336.34	1755.11
336.55	1728.49
336.76	1726.44
336.98	1611.75
337.19	1800.16
337.40	1814.50
337.61	1810.40
337.82	1791.97
338.04	1800.16
338.25	1658.85
338.46	1789.92
338.67	1634.28
338.88	1691.62
339.09	1673.19
339.31	1652.71
339.52	1626.09
339.73	1630.18
339.94	1800.16
340.15	1746.92
340.36	1716.20
340.58	1714.15
340.79	1691.62
341.00	1769.44
341.21	1646.57
341.42	1773.54
341.63	1679.33
341.85	1773.54
342.06	1712.10
342.27	1681.38
342.48	1720.29
342.69	1628.14
342.90	1777.64
343.12	1777.64
343.33	1691.62
343.54	1798.12
343.75	1773.54
343.96	1744.87
344.17	1726.44
344.38	1691.62
344.60	1660.90
344.81	1642.47
345.02	1710.05
345.23	1767.40
345.44	1886.18
345.65	1767.40
345.86	1738.73
346.07	1722.34
346.29	1728.49
346.50	1693.67
346.71	1834.98
346.92	1767.40
347.13	1892.32
347.34	1701.86
347.55	1791.97
347.76	1658.85
347.98	1591.27
348.19	1771.49
348.40	1802.21
348.61	1671.14
348.82	1767.40
349.03	1673.19
349.24	1626.09
349.45	1875.94
349.66	1630.18
349.88	1681.38
350.09	1619.94
350.30	1847.27
350.51	1800.16
350.72	1748.97
350.93	1728.49
351.14	1681.38
351.35	1675.24
351.56	1726.44
351.77	1722.34
351.99	1734.63
352.20	1851.36
352.41	1730.53
352.62	1607.66
352.83	1710.05
353.04	1646.57
353.25	1687.53
353.46	1796.07
353.67	1738.73
353.88	1624.04
354.09	1757.16
354.30	1652.71
354.52	1736.68
354.73	1677.29
354.94	1677.29
355.15	1746.92
355.36	1785.83
355.57	1687.53
355.78	1718.25
355.99	1667.05
356.20	1722.34
356.41	1757.16
356.62	1787.88
356.83	1755.11
357.04	1742.82
357.25	1624.04
357.46	1781.73
357.68	1648.61
357.89	1679.33
358.10	1771.49
358.31	1718.25
358.52	1716.20
358.73	1673.19
358.94	1724.39
359.15	1640.42
359.36	1679.33
359.57	1714.15
359.78	1691.62
359.99	1828.84
360.20	1658.85
360.41	1673.19
360.62	1765.35
360.83	1777.64
361.04	1740.77
361.25	1722.34
361.46	1812.45
361.67	1714.15
361.88	1718.25
362.09	1763.30
362.30	1744.87
362.51	1675.24
362.72	1716.20
362.93	1779.68
363.14	1734.63
363.35	1665.00
363.56	1722.34
363.78	1781.73
363.99	1738.73
364.20	1671.14
364.41	1677.29
364.62	1783.78
364.83	1724.39
365.04	1759.21
365.25	1734.63
365.46	1808.36
365.67	1665.00
365.88	1681.38
366.09	1753.06
366.30	1724.39
366.51	1683.43
366.72	1708.01
366.93	1748.97
367.14	1705.96
367.35	1802.21
367.56	1755.11
367.77	1775.59
367.98	1656.81
368.18	1695.72
368.39	1722.34
368.60	1722.34
368.81	1753.06
369.02	1673.19
369.23	1708.01
369.44	1699.81
369.65	1628.14
369.86	1728.49
370.07	1628.14
370.28	1724.39
370.49	1716.20
370.70	1716.20
370.91	1677.29
371.12	1667.05
371.33	1746.92
371.54	1710.05
371.75	1736.68
371.96	1648.61
372.17	1677.29
372.38	1722.34
372.59	1751.01
372.80	1667.05
373.01	1677.29
373.22	1755.11
373.43	1703.91
373.64	1677.29
373.85	1779.68
374.06	1771.49
374.26	1785.83
374.47	1720.29
374.68	1730.53
374.89	1740.77
375.10	1705.96
375.31	1771.49
375.52	1650.66
375.73	1703.91
375.94	1654.76
376.15	1818.60
376.36	1665.00
376.57	1648.61
376.78	1677.29
376.99	1736.68
377.20	1734.63
377.40	1708.01
377.61	1814.50
377.82	1640.42
378.03	1800.16
378.24	1722.34
378.45	1712.10
378.66	1820.64
378.87	1634.28
379.08	1654.76
379.29	1669.09
379.50	1753.06
379.71	1619.94
379.91	1751.01
380.12	1726.44
380.33	1828.84
380.54	1720.29
380.75	1742.82
380.96	1695.72
381.17	1769.44
381.38	1697.77
381.59	1822.69
381.80	1787.88
382.00	1937.38
382.21	1779.68
382.42	1861.60
382.63	1841.12
382.84	1798.12
383.05	1810.40
383.26	1804.26
383.47	1744.87
383.68	1753.06
383.88	1701.86
384.09	1708.01
384.30	1800.16
384.51	1771.49
384.72	1708.01
384.93	1689.57
385.14	1730.53
385.35	1822.69
385.55	1529.83
385.76	1787.88
385.97	1722.34
386.18	1642.47
386.39	1718.25
386.60	1658.85
386.81	1738.73
387.02	1636.33
387.22	1632.23
387.43	1804.26
387.64	1761.25
387.85	1927.14
388.06	2248.67
388.27	4724.66
388.48	9066.36
388.68	11773.77
388.89	13604.66
389.10	14206.76
389.31	12048.20
389.52	9742.19
389.73	8742.78
389.93	7958.41
390.14	7313.30
390.35	6573.98
390.56	6029.22
390.77	4933.56
390.98	3825.61
391.18	3076.05
391.39	2396.12
391.60	2000.87
391.81	1810.40
392.02	1728.49
392.23	1820.64
392.43	1724.39
392.64	1857.51
392.85	1701.86
393.06	1880.04
393.27	1757.16
393.47	1722.34
393.68	1734.63
393.89	1687.53
394.10	1777.64
394.31	1728.49
394.52	1652.71
394.72	1665.00
394.93	1871.84
395.14	1693.67
395.35	1695.72
395.56	1662.95
395.76	1699.81
395.97	1828.84
396.18	1857.51
396.39	1890.28
396.60	2093.02
396.80	1902.56
397.01	1865.70
397.22	1900.52
397.43	1902.56
397.64	1763.30
397.84	1769.44
398.05	1914.85
398.26	1771.49
398.47	1771.49
398.67	1880.04
398.88	1687.53
399.09	1736.68
399.30	1734.63
399.51	1781.73
399.71	1720.29
399.92	1669.09
400.13	1834.98
400.34	1701.86
400.54	1705.96
400.75	1863.65
400.96	1685.48
401.17	1855.46
401.37	1755.11
401.58	1738.73
401.79	1697.77
402.00	1812.45
402.21	2017.25
402.41	2035.68
402.62	2029.54
402.83	2246.62
403.04	2056.16
403.24	2152.42
403.45	1902.56
403.66	1976.29
403.87	1914.85
404.07	1896.42
404.28	2025.44
404.49	1976.29
404.70	1781.73
404.90	1828.84
405.11	1824.74
405.32	1701.86
405.52	1710.05
405.73	1708.01
405.94	1701.86
406.15	1724.39
406.35	1736.68
406.56	1726.44
406.77	1751.01
406.98	1708.01
407.18	1652.71
407.39	1789.92
407.60	1744.87
407.80	1710.05
408.01	1677.29
408.22	1757.16
408.43	1671.14
408.63	1791.97
408.84	1755.11
409.05	1742.82
409.25	1703.91
409.46	1626.09
409.67	1679.33
409.88	1675.24
410.08	1726.44
410.29	1607.66
410.50	1697.77
410.70	1755.11
410.91	1708.01
411.12	1746.92
411.32	1767.40
411.53	1691.62
411.74	1785.83
411.95	1802.21
412.15	1794.02
412.36	1796.07
412.57	1769.44
412.77	1839.08
412.98	1746.92
413.19	1693.67
413.39	1755.11
413.60	1693.67
413.81	1888.23
414.01	1669.09
414.22	1628.14
414.43	1818.60
414.63	1724.39
414.84	1757.16
415.05	1728.49
415.25	1695.72
415.46	1839.08
415.67	1652.71
415.87	1736.68
416.08	1734.63
416.29	1701.86
416.49	1775.59
416.70	1648.61
416.91	1703.91
417.11	1781.73
417.32	1791.97
417.53	1751.01
417.73	1703.91
417.94	1755.11
418.15	1775.59
418.35	1718.25
418.56	1658.85
418.77	1834.98
418.97	1673.19
419.18	1771.49
419.38	1603.56
419.59	1648.61
419.80	1808.36
420.00	1722.34
420.21	1740.77
420.42	1761.25
420.62	1718.25
420.83	1712.10
421.04	1730.53
421.24	1720.29
421.45	1794.02
421.65	1638.38
421.86	1701.86
422.07	1759.21
422.27	1748.97
422.48	1675.24
422.69	1699.81
422.89	1681.38
423.10	1695.72
423.30	1624.04
423.51	1716.20
423.72	1734.63
423.92	1800.16
424.13	1748.97
424.33	1673.19
424.54	1796.07
424.75	1724.39
424.95	1812.45
425.16	1712.10
425.36	1667.05
425.57	1697.77
425.78	1783.78
425.98	1767.40
426.19	1695.72
426.39	1642.47
426.60	1755.11
426.81	1767.40
427.01	1630.18
427.22	1726.44
427.42	1650.66
427.63	1734.63
427.83	1734.63
428.04	1820.64
428.25	1808.36
428.45	1703.91
428.66	1791.97
428.86	1677.29
429.07	1742.82
429.28	1830.88
429.48	1687.53
429.69	1656.81
429.89	1691.62
430.10	1648.61
430.30	1724.39
430.51	1708.01
430.71	1632.23
430.92	1761.25
431.13	1640.42
431.33	1767.40
431.54	1730.53
431.74	1757.16
431.95	1839.08
432.15	1609.70
432.36	1695.72
432.56	1767.40
432.77	1808.36
432.98	1830.88
433.18	1748.97
433.39	1693.67
433.59	1628.14
433.80	1804.26
434.00	1808.36
434.21	1669.09
434.41	1642.47
434.62	1863.65
434.82	1693.67
435.03	1675.24
435.23	1687.53
435.44	1634.28
435.64	1736.68
435.85	1759.21
436.06	1794.02
436.26	1748.97
436.47	1624.04
436.67	1710.05
436.88	1599.46
437.08	1751.01
437.29	1802.21
437.49	1755.11
437.70	1763.30
437.90	1738.73
438.11	1906.66
438.31	1853.41
438.52	1873.89
438.72	1939.43
438.93	1875.94
439.13	1806.31
439.34	1814.50
439.54	1796.07
439.75	1785.83
439.95	1812.45
440.16	1806.31
440.36	1826.79
440.57	1730.53
440.77	1742.82
440.98	1773.54
441.18	1783.78
441.39	1640.42
441.59	1755.11
441.80	1849.32
442.00	1703.91
442.21	1875.94
442.41	1714.15
442.62	1724.39
442.82	1642.47
443.02	1716.20
443.23	1703.91
443.43	1726.44
443.64	1820.64
443.84	1708.01
444.05	1837.03
444.25	1816.55
444.46	1722.34
444.66	1789.92
444.87	1888.23
445.07	1677.29
445.28	1718.25
445.48	1761.25
445.69	1769.44
445.89	1955.81
446.09	1724.39
446.30	2009.06
446.50	2662.36
446.71	4171.71
446.91	5156.79
447.12	5947.30
447.32	5920.68
447.53	5398.45
447.73	4495.29
447.93	4011.97
448.14	3712.97
448.34	3422.16
448.55	3110.86
448.75	3088.34
448.96	2959.31
449.16	2648.02
449.36	2396.12
449.57	2136.03
449.77	1939.43
449.98	1800.16
450.18	1841.12
450.39	1916.90
450.59	1818.60
450.79	1728.49
451.00	1677.29
451.20	1800.16
451.41	1736.68
451.61	1705.96
451.81	1767.40
452.02	1769.44
452.22	1673.19
452.43	1669.09
452.63	1744.87
