SpectraSuite Data File
++++++++++++++++++++++++++++++++++++
Date: Wed May 04 18:44:28 CEST 2016
User: root
Dark Spectrum Present: No
Reference Spectrum Present: No
Number of Sampled Component Spectra: 1
Spectrometers: USB4C02835
Integration Time (usec): 100000 (USB4C02835)
Spectra Averaged: 1 (USB4C02835)
Boxcar Smoothing: 0 (USB4C02835)
Correct for Electrical Dark: No (USB4C02835)
Strobe/Lamp Enabled: No (USB4C02835)
Correct for Detector Non-linearity: No (USB4C02835)
Correct for Stray Light: No (USB4C02835)
Number of Pixels in Processed Spectrum: 3648
>>>>>Begin Processed Spectral Data<<<<<
177.47	1509.35
177.69	1509.35
177.91	1509.35
178.13	1452.01
178.36	1492.97
178.58	1638.38
178.80	1738.73
179.02	1611.75
179.24	1722.34
179.46	1654.76
179.68	1746.92
179.90	1720.29
180.13	1632.23
180.35	1636.33
180.57	1665.00
180.79	1728.49
181.01	1648.61
181.23	1800.16
181.45	1744.87
181.67	1728.49
181.90	1755.11
182.12	1660.90
182.34	1716.20
182.56	1779.68
182.78	1744.87
183.00	1679.33
183.22	1722.34
183.44	1636.33
183.66	1847.27
183.89	1644.52
184.11	1660.90
184.33	1730.53
184.55	1738.73
184.77	1773.54
184.99	1683.43
185.21	1658.85
185.43	1949.67
185.65	1665.00
185.87	1654.76
186.10	1910.75
186.32	1933.28
186.54	1783.78
186.76	1806.31
186.98	1761.25
187.20	1671.14
187.42	1705.96
187.64	1673.19
187.86	1710.05
188.08	1732.58
188.30	1665.00
188.52	1697.77
188.75	1775.59
188.97	1783.78
189.19	1636.33
189.41	1677.29
189.63	1738.73
189.85	1716.20
190.07	1683.43
190.29	1601.51
190.51	1691.62
190.73	1679.33
190.95	1822.69
191.17	1667.05
191.39	1624.04
191.61	1732.58
191.84	1697.77
192.06	1746.92
192.28	1599.46
192.50	1880.04
192.72	1730.53
192.94	1718.25
193.16	1777.64
193.38	1761.25
193.60	1609.70
193.82	1736.68
194.04	1789.92
194.26	1697.77
194.48	1771.49
194.70	1720.29
194.92	1632.23
195.14	1806.31
195.36	1648.61
195.58	1648.61
195.80	1746.92
196.02	1687.53
196.24	1687.53
196.46	1753.06
196.69	1734.63
196.91	1871.84
197.13	1708.01
197.35	1675.24
197.57	1847.27
197.79	1798.12
198.01	1685.48
198.23	1642.47
198.45	1834.98
198.67	1640.42
198.89	1679.33
199.11	1628.14
199.33	1689.57
199.55	1665.00
199.77	1677.29
199.99	1765.35
200.21	1714.15
200.43	1681.38
200.65	1634.28
200.87	1624.04
201.09	1761.25
201.31	1746.92
201.53	1722.34
201.75	1660.90
201.97	1746.92
202.19	1681.38
202.41	1679.33
202.63	1826.79
202.85	1818.60
203.07	1738.73
203.29	1636.33
203.51	1675.24
203.73	1705.96
203.95	1959.91
204.17	1771.49
204.39	1753.06
204.61	1718.25
204.83	1689.57
205.05	1808.36
205.27	1820.64
205.49	1845.22
205.71	1732.58
205.93	1630.18
206.15	1660.90
206.37	1757.16
206.59	1642.47
206.81	1638.38
207.03	1628.14
207.25	1669.09
207.47	1773.54
207.69	1708.01
207.91	1822.69
208.13	1794.02
208.34	1683.43
208.56	1679.33
208.78	1705.96
209.00	1675.24
209.22	1714.15
209.44	1650.66
209.66	1667.05
209.88	1691.62
210.10	1767.40
210.32	1673.19
210.54	1765.35
210.76	1720.29
210.98	1732.58
211.20	1701.86
211.42	1683.43
211.64	1765.35
211.86	1757.16
212.08	1712.10
212.30	1679.33
212.52	1775.59
212.74	1769.44
212.96	1695.72
213.17	1669.09
213.39	1734.63
213.61	1787.88
213.83	1785.83
214.05	1673.19
214.27	1847.27
214.49	1628.14
214.71	1630.18
214.93	1765.35
215.15	1685.48
215.37	1789.92
215.59	1615.85
215.81	1708.01
216.03	1783.78
216.24	1724.39
216.46	1724.39
216.68	1691.62
216.90	1673.19
217.12	1740.77
217.34	1728.49
217.56	1693.67
217.78	1748.97
218.00	1720.29
218.22	1703.91
218.44	1798.12
218.66	1736.68
218.87	1816.55
219.09	1656.81
219.31	1728.49
219.53	1716.20
219.75	1621.99
219.97	1679.33
220.19	1660.90
220.41	1722.34
220.63	1857.51
220.85	1722.34
221.06	1708.01
221.28	1810.40
221.50	1699.81
221.72	1679.33
221.94	1677.29
222.16	1693.67
222.38	1736.68
222.60	1718.25
222.82	1673.19
223.03	1728.49
223.25	1644.52
223.47	1738.73
223.69	1751.01
223.91	1730.53
224.13	1675.24
224.35	1753.06
224.57	1759.21
224.78	1724.39
225.00	1716.20
225.22	1660.90
225.44	1693.67
225.66	1798.12
225.88	1755.11
226.10	1742.82
226.32	1722.34
226.53	1800.16
226.75	1748.97
226.97	1763.30
227.19	1716.20
227.41	1640.42
227.63	1665.00
227.85	1646.57
228.06	1732.58
228.28	1708.01
228.50	1773.54
228.72	1660.90
228.94	1746.92
229.16	1634.28
229.37	1677.29
229.59	1677.29
229.81	1882.08
230.03	1677.29
230.25	1646.57
230.47	1654.76
230.69	1656.81
230.90	1800.16
231.12	1650.66
231.34	1753.06
231.56	1771.49
231.78	1564.65
232.00	1728.49
232.21	1796.07
232.43	1662.95
232.65	1562.60
232.87	1763.30
233.09	1662.95
233.30	1701.86
233.52	1751.01
233.74	1695.72
233.96	1701.86
234.18	1699.81
234.40	1656.81
234.61	1849.32
234.83	1609.70
235.05	1675.24
235.27	1896.42
235.49	1751.01
235.70	1669.09
235.92	1787.88
236.14	1755.11
236.36	1861.60
236.58	1673.19
236.79	1763.30
237.01	1654.76
237.23	1628.14
237.45	1847.27
237.67	1751.01
237.88	1722.34
238.10	1859.56
238.32	1640.42
238.54	1648.61
238.76	1785.83
238.97	1675.24
239.19	1632.23
239.41	1748.97
239.63	1773.54
239.85	1755.11
240.06	1734.63
240.28	1648.61
240.50	1697.77
240.72	1630.18
240.93	1654.76
241.15	1765.35
241.37	1621.99
241.59	1746.92
241.81	1697.77
242.02	1681.38
242.24	1732.58
242.46	1791.97
242.68	1615.85
242.89	1730.53
243.11	1775.59
243.33	1732.58
243.55	1708.01
243.76	1765.35
243.98	1681.38
244.20	1718.25
244.42	1697.77
244.64	1742.82
244.85	1751.01
245.07	1597.42
245.29	1751.01
245.51	1626.09
245.72	1714.15
245.94	1818.60
246.16	1701.86
246.38	1734.63
246.59	1544.17
246.81	1601.51
247.03	1650.66
247.24	1628.14
247.46	1669.09
247.68	1796.07
247.90	1658.85
248.11	1714.15
248.33	1785.83
248.55	1705.96
248.77	1714.15
248.98	1763.30
249.20	1765.35
249.42	1746.92
249.64	1681.38
249.85	1650.66
250.07	1648.61
250.29	1703.91
250.50	1673.19
250.72	1644.52
250.94	1667.05
251.16	1746.92
251.37	1787.88
251.59	1699.81
251.81	1720.29
252.02	1826.79
252.24	1742.82
252.46	1779.68
252.68	1650.66
252.89	1593.32
253.11	1626.09
253.33	1791.97
253.54	1757.16
253.76	1669.09
253.98	1710.05
254.20	1732.58
254.41	1628.14
254.63	1728.49
254.85	1724.39
255.06	1693.67
255.28	1669.09
255.50	1701.86
255.71	1677.29
255.93	1601.51
256.15	1583.08
256.36	1822.69
256.58	1665.00
256.80	1695.72
257.02	1710.05
257.23	1722.34
257.45	1675.24
257.67	1830.88
257.88	1646.57
258.10	1722.34
258.32	1705.96
258.53	1736.68
258.75	1728.49
258.97	1669.09
259.18	1802.21
259.40	1681.38
259.62	1779.68
259.83	1734.63
260.05	1757.16
260.27	1986.53
260.48	1791.97
260.70	1683.43
260.92	1734.63
261.13	1685.48
261.35	1726.44
261.57	1714.15
261.78	1615.85
262.00	1624.04
262.22	1640.42
262.43	1642.47
262.65	1738.73
262.86	1789.92
263.08	1832.93
263.30	1710.05
263.51	1624.04
263.73	1708.01
263.95	1837.03
264.16	1558.50
264.38	1646.57
264.60	1730.53
264.81	1693.67
265.03	1699.81
265.25	1787.88
265.46	1660.90
265.68	1777.64
265.89	1763.30
266.11	1677.29
266.33	1751.01
266.54	1748.97
266.76	1736.68
266.98	1738.73
267.19	1794.02
267.41	1839.08
267.62	1789.92
267.84	1603.56
268.06	1634.28
268.27	1748.97
268.49	1822.69
268.70	1785.83
268.92	1699.81
269.14	1716.20
269.35	1632.23
269.57	1703.91
269.79	1771.49
270.00	1658.85
270.22	1796.07
270.43	1648.61
270.65	1636.33
270.87	1705.96
271.08	1771.49
271.30	1763.30
271.51	1638.38
271.73	1685.48
271.95	1761.25
272.16	1740.77
272.38	1677.29
272.59	1738.73
272.81	1705.96
273.02	1632.23
273.24	1769.44
273.46	1699.81
273.67	1656.81
273.89	1724.39
274.10	1624.04
274.32	1798.12
274.54	1673.19
274.75	1697.77
274.97	1634.28
275.18	1669.09
275.40	1720.29
275.61	1679.33
275.83	1769.44
276.05	1578.98
276.26	1640.42
276.48	1742.82
276.69	1671.14
276.91	1667.05
277.12	1759.21
277.34	1798.12
277.55	1765.35
277.77	1757.16
277.99	1699.81
278.20	1669.09
278.42	1654.76
278.63	1740.77
278.85	1640.42
279.06	1697.77
279.28	1701.86
279.49	1712.10
279.71	1732.58
279.93	1732.58
280.14	1701.86
280.36	1636.33
280.57	1789.92
280.79	1748.97
281.00	1634.28
281.22	1712.10
281.43	1708.01
281.65	1601.51
281.86	1591.27
282.08	1794.02
282.29	1806.31
282.51	1652.71
282.73	1660.90
282.94	1603.56
283.16	1785.83
283.37	1851.36
283.59	1689.57
283.80	1718.25
284.02	1714.15
284.23	1716.20
284.45	1662.95
284.66	1689.57
284.88	1615.85
285.09	1755.11
285.31	1701.86
285.52	1720.29
285.74	1636.33
285.95	1796.07
286.17	1734.63
286.38	1740.77
286.60	1667.05
286.81	1634.28
287.03	1710.05
287.24	1720.29
287.46	1794.02
287.67	1617.90
287.89	1781.73
288.10	1773.54
288.32	1718.25
288.53	1767.40
288.75	1691.62
288.96	1748.97
289.18	1642.47
289.39	1712.10
289.61	1851.36
289.82	1804.26
290.04	1820.64
290.25	1677.29
290.47	1714.15
290.68	1644.52
290.90	1800.16
291.11	1574.89
291.33	1796.07
291.54	1626.09
291.76	1685.48
291.97	1779.68
292.18	1638.38
292.40	1673.19
292.61	1726.44
292.83	1816.55
293.04	1730.53
293.26	1665.00
293.47	1648.61
293.69	1656.81
293.90	1734.63
294.12	1824.74
294.33	1695.72
294.55	1650.66
294.76	1787.88
294.97	1771.49
295.19	1804.26
295.40	1658.85
295.62	1765.35
295.83	1771.49
296.05	1677.29
296.26	1769.44
296.48	1683.43
296.69	1681.38
296.90	1705.96
297.12	1718.25
297.33	1789.92
297.55	1683.43
297.76	1779.68
297.98	1841.12
298.19	1726.44
298.41	1757.16
298.62	1640.42
298.83	1767.40
299.05	1705.96
299.26	1751.01
299.48	1621.99
299.69	1705.96
299.90	1742.82
300.12	1605.61
300.33	1800.16
300.55	1726.44
300.76	1769.44
300.98	1660.90
301.19	1705.96
301.40	1710.05
301.62	1689.57
301.83	1650.66
302.05	1679.33
302.26	1716.20
302.47	1740.77
302.69	1615.85
302.90	1736.68
303.12	1589.22
303.33	1701.86
303.54	1839.08
303.76	1722.34
303.97	1712.10
304.19	1708.01
304.40	1675.24
304.61	1689.57
304.83	1810.40
305.04	1769.44
305.26	1669.09
305.47	1732.58
305.68	1667.05
305.90	1648.61
306.11	1748.97
306.33	1695.72
306.54	1615.85
306.75	1660.90
306.97	1599.46
307.18	1679.33
307.39	1763.30
307.61	1730.53
307.82	1669.09
308.04	1732.58
308.25	1642.47
308.46	1656.81
308.68	1763.30
308.89	1708.01
309.10	1767.40
309.32	1701.86
309.53	1705.96
309.74	1808.36
309.96	1738.73
310.17	1773.54
310.39	1611.75
310.60	1710.05
310.81	1738.73
311.03	1669.09
311.24	1734.63
311.45	1738.73
311.67	1806.31
311.88	1740.77
312.09	1746.92
312.31	1679.33
312.52	1701.86
312.73	1693.67
312.95	1671.14
313.16	1630.18
313.37	1751.01
313.59	1738.73
313.80	1781.73
314.01	1826.79
314.23	1718.25
314.44	1722.34
314.65	1617.90
314.87	1613.80
315.08	1687.53
315.29	1826.79
315.51	1634.28
315.72	1685.48
315.93	1769.44
316.15	1757.16
316.36	1701.86
316.57	1701.86
316.79	1695.72
317.00	1716.20
317.21	1744.87
317.43	1697.77
317.64	1789.92
317.85	1722.34
318.07	1720.29
318.28	1712.10
318.49	1882.08
318.70	1992.67
318.92	1900.52
319.13	1898.47
319.34	1939.43
319.56	1791.97
319.77	1902.56
319.98	1816.55
320.20	1755.11
320.41	1773.54
320.62	1769.44
320.83	1644.52
321.05	1783.78
321.26	1736.68
321.47	1710.05
321.69	1767.40
321.90	1624.04
322.11	1640.42
322.32	1677.29
322.54	1769.44
322.75	1689.57
322.96	1886.18
323.18	1595.37
323.39	1624.04
323.60	1712.10
323.81	1730.53
324.03	1632.23
324.24	1751.01
324.45	1703.91
324.66	1734.63
324.88	1775.59
325.09	1751.01
325.30	1697.77
325.52	1798.12
325.73	1677.29
325.94	1646.57
326.15	1675.24
326.37	1646.57
326.58	1712.10
326.79	1716.20
327.00	1710.05
327.22	1734.63
327.43	1671.14
327.64	1679.33
327.85	1720.29
328.07	1812.45
328.28	1744.87
328.49	1708.01
328.70	1748.97
328.92	1699.81
329.13	1714.15
329.34	1724.39
329.55	1834.98
329.76	1789.92
329.98	1726.44
330.19	1755.11
330.40	1722.34
330.61	1777.64
330.83	1726.44
331.04	1652.71
331.25	1804.26
331.46	1626.09
331.68	1621.99
331.89	1816.55
332.10	1685.48
332.31	1656.81
332.52	1804.26
332.74	1761.25
332.95	1617.90
333.16	1675.24
333.37	1726.44
333.58	1644.52
333.80	1744.87
334.01	1619.94
334.22	1748.97
334.43	1609.70
334.64	1697.77
334.86	1615.85
335.07	1646.57
335.28	1837.03
335.49	1669.09
335.70	1648.61
335.92	1746.92
336.13	1800.16
336.34	1722.34
336.55	1646.57
336.76	1748.97
336.98	1642.47
337.19	1746.92
337.40	1845.22
337.61	1775.59
337.82	1728.49
338.04	1683.43
338.25	1683.43
338.46	1671.14
338.67	1714.15
338.88	1681.38
339.09	1667.05
339.31	1626.09
339.52	1609.70
339.73	1710.05
339.94	1718.25
340.15	1820.64
340.36	1712.10
340.58	1730.53
340.79	1630.18
341.00	1742.82
341.21	1648.61
341.42	1837.03
341.63	1646.57
341.85	1730.53
342.06	1744.87
342.27	1677.29
342.48	1841.12
342.69	1720.29
342.90	1773.54
343.12	1689.57
343.33	1708.01
343.54	1800.16
343.75	1785.83
343.96	1624.04
344.17	1699.81
344.38	1734.63
344.60	1687.53
344.81	1644.52
345.02	1689.57
345.23	1716.20
345.44	1871.84
345.65	1771.49
345.86	1708.01
346.07	1681.38
346.29	1714.15
346.50	1773.54
346.71	1773.54
346.92	1896.42
347.13	1832.93
347.34	1728.49
347.55	1751.01
347.76	1724.39
347.98	1673.19
348.19	1689.57
348.40	1716.20
348.61	1669.09
348.82	1777.64
349.03	1767.40
349.24	1683.43
349.45	1796.07
349.66	1621.99
349.88	1681.38
350.09	1656.81
350.30	1789.92
350.51	1798.12
350.72	1773.54
350.93	1683.43
351.14	1681.38
351.35	1728.49
351.56	1736.68
351.77	1767.40
351.99	1746.92
352.20	1843.17
352.41	1773.54
352.62	1607.66
352.83	1671.14
353.04	1712.10
353.25	1683.43
353.46	1779.68
353.67	1771.49
353.88	1585.13
354.09	1671.14
354.30	1681.38
354.52	1720.29
354.73	1728.49
354.94	1687.53
355.15	1695.72
355.36	1789.92
355.57	1658.85
355.78	1687.53
355.99	1681.38
356.20	1730.53
356.41	1812.45
356.62	1720.29
356.83	1710.05
357.04	1720.29
357.25	1667.05
357.46	1675.24
357.68	1662.95
357.89	1630.18
358.10	1800.16
358.31	1683.43
358.52	1740.77
358.73	1708.01
358.94	1742.82
359.15	1617.90
359.36	1691.62
359.57	1730.53
359.78	1685.48
359.99	1677.29
360.20	1712.10
360.41	1703.91
360.62	1738.73
360.83	1705.96
361.04	1730.53
361.25	1787.88
361.46	1773.54
361.67	1796.07
361.88	1695.72
362.09	1701.86
362.30	1697.77
362.51	1683.43
362.72	1722.34
362.93	1658.85
363.14	1736.68
363.35	1779.68
363.56	1693.67
363.78	1699.81
363.99	1757.16
364.20	1726.44
364.41	1755.11
364.62	1834.98
364.83	1757.16
365.04	1640.42
365.25	1642.47
365.46	1730.53
365.67	1658.85
365.88	1683.43
366.09	1716.20
366.30	1683.43
366.51	1726.44
366.72	1687.53
366.93	1699.81
367.14	1759.21
367.35	1830.88
367.56	1718.25
367.77	1757.16
367.98	1759.21
368.18	1716.20
368.39	1699.81
368.60	1693.67
368.81	1746.92
369.02	1787.88
369.23	1753.06
369.44	1601.51
369.65	1722.34
369.86	1779.68
370.07	1771.49
370.28	1703.91
370.49	1701.86
370.70	1798.12
370.91	1673.19
371.12	1599.46
371.33	1767.40
371.54	1634.28
371.75	1847.27
371.96	1546.22
372.17	1730.53
372.38	1720.29
372.59	1720.29
372.80	1712.10
373.01	1687.53
373.22	1798.12
373.43	1710.05
373.64	1605.61
373.85	1710.05
374.06	1808.36
374.26	1763.30
374.47	1751.01
374.68	1798.12
374.89	1751.01
375.10	1708.01
375.31	1822.69
375.52	1695.72
375.73	1660.90
375.94	1613.80
376.15	1759.21
376.36	1710.05
376.57	1708.01
376.78	1728.49
376.99	1738.73
377.20	1771.49
377.40	1632.23
377.61	1814.50
377.82	1652.71
378.03	1779.68
378.24	1773.54
378.45	1705.96
378.66	1693.67
378.87	1597.42
379.08	1624.04
379.29	1630.18
379.50	1755.11
379.71	1648.61
379.91	1779.68
380.12	1683.43
380.33	1697.77
380.54	1679.33
380.75	1722.34
380.96	1769.44
381.17	1681.38
381.38	1759.21
381.59	1804.26
381.80	1714.15
382.00	1898.47
382.21	1834.98
382.42	1867.75
382.63	1880.04
382.84	1808.36
383.05	1800.16
383.26	1830.88
383.47	1732.58
383.68	1751.01
383.88	1710.05
384.09	1730.53
384.30	1830.88
384.51	1763.30
384.72	1708.01
384.93	1597.42
385.14	1722.34
385.35	1787.88
385.55	1689.57
385.76	1816.55
385.97	1689.57
386.18	1611.75
386.39	1665.00
386.60	1714.15
386.81	1689.57
387.02	1648.61
387.22	1689.57
387.43	1814.50
387.64	1796.07
387.85	1945.57
388.06	2258.91
388.27	4648.89
388.48	9135.99
388.68	11646.80
388.89	13233.97
389.10	14143.27
389.31	11597.65
389.52	9660.27
389.73	8509.31
389.93	7866.25
390.14	7133.08
390.35	6573.98
390.56	5805.99
390.77	4900.79
390.98	3837.89
391.18	3096.53
391.39	2394.08
391.60	2074.59
391.81	1894.37
392.02	1671.14
392.23	1857.51
392.43	1728.49
392.64	1847.27
392.85	1773.54
393.06	1777.64
393.27	1726.44
393.47	1626.09
393.68	1759.21
393.89	1730.53
394.10	1779.68
394.31	1667.05
394.52	1705.96
394.72	1656.81
394.93	1820.64
395.14	1648.61
395.35	1812.45
395.56	1720.29
395.76	1724.39
395.97	1812.45
396.18	1906.66
396.39	1908.71
396.60	2125.79
396.80	1925.09
397.01	1931.23
397.22	1832.93
397.43	1871.84
397.64	1779.68
397.84	1814.50
398.05	1837.03
398.26	1759.21
398.47	1730.53
398.67	1818.60
398.88	1691.62
399.09	1775.59
399.30	1673.19
399.51	1699.81
399.71	1720.29
399.92	1724.39
400.13	1718.25
400.34	1714.15
400.54	1744.87
400.75	1787.88
400.96	1714.15
401.17	1783.78
401.37	1712.10
401.58	1665.00
401.79	1734.63
402.00	1855.46
402.21	2138.08
402.41	2045.92
402.62	2097.12
402.83	2162.66
403.04	2146.27
403.24	2181.09
403.45	1894.37
403.66	1988.58
403.87	1871.84
404.07	1986.53
404.28	1990.63
404.49	1886.18
404.70	1824.74
404.90	1755.11
405.11	1841.12
405.32	1730.53
405.52	1656.81
405.73	1644.52
405.94	1669.09
406.15	1730.53
406.35	1761.25
406.56	1767.40
406.77	1734.63
406.98	1691.62
407.18	1665.00
407.39	1820.64
407.60	1761.25
407.80	1724.39
408.01	1697.77
408.22	1705.96
408.43	1732.58
408.63	1693.67
408.84	1757.16
409.05	1716.20
409.25	1716.20
409.46	1697.77
409.67	1746.92
409.88	1591.27
410.08	1703.91
410.29	1685.48
410.50	1726.44
410.70	1763.30
410.91	1689.57
411.12	1794.02
411.32	1736.68
411.53	1660.90
411.74	1845.22
411.95	1783.78
412.15	1775.59
412.36	1785.83
412.57	1771.49
412.77	1849.32
412.98	1769.44
413.19	1722.34
413.39	1748.97
413.60	1761.25
413.81	1783.78
414.01	1710.05
414.22	1847.27
414.43	1773.54
414.63	1740.77
414.84	1800.16
415.05	1734.63
415.25	1609.70
415.46	1744.87
415.67	1665.00
415.87	1720.29
416.08	1763.30
416.29	1746.92
416.49	1728.49
416.70	1638.38
416.91	1740.77
417.11	1695.72
417.32	1710.05
417.53	1759.21
417.73	1751.01
417.94	1763.30
418.15	1724.39
418.35	1697.77
418.56	1695.72
418.77	1865.70
418.97	1673.19
419.18	1673.19
419.38	1587.18
419.59	1757.16
419.80	1806.31
420.00	1695.72
420.21	1714.15
420.42	1763.30
420.62	1800.16
420.83	1681.38
421.04	1701.86
421.24	1722.34
421.45	1730.53
421.65	1728.49
421.86	1646.57
422.07	1736.68
422.27	1746.92
422.48	1751.01
422.69	1599.46
422.89	1679.33
423.10	1757.16
423.30	1669.09
423.51	1705.96
423.72	1714.15
423.92	1763.30
424.13	1570.79
424.33	1660.90
424.54	1791.97
424.75	1701.86
424.95	1812.45
425.16	1710.05
425.36	1720.29
425.57	1818.60
425.78	1693.67
425.98	1734.63
426.19	1714.15
426.39	1677.29
426.60	1675.24
426.81	1816.55
427.01	1753.06
427.22	1740.77
427.42	1683.43
427.63	1699.81
427.83	1748.97
428.04	1832.93
428.25	1810.40
428.45	1806.31
428.66	1767.40
428.86	1710.05
429.07	1658.85
429.28	1738.73
429.48	1714.15
429.69	1630.18
429.89	1761.25
430.10	1685.48
430.30	1734.63
430.51	1816.55
430.71	1730.53
430.92	1708.01
431.13	1681.38
431.33	1787.88
431.54	1740.77
431.74	1841.12
431.95	1853.41
432.15	1703.91
432.36	1732.58
432.56	1789.92
432.77	1804.26
432.98	1746.92
433.18	1759.21
433.39	1759.21
433.59	1714.15
433.80	1787.88
434.00	1853.41
434.21	1613.80
434.41	1730.53
434.62	1837.03
434.82	1654.76
435.03	1591.27
435.23	1746.92
435.44	1652.71
435.64	1773.54
435.85	1683.43
436.06	1769.44
436.26	1787.88
436.47	1742.82
436.67	1693.67
436.88	1685.48
437.08	1767.40
437.29	1730.53
437.49	1710.05
437.70	1703.91
437.90	1724.39
438.11	1834.98
438.31	1818.60
438.52	1939.43
438.72	1904.61
438.93	1964.00
439.13	1845.22
439.34	1867.75
439.54	1775.59
439.75	1814.50
439.95	1865.70
440.16	1714.15
440.36	1708.01
440.57	1812.45
440.77	1830.88
440.98	1726.44
441.18	1781.73
441.39	1720.29
441.59	1755.11
441.80	1820.64
442.00	1796.07
442.21	1849.32
442.41	1642.47
442.62	1751.01
442.82	1728.49
443.02	1699.81
443.23	1751.01
443.43	1751.01
443.64	1853.41
443.84	1724.39
444.05	1806.31
444.25	1751.01
444.46	1720.29
444.66	1724.39
444.87	1810.40
445.07	1665.00
445.28	1769.44
445.48	1880.04
445.69	1781.73
445.89	1925.09
446.09	1861.60
446.30	2041.82
446.50	2551.77
446.71	4097.99
446.91	5074.87
447.12	5822.38
447.32	5955.49
447.53	5318.57
447.73	4458.43
447.93	4093.89
448.14	3524.55
448.34	3418.06
448.55	3237.84
448.75	3022.80
448.96	2953.17
449.16	2652.12
449.36	2566.10
449.57	2189.28
449.77	1941.47
449.98	1826.79
450.18	1802.21
450.39	1816.55
450.59	1800.16
450.79	1681.38
451.00	1650.66
451.20	1843.17
451.41	1742.82
451.61	1722.34
451.81	1765.35
452.02	1716.20
452.22	1703.91
452.43	1783.78
452.63	1716.20
