SpectraSuite Data File
++++++++++++++++++++++++++++++++++++
Date: Wed May 04 18:44:29 CEST 2016
User: root
Dark Spectrum Present: No
Reference Spectrum Present: No
Number of Sampled Component Spectra: 1
Spectrometers: USB4C02835
Integration Time (usec): 100000 (USB4C02835)
Spectra Averaged: 1 (USB4C02835)
Boxcar Smoothing: 0 (USB4C02835)
Correct for Electrical Dark: No (USB4C02835)
Strobe/Lamp Enabled: No (USB4C02835)
Correct for Detector Non-linearity: No (USB4C02835)
Correct for Stray Light: No (USB4C02835)
Number of Pixels in Processed Spectrum: 3648
>>>>>Begin Processed Spectral Data<<<<<
177.47	1527.78
177.69	1527.78
177.91	1527.78
178.13	1484.78
178.36	1480.68
178.58	1708.01
178.80	1681.38
179.02	1607.66
179.24	1634.28
179.46	1687.53
179.68	1773.54
179.90	1712.10
180.13	1675.24
180.35	1650.66
180.57	1732.58
180.79	1769.44
181.01	1730.53
181.23	1654.76
181.45	1781.73
181.67	1671.14
181.90	1740.77
182.12	1638.38
182.34	1619.94
182.56	1775.59
182.78	1708.01
183.00	1665.00
183.22	1738.73
183.44	1695.72
183.66	1837.03
183.89	1771.49
184.11	1648.61
184.33	1791.97
184.55	1765.35
184.77	1773.54
184.99	1732.58
185.21	1554.41
185.43	1849.32
185.65	1628.14
185.87	1613.80
186.10	1824.74
186.32	1789.92
186.54	1720.29
186.76	1746.92
186.98	1779.68
187.20	1746.92
187.42	1658.85
187.64	1724.39
187.86	1714.15
188.08	1751.01
188.30	1697.77
188.52	1621.99
188.75	1777.64
188.97	1773.54
189.19	1634.28
189.41	1658.85
189.63	1701.86
189.85	1681.38
190.07	1656.81
190.29	1572.84
190.51	1742.82
190.73	1665.00
190.95	1763.30
191.17	1681.38
191.39	1691.62
191.61	1714.15
191.84	1683.43
192.06	1683.43
192.28	1642.47
192.50	1867.75
192.72	1812.45
192.94	1695.72
193.16	1695.72
193.38	1675.24
193.60	1697.77
193.82	1689.57
194.04	1753.06
194.26	1683.43
194.48	1738.73
194.70	1714.15
194.92	1691.62
195.14	1691.62
195.36	1654.76
195.58	1701.86
195.80	1619.94
196.02	1624.04
196.24	1654.76
196.46	1697.77
196.69	1669.09
196.91	1841.12
197.13	1603.56
197.35	1540.07
197.57	1759.21
197.79	1746.92
198.01	1693.67
198.23	1818.60
198.45	1755.11
198.67	1654.76
198.89	1665.00
199.11	1794.02
199.33	1665.00
199.55	1560.55
199.77	1738.73
199.99	1763.30
200.21	1679.33
200.43	1669.09
200.65	1673.19
200.87	1488.87
201.09	1701.86
201.31	1656.81
201.53	1710.05
201.75	1722.34
201.97	1710.05
202.19	1697.77
202.41	1654.76
202.63	1757.16
202.85	1697.77
203.07	1699.81
203.29	1685.48
203.51	1691.62
203.73	1628.14
203.95	1894.37
204.17	1763.30
204.39	1730.53
204.61	1742.82
204.83	1650.66
205.05	1740.77
205.27	1689.57
205.49	1853.41
205.71	1691.62
205.93	1671.14
206.15	1697.77
206.37	1699.81
206.59	1654.76
206.81	1628.14
207.03	1710.05
207.25	1650.66
207.47	1755.11
207.69	1691.62
207.91	1771.49
208.13	1767.40
208.34	1691.62
208.56	1644.52
208.78	1789.92
209.00	1687.53
209.22	1652.71
209.44	1697.77
209.66	1724.39
209.88	1648.61
210.10	1763.30
210.32	1705.96
210.54	1867.75
210.76	1654.76
210.98	1699.81
211.20	1562.60
211.42	1697.77
211.64	1710.05
211.86	1857.51
212.08	1703.91
212.30	1712.10
212.52	1714.15
212.74	1660.90
212.96	1703.91
213.17	1730.53
213.39	1728.49
213.61	1789.92
213.83	1806.31
214.05	1730.53
214.27	1736.68
214.49	1607.66
214.71	1667.05
214.93	1789.92
215.15	1683.43
215.37	1761.25
215.59	1695.72
215.81	1738.73
216.03	1796.07
216.24	1783.78
216.46	1554.41
216.68	1685.48
216.90	1785.83
217.12	1742.82
217.34	1665.00
217.56	1757.16
217.78	1765.35
218.00	1708.01
218.22	1681.38
218.44	1716.20
218.66	1667.05
218.87	1744.87
219.09	1689.57
219.31	1693.67
219.53	1773.54
219.75	1740.77
219.97	1669.09
220.19	1740.77
220.41	1740.77
220.63	1714.15
220.85	1660.90
221.06	1718.25
221.28	1769.44
221.50	1716.20
221.72	1695.72
221.94	1740.77
222.16	1718.25
222.38	1808.36
222.60	1730.53
222.82	1638.38
223.03	1791.97
223.25	1638.38
223.47	1798.12
223.69	1841.12
223.91	1755.11
224.13	1738.73
224.35	1646.57
224.57	1808.36
224.78	1689.57
225.00	1703.91
225.22	1736.68
225.44	1718.25
225.66	1814.50
225.88	1650.66
226.10	1765.35
226.32	1699.81
226.53	1863.65
226.75	1642.47
226.97	1671.14
227.19	1708.01
227.41	1632.23
227.63	1691.62
227.85	1644.52
228.06	1708.01
228.28	1742.82
228.50	1740.77
228.72	1714.15
228.94	1591.27
229.16	1636.33
229.37	1615.85
229.59	1673.19
229.81	1820.64
230.03	1701.86
230.25	1695.72
230.47	1734.63
230.69	1621.99
230.90	1740.77
231.12	1656.81
231.34	1726.44
231.56	1738.73
231.78	1615.85
232.00	1716.20
232.21	1777.64
232.43	1720.29
232.65	1566.70
232.87	1638.38
233.09	1656.81
233.30	1695.72
233.52	1748.97
233.74	1771.49
233.96	1708.01
234.18	1736.68
234.40	1669.09
234.61	1939.43
234.83	1679.33
235.05	1644.52
235.27	1882.08
235.49	1814.50
235.70	1724.39
235.92	1791.97
236.14	1746.92
236.36	1826.79
236.58	1675.24
236.79	1783.78
237.01	1683.43
237.23	1712.10
237.45	1667.05
237.67	1656.81
237.88	1740.77
238.10	1830.88
238.32	1685.48
238.54	1740.77
238.76	1718.25
238.97	1667.05
239.19	1703.91
239.41	1736.68
239.63	1808.36
239.85	1660.90
240.06	1634.28
240.28	1744.87
240.50	1771.49
240.72	1619.94
240.93	1712.10
241.15	1771.49
241.37	1685.48
241.59	1814.50
241.81	1697.77
242.02	1722.34
242.24	1712.10
242.46	1767.40
242.68	1636.33
242.89	1732.58
243.11	1822.69
243.33	1693.67
243.55	1640.42
243.76	1720.29
243.98	1673.19
244.20	1669.09
244.42	1703.91
244.64	1742.82
244.85	1669.09
245.07	1656.81
245.29	1697.77
245.51	1730.53
245.72	1732.58
245.94	1812.45
246.16	1740.77
246.38	1726.44
246.59	1681.38
246.81	1701.86
247.03	1705.96
247.24	1613.80
247.46	1621.99
247.68	1630.18
247.90	1691.62
248.11	1624.04
248.33	1734.63
248.55	1708.01
248.77	1722.34
248.98	1697.77
249.20	1775.59
249.42	1718.25
249.64	1753.06
249.85	1679.33
250.07	1671.14
250.29	1718.25
250.50	1738.73
250.72	1636.33
250.94	1677.29
251.16	1886.18
251.37	1738.73
251.59	1710.05
251.81	1791.97
252.02	1759.21
252.24	1687.53
252.46	1806.31
252.68	1738.73
252.89	1626.09
253.11	1660.90
253.33	1816.55
253.54	1726.44
253.76	1617.90
253.98	1675.24
254.20	1771.49
254.41	1615.85
254.63	1689.57
254.85	1640.42
255.06	1689.57
255.28	1763.30
255.50	1720.29
255.71	1646.57
255.93	1585.13
256.15	1599.46
256.36	1791.97
256.58	1621.99
256.80	1681.38
257.02	1646.57
257.23	1714.15
257.45	1703.91
257.67	1775.59
257.88	1683.43
258.10	1757.16
258.32	1640.42
258.53	1736.68
258.75	1771.49
258.97	1683.43
259.18	1705.96
259.40	1685.48
259.62	1865.70
259.83	1705.96
260.05	1773.54
260.27	2031.58
260.48	1779.68
260.70	1716.20
260.92	1660.90
261.13	1710.05
261.35	1728.49
261.57	1734.63
261.78	1685.48
262.00	1634.28
262.22	1705.96
262.43	1679.33
262.65	1746.92
262.86	1708.01
263.08	1837.03
263.30	1722.34
263.51	1607.66
263.73	1636.33
263.95	1783.78
264.16	1624.04
264.38	1658.85
264.60	1746.92
264.81	1667.05
265.03	1791.97
265.25	1714.15
265.46	1712.10
265.68	1748.97
265.89	1767.40
266.11	1550.31
266.33	1781.73
266.54	1794.02
266.76	1662.95
266.98	1730.53
267.19	1746.92
267.41	1775.59
267.62	1712.10
267.84	1648.61
268.06	1751.01
268.27	1710.05
268.49	1734.63
268.70	1759.21
268.92	1681.38
269.14	1683.43
269.35	1624.04
269.57	1658.85
269.79	1705.96
270.00	1599.46
270.22	1755.11
270.43	1630.18
270.65	1587.18
270.87	1755.11
271.08	1687.53
271.30	1755.11
271.51	1757.16
271.73	1662.95
271.95	1771.49
272.16	1665.00
272.38	1740.77
272.59	1734.63
272.81	1722.34
273.02	1781.73
273.24	1740.77
273.46	1755.11
273.67	1720.29
273.89	1617.90
274.10	1677.29
274.32	1800.16
274.54	1746.92
274.75	1757.16
274.97	1701.86
275.18	1730.53
275.40	1828.84
275.61	1716.20
275.83	1777.64
276.05	1599.46
276.26	1665.00
276.48	1726.44
276.69	1763.30
276.91	1738.73
277.12	1755.11
277.34	1665.00
277.55	1738.73
277.77	1652.71
277.99	1732.58
278.20	1677.29
278.42	1648.61
278.63	1660.90
278.85	1695.72
279.06	1662.95
279.28	1763.30
279.49	1740.77
279.71	1742.82
279.93	1662.95
280.14	1726.44
280.36	1648.61
280.57	1705.96
280.79	1662.95
281.00	1679.33
281.22	1667.05
281.43	1757.16
281.65	1636.33
281.86	1701.86
282.08	1755.11
282.29	1845.22
282.51	1638.38
282.73	1718.25
282.94	1673.19
283.16	1771.49
283.37	1804.26
283.59	1691.62
283.80	1775.59
284.02	1710.05
284.23	1744.87
284.45	1763.30
284.66	1726.44
284.88	1675.24
285.09	1671.14
285.31	1677.29
285.52	1728.49
285.74	1697.77
285.95	1748.97
286.17	1763.30
286.38	1804.26
286.60	1697.77
286.81	1683.43
287.03	1652.71
287.24	1751.01
287.46	1830.88
287.67	1699.81
287.89	1818.60
288.10	1734.63
288.32	1710.05
288.53	1705.96
288.75	1648.61
288.96	1773.54
289.18	1744.87
289.39	1656.81
289.61	1712.10
289.82	1861.60
290.04	1820.64
290.25	1640.42
290.47	1677.29
290.68	1617.90
290.90	1714.15
291.11	1638.38
291.33	1708.01
291.54	1636.33
291.76	1683.43
291.97	1705.96
292.18	1753.06
292.40	1703.91
292.61	1679.33
292.83	1843.17
293.04	1738.73
293.26	1689.57
293.47	1724.39
293.69	1615.85
293.90	1669.09
294.12	1775.59
294.33	1716.20
294.55	1699.81
294.76	1779.68
294.97	1738.73
295.19	1804.26
295.40	1667.05
295.62	1703.91
295.83	1751.01
296.05	1628.14
296.26	1802.21
296.48	1599.46
296.69	1656.81
296.90	1744.87
297.12	1742.82
297.33	1808.36
297.55	1722.34
297.76	1714.15
297.98	1781.73
298.19	1720.29
298.41	1646.57
298.62	1656.81
298.83	1730.53
299.05	1769.44
299.26	1701.86
299.48	1665.00
299.69	1769.44
299.90	1724.39
300.12	1665.00
300.33	1775.59
300.55	1757.16
300.76	1751.01
300.98	1615.85
301.19	1742.82
301.40	1660.90
301.62	1714.15
301.83	1724.39
302.05	1665.00
302.26	1755.11
302.47	1734.63
302.69	1646.57
302.90	1697.77
303.12	1689.57
303.33	1730.53
303.54	1738.73
303.76	1714.15
303.97	1718.25
304.19	1751.01
304.40	1626.09
304.61	1712.10
304.83	1746.92
305.04	1730.53
305.26	1746.92
305.47	1728.49
305.68	1716.20
305.90	1615.85
306.11	1794.02
306.33	1642.47
306.54	1689.57
306.75	1636.33
306.97	1589.22
307.18	1669.09
307.39	1665.00
307.61	1720.29
307.82	1642.47
308.04	1730.53
308.25	1728.49
308.46	1753.06
308.68	1748.97
308.89	1697.77
309.10	1808.36
309.32	1755.11
309.53	1708.01
309.74	1718.25
309.96	1726.44
310.17	1802.21
310.39	1673.19
310.60	1728.49
310.81	1683.43
311.03	1677.29
311.24	1796.07
311.45	1681.38
311.67	1798.12
311.88	1640.42
312.09	1611.75
312.31	1650.66
312.52	1685.48
312.73	1722.34
312.95	1691.62
313.16	1673.19
313.37	1746.92
313.59	1673.19
313.80	1783.78
314.01	1761.25
314.23	1689.57
314.44	1785.83
314.65	1605.61
314.87	1648.61
315.08	1732.58
315.29	1636.33
315.51	1675.24
315.72	1656.81
315.93	1744.87
316.15	1746.92
316.36	1681.38
316.57	1701.86
316.79	1691.62
317.00	1624.04
317.21	1767.40
317.43	1685.48
317.64	1759.21
317.85	1681.38
318.07	1697.77
318.28	1712.10
318.49	1828.84
318.70	1994.72
318.92	1918.95
319.13	1894.37
319.34	1988.58
319.56	1826.79
319.77	1861.60
319.98	1861.60
320.20	1847.27
320.41	1765.35
320.62	1773.54
320.83	1714.15
321.05	1863.65
321.26	1783.78
321.47	1730.53
321.69	1794.02
321.90	1640.42
322.11	1732.58
322.32	1708.01
322.54	1812.45
322.75	1650.66
322.96	1806.31
323.18	1648.61
323.39	1681.38
323.60	1650.66
323.81	1730.53
324.03	1660.90
324.24	1724.39
324.45	1773.54
324.66	1708.01
324.88	1697.77
325.09	1841.12
325.30	1769.44
325.52	1763.30
325.73	1744.87
325.94	1665.00
326.15	1673.19
326.37	1699.81
326.58	1787.88
326.79	1718.25
327.00	1730.53
327.22	1714.15
327.43	1646.57
327.64	1611.75
327.85	1759.21
328.07	1681.38
328.28	1765.35
328.49	1679.33
328.70	1748.97
328.92	1697.77
329.13	1701.86
329.34	1730.53
329.55	1824.74
329.76	1753.06
329.98	1675.24
330.19	1773.54
330.40	1697.77
330.61	1712.10
330.83	1865.70
331.04	1636.33
331.25	1665.00
331.46	1771.49
331.68	1658.85
331.89	1728.49
332.10	1708.01
332.31	1607.66
332.52	1654.76
332.74	1773.54
332.95	1591.27
333.16	1656.81
333.37	1712.10
333.58	1746.92
333.80	1665.00
334.01	1669.09
334.22	1710.05
334.43	1609.70
334.64	1673.19
334.86	1648.61
335.07	1650.66
335.28	1806.31
335.49	1703.91
335.70	1691.62
335.92	1822.69
336.13	1841.12
336.34	1734.63
336.55	1695.72
336.76	1701.86
336.98	1617.90
337.19	1703.91
337.40	1800.16
337.61	1767.40
337.82	1644.52
338.04	1775.59
338.25	1576.94
338.46	1699.81
338.67	1701.86
338.88	1667.05
339.09	1642.47
339.31	1662.95
339.52	1607.66
339.73	1660.90
339.94	1683.43
340.15	1767.40
340.36	1662.95
340.58	1763.30
340.79	1732.58
341.00	1708.01
341.21	1697.77
341.42	1826.79
341.63	1656.81
341.85	1765.35
342.06	1728.49
342.27	1703.91
342.48	1724.39
342.69	1644.52
342.90	1738.73
343.12	1718.25
343.33	1693.67
343.54	1830.88
343.75	1773.54
343.96	1736.68
344.17	1624.04
344.38	1736.68
344.60	1669.09
344.81	1726.44
345.02	1665.00
345.23	1767.40
345.44	1769.44
345.65	1798.12
345.86	1753.06
346.07	1632.23
346.29	1671.14
346.50	1710.05
346.71	1716.20
346.92	1818.60
347.13	1931.23
347.34	1652.71
347.55	1728.49
347.76	1767.40
347.98	1583.08
348.19	1693.67
348.40	1773.54
348.61	1644.52
348.82	1763.30
349.03	1679.33
349.24	1656.81
349.45	1812.45
349.66	1615.85
349.88	1763.30
350.09	1689.57
350.30	1783.78
350.51	1738.73
350.72	1660.90
350.93	1710.05
351.14	1722.34
351.35	1716.20
351.56	1681.38
351.77	1640.42
351.99	1626.09
352.20	1861.60
352.41	1773.54
352.62	1609.70
352.83	1671.14
353.04	1714.15
353.25	1689.57
353.46	1816.55
353.67	1740.77
353.88	1560.55
354.09	1716.20
354.30	1654.76
354.52	1773.54
354.73	1658.85
354.94	1695.72
355.15	1748.97
355.36	1834.98
355.57	1599.46
355.78	1796.07
355.99	1675.24
356.20	1722.34
356.41	1720.29
356.62	1669.09
356.83	1720.29
357.04	1787.88
357.25	1675.24
357.46	1681.38
357.68	1626.09
357.89	1722.34
358.10	1724.39
358.31	1755.11
358.52	1753.06
358.73	1566.70
358.94	1681.38
359.15	1755.11
359.36	1681.38
359.57	1703.91
359.78	1691.62
359.99	1691.62
360.20	1634.28
360.41	1691.62
360.62	1773.54
360.83	1726.44
361.04	1744.87
361.25	1699.81
361.46	1779.68
361.67	1726.44
361.88	1804.26
362.09	1734.63
362.30	1705.96
362.51	1662.95
362.72	1636.33
362.93	1808.36
363.14	1687.53
363.35	1695.72
363.56	1656.81
363.78	1726.44
363.99	1746.92
364.20	1673.19
364.41	1691.62
364.62	1787.88
364.83	1775.59
365.04	1619.94
365.25	1642.47
365.46	1853.41
365.67	1630.18
365.88	1701.86
366.09	1648.61
366.30	1738.73
366.51	1742.82
366.72	1667.05
366.93	1640.42
367.14	1675.24
367.35	1818.60
367.56	1673.19
367.77	1791.97
367.98	1701.86
368.18	1705.96
368.39	1640.42
368.60	1599.46
368.81	1781.73
369.02	1716.20
369.23	1660.90
369.44	1613.80
369.65	1660.90
369.86	1710.05
370.07	1824.74
370.28	1595.37
370.49	1751.01
370.70	1808.36
370.91	1591.27
371.12	1552.36
371.33	1791.97
371.54	1746.92
371.75	1755.11
371.96	1599.46
372.17	1722.34
372.38	1697.77
372.59	1789.92
372.80	1716.20
373.01	1675.24
373.22	1681.38
373.43	1734.63
373.64	1691.62
373.85	1812.45
374.06	1851.36
374.26	1734.63
374.47	1779.68
374.68	1746.92
374.89	1665.00
375.10	1712.10
375.31	1779.68
375.52	1796.07
375.73	1740.77
375.94	1593.32
376.15	1703.91
376.36	1708.01
376.57	1595.37
376.78	1681.38
376.99	1763.30
377.20	1724.39
377.40	1742.82
377.61	1822.69
377.82	1609.70
378.03	1818.60
378.24	1691.62
378.45	1705.96
378.66	1765.35
378.87	1652.71
379.08	1611.75
379.29	1730.53
379.50	1722.34
379.71	1691.62
379.91	1679.33
380.12	1667.05
380.33	1705.96
380.54	1699.81
380.75	1665.00
380.96	1703.91
381.17	1806.31
381.38	1705.96
381.59	1857.51
381.80	1728.49
382.00	1847.27
382.21	1787.88
382.42	1820.64
382.63	1867.75
382.84	1783.78
383.05	1777.64
383.26	1802.21
383.47	1834.98
383.68	1773.54
383.88	1775.59
384.09	1814.50
384.30	1863.65
384.51	1734.63
384.72	1691.62
384.93	1701.86
385.14	1744.87
385.35	1757.16
385.55	1677.29
385.76	1814.50
385.97	1767.40
386.18	1673.19
386.39	1665.00
386.60	1736.68
386.81	1718.25
387.02	1683.43
387.22	1615.85
387.43	1779.68
387.64	1859.56
387.85	1949.67
388.06	2205.66
388.27	4777.91
388.48	9168.76
388.68	11669.33
388.89	13319.99
389.10	14044.97
389.31	11820.88
389.52	9709.42
389.73	8603.52
389.93	7810.95
390.14	7292.82
390.35	6674.33
390.56	5969.83
390.77	4917.17
390.98	3878.85
391.18	3024.85
391.39	2324.44
391.60	1935.33
391.81	1892.32
392.02	1732.58
392.23	1953.76
392.43	1693.67
392.64	1722.34
392.85	1703.91
393.06	1755.11
393.27	1740.77
393.47	1671.14
393.68	1730.53
393.89	1738.73
394.10	1841.12
394.31	1701.86
394.52	1683.43
394.72	1642.47
394.93	1877.99
395.14	1669.09
395.35	1763.30
395.56	1701.86
395.76	1773.54
395.97	1783.78
396.18	1884.13
396.39	1875.94
396.60	2113.50
396.80	1949.67
397.01	1955.81
397.22	1873.89
397.43	1877.99
397.64	1777.64
397.84	1794.02
398.05	1873.89
398.26	1759.21
398.47	1738.73
398.67	1765.35
398.88	1685.48
399.09	1740.77
399.30	1697.77
399.51	1775.59
399.71	1636.33
399.92	1576.94
400.13	1705.96
400.34	1681.38
400.54	1748.97
400.75	1904.61
400.96	1736.68
401.17	1791.97
401.37	1740.77
401.58	1744.87
401.79	1712.10
402.00	1830.88
402.21	2035.68
402.41	2025.44
402.62	2058.21
402.83	2187.23
403.04	2095.07
403.24	2136.03
403.45	1935.33
403.66	1978.34
403.87	1900.52
404.07	1910.75
404.28	2035.68
404.49	1914.85
404.70	1820.64
404.90	1775.59
405.11	1757.16
405.32	1837.03
405.52	1675.24
405.73	1720.29
405.94	1669.09
406.15	1753.06
406.35	1753.06
406.56	1699.81
406.77	1613.80
406.98	1740.77
407.18	1669.09
407.39	1779.68
407.60	1679.33
407.80	1845.22
408.01	1597.42
408.22	1718.25
408.43	1619.94
408.63	1783.78
408.84	1783.78
409.05	1757.16
409.25	1671.14
409.46	1675.24
409.67	1636.33
409.88	1605.61
410.08	1708.01
410.29	1677.29
410.50	1775.59
410.70	1763.30
410.91	1689.57
411.12	1755.11
411.32	1701.86
411.53	1669.09
411.74	1826.79
411.95	1800.16
412.15	1765.35
412.36	1802.21
412.57	1849.32
412.77	1882.08
412.98	1796.07
413.19	1751.01
413.39	1804.26
413.60	1791.97
413.81	1802.21
414.01	1691.62
414.22	1781.73
414.43	1810.40
414.63	1724.39
414.84	1773.54
415.05	1656.81
415.25	1781.73
415.46	1742.82
415.67	1775.59
415.87	1773.54
416.08	1701.86
416.29	1701.86
416.49	1718.25
416.70	1740.77
416.91	1724.39
417.11	1708.01
417.32	1787.88
417.53	1722.34
417.73	1769.44
417.94	1728.49
418.15	1710.05
418.35	1759.21
418.56	1773.54
418.77	1812.45
418.97	1763.30
419.18	1736.68
419.38	1609.70
419.59	1751.01
419.80	1734.63
420.00	1740.77
420.21	1761.25
420.42	1773.54
420.62	1771.49
420.83	1660.90
421.04	1697.77
421.24	1673.19
421.45	1759.21
421.65	1650.66
421.86	1660.90
422.07	1738.73
422.27	1767.40
422.48	1671.14
422.69	1701.86
422.89	1675.24
423.10	1697.77
423.30	1744.87
423.51	1691.62
423.72	1697.77
423.92	1746.92
424.13	1591.27
424.33	1726.44
424.54	1761.25
424.75	1765.35
424.95	1820.64
425.16	1691.62
425.36	1685.48
425.57	1806.31
425.78	1771.49
425.98	1675.24
426.19	1781.73
426.39	1673.19
426.60	1757.16
426.81	1841.12
427.01	1714.15
427.22	1736.68
427.42	1646.57
427.63	1681.38
427.83	1796.07
428.04	1861.60
428.25	1794.02
428.45	1796.07
428.66	1689.57
428.86	1708.01
429.07	1675.24
429.28	1775.59
429.48	1791.97
429.69	1703.91
429.89	1697.77
430.10	1681.38
430.30	1693.67
430.51	1728.49
430.71	1626.09
430.92	1765.35
431.13	1636.33
431.33	1794.02
431.54	1748.97
431.74	1859.56
431.95	1853.41
432.15	1732.58
432.36	1665.00
432.56	1712.10
432.77	1873.89
432.98	1847.27
433.18	1728.49
433.39	1742.82
433.59	1617.90
433.80	1785.83
434.00	1914.85
434.21	1703.91
434.41	1687.53
434.62	1779.68
434.82	1714.15
435.03	1701.86
435.23	1800.16
435.44	1638.38
435.64	1660.90
435.85	1810.40
436.06	1744.87
436.26	1806.31
436.47	1673.19
436.67	1705.96
436.88	1763.30
437.08	1753.06
437.29	1757.16
437.49	1697.77
437.70	1769.44
437.90	1724.39
438.11	1859.56
438.31	1791.97
438.52	1980.39
438.72	1937.38
438.93	1968.10
439.13	1855.46
439.34	1800.16
439.54	1763.30
439.75	1818.60
439.95	1804.26
440.16	1718.25
440.36	1769.44
440.57	1804.26
440.77	1710.05
440.98	1738.73
441.18	1740.77
441.39	1673.19
441.59	1675.24
441.80	1867.75
442.00	1701.86
442.21	1738.73
442.41	1681.38
442.62	1761.25
442.82	1761.25
443.02	1710.05
443.23	1757.16
443.43	1755.11
443.64	1884.13
443.84	1677.29
444.05	1849.32
444.25	1699.81
444.46	1677.29
444.66	1671.14
444.87	1787.88
445.07	1648.61
445.28	1656.81
445.48	1884.13
445.69	1763.30
445.89	1890.28
446.09	1777.64
446.30	2011.11
446.50	2586.58
446.71	4151.23
446.91	5085.11
447.12	5797.80
447.32	5996.45
447.53	5248.94
447.73	4329.41
447.93	3991.49
448.14	3567.56
448.34	3512.27
448.55	3178.45
448.75	3155.92
448.96	2906.07
449.16	2566.10
449.36	2459.61
449.57	2109.41
449.77	1931.23
449.98	1791.97
450.18	1800.16
450.39	1837.03
450.59	1718.25
450.79	1712.10
451.00	1699.81
451.20	1744.87
451.41	1746.92
451.61	1665.00
451.81	1771.49
452.02	1673.19
452.22	1738.73
452.43	1701.86
452.63	1697.77
