SpectraSuite Data File
++++++++++++++++++++++++++++++++++++
Date: Wed May 04 18:44:05 CEST 2016
User: root
Dark Spectrum Present: No
Reference Spectrum Present: No
Number of Sampled Component Spectra: 1
Spectrometers: USB4C02835
Integration Time (usec): 100000 (USB4C02835)
Spectra Averaged: 1 (USB4C02835)
Boxcar Smoothing: 0 (USB4C02835)
Correct for Electrical Dark: No (USB4C02835)
Strobe/Lamp Enabled: No (USB4C02835)
Correct for Detector Non-linearity: No (USB4C02835)
Correct for Stray Light: No (USB4C02835)
Number of Pixels in Processed Spectrum: 3648
>>>>>Begin Processed Spectral Data<<<<<
177.47	1454.06
177.69	1454.06
177.91	1454.06
178.13	1517.54
178.36	1458.15
178.58	1681.38
178.80	1730.53
179.02	1607.66
179.24	1595.37
179.46	1710.05
179.68	1830.88
179.90	1714.15
180.13	1767.40
180.35	1656.81
180.57	1675.24
180.79	1773.54
181.01	1724.39
181.23	1800.16
181.45	1859.56
181.67	1738.73
181.90	1779.68
182.12	1753.06
182.34	1677.29
182.56	1748.97
182.78	1701.86
183.00	1669.09
183.22	1685.48
183.44	1642.47
183.66	1863.65
183.89	1826.79
184.11	1716.20
184.33	1816.55
184.55	1779.68
184.77	1701.86
184.99	1791.97
185.21	1769.44
185.43	1849.32
185.65	1744.87
185.87	1710.05
186.10	1826.79
186.32	1798.12
186.54	1759.21
186.76	1748.97
186.98	1769.44
187.20	1648.61
187.42	1722.34
187.64	1697.77
187.86	1701.86
188.08	1722.34
188.30	1722.34
188.52	1705.96
188.75	1757.16
188.97	1783.78
189.19	1662.95
189.41	1699.81
189.63	1732.58
189.85	1732.58
190.07	1667.05
190.29	1585.13
190.51	1691.62
190.73	1636.33
190.95	1771.49
191.17	1748.97
191.39	1656.81
191.61	1693.67
191.84	1716.20
192.06	1751.01
192.28	1703.91
192.50	1853.41
192.72	1701.86
192.94	1705.96
193.16	1726.44
193.38	1763.30
193.60	1624.04
193.82	1581.03
194.04	1738.73
194.26	1699.81
194.48	1689.57
194.70	1712.10
194.92	1615.85
195.14	1761.25
195.36	1716.20
195.58	1714.15
195.80	1708.01
196.02	1667.05
196.24	1652.71
196.46	1769.44
196.69	1718.25
196.91	1824.74
197.13	1714.15
197.35	1648.61
197.57	1804.26
197.79	1722.34
198.01	1728.49
198.23	1716.20
198.45	1705.96
198.67	1558.50
198.89	1660.90
199.11	1738.73
199.33	1662.95
199.55	1617.90
199.77	1771.49
199.99	1708.01
200.21	1673.19
200.43	1755.11
200.65	1712.10
200.87	1568.74
201.09	1738.73
201.31	1679.33
201.53	1742.82
201.75	1720.29
201.97	1691.62
202.19	1712.10
202.41	1685.48
202.63	1828.84
202.85	1742.82
203.07	1726.44
203.29	1783.78
203.51	1669.09
203.73	1650.66
203.95	1920.99
204.17	1716.20
204.39	1695.72
204.61	1697.77
204.83	1626.09
205.05	1816.55
205.27	1746.92
205.49	1822.69
205.71	1763.30
205.93	1710.05
206.15	1744.87
206.37	1626.09
206.59	1683.43
206.81	1619.94
207.03	1607.66
207.25	1615.85
207.47	1746.92
207.69	1683.43
207.91	1744.87
208.13	1794.02
208.34	1695.72
208.56	1742.82
208.78	1714.15
209.00	1701.86
209.22	1693.67
209.44	1693.67
209.66	1658.85
209.88	1705.96
210.10	1656.81
210.32	1708.01
210.54	1761.25
210.76	1703.91
210.98	1751.01
211.20	1634.28
211.42	1669.09
211.64	1814.50
211.86	1787.88
212.08	1753.06
212.30	1744.87
212.52	1746.92
212.74	1783.78
212.96	1753.06
213.17	1769.44
213.39	1769.44
213.61	1877.99
213.83	1671.14
214.05	1697.77
214.27	1746.92
214.49	1730.53
214.71	1581.03
214.93	1796.07
215.15	1632.23
215.37	1738.73
215.59	1628.14
215.81	1779.68
216.03	1771.49
216.24	1656.81
216.46	1755.11
216.68	1683.43
216.90	1828.84
217.12	1716.20
217.34	1722.34
217.56	1787.88
217.78	1736.68
218.00	1703.91
218.22	1708.01
218.44	1769.44
218.66	1720.29
218.87	1755.11
219.09	1658.85
219.31	1771.49
219.53	1708.01
219.75	1699.81
219.97	1716.20
220.19	1687.53
220.41	1732.58
220.63	1730.53
220.85	1718.25
221.06	1773.54
221.28	1724.39
221.50	1779.68
221.72	1712.10
221.94	1738.73
222.16	1722.34
222.38	1796.07
222.60	1783.78
222.82	1673.19
223.03	1781.73
223.25	1617.90
223.47	1820.64
223.69	1789.92
223.91	1775.59
224.13	1757.16
224.35	1677.29
224.57	1746.92
224.78	1751.01
225.00	1634.28
225.22	1669.09
225.44	1697.77
225.66	1705.96
225.88	1665.00
226.10	1808.36
226.32	1771.49
226.53	1748.97
226.75	1697.77
226.97	1738.73
227.19	1726.44
227.41	1671.14
227.63	1644.52
227.85	1701.86
228.06	1697.77
228.28	1789.92
228.50	1775.59
228.72	1765.35
228.94	1662.95
229.16	1615.85
229.37	1660.90
229.59	1677.29
229.81	1775.59
230.03	1660.90
230.25	1691.62
230.47	1656.81
230.69	1648.61
230.90	1697.77
231.12	1689.57
231.34	1695.72
231.56	1806.31
231.78	1636.33
232.00	1693.67
232.21	1755.11
232.43	1658.85
232.65	1583.08
232.87	1671.14
233.09	1658.85
233.30	1716.20
233.52	1796.07
233.74	1667.05
233.96	1683.43
234.18	1724.39
234.40	1736.68
234.61	1767.40
234.83	1648.61
235.05	1681.38
235.27	1839.08
235.49	1722.34
235.70	1742.82
235.92	1771.49
236.14	1718.25
236.36	1839.08
236.58	1685.48
236.79	1740.77
237.01	1730.53
237.23	1595.37
237.45	1812.45
237.67	1744.87
237.88	1689.57
238.10	1906.66
238.32	1644.52
238.54	1705.96
238.76	1679.33
238.97	1636.33
239.19	1705.96
239.41	1648.61
239.63	1751.01
239.85	1671.14
240.06	1718.25
240.28	1697.77
240.50	1730.53
240.72	1675.24
240.93	1742.82
241.15	1804.26
241.37	1689.57
241.59	1779.68
241.81	1740.77
242.02	1708.01
242.24	1740.77
242.46	1740.77
242.68	1712.10
242.89	1710.05
243.11	1822.69
243.33	1724.39
243.55	1757.16
243.76	1732.58
243.98	1675.24
244.20	1636.33
244.42	1708.01
244.64	1685.48
244.85	1646.57
245.07	1656.81
245.29	1681.38
245.51	1681.38
245.72	1736.68
245.94	1765.35
246.16	1695.72
246.38	1742.82
246.59	1628.14
246.81	1689.57
247.03	1757.16
247.24	1619.94
247.46	1640.42
247.68	1673.19
247.90	1726.44
248.11	1660.90
248.33	1714.15
248.55	1644.52
248.77	1738.73
248.98	1751.01
249.20	1791.97
249.42	1677.29
249.64	1767.40
249.85	1716.20
250.07	1677.29
250.29	1759.21
250.50	1775.59
250.72	1648.61
250.94	1699.81
251.16	1787.88
251.37	1808.36
251.59	1738.73
251.81	1765.35
252.02	1806.31
252.24	1681.38
252.46	1775.59
252.68	1693.67
252.89	1585.13
253.11	1628.14
253.33	1732.58
253.54	1787.88
253.76	1662.95
253.98	1689.57
254.20	1726.44
254.41	1654.76
254.63	1603.56
254.85	1660.90
255.06	1701.86
255.28	1757.16
255.50	1724.39
255.71	1683.43
255.93	1636.33
256.15	1671.14
256.36	1691.62
256.58	1685.48
256.80	1755.11
257.02	1710.05
257.23	1679.33
257.45	1654.76
257.67	1720.29
257.88	1644.52
258.10	1748.97
258.32	1775.59
258.53	1595.37
258.75	1851.36
258.97	1667.05
259.18	1691.62
259.40	1691.62
259.62	1845.22
259.83	1789.92
260.05	1812.45
260.27	1992.67
260.48	1773.54
260.70	1642.47
260.92	1662.95
261.13	1689.57
261.35	1691.62
261.57	1685.48
261.78	1654.76
262.00	1726.44
262.22	1769.44
262.43	1658.85
262.65	1736.68
262.86	1708.01
263.08	1859.56
263.30	1802.21
263.51	1591.27
263.73	1712.10
263.95	1794.02
264.16	1615.85
264.38	1726.44
264.60	1730.53
264.81	1763.30
265.03	1732.58
265.25	1759.21
265.46	1732.58
265.68	1822.69
265.89	1693.67
266.11	1656.81
266.33	1746.92
266.54	1767.40
266.76	1669.09
266.98	1742.82
267.19	1771.49
267.41	1785.83
267.62	1732.58
267.84	1617.90
268.06	1736.68
268.27	1714.15
268.49	1720.29
268.70	1808.36
268.92	1689.57
269.14	1667.05
269.35	1589.22
269.57	1687.53
269.79	1708.01
270.00	1681.38
270.22	1839.08
270.43	1687.53
270.65	1599.46
270.87	1714.15
271.08	1697.77
271.30	1751.01
271.51	1730.53
271.73	1834.98
271.95	1712.10
272.16	1732.58
272.38	1701.86
272.59	1689.57
272.81	1701.86
273.02	1710.05
273.24	1769.44
273.46	1775.59
273.67	1751.01
273.89	1679.33
274.10	1691.62
274.32	1761.25
274.54	1701.86
274.75	1710.05
274.97	1644.52
275.18	1767.40
275.40	1720.29
275.61	1693.67
275.83	1722.34
276.05	1701.86
276.26	1748.97
276.48	1777.64
276.69	1722.34
276.91	1681.38
277.12	1802.21
277.34	1742.82
277.55	1685.48
277.77	1654.76
277.99	1703.91
278.20	1689.57
278.42	1740.77
278.63	1669.09
278.85	1689.57
279.06	1679.33
279.28	1734.63
279.49	1757.16
279.71	1726.44
279.93	1671.14
280.14	1730.53
280.36	1671.14
280.57	1742.82
280.79	1746.92
281.00	1615.85
281.22	1689.57
281.43	1730.53
281.65	1619.94
281.86	1703.91
282.08	1695.72
282.29	1845.22
282.51	1681.38
282.73	1648.61
282.94	1644.52
283.16	1724.39
283.37	1769.44
283.59	1769.44
283.80	1740.77
284.02	1748.97
284.23	1708.01
284.45	1638.38
284.66	1654.76
284.88	1681.38
285.09	1722.34
285.31	1669.09
285.52	1730.53
285.74	1689.57
285.95	1765.35
286.17	1697.77
286.38	1708.01
286.60	1630.18
286.81	1624.04
287.03	1699.81
287.24	1744.87
287.46	1708.01
287.67	1734.63
287.89	1869.80
288.10	1697.77
288.32	1708.01
288.53	1775.59
288.75	1724.39
288.96	1691.62
289.18	1619.94
289.39	1644.52
289.61	1714.15
289.82	1830.88
290.04	1804.26
290.25	1681.38
290.47	1708.01
290.68	1714.15
290.90	1787.88
291.11	1617.90
291.33	1726.44
291.54	1708.01
291.76	1738.73
291.97	1746.92
292.18	1687.53
292.40	1742.82
292.61	1693.67
292.83	1904.61
293.04	1748.97
293.26	1648.61
293.47	1628.14
293.69	1667.05
293.90	1746.92
294.12	1800.16
294.33	1697.77
294.55	1695.72
294.76	1789.92
294.97	1728.49
295.19	1834.98
295.40	1660.90
295.62	1744.87
295.83	1736.68
296.05	1712.10
296.26	1650.66
296.48	1738.73
296.69	1763.30
296.90	1697.77
297.12	1740.77
297.33	1699.81
297.55	1677.29
297.76	1781.73
297.98	1767.40
298.19	1710.05
298.41	1679.33
298.62	1726.44
298.83	1785.83
299.05	1652.71
299.26	1636.33
299.48	1736.68
299.69	1753.06
299.90	1732.58
300.12	1650.66
300.33	1755.11
300.55	1697.77
300.76	1683.43
300.98	1621.99
301.19	1699.81
301.40	1642.47
301.62	1695.72
301.83	1726.44
302.05	1730.53
302.26	1714.15
302.47	1708.01
302.69	1662.95
302.90	1712.10
303.12	1564.65
303.33	1777.64
303.54	1841.12
303.76	1685.48
303.97	1755.11
304.19	1759.21
304.40	1654.76
304.61	1779.68
304.83	1832.93
305.04	1687.53
305.26	1736.68
305.47	1716.20
305.68	1730.53
305.90	1626.09
306.11	1765.35
306.33	1626.09
306.54	1712.10
306.75	1685.48
306.97	1652.71
307.18	1753.06
307.39	1710.05
307.61	1701.86
307.82	1734.63
308.04	1648.61
308.25	1673.19
308.46	1720.29
308.68	1777.64
308.89	1710.05
309.10	1701.86
309.32	1816.55
309.53	1662.95
309.74	1804.26
309.96	1771.49
310.17	1839.08
310.39	1673.19
310.60	1789.92
310.81	1728.49
311.03	1601.51
311.24	1785.83
311.45	1705.96
311.67	1855.46
311.88	1644.52
312.09	1689.57
312.31	1626.09
312.52	1701.86
312.73	1738.73
312.95	1679.33
313.16	1628.14
313.37	1671.14
313.59	1794.02
313.80	1783.78
314.01	1755.11
314.23	1591.27
314.44	1689.57
314.65	1662.95
314.87	1638.38
315.08	1675.24
315.29	1642.47
315.51	1714.15
315.72	1566.70
315.93	1796.07
316.15	1802.21
316.36	1679.33
316.57	1660.90
316.79	1759.21
317.00	1685.48
317.21	1767.40
317.43	1673.19
317.64	1705.96
317.85	1656.81
318.07	1767.40
318.28	1763.30
318.49	1822.69
318.70	1968.10
318.92	1939.43
319.13	1984.48
319.34	1933.28
319.56	1767.40
319.77	1832.93
319.98	1812.45
320.20	1933.28
320.41	1757.16
320.62	1781.73
320.83	1742.82
321.05	1824.74
321.26	1710.05
321.47	1777.64
321.69	1808.36
321.90	1708.01
322.11	1746.92
322.32	1734.63
322.54	1748.97
322.75	1673.19
322.96	1871.84
323.18	1570.79
323.39	1630.18
323.60	1710.05
323.81	1826.79
324.03	1728.49
324.24	1730.53
324.45	1685.48
324.66	1689.57
324.88	1769.44
325.09	1726.44
325.30	1820.64
325.52	1800.16
325.73	1695.72
325.94	1712.10
326.15	1605.61
326.37	1636.33
326.58	1755.11
326.79	1742.82
327.00	1658.85
327.22	1708.01
327.43	1671.14
327.64	1695.72
327.85	1722.34
328.07	1744.87
328.28	1834.98
328.49	1630.18
328.70	1724.39
328.92	1656.81
329.13	1685.48
329.34	1730.53
329.55	1855.46
329.76	1785.83
329.98	1724.39
330.19	1765.35
330.40	1783.78
330.61	1689.57
330.83	1640.42
331.04	1658.85
331.25	1728.49
331.46	1714.15
331.68	1652.71
331.89	1816.55
332.10	1646.57
332.31	1662.95
332.52	1742.82
332.74	1738.73
332.95	1607.66
333.16	1630.18
333.37	1740.77
333.58	1662.95
333.80	1744.87
334.01	1656.81
334.22	1685.48
334.43	1689.57
334.64	1597.42
334.86	1658.85
335.07	1689.57
335.28	1781.73
335.49	1601.51
335.70	1681.38
335.92	1787.88
336.13	1837.03
336.34	1845.22
336.55	1658.85
336.76	1746.92
336.98	1708.01
337.19	1742.82
337.40	1777.64
337.61	1816.55
337.82	1767.40
338.04	1775.59
338.25	1648.61
338.46	1568.74
338.67	1693.67
338.88	1658.85
339.09	1673.19
339.31	1669.09
339.52	1640.42
339.73	1665.00
339.94	1746.92
340.15	1730.53
340.36	1630.18
340.58	1695.72
340.79	1658.85
341.00	1787.88
341.21	1638.38
341.42	1787.88
341.63	1595.37
341.85	1730.53
342.06	1738.73
342.27	1656.81
342.48	1755.11
342.69	1685.48
342.90	1757.16
343.12	1732.58
343.33	1710.05
343.54	1734.63
343.75	1798.12
343.96	1708.01
344.17	1802.21
344.38	1738.73
344.60	1697.77
344.81	1677.29
345.02	1679.33
345.23	1726.44
345.44	1918.95
345.65	1769.44
345.86	1738.73
346.07	1722.34
346.29	1634.28
346.50	1705.96
346.71	1771.49
346.92	1755.11
347.13	1847.27
347.34	1662.95
347.55	1699.81
347.76	1748.97
347.98	1619.94
348.19	1685.48
348.40	1726.44
348.61	1644.52
348.82	1718.25
349.03	1865.70
349.24	1650.66
349.45	1798.12
349.66	1662.95
349.88	1710.05
350.09	1693.67
350.30	1808.36
350.51	1777.64
350.72	1687.53
350.93	1728.49
351.14	1695.72
351.35	1765.35
351.56	1722.34
351.77	1714.15
351.99	1763.30
352.20	1865.70
352.41	1773.54
352.62	1656.81
352.83	1656.81
353.04	1718.25
353.25	1685.48
353.46	1775.59
353.67	1751.01
353.88	1662.95
354.09	1763.30
354.30	1724.39
354.52	1767.40
354.73	1718.25
354.94	1642.47
355.15	1708.01
355.36	1779.68
355.57	1634.28
355.78	1742.82
355.99	1687.53
356.20	1677.29
356.41	1755.11
356.62	1722.34
356.83	1769.44
357.04	1753.06
357.25	1615.85
357.46	1699.81
357.68	1687.53
357.89	1593.32
358.10	1646.57
358.31	1736.68
358.52	1652.71
358.73	1611.75
358.94	1646.57
359.15	1656.81
359.36	1669.09
359.57	1818.60
359.78	1740.77
359.99	1712.10
360.20	1705.96
360.41	1685.48
360.62	1759.21
360.83	1734.63
361.04	1802.21
361.25	1662.95
361.46	1808.36
361.67	1861.60
361.88	1730.53
362.09	1712.10
362.30	1736.68
362.51	1685.48
362.72	1748.97
362.93	1812.45
363.14	1722.34
363.35	1736.68
363.56	1712.10
363.78	1824.74
363.99	1675.24
364.20	1679.33
364.41	1769.44
364.62	1769.44
364.83	1744.87
365.04	1726.44
365.25	1662.95
365.46	1826.79
365.67	1572.84
365.88	1681.38
366.09	1732.58
366.30	1697.77
366.51	1722.34
366.72	1679.33
366.93	1705.96
367.14	1703.91
367.35	1753.06
367.56	1718.25
367.77	1783.78
367.98	1732.58
368.18	1681.38
368.39	1738.73
368.60	1677.29
368.81	1769.44
369.02	1800.16
369.23	1712.10
369.44	1689.57
369.65	1697.77
369.86	1675.24
370.07	1720.29
370.28	1710.05
370.49	1759.21
370.70	1734.63
370.91	1726.44
371.12	1654.76
371.33	1808.36
371.54	1687.53
371.75	1759.21
371.96	1546.22
372.17	1667.05
372.38	1667.05
372.59	1714.15
372.80	1720.29
373.01	1722.34
373.22	1728.49
373.43	1665.00
373.64	1632.23
373.85	1759.21
374.06	1791.97
374.26	1751.01
374.47	1677.29
374.68	1759.21
374.89	1697.77
375.10	1728.49
375.31	1716.20
375.52	1728.49
375.73	1691.62
375.94	1673.19
376.15	1810.40
376.36	1683.43
376.57	1656.81
376.78	1736.68
376.99	1691.62
377.20	1849.32
377.40	1718.25
377.61	1834.98
377.82	1691.62
378.03	1755.11
378.24	1699.81
378.45	1779.68
378.66	1724.39
378.87	1656.81
379.08	1605.61
379.29	1673.19
379.50	1724.39
379.71	1771.49
379.91	1781.73
380.12	1673.19
380.33	1689.57
380.54	1720.29
380.75	1705.96
380.96	1685.48
381.17	1681.38
381.38	1742.82
381.59	1775.59
381.80	1802.21
382.00	1869.80
382.21	1808.36
382.42	1769.44
382.63	1898.47
382.84	1814.50
383.05	1781.73
383.26	1863.65
383.47	1759.21
383.68	1734.63
383.88	1718.25
384.09	1724.39
384.30	1787.88
384.51	1767.40
384.72	1736.68
384.93	1712.10
385.14	1720.29
385.35	1777.64
385.55	1636.33
385.76	1726.44
385.97	1699.81
386.18	1642.47
386.39	1710.05
386.60	1742.82
386.81	1746.92
387.02	1656.81
387.22	1736.68
387.43	1800.16
387.64	1839.08
387.85	1892.32
388.06	2279.39
388.27	4779.96
388.48	9017.21
388.68	11571.02
388.89	13344.56
389.10	13840.17
389.31	12099.40
389.52	9789.29
389.73	8707.96
389.93	7806.86
390.14	7151.51
390.35	6760.34
390.56	6057.89
390.77	5003.19
390.98	3979.20
391.18	3004.37
391.39	2430.94
391.60	1896.42
391.81	1863.65
392.02	1806.31
392.23	1900.52
392.43	1820.64
392.64	1824.74
392.85	1751.01
393.06	1863.65
393.27	1738.73
393.47	1689.57
393.68	1718.25
393.89	1685.48
394.10	1775.59
394.31	1691.62
394.52	1781.73
394.72	1630.18
394.93	1771.49
395.14	1642.47
395.35	1693.67
395.56	1675.24
395.76	1705.96
395.97	1769.44
396.18	1914.85
396.39	1900.52
396.60	2111.46
396.80	1957.86
397.01	1869.80
397.22	1882.08
397.43	1937.38
397.64	1789.92
397.84	1902.56
398.05	1837.03
398.26	1785.83
398.47	1804.26
398.67	1726.44
398.88	1705.96
399.09	1734.63
399.30	1773.54
399.51	1761.25
399.71	1720.29
399.92	1722.34
400.13	1712.10
400.34	1726.44
400.54	1767.40
400.75	1730.53
400.96	1691.62
401.17	1800.16
401.37	1744.87
401.58	1722.34
401.79	1744.87
402.00	1855.46
402.21	2164.70
402.41	2082.78
402.62	2093.02
402.83	2156.51
403.04	2136.03
403.24	2054.11
403.45	1925.09
403.66	2013.15
403.87	1968.10
404.07	1910.75
404.28	1976.29
404.49	1902.56
404.70	1865.70
404.90	1818.60
405.11	1767.40
405.32	1767.40
405.52	1683.43
405.73	1730.53
405.94	1724.39
406.15	1812.45
406.35	1822.69
406.56	1658.85
406.77	1697.77
406.98	1763.30
407.18	1632.23
407.39	1806.31
407.60	1763.30
407.80	1685.48
408.01	1673.19
408.22	1789.92
408.43	1669.09
408.63	1759.21
408.84	1714.15
409.05	1787.88
409.25	1638.38
409.46	1691.62
409.67	1712.10
409.88	1722.34
410.08	1671.14
410.29	1720.29
410.50	1689.57
410.70	1759.21
410.91	1611.75
411.12	1732.58
411.32	1705.96
411.53	1693.67
411.74	1820.64
411.95	1824.74
412.15	1763.30
412.36	1802.21
412.57	1832.93
412.77	1744.87
412.98	1736.68
413.19	1687.53
413.39	1794.02
413.60	1808.36
413.81	1798.12
414.01	1636.33
414.22	1767.40
414.43	1812.45
414.63	1730.53
414.84	1734.63
415.05	1730.53
415.25	1624.04
415.46	1783.78
415.67	1716.20
415.87	1738.73
416.08	1705.96
416.29	1718.25
416.49	1828.84
416.70	1701.86
416.91	1703.91
417.11	1636.33
417.32	1785.83
417.53	1722.34
417.73	1736.68
417.94	1710.05
418.15	1673.19
418.35	1761.25
418.56	1753.06
418.77	1796.07
418.97	1648.61
419.18	1748.97
419.38	1603.56
419.59	1753.06
419.80	1787.88
420.00	1619.94
420.21	1714.15
420.42	1767.40
420.62	1728.49
420.83	1703.91
421.04	1730.53
421.24	1675.24
421.45	1787.88
421.65	1787.88
421.86	1738.73
422.07	1738.73
422.27	1759.21
422.48	1771.49
422.69	1724.39
422.89	1705.96
423.10	1669.09
423.30	1638.38
423.51	1720.29
423.72	1744.87
423.92	1810.40
424.13	1710.05
424.33	1789.92
424.54	1740.77
424.75	1755.11
424.95	1720.29
425.16	1683.43
425.36	1648.61
425.57	1814.50
425.78	1722.34
425.98	1773.54
426.19	1642.47
426.39	1660.90
426.60	1699.81
426.81	1808.36
427.01	1771.49
427.22	1607.66
427.42	1697.77
427.63	1626.09
427.83	1806.31
428.04	1820.64
428.25	1765.35
428.45	1742.82
428.66	1695.72
428.86	1718.25
429.07	1726.44
429.28	1689.57
429.48	1681.38
429.69	1683.43
429.89	1746.92
430.10	1689.57
430.30	1732.58
430.51	1791.97
430.71	1673.19
430.92	1744.87
431.13	1669.09
431.33	1787.88
431.54	1730.53
431.74	1796.07
431.95	1779.68
432.15	1601.51
432.36	1667.05
432.56	1779.68
432.77	1816.55
432.98	1861.60
433.18	1722.34
433.39	1673.19
433.59	1638.38
433.80	1802.21
434.00	1847.27
434.21	1748.97
434.41	1638.38
434.62	1863.65
434.82	1695.72
435.03	1710.05
435.23	1703.91
435.44	1705.96
435.64	1691.62
435.85	1765.35
436.06	1765.35
436.26	1783.78
436.47	1679.33
436.67	1675.24
436.88	1691.62
437.08	1779.68
437.29	1716.20
437.49	1738.73
437.70	1728.49
437.90	1705.96
438.11	1853.41
438.31	1855.46
438.52	1900.52
438.72	1935.33
438.93	2045.92
439.13	1814.50
439.34	1839.08
439.54	1759.21
439.75	1796.07
439.95	1789.92
440.16	1744.87
440.36	1742.82
440.57	1808.36
440.77	1818.60
440.98	1716.20
441.18	1730.53
441.39	1660.90
441.59	1722.34
441.80	1828.84
442.00	1726.44
442.21	1818.60
442.41	1626.09
442.62	1748.97
442.82	1685.48
443.02	1767.40
443.23	1748.97
443.43	1675.24
443.64	1779.68
443.84	1640.42
444.05	1742.82
444.25	1791.97
444.46	1820.64
444.66	1746.92
444.87	1818.60
445.07	1656.81
445.28	1689.57
445.48	1822.69
445.69	1775.59
445.89	1916.90
446.09	1769.44
446.30	1992.67
446.50	2619.35
446.71	4091.84
446.91	4982.71
447.12	5816.23
447.32	6018.98
447.53	5300.14
447.73	4358.08
447.93	4014.02
448.14	3715.02
448.34	3354.57
448.55	3063.76
448.75	3170.26
448.96	2912.21
449.16	2594.78
449.36	2418.65
449.57	2193.37
449.77	1867.75
449.98	1787.88
450.18	1798.12
450.39	1828.84
450.59	1806.31
450.79	1771.49
451.00	1724.39
451.20	1759.21
451.41	1685.48
451.61	1775.59
451.81	1755.11
452.02	1701.86
452.22	1722.34
452.43	1724.39
452.63	1775.59
