SpectraSuite Data File
++++++++++++++++++++++++++++++++++++
Date: Wed May 04 18:44:33 CEST 2016
User: root
Dark Spectrum Present: No
Reference Spectrum Present: No
Number of Sampled Component Spectra: 1
Spectrometers: USB4C02835
Integration Time (usec): 100000 (USB4C02835)
Spectra Averaged: 1 (USB4C02835)
Boxcar Smoothing: 0 (USB4C02835)
Correct for Electrical Dark: No (USB4C02835)
Strobe/Lamp Enabled: No (USB4C02835)
Correct for Detector Non-linearity: No (USB4C02835)
Correct for Stray Light: No (USB4C02835)
Number of Pixels in Processed Spectrum: 3648
>>>>>Begin Processed Spectral Data<<<<<
177.47	1425.39
177.69	1425.39
177.91	1425.39
178.13	1439.72
178.36	1429.48
178.58	1730.53
178.80	1708.01
179.02	1673.19
179.24	1636.33
179.46	1763.30
179.68	1771.49
179.90	1748.97
180.13	1662.95
180.35	1730.53
180.57	1671.14
180.79	1773.54
181.01	1671.14
181.23	1740.77
181.45	1789.92
181.67	1800.16
181.90	1695.72
182.12	1652.71
182.34	1638.38
182.56	1777.64
182.78	1710.05
183.00	1738.73
183.22	1763.30
183.44	1628.14
183.66	1867.75
183.89	1796.07
184.11	1673.19
184.33	1781.73
184.55	1796.07
184.77	1705.96
184.99	1763.30
185.21	1691.62
185.43	1822.69
185.65	1667.05
185.87	1771.49
186.10	1802.21
186.32	1773.54
186.54	1738.73
186.76	1751.01
186.98	1734.63
187.20	1697.77
187.42	1667.05
187.64	1705.96
187.86	1658.85
188.08	1638.38
188.30	1714.15
188.52	1640.42
188.75	1775.59
188.97	1779.68
189.19	1695.72
189.41	1644.52
189.63	1708.01
189.85	1738.73
190.07	1648.61
190.29	1669.09
190.51	1775.59
190.73	1675.24
190.95	1716.20
191.17	1703.91
191.39	1677.29
191.61	1677.29
191.84	1693.67
192.06	1681.38
192.28	1665.00
192.50	1918.95
192.72	1681.38
192.94	1720.29
193.16	1740.77
193.38	1710.05
193.60	1675.24
193.82	1626.09
194.04	1716.20
194.26	1714.15
194.48	1671.14
194.70	1665.00
194.92	1703.91
195.14	1738.73
195.36	1648.61
195.58	1708.01
195.80	1671.14
196.02	1681.38
196.24	1687.53
196.46	1759.21
196.69	1769.44
196.91	1814.50
197.13	1708.01
197.35	1658.85
197.57	1841.12
197.79	1775.59
198.01	1732.58
198.23	1714.15
198.45	1699.81
198.67	1685.48
198.89	1742.82
199.11	1748.97
199.33	1607.66
199.55	1609.70
199.77	1736.68
199.99	1732.58
200.21	1648.61
200.43	1806.31
200.65	1656.81
200.87	1658.85
201.09	1730.53
201.31	1728.49
201.53	1767.40
201.75	1691.62
201.97	1687.53
202.19	1720.29
202.41	1767.40
202.63	1822.69
202.85	1716.20
203.07	1744.87
203.29	1718.25
203.51	1632.23
203.73	1679.33
203.95	1912.80
204.17	1740.77
204.39	1695.72
204.61	1679.33
204.83	1648.61
205.05	1783.78
205.27	1800.16
205.49	1839.08
205.71	1726.44
205.93	1679.33
206.15	1615.85
206.37	1597.42
206.59	1695.72
206.81	1587.18
207.03	1720.29
207.25	1677.29
207.47	1804.26
207.69	1665.00
207.91	1775.59
208.13	1781.73
208.34	1632.23
208.56	1603.56
208.78	1765.35
209.00	1632.23
209.22	1595.37
209.44	1640.42
209.66	1644.52
209.88	1634.28
210.10	1699.81
210.32	1662.95
210.54	1771.49
210.76	1740.77
210.98	1705.96
211.20	1564.65
211.42	1665.00
211.64	1783.78
211.86	1712.10
212.08	1710.05
212.30	1789.92
212.52	1763.30
212.74	1671.14
212.96	1726.44
213.17	1699.81
213.39	1767.40
213.61	1828.84
213.83	1736.68
214.05	1673.19
214.27	1796.07
214.49	1640.42
214.71	1710.05
214.93	1773.54
215.15	1693.67
215.37	1720.29
215.59	1642.47
215.81	1742.82
216.03	1710.05
216.24	1718.25
216.46	1693.67
216.68	1730.53
216.90	1789.92
217.12	1767.40
217.34	1652.71
217.56	1730.53
217.78	1775.59
218.00	1703.91
218.22	1775.59
218.44	1677.29
218.66	1714.15
218.87	1763.30
219.09	1679.33
219.31	1806.31
219.53	1677.29
219.75	1726.44
219.97	1675.24
220.19	1679.33
220.41	1687.53
220.63	1761.25
220.85	1701.86
221.06	1714.15
221.28	1755.11
221.50	1748.97
221.72	1773.54
221.94	1738.73
222.16	1703.91
222.38	1767.40
222.60	1734.63
222.82	1730.53
223.03	1794.02
223.25	1652.71
223.47	1695.72
223.69	1875.94
223.91	1726.44
224.13	1773.54
224.35	1697.77
224.57	1779.68
224.78	1794.02
225.00	1660.90
225.22	1677.29
225.44	1716.20
225.66	1826.79
225.88	1681.38
226.10	1800.16
226.32	1757.16
226.53	1820.64
226.75	1705.96
226.97	1648.61
227.19	1726.44
227.41	1712.10
227.63	1638.38
227.85	1712.10
228.06	1638.38
228.28	1757.16
228.50	1722.34
228.72	1574.89
228.94	1601.51
229.16	1648.61
229.37	1734.63
229.59	1642.47
229.81	1726.44
230.03	1710.05
230.25	1746.92
230.47	1630.18
230.69	1611.75
230.90	1771.49
231.12	1710.05
231.34	1712.10
231.56	1791.97
231.78	1673.19
232.00	1787.88
232.21	1701.86
232.43	1734.63
232.65	1636.33
232.87	1714.15
233.09	1691.62
233.30	1683.43
233.52	1773.54
233.74	1673.19
233.96	1665.00
234.18	1755.11
234.40	1665.00
234.61	1853.41
234.83	1587.18
235.05	1613.80
235.27	1863.65
235.49	1810.40
235.70	1675.24
235.92	1802.21
236.14	1658.85
236.36	1804.26
236.58	1675.24
236.79	1734.63
237.01	1656.81
237.23	1740.77
237.45	1802.21
237.67	1636.33
237.88	1753.06
238.10	1804.26
238.32	1642.47
238.54	1677.29
238.76	1708.01
238.97	1740.77
239.19	1650.66
239.41	1816.55
239.63	1773.54
239.85	1630.18
240.06	1710.05
240.28	1699.81
240.50	1843.17
240.72	1634.28
240.93	1687.53
241.15	1806.31
241.37	1708.01
241.59	1726.44
241.81	1638.38
242.02	1705.96
242.24	1740.77
242.46	1775.59
242.68	1613.80
242.89	1712.10
243.11	1857.51
243.33	1634.28
243.55	1728.49
243.76	1689.57
243.98	1621.99
244.20	1675.24
244.42	1738.73
244.64	1751.01
244.85	1648.61
245.07	1699.81
245.29	1722.34
245.51	1634.28
245.72	1679.33
245.94	1789.92
246.16	1628.14
246.38	1757.16
246.59	1654.76
246.81	1665.00
247.03	1753.06
247.24	1675.24
247.46	1701.86
247.68	1722.34
247.90	1683.43
248.11	1683.43
248.33	1810.40
248.55	1763.30
248.77	1753.06
248.98	1726.44
249.20	1849.32
249.42	1720.29
249.64	1720.29
249.85	1701.86
250.07	1656.81
250.29	1787.88
250.50	1746.92
250.72	1593.32
250.94	1621.99
251.16	1859.56
251.37	1753.06
251.59	1796.07
251.81	1693.67
252.02	1775.59
252.24	1701.86
252.46	1789.92
252.68	1685.48
252.89	1734.63
253.11	1728.49
253.33	1773.54
253.54	1783.78
253.76	1650.66
253.98	1630.18
254.20	1714.15
254.41	1591.27
254.63	1685.48
254.85	1677.29
255.06	1705.96
255.28	1660.90
255.50	1740.77
255.71	1669.09
255.93	1697.77
256.15	1693.67
256.36	1755.11
256.58	1765.35
256.80	1800.16
257.02	1660.90
257.23	1716.20
257.45	1753.06
257.67	1697.77
257.88	1699.81
258.10	1740.77
258.32	1781.73
258.53	1681.38
258.75	1814.50
258.97	1648.61
259.18	1689.57
259.40	1742.82
259.62	1808.36
259.83	1794.02
260.05	1703.91
260.27	1865.70
260.48	1802.21
260.70	1679.33
260.92	1761.25
261.13	1615.85
261.35	1683.43
261.57	1767.40
261.78	1621.99
262.00	1677.29
262.22	1742.82
262.43	1705.96
262.65	1693.67
262.86	1679.33
263.08	1828.84
263.30	1708.01
263.51	1681.38
263.73	1701.86
263.95	1824.74
264.16	1650.66
264.38	1626.09
264.60	1779.68
264.81	1681.38
265.03	1816.55
265.25	1783.78
265.46	1667.05
265.68	1834.98
265.89	1710.05
266.11	1613.80
266.33	1710.05
266.54	1777.64
266.76	1796.07
266.98	1753.06
267.19	1796.07
267.41	1710.05
267.62	1634.28
267.84	1675.24
268.06	1759.21
268.27	1753.06
268.49	1746.92
268.70	1812.45
268.92	1677.29
269.14	1630.18
269.35	1603.56
269.57	1665.00
269.79	1742.82
270.00	1728.49
270.22	1767.40
270.43	1687.53
270.65	1619.94
270.87	1687.53
271.08	1742.82
271.30	1722.34
271.51	1787.88
271.73	1724.39
271.95	1767.40
272.16	1718.25
272.38	1712.10
272.59	1572.84
272.81	1785.83
273.02	1755.11
273.24	1765.35
273.46	1708.01
273.67	1746.92
273.89	1685.48
274.10	1744.87
274.32	1789.92
274.54	1701.86
274.75	1746.92
274.97	1769.44
275.18	1701.86
275.40	1734.63
275.61	1734.63
275.83	1693.67
276.05	1712.10
276.26	1677.29
276.48	1769.44
276.69	1722.34
276.91	1734.63
277.12	1755.11
277.34	1753.06
277.55	1722.34
277.77	1712.10
277.99	1701.86
278.20	1673.19
278.42	1642.47
278.63	1652.71
278.85	1720.29
279.06	1681.38
279.28	1718.25
279.49	1687.53
279.71	1714.15
279.93	1699.81
280.14	1673.19
280.36	1665.00
280.57	1738.73
280.79	1744.87
281.00	1656.81
281.22	1632.23
281.43	1777.64
281.65	1578.98
281.86	1722.34
282.08	1726.44
282.29	1781.73
282.51	1478.63
282.73	1626.09
282.94	1628.14
283.16	1826.79
283.37	1791.97
283.59	1644.52
283.80	1767.40
284.02	1667.05
284.23	1701.86
284.45	1724.39
284.66	1685.48
284.88	1726.44
285.09	1710.05
285.31	1812.45
285.52	1796.07
285.74	1699.81
285.95	1796.07
286.17	1726.44
286.38	1794.02
286.60	1712.10
286.81	1675.24
287.03	1730.53
287.24	1726.44
287.46	1722.34
287.67	1689.57
287.89	1765.35
288.10	1697.77
288.32	1769.44
288.53	1845.22
288.75	1681.38
288.96	1718.25
289.18	1685.48
289.39	1712.10
289.61	1767.40
289.82	1804.26
290.04	1855.46
290.25	1636.33
290.47	1728.49
290.68	1632.23
290.90	1806.31
291.11	1644.52
291.33	1812.45
291.54	1689.57
291.76	1699.81
291.97	1703.91
292.18	1773.54
292.40	1716.20
292.61	1652.71
292.83	1837.03
293.04	1732.58
293.26	1708.01
293.47	1685.48
293.69	1628.14
293.90	1708.01
294.12	1771.49
294.33	1718.25
294.55	1695.72
294.76	1751.01
294.97	1802.21
295.19	1847.27
295.40	1695.72
295.62	1734.63
295.83	1740.77
296.05	1568.74
296.26	1798.12
296.48	1716.20
296.69	1718.25
296.90	1728.49
297.12	1726.44
297.33	1853.41
297.55	1642.47
297.76	1773.54
297.98	1759.21
298.19	1712.10
298.41	1689.57
298.62	1679.33
298.83	1796.07
299.05	1755.11
299.26	1660.90
299.48	1673.19
299.69	1755.11
299.90	1720.29
300.12	1689.57
300.33	1804.26
300.55	1646.57
300.76	1716.20
300.98	1769.44
301.19	1732.58
301.40	1636.33
301.62	1652.71
301.83	1734.63
302.05	1783.78
302.26	1705.96
302.47	1716.20
302.69	1658.85
302.90	1740.77
303.12	1593.32
303.33	1705.96
303.54	1826.79
303.76	1699.81
303.97	1689.57
304.19	1849.32
304.40	1734.63
304.61	1669.09
304.83	1839.08
305.04	1726.44
305.26	1718.25
305.47	1699.81
305.68	1699.81
305.90	1683.43
306.11	1730.53
306.33	1794.02
306.54	1665.00
306.75	1611.75
306.97	1687.53
307.18	1656.81
307.39	1675.24
307.61	1759.21
307.82	1656.81
308.04	1720.29
308.25	1662.95
308.46	1765.35
308.68	1693.67
308.89	1710.05
309.10	1665.00
309.32	1757.16
309.53	1673.19
309.74	1718.25
309.96	1705.96
310.17	1765.35
310.39	1617.90
310.60	1767.40
310.81	1675.24
311.03	1638.38
311.24	1777.64
311.45	1681.38
311.67	1843.17
311.88	1679.33
312.09	1693.67
312.31	1585.13
312.52	1701.86
312.73	1720.29
312.95	1654.76
313.16	1611.75
313.37	1787.88
313.59	1712.10
313.80	1728.49
314.01	1718.25
314.23	1705.96
314.44	1638.38
314.65	1638.38
314.87	1705.96
315.08	1677.29
315.29	1712.10
315.51	1669.09
315.72	1609.70
315.93	1718.25
316.15	1689.57
316.36	1662.95
316.57	1771.49
316.79	1730.53
317.00	1667.05
317.21	1712.10
317.43	1658.85
317.64	1791.97
317.85	1689.57
318.07	1671.14
318.28	1800.16
318.49	1824.74
318.70	1947.62
318.92	1902.56
319.13	1886.18
319.34	1871.84
319.56	1818.60
319.77	1873.89
319.98	1906.66
320.20	1783.78
320.41	1753.06
320.62	1755.11
320.83	1753.06
321.05	1855.46
321.26	1650.66
321.47	1685.48
321.69	1820.64
321.90	1656.81
322.11	1605.61
322.32	1699.81
322.54	1794.02
322.75	1689.57
322.96	1810.40
323.18	1607.66
323.39	1607.66
323.60	1673.19
323.81	1703.91
324.03	1689.57
324.24	1660.90
324.45	1771.49
324.66	1718.25
324.88	1810.40
325.09	1791.97
325.30	1644.52
325.52	1673.19
325.73	1818.60
325.94	1609.70
326.15	1644.52
326.37	1697.77
326.58	1824.74
326.79	1802.21
327.00	1695.72
327.22	1718.25
327.43	1667.05
327.64	1642.47
327.85	1718.25
328.07	1787.88
328.28	1871.84
328.49	1599.46
328.70	1701.86
328.92	1736.68
329.13	1554.41
329.34	1685.48
329.55	1777.64
329.76	1798.12
329.98	1644.52
330.19	1812.45
330.40	1630.18
330.61	1748.97
330.83	1812.45
331.04	1652.71
331.25	1730.53
331.46	1683.43
331.68	1652.71
331.89	1767.40
332.10	1705.96
332.31	1615.85
332.52	1726.44
332.74	1718.25
332.95	1626.09
333.16	1712.10
333.37	1761.25
333.58	1679.33
333.80	1730.53
334.01	1617.90
334.22	1703.91
334.43	1681.38
334.64	1646.57
334.86	1613.80
335.07	1689.57
335.28	1771.49
335.49	1691.62
335.70	1740.77
335.92	1734.63
336.13	1863.65
336.34	1771.49
336.55	1746.92
336.76	1742.82
336.98	1648.61
337.19	1718.25
337.40	1802.21
337.61	1822.69
337.82	1732.58
338.04	1726.44
338.25	1568.74
338.46	1701.86
338.67	1718.25
338.88	1693.67
339.09	1714.15
339.31	1677.29
339.52	1624.04
339.73	1685.48
339.94	1724.39
340.15	1769.44
340.36	1611.75
340.58	1695.72
340.79	1624.04
341.00	1742.82
341.21	1568.74
341.42	1779.68
341.63	1667.05
341.85	1718.25
342.06	1740.77
342.27	1621.99
342.48	1783.78
342.69	1601.51
342.90	1757.16
343.12	1738.73
343.33	1705.96
343.54	1763.30
343.75	1802.21
343.96	1611.75
344.17	1648.61
344.38	1720.29
344.60	1724.39
344.81	1708.01
345.02	1787.88
345.23	1865.70
345.44	1839.08
345.65	1796.07
345.86	1699.81
346.07	1726.44
346.29	1658.85
346.50	1794.02
346.71	1812.45
346.92	1763.30
347.13	1816.55
347.34	1755.11
347.55	1675.24
347.76	1746.92
347.98	1679.33
348.19	1724.39
348.40	1791.97
348.61	1697.77
348.82	1820.64
349.03	1759.21
349.24	1726.44
349.45	1744.87
349.66	1568.74
349.88	1757.16
350.09	1712.10
350.30	1781.73
350.51	1763.30
350.72	1738.73
350.93	1722.34
351.14	1642.47
351.35	1798.12
351.56	1712.10
351.77	1689.57
351.99	1767.40
352.20	1839.08
352.41	1820.64
352.62	1566.70
352.83	1726.44
353.04	1791.97
353.25	1718.25
353.46	1785.83
353.67	1685.48
353.88	1591.27
354.09	1697.77
354.30	1798.12
354.52	1730.53
354.73	1675.24
354.94	1667.05
355.15	1734.63
355.36	1837.03
355.57	1748.97
355.78	1691.62
355.99	1636.33
356.20	1671.14
356.41	1736.68
356.62	1757.16
356.83	1689.57
357.04	1757.16
357.25	1693.67
357.46	1753.06
357.68	1687.53
357.89	1611.75
358.10	1714.15
358.31	1658.85
358.52	1808.36
358.73	1691.62
358.94	1703.91
359.15	1609.70
359.36	1753.06
359.57	1744.87
359.78	1701.86
359.99	1710.05
360.20	1697.77
360.41	1605.61
360.62	1738.73
360.83	1742.82
361.04	1701.86
361.25	1718.25
361.46	1765.35
361.67	1736.68
361.88	1677.29
362.09	1734.63
362.30	1697.77
362.51	1693.67
362.72	1714.15
362.93	1732.58
363.14	1787.88
363.35	1726.44
363.56	1730.53
363.78	1740.77
363.99	1751.01
364.20	1677.29
364.41	1730.53
364.62	1853.41
364.83	1724.39
365.04	1701.86
365.25	1759.21
365.46	1769.44
365.67	1652.71
365.88	1710.05
366.09	1701.86
366.30	1671.14
366.51	1705.96
366.72	1673.19
366.93	1757.16
367.14	1599.46
367.35	1767.40
367.56	1701.86
367.77	1751.01
367.98	1751.01
368.18	1740.77
368.39	1771.49
368.60	1701.86
368.81	1802.21
369.02	1693.67
369.23	1677.29
369.44	1599.46
369.65	1724.39
369.86	1734.63
370.07	1779.68
370.28	1738.73
370.49	1765.35
370.70	1730.53
370.91	1644.52
371.12	1667.05
371.33	1771.49
371.54	1722.34
371.75	1824.74
371.96	1595.37
372.17	1683.43
372.38	1652.71
372.59	1757.16
372.80	1775.59
373.01	1703.91
373.22	1697.77
373.43	1769.44
373.64	1662.95
373.85	1789.92
374.06	1763.30
374.26	1728.49
374.47	1691.62
374.68	1755.11
374.89	1732.58
375.10	1714.15
375.31	1720.29
375.52	1742.82
375.73	1712.10
375.94	1662.95
376.15	1791.97
376.36	1650.66
376.57	1667.05
376.78	1759.21
376.99	1691.62
377.20	1763.30
377.40	1669.09
377.61	1794.02
377.82	1671.14
378.03	1748.97
378.24	1785.83
378.45	1699.81
378.66	1710.05
378.87	1560.55
379.08	1646.57
379.29	1646.57
379.50	1744.87
379.71	1687.53
379.91	1708.01
380.12	1718.25
380.33	1665.00
380.54	1740.77
380.75	1648.61
380.96	1726.44
381.17	1765.35
381.38	1771.49
381.59	1687.53
381.80	1804.26
382.00	1867.75
382.21	1718.25
382.42	1877.99
382.63	1826.79
382.84	1712.10
383.05	1865.70
383.26	1738.73
383.47	1806.31
383.68	1718.25
383.88	1806.31
384.09	1769.44
384.30	1849.32
384.51	1689.57
384.72	1642.47
384.93	1636.33
385.14	1708.01
385.35	1740.77
385.55	1585.13
385.76	1845.22
385.97	1746.92
386.18	1693.67
386.39	1685.48
386.60	1697.77
386.81	1705.96
387.02	1732.58
387.22	1691.62
387.43	1794.02
387.64	1896.42
387.85	1875.94
388.06	2226.14
388.27	4646.84
388.48	9125.75
388.68	11700.05
388.89	13520.69
389.10	14004.01
389.31	11798.35
389.52	9783.15
389.73	8519.55
389.93	7696.27
390.14	7147.41
390.35	6492.06
390.56	6059.94
390.77	5025.72
390.98	3925.96
391.18	3078.10
391.39	2375.64
391.60	1888.23
391.81	1814.50
392.02	1705.96
392.23	1849.32
392.43	1767.40
392.64	1781.73
392.85	1748.97
393.06	1738.73
393.27	1714.15
393.47	1681.38
393.68	1732.58
393.89	1656.81
394.10	1775.59
394.31	1665.00
394.52	1712.10
394.72	1675.24
394.93	1812.45
395.14	1660.90
395.35	1765.35
395.56	1638.38
395.76	1675.24
395.97	1820.64
396.18	1884.13
396.39	1906.66
396.60	2150.37
396.80	1945.57
397.01	1855.46
397.22	1804.26
397.43	1822.69
397.64	1767.40
397.84	1828.84
398.05	1906.66
398.26	1744.87
398.47	1800.16
398.67	1775.59
398.88	1765.35
399.09	1712.10
399.30	1673.19
399.51	1685.48
399.71	1652.71
399.92	1738.73
400.13	1679.33
400.34	1742.82
400.54	1757.16
400.75	1796.07
400.96	1771.49
401.17	1767.40
401.37	1748.97
401.58	1701.86
401.79	1804.26
402.00	1877.99
402.21	2050.02
402.41	2133.98
402.62	2117.60
402.83	2181.09
403.04	2121.70
403.24	2158.56
403.45	1845.22
403.66	1980.39
403.87	1861.60
404.07	1947.62
404.28	1939.43
404.49	1908.71
404.70	1896.42
404.90	1796.07
405.11	1767.40
405.32	1746.92
405.52	1701.86
405.73	1636.33
405.94	1660.90
406.15	1765.35
406.35	1728.49
406.56	1753.06
406.77	1658.85
406.98	1755.11
407.18	1671.14
407.39	1800.16
407.60	1658.85
407.80	1830.88
408.01	1583.08
408.22	1738.73
408.43	1714.15
408.63	1755.11
408.84	1734.63
409.05	1748.97
409.25	1665.00
409.46	1599.46
409.67	1705.96
409.88	1691.62
410.08	1730.53
410.29	1714.15
410.50	1736.68
410.70	1710.05
410.91	1648.61
411.12	1800.16
411.32	1677.29
411.53	1673.19
411.74	1820.64
411.95	1787.88
412.15	1748.97
412.36	1787.88
412.57	1808.36
412.77	1730.53
412.98	1755.11
413.19	1769.44
413.39	1767.40
413.60	1771.49
413.81	1744.87
414.01	1851.36
414.22	1810.40
414.43	1732.58
414.63	1716.20
414.84	1849.32
415.05	1691.62
415.25	1654.76
415.46	1787.88
415.67	1650.66
415.87	1759.21
416.08	1720.29
416.29	1677.29
416.49	1759.21
416.70	1755.11
416.91	1714.15
417.11	1658.85
417.32	1763.30
417.53	1730.53
417.73	1732.58
417.94	1699.81
418.15	1710.05
418.35	1718.25
418.56	1710.05
418.77	1800.16
418.97	1677.29
419.18	1685.48
419.38	1576.94
419.59	1697.77
419.80	1818.60
420.00	1724.39
420.21	1652.71
420.42	1771.49
420.62	1787.88
420.83	1591.27
421.04	1662.95
421.24	1714.15
421.45	1757.16
421.65	1785.83
421.86	1703.91
422.07	1800.16
422.27	1767.40
422.48	1753.06
422.69	1656.81
422.89	1726.44
423.10	1722.34
423.30	1681.38
423.51	1746.92
423.72	1748.97
423.92	1724.39
424.13	1662.95
424.33	1724.39
424.54	1769.44
424.75	1740.77
424.95	1828.84
425.16	1746.92
425.36	1693.67
425.57	1779.68
425.78	1724.39
425.98	1775.59
426.19	1724.39
426.39	1667.05
426.60	1798.12
426.81	1847.27
427.01	1701.86
427.22	1652.71
427.42	1693.67
427.63	1689.57
427.83	1751.01
428.04	1816.55
428.25	1834.98
428.45	1763.30
428.66	1769.44
428.86	1744.87
429.07	1742.82
429.28	1730.53
429.48	1632.23
429.69	1716.20
429.89	1724.39
430.10	1685.48
430.30	1705.96
430.51	1789.92
430.71	1746.92
430.92	1699.81
431.13	1671.14
431.33	1804.26
431.54	1755.11
431.74	1837.03
431.95	1804.26
432.15	1679.33
432.36	1726.44
432.56	1689.57
432.77	1837.03
432.98	1804.26
433.18	1748.97
433.39	1769.44
433.59	1703.91
433.80	1820.64
434.00	1875.94
434.21	1671.14
434.41	1736.68
434.62	1738.73
434.82	1675.24
435.03	1587.18
435.23	1667.05
435.44	1636.33
435.64	1742.82
435.85	1738.73
436.06	1826.79
436.26	1794.02
436.47	1697.77
436.67	1683.43
436.88	1671.14
437.08	1777.64
437.29	1826.79
437.49	1753.06
437.70	1800.16
437.90	1726.44
438.11	1767.40
438.31	1787.88
438.52	1904.61
438.72	1892.32
438.93	1968.10
439.13	1806.31
439.34	1931.23
439.54	1847.27
439.75	1767.40
439.95	1808.36
440.16	1755.11
440.36	1755.11
440.57	1775.59
440.77	1724.39
440.98	1783.78
441.18	1724.39
441.39	1759.21
441.59	1665.00
441.80	1877.99
442.00	1779.68
442.21	1787.88
442.41	1601.51
442.62	1789.92
442.82	1724.39
443.02	1732.58
443.23	1732.58
443.43	1769.44
443.64	1746.92
443.84	1652.71
444.05	1804.26
444.25	1773.54
444.46	1712.10
444.66	1714.15
444.87	1824.74
445.07	1650.66
445.28	1773.54
445.48	1734.63
445.69	1736.68
445.89	1918.95
446.09	1740.77
446.30	2054.11
446.50	2557.91
446.71	4179.90
446.91	5081.01
447.12	5844.90
447.32	6156.19
447.53	5289.90
447.73	4534.20
447.93	3981.25
448.14	3663.82
448.34	3409.87
448.55	3086.29
448.75	3188.69
448.96	2934.74
449.16	2643.93
449.36	2414.56
449.57	2133.98
449.77	1925.09
449.98	1884.13
450.18	1822.69
450.39	1832.93
450.59	1751.01
450.79	1701.86
451.00	1701.86
451.20	1779.68
451.41	1734.63
451.61	1703.91
451.81	1775.59
452.02	1720.29
452.22	1742.82
452.43	1638.38
452.63	1718.25
