SpectraSuite Data File
++++++++++++++++++++++++++++++++++++
Date: Wed May 04 18:44:15 CEST 2016
User: root
Dark Spectrum Present: No
Reference Spectrum Present: No
Number of Sampled Component Spectra: 1
Spectrometers: USB4C02835
Integration Time (usec): 100000 (USB4C02835)
Spectra Averaged: 1 (USB4C02835)
Boxcar Smoothing: 0 (USB4C02835)
Correct for Electrical Dark: No (USB4C02835)
Strobe/Lamp Enabled: No (USB4C02835)
Correct for Detector Non-linearity: No (USB4C02835)
Correct for Stray Light: No (USB4C02835)
Number of Pixels in Processed Spectrum: 3648
>>>>>Begin Processed Spectral Data<<<<<
177.47	1501.16
177.69	1501.16
177.91	1501.16
178.13	1478.63
178.36	1538.02
178.58	1689.57
178.80	1763.30
179.02	1644.52
179.24	1634.28
179.46	1724.39
179.68	1705.96
179.90	1724.39
180.13	1742.82
180.35	1665.00
180.57	1583.08
180.79	1783.78
181.01	1703.91
181.23	1785.83
181.45	1800.16
181.67	1732.58
181.90	1806.31
182.12	1667.05
182.34	1665.00
182.56	1746.92
182.78	1646.57
183.00	1652.71
183.22	1691.62
183.44	1644.52
183.66	1910.75
183.89	1761.25
184.11	1710.05
184.33	1773.54
184.55	1806.31
184.77	1736.68
184.99	1751.01
185.21	1697.77
185.43	1855.46
185.65	1726.44
185.87	1738.73
186.10	1822.69
186.32	1894.37
186.54	1779.68
186.76	1718.25
186.98	1742.82
187.20	1734.63
187.42	1683.43
187.64	1742.82
187.86	1736.68
188.08	1767.40
188.30	1665.00
188.52	1665.00
188.75	1746.92
188.97	1843.17
189.19	1679.33
189.41	1705.96
189.63	1796.07
189.85	1728.49
190.07	1712.10
190.29	1722.34
190.51	1705.96
190.73	1615.85
190.95	1810.40
191.17	1736.68
191.39	1601.51
191.61	1722.34
191.84	1640.42
192.06	1689.57
192.28	1603.56
192.50	1943.52
192.72	1755.11
192.94	1677.29
193.16	1693.67
193.38	1716.20
193.60	1591.27
193.82	1677.29
194.04	1724.39
194.26	1734.63
194.48	1687.53
194.70	1740.77
194.92	1665.00
195.14	1714.15
195.36	1755.11
195.58	1773.54
195.80	1638.38
196.02	1681.38
196.24	1683.43
196.46	1720.29
196.69	1603.56
196.91	1818.60
197.13	1726.44
197.35	1583.08
197.57	1746.92
197.79	1716.20
198.01	1658.85
198.23	1681.38
198.45	1802.21
198.67	1609.70
198.89	1677.29
199.11	1783.78
199.33	1624.04
199.55	1681.38
199.77	1761.25
199.99	1775.59
200.21	1667.05
200.43	1761.25
200.65	1667.05
200.87	1636.33
201.09	1646.57
201.31	1716.20
201.53	1753.06
201.75	1730.53
201.97	1683.43
202.19	1697.77
202.41	1728.49
202.63	1822.69
202.85	1779.68
203.07	1708.01
203.29	1636.33
203.51	1632.23
203.73	1695.72
203.95	1810.40
204.17	1730.53
204.39	1681.38
204.61	1681.38
204.83	1697.77
205.05	1804.26
205.27	1753.06
205.49	1828.84
205.71	1732.58
205.93	1611.75
206.15	1662.95
206.37	1775.59
206.59	1687.53
206.81	1669.09
207.03	1726.44
207.25	1621.99
207.47	1716.20
207.69	1697.77
207.91	1726.44
208.13	1736.68
208.34	1656.81
208.56	1703.91
208.78	1748.97
209.00	1683.43
209.22	1730.53
209.44	1626.09
209.66	1652.71
209.88	1669.09
210.10	1734.63
210.32	1751.01
210.54	1785.83
210.76	1697.77
210.98	1716.20
211.20	1632.23
211.42	1677.29
211.64	1828.84
211.86	1718.25
212.08	1783.78
212.30	1662.95
212.52	1767.40
212.74	1671.14
212.96	1759.21
213.17	1763.30
213.39	1740.77
213.61	1753.06
213.83	1753.06
214.05	1742.82
214.27	1746.92
214.49	1658.85
214.71	1644.52
214.93	1728.49
215.15	1767.40
215.37	1736.68
215.59	1554.41
215.81	1761.25
216.03	1697.77
216.24	1755.11
216.46	1701.86
216.68	1665.00
216.90	1744.87
217.12	1787.88
217.34	1755.11
217.56	1771.49
217.78	1789.92
218.00	1724.39
218.22	1667.05
218.44	1736.68
218.66	1718.25
218.87	1877.99
219.09	1628.14
219.31	1740.77
219.53	1773.54
219.75	1662.95
219.97	1765.35
220.19	1740.77
220.41	1642.47
220.63	1775.59
220.85	1763.30
221.06	1718.25
221.28	1753.06
221.50	1755.11
221.72	1718.25
221.94	1773.54
222.16	1779.68
222.38	1740.77
222.60	1796.07
222.82	1763.30
223.03	1757.16
223.25	1613.80
223.47	1755.11
223.69	1789.92
223.91	1718.25
224.13	1634.28
224.35	1673.19
224.57	1746.92
224.78	1687.53
225.00	1595.37
225.22	1708.01
225.44	1726.44
225.66	1734.63
225.88	1701.86
226.10	1693.67
226.32	1740.77
226.53	1753.06
226.75	1626.09
226.97	1759.21
227.19	1691.62
227.41	1621.99
227.63	1634.28
227.85	1605.61
228.06	1691.62
228.28	1724.39
228.50	1757.16
228.72	1685.48
228.94	1662.95
229.16	1660.90
229.37	1656.81
229.59	1724.39
229.81	1748.97
230.03	1611.75
230.25	1665.00
230.47	1624.04
230.69	1601.51
230.90	1710.05
231.12	1687.53
231.34	1744.87
231.56	1730.53
231.78	1617.90
232.00	1683.43
232.21	1669.09
232.43	1730.53
232.65	1660.90
232.87	1689.57
233.09	1681.38
233.30	1621.99
233.52	1716.20
233.74	1740.77
233.96	1728.49
234.18	1705.96
234.40	1718.25
234.61	1789.92
234.83	1644.52
235.05	1654.76
235.27	1796.07
235.49	1712.10
235.70	1703.91
235.92	1730.53
236.14	1726.44
236.36	1744.87
236.58	1613.80
236.79	1734.63
237.01	1738.73
237.23	1722.34
237.45	1763.30
237.67	1673.19
237.88	1665.00
238.10	1787.88
238.32	1671.14
238.54	1693.67
238.76	1679.33
238.97	1619.94
239.19	1609.70
239.41	1718.25
239.63	1769.44
239.85	1660.90
240.06	1624.04
240.28	1667.05
240.50	1820.64
240.72	1814.50
240.93	1722.34
241.15	1705.96
241.37	1681.38
241.59	1765.35
241.81	1734.63
242.02	1652.71
242.24	1646.57
242.46	1804.26
242.68	1624.04
242.89	1730.53
243.11	1744.87
243.33	1697.77
243.55	1740.77
243.76	1785.83
243.98	1654.76
244.20	1718.25
244.42	1730.53
244.64	1695.72
244.85	1578.98
245.07	1632.23
245.29	1753.06
245.51	1697.77
245.72	1771.49
245.94	1812.45
246.16	1718.25
246.38	1777.64
246.59	1630.18
246.81	1673.19
247.03	1640.42
247.24	1589.22
247.46	1667.05
247.68	1732.58
247.90	1689.57
248.11	1671.14
248.33	1791.97
248.55	1691.62
248.77	1730.53
248.98	1742.82
249.20	1816.55
249.42	1710.05
249.64	1681.38
249.85	1681.38
250.07	1693.67
250.29	1775.59
250.50	1687.53
250.72	1638.38
250.94	1724.39
251.16	1841.12
251.37	1769.44
251.59	1746.92
251.81	1695.72
252.02	1824.74
252.24	1732.58
252.46	1832.93
252.68	1701.86
252.89	1722.34
253.11	1599.46
253.33	1820.64
253.54	1765.35
253.76	1619.94
253.98	1665.00
254.20	1650.66
254.41	1624.04
254.63	1646.57
254.85	1652.71
255.06	1744.87
255.28	1769.44
255.50	1701.86
255.71	1646.57
255.93	1705.96
256.15	1609.70
256.36	1718.25
256.58	1705.96
256.80	1787.88
257.02	1730.53
257.23	1728.49
257.45	1701.86
257.67	1665.00
257.88	1660.90
258.10	1691.62
258.32	1787.88
258.53	1689.57
258.75	1810.40
258.97	1679.33
259.18	1685.48
259.40	1671.14
259.62	1804.26
259.83	1812.45
260.05	1703.91
260.27	1955.81
260.48	1767.40
260.70	1660.90
260.92	1660.90
261.13	1638.38
261.35	1685.48
261.57	1783.78
261.78	1658.85
262.00	1671.14
262.22	1722.34
262.43	1652.71
262.65	1658.85
262.86	1697.77
263.08	1751.01
263.30	1712.10
263.51	1662.95
263.73	1634.28
263.95	1767.40
264.16	1685.48
264.38	1646.57
264.60	1630.18
264.81	1652.71
265.03	1744.87
265.25	1708.01
265.46	1613.80
265.68	1753.06
265.89	1767.40
266.11	1677.29
266.33	1755.11
266.54	1830.88
266.76	1714.15
266.98	1777.64
267.19	1837.03
267.41	1789.92
267.62	1701.86
267.84	1595.37
268.06	1736.68
268.27	1736.68
268.49	1722.34
268.70	1802.21
268.92	1667.05
269.14	1767.40
269.35	1599.46
269.57	1759.21
269.79	1746.92
270.00	1628.14
270.22	1763.30
270.43	1683.43
270.65	1662.95
270.87	1740.77
271.08	1705.96
271.30	1787.88
271.51	1701.86
271.73	1708.01
271.95	1794.02
272.16	1708.01
272.38	1677.29
272.59	1642.47
272.81	1724.39
273.02	1736.68
273.24	1726.44
273.46	1746.92
273.67	1568.74
273.89	1683.43
274.10	1677.29
274.32	1738.73
274.54	1683.43
274.75	1755.11
274.97	1697.77
275.18	1775.59
275.40	1779.68
275.61	1667.05
275.83	1755.11
276.05	1656.81
276.26	1658.85
276.48	1726.44
276.69	1675.24
276.91	1665.00
277.12	1783.78
277.34	1775.59
277.55	1742.82
277.77	1736.68
277.99	1697.77
278.20	1638.38
278.42	1658.85
278.63	1689.57
278.85	1693.67
279.06	1636.33
279.28	1705.96
279.49	1800.16
279.71	1740.77
279.93	1687.53
280.14	1673.19
280.36	1677.29
280.57	1828.84
280.79	1732.58
281.00	1734.63
281.22	1626.09
281.43	1712.10
281.65	1566.70
281.86	1640.42
282.08	1697.77
282.29	1841.12
282.51	1642.47
282.73	1599.46
282.94	1679.33
283.16	1773.54
283.37	1771.49
283.59	1632.23
283.80	1785.83
284.02	1757.16
284.23	1734.63
284.45	1665.00
284.66	1611.75
284.88	1681.38
285.09	1796.07
285.31	1728.49
285.52	1677.29
285.74	1658.85
285.95	1679.33
286.17	1759.21
286.38	1730.53
286.60	1751.01
286.81	1681.38
287.03	1644.52
287.24	1687.53
287.46	1748.97
287.67	1642.47
287.89	1826.79
288.10	1687.53
288.32	1783.78
288.53	1781.73
288.75	1603.56
288.96	1677.29
289.18	1689.57
289.39	1673.19
289.61	1755.11
289.82	1744.87
290.04	1826.79
290.25	1624.04
290.47	1667.05
290.68	1669.09
290.90	1748.97
291.11	1638.38
291.33	1732.58
291.54	1685.48
291.76	1642.47
291.97	1667.05
292.18	1640.42
292.40	1619.94
292.61	1660.90
292.83	1859.56
293.04	1691.62
293.26	1775.59
293.47	1759.21
293.69	1681.38
293.90	1636.33
294.12	1740.77
294.33	1677.29
294.55	1673.19
294.76	1740.77
294.97	1759.21
295.19	1824.74
295.40	1599.46
295.62	1693.67
295.83	1685.48
296.05	1710.05
296.26	1810.40
296.48	1624.04
296.69	1638.38
296.90	1646.57
297.12	1751.01
297.33	1779.68
297.55	1665.00
297.76	1718.25
297.98	1757.16
298.19	1675.24
298.41	1683.43
298.62	1714.15
298.83	1751.01
299.05	1722.34
299.26	1587.18
299.48	1724.39
299.69	1660.90
299.90	1712.10
300.12	1660.90
300.33	1726.44
300.55	1736.68
300.76	1689.57
300.98	1587.18
301.19	1683.43
301.40	1646.57
301.62	1691.62
301.83	1771.49
302.05	1716.20
302.26	1665.00
302.47	1685.48
302.69	1703.91
302.90	1777.64
303.12	1591.27
303.33	1746.92
303.54	1820.64
303.76	1742.82
303.97	1753.06
304.19	1763.30
304.40	1701.86
304.61	1773.54
304.83	1857.51
305.04	1718.25
305.26	1765.35
305.47	1607.66
305.68	1710.05
305.90	1609.70
306.11	1722.34
306.33	1656.81
306.54	1648.61
306.75	1624.04
306.97	1646.57
307.18	1638.38
307.39	1712.10
307.61	1806.31
307.82	1632.23
308.04	1726.44
308.25	1654.76
308.46	1716.20
308.68	1738.73
308.89	1705.96
309.10	1789.92
309.32	1789.92
309.53	1714.15
309.74	1714.15
309.96	1673.19
310.17	1763.30
310.39	1648.61
310.60	1710.05
310.81	1814.50
311.03	1638.38
311.24	1787.88
311.45	1703.91
311.67	1820.64
311.88	1748.97
312.09	1691.62
312.31	1728.49
312.52	1689.57
312.73	1695.72
312.95	1677.29
313.16	1695.72
313.37	1810.40
313.59	1720.29
313.80	1789.92
314.01	1779.68
314.23	1691.62
314.44	1652.71
314.65	1642.47
314.87	1601.51
315.08	1708.01
315.29	1708.01
315.51	1705.96
315.72	1621.99
315.93	1834.98
316.15	1726.44
316.36	1681.38
316.57	1724.39
316.79	1703.91
317.00	1718.25
317.21	1724.39
317.43	1671.14
317.64	1720.29
317.85	1722.34
318.07	1667.05
318.28	1824.74
318.49	1816.55
318.70	2023.39
318.92	1849.32
319.13	1861.60
319.34	1890.28
319.56	1816.55
319.77	1843.17
319.98	1824.74
320.20	1837.03
320.41	1742.82
320.62	1783.78
320.83	1710.05
321.05	1888.23
321.26	1751.01
321.47	1665.00
321.69	1763.30
321.90	1624.04
322.11	1615.85
322.32	1685.48
322.54	1759.21
322.75	1695.72
322.96	1837.03
323.18	1587.18
323.39	1628.14
323.60	1632.23
323.81	1804.26
324.03	1681.38
324.24	1705.96
324.45	1708.01
324.66	1613.80
324.88	1724.39
325.09	1800.16
325.30	1662.95
325.52	1687.53
325.73	1771.49
325.94	1691.62
326.15	1660.90
326.37	1703.91
326.58	1730.53
326.79	1794.02
327.00	1681.38
327.22	1783.78
327.43	1671.14
327.64	1603.56
327.85	1806.31
328.07	1691.62
328.28	1798.12
328.49	1652.71
328.70	1730.53
328.92	1726.44
329.13	1667.05
329.34	1798.12
329.55	1808.36
329.76	1773.54
329.98	1701.86
330.19	1800.16
330.40	1751.01
330.61	1736.68
330.83	1734.63
331.04	1783.78
331.25	1677.29
331.46	1718.25
331.68	1671.14
331.89	1769.44
332.10	1677.29
332.31	1634.28
332.52	1689.57
332.74	1761.25
332.95	1632.23
333.16	1677.29
333.37	1759.21
333.58	1679.33
333.80	1724.39
334.01	1681.38
334.22	1783.78
334.43	1654.76
334.64	1687.53
334.86	1636.33
335.07	1662.95
335.28	1828.84
335.49	1650.66
335.70	1751.01
335.92	1777.64
336.13	1810.40
336.34	1736.68
336.55	1699.81
336.76	1726.44
336.98	1621.99
337.19	1787.88
337.40	1755.11
337.61	1863.65
337.82	1720.29
338.04	1851.36
338.25	1634.28
338.46	1714.15
338.67	1705.96
338.88	1642.47
339.09	1716.20
339.31	1660.90
339.52	1703.91
339.73	1693.67
339.94	1789.92
340.15	1751.01
340.36	1640.42
340.58	1710.05
340.79	1673.19
341.00	1781.73
341.21	1613.80
341.42	1816.55
341.63	1687.53
341.85	1746.92
342.06	1755.11
342.27	1689.57
342.48	1744.87
342.69	1720.29
342.90	1736.68
343.12	1724.39
343.33	1683.43
343.54	1832.93
343.75	1828.84
343.96	1697.77
344.17	1728.49
344.38	1726.44
344.60	1667.05
344.81	1576.94
345.02	1724.39
345.23	1687.53
345.44	1759.21
345.65	1740.77
345.86	1738.73
346.07	1814.50
346.29	1683.43
346.50	1814.50
346.71	1718.25
346.92	1771.49
347.13	1810.40
347.34	1716.20
347.55	1695.72
347.76	1746.92
347.98	1636.33
348.19	1722.34
348.40	1867.75
348.61	1662.95
348.82	1765.35
349.03	1761.25
349.24	1746.92
349.45	1820.64
349.66	1679.33
349.88	1744.87
350.09	1693.67
350.30	1851.36
350.51	1820.64
350.72	1705.96
350.93	1730.53
351.14	1677.29
351.35	1816.55
351.56	1683.43
351.77	1738.73
351.99	1697.77
352.20	1826.79
352.41	1759.21
352.62	1601.51
352.83	1673.19
353.04	1785.83
353.25	1687.53
353.46	1753.06
353.67	1689.57
353.88	1556.46
354.09	1734.63
354.30	1667.05
354.52	1705.96
354.73	1734.63
354.94	1677.29
355.15	1656.81
355.36	1730.53
355.57	1699.81
355.78	1791.97
355.99	1718.25
356.20	1761.25
356.41	1816.55
356.62	1681.38
356.83	1683.43
357.04	1783.78
357.25	1681.38
357.46	1695.72
357.68	1570.79
357.89	1687.53
358.10	1708.01
358.31	1683.43
358.52	1705.96
358.73	1648.61
358.94	1699.81
359.15	1734.63
359.36	1748.97
359.57	1716.20
359.78	1658.85
359.99	1665.00
360.20	1671.14
360.41	1693.67
360.62	1697.77
360.83	1705.96
361.04	1703.91
361.25	1781.73
361.46	1820.64
361.67	1746.92
361.88	1804.26
362.09	1767.40
362.30	1699.81
362.51	1765.35
362.72	1630.18
362.93	1734.63
363.14	1746.92
363.35	1751.01
363.56	1624.04
363.78	1730.53
363.99	1710.05
364.20	1642.47
364.41	1746.92
364.62	1785.83
364.83	1804.26
365.04	1728.49
365.25	1697.77
365.46	1818.60
365.67	1691.62
365.88	1716.20
366.09	1787.88
366.30	1687.53
366.51	1667.05
366.72	1705.96
366.93	1656.81
367.14	1730.53
367.35	1761.25
367.56	1687.53
367.77	1832.93
367.98	1669.09
368.18	1726.44
368.39	1681.38
368.60	1730.53
368.81	1779.68
369.02	1773.54
369.23	1730.53
369.44	1640.42
369.65	1652.71
369.86	1736.68
370.07	1785.83
370.28	1646.57
370.49	1734.63
370.70	1824.74
370.91	1660.90
371.12	1607.66
371.33	1740.77
371.54	1736.68
371.75	1771.49
371.96	1640.42
372.17	1759.21
372.38	1695.72
372.59	1791.97
372.80	1679.33
373.01	1705.96
373.22	1708.01
373.43	1787.88
373.64	1601.51
373.85	1744.87
374.06	1757.16
374.26	1771.49
374.47	1769.44
374.68	1746.92
374.89	1791.97
375.10	1751.01
375.31	1708.01
375.52	1697.77
375.73	1693.67
375.94	1697.77
376.15	1832.93
376.36	1648.61
376.57	1597.42
376.78	1652.71
376.99	1710.05
377.20	1710.05
377.40	1691.62
377.61	1732.58
377.82	1636.33
378.03	1791.97
378.24	1773.54
378.45	1730.53
378.66	1726.44
378.87	1628.14
379.08	1650.66
379.29	1726.44
379.50	1779.68
379.71	1599.46
379.91	1757.16
380.12	1720.29
380.33	1716.20
380.54	1736.68
380.75	1697.77
380.96	1689.57
381.17	1654.76
381.38	1650.66
381.59	1734.63
381.80	1771.49
382.00	1839.08
382.21	1816.55
382.42	1898.47
382.63	1900.52
382.84	1751.01
383.05	1751.01
383.26	1880.04
383.47	1669.09
383.68	1669.09
383.88	1794.02
384.09	1775.59
384.30	1884.13
384.51	1654.76
384.72	1671.14
384.93	1650.66
385.14	1665.00
385.35	1828.84
385.55	1566.70
385.76	1789.92
385.97	1716.20
386.18	1634.28
386.39	1658.85
386.60	1667.05
386.81	1740.77
387.02	1669.09
387.22	1632.23
387.43	1796.07
387.64	1810.40
387.85	1888.23
388.06	2254.81
388.27	4818.87
388.48	9179.00
388.68	11773.77
388.89	13438.77
389.10	14194.47
389.31	11919.18
389.52	9529.20
389.73	8619.90
389.93	7831.43
390.14	7309.20
390.35	6662.04
390.56	5963.68
390.77	5023.67
390.98	3905.48
391.18	3069.91
391.39	2279.39
391.60	1914.85
391.81	1824.74
392.02	1689.57
392.23	1859.56
392.43	1751.01
392.64	1886.18
392.85	1742.82
393.06	1806.31
393.27	1642.47
393.47	1740.77
393.68	1767.40
393.89	1714.15
394.10	1712.10
394.31	1628.14
394.52	1671.14
394.72	1699.81
394.93	1837.03
395.14	1591.27
395.35	1669.09
395.56	1685.48
395.76	1769.44
395.97	1796.07
396.18	1826.79
396.39	1910.75
396.60	2066.40
396.80	2009.06
397.01	1908.71
397.22	1853.41
397.43	1841.12
397.64	1705.96
397.84	1837.03
398.05	1900.52
398.26	1779.68
398.47	1877.99
398.67	1834.98
398.88	1679.33
399.09	1773.54
399.30	1710.05
399.51	1734.63
399.71	1685.48
399.92	1689.57
400.13	1804.26
400.34	1716.20
400.54	1751.01
400.75	1890.28
400.96	1716.20
401.17	1787.88
401.37	1671.14
401.58	1613.80
401.79	1763.30
402.00	1804.26
402.21	2023.39
402.41	2111.46
402.62	2029.54
402.83	2078.69
403.04	2215.90
403.24	1996.77
403.45	1904.61
403.66	1976.29
403.87	1898.47
404.07	1949.67
404.28	1980.39
404.49	1943.52
404.70	1832.93
404.90	1808.36
405.11	1730.53
405.32	1826.79
405.52	1703.91
405.73	1654.76
405.94	1718.25
406.15	1773.54
406.35	1769.44
406.56	1824.74
406.77	1714.15
406.98	1675.24
407.18	1654.76
407.39	1742.82
407.60	1693.67
407.80	1681.38
408.01	1660.90
408.22	1689.57
408.43	1695.72
408.63	1746.92
408.84	1738.73
409.05	1791.97
409.25	1617.90
409.46	1673.19
409.67	1746.92
409.88	1671.14
410.08	1748.97
410.29	1624.04
410.50	1714.15
410.70	1773.54
410.91	1652.71
411.12	1728.49
411.32	1734.63
411.53	1648.61
411.74	1785.83
411.95	1865.70
412.15	1800.16
412.36	1851.36
412.57	1812.45
412.77	1802.21
412.98	1787.88
413.19	1718.25
413.39	1765.35
413.60	1732.58
413.81	1802.21
414.01	1724.39
414.22	1761.25
414.43	1755.11
414.63	1722.34
414.84	1812.45
415.05	1816.55
415.25	1634.28
415.46	1820.64
415.67	1662.95
415.87	1701.86
416.08	1693.67
416.29	1701.86
416.49	1726.44
416.70	1687.53
416.91	1703.91
417.11	1781.73
417.32	1744.87
417.53	1687.53
417.73	1763.30
417.94	1642.47
418.15	1660.90
418.35	1665.00
418.56	1712.10
418.77	1837.03
418.97	1738.73
419.18	1724.39
419.38	1535.98
419.59	1669.09
419.80	1730.53
420.00	1646.57
420.21	1771.49
420.42	1734.63
420.62	1679.33
420.83	1701.86
421.04	1744.87
421.24	1675.24
421.45	1736.68
421.65	1765.35
421.86	1722.34
422.07	1685.48
422.27	1697.77
422.48	1820.64
422.69	1656.81
422.89	1703.91
423.10	1691.62
423.30	1632.23
423.51	1732.58
423.72	1662.95
423.92	1724.39
424.13	1638.38
424.33	1691.62
424.54	1738.73
424.75	1640.42
424.95	1859.56
425.16	1787.88
425.36	1642.47
425.57	1751.01
425.78	1705.96
425.98	1673.19
426.19	1736.68
426.39	1669.09
426.60	1689.57
426.81	1763.30
427.01	1810.40
427.22	1583.08
427.42	1650.66
427.63	1687.53
427.83	1683.43
428.04	1826.79
428.25	1820.64
428.45	1843.17
428.66	1787.88
428.86	1662.95
429.07	1732.58
429.28	1583.08
429.48	1718.25
429.69	1697.77
429.89	1687.53
430.10	1742.82
430.30	1757.16
430.51	1761.25
430.71	1697.77
430.92	1681.38
431.13	1710.05
431.33	1697.77
431.54	1781.73
431.74	1791.97
431.95	1837.03
432.15	1701.86
432.36	1732.58
432.56	1734.63
432.77	1755.11
432.98	1777.64
433.18	1730.53
433.39	1726.44
433.59	1759.21
433.80	1859.56
434.00	1789.92
434.21	1703.91
434.41	1658.85
434.62	1839.08
434.82	1689.57
435.03	1636.33
435.23	1787.88
435.44	1550.31
435.64	1736.68
435.85	1779.68
436.06	1738.73
436.26	1789.92
436.47	1687.53
436.67	1685.48
436.88	1685.48
437.08	1781.73
437.29	1832.93
437.49	1744.87
437.70	1751.01
437.90	1652.71
438.11	1875.94
438.31	1861.60
438.52	1910.75
438.72	1945.57
438.93	1964.00
439.13	1828.84
439.34	1818.60
439.54	1738.73
439.75	1826.79
439.95	1812.45
440.16	1746.92
440.36	1804.26
440.57	1787.88
440.77	1871.84
440.98	1783.78
441.18	1705.96
441.39	1748.97
441.59	1658.85
441.80	1824.74
442.00	1775.59
442.21	1816.55
442.41	1585.13
442.62	1724.39
442.82	1699.81
443.02	1736.68
443.23	1765.35
443.43	1710.05
443.64	1734.63
443.84	1771.49
444.05	1820.64
444.25	1775.59
444.46	1816.55
444.66	1765.35
444.87	1861.60
445.07	1597.42
445.28	1697.77
445.48	1804.26
445.69	1726.44
445.89	1902.56
446.09	1757.16
446.30	1986.53
446.50	2566.10
446.71	4212.67
446.91	5207.98
447.12	5734.31
447.32	6043.56
447.53	5302.19
447.73	4448.19
447.93	4067.27
448.14	3717.06
448.34	3459.02
448.55	3061.71
448.75	3047.38
448.96	2985.94
449.16	2619.35
449.36	2498.52
449.57	2158.56
449.77	1923.04
449.98	1740.77
450.18	1865.70
450.39	1738.73
450.59	1845.22
450.79	1703.91
451.00	1714.15
451.20	1775.59
451.41	1722.34
451.61	1820.64
451.81	1699.81
452.02	1742.82
452.22	1728.49
452.43	1683.43
452.63	1730.53
