SpectraSuite Data File
++++++++++++++++++++++++++++++++++++
Date: Wed May 04 18:44:54 CEST 2016
User: root
Dark Spectrum Present: No
Reference Spectrum Present: No
Number of Sampled Component Spectra: 1
Spectrometers: USB4C02835
Integration Time (usec): 100000 (USB4C02835)
Spectra Averaged: 1 (USB4C02835)
Boxcar Smoothing: 0 (USB4C02835)
Correct for Electrical Dark: No (USB4C02835)
Strobe/Lamp Enabled: No (USB4C02835)
Correct for Detector Non-linearity: No (USB4C02835)
Correct for Stray Light: No (USB4C02835)
Number of Pixels in Processed Spectrum: 3648
>>>>>Begin Processed Spectral Data<<<<<
177.47	1501.16
177.69	1501.16
177.91	1501.16
178.13	1472.49
178.36	1505.26
178.58	1654.76
178.80	1763.30
179.02	1613.80
179.24	1681.38
179.46	1705.96
179.68	1796.07
179.90	1669.09
180.13	1705.96
180.35	1689.57
180.57	1761.25
180.79	1710.05
181.01	1640.42
181.23	1830.88
181.45	1787.88
181.67	1687.53
181.90	1787.88
182.12	1634.28
182.34	1646.57
182.56	1718.25
182.78	1701.86
183.00	1722.34
183.22	1710.05
183.44	1632.23
183.66	1873.89
183.89	1822.69
184.11	1716.20
184.33	1826.79
184.55	1818.60
184.77	1789.92
184.99	1656.81
185.21	1710.05
185.43	1822.69
185.65	1630.18
185.87	1730.53
186.10	1873.89
186.32	1841.12
186.54	1710.05
186.76	1705.96
186.98	1751.01
187.20	1734.63
187.42	1646.57
187.64	1703.91
187.86	1695.72
188.08	1724.39
188.30	1744.87
188.52	1708.01
188.75	1800.16
188.97	1812.45
189.19	1683.43
189.41	1718.25
189.63	1761.25
189.85	1701.86
190.07	1652.71
190.29	1642.47
190.51	1732.58
190.73	1671.14
190.95	1775.59
191.17	1667.05
191.39	1658.85
191.61	1603.56
191.84	1681.38
192.06	1660.90
192.28	1593.32
192.50	1830.88
192.72	1753.06
192.94	1681.38
193.16	1783.78
193.38	1728.49
193.60	1677.29
193.82	1697.77
194.04	1763.30
194.26	1806.31
194.48	1681.38
194.70	1703.91
194.92	1728.49
195.14	1769.44
195.36	1667.05
195.58	1728.49
195.80	1724.39
196.02	1648.61
196.24	1685.48
196.46	1701.86
196.69	1712.10
196.91	1822.69
197.13	1621.99
197.35	1677.29
197.57	1804.26
197.79	1761.25
198.01	1785.83
198.23	1728.49
198.45	1769.44
198.67	1581.03
198.89	1695.72
199.11	1710.05
199.33	1671.14
199.55	1632.23
199.77	1689.57
199.99	1763.30
200.21	1714.15
200.43	1705.96
200.65	1755.11
200.87	1585.13
201.09	1687.53
201.31	1675.24
201.53	1814.50
201.75	1781.73
201.97	1734.63
202.19	1736.68
202.41	1654.76
202.63	1849.32
202.85	1783.78
203.07	1699.81
203.29	1728.49
203.51	1662.95
203.73	1695.72
203.95	1898.47
204.17	1787.88
204.39	1738.73
204.61	1656.81
204.83	1738.73
205.05	1761.25
205.27	1732.58
205.49	1863.65
205.71	1630.18
205.93	1654.76
206.15	1685.48
206.37	1714.15
206.59	1718.25
206.81	1636.33
207.03	1599.46
207.25	1677.29
207.47	1734.63
207.69	1732.58
207.91	1791.97
208.13	1810.40
208.34	1701.86
208.56	1642.47
208.78	1695.72
209.00	1681.38
209.22	1642.47
209.44	1644.52
209.66	1648.61
209.88	1658.85
210.10	1677.29
210.32	1714.15
210.54	1810.40
210.76	1677.29
210.98	1734.63
211.20	1572.84
211.42	1734.63
211.64	1802.21
211.86	1705.96
212.08	1726.44
212.30	1708.01
212.52	1708.01
212.74	1742.82
212.96	1675.24
213.17	1775.59
213.39	1683.43
213.61	1773.54
213.83	1751.01
214.05	1689.57
214.27	1755.11
214.49	1654.76
214.71	1650.66
214.93	1744.87
215.15	1716.20
215.37	1724.39
215.59	1603.56
215.81	1798.12
216.03	1789.92
216.24	1738.73
216.46	1689.57
216.68	1775.59
216.90	1771.49
217.12	1804.26
217.34	1726.44
217.56	1697.77
217.78	1855.46
218.00	1689.57
218.22	1724.39
218.44	1734.63
218.66	1726.44
218.87	1839.08
219.09	1738.73
219.31	1705.96
219.53	1703.91
219.75	1626.09
219.97	1648.61
220.19	1718.25
220.41	1726.44
220.63	1839.08
220.85	1724.39
221.06	1660.90
221.28	1828.84
221.50	1687.53
221.72	1746.92
221.94	1691.62
222.16	1708.01
222.38	1742.82
222.60	1724.39
222.82	1697.77
223.03	1746.92
223.25	1662.95
223.47	1748.97
223.69	1849.32
223.91	1705.96
224.13	1658.85
224.35	1624.04
224.57	1834.98
224.78	1691.62
225.00	1671.14
225.22	1705.96
225.44	1738.73
225.66	1816.55
225.88	1701.86
226.10	1779.68
226.32	1724.39
226.53	1808.36
226.75	1624.04
226.97	1769.44
227.19	1718.25
227.41	1712.10
227.63	1654.76
227.85	1693.67
228.06	1763.30
228.28	1751.01
228.50	1720.29
228.72	1695.72
228.94	1695.72
229.16	1705.96
229.37	1642.47
229.59	1650.66
229.81	1742.82
230.03	1669.09
230.25	1679.33
230.47	1652.71
230.69	1648.61
230.90	1687.53
231.12	1658.85
231.34	1679.33
231.56	1787.88
231.78	1687.53
232.00	1691.62
232.21	1732.58
232.43	1652.71
232.65	1630.18
232.87	1710.05
233.09	1646.57
233.30	1685.48
233.52	1736.68
233.74	1718.25
233.96	1669.09
234.18	1662.95
234.40	1640.42
234.61	1824.74
234.83	1728.49
235.05	1689.57
235.27	1849.32
235.49	1705.96
235.70	1693.67
235.92	1708.01
236.14	1705.96
236.36	1961.95
236.58	1677.29
236.79	1677.29
237.01	1685.48
237.23	1716.20
237.45	1810.40
237.67	1640.42
237.88	1751.01
238.10	1851.36
238.32	1609.70
238.54	1681.38
238.76	1708.01
238.97	1650.66
239.19	1695.72
239.41	1814.50
239.63	1761.25
239.85	1671.14
240.06	1708.01
240.28	1722.34
240.50	1722.34
240.72	1730.53
240.93	1708.01
241.15	1759.21
241.37	1726.44
241.59	1890.28
241.81	1730.53
242.02	1787.88
242.24	1783.78
242.46	1738.73
242.68	1630.18
242.89	1812.45
243.11	1800.16
243.33	1701.86
243.55	1701.86
243.76	1714.15
243.98	1673.19
244.20	1705.96
244.42	1742.82
244.64	1742.82
244.85	1585.13
245.07	1640.42
245.29	1699.81
245.51	1673.19
245.72	1824.74
245.94	1753.06
246.16	1716.20
246.38	1783.78
246.59	1687.53
246.81	1621.99
247.03	1636.33
247.24	1589.22
247.46	1685.48
247.68	1714.15
247.90	1648.61
248.11	1689.57
248.33	1665.00
248.55	1701.86
248.77	1697.77
248.98	1708.01
249.20	1785.83
249.42	1744.87
249.64	1767.40
249.85	1710.05
250.07	1677.29
250.29	1714.15
250.50	1763.30
250.72	1615.85
250.94	1753.06
251.16	1816.55
251.37	1763.30
251.59	1720.29
251.81	1720.29
252.02	1746.92
252.24	1628.14
252.46	1728.49
252.68	1634.28
252.89	1648.61
253.11	1597.42
253.33	1820.64
253.54	1738.73
253.76	1632.23
253.98	1613.80
254.20	1714.15
254.41	1630.18
254.63	1601.51
254.85	1705.96
255.06	1642.47
255.28	1669.09
255.50	1730.53
255.71	1701.86
255.93	1628.14
256.15	1699.81
256.36	1728.49
256.58	1679.33
256.80	1705.96
257.02	1759.21
257.23	1697.77
257.45	1675.24
257.67	1679.33
257.88	1673.19
258.10	1794.02
258.32	1591.27
258.53	1693.67
258.75	1777.64
258.97	1640.42
259.18	1697.77
259.40	1710.05
259.62	1816.55
259.83	1816.55
260.05	1720.29
260.27	1925.09
260.48	1837.03
260.70	1640.42
260.92	1703.91
261.13	1691.62
261.35	1691.62
261.57	1761.25
261.78	1640.42
262.00	1613.80
262.22	1630.18
262.43	1718.25
262.65	1738.73
262.86	1673.19
263.08	1869.80
263.30	1679.33
263.51	1656.81
263.73	1652.71
263.95	1830.88
264.16	1652.71
264.38	1648.61
264.60	1732.58
264.81	1763.30
265.03	1765.35
265.25	1798.12
265.46	1693.67
265.68	1810.40
265.89	1716.20
266.11	1583.08
266.33	1689.57
266.54	1755.11
266.76	1722.34
266.98	1730.53
267.19	1753.06
267.41	1710.05
267.62	1767.40
267.84	1624.04
268.06	1728.49
268.27	1656.81
268.49	1738.73
268.70	1695.72
268.92	1703.91
269.14	1667.05
269.35	1662.95
269.57	1705.96
269.79	1681.38
270.00	1734.63
270.22	1794.02
270.43	1660.90
270.65	1619.94
270.87	1791.97
271.08	1726.44
271.30	1695.72
271.51	1765.35
271.73	1693.67
271.95	1761.25
272.16	1794.02
272.38	1656.81
272.59	1748.97
272.81	1746.92
273.02	1681.38
273.24	1740.77
273.46	1751.01
273.67	1660.90
273.89	1638.38
274.10	1658.85
274.32	1830.88
274.54	1705.96
274.75	1660.90
274.97	1677.29
275.18	1730.53
275.40	1677.29
275.61	1748.97
275.83	1671.14
276.05	1665.00
276.26	1699.81
276.48	1812.45
276.69	1599.46
276.91	1615.85
277.12	1796.07
277.34	1714.15
277.55	1648.61
277.77	1728.49
277.99	1681.38
278.20	1617.90
278.42	1742.82
278.63	1628.14
278.85	1757.16
279.06	1699.81
279.28	1660.90
279.49	1667.05
279.71	1763.30
279.93	1705.96
280.14	1673.19
280.36	1705.96
280.57	1791.97
280.79	1751.01
281.00	1691.62
281.22	1558.50
281.43	1779.68
281.65	1624.04
281.86	1617.90
282.08	1755.11
282.29	1896.42
282.51	1656.81
282.73	1673.19
282.94	1652.71
283.16	1744.87
283.37	1898.47
283.59	1673.19
283.80	1748.97
284.02	1677.29
284.23	1710.05
284.45	1703.91
284.66	1665.00
284.88	1691.62
285.09	1746.92
285.31	1728.49
285.52	1763.30
285.74	1693.67
285.95	1751.01
286.17	1691.62
286.38	1724.39
286.60	1634.28
286.81	1683.43
287.03	1681.38
287.24	1683.43
287.46	1675.24
287.67	1775.59
287.89	1816.55
288.10	1736.68
288.32	1675.24
288.53	1806.31
288.75	1746.92
288.96	1791.97
289.18	1685.48
289.39	1699.81
289.61	1699.81
289.82	1931.23
290.04	1783.78
290.25	1605.61
290.47	1646.57
290.68	1675.24
290.90	1722.34
291.11	1714.15
291.33	1718.25
291.54	1718.25
291.76	1673.19
291.97	1693.67
292.18	1740.77
292.40	1681.38
292.61	1685.48
292.83	1859.56
293.04	1746.92
293.26	1734.63
293.47	1730.53
293.69	1644.52
293.90	1650.66
294.12	1808.36
294.33	1732.58
294.55	1734.63
294.76	1722.34
294.97	1806.31
295.19	1812.45
295.40	1691.62
295.62	1673.19
295.83	1828.84
296.05	1667.05
296.26	1771.49
296.48	1693.67
296.69	1722.34
296.90	1736.68
297.12	1787.88
297.33	1783.78
297.55	1726.44
297.76	1738.73
297.98	1724.39
298.19	1728.49
298.41	1701.86
298.62	1767.40
298.83	1779.68
299.05	1656.81
299.26	1671.14
299.48	1640.42
299.69	1761.25
299.90	1708.01
300.12	1697.77
300.33	1740.77
300.55	1771.49
300.76	1736.68
300.98	1650.66
301.19	1826.79
301.40	1701.86
301.62	1724.39
301.83	1691.62
302.05	1689.57
302.26	1656.81
302.47	1648.61
302.69	1609.70
302.90	1652.71
303.12	1626.09
303.33	1773.54
303.54	1875.94
303.76	1738.73
303.97	1724.39
304.19	1796.07
304.40	1634.28
304.61	1677.29
304.83	1834.98
305.04	1773.54
305.26	1744.87
305.47	1708.01
305.68	1710.05
305.90	1658.85
306.11	1755.11
306.33	1689.57
306.54	1669.09
306.75	1705.96
306.97	1683.43
307.18	1656.81
307.39	1621.99
307.61	1714.15
307.82	1640.42
308.04	1769.44
308.25	1693.67
308.46	1773.54
308.68	1708.01
308.89	1720.29
309.10	1736.68
309.32	1673.19
309.53	1669.09
309.74	1677.29
309.96	1748.97
310.17	1800.16
310.39	1693.67
310.60	1751.01
310.81	1722.34
311.03	1646.57
311.24	1650.66
311.45	1734.63
311.67	1796.07
311.88	1654.76
312.09	1701.86
312.31	1695.72
312.52	1712.10
312.73	1738.73
312.95	1648.61
313.16	1710.05
313.37	1794.02
313.59	1714.15
313.80	1794.02
314.01	1785.83
314.23	1613.80
314.44	1667.05
314.65	1613.80
314.87	1630.18
315.08	1705.96
315.29	1761.25
315.51	1607.66
315.72	1660.90
315.93	1839.08
316.15	1804.26
316.36	1646.57
316.57	1705.96
316.79	1742.82
317.00	1650.66
317.21	1701.86
317.43	1689.57
317.64	1746.92
317.85	1685.48
318.07	1744.87
318.28	1814.50
318.49	1951.71
318.70	1906.66
318.92	1851.36
319.13	1931.23
319.34	1916.90
319.56	1845.22
319.77	1806.31
319.98	1773.54
320.20	1820.64
320.41	1765.35
320.62	1742.82
320.83	1705.96
321.05	1869.80
321.26	1779.68
321.47	1734.63
321.69	1769.44
321.90	1656.81
322.11	1705.96
322.32	1746.92
322.54	1726.44
322.75	1734.63
322.96	1873.89
323.18	1673.19
323.39	1607.66
323.60	1644.52
323.81	1789.92
324.03	1681.38
324.24	1705.96
324.45	1726.44
324.66	1689.57
324.88	1794.02
325.09	1841.12
325.30	1652.71
325.52	1734.63
325.73	1738.73
325.94	1730.53
326.15	1576.94
326.37	1630.18
326.58	1775.59
326.79	1738.73
327.00	1667.05
327.22	1726.44
327.43	1701.86
327.64	1656.81
327.85	1708.01
328.07	1771.49
328.28	1736.68
328.49	1642.47
328.70	1787.88
328.92	1665.00
329.13	1669.09
329.34	1757.16
329.55	1748.97
329.76	1730.53
329.98	1634.28
330.19	1791.97
330.40	1730.53
330.61	1746.92
330.83	1767.40
331.04	1689.57
331.25	1732.58
331.46	1738.73
331.68	1636.33
331.89	1738.73
332.10	1646.57
332.31	1619.94
332.52	1683.43
332.74	1779.68
332.95	1646.57
333.16	1673.19
333.37	1714.15
333.58	1703.91
333.80	1652.71
334.01	1667.05
334.22	1679.33
334.43	1677.29
334.64	1701.86
334.86	1656.81
335.07	1656.81
335.28	1822.69
335.49	1603.56
335.70	1734.63
335.92	1789.92
336.13	1806.31
336.34	1771.49
336.55	1775.59
336.76	1761.25
336.98	1574.89
337.19	1685.48
337.40	1822.69
337.61	1908.71
337.82	1675.24
338.04	1781.73
338.25	1615.85
338.46	1626.09
338.67	1732.58
338.88	1687.53
339.09	1695.72
339.31	1650.66
339.52	1607.66
339.73	1609.70
339.94	1642.47
340.15	1824.74
340.36	1730.53
340.58	1765.35
340.79	1673.19
341.00	1705.96
341.21	1720.29
341.42	1775.59
341.63	1726.44
341.85	1699.81
342.06	1726.44
342.27	1662.95
342.48	1712.10
342.69	1632.23
342.90	1722.34
343.12	1771.49
343.33	1697.77
343.54	1779.68
343.75	1755.11
343.96	1748.97
344.17	1689.57
344.38	1658.85
344.60	1585.13
344.81	1665.00
345.02	1697.77
345.23	1820.64
345.44	1816.55
345.65	1746.92
345.86	1753.06
346.07	1755.11
346.29	1665.00
346.50	1742.82
346.71	1714.15
346.92	1710.05
347.13	1787.88
347.34	1761.25
347.55	1683.43
347.76	1683.43
347.98	1599.46
348.19	1677.29
348.40	1787.88
348.61	1710.05
348.82	1861.60
349.03	1685.48
349.24	1732.58
349.45	1806.31
349.66	1636.33
349.88	1767.40
350.09	1662.95
350.30	1755.11
350.51	1779.68
350.72	1701.86
350.93	1714.15
351.14	1648.61
351.35	1800.16
351.56	1650.66
351.77	1650.66
351.99	1691.62
352.20	1775.59
352.41	1714.15
352.62	1523.69
352.83	1726.44
353.04	1785.83
353.25	1665.00
353.46	1773.54
353.67	1710.05
353.88	1601.51
354.09	1726.44
354.30	1718.25
354.52	1759.21
354.73	1812.45
354.94	1644.52
355.15	1771.49
355.36	1816.55
355.57	1732.58
355.78	1740.77
355.99	1665.00
356.20	1687.53
356.41	1767.40
356.62	1736.68
356.83	1779.68
357.04	1742.82
357.25	1603.56
357.46	1673.19
357.68	1599.46
357.89	1636.33
358.10	1714.15
358.31	1705.96
358.52	1689.57
358.73	1718.25
358.94	1636.33
359.15	1728.49
359.36	1751.01
359.57	1636.33
359.78	1660.90
359.99	1742.82
360.20	1646.57
360.41	1673.19
360.62	1693.67
360.83	1740.77
361.04	1683.43
361.25	1785.83
361.46	1847.27
361.67	1791.97
361.88	1775.59
362.09	1781.73
362.30	1736.68
362.51	1595.37
362.72	1738.73
362.93	1738.73
363.14	1748.97
363.35	1767.40
363.56	1775.59
363.78	1812.45
363.99	1794.02
364.20	1738.73
364.41	1714.15
364.62	1781.73
364.83	1765.35
365.04	1736.68
365.25	1669.09
365.46	1845.22
365.67	1759.21
365.88	1714.15
366.09	1634.28
366.30	1738.73
366.51	1757.16
366.72	1642.47
366.93	1683.43
367.14	1808.36
367.35	1804.26
367.56	1761.25
367.77	1818.60
367.98	1712.10
368.18	1755.11
368.39	1681.38
368.60	1650.66
368.81	1652.71
369.02	1742.82
369.23	1681.38
369.44	1630.18
369.65	1732.58
369.86	1806.31
370.07	1699.81
370.28	1708.01
370.49	1787.88
370.70	1740.77
370.91	1644.52
371.12	1535.98
371.33	1742.82
371.54	1607.66
371.75	1802.21
371.96	1533.93
372.17	1755.11
372.38	1748.97
372.59	1800.16
372.80	1746.92
373.01	1775.59
373.22	1691.62
373.43	1746.92
373.64	1630.18
373.85	1855.46
374.06	1834.98
374.26	1658.85
374.47	1662.95
374.68	1759.21
374.89	1765.35
375.10	1665.00
375.31	1800.16
375.52	1652.71
375.73	1724.39
375.94	1632.23
376.15	1763.30
376.36	1615.85
376.57	1652.71
376.78	1621.99
376.99	1650.66
377.20	1867.75
377.40	1628.14
377.61	1824.74
377.82	1630.18
378.03	1798.12
378.24	1732.58
378.45	1665.00
378.66	1689.57
378.87	1617.90
379.08	1642.47
379.29	1712.10
379.50	1791.97
379.71	1642.47
379.91	1740.77
380.12	1689.57
380.33	1673.19
380.54	1689.57
380.75	1769.44
380.96	1705.96
381.17	1667.05
381.38	1720.29
381.59	1728.49
381.80	1705.96
382.00	1853.41
382.21	1779.68
382.42	1810.40
382.63	1898.47
382.84	1783.78
383.05	1832.93
383.26	1849.32
383.47	1816.55
383.68	1800.16
383.88	1763.30
384.09	1693.67
384.30	1822.69
384.51	1730.53
384.72	1665.00
384.93	1675.24
385.14	1732.58
385.35	1828.84
385.55	1613.80
385.76	1783.78
385.97	1671.14
386.18	1646.57
386.39	1697.77
386.60	1720.29
386.81	1816.55
387.02	1710.05
387.22	1640.42
387.43	1816.55
387.64	1845.22
387.85	1904.61
388.06	2209.76
388.27	4708.28
388.48	9207.67
388.68	11796.30
388.89	13285.17
389.10	14317.35
389.31	12166.98
389.52	9756.52
389.73	8716.16
389.93	7901.06
390.14	7106.45
390.35	6862.74
390.56	5943.21
390.77	5072.82
390.98	3921.86
391.18	3119.06
391.39	2418.65
391.60	1918.95
391.81	1896.42
392.02	1771.49
392.23	1847.27
392.43	1748.97
392.64	1855.46
392.85	1775.59
393.06	1886.18
393.27	1757.16
393.47	1695.72
393.68	1789.92
393.89	1691.62
394.10	1822.69
394.31	1665.00
394.52	1689.57
394.72	1636.33
394.93	1816.55
395.14	1665.00
395.35	1757.16
395.56	1679.33
395.76	1673.19
395.97	1849.32
396.18	1865.70
396.39	1888.23
396.60	2082.78
396.80	1978.34
397.01	1814.50
397.22	1890.28
397.43	1914.85
397.64	1789.92
397.84	1798.12
398.05	1853.41
398.26	1751.01
398.47	1779.68
398.67	1845.22
398.88	1695.72
399.09	1685.48
399.30	1654.76
399.51	1775.59
399.71	1681.38
399.92	1699.81
400.13	1748.97
400.34	1761.25
400.54	1718.25
400.75	1789.92
400.96	1753.06
401.17	1802.21
401.37	1732.58
401.58	1695.72
401.79	1638.38
402.00	1882.08
402.21	2131.94
402.41	2058.21
402.62	2220.00
402.83	2308.06
403.04	2031.58
403.24	2115.55
403.45	1959.91
403.66	1947.62
403.87	1976.29
404.07	1902.56
404.28	1943.52
404.49	1953.76
404.70	1798.12
404.90	1843.17
405.11	1802.21
405.32	1789.92
405.52	1701.86
405.73	1675.24
405.94	1734.63
406.15	1740.77
406.35	1789.92
406.56	1740.77
406.77	1759.21
406.98	1683.43
407.18	1681.38
407.39	1783.78
407.60	1703.91
407.80	1763.30
408.01	1677.29
408.22	1689.57
408.43	1658.85
408.63	1775.59
408.84	1787.88
409.05	1773.54
409.25	1689.57
409.46	1763.30
409.67	1710.05
409.88	1667.05
410.08	1675.24
410.29	1730.53
410.50	1755.11
410.70	1789.92
410.91	1730.53
411.12	1732.58
411.32	1701.86
411.53	1662.95
411.74	1818.60
411.95	1865.70
412.15	1812.45
412.36	1769.44
412.57	1843.17
412.77	1732.58
412.98	1781.73
413.19	1685.48
413.39	1753.06
413.60	1804.26
413.81	1802.21
414.01	1689.57
414.22	1828.84
414.43	1892.32
414.63	1720.29
414.84	1789.92
415.05	1669.09
415.25	1732.58
415.46	1796.07
415.67	1738.73
415.87	1775.59
416.08	1779.68
416.29	1691.62
416.49	1732.58
416.70	1732.58
416.91	1746.92
417.11	1669.09
417.32	1744.87
417.53	1669.09
417.73	1783.78
417.94	1763.30
418.15	1691.62
418.35	1687.53
418.56	1716.20
418.77	1939.43
418.97	1705.96
419.18	1781.73
419.38	1693.67
419.59	1658.85
419.80	1804.26
420.00	1724.39
420.21	1763.30
420.42	1714.15
420.62	1626.09
420.83	1691.62
421.04	1800.16
421.24	1644.52
421.45	1710.05
421.65	1759.21
421.86	1705.96
422.07	1722.34
422.27	1730.53
422.48	1824.74
422.69	1638.38
422.89	1759.21
423.10	1738.73
423.30	1662.95
423.51	1822.69
423.72	1720.29
423.92	1794.02
424.13	1636.33
424.33	1710.05
424.54	1742.82
424.75	1763.30
424.95	1785.83
425.16	1751.01
425.36	1755.11
425.57	1738.73
425.78	1718.25
425.98	1746.92
426.19	1658.85
426.39	1650.66
426.60	1716.20
426.81	1757.16
427.01	1755.11
427.22	1675.24
427.42	1671.14
427.63	1671.14
427.83	1642.47
428.04	1740.77
428.25	1787.88
428.45	1830.88
428.66	1736.68
428.86	1714.15
429.07	1742.82
429.28	1746.92
429.48	1714.15
429.69	1630.18
429.89	1740.77
430.10	1648.61
430.30	1800.16
430.51	1828.84
430.71	1710.05
430.92	1742.82
431.13	1669.09
431.33	1738.73
431.54	1669.09
431.74	1746.92
431.95	1763.30
432.15	1632.23
432.36	1726.44
432.56	1775.59
432.77	1810.40
432.98	1814.50
433.18	1718.25
433.39	1691.62
433.59	1701.86
433.80	1791.97
434.00	1826.79
434.21	1718.25
434.41	1650.66
434.62	1910.75
434.82	1703.91
435.03	1662.95
435.23	1720.29
435.44	1613.80
435.64	1716.20
435.85	1722.34
436.06	1708.01
436.26	1718.25
436.47	1701.86
436.67	1636.33
436.88	1738.73
437.08	1726.44
437.29	1730.53
437.49	1730.53
437.70	1759.21
437.90	1728.49
438.11	1787.88
438.31	1830.88
438.52	1912.80
438.72	1851.36
438.93	2037.73
439.13	1812.45
439.34	1898.47
439.54	1785.83
439.75	1742.82
439.95	1906.66
440.16	1798.12
440.36	1796.07
440.57	1775.59
440.77	1816.55
440.98	1742.82
441.18	1771.49
441.39	1748.97
441.59	1673.19
441.80	1841.12
442.00	1751.01
442.21	1787.88
442.41	1712.10
442.62	1753.06
442.82	1687.53
443.02	1652.71
443.23	1761.25
443.43	1730.53
443.64	1785.83
443.84	1724.39
444.05	1791.97
444.25	1732.58
444.46	1734.63
444.66	1728.49
444.87	1861.60
445.07	1675.24
445.28	1705.96
445.48	1814.50
445.69	1753.06
445.89	1953.76
446.09	1775.59
446.30	2025.44
446.50	2586.58
446.71	4128.70
446.91	5169.07
447.12	5898.15
447.32	5939.11
447.53	5308.34
447.73	4425.66
447.93	3942.34
448.14	3604.42
448.34	3459.02
448.55	3104.72
448.75	2996.18
448.96	2944.98
449.16	2674.65
449.36	2492.38
449.57	2209.76
449.77	1951.71
449.98	1785.83
450.18	1771.49
450.39	1863.65
450.59	1828.84
450.79	1800.16
451.00	1753.06
451.20	1730.53
451.41	1757.16
451.61	1718.25
451.81	1755.11
452.02	1683.43
452.22	1691.62
452.43	1658.85
452.63	1648.61
