SpectraSuite Data File
++++++++++++++++++++++++++++++++++++
Date: Wed May 04 18:44:49 CEST 2016
User: root
Dark Spectrum Present: No
Reference Spectrum Present: No
Number of Sampled Component Spectra: 1
Spectrometers: USB4C02835
Integration Time (usec): 100000 (USB4C02835)
Spectra Averaged: 1 (USB4C02835)
Boxcar Smoothing: 0 (USB4C02835)
Correct for Electrical Dark: No (USB4C02835)
Strobe/Lamp Enabled: No (USB4C02835)
Correct for Detector Non-linearity: No (USB4C02835)
Correct for Stray Light: No (USB4C02835)
Number of Pixels in Processed Spectrum: 3648
>>>>>Begin Processed Spectral Data<<<<<
177.47	1468.39
177.69	1468.39
177.91	1468.39
178.13	1486.83
178.36	1486.83
178.58	1695.72
178.80	1691.62
179.02	1656.81
179.24	1662.95
179.46	1671.14
179.68	1759.21
179.90	1660.90
180.13	1761.25
180.35	1693.67
180.57	1685.48
180.79	1748.97
181.01	1671.14
181.23	1830.88
181.45	1769.44
181.67	1742.82
181.90	1728.49
182.12	1658.85
182.34	1626.09
182.56	1677.29
182.78	1703.91
183.00	1703.91
183.22	1746.92
183.44	1572.84
183.66	1910.75
183.89	1746.92
184.11	1615.85
184.33	1691.62
184.55	1738.73
184.77	1722.34
184.99	1658.85
185.21	1652.71
185.43	1785.83
185.65	1634.28
185.87	1761.25
186.10	1787.88
186.32	1857.51
186.54	1710.05
186.76	1732.58
186.98	1826.79
187.20	1710.05
187.42	1708.01
187.64	1693.67
187.86	1728.49
188.08	1849.32
188.30	1693.67
188.52	1656.81
188.75	1779.68
188.97	1787.88
189.19	1722.34
189.41	1734.63
189.63	1755.11
189.85	1691.62
190.07	1636.33
190.29	1644.52
190.51	1710.05
190.73	1560.55
190.95	1757.16
191.17	1683.43
191.39	1669.09
191.61	1689.57
191.84	1705.96
192.06	1656.81
192.28	1607.66
192.50	1810.40
192.72	1714.15
192.94	1748.97
193.16	1763.30
193.38	1761.25
193.60	1634.28
193.82	1609.70
194.04	1708.01
194.26	1775.59
194.48	1759.21
194.70	1705.96
194.92	1650.66
195.14	1748.97
195.36	1650.66
195.58	1665.00
195.80	1662.95
196.02	1740.77
196.24	1693.67
196.46	1742.82
196.69	1644.52
196.91	1808.36
197.13	1662.95
197.35	1742.82
197.57	1806.31
197.79	1720.29
198.01	1714.15
198.23	1718.25
198.45	1734.63
198.67	1701.86
198.89	1667.05
199.11	1691.62
199.33	1681.38
199.55	1605.61
199.77	1624.04
199.99	1732.58
200.21	1689.57
200.43	1658.85
200.65	1695.72
200.87	1632.23
201.09	1730.53
201.31	1736.68
201.53	1734.63
201.75	1718.25
201.97	1773.54
202.19	1738.73
202.41	1742.82
202.63	1806.31
202.85	1757.16
203.07	1683.43
203.29	1695.72
203.51	1687.53
203.73	1581.03
203.95	1867.75
204.17	1708.01
204.39	1738.73
204.61	1742.82
204.83	1714.15
205.05	1765.35
205.27	1726.44
205.49	1798.12
205.71	1648.61
205.93	1624.04
206.15	1665.00
206.37	1769.44
206.59	1691.62
206.81	1578.98
207.03	1689.57
207.25	1675.24
207.47	1738.73
207.69	1673.19
207.91	1740.77
208.13	1734.63
208.34	1656.81
208.56	1671.14
208.78	1691.62
209.00	1734.63
209.22	1765.35
209.44	1654.76
209.66	1667.05
209.88	1689.57
210.10	1685.48
210.32	1734.63
210.54	1781.73
210.76	1675.24
210.98	1716.20
211.20	1699.81
211.42	1740.77
211.64	1767.40
211.86	1683.43
212.08	1789.92
212.30	1738.73
212.52	1677.29
212.74	1681.38
212.96	1779.68
213.17	1759.21
213.39	1730.53
213.61	1837.03
213.83	1814.50
214.05	1779.68
214.27	1712.10
214.49	1593.32
214.71	1697.77
214.93	1720.29
215.15	1720.29
215.37	1806.31
215.59	1605.61
215.81	1699.81
216.03	1761.25
216.24	1656.81
216.46	1691.62
216.68	1662.95
216.90	1728.49
217.12	1761.25
217.34	1689.57
217.56	1814.50
217.78	1728.49
218.00	1718.25
218.22	1757.16
218.44	1662.95
218.66	1685.48
218.87	1791.97
219.09	1705.96
219.31	1738.73
219.53	1734.63
219.75	1705.96
219.97	1648.61
220.19	1736.68
220.41	1751.01
220.63	1896.42
220.85	1728.49
221.06	1691.62
221.28	1712.10
221.50	1757.16
221.72	1683.43
221.94	1769.44
222.16	1804.26
222.38	1730.53
222.60	1748.97
222.82	1654.76
223.03	1699.81
223.25	1630.18
223.47	1763.30
223.69	1818.60
223.91	1716.20
224.13	1689.57
224.35	1705.96
224.57	1757.16
224.78	1755.11
225.00	1755.11
225.22	1730.53
225.44	1763.30
225.66	1826.79
225.88	1650.66
226.10	1677.29
226.32	1699.81
226.53	1742.82
226.75	1691.62
226.97	1689.57
227.19	1677.29
227.41	1658.85
227.63	1685.48
227.85	1624.04
228.06	1691.62
228.28	1689.57
228.50	1642.47
228.72	1605.61
228.94	1701.86
229.16	1634.28
229.37	1720.29
229.59	1708.01
229.81	1716.20
230.03	1593.32
230.25	1656.81
230.47	1675.24
230.69	1652.71
230.90	1847.27
231.12	1648.61
231.34	1683.43
231.56	1710.05
231.78	1705.96
232.00	1685.48
232.21	1759.21
232.43	1681.38
232.65	1615.85
232.87	1734.63
233.09	1736.68
233.30	1689.57
233.52	1757.16
233.74	1634.28
233.96	1679.33
234.18	1679.33
234.40	1687.53
234.61	1777.64
234.83	1722.34
235.05	1595.37
235.27	1837.03
235.49	1742.82
235.70	1814.50
235.92	1834.98
236.14	1697.77
236.36	1863.65
236.58	1679.33
236.79	1781.73
237.01	1671.14
237.23	1753.06
237.45	1787.88
237.67	1644.52
237.88	1640.42
238.10	1853.41
238.32	1689.57
238.54	1689.57
238.76	1714.15
238.97	1601.51
239.19	1613.80
239.41	1763.30
239.63	1724.39
239.85	1720.29
240.06	1642.47
240.28	1673.19
240.50	1814.50
240.72	1648.61
240.93	1769.44
241.15	1701.86
241.37	1728.49
241.59	1834.98
241.81	1722.34
242.02	1677.29
242.24	1673.19
242.46	1730.53
242.68	1667.05
242.89	1724.39
243.11	1753.06
243.33	1671.14
243.55	1796.07
243.76	1765.35
243.98	1632.23
244.20	1640.42
244.42	1660.90
244.64	1742.82
244.85	1662.95
245.07	1689.57
245.29	1759.21
245.51	1712.10
245.72	1738.73
245.94	1765.35
246.16	1712.10
246.38	1701.86
246.59	1701.86
246.81	1626.09
247.03	1693.67
247.24	1607.66
247.46	1705.96
247.68	1757.16
247.90	1718.25
248.11	1689.57
248.33	1771.49
248.55	1685.48
248.77	1683.43
248.98	1769.44
249.20	1726.44
249.42	1730.53
249.64	1751.01
249.85	1720.29
250.07	1595.37
250.29	1816.55
250.50	1748.97
250.72	1607.66
250.94	1699.81
251.16	1810.40
251.37	1771.49
251.59	1759.21
251.81	1794.02
252.02	1777.64
252.24	1710.05
252.46	1814.50
252.68	1677.29
252.89	1699.81
253.11	1648.61
253.33	1791.97
253.54	1728.49
253.76	1695.72
253.98	1638.38
254.20	1656.81
254.41	1662.95
254.63	1683.43
254.85	1628.14
255.06	1712.10
255.28	1634.28
255.50	1740.77
255.71	1705.96
255.93	1652.71
256.15	1656.81
256.36	1691.62
256.58	1681.38
256.80	1697.77
257.02	1701.86
257.23	1683.43
257.45	1742.82
257.67	1763.30
257.88	1683.43
258.10	1675.24
258.32	1755.11
258.53	1699.81
258.75	1787.88
258.97	1669.09
259.18	1699.81
259.40	1722.34
259.62	1796.07
259.83	1730.53
260.05	1628.14
260.27	1959.91
260.48	1787.88
260.70	1640.42
260.92	1740.77
261.13	1734.63
261.35	1791.97
261.57	1771.49
261.78	1632.23
262.00	1619.94
262.22	1826.79
262.43	1681.38
262.65	1662.95
262.86	1701.86
263.08	1800.16
263.30	1751.01
263.51	1597.42
263.73	1691.62
263.95	1761.25
264.16	1669.09
264.38	1722.34
264.60	1738.73
264.81	1648.61
265.03	1779.68
265.25	1734.63
265.46	1722.34
265.68	1722.34
265.89	1712.10
266.11	1583.08
266.33	1748.97
266.54	1759.21
266.76	1708.01
266.98	1732.58
267.19	1673.19
267.41	1703.91
267.62	1705.96
267.84	1611.75
268.06	1724.39
268.27	1705.96
268.49	1843.17
268.70	1705.96
268.92	1691.62
269.14	1734.63
269.35	1644.52
269.57	1636.33
269.79	1779.68
270.00	1617.90
270.22	1759.21
270.43	1665.00
270.65	1648.61
270.87	1714.15
271.08	1708.01
271.30	1785.83
271.51	1667.05
271.73	1681.38
271.95	1783.78
272.16	1660.90
272.38	1755.11
272.59	1720.29
272.81	1701.86
273.02	1763.30
273.24	1734.63
273.46	1748.97
273.67	1648.61
273.89	1624.04
274.10	1710.05
274.32	1765.35
274.54	1734.63
274.75	1693.67
274.97	1751.01
275.18	1724.39
275.40	1740.77
275.61	1736.68
275.83	1689.57
276.05	1609.70
276.26	1703.91
276.48	1728.49
276.69	1640.42
276.91	1726.44
277.12	1859.56
277.34	1755.11
277.55	1726.44
277.77	1615.85
277.99	1685.48
278.20	1609.70
278.42	1658.85
278.63	1673.19
278.85	1624.04
279.06	1658.85
279.28	1808.36
279.49	1783.78
279.71	1708.01
279.93	1730.53
280.14	1781.73
280.36	1732.58
280.57	1765.35
280.79	1832.93
281.00	1718.25
281.22	1697.77
281.43	1761.25
281.65	1546.22
281.86	1677.29
282.08	1794.02
282.29	1851.36
282.51	1685.48
282.73	1648.61
282.94	1587.18
283.16	1773.54
283.37	1806.31
283.59	1738.73
283.80	1730.53
284.02	1753.06
284.23	1767.40
284.45	1648.61
284.66	1703.91
284.88	1701.86
285.09	1730.53
285.31	1751.01
285.52	1775.59
285.74	1624.04
285.95	1753.06
286.17	1814.50
286.38	1789.92
286.60	1718.25
286.81	1687.53
287.03	1685.48
287.24	1699.81
287.46	1775.59
287.67	1732.58
287.89	1814.50
288.10	1662.95
288.32	1791.97
288.53	1771.49
288.75	1804.26
288.96	1771.49
289.18	1632.23
289.39	1755.11
289.61	1748.97
289.82	1818.60
290.04	1849.32
290.25	1605.61
290.47	1703.91
290.68	1646.57
290.90	1695.72
291.11	1691.62
291.33	1736.68
291.54	1724.39
291.76	1677.29
291.97	1732.58
292.18	1767.40
292.40	1671.14
292.61	1677.29
292.83	1775.59
293.04	1685.48
293.26	1738.73
293.47	1685.48
293.69	1693.67
293.90	1705.96
294.12	1757.16
294.33	1765.35
294.55	1771.49
294.76	1771.49
294.97	1814.50
295.19	1847.27
295.40	1665.00
295.62	1697.77
295.83	1671.14
296.05	1640.42
296.26	1753.06
296.48	1697.77
296.69	1755.11
296.90	1660.90
297.12	1730.53
297.33	1783.78
297.55	1689.57
297.76	1665.00
297.98	1814.50
298.19	1716.20
298.41	1669.09
298.62	1738.73
298.83	1746.92
299.05	1677.29
299.26	1720.29
299.48	1740.77
299.69	1738.73
299.90	1728.49
300.12	1667.05
300.33	1738.73
300.55	1763.30
300.76	1685.48
300.98	1708.01
301.19	1705.96
301.40	1755.11
301.62	1703.91
301.83	1759.21
302.05	1755.11
302.26	1673.19
302.47	1771.49
302.69	1619.94
302.90	1683.43
303.12	1591.27
303.33	1722.34
303.54	1845.22
303.76	1693.67
303.97	1685.48
304.19	1810.40
304.40	1669.09
304.61	1703.91
304.83	1828.84
305.04	1847.27
305.26	1746.92
305.47	1681.38
305.68	1712.10
305.90	1589.22
306.11	1796.07
306.33	1673.19
306.54	1685.48
306.75	1656.81
306.97	1611.75
307.18	1722.34
307.39	1710.05
307.61	1763.30
307.82	1681.38
308.04	1693.67
308.25	1646.57
308.46	1685.48
308.68	1730.53
308.89	1708.01
309.10	1714.15
309.32	1714.15
309.53	1701.86
309.74	1757.16
309.96	1640.42
310.17	1740.77
310.39	1638.38
310.60	1767.40
310.81	1755.11
311.03	1695.72
311.24	1753.06
311.45	1617.90
311.67	1859.56
311.88	1720.29
312.09	1681.38
312.31	1710.05
312.52	1769.44
312.73	1708.01
312.95	1689.57
313.16	1722.34
313.37	1781.73
313.59	1619.94
313.80	1701.86
314.01	1781.73
314.23	1720.29
314.44	1638.38
314.65	1681.38
314.87	1640.42
315.08	1626.09
315.29	1673.19
315.51	1591.27
315.72	1771.49
315.93	1869.80
316.15	1757.16
316.36	1708.01
316.57	1718.25
316.79	1800.16
317.00	1726.44
317.21	1794.02
317.43	1589.22
317.64	1693.67
317.85	1658.85
318.07	1710.05
318.28	1794.02
318.49	1869.80
318.70	1925.09
318.92	1888.23
319.13	1849.32
319.34	1843.17
319.56	1826.79
319.77	1791.97
319.98	1763.30
320.20	1791.97
320.41	1740.77
320.62	1755.11
320.83	1724.39
321.05	1871.84
321.26	1671.14
321.47	1759.21
321.69	1802.21
321.90	1665.00
322.11	1677.29
322.32	1742.82
322.54	1722.34
322.75	1726.44
322.96	1771.49
323.18	1601.51
323.39	1699.81
323.60	1683.43
323.81	1816.55
324.03	1685.48
324.24	1736.68
324.45	1751.01
324.66	1685.48
324.88	1769.44
325.09	1734.63
325.30	1681.38
325.52	1779.68
325.73	1689.57
325.94	1652.71
326.15	1613.80
326.37	1687.53
326.58	1789.92
326.79	1869.80
327.00	1685.48
327.22	1621.99
327.43	1685.48
327.64	1650.66
327.85	1734.63
328.07	1656.81
328.28	1824.74
328.49	1685.48
328.70	1710.05
328.92	1697.77
329.13	1699.81
329.34	1656.81
329.55	1814.50
329.76	1757.16
329.98	1654.76
330.19	1816.55
330.40	1714.15
330.61	1699.81
330.83	1769.44
331.04	1626.09
331.25	1699.81
331.46	1669.09
331.68	1667.05
331.89	1789.92
332.10	1716.20
332.31	1632.23
332.52	1720.29
332.74	1826.79
332.95	1652.71
333.16	1726.44
333.37	1822.69
333.58	1716.20
333.80	1693.67
334.01	1656.81
334.22	1660.90
334.43	1671.14
334.64	1669.09
334.86	1642.47
335.07	1716.20
335.28	1822.69
335.49	1544.17
335.70	1695.72
335.92	1759.21
336.13	1828.84
336.34	1814.50
336.55	1701.86
336.76	1695.72
336.98	1673.19
337.19	1757.16
337.40	1757.16
337.61	1824.74
337.82	1677.29
338.04	1746.92
338.25	1574.89
338.46	1658.85
338.67	1683.43
338.88	1705.96
339.09	1675.24
339.31	1667.05
339.52	1699.81
339.73	1613.80
339.94	1759.21
340.15	1671.14
340.36	1642.47
340.58	1744.87
340.79	1628.14
341.00	1769.44
341.21	1601.51
341.42	1777.64
341.63	1660.90
341.85	1701.86
342.06	1748.97
342.27	1656.81
342.48	1718.25
342.69	1619.94
342.90	1751.01
343.12	1732.58
343.33	1718.25
343.54	1744.87
343.75	1781.73
343.96	1671.14
344.17	1644.52
344.38	1712.10
344.60	1714.15
344.81	1591.27
345.02	1697.77
345.23	1712.10
345.44	1863.65
345.65	1800.16
345.86	1710.05
346.07	1755.11
346.29	1730.53
346.50	1701.86
346.71	1755.11
346.92	1812.45
347.13	1775.59
347.34	1710.05
347.55	1701.86
347.76	1771.49
347.98	1656.81
348.19	1705.96
348.40	1771.49
348.61	1609.70
348.82	1787.88
349.03	1777.64
349.24	1652.71
349.45	1771.49
349.66	1642.47
349.88	1703.91
350.09	1621.99
350.30	1744.87
350.51	1761.25
350.72	1748.97
350.93	1710.05
351.14	1650.66
351.35	1697.77
351.56	1621.99
351.77	1755.11
351.99	1685.48
352.20	1882.08
352.41	1798.12
352.62	1648.61
352.83	1771.49
353.04	1685.48
353.25	1630.18
353.46	1755.11
353.67	1802.21
353.88	1634.28
354.09	1794.02
354.30	1687.53
354.52	1798.12
354.73	1673.19
354.94	1708.01
355.15	1640.42
355.36	1843.17
355.57	1667.05
355.78	1701.86
355.99	1685.48
356.20	1738.73
356.41	1714.15
356.62	1740.77
356.83	1724.39
357.04	1769.44
357.25	1605.61
357.46	1646.57
357.68	1644.52
357.89	1669.09
358.10	1759.21
358.31	1677.29
358.52	1687.53
358.73	1624.04
358.94	1658.85
359.15	1685.48
359.36	1732.58
359.57	1703.91
359.78	1734.63
359.99	1693.67
360.20	1642.47
360.41	1746.92
360.62	1781.73
360.83	1708.01
361.04	1718.25
361.25	1781.73
361.46	1773.54
361.67	1703.91
361.88	1777.64
362.09	1728.49
362.30	1697.77
362.51	1648.61
362.72	1755.11
362.93	1769.44
363.14	1652.71
363.35	1736.68
363.56	1718.25
363.78	1732.58
363.99	1763.30
364.20	1679.33
364.41	1730.53
364.62	1812.45
364.83	1736.68
365.04	1720.29
365.25	1724.39
365.46	1884.13
365.67	1730.53
365.88	1779.68
366.09	1730.53
366.30	1718.25
366.51	1658.85
366.72	1648.61
366.93	1644.52
367.14	1699.81
367.35	1814.50
367.56	1695.72
367.77	1781.73
367.98	1613.80
368.18	1736.68
368.39	1703.91
368.60	1689.57
368.81	1753.06
369.02	1763.30
369.23	1599.46
369.44	1665.00
369.65	1703.91
369.86	1771.49
370.07	1724.39
370.28	1644.52
370.49	1740.77
370.70	1771.49
370.91	1646.57
371.12	1601.51
371.33	1746.92
371.54	1636.33
371.75	1759.21
371.96	1605.61
372.17	1732.58
372.38	1646.57
372.59	1693.67
372.80	1699.81
373.01	1724.39
373.22	1703.91
373.43	1656.81
373.64	1646.57
373.85	1755.11
374.06	1800.16
374.26	1730.53
374.47	1779.68
374.68	1755.11
374.89	1755.11
375.10	1687.53
375.31	1746.92
375.52	1648.61
375.73	1699.81
375.94	1646.57
376.15	1845.22
376.36	1585.13
376.57	1652.71
376.78	1685.48
376.99	1689.57
377.20	1773.54
377.40	1722.34
377.61	1808.36
377.82	1687.53
378.03	1759.21
378.24	1746.92
378.45	1648.61
378.66	1730.53
378.87	1648.61
379.08	1562.60
379.29	1714.15
379.50	1839.08
379.71	1638.38
379.91	1787.88
380.12	1753.06
380.33	1673.19
380.54	1716.20
380.75	1705.96
380.96	1710.05
381.17	1798.12
381.38	1640.42
381.59	1730.53
381.80	1765.35
382.00	1890.28
382.21	1845.22
382.42	1849.32
382.63	1832.93
382.84	1783.78
383.05	1847.27
383.26	1812.45
383.47	1746.92
383.68	1726.44
383.88	1804.26
384.09	1724.39
384.30	1722.34
384.51	1705.96
384.72	1656.81
384.93	1675.24
385.14	1730.53
385.35	1779.68
385.55	1675.24
385.76	1808.36
385.97	1693.67
386.18	1630.18
386.39	1624.04
386.60	1642.47
386.81	1689.57
387.02	1685.48
387.22	1740.77
387.43	1839.08
387.64	1806.31
387.85	1882.08
388.06	2285.53
388.27	4626.36
388.48	9004.92
388.68	11511.63
388.89	13487.92
389.10	13895.47
389.31	11814.73
389.52	9527.15
389.73	8654.72
389.93	7737.23
390.14	7251.86
390.35	6627.23
390.56	6027.17
390.77	4945.84
390.98	3878.85
391.18	3108.82
391.39	2426.84
391.60	1837.03
391.81	1867.75
392.02	1732.58
392.23	1853.41
392.43	1726.44
392.64	1886.18
392.85	1738.73
393.06	1853.41
393.27	1681.38
393.47	1705.96
393.68	1708.01
393.89	1732.58
394.10	1775.59
394.31	1714.15
394.52	1701.86
394.72	1613.80
394.93	1761.25
395.14	1650.66
395.35	1691.62
395.56	1710.05
395.76	1689.57
395.97	1796.07
396.18	1845.22
396.39	1845.22
396.60	2050.02
396.80	2039.78
397.01	1908.71
397.22	1812.45
397.43	1771.49
397.64	1802.21
397.84	1816.55
398.05	1900.52
398.26	1837.03
398.47	1779.68
398.67	1837.03
398.88	1759.21
399.09	1753.06
399.30	1748.97
399.51	1751.01
399.71	1648.61
399.92	1656.81
400.13	1740.77
400.34	1714.15
400.54	1761.25
400.75	1806.31
400.96	1748.97
401.17	1894.37
401.37	1822.69
401.58	1693.67
401.79	1744.87
402.00	1832.93
402.21	2088.93
402.41	2056.16
402.62	2103.26
402.83	2199.52
403.04	2095.07
403.24	2189.28
403.45	1896.42
403.66	1949.67
403.87	1892.32
404.07	1914.85
404.28	1984.48
404.49	1843.17
404.70	1841.12
404.90	1822.69
405.11	1751.01
405.32	1736.68
405.52	1716.20
405.73	1632.23
405.94	1712.10
406.15	1656.81
406.35	1732.58
406.56	1785.83
406.77	1695.72
406.98	1767.40
407.18	1708.01
407.39	1753.06
407.60	1703.91
407.80	1740.77
408.01	1636.33
408.22	1771.49
408.43	1652.71
408.63	1804.26
408.84	1753.06
409.05	1722.34
409.25	1720.29
409.46	1689.57
409.67	1681.38
409.88	1669.09
410.08	1714.15
410.29	1705.96
410.50	1742.82
410.70	1783.78
410.91	1636.33
411.12	1746.92
411.32	1632.23
411.53	1609.70
411.74	1820.64
411.95	1857.51
412.15	1748.97
412.36	1843.17
412.57	1808.36
412.77	1880.04
412.98	1771.49
413.19	1642.47
413.39	1751.01
413.60	1714.15
413.81	1816.55
414.01	1638.38
414.22	1753.06
414.43	1826.79
414.63	1710.05
414.84	1781.73
415.05	1779.68
415.25	1673.19
415.46	1726.44
415.67	1667.05
415.87	1705.96
416.08	1718.25
416.29	1699.81
416.49	1773.54
416.70	1654.76
416.91	1714.15
417.11	1683.43
417.32	1742.82
417.53	1816.55
417.73	1785.83
417.94	1748.97
418.15	1787.88
418.35	1705.96
418.56	1755.11
418.77	1824.74
418.97	1773.54
419.18	1656.81
419.38	1628.14
419.59	1701.86
419.80	1839.08
420.00	1601.51
420.21	1689.57
420.42	1810.40
420.62	1753.06
420.83	1742.82
421.04	1615.85
421.24	1640.42
421.45	1773.54
421.65	1777.64
421.86	1755.11
422.07	1701.86
422.27	1667.05
422.48	1714.15
422.69	1720.29
422.89	1722.34
423.10	1761.25
423.30	1591.27
423.51	1714.15
423.72	1789.92
423.92	1753.06
424.13	1669.09
424.33	1673.19
424.54	1697.77
424.75	1796.07
424.95	1814.50
425.16	1728.49
425.36	1710.05
425.57	1794.02
425.78	1669.09
425.98	1769.44
426.19	1744.87
426.39	1652.71
426.60	1779.68
426.81	1861.60
427.01	1751.01
427.22	1691.62
427.42	1595.37
427.63	1662.95
427.83	1689.57
428.04	1777.64
428.25	1861.60
428.45	1787.88
428.66	1822.69
428.86	1742.82
429.07	1759.21
429.28	1730.53
429.48	1613.80
429.69	1662.95
429.89	1734.63
430.10	1658.85
430.30	1748.97
430.51	1732.58
430.71	1642.47
430.92	1714.15
431.13	1660.90
431.33	1785.83
431.54	1783.78
431.74	1798.12
431.95	1830.88
432.15	1658.85
432.36	1740.77
432.56	1759.21
432.77	1832.93
432.98	1869.80
433.18	1728.49
433.39	1626.09
433.59	1667.05
433.80	1853.41
434.00	1779.68
434.21	1677.29
434.41	1624.04
434.62	1837.03
434.82	1701.86
435.03	1642.47
435.23	1693.67
435.44	1589.22
435.64	1712.10
435.85	1814.50
436.06	1820.64
436.26	1732.58
436.47	1724.39
436.67	1658.85
436.88	1644.52
437.08	1753.06
437.29	1796.07
437.49	1681.38
437.70	1777.64
437.90	1701.86
438.11	1900.52
438.31	1765.35
438.52	1875.94
438.72	1896.42
438.93	1882.08
439.13	1800.16
439.34	1882.08
439.54	1783.78
439.75	1830.88
439.95	1853.41
440.16	1744.87
440.36	1724.39
440.57	1775.59
440.77	1789.92
440.98	1652.71
441.18	1775.59
441.39	1759.21
441.59	1771.49
441.80	1853.41
442.00	1701.86
442.21	1800.16
442.41	1644.52
442.62	1744.87
442.82	1687.53
443.02	1693.67
443.23	1693.67
443.43	1660.90
443.64	1808.36
443.84	1665.00
444.05	1843.17
444.25	1816.55
444.46	1761.25
444.66	1748.97
444.87	1849.32
445.07	1619.94
445.28	1775.59
445.48	1808.36
445.69	1783.78
445.89	1865.70
446.09	1755.11
446.30	1941.47
446.50	2592.73
446.71	4177.86
446.91	5253.04
447.12	5826.47
447.32	6143.91
447.53	5349.29
447.73	4470.72
447.93	4095.94
448.14	3524.55
448.34	3391.44
448.55	3215.31
448.75	3098.58
448.96	2981.84
449.16	2592.73
449.36	2414.56
449.57	2121.70
449.77	1935.33
449.98	1830.88
450.18	1875.94
450.39	1791.97
450.59	1736.68
450.79	1746.92
451.00	1767.40
451.20	1830.88
451.41	1728.49
451.61	1746.92
451.81	1742.82
452.02	1630.18
452.22	1701.86
452.43	1722.34
452.63	1705.96
