SpectraSuite Data File
++++++++++++++++++++++++++++++++++++
Date: Wed May 04 18:44:30 CEST 2016
User: root
Dark Spectrum Present: No
Reference Spectrum Present: No
Number of Sampled Component Spectra: 1
Spectrometers: USB4C02835
Integration Time (usec): 100000 (USB4C02835)
Spectra Averaged: 1 (USB4C02835)
Boxcar Smoothing: 0 (USB4C02835)
Correct for Electrical Dark: No (USB4C02835)
Strobe/Lamp Enabled: No (USB4C02835)
Correct for Detector Non-linearity: No (USB4C02835)
Correct for Stray Light: No (USB4C02835)
Number of Pixels in Processed Spectrum: 3648
>>>>>Begin Processed Spectral Data<<<<<
177.47	1425.39
177.69	1425.39
177.91	1425.39
178.13	1492.97
178.36	1413.10
178.58	1740.77
178.80	1716.20
179.02	1578.98
179.24	1660.90
179.46	1683.43
179.68	1740.77
179.90	1658.85
180.13	1765.35
180.35	1624.04
180.57	1785.83
180.79	1761.25
181.01	1673.19
181.23	1861.60
181.45	1791.97
181.67	1726.44
181.90	1757.16
182.12	1665.00
182.34	1617.90
182.56	1689.57
182.78	1781.73
183.00	1679.33
183.22	1718.25
183.44	1603.56
183.66	1837.03
183.89	1767.40
184.11	1765.35
184.33	1667.05
184.55	1736.68
184.77	1714.15
184.99	1730.53
185.21	1716.20
185.43	1796.07
185.65	1701.86
185.87	1755.11
186.10	1877.99
186.32	1818.60
186.54	1761.25
186.76	1726.44
186.98	1785.83
187.20	1708.01
187.42	1734.63
187.64	1701.86
187.86	1777.64
188.08	1728.49
188.30	1726.44
188.52	1617.90
188.75	1804.26
188.97	1732.58
189.19	1697.77
189.41	1646.57
189.63	1763.30
189.85	1722.34
190.07	1593.32
190.29	1640.42
190.51	1730.53
190.73	1621.99
190.95	1771.49
191.17	1693.67
191.39	1583.08
191.61	1677.29
191.84	1691.62
192.06	1763.30
192.28	1554.41
192.50	1890.28
192.72	1724.39
192.94	1615.85
193.16	1658.85
193.38	1789.92
193.60	1619.94
193.82	1640.42
194.04	1800.16
194.26	1726.44
194.48	1701.86
194.70	1718.25
194.92	1648.61
195.14	1703.91
195.36	1654.76
195.58	1691.62
195.80	1642.47
196.02	1648.61
196.24	1638.38
196.46	1746.92
196.69	1648.61
196.91	1865.70
197.13	1742.82
197.35	1683.43
197.57	1763.30
197.79	1712.10
198.01	1705.96
198.23	1677.29
198.45	1712.10
198.67	1652.71
198.89	1656.81
199.11	1677.29
199.33	1648.61
199.55	1597.42
199.77	1669.09
199.99	1787.88
200.21	1736.68
200.43	1767.40
200.65	1763.30
200.87	1609.70
201.09	1738.73
201.31	1665.00
201.53	1753.06
201.75	1730.53
201.97	1718.25
202.19	1724.39
202.41	1693.67
202.63	1900.52
202.85	1767.40
203.07	1789.92
203.29	1607.66
203.51	1714.15
203.73	1630.18
203.95	1855.46
204.17	1673.19
204.39	1708.01
204.61	1662.95
204.83	1681.38
205.05	1722.34
205.27	1705.96
205.49	1849.32
205.71	1681.38
205.93	1636.33
206.15	1665.00
206.37	1697.77
206.59	1677.29
206.81	1703.91
207.03	1665.00
207.25	1626.09
207.47	1796.07
207.69	1650.66
207.91	1822.69
208.13	1779.68
208.34	1679.33
208.56	1628.14
208.78	1787.88
209.00	1720.29
209.22	1675.24
209.44	1619.94
209.66	1695.72
209.88	1673.19
210.10	1783.78
210.32	1718.25
210.54	1791.97
210.76	1703.91
210.98	1724.39
211.20	1558.50
211.42	1783.78
211.64	1798.12
211.86	1695.72
212.08	1767.40
212.30	1742.82
212.52	1687.53
212.74	1714.15
212.96	1701.86
213.17	1763.30
213.39	1767.40
213.61	1761.25
213.83	1834.98
214.05	1736.68
214.27	1822.69
214.49	1576.94
214.71	1636.33
214.93	1779.68
215.15	1732.58
215.37	1703.91
215.59	1681.38
215.81	1814.50
216.03	1826.79
216.24	1732.58
216.46	1689.57
216.68	1748.97
216.90	1757.16
217.12	1730.53
217.34	1646.57
217.56	1726.44
217.78	1779.68
218.00	1781.73
218.22	1673.19
218.44	1748.97
218.66	1701.86
218.87	1820.64
219.09	1669.09
219.31	1695.72
219.53	1693.67
219.75	1705.96
219.97	1681.38
220.19	1681.38
220.41	1705.96
220.63	1775.59
220.85	1656.81
221.06	1650.66
221.28	1742.82
221.50	1683.43
221.72	1751.01
221.94	1722.34
222.16	1742.82
222.38	1751.01
222.60	1712.10
222.82	1693.67
223.03	1699.81
223.25	1652.71
223.47	1718.25
223.69	1849.32
223.91	1777.64
224.13	1685.48
224.35	1638.38
224.57	1818.60
224.78	1785.83
225.00	1662.95
225.22	1597.42
225.44	1736.68
225.66	1746.92
225.88	1712.10
226.10	1851.36
226.32	1812.45
226.53	1814.50
226.75	1695.72
226.97	1665.00
227.19	1744.87
227.41	1689.57
227.63	1697.77
227.85	1667.05
228.06	1712.10
228.28	1683.43
228.50	1775.59
228.72	1726.44
228.94	1679.33
229.16	1585.13
229.37	1648.61
229.59	1669.09
229.81	1886.18
230.03	1740.77
230.25	1624.04
230.47	1650.66
230.69	1652.71
230.90	1767.40
231.12	1720.29
231.34	1796.07
231.56	1740.77
231.78	1607.66
232.00	1705.96
232.21	1708.01
232.43	1703.91
232.65	1638.38
232.87	1701.86
233.09	1667.05
233.30	1677.29
233.52	1763.30
233.74	1689.57
233.96	1728.49
234.18	1732.58
234.40	1740.77
234.61	1869.80
234.83	1673.19
235.05	1617.90
235.27	1857.51
235.49	1787.88
235.70	1714.15
235.92	1755.11
236.14	1763.30
236.36	1806.31
236.58	1628.14
236.79	1753.06
237.01	1640.42
237.23	1734.63
237.45	1787.88
237.67	1648.61
237.88	1791.97
238.10	1742.82
238.32	1695.72
238.54	1732.58
238.76	1728.49
238.97	1675.24
239.19	1660.90
239.41	1746.92
239.63	1832.93
239.85	1662.95
240.06	1677.29
240.28	1769.44
240.50	1769.44
240.72	1765.35
240.93	1691.62
241.15	1714.15
241.37	1642.47
241.59	1736.68
241.81	1681.38
242.02	1708.01
242.24	1734.63
242.46	1728.49
242.68	1638.38
242.89	1701.86
243.11	1740.77
243.33	1648.61
243.55	1787.88
243.76	1736.68
243.98	1660.90
244.20	1689.57
244.42	1685.48
244.64	1712.10
244.85	1640.42
245.07	1740.77
245.29	1650.66
245.51	1677.29
245.72	1667.05
245.94	1728.49
246.16	1732.58
246.38	1738.73
246.59	1718.25
246.81	1742.82
247.03	1761.25
247.24	1613.80
247.46	1675.24
247.68	1716.20
247.90	1718.25
248.11	1699.81
248.33	1742.82
248.55	1650.66
248.77	1671.14
248.98	1751.01
249.20	1800.16
249.42	1648.61
249.64	1777.64
249.85	1642.47
250.07	1705.96
250.29	1738.73
250.50	1773.54
250.72	1624.04
250.94	1775.59
251.16	1824.74
251.37	1734.63
251.59	1798.12
251.81	1662.95
252.02	1761.25
252.24	1716.20
252.46	1757.16
252.68	1742.82
252.89	1697.77
253.11	1662.95
253.33	1802.21
253.54	1755.11
253.76	1617.90
253.98	1681.38
254.20	1751.01
254.41	1652.71
254.63	1689.57
254.85	1576.94
255.06	1738.73
255.28	1746.92
255.50	1703.91
255.71	1632.23
255.93	1609.70
256.15	1718.25
256.36	1789.92
256.58	1685.48
256.80	1689.57
257.02	1636.33
257.23	1771.49
257.45	1732.58
257.67	1726.44
257.88	1544.17
258.10	1732.58
258.32	1701.86
258.53	1714.15
258.75	1814.50
258.97	1699.81
259.18	1714.15
259.40	1740.77
259.62	1732.58
259.83	1810.40
260.05	1783.78
260.27	1914.85
260.48	1753.06
260.70	1726.44
260.92	1677.29
261.13	1724.39
261.35	1716.20
261.57	1718.25
261.78	1636.33
262.00	1693.67
262.22	1720.29
262.43	1677.29
262.65	1636.33
262.86	1667.05
263.08	1828.84
263.30	1763.30
263.51	1591.27
263.73	1650.66
263.95	1832.93
264.16	1718.25
264.38	1677.29
264.60	1714.15
264.81	1703.91
265.03	1736.68
265.25	1701.86
265.46	1703.91
265.68	1773.54
265.89	1675.24
266.11	1634.28
266.33	1755.11
266.54	1761.25
266.76	1716.20
266.98	1697.77
267.19	1712.10
267.41	1796.07
267.62	1685.48
267.84	1611.75
268.06	1767.40
268.27	1665.00
268.49	1738.73
268.70	1767.40
268.92	1695.72
269.14	1628.14
269.35	1597.42
269.57	1705.96
269.79	1710.05
270.00	1710.05
270.22	1728.49
270.43	1650.66
270.65	1556.46
270.87	1730.53
271.08	1769.44
271.30	1720.29
271.51	1738.73
271.73	1714.15
271.95	1789.92
272.16	1732.58
272.38	1767.40
272.59	1677.29
272.81	1763.30
273.02	1787.88
273.24	1730.53
273.46	1783.78
273.67	1644.52
273.89	1632.23
274.10	1599.46
274.32	1791.97
274.54	1665.00
274.75	1759.21
274.97	1720.29
275.18	1699.81
275.40	1808.36
275.61	1656.81
275.83	1769.44
276.05	1646.57
276.26	1748.97
276.48	1759.21
276.69	1734.63
276.91	1658.85
277.12	1834.98
277.34	1806.31
277.55	1808.36
277.77	1650.66
277.99	1714.15
278.20	1589.22
278.42	1644.52
278.63	1687.53
278.85	1636.33
279.06	1652.71
279.28	1705.96
279.49	1746.92
279.71	1755.11
279.93	1665.00
280.14	1683.43
280.36	1673.19
280.57	1800.16
280.79	1677.29
281.00	1726.44
281.22	1669.09
281.43	1757.16
281.65	1605.61
281.86	1658.85
282.08	1777.64
282.29	1877.99
282.51	1609.70
282.73	1689.57
282.94	1574.89
283.16	1751.01
283.37	1800.16
283.59	1714.15
283.80	1689.57
284.02	1685.48
284.23	1748.97
284.45	1665.00
284.66	1685.48
284.88	1638.38
285.09	1701.86
285.31	1806.31
285.52	1726.44
285.74	1708.01
285.95	1814.50
286.17	1781.73
286.38	1746.92
286.60	1771.49
286.81	1689.57
287.03	1748.97
287.24	1714.15
287.46	1654.76
287.67	1748.97
287.89	1822.69
288.10	1675.24
288.32	1736.68
288.53	1804.26
288.75	1683.43
288.96	1740.77
289.18	1701.86
289.39	1722.34
289.61	1740.77
289.82	1800.16
290.04	1781.73
290.25	1701.86
290.47	1703.91
290.68	1726.44
290.90	1765.35
291.11	1705.96
291.33	1796.07
291.54	1675.24
291.76	1660.90
291.97	1718.25
292.18	1714.15
292.40	1669.09
292.61	1683.43
292.83	1781.73
293.04	1783.78
293.26	1751.01
293.47	1671.14
293.69	1644.52
293.90	1691.62
294.12	1732.58
294.33	1761.25
294.55	1665.00
294.76	1824.74
294.97	1794.02
295.19	1816.55
295.40	1695.72
295.62	1724.39
295.83	1730.53
296.05	1654.76
296.26	1796.07
296.48	1644.52
296.69	1705.96
296.90	1705.96
297.12	1796.07
297.33	1734.63
297.55	1720.29
297.76	1648.61
297.98	1781.73
298.19	1734.63
298.41	1699.81
298.62	1683.43
298.83	1800.16
299.05	1724.39
299.26	1708.01
299.48	1693.67
299.69	1763.30
299.90	1705.96
300.12	1751.01
300.33	1724.39
300.55	1742.82
300.76	1722.34
300.98	1691.62
301.19	1785.83
301.40	1734.63
301.62	1652.71
301.83	1763.30
302.05	1726.44
302.26	1751.01
302.47	1730.53
302.69	1642.47
302.90	1673.19
303.12	1568.74
303.33	1755.11
303.54	1826.79
303.76	1667.05
303.97	1681.38
304.19	1818.60
304.40	1671.14
304.61	1732.58
304.83	1820.64
305.04	1740.77
305.26	1703.91
305.47	1685.48
305.68	1712.10
305.90	1626.09
306.11	1726.44
306.33	1775.59
306.54	1697.77
306.75	1613.80
306.97	1662.95
307.18	1789.92
307.39	1673.19
307.61	1781.73
307.82	1660.90
308.04	1748.97
308.25	1652.71
308.46	1714.15
308.68	1746.92
308.89	1701.86
309.10	1761.25
309.32	1802.21
309.53	1693.67
309.74	1718.25
309.96	1755.11
310.17	1742.82
310.39	1656.81
310.60	1708.01
310.81	1619.94
311.03	1607.66
311.24	1710.05
311.45	1697.77
311.67	1753.06
311.88	1654.76
312.09	1691.62
312.31	1681.38
312.52	1728.49
312.73	1738.73
312.95	1632.23
313.16	1699.81
313.37	1734.63
313.59	1662.95
313.80	1755.11
314.01	1785.83
314.23	1695.72
314.44	1705.96
314.65	1568.74
314.87	1722.34
315.08	1675.24
315.29	1710.05
315.51	1732.58
315.72	1656.81
315.93	1855.46
316.15	1742.82
316.36	1681.38
316.57	1726.44
316.79	1736.68
317.00	1697.77
317.21	1705.96
317.43	1681.38
317.64	1714.15
317.85	1771.49
318.07	1695.72
318.28	1837.03
318.49	1847.27
318.70	1949.67
318.92	1914.85
319.13	1882.08
319.34	1886.18
319.56	1857.51
319.77	1841.12
319.98	1861.60
320.20	1794.02
320.41	1742.82
320.62	1791.97
320.83	1697.77
321.05	1800.16
321.26	1712.10
321.47	1652.71
321.69	1708.01
321.90	1644.52
322.11	1736.68
322.32	1730.53
322.54	1730.53
322.75	1583.08
322.96	1843.17
323.18	1718.25
323.39	1617.90
323.60	1617.90
323.81	1744.87
324.03	1650.66
324.24	1724.39
324.45	1675.24
324.66	1689.57
324.88	1736.68
325.09	1839.08
325.30	1767.40
325.52	1744.87
325.73	1697.77
325.94	1583.08
326.15	1581.03
326.37	1734.63
326.58	1732.58
326.79	1814.50
327.00	1611.75
327.22	1714.15
327.43	1656.81
327.64	1628.14
327.85	1769.44
328.07	1675.24
328.28	1761.25
328.49	1667.05
328.70	1669.09
328.92	1669.09
329.13	1660.90
329.34	1763.30
329.55	1847.27
329.76	1689.57
329.98	1705.96
330.19	1736.68
330.40	1710.05
330.61	1802.21
330.83	1810.40
331.04	1660.90
331.25	1712.10
331.46	1615.85
331.68	1609.70
331.89	1763.30
332.10	1697.77
332.31	1587.18
332.52	1732.58
332.74	1826.79
332.95	1550.31
333.16	1703.91
333.37	1730.53
333.58	1701.86
333.80	1728.49
334.01	1617.90
334.22	1701.86
334.43	1667.05
334.64	1697.77
334.86	1644.52
335.07	1720.29
335.28	1837.03
335.49	1656.81
335.70	1763.30
335.92	1744.87
336.13	1804.26
336.34	1781.73
336.55	1732.58
336.76	1744.87
336.98	1658.85
337.19	1724.39
337.40	1794.02
337.61	1853.41
337.82	1671.14
338.04	1769.44
338.25	1601.51
338.46	1644.52
338.67	1769.44
338.88	1646.57
339.09	1677.29
339.31	1693.67
339.52	1646.57
339.73	1652.71
339.94	1781.73
340.15	1769.44
340.36	1665.00
340.58	1683.43
340.79	1624.04
341.00	1658.85
341.21	1675.24
341.42	1781.73
341.63	1693.67
341.85	1722.34
342.06	1689.57
342.27	1701.86
342.48	1810.40
342.69	1597.42
342.90	1718.25
343.12	1748.97
343.33	1675.24
343.54	1650.66
343.75	1785.83
343.96	1695.72
344.17	1660.90
344.38	1740.77
344.60	1671.14
344.81	1665.00
345.02	1679.33
345.23	1722.34
345.44	1837.03
345.65	1732.58
345.86	1757.16
346.07	1695.72
346.29	1613.80
346.50	1748.97
346.71	1701.86
346.92	1753.06
347.13	1929.19
347.34	1687.53
347.55	1685.48
347.76	1726.44
347.98	1662.95
348.19	1714.15
348.40	1779.68
348.61	1636.33
348.82	1781.73
349.03	1740.77
349.24	1626.09
349.45	1849.32
349.66	1556.46
349.88	1671.14
350.09	1718.25
350.30	1824.74
350.51	1828.84
350.72	1734.63
350.93	1640.42
351.14	1679.33
351.35	1701.86
351.56	1683.43
351.77	1695.72
351.99	1769.44
352.20	1800.16
352.41	1710.05
352.62	1648.61
352.83	1740.77
353.04	1703.91
353.25	1626.09
353.46	1894.37
353.67	1744.87
353.88	1662.95
354.09	1681.38
354.30	1699.81
354.52	1787.88
354.73	1695.72
354.94	1703.91
355.15	1728.49
355.36	1804.26
355.57	1685.48
355.78	1720.29
355.99	1697.77
356.20	1665.00
356.41	1746.92
356.62	1695.72
356.83	1736.68
357.04	1857.51
357.25	1685.48
357.46	1703.91
357.68	1576.94
357.89	1669.09
358.10	1683.43
358.31	1736.68
358.52	1734.63
358.73	1683.43
358.94	1673.19
359.15	1697.77
359.36	1773.54
359.57	1732.58
359.78	1742.82
359.99	1720.29
360.20	1685.48
360.41	1642.47
360.62	1751.01
360.83	1714.15
361.04	1695.72
361.25	1757.16
361.46	1777.64
361.67	1755.11
361.88	1755.11
362.09	1822.69
362.30	1761.25
362.51	1753.06
362.72	1701.86
362.93	1712.10
363.14	1771.49
363.35	1697.77
363.56	1738.73
363.78	1722.34
363.99	1746.92
364.20	1658.85
364.41	1738.73
364.62	1767.40
364.83	1753.06
365.04	1736.68
365.25	1769.44
365.46	1886.18
365.67	1615.85
365.88	1697.77
366.09	1732.58
366.30	1673.19
366.51	1757.16
366.72	1675.24
366.93	1695.72
367.14	1734.63
367.35	1816.55
367.56	1757.16
367.77	1808.36
367.98	1689.57
368.18	1697.77
368.39	1794.02
368.60	1701.86
368.81	1789.92
369.02	1722.34
369.23	1689.57
369.44	1665.00
369.65	1718.25
369.86	1675.24
370.07	1697.77
370.28	1689.57
370.49	1783.78
370.70	1724.39
370.91	1673.19
371.12	1624.04
371.33	1714.15
371.54	1712.10
371.75	1826.79
371.96	1505.26
372.17	1730.53
372.38	1671.14
372.59	1724.39
372.80	1740.77
373.01	1728.49
373.22	1753.06
373.43	1812.45
373.64	1660.90
373.85	1804.26
374.06	1705.96
374.26	1667.05
374.47	1761.25
374.68	1789.92
374.89	1763.30
375.10	1742.82
375.31	1796.07
375.52	1716.20
375.73	1691.62
375.94	1626.09
376.15	1787.88
376.36	1650.66
376.57	1665.00
376.78	1732.58
376.99	1755.11
377.20	1787.88
377.40	1697.77
377.61	1781.73
377.82	1644.52
378.03	1771.49
378.24	1751.01
378.45	1720.29
378.66	1820.64
378.87	1621.99
379.08	1640.42
379.29	1796.07
379.50	1732.58
379.71	1728.49
379.91	1748.97
380.12	1654.76
380.33	1701.86
380.54	1712.10
380.75	1695.72
380.96	1736.68
381.17	1767.40
381.38	1751.01
381.59	1679.33
381.80	1787.88
382.00	1869.80
382.21	1785.83
382.42	1779.68
382.63	1939.43
382.84	1708.01
383.05	1667.05
383.26	1843.17
383.47	1726.44
383.68	1730.53
383.88	1751.01
384.09	1765.35
384.30	1834.98
384.51	1703.91
384.72	1669.09
384.93	1662.95
385.14	1712.10
385.35	1771.49
385.55	1626.09
385.76	1761.25
385.97	1697.77
386.18	1656.81
386.39	1687.53
386.60	1753.06
386.81	1691.62
387.02	1624.04
387.22	1759.21
387.43	1861.60
387.64	1791.97
387.85	1894.37
388.06	2213.85
388.27	4757.43
388.48	8947.58
388.68	11523.92
388.89	13502.26
389.10	14079.79
389.31	12019.53
389.52	9531.25
389.73	8460.16
389.93	7751.56
390.14	7165.84
390.35	6545.31
390.56	6006.69
390.77	4896.69
390.98	3848.13
391.18	3020.75
391.39	2453.47
391.60	2031.58
391.81	1916.90
392.02	1769.44
392.23	1859.56
392.43	1757.16
392.64	1828.84
392.85	1765.35
393.06	1832.93
393.27	1730.53
393.47	1695.72
393.68	1728.49
393.89	1669.09
394.10	1791.97
394.31	1636.33
394.52	1673.19
394.72	1638.38
394.93	1837.03
395.14	1640.42
395.35	1736.68
395.56	1640.42
395.76	1738.73
395.97	1810.40
396.18	1843.17
396.39	1920.99
396.60	2090.98
396.80	1964.00
397.01	1853.41
397.22	1822.69
397.43	1894.37
397.64	1767.40
397.84	1763.30
398.05	1964.00
398.26	1798.12
398.47	1791.97
398.67	1767.40
398.88	1714.15
399.09	1738.73
399.30	1683.43
399.51	1771.49
399.71	1644.52
399.92	1697.77
400.13	1712.10
400.34	1740.77
400.54	1798.12
400.75	1808.36
400.96	1800.16
401.17	1867.75
401.37	1718.25
401.58	1716.20
401.79	1748.97
402.00	1918.95
402.21	2060.26
402.41	2029.54
402.62	2125.79
402.83	2138.08
403.04	2050.02
403.24	2191.33
403.45	1931.23
403.66	1986.53
403.87	1918.95
404.07	1966.05
404.28	1937.38
404.49	1992.67
404.70	1824.74
404.90	1863.65
405.11	1761.25
405.32	1761.25
405.52	1724.39
405.73	1652.71
405.94	1658.85
406.15	1746.92
406.35	1687.53
406.56	1783.78
406.77	1697.77
406.98	1798.12
407.18	1714.15
407.39	1794.02
407.60	1775.59
407.80	1718.25
408.01	1718.25
408.22	1746.92
408.43	1660.90
408.63	1732.58
408.84	1697.77
409.05	1738.73
409.25	1695.72
409.46	1673.19
409.67	1677.29
409.88	1691.62
410.08	1759.21
410.29	1697.77
410.50	1701.86
410.70	1722.34
410.91	1695.72
411.12	1783.78
411.32	1716.20
411.53	1691.62
411.74	1755.11
411.95	1804.26
412.15	1738.73
412.36	1861.60
412.57	1802.21
412.77	1806.31
412.98	1730.53
413.19	1734.63
413.39	1769.44
413.60	1791.97
413.81	1796.07
414.01	1720.29
414.22	1796.07
414.43	1748.97
414.63	1701.86
414.84	1716.20
415.05	1728.49
415.25	1722.34
415.46	1726.44
415.67	1714.15
415.87	1783.78
416.08	1771.49
416.29	1675.24
416.49	1740.77
416.70	1718.25
416.91	1650.66
417.11	1695.72
417.32	1746.92
417.53	1787.88
417.73	1777.64
417.94	1744.87
418.15	1720.29
418.35	1646.57
418.56	1697.77
418.77	1802.21
418.97	1757.16
419.18	1804.26
419.38	1617.90
419.59	1724.39
419.80	1800.16
420.00	1708.01
420.21	1683.43
420.42	1767.40
420.62	1765.35
420.83	1738.73
421.04	1697.77
421.24	1658.85
421.45	1779.68
421.65	1738.73
421.86	1667.05
422.07	1708.01
422.27	1783.78
422.48	1730.53
422.69	1626.09
422.89	1699.81
423.10	1691.62
423.30	1697.77
423.51	1687.53
423.72	1701.86
423.92	1767.40
424.13	1591.27
424.33	1761.25
424.54	1730.53
424.75	1726.44
424.95	1781.73
425.16	1722.34
425.36	1697.77
425.57	1740.77
425.78	1691.62
425.98	1712.10
426.19	1646.57
426.39	1636.33
426.60	1759.21
426.81	1822.69
427.01	1738.73
427.22	1611.75
427.42	1613.80
427.63	1681.38
427.83	1779.68
428.04	1802.21
428.25	1751.01
428.45	1767.40
428.66	1794.02
428.86	1658.85
429.07	1669.09
429.28	1718.25
429.48	1734.63
429.69	1626.09
429.89	1695.72
430.10	1609.70
430.30	1697.77
430.51	1775.59
430.71	1710.05
430.92	1730.53
431.13	1753.06
431.33	1765.35
431.54	1695.72
431.74	1884.13
431.95	1820.64
432.15	1648.61
432.36	1681.38
432.56	1718.25
432.77	1841.12
432.98	1849.32
433.18	1701.86
433.39	1718.25
433.59	1695.72
433.80	1845.22
434.00	1855.46
434.21	1636.33
434.41	1656.81
434.62	1773.54
434.82	1708.01
435.03	1578.98
435.23	1697.77
435.44	1652.71
435.64	1638.38
435.85	1716.20
436.06	1753.06
436.26	1751.01
436.47	1654.76
436.67	1644.52
436.88	1769.44
437.08	1732.58
437.29	1828.84
437.49	1763.30
437.70	1830.88
437.90	1742.82
438.11	1882.08
438.31	1771.49
438.52	1884.13
438.72	1861.60
438.93	2009.06
439.13	1771.49
439.34	1828.84
439.54	1746.92
439.75	1812.45
439.95	1877.99
440.16	1710.05
440.36	1761.25
440.57	1822.69
440.77	1800.16
440.98	1796.07
441.18	1765.35
441.39	1679.33
441.59	1632.23
441.80	1830.88
442.00	1697.77
442.21	1796.07
442.41	1685.48
442.62	1800.16
442.82	1619.94
443.02	1759.21
443.23	1726.44
443.43	1746.92
443.64	1804.26
443.84	1718.25
444.05	1787.88
444.25	1703.91
444.46	1660.90
444.66	1849.32
444.87	1816.55
445.07	1701.86
445.28	1708.01
445.48	1820.64
445.69	1794.02
445.89	1830.88
446.09	1726.44
446.30	2045.92
446.50	2652.12
446.71	4149.18
446.91	5038.00
447.12	5736.36
447.32	6148.00
447.53	5300.14
447.73	4401.08
447.93	4069.31
448.14	3706.82
448.34	3440.59
448.55	3024.85
448.75	3084.24
448.96	2850.77
449.16	2645.98
449.36	2523.10
449.57	2152.42
449.77	2019.30
449.98	1861.60
450.18	1834.98
450.39	1890.28
450.59	1834.98
450.79	1714.15
451.00	1738.73
451.20	1732.58
451.41	1697.77
451.61	1732.58
451.81	1796.07
452.02	1677.29
452.22	1724.39
452.43	1726.44
452.63	1630.18
