SpectraSuite Data File
++++++++++++++++++++++++++++++++++++
Date: Wed May 04 18:44:43 CEST 2016
User: root
Dark Spectrum Present: No
Reference Spectrum Present: No
Number of Sampled Component Spectra: 1
Spectrometers: USB4C02835
Integration Time (usec): 100000 (USB4C02835)
Spectra Averaged: 1 (USB4C02835)
Boxcar Smoothing: 0 (USB4C02835)
Correct for Electrical Dark: No (USB4C02835)
Strobe/Lamp Enabled: No (USB4C02835)
Correct for Detector Non-linearity: No (USB4C02835)
Correct for Stray Light: No (USB4C02835)
Number of Pixels in Processed Spectrum: 3648
>>>>>Begin Processed Spectral Data<<<<<
177.47	1456.11
177.69	1456.11
177.91	1456.11
178.13	1464.30
178.36	1425.39
178.58	1697.77
178.80	1722.34
179.02	1632.23
179.24	1642.47
179.46	1603.56
179.68	1755.11
179.90	1736.68
180.13	1693.67
180.35	1654.76
180.57	1646.57
180.79	1726.44
181.01	1708.01
181.23	1759.21
181.45	1705.96
181.67	1673.19
181.90	1681.38
182.12	1644.52
182.34	1585.13
182.56	1777.64
182.78	1699.81
183.00	1681.38
183.22	1777.64
183.44	1615.85
183.66	1806.31
183.89	1728.49
184.11	1669.09
184.33	1759.21
184.55	1828.84
184.77	1665.00
184.99	1673.19
185.21	1671.14
185.43	1818.60
185.65	1671.14
185.87	1689.57
186.10	1757.16
186.32	1847.27
186.54	1761.25
186.76	1767.40
186.98	1765.35
187.20	1693.67
187.42	1722.34
187.64	1753.06
187.86	1673.19
188.08	1720.29
188.30	1722.34
188.52	1761.25
188.75	1796.07
188.97	1845.22
189.19	1710.05
189.41	1744.87
189.63	1820.64
189.85	1665.00
190.07	1644.52
190.29	1689.57
190.51	1697.77
190.73	1681.38
190.95	1783.78
191.17	1681.38
191.39	1599.46
191.61	1677.29
191.84	1615.85
192.06	1714.15
192.28	1628.14
192.50	1896.42
192.72	1748.97
192.94	1710.05
193.16	1789.92
193.38	1763.30
193.60	1650.66
193.82	1724.39
194.04	1818.60
194.26	1759.21
194.48	1767.40
194.70	1697.77
194.92	1617.90
195.14	1761.25
195.36	1726.44
195.58	1693.67
195.80	1701.86
196.02	1617.90
196.24	1632.23
196.46	1642.47
196.69	1693.67
196.91	1828.84
197.13	1689.57
197.35	1699.81
197.57	1824.74
197.79	1650.66
198.01	1705.96
198.23	1748.97
198.45	1738.73
198.67	1626.09
198.89	1712.10
199.11	1755.11
199.33	1646.57
199.55	1617.90
199.77	1699.81
199.99	1798.12
200.21	1714.15
200.43	1675.24
200.65	1607.66
200.87	1531.88
201.09	1640.42
201.31	1658.85
201.53	1689.57
201.75	1724.39
201.97	1718.25
202.19	1761.25
202.41	1742.82
202.63	1738.73
202.85	1708.01
203.07	1732.58
203.29	1701.86
203.51	1650.66
203.73	1703.91
203.95	1837.03
204.17	1775.59
204.39	1755.11
204.61	1775.59
204.83	1613.80
205.05	1730.53
205.27	1765.35
205.49	1828.84
205.71	1740.77
205.93	1611.75
206.15	1681.38
206.37	1710.05
206.59	1701.86
206.81	1671.14
207.03	1691.62
207.25	1617.90
207.47	1765.35
207.69	1669.09
207.91	1804.26
208.13	1853.41
208.34	1667.05
208.56	1671.14
208.78	1820.64
209.00	1677.29
209.22	1642.47
209.44	1662.95
209.66	1701.86
209.88	1695.72
210.10	1699.81
210.32	1662.95
210.54	1824.74
210.76	1695.72
210.98	1734.63
211.20	1578.98
211.42	1789.92
211.64	1744.87
211.86	1695.72
212.08	1798.12
212.30	1771.49
212.52	1708.01
212.74	1716.20
212.96	1712.10
213.17	1716.20
213.39	1691.62
213.61	1822.69
213.83	1787.88
214.05	1718.25
214.27	1800.16
214.49	1665.00
214.71	1728.49
214.93	1736.68
215.15	1697.77
215.37	1763.30
215.59	1611.75
215.81	1791.97
216.03	1796.07
216.24	1652.71
216.46	1701.86
216.68	1751.01
216.90	1769.44
217.12	1716.20
217.34	1665.00
217.56	1720.29
217.78	1822.69
218.00	1710.05
218.22	1712.10
218.44	1779.68
218.66	1681.38
218.87	1841.12
219.09	1681.38
219.31	1714.15
219.53	1722.34
219.75	1718.25
219.97	1687.53
220.19	1751.01
220.41	1738.73
220.63	1753.06
220.85	1689.57
221.06	1636.33
221.28	1826.79
221.50	1796.07
221.72	1757.16
221.94	1744.87
222.16	1738.73
222.38	1808.36
222.60	1791.97
222.82	1718.25
223.03	1699.81
223.25	1650.66
223.47	1691.62
223.69	1828.84
223.91	1775.59
224.13	1726.44
224.35	1720.29
224.57	1783.78
224.78	1796.07
225.00	1683.43
225.22	1701.86
225.44	1730.53
225.66	1740.77
225.88	1681.38
226.10	1769.44
226.32	1789.92
226.53	1720.29
226.75	1687.53
226.97	1716.20
227.19	1701.86
227.41	1679.33
227.63	1660.90
227.85	1648.61
228.06	1699.81
228.28	1701.86
228.50	1734.63
228.72	1677.29
228.94	1724.39
229.16	1597.42
229.37	1642.47
229.59	1619.94
229.81	1832.93
230.03	1662.95
230.25	1597.42
230.47	1722.34
230.69	1671.14
230.90	1740.77
231.12	1673.19
231.34	1699.81
231.56	1806.31
231.78	1576.94
232.00	1691.62
232.21	1728.49
232.43	1638.38
232.65	1570.79
232.87	1806.31
233.09	1636.33
233.30	1675.24
233.52	1724.39
233.74	1665.00
233.96	1671.14
234.18	1691.62
234.40	1687.53
234.61	1794.02
234.83	1667.05
235.05	1646.57
235.27	1871.84
235.49	1753.06
235.70	1697.77
235.92	1822.69
236.14	1771.49
236.36	1820.64
236.58	1671.14
236.79	1724.39
237.01	1718.25
237.23	1691.62
237.45	1810.40
237.67	1693.67
237.88	1753.06
238.10	1791.97
238.32	1675.24
238.54	1714.15
238.76	1748.97
238.97	1632.23
239.19	1730.53
239.41	1804.26
239.63	1751.01
239.85	1673.19
240.06	1660.90
240.28	1708.01
240.50	1689.57
240.72	1703.91
240.93	1734.63
241.15	1871.84
241.37	1730.53
241.59	1759.21
241.81	1708.01
242.02	1687.53
242.24	1687.53
242.46	1751.01
242.68	1632.23
242.89	1689.57
243.11	1722.34
243.33	1697.77
243.55	1794.02
243.76	1791.97
243.98	1630.18
244.20	1804.26
244.42	1738.73
244.64	1767.40
244.85	1669.09
245.07	1708.01
245.29	1757.16
245.51	1763.30
245.72	1693.67
245.94	1791.97
246.16	1656.81
246.38	1708.01
246.59	1685.48
246.81	1685.48
247.03	1693.67
247.24	1654.76
247.46	1710.05
247.68	1763.30
247.90	1648.61
248.11	1759.21
248.33	1800.16
248.55	1716.20
248.77	1642.47
248.98	1751.01
249.20	1863.65
249.42	1693.67
249.64	1798.12
249.85	1748.97
250.07	1648.61
250.29	1761.25
250.50	1705.96
250.72	1611.75
250.94	1714.15
251.16	1855.46
251.37	1818.60
251.59	1642.47
251.81	1689.57
252.02	1789.92
252.24	1650.66
252.46	1841.12
252.68	1720.29
252.89	1632.23
253.11	1591.27
253.33	1839.08
253.54	1765.35
253.76	1677.29
253.98	1748.97
254.20	1626.09
254.41	1679.33
254.63	1681.38
254.85	1662.95
255.06	1675.24
255.28	1658.85
255.50	1677.29
255.71	1628.14
255.93	1667.05
256.15	1650.66
256.36	1740.77
256.58	1656.81
256.80	1763.30
257.02	1673.19
257.23	1599.46
257.45	1689.57
257.67	1806.31
257.88	1630.18
258.10	1771.49
258.32	1710.05
258.53	1671.14
258.75	1783.78
258.97	1648.61
259.18	1673.19
259.40	1697.77
259.62	1820.64
259.83	1765.35
260.05	1695.72
260.27	2009.06
260.48	1718.25
260.70	1728.49
260.92	1679.33
261.13	1802.21
261.35	1744.87
261.57	1771.49
261.78	1665.00
262.00	1624.04
262.22	1798.12
262.43	1656.81
262.65	1638.38
262.86	1753.06
263.08	1787.88
263.30	1714.15
263.51	1597.42
263.73	1642.47
263.95	1832.93
264.16	1697.77
264.38	1732.58
264.60	1714.15
264.81	1710.05
265.03	1695.72
265.25	1794.02
265.46	1677.29
265.68	1800.16
265.89	1806.31
266.11	1646.57
266.33	1738.73
266.54	1744.87
266.76	1759.21
266.98	1701.86
267.19	1755.11
267.41	1718.25
267.62	1722.34
267.84	1644.52
268.06	1705.96
268.27	1738.73
268.49	1732.58
268.70	1673.19
268.92	1716.20
269.14	1677.29
269.35	1638.38
269.57	1726.44
269.79	1687.53
270.00	1679.33
270.22	1804.26
270.43	1638.38
270.65	1591.27
270.87	1734.63
271.08	1800.16
271.30	1703.91
271.51	1708.01
271.73	1785.83
271.95	1775.59
272.16	1753.06
272.38	1742.82
272.59	1675.24
272.81	1722.34
273.02	1662.95
273.24	1775.59
273.46	1779.68
273.67	1624.04
273.89	1695.72
274.10	1656.81
274.32	1693.67
274.54	1742.82
274.75	1671.14
274.97	1726.44
275.18	1720.29
275.40	1708.01
275.61	1685.48
275.83	1830.88
276.05	1646.57
276.26	1695.72
276.48	1724.39
276.69	1638.38
276.91	1646.57
277.12	1751.01
277.34	1726.44
277.55	1695.72
277.77	1703.91
277.99	1703.91
278.20	1587.18
278.42	1615.85
278.63	1640.42
278.85	1621.99
279.06	1636.33
279.28	1769.44
279.49	1746.92
279.71	1708.01
279.93	1744.87
280.14	1617.90
280.36	1693.67
280.57	1759.21
280.79	1714.15
281.00	1638.38
281.22	1656.81
281.43	1763.30
281.65	1636.33
281.86	1646.57
282.08	1712.10
282.29	1767.40
282.51	1685.48
282.73	1669.09
282.94	1642.47
283.16	1751.01
283.37	1787.88
283.59	1751.01
283.80	1722.34
284.02	1695.72
284.23	1736.68
284.45	1742.82
284.66	1675.24
284.88	1705.96
285.09	1720.29
285.31	1755.11
285.52	1757.16
285.74	1517.54
285.95	1789.92
286.17	1748.97
286.38	1746.92
286.60	1722.34
286.81	1656.81
287.03	1669.09
287.24	1677.29
287.46	1712.10
287.67	1687.53
287.89	1804.26
288.10	1699.81
288.32	1712.10
288.53	1765.35
288.75	1687.53
288.96	1767.40
289.18	1591.27
289.39	1708.01
289.61	1734.63
289.82	1810.40
290.04	1834.98
290.25	1595.37
290.47	1720.29
290.68	1619.94
290.90	1755.11
291.11	1581.03
291.33	1763.30
291.54	1671.14
291.76	1656.81
291.97	1738.73
292.18	1667.05
292.40	1687.53
292.61	1718.25
292.83	1855.46
293.04	1740.77
293.26	1699.81
293.47	1683.43
293.69	1652.71
293.90	1720.29
294.12	1691.62
294.33	1771.49
294.55	1648.61
294.76	1761.25
294.97	1738.73
295.19	1849.32
295.40	1656.81
295.62	1699.81
295.83	1761.25
296.05	1603.56
296.26	1705.96
296.48	1656.81
296.69	1726.44
296.90	1689.57
297.12	1771.49
297.33	1708.01
297.55	1642.47
297.76	1710.05
297.98	1732.58
298.19	1658.85
298.41	1734.63
298.62	1691.62
298.83	1847.27
299.05	1708.01
299.26	1615.85
299.48	1656.81
299.69	1785.83
299.90	1751.01
300.12	1589.22
300.33	1765.35
300.55	1697.77
300.76	1675.24
300.98	1630.18
301.19	1763.30
301.40	1665.00
301.62	1730.53
301.83	1714.15
302.05	1714.15
302.26	1703.91
302.47	1720.29
302.69	1720.29
302.90	1763.30
303.12	1619.94
303.33	1736.68
303.54	1777.64
303.76	1705.96
303.97	1732.58
304.19	1816.55
304.40	1652.71
304.61	1667.05
304.83	1779.68
305.04	1748.97
305.26	1755.11
305.47	1701.86
305.68	1716.20
305.90	1669.09
306.11	1843.17
306.33	1781.73
306.54	1671.14
306.75	1703.91
306.97	1644.52
307.18	1685.48
307.39	1621.99
307.61	1753.06
307.82	1615.85
308.04	1763.30
308.25	1632.23
308.46	1732.58
308.68	1667.05
308.89	1765.35
309.10	1794.02
309.32	1703.91
309.53	1714.15
309.74	1695.72
309.96	1720.29
310.17	1773.54
310.39	1673.19
310.60	1736.68
310.81	1761.25
311.03	1660.90
311.24	1763.30
311.45	1695.72
311.67	1753.06
311.88	1775.59
312.09	1728.49
312.31	1718.25
312.52	1615.85
312.73	1665.00
312.95	1636.33
313.16	1708.01
313.37	1783.78
313.59	1740.77
313.80	1693.67
314.01	1798.12
314.23	1736.68
314.44	1656.81
314.65	1673.19
314.87	1591.27
315.08	1742.82
315.29	1734.63
315.51	1652.71
315.72	1644.52
315.93	1744.87
316.15	1779.68
316.36	1675.24
316.57	1742.82
316.79	1738.73
317.00	1753.06
317.21	1722.34
317.43	1701.86
317.64	1722.34
317.85	1595.37
318.07	1652.71
318.28	1728.49
318.49	1851.36
318.70	1959.91
318.92	1933.28
319.13	1886.18
319.34	1853.41
319.56	1820.64
319.77	1845.22
319.98	1802.21
320.20	1880.04
320.41	1742.82
320.62	1728.49
320.83	1697.77
321.05	1863.65
321.26	1705.96
321.47	1648.61
321.69	1751.01
321.90	1642.47
322.11	1701.86
322.32	1656.81
322.54	1775.59
322.75	1687.53
322.96	1902.56
323.18	1665.00
323.39	1556.46
323.60	1687.53
323.81	1689.57
324.03	1660.90
324.24	1675.24
324.45	1656.81
324.66	1724.39
324.88	1791.97
325.09	1771.49
325.30	1720.29
325.52	1720.29
325.73	1771.49
325.94	1716.20
326.15	1581.03
326.37	1624.04
326.58	1708.01
326.79	1751.01
327.00	1617.90
327.22	1773.54
327.43	1751.01
327.64	1632.23
327.85	1757.16
328.07	1703.91
328.28	1810.40
328.49	1708.01
328.70	1712.10
328.92	1619.94
329.13	1708.01
329.34	1705.96
329.55	1808.36
329.76	1724.39
329.98	1691.62
330.19	1787.88
330.40	1716.20
330.61	1746.92
330.83	1701.86
331.04	1578.98
331.25	1681.38
331.46	1697.77
331.68	1648.61
331.89	1759.21
332.10	1726.44
332.31	1642.47
332.52	1746.92
332.74	1748.97
332.95	1714.15
333.16	1675.24
333.37	1691.62
333.58	1671.14
333.80	1701.86
334.01	1677.29
334.22	1738.73
334.43	1626.09
334.64	1636.33
334.86	1695.72
335.07	1687.53
335.28	1820.64
335.49	1669.09
335.70	1718.25
335.92	1794.02
336.13	1816.55
336.34	1785.83
336.55	1759.21
336.76	1777.64
336.98	1669.09
337.19	1785.83
337.40	1757.16
337.61	1894.37
337.82	1593.32
338.04	1767.40
338.25	1611.75
338.46	1701.86
338.67	1683.43
338.88	1628.14
339.09	1644.52
339.31	1654.76
339.52	1681.38
339.73	1589.22
339.94	1689.57
340.15	1726.44
340.36	1691.62
340.58	1687.53
340.79	1595.37
341.00	1789.92
341.21	1603.56
341.42	1816.55
341.63	1636.33
341.85	1748.97
342.06	1728.49
342.27	1621.99
342.48	1738.73
342.69	1566.70
342.90	1804.26
343.12	1665.00
343.33	1720.29
343.54	1763.30
343.75	1787.88
343.96	1738.73
344.17	1636.33
344.38	1726.44
344.60	1697.77
344.81	1671.14
345.02	1656.81
345.23	1787.88
345.44	1781.73
345.65	1714.15
345.86	1630.18
346.07	1703.91
346.29	1615.85
346.50	1665.00
346.71	1800.16
346.92	1699.81
347.13	1882.08
347.34	1601.51
347.55	1699.81
347.76	1697.77
347.98	1554.41
348.19	1708.01
348.40	1771.49
348.61	1671.14
348.82	1714.15
349.03	1744.87
349.24	1675.24
349.45	1794.02
349.66	1669.09
349.88	1708.01
350.09	1648.61
350.30	1777.64
350.51	1812.45
350.72	1738.73
350.93	1712.10
351.14	1626.09
351.35	1837.03
351.56	1634.28
351.77	1720.29
351.99	1699.81
352.20	1732.58
352.41	1759.21
352.62	1587.18
352.83	1681.38
353.04	1753.06
353.25	1660.90
353.46	1804.26
353.67	1763.30
353.88	1529.83
354.09	1765.35
354.30	1746.92
354.52	1787.88
354.73	1699.81
354.94	1691.62
355.15	1730.53
355.36	1748.97
355.57	1755.11
355.78	1703.91
355.99	1628.14
356.20	1691.62
356.41	1759.21
356.62	1724.39
356.83	1669.09
357.04	1865.70
357.25	1591.27
357.46	1759.21
357.68	1585.13
357.89	1583.08
358.10	1695.72
358.31	1812.45
358.52	1681.38
358.73	1665.00
358.94	1699.81
359.15	1687.53
359.36	1732.58
359.57	1728.49
359.78	1683.43
359.99	1744.87
360.20	1730.53
360.41	1697.77
360.62	1708.01
360.83	1779.68
361.04	1755.11
361.25	1767.40
361.46	1798.12
361.67	1746.92
361.88	1710.05
362.09	1755.11
362.30	1683.43
362.51	1601.51
362.72	1599.46
362.93	1748.97
363.14	1724.39
363.35	1689.57
363.56	1685.48
363.78	1824.74
363.99	1775.59
364.20	1677.29
364.41	1671.14
364.62	1783.78
364.83	1744.87
365.04	1734.63
365.25	1710.05
365.46	1802.21
365.67	1605.61
365.88	1695.72
366.09	1712.10
366.30	1628.14
366.51	1689.57
366.72	1619.94
366.93	1689.57
367.14	1722.34
367.35	1740.77
367.56	1693.67
367.77	1775.59
367.98	1763.30
368.18	1687.53
368.39	1748.97
368.60	1675.24
368.81	1685.48
369.02	1726.44
369.23	1603.56
369.44	1615.85
369.65	1671.14
369.86	1681.38
370.07	1759.21
370.28	1599.46
370.49	1824.74
370.70	1724.39
370.91	1683.43
371.12	1671.14
371.33	1832.93
371.54	1705.96
371.75	1765.35
371.96	1462.25
372.17	1757.16
372.38	1652.71
372.59	1734.63
372.80	1671.14
373.01	1701.86
373.22	1689.57
373.43	1718.25
373.64	1685.48
373.85	1738.73
374.06	1865.70
374.26	1873.89
374.47	1714.15
374.68	1763.30
374.89	1748.97
375.10	1726.44
375.31	1814.50
375.52	1736.68
375.73	1744.87
375.94	1611.75
376.15	1839.08
376.36	1607.66
376.57	1738.73
376.78	1658.85
376.99	1767.40
377.20	1761.25
377.40	1677.29
377.61	1828.84
377.82	1593.32
378.03	1765.35
378.24	1759.21
378.45	1779.68
378.66	1744.87
378.87	1607.66
379.08	1640.42
379.29	1662.95
379.50	1724.39
379.71	1705.96
379.91	1771.49
380.12	1665.00
380.33	1763.30
380.54	1746.92
380.75	1714.15
380.96	1775.59
381.17	1777.64
381.38	1708.01
381.59	1724.39
381.80	1779.68
382.00	1865.70
382.21	1769.44
382.42	1877.99
382.63	2015.20
382.84	1824.74
383.05	1777.64
383.26	1857.51
383.47	1689.57
383.68	1826.79
383.88	1712.10
384.09	1689.57
384.30	1796.07
384.51	1732.58
384.72	1777.64
384.93	1683.43
385.14	1714.15
385.35	1771.49
385.55	1714.15
385.76	1806.31
385.97	1701.86
386.18	1656.81
386.39	1675.24
386.60	1685.48
386.81	1720.29
387.02	1652.71
387.22	1658.85
387.43	1851.36
387.64	1837.03
387.85	1877.99
388.06	2273.25
388.27	4736.95
388.48	9154.42
388.68	11568.98
388.89	13567.79
389.10	14057.26
389.31	11994.95
389.52	9754.48
389.73	8486.78
389.93	7911.30
390.14	7126.93
390.35	6733.72
390.56	5982.12
390.77	4906.93
390.98	3968.96
391.18	3045.33
391.39	2375.64
391.60	1832.93
391.81	1834.98
392.02	1826.79
392.23	1861.60
392.43	1791.97
392.64	1918.95
392.85	1734.63
393.06	1787.88
393.27	1742.82
393.47	1658.85
393.68	1720.29
393.89	1636.33
394.10	1724.39
394.31	1679.33
394.52	1701.86
394.72	1718.25
394.93	1794.02
395.14	1636.33
395.35	1853.41
395.56	1689.57
395.76	1757.16
395.97	1820.64
396.18	1908.71
396.39	1857.51
396.60	2041.82
396.80	2013.15
397.01	1918.95
397.22	1859.56
397.43	1869.80
397.64	1789.92
397.84	1826.79
398.05	1875.94
398.26	1738.73
398.47	1808.36
398.67	1804.26
398.88	1785.83
399.09	1824.74
399.30	1798.12
399.51	1789.92
399.71	1667.05
399.92	1740.77
400.13	1724.39
400.34	1746.92
400.54	1710.05
400.75	1781.73
400.96	1767.40
401.17	1810.40
401.37	1697.77
401.58	1738.73
401.79	1652.71
402.00	1959.91
402.21	2056.16
402.41	1994.72
402.62	2127.84
402.83	2156.51
403.04	2078.69
403.24	2140.13
403.45	1914.85
403.66	1927.14
403.87	1902.56
404.07	1886.18
404.28	1976.29
404.49	1945.57
404.70	1794.02
404.90	1806.31
405.11	1781.73
405.32	1808.36
405.52	1730.53
405.73	1714.15
405.94	1662.95
406.15	1742.82
406.35	1691.62
406.56	1798.12
406.77	1691.62
406.98	1748.97
407.18	1591.27
407.39	1877.99
407.60	1716.20
407.80	1714.15
408.01	1771.49
408.22	1701.86
408.43	1638.38
408.63	1705.96
408.84	1753.06
409.05	1787.88
409.25	1687.53
409.46	1640.42
409.67	1689.57
409.88	1744.87
410.08	1730.53
410.29	1665.00
410.50	1765.35
410.70	1714.15
410.91	1624.04
411.12	1787.88
411.32	1746.92
411.53	1714.15
411.74	1802.21
411.95	1787.88
412.15	1853.41
412.36	1787.88
412.57	1806.31
412.77	1894.37
412.98	1757.16
413.19	1773.54
413.39	1785.83
413.60	1789.92
413.81	1804.26
414.01	1728.49
414.22	1763.30
414.43	1730.53
414.63	1693.67
414.84	1806.31
415.05	1720.29
415.25	1638.38
415.46	1755.11
415.67	1720.29
415.87	1753.06
416.08	1718.25
416.29	1662.95
416.49	1714.15
416.70	1732.58
416.91	1722.34
417.11	1726.44
417.32	1746.92
417.53	1734.63
417.73	1751.01
417.94	1613.80
418.15	1705.96
418.35	1738.73
418.56	1652.71
418.77	1824.74
418.97	1667.05
419.18	1662.95
419.38	1646.57
419.59	1693.67
419.80	1787.88
420.00	1671.14
420.21	1787.88
420.42	1855.46
420.62	1744.87
420.83	1685.48
421.04	1755.11
421.24	1648.61
421.45	1710.05
421.65	1716.20
421.86	1708.01
422.07	1699.81
422.27	1710.05
422.48	1662.95
422.69	1662.95
422.89	1677.29
423.10	1767.40
423.30	1601.51
423.51	1644.52
423.72	1683.43
423.92	1724.39
424.13	1718.25
424.33	1671.14
424.54	1800.16
424.75	1736.68
424.95	1839.08
425.16	1718.25
425.36	1697.77
425.57	1769.44
425.78	1783.78
425.98	1777.64
426.19	1726.44
426.39	1640.42
426.60	1785.83
426.81	1763.30
427.01	1712.10
427.22	1632.23
427.42	1599.46
427.63	1722.34
427.83	1791.97
428.04	1804.26
428.25	1755.11
428.45	1765.35
428.66	1787.88
428.86	1693.67
429.07	1624.04
429.28	1779.68
429.48	1746.92
429.69	1679.33
429.89	1755.11
430.10	1687.53
430.30	1714.15
430.51	1773.54
430.71	1724.39
430.92	1742.82
431.13	1699.81
431.33	1720.29
431.54	1744.87
431.74	1834.98
431.95	1845.22
432.15	1662.95
432.36	1703.91
432.56	1736.68
432.77	1791.97
432.98	1767.40
433.18	1714.15
433.39	1718.25
433.59	1689.57
433.80	1832.93
434.00	1810.40
434.21	1669.09
434.41	1662.95
434.62	1902.56
434.82	1650.66
435.03	1744.87
435.23	1794.02
435.44	1611.75
435.64	1701.86
435.85	1728.49
436.06	1781.73
436.26	1687.53
436.47	1697.77
436.67	1611.75
436.88	1744.87
437.08	1802.21
437.29	1812.45
437.49	1808.36
437.70	1771.49
437.90	1734.63
438.11	1740.77
438.31	1859.56
438.52	1968.10
438.72	1865.70
438.93	1957.86
439.13	1861.60
439.34	1880.04
439.54	1787.88
439.75	1837.03
439.95	1705.96
440.16	1773.54
440.36	1720.29
440.57	1751.01
440.77	1818.60
440.98	1732.58
441.18	1734.63
441.39	1658.85
441.59	1765.35
441.80	1802.21
442.00	1798.12
442.21	1839.08
442.41	1722.34
442.62	1865.70
442.82	1662.95
443.02	1751.01
443.23	1730.53
443.43	1619.94
443.64	1857.51
443.84	1658.85
444.05	1771.49
444.25	1685.48
444.46	1712.10
444.66	1724.39
444.87	1794.02
445.07	1710.05
445.28	1708.01
445.48	1753.06
445.69	1771.49
445.89	1828.84
446.09	1746.92
446.30	2025.44
446.50	2600.92
446.71	4130.75
446.91	5138.35
447.12	5773.22
447.32	5971.88
447.53	5451.69
447.73	4378.56
447.93	3983.30
448.14	3700.68
448.34	3467.21
448.55	3098.58
448.75	3117.01
448.96	2947.03
449.16	2670.55
449.36	2480.09
449.57	2064.35
449.77	1992.67
449.98	1742.82
450.18	1804.26
450.39	1796.07
450.59	1742.82
450.79	1677.29
451.00	1710.05
451.20	1783.78
451.41	1746.92
451.61	1742.82
451.81	1736.68
452.02	1673.19
452.22	1759.21
452.43	1730.53
452.63	1681.38
