SpectraSuite Data File
++++++++++++++++++++++++++++++++++++
Date: Wed May 04 18:44:44 CEST 2016
User: root
Dark Spectrum Present: No
Reference Spectrum Present: No
Number of Sampled Component Spectra: 1
Spectrometers: USB4C02835
Integration Time (usec): 100000 (USB4C02835)
Spectra Averaged: 1 (USB4C02835)
Boxcar Smoothing: 0 (USB4C02835)
Correct for Electrical Dark: No (USB4C02835)
Strobe/Lamp Enabled: No (USB4C02835)
Correct for Detector Non-linearity: No (USB4C02835)
Correct for Stray Light: No (USB4C02835)
Number of Pixels in Processed Spectrum: 3648
>>>>>Begin Processed Spectral Data<<<<<
177.47	1517.54
177.69	1517.54
177.91	1517.54
178.13	1411.05
178.36	1398.76
178.58	1650.66
178.80	1687.53
179.02	1650.66
179.24	1667.05
179.46	1683.43
179.68	1779.68
179.90	1669.09
180.13	1759.21
180.35	1681.38
180.57	1669.09
180.79	1693.67
181.01	1740.77
181.23	1767.40
181.45	1746.92
181.67	1714.15
181.90	1812.45
182.12	1609.70
182.34	1695.72
182.56	1718.25
182.78	1783.78
183.00	1695.72
183.22	1734.63
183.44	1644.52
183.66	1910.75
183.89	1781.73
184.11	1689.57
184.33	1781.73
184.55	1810.40
184.77	1736.68
184.99	1730.53
185.21	1646.57
185.43	1877.99
185.65	1724.39
185.87	1716.20
186.10	1812.45
186.32	1796.07
186.54	1736.68
186.76	1736.68
186.98	1724.39
187.20	1724.39
187.42	1679.33
187.64	1705.96
187.86	1738.73
188.08	1757.16
188.30	1632.23
188.52	1699.81
188.75	1734.63
188.97	1794.02
189.19	1644.52
189.41	1734.63
189.63	1810.40
189.85	1730.53
190.07	1597.42
190.29	1613.80
190.51	1841.12
190.73	1658.85
190.95	1748.97
191.17	1736.68
191.39	1691.62
191.61	1697.77
191.84	1683.43
192.06	1748.97
192.28	1568.74
192.50	1859.56
192.72	1742.82
192.94	1744.87
193.16	1791.97
193.38	1767.40
193.60	1638.38
193.82	1701.86
194.04	1718.25
194.26	1716.20
194.48	1658.85
194.70	1640.42
194.92	1640.42
195.14	1724.39
195.36	1607.66
195.58	1683.43
195.80	1744.87
196.02	1722.34
196.24	1769.44
196.46	1748.97
196.69	1578.98
196.91	1877.99
197.13	1705.96
197.35	1673.19
197.57	1796.07
197.79	1761.25
198.01	1720.29
198.23	1771.49
198.45	1720.29
198.67	1626.09
198.89	1742.82
199.11	1806.31
199.33	1669.09
199.55	1581.03
199.77	1705.96
199.99	1724.39
200.21	1705.96
200.43	1712.10
200.65	1619.94
200.87	1552.36
201.09	1689.57
201.31	1656.81
201.53	1769.44
201.75	1730.53
201.97	1724.39
202.19	1699.81
202.41	1654.76
202.63	1818.60
202.85	1708.01
203.07	1679.33
203.29	1638.38
203.51	1648.61
203.73	1705.96
203.95	1910.75
204.17	1726.44
204.39	1703.91
204.61	1738.73
204.83	1683.43
205.05	1779.68
205.27	1718.25
205.49	1802.21
205.71	1796.07
205.93	1665.00
206.15	1705.96
206.37	1654.76
206.59	1642.47
206.81	1681.38
207.03	1640.42
207.25	1685.48
207.47	1673.19
207.69	1679.33
207.91	1714.15
208.13	1738.73
208.34	1716.20
208.56	1603.56
208.78	1697.77
209.00	1667.05
209.22	1691.62
209.44	1705.96
209.66	1712.10
209.88	1687.53
210.10	1681.38
210.32	1703.91
210.54	1804.26
210.76	1701.86
210.98	1779.68
211.20	1613.80
211.42	1724.39
211.64	1789.92
211.86	1744.87
212.08	1660.90
212.30	1693.67
212.52	1699.81
212.74	1748.97
212.96	1714.15
213.17	1691.62
213.39	1794.02
213.61	1894.37
213.83	1734.63
214.05	1708.01
214.27	1751.01
214.49	1669.09
214.71	1712.10
214.93	1783.78
215.15	1654.76
215.37	1720.29
215.59	1589.22
215.81	1775.59
216.03	1757.16
216.24	1718.25
216.46	1724.39
216.68	1642.47
216.90	1828.84
217.12	1751.01
217.34	1658.85
217.56	1740.77
217.78	1779.68
218.00	1771.49
218.22	1634.28
218.44	1751.01
218.66	1697.77
218.87	1738.73
219.09	1775.59
219.31	1669.09
219.53	1816.55
219.75	1570.79
219.97	1710.05
220.19	1718.25
220.41	1679.33
220.63	1736.68
220.85	1705.96
221.06	1720.29
221.28	1798.12
221.50	1693.67
221.72	1705.96
221.94	1677.29
222.16	1757.16
222.38	1748.97
222.60	1718.25
222.82	1697.77
223.03	1726.44
223.25	1667.05
223.47	1744.87
223.69	1880.04
223.91	1767.40
224.13	1708.01
224.35	1636.33
224.57	1705.96
224.78	1779.68
225.00	1648.61
225.22	1658.85
225.44	1718.25
225.66	1677.29
225.88	1683.43
226.10	1830.88
226.32	1699.81
226.53	1804.26
226.75	1646.57
226.97	1718.25
227.19	1685.48
227.41	1753.06
227.63	1697.77
227.85	1628.14
228.06	1728.49
228.28	1689.57
228.50	1773.54
228.72	1665.00
228.94	1728.49
229.16	1599.46
229.37	1714.15
229.59	1642.47
229.81	1794.02
230.03	1710.05
230.25	1642.47
230.47	1685.48
230.69	1669.09
230.90	1738.73
231.12	1714.15
231.34	1683.43
231.56	1769.44
231.78	1658.85
232.00	1703.91
232.21	1685.48
232.43	1658.85
232.65	1570.79
232.87	1767.40
233.09	1640.42
233.30	1636.33
233.52	1783.78
233.74	1703.91
233.96	1687.53
234.18	1748.97
234.40	1708.01
234.61	1773.54
234.83	1726.44
235.05	1626.09
235.27	1781.73
235.49	1726.44
235.70	1656.81
235.92	1728.49
236.14	1763.30
236.36	1841.12
236.58	1628.14
236.79	1726.44
237.01	1667.05
237.23	1685.48
237.45	1773.54
237.67	1654.76
237.88	1677.29
238.10	1765.35
238.32	1705.96
238.54	1720.29
238.76	1677.29
238.97	1660.90
239.19	1703.91
239.41	1765.35
239.63	1787.88
239.85	1734.63
240.06	1728.49
240.28	1757.16
240.50	1726.44
240.72	1728.49
240.93	1720.29
241.15	1796.07
241.37	1714.15
241.59	1761.25
241.81	1796.07
242.02	1693.67
242.24	1675.24
242.46	1675.24
242.68	1667.05
242.89	1685.48
243.11	1699.81
243.33	1755.11
243.55	1767.40
243.76	1751.01
243.98	1640.42
244.20	1748.97
244.42	1761.25
244.64	1726.44
244.85	1650.66
245.07	1671.14
245.29	1810.40
245.51	1650.66
245.72	1738.73
245.94	1757.16
246.16	1695.72
246.38	1767.40
246.59	1669.09
246.81	1742.82
247.03	1767.40
247.24	1673.19
247.46	1644.52
247.68	1679.33
247.90	1742.82
248.11	1656.81
248.33	1726.44
248.55	1675.24
248.77	1716.20
248.98	1740.77
249.20	1761.25
249.42	1730.53
249.64	1710.05
249.85	1703.91
250.07	1656.81
250.29	1685.48
250.50	1730.53
250.72	1687.53
250.94	1724.39
251.16	1845.22
251.37	1755.11
251.59	1693.67
251.81	1751.01
252.02	1759.21
252.24	1677.29
252.46	1767.40
252.68	1595.37
252.89	1691.62
253.11	1650.66
253.33	1806.31
253.54	1748.97
253.76	1697.77
253.98	1689.57
254.20	1673.19
254.41	1722.34
254.63	1693.67
254.85	1671.14
255.06	1734.63
255.28	1720.29
255.50	1642.47
255.71	1648.61
255.93	1691.62
256.15	1611.75
256.36	1724.39
256.58	1701.86
256.80	1734.63
257.02	1630.18
257.23	1628.14
257.45	1732.58
257.67	1724.39
257.88	1628.14
258.10	1732.58
258.32	1675.24
258.53	1667.05
258.75	1798.12
258.97	1726.44
259.18	1644.52
259.40	1730.53
259.62	1828.84
259.83	1773.54
260.05	1734.63
260.27	2029.54
260.48	1769.44
260.70	1609.70
260.92	1658.85
261.13	1734.63
261.35	1630.18
261.57	1738.73
261.78	1628.14
262.00	1697.77
262.22	1781.73
262.43	1654.76
262.65	1671.14
262.86	1769.44
263.08	1861.60
263.30	1705.96
263.51	1617.90
263.73	1742.82
263.95	1763.30
264.16	1683.43
264.38	1710.05
264.60	1736.68
264.81	1650.66
265.03	1738.73
265.25	1746.92
265.46	1648.61
265.68	1730.53
265.89	1722.34
266.11	1679.33
266.33	1744.87
266.54	1781.73
266.76	1748.97
266.98	1714.15
267.19	1753.06
267.41	1763.30
267.62	1714.15
267.84	1632.23
268.06	1712.10
268.27	1726.44
268.49	1826.79
268.70	1791.97
268.92	1710.05
269.14	1665.00
269.35	1603.56
269.57	1662.95
269.79	1658.85
270.00	1681.38
270.22	1751.01
270.43	1703.91
270.65	1605.61
270.87	1728.49
271.08	1720.29
271.30	1736.68
271.51	1730.53
271.73	1701.86
271.95	1814.50
272.16	1763.30
272.38	1767.40
272.59	1742.82
272.81	1812.45
273.02	1732.58
273.24	1710.05
273.46	1787.88
273.67	1673.19
273.89	1697.77
274.10	1703.91
274.32	1761.25
274.54	1740.77
274.75	1748.97
274.97	1699.81
275.18	1697.77
275.40	1771.49
275.61	1605.61
275.83	1726.44
276.05	1646.57
276.26	1642.47
276.48	1746.92
276.69	1632.23
276.91	1681.38
277.12	1781.73
277.34	1757.16
277.55	1718.25
277.77	1755.11
277.99	1689.57
278.20	1650.66
278.42	1636.33
278.63	1730.53
278.85	1718.25
279.06	1628.14
279.28	1703.91
279.49	1746.92
279.71	1726.44
279.93	1767.40
280.14	1720.29
280.36	1718.25
280.57	1726.44
280.79	1791.97
281.00	1640.42
281.22	1681.38
281.43	1757.16
281.65	1533.93
281.86	1685.48
282.08	1677.29
282.29	1806.31
282.51	1621.99
282.73	1611.75
282.94	1628.14
283.16	1794.02
283.37	1800.16
283.59	1703.91
283.80	1675.24
284.02	1712.10
284.23	1701.86
284.45	1669.09
284.66	1722.34
284.88	1685.48
285.09	1724.39
285.31	1779.68
285.52	1691.62
285.74	1619.94
285.95	1777.64
286.17	1720.29
286.38	1746.92
286.60	1738.73
286.81	1708.01
287.03	1671.14
287.24	1730.53
287.46	1746.92
287.67	1763.30
287.89	1837.03
288.10	1718.25
288.32	1665.00
288.53	1804.26
288.75	1755.11
288.96	1703.91
289.18	1738.73
289.39	1708.01
289.61	1736.68
289.82	1857.51
290.04	1839.08
290.25	1658.85
290.47	1695.72
290.68	1650.66
290.90	1728.49
291.11	1613.80
291.33	1769.44
291.54	1648.61
291.76	1658.85
291.97	1740.77
292.18	1665.00
292.40	1644.52
292.61	1665.00
292.83	1871.84
293.04	1748.97
293.26	1753.06
293.47	1699.81
293.69	1693.67
293.90	1724.39
294.12	1775.59
294.33	1685.48
294.55	1738.73
294.76	1798.12
294.97	1761.25
295.19	1777.64
295.40	1644.52
295.62	1710.05
295.83	1755.11
296.05	1626.09
296.26	1710.05
296.48	1599.46
296.69	1720.29
296.90	1650.66
297.12	1687.53
297.33	1771.49
297.55	1638.38
297.76	1783.78
297.98	1785.83
298.19	1648.61
298.41	1611.75
298.62	1701.86
298.83	1820.64
299.05	1708.01
299.26	1697.77
299.48	1667.05
299.69	1742.82
299.90	1740.77
300.12	1691.62
300.33	1804.26
300.55	1679.33
300.76	1714.15
300.98	1665.00
301.19	1720.29
301.40	1710.05
301.62	1656.81
301.83	1759.21
302.05	1699.81
302.26	1679.33
302.47	1699.81
302.69	1720.29
302.90	1658.85
303.12	1599.46
303.33	1755.11
303.54	1775.59
303.76	1693.67
303.97	1703.91
304.19	1755.11
304.40	1638.38
304.61	1775.59
304.83	1814.50
305.04	1748.97
305.26	1773.54
305.47	1568.74
305.68	1714.15
305.90	1624.04
306.11	1751.01
306.33	1685.48
306.54	1634.28
306.75	1642.47
306.97	1591.27
307.18	1593.32
307.39	1679.33
307.61	1824.74
307.82	1748.97
308.04	1763.30
308.25	1687.53
308.46	1763.30
308.68	1603.56
308.89	1705.96
309.10	1775.59
309.32	1669.09
309.53	1677.29
309.74	1759.21
309.96	1634.28
310.17	1767.40
310.39	1681.38
310.60	1695.72
310.81	1611.75
311.03	1589.22
311.24	1744.87
311.45	1761.25
311.67	1880.04
311.88	1677.29
312.09	1615.85
312.31	1689.57
312.52	1685.48
312.73	1658.85
312.95	1705.96
313.16	1634.28
313.37	1798.12
313.59	1812.45
313.80	1744.87
314.01	1863.65
314.23	1675.24
314.44	1695.72
314.65	1697.77
314.87	1681.38
315.08	1658.85
315.29	1724.39
315.51	1597.42
315.72	1607.66
315.93	1751.01
316.15	1673.19
316.36	1662.95
316.57	1687.53
316.79	1761.25
317.00	1681.38
317.21	1728.49
317.43	1681.38
317.64	1787.88
317.85	1693.67
318.07	1742.82
318.28	1841.12
318.49	1859.56
318.70	1953.76
318.92	1945.57
319.13	1927.14
319.34	1847.27
319.56	1875.94
319.77	1857.51
319.98	1812.45
320.20	1880.04
320.41	1769.44
320.62	1767.40
320.83	1685.48
321.05	1906.66
321.26	1718.25
321.47	1675.24
321.69	1746.92
321.90	1644.52
322.11	1648.61
322.32	1656.81
322.54	1808.36
322.75	1675.24
322.96	1859.56
323.18	1607.66
323.39	1613.80
323.60	1679.33
323.81	1708.01
324.03	1687.53
324.24	1681.38
324.45	1742.82
324.66	1650.66
324.88	1695.72
325.09	1834.98
325.30	1785.83
325.52	1732.58
325.73	1722.34
325.94	1673.19
326.15	1712.10
326.37	1705.96
326.58	1720.29
326.79	1769.44
327.00	1624.04
327.22	1738.73
327.43	1726.44
327.64	1734.63
327.85	1834.98
328.07	1837.03
328.28	1890.28
328.49	1757.16
328.70	1701.86
328.92	1703.91
329.13	1656.81
329.34	1763.30
329.55	1808.36
329.76	1746.92
329.98	1683.43
330.19	1814.50
330.40	1742.82
330.61	1667.05
330.83	1722.34
331.04	1658.85
331.25	1710.05
331.46	1634.28
331.68	1697.77
331.89	1796.07
332.10	1740.77
332.31	1687.53
332.52	1712.10
332.74	1830.88
332.95	1638.38
333.16	1665.00
333.37	1779.68
333.58	1681.38
333.80	1753.06
334.01	1685.48
334.22	1685.48
334.43	1685.48
334.64	1624.04
334.86	1636.33
335.07	1703.91
335.28	1753.06
335.49	1693.67
335.70	1757.16
335.92	1753.06
336.13	1787.88
336.34	1671.14
336.55	1720.29
336.76	1697.77
336.98	1628.14
337.19	1765.35
337.40	1738.73
337.61	1896.42
337.82	1630.18
338.04	1798.12
338.25	1652.71
338.46	1712.10
338.67	1763.30
338.88	1679.33
339.09	1697.77
339.31	1720.29
339.52	1675.24
339.73	1646.57
339.94	1593.32
340.15	1720.29
340.36	1646.57
340.58	1712.10
340.79	1689.57
341.00	1679.33
341.21	1583.08
341.42	1755.11
341.63	1710.05
341.85	1775.59
342.06	1669.09
342.27	1660.90
342.48	1718.25
342.69	1624.04
342.90	1732.58
343.12	1720.29
343.33	1624.04
343.54	1738.73
343.75	1755.11
343.96	1775.59
344.17	1753.06
344.38	1742.82
344.60	1626.09
344.81	1628.14
345.02	1738.73
345.23	1769.44
345.44	1796.07
345.65	1765.35
345.86	1710.05
346.07	1734.63
346.29	1673.19
346.50	1755.11
346.71	1816.55
346.92	1791.97
347.13	1800.16
347.34	1640.42
347.55	1705.96
347.76	1697.77
347.98	1656.81
348.19	1660.90
348.40	1763.30
348.61	1683.43
348.82	1781.73
349.03	1796.07
349.24	1685.48
349.45	1841.12
349.66	1605.61
349.88	1712.10
350.09	1730.53
350.30	1796.07
350.51	1763.30
350.72	1710.05
350.93	1662.95
351.14	1619.94
351.35	1761.25
351.56	1736.68
351.77	1689.57
351.99	1701.86
352.20	1785.83
352.41	1804.26
352.62	1671.14
352.83	1679.33
353.04	1714.15
353.25	1710.05
353.46	1755.11
353.67	1812.45
353.88	1609.70
354.09	1693.67
354.30	1761.25
354.52	1718.25
354.73	1714.15
354.94	1621.99
355.15	1736.68
355.36	1746.92
355.57	1630.18
355.78	1675.24
355.99	1611.75
356.20	1673.19
356.41	1748.97
356.62	1718.25
356.83	1789.92
357.04	1738.73
357.25	1619.94
357.46	1640.42
357.68	1599.46
357.89	1642.47
358.10	1742.82
358.31	1724.39
358.52	1705.96
358.73	1636.33
358.94	1714.15
359.15	1701.86
359.36	1689.57
359.57	1665.00
359.78	1748.97
359.99	1724.39
360.20	1708.01
360.41	1769.44
360.62	1791.97
360.83	1697.77
361.04	1669.09
361.25	1693.67
361.46	1810.40
361.67	1679.33
361.88	1730.53
362.09	1748.97
362.30	1683.43
362.51	1658.85
362.72	1761.25
362.93	1785.83
363.14	1746.92
363.35	1722.34
363.56	1720.29
363.78	1816.55
363.99	1787.88
364.20	1728.49
364.41	1761.25
364.62	1814.50
364.83	1705.96
365.04	1734.63
365.25	1712.10
365.46	1787.88
365.67	1654.76
365.88	1742.82
366.09	1697.77
366.30	1654.76
366.51	1673.19
366.72	1693.67
366.93	1755.11
367.14	1742.82
367.35	1746.92
367.56	1751.01
367.77	1847.27
367.98	1695.72
368.18	1703.91
368.39	1785.83
368.60	1615.85
368.81	1775.59
369.02	1683.43
369.23	1697.77
369.44	1607.66
369.65	1722.34
369.86	1701.86
370.07	1734.63
370.28	1681.38
370.49	1703.91
370.70	1740.77
370.91	1656.81
371.12	1673.19
371.33	1765.35
371.54	1773.54
371.75	1740.77
371.96	1533.93
372.17	1701.86
372.38	1697.77
372.59	1783.78
372.80	1716.20
373.01	1669.09
373.22	1734.63
373.43	1728.49
373.64	1656.81
373.85	1798.12
374.06	1765.35
374.26	1744.87
374.47	1665.00
374.68	1837.03
374.89	1681.38
375.10	1748.97
375.31	1808.36
375.52	1769.44
375.73	1710.05
375.94	1697.77
376.15	1798.12
376.36	1697.77
376.57	1621.99
376.78	1779.68
376.99	1732.58
377.20	1767.40
377.40	1685.48
377.61	1863.65
377.82	1642.47
378.03	1804.26
378.24	1771.49
378.45	1738.73
378.66	1767.40
378.87	1540.07
379.08	1697.77
379.29	1710.05
379.50	1826.79
379.71	1617.90
379.91	1740.77
380.12	1714.15
380.33	1716.20
380.54	1783.78
380.75	1697.77
380.96	1638.38
381.17	1810.40
381.38	1681.38
381.59	1771.49
381.80	1755.11
382.00	1853.41
382.21	1812.45
382.42	1837.03
382.63	1886.18
382.84	1798.12
383.05	1779.68
383.26	1877.99
383.47	1791.97
383.68	1845.22
383.88	1746.92
384.09	1726.44
384.30	1785.83
384.51	1740.77
384.72	1767.40
384.93	1634.28
385.14	1781.73
385.35	1753.06
385.55	1669.09
385.76	1679.33
385.97	1716.20
386.18	1613.80
386.39	1705.96
386.60	1744.87
386.81	1757.16
387.02	1681.38
387.22	1689.57
387.43	1794.02
387.64	1841.12
387.85	1910.75
388.06	2314.20
388.27	4687.80
388.48	9084.79
388.68	11691.85
388.89	13283.13
389.10	14083.88
389.31	11845.45
389.52	9828.20
389.73	8562.56
389.93	7903.11
390.14	7206.80
390.35	6545.31
390.56	5965.73
390.77	5035.96
390.98	3899.33
391.18	3028.95
391.39	2461.66
391.60	1912.80
391.81	1869.80
392.02	1714.15
392.23	1968.10
392.43	1755.11
392.64	1773.54
392.85	1722.34
393.06	1849.32
393.27	1689.57
393.47	1685.48
393.68	1718.25
393.89	1703.91
394.10	1789.92
394.31	1720.29
394.52	1740.77
394.72	1689.57
394.93	1787.88
395.14	1656.81
395.35	1755.11
395.56	1738.73
395.76	1732.58
395.97	1851.36
396.18	1875.94
396.39	1892.32
396.60	2146.27
396.80	1968.10
397.01	1865.70
397.22	1849.32
397.43	1847.27
397.64	1746.92
397.84	1798.12
398.05	1867.75
398.26	1701.86
398.47	1796.07
398.67	1771.49
398.88	1751.01
399.09	1843.17
399.30	1591.27
399.51	1724.39
399.71	1658.85
399.92	1714.15
400.13	1757.16
400.34	1765.35
400.54	1687.53
400.75	1796.07
400.96	1665.00
401.17	1808.36
401.37	1714.15
401.58	1718.25
401.79	1787.88
402.00	1837.03
402.21	2099.17
402.41	2029.54
402.62	2156.51
402.83	2215.90
403.04	2117.60
403.24	2125.79
403.45	1814.50
403.66	1894.37
403.87	1880.04
404.07	1943.52
404.28	2015.20
404.49	1951.71
404.70	1773.54
404.90	1779.68
405.11	1824.74
405.32	1724.39
405.52	1677.29
405.73	1587.18
405.94	1640.42
406.15	1708.01
406.35	1689.57
406.56	1820.64
406.77	1695.72
406.98	1806.31
407.18	1679.33
407.39	1791.97
407.60	1705.96
407.80	1757.16
408.01	1712.10
408.22	1765.35
408.43	1613.80
408.63	1746.92
408.84	1744.87
409.05	1738.73
409.25	1626.09
409.46	1626.09
409.67	1646.57
409.88	1654.76
410.08	1705.96
410.29	1683.43
410.50	1746.92
410.70	1755.11
410.91	1619.94
411.12	1675.24
411.32	1722.34
411.53	1685.48
411.74	1863.65
411.95	1816.55
412.15	1802.21
412.36	1824.74
412.57	1796.07
412.77	1857.51
412.98	1693.67
413.19	1712.10
413.39	1785.83
413.60	1746.92
413.81	1804.26
414.01	1748.97
414.22	1746.92
414.43	1851.36
414.63	1800.16
414.84	1746.92
415.05	1775.59
415.25	1609.70
415.46	1755.11
415.67	1759.21
415.87	1730.53
416.08	1767.40
416.29	1636.33
416.49	1722.34
416.70	1708.01
416.91	1724.39
417.11	1646.57
417.32	1753.06
417.53	1820.64
417.73	1759.21
417.94	1667.05
418.15	1769.44
418.35	1726.44
418.56	1734.63
418.77	1918.95
418.97	1619.94
419.18	1761.25
419.38	1617.90
419.59	1757.16
419.80	1751.01
420.00	1701.86
420.21	1785.83
420.42	1771.49
420.62	1773.54
420.83	1699.81
421.04	1722.34
421.24	1726.44
421.45	1771.49
421.65	1685.48
421.86	1697.77
422.07	1771.49
422.27	1708.01
422.48	1662.95
422.69	1648.61
422.89	1671.14
423.10	1687.53
423.30	1714.15
423.51	1681.38
423.72	1681.38
423.92	1730.53
424.13	1636.33
424.33	1759.21
424.54	1681.38
424.75	1652.71
424.95	1810.40
425.16	1732.58
425.36	1656.81
425.57	1857.51
425.78	1708.01
425.98	1779.68
426.19	1611.75
426.39	1708.01
426.60	1703.91
426.81	1732.58
427.01	1708.01
427.22	1615.85
427.42	1714.15
427.63	1681.38
427.83	1689.57
428.04	1820.64
428.25	1855.46
428.45	1812.45
428.66	1730.53
428.86	1665.00
429.07	1691.62
429.28	1683.43
429.48	1662.95
429.69	1632.23
429.89	1742.82
430.10	1634.28
430.30	1785.83
430.51	1769.44
430.71	1597.42
430.92	1595.37
431.13	1693.67
431.33	1767.40
431.54	1736.68
431.74	1855.46
431.95	1791.97
432.15	1722.34
432.36	1775.59
432.56	1781.73
432.77	1847.27
432.98	1839.08
433.18	1787.88
433.39	1701.86
433.59	1689.57
433.80	1822.69
434.00	1828.84
434.21	1722.34
434.41	1703.91
434.62	1861.60
434.82	1658.85
435.03	1646.57
435.23	1751.01
435.44	1603.56
435.64	1730.53
435.85	1742.82
436.06	1806.31
436.26	1736.68
436.47	1656.81
436.67	1687.53
436.88	1759.21
437.08	1820.64
437.29	1800.16
437.49	1734.63
437.70	1748.97
437.90	1742.82
438.11	1914.85
438.31	1757.16
438.52	1943.52
438.72	1902.56
438.93	1984.48
439.13	1847.27
439.34	1859.56
439.54	1755.11
439.75	1845.22
439.95	1771.49
440.16	1761.25
440.36	1847.27
440.57	1796.07
440.77	1738.73
440.98	1740.77
441.18	1708.01
441.39	1726.44
441.59	1636.33
441.80	1857.51
442.00	1742.82
442.21	1847.27
442.41	1689.57
442.62	1691.62
442.82	1730.53
443.02	1728.49
443.23	1785.83
443.43	1714.15
443.64	1828.84
443.84	1693.67
444.05	1845.22
444.25	1751.01
444.46	1697.77
444.66	1738.73
444.87	1810.40
445.07	1697.77
445.28	1726.44
445.48	1796.07
445.69	1716.20
445.89	1898.47
446.09	1806.31
446.30	1988.58
446.50	2652.12
446.71	4044.74
446.91	5042.10
447.12	5851.05
447.32	6088.61
447.53	5429.17
447.73	4464.57
447.93	3885.00
448.14	3590.09
448.34	3450.83
448.55	3151.82
448.75	3074.00
448.96	2990.03
449.16	2670.55
449.36	2426.84
449.57	2121.70
449.77	2002.91
449.98	1787.88
450.18	1812.45
450.39	1812.45
450.59	1669.09
450.79	1675.24
451.00	1736.68
451.20	1726.44
451.41	1822.69
451.61	1781.73
451.81	1757.16
452.02	1689.57
452.22	1726.44
452.43	1746.92
452.63	1681.38
