SpectraSuite Data File
++++++++++++++++++++++++++++++++++++
Date: Wed May 04 18:44:20 CEST 2016
User: root
Dark Spectrum Present: No
Reference Spectrum Present: No
Number of Sampled Component Spectra: 1
Spectrometers: USB4C02835
Integration Time (usec): 100000 (USB4C02835)
Spectra Averaged: 1 (USB4C02835)
Boxcar Smoothing: 0 (USB4C02835)
Correct for Electrical Dark: No (USB4C02835)
Strobe/Lamp Enabled: No (USB4C02835)
Correct for Detector Non-linearity: No (USB4C02835)
Correct for Stray Light: No (USB4C02835)
Number of Pixels in Processed Spectrum: 3648
>>>>>Begin Processed Spectral Data<<<<<
177.47	1449.96
177.69	1449.96
177.91	1449.96
178.13	1538.02
178.36	1527.78
178.58	1593.32
178.80	1656.81
179.02	1619.94
179.24	1593.32
179.46	1742.82
179.68	1671.14
179.90	1662.95
180.13	1740.77
180.35	1638.38
180.57	1673.19
180.79	1691.62
181.01	1732.58
181.23	1755.11
181.45	1667.05
181.67	1720.29
181.90	1687.53
182.12	1691.62
182.34	1652.71
182.56	1714.15
182.78	1683.43
183.00	1730.53
183.22	1697.77
183.44	1607.66
183.66	1841.12
183.89	1759.21
184.11	1734.63
184.33	1751.01
184.55	1855.46
184.77	1732.58
184.99	1738.73
185.21	1691.62
185.43	1869.80
185.65	1701.86
185.87	1746.92
186.10	1789.92
186.32	1927.14
186.54	1718.25
186.76	1744.87
186.98	1839.08
187.20	1708.01
187.42	1650.66
187.64	1718.25
187.86	1728.49
188.08	1724.39
188.30	1693.67
188.52	1644.52
188.75	1810.40
188.97	1810.40
189.19	1660.90
189.41	1691.62
189.63	1753.06
189.85	1695.72
190.07	1621.99
190.29	1624.04
190.51	1705.96
190.73	1644.52
190.95	1857.51
191.17	1738.73
191.39	1638.38
191.61	1677.29
191.84	1654.76
192.06	1701.86
192.28	1658.85
192.50	1851.36
192.72	1757.16
192.94	1763.30
193.16	1726.44
193.38	1685.48
193.60	1675.24
193.82	1656.81
194.04	1775.59
194.26	1742.82
194.48	1712.10
194.70	1714.15
194.92	1656.81
195.14	1705.96
195.36	1697.77
195.58	1730.53
195.80	1738.73
196.02	1677.29
196.24	1658.85
196.46	1648.61
196.69	1710.05
196.91	1857.51
197.13	1705.96
197.35	1712.10
197.57	1853.41
197.79	1730.53
198.01	1677.29
198.23	1751.01
198.45	1716.20
198.67	1601.51
198.89	1722.34
199.11	1746.92
199.33	1650.66
199.55	1609.70
199.77	1697.77
199.99	1771.49
200.21	1763.30
200.43	1748.97
200.65	1687.53
200.87	1558.50
201.09	1791.97
201.31	1732.58
201.53	1769.44
201.75	1759.21
201.97	1767.40
202.19	1738.73
202.41	1775.59
202.63	1714.15
202.85	1746.92
203.07	1701.86
203.29	1703.91
203.51	1611.75
203.73	1699.81
203.95	1845.22
204.17	1732.58
204.39	1746.92
204.61	1660.90
204.83	1744.87
205.05	1724.39
205.27	1818.60
205.49	1800.16
205.71	1748.97
205.93	1662.95
206.15	1644.52
206.37	1662.95
206.59	1734.63
206.81	1677.29
207.03	1691.62
207.25	1705.96
207.47	1744.87
207.69	1726.44
207.91	1882.08
208.13	1771.49
208.34	1609.70
208.56	1677.29
208.78	1746.92
209.00	1667.05
209.22	1714.15
209.44	1714.15
209.66	1683.43
209.88	1728.49
210.10	1703.91
210.32	1644.52
210.54	1806.31
210.76	1738.73
210.98	1748.97
211.20	1591.27
211.42	1757.16
211.64	1773.54
211.86	1726.44
212.08	1751.01
212.30	1740.77
212.52	1689.57
212.74	1658.85
212.96	1724.39
213.17	1742.82
213.39	1757.16
213.61	1849.32
213.83	1742.82
214.05	1705.96
214.27	1767.40
214.49	1683.43
214.71	1609.70
214.93	1787.88
215.15	1708.01
215.37	1675.24
215.59	1685.48
215.81	1787.88
216.03	1736.68
216.24	1705.96
216.46	1689.57
216.68	1734.63
216.90	1751.01
217.12	1761.25
217.34	1777.64
217.56	1710.05
217.78	1738.73
218.00	1691.62
218.22	1763.30
218.44	1808.36
218.66	1683.43
218.87	1855.46
219.09	1638.38
219.31	1746.92
219.53	1675.24
219.75	1691.62
219.97	1574.89
220.19	1765.35
220.41	1697.77
220.63	1718.25
220.85	1791.97
221.06	1712.10
221.28	1738.73
221.50	1732.58
221.72	1691.62
221.94	1665.00
222.16	1683.43
222.38	1718.25
222.60	1777.64
222.82	1605.61
223.03	1826.79
223.25	1701.86
223.47	1697.77
223.69	1896.42
223.91	1665.00
224.13	1673.19
224.35	1697.77
224.57	1812.45
224.78	1759.21
225.00	1583.08
225.22	1751.01
225.44	1681.38
225.66	1785.83
225.88	1652.71
226.10	1685.48
226.32	1671.14
226.53	1814.50
226.75	1650.66
226.97	1671.14
227.19	1748.97
227.41	1662.95
227.63	1656.81
227.85	1599.46
228.06	1611.75
228.28	1722.34
228.50	1769.44
228.72	1683.43
228.94	1619.94
229.16	1624.04
229.37	1701.86
229.59	1630.18
229.81	1832.93
230.03	1673.19
230.25	1677.29
230.47	1714.15
230.69	1609.70
230.90	1759.21
231.12	1658.85
231.34	1710.05
231.56	1767.40
231.78	1675.24
232.00	1759.21
232.21	1710.05
232.43	1683.43
232.65	1591.27
232.87	1761.25
233.09	1757.16
233.30	1595.37
233.52	1773.54
233.74	1734.63
233.96	1716.20
234.18	1798.12
234.40	1697.77
234.61	1826.79
234.83	1677.29
235.05	1675.24
235.27	1871.84
235.49	1763.30
235.70	1703.91
235.92	1816.55
236.14	1755.11
236.36	1910.75
236.58	1648.61
236.79	1730.53
237.01	1775.59
237.23	1714.15
237.45	1845.22
237.67	1669.09
237.88	1701.86
238.10	1742.82
238.32	1656.81
238.54	1638.38
238.76	1640.42
238.97	1681.38
239.19	1679.33
239.41	1742.82
239.63	1779.68
239.85	1699.81
240.06	1703.91
240.28	1685.48
240.50	1718.25
240.72	1658.85
240.93	1665.00
241.15	1763.30
241.37	1683.43
241.59	1751.01
241.81	1716.20
242.02	1771.49
242.24	1802.21
242.46	1751.01
242.68	1699.81
242.89	1746.92
243.11	1791.97
243.33	1677.29
243.55	1759.21
243.76	1734.63
243.98	1677.29
244.20	1722.34
244.42	1730.53
244.64	1734.63
244.85	1640.42
245.07	1652.71
245.29	1572.84
245.51	1632.23
245.72	1714.15
245.94	1744.87
246.16	1767.40
246.38	1720.29
246.59	1671.14
246.81	1734.63
247.03	1583.08
247.24	1585.13
247.46	1791.97
247.68	1681.38
247.90	1679.33
248.11	1730.53
248.33	1732.58
248.55	1730.53
248.77	1720.29
248.98	1693.67
249.20	1728.49
249.42	1705.96
249.64	1738.73
249.85	1691.62
250.07	1673.19
250.29	1783.78
250.50	1812.45
250.72	1632.23
250.94	1718.25
251.16	1818.60
251.37	1771.49
251.59	1716.20
251.81	1732.58
252.02	1880.04
252.24	1669.09
252.46	1775.59
252.68	1701.86
252.89	1628.14
253.11	1533.93
253.33	1718.25
253.54	1822.69
253.76	1699.81
253.98	1716.20
254.20	1689.57
254.41	1619.94
254.63	1665.00
254.85	1679.33
255.06	1660.90
255.28	1689.57
255.50	1607.66
255.71	1708.01
255.93	1658.85
256.15	1712.10
256.36	1789.92
256.58	1636.33
256.80	1863.65
257.02	1730.53
257.23	1716.20
257.45	1705.96
257.67	1693.67
257.88	1710.05
258.10	1701.86
258.32	1712.10
258.53	1738.73
258.75	1740.77
258.97	1656.81
259.18	1748.97
259.40	1710.05
259.62	1880.04
259.83	1755.11
260.05	1781.73
260.27	1984.48
260.48	1808.36
260.70	1693.67
260.92	1720.29
261.13	1669.09
261.35	1818.60
261.57	1687.53
261.78	1644.52
262.00	1673.19
262.22	1730.53
262.43	1675.24
262.65	1615.85
262.86	1660.90
263.08	1871.84
263.30	1769.44
263.51	1644.52
263.73	1644.52
263.95	1759.21
264.16	1638.38
264.38	1665.00
264.60	1656.81
264.81	1646.57
265.03	1732.58
265.25	1791.97
265.46	1691.62
265.68	1757.16
265.89	1695.72
266.11	1630.18
266.33	1734.63
266.54	1775.59
266.76	1656.81
266.98	1746.92
267.19	1755.11
267.41	1708.01
267.62	1652.71
267.84	1665.00
268.06	1757.16
268.27	1736.68
268.49	1771.49
268.70	1701.86
268.92	1722.34
269.14	1630.18
269.35	1581.03
269.57	1667.05
269.79	1738.73
270.00	1751.01
270.22	1789.92
270.43	1697.77
270.65	1609.70
270.87	1775.59
271.08	1791.97
271.30	1748.97
271.51	1802.21
271.73	1673.19
271.95	1769.44
272.16	1716.20
272.38	1767.40
272.59	1644.52
272.81	1775.59
273.02	1742.82
273.24	1732.58
273.46	1642.47
273.67	1701.86
273.89	1683.43
274.10	1673.19
274.32	1791.97
274.54	1714.15
274.75	1744.87
274.97	1646.57
275.18	1732.58
275.40	1722.34
275.61	1646.57
275.83	1646.57
276.05	1617.90
276.26	1699.81
276.48	1652.71
276.69	1667.05
276.91	1757.16
277.12	1779.68
277.34	1718.25
277.55	1705.96
277.77	1669.09
277.99	1746.92
278.20	1509.35
278.42	1710.05
278.63	1617.90
278.85	1665.00
279.06	1648.61
279.28	1705.96
279.49	1783.78
279.71	1726.44
279.93	1705.96
280.14	1705.96
280.36	1624.04
280.57	1667.05
280.79	1824.74
281.00	1650.66
281.22	1693.67
281.43	1757.16
281.65	1591.27
281.86	1683.43
282.08	1738.73
282.29	1820.64
282.51	1624.04
282.73	1695.72
282.94	1624.04
283.16	1673.19
283.37	1757.16
283.59	1718.25
283.80	1785.83
284.02	1751.01
284.23	1712.10
284.45	1613.80
284.66	1646.57
284.88	1669.09
285.09	1734.63
285.31	1732.58
285.52	1712.10
285.74	1652.71
285.95	1781.73
286.17	1697.77
286.38	1775.59
286.60	1699.81
286.81	1720.29
287.03	1732.58
287.24	1705.96
287.46	1732.58
287.67	1728.49
287.89	1779.68
288.10	1677.29
288.32	1665.00
288.53	1798.12
288.75	1685.48
288.96	1802.21
289.18	1671.14
289.39	1673.19
289.61	1759.21
289.82	1816.55
290.04	1837.03
290.25	1677.29
290.47	1732.58
290.68	1701.86
290.90	1761.25
291.11	1634.28
291.33	1753.06
291.54	1679.33
291.76	1656.81
291.97	1701.86
292.18	1724.39
292.40	1673.19
292.61	1607.66
292.83	1869.80
293.04	1708.01
293.26	1714.15
293.47	1656.81
293.69	1665.00
293.90	1673.19
294.12	1714.15
294.33	1648.61
294.55	1632.23
294.76	1765.35
294.97	1826.79
295.19	1796.07
295.40	1652.71
295.62	1714.15
295.83	1787.88
296.05	1675.24
296.26	1714.15
296.48	1658.85
296.69	1742.82
296.90	1722.34
297.12	1773.54
297.33	1697.77
297.55	1701.86
297.76	1757.16
297.98	1718.25
298.19	1720.29
298.41	1705.96
298.62	1675.24
298.83	1783.78
299.05	1777.64
299.26	1689.57
299.48	1748.97
299.69	1718.25
299.90	1689.57
300.12	1705.96
300.33	1796.07
300.55	1712.10
300.76	1787.88
300.98	1550.31
301.19	1755.11
301.40	1617.90
301.62	1640.42
301.83	1732.58
302.05	1753.06
302.26	1775.59
302.47	1763.30
302.69	1626.09
302.90	1681.38
303.12	1652.71
303.33	1777.64
303.54	1839.08
303.76	1609.70
303.97	1703.91
304.19	1824.74
304.40	1599.46
304.61	1652.71
304.83	1816.55
305.04	1755.11
305.26	1755.11
305.47	1675.24
305.68	1708.01
305.90	1714.15
306.11	1726.44
306.33	1724.39
306.54	1636.33
306.75	1630.18
306.97	1640.42
307.18	1705.96
307.39	1621.99
307.61	1769.44
307.82	1705.96
308.04	1691.62
308.25	1726.44
308.46	1765.35
308.68	1697.77
308.89	1753.06
309.10	1775.59
309.32	1746.92
309.53	1748.97
309.74	1699.81
309.96	1687.53
310.17	1740.77
310.39	1626.09
310.60	1806.31
310.81	1695.72
311.03	1705.96
311.24	1710.05
311.45	1724.39
311.67	1816.55
311.88	1660.90
312.09	1677.29
312.31	1642.47
312.52	1738.73
312.73	1787.88
312.95	1687.53
313.16	1681.38
313.37	1783.78
313.59	1697.77
313.80	1734.63
314.01	1789.92
314.23	1710.05
314.44	1691.62
314.65	1673.19
314.87	1646.57
315.08	1705.96
315.29	1677.29
315.51	1775.59
315.72	1605.61
315.93	1781.73
316.15	1738.73
316.36	1697.77
316.57	1718.25
316.79	1742.82
317.00	1683.43
317.21	1791.97
317.43	1699.81
317.64	1742.82
317.85	1599.46
318.07	1705.96
318.28	1796.07
318.49	1890.28
318.70	1923.04
318.92	1900.52
319.13	1935.33
319.34	1955.81
319.56	1859.56
319.77	1867.75
319.98	1869.80
320.20	1814.50
320.41	1828.84
320.62	1738.73
320.83	1648.61
321.05	1853.41
321.26	1736.68
321.47	1748.97
321.69	1662.95
321.90	1691.62
322.11	1746.92
322.32	1773.54
322.54	1783.78
322.75	1691.62
322.96	1845.22
323.18	1716.20
323.39	1578.98
323.60	1673.19
323.81	1744.87
324.03	1699.81
324.24	1660.90
324.45	1660.90
324.66	1683.43
324.88	1841.12
325.09	1804.26
325.30	1685.48
325.52	1724.39
325.73	1710.05
325.94	1712.10
326.15	1599.46
326.37	1656.81
326.58	1826.79
326.79	1785.83
327.00	1648.61
327.22	1785.83
327.43	1734.63
327.64	1650.66
327.85	1763.30
328.07	1656.81
328.28	1730.53
328.49	1671.14
328.70	1685.48
328.92	1689.57
329.13	1660.90
329.34	1777.64
329.55	1865.70
329.76	1775.59
329.98	1730.53
330.19	1779.68
330.40	1718.25
330.61	1699.81
330.83	1681.38
331.04	1662.95
331.25	1734.63
331.46	1712.10
331.68	1665.00
331.89	1736.68
332.10	1724.39
332.31	1605.61
332.52	1767.40
332.74	1771.49
332.95	1669.09
333.16	1673.19
333.37	1791.97
333.58	1640.42
333.80	1771.49
334.01	1632.23
334.22	1744.87
334.43	1652.71
334.64	1712.10
334.86	1660.90
335.07	1640.42
335.28	1824.74
335.49	1654.76
335.70	1738.73
335.92	1759.21
336.13	1726.44
336.34	1748.97
336.55	1751.01
336.76	1701.86
336.98	1574.89
337.19	1687.53
337.40	1806.31
337.61	1814.50
337.82	1689.57
338.04	1753.06
338.25	1640.42
338.46	1699.81
338.67	1748.97
338.88	1734.63
339.09	1718.25
339.31	1640.42
339.52	1722.34
339.73	1667.05
339.94	1722.34
340.15	1777.64
340.36	1675.24
340.58	1755.11
340.79	1644.52
341.00	1755.11
341.21	1648.61
341.42	1806.31
341.63	1771.49
341.85	1755.11
342.06	1755.11
342.27	1636.33
342.48	1693.67
342.69	1601.51
342.90	1703.91
343.12	1738.73
343.33	1656.81
343.54	1816.55
343.75	1765.35
343.96	1759.21
344.17	1738.73
344.38	1630.18
344.60	1701.86
344.81	1677.29
345.02	1675.24
345.23	1802.21
345.44	1865.70
345.65	1816.55
345.86	1712.10
346.07	1708.01
346.29	1705.96
346.50	1732.58
346.71	1832.93
346.92	1834.98
347.13	1849.32
347.34	1751.01
347.55	1710.05
347.76	1687.53
347.98	1701.86
348.19	1644.52
348.40	1789.92
348.61	1632.23
348.82	1761.25
349.03	1669.09
349.24	1722.34
349.45	1791.97
349.66	1593.32
349.88	1673.19
350.09	1691.62
350.30	1755.11
350.51	1839.08
350.72	1703.91
350.93	1714.15
351.14	1677.29
351.35	1812.45
351.56	1714.15
351.77	1679.33
351.99	1734.63
352.20	1796.07
352.41	1738.73
352.62	1597.42
352.83	1689.57
353.04	1714.15
353.25	1630.18
353.46	1800.16
353.67	1722.34
353.88	1560.55
354.09	1708.01
354.30	1734.63
354.52	1710.05
354.73	1699.81
354.94	1730.53
355.15	1665.00
355.36	1849.32
355.57	1701.86
355.78	1708.01
355.99	1636.33
356.20	1660.90
356.41	1824.74
356.62	1808.36
356.83	1650.66
357.04	1710.05
357.25	1626.09
357.46	1736.68
357.68	1665.00
357.89	1660.90
358.10	1726.44
358.31	1742.82
358.52	1665.00
358.73	1546.22
358.94	1621.99
359.15	1701.86
359.36	1757.16
359.57	1695.72
359.78	1695.72
359.99	1751.01
360.20	1660.90
360.41	1710.05
360.62	1714.15
360.83	1730.53
361.04	1691.62
361.25	1632.23
361.46	1777.64
361.67	1755.11
361.88	1816.55
362.09	1763.30
362.30	1826.79
362.51	1726.44
362.72	1726.44
362.93	1708.01
363.14	1746.92
363.35	1753.06
363.56	1615.85
363.78	1734.63
363.99	1718.25
364.20	1732.58
364.41	1710.05
364.62	1834.98
364.83	1677.29
365.04	1759.21
365.25	1722.34
365.46	1863.65
365.67	1646.57
365.88	1677.29
366.09	1705.96
366.30	1755.11
366.51	1738.73
366.72	1599.46
366.93	1748.97
367.14	1726.44
367.35	1798.12
367.56	1734.63
367.77	1828.84
367.98	1710.05
368.18	1773.54
368.39	1783.78
368.60	1730.53
368.81	1765.35
369.02	1759.21
369.23	1708.01
369.44	1615.85
369.65	1705.96
369.86	1691.62
370.07	1710.05
370.28	1681.38
370.49	1734.63
370.70	1763.30
370.91	1605.61
371.12	1640.42
371.33	1726.44
371.54	1722.34
371.75	1861.60
371.96	1621.99
372.17	1665.00
372.38	1703.91
372.59	1789.92
372.80	1652.71
373.01	1730.53
373.22	1783.78
373.43	1656.81
373.64	1677.29
373.85	1822.69
374.06	1785.83
374.26	1746.92
374.47	1724.39
374.68	1794.02
374.89	1777.64
375.10	1767.40
375.31	1783.78
375.52	1757.16
375.73	1703.91
375.94	1685.48
376.15	1769.44
376.36	1642.47
376.57	1648.61
376.78	1679.33
376.99	1742.82
377.20	1810.40
377.40	1644.52
377.61	1779.68
377.82	1693.67
378.03	1755.11
378.24	1783.78
378.45	1685.48
378.66	1712.10
378.87	1589.22
379.08	1611.75
379.29	1712.10
379.50	1822.69
379.71	1691.62
379.91	1787.88
380.12	1695.72
380.33	1765.35
380.54	1673.19
380.75	1722.34
380.96	1722.34
381.17	1765.35
381.38	1802.21
381.59	1697.77
381.80	1757.16
382.00	1802.21
382.21	1832.93
382.42	1873.89
382.63	1970.15
382.84	1753.06
383.05	1716.20
383.26	1841.12
383.47	1718.25
383.68	1769.44
383.88	1832.93
384.09	1744.87
384.30	1859.56
384.51	1810.40
384.72	1724.39
384.93	1638.38
385.14	1746.92
385.35	1800.16
385.55	1650.66
385.76	1751.01
385.97	1734.63
386.18	1626.09
386.39	1705.96
386.60	1619.94
386.81	1708.01
387.02	1710.05
387.22	1660.90
387.43	1873.89
387.64	1818.60
387.85	1857.51
388.06	2230.24
388.27	4739.00
388.48	9205.62
388.68	11775.82
388.89	13668.14
389.10	14085.93
389.31	12040.01
389.52	9768.81
389.73	8466.30
389.93	8107.91
390.14	7157.65
390.35	6659.99
390.56	6096.80
390.77	4902.84
390.98	4032.45
391.18	3065.81
391.39	2428.89
391.60	1943.52
391.81	1845.22
392.02	1705.96
392.23	1929.19
392.43	1722.34
392.64	1744.87
392.85	1689.57
393.06	1771.49
393.27	1695.72
393.47	1681.38
393.68	1675.24
393.89	1624.04
394.10	1789.92
394.31	1687.53
394.52	1691.62
394.72	1677.29
394.93	1888.23
395.14	1621.99
395.35	1820.64
395.56	1656.81
395.76	1724.39
395.97	1828.84
396.18	1886.18
396.39	1877.99
396.60	2072.54
396.80	1978.34
397.01	1828.84
397.22	1941.47
397.43	1818.60
397.64	1746.92
397.84	1787.88
398.05	1837.03
398.26	1763.30
398.47	1753.06
398.67	1816.55
398.88	1789.92
399.09	1691.62
399.30	1714.15
399.51	1755.11
399.71	1681.38
399.92	1724.39
400.13	1632.23
400.34	1742.82
400.54	1798.12
400.75	1837.03
400.96	1720.29
401.17	1800.16
401.37	1800.16
401.58	1691.62
401.79	1781.73
402.00	1867.75
402.21	2039.78
402.41	2107.36
402.62	2164.70
402.83	2127.84
403.04	2078.69
403.24	2172.89
403.45	1841.12
403.66	2023.39
403.87	1863.65
404.07	1892.32
404.28	2013.15
404.49	1955.81
404.70	1808.36
404.90	1742.82
405.11	1720.29
405.32	1773.54
405.52	1679.33
405.73	1708.01
405.94	1681.38
406.15	1708.01
406.35	1798.12
406.56	1751.01
406.77	1697.77
406.98	1779.68
407.18	1701.86
407.39	1837.03
407.60	1757.16
407.80	1742.82
408.01	1673.19
408.22	1728.49
408.43	1720.29
408.63	1751.01
408.84	1740.77
409.05	1742.82
409.25	1736.68
409.46	1626.09
409.67	1685.48
409.88	1691.62
410.08	1671.14
410.29	1671.14
410.50	1783.78
410.70	1718.25
410.91	1654.76
411.12	1691.62
411.32	1703.91
411.53	1732.58
411.74	1880.04
411.95	1837.03
412.15	1812.45
412.36	1873.89
412.57	1800.16
412.77	1824.74
412.98	1755.11
413.19	1714.15
413.39	1765.35
413.60	1742.82
413.81	1720.29
414.01	1662.95
414.22	1734.63
414.43	1816.55
414.63	1677.29
414.84	1755.11
415.05	1652.71
415.25	1667.05
415.46	1859.56
415.67	1695.72
415.87	1761.25
416.08	1718.25
416.29	1667.05
416.49	1724.39
416.70	1726.44
416.91	1685.48
417.11	1802.21
417.32	1759.21
417.53	1816.55
417.73	1779.68
417.94	1718.25
418.15	1730.53
418.35	1730.53
418.56	1730.53
418.77	1837.03
418.97	1671.14
419.18	1710.05
419.38	1605.61
419.59	1722.34
419.80	1845.22
420.00	1716.20
420.21	1683.43
420.42	1744.87
420.62	1769.44
420.83	1595.37
421.04	1683.43
421.24	1667.05
421.45	1710.05
421.65	1740.77
421.86	1730.53
422.07	1730.53
422.27	1783.78
422.48	1783.78
422.69	1697.77
422.89	1757.16
423.10	1699.81
423.30	1693.67
423.51	1714.15
423.72	1697.77
423.92	1820.64
424.13	1632.23
424.33	1716.20
424.54	1738.73
424.75	1748.97
424.95	1785.83
425.16	1767.40
425.36	1669.09
425.57	1681.38
425.78	1814.50
425.98	1822.69
426.19	1609.70
426.39	1632.23
426.60	1796.07
426.81	1806.31
427.01	1744.87
427.22	1644.52
427.42	1656.81
427.63	1691.62
427.83	1746.92
428.04	1734.63
428.25	1703.91
428.45	1837.03
428.66	1785.83
428.86	1656.81
429.07	1669.09
429.28	1734.63
429.48	1705.96
429.69	1675.24
429.89	1736.68
430.10	1665.00
430.30	1757.16
430.51	1812.45
430.71	1687.53
430.92	1687.53
431.13	1701.86
431.33	1806.31
431.54	1738.73
431.74	1820.64
431.95	1851.36
432.15	1683.43
432.36	1767.40
432.56	1812.45
432.77	1796.07
432.98	1843.17
433.18	1724.39
433.39	1712.10
433.59	1687.53
433.80	1832.93
434.00	1841.12
434.21	1634.28
434.41	1648.61
434.62	1832.93
434.82	1722.34
435.03	1693.67
435.23	1722.34
435.44	1587.18
435.64	1806.31
435.85	1847.27
436.06	1796.07
436.26	1689.57
436.47	1748.97
436.67	1654.76
436.88	1720.29
437.08	1775.59
437.29	1826.79
437.49	1757.16
437.70	1789.92
437.90	1699.81
438.11	1867.75
438.31	1796.07
438.52	1843.17
438.72	1841.12
438.93	2000.87
439.13	1834.98
439.34	1853.41
439.54	1787.88
439.75	1771.49
439.95	1822.69
440.16	1722.34
440.36	1779.68
440.57	1779.68
440.77	1814.50
440.98	1775.59
441.18	1755.11
441.39	1716.20
441.59	1726.44
441.80	1873.89
442.00	1716.20
442.21	1873.89
442.41	1626.09
442.62	1730.53
442.82	1705.96
443.02	1718.25
443.23	1779.68
443.43	1779.68
443.64	1869.80
443.84	1748.97
444.05	1816.55
444.25	1718.25
444.46	1730.53
444.66	1710.05
444.87	1804.26
445.07	1697.77
445.28	1740.77
445.48	1789.92
445.69	1779.68
445.89	1910.75
446.09	1771.49
446.30	1980.39
446.50	2629.59
446.71	4237.25
446.91	5246.90
447.12	5789.61
447.32	6098.85
447.53	5380.01
447.73	4499.39
447.93	3905.48
448.14	3686.34
448.34	3471.31
448.55	3102.67
448.75	3211.22
448.96	3024.85
449.16	2570.20
449.36	2451.42
449.57	2136.03
449.77	1931.23
449.98	1898.47
450.18	1783.78
450.39	1810.40
450.59	1732.58
450.79	1742.82
451.00	1681.38
451.20	1755.11
451.41	1748.97
451.61	1740.77
451.81	1757.16
452.02	1665.00
452.22	1621.99
452.43	1783.78
452.63	1689.57
