SpectraSuite Data File
++++++++++++++++++++++++++++++++++++
Date: Wed May 04 18:44:09 CEST 2016
User: root
Dark Spectrum Present: No
Reference Spectrum Present: No
Number of Sampled Component Spectra: 1
Spectrometers: USB4C02835
Integration Time (usec): 100000 (USB4C02835)
Spectra Averaged: 1 (USB4C02835)
Boxcar Smoothing: 0 (USB4C02835)
Correct for Electrical Dark: No (USB4C02835)
Strobe/Lamp Enabled: No (USB4C02835)
Correct for Detector Non-linearity: No (USB4C02835)
Correct for Stray Light: No (USB4C02835)
Number of Pixels in Processed Spectrum: 3648
>>>>>Begin Processed Spectral Data<<<<<
177.47	1419.24
177.69	1419.24
177.91	1419.24
178.13	1474.54
178.36	1509.35
178.58	1669.09
178.80	1718.25
179.02	1595.37
179.24	1648.61
179.46	1705.96
179.68	1736.68
179.90	1734.63
180.13	1742.82
180.35	1708.01
180.57	1730.53
180.79	1761.25
181.01	1718.25
181.23	1728.49
181.45	1763.30
181.67	1757.16
181.90	1732.58
182.12	1687.53
182.34	1652.71
182.56	1673.19
182.78	1699.81
183.00	1656.81
183.22	1669.09
183.44	1609.70
183.66	1851.36
183.89	1738.73
184.11	1660.90
184.33	1677.29
184.55	1787.88
184.77	1716.20
184.99	1730.53
185.21	1724.39
185.43	1837.03
185.65	1644.52
185.87	1652.71
186.10	1771.49
186.32	1783.78
186.54	1753.06
186.76	1767.40
186.98	1740.77
187.20	1708.01
187.42	1630.18
187.64	1652.71
187.86	1624.04
188.08	1771.49
188.30	1738.73
188.52	1699.81
188.75	1812.45
188.97	1783.78
189.19	1650.66
189.41	1724.39
189.63	1736.68
189.85	1675.24
190.07	1619.94
190.29	1615.85
190.51	1726.44
190.73	1599.46
190.95	1826.79
191.17	1734.63
191.39	1613.80
191.61	1701.86
191.84	1667.05
192.06	1746.92
192.28	1574.89
192.50	1863.65
192.72	1675.24
192.94	1683.43
193.16	1677.29
193.38	1781.73
193.60	1628.14
193.82	1636.33
194.04	1810.40
194.26	1675.24
194.48	1689.57
194.70	1718.25
194.92	1705.96
195.14	1748.97
195.36	1671.14
195.58	1701.86
195.80	1771.49
196.02	1669.09
196.24	1669.09
196.46	1685.48
196.69	1734.63
196.91	1841.12
197.13	1703.91
197.35	1699.81
197.57	1787.88
197.79	1701.86
198.01	1779.68
198.23	1689.57
198.45	1765.35
198.67	1558.50
198.89	1640.42
199.11	1765.35
199.33	1630.18
199.55	1648.61
199.77	1728.49
199.99	1787.88
200.21	1675.24
200.43	1824.74
200.65	1703.91
200.87	1601.51
201.09	1705.96
201.31	1636.33
201.53	1781.73
201.75	1722.34
201.97	1710.05
202.19	1726.44
202.41	1656.81
202.63	1832.93
202.85	1718.25
203.07	1734.63
203.29	1679.33
203.51	1693.67
203.73	1630.18
203.95	1855.46
204.17	1710.05
204.39	1681.38
204.61	1701.86
204.83	1617.90
205.05	1734.63
205.27	1824.74
205.49	1849.32
205.71	1628.14
205.93	1656.81
206.15	1574.89
206.37	1677.29
206.59	1726.44
206.81	1652.71
207.03	1644.52
207.25	1675.24
207.47	1763.30
207.69	1728.49
207.91	1794.02
208.13	1834.98
208.34	1691.62
208.56	1624.04
208.78	1699.81
209.00	1656.81
209.22	1699.81
209.44	1705.96
209.66	1683.43
209.88	1630.18
210.10	1691.62
210.32	1656.81
210.54	1773.54
210.76	1665.00
210.98	1710.05
211.20	1632.23
211.42	1734.63
211.64	1808.36
211.86	1753.06
212.08	1705.96
212.30	1673.19
212.52	1771.49
212.74	1779.68
212.96	1705.96
213.17	1738.73
213.39	1693.67
213.61	1814.50
213.83	1820.64
214.05	1697.77
214.27	1773.54
214.49	1689.57
214.71	1611.75
214.93	1759.21
215.15	1757.16
215.37	1748.97
215.59	1621.99
215.81	1765.35
216.03	1712.10
216.24	1640.42
216.46	1679.33
216.68	1703.91
216.90	1761.25
217.12	1781.73
217.34	1695.72
217.56	1748.97
217.78	1796.07
218.00	1699.81
218.22	1763.30
218.44	1748.97
218.66	1636.33
218.87	1798.12
219.09	1613.80
219.31	1759.21
219.53	1761.25
219.75	1697.77
219.97	1638.38
220.19	1730.53
220.41	1636.33
220.63	1773.54
220.85	1748.97
221.06	1669.09
221.28	1863.65
221.50	1761.25
221.72	1701.86
221.94	1714.15
222.16	1665.00
222.38	1742.82
222.60	1748.97
222.82	1648.61
223.03	1710.05
223.25	1671.14
223.47	1703.91
223.69	1888.23
223.91	1728.49
224.13	1710.05
224.35	1683.43
224.57	1761.25
224.78	1703.91
225.00	1669.09
225.22	1695.72
225.44	1660.90
225.66	1761.25
225.88	1773.54
226.10	1812.45
226.32	1720.29
226.53	1763.30
226.75	1722.34
226.97	1667.05
227.19	1691.62
227.41	1624.04
227.63	1599.46
227.85	1650.66
228.06	1783.78
228.28	1658.85
228.50	1716.20
228.72	1701.86
228.94	1697.77
229.16	1630.18
229.37	1734.63
229.59	1738.73
229.81	1787.88
230.03	1738.73
230.25	1685.48
230.47	1673.19
230.69	1636.33
230.90	1806.31
231.12	1632.23
231.34	1714.15
231.56	1806.31
231.78	1677.29
232.00	1677.29
232.21	1701.86
232.43	1689.57
232.65	1558.50
232.87	1761.25
233.09	1687.53
233.30	1615.85
233.52	1763.30
233.74	1753.06
233.96	1677.29
234.18	1701.86
234.40	1738.73
234.61	1828.84
234.83	1570.79
235.05	1650.66
235.27	1845.22
235.49	1763.30
235.70	1656.81
235.92	1789.92
236.14	1720.29
236.36	1806.31
236.58	1685.48
236.79	1738.73
237.01	1701.86
237.23	1691.62
237.45	1882.08
237.67	1771.49
237.88	1708.01
238.10	1771.49
238.32	1554.41
238.54	1679.33
238.76	1699.81
238.97	1628.14
239.19	1609.70
239.41	1798.12
239.63	1740.77
239.85	1624.04
240.06	1687.53
240.28	1675.24
240.50	1775.59
240.72	1689.57
240.93	1753.06
241.15	1849.32
241.37	1714.15
241.59	1771.49
241.81	1771.49
242.02	1624.04
242.24	1683.43
242.46	1769.44
242.68	1699.81
242.89	1785.83
243.11	1775.59
243.33	1658.85
243.55	1675.24
243.76	1798.12
243.98	1675.24
244.20	1683.43
244.42	1734.63
244.64	1787.88
244.85	1636.33
245.07	1654.76
245.29	1740.77
245.51	1714.15
245.72	1736.68
245.94	1767.40
246.16	1693.67
246.38	1755.11
246.59	1722.34
246.81	1677.29
247.03	1710.05
247.24	1656.81
247.46	1691.62
247.68	1738.73
247.90	1720.29
248.11	1648.61
248.33	1738.73
248.55	1722.34
248.77	1728.49
248.98	1759.21
249.20	1791.97
249.42	1736.68
249.64	1740.77
249.85	1640.42
250.07	1705.96
250.29	1779.68
250.50	1681.38
250.72	1591.27
250.94	1748.97
251.16	1796.07
251.37	1757.16
251.59	1689.57
251.81	1806.31
252.02	1769.44
252.24	1675.24
252.46	1798.12
252.68	1599.46
252.89	1615.85
253.11	1599.46
253.33	1806.31
253.54	1806.31
253.76	1615.85
253.98	1685.48
254.20	1720.29
254.41	1681.38
254.63	1724.39
254.85	1701.86
255.06	1701.86
255.28	1742.82
255.50	1722.34
255.71	1652.71
255.93	1591.27
256.15	1658.85
256.36	1742.82
256.58	1603.56
256.80	1796.07
257.02	1734.63
257.23	1755.11
257.45	1701.86
257.67	1830.88
257.88	1665.00
258.10	1642.47
258.32	1732.58
258.53	1689.57
258.75	1767.40
258.97	1730.53
259.18	1669.09
259.40	1736.68
259.62	1820.64
259.83	1841.12
260.05	1716.20
260.27	1925.09
260.48	1777.64
260.70	1677.29
260.92	1689.57
261.13	1718.25
261.35	1730.53
261.57	1673.19
261.78	1630.18
262.00	1640.42
262.22	1681.38
262.43	1669.09
262.65	1671.14
262.86	1615.85
263.08	1763.30
263.30	1714.15
263.51	1585.13
263.73	1714.15
263.95	1775.59
264.16	1624.04
264.38	1638.38
264.60	1726.44
264.81	1701.86
265.03	1755.11
265.25	1773.54
265.46	1708.01
265.68	1787.88
265.89	1804.26
266.11	1662.95
266.33	1771.49
266.54	1695.72
266.76	1779.68
266.98	1796.07
267.19	1787.88
267.41	1712.10
267.62	1734.63
267.84	1652.71
268.06	1677.29
268.27	1705.96
268.49	1761.25
268.70	1785.83
268.92	1748.97
269.14	1693.67
269.35	1673.19
269.57	1703.91
269.79	1677.29
270.00	1607.66
270.22	1808.36
270.43	1638.38
270.65	1599.46
270.87	1775.59
271.08	1751.01
271.30	1746.92
271.51	1665.00
271.73	1744.87
271.95	1787.88
272.16	1724.39
272.38	1730.53
272.59	1742.82
272.81	1724.39
273.02	1748.97
273.24	1814.50
273.46	1728.49
273.67	1624.04
273.89	1716.20
274.10	1658.85
274.32	1841.12
274.54	1791.97
274.75	1671.14
274.97	1656.81
275.18	1746.92
275.40	1763.30
275.61	1701.86
275.83	1701.86
276.05	1652.71
276.26	1746.92
276.48	1765.35
276.69	1632.23
276.91	1712.10
277.12	1796.07
277.34	1761.25
277.55	1712.10
277.77	1744.87
277.99	1673.19
278.20	1632.23
278.42	1675.24
278.63	1689.57
278.85	1624.04
279.06	1679.33
279.28	1753.06
279.49	1742.82
279.71	1783.78
279.93	1714.15
280.14	1697.77
280.36	1703.91
280.57	1787.88
280.79	1748.97
281.00	1632.23
281.22	1646.57
281.43	1708.01
281.65	1656.81
281.86	1675.24
282.08	1755.11
282.29	1837.03
282.51	1583.08
282.73	1705.96
282.94	1574.89
283.16	1736.68
283.37	1828.84
283.59	1734.63
283.80	1755.11
284.02	1673.19
284.23	1662.95
284.45	1738.73
284.66	1648.61
284.88	1652.71
285.09	1759.21
285.31	1736.68
285.52	1701.86
285.74	1615.85
285.95	1810.40
286.17	1748.97
286.38	1761.25
286.60	1613.80
286.81	1650.66
287.03	1662.95
287.24	1701.86
287.46	1757.16
287.67	1726.44
287.89	1796.07
288.10	1742.82
288.32	1693.67
288.53	1705.96
288.75	1708.01
288.96	1806.31
289.18	1693.67
289.39	1658.85
289.61	1785.83
289.82	1822.69
290.04	1808.36
290.25	1685.48
290.47	1734.63
290.68	1611.75
290.90	1822.69
291.11	1689.57
291.33	1769.44
291.54	1744.87
291.76	1677.29
291.97	1716.20
292.18	1705.96
292.40	1671.14
292.61	1689.57
292.83	1880.04
293.04	1724.39
293.26	1683.43
293.47	1734.63
293.69	1583.08
293.90	1767.40
294.12	1722.34
294.33	1746.92
294.55	1744.87
294.76	1814.50
294.97	1804.26
295.19	1796.07
295.40	1703.91
295.62	1740.77
295.83	1722.34
296.05	1665.00
296.26	1751.01
296.48	1730.53
296.69	1693.67
296.90	1763.30
297.12	1712.10
297.33	1798.12
297.55	1695.72
297.76	1708.01
297.98	1777.64
298.19	1742.82
298.41	1726.44
298.62	1701.86
298.83	1796.07
299.05	1808.36
299.26	1644.52
299.48	1710.05
299.69	1744.87
299.90	1732.58
300.12	1638.38
300.33	1726.44
300.55	1742.82
300.76	1710.05
300.98	1585.13
301.19	1697.77
301.40	1656.81
301.62	1697.77
301.83	1716.20
302.05	1732.58
302.26	1642.47
302.47	1697.77
302.69	1665.00
302.90	1685.48
303.12	1603.56
303.33	1722.34
303.54	1800.16
303.76	1677.29
303.97	1802.21
304.19	1796.07
304.40	1726.44
304.61	1689.57
304.83	1837.03
305.04	1734.63
305.26	1767.40
305.47	1665.00
305.68	1701.86
305.90	1587.18
306.11	1712.10
306.33	1689.57
306.54	1722.34
306.75	1681.38
306.97	1583.08
307.18	1677.29
307.39	1660.90
307.61	1755.11
307.82	1783.78
308.04	1613.80
308.25	1720.29
308.46	1771.49
308.68	1681.38
308.89	1779.68
309.10	1794.02
309.32	1740.77
309.53	1726.44
309.74	1693.67
309.96	1673.19
310.17	1730.53
310.39	1695.72
310.60	1742.82
310.81	1701.86
311.03	1632.23
311.24	1740.77
311.45	1673.19
311.67	1845.22
311.88	1705.96
312.09	1648.61
312.31	1642.47
312.52	1683.43
312.73	1693.67
312.95	1658.85
313.16	1734.63
313.37	1804.26
313.59	1775.59
313.80	1712.10
314.01	1765.35
314.23	1675.24
314.44	1771.49
314.65	1712.10
314.87	1703.91
315.08	1714.15
315.29	1689.57
315.51	1669.09
315.72	1648.61
315.93	1828.84
316.15	1822.69
316.36	1665.00
316.57	1728.49
316.79	1800.16
317.00	1677.29
317.21	1693.67
317.43	1632.23
317.64	1734.63
317.85	1697.77
318.07	1771.49
318.28	1814.50
318.49	1935.33
318.70	1890.28
318.92	1857.51
319.13	1966.05
319.34	1798.12
319.56	1837.03
319.77	1808.36
319.98	1810.40
320.20	1824.74
320.41	1830.88
320.62	1744.87
320.83	1679.33
321.05	1832.93
321.26	1652.71
321.47	1734.63
321.69	1820.64
321.90	1642.47
322.11	1697.77
322.32	1685.48
322.54	1828.84
322.75	1687.53
322.96	1802.21
323.18	1675.24
323.39	1585.13
323.60	1626.09
323.81	1673.19
324.03	1710.05
324.24	1712.10
324.45	1656.81
324.66	1705.96
324.88	1724.39
325.09	1834.98
325.30	1654.76
325.52	1722.34
325.73	1816.55
325.94	1617.90
326.15	1597.42
326.37	1730.53
326.58	1757.16
326.79	1781.73
327.00	1714.15
327.22	1724.39
327.43	1646.57
327.64	1656.81
327.85	1783.78
328.07	1775.59
328.28	1802.21
328.49	1744.87
328.70	1693.67
328.92	1771.49
329.13	1697.77
329.34	1736.68
329.55	1798.12
329.76	1853.41
329.98	1726.44
330.19	1722.34
330.40	1777.64
330.61	1660.90
330.83	1744.87
331.04	1662.95
331.25	1685.48
331.46	1722.34
331.68	1742.82
331.89	1783.78
332.10	1718.25
332.31	1705.96
332.52	1687.53
332.74	1822.69
332.95	1667.05
333.16	1644.52
333.37	1800.16
333.58	1611.75
333.80	1716.20
334.01	1605.61
334.22	1650.66
334.43	1675.24
334.64	1683.43
334.86	1714.15
335.07	1683.43
335.28	1755.11
335.49	1665.00
335.70	1740.77
335.92	1785.83
336.13	1882.08
336.34	1738.73
336.55	1691.62
336.76	1710.05
336.98	1693.67
337.19	1712.10
337.40	1775.59
337.61	1834.98
337.82	1685.48
338.04	1746.92
338.25	1554.41
338.46	1787.88
338.67	1685.48
338.88	1671.14
339.09	1626.09
339.31	1669.09
339.52	1648.61
339.73	1628.14
339.94	1697.77
340.15	1718.25
340.36	1648.61
340.58	1695.72
340.79	1665.00
341.00	1742.82
341.21	1654.76
341.42	1810.40
341.63	1734.63
341.85	1689.57
342.06	1746.92
342.27	1658.85
342.48	1775.59
342.69	1619.94
342.90	1705.96
343.12	1845.22
343.33	1621.99
343.54	1695.72
343.75	1787.88
343.96	1738.73
344.17	1681.38
344.38	1726.44
344.60	1644.52
344.81	1667.05
345.02	1693.67
345.23	1746.92
345.44	1839.08
345.65	1720.29
345.86	1742.82
346.07	1740.77
346.29	1699.81
346.50	1705.96
346.71	1755.11
346.92	1812.45
347.13	1834.98
347.34	1730.53
347.55	1726.44
347.76	1681.38
347.98	1632.23
348.19	1665.00
348.40	1726.44
348.61	1722.34
348.82	1794.02
349.03	1697.77
349.24	1603.56
349.45	1771.49
349.66	1564.65
349.88	1800.16
350.09	1677.29
350.30	1832.93
350.51	1714.15
350.72	1732.58
350.93	1701.86
351.14	1671.14
351.35	1785.83
351.56	1736.68
351.77	1785.83
351.99	1697.77
352.20	1841.12
352.41	1814.50
352.62	1529.83
352.83	1716.20
353.04	1652.71
353.25	1705.96
353.46	1740.77
353.67	1771.49
353.88	1615.85
354.09	1726.44
354.30	1697.77
354.52	1726.44
354.73	1724.39
354.94	1687.53
355.15	1705.96
355.36	1869.80
355.57	1677.29
355.78	1742.82
355.99	1673.19
356.20	1667.05
356.41	1742.82
356.62	1802.21
356.83	1720.29
357.04	1742.82
357.25	1660.90
357.46	1638.38
357.68	1673.19
357.89	1677.29
358.10	1726.44
358.31	1746.92
358.52	1714.15
358.73	1636.33
358.94	1669.09
359.15	1712.10
359.36	1800.16
359.57	1708.01
359.78	1689.57
359.99	1714.15
360.20	1640.42
360.41	1675.24
360.62	1708.01
360.83	1794.02
361.04	1714.15
361.25	1685.48
361.46	1781.73
361.67	1730.53
361.88	1775.59
362.09	1785.83
362.30	1685.48
362.51	1736.68
362.72	1738.73
362.93	1726.44
363.14	1693.67
363.35	1681.38
363.56	1697.77
363.78	1703.91
363.99	1726.44
364.20	1787.88
364.41	1689.57
364.62	1843.17
364.83	1744.87
365.04	1746.92
365.25	1724.39
365.46	1834.98
365.67	1658.85
365.88	1673.19
366.09	1697.77
366.30	1740.77
366.51	1722.34
366.72	1636.33
366.93	1705.96
367.14	1691.62
367.35	1775.59
367.56	1689.57
367.77	1740.77
367.98	1662.95
368.18	1720.29
368.39	1712.10
368.60	1652.71
368.81	1783.78
369.02	1757.16
369.23	1714.15
369.44	1599.46
369.65	1632.23
369.86	1697.77
370.07	1839.08
370.28	1669.09
370.49	1718.25
370.70	1693.67
370.91	1638.38
371.12	1646.57
371.33	1775.59
371.54	1697.77
371.75	1769.44
371.96	1615.85
372.17	1697.77
372.38	1697.77
372.59	1736.68
372.80	1673.19
373.01	1646.57
373.22	1732.58
373.43	1726.44
373.64	1652.71
373.85	1748.97
374.06	1767.40
374.26	1791.97
374.47	1669.09
374.68	1720.29
374.89	1767.40
375.10	1718.25
375.31	1839.08
375.52	1726.44
375.73	1730.53
375.94	1671.14
376.15	1773.54
376.36	1732.58
376.57	1699.81
376.78	1693.67
376.99	1718.25
377.20	1785.83
377.40	1708.01
377.61	1796.07
377.82	1650.66
378.03	1849.32
378.24	1787.88
378.45	1763.30
378.66	1730.53
378.87	1587.18
379.08	1636.33
379.29	1705.96
379.50	1746.92
379.71	1595.37
379.91	1695.72
380.12	1687.53
380.33	1646.57
380.54	1689.57
380.75	1665.00
380.96	1675.24
381.17	1892.32
381.38	1718.25
381.59	1787.88
381.80	1794.02
382.00	1894.37
382.21	1714.15
382.42	1802.21
382.63	1865.70
382.84	1761.25
383.05	1806.31
383.26	1875.94
383.47	1751.01
383.68	1847.27
383.88	1736.68
384.09	1759.21
384.30	1824.74
384.51	1742.82
384.72	1683.43
384.93	1697.77
385.14	1738.73
385.35	1728.49
385.55	1667.05
385.76	1851.36
385.97	1757.16
386.18	1634.28
386.39	1662.95
386.60	1720.29
386.81	1693.67
387.02	1751.01
387.22	1642.47
387.43	1781.73
387.64	1748.97
387.85	1982.43
388.06	2267.10
388.27	4796.34
388.48	9168.76
388.68	11929.42
388.89	13451.06
389.10	14176.04
389.31	11945.80
389.52	9738.09
389.73	8761.21
389.93	7825.29
390.14	7329.68
390.35	6705.05
390.56	6160.29
390.77	5029.81
390.98	3968.96
391.18	3088.34
391.39	2418.65
391.60	1992.67
391.81	1855.46
392.02	1726.44
392.23	1824.74
392.43	1738.73
392.64	1834.98
392.85	1732.58
393.06	1796.07
393.27	1740.77
393.47	1726.44
393.68	1712.10
393.89	1703.91
394.10	1730.53
394.31	1681.38
394.52	1669.09
394.72	1689.57
394.93	1783.78
395.14	1669.09
395.35	1738.73
395.56	1652.71
395.76	1740.77
395.97	1824.74
396.18	1837.03
396.39	1871.84
396.60	2066.40
396.80	1910.75
397.01	1918.95
397.22	1886.18
397.43	1820.64
397.64	1775.59
397.84	1808.36
398.05	1943.52
398.26	1812.45
398.47	1822.69
398.67	1751.01
398.88	1794.02
399.09	1677.29
399.30	1689.57
399.51	1763.30
399.71	1673.19
399.92	1763.30
400.13	1753.06
400.34	1656.81
400.54	1705.96
400.75	1824.74
400.96	1812.45
401.17	1789.92
401.37	1705.96
401.58	1652.71
401.79	1744.87
402.00	1890.28
402.21	2115.55
402.41	2121.70
402.62	2011.11
402.83	2176.99
403.04	2154.46
403.24	2121.70
403.45	1896.42
403.66	1982.43
403.87	1939.43
404.07	1947.62
404.28	1927.14
404.49	1929.19
404.70	1875.94
404.90	1857.51
405.11	1755.11
405.32	1751.01
405.52	1679.33
405.73	1689.57
405.94	1662.95
406.15	1689.57
406.35	1726.44
406.56	1742.82
406.77	1798.12
406.98	1765.35
407.18	1597.42
407.39	1791.97
407.60	1775.59
407.80	1757.16
408.01	1730.53
408.22	1701.86
408.43	1683.43
408.63	1769.44
408.84	1822.69
409.05	1740.77
409.25	1695.72
409.46	1703.91
409.67	1708.01
409.88	1648.61
410.08	1720.29
410.29	1648.61
410.50	1740.77
410.70	1673.19
410.91	1699.81
411.12	1781.73
411.32	1763.30
411.53	1714.15
411.74	1830.88
411.95	1757.16
412.15	1796.07
412.36	1773.54
412.57	1728.49
412.77	1818.60
412.98	1755.11
413.19	1744.87
413.39	1783.78
413.60	1695.72
413.81	1884.13
414.01	1687.53
414.22	1808.36
414.43	1800.16
414.63	1685.48
414.84	1785.83
415.05	1632.23
415.25	1644.52
415.46	1736.68
415.67	1710.05
415.87	1712.10
416.08	1826.79
416.29	1624.04
416.49	1732.58
416.70	1703.91
416.91	1732.58
417.11	1681.38
417.32	1822.69
417.53	1789.92
417.73	1708.01
417.94	1665.00
418.15	1734.63
418.35	1742.82
418.56	1755.11
418.77	1834.98
418.97	1744.87
419.18	1642.47
419.38	1589.22
419.59	1687.53
419.80	1855.46
420.00	1695.72
420.21	1732.58
420.42	1665.00
420.62	1798.12
420.83	1675.24
421.04	1650.66
421.24	1701.86
421.45	1804.26
421.65	1744.87
421.86	1667.05
422.07	1755.11
422.27	1751.01
422.48	1708.01
422.69	1693.67
422.89	1730.53
423.10	1703.91
423.30	1644.52
423.51	1648.61
423.72	1781.73
423.92	1681.38
424.13	1607.66
424.33	1675.24
424.54	1769.44
424.75	1728.49
424.95	1779.68
425.16	1763.30
425.36	1677.29
425.57	1738.73
425.78	1806.31
425.98	1773.54
426.19	1660.90
426.39	1640.42
426.60	1763.30
426.81	1763.30
427.01	1685.48
427.22	1648.61
427.42	1689.57
427.63	1660.90
427.83	1775.59
428.04	1767.40
428.25	1722.34
428.45	1800.16
428.66	1757.16
428.86	1667.05
429.07	1746.92
429.28	1714.15
429.48	1662.95
429.69	1734.63
429.89	1699.81
430.10	1712.10
430.30	1787.88
430.51	1875.94
430.71	1650.66
430.92	1665.00
431.13	1677.29
431.33	1765.35
431.54	1753.06
431.74	1740.77
431.95	1785.83
432.15	1607.66
432.36	1771.49
432.56	1689.57
432.77	1822.69
432.98	1740.77
433.18	1718.25
433.39	1636.33
433.59	1693.67
433.80	1855.46
434.00	1871.84
434.21	1673.19
434.41	1693.67
434.62	1875.94
434.82	1658.85
435.03	1728.49
435.23	1720.29
435.44	1593.32
435.64	1662.95
435.85	1728.49
436.06	1802.21
436.26	1789.92
436.47	1685.48
436.67	1679.33
436.88	1667.05
437.08	1816.55
437.29	1830.88
437.49	1738.73
437.70	1832.93
437.90	1736.68
438.11	1794.02
438.31	1816.55
438.52	1800.16
438.72	1837.03
438.93	1920.99
439.13	1812.45
439.34	1857.51
439.54	1771.49
439.75	1781.73
439.95	1847.27
440.16	1767.40
440.36	1810.40
440.57	1816.55
440.77	1800.16
440.98	1769.44
441.18	1751.01
441.39	1677.29
441.59	1712.10
441.80	1863.65
442.00	1703.91
442.21	1861.60
442.41	1626.09
442.62	1822.69
442.82	1679.33
443.02	1732.58
443.23	1773.54
443.43	1697.77
443.64	1789.92
443.84	1699.81
444.05	1849.32
444.25	1673.19
444.46	1734.63
444.66	1732.58
444.87	1828.84
445.07	1628.14
445.28	1738.73
445.48	1867.75
445.69	1671.14
445.89	1832.93
446.09	1789.92
446.30	2029.54
446.50	2619.35
446.71	4255.68
446.91	5183.41
447.12	5783.46
447.32	5998.50
447.53	5388.21
447.73	4462.52
447.93	3979.20
448.14	3706.82
448.34	3506.12
448.55	3090.38
448.75	3082.19
448.96	2877.40
449.16	2686.94
449.36	2449.37
449.57	2174.94
449.77	1929.19
449.98	1814.50
450.18	1863.65
450.39	1845.22
450.59	1732.58
450.79	1755.11
451.00	1683.43
451.20	1785.83
451.41	1802.21
451.61	1773.54
451.81	1697.77
452.02	1746.92
452.22	1728.49
452.43	1728.49
452.63	1718.25
