SpectraSuite Data File
++++++++++++++++++++++++++++++++++++
Date: Wed May 04 18:44:04 CEST 2016
User: root
Dark Spectrum Present: No
Reference Spectrum Present: No
Number of Sampled Component Spectra: 1
Spectrometers: USB4C02835
Integration Time (usec): 100000 (USB4C02835)
Spectra Averaged: 1 (USB4C02835)
Boxcar Smoothing: 0 (USB4C02835)
Correct for Electrical Dark: No (USB4C02835)
Strobe/Lamp Enabled: No (USB4C02835)
Correct for Detector Non-linearity: No (USB4C02835)
Correct for Stray Light: No (USB4C02835)
Number of Pixels in Processed Spectrum: 3648
>>>>>Begin Processed Spectral Data<<<<<
177.47	1427.43
177.69	1427.43
177.91	1427.43
178.13	1511.40
178.36	1468.39
178.58	1630.18
178.80	1708.01
179.02	1685.48
179.24	1652.71
179.46	1716.20
179.68	1773.54
179.90	1634.28
180.13	1712.10
180.35	1611.75
180.57	1744.87
180.79	1716.20
181.01	1738.73
181.23	1691.62
181.45	1748.97
181.67	1748.97
181.90	1703.91
182.12	1689.57
182.34	1611.75
182.56	1705.96
182.78	1691.62
183.00	1695.72
183.22	1757.16
183.44	1566.70
183.66	1824.74
183.89	1789.92
184.11	1765.35
184.33	1732.58
184.55	1779.68
184.77	1712.10
184.99	1769.44
185.21	1703.91
185.43	1857.51
185.65	1740.77
185.87	1742.82
186.10	1832.93
186.32	1787.88
186.54	1716.20
186.76	1714.15
186.98	1837.03
187.20	1724.39
187.42	1648.61
187.64	1677.29
187.86	1691.62
188.08	1730.53
188.30	1695.72
188.52	1726.44
188.75	1830.88
188.97	1777.64
189.19	1636.33
189.41	1732.58
189.63	1773.54
189.85	1751.01
190.07	1605.61
190.29	1638.38
190.51	1773.54
190.73	1621.99
190.95	1839.08
191.17	1740.77
191.39	1632.23
191.61	1738.73
191.84	1695.72
192.06	1738.73
192.28	1556.46
192.50	1918.95
192.72	1669.09
192.94	1710.05
193.16	1759.21
193.38	1710.05
193.60	1656.81
193.82	1634.28
194.04	1767.40
194.26	1716.20
194.48	1765.35
194.70	1613.80
194.92	1755.11
195.14	1675.24
195.36	1685.48
195.58	1701.86
195.80	1742.82
196.02	1665.00
196.24	1660.90
196.46	1771.49
196.69	1609.70
196.91	1884.13
197.13	1675.24
197.35	1681.38
197.57	1781.73
197.79	1785.83
198.01	1742.82
198.23	1816.55
198.45	1791.97
198.67	1705.96
198.89	1736.68
199.11	1734.63
199.33	1660.90
199.55	1589.22
199.77	1679.33
199.99	1742.82
200.21	1660.90
200.43	1802.21
200.65	1658.85
200.87	1601.51
201.09	1669.09
201.31	1650.66
201.53	1730.53
201.75	1787.88
201.97	1728.49
202.19	1787.88
202.41	1736.68
202.63	1871.84
202.85	1675.24
203.07	1722.34
203.29	1599.46
203.51	1685.48
203.73	1644.52
203.95	1814.50
204.17	1718.25
204.39	1685.48
204.61	1703.91
204.83	1673.19
205.05	1808.36
205.27	1732.58
205.49	1873.89
205.71	1632.23
205.93	1665.00
206.15	1681.38
206.37	1732.58
206.59	1761.25
206.81	1578.98
207.03	1615.85
207.25	1724.39
207.47	1753.06
207.69	1665.00
207.91	1771.49
208.13	1759.21
208.34	1648.61
208.56	1632.23
208.78	1732.58
209.00	1650.66
209.22	1673.19
209.44	1593.32
209.66	1687.53
209.88	1732.58
210.10	1671.14
210.32	1730.53
210.54	1724.39
210.76	1710.05
210.98	1767.40
211.20	1527.78
211.42	1689.57
211.64	1761.25
211.86	1753.06
212.08	1681.38
212.30	1742.82
212.52	1693.67
212.74	1748.97
212.96	1726.44
213.17	1736.68
213.39	1753.06
213.61	1818.60
213.83	1763.30
214.05	1644.52
214.27	1734.63
214.49	1671.14
214.71	1611.75
214.93	1779.68
215.15	1667.05
215.37	1873.89
215.59	1689.57
215.81	1755.11
216.03	1736.68
216.24	1712.10
216.46	1652.71
216.68	1751.01
216.90	1779.68
217.12	1777.64
217.34	1755.11
217.56	1695.72
217.78	1800.16
218.00	1712.10
218.22	1677.29
218.44	1746.92
218.66	1718.25
218.87	1796.07
219.09	1628.14
219.31	1755.11
219.53	1757.16
219.75	1683.43
219.97	1656.81
220.19	1679.33
220.41	1632.23
220.63	1808.36
220.85	1773.54
221.06	1712.10
221.28	1736.68
221.50	1775.59
221.72	1759.21
221.94	1695.72
222.16	1722.34
222.38	1701.86
222.60	1816.55
222.82	1705.96
223.03	1722.34
223.25	1640.42
223.47	1802.21
223.69	1810.40
223.91	1714.15
224.13	1738.73
224.35	1628.14
224.57	1787.88
224.78	1697.77
225.00	1617.90
225.22	1705.96
225.44	1751.01
225.66	1712.10
225.88	1632.23
226.10	1703.91
226.32	1718.25
226.53	1779.68
226.75	1738.73
226.97	1705.96
227.19	1714.15
227.41	1669.09
227.63	1677.29
227.85	1597.42
228.06	1699.81
228.28	1617.90
228.50	1787.88
228.72	1683.43
228.94	1695.72
229.16	1658.85
229.37	1578.98
229.59	1693.67
229.81	1814.50
230.03	1740.77
230.25	1675.24
230.47	1714.15
230.69	1703.91
230.90	1699.81
231.12	1714.15
231.34	1759.21
231.56	1697.77
231.78	1603.56
232.00	1730.53
232.21	1695.72
232.43	1683.43
232.65	1626.09
232.87	1728.49
233.09	1681.38
233.30	1662.95
233.52	1759.21
233.74	1716.20
233.96	1687.53
234.18	1728.49
234.40	1724.39
234.61	1857.51
234.83	1679.33
235.05	1613.80
235.27	1830.88
235.49	1753.06
235.70	1738.73
235.92	1841.12
236.14	1773.54
236.36	1791.97
236.58	1660.90
236.79	1705.96
237.01	1685.48
237.23	1673.19
237.45	1843.17
237.67	1724.39
237.88	1710.05
238.10	1775.59
238.32	1624.04
238.54	1716.20
238.76	1697.77
238.97	1605.61
239.19	1628.14
239.41	1687.53
239.63	1789.92
239.85	1646.57
240.06	1714.15
240.28	1720.29
240.50	1757.16
240.72	1734.63
240.93	1687.53
241.15	1742.82
241.37	1716.20
241.59	1800.16
241.81	1695.72
242.02	1718.25
242.24	1724.39
242.46	1734.63
242.68	1646.57
242.89	1703.91
243.11	1697.77
243.33	1699.81
243.55	1703.91
243.76	1699.81
243.98	1724.39
244.20	1714.15
244.42	1691.62
244.64	1691.62
244.85	1662.95
245.07	1691.62
245.29	1697.77
245.51	1624.04
245.72	1718.25
245.94	1783.78
246.16	1744.87
246.38	1724.39
246.59	1669.09
246.81	1671.14
247.03	1742.82
247.24	1630.18
247.46	1732.58
247.68	1720.29
247.90	1662.95
248.11	1738.73
248.33	1759.21
248.55	1746.92
248.77	1695.72
248.98	1787.88
249.20	1720.29
249.42	1726.44
249.64	1763.30
249.85	1683.43
250.07	1626.09
250.29	1771.49
250.50	1705.96
250.72	1634.28
250.94	1720.29
251.16	1732.58
251.37	1728.49
251.59	1708.01
251.81	1726.44
252.02	1828.84
252.24	1632.23
252.46	1722.34
252.68	1685.48
252.89	1656.81
253.11	1632.23
253.33	1775.59
253.54	1861.60
253.76	1638.38
253.98	1644.52
254.20	1720.29
254.41	1656.81
254.63	1738.73
254.85	1624.04
255.06	1703.91
255.28	1724.39
255.50	1656.81
255.71	1673.19
255.93	1667.05
256.15	1722.34
256.36	1738.73
256.58	1607.66
256.80	1685.48
257.02	1710.05
257.23	1658.85
257.45	1771.49
257.67	1751.01
257.88	1603.56
258.10	1689.57
258.32	1705.96
258.53	1730.53
258.75	1824.74
258.97	1689.57
259.18	1701.86
259.40	1693.67
259.62	1791.97
259.83	1767.40
260.05	1730.53
260.27	1988.58
260.48	1785.83
260.70	1642.47
260.92	1789.92
261.13	1710.05
261.35	1673.19
261.57	1685.48
261.78	1581.03
262.00	1677.29
262.22	1808.36
262.43	1628.14
262.65	1658.85
262.86	1591.27
263.08	1830.88
263.30	1683.43
263.51	1656.81
263.73	1656.81
263.95	1738.73
264.16	1701.86
264.38	1701.86
264.60	1695.72
264.81	1671.14
265.03	1816.55
265.25	1730.53
265.46	1716.20
265.68	1771.49
265.89	1736.68
266.11	1574.89
266.33	1689.57
266.54	1855.46
266.76	1787.88
266.98	1736.68
267.19	1863.65
267.41	1671.14
267.62	1628.14
267.84	1599.46
268.06	1720.29
268.27	1677.29
268.49	1845.22
268.70	1806.31
268.92	1703.91
269.14	1642.47
269.35	1621.99
269.57	1693.67
269.79	1724.39
270.00	1701.86
270.22	1726.44
270.43	1693.67
270.65	1603.56
270.87	1740.77
271.08	1777.64
271.30	1701.86
271.51	1736.68
271.73	1751.01
271.95	1761.25
272.16	1740.77
272.38	1757.16
272.59	1724.39
272.81	1693.67
273.02	1708.01
273.24	1673.19
273.46	1738.73
273.67	1609.70
273.89	1632.23
274.10	1621.99
274.32	1771.49
274.54	1724.39
274.75	1689.57
274.97	1687.53
275.18	1761.25
275.40	1746.92
275.61	1742.82
275.83	1738.73
276.05	1730.53
276.26	1773.54
276.48	1736.68
276.69	1662.95
276.91	1630.18
277.12	1781.73
277.34	1761.25
277.55	1783.78
277.77	1701.86
277.99	1634.28
278.20	1667.05
278.42	1632.23
278.63	1601.51
278.85	1572.84
279.06	1601.51
279.28	1679.33
279.49	1771.49
279.71	1714.15
279.93	1757.16
280.14	1814.50
280.36	1658.85
280.57	1615.85
280.79	1753.06
281.00	1662.95
281.22	1673.19
281.43	1710.05
281.65	1691.62
281.86	1693.67
282.08	1728.49
282.29	1800.16
282.51	1630.18
282.73	1669.09
282.94	1636.33
283.16	1761.25
283.37	1777.64
283.59	1763.30
283.80	1730.53
284.02	1726.44
284.23	1681.38
284.45	1656.81
284.66	1697.77
284.88	1591.27
285.09	1724.39
285.31	1804.26
285.52	1761.25
285.74	1652.71
285.95	1791.97
286.17	1730.53
286.38	1738.73
286.60	1665.00
286.81	1697.77
287.03	1691.62
287.24	1710.05
287.46	1775.59
287.67	1726.44
287.89	1830.88
288.10	1665.00
288.32	1738.73
288.53	1787.88
288.75	1718.25
288.96	1669.09
289.18	1689.57
289.39	1695.72
289.61	1755.11
289.82	1767.40
290.04	1830.88
290.25	1665.00
290.47	1705.96
290.68	1689.57
290.90	1765.35
291.11	1624.04
291.33	1677.29
291.54	1673.19
291.76	1652.71
291.97	1722.34
292.18	1730.53
292.40	1685.48
292.61	1591.27
292.83	1857.51
293.04	1718.25
293.26	1712.10
293.47	1673.19
293.69	1677.29
293.90	1712.10
294.12	1726.44
294.33	1740.77
294.55	1712.10
294.76	1787.88
294.97	1751.01
295.19	1847.27
295.40	1685.48
295.62	1759.21
295.83	1701.86
296.05	1710.05
296.26	1759.21
296.48	1626.09
296.69	1726.44
296.90	1775.59
297.12	1777.64
297.33	1814.50
297.55	1781.73
297.76	1675.24
297.98	1740.77
298.19	1687.53
298.41	1689.57
298.62	1634.28
298.83	1773.54
299.05	1839.08
299.26	1685.48
299.48	1624.04
299.69	1677.29
299.90	1730.53
300.12	1621.99
300.33	1720.29
300.55	1738.73
300.76	1757.16
300.98	1642.47
301.19	1763.30
301.40	1712.10
301.62	1679.33
301.83	1681.38
302.05	1748.97
302.26	1753.06
302.47	1736.68
302.69	1685.48
302.90	1781.73
303.12	1585.13
303.33	1730.53
303.54	1789.92
303.76	1665.00
303.97	1669.09
304.19	1875.94
304.40	1681.38
304.61	1695.72
304.83	1820.64
305.04	1810.40
305.26	1755.11
305.47	1687.53
305.68	1685.48
305.90	1665.00
306.11	1783.78
306.33	1656.81
306.54	1656.81
306.75	1685.48
306.97	1566.70
307.18	1578.98
307.39	1732.58
307.61	1734.63
307.82	1697.77
308.04	1656.81
308.25	1683.43
308.46	1746.92
308.68	1701.86
308.89	1632.23
309.10	1710.05
309.32	1738.73
309.53	1716.20
309.74	1710.05
309.96	1722.34
310.17	1787.88
310.39	1697.77
310.60	1796.07
310.81	1705.96
311.03	1634.28
311.24	1789.92
311.45	1740.77
311.67	1814.50
311.88	1732.58
312.09	1697.77
312.31	1662.95
312.52	1724.39
312.73	1734.63
312.95	1628.14
313.16	1591.27
313.37	1746.92
313.59	1617.90
313.80	1718.25
314.01	1814.50
314.23	1667.05
314.44	1671.14
314.65	1626.09
314.87	1689.57
315.08	1693.67
315.29	1656.81
315.51	1603.56
315.72	1656.81
315.93	1777.64
316.15	1742.82
316.36	1636.33
316.57	1734.63
316.79	1757.16
317.00	1757.16
317.21	1722.34
317.43	1681.38
317.64	1759.21
317.85	1724.39
318.07	1730.53
318.28	1822.69
318.49	1865.70
318.70	1992.67
318.92	1898.47
319.13	1888.23
319.34	1939.43
319.56	1845.22
319.77	1851.36
319.98	1816.55
320.20	1824.74
320.41	1757.16
320.62	1755.11
320.83	1726.44
321.05	1890.28
321.26	1660.90
321.47	1679.33
321.69	1755.11
321.90	1716.20
322.11	1708.01
322.32	1744.87
322.54	1783.78
322.75	1724.39
322.96	1867.75
323.18	1581.03
323.39	1585.13
323.60	1675.24
323.81	1779.68
324.03	1648.61
324.24	1767.40
324.45	1660.90
324.66	1677.29
324.88	1759.21
325.09	1773.54
325.30	1718.25
325.52	1753.06
325.73	1697.77
325.94	1605.61
326.15	1624.04
326.37	1724.39
326.58	1699.81
326.79	1787.88
327.00	1638.38
327.22	1755.11
327.43	1662.95
327.64	1636.33
327.85	1759.21
328.07	1695.72
328.28	1814.50
328.49	1687.53
328.70	1697.77
328.92	1603.56
329.13	1703.91
329.34	1769.44
329.55	1796.07
329.76	1773.54
329.98	1767.40
330.19	1751.01
330.40	1759.21
330.61	1740.77
330.83	1722.34
331.04	1638.38
331.25	1789.92
331.46	1667.05
331.68	1624.04
331.89	1761.25
332.10	1689.57
332.31	1619.94
332.52	1669.09
332.74	1714.15
332.95	1644.52
333.16	1710.05
333.37	1773.54
333.58	1687.53
333.80	1714.15
334.01	1509.35
334.22	1687.53
334.43	1671.14
334.64	1611.75
334.86	1599.46
335.07	1648.61
335.28	1771.49
335.49	1710.05
335.70	1740.77
335.92	1734.63
336.13	1798.12
336.34	1726.44
336.55	1705.96
336.76	1705.96
336.98	1628.14
337.19	1701.86
337.40	1859.56
337.61	1828.84
337.82	1720.29
338.04	1763.30
338.25	1628.14
338.46	1730.53
338.67	1687.53
338.88	1677.29
339.09	1652.71
339.31	1671.14
339.52	1611.75
339.73	1728.49
339.94	1681.38
340.15	1757.16
340.36	1738.73
340.58	1642.47
340.79	1654.76
341.00	1757.16
341.21	1634.28
341.42	1808.36
341.63	1699.81
341.85	1767.40
342.06	1718.25
342.27	1677.29
342.48	1771.49
342.69	1662.95
342.90	1675.24
343.12	1705.96
343.33	1685.48
343.54	1779.68
343.75	1703.91
343.96	1748.97
344.17	1697.77
344.38	1658.85
344.60	1722.34
344.81	1695.72
345.02	1685.48
345.23	1658.85
345.44	1832.93
345.65	1810.40
345.86	1695.72
346.07	1710.05
346.29	1675.24
346.50	1673.19
346.71	1755.11
346.92	1742.82
347.13	1843.17
347.34	1660.90
347.55	1607.66
347.76	1742.82
347.98	1636.33
348.19	1640.42
348.40	1775.59
348.61	1665.00
348.82	1791.97
349.03	1703.91
349.24	1695.72
349.45	1861.60
349.66	1576.94
349.88	1748.97
350.09	1773.54
350.30	1789.92
350.51	1751.01
350.72	1759.21
350.93	1681.38
351.14	1671.14
351.35	1822.69
351.56	1753.06
351.77	1673.19
351.99	1734.63
352.20	1810.40
352.41	1832.93
352.62	1605.61
352.83	1722.34
353.04	1667.05
353.25	1738.73
353.46	1744.87
353.67	1783.78
353.88	1581.03
354.09	1785.83
354.30	1648.61
354.52	1783.78
354.73	1689.57
354.94	1671.14
355.15	1673.19
355.36	1714.15
355.57	1656.81
355.78	1703.91
355.99	1738.73
356.20	1652.71
356.41	1685.48
356.62	1681.38
356.83	1783.78
357.04	1847.27
357.25	1648.61
357.46	1730.53
357.68	1644.52
357.89	1628.14
358.10	1699.81
358.31	1716.20
358.52	1708.01
358.73	1656.81
358.94	1630.18
359.15	1697.77
359.36	1800.16
359.57	1677.29
359.78	1712.10
359.99	1744.87
360.20	1650.66
360.41	1650.66
360.62	1708.01
360.83	1699.81
361.04	1812.45
361.25	1732.58
361.46	1826.79
361.67	1808.36
361.88	1787.88
362.09	1730.53
362.30	1759.21
362.51	1671.14
362.72	1720.29
362.93	1728.49
363.14	1755.11
363.35	1710.05
363.56	1714.15
363.78	1759.21
363.99	1773.54
364.20	1634.28
364.41	1736.68
364.62	1818.60
364.83	1712.10
365.04	1765.35
365.25	1683.43
365.46	1781.73
365.67	1574.89
365.88	1740.77
366.09	1685.48
366.30	1679.33
366.51	1757.16
366.72	1673.19
366.93	1656.81
367.14	1699.81
367.35	1783.78
367.56	1701.86
367.77	1834.98
367.98	1648.61
368.18	1728.49
368.39	1646.57
368.60	1632.23
368.81	1828.84
369.02	1673.19
369.23	1705.96
369.44	1566.70
369.65	1642.47
369.86	1759.21
370.07	1697.77
370.28	1695.72
370.49	1775.59
370.70	1730.53
370.91	1581.03
371.12	1630.18
371.33	1751.01
371.54	1701.86
371.75	1800.16
371.96	1638.38
372.17	1755.11
372.38	1691.62
372.59	1718.25
372.80	1693.67
373.01	1675.24
373.22	1732.58
373.43	1695.72
373.64	1665.00
373.85	1791.97
374.06	1839.08
374.26	1738.73
374.47	1665.00
374.68	1814.50
374.89	1748.97
375.10	1656.81
375.31	1734.63
375.52	1687.53
375.73	1656.81
375.94	1693.67
376.15	1796.07
376.36	1662.95
376.57	1654.76
376.78	1740.77
376.99	1714.15
377.20	1806.31
377.40	1763.30
377.61	1822.69
377.82	1714.15
378.03	1822.69
378.24	1796.07
378.45	1730.53
378.66	1791.97
378.87	1656.81
379.08	1652.71
379.29	1769.44
379.50	1769.44
379.71	1638.38
379.91	1867.75
380.12	1794.02
380.33	1798.12
380.54	1679.33
380.75	1683.43
380.96	1701.86
381.17	1789.92
381.38	1800.16
381.59	1681.38
381.80	1746.92
382.00	1947.62
382.21	1775.59
382.42	1791.97
382.63	1937.38
382.84	1708.01
383.05	1728.49
383.26	1804.26
383.47	1841.12
383.68	1779.68
383.88	1771.49
384.09	1759.21
384.30	1843.17
384.51	1705.96
384.72	1703.91
384.93	1660.90
385.14	1689.57
385.35	1779.68
385.55	1591.27
385.76	1755.11
385.97	1689.57
386.18	1640.42
386.39	1656.81
386.60	1693.67
386.81	1736.68
387.02	1718.25
387.22	1597.42
387.43	1794.02
387.64	1808.36
387.85	1886.18
388.06	2209.76
388.27	4734.90
388.48	9219.96
388.68	11876.17
388.89	13586.22
389.10	14180.14
389.31	11859.79
389.52	10078.05
389.73	8771.45
389.93	7847.82
390.14	7298.96
390.35	6723.48
390.56	5980.07
390.77	4988.85
390.98	3893.19
391.18	3037.14
391.39	2373.60
391.60	1912.80
391.81	1841.12
392.02	1714.15
392.23	1822.69
392.43	1761.25
392.64	1814.50
392.85	1742.82
393.06	1791.97
393.27	1669.09
393.47	1689.57
393.68	1746.92
393.89	1708.01
394.10	1785.83
394.31	1712.10
394.52	1748.97
394.72	1665.00
394.93	1785.83
395.14	1705.96
395.35	1751.01
395.56	1642.47
395.76	1738.73
395.97	1753.06
396.18	1837.03
396.39	1869.80
396.60	2117.60
396.80	1964.00
397.01	1908.71
397.22	1939.43
397.43	1791.97
397.64	1677.29
397.84	1800.16
398.05	1873.89
398.26	1740.77
398.47	1824.74
398.67	1816.55
398.88	1753.06
399.09	1697.77
399.30	1689.57
399.51	1822.69
399.71	1656.81
399.92	1734.63
400.13	1728.49
400.34	1652.71
400.54	1738.73
400.75	1753.06
400.96	1617.90
401.17	1777.64
401.37	1748.97
401.58	1791.97
401.79	1775.59
402.00	1914.85
402.21	2009.06
402.41	2187.23
402.62	2019.30
402.83	2160.61
403.04	2113.50
403.24	2183.13
403.45	1898.47
403.66	2015.20
403.87	1865.70
404.07	1904.61
404.28	2002.91
404.49	1867.75
404.70	1832.93
404.90	1839.08
405.11	1718.25
405.32	1767.40
405.52	1634.28
405.73	1675.24
405.94	1675.24
406.15	1759.21
406.35	1771.49
406.56	1736.68
406.77	1744.87
406.98	1726.44
407.18	1714.15
407.39	1841.12
407.60	1742.82
407.80	1742.82
408.01	1777.64
408.22	1730.53
408.43	1669.09
408.63	1804.26
408.84	1712.10
409.05	1814.50
409.25	1660.90
409.46	1681.38
409.67	1710.05
409.88	1710.05
410.08	1712.10
410.29	1763.30
410.50	1775.59
410.70	1820.64
410.91	1652.71
411.12	1751.01
411.32	1634.28
411.53	1695.72
411.74	1890.28
411.95	1800.16
412.15	1744.87
412.36	1849.32
412.57	1757.16
412.77	1834.98
412.98	1789.92
413.19	1746.92
413.39	1744.87
413.60	1765.35
413.81	1804.26
414.01	1716.20
414.22	1785.83
414.43	1767.40
414.63	1681.38
414.84	1755.11
415.05	1751.01
415.25	1591.27
415.46	1722.34
415.67	1701.86
415.87	1834.98
416.08	1654.76
416.29	1726.44
416.49	1806.31
416.70	1722.34
416.91	1665.00
417.11	1693.67
417.32	1724.39
417.53	1724.39
417.73	1695.72
417.94	1677.29
418.15	1734.63
418.35	1791.97
418.56	1755.11
418.77	1877.99
418.97	1720.29
419.18	1687.53
419.38	1589.22
419.59	1712.10
419.80	1853.41
420.00	1718.25
420.21	1710.05
420.42	1845.22
420.62	1687.53
420.83	1761.25
421.04	1681.38
421.24	1642.47
421.45	1800.16
421.65	1757.16
421.86	1648.61
422.07	1742.82
422.27	1781.73
422.48	1644.52
422.69	1630.18
422.89	1705.96
423.10	1710.05
423.30	1681.38
423.51	1658.85
423.72	1665.00
423.92	1730.53
424.13	1681.38
424.33	1734.63
424.54	1800.16
424.75	1650.66
424.95	1785.83
425.16	1853.41
425.36	1675.24
425.57	1785.83
425.78	1759.21
425.98	1798.12
426.19	1677.29
426.39	1619.94
426.60	1771.49
426.81	1783.78
427.01	1759.21
427.22	1685.48
427.42	1624.04
427.63	1730.53
427.83	1767.40
428.04	1837.03
428.25	1806.31
428.45	1697.77
428.66	1781.73
428.86	1765.35
429.07	1730.53
429.28	1744.87
429.48	1726.44
429.69	1656.81
429.89	1681.38
430.10	1718.25
430.30	1683.43
430.51	1773.54
430.71	1746.92
430.92	1685.48
431.13	1693.67
431.33	1742.82
431.54	1736.68
431.74	1773.54
431.95	1802.21
432.15	1628.14
432.36	1753.06
432.56	1769.44
432.77	1853.41
432.98	1796.07
433.18	1730.53
433.39	1699.81
433.59	1724.39
433.80	1742.82
434.00	1789.92
434.21	1740.77
434.41	1746.92
434.62	1865.70
434.82	1683.43
435.03	1669.09
435.23	1693.67
435.44	1626.09
435.64	1791.97
435.85	1718.25
436.06	1783.78
436.26	1755.11
436.47	1791.97
436.67	1685.48
436.88	1703.91
437.08	1802.21
437.29	1818.60
437.49	1773.54
437.70	1771.49
437.90	1757.16
438.11	1826.79
438.31	1765.35
438.52	1943.52
438.72	1859.56
438.93	1916.90
439.13	1804.26
439.34	1859.56
439.54	1751.01
439.75	1796.07
439.95	1804.26
440.16	1732.58
440.36	1740.77
440.57	1748.97
440.77	1746.92
440.98	1751.01
441.18	1853.41
441.39	1685.48
441.59	1736.68
441.80	1880.04
442.00	1738.73
442.21	1708.01
442.41	1644.52
442.62	1818.60
442.82	1763.30
443.02	1638.38
443.23	1765.35
443.43	1755.11
443.64	1789.92
443.84	1681.38
444.05	1820.64
444.25	1638.38
444.46	1722.34
444.66	1748.97
444.87	1853.41
445.07	1662.95
445.28	1740.77
445.48	1800.16
445.69	1794.02
445.89	1849.32
446.09	1769.44
446.30	1974.24
446.50	2576.34
446.71	4057.03
446.91	5060.53
447.12	5908.39
447.32	6037.41
447.53	5334.96
447.73	4433.85
447.93	4036.55
448.14	3583.95
448.34	3426.25
448.55	3139.54
448.75	3059.67
448.96	2994.13
449.16	2643.93
449.36	2465.75
449.57	2136.03
449.77	1947.62
449.98	1804.26
450.18	1796.07
450.39	1806.31
450.59	1757.16
450.79	1736.68
451.00	1695.72
451.20	1769.44
451.41	1761.25
451.61	1763.30
451.81	1746.92
452.02	1669.09
452.22	1748.97
452.43	1656.81
452.63	1697.77
