SpectraSuite Data File
++++++++++++++++++++++++++++++++++++
Date: Wed May 04 18:44:53 CEST 2016
User: root
Dark Spectrum Present: No
Reference Spectrum Present: No
Number of Sampled Component Spectra: 1
Spectrometers: USB4C02835
Integration Time (usec): 100000 (USB4C02835)
Spectra Averaged: 1 (USB4C02835)
Boxcar Smoothing: 0 (USB4C02835)
Correct for Electrical Dark: No (USB4C02835)
Strobe/Lamp Enabled: No (USB4C02835)
Correct for Detector Non-linearity: No (USB4C02835)
Correct for Stray Light: No (USB4C02835)
Number of Pixels in Processed Spectrum: 3648
>>>>>Begin Processed Spectral Data<<<<<
177.47	1454.06
177.69	1454.06
177.91	1454.06
178.13	1538.02
178.36	1476.59
178.58	1570.79
178.80	1765.35
179.02	1638.38
179.24	1671.14
179.46	1675.24
179.68	1771.49
179.90	1691.62
180.13	1697.77
180.35	1658.85
180.57	1703.91
180.79	1785.83
181.01	1689.57
181.23	1769.44
181.45	1771.49
181.67	1691.62
181.90	1753.06
182.12	1689.57
182.34	1615.85
182.56	1730.53
182.78	1654.76
183.00	1718.25
183.22	1693.67
183.44	1527.78
183.66	1861.60
183.89	1796.07
184.11	1648.61
184.33	1675.24
184.55	1722.34
184.77	1687.53
184.99	1730.53
185.21	1708.01
185.43	1798.12
185.65	1699.81
185.87	1740.77
186.10	1859.56
186.32	1839.08
186.54	1824.74
186.76	1769.44
186.98	1787.88
187.20	1720.29
187.42	1726.44
187.64	1740.77
187.86	1679.33
188.08	1708.01
188.30	1701.86
188.52	1691.62
188.75	1818.60
188.97	1777.64
189.19	1646.57
189.41	1734.63
189.63	1767.40
189.85	1679.33
190.07	1630.18
190.29	1560.55
190.51	1744.87
190.73	1589.22
190.95	1845.22
191.17	1628.14
191.39	1648.61
191.61	1701.86
191.84	1751.01
192.06	1712.10
192.28	1601.51
192.50	1816.55
192.72	1794.02
192.94	1697.77
193.16	1783.78
193.38	1789.92
193.60	1734.63
193.82	1710.05
194.04	1746.92
194.26	1726.44
194.48	1677.29
194.70	1685.48
194.92	1660.90
195.14	1699.81
195.36	1755.11
195.58	1767.40
195.80	1662.95
196.02	1646.57
196.24	1665.00
196.46	1710.05
196.69	1726.44
196.91	1847.27
197.13	1730.53
197.35	1728.49
197.57	1845.22
197.79	1734.63
198.01	1734.63
198.23	1765.35
198.45	1746.92
198.67	1609.70
198.89	1636.33
199.11	1722.34
199.33	1640.42
199.55	1576.94
199.77	1667.05
199.99	1808.36
200.21	1638.38
200.43	1724.39
200.65	1595.37
200.87	1632.23
201.09	1683.43
201.31	1675.24
201.53	1710.05
201.75	1742.82
201.97	1726.44
202.19	1708.01
202.41	1714.15
202.63	1867.75
202.85	1726.44
203.07	1671.14
203.29	1630.18
203.51	1640.42
203.73	1673.19
203.95	1837.03
204.17	1714.15
204.39	1783.78
204.61	1728.49
204.83	1693.67
205.05	1755.11
205.27	1720.29
205.49	1843.17
205.71	1669.09
205.93	1626.09
206.15	1708.01
206.37	1740.77
206.59	1691.62
206.81	1593.32
207.03	1632.23
207.25	1617.90
207.47	1785.83
207.69	1744.87
207.91	1837.03
208.13	1720.29
208.34	1673.19
208.56	1648.61
208.78	1767.40
209.00	1716.20
209.22	1681.38
209.44	1693.67
209.66	1732.58
209.88	1703.91
210.10	1718.25
210.32	1617.90
210.54	1767.40
210.76	1660.90
210.98	1757.16
211.20	1665.00
211.42	1757.16
211.64	1740.77
211.86	1732.58
212.08	1701.86
212.30	1720.29
212.52	1673.19
212.74	1742.82
212.96	1638.38
213.17	1697.77
213.39	1734.63
213.61	1816.55
213.83	1767.40
214.05	1703.91
214.27	1744.87
214.49	1644.52
214.71	1621.99
214.93	1794.02
215.15	1757.16
215.37	1724.39
215.59	1718.25
215.81	1787.88
216.03	1785.83
216.24	1624.04
216.46	1671.14
216.68	1791.97
216.90	1769.44
217.12	1802.21
217.34	1679.33
217.56	1632.23
217.78	1734.63
218.00	1757.16
218.22	1716.20
218.44	1744.87
218.66	1683.43
218.87	1787.88
219.09	1669.09
219.31	1740.77
219.53	1724.39
219.75	1665.00
219.97	1652.71
220.19	1714.15
220.41	1687.53
220.63	1777.64
220.85	1718.25
221.06	1695.72
221.28	1734.63
221.50	1757.16
221.72	1646.57
221.94	1757.16
222.16	1746.92
222.38	1755.11
222.60	1767.40
222.82	1691.62
223.03	1800.16
223.25	1628.14
223.47	1710.05
223.69	1763.30
223.91	1773.54
224.13	1683.43
224.35	1726.44
224.57	1787.88
224.78	1691.62
225.00	1648.61
225.22	1691.62
225.44	1705.96
225.66	1761.25
225.88	1683.43
226.10	1781.73
226.32	1740.77
226.53	1783.78
226.75	1648.61
226.97	1751.01
227.19	1679.33
227.41	1652.71
227.63	1757.16
227.85	1621.99
228.06	1667.05
228.28	1732.58
228.50	1802.21
228.72	1677.29
228.94	1722.34
229.16	1544.17
229.37	1642.47
229.59	1632.23
229.81	1791.97
230.03	1675.24
230.25	1640.42
230.47	1560.55
230.69	1613.80
230.90	1726.44
231.12	1621.99
231.34	1748.97
231.56	1761.25
231.78	1675.24
232.00	1722.34
232.21	1665.00
232.43	1673.19
232.65	1607.66
232.87	1753.06
233.09	1689.57
233.30	1755.11
233.52	1722.34
233.74	1701.86
233.96	1665.00
234.18	1685.48
234.40	1777.64
234.61	1820.64
234.83	1636.33
235.05	1654.76
235.27	1824.74
235.49	1791.97
235.70	1738.73
235.92	1785.83
236.14	1816.55
236.36	1781.73
236.58	1615.85
236.79	1740.77
237.01	1701.86
237.23	1742.82
237.45	1775.59
237.67	1658.85
237.88	1699.81
238.10	1857.51
238.32	1691.62
238.54	1781.73
238.76	1697.77
238.97	1568.74
239.19	1662.95
239.41	1691.62
239.63	1736.68
239.85	1724.39
240.06	1748.97
240.28	1705.96
240.50	1791.97
240.72	1779.68
240.93	1703.91
241.15	1751.01
241.37	1693.67
241.59	1738.73
241.81	1658.85
242.02	1720.29
242.24	1783.78
242.46	1767.40
242.68	1716.20
242.89	1738.73
243.11	1722.34
243.33	1685.48
243.55	1701.86
243.76	1767.40
243.98	1671.14
244.20	1701.86
244.42	1683.43
244.64	1708.01
244.85	1597.42
245.07	1665.00
245.29	1734.63
245.51	1705.96
245.72	1761.25
245.94	1755.11
246.16	1701.86
246.38	1771.49
246.59	1751.01
246.81	1662.95
247.03	1683.43
247.24	1578.98
247.46	1748.97
247.68	1730.53
247.90	1697.77
248.11	1644.52
248.33	1824.74
248.55	1701.86
248.77	1705.96
248.98	1759.21
249.20	1753.06
249.42	1697.77
249.64	1691.62
249.85	1740.77
250.07	1703.91
250.29	1716.20
250.50	1738.73
250.72	1714.15
250.94	1695.72
251.16	1806.31
251.37	1757.16
251.59	1703.91
251.81	1769.44
252.02	1841.12
252.24	1613.80
252.46	1775.59
252.68	1687.53
252.89	1669.09
253.11	1667.05
253.33	1869.80
253.54	1730.53
253.76	1601.51
253.98	1665.00
254.20	1732.58
254.41	1642.47
254.63	1728.49
254.85	1677.29
255.06	1691.62
255.28	1693.67
255.50	1673.19
255.71	1691.62
255.93	1652.71
256.15	1736.68
256.36	1738.73
256.58	1697.77
256.80	1757.16
257.02	1640.42
257.23	1691.62
257.45	1777.64
257.67	1734.63
257.88	1748.97
258.10	1673.19
258.32	1691.62
258.53	1624.04
258.75	1638.38
258.97	1728.49
259.18	1693.67
259.40	1744.87
259.62	1834.98
259.83	1720.29
260.05	1773.54
260.27	2002.91
260.48	1789.92
260.70	1648.61
260.92	1718.25
261.13	1705.96
261.35	1722.34
261.57	1650.66
261.78	1626.09
262.00	1576.94
262.22	1724.39
262.43	1632.23
262.65	1791.97
262.86	1703.91
263.08	1834.98
263.30	1701.86
263.51	1578.98
263.73	1679.33
263.95	1863.65
264.16	1716.20
264.38	1691.62
264.60	1722.34
264.81	1677.29
265.03	1806.31
265.25	1701.86
265.46	1703.91
265.68	1767.40
265.89	1751.01
266.11	1665.00
266.33	1775.59
266.54	1736.68
266.76	1763.30
266.98	1757.16
267.19	1812.45
267.41	1757.16
267.62	1751.01
267.84	1673.19
268.06	1779.68
268.27	1753.06
268.49	1703.91
268.70	1796.07
268.92	1728.49
269.14	1697.77
269.35	1601.51
269.57	1722.34
269.79	1755.11
270.00	1669.09
270.22	1798.12
270.43	1646.57
270.65	1589.22
270.87	1757.16
271.08	1796.07
271.30	1712.10
271.51	1673.19
271.73	1734.63
271.95	1718.25
272.16	1759.21
272.38	1742.82
272.59	1652.71
272.81	1738.73
273.02	1712.10
273.24	1789.92
273.46	1781.73
273.67	1675.24
273.89	1697.77
274.10	1669.09
274.32	1687.53
274.54	1703.91
274.75	1785.83
274.97	1699.81
275.18	1761.25
275.40	1718.25
275.61	1761.25
275.83	1660.90
276.05	1611.75
276.26	1699.81
276.48	1763.30
276.69	1628.14
276.91	1716.20
277.12	1820.64
277.34	1763.30
277.55	1761.25
277.77	1632.23
277.99	1681.38
278.20	1626.09
278.42	1644.52
278.63	1718.25
278.85	1675.24
279.06	1642.47
279.28	1746.92
279.49	1794.02
279.71	1718.25
279.93	1638.38
280.14	1675.24
280.36	1712.10
280.57	1818.60
280.79	1769.44
281.00	1619.94
281.22	1705.96
281.43	1785.83
281.65	1492.97
281.86	1638.38
282.08	1708.01
282.29	1832.93
282.51	1736.68
282.73	1710.05
282.94	1548.26
283.16	1660.90
283.37	1802.21
283.59	1689.57
283.80	1734.63
284.02	1691.62
284.23	1738.73
284.45	1740.77
284.66	1677.29
284.88	1685.48
285.09	1757.16
285.31	1746.92
285.52	1667.05
285.74	1669.09
285.95	1720.29
286.17	1701.86
286.38	1783.78
286.60	1648.61
286.81	1615.85
287.03	1718.25
287.24	1722.34
287.46	1779.68
287.67	1732.58
287.89	1855.46
288.10	1761.25
288.32	1679.33
288.53	1816.55
288.75	1744.87
288.96	1791.97
289.18	1701.86
289.39	1673.19
289.61	1859.56
289.82	1865.70
290.04	1849.32
290.25	1669.09
290.47	1748.97
290.68	1621.99
290.90	1877.99
291.11	1603.56
291.33	1810.40
291.54	1687.53
291.76	1609.70
291.97	1740.77
292.18	1736.68
292.40	1763.30
292.61	1695.72
292.83	1902.56
293.04	1826.79
293.26	1619.94
293.47	1665.00
293.69	1685.48
293.90	1662.95
294.12	1742.82
294.33	1701.86
294.55	1681.38
294.76	1828.84
294.97	1726.44
295.19	1820.64
295.40	1660.90
295.62	1769.44
295.83	1808.36
296.05	1716.20
296.26	1775.59
296.48	1681.38
296.69	1689.57
296.90	1644.52
297.12	1769.44
297.33	1716.20
297.55	1785.83
297.76	1732.58
297.98	1765.35
298.19	1734.63
298.41	1662.95
298.62	1621.99
298.83	1763.30
299.05	1820.64
299.26	1646.57
299.48	1613.80
299.69	1656.81
299.90	1720.29
300.12	1644.52
300.33	1716.20
300.55	1705.96
300.76	1701.86
300.98	1759.21
301.19	1791.97
301.40	1744.87
301.62	1699.81
301.83	1701.86
302.05	1695.72
302.26	1685.48
302.47	1755.11
302.69	1601.51
302.90	1673.19
303.12	1480.68
303.33	1761.25
303.54	1806.31
303.76	1665.00
303.97	1673.19
304.19	1806.31
304.40	1585.13
304.61	1687.53
304.83	1822.69
305.04	1759.21
305.26	1681.38
305.47	1624.04
305.68	1656.81
305.90	1603.56
306.11	1791.97
306.33	1673.19
306.54	1642.47
306.75	1701.86
306.97	1722.34
307.18	1605.61
307.39	1669.09
307.61	1763.30
307.82	1673.19
308.04	1728.49
308.25	1693.67
308.46	1699.81
308.68	1679.33
308.89	1681.38
309.10	1796.07
309.32	1705.96
309.53	1669.09
309.74	1808.36
309.96	1712.10
310.17	1783.78
310.39	1744.87
310.60	1763.30
310.81	1648.61
311.03	1617.90
311.24	1736.68
311.45	1681.38
311.67	1767.40
311.88	1683.43
312.09	1583.08
312.31	1718.25
312.52	1638.38
312.73	1757.16
312.95	1605.61
313.16	1667.05
313.37	1771.49
313.59	1748.97
313.80	1687.53
314.01	1755.11
314.23	1669.09
314.44	1638.38
314.65	1660.90
314.87	1685.48
315.08	1675.24
315.29	1681.38
315.51	1650.66
315.72	1605.61
315.93	1822.69
316.15	1759.21
316.36	1693.67
316.57	1687.53
316.79	1759.21
317.00	1730.53
317.21	1712.10
317.43	1662.95
317.64	1650.66
317.85	1648.61
318.07	1685.48
318.28	1726.44
318.49	1925.09
318.70	1964.00
318.92	1837.03
319.13	1843.17
319.34	1902.56
319.56	1882.08
319.77	1761.25
319.98	1810.40
320.20	1677.29
320.41	1742.82
320.62	1826.79
320.83	1714.15
321.05	1912.80
321.26	1732.58
321.47	1734.63
321.69	1730.53
321.90	1587.18
322.11	1621.99
322.32	1665.00
322.54	1806.31
322.75	1716.20
322.96	1824.74
323.18	1617.90
323.39	1619.94
323.60	1742.82
323.81	1722.34
324.03	1665.00
324.24	1671.14
324.45	1718.25
324.66	1632.23
324.88	1742.82
325.09	1824.74
325.30	1728.49
325.52	1761.25
325.73	1714.15
325.94	1613.80
326.15	1576.94
326.37	1691.62
326.58	1712.10
326.79	1781.73
327.00	1669.09
327.22	1687.53
327.43	1718.25
327.64	1636.33
327.85	1759.21
328.07	1738.73
328.28	1810.40
328.49	1595.37
328.70	1751.01
328.92	1681.38
329.13	1697.77
329.34	1767.40
329.55	1796.07
329.76	1785.83
329.98	1691.62
330.19	1789.92
330.40	1681.38
330.61	1695.72
330.83	1740.77
331.04	1642.47
331.25	1722.34
331.46	1658.85
331.68	1695.72
331.89	1757.16
332.10	1730.53
332.31	1648.61
332.52	1761.25
332.74	1757.16
332.95	1640.42
333.16	1705.96
333.37	1757.16
333.58	1701.86
333.80	1789.92
334.01	1673.19
334.22	1667.05
334.43	1748.97
334.64	1755.11
334.86	1609.70
335.07	1708.01
335.28	1828.84
335.49	1683.43
335.70	1794.02
335.92	1744.87
336.13	1746.92
336.34	1787.88
336.55	1755.11
336.76	1751.01
336.98	1701.86
337.19	1665.00
337.40	1830.88
337.61	1814.50
337.82	1648.61
338.04	1789.92
338.25	1675.24
338.46	1681.38
338.67	1693.67
338.88	1712.10
339.09	1691.62
339.31	1658.85
339.52	1615.85
339.73	1603.56
339.94	1662.95
340.15	1730.53
340.36	1703.91
340.58	1714.15
340.79	1677.29
341.00	1773.54
341.21	1665.00
341.42	1841.12
341.63	1656.81
341.85	1736.68
342.06	1726.44
342.27	1634.28
342.48	1800.16
342.69	1626.09
342.90	1714.15
343.12	1720.29
343.33	1595.37
343.54	1710.05
343.75	1880.04
343.96	1669.09
344.17	1683.43
344.38	1695.72
344.60	1687.53
344.81	1650.66
345.02	1695.72
345.23	1779.68
345.44	1767.40
345.65	1710.05
345.86	1701.86
346.07	1800.16
346.29	1566.70
346.50	1757.16
346.71	1730.53
346.92	1701.86
347.13	1730.53
347.34	1712.10
347.55	1671.14
347.76	1744.87
347.98	1589.22
348.19	1710.05
348.40	1796.07
348.61	1816.55
348.82	1812.45
349.03	1763.30
349.24	1675.24
349.45	1861.60
349.66	1628.14
349.88	1646.57
350.09	1652.71
350.30	1794.02
350.51	1763.30
350.72	1748.97
350.93	1691.62
351.14	1599.46
351.35	1685.48
351.56	1714.15
351.77	1710.05
351.99	1785.83
352.20	1802.21
352.41	1728.49
352.62	1705.96
352.83	1695.72
353.04	1755.11
353.25	1636.33
353.46	1785.83
353.67	1722.34
353.88	1646.57
354.09	1650.66
354.30	1689.57
354.52	1722.34
354.73	1728.49
354.94	1630.18
355.15	1720.29
355.36	1841.12
355.57	1732.58
355.78	1724.39
355.99	1685.48
356.20	1703.91
356.41	1796.07
356.62	1724.39
356.83	1744.87
357.04	1783.78
357.25	1578.98
357.46	1683.43
357.68	1652.71
357.89	1687.53
358.10	1734.63
358.31	1716.20
358.52	1656.81
358.73	1597.42
358.94	1734.63
359.15	1753.06
359.36	1710.05
359.57	1736.68
359.78	1671.14
359.99	1744.87
360.20	1656.81
360.41	1675.24
360.62	1652.71
360.83	1753.06
361.04	1689.57
361.25	1779.68
361.46	1796.07
361.67	1763.30
361.88	1787.88
362.09	1759.21
362.30	1712.10
362.51	1656.81
362.72	1693.67
362.93	1757.16
363.14	1677.29
363.35	1730.53
363.56	1685.48
363.78	1736.68
363.99	1724.39
364.20	1689.57
364.41	1712.10
364.62	1814.50
364.83	1667.05
365.04	1677.29
365.25	1681.38
365.46	1849.32
365.67	1671.14
365.88	1667.05
366.09	1722.34
366.30	1718.25
366.51	1665.00
366.72	1613.80
366.93	1705.96
367.14	1714.15
367.35	1796.07
367.56	1716.20
367.77	1814.50
367.98	1716.20
368.18	1708.01
368.39	1718.25
368.60	1640.42
368.81	1710.05
369.02	1789.92
369.23	1681.38
369.44	1693.67
369.65	1654.76
369.86	1724.39
370.07	1736.68
370.28	1605.61
370.49	1785.83
370.70	1705.96
370.91	1658.85
371.12	1644.52
371.33	1841.12
371.54	1701.86
371.75	1816.55
371.96	1660.90
372.17	1748.97
372.38	1767.40
372.59	1783.78
372.80	1660.90
373.01	1742.82
373.22	1722.34
373.43	1669.09
373.64	1640.42
373.85	1771.49
374.06	1748.97
374.26	1710.05
374.47	1775.59
374.68	1837.03
374.89	1726.44
375.10	1697.77
375.31	1822.69
375.52	1734.63
375.73	1705.96
375.94	1581.03
376.15	1828.84
376.36	1679.33
376.57	1595.37
376.78	1693.67
376.99	1746.92
377.20	1759.21
377.40	1654.76
377.61	1855.46
377.82	1675.24
378.03	1722.34
378.24	1751.01
378.45	1701.86
378.66	1703.91
378.87	1638.38
379.08	1671.14
379.29	1683.43
379.50	1748.97
379.71	1685.48
379.91	1779.68
380.12	1656.81
380.33	1730.53
380.54	1763.30
380.75	1738.73
380.96	1667.05
381.17	1783.78
381.38	1740.77
381.59	1818.60
381.80	1730.53
382.00	1896.42
382.21	1802.21
382.42	1808.36
382.63	1880.04
382.84	1767.40
383.05	1808.36
383.26	1847.27
383.47	1740.77
383.68	1722.34
383.88	1748.97
384.09	1802.21
384.30	1861.60
384.51	1742.82
384.72	1624.04
384.93	1632.23
385.14	1726.44
385.35	1753.06
385.55	1638.38
385.76	1894.37
385.97	1722.34
386.18	1628.14
386.39	1708.01
386.60	1687.53
386.81	1734.63
387.02	1710.05
387.22	1646.57
387.43	1759.21
387.64	1804.26
387.85	1894.37
388.06	2285.53
388.27	4630.46
388.48	9244.53
388.68	11605.84
388.89	13391.67
389.10	14225.19
389.31	11919.18
389.52	9613.17
389.73	8589.18
389.93	7845.77
390.14	7372.69
390.35	6768.54
390.56	5871.53
390.77	4968.37
390.98	3860.42
391.18	3205.07
391.39	2371.55
391.60	1955.81
391.81	1849.32
392.02	1744.87
392.23	1746.92
392.43	1763.30
392.64	1796.07
392.85	1771.49
393.06	1916.90
393.27	1748.97
393.47	1699.81
393.68	1720.29
393.89	1677.29
394.10	1810.40
394.31	1708.01
394.52	1626.09
394.72	1650.66
394.93	1748.97
395.14	1673.19
395.35	1746.92
395.56	1646.57
395.76	1654.76
395.97	1765.35
396.18	1894.37
396.39	1931.23
396.60	2041.82
396.80	1896.42
397.01	1873.89
397.22	1814.50
397.43	1853.41
397.64	1722.34
397.84	1787.88
398.05	1828.84
398.26	1755.11
398.47	1804.26
398.67	1765.35
398.88	1710.05
399.09	1791.97
399.30	1697.77
399.51	1828.84
399.71	1771.49
399.92	1683.43
400.13	1843.17
400.34	1679.33
400.54	1683.43
400.75	1826.79
400.96	1755.11
401.17	1859.56
401.37	1718.25
401.58	1705.96
401.79	1669.09
402.00	1771.49
402.21	2074.59
402.41	1968.10
402.62	2136.03
402.83	2152.42
403.04	2136.03
403.24	2156.51
403.45	1890.28
403.66	1974.24
403.87	1875.94
404.07	1990.63
404.28	1937.38
404.49	1949.67
404.70	1789.92
404.90	1742.82
405.11	1822.69
405.32	1718.25
405.52	1685.48
405.73	1697.77
405.94	1679.33
406.15	1740.77
406.35	1773.54
406.56	1728.49
406.77	1738.73
406.98	1751.01
407.18	1650.66
407.39	1857.51
407.60	1697.77
407.80	1755.11
408.01	1716.20
408.22	1726.44
408.43	1695.72
408.63	1753.06
408.84	1701.86
409.05	1738.73
409.25	1656.81
409.46	1679.33
409.67	1638.38
409.88	1654.76
410.08	1830.88
410.29	1660.90
410.50	1781.73
410.70	1708.01
410.91	1656.81
411.12	1804.26
411.32	1648.61
411.53	1748.97
411.74	1796.07
411.95	1755.11
412.15	1865.70
412.36	1781.73
412.57	1802.21
412.77	1875.94
412.98	1722.34
413.19	1724.39
413.39	1775.59
413.60	1765.35
413.81	1863.65
414.01	1736.68
414.22	1699.81
414.43	1789.92
414.63	1763.30
414.84	1839.08
415.05	1669.09
415.25	1644.52
415.46	1818.60
415.67	1640.42
415.87	1806.31
416.08	1732.58
416.29	1597.42
416.49	1730.53
416.70	1638.38
416.91	1669.09
417.11	1689.57
417.32	1796.07
417.53	1845.22
417.73	1748.97
417.94	1710.05
418.15	1738.73
418.35	1787.88
418.56	1820.64
418.77	1884.13
418.97	1691.62
419.18	1753.06
419.38	1472.49
419.59	1734.63
419.80	1789.92
420.00	1703.91
420.21	1724.39
420.42	1808.36
420.62	1738.73
420.83	1650.66
421.04	1681.38
421.24	1697.77
421.45	1718.25
421.65	1718.25
421.86	1644.52
422.07	1802.21
422.27	1746.92
422.48	1832.93
422.69	1687.53
422.89	1773.54
423.10	1712.10
423.30	1681.38
423.51	1767.40
423.72	1732.58
423.92	1716.20
424.13	1736.68
424.33	1716.20
424.54	1744.87
424.75	1738.73
424.95	1779.68
425.16	1726.44
425.36	1742.82
425.57	1714.15
425.78	1746.92
425.98	1771.49
426.19	1779.68
426.39	1687.53
426.60	1718.25
426.81	1773.54
427.01	1724.39
427.22	1773.54
427.42	1673.19
427.63	1667.05
427.83	1726.44
428.04	1785.83
428.25	1746.92
428.45	1783.78
428.66	1794.02
428.86	1714.15
429.07	1703.91
429.28	1746.92
429.48	1701.86
429.69	1708.01
429.89	1689.57
430.10	1568.74
430.30	1775.59
430.51	1748.97
430.71	1667.05
430.92	1712.10
431.13	1689.57
431.33	1751.01
431.54	1740.77
431.74	1806.31
431.95	1851.36
432.15	1611.75
432.36	1708.01
432.56	1701.86
432.77	1839.08
432.98	1837.03
433.18	1712.10
433.39	1689.57
433.59	1710.05
433.80	1869.80
434.00	1798.12
434.21	1746.92
434.41	1798.12
434.62	1888.23
434.82	1648.61
435.03	1716.20
435.23	1712.10
435.44	1646.57
435.64	1740.77
435.85	1724.39
436.06	1783.78
436.26	1724.39
436.47	1697.77
436.67	1699.81
436.88	1708.01
437.08	1832.93
437.29	1920.99
437.49	1787.88
437.70	1804.26
437.90	1746.92
438.11	1816.55
438.31	1798.12
438.52	1955.81
438.72	1910.75
438.93	1898.47
439.13	1791.97
439.34	1804.26
439.54	1773.54
439.75	1748.97
439.95	1755.11
440.16	1665.00
440.36	1761.25
440.57	1781.73
440.77	1738.73
440.98	1787.88
441.18	1791.97
441.39	1605.61
441.59	1761.25
441.80	1769.44
442.00	1724.39
442.21	1734.63
442.41	1667.05
442.62	1755.11
442.82	1658.85
443.02	1755.11
443.23	1800.16
443.43	1757.16
443.64	1794.02
443.84	1722.34
444.05	1820.64
444.25	1802.21
444.46	1658.85
444.66	1720.29
444.87	1822.69
445.07	1689.57
445.28	1703.91
445.48	1783.78
445.69	1742.82
445.89	1945.57
446.09	1746.92
446.30	1982.43
446.50	2627.54
446.71	4165.57
446.91	5087.15
447.12	5674.92
447.32	6010.79
447.53	5343.15
447.73	4460.48
447.93	3921.86
448.14	3571.66
448.34	3405.77
448.55	3080.14
448.75	3102.67
448.96	2983.89
449.16	2723.80
449.36	2418.65
449.57	2131.94
449.77	1914.85
449.98	1720.29
450.18	1816.55
450.39	1794.02
450.59	1865.70
450.79	1718.25
451.00	1716.20
451.20	1800.16
451.41	1751.01
451.61	1724.39
451.81	1683.43
452.02	1701.86
452.22	1656.81
452.43	1730.53
452.63	1699.81
