SpectraSuite Data File
++++++++++++++++++++++++++++++++++++
Date: Wed May 04 18:44:38 CEST 2016
User: root
Dark Spectrum Present: No
Reference Spectrum Present: No
Number of Sampled Component Spectra: 1
Spectrometers: USB4C02835
Integration Time (usec): 100000 (USB4C02835)
Spectra Averaged: 1 (USB4C02835)
Boxcar Smoothing: 0 (USB4C02835)
Correct for Electrical Dark: No (USB4C02835)
Strobe/Lamp Enabled: No (USB4C02835)
Correct for Detector Non-linearity: No (USB4C02835)
Correct for Stray Light: No (USB4C02835)
Number of Pixels in Processed Spectrum: 3648
>>>>>Begin Processed Spectral Data<<<<<
177.47	1564.65
177.69	1564.65
177.91	1564.65
178.13	1499.11
178.36	1411.05
178.58	1714.15
178.80	1650.66
179.02	1634.28
179.24	1687.53
179.46	1703.91
179.68	1677.29
179.90	1652.71
180.13	1658.85
180.35	1685.48
180.57	1644.52
180.79	1718.25
181.01	1716.20
181.23	1701.86
181.45	1724.39
181.67	1734.63
181.90	1722.34
182.12	1673.19
182.34	1634.28
182.56	1695.72
182.78	1789.92
183.00	1660.90
183.22	1687.53
183.44	1581.03
183.66	1767.40
183.89	1828.84
184.11	1746.92
184.33	1703.91
184.55	1812.45
184.77	1820.64
184.99	1734.63
185.21	1662.95
185.43	1832.93
185.65	1722.34
185.87	1705.96
186.10	1853.41
186.32	1851.36
186.54	1705.96
186.76	1751.01
186.98	1755.11
187.20	1681.38
187.42	1691.62
187.64	1685.48
187.86	1708.01
188.08	1718.25
188.30	1658.85
188.52	1759.21
188.75	1734.63
188.97	1869.80
189.19	1697.77
189.41	1712.10
189.63	1832.93
189.85	1669.09
190.07	1630.18
190.29	1601.51
190.51	1736.68
190.73	1640.42
190.95	1730.53
191.17	1755.11
191.39	1550.31
191.61	1683.43
191.84	1679.33
192.06	1787.88
192.28	1595.37
192.50	1890.28
192.72	1720.29
192.94	1708.01
193.16	1802.21
193.38	1730.53
193.60	1718.25
193.82	1667.05
194.04	1746.92
194.26	1697.77
194.48	1718.25
194.70	1681.38
194.92	1665.00
195.14	1656.81
195.36	1703.91
195.58	1738.73
195.80	1660.90
196.02	1662.95
196.24	1779.68
196.46	1708.01
196.69	1685.48
196.91	1855.46
197.13	1626.09
197.35	1679.33
197.57	1869.80
197.79	1777.64
198.01	1648.61
198.23	1708.01
198.45	1748.97
198.67	1718.25
198.89	1718.25
199.11	1691.62
199.33	1677.29
199.55	1589.22
199.77	1773.54
199.99	1798.12
200.21	1654.76
200.43	1656.81
200.65	1609.70
200.87	1638.38
201.09	1654.76
201.31	1779.68
201.53	1796.07
201.75	1746.92
201.97	1730.53
202.19	1734.63
202.41	1718.25
202.63	1810.40
202.85	1775.59
203.07	1785.83
203.29	1718.25
203.51	1687.53
203.73	1683.43
203.95	1888.23
204.17	1796.07
204.39	1689.57
204.61	1703.91
204.83	1587.18
205.05	1757.16
205.27	1681.38
205.49	1873.89
205.71	1708.01
205.93	1619.94
206.15	1665.00
206.37	1685.48
206.59	1812.45
206.81	1683.43
207.03	1640.42
207.25	1636.33
207.47	1716.20
207.69	1681.38
207.91	1730.53
208.13	1826.79
208.34	1720.29
208.56	1687.53
208.78	1718.25
209.00	1609.70
209.22	1640.42
209.44	1705.96
209.66	1648.61
209.88	1738.73
210.10	1578.98
210.32	1681.38
210.54	1816.55
210.76	1693.67
210.98	1757.16
211.20	1603.56
211.42	1697.77
211.64	1773.54
211.86	1703.91
212.08	1730.53
212.30	1708.01
212.52	1687.53
212.74	1703.91
212.96	1718.25
213.17	1767.40
213.39	1697.77
213.61	1775.59
213.83	1759.21
214.05	1710.05
214.27	1767.40
214.49	1697.77
214.71	1722.34
214.93	1746.92
215.15	1732.58
215.37	1763.30
215.59	1544.17
215.81	1701.86
216.03	1767.40
216.24	1578.98
216.46	1701.86
216.68	1726.44
216.90	1791.97
217.12	1716.20
217.34	1677.29
217.56	1662.95
217.78	1816.55
218.00	1724.39
218.22	1755.11
218.44	1742.82
218.66	1662.95
218.87	1871.84
219.09	1646.57
219.31	1671.14
219.53	1748.97
219.75	1679.33
219.97	1730.53
220.19	1665.00
220.41	1734.63
220.63	1775.59
220.85	1722.34
221.06	1763.30
221.28	1834.98
221.50	1685.48
221.72	1671.14
221.94	1689.57
222.16	1669.09
222.38	1742.82
222.60	1779.68
222.82	1677.29
223.03	1734.63
223.25	1605.61
223.47	1804.26
223.69	1812.45
223.91	1804.26
224.13	1716.20
224.35	1705.96
224.57	1832.93
224.78	1703.91
225.00	1652.71
225.22	1634.28
225.44	1660.90
225.66	1843.17
225.88	1681.38
226.10	1742.82
226.32	1652.71
226.53	1796.07
226.75	1665.00
226.97	1701.86
227.19	1662.95
227.41	1648.61
227.63	1701.86
227.85	1687.53
228.06	1712.10
228.28	1646.57
228.50	1808.36
228.72	1734.63
228.94	1705.96
229.16	1617.90
229.37	1681.38
229.59	1693.67
229.81	1828.84
230.03	1677.29
230.25	1699.81
230.47	1609.70
230.69	1636.33
230.90	1798.12
231.12	1689.57
231.34	1726.44
231.56	1812.45
231.78	1681.38
232.00	1656.81
232.21	1693.67
232.43	1660.90
232.65	1640.42
232.87	1714.15
233.09	1570.79
233.30	1628.14
233.52	1740.77
233.74	1640.42
233.96	1765.35
234.18	1667.05
234.40	1726.44
234.61	1748.97
234.83	1628.14
235.05	1603.56
235.27	1822.69
235.49	1685.48
235.70	1722.34
235.92	1804.26
236.14	1779.68
236.36	1820.64
236.58	1681.38
236.79	1794.02
237.01	1646.57
237.23	1753.06
237.45	1759.21
237.67	1738.73
237.88	1660.90
238.10	1769.44
238.32	1681.38
238.54	1697.77
238.76	1712.10
238.97	1658.85
239.19	1675.24
239.41	1759.21
239.63	1759.21
239.85	1675.24
240.06	1677.29
240.28	1710.05
240.50	1699.81
240.72	1648.61
240.93	1679.33
241.15	1834.98
241.37	1667.05
241.59	1787.88
241.81	1716.20
242.02	1679.33
242.24	1648.61
242.46	1701.86
242.68	1660.90
242.89	1710.05
243.11	1714.15
243.33	1660.90
243.55	1751.01
243.76	1722.34
243.98	1660.90
244.20	1658.85
244.42	1755.11
244.64	1693.67
244.85	1589.22
245.07	1667.05
245.29	1755.11
245.51	1716.20
245.72	1730.53
245.94	1779.68
246.16	1802.21
246.38	1746.92
246.59	1656.81
246.81	1662.95
247.03	1683.43
247.24	1695.72
247.46	1630.18
247.68	1705.96
247.90	1693.67
248.11	1644.52
248.33	1783.78
248.55	1665.00
248.77	1673.19
248.98	1759.21
249.20	1779.68
249.42	1720.29
249.64	1677.29
249.85	1683.43
250.07	1759.21
250.29	1779.68
250.50	1708.01
250.72	1669.09
250.94	1714.15
251.16	1843.17
251.37	1759.21
251.59	1765.35
251.81	1738.73
252.02	1794.02
252.24	1714.15
252.46	1751.01
252.68	1656.81
252.89	1638.38
253.11	1648.61
253.33	1816.55
253.54	1804.26
253.76	1640.42
253.98	1603.56
254.20	1703.91
254.41	1626.09
254.63	1712.10
254.85	1665.00
255.06	1755.11
255.28	1701.86
255.50	1640.42
255.71	1669.09
255.93	1681.38
256.15	1689.57
256.36	1708.01
256.58	1744.87
256.80	1730.53
257.02	1642.47
257.23	1650.66
257.45	1769.44
257.67	1818.60
257.88	1626.09
258.10	1798.12
258.32	1744.87
258.53	1730.53
258.75	1812.45
258.97	1697.77
259.18	1660.90
259.40	1740.77
259.62	1783.78
259.83	1757.16
260.05	1798.12
260.27	1955.81
260.48	1708.01
260.70	1683.43
260.92	1728.49
261.13	1673.19
261.35	1652.71
261.57	1714.15
261.78	1578.98
262.00	1673.19
262.22	1832.93
262.43	1681.38
262.65	1701.86
262.86	1595.37
263.08	1800.16
263.30	1708.01
263.51	1560.55
263.73	1656.81
263.95	1763.30
264.16	1703.91
264.38	1658.85
264.60	1775.59
264.81	1705.96
265.03	1763.30
265.25	1794.02
265.46	1705.96
265.68	1785.83
265.89	1714.15
266.11	1699.81
266.33	1787.88
266.54	1761.25
266.76	1771.49
266.98	1746.92
267.19	1800.16
267.41	1710.05
267.62	1689.57
267.84	1603.56
268.06	1724.39
268.27	1665.00
268.49	1716.20
268.70	1767.40
268.92	1712.10
269.14	1617.90
269.35	1699.81
269.57	1722.34
269.79	1755.11
270.00	1714.15
270.22	1806.31
270.43	1652.71
270.65	1628.14
270.87	1695.72
271.08	1667.05
271.30	1800.16
271.51	1685.48
271.73	1751.01
271.95	1689.57
272.16	1667.05
272.38	1697.77
272.59	1632.23
272.81	1710.05
273.02	1734.63
273.24	1763.30
273.46	1781.73
273.67	1617.90
273.89	1632.23
274.10	1607.66
274.32	1728.49
274.54	1716.20
274.75	1748.97
274.97	1701.86
275.18	1834.98
275.40	1724.39
275.61	1675.24
275.83	1705.96
276.05	1648.61
276.26	1658.85
276.48	1783.78
276.69	1636.33
276.91	1642.47
277.12	1802.21
277.34	1775.59
277.55	1685.48
277.77	1718.25
277.99	1650.66
278.20	1669.09
278.42	1624.04
278.63	1699.81
278.85	1624.04
279.06	1648.61
279.28	1736.68
279.49	1771.49
279.71	1740.77
279.93	1761.25
280.14	1667.05
280.36	1589.22
280.57	1693.67
280.79	1771.49
281.00	1626.09
281.22	1656.81
281.43	1736.68
281.65	1511.40
281.86	1613.80
282.08	1714.15
282.29	1787.88
282.51	1613.80
282.73	1671.14
282.94	1640.42
283.16	1789.92
283.37	1839.08
283.59	1708.01
283.80	1714.15
284.02	1720.29
284.23	1802.21
284.45	1751.01
284.66	1685.48
284.88	1689.57
285.09	1669.09
285.31	1785.83
285.52	1720.29
285.74	1609.70
285.95	1748.97
286.17	1699.81
286.38	1734.63
286.60	1732.58
286.81	1609.70
287.03	1685.48
287.24	1656.81
287.46	1800.16
287.67	1765.35
287.89	1839.08
288.10	1671.14
288.32	1697.77
288.53	1759.21
288.75	1605.61
288.96	1759.21
289.18	1683.43
289.39	1728.49
289.61	1779.68
289.82	1816.55
290.04	1877.99
290.25	1665.00
290.47	1753.06
290.68	1714.15
290.90	1785.83
291.11	1621.99
291.33	1724.39
291.54	1642.47
291.76	1665.00
291.97	1728.49
292.18	1703.91
292.40	1656.81
292.61	1673.19
292.83	1857.51
293.04	1765.35
293.26	1669.09
293.47	1759.21
293.69	1644.52
293.90	1671.14
294.12	1800.16
294.33	1716.20
294.55	1751.01
294.76	1714.15
294.97	1796.07
295.19	1730.53
295.40	1687.53
295.62	1716.20
295.83	1828.84
296.05	1703.91
296.26	1722.34
296.48	1730.53
296.69	1687.53
296.90	1691.62
297.12	1783.78
297.33	1837.03
297.55	1746.92
297.76	1767.40
297.98	1771.49
298.19	1716.20
298.41	1689.57
298.62	1695.72
298.83	1816.55
299.05	1728.49
299.26	1621.99
299.48	1648.61
299.69	1755.11
299.90	1703.91
300.12	1660.90
300.33	1685.48
300.55	1685.48
300.76	1681.38
300.98	1665.00
301.19	1746.92
301.40	1689.57
301.62	1708.01
301.83	1753.06
302.05	1703.91
302.26	1665.00
302.47	1724.39
302.69	1675.24
302.90	1693.67
303.12	1591.27
303.33	1751.01
303.54	1765.35
303.76	1634.28
303.97	1701.86
304.19	1746.92
304.40	1656.81
304.61	1710.05
304.83	1845.22
305.04	1800.16
305.26	1673.19
305.47	1642.47
305.68	1724.39
305.90	1665.00
306.11	1800.16
306.33	1740.77
306.54	1656.81
306.75	1669.09
306.97	1597.42
307.18	1714.15
307.39	1660.90
307.61	1675.24
307.82	1716.20
308.04	1652.71
308.25	1703.91
308.46	1619.94
308.68	1632.23
308.89	1746.92
309.10	1720.29
309.32	1701.86
309.53	1710.05
309.74	1785.83
309.96	1697.77
310.17	1794.02
310.39	1658.85
310.60	1685.48
310.81	1718.25
311.03	1642.47
311.24	1734.63
311.45	1763.30
311.67	1847.27
311.88	1757.16
312.09	1636.33
312.31	1648.61
312.52	1722.34
312.73	1640.42
312.95	1628.14
313.16	1648.61
313.37	1855.46
313.59	1800.16
313.80	1763.30
314.01	1771.49
314.23	1693.67
314.44	1732.58
314.65	1626.09
314.87	1632.23
315.08	1642.47
315.29	1701.86
315.51	1550.31
315.72	1624.04
315.93	1755.11
316.15	1779.68
316.36	1738.73
316.57	1816.55
316.79	1755.11
317.00	1665.00
317.21	1757.16
317.43	1613.80
317.64	1726.44
317.85	1705.96
318.07	1757.16
318.28	1726.44
318.49	1873.89
318.70	1937.38
318.92	1871.84
319.13	1843.17
319.34	1882.08
319.56	1861.60
319.77	1834.98
319.98	1839.08
320.20	1781.73
320.41	1857.51
320.62	1740.77
320.83	1730.53
321.05	1855.46
321.26	1669.09
321.47	1681.38
321.69	1722.34
321.90	1613.80
322.11	1740.77
322.32	1683.43
322.54	1791.97
322.75	1681.38
322.96	1828.84
323.18	1566.70
323.39	1662.95
323.60	1671.14
323.81	1773.54
324.03	1734.63
324.24	1724.39
324.45	1740.77
324.66	1730.53
324.88	1773.54
325.09	1802.21
325.30	1671.14
325.52	1763.30
325.73	1710.05
325.94	1589.22
326.15	1626.09
326.37	1660.90
326.58	1720.29
326.79	1779.68
327.00	1621.99
327.22	1705.96
327.43	1621.99
327.64	1683.43
327.85	1665.00
328.07	1718.25
328.28	1837.03
328.49	1675.24
328.70	1671.14
328.92	1789.92
329.13	1669.09
329.34	1773.54
329.55	1826.79
329.76	1767.40
329.98	1636.33
330.19	1757.16
330.40	1804.26
330.61	1687.53
330.83	1775.59
331.04	1654.76
331.25	1853.41
331.46	1695.72
331.68	1662.95
331.89	1683.43
332.10	1673.19
332.31	1695.72
332.52	1693.67
332.74	1734.63
332.95	1603.56
333.16	1689.57
333.37	1732.58
333.58	1687.53
333.80	1705.96
334.01	1585.13
334.22	1746.92
334.43	1652.71
334.64	1765.35
334.86	1693.67
335.07	1648.61
335.28	1783.78
335.49	1613.80
335.70	1689.57
335.92	1724.39
336.13	1767.40
336.34	1779.68
336.55	1722.34
336.76	1755.11
336.98	1665.00
337.19	1763.30
337.40	1751.01
337.61	1826.79
337.82	1691.62
338.04	1779.68
338.25	1593.32
338.46	1654.76
338.67	1712.10
338.88	1671.14
339.09	1726.44
339.31	1699.81
339.52	1685.48
339.73	1662.95
339.94	1669.09
340.15	1798.12
340.36	1699.81
340.58	1691.62
340.79	1634.28
341.00	1839.08
341.21	1716.20
341.42	1810.40
341.63	1656.81
341.85	1765.35
342.06	1689.57
342.27	1650.66
342.48	1728.49
342.69	1607.66
342.90	1665.00
343.12	1771.49
343.33	1652.71
343.54	1718.25
343.75	1816.55
343.96	1751.01
344.17	1654.76
344.38	1697.77
344.60	1687.53
344.81	1638.38
345.02	1738.73
345.23	1724.39
345.44	1910.75
345.65	1728.49
345.86	1697.77
346.07	1714.15
346.29	1626.09
346.50	1681.38
346.71	1720.29
346.92	1800.16
347.13	1859.56
347.34	1673.19
347.55	1755.11
347.76	1746.92
347.98	1656.81
348.19	1638.38
348.40	1742.82
348.61	1710.05
348.82	1796.07
349.03	1685.48
349.24	1632.23
349.45	1820.64
349.66	1636.33
349.88	1710.05
350.09	1695.72
350.30	1771.49
350.51	1789.92
350.72	1734.63
350.93	1730.53
351.14	1689.57
351.35	1783.78
351.56	1763.30
351.77	1699.81
351.99	1751.01
352.20	1763.30
352.41	1738.73
352.62	1591.27
352.83	1726.44
353.04	1652.71
353.25	1689.57
353.46	1814.50
353.67	1812.45
353.88	1621.99
354.09	1783.78
354.30	1744.87
354.52	1705.96
354.73	1787.88
354.94	1683.43
355.15	1669.09
355.36	1740.77
355.57	1669.09
355.78	1787.88
355.99	1617.90
356.20	1677.29
356.41	1781.73
356.62	1730.53
356.83	1763.30
357.04	1779.68
357.25	1660.90
357.46	1748.97
357.68	1617.90
357.89	1699.81
358.10	1650.66
358.31	1771.49
358.52	1681.38
358.73	1673.19
358.94	1619.94
359.15	1667.05
359.36	1767.40
359.57	1724.39
359.78	1732.58
359.99	1763.30
360.20	1693.67
360.41	1677.29
360.62	1759.21
360.83	1757.16
361.04	1732.58
361.25	1744.87
361.46	1867.75
361.67	1767.40
361.88	1669.09
362.09	1746.92
362.30	1755.11
362.51	1632.23
362.72	1685.48
362.93	1783.78
363.14	1787.88
363.35	1708.01
363.56	1662.95
363.78	1785.83
363.99	1658.85
364.20	1705.96
364.41	1679.33
364.62	1898.47
364.83	1744.87
365.04	1689.57
365.25	1738.73
365.46	1742.82
365.67	1613.80
365.88	1685.48
366.09	1703.91
366.30	1728.49
366.51	1683.43
366.72	1615.85
366.93	1736.68
367.14	1677.29
367.35	1742.82
367.56	1802.21
367.77	1794.02
367.98	1783.78
368.18	1685.48
368.39	1736.68
368.60	1617.90
368.81	1761.25
369.02	1675.24
369.23	1738.73
369.44	1656.81
369.65	1652.71
369.86	1787.88
370.07	1775.59
370.28	1640.42
370.49	1765.35
370.70	1705.96
370.91	1626.09
371.12	1646.57
371.33	1789.92
371.54	1681.38
371.75	1736.68
371.96	1615.85
372.17	1695.72
372.38	1605.61
372.59	1673.19
372.80	1771.49
373.01	1744.87
373.22	1771.49
373.43	1701.86
373.64	1718.25
373.85	1765.35
374.06	1734.63
374.26	1767.40
374.47	1667.05
374.68	1802.21
374.89	1771.49
375.10	1648.61
375.31	1710.05
375.52	1740.77
375.73	1705.96
375.94	1650.66
376.15	1785.83
376.36	1687.53
376.57	1697.77
376.78	1650.66
376.99	1640.42
377.20	1789.92
377.40	1722.34
377.61	1853.41
377.82	1697.77
378.03	1785.83
378.24	1712.10
378.45	1714.15
378.66	1845.22
378.87	1636.33
379.08	1605.61
379.29	1705.96
379.50	1787.88
379.71	1689.57
379.91	1757.16
380.12	1681.38
380.33	1638.38
380.54	1744.87
380.75	1705.96
380.96	1697.77
381.17	1732.58
381.38	1722.34
381.59	1769.44
381.80	1681.38
382.00	1933.28
382.21	1781.73
382.42	1837.03
382.63	1880.04
382.84	1777.64
383.05	1701.86
383.26	1830.88
383.47	1730.53
383.68	1740.77
383.88	1789.92
384.09	1679.33
384.30	1853.41
384.51	1705.96
384.72	1687.53
384.93	1640.42
385.14	1734.63
385.35	1701.86
385.55	1603.56
385.76	1820.64
385.97	1744.87
386.18	1636.33
386.39	1746.92
386.60	1738.73
386.81	1722.34
387.02	1722.34
387.22	1751.01
387.43	1730.53
387.64	1804.26
387.85	1908.71
388.06	2195.42
388.27	4673.46
388.48	9082.74
388.68	11552.59
388.89	13473.59
389.10	14321.45
389.31	11984.71
389.52	9860.97
389.73	8568.70
389.93	7921.54
390.14	7249.81
390.35	6571.93
390.56	5826.47
390.77	5124.02
390.98	3891.14
391.18	3110.86
391.39	2283.49
391.60	2013.15
391.81	1892.32
392.02	1648.61
392.23	1812.45
392.43	1691.62
392.64	1865.70
392.85	1722.34
393.06	1853.41
393.27	1691.62
393.47	1730.53
393.68	1724.39
393.89	1650.66
394.10	1796.07
394.31	1712.10
394.52	1712.10
394.72	1662.95
394.93	1794.02
395.14	1624.04
395.35	1812.45
395.56	1710.05
395.76	1742.82
395.97	1794.02
396.18	1820.64
396.39	1867.75
396.60	2074.59
396.80	1937.38
397.01	1923.04
397.22	1884.13
397.43	1820.64
397.64	1769.44
397.84	1757.16
398.05	1976.29
398.26	1763.30
398.47	1849.32
398.67	1775.59
398.88	1767.40
399.09	1755.11
399.30	1742.82
399.51	1763.30
399.71	1640.42
399.92	1669.09
400.13	1785.83
400.34	1705.96
400.54	1755.11
400.75	1808.36
400.96	1746.92
401.17	1875.94
401.37	1669.09
401.58	1744.87
401.79	1726.44
402.00	1824.74
402.21	2015.20
402.41	2150.37
402.62	2144.22
402.83	2166.75
403.04	2080.74
403.24	2142.18
403.45	1953.76
403.66	2021.35
403.87	1955.81
404.07	1996.77
404.28	1953.76
404.49	1865.70
404.70	1773.54
404.90	1779.68
405.11	1777.64
405.32	1787.88
405.52	1681.38
405.73	1708.01
405.94	1640.42
406.15	1697.77
406.35	1755.11
406.56	1726.44
406.77	1746.92
406.98	1728.49
407.18	1591.27
407.39	1820.64
407.60	1742.82
407.80	1777.64
408.01	1734.63
408.22	1777.64
408.43	1708.01
408.63	1734.63
408.84	1714.15
409.05	1755.11
409.25	1693.67
409.46	1738.73
409.67	1708.01
409.88	1658.85
410.08	1736.68
410.29	1652.71
410.50	1703.91
410.70	1740.77
410.91	1667.05
411.12	1658.85
411.32	1689.57
411.53	1765.35
411.74	1834.98
411.95	1933.28
412.15	1824.74
412.36	1794.02
412.57	1783.78
412.77	1863.65
412.98	1673.19
413.19	1687.53
413.39	1761.25
413.60	1722.34
413.81	1787.88
414.01	1681.38
414.22	1773.54
414.43	1791.97
414.63	1806.31
414.84	1775.59
415.05	1740.77
415.25	1720.29
415.46	1781.73
415.67	1671.14
415.87	1794.02
416.08	1751.01
416.29	1630.18
416.49	1726.44
416.70	1638.38
416.91	1712.10
417.11	1613.80
417.32	1673.19
417.53	1740.77
417.73	1732.58
417.94	1667.05
418.15	1658.85
418.35	1748.97
418.56	1671.14
418.77	1779.68
418.97	1691.62
419.18	1701.86
419.38	1632.23
419.59	1662.95
419.80	1828.84
420.00	1726.44
420.21	1714.15
420.42	1781.73
420.62	1759.21
420.83	1648.61
421.04	1677.29
421.24	1658.85
421.45	1753.06
421.65	1695.72
421.86	1681.38
422.07	1791.97
422.27	1685.48
422.48	1669.09
422.69	1699.81
422.89	1718.25
423.10	1667.05
423.30	1650.66
423.51	1710.05
423.72	1742.82
423.92	1834.98
424.13	1669.09
424.33	1761.25
424.54	1730.53
424.75	1728.49
424.95	1800.16
425.16	1761.25
425.36	1701.86
425.57	1757.16
425.78	1689.57
425.98	1726.44
426.19	1781.73
426.39	1691.62
426.60	1734.63
426.81	1834.98
427.01	1740.77
427.22	1671.14
427.42	1615.85
427.63	1740.77
427.83	1761.25
428.04	1773.54
428.25	1863.65
428.45	1794.02
428.66	1796.07
428.86	1738.73
429.07	1755.11
429.28	1755.11
429.48	1679.33
429.69	1697.77
429.89	1712.10
430.10	1599.46
430.30	1740.77
430.51	1798.12
430.71	1710.05
430.92	1695.72
431.13	1671.14
431.33	1789.92
431.54	1665.00
431.74	1804.26
431.95	1863.65
432.15	1693.67
432.36	1660.90
432.56	1794.02
432.77	1789.92
432.98	1812.45
433.18	1720.29
433.39	1724.39
433.59	1724.39
433.80	1785.83
434.00	1771.49
434.21	1685.48
434.41	1697.77
434.62	1896.42
434.82	1658.85
435.03	1660.90
435.23	1671.14
435.44	1652.71
435.64	1767.40
435.85	1652.71
436.06	1744.87
436.26	1796.07
436.47	1751.01
436.67	1654.76
436.88	1718.25
437.08	1794.02
437.29	1716.20
437.49	1718.25
437.70	1705.96
437.90	1726.44
438.11	1849.32
438.31	1806.31
438.52	1863.65
438.72	1931.23
438.93	1908.71
439.13	1867.75
439.34	1865.70
439.54	1748.97
439.75	1834.98
439.95	1804.26
440.16	1716.20
440.36	1773.54
440.57	1787.88
440.77	1689.57
440.98	1708.01
441.18	1751.01
441.39	1808.36
441.59	1615.85
441.80	1814.50
442.00	1679.33
442.21	1789.92
442.41	1601.51
442.62	1808.36
442.82	1691.62
443.02	1693.67
443.23	1675.24
443.43	1650.66
443.64	1732.58
443.84	1742.82
444.05	1775.59
444.25	1769.44
444.46	1718.25
444.66	1722.34
444.87	1802.21
445.07	1632.23
445.28	1654.76
445.48	1787.88
445.69	1773.54
445.89	1898.47
446.09	1753.06
446.30	2017.25
446.50	2637.78
446.71	4192.19
446.91	5179.31
447.12	5640.11
447.32	5949.35
447.53	5400.49
447.73	4532.15
447.93	4011.97
448.14	3641.29
448.34	3450.83
448.55	3094.48
448.75	3203.02
448.96	2873.30
449.16	2654.17
449.36	2498.52
449.57	2187.23
449.77	1996.77
449.98	1808.36
450.18	1918.95
450.39	1892.32
450.59	1732.58
450.79	1777.64
451.00	1710.05
451.20	1810.40
451.41	1767.40
451.61	1751.01
451.81	1703.91
452.02	1771.49
452.22	1708.01
452.43	1703.91
452.63	1656.81
