SpectraSuite Data File
++++++++++++++++++++++++++++++++++++
Date: Wed May 04 18:44:35 CEST 2016
User: root
Dark Spectrum Present: No
Reference Spectrum Present: No
Number of Sampled Component Spectra: 1
Spectrometers: USB4C02835
Integration Time (usec): 100000 (USB4C02835)
Spectra Averaged: 1 (USB4C02835)
Boxcar Smoothing: 0 (USB4C02835)
Correct for Electrical Dark: No (USB4C02835)
Strobe/Lamp Enabled: No (USB4C02835)
Correct for Detector Non-linearity: No (USB4C02835)
Correct for Stray Light: No (USB4C02835)
Number of Pixels in Processed Spectrum: 3648
>>>>>Begin Processed Spectral Data<<<<<
177.47	1396.71
177.69	1396.71
177.91	1396.71
178.13	1456.11
178.36	1472.49
178.58	1673.19
178.80	1697.77
179.02	1714.15
179.24	1656.81
179.46	1697.77
179.68	1757.16
179.90	1726.44
180.13	1732.58
180.35	1624.04
180.57	1619.94
180.79	1769.44
181.01	1619.94
181.23	1720.29
181.45	1816.55
181.67	1695.72
181.90	1714.15
182.12	1662.95
182.34	1599.46
182.56	1732.58
182.78	1738.73
183.00	1662.95
183.22	1794.02
183.44	1603.56
183.66	1859.56
183.89	1845.22
184.11	1650.66
184.33	1671.14
184.55	1720.29
184.77	1695.72
184.99	1746.92
185.21	1681.38
185.43	1918.95
185.65	1669.09
185.87	1685.48
186.10	1755.11
186.32	1828.84
186.54	1763.30
186.76	1669.09
186.98	1753.06
187.20	1722.34
187.42	1677.29
187.64	1785.83
187.86	1689.57
188.08	1746.92
188.30	1611.75
188.52	1679.33
188.75	1767.40
188.97	1779.68
189.19	1648.61
189.41	1681.38
189.63	1720.29
189.85	1656.81
190.07	1593.32
190.29	1591.27
190.51	1765.35
190.73	1691.62
190.95	1771.49
191.17	1773.54
191.39	1613.80
191.61	1660.90
191.84	1665.00
192.06	1812.45
192.28	1660.90
192.50	1894.37
192.72	1753.06
192.94	1775.59
193.16	1794.02
193.38	1716.20
193.60	1611.75
193.82	1667.05
194.04	1769.44
194.26	1740.77
194.48	1734.63
194.70	1695.72
194.92	1699.81
195.14	1667.05
195.36	1636.33
195.58	1708.01
195.80	1730.53
196.02	1654.76
196.24	1742.82
196.46	1691.62
196.69	1720.29
196.91	1763.30
197.13	1673.19
197.35	1660.90
197.57	1789.92
197.79	1763.30
198.01	1681.38
198.23	1738.73
198.45	1705.96
198.67	1607.66
198.89	1705.96
199.11	1603.56
199.33	1654.76
199.55	1572.84
199.77	1673.19
199.99	1746.92
200.21	1652.71
200.43	1697.77
200.65	1599.46
200.87	1621.99
201.09	1753.06
201.31	1613.80
201.53	1712.10
201.75	1724.39
201.97	1714.15
202.19	1718.25
202.41	1722.34
202.63	1755.11
202.85	1769.44
203.07	1726.44
203.29	1570.79
203.51	1679.33
203.73	1640.42
203.95	1853.41
204.17	1779.68
204.39	1708.01
204.61	1734.63
204.83	1644.52
205.05	1789.92
205.27	1810.40
205.49	1763.30
205.71	1695.72
205.93	1658.85
206.15	1748.97
206.37	1665.00
206.59	1734.63
206.81	1636.33
207.03	1634.28
207.25	1587.18
207.47	1767.40
207.69	1656.81
207.91	1738.73
208.13	1773.54
208.34	1617.90
208.56	1638.38
208.78	1716.20
209.00	1685.48
209.22	1714.15
209.44	1712.10
209.66	1669.09
209.88	1693.67
210.10	1722.34
210.32	1683.43
210.54	1742.82
210.76	1628.14
210.98	1804.26
211.20	1652.71
211.42	1755.11
211.64	1810.40
211.86	1687.53
212.08	1716.20
212.30	1691.62
212.52	1695.72
212.74	1708.01
212.96	1718.25
213.17	1738.73
213.39	1675.24
213.61	1771.49
213.83	1710.05
214.05	1722.34
214.27	1818.60
214.49	1671.14
214.71	1697.77
214.93	1744.87
215.15	1759.21
215.37	1824.74
215.59	1685.48
215.81	1677.29
216.03	1765.35
216.24	1691.62
216.46	1683.43
216.68	1720.29
216.90	1755.11
217.12	1783.78
217.34	1691.62
217.56	1691.62
217.78	1763.30
218.00	1718.25
218.22	1654.76
218.44	1665.00
218.66	1726.44
218.87	1753.06
219.09	1736.68
219.31	1683.43
219.53	1771.49
219.75	1734.63
219.97	1722.34
220.19	1746.92
220.41	1740.77
220.63	1804.26
220.85	1800.16
221.06	1699.81
221.28	1755.11
221.50	1687.53
221.72	1742.82
221.94	1693.67
222.16	1648.61
222.38	1757.16
222.60	1763.30
222.82	1703.91
223.03	1736.68
223.25	1669.09
223.47	1748.97
223.69	1853.41
223.91	1779.68
224.13	1705.96
224.35	1693.67
224.57	1771.49
224.78	1718.25
225.00	1714.15
225.22	1634.28
225.44	1681.38
225.66	1699.81
225.88	1667.05
226.10	1755.11
226.32	1667.05
226.53	1892.32
226.75	1705.96
226.97	1771.49
227.19	1759.21
227.41	1656.81
227.63	1675.24
227.85	1646.57
228.06	1701.86
228.28	1728.49
228.50	1765.35
228.72	1673.19
228.94	1763.30
229.16	1595.37
229.37	1675.24
229.59	1628.14
229.81	1761.25
230.03	1671.14
230.25	1632.23
230.47	1644.52
230.69	1632.23
230.90	1728.49
231.12	1697.77
231.34	1775.59
231.56	1834.98
231.78	1619.94
232.00	1744.87
232.21	1732.58
232.43	1703.91
232.65	1624.04
232.87	1644.52
233.09	1646.57
233.30	1669.09
233.52	1796.07
233.74	1689.57
233.96	1689.57
234.18	1746.92
234.40	1669.09
234.61	1818.60
234.83	1615.85
235.05	1628.14
235.27	1855.46
235.49	1812.45
235.70	1683.43
235.92	1798.12
236.14	1763.30
236.36	1890.28
236.58	1601.51
236.79	1808.36
237.01	1751.01
237.23	1636.33
237.45	1843.17
237.67	1613.80
237.88	1722.34
238.10	1796.07
238.32	1736.68
238.54	1619.94
238.76	1691.62
238.97	1613.80
239.19	1710.05
239.41	1695.72
239.63	1787.88
239.85	1683.43
240.06	1724.39
240.28	1759.21
240.50	1761.25
240.72	1734.63
240.93	1695.72
241.15	1759.21
241.37	1617.90
241.59	1804.26
241.81	1634.28
242.02	1636.33
242.24	1718.25
242.46	1701.86
242.68	1687.53
242.89	1744.87
243.11	1767.40
243.33	1732.58
243.55	1714.15
243.76	1837.03
243.98	1613.80
244.20	1689.57
244.42	1648.61
244.64	1720.29
244.85	1642.47
245.07	1587.18
245.29	1691.62
245.51	1697.77
245.72	1656.81
245.94	1724.39
246.16	1685.48
246.38	1814.50
246.59	1677.29
246.81	1671.14
247.03	1679.33
247.24	1611.75
247.46	1665.00
247.68	1757.16
247.90	1724.39
248.11	1669.09
248.33	1757.16
248.55	1671.14
248.77	1748.97
248.98	1746.92
249.20	1839.08
249.42	1681.38
249.64	1691.62
249.85	1716.20
250.07	1619.94
250.29	1763.30
250.50	1746.92
250.72	1628.14
250.94	1742.82
251.16	1761.25
251.37	1753.06
251.59	1675.24
251.81	1736.68
252.02	1767.40
252.24	1581.03
252.46	1751.01
252.68	1683.43
252.89	1632.23
253.11	1665.00
253.33	1804.26
253.54	1755.11
253.76	1640.42
253.98	1746.92
254.20	1687.53
254.41	1632.23
254.63	1654.76
254.85	1671.14
255.06	1669.09
255.28	1712.10
255.50	1669.09
255.71	1656.81
255.93	1673.19
256.15	1710.05
256.36	1609.70
256.58	1685.48
256.80	1681.38
257.02	1714.15
257.23	1697.77
257.45	1693.67
257.67	1814.50
257.88	1636.33
258.10	1779.68
258.32	1804.26
258.53	1675.24
258.75	1802.21
258.97	1662.95
259.18	1665.00
259.40	1730.53
259.62	1808.36
259.83	1828.84
260.05	1683.43
260.27	1976.29
260.48	1730.53
260.70	1652.71
260.92	1726.44
261.13	1755.11
261.35	1634.28
261.57	1744.87
261.78	1603.56
262.00	1642.47
262.22	1734.63
262.43	1611.75
262.65	1718.25
262.86	1677.29
263.08	1804.26
263.30	1734.63
263.51	1525.74
263.73	1703.91
263.95	1753.06
264.16	1677.29
264.38	1685.48
264.60	1714.15
264.81	1708.01
265.03	1791.97
265.25	1691.62
265.46	1753.06
265.68	1791.97
265.89	1746.92
266.11	1615.85
266.33	1724.39
266.54	1759.21
266.76	1701.86
266.98	1654.76
267.19	1861.60
267.41	1839.08
267.62	1710.05
267.84	1624.04
268.06	1824.74
268.27	1775.59
268.49	1775.59
268.70	1734.63
268.92	1775.59
269.14	1677.29
269.35	1632.23
269.57	1759.21
269.79	1779.68
270.00	1701.86
270.22	1808.36
270.43	1687.53
270.65	1617.90
270.87	1781.73
271.08	1708.01
271.30	1767.40
271.51	1689.57
271.73	1812.45
271.95	1744.87
272.16	1726.44
272.38	1775.59
272.59	1669.09
272.81	1742.82
273.02	1726.44
273.24	1685.48
273.46	1791.97
273.67	1660.90
273.89	1693.67
274.10	1638.38
274.32	1808.36
274.54	1708.01
274.75	1765.35
274.97	1689.57
275.18	1732.58
275.40	1697.77
275.61	1689.57
275.83	1765.35
276.05	1726.44
276.26	1757.16
276.48	1726.44
276.69	1634.28
276.91	1660.90
277.12	1771.49
277.34	1720.29
277.55	1771.49
277.77	1716.20
277.99	1607.66
278.20	1675.24
278.42	1654.76
278.63	1619.94
278.85	1656.81
279.06	1615.85
279.28	1726.44
279.49	1726.44
279.71	1751.01
279.93	1781.73
280.14	1771.49
280.36	1650.66
280.57	1806.31
280.79	1771.49
281.00	1697.77
281.22	1699.81
281.43	1742.82
281.65	1554.41
281.86	1640.42
282.08	1701.86
282.29	1820.64
282.51	1665.00
282.73	1722.34
282.94	1607.66
283.16	1785.83
283.37	1726.44
283.59	1736.68
283.80	1716.20
284.02	1628.14
284.23	1693.67
284.45	1732.58
284.66	1697.77
284.88	1724.39
285.09	1732.58
285.31	1710.05
285.52	1736.68
285.74	1675.24
285.95	1800.16
286.17	1730.53
286.38	1730.53
286.60	1724.39
286.81	1628.14
287.03	1685.48
287.24	1738.73
287.46	1738.73
287.67	1718.25
287.89	1800.16
288.10	1712.10
288.32	1718.25
288.53	1753.06
288.75	1718.25
288.96	1732.58
289.18	1665.00
289.39	1746.92
289.61	1742.82
289.82	1781.73
290.04	1828.84
290.25	1591.27
290.47	1718.25
290.68	1638.38
290.90	1771.49
291.11	1628.14
291.33	1710.05
291.54	1677.29
291.76	1646.57
291.97	1783.78
292.18	1648.61
292.40	1652.71
292.61	1652.71
292.83	1853.41
293.04	1712.10
293.26	1742.82
293.47	1710.05
293.69	1648.61
293.90	1697.77
294.12	1800.16
294.33	1763.30
294.55	1654.76
294.76	1697.77
294.97	1787.88
295.19	1867.75
295.40	1681.38
295.62	1738.73
295.83	1800.16
296.05	1712.10
296.26	1775.59
296.48	1685.48
296.69	1687.53
296.90	1710.05
297.12	1728.49
297.33	1730.53
297.55	1699.81
297.76	1726.44
297.98	1685.48
298.19	1677.29
298.41	1730.53
298.62	1638.38
298.83	1787.88
299.05	1701.86
299.26	1689.57
299.48	1683.43
299.69	1734.63
299.90	1757.16
300.12	1609.70
300.33	1796.07
300.55	1777.64
300.76	1763.30
300.98	1630.18
301.19	1773.54
301.40	1644.52
301.62	1755.11
301.83	1767.40
302.05	1816.55
302.26	1689.57
302.47	1714.15
302.69	1615.85
302.90	1705.96
303.12	1605.61
303.33	1755.11
303.54	1732.58
303.76	1693.67
303.97	1738.73
304.19	1837.03
304.40	1728.49
304.61	1689.57
304.83	1779.68
305.04	1755.11
305.26	1742.82
305.47	1671.14
305.68	1630.18
305.90	1640.42
306.11	1714.15
306.33	1732.58
306.54	1665.00
306.75	1693.67
306.97	1605.61
307.18	1650.66
307.39	1669.09
307.61	1748.97
307.82	1710.05
308.04	1718.25
308.25	1693.67
308.46	1722.34
308.68	1837.03
308.89	1724.39
309.10	1834.98
309.32	1761.25
309.53	1703.91
309.74	1736.68
309.96	1771.49
310.17	1804.26
310.39	1697.77
310.60	1708.01
310.81	1748.97
311.03	1568.74
311.24	1730.53
311.45	1687.53
311.67	1816.55
311.88	1753.06
312.09	1734.63
312.31	1691.62
312.52	1722.34
312.73	1730.53
312.95	1628.14
313.16	1603.56
313.37	1802.21
313.59	1689.57
313.80	1783.78
314.01	1730.53
314.23	1708.01
314.44	1689.57
314.65	1640.42
314.87	1746.92
315.08	1683.43
315.29	1722.34
315.51	1675.24
315.72	1658.85
315.93	1808.36
316.15	1734.63
316.36	1697.77
316.57	1736.68
316.79	1779.68
317.00	1675.24
317.21	1755.11
317.43	1595.37
317.64	1726.44
317.85	1644.52
318.07	1683.43
318.28	1751.01
318.49	1808.36
318.70	2029.54
318.92	1888.23
319.13	1857.51
319.34	1914.85
319.56	1777.64
319.77	1837.03
319.98	1773.54
320.20	1832.93
320.41	1755.11
320.62	1777.64
320.83	1624.04
321.05	1853.41
321.26	1742.82
321.47	1736.68
321.69	1744.87
321.90	1640.42
322.11	1665.00
322.32	1714.15
322.54	1845.22
322.75	1613.80
322.96	1771.49
323.18	1619.94
323.39	1535.98
323.60	1638.38
323.81	1751.01
324.03	1697.77
324.24	1708.01
324.45	1757.16
324.66	1771.49
324.88	1748.97
325.09	1845.22
325.30	1728.49
325.52	1755.11
325.73	1691.62
325.94	1699.81
326.15	1621.99
326.37	1736.68
326.58	1755.11
326.79	1783.78
327.00	1646.57
327.22	1771.49
327.43	1689.57
327.64	1597.42
327.85	1642.47
328.07	1628.14
328.28	1775.59
328.49	1687.53
328.70	1722.34
328.92	1751.01
329.13	1695.72
329.34	1742.82
329.55	1763.30
329.76	1808.36
329.98	1662.95
330.19	1798.12
330.40	1771.49
330.61	1726.44
330.83	1869.80
331.04	1665.00
331.25	1748.97
331.46	1705.96
331.68	1607.66
331.89	1832.93
332.10	1644.52
332.31	1597.42
332.52	1751.01
332.74	1802.21
332.95	1603.56
333.16	1662.95
333.37	1722.34
333.58	1685.48
333.80	1720.29
334.01	1566.70
334.22	1720.29
334.43	1683.43
334.64	1591.27
334.86	1681.38
335.07	1626.09
335.28	1783.78
335.49	1593.32
335.70	1728.49
335.92	1722.34
336.13	1828.84
336.34	1689.57
336.55	1669.09
336.76	1710.05
336.98	1544.17
337.19	1748.97
337.40	1863.65
337.61	1765.35
337.82	1671.14
338.04	1816.55
338.25	1640.42
338.46	1679.33
338.67	1742.82
338.88	1693.67
339.09	1761.25
339.31	1617.90
339.52	1665.00
339.73	1669.09
339.94	1671.14
340.15	1673.19
340.36	1640.42
340.58	1677.29
340.79	1644.52
341.00	1656.81
341.21	1574.89
341.42	1798.12
341.63	1708.01
341.85	1701.86
342.06	1701.86
342.27	1712.10
342.48	1724.39
342.69	1636.33
342.90	1736.68
343.12	1718.25
343.33	1689.57
343.54	1748.97
343.75	1794.02
343.96	1734.63
344.17	1648.61
344.38	1708.01
344.60	1662.95
344.81	1650.66
345.02	1650.66
345.23	1775.59
345.44	1857.51
345.65	1800.16
345.86	1738.73
346.07	1685.48
346.29	1695.72
346.50	1730.53
346.71	1755.11
346.92	1765.35
347.13	1839.08
347.34	1724.39
347.55	1673.19
347.76	1656.81
347.98	1652.71
348.19	1644.52
348.40	1796.07
348.61	1650.66
348.82	1787.88
349.03	1773.54
349.24	1691.62
349.45	1841.12
349.66	1599.46
349.88	1728.49
350.09	1726.44
350.30	1730.53
350.51	1722.34
350.72	1791.97
350.93	1779.68
351.14	1640.42
351.35	1775.59
351.56	1722.34
351.77	1693.67
351.99	1755.11
352.20	1679.33
352.41	1789.92
352.62	1669.09
352.83	1646.57
353.04	1720.29
353.25	1689.57
353.46	1716.20
353.67	1746.92
353.88	1630.18
354.09	1705.96
354.30	1742.82
354.52	1824.74
354.73	1687.53
354.94	1724.39
355.15	1751.01
355.36	1816.55
355.57	1576.94
355.78	1742.82
355.99	1683.43
356.20	1779.68
356.41	1771.49
356.62	1701.86
356.83	1658.85
357.04	1787.88
357.25	1634.28
357.46	1746.92
357.68	1671.14
357.89	1671.14
358.10	1708.01
358.31	1734.63
358.52	1636.33
358.73	1681.38
358.94	1734.63
359.15	1718.25
359.36	1765.35
359.57	1759.21
359.78	1675.24
359.99	1738.73
360.20	1591.27
360.41	1673.19
360.62	1730.53
360.83	1732.58
361.04	1722.34
361.25	1728.49
361.46	1806.31
361.67	1769.44
361.88	1771.49
362.09	1806.31
362.30	1724.39
362.51	1591.27
362.72	1673.19
362.93	1791.97
363.14	1720.29
363.35	1693.67
363.56	1656.81
363.78	1734.63
363.99	1701.86
364.20	1669.09
364.41	1759.21
364.62	1800.16
364.83	1712.10
365.04	1658.85
365.25	1685.48
365.46	1789.92
365.67	1720.29
365.88	1699.81
366.09	1724.39
366.30	1712.10
366.51	1720.29
366.72	1665.00
366.93	1732.58
367.14	1740.77
367.35	1759.21
367.56	1771.49
367.77	1751.01
367.98	1669.09
368.18	1708.01
368.39	1699.81
368.60	1689.57
368.81	1755.11
369.02	1826.79
369.23	1689.57
369.44	1673.19
369.65	1646.57
369.86	1789.92
370.07	1814.50
370.28	1677.29
370.49	1628.14
370.70	1806.31
370.91	1640.42
371.12	1638.38
371.33	1765.35
371.54	1685.48
371.75	1791.97
371.96	1607.66
372.17	1755.11
372.38	1617.90
372.59	1806.31
372.80	1693.67
373.01	1660.90
373.22	1742.82
373.43	1777.64
373.64	1667.05
373.85	1773.54
374.06	1818.60
374.26	1671.14
374.47	1759.21
374.68	1732.58
374.89	1665.00
375.10	1697.77
375.31	1744.87
375.52	1742.82
375.73	1738.73
375.94	1669.09
376.15	1726.44
376.36	1738.73
376.57	1697.77
376.78	1669.09
376.99	1687.53
377.20	1834.98
377.40	1677.29
377.61	1875.94
377.82	1691.62
378.03	1834.98
378.24	1734.63
378.45	1740.77
378.66	1740.77
378.87	1650.66
379.08	1726.44
379.29	1636.33
379.50	1746.92
379.71	1718.25
379.91	1767.40
380.12	1660.90
380.33	1738.73
380.54	1675.24
380.75	1693.67
380.96	1769.44
381.17	1791.97
381.38	1685.48
381.59	1767.40
381.80	1808.36
382.00	1970.15
382.21	1800.16
382.42	1947.62
382.63	1906.66
382.84	1800.16
383.05	1828.84
383.26	1853.41
383.47	1751.01
383.68	1806.31
383.88	1789.92
384.09	1812.45
384.30	1894.37
384.51	1751.01
384.72	1708.01
384.93	1591.27
385.14	1654.76
385.35	1822.69
385.55	1701.86
385.76	1785.83
385.97	1673.19
386.18	1597.42
386.39	1701.86
386.60	1689.57
386.81	1755.11
387.02	1708.01
387.22	1695.72
387.43	1914.85
387.64	1800.16
387.85	1890.28
388.06	2195.42
388.27	4562.87
388.48	8970.10
388.68	11654.99
388.89	13610.80
389.10	14163.75
389.31	11982.67
389.52	9955.18
389.73	8519.55
389.93	7735.18
390.14	7133.08
390.35	6559.64
390.56	5951.40
390.77	5076.91
390.98	3952.58
391.18	3117.01
391.39	2408.41
391.60	2025.44
391.81	1865.70
392.02	1802.21
392.23	1873.89
392.43	1732.58
392.64	1812.45
392.85	1763.30
393.06	1740.77
393.27	1695.72
393.47	1669.09
393.68	1689.57
393.89	1632.23
394.10	1804.26
394.31	1710.05
394.52	1658.85
394.72	1701.86
394.93	1814.50
395.14	1695.72
395.35	1697.77
395.56	1740.77
395.76	1730.53
395.97	1828.84
396.18	1865.70
396.39	1898.47
396.60	2076.64
396.80	1982.43
397.01	1900.52
397.22	1867.75
397.43	1898.47
397.64	1730.53
397.84	1785.83
398.05	1894.37
398.26	1771.49
398.47	1787.88
398.67	1830.88
398.88	1736.68
399.09	1746.92
399.30	1767.40
399.51	1839.08
399.71	1626.09
399.92	1701.86
400.13	1761.25
400.34	1681.38
400.54	1701.86
400.75	1812.45
400.96	1753.06
401.17	1781.73
401.37	1693.67
401.58	1683.43
401.79	1673.19
402.00	1867.75
402.21	2125.79
402.41	2115.55
402.62	2084.83
402.83	2168.80
403.04	2068.45
403.24	2160.61
403.45	1933.28
403.66	1955.81
403.87	1906.66
404.07	1914.85
404.28	2029.54
404.49	1908.71
404.70	1810.40
404.90	1839.08
405.11	1791.97
405.32	1791.97
405.52	1679.33
405.73	1710.05
405.94	1685.48
406.15	1714.15
406.35	1710.05
406.56	1746.92
406.77	1757.16
406.98	1699.81
407.18	1660.90
407.39	1785.83
407.60	1708.01
407.80	1728.49
408.01	1640.42
408.22	1701.86
408.43	1658.85
408.63	1824.74
408.84	1765.35
409.05	1708.01
409.25	1697.77
409.46	1681.38
409.67	1703.91
409.88	1751.01
410.08	1748.97
410.29	1658.85
410.50	1755.11
410.70	1728.49
410.91	1685.48
411.12	1779.68
411.32	1662.95
411.53	1751.01
411.74	1853.41
411.95	1830.88
412.15	1828.84
412.36	1787.88
412.57	1746.92
412.77	1867.75
412.98	1667.05
413.19	1669.09
413.39	1761.25
413.60	1824.74
413.81	1777.64
414.01	1691.62
414.22	1761.25
414.43	1755.11
414.63	1722.34
414.84	1740.77
415.05	1712.10
415.25	1648.61
415.46	1662.95
415.67	1697.77
415.87	1791.97
416.08	1660.90
416.29	1748.97
416.49	1773.54
416.70	1691.62
416.91	1677.29
417.11	1675.24
417.32	1787.88
417.53	1751.01
417.73	1734.63
417.94	1746.92
418.15	1730.53
418.35	1781.73
418.56	1738.73
418.77	1834.98
418.97	1767.40
419.18	1777.64
419.38	1646.57
419.59	1697.77
419.80	1816.55
420.00	1652.71
420.21	1720.29
420.42	1775.59
420.62	1724.39
420.83	1667.05
421.04	1683.43
421.24	1728.49
421.45	1761.25
421.65	1783.78
421.86	1722.34
422.07	1738.73
422.27	1665.00
422.48	1665.00
422.69	1650.66
422.89	1687.53
423.10	1660.90
423.30	1662.95
423.51	1689.57
423.72	1687.53
423.92	1673.19
424.13	1648.61
424.33	1634.28
424.54	1812.45
424.75	1695.72
424.95	1857.51
425.16	1681.38
425.36	1683.43
425.57	1761.25
425.78	1697.77
425.98	1804.26
426.19	1683.43
426.39	1665.00
426.60	1753.06
426.81	1791.97
427.01	1734.63
427.22	1656.81
427.42	1638.38
427.63	1708.01
427.83	1748.97
428.04	1789.92
428.25	1761.25
428.45	1828.84
428.66	1738.73
428.86	1740.77
429.07	1683.43
429.28	1705.96
429.48	1642.47
429.69	1650.66
429.89	1777.64
430.10	1658.85
430.30	1730.53
430.51	1775.59
430.71	1658.85
430.92	1746.92
431.13	1677.29
431.33	1755.11
431.54	1718.25
431.74	1847.27
431.95	1830.88
432.15	1613.80
432.36	1771.49
432.56	1779.68
432.77	1859.56
432.98	1886.18
433.18	1687.53
433.39	1697.77
433.59	1753.06
433.80	1837.03
434.00	1818.60
434.21	1671.14
434.41	1746.92
434.62	1832.93
434.82	1671.14
435.03	1656.81
435.23	1675.24
435.44	1621.99
435.64	1718.25
435.85	1714.15
436.06	1798.12
436.26	1701.86
436.47	1779.68
436.67	1691.62
436.88	1617.90
437.08	1773.54
437.29	1822.69
437.49	1744.87
437.70	1767.40
437.90	1695.72
438.11	1884.13
438.31	1781.73
438.52	1837.03
438.72	1949.67
438.93	2041.82
439.13	1796.07
439.34	1843.17
439.54	1730.53
439.75	1794.02
439.95	1830.88
440.16	1714.15
440.36	1783.78
440.57	1753.06
440.77	1806.31
440.98	1710.05
441.18	1695.72
441.39	1695.72
441.59	1671.14
441.80	1791.97
442.00	1626.09
442.21	1748.97
442.41	1677.29
442.62	1751.01
442.82	1662.95
443.02	1757.16
443.23	1816.55
443.43	1730.53
443.64	1839.08
443.84	1753.06
444.05	1828.84
444.25	1738.73
444.46	1763.30
444.66	1703.91
444.87	1800.16
445.07	1591.27
445.28	1726.44
445.48	1789.92
445.69	1705.96
445.89	1857.51
446.09	1826.79
446.30	1935.33
446.50	2594.78
446.71	4163.52
446.91	5072.82
447.12	5949.35
447.32	6043.56
447.53	5521.32
447.73	4417.47
447.93	4061.12
448.14	3731.40
448.34	3461.07
448.55	3149.78
448.75	3106.77
448.96	2936.79
449.16	2621.40
449.36	2416.60
449.57	2205.66
449.77	1966.05
449.98	1808.36
450.18	1826.79
450.39	1820.64
450.59	1806.31
450.79	1714.15
451.00	1658.85
451.20	1796.07
451.41	1800.16
451.61	1767.40
451.81	1732.58
452.02	1740.77
452.22	1771.49
452.43	1697.77
452.63	1800.16
