SpectraSuite Data File
++++++++++++++++++++++++++++++++++++
Date: Wed May 04 18:43:57 CEST 2016
User: root
Dark Spectrum Present: No
Reference Spectrum Present: No
Number of Sampled Component Spectra: 1
Spectrometers: USB4C02835
Integration Time (usec): 100000 (USB4C02835)
Spectra Averaged: 1 (USB4C02835)
Boxcar Smoothing: 0 (USB4C02835)
Correct for Electrical Dark: No (USB4C02835)
Strobe/Lamp Enabled: No (USB4C02835)
Correct for Detector Non-linearity: No (USB4C02835)
Correct for Stray Light: No (USB4C02835)
Number of Pixels in Processed Spectrum: 3648
>>>>>Begin Processed Spectral Data<<<<<
177.47	1474.54
177.69	1474.54
177.91	1474.54
178.13	1462.25
178.36	1474.54
178.58	1605.61
178.80	1730.53
179.02	1615.85
179.24	1638.38
179.46	1746.92
179.68	1722.34
179.90	1691.62
180.13	1755.11
180.35	1693.67
180.57	1650.66
180.79	1728.49
181.01	1714.15
181.23	1773.54
181.45	1781.73
181.67	1755.11
181.90	1748.97
182.12	1644.52
182.34	1652.71
182.56	1695.72
182.78	1669.09
183.00	1687.53
183.22	1685.48
183.44	1681.38
183.66	1851.36
183.89	1837.03
184.11	1701.86
184.33	1759.21
184.55	1757.16
184.77	1806.31
184.99	1767.40
185.21	1705.96
185.43	1816.55
185.65	1656.81
185.87	1718.25
186.10	1863.65
186.32	1845.22
186.54	1746.92
186.76	1757.16
186.98	1820.64
187.20	1738.73
187.42	1617.90
187.64	1669.09
187.86	1744.87
188.08	1763.30
188.30	1671.14
188.52	1757.16
188.75	1769.44
188.97	1839.08
189.19	1667.05
189.41	1730.53
189.63	1849.32
189.85	1697.77
190.07	1654.76
190.29	1685.48
190.51	1689.57
190.73	1642.47
190.95	1826.79
191.17	1751.01
191.39	1654.76
191.61	1703.91
191.84	1708.01
192.06	1665.00
192.28	1593.32
192.50	1929.19
192.72	1734.63
192.94	1712.10
193.16	1765.35
193.38	1779.68
193.60	1589.22
193.82	1689.57
194.04	1775.59
194.26	1757.16
194.48	1701.86
194.70	1697.77
194.92	1734.63
195.14	1730.53
195.36	1648.61
195.58	1624.04
195.80	1683.43
196.02	1665.00
196.24	1712.10
196.46	1718.25
196.69	1665.00
196.91	1861.60
197.13	1628.14
197.35	1712.10
197.57	1775.59
197.79	1822.69
198.01	1734.63
198.23	1771.49
198.45	1726.44
198.67	1607.66
198.89	1728.49
199.11	1730.53
199.33	1640.42
199.55	1615.85
199.77	1744.87
199.99	1759.21
200.21	1681.38
200.43	1701.86
200.65	1632.23
200.87	1593.32
201.09	1648.61
201.31	1671.14
201.53	1765.35
201.75	1703.91
201.97	1730.53
202.19	1689.57
202.41	1767.40
202.63	1794.02
202.85	1687.53
203.07	1748.97
203.29	1736.68
203.51	1613.80
203.73	1675.24
203.95	1818.60
204.17	1734.63
204.39	1673.19
204.61	1665.00
204.83	1701.86
205.05	1740.77
205.27	1742.82
205.49	1863.65
205.71	1693.67
205.93	1574.89
206.15	1621.99
206.37	1650.66
206.59	1687.53
206.81	1697.77
207.03	1665.00
207.25	1634.28
207.47	1701.86
207.69	1734.63
207.91	1830.88
208.13	1808.36
208.34	1662.95
208.56	1632.23
208.78	1724.39
209.00	1652.71
209.22	1775.59
209.44	1673.19
209.66	1734.63
209.88	1724.39
210.10	1636.33
210.32	1679.33
210.54	1779.68
210.76	1685.48
210.98	1724.39
211.20	1570.79
211.42	1757.16
211.64	1751.01
211.86	1652.71
212.08	1732.58
212.30	1726.44
212.52	1753.06
212.74	1753.06
212.96	1720.29
213.17	1777.64
213.39	1705.96
213.61	1767.40
213.83	1705.96
214.05	1669.09
214.27	1669.09
214.49	1675.24
214.71	1716.20
214.93	1779.68
215.15	1665.00
215.37	1777.64
215.59	1607.66
215.81	1783.78
216.03	1755.11
216.24	1736.68
216.46	1757.16
216.68	1708.01
216.90	1761.25
217.12	1732.58
217.34	1728.49
217.56	1783.78
217.78	1834.98
218.00	1705.96
218.22	1722.34
218.44	1677.29
218.66	1673.19
218.87	1787.88
219.09	1693.67
219.31	1742.82
219.53	1775.59
219.75	1742.82
219.97	1726.44
220.19	1675.24
220.41	1748.97
220.63	1791.97
220.85	1751.01
221.06	1722.34
221.28	1740.77
221.50	1734.63
221.72	1714.15
221.94	1742.82
222.16	1714.15
222.38	1796.07
222.60	1732.58
222.82	1740.77
223.03	1763.30
223.25	1695.72
223.47	1675.24
223.69	1773.54
223.91	1701.86
224.13	1746.92
224.35	1685.48
224.57	1703.91
224.78	1732.58
225.00	1673.19
225.22	1744.87
225.44	1642.47
225.66	1720.29
225.88	1734.63
226.10	1843.17
226.32	1767.40
226.53	1746.92
226.75	1665.00
226.97	1665.00
227.19	1714.15
227.41	1634.28
227.63	1703.91
227.85	1619.94
228.06	1687.53
228.28	1667.05
228.50	1738.73
228.72	1646.57
228.94	1673.19
229.16	1667.05
229.37	1568.74
229.59	1652.71
229.81	1753.06
230.03	1638.38
230.25	1673.19
230.47	1650.66
230.69	1671.14
230.90	1802.21
231.12	1673.19
231.34	1728.49
231.56	1699.81
231.78	1607.66
232.00	1677.29
232.21	1705.96
232.43	1646.57
232.65	1597.42
232.87	1693.67
233.09	1636.33
233.30	1671.14
233.52	1742.82
233.74	1693.67
233.96	1726.44
234.18	1738.73
234.40	1732.58
234.61	1880.04
234.83	1646.57
235.05	1685.48
235.27	1798.12
235.49	1767.40
235.70	1654.76
235.92	1773.54
236.14	1746.92
236.36	1877.99
236.58	1755.11
236.79	1751.01
237.01	1693.67
237.23	1712.10
237.45	1800.16
237.67	1703.91
237.88	1708.01
238.10	1716.20
238.32	1624.04
238.54	1697.77
238.76	1695.72
238.97	1656.81
239.19	1675.24
239.41	1744.87
239.63	1742.82
239.85	1679.33
240.06	1685.48
240.28	1652.71
240.50	1759.21
240.72	1726.44
240.93	1734.63
241.15	1783.78
241.37	1671.14
241.59	1845.22
241.81	1742.82
242.02	1691.62
242.24	1697.77
242.46	1751.01
242.68	1699.81
242.89	1630.18
243.11	1791.97
243.33	1703.91
243.55	1740.77
243.76	1744.87
243.98	1779.68
244.20	1744.87
244.42	1705.96
244.64	1716.20
244.85	1693.67
245.07	1699.81
245.29	1796.07
245.51	1656.81
245.72	1767.40
245.94	1757.16
246.16	1714.15
246.38	1763.30
246.59	1693.67
246.81	1677.29
247.03	1693.67
247.24	1621.99
247.46	1554.41
247.68	1738.73
247.90	1691.62
248.11	1669.09
248.33	1761.25
248.55	1677.29
248.77	1656.81
248.98	1738.73
249.20	1744.87
249.42	1726.44
249.64	1779.68
249.85	1800.16
250.07	1681.38
250.29	1720.29
250.50	1693.67
250.72	1660.90
250.94	1738.73
251.16	1812.45
251.37	1687.53
251.59	1716.20
251.81	1714.15
252.02	1722.34
252.24	1648.61
252.46	1662.95
252.68	1640.42
252.89	1689.57
253.11	1550.31
253.33	1773.54
253.54	1890.28
253.76	1587.18
253.98	1658.85
254.20	1654.76
254.41	1595.37
254.63	1665.00
254.85	1638.38
255.06	1701.86
255.28	1671.14
255.50	1669.09
255.71	1642.47
255.93	1572.84
256.15	1705.96
256.36	1769.44
256.58	1648.61
256.80	1746.92
257.02	1744.87
257.23	1679.33
257.45	1660.90
257.67	1744.87
257.88	1646.57
258.10	1771.49
258.32	1724.39
258.53	1730.53
258.75	1791.97
258.97	1628.14
259.18	1703.91
259.40	1718.25
259.62	1763.30
259.83	1761.25
260.05	1775.59
260.27	2068.45
260.48	1804.26
260.70	1681.38
260.92	1710.05
261.13	1751.01
261.35	1701.86
261.57	1718.25
261.78	1634.28
262.00	1628.14
262.22	1744.87
262.43	1593.32
262.65	1656.81
262.86	1679.33
263.08	1730.53
263.30	1722.34
263.51	1648.61
263.73	1718.25
263.95	1722.34
264.16	1632.23
264.38	1720.29
264.60	1665.00
264.81	1718.25
265.03	1740.77
265.25	1714.15
265.46	1695.72
265.68	1767.40
265.89	1751.01
266.11	1570.79
266.33	1730.53
266.54	1789.92
266.76	1681.38
266.98	1738.73
267.19	1771.49
267.41	1759.21
267.62	1695.72
267.84	1644.52
268.06	1720.29
268.27	1763.30
268.49	1796.07
268.70	1798.12
268.92	1689.57
269.14	1642.47
269.35	1583.08
269.57	1710.05
269.79	1677.29
270.00	1628.14
270.22	1863.65
270.43	1714.15
270.65	1593.32
270.87	1712.10
271.08	1753.06
271.30	1744.87
271.51	1746.92
271.73	1736.68
271.95	1736.68
272.16	1744.87
272.38	1722.34
272.59	1650.66
272.81	1677.29
273.02	1718.25
273.24	1712.10
273.46	1847.27
273.67	1607.66
273.89	1603.56
274.10	1665.00
274.32	1767.40
274.54	1755.11
274.75	1726.44
274.97	1720.29
275.18	1716.20
275.40	1781.73
275.61	1771.49
275.83	1669.09
276.05	1679.33
276.26	1761.25
276.48	1714.15
276.69	1611.75
276.91	1718.25
277.12	1773.54
277.34	1841.12
277.55	1746.92
277.77	1667.05
277.99	1779.68
278.20	1683.43
278.42	1636.33
278.63	1568.74
278.85	1607.66
279.06	1542.12
279.28	1724.39
279.49	1767.40
279.71	1695.72
279.93	1621.99
280.14	1701.86
280.36	1628.14
280.57	1650.66
280.79	1742.82
281.00	1654.76
281.22	1748.97
281.43	1759.21
281.65	1591.27
281.86	1669.09
282.08	1742.82
282.29	1732.58
282.51	1660.90
282.73	1613.80
282.94	1583.08
283.16	1726.44
283.37	1783.78
283.59	1705.96
283.80	1687.53
284.02	1730.53
284.23	1730.53
284.45	1699.81
284.66	1689.57
284.88	1665.00
285.09	1765.35
285.31	1730.53
285.52	1705.96
285.74	1583.08
285.95	1787.88
286.17	1755.11
286.38	1748.97
286.60	1720.29
286.81	1710.05
287.03	1718.25
287.24	1621.99
287.46	1689.57
287.67	1736.68
287.89	1796.07
288.10	1669.09
288.32	1693.67
288.53	1753.06
288.75	1724.39
288.96	1716.20
289.18	1722.34
289.39	1646.57
289.61	1738.73
289.82	1800.16
290.04	1861.60
290.25	1671.14
290.47	1660.90
290.68	1720.29
290.90	1714.15
291.11	1597.42
291.33	1740.77
291.54	1619.94
291.76	1671.14
291.97	1705.96
292.18	1796.07
292.40	1599.46
292.61	1648.61
292.83	1800.16
293.04	1738.73
293.26	1669.09
293.47	1722.34
293.69	1679.33
293.90	1699.81
294.12	1734.63
294.33	1757.16
294.55	1705.96
294.76	1712.10
294.97	1800.16
295.19	1800.16
295.40	1646.57
295.62	1730.53
295.83	1767.40
296.05	1740.77
296.26	1771.49
296.48	1683.43
296.69	1691.62
296.90	1734.63
297.12	1783.78
297.33	1726.44
297.55	1681.38
297.76	1732.58
297.98	1751.01
298.19	1779.68
298.41	1652.71
298.62	1691.62
298.83	1802.21
299.05	1718.25
299.26	1693.67
299.48	1607.66
299.69	1728.49
299.90	1748.97
300.12	1634.28
300.33	1697.77
300.55	1726.44
300.76	1716.20
300.98	1632.23
301.19	1724.39
301.40	1615.85
301.62	1734.63
301.83	1789.92
302.05	1669.09
302.26	1654.76
302.47	1796.07
302.69	1615.85
302.90	1765.35
303.12	1578.98
303.33	1679.33
303.54	1925.09
303.76	1673.19
303.97	1779.68
304.19	1785.83
304.40	1675.24
304.61	1779.68
304.83	1806.31
305.04	1828.84
305.26	1769.44
305.47	1720.29
305.68	1693.67
305.90	1646.57
306.11	1728.49
306.33	1671.14
306.54	1619.94
306.75	1628.14
306.97	1634.28
307.18	1626.09
307.39	1646.57
307.61	1720.29
307.82	1705.96
308.04	1777.64
308.25	1730.53
308.46	1765.35
308.68	1679.33
308.89	1751.01
309.10	1746.92
309.32	1779.68
309.53	1726.44
309.74	1796.07
309.96	1685.48
310.17	1851.36
310.39	1660.90
310.60	1724.39
310.81	1734.63
311.03	1648.61
311.24	1783.78
311.45	1734.63
311.67	1820.64
311.88	1724.39
312.09	1738.73
312.31	1665.00
312.52	1714.15
312.73	1732.58
312.95	1599.46
313.16	1646.57
313.37	1779.68
313.59	1804.26
313.80	1732.58
314.01	1728.49
314.23	1705.96
314.44	1705.96
314.65	1669.09
314.87	1673.19
315.08	1722.34
315.29	1677.29
315.51	1619.94
315.72	1662.95
315.93	1742.82
316.15	1734.63
316.36	1656.81
316.57	1759.21
316.79	1779.68
317.00	1705.96
317.21	1730.53
317.43	1642.47
317.64	1746.92
317.85	1685.48
318.07	1761.25
318.28	1695.72
318.49	1937.38
318.70	1978.34
318.92	1906.66
319.13	1888.23
319.34	1912.80
319.56	1794.02
319.77	1892.32
319.98	1800.16
320.20	1830.88
320.41	1761.25
320.62	1751.01
320.83	1718.25
321.05	1843.17
321.26	1697.77
321.47	1753.06
321.69	1748.97
321.90	1615.85
322.11	1609.70
322.32	1744.87
322.54	1816.55
322.75	1665.00
322.96	1877.99
323.18	1591.27
323.39	1601.51
323.60	1667.05
323.81	1857.51
324.03	1691.62
324.24	1748.97
324.45	1701.86
324.66	1599.46
324.88	1853.41
325.09	1800.16
325.30	1695.72
325.52	1769.44
325.73	1716.20
325.94	1656.81
326.15	1636.33
326.37	1642.47
326.58	1712.10
326.79	1777.64
327.00	1689.57
327.22	1658.85
327.43	1724.39
327.64	1726.44
327.85	1660.90
328.07	1724.39
328.28	1789.92
328.49	1628.14
328.70	1681.38
328.92	1724.39
329.13	1714.15
329.34	1738.73
329.55	1751.01
329.76	1730.53
329.98	1701.86
330.19	1697.77
330.40	1677.29
330.61	1779.68
330.83	1769.44
331.04	1660.90
331.25	1685.48
331.46	1652.71
331.68	1687.53
331.89	1734.63
332.10	1714.15
332.31	1646.57
332.52	1736.68
332.74	1814.50
332.95	1642.47
333.16	1691.62
333.37	1837.03
333.58	1718.25
333.80	1771.49
334.01	1578.98
334.22	1677.29
334.43	1650.66
334.64	1705.96
334.86	1638.38
335.07	1656.81
335.28	1789.92
335.49	1601.51
335.70	1730.53
335.92	1789.92
336.13	1798.12
336.34	1722.34
336.55	1732.58
336.76	1656.81
336.98	1673.19
337.19	1665.00
337.40	1859.56
337.61	1804.26
337.82	1693.67
338.04	1808.36
338.25	1621.99
338.46	1720.29
338.67	1683.43
338.88	1673.19
339.09	1599.46
339.31	1687.53
339.52	1697.77
339.73	1685.48
339.94	1712.10
340.15	1748.97
340.36	1691.62
340.58	1738.73
340.79	1710.05
341.00	1730.53
341.21	1685.48
341.42	1869.80
341.63	1705.96
341.85	1728.49
342.06	1755.11
342.27	1658.85
342.48	1669.09
342.69	1677.29
342.90	1757.16
343.12	1785.83
343.33	1626.09
343.54	1744.87
343.75	1771.49
343.96	1624.04
344.17	1716.20
344.38	1759.21
344.60	1699.81
344.81	1665.00
345.02	1730.53
345.23	1783.78
345.44	1931.23
345.65	1705.96
345.86	1726.44
346.07	1724.39
346.29	1626.09
346.50	1755.11
346.71	1708.01
346.92	1736.68
347.13	1865.70
347.34	1689.57
347.55	1617.90
347.76	1744.87
347.98	1562.60
348.19	1703.91
348.40	1785.83
348.61	1695.72
348.82	1851.36
349.03	1785.83
349.24	1724.39
349.45	1785.83
349.66	1648.61
349.88	1644.52
350.09	1703.91
350.30	1781.73
350.51	1816.55
350.72	1718.25
350.93	1673.19
351.14	1675.24
351.35	1757.16
351.56	1708.01
351.77	1744.87
351.99	1785.83
352.20	1779.68
352.41	1761.25
352.62	1617.90
352.83	1673.19
353.04	1691.62
353.25	1642.47
353.46	1761.25
353.67	1759.21
353.88	1597.42
354.09	1712.10
354.30	1665.00
354.52	1814.50
354.73	1716.20
354.94	1640.42
355.15	1710.05
355.36	1873.89
355.57	1705.96
355.78	1755.11
355.99	1699.81
356.20	1738.73
356.41	1765.35
356.62	1697.77
356.83	1734.63
357.04	1789.92
357.25	1644.52
357.46	1773.54
357.68	1669.09
357.89	1697.77
358.10	1660.90
358.31	1679.33
358.52	1734.63
358.73	1640.42
358.94	1615.85
359.15	1730.53
359.36	1705.96
359.57	1722.34
359.78	1710.05
359.99	1804.26
360.20	1648.61
360.41	1765.35
360.62	1740.77
360.83	1667.05
361.04	1632.23
361.25	1718.25
361.46	1783.78
361.67	1769.44
361.88	1759.21
362.09	1724.39
362.30	1738.73
362.51	1642.47
362.72	1716.20
362.93	1732.58
363.14	1710.05
363.35	1734.63
363.56	1677.29
363.78	1748.97
363.99	1722.34
364.20	1683.43
364.41	1738.73
364.62	1775.59
364.83	1699.81
365.04	1730.53
365.25	1769.44
365.46	1859.56
365.67	1660.90
365.88	1667.05
366.09	1669.09
366.30	1667.05
366.51	1714.15
366.72	1626.09
366.93	1685.48
367.14	1685.48
367.35	1771.49
367.56	1691.62
367.77	1847.27
367.98	1654.76
368.18	1748.97
368.39	1791.97
368.60	1671.14
368.81	1755.11
369.02	1662.95
369.23	1656.81
369.44	1660.90
369.65	1673.19
369.86	1765.35
370.07	1789.92
370.28	1601.51
370.49	1736.68
370.70	1785.83
370.91	1669.09
371.12	1671.14
371.33	1699.81
371.54	1701.86
371.75	1736.68
371.96	1613.80
372.17	1601.51
372.38	1787.88
372.59	1847.27
372.80	1632.23
373.01	1695.72
373.22	1716.20
373.43	1722.34
373.64	1683.43
373.85	1748.97
374.06	1765.35
374.26	1724.39
374.47	1746.92
374.68	1812.45
374.89	1710.05
375.10	1685.48
375.31	1730.53
375.52	1683.43
375.73	1736.68
375.94	1652.71
376.15	1773.54
376.36	1746.92
376.57	1656.81
376.78	1722.34
376.99	1695.72
377.20	1804.26
377.40	1652.71
377.61	1783.78
377.82	1677.29
378.03	1814.50
378.24	1763.30
378.45	1736.68
378.66	1710.05
378.87	1656.81
379.08	1673.19
379.29	1636.33
379.50	1740.77
379.71	1679.33
379.91	1779.68
380.12	1708.01
380.33	1685.48
380.54	1726.44
380.75	1726.44
380.96	1683.43
381.17	1802.21
381.38	1738.73
381.59	1656.81
381.80	1695.72
382.00	1863.65
382.21	1767.40
382.42	1951.71
382.63	1847.27
382.84	1787.88
383.05	1779.68
383.26	1892.32
383.47	1728.49
383.68	1746.92
383.88	1763.30
384.09	1837.03
384.30	1822.69
384.51	1652.71
384.72	1656.81
384.93	1751.01
385.14	1716.20
385.35	1804.26
385.55	1693.67
385.76	1765.35
385.97	1720.29
386.18	1540.07
386.39	1708.01
386.60	1652.71
386.81	1808.36
387.02	1660.90
387.22	1767.40
387.43	1798.12
387.64	1853.41
387.85	1869.80
388.06	2269.15
388.27	4763.58
388.48	9209.72
388.68	11747.15
388.89	13621.04
389.10	14286.63
389.31	11843.40
389.52	9844.59
389.73	8685.44
389.93	7927.69
390.14	7258.00
390.35	6537.12
390.56	6064.04
390.77	5015.48
390.98	3889.09
391.18	2934.74
391.39	2398.17
391.60	2007.01
391.81	1931.23
392.02	1736.68
392.23	1880.04
392.43	1689.57
392.64	1832.93
392.85	1726.44
393.06	1816.55
393.27	1687.53
393.47	1691.62
393.68	1730.53
393.89	1738.73
394.10	1773.54
394.31	1609.70
394.52	1708.01
394.72	1712.10
394.93	1757.16
395.14	1667.05
395.35	1710.05
395.56	1640.42
395.76	1808.36
395.97	1808.36
396.18	1892.32
396.39	1959.91
396.60	2144.22
396.80	1886.18
397.01	1880.04
397.22	1853.41
397.43	1791.97
397.64	1794.02
397.84	1830.88
398.05	1935.33
398.26	1714.15
398.47	1779.68
398.67	1865.70
398.88	1703.91
399.09	1775.59
399.30	1665.00
399.51	1765.35
399.71	1665.00
399.92	1689.57
400.13	1748.97
400.34	1732.58
400.54	1708.01
400.75	1816.55
400.96	1730.53
401.17	1798.12
401.37	1703.91
401.58	1718.25
401.79	1748.97
402.00	1871.84
402.21	2138.08
402.41	2099.17
402.62	2136.03
402.83	2236.38
403.04	2160.61
403.24	2052.06
403.45	1832.93
403.66	2029.54
403.87	1980.39
404.07	1927.14
404.28	1914.85
404.49	1970.15
404.70	1880.04
404.90	1894.37
405.11	1751.01
405.32	1826.79
405.52	1669.09
405.73	1628.14
405.94	1703.91
406.15	1736.68
406.35	1736.68
406.56	1759.21
406.77	1759.21
406.98	1708.01
407.18	1642.47
407.39	1781.73
407.60	1677.29
407.80	1697.77
408.01	1679.33
408.22	1775.59
408.43	1699.81
408.63	1800.16
408.84	1734.63
409.05	1847.27
409.25	1636.33
409.46	1642.47
409.67	1714.15
409.88	1665.00
410.08	1740.77
410.29	1701.86
410.50	1757.16
410.70	1816.55
410.91	1697.77
411.12	1773.54
411.32	1720.29
411.53	1648.61
411.74	1800.16
411.95	1853.41
412.15	1826.79
412.36	1748.97
412.57	1720.29
412.77	1847.27
412.98	1794.02
413.19	1738.73
413.39	1755.11
413.60	1728.49
413.81	1841.12
414.01	1767.40
414.22	1765.35
414.43	1771.49
414.63	1767.40
414.84	1824.74
415.05	1744.87
415.25	1652.71
415.46	1705.96
415.67	1699.81
415.87	1777.64
416.08	1738.73
416.29	1652.71
416.49	1708.01
416.70	1718.25
416.91	1654.76
417.11	1751.01
417.32	1830.88
417.53	1736.68
417.73	1705.96
417.94	1687.53
418.15	1710.05
418.35	1748.97
418.56	1763.30
418.77	1853.41
418.97	1751.01
419.18	1738.73
419.38	1607.66
419.59	1759.21
419.80	1761.25
420.00	1730.53
420.21	1701.86
420.42	1718.25
420.62	1746.92
420.83	1658.85
421.04	1718.25
421.24	1689.57
421.45	1814.50
421.65	1791.97
421.86	1699.81
422.07	1779.68
422.27	1746.92
422.48	1734.63
422.69	1687.53
422.89	1730.53
423.10	1714.15
423.30	1724.39
423.51	1697.77
423.72	1718.25
423.92	1730.53
424.13	1554.41
424.33	1650.66
424.54	1755.11
424.75	1730.53
424.95	1794.02
425.16	1753.06
425.36	1677.29
425.57	1746.92
425.78	1789.92
425.98	1716.20
426.19	1671.14
426.39	1640.42
426.60	1738.73
426.81	1861.60
427.01	1695.72
427.22	1656.81
427.42	1585.13
427.63	1695.72
427.83	1771.49
428.04	1812.45
428.25	1873.89
428.45	1822.69
428.66	1759.21
428.86	1763.30
429.07	1693.67
429.28	1654.76
429.48	1705.96
429.69	1734.63
429.89	1742.82
430.10	1628.14
430.30	1771.49
430.51	1765.35
430.71	1636.33
430.92	1753.06
431.13	1675.24
431.33	1773.54
431.54	1718.25
431.74	1767.40
431.95	1863.65
432.15	1656.81
432.36	1716.20
432.56	1722.34
432.77	1781.73
432.98	1796.07
433.18	1701.86
433.39	1679.33
433.59	1701.86
433.80	1796.07
434.00	1837.03
434.21	1748.97
434.41	1689.57
434.62	1826.79
434.82	1685.48
435.03	1689.57
435.23	1736.68
435.44	1615.85
435.64	1730.53
435.85	1720.29
436.06	1730.53
436.26	1843.17
436.47	1710.05
436.67	1691.62
436.88	1630.18
437.08	1804.26
437.29	1900.52
437.49	1753.06
437.70	1806.31
437.90	1632.23
438.11	1861.60
438.31	1771.49
438.52	1771.49
438.72	1877.99
438.93	1996.77
439.13	1849.32
439.34	1843.17
439.54	1724.39
439.75	1785.83
439.95	1773.54
440.16	1736.68
440.36	1699.81
440.57	1808.36
440.77	1726.44
440.98	1751.01
441.18	1722.34
441.39	1669.09
441.59	1744.87
441.80	1791.97
442.00	1736.68
442.21	1748.97
442.41	1665.00
442.62	1761.25
442.82	1689.57
443.02	1734.63
443.23	1710.05
443.43	1695.72
443.64	1806.31
443.84	1667.05
444.05	1734.63
444.25	1791.97
444.46	1689.57
444.66	1722.34
444.87	1845.22
445.07	1603.56
445.28	1757.16
445.48	1818.60
445.69	1800.16
445.89	1847.27
446.09	1712.10
446.30	1988.58
446.50	2529.24
446.71	4184.00
446.91	5140.40
447.12	5810.09
447.32	6150.05
447.53	5359.53
447.73	4399.04
447.93	3913.67
448.14	3659.72
448.34	3514.31
448.55	3106.77
448.75	3149.78
448.96	3035.09
449.16	2738.13
449.36	2422.75
449.57	2215.90
449.77	2017.25
449.98	1822.69
450.18	1808.36
450.39	1796.07
450.59	1751.01
450.79	1775.59
451.00	1697.77
451.20	1808.36
451.41	1683.43
451.61	1734.63
451.81	1763.30
452.02	1722.34
452.22	1728.49
452.43	1738.73
452.63	1708.01
