SpectraSuite Data File
++++++++++++++++++++++++++++++++++++
Date: Wed May 04 18:44:37 CEST 2016
User: root
Dark Spectrum Present: No
Reference Spectrum Present: No
Number of Sampled Component Spectra: 1
Spectrometers: USB4C02835
Integration Time (usec): 100000 (USB4C02835)
Spectra Averaged: 1 (USB4C02835)
Boxcar Smoothing: 0 (USB4C02835)
Correct for Electrical Dark: No (USB4C02835)
Strobe/Lamp Enabled: No (USB4C02835)
Correct for Detector Non-linearity: No (USB4C02835)
Correct for Stray Light: No (USB4C02835)
Number of Pixels in Processed Spectrum: 3648
>>>>>Begin Processed Spectral Data<<<<<
177.47	1445.87
177.69	1445.87
177.91	1445.87
178.13	1509.35
178.36	1480.68
178.58	1755.11
178.80	1742.82
179.02	1621.99
179.24	1572.84
179.46	1710.05
179.68	1740.77
179.90	1708.01
180.13	1665.00
180.35	1675.24
180.57	1703.91
180.79	1767.40
181.01	1705.96
181.23	1826.79
181.45	1804.26
181.67	1726.44
181.90	1748.97
182.12	1796.07
182.34	1601.51
182.56	1748.97
182.78	1746.92
183.00	1765.35
183.22	1726.44
183.44	1669.09
183.66	1845.22
183.89	1771.49
184.11	1734.63
184.33	1720.29
184.55	1808.36
184.77	1785.83
184.99	1740.77
185.21	1656.81
185.43	1814.50
185.65	1636.33
185.87	1720.29
186.10	1777.64
186.32	1849.32
186.54	1763.30
186.76	1667.05
186.98	1755.11
187.20	1718.25
187.42	1669.09
187.64	1701.86
187.86	1699.81
188.08	1730.53
188.30	1683.43
188.52	1748.97
188.75	1847.27
188.97	1779.68
189.19	1710.05
189.41	1642.47
189.63	1671.14
189.85	1714.15
190.07	1599.46
190.29	1609.70
190.51	1724.39
190.73	1656.81
190.95	1771.49
191.17	1656.81
191.39	1738.73
191.61	1662.95
191.84	1644.52
192.06	1740.77
192.28	1585.13
192.50	1869.80
192.72	1769.44
192.94	1720.29
193.16	1787.88
193.38	1740.77
193.60	1716.20
193.82	1724.39
194.04	1726.44
194.26	1703.91
194.48	1699.81
194.70	1759.21
194.92	1644.52
195.14	1755.11
195.36	1652.71
195.58	1738.73
195.80	1714.15
196.02	1662.95
196.24	1730.53
196.46	1689.57
196.69	1683.43
196.91	1845.22
197.13	1638.38
197.35	1583.08
197.57	1742.82
197.79	1744.87
198.01	1775.59
198.23	1755.11
198.45	1730.53
198.67	1662.95
198.89	1708.01
199.11	1656.81
199.33	1738.73
199.55	1572.84
199.77	1697.77
199.99	1806.31
200.21	1722.34
200.43	1710.05
200.65	1589.22
200.87	1546.22
201.09	1728.49
201.31	1681.38
201.53	1789.92
201.75	1726.44
201.97	1712.10
202.19	1667.05
202.41	1712.10
202.63	1748.97
202.85	1757.16
203.07	1632.23
203.29	1632.23
203.51	1632.23
203.73	1624.04
203.95	1830.88
204.17	1669.09
204.39	1710.05
204.61	1753.06
204.83	1705.96
205.05	1722.34
205.27	1759.21
205.49	1789.92
205.71	1775.59
205.93	1599.46
206.15	1748.97
206.37	1759.21
206.59	1701.86
206.81	1669.09
207.03	1779.68
207.25	1691.62
207.47	1677.29
207.69	1669.09
207.91	1763.30
208.13	1765.35
208.34	1734.63
208.56	1662.95
208.78	1777.64
209.00	1701.86
209.22	1714.15
209.44	1734.63
209.66	1689.57
209.88	1693.67
210.10	1710.05
210.32	1712.10
210.54	1814.50
210.76	1685.48
210.98	1708.01
211.20	1570.79
211.42	1781.73
211.64	1742.82
211.86	1705.96
212.08	1746.92
212.30	1683.43
212.52	1734.63
212.74	1726.44
212.96	1773.54
213.17	1697.77
213.39	1755.11
213.61	1777.64
213.83	1753.06
214.05	1718.25
214.27	1679.33
214.49	1638.38
214.71	1658.85
214.93	1830.88
215.15	1720.29
215.37	1730.53
215.59	1658.85
215.81	1718.25
216.03	1806.31
216.24	1783.78
216.46	1701.86
216.68	1669.09
216.90	1730.53
217.12	1759.21
217.34	1695.72
217.56	1718.25
217.78	1853.41
218.00	1724.39
218.22	1744.87
218.44	1783.78
218.66	1710.05
218.87	1791.97
219.09	1546.22
219.31	1667.05
219.53	1767.40
219.75	1591.27
219.97	1732.58
220.19	1722.34
220.41	1757.16
220.63	1689.57
220.85	1701.86
221.06	1675.24
221.28	1755.11
221.50	1689.57
221.72	1673.19
221.94	1683.43
222.16	1656.81
222.38	1757.16
222.60	1720.29
222.82	1691.62
223.03	1755.11
223.25	1652.71
223.47	1728.49
223.69	1859.56
223.91	1742.82
224.13	1771.49
224.35	1724.39
224.57	1753.06
224.78	1730.53
225.00	1673.19
225.22	1705.96
225.44	1755.11
225.66	1775.59
225.88	1658.85
226.10	1755.11
226.32	1748.97
226.53	1800.16
226.75	1634.28
226.97	1767.40
227.19	1699.81
227.41	1708.01
227.63	1679.33
227.85	1603.56
228.06	1681.38
228.28	1699.81
228.50	1695.72
228.72	1654.76
228.94	1685.48
229.16	1665.00
229.37	1605.61
229.59	1636.33
229.81	1761.25
230.03	1808.36
230.25	1630.18
230.47	1617.90
230.69	1675.24
230.90	1767.40
231.12	1652.71
231.34	1710.05
231.56	1769.44
231.78	1648.61
232.00	1753.06
232.21	1710.05
232.43	1683.43
232.65	1525.74
232.87	1654.76
233.09	1638.38
233.30	1683.43
233.52	1775.59
233.74	1665.00
233.96	1660.90
234.18	1771.49
234.40	1646.57
234.61	1794.02
234.83	1644.52
235.05	1681.38
235.27	1869.80
235.49	1822.69
235.70	1712.10
235.92	1787.88
236.14	1705.96
236.36	1849.32
236.58	1638.38
236.79	1798.12
237.01	1687.53
237.23	1693.67
237.45	1841.12
237.67	1714.15
237.88	1730.53
238.10	1783.78
238.32	1656.81
238.54	1640.42
238.76	1736.68
238.97	1718.25
239.19	1732.58
239.41	1765.35
239.63	1769.44
239.85	1687.53
240.06	1683.43
240.28	1619.94
240.50	1777.64
240.72	1716.20
240.93	1665.00
241.15	1794.02
241.37	1765.35
241.59	1771.49
241.81	1726.44
242.02	1722.34
242.24	1708.01
242.46	1705.96
242.68	1705.96
242.89	1712.10
243.11	1746.92
243.33	1718.25
243.55	1722.34
243.76	1734.63
243.98	1701.86
244.20	1683.43
244.42	1665.00
244.64	1675.24
244.85	1718.25
245.07	1671.14
245.29	1705.96
245.51	1757.16
245.72	1773.54
245.94	1724.39
246.16	1689.57
246.38	1808.36
246.59	1722.34
246.81	1763.30
247.03	1714.15
247.24	1607.66
247.46	1710.05
247.68	1703.91
247.90	1654.76
248.11	1681.38
248.33	1710.05
248.55	1722.34
248.77	1654.76
248.98	1822.69
249.20	1734.63
249.42	1685.48
249.64	1753.06
249.85	1714.15
250.07	1748.97
250.29	1769.44
250.50	1738.73
250.72	1714.15
250.94	1751.01
251.16	1783.78
251.37	1716.20
251.59	1724.39
251.81	1753.06
252.02	1820.64
252.24	1611.75
252.46	1775.59
252.68	1697.77
252.89	1699.81
253.11	1640.42
253.33	1771.49
253.54	1804.26
253.76	1667.05
253.98	1730.53
254.20	1701.86
254.41	1681.38
254.63	1640.42
254.85	1632.23
255.06	1724.39
255.28	1693.67
255.50	1708.01
255.71	1642.47
255.93	1591.27
256.15	1714.15
256.36	1705.96
256.58	1714.15
256.80	1708.01
257.02	1611.75
257.23	1669.09
257.45	1646.57
257.67	1753.06
257.88	1722.34
258.10	1679.33
258.32	1794.02
258.53	1701.86
258.75	1748.97
258.97	1667.05
259.18	1660.90
259.40	1669.09
259.62	1761.25
259.83	1751.01
260.05	1730.53
260.27	2023.39
260.48	1761.25
260.70	1675.24
260.92	1699.81
261.13	1810.40
261.35	1683.43
261.57	1710.05
261.78	1654.76
262.00	1759.21
262.22	1736.68
262.43	1576.94
262.65	1662.95
262.86	1689.57
263.08	1873.89
263.30	1730.53
263.51	1636.33
263.73	1658.85
263.95	1791.97
264.16	1677.29
264.38	1748.97
264.60	1769.44
264.81	1685.48
265.03	1787.88
265.25	1861.60
265.46	1691.62
265.68	1740.77
265.89	1787.88
266.11	1665.00
266.33	1732.58
266.54	1759.21
266.76	1779.68
266.98	1802.21
267.19	1757.16
267.41	1705.96
267.62	1658.85
267.84	1669.09
268.06	1783.78
268.27	1714.15
268.49	1728.49
268.70	1740.77
268.92	1738.73
269.14	1636.33
269.35	1648.61
269.57	1691.62
269.79	1740.77
270.00	1652.71
270.22	1759.21
270.43	1673.19
270.65	1578.98
270.87	1724.39
271.08	1755.11
271.30	1748.97
271.51	1736.68
271.73	1773.54
271.95	1783.78
272.16	1675.24
272.38	1775.59
272.59	1671.14
272.81	1697.77
273.02	1791.97
273.24	1753.06
273.46	1794.02
273.67	1685.48
273.89	1667.05
274.10	1638.38
274.32	1701.86
274.54	1705.96
274.75	1699.81
274.97	1673.19
275.18	1791.97
275.40	1736.68
275.61	1767.40
275.83	1722.34
276.05	1681.38
276.26	1748.97
276.48	1699.81
276.69	1759.21
276.91	1701.86
277.12	1824.74
277.34	1789.92
277.55	1798.12
277.77	1699.81
277.99	1746.92
278.20	1652.71
278.42	1652.71
278.63	1652.71
278.85	1669.09
279.06	1630.18
279.28	1689.57
279.49	1759.21
279.71	1748.97
279.93	1744.87
280.14	1732.58
280.36	1712.10
280.57	1814.50
280.79	1787.88
281.00	1755.11
281.22	1748.97
281.43	1849.32
281.65	1650.66
281.86	1644.52
282.08	1697.77
282.29	1751.01
282.51	1642.47
282.73	1687.53
282.94	1626.09
283.16	1693.67
283.37	1820.64
283.59	1751.01
283.80	1738.73
284.02	1691.62
284.23	1796.07
284.45	1667.05
284.66	1660.90
284.88	1652.71
285.09	1734.63
285.31	1765.35
285.52	1697.77
285.74	1601.51
285.95	1812.45
286.17	1718.25
286.38	1746.92
286.60	1761.25
286.81	1667.05
287.03	1630.18
287.24	1689.57
287.46	1765.35
287.67	1673.19
287.89	1861.60
288.10	1701.86
288.32	1710.05
288.53	1751.01
288.75	1734.63
288.96	1710.05
289.18	1712.10
289.39	1667.05
289.61	1757.16
289.82	1798.12
290.04	1740.77
290.25	1669.09
290.47	1677.29
290.68	1660.90
290.90	1726.44
291.11	1609.70
291.33	1814.50
291.54	1619.94
291.76	1681.38
291.97	1740.77
292.18	1677.29
292.40	1701.86
292.61	1677.29
292.83	1837.03
293.04	1755.11
293.26	1691.62
293.47	1710.05
293.69	1665.00
293.90	1687.53
294.12	1824.74
294.33	1697.77
294.55	1693.67
294.76	1773.54
294.97	1849.32
295.19	1818.60
295.40	1695.72
295.62	1701.86
295.83	1755.11
296.05	1589.22
296.26	1804.26
296.48	1736.68
296.69	1667.05
296.90	1689.57
297.12	1789.92
297.33	1828.84
297.55	1691.62
297.76	1738.73
297.98	1744.87
298.19	1679.33
298.41	1763.30
298.62	1626.09
298.83	1746.92
299.05	1736.68
299.26	1703.91
299.48	1656.81
299.69	1769.44
299.90	1804.26
300.12	1619.94
300.33	1812.45
300.55	1724.39
300.76	1755.11
300.98	1617.90
301.19	1775.59
301.40	1652.71
301.62	1681.38
301.83	1816.55
302.05	1669.09
302.26	1751.01
302.47	1673.19
302.69	1640.42
302.90	1687.53
303.12	1599.46
303.33	1773.54
303.54	1808.36
303.76	1685.48
303.97	1677.29
304.19	1804.26
304.40	1628.14
304.61	1761.25
304.83	1769.44
305.04	1820.64
305.26	1716.20
305.47	1753.06
305.68	1683.43
305.90	1644.52
306.11	1701.86
306.33	1650.66
306.54	1726.44
306.75	1634.28
306.97	1601.51
307.18	1617.90
307.39	1677.29
307.61	1759.21
307.82	1710.05
308.04	1734.63
308.25	1681.38
308.46	1699.81
308.68	1650.66
308.89	1699.81
309.10	1746.92
309.32	1701.86
309.53	1656.81
309.74	1705.96
309.96	1714.15
310.17	1759.21
310.39	1650.66
310.60	1720.29
310.81	1705.96
311.03	1677.29
311.24	1816.55
311.45	1681.38
311.67	1806.31
311.88	1679.33
312.09	1722.34
312.31	1755.11
312.52	1732.58
312.73	1777.64
312.95	1658.85
313.16	1669.09
313.37	1755.11
313.59	1699.81
313.80	1748.97
314.01	1877.99
314.23	1679.33
314.44	1685.48
314.65	1699.81
314.87	1671.14
315.08	1816.55
315.29	1646.57
315.51	1593.32
315.72	1689.57
315.93	1757.16
316.15	1734.63
316.36	1624.04
316.57	1720.29
316.79	1744.87
317.00	1726.44
317.21	1738.73
317.43	1650.66
317.64	1765.35
317.85	1656.81
318.07	1718.25
318.28	1675.24
318.49	1873.89
318.70	1951.71
318.92	1910.75
319.13	1882.08
319.34	1898.47
319.56	1812.45
319.77	1906.66
319.98	1769.44
320.20	1800.16
320.41	1839.08
320.62	1834.98
320.83	1671.14
321.05	1865.70
321.26	1730.53
321.47	1691.62
321.69	1826.79
321.90	1601.51
322.11	1634.28
322.32	1685.48
322.54	1767.40
322.75	1708.01
322.96	1816.55
323.18	1642.47
323.39	1552.36
323.60	1642.47
323.81	1765.35
324.03	1650.66
324.24	1810.40
324.45	1705.96
324.66	1658.85
324.88	1757.16
325.09	1789.92
325.30	1726.44
325.52	1691.62
325.73	1681.38
325.94	1652.71
326.15	1607.66
326.37	1665.00
326.58	1732.58
326.79	1777.64
327.00	1755.11
327.22	1763.30
327.43	1695.72
327.64	1658.85
327.85	1757.16
328.07	1681.38
328.28	1865.70
328.49	1681.38
328.70	1685.48
328.92	1648.61
329.13	1714.15
329.34	1695.72
329.55	1810.40
329.76	1744.87
329.98	1689.57
330.19	1757.16
330.40	1794.02
330.61	1724.39
330.83	1730.53
331.04	1728.49
331.25	1730.53
331.46	1765.35
331.68	1632.23
331.89	1742.82
332.10	1685.48
332.31	1578.98
332.52	1671.14
332.74	1828.84
332.95	1656.81
333.16	1708.01
333.37	1845.22
333.58	1714.15
333.80	1730.53
334.01	1546.22
334.22	1710.05
334.43	1699.81
334.64	1644.52
334.86	1644.52
335.07	1566.70
335.28	1722.34
335.49	1621.99
335.70	1699.81
335.92	1783.78
336.13	1834.98
336.34	1675.24
336.55	1679.33
336.76	1652.71
336.98	1609.70
337.19	1728.49
337.40	1865.70
337.61	1769.44
337.82	1701.86
338.04	1837.03
338.25	1576.94
338.46	1640.42
338.67	1738.73
338.88	1699.81
339.09	1683.43
339.31	1689.57
339.52	1714.15
339.73	1746.92
339.94	1712.10
340.15	1759.21
340.36	1685.48
340.58	1701.86
340.79	1560.55
341.00	1781.73
341.21	1660.90
341.42	1753.06
341.63	1697.77
341.85	1783.78
342.06	1785.83
342.27	1679.33
342.48	1757.16
342.69	1632.23
342.90	1765.35
343.12	1767.40
343.33	1777.64
343.54	1767.40
343.75	1773.54
343.96	1816.55
344.17	1617.90
344.38	1609.70
344.60	1677.29
344.81	1636.33
345.02	1746.92
345.23	1808.36
345.44	1830.88
345.65	1765.35
345.86	1812.45
346.07	1697.77
346.29	1714.15
346.50	1695.72
346.71	1695.72
346.92	1779.68
347.13	1802.21
347.34	1658.85
347.55	1689.57
347.76	1705.96
347.98	1636.33
348.19	1726.44
348.40	1751.01
348.61	1652.71
348.82	1820.64
349.03	1796.07
349.24	1632.23
349.45	1824.74
349.66	1583.08
349.88	1759.21
350.09	1667.05
350.30	1769.44
350.51	1660.90
350.72	1685.48
350.93	1775.59
351.14	1656.81
351.35	1767.40
351.56	1685.48
351.77	1716.20
351.99	1742.82
352.20	1839.08
352.41	1763.30
352.62	1576.94
352.83	1665.00
353.04	1701.86
353.25	1611.75
353.46	1787.88
353.67	1804.26
353.88	1710.05
354.09	1648.61
354.30	1740.77
354.52	1763.30
354.73	1734.63
354.94	1671.14
355.15	1671.14
355.36	1865.70
355.57	1718.25
355.78	1755.11
355.99	1730.53
356.20	1671.14
356.41	1769.44
356.62	1742.82
356.83	1658.85
357.04	1824.74
357.25	1587.18
357.46	1654.76
357.68	1671.14
357.89	1652.71
358.10	1662.95
358.31	1683.43
358.52	1701.86
358.73	1644.52
358.94	1630.18
359.15	1673.19
359.36	1730.53
359.57	1710.05
359.78	1714.15
359.99	1769.44
360.20	1638.38
360.41	1695.72
360.62	1685.48
360.83	1705.96
361.04	1691.62
361.25	1714.15
361.46	1841.12
361.67	1669.09
361.88	1728.49
362.09	1689.57
362.30	1677.29
362.51	1724.39
362.72	1751.01
362.93	1751.01
363.14	1730.53
363.35	1755.11
363.56	1730.53
363.78	1761.25
363.99	1812.45
364.20	1638.38
364.41	1726.44
364.62	1794.02
364.83	1746.92
365.04	1730.53
365.25	1648.61
365.46	1787.88
365.67	1652.71
365.88	1699.81
366.09	1732.58
366.30	1710.05
366.51	1677.29
366.72	1689.57
366.93	1705.96
367.14	1660.90
367.35	1734.63
367.56	1693.67
367.77	1777.64
367.98	1695.72
368.18	1783.78
368.39	1751.01
368.60	1699.81
368.81	1787.88
369.02	1693.67
369.23	1693.67
369.44	1640.42
369.65	1572.84
369.86	1703.91
370.07	1804.26
370.28	1714.15
370.49	1744.87
370.70	1720.29
370.91	1660.90
371.12	1652.71
371.33	1732.58
371.54	1677.29
371.75	1787.88
371.96	1587.18
372.17	1755.11
372.38	1722.34
372.59	1812.45
372.80	1683.43
373.01	1683.43
373.22	1673.19
373.43	1705.96
373.64	1636.33
373.85	1834.98
374.06	1763.30
374.26	1834.98
374.47	1748.97
374.68	1771.49
374.89	1751.01
375.10	1689.57
375.31	1779.68
375.52	1658.85
375.73	1722.34
375.94	1662.95
376.15	1757.16
376.36	1607.66
376.57	1654.76
376.78	1660.90
376.99	1693.67
377.20	1753.06
377.40	1677.29
377.61	1794.02
377.82	1656.81
378.03	1742.82
378.24	1771.49
378.45	1751.01
378.66	1753.06
378.87	1552.36
379.08	1587.18
379.29	1638.38
379.50	1767.40
379.71	1701.86
379.91	1650.66
380.12	1687.53
380.33	1675.24
380.54	1730.53
380.75	1746.92
380.96	1703.91
381.17	1789.92
381.38	1691.62
381.59	1812.45
381.80	1726.44
382.00	1935.33
382.21	1718.25
382.42	1830.88
382.63	1898.47
382.84	1808.36
383.05	1763.30
383.26	1806.31
383.47	1705.96
383.68	1746.92
383.88	1742.82
384.09	1753.06
384.30	1791.97
384.51	1716.20
384.72	1630.18
384.93	1660.90
385.14	1757.16
385.35	1671.14
385.55	1599.46
385.76	1689.57
385.97	1697.77
386.18	1611.75
386.39	1730.53
386.60	1730.53
386.81	1726.44
387.02	1693.67
387.22	1679.33
387.43	1730.53
387.64	1806.31
387.85	1890.28
388.06	2263.01
388.27	4536.25
388.48	9142.13
388.68	11642.70
388.89	13473.59
389.10	14087.98
389.31	11761.48
389.52	9637.74
389.73	8554.37
389.93	7817.10
390.14	7298.96
390.35	6635.42
390.56	5894.05
390.77	4880.31
390.98	3919.81
391.18	2985.94
391.39	2349.02
391.60	1955.81
391.81	1916.90
392.02	1767.40
392.23	1902.56
392.43	1791.97
392.64	1771.49
392.85	1763.30
393.06	1822.69
393.27	1716.20
393.47	1669.09
393.68	1701.86
393.89	1656.81
394.10	1796.07
394.31	1570.79
394.52	1703.91
394.72	1669.09
394.93	1785.83
395.14	1654.76
395.35	1826.79
395.56	1712.10
395.76	1798.12
395.97	1796.07
396.18	1951.71
396.39	1814.50
396.60	2090.98
396.80	1906.66
397.01	1880.04
397.22	1834.98
397.43	1851.36
397.64	1728.49
397.84	1810.40
398.05	1902.56
398.26	1722.34
398.47	1828.84
398.67	1732.58
398.88	1751.01
399.09	1751.01
399.30	1755.11
399.51	1769.44
399.71	1671.14
399.92	1708.01
400.13	1755.11
400.34	1732.58
400.54	1654.76
400.75	1873.89
400.96	1732.58
401.17	1716.20
401.37	1730.53
401.58	1640.42
401.79	1771.49
402.00	1916.90
402.21	2097.12
402.41	2056.16
402.62	2127.84
402.83	2125.79
403.04	2031.58
403.24	2121.70
403.45	1880.04
403.66	2050.02
403.87	1931.23
404.07	1902.56
404.28	1939.43
404.49	1964.00
404.70	1796.07
404.90	1804.26
405.11	1787.88
405.32	1763.30
405.52	1722.34
405.73	1759.21
405.94	1619.94
406.15	1703.91
406.35	1648.61
406.56	1787.88
406.77	1701.86
406.98	1771.49
407.18	1667.05
407.39	1855.46
407.60	1681.38
407.80	1740.77
408.01	1701.86
408.22	1730.53
408.43	1685.48
408.63	1736.68
408.84	1746.92
409.05	1771.49
409.25	1732.58
409.46	1640.42
409.67	1669.09
409.88	1679.33
410.08	1722.34
410.29	1681.38
410.50	1804.26
410.70	1744.87
410.91	1695.72
411.12	1736.68
411.32	1673.19
411.53	1726.44
411.74	1771.49
411.95	1845.22
412.15	1742.82
412.36	1834.98
412.57	1771.49
412.77	1937.38
412.98	1769.44
413.19	1703.91
413.39	1820.64
413.60	1738.73
413.81	1812.45
414.01	1673.19
414.22	1759.21
414.43	1828.84
414.63	1734.63
414.84	1789.92
415.05	1675.24
415.25	1679.33
415.46	1683.43
415.67	1632.23
415.87	1771.49
416.08	1716.20
416.29	1708.01
416.49	1697.77
416.70	1677.29
416.91	1685.48
417.11	1685.48
417.32	1849.32
417.53	1806.31
417.73	1716.20
417.94	1646.57
418.15	1665.00
418.35	1771.49
418.56	1728.49
418.77	1869.80
418.97	1671.14
419.18	1652.71
419.38	1556.46
419.59	1675.24
419.80	1777.64
420.00	1673.19
420.21	1748.97
420.42	1777.64
420.62	1755.11
420.83	1679.33
421.04	1708.01
421.24	1728.49
421.45	1730.53
421.65	1783.78
421.86	1773.54
422.07	1748.97
422.27	1716.20
422.48	1683.43
422.69	1656.81
422.89	1665.00
423.10	1708.01
423.30	1689.57
423.51	1730.53
423.72	1656.81
423.92	1716.20
424.13	1632.23
424.33	1734.63
424.54	1820.64
424.75	1675.24
424.95	1882.08
425.16	1648.61
425.36	1699.81
425.57	1783.78
425.78	1791.97
425.98	1759.21
426.19	1703.91
426.39	1630.18
426.60	1753.06
426.81	1751.01
427.01	1769.44
427.22	1660.90
427.42	1589.22
427.63	1718.25
427.83	1851.36
428.04	1882.08
428.25	1779.68
428.45	1816.55
428.66	1740.77
428.86	1744.87
429.07	1665.00
429.28	1730.53
429.48	1708.01
429.69	1669.09
429.89	1759.21
430.10	1679.33
430.30	1769.44
430.51	1730.53
430.71	1728.49
430.92	1710.05
431.13	1724.39
431.33	1773.54
431.54	1746.92
431.74	1796.07
431.95	1808.36
432.15	1697.77
432.36	1673.19
432.56	1738.73
432.77	1855.46
432.98	1714.15
433.18	1681.38
433.39	1722.34
433.59	1697.77
433.80	1826.79
434.00	1880.04
434.21	1726.44
434.41	1755.11
434.62	1767.40
434.82	1603.56
435.03	1673.19
435.23	1771.49
435.44	1644.52
435.64	1697.77
435.85	1644.52
436.06	1751.01
436.26	1794.02
436.47	1685.48
436.67	1714.15
436.88	1738.73
437.08	1841.12
437.29	1751.01
437.49	1757.16
437.70	1777.64
437.90	1722.34
438.11	1841.12
438.31	1787.88
438.52	1890.28
438.72	1865.70
438.93	2060.26
439.13	1898.47
439.34	1843.17
439.54	1742.82
439.75	1810.40
439.95	1824.74
440.16	1708.01
440.36	1773.54
440.57	1755.11
440.77	1785.83
440.98	1722.34
441.18	1789.92
441.39	1712.10
441.59	1695.72
441.80	1800.16
442.00	1740.77
442.21	1871.84
442.41	1652.71
442.62	1726.44
442.82	1642.47
443.02	1746.92
443.23	1789.92
443.43	1736.68
443.64	1820.64
443.84	1654.76
444.05	1861.60
444.25	1748.97
444.46	1656.81
444.66	1738.73
444.87	1781.73
445.07	1656.81
445.28	1746.92
445.48	1794.02
445.69	1804.26
445.89	1927.14
446.09	1808.36
446.30	2039.78
446.50	2590.68
446.71	4034.50
446.91	5185.46
447.12	5779.37
447.32	6043.56
447.53	5238.70
447.73	4456.38
447.93	3860.42
448.14	3692.49
448.34	3446.73
448.55	3061.71
448.75	3125.20
448.96	3004.37
449.16	2684.89
449.36	2394.08
449.57	2226.14
449.77	1984.48
449.98	1785.83
450.18	1804.26
450.39	1820.64
450.59	1826.79
450.79	1769.44
451.00	1619.94
451.20	1775.59
451.41	1812.45
451.61	1703.91
451.81	1800.16
452.02	1689.57
452.22	1771.49
452.43	1671.14
452.63	1697.77
