SpectraSuite Data File
++++++++++++++++++++++++++++++++++++
Date: Wed May 04 18:44:27 CEST 2016
User: root
Dark Spectrum Present: No
Reference Spectrum Present: No
Number of Sampled Component Spectra: 1
Spectrometers: USB4C02835
Integration Time (usec): 100000 (USB4C02835)
Spectra Averaged: 1 (USB4C02835)
Boxcar Smoothing: 0 (USB4C02835)
Correct for Electrical Dark: No (USB4C02835)
Strobe/Lamp Enabled: No (USB4C02835)
Correct for Detector Non-linearity: No (USB4C02835)
Correct for Stray Light: No (USB4C02835)
Number of Pixels in Processed Spectrum: 3648
>>>>>Begin Processed Spectral Data<<<<<
177.47	1460.20
177.69	1460.20
177.91	1460.20
178.13	1488.87
178.36	1476.59
178.58	1673.19
178.80	1679.33
179.02	1718.25
179.24	1726.44
179.46	1726.44
179.68	1783.78
179.90	1654.76
180.13	1734.63
180.35	1638.38
180.57	1746.92
180.79	1722.34
181.01	1712.10
181.23	1781.73
181.45	1804.26
181.67	1718.25
181.90	1718.25
182.12	1705.96
182.34	1710.05
182.56	1748.97
182.78	1697.77
183.00	1705.96
183.22	1724.39
183.44	1484.78
183.66	1900.52
183.89	1808.36
184.11	1689.57
184.33	1710.05
184.55	1763.30
184.77	1683.43
184.99	1736.68
185.21	1734.63
185.43	1851.36
185.65	1667.05
185.87	1736.68
186.10	1810.40
186.32	1832.93
186.54	1730.53
186.76	1728.49
186.98	1767.40
187.20	1755.11
187.42	1646.57
187.64	1699.81
187.86	1718.25
188.08	1789.92
188.30	1636.33
188.52	1765.35
188.75	1720.29
188.97	1724.39
189.19	1703.91
189.41	1697.77
189.63	1777.64
189.85	1687.53
190.07	1619.94
190.29	1574.89
190.51	1710.05
190.73	1687.53
190.95	1775.59
191.17	1621.99
191.39	1658.85
191.61	1685.48
191.84	1662.95
192.06	1699.81
192.28	1538.02
192.50	1931.23
192.72	1720.29
192.94	1605.61
193.16	1714.15
193.38	1751.01
193.60	1607.66
193.82	1634.28
194.04	1822.69
194.26	1730.53
194.48	1744.87
194.70	1673.19
194.92	1675.24
195.14	1755.11
195.36	1665.00
195.58	1724.39
195.80	1691.62
196.02	1624.04
196.24	1634.28
196.46	1769.44
196.69	1695.72
196.91	1822.69
197.13	1628.14
197.35	1642.47
197.57	1871.84
197.79	1751.01
198.01	1765.35
198.23	1724.39
198.45	1718.25
198.67	1644.52
198.89	1673.19
199.11	1654.76
199.33	1763.30
199.55	1683.43
199.77	1714.15
199.99	1808.36
200.21	1695.72
200.43	1742.82
200.65	1652.71
200.87	1589.22
201.09	1732.58
201.31	1595.37
201.53	1773.54
201.75	1763.30
201.97	1710.05
202.19	1724.39
202.41	1710.05
202.63	1943.52
202.85	1710.05
203.07	1724.39
203.29	1722.34
203.51	1634.28
203.73	1679.33
203.95	1781.73
204.17	1714.15
204.39	1689.57
204.61	1656.81
204.83	1695.72
205.05	1726.44
205.27	1859.56
205.49	1787.88
205.71	1687.53
205.93	1677.29
206.15	1652.71
206.37	1701.86
206.59	1687.53
206.81	1689.57
207.03	1642.47
207.25	1642.47
207.47	1742.82
207.69	1691.62
207.91	1748.97
208.13	1882.08
208.34	1667.05
208.56	1689.57
208.78	1736.68
209.00	1718.25
209.22	1714.15
209.44	1748.97
209.66	1691.62
209.88	1697.77
210.10	1677.29
210.32	1667.05
210.54	1824.74
210.76	1712.10
210.98	1751.01
211.20	1615.85
211.42	1705.96
211.64	1828.84
211.86	1697.77
212.08	1755.11
212.30	1675.24
212.52	1765.35
212.74	1724.39
212.96	1675.24
213.17	1841.12
213.39	1701.86
213.61	1865.70
213.83	1753.06
214.05	1742.82
214.27	1746.92
214.49	1679.33
214.71	1624.04
214.93	1734.63
215.15	1740.77
215.37	1771.49
215.59	1603.56
215.81	1703.91
216.03	1843.17
216.24	1724.39
216.46	1710.05
216.68	1683.43
216.90	1791.97
217.12	1755.11
217.34	1722.34
217.56	1746.92
217.78	1812.45
218.00	1773.54
218.22	1740.77
218.44	1738.73
218.66	1703.91
218.87	1806.31
219.09	1691.62
219.31	1785.83
219.53	1701.86
219.75	1665.00
219.97	1701.86
220.19	1642.47
220.41	1740.77
220.63	1699.81
220.85	1714.15
221.06	1638.38
221.28	1757.16
221.50	1812.45
221.72	1587.18
221.94	1677.29
222.16	1660.90
222.38	1736.68
222.60	1777.64
222.82	1710.05
223.03	1697.77
223.25	1685.48
223.47	1755.11
223.69	1837.03
223.91	1665.00
224.13	1720.29
224.35	1611.75
224.57	1798.12
224.78	1740.77
225.00	1644.52
225.22	1638.38
225.44	1734.63
225.66	1671.14
225.88	1685.48
226.10	1722.34
226.32	1708.01
226.53	1841.12
226.75	1669.09
226.97	1701.86
227.19	1757.16
227.41	1701.86
227.63	1705.96
227.85	1646.57
228.06	1652.71
228.28	1697.77
228.50	1769.44
228.72	1626.09
228.94	1640.42
229.16	1667.05
229.37	1669.09
229.59	1722.34
229.81	1685.48
230.03	1730.53
230.25	1632.23
230.47	1736.68
230.69	1599.46
230.90	1714.15
231.12	1683.43
231.34	1689.57
231.56	1763.30
231.78	1583.08
232.00	1671.14
232.21	1757.16
232.43	1634.28
232.65	1550.31
232.87	1771.49
233.09	1644.52
233.30	1849.32
233.52	1773.54
233.74	1710.05
233.96	1691.62
234.18	1714.15
234.40	1640.42
234.61	1828.84
234.83	1681.38
235.05	1669.09
235.27	1820.64
235.49	1810.40
235.70	1675.24
235.92	1779.68
236.14	1724.39
236.36	1800.16
236.58	1599.46
236.79	1681.38
237.01	1767.40
237.23	1708.01
237.45	1769.44
237.67	1687.53
237.88	1652.71
238.10	1871.84
238.32	1703.91
238.54	1730.53
238.76	1640.42
238.97	1673.19
239.19	1634.28
239.41	1724.39
239.63	1798.12
239.85	1718.25
240.06	1710.05
240.28	1566.70
240.50	1720.29
240.72	1732.58
240.93	1662.95
241.15	1843.17
241.37	1705.96
241.59	1847.27
241.81	1724.39
242.02	1701.86
242.24	1656.81
242.46	1787.88
242.68	1701.86
242.89	1812.45
243.11	1767.40
243.33	1708.01
243.55	1761.25
243.76	1781.73
243.98	1705.96
244.20	1722.34
244.42	1753.06
244.64	1748.97
244.85	1617.90
245.07	1691.62
245.29	1806.31
245.51	1601.51
245.72	1775.59
245.94	1802.21
246.16	1720.29
246.38	1767.40
246.59	1693.67
246.81	1708.01
247.03	1662.95
247.24	1695.72
247.46	1720.29
247.68	1699.81
247.90	1677.29
248.11	1640.42
248.33	1753.06
248.55	1693.67
248.77	1746.92
248.98	1837.03
249.20	1779.68
249.42	1705.96
249.64	1751.01
249.85	1789.92
250.07	1746.92
250.29	1683.43
250.50	1748.97
250.72	1738.73
250.94	1759.21
251.16	1814.50
251.37	1773.54
251.59	1736.68
251.81	1724.39
252.02	1746.92
252.24	1738.73
252.46	1769.44
252.68	1632.23
252.89	1697.77
253.11	1640.42
253.33	1791.97
253.54	1810.40
253.76	1574.89
253.98	1722.34
254.20	1675.24
254.41	1652.71
254.63	1665.00
254.85	1646.57
255.06	1681.38
255.28	1746.92
255.50	1673.19
255.71	1701.86
255.93	1630.18
256.15	1724.39
256.36	1722.34
256.58	1683.43
256.80	1695.72
257.02	1662.95
257.23	1714.15
257.45	1742.82
257.67	1712.10
257.88	1712.10
258.10	1732.58
258.32	1761.25
258.53	1765.35
258.75	1773.54
258.97	1589.22
259.18	1576.94
259.40	1689.57
259.62	1730.53
259.83	1763.30
260.05	1714.15
260.27	1984.48
260.48	1738.73
260.70	1650.66
260.92	1718.25
261.13	1761.25
261.35	1738.73
261.57	1691.62
261.78	1673.19
262.00	1714.15
262.22	1673.19
262.43	1716.20
262.65	1724.39
262.86	1777.64
263.08	1767.40
263.30	1652.71
263.51	1572.84
263.73	1677.29
263.95	1787.88
264.16	1585.13
264.38	1703.91
264.60	1765.35
264.81	1658.85
265.03	1832.93
265.25	1691.62
265.46	1677.29
265.68	1757.16
265.89	1722.34
266.11	1636.33
266.33	1765.35
266.54	1763.30
266.76	1763.30
266.98	1834.98
267.19	1746.92
267.41	1757.16
267.62	1732.58
267.84	1689.57
268.06	1697.77
268.27	1681.38
268.49	1763.30
268.70	1738.73
268.92	1640.42
269.14	1572.84
269.35	1587.18
269.57	1691.62
269.79	1806.31
270.00	1669.09
270.22	1837.03
270.43	1679.33
270.65	1597.42
270.87	1769.44
271.08	1748.97
271.30	1757.16
271.51	1665.00
271.73	1701.86
271.95	1785.83
272.16	1708.01
272.38	1726.44
272.59	1624.04
272.81	1685.48
273.02	1681.38
273.24	1736.68
273.46	1746.92
273.67	1650.66
273.89	1595.37
274.10	1669.09
274.32	1781.73
274.54	1783.78
274.75	1740.77
274.97	1679.33
275.18	1742.82
275.40	1759.21
275.61	1722.34
275.83	1697.77
276.05	1683.43
276.26	1716.20
276.48	1726.44
276.69	1683.43
276.91	1636.33
277.12	1789.92
277.34	1753.06
277.55	1732.58
277.77	1677.29
277.99	1685.48
278.20	1656.81
278.42	1642.47
278.63	1599.46
278.85	1685.48
279.06	1665.00
279.28	1718.25
279.49	1761.25
279.71	1800.16
279.93	1708.01
280.14	1724.39
280.36	1697.77
280.57	1708.01
280.79	1767.40
281.00	1656.81
281.22	1621.99
281.43	1779.68
281.65	1615.85
281.86	1671.14
282.08	1806.31
282.29	1783.78
282.51	1601.51
282.73	1673.19
282.94	1607.66
283.16	1777.64
283.37	1791.97
283.59	1763.30
283.80	1738.73
284.02	1769.44
284.23	1748.97
284.45	1718.25
284.66	1648.61
284.88	1726.44
285.09	1708.01
285.31	1796.07
285.52	1740.77
285.74	1656.81
285.95	1744.87
286.17	1748.97
286.38	1730.53
286.60	1685.48
286.81	1697.77
287.03	1712.10
287.24	1730.53
287.46	1736.68
287.67	1718.25
287.89	1814.50
288.10	1714.15
288.32	1773.54
288.53	1826.79
288.75	1718.25
288.96	1693.67
289.18	1687.53
289.39	1714.15
289.61	1796.07
289.82	1847.27
290.04	1837.03
290.25	1591.27
290.47	1716.20
290.68	1697.77
290.90	1804.26
291.11	1638.38
291.33	1783.78
291.54	1581.03
291.76	1714.15
291.97	1689.57
292.18	1722.34
292.40	1720.29
292.61	1665.00
292.83	1818.60
293.04	1716.20
293.26	1751.01
293.47	1662.95
293.69	1726.44
293.90	1685.48
294.12	1808.36
294.33	1693.67
294.55	1675.24
294.76	1771.49
294.97	1816.55
295.19	1873.89
295.40	1619.94
295.62	1746.92
295.83	1816.55
296.05	1742.82
296.26	1716.20
296.48	1708.01
296.69	1734.63
296.90	1619.94
297.12	1800.16
297.33	1804.26
297.55	1705.96
297.76	1691.62
297.98	1740.77
298.19	1755.11
298.41	1785.83
298.62	1648.61
298.83	1808.36
299.05	1755.11
299.26	1634.28
299.48	1701.86
299.69	1742.82
299.90	1695.72
300.12	1589.22
300.33	1746.92
300.55	1736.68
300.76	1718.25
300.98	1681.38
301.19	1748.97
301.40	1716.20
301.62	1763.30
301.83	1765.35
302.05	1708.01
302.26	1685.48
302.47	1724.39
302.69	1648.61
302.90	1748.97
303.12	1607.66
303.33	1665.00
303.54	1894.37
303.76	1738.73
303.97	1708.01
304.19	1863.65
304.40	1679.33
304.61	1798.12
304.83	1818.60
305.04	1691.62
305.26	1654.76
305.47	1587.18
305.68	1695.72
305.90	1656.81
306.11	1789.92
306.33	1697.77
306.54	1615.85
306.75	1679.33
306.97	1544.17
307.18	1628.14
307.39	1679.33
307.61	1771.49
307.82	1716.20
308.04	1691.62
308.25	1660.90
308.46	1736.68
308.68	1638.38
308.89	1748.97
309.10	1824.74
309.32	1738.73
309.53	1687.53
309.74	1693.67
309.96	1701.86
310.17	1751.01
310.39	1650.66
310.60	1728.49
310.81	1671.14
311.03	1656.81
311.24	1705.96
311.45	1734.63
311.67	1804.26
311.88	1701.86
312.09	1714.15
312.31	1685.48
312.52	1677.29
312.73	1744.87
312.95	1609.70
313.16	1644.52
313.37	1800.16
313.59	1685.48
313.80	1814.50
314.01	1828.84
314.23	1746.92
314.44	1681.38
314.65	1667.05
314.87	1671.14
315.08	1636.33
315.29	1697.77
315.51	1673.19
315.72	1619.94
315.93	1787.88
316.15	1753.06
316.36	1679.33
316.57	1726.44
316.79	1798.12
317.00	1667.05
317.21	1773.54
317.43	1730.53
317.64	1742.82
317.85	1632.23
318.07	1669.09
318.28	1757.16
318.49	1882.08
318.70	1988.58
318.92	1912.80
319.13	1935.33
319.34	1941.47
319.56	1849.32
319.77	1808.36
319.98	1849.32
320.20	1849.32
320.41	1699.81
320.62	1789.92
320.83	1703.91
321.05	1875.94
321.26	1689.57
321.47	1677.29
321.69	1673.19
321.90	1673.19
322.11	1796.07
322.32	1718.25
322.54	1810.40
322.75	1667.05
322.96	1898.47
323.18	1589.22
323.39	1638.38
323.60	1660.90
323.81	1789.92
324.03	1705.96
324.24	1720.29
324.45	1769.44
324.66	1681.38
324.88	1775.59
325.09	1810.40
325.30	1695.72
325.52	1716.20
325.73	1724.39
325.94	1687.53
326.15	1665.00
326.37	1685.48
326.58	1712.10
326.79	1808.36
327.00	1738.73
327.22	1732.58
327.43	1644.52
327.64	1652.71
327.85	1681.38
328.07	1736.68
328.28	1841.12
328.49	1658.85
328.70	1708.01
328.92	1673.19
329.13	1675.24
329.34	1771.49
329.55	1869.80
329.76	1826.79
329.98	1658.85
330.19	1705.96
330.40	1726.44
330.61	1763.30
330.83	1804.26
331.04	1656.81
331.25	1728.49
331.46	1687.53
331.68	1660.90
331.89	1751.01
332.10	1617.90
332.31	1669.09
332.52	1742.82
332.74	1767.40
332.95	1665.00
333.16	1703.91
333.37	1665.00
333.58	1705.96
333.80	1714.15
334.01	1601.51
334.22	1679.33
334.43	1617.90
334.64	1718.25
334.86	1644.52
335.07	1632.23
335.28	1767.40
335.49	1644.52
335.70	1779.68
335.92	1746.92
336.13	1777.64
336.34	1759.21
336.55	1722.34
336.76	1757.16
336.98	1619.94
337.19	1798.12
337.40	1791.97
337.61	1812.45
337.82	1699.81
338.04	1736.68
338.25	1593.32
338.46	1638.38
338.67	1656.81
338.88	1640.42
339.09	1738.73
339.31	1714.15
339.52	1648.61
339.73	1613.80
339.94	1781.73
340.15	1796.07
340.36	1658.85
340.58	1703.91
340.79	1617.90
341.00	1812.45
341.21	1701.86
341.42	1828.84
341.63	1673.19
341.85	1726.44
342.06	1744.87
342.27	1650.66
342.48	1736.68
342.69	1656.81
342.90	1693.67
343.12	1675.24
343.33	1685.48
343.54	1738.73
343.75	1814.50
343.96	1701.86
344.17	1646.57
344.38	1681.38
344.60	1624.04
344.81	1718.25
345.02	1708.01
345.23	1712.10
345.44	1853.41
345.65	1759.21
345.86	1722.34
346.07	1705.96
346.29	1746.92
346.50	1736.68
346.71	1738.73
346.92	1789.92
347.13	1824.74
347.34	1701.86
347.55	1703.91
347.76	1802.21
347.98	1601.51
348.19	1712.10
348.40	1855.46
348.61	1724.39
348.82	1806.31
349.03	1757.16
349.24	1677.29
349.45	1845.22
349.66	1624.04
349.88	1648.61
350.09	1681.38
350.30	1716.20
350.51	1789.92
350.72	1777.64
350.93	1726.44
351.14	1746.92
351.35	1722.34
351.56	1716.20
351.77	1703.91
351.99	1798.12
352.20	1761.25
352.41	1769.44
352.62	1660.90
352.83	1714.15
353.04	1775.59
353.25	1652.71
353.46	1701.86
353.67	1785.83
353.88	1656.81
354.09	1789.92
354.30	1748.97
354.52	1734.63
354.73	1710.05
354.94	1738.73
355.15	1712.10
355.36	1742.82
355.57	1687.53
355.78	1669.09
355.99	1689.57
356.20	1648.61
356.41	1726.44
356.62	1794.02
356.83	1703.91
357.04	1892.32
357.25	1652.71
357.46	1714.15
357.68	1605.61
357.89	1642.47
358.10	1734.63
358.31	1738.73
358.52	1708.01
358.73	1660.90
358.94	1630.18
359.15	1640.42
359.36	1861.60
359.57	1699.81
359.78	1673.19
359.99	1718.25
360.20	1677.29
360.41	1820.64
360.62	1738.73
360.83	1681.38
361.04	1783.78
361.25	1705.96
361.46	1888.23
361.67	1740.77
361.88	1828.84
362.09	1718.25
362.30	1738.73
362.51	1585.13
362.72	1632.23
362.93	1699.81
363.14	1843.17
363.35	1689.57
363.56	1677.29
363.78	1810.40
363.99	1892.32
364.20	1699.81
364.41	1732.58
364.62	1787.88
364.83	1714.15
365.04	1738.73
365.25	1634.28
365.46	1785.83
365.67	1654.76
365.88	1746.92
366.09	1734.63
366.30	1718.25
366.51	1703.91
366.72	1665.00
366.93	1677.29
367.14	1675.24
367.35	1753.06
367.56	1738.73
367.77	1808.36
367.98	1662.95
368.18	1761.25
368.39	1804.26
368.60	1624.04
368.81	1775.59
369.02	1757.16
369.23	1763.30
369.44	1613.80
369.65	1708.01
369.86	1699.81
370.07	1755.11
370.28	1689.57
370.49	1761.25
370.70	1718.25
370.91	1671.14
371.12	1703.91
371.33	1736.68
371.54	1693.67
371.75	1814.50
371.96	1611.75
372.17	1767.40
372.38	1759.21
372.59	1728.49
372.80	1679.33
373.01	1730.53
373.22	1751.01
373.43	1654.76
373.64	1697.77
373.85	1726.44
374.06	1886.18
374.26	1761.25
374.47	1771.49
374.68	1812.45
374.89	1789.92
375.10	1701.86
375.31	1834.98
375.52	1742.82
375.73	1724.39
375.94	1714.15
376.15	1834.98
376.36	1615.85
376.57	1665.00
376.78	1765.35
376.99	1748.97
377.20	1777.64
377.40	1714.15
377.61	1808.36
377.82	1656.81
378.03	1765.35
378.24	1677.29
378.45	1714.15
378.66	1644.52
378.87	1638.38
379.08	1679.33
379.29	1718.25
379.50	1757.16
379.71	1665.00
379.91	1767.40
380.12	1710.05
380.33	1779.68
380.54	1742.82
380.75	1736.68
380.96	1665.00
381.17	1779.68
381.38	1697.77
381.59	1654.76
381.80	1701.86
382.00	1902.56
382.21	1877.99
382.42	1794.02
382.63	1877.99
382.84	1681.38
383.05	1783.78
383.26	1810.40
383.47	1796.07
383.68	1761.25
383.88	1742.82
384.09	1763.30
384.30	1742.82
384.51	1761.25
384.72	1732.58
384.93	1621.99
385.14	1730.53
385.35	1806.31
385.55	1710.05
385.76	1695.72
385.97	1726.44
386.18	1679.33
386.39	1705.96
386.60	1652.71
386.81	1753.06
387.02	1802.21
387.22	1626.09
387.43	1777.64
387.64	1820.64
387.85	1945.57
388.06	2267.10
388.27	4636.60
388.48	9162.61
388.68	11859.79
388.89	13387.57
389.10	14096.17
389.31	12033.86
389.52	9623.41
389.73	8619.90
389.93	7813.00
390.14	7305.10
390.35	6588.32
390.56	5910.44
390.77	5044.15
390.98	3837.89
391.18	3047.38
391.39	2324.44
391.60	1990.63
391.81	1861.60
392.02	1789.92
392.23	1900.52
392.43	1714.15
392.64	1818.60
392.85	1724.39
393.06	1804.26
393.27	1714.15
393.47	1701.86
393.68	1712.10
393.89	1691.62
394.10	1882.08
394.31	1607.66
394.52	1683.43
394.72	1691.62
394.93	1773.54
395.14	1744.87
395.35	1732.58
395.56	1669.09
395.76	1736.68
395.97	1828.84
396.18	1937.38
396.39	1964.00
396.60	2047.97
396.80	1939.43
397.01	1888.23
397.22	1832.93
397.43	1914.85
397.64	1732.58
397.84	1861.60
398.05	1976.29
398.26	1763.30
398.47	1875.94
398.67	1757.16
398.88	1683.43
399.09	1710.05
399.30	1669.09
399.51	1830.88
399.71	1640.42
399.92	1708.01
400.13	1691.62
400.34	1691.62
400.54	1751.01
400.75	1834.98
400.96	1732.58
401.17	1812.45
401.37	1812.45
401.58	1718.25
401.79	1738.73
402.00	1779.68
402.21	2107.36
402.41	2117.60
402.62	2154.46
402.83	2181.09
403.04	2105.31
403.24	2093.02
403.45	1832.93
403.66	1986.53
403.87	1996.77
404.07	1923.04
404.28	1925.09
404.49	2009.06
404.70	1781.73
404.90	1775.59
405.11	1785.83
405.32	1771.49
405.52	1699.81
405.73	1697.77
405.94	1724.39
406.15	1734.63
406.35	1779.68
406.56	1755.11
406.77	1785.83
406.98	1757.16
407.18	1722.34
407.39	1751.01
407.60	1626.09
407.80	1746.92
408.01	1671.14
408.22	1710.05
408.43	1695.72
408.63	1767.40
408.84	1744.87
409.05	1738.73
409.25	1652.71
409.46	1738.73
409.67	1671.14
409.88	1738.73
410.08	1728.49
410.29	1738.73
410.50	1708.01
410.70	1689.57
410.91	1767.40
411.12	1701.86
411.32	1757.16
411.53	1710.05
411.74	1863.65
411.95	1773.54
412.15	1830.88
412.36	1820.64
412.57	1738.73
412.77	1828.84
412.98	1755.11
413.19	1734.63
413.39	1806.31
413.60	1767.40
413.81	1777.64
414.01	1636.33
414.22	1742.82
414.43	1841.12
414.63	1722.34
414.84	1761.25
415.05	1689.57
415.25	1673.19
415.46	1757.16
415.67	1703.91
415.87	1761.25
416.08	1640.42
416.29	1726.44
416.49	1751.01
416.70	1724.39
416.91	1722.34
417.11	1730.53
417.32	1716.20
417.53	1755.11
417.73	1773.54
417.94	1652.71
418.15	1701.86
418.35	1708.01
418.56	1697.77
418.77	1873.89
418.97	1755.11
419.18	1724.39
419.38	1599.46
419.59	1658.85
419.80	1814.50
420.00	1646.57
420.21	1796.07
420.42	1734.63
420.62	1742.82
420.83	1621.99
421.04	1705.96
421.24	1730.53
421.45	1730.53
421.65	1736.68
421.86	1640.42
422.07	1736.68
422.27	1722.34
422.48	1708.01
422.69	1710.05
422.89	1808.36
423.10	1755.11
423.30	1607.66
423.51	1728.49
423.72	1771.49
423.92	1781.73
424.13	1697.77
424.33	1755.11
424.54	1683.43
424.75	1771.49
424.95	1767.40
425.16	1685.48
425.36	1751.01
425.57	1785.83
425.78	1806.31
425.98	1757.16
426.19	1644.52
426.39	1671.14
426.60	1800.16
426.81	1755.11
427.01	1732.58
427.22	1779.68
427.42	1621.99
427.63	1718.25
427.83	1785.83
428.04	1781.73
428.25	1769.44
428.45	1742.82
428.66	1798.12
428.86	1730.53
429.07	1746.92
429.28	1695.72
429.48	1644.52
429.69	1714.15
429.89	1724.39
430.10	1693.67
430.30	1695.72
430.51	1822.69
430.71	1621.99
430.92	1685.48
431.13	1796.07
431.33	1804.26
431.54	1742.82
431.74	1841.12
431.95	1820.64
432.15	1646.57
432.36	1769.44
432.56	1802.21
432.77	1789.92
432.98	1808.36
433.18	1736.68
433.39	1724.39
433.59	1632.23
433.80	1849.32
434.00	1794.02
434.21	1652.71
434.41	1642.47
434.62	1875.94
434.82	1658.85
435.03	1662.95
435.23	1662.95
435.44	1589.22
435.64	1691.62
435.85	1712.10
436.06	1738.73
436.26	1791.97
436.47	1689.57
436.67	1648.61
436.88	1701.86
437.08	1785.83
437.29	1734.63
437.49	1726.44
437.70	1789.92
437.90	1708.01
438.11	1855.46
438.31	1841.12
438.52	1843.17
438.72	1914.85
438.93	2017.25
439.13	1830.88
439.34	1845.22
439.54	1841.12
439.75	1802.21
439.95	1812.45
440.16	1685.48
440.36	1820.64
440.57	1832.93
440.77	1779.68
440.98	1738.73
441.18	1720.29
441.39	1699.81
441.59	1751.01
441.80	1802.21
442.00	1726.44
442.21	1779.68
442.41	1632.23
442.62	1755.11
442.82	1652.71
443.02	1738.73
443.23	1748.97
443.43	1822.69
443.64	1800.16
443.84	1724.39
444.05	1806.31
444.25	1761.25
444.46	1730.53
444.66	1777.64
444.87	1822.69
445.07	1677.29
445.28	1732.58
445.48	1880.04
445.69	1781.73
445.89	1882.08
446.09	1777.64
446.30	1990.63
446.50	2627.54
446.71	4063.17
446.91	5199.79
447.12	5699.50
447.32	6057.89
447.53	5318.57
447.73	4519.87
447.93	3991.49
448.14	3602.38
448.34	3475.40
448.55	3223.50
448.75	3069.91
448.96	2932.69
449.16	2627.54
449.36	2492.38
449.57	2209.76
449.77	1837.03
449.98	1783.78
450.18	1810.40
450.39	1718.25
450.59	1785.83
450.79	1748.97
451.00	1685.48
451.20	1775.59
451.41	1667.05
451.61	1779.68
451.81	1701.86
452.02	1773.54
452.22	1781.73
452.43	1744.87
452.63	1705.96
