SpectraSuite Data File
++++++++++++++++++++++++++++++++++++
Date: Wed May 04 18:44:21 CEST 2016
User: root
Dark Spectrum Present: No
Reference Spectrum Present: No
Number of Sampled Component Spectra: 1
Spectrometers: USB4C02835
Integration Time (usec): 100000 (USB4C02835)
Spectra Averaged: 1 (USB4C02835)
Boxcar Smoothing: 0 (USB4C02835)
Correct for Electrical Dark: No (USB4C02835)
Strobe/Lamp Enabled: No (USB4C02835)
Correct for Detector Non-linearity: No (USB4C02835)
Correct for Stray Light: No (USB4C02835)
Number of Pixels in Processed Spectrum: 3648
>>>>>Begin Processed Spectral Data<<<<<
177.47	1439.72
177.69	1439.72
177.91	1439.72
178.13	1443.82
178.36	1497.07
178.58	1601.51
178.80	1787.88
179.02	1587.18
179.24	1605.61
179.46	1679.33
179.68	1757.16
179.90	1734.63
180.13	1757.16
180.35	1673.19
180.57	1669.09
180.79	1767.40
181.01	1738.73
181.23	1689.57
181.45	1777.64
181.67	1744.87
181.90	1761.25
182.12	1583.08
182.34	1654.76
182.56	1759.21
182.78	1716.20
183.00	1652.71
183.22	1705.96
183.44	1613.80
183.66	1845.22
183.89	1714.15
184.11	1742.82
184.33	1708.01
184.55	1759.21
184.77	1763.30
184.99	1689.57
185.21	1701.86
185.43	1837.03
185.65	1705.96
185.87	1742.82
186.10	1810.40
186.32	1812.45
186.54	1665.00
186.76	1791.97
186.98	1808.36
187.20	1796.07
187.42	1685.48
187.64	1734.63
187.86	1691.62
188.08	1769.44
188.30	1693.67
188.52	1724.39
188.75	1753.06
188.97	1853.41
189.19	1720.29
189.41	1765.35
189.63	1734.63
189.85	1746.92
190.07	1640.42
190.29	1628.14
190.51	1748.97
190.73	1648.61
190.95	1802.21
191.17	1751.01
191.39	1617.90
191.61	1748.97
191.84	1619.94
192.06	1732.58
192.28	1583.08
192.50	1902.56
192.72	1742.82
192.94	1644.52
193.16	1816.55
193.38	1691.62
193.60	1660.90
193.82	1710.05
194.04	1691.62
194.26	1783.78
194.48	1695.72
194.70	1621.99
194.92	1787.88
195.14	1732.58
195.36	1646.57
195.58	1736.68
195.80	1722.34
196.02	1669.09
196.24	1710.05
196.46	1665.00
196.69	1691.62
196.91	1861.60
197.13	1605.61
197.35	1710.05
197.57	1753.06
197.79	1726.44
198.01	1718.25
198.23	1728.49
198.45	1730.53
198.67	1654.76
198.89	1699.81
199.11	1708.01
199.33	1644.52
199.55	1525.74
199.77	1689.57
199.99	1777.64
200.21	1718.25
200.43	1740.77
200.65	1656.81
200.87	1597.42
201.09	1755.11
201.31	1646.57
201.53	1701.86
201.75	1718.25
201.97	1665.00
202.19	1705.96
202.41	1755.11
202.63	1968.10
202.85	1748.97
203.07	1712.10
203.29	1628.14
203.51	1619.94
203.73	1665.00
203.95	1832.93
204.17	1679.33
204.39	1710.05
204.61	1665.00
204.83	1681.38
205.05	1806.31
205.27	1695.72
205.49	1763.30
205.71	1642.47
205.93	1574.89
206.15	1595.37
206.37	1708.01
206.59	1693.67
206.81	1673.19
207.03	1689.57
207.25	1685.48
207.47	1765.35
207.69	1732.58
207.91	1834.98
208.13	1796.07
208.34	1728.49
208.56	1599.46
208.78	1779.68
209.00	1675.24
209.22	1681.38
209.44	1742.82
209.66	1675.24
209.88	1705.96
210.10	1621.99
210.32	1691.62
210.54	1767.40
210.76	1658.85
210.98	1755.11
211.20	1599.46
211.42	1763.30
211.64	1800.16
211.86	1624.04
212.08	1693.67
212.30	1755.11
212.52	1681.38
212.74	1697.77
212.96	1767.40
213.17	1773.54
213.39	1718.25
213.61	1839.08
213.83	1816.55
214.05	1691.62
214.27	1767.40
214.49	1669.09
214.71	1560.55
214.93	1810.40
215.15	1675.24
215.37	1734.63
215.59	1591.27
215.81	1748.97
216.03	1826.79
216.24	1714.15
216.46	1708.01
216.68	1691.62
216.90	1677.29
217.12	1689.57
217.34	1730.53
217.56	1744.87
217.78	1769.44
218.00	1765.35
218.22	1724.39
218.44	1726.44
218.66	1730.53
218.87	1828.84
219.09	1728.49
219.31	1794.02
219.53	1646.57
219.75	1746.92
219.97	1800.16
220.19	1714.15
220.41	1722.34
220.63	1755.11
220.85	1738.73
221.06	1710.05
221.28	1824.74
221.50	1689.57
221.72	1695.72
221.94	1677.29
222.16	1718.25
222.38	1791.97
222.60	1837.03
222.82	1785.83
223.03	1812.45
223.25	1626.09
223.47	1746.92
223.69	1791.97
223.91	1751.01
224.13	1712.10
224.35	1634.28
224.57	1746.92
224.78	1724.39
225.00	1708.01
225.22	1667.05
225.44	1746.92
225.66	1742.82
225.88	1716.20
226.10	1808.36
226.32	1748.97
226.53	1746.92
226.75	1779.68
226.97	1832.93
227.19	1699.81
227.41	1734.63
227.63	1685.48
227.85	1595.37
228.06	1675.24
228.28	1701.86
228.50	1681.38
228.72	1609.70
228.94	1634.28
229.16	1601.51
229.37	1636.33
229.59	1748.97
229.81	1818.60
230.03	1714.15
230.25	1603.56
230.47	1632.23
230.69	1671.14
230.90	1734.63
231.12	1638.38
231.34	1757.16
231.56	1761.25
231.78	1710.05
232.00	1736.68
232.21	1665.00
232.43	1648.61
232.65	1609.70
232.87	1722.34
233.09	1689.57
233.30	1658.85
233.52	1767.40
233.74	1695.72
233.96	1748.97
234.18	1705.96
234.40	1720.29
234.61	1865.70
234.83	1619.94
235.05	1636.33
235.27	1845.22
235.49	1820.64
235.70	1771.49
235.92	1849.32
236.14	1693.67
236.36	1837.03
236.58	1658.85
236.79	1746.92
237.01	1677.29
237.23	1736.68
237.45	1886.18
237.67	1757.16
237.88	1714.15
238.10	1744.87
238.32	1658.85
238.54	1693.67
238.76	1658.85
238.97	1652.71
239.19	1660.90
239.41	1699.81
239.63	1724.39
239.85	1681.38
240.06	1802.21
240.28	1796.07
240.50	1783.78
240.72	1691.62
240.93	1583.08
241.15	1818.60
241.37	1761.25
241.59	1748.97
241.81	1607.66
242.02	1681.38
242.24	1687.53
242.46	1765.35
242.68	1710.05
242.89	1681.38
243.11	1787.88
243.33	1695.72
243.55	1720.29
243.76	1687.53
243.98	1656.81
244.20	1689.57
244.42	1705.96
244.64	1699.81
244.85	1634.28
245.07	1671.14
245.29	1699.81
245.51	1701.86
245.72	1716.20
245.94	1753.06
246.16	1722.34
246.38	1767.40
246.59	1669.09
246.81	1652.71
247.03	1697.77
247.24	1613.80
247.46	1675.24
247.68	1744.87
247.90	1675.24
248.11	1648.61
248.33	1781.73
248.55	1699.81
248.77	1679.33
248.98	1738.73
249.20	1771.49
249.42	1724.39
249.64	1740.77
249.85	1693.67
250.07	1679.33
250.29	1732.58
250.50	1705.96
250.72	1701.86
250.94	1730.53
251.16	1857.51
251.37	1787.88
251.59	1734.63
251.81	1757.16
252.02	1724.39
252.24	1632.23
252.46	1763.30
252.68	1730.53
252.89	1619.94
253.11	1640.42
253.33	1828.84
253.54	1773.54
253.76	1665.00
253.98	1656.81
254.20	1714.15
254.41	1642.47
254.63	1679.33
254.85	1656.81
255.06	1658.85
255.28	1605.61
255.50	1726.44
255.71	1671.14
255.93	1734.63
256.15	1693.67
256.36	1705.96
256.58	1734.63
256.80	1738.73
257.02	1685.48
257.23	1665.00
257.45	1648.61
257.67	1802.21
257.88	1673.19
258.10	1683.43
258.32	1681.38
258.53	1681.38
258.75	1753.06
258.97	1648.61
259.18	1689.57
259.40	1652.71
259.62	1781.73
259.83	1789.92
260.05	1787.88
260.27	1933.28
260.48	1712.10
260.70	1615.85
260.92	1656.81
261.13	1695.72
261.35	1716.20
261.57	1757.16
261.78	1634.28
262.00	1646.57
262.22	1724.39
262.43	1667.05
262.65	1673.19
262.86	1746.92
263.08	1857.51
263.30	1755.11
263.51	1593.32
263.73	1638.38
263.95	1736.68
264.16	1578.98
264.38	1695.72
264.60	1806.31
264.81	1800.16
265.03	1753.06
265.25	1724.39
265.46	1640.42
265.68	1759.21
265.89	1806.31
266.11	1626.09
266.33	1767.40
266.54	1755.11
266.76	1730.53
266.98	1736.68
267.19	1810.40
267.41	1699.81
267.62	1732.58
267.84	1591.27
268.06	1722.34
268.27	1738.73
268.49	1798.12
268.70	1726.44
268.92	1701.86
269.14	1695.72
269.35	1601.51
269.57	1763.30
269.79	1769.44
270.00	1687.53
270.22	1744.87
270.43	1644.52
270.65	1628.14
270.87	1765.35
271.08	1796.07
271.30	1742.82
271.51	1705.96
271.73	1685.48
271.95	1755.11
272.16	1648.61
272.38	1767.40
272.59	1683.43
272.81	1714.15
273.02	1806.31
273.24	1748.97
273.46	1783.78
273.67	1644.52
273.89	1619.94
274.10	1701.86
274.32	1730.53
274.54	1708.01
274.75	1685.48
274.97	1783.78
275.18	1744.87
275.40	1757.16
275.61	1658.85
275.83	1689.57
276.05	1705.96
276.26	1697.77
276.48	1734.63
276.69	1695.72
276.91	1712.10
277.12	1845.22
277.34	1791.97
277.55	1732.58
277.77	1757.16
277.99	1699.81
278.20	1667.05
278.42	1583.08
278.63	1665.00
278.85	1685.48
279.06	1712.10
279.28	1705.96
279.49	1736.68
279.71	1722.34
279.93	1759.21
280.14	1744.87
280.36	1617.90
280.57	1718.25
280.79	1763.30
281.00	1695.72
281.22	1697.77
281.43	1777.64
281.65	1603.56
281.86	1640.42
282.08	1673.19
282.29	1873.89
282.51	1605.61
282.73	1624.04
282.94	1658.85
283.16	1720.29
283.37	1730.53
283.59	1679.33
283.80	1748.97
284.02	1685.48
284.23	1726.44
284.45	1730.53
284.66	1701.86
284.88	1732.58
285.09	1742.82
285.31	1710.05
285.52	1708.01
285.74	1685.48
285.95	1783.78
286.17	1779.68
286.38	1742.82
286.60	1636.33
286.81	1585.13
287.03	1791.97
287.24	1712.10
287.46	1751.01
287.67	1685.48
287.89	1849.32
288.10	1648.61
288.32	1699.81
288.53	1845.22
288.75	1746.92
288.96	1701.86
289.18	1699.81
289.39	1720.29
289.61	1753.06
289.82	1765.35
290.04	1861.60
290.25	1794.02
290.47	1687.53
290.68	1742.82
290.90	1714.15
291.11	1589.22
291.33	1742.82
291.54	1691.62
291.76	1679.33
291.97	1710.05
292.18	1767.40
292.40	1667.05
292.61	1599.46
292.83	1839.08
293.04	1751.01
293.26	1669.09
293.47	1722.34
293.69	1681.38
293.90	1751.01
294.12	1689.57
294.33	1714.15
294.55	1671.14
294.76	1779.68
294.97	1732.58
295.19	1783.78
295.40	1734.63
295.62	1755.11
295.83	1738.73
296.05	1671.14
296.26	1783.78
296.48	1732.58
296.69	1626.09
296.90	1748.97
297.12	1734.63
297.33	1863.65
297.55	1775.59
297.76	1716.20
297.98	1683.43
298.19	1722.34
298.41	1726.44
298.62	1685.48
298.83	1767.40
299.05	1677.29
299.26	1669.09
299.48	1615.85
299.69	1710.05
299.90	1765.35
300.12	1648.61
300.33	1671.14
300.55	1753.06
300.76	1767.40
300.98	1597.42
301.19	1644.52
301.40	1677.29
301.62	1691.62
301.83	1832.93
302.05	1732.58
302.26	1621.99
302.47	1689.57
302.69	1624.04
302.90	1662.95
303.12	1615.85
303.33	1720.29
303.54	1755.11
303.76	1667.05
303.97	1718.25
304.19	1763.30
304.40	1607.66
304.61	1759.21
304.83	1800.16
305.04	1751.01
305.26	1804.26
305.47	1695.72
305.68	1708.01
305.90	1656.81
306.11	1771.49
306.33	1726.44
306.54	1708.01
306.75	1689.57
306.97	1626.09
307.18	1630.18
307.39	1673.19
307.61	1710.05
307.82	1703.91
308.04	1765.35
308.25	1609.70
308.46	1769.44
308.68	1734.63
308.89	1697.77
309.10	1767.40
309.32	1765.35
309.53	1675.24
309.74	1695.72
309.96	1681.38
310.17	1757.16
310.39	1701.86
310.60	1761.25
310.81	1699.81
311.03	1605.61
311.24	1740.77
311.45	1773.54
311.67	1882.08
311.88	1769.44
312.09	1734.63
312.31	1712.10
312.52	1751.01
312.73	1705.96
312.95	1609.70
313.16	1681.38
313.37	1712.10
313.59	1718.25
313.80	1720.29
314.01	1822.69
314.23	1757.16
314.44	1703.91
314.65	1640.42
314.87	1634.28
315.08	1656.81
315.29	1652.71
315.51	1667.05
315.72	1650.66
315.93	1748.97
316.15	1812.45
316.36	1644.52
316.57	1738.73
316.79	1689.57
317.00	1716.20
317.21	1740.77
317.43	1685.48
317.64	1701.86
317.85	1640.42
318.07	1671.14
318.28	1738.73
318.49	1910.75
318.70	2004.96
318.92	1947.62
319.13	1863.65
319.34	1839.08
319.56	1904.61
319.77	1900.52
319.98	1871.84
320.20	1828.84
320.41	1789.92
320.62	1820.64
320.83	1667.05
321.05	1818.60
321.26	1814.50
321.47	1677.29
321.69	1763.30
321.90	1720.29
322.11	1613.80
322.32	1693.67
322.54	1800.16
322.75	1701.86
322.96	1837.03
323.18	1695.72
323.39	1638.38
323.60	1681.38
323.81	1765.35
324.03	1683.43
324.24	1669.09
324.45	1730.53
324.66	1665.00
324.88	1753.06
325.09	1789.92
325.30	1703.91
325.52	1734.63
325.73	1740.77
325.94	1691.62
326.15	1603.56
326.37	1636.33
326.58	1892.32
326.79	1779.68
327.00	1730.53
327.22	1755.11
327.43	1646.57
327.64	1599.46
327.85	1746.92
328.07	1677.29
328.28	1726.44
328.49	1624.04
328.70	1746.92
328.92	1660.90
329.13	1783.78
329.34	1744.87
329.55	1808.36
329.76	1722.34
329.98	1671.14
330.19	1685.48
330.40	1751.01
330.61	1697.77
330.83	1787.88
331.04	1619.94
331.25	1691.62
331.46	1732.58
331.68	1617.90
331.89	1732.58
332.10	1722.34
332.31	1640.42
332.52	1705.96
332.74	1779.68
332.95	1699.81
333.16	1701.86
333.37	1759.21
333.58	1644.52
333.80	1697.77
334.01	1599.46
334.22	1662.95
334.43	1720.29
334.64	1673.19
334.86	1683.43
335.07	1648.61
335.28	1798.12
335.49	1630.18
335.70	1699.81
335.92	1798.12
336.13	1796.07
336.34	1765.35
336.55	1779.68
336.76	1714.15
336.98	1617.90
337.19	1667.05
337.40	1753.06
337.61	1886.18
337.82	1669.09
338.04	1669.09
338.25	1703.91
338.46	1714.15
338.67	1730.53
338.88	1718.25
339.09	1695.72
339.31	1734.63
339.52	1632.23
339.73	1607.66
339.94	1773.54
340.15	1771.49
340.36	1654.76
340.58	1730.53
340.79	1630.18
341.00	1703.91
341.21	1685.48
341.42	1832.93
341.63	1681.38
341.85	1759.21
342.06	1718.25
342.27	1642.47
342.48	1697.77
342.69	1656.81
342.90	1730.53
343.12	1738.73
343.33	1642.47
343.54	1662.95
343.75	1855.46
343.96	1660.90
344.17	1693.67
344.38	1683.43
344.60	1710.05
344.81	1607.66
345.02	1720.29
345.23	1845.22
345.44	1877.99
345.65	1826.79
345.86	1751.01
346.07	1755.11
346.29	1679.33
346.50	1665.00
346.71	1787.88
346.92	1779.68
347.13	1857.51
347.34	1689.57
347.55	1636.33
347.76	1748.97
347.98	1642.47
348.19	1679.33
348.40	1775.59
348.61	1685.48
348.82	1751.01
349.03	1716.20
349.24	1648.61
349.45	1824.74
349.66	1566.70
349.88	1722.34
350.09	1624.04
350.30	1796.07
350.51	1765.35
350.72	1689.57
350.93	1705.96
351.14	1763.30
351.35	1757.16
351.56	1695.72
351.77	1673.19
351.99	1675.24
352.20	1812.45
352.41	1781.73
352.62	1542.12
352.83	1681.38
353.04	1736.68
353.25	1615.85
353.46	1775.59
353.67	1773.54
353.88	1662.95
354.09	1691.62
354.30	1755.11
354.52	1705.96
354.73	1714.15
354.94	1732.58
355.15	1718.25
355.36	1837.03
355.57	1634.28
355.78	1683.43
355.99	1658.85
356.20	1753.06
356.41	1781.73
356.62	1734.63
356.83	1708.01
357.04	1783.78
357.25	1636.33
357.46	1654.76
357.68	1601.51
357.89	1722.34
358.10	1722.34
358.31	1726.44
358.52	1767.40
358.73	1662.95
358.94	1632.23
359.15	1654.76
359.36	1785.83
359.57	1660.90
359.78	1646.57
359.99	1759.21
360.20	1638.38
360.41	1654.76
360.62	1705.96
360.83	1787.88
361.04	1783.78
361.25	1640.42
361.46	1828.84
361.67	1722.34
361.88	1794.02
362.09	1736.68
362.30	1673.19
362.51	1740.77
362.72	1726.44
362.93	1769.44
363.14	1705.96
363.35	1705.96
363.56	1669.09
363.78	1748.97
363.99	1738.73
364.20	1710.05
364.41	1683.43
364.62	1751.01
364.83	1703.91
365.04	1732.58
365.25	1710.05
365.46	1818.60
365.67	1691.62
365.88	1703.91
366.09	1751.01
366.30	1708.01
366.51	1712.10
366.72	1703.91
366.93	1619.94
367.14	1679.33
367.35	1794.02
367.56	1703.91
367.77	1787.88
367.98	1705.96
368.18	1681.38
368.39	1820.64
368.60	1630.18
368.81	1839.08
369.02	1732.58
369.23	1677.29
369.44	1683.43
369.65	1675.24
369.86	1728.49
370.07	1746.92
370.28	1621.99
370.49	1751.01
370.70	1746.92
370.91	1585.13
371.12	1603.56
371.33	1839.08
371.54	1656.81
371.75	1769.44
371.96	1640.42
372.17	1703.91
372.38	1636.33
372.59	1746.92
372.80	1724.39
373.01	1689.57
373.22	1675.24
373.43	1689.57
373.64	1626.09
373.85	1763.30
374.06	1863.65
374.26	1773.54
374.47	1689.57
374.68	1806.31
374.89	1697.77
375.10	1714.15
375.31	1800.16
375.52	1693.67
375.73	1689.57
375.94	1677.29
376.15	1824.74
376.36	1599.46
376.57	1691.62
376.78	1634.28
376.99	1740.77
377.20	1771.49
377.40	1679.33
377.61	1759.21
377.82	1697.77
378.03	1738.73
378.24	1718.25
378.45	1734.63
378.66	1673.19
378.87	1685.48
379.08	1640.42
379.29	1714.15
379.50	1765.35
379.71	1603.56
379.91	1775.59
380.12	1767.40
380.33	1677.29
380.54	1667.05
380.75	1708.01
380.96	1738.73
381.17	1794.02
381.38	1740.77
381.59	1705.96
381.80	1771.49
382.00	1949.67
382.21	1757.16
382.42	1880.04
382.63	1898.47
382.84	1755.11
383.05	1781.73
383.26	1791.97
383.47	1732.58
383.68	1820.64
383.88	1695.72
384.09	1724.39
384.30	1810.40
384.51	1722.34
384.72	1673.19
384.93	1640.42
385.14	1697.77
385.35	1787.88
385.55	1632.23
385.76	1767.40
385.97	1728.49
386.18	1677.29
386.39	1787.88
386.60	1660.90
386.81	1740.77
387.02	1714.15
387.22	1607.66
387.43	1806.31
387.64	1865.70
387.85	1859.56
388.06	2226.14
388.27	4788.15
388.48	9211.76
388.68	11824.97
388.89	13715.25
389.10	14403.36
389.31	12257.09
389.52	9834.35
389.73	8621.95
389.93	7794.57
390.14	7399.31
390.35	6645.66
390.56	6129.57
390.77	5130.16
390.98	4016.07
391.18	3059.67
391.39	2447.32
391.60	1992.67
391.81	1800.16
392.02	1818.60
392.23	1839.08
392.43	1746.92
392.64	1900.52
392.85	1779.68
393.06	1822.69
393.27	1695.72
393.47	1644.52
393.68	1667.05
393.89	1714.15
394.10	1767.40
394.31	1677.29
394.52	1656.81
394.72	1699.81
394.93	1796.07
395.14	1726.44
395.35	1818.60
395.56	1667.05
395.76	1740.77
395.97	1802.21
396.18	1873.89
396.39	1992.67
396.60	2013.15
396.80	1974.24
397.01	1888.23
397.22	1796.07
397.43	1810.40
397.64	1855.46
397.84	1796.07
398.05	1892.32
398.26	1845.22
398.47	1818.60
398.67	1839.08
398.88	1751.01
399.09	1826.79
399.30	1652.71
399.51	1818.60
399.71	1597.42
399.92	1689.57
400.13	1726.44
400.34	1712.10
400.54	1757.16
400.75	1796.07
400.96	1763.30
401.17	1812.45
401.37	1761.25
401.58	1695.72
401.79	1687.53
402.00	1824.74
402.21	2021.35
402.41	1970.15
402.62	2107.36
402.83	2183.13
403.04	2090.98
403.24	2152.42
403.45	1933.28
403.66	2007.01
403.87	1877.99
404.07	1939.43
404.28	1970.15
404.49	1886.18
404.70	1777.64
404.90	1824.74
405.11	1744.87
405.32	1703.91
405.52	1619.94
405.73	1701.86
405.94	1673.19
406.15	1791.97
406.35	1759.21
406.56	1763.30
406.77	1669.09
406.98	1783.78
407.18	1736.68
407.39	1720.29
407.60	1716.20
407.80	1722.34
408.01	1693.67
408.22	1804.26
408.43	1673.19
408.63	1804.26
408.84	1740.77
409.05	1738.73
409.25	1738.73
409.46	1699.81
409.67	1640.42
409.88	1669.09
410.08	1767.40
410.29	1763.30
410.50	1765.35
410.70	1755.11
410.91	1669.09
411.12	1767.40
411.32	1773.54
411.53	1677.29
411.74	1849.32
411.95	1849.32
412.15	1806.31
412.36	1806.31
412.57	1826.79
412.77	1863.65
412.98	1796.07
413.19	1701.86
413.39	1804.26
413.60	1738.73
413.81	1824.74
414.01	1755.11
414.22	1728.49
414.43	1722.34
414.63	1691.62
414.84	1783.78
415.05	1755.11
415.25	1630.18
415.46	1697.77
415.67	1644.52
415.87	1748.97
416.08	1732.58
416.29	1650.66
416.49	1763.30
416.70	1683.43
416.91	1726.44
417.11	1732.58
417.32	1789.92
417.53	1781.73
417.73	1730.53
417.94	1665.00
418.15	1660.90
418.35	1738.73
418.56	1720.29
418.77	1814.50
418.97	1703.91
419.18	1710.05
419.38	1644.52
419.59	1665.00
419.80	1804.26
420.00	1726.44
420.21	1687.53
420.42	1783.78
420.62	1728.49
420.83	1599.46
421.04	1665.00
421.24	1624.04
421.45	1804.26
421.65	1701.86
421.86	1689.57
422.07	1724.39
422.27	1691.62
422.48	1748.97
422.69	1642.47
422.89	1751.01
423.10	1693.67
423.30	1621.99
423.51	1730.53
423.72	1699.81
423.92	1748.97
424.13	1683.43
424.33	1736.68
424.54	1748.97
424.75	1691.62
424.95	1781.73
425.16	1771.49
425.36	1638.38
425.57	1763.30
425.78	1794.02
425.98	1806.31
426.19	1656.81
426.39	1699.81
426.60	1687.53
426.81	1818.60
427.01	1800.16
427.22	1677.29
427.42	1675.24
427.63	1697.77
427.83	1763.30
428.04	1839.08
428.25	1804.26
428.45	1787.88
428.66	1771.49
428.86	1665.00
429.07	1693.67
429.28	1685.48
429.48	1708.01
429.69	1697.77
429.89	1796.07
430.10	1662.95
430.30	1751.01
430.51	1730.53
430.71	1656.81
430.92	1769.44
431.13	1728.49
431.33	1681.38
431.54	1705.96
431.74	1779.68
431.95	1802.21
432.15	1626.09
432.36	1716.20
432.56	1816.55
432.77	1865.70
432.98	1800.16
433.18	1722.34
433.39	1685.48
433.59	1746.92
433.80	1812.45
434.00	1918.95
434.21	1638.38
434.41	1624.04
434.62	1904.61
434.82	1615.85
435.03	1671.14
435.23	1712.10
435.44	1673.19
435.64	1791.97
435.85	1695.72
436.06	1804.26
436.26	1724.39
436.47	1734.63
436.67	1675.24
436.88	1705.96
437.08	1683.43
437.29	1841.12
437.49	1812.45
437.70	1787.88
437.90	1779.68
438.11	1886.18
438.31	1849.32
438.52	1918.95
438.72	1947.62
438.93	1976.29
439.13	1871.84
439.34	1814.50
439.54	1779.68
439.75	1818.60
439.95	1789.92
440.16	1785.83
440.36	1773.54
440.57	1796.07
440.77	1748.97
440.98	1720.29
441.18	1789.92
441.39	1738.73
441.59	1722.34
441.80	1837.03
442.00	1738.73
442.21	1804.26
442.41	1679.33
442.62	1773.54
442.82	1710.05
443.02	1730.53
443.23	1736.68
443.43	1744.87
443.64	1763.30
443.84	1789.92
444.05	1757.16
444.25	1816.55
444.46	1703.91
444.66	1712.10
444.87	1865.70
445.07	1736.68
445.28	1738.73
445.48	1830.88
445.69	1687.53
445.89	1861.60
446.09	1769.44
446.30	1984.48
446.50	2576.34
446.71	4153.28
446.91	5177.26
447.12	5711.78
447.32	6098.85
447.53	5347.25
447.73	4528.06
447.93	3925.96
448.14	3706.82
448.34	3504.07
448.55	3098.58
448.75	3114.96
448.96	3016.66
449.16	2723.80
449.36	2293.72
449.57	2095.07
449.77	1906.66
449.98	1759.21
450.18	1839.08
450.39	1861.60
450.59	1730.53
450.79	1769.44
451.00	1710.05
451.20	1779.68
451.41	1730.53
451.61	1726.44
451.81	1779.68
452.02	1843.17
452.22	1734.63
452.43	1681.38
452.63	1619.94
