SpectraSuite Data File
++++++++++++++++++++++++++++++++++++
Date: Wed May 04 18:44:23 CEST 2016
User: root
Dark Spectrum Present: No
Reference Spectrum Present: No
Number of Sampled Component Spectra: 1
Spectrometers: USB4C02835
Integration Time (usec): 100000 (USB4C02835)
Spectra Averaged: 1 (USB4C02835)
Boxcar Smoothing: 0 (USB4C02835)
Correct for Electrical Dark: No (USB4C02835)
Strobe/Lamp Enabled: No (USB4C02835)
Correct for Detector Non-linearity: No (USB4C02835)
Correct for Stray Light: No (USB4C02835)
Number of Pixels in Processed Spectrum: 3648
>>>>>Begin Processed Spectral Data<<<<<
177.47	1464.30
177.69	1464.30
177.91	1464.30
178.13	1441.77
178.36	1480.68
178.58	1687.53
178.80	1685.48
179.02	1574.89
179.24	1669.09
179.46	1628.14
179.68	1769.44
179.90	1769.44
180.13	1662.95
180.35	1662.95
180.57	1660.90
180.79	1777.64
181.01	1675.24
181.23	1681.38
181.45	1722.34
181.67	1779.68
181.90	1755.11
182.12	1650.66
182.34	1720.29
182.56	1705.96
182.78	1710.05
183.00	1693.67
183.22	1689.57
183.44	1564.65
183.66	1810.40
183.89	1802.21
184.11	1722.34
184.33	1691.62
184.55	1812.45
184.77	1757.16
184.99	1689.57
185.21	1718.25
185.43	1763.30
185.65	1636.33
185.87	1712.10
186.10	1763.30
186.32	1834.98
186.54	1763.30
186.76	1669.09
186.98	1697.77
187.20	1751.01
187.42	1621.99
187.64	1703.91
187.86	1718.25
188.08	1785.83
188.30	1636.33
188.52	1798.12
188.75	1738.73
188.97	1804.26
189.19	1603.56
189.41	1744.87
189.63	1677.29
189.85	1724.39
190.07	1611.75
190.29	1665.00
190.51	1759.21
190.73	1644.52
190.95	1708.01
191.17	1730.53
191.39	1615.85
191.61	1650.66
191.84	1667.05
192.06	1738.73
192.28	1654.76
192.50	1845.22
192.72	1796.07
192.94	1691.62
193.16	1714.15
193.38	1755.11
193.60	1730.53
193.82	1642.47
194.04	1777.64
194.26	1689.57
194.48	1710.05
194.70	1695.72
194.92	1597.42
195.14	1658.85
195.36	1583.08
195.58	1650.66
195.80	1693.67
196.02	1685.48
196.24	1728.49
196.46	1755.11
196.69	1746.92
196.91	1880.04
197.13	1701.86
197.35	1675.24
197.57	1816.55
197.79	1714.15
198.01	1755.11
198.23	1800.16
198.45	1673.19
198.67	1546.22
198.89	1804.26
199.11	1791.97
199.33	1681.38
199.55	1673.19
199.77	1734.63
199.99	1740.77
200.21	1695.72
200.43	1681.38
200.65	1619.94
200.87	1619.94
201.09	1665.00
201.31	1671.14
201.53	1648.61
201.75	1806.31
201.97	1679.33
202.19	1730.53
202.41	1703.91
202.63	1877.99
202.85	1785.83
203.07	1755.11
203.29	1662.95
203.51	1689.57
203.73	1646.57
203.95	1869.80
204.17	1736.68
204.39	1660.90
204.61	1726.44
204.83	1665.00
205.05	1740.77
205.27	1722.34
205.49	1867.75
205.71	1763.30
205.93	1583.08
206.15	1689.57
206.37	1705.96
206.59	1738.73
206.81	1648.61
207.03	1587.18
207.25	1677.29
207.47	1767.40
207.69	1634.28
207.91	1785.83
208.13	1775.59
208.34	1677.29
208.56	1593.32
208.78	1742.82
209.00	1693.67
209.22	1708.01
209.44	1710.05
209.66	1697.77
209.88	1681.38
210.10	1667.05
210.32	1656.81
210.54	1779.68
210.76	1660.90
210.98	1705.96
211.20	1554.41
211.42	1716.20
211.64	1761.25
211.86	1687.53
212.08	1740.77
212.30	1699.81
212.52	1683.43
212.74	1781.73
212.96	1683.43
213.17	1753.06
213.39	1722.34
213.61	1804.26
213.83	1751.01
214.05	1722.34
214.27	1824.74
214.49	1722.34
214.71	1634.28
214.93	1802.21
215.15	1703.91
215.37	1697.77
215.59	1679.33
215.81	1773.54
216.03	1742.82
216.24	1648.61
216.46	1681.38
216.68	1648.61
216.90	1761.25
217.12	1763.30
217.34	1710.05
217.56	1753.06
217.78	1773.54
218.00	1722.34
218.22	1716.20
218.44	1673.19
218.66	1767.40
218.87	1773.54
219.09	1671.14
219.31	1763.30
219.53	1656.81
219.75	1632.23
219.97	1662.95
220.19	1693.67
220.41	1734.63
220.63	1730.53
220.85	1730.53
221.06	1732.58
221.28	1701.86
221.50	1761.25
221.72	1701.86
221.94	1724.39
222.16	1718.25
222.38	1767.40
222.60	1748.97
222.82	1720.29
223.03	1773.54
223.25	1613.80
223.47	1742.82
223.69	1783.78
223.91	1765.35
224.13	1675.24
224.35	1720.29
224.57	1814.50
224.78	1693.67
225.00	1615.85
225.22	1708.01
225.44	1710.05
225.66	1763.30
225.88	1685.48
226.10	1689.57
226.32	1787.88
226.53	1871.84
226.75	1679.33
226.97	1781.73
227.19	1718.25
227.41	1613.80
227.63	1703.91
227.85	1695.72
228.06	1689.57
228.28	1701.86
228.50	1703.91
228.72	1636.33
228.94	1689.57
229.16	1589.22
229.37	1583.08
229.59	1683.43
229.81	1695.72
230.03	1667.05
230.25	1611.75
230.47	1642.47
230.69	1624.04
230.90	1798.12
231.12	1628.14
231.34	1810.40
231.56	1740.77
231.78	1644.52
232.00	1685.48
232.21	1669.09
232.43	1632.23
232.65	1544.17
232.87	1695.72
233.09	1708.01
233.30	1665.00
233.52	1804.26
233.74	1728.49
233.96	1736.68
234.18	1746.92
234.40	1728.49
234.61	1824.74
234.83	1652.71
235.05	1628.14
235.27	1830.88
235.49	1794.02
235.70	1697.77
235.92	1746.92
236.14	1765.35
236.36	1820.64
236.58	1697.77
236.79	1748.97
237.01	1728.49
237.23	1705.96
237.45	1800.16
237.67	1669.09
237.88	1685.48
238.10	1861.60
238.32	1701.86
238.54	1646.57
238.76	1726.44
238.97	1644.52
239.19	1665.00
239.41	1763.30
239.63	1773.54
239.85	1669.09
240.06	1634.28
240.28	1654.76
240.50	1759.21
240.72	1718.25
240.93	1677.29
241.15	1712.10
241.37	1673.19
241.59	1806.31
241.81	1730.53
242.02	1708.01
242.24	1738.73
242.46	1755.11
242.68	1742.82
242.89	1763.30
243.11	1693.67
243.33	1755.11
243.55	1650.66
243.76	1679.33
243.98	1679.33
244.20	1658.85
244.42	1705.96
244.64	1736.68
244.85	1658.85
245.07	1705.96
245.29	1667.05
245.51	1648.61
245.72	1785.83
245.94	1804.26
246.16	1777.64
246.38	1710.05
246.59	1708.01
246.81	1650.66
247.03	1724.39
247.24	1591.27
247.46	1665.00
247.68	1716.20
247.90	1687.53
248.11	1613.80
248.33	1777.64
248.55	1714.15
248.77	1681.38
248.98	1742.82
249.20	1708.01
249.42	1701.86
249.64	1718.25
249.85	1683.43
250.07	1632.23
250.29	1751.01
250.50	1779.68
250.72	1632.23
250.94	1789.92
251.16	1859.56
251.37	1808.36
251.59	1765.35
251.81	1861.60
252.02	1820.64
252.24	1685.48
252.46	1789.92
252.68	1658.85
252.89	1728.49
253.11	1652.71
253.33	1853.41
253.54	1875.94
253.76	1658.85
253.98	1714.15
254.20	1693.67
254.41	1665.00
254.63	1763.30
254.85	1632.23
255.06	1720.29
255.28	1687.53
255.50	1656.81
255.71	1677.29
255.93	1636.33
256.15	1638.38
256.36	1806.31
256.58	1675.24
256.80	1708.01
257.02	1730.53
257.23	1662.95
257.45	1695.72
257.67	1759.21
257.88	1687.53
258.10	1763.30
258.32	1714.15
258.53	1671.14
258.75	1789.92
258.97	1605.61
259.18	1650.66
259.40	1675.24
259.62	1834.98
259.83	1736.68
260.05	1738.73
260.27	2009.06
260.48	1761.25
260.70	1667.05
260.92	1722.34
261.13	1781.73
261.35	1695.72
261.57	1732.58
261.78	1605.61
262.00	1648.61
262.22	1748.97
262.43	1632.23
262.65	1708.01
262.86	1683.43
263.08	1867.75
263.30	1746.92
263.51	1548.26
263.73	1699.81
263.95	1755.11
264.16	1691.62
264.38	1695.72
264.60	1642.47
264.81	1789.92
265.03	1734.63
265.25	1820.64
265.46	1695.72
265.68	1794.02
265.89	1757.16
266.11	1632.23
266.33	1802.21
266.54	1794.02
266.76	1695.72
266.98	1808.36
267.19	1783.78
267.41	1742.82
267.62	1638.38
267.84	1621.99
268.06	1765.35
268.27	1685.48
268.49	1777.64
268.70	1714.15
268.92	1693.67
269.14	1650.66
269.35	1621.99
269.57	1728.49
269.79	1761.25
270.00	1693.67
270.22	1804.26
270.43	1716.20
270.65	1546.22
270.87	1636.33
271.08	1699.81
271.30	1744.87
271.51	1699.81
271.73	1761.25
271.95	1759.21
272.16	1638.38
272.38	1699.81
272.59	1683.43
272.81	1796.07
273.02	1722.34
273.24	1742.82
273.46	1804.26
273.67	1605.61
273.89	1632.23
274.10	1728.49
274.32	1636.33
274.54	1701.86
274.75	1734.63
274.97	1638.38
275.18	1755.11
275.40	1794.02
275.61	1681.38
275.83	1732.58
276.05	1644.52
276.26	1697.77
276.48	1798.12
276.69	1646.57
276.91	1693.67
277.12	1763.30
277.34	1742.82
277.55	1787.88
277.77	1691.62
277.99	1615.85
278.20	1681.38
278.42	1665.00
278.63	1646.57
278.85	1621.99
279.06	1658.85
279.28	1714.15
279.49	1775.59
279.71	1716.20
279.93	1763.30
280.14	1662.95
280.36	1701.86
280.57	1765.35
280.79	1697.77
281.00	1732.58
281.22	1640.42
281.43	1798.12
281.65	1560.55
281.86	1632.23
282.08	1744.87
282.29	1759.21
282.51	1652.71
282.73	1652.71
282.94	1644.52
283.16	1777.64
283.37	1773.54
283.59	1718.25
283.80	1695.72
284.02	1597.42
284.23	1667.05
284.45	1677.29
284.66	1675.24
284.88	1630.18
285.09	1710.05
285.31	1740.77
285.52	1767.40
285.74	1656.81
285.95	1654.76
286.17	1796.07
286.38	1714.15
286.60	1710.05
286.81	1673.19
287.03	1751.01
287.24	1748.97
287.46	1710.05
287.67	1683.43
287.89	1716.20
288.10	1701.86
288.32	1730.53
288.53	1828.84
288.75	1681.38
288.96	1746.92
289.18	1609.70
289.39	1714.15
289.61	1775.59
289.82	1787.88
290.04	1730.53
290.25	1675.24
290.47	1685.48
290.68	1681.38
290.90	1769.44
291.11	1681.38
291.33	1757.16
291.54	1613.80
291.76	1730.53
291.97	1712.10
292.18	1763.30
292.40	1642.47
292.61	1583.08
292.83	1828.84
293.04	1734.63
293.26	1791.97
293.47	1675.24
293.69	1603.56
293.90	1669.09
294.12	1773.54
294.33	1769.44
294.55	1701.86
294.76	1779.68
294.97	1783.78
295.19	1820.64
295.40	1634.28
295.62	1691.62
295.83	1804.26
296.05	1687.53
296.26	1716.20
296.48	1669.09
296.69	1718.25
296.90	1710.05
297.12	1730.53
297.33	1798.12
297.55	1581.03
297.76	1705.96
297.98	1779.68
298.19	1771.49
298.41	1726.44
298.62	1648.61
298.83	1796.07
299.05	1814.50
299.26	1701.86
299.48	1615.85
299.69	1671.14
299.90	1738.73
300.12	1677.29
300.33	1771.49
300.55	1757.16
300.76	1738.73
300.98	1652.71
301.19	1705.96
301.40	1701.86
301.62	1613.80
301.83	1693.67
302.05	1716.20
302.26	1732.58
302.47	1765.35
302.69	1638.38
302.90	1628.14
303.12	1611.75
303.33	1771.49
303.54	1828.84
303.76	1644.52
303.97	1789.92
304.19	1796.07
304.40	1634.28
304.61	1681.38
304.83	1890.28
305.04	1841.12
305.26	1769.44
305.47	1658.85
305.68	1732.58
305.90	1615.85
306.11	1775.59
306.33	1697.77
306.54	1726.44
306.75	1658.85
306.97	1615.85
307.18	1681.38
307.39	1642.47
307.61	1683.43
307.82	1724.39
308.04	1679.33
308.25	1658.85
308.46	1687.53
308.68	1740.77
308.89	1699.81
309.10	1781.73
309.32	1675.24
309.53	1783.78
309.74	1697.77
309.96	1697.77
310.17	1789.92
310.39	1671.14
310.60	1824.74
310.81	1724.39
311.03	1693.67
311.24	1789.92
311.45	1722.34
311.67	1755.11
311.88	1708.01
312.09	1638.38
312.31	1744.87
312.52	1710.05
312.73	1644.52
312.95	1742.82
313.16	1630.18
313.37	1777.64
313.59	1746.92
313.80	1757.16
314.01	1843.17
314.23	1640.42
314.44	1648.61
314.65	1628.14
314.87	1615.85
315.08	1632.23
315.29	1648.61
315.51	1642.47
315.72	1654.76
315.93	1730.53
316.15	1771.49
316.36	1734.63
316.57	1738.73
316.79	1708.01
317.00	1660.90
317.21	1804.26
317.43	1685.48
317.64	1703.91
317.85	1665.00
318.07	1675.24
318.28	1800.16
318.49	1828.84
318.70	2078.69
318.92	1884.13
319.13	1947.62
319.34	1886.18
319.56	1843.17
319.77	1818.60
319.98	1882.08
320.20	1818.60
320.41	1710.05
320.62	1802.21
320.83	1667.05
321.05	1859.56
321.26	1740.77
321.47	1685.48
321.69	1845.22
321.90	1638.38
322.11	1691.62
322.32	1701.86
322.54	1734.63
322.75	1693.67
322.96	1816.55
323.18	1599.46
323.39	1621.99
323.60	1685.48
323.81	1771.49
324.03	1714.15
324.24	1675.24
324.45	1710.05
324.66	1656.81
324.88	1785.83
325.09	1794.02
325.30	1638.38
325.52	1738.73
325.73	1757.16
325.94	1599.46
326.15	1597.42
326.37	1738.73
326.58	1761.25
326.79	1841.12
327.00	1605.61
327.22	1732.58
327.43	1708.01
327.64	1626.09
327.85	1697.77
328.07	1714.15
328.28	1771.49
328.49	1697.77
328.70	1728.49
328.92	1724.39
329.13	1685.48
329.34	1751.01
329.55	1765.35
329.76	1765.35
329.98	1665.00
330.19	1757.16
330.40	1681.38
330.61	1683.43
330.83	1798.12
331.04	1667.05
331.25	1685.48
331.46	1628.14
331.68	1716.20
331.89	1740.77
332.10	1617.90
332.31	1568.74
332.52	1669.09
332.74	1746.92
332.95	1630.18
333.16	1677.29
333.37	1728.49
333.58	1675.24
333.80	1751.01
334.01	1658.85
334.22	1644.52
334.43	1673.19
334.64	1695.72
334.86	1677.29
335.07	1654.76
335.28	1826.79
335.49	1667.05
335.70	1800.16
335.92	1777.64
336.13	1812.45
336.34	1662.95
336.55	1578.98
336.76	1658.85
336.98	1675.24
337.19	1644.52
337.40	1798.12
337.61	1773.54
337.82	1753.06
338.04	1720.29
338.25	1644.52
338.46	1628.14
338.67	1619.94
338.88	1677.29
339.09	1654.76
339.31	1648.61
339.52	1673.19
339.73	1697.77
339.94	1730.53
340.15	1732.58
340.36	1722.34
340.58	1757.16
340.79	1697.77
341.00	1736.68
341.21	1730.53
341.42	1857.51
341.63	1673.19
341.85	1755.11
342.06	1736.68
342.27	1695.72
342.48	1771.49
342.69	1699.81
342.90	1699.81
343.12	1804.26
343.33	1724.39
343.54	1740.77
343.75	1734.63
343.96	1689.57
344.17	1630.18
344.38	1671.14
344.60	1724.39
344.81	1624.04
345.02	1708.01
345.23	1775.59
345.44	1894.37
345.65	1730.53
345.86	1716.20
346.07	1648.61
346.29	1763.30
346.50	1718.25
346.71	1757.16
346.92	1779.68
347.13	1771.49
347.34	1628.14
347.55	1691.62
347.76	1697.77
347.98	1525.74
348.19	1755.11
348.40	1789.92
348.61	1636.33
348.82	1837.03
349.03	1730.53
349.24	1599.46
349.45	1914.85
349.66	1599.46
349.88	1714.15
350.09	1669.09
350.30	1757.16
350.51	1787.88
350.72	1771.49
350.93	1693.67
351.14	1683.43
351.35	1658.85
351.56	1738.73
351.77	1673.19
351.99	1773.54
352.20	1771.49
352.41	1761.25
352.62	1638.38
352.83	1669.09
353.04	1734.63
353.25	1587.18
353.46	1724.39
353.67	1826.79
353.88	1621.99
354.09	1720.29
354.30	1699.81
354.52	1802.21
354.73	1642.47
354.94	1718.25
355.15	1705.96
355.36	1814.50
355.57	1689.57
355.78	1701.86
355.99	1718.25
356.20	1705.96
356.41	1765.35
356.62	1748.97
356.83	1665.00
357.04	1763.30
357.25	1636.33
357.46	1652.71
357.68	1628.14
357.89	1687.53
358.10	1738.73
358.31	1740.77
358.52	1673.19
358.73	1710.05
358.94	1699.81
359.15	1595.37
359.36	1718.25
359.57	1740.77
359.78	1728.49
359.99	1689.57
360.20	1658.85
360.41	1716.20
360.62	1726.44
360.83	1699.81
361.04	1724.39
361.25	1677.29
361.46	1748.97
361.67	1814.50
361.88	1683.43
362.09	1791.97
362.30	1751.01
362.51	1726.44
362.72	1736.68
362.93	1781.73
363.14	1693.67
363.35	1732.58
363.56	1665.00
363.78	1744.87
363.99	1722.34
364.20	1732.58
364.41	1718.25
364.62	1865.70
364.83	1724.39
365.04	1765.35
365.25	1691.62
365.46	1826.79
365.67	1599.46
365.88	1652.71
366.09	1734.63
366.30	1726.44
366.51	1728.49
366.72	1660.90
366.93	1673.19
367.14	1757.16
367.35	1763.30
367.56	1669.09
367.77	1812.45
367.98	1738.73
368.18	1753.06
368.39	1693.67
368.60	1607.66
368.81	1802.21
369.02	1718.25
369.23	1724.39
369.44	1593.32
369.65	1691.62
369.86	1720.29
370.07	1740.77
370.28	1794.02
370.49	1775.59
370.70	1818.60
370.91	1703.91
371.12	1609.70
371.33	1712.10
371.54	1642.47
371.75	1814.50
371.96	1587.18
372.17	1763.30
372.38	1714.15
372.59	1769.44
372.80	1710.05
373.01	1748.97
373.22	1714.15
373.43	1720.29
373.64	1658.85
373.85	1812.45
374.06	1857.51
374.26	1738.73
374.47	1728.49
374.68	1718.25
374.89	1683.43
375.10	1744.87
375.31	1777.64
375.52	1667.05
375.73	1816.55
375.94	1691.62
376.15	1820.64
376.36	1697.77
376.57	1648.61
376.78	1665.00
376.99	1697.77
377.20	1791.97
377.40	1691.62
377.61	1824.74
377.82	1636.33
378.03	1785.83
378.24	1705.96
378.45	1771.49
378.66	1751.01
378.87	1656.81
379.08	1607.66
379.29	1615.85
379.50	1861.60
379.71	1720.29
379.91	1722.34
380.12	1712.10
380.33	1777.64
380.54	1718.25
380.75	1695.72
380.96	1658.85
381.17	1738.73
381.38	1716.20
381.59	1798.12
381.80	1808.36
382.00	1902.56
382.21	1759.21
382.42	1886.18
382.63	1900.52
382.84	1742.82
383.05	1853.41
383.26	1808.36
383.47	1705.96
383.68	1783.78
383.88	1656.81
384.09	1763.30
384.30	1808.36
384.51	1767.40
384.72	1650.66
384.93	1603.56
385.14	1771.49
385.35	1781.73
385.55	1695.72
385.76	1769.44
385.97	1726.44
386.18	1652.71
386.39	1681.38
386.60	1632.23
386.81	1638.38
387.02	1732.58
387.22	1665.00
387.43	1839.08
387.64	1783.78
387.85	1957.86
388.06	2217.95
388.27	4726.71
388.48	9121.65
388.68	11646.80
388.89	13391.67
389.10	14479.14
389.31	11966.28
389.52	9856.87
389.73	8812.41
389.93	7815.05
390.14	7298.96
390.35	6645.66
390.56	6014.88
390.77	5066.67
390.98	3813.32
391.18	2992.08
391.39	2416.60
391.60	1943.52
391.81	1910.75
392.02	1705.96
392.23	1863.65
392.43	1757.16
392.64	1847.27
392.85	1742.82
393.06	1802.21
393.27	1699.81
393.47	1710.05
393.68	1796.07
393.89	1699.81
394.10	1787.88
394.31	1675.24
394.52	1658.85
394.72	1746.92
394.93	1839.08
395.14	1650.66
395.35	1726.44
395.56	1730.53
395.76	1738.73
395.97	1828.84
396.18	1824.74
396.39	1855.46
396.60	2109.41
396.80	1949.67
397.01	1826.79
397.22	1845.22
397.43	1939.43
397.64	1808.36
397.84	1839.08
398.05	1847.27
398.26	1828.84
398.47	1794.02
398.67	1808.36
398.88	1738.73
399.09	1722.34
399.30	1681.38
399.51	1722.34
399.71	1597.42
399.92	1691.62
400.13	1781.73
400.34	1722.34
400.54	1710.05
400.75	1765.35
400.96	1796.07
401.17	1814.50
401.37	1728.49
401.58	1771.49
401.79	1712.10
402.00	1875.94
402.21	2043.87
402.41	2041.82
402.62	2062.30
402.83	2187.23
403.04	2082.78
403.24	2179.04
403.45	1904.61
403.66	1978.34
403.87	1951.71
404.07	1961.95
404.28	2029.54
404.49	1896.42
404.70	1791.97
404.90	1847.27
405.11	1710.05
405.32	1789.92
405.52	1722.34
405.73	1662.95
405.94	1662.95
406.15	1679.33
406.35	1755.11
406.56	1667.05
406.77	1656.81
406.98	1658.85
407.18	1712.10
407.39	1769.44
407.60	1630.18
407.80	1826.79
408.01	1656.81
408.22	1732.58
408.43	1667.05
408.63	1705.96
408.84	1751.01
409.05	1740.77
409.25	1648.61
409.46	1654.76
409.67	1697.77
409.88	1646.57
410.08	1763.30
410.29	1665.00
410.50	1671.14
410.70	1681.38
410.91	1646.57
411.12	1710.05
411.32	1824.74
411.53	1728.49
411.74	1873.89
411.95	1832.93
412.15	1755.11
412.36	1773.54
412.57	1814.50
412.77	1902.56
412.98	1804.26
413.19	1716.20
413.39	1730.53
413.60	1730.53
413.81	1767.40
414.01	1689.57
414.22	1755.11
414.43	1732.58
414.63	1751.01
414.84	1781.73
415.05	1742.82
415.25	1660.90
415.46	1765.35
415.67	1628.14
415.87	1722.34
416.08	1701.86
416.29	1728.49
416.49	1796.07
416.70	1673.19
416.91	1714.15
417.11	1705.96
417.32	1761.25
417.53	1796.07
417.73	1753.06
417.94	1699.81
418.15	1755.11
418.35	1697.77
418.56	1687.53
418.77	1832.93
418.97	1673.19
419.18	1716.20
419.38	1609.70
419.59	1714.15
419.80	1806.31
420.00	1642.47
420.21	1783.78
420.42	1759.21
420.62	1634.28
420.83	1658.85
421.04	1697.77
421.24	1691.62
421.45	1757.16
421.65	1767.40
421.86	1656.81
422.07	1761.25
422.27	1845.22
422.48	1724.39
422.69	1746.92
422.89	1826.79
423.10	1712.10
423.30	1609.70
423.51	1665.00
423.72	1775.59
423.92	1660.90
424.13	1677.29
424.33	1759.21
424.54	1728.49
424.75	1771.49
424.95	1740.77
425.16	1779.68
425.36	1699.81
425.57	1748.97
425.78	1769.44
425.98	1708.01
426.19	1683.43
426.39	1675.24
426.60	1679.33
426.81	1837.03
427.01	1771.49
427.22	1673.19
427.42	1597.42
427.63	1669.09
427.83	1808.36
428.04	1771.49
428.25	1796.07
428.45	1775.59
428.66	1789.92
428.86	1681.38
429.07	1748.97
429.28	1808.36
429.48	1767.40
429.69	1626.09
429.89	1726.44
430.10	1636.33
430.30	1757.16
430.51	1781.73
430.71	1697.77
430.92	1673.19
431.13	1648.61
431.33	1714.15
431.54	1751.01
431.74	1783.78
431.95	1765.35
432.15	1634.28
432.36	1724.39
432.56	1773.54
432.77	1783.78
432.98	1882.08
433.18	1763.30
433.39	1708.01
433.59	1683.43
433.80	1802.21
434.00	1834.98
434.21	1691.62
434.41	1628.14
434.62	1763.30
434.82	1648.61
435.03	1677.29
435.23	1777.64
435.44	1628.14
435.64	1746.92
435.85	1751.01
436.06	1740.77
436.26	1767.40
436.47	1630.18
436.67	1769.44
436.88	1716.20
437.08	1775.59
437.29	1787.88
437.49	1642.47
437.70	1781.73
437.90	1667.05
438.11	1841.12
438.31	1779.68
438.52	1904.61
438.72	1886.18
438.93	1992.67
439.13	1841.12
439.34	1920.99
439.54	1820.64
439.75	1761.25
439.95	1789.92
440.16	1777.64
440.36	1748.97
440.57	1800.16
440.77	1763.30
440.98	1769.44
441.18	1845.22
441.39	1662.95
441.59	1691.62
441.80	1822.69
442.00	1660.90
442.21	1744.87
442.41	1560.55
442.62	1834.98
442.82	1654.76
443.02	1751.01
443.23	1691.62
443.43	1748.97
443.64	1837.03
443.84	1632.23
444.05	1839.08
444.25	1699.81
444.46	1740.77
444.66	1714.15
444.87	1787.88
445.07	1665.00
445.28	1726.44
445.48	1845.22
445.69	1820.64
445.89	1849.32
446.09	1742.82
446.30	1998.82
446.50	2607.06
446.71	4104.13
446.91	5154.74
447.12	5740.46
447.32	6002.60
447.53	5343.15
447.73	4542.39
447.93	4014.02
448.14	3655.62
448.34	3481.55
448.55	3139.54
448.75	3248.08
448.96	3035.09
449.16	2623.45
449.36	2609.11
449.57	2133.98
449.77	1884.13
449.98	1765.35
450.18	1742.82
450.39	1804.26
450.59	1814.50
450.79	1746.92
451.00	1652.71
451.20	1726.44
451.41	1732.58
451.61	1746.92
451.81	1728.49
452.02	1783.78
452.22	1679.33
452.43	1697.77
452.63	1724.39
