SpectraSuite Data File
++++++++++++++++++++++++++++++++++++
Date: Wed May 04 18:44:10 CEST 2016
User: root
Dark Spectrum Present: No
Reference Spectrum Present: No
Number of Sampled Component Spectra: 1
Spectrometers: USB4C02835
Integration Time (usec): 100000 (USB4C02835)
Spectra Averaged: 1 (USB4C02835)
Boxcar Smoothing: 0 (USB4C02835)
Correct for Electrical Dark: No (USB4C02835)
Strobe/Lamp Enabled: No (USB4C02835)
Correct for Detector Non-linearity: No (USB4C02835)
Correct for Stray Light: No (USB4C02835)
Number of Pixels in Processed Spectrum: 3648
>>>>>Begin Processed Spectral Data<<<<<
177.47	1495.02
177.69	1495.02
177.91	1495.02
178.13	1515.50
178.36	1490.92
178.58	1675.24
178.80	1734.63
179.02	1562.60
179.24	1699.81
179.46	1748.97
179.68	1820.64
179.90	1656.81
180.13	1708.01
180.35	1677.29
180.57	1685.48
180.79	1736.68
181.01	1701.86
181.23	1839.08
181.45	1748.97
181.67	1834.98
181.90	1812.45
182.12	1681.38
182.34	1632.23
182.56	1742.82
182.78	1789.92
183.00	1660.90
183.22	1740.77
183.44	1699.81
183.66	1826.79
183.89	1769.44
184.11	1685.48
184.33	1785.83
184.55	1767.40
184.77	1761.25
184.99	1744.87
185.21	1689.57
185.43	1816.55
185.65	1689.57
185.87	1726.44
186.10	1859.56
186.32	1843.17
186.54	1677.29
186.76	1609.70
186.98	1734.63
187.20	1689.57
187.42	1687.53
187.64	1759.21
187.86	1689.57
188.08	1757.16
188.30	1689.57
188.52	1716.20
188.75	1705.96
188.97	1763.30
189.19	1658.85
189.41	1632.23
189.63	1728.49
189.85	1746.92
190.07	1662.95
190.29	1677.29
190.51	1644.52
190.73	1673.19
190.95	1746.92
191.17	1724.39
191.39	1693.67
191.61	1753.06
191.84	1697.77
192.06	1728.49
192.28	1626.09
192.50	1918.95
192.72	1693.67
192.94	1740.77
193.16	1722.34
193.38	1714.15
193.60	1640.42
193.82	1669.09
194.04	1757.16
194.26	1761.25
194.48	1677.29
194.70	1693.67
194.92	1648.61
195.14	1738.73
195.36	1705.96
195.58	1718.25
195.80	1679.33
196.02	1671.14
196.24	1687.53
196.46	1742.82
196.69	1662.95
196.91	1853.41
197.13	1640.42
197.35	1693.67
197.57	1726.44
197.79	1722.34
198.01	1740.77
198.23	1744.87
198.45	1787.88
198.67	1587.18
198.89	1662.95
199.11	1732.58
199.33	1701.86
199.55	1587.18
199.77	1710.05
199.99	1765.35
200.21	1730.53
200.43	1738.73
200.65	1660.90
200.87	1615.85
201.09	1697.77
201.31	1703.91
201.53	1734.63
201.75	1708.01
201.97	1728.49
202.19	1757.16
202.41	1769.44
202.63	1834.98
202.85	1783.78
203.07	1765.35
203.29	1716.20
203.51	1673.19
203.73	1716.20
203.95	1855.46
204.17	1734.63
204.39	1695.72
204.61	1718.25
204.83	1656.81
205.05	1820.64
205.27	1804.26
205.49	1773.54
205.71	1656.81
205.93	1609.70
206.15	1621.99
206.37	1753.06
206.59	1669.09
206.81	1679.33
207.03	1673.19
207.25	1681.38
207.47	1748.97
207.69	1673.19
207.91	1880.04
208.13	1794.02
208.34	1701.86
208.56	1640.42
208.78	1765.35
209.00	1685.48
209.22	1687.53
209.44	1697.77
209.66	1607.66
209.88	1691.62
210.10	1656.81
210.32	1638.38
210.54	1888.23
210.76	1728.49
210.98	1755.11
211.20	1619.94
211.42	1736.68
211.64	1720.29
211.86	1701.86
212.08	1789.92
212.30	1740.77
212.52	1822.69
212.74	1783.78
212.96	1650.66
213.17	1755.11
213.39	1734.63
213.61	1771.49
213.83	1742.82
214.05	1732.58
214.27	1734.63
214.49	1617.90
214.71	1705.96
214.93	1781.73
215.15	1675.24
215.37	1740.77
215.59	1683.43
215.81	1691.62
216.03	1714.15
216.24	1732.58
216.46	1669.09
216.68	1681.38
216.90	1736.68
217.12	1767.40
217.34	1755.11
217.56	1751.01
217.78	1773.54
218.00	1800.16
218.22	1755.11
218.44	1736.68
218.66	1710.05
218.87	1812.45
219.09	1718.25
219.31	1751.01
219.53	1718.25
219.75	1751.01
219.97	1656.81
220.19	1697.77
220.41	1667.05
220.63	1777.64
220.85	1701.86
221.06	1697.77
221.28	1753.06
221.50	1771.49
221.72	1685.48
221.94	1738.73
222.16	1732.58
222.38	1744.87
222.60	1718.25
222.82	1746.92
223.03	1753.06
223.25	1636.33
223.47	1726.44
223.69	1771.49
223.91	1687.53
224.13	1667.05
224.35	1798.12
224.57	1710.05
224.78	1736.68
225.00	1689.57
225.22	1658.85
225.44	1705.96
225.66	1800.16
225.88	1705.96
226.10	1763.30
226.32	1710.05
226.53	1818.60
226.75	1671.14
226.97	1693.67
227.19	1652.71
227.41	1656.81
227.63	1689.57
227.85	1654.76
228.06	1753.06
228.28	1787.88
228.50	1724.39
228.72	1693.67
228.94	1652.71
229.16	1648.61
229.37	1658.85
229.59	1722.34
229.81	1812.45
230.03	1552.36
230.25	1650.66
230.47	1583.08
230.69	1644.52
230.90	1767.40
231.12	1658.85
231.34	1722.34
231.56	1804.26
231.78	1624.04
232.00	1701.86
232.21	1673.19
232.43	1595.37
232.65	1591.27
232.87	1716.20
233.09	1656.81
233.30	1691.62
233.52	1728.49
233.74	1681.38
233.96	1789.92
234.18	1814.50
234.40	1607.66
234.61	1789.92
234.83	1644.52
235.05	1638.38
235.27	1810.40
235.49	1781.73
235.70	1734.63
235.92	1767.40
236.14	1761.25
236.36	1804.26
236.58	1615.85
236.79	1757.16
237.01	1695.72
237.23	1699.81
237.45	1775.59
237.67	1705.96
237.88	1740.77
238.10	1877.99
238.32	1671.14
238.54	1730.53
238.76	1685.48
238.97	1671.14
239.19	1658.85
239.41	1746.92
239.63	1787.88
239.85	1671.14
240.06	1693.67
240.28	1669.09
240.50	1791.97
240.72	1638.38
240.93	1681.38
241.15	1775.59
241.37	1755.11
241.59	1787.88
241.81	1660.90
242.02	1658.85
242.24	1687.53
242.46	1771.49
242.68	1646.57
242.89	1746.92
243.11	1708.01
243.33	1675.24
243.55	1640.42
243.76	1701.86
243.98	1671.14
244.20	1669.09
244.42	1703.91
244.64	1665.00
244.85	1601.51
245.07	1611.75
245.29	1714.15
245.51	1708.01
245.72	1728.49
245.94	1773.54
246.16	1724.39
246.38	1755.11
246.59	1689.57
246.81	1689.57
247.03	1748.97
247.24	1607.66
247.46	1730.53
247.68	1746.92
247.90	1642.47
248.11	1636.33
248.33	1796.07
248.55	1710.05
248.77	1751.01
248.98	1753.06
249.20	1826.79
249.42	1726.44
249.64	1773.54
249.85	1656.81
250.07	1673.19
250.29	1742.82
250.50	1755.11
250.72	1695.72
250.94	1708.01
251.16	1789.92
251.37	1785.83
251.59	1712.10
251.81	1695.72
252.02	1748.97
252.24	1669.09
252.46	1798.12
252.68	1603.56
252.89	1648.61
253.11	1710.05
253.33	1806.31
253.54	1783.78
253.76	1613.80
253.98	1714.15
254.20	1744.87
254.41	1648.61
254.63	1673.19
254.85	1646.57
255.06	1699.81
255.28	1740.77
255.50	1681.38
255.71	1662.95
255.93	1605.61
256.15	1669.09
256.36	1794.02
256.58	1705.96
256.80	1601.51
257.02	1751.01
257.23	1658.85
257.45	1624.04
257.67	1689.57
257.88	1609.70
258.10	1685.48
258.32	1722.34
258.53	1701.86
258.75	1755.11
258.97	1699.81
259.18	1681.38
259.40	1673.19
259.62	1816.55
259.83	1816.55
260.05	1771.49
260.27	1949.67
260.48	1771.49
260.70	1699.81
260.92	1722.34
261.13	1705.96
261.35	1691.62
261.57	1742.82
261.78	1658.85
262.00	1783.78
262.22	1730.53
262.43	1648.61
262.65	1662.95
262.86	1703.91
263.08	1843.17
263.30	1746.92
263.51	1681.38
263.73	1656.81
263.95	1738.73
264.16	1697.77
264.38	1658.85
264.60	1818.60
264.81	1726.44
265.03	1693.67
265.25	1796.07
265.46	1789.92
265.68	1783.78
265.89	1722.34
266.11	1654.76
266.33	1746.92
266.54	1808.36
266.76	1740.77
266.98	1710.05
267.19	1824.74
267.41	1773.54
267.62	1714.15
267.84	1673.19
268.06	1736.68
268.27	1763.30
268.49	1718.25
268.70	1767.40
268.92	1640.42
269.14	1591.27
269.35	1630.18
269.57	1685.48
269.79	1763.30
270.00	1650.66
270.22	1843.17
270.43	1646.57
270.65	1624.04
270.87	1730.53
271.08	1734.63
271.30	1814.50
271.51	1683.43
271.73	1757.16
271.95	1751.01
272.16	1716.20
272.38	1736.68
272.59	1685.48
272.81	1710.05
273.02	1722.34
273.24	1787.88
273.46	1789.92
273.67	1621.99
273.89	1654.76
274.10	1703.91
274.32	1837.03
274.54	1648.61
274.75	1763.30
274.97	1640.42
275.18	1769.44
275.40	1744.87
275.61	1679.33
275.83	1738.73
276.05	1662.95
276.26	1693.67
276.48	1720.29
276.69	1724.39
276.91	1677.29
277.12	1812.45
277.34	1765.35
277.55	1789.92
277.77	1718.25
277.99	1626.09
278.20	1611.75
278.42	1619.94
278.63	1636.33
278.85	1714.15
279.06	1607.66
279.28	1708.01
279.49	1710.05
279.71	1816.55
279.93	1691.62
280.14	1681.38
280.36	1632.23
280.57	1798.12
280.79	1781.73
281.00	1677.29
281.22	1705.96
281.43	1720.29
281.65	1665.00
281.86	1615.85
282.08	1761.25
282.29	1779.68
282.51	1646.57
282.73	1658.85
282.94	1683.43
283.16	1726.44
283.37	1796.07
283.59	1755.11
283.80	1771.49
284.02	1681.38
284.23	1734.63
284.45	1746.92
284.66	1650.66
284.88	1665.00
285.09	1734.63
285.31	1769.44
285.52	1746.92
285.74	1632.23
285.95	1746.92
286.17	1701.86
286.38	1759.21
286.60	1730.53
286.81	1597.42
287.03	1685.48
287.24	1728.49
287.46	1761.25
287.67	1636.33
287.89	1826.79
288.10	1658.85
288.32	1746.92
288.53	1753.06
288.75	1740.77
288.96	1697.77
289.18	1679.33
289.39	1722.34
289.61	1787.88
289.82	1830.88
290.04	1826.79
290.25	1646.57
290.47	1648.61
290.68	1751.01
290.90	1824.74
291.11	1617.90
291.33	1705.96
291.54	1658.85
291.76	1705.96
291.97	1730.53
292.18	1687.53
292.40	1671.14
292.61	1759.21
292.83	1877.99
293.04	1783.78
293.26	1771.49
293.47	1751.01
293.69	1628.14
293.90	1595.37
294.12	1744.87
294.33	1681.38
294.55	1654.76
294.76	1771.49
294.97	1720.29
295.19	1789.92
295.40	1585.13
295.62	1693.67
295.83	1763.30
296.05	1736.68
296.26	1734.63
296.48	1689.57
296.69	1720.29
296.90	1787.88
297.12	1761.25
297.33	1763.30
297.55	1695.72
297.76	1744.87
297.98	1693.67
298.19	1763.30
298.41	1722.34
298.62	1720.29
298.83	1738.73
299.05	1759.21
299.26	1619.94
299.48	1660.90
299.69	1777.64
299.90	1705.96
300.12	1626.09
300.33	1753.06
300.55	1736.68
300.76	1794.02
300.98	1619.94
301.19	1777.64
301.40	1642.47
301.62	1642.47
301.83	1732.58
302.05	1624.04
302.26	1746.92
302.47	1724.39
302.69	1691.62
302.90	1751.01
303.12	1601.51
303.33	1689.57
303.54	1748.97
303.76	1605.61
303.97	1726.44
304.19	1818.60
304.40	1665.00
304.61	1757.16
304.83	1847.27
305.04	1779.68
305.26	1724.39
305.47	1695.72
305.68	1658.85
305.90	1609.70
306.11	1732.58
306.33	1687.53
306.54	1656.81
306.75	1748.97
306.97	1626.09
307.18	1687.53
307.39	1628.14
307.61	1779.68
307.82	1646.57
308.04	1710.05
308.25	1630.18
308.46	1744.87
308.68	1632.23
308.89	1665.00
309.10	1757.16
309.32	1705.96
309.53	1712.10
309.74	1751.01
309.96	1652.71
310.17	1677.29
310.39	1652.71
310.60	1783.78
310.81	1630.18
311.03	1673.19
311.24	1685.48
311.45	1679.33
311.67	1820.64
311.88	1644.52
312.09	1697.77
312.31	1603.56
312.52	1671.14
312.73	1734.63
312.95	1714.15
313.16	1658.85
313.37	1818.60
313.59	1769.44
313.80	1714.15
314.01	1777.64
314.23	1691.62
314.44	1701.86
314.65	1611.75
314.87	1695.72
315.08	1687.53
315.29	1716.20
315.51	1603.56
315.72	1552.36
315.93	1775.59
316.15	1800.16
316.36	1679.33
316.57	1669.09
316.79	1730.53
317.00	1669.09
317.21	1751.01
317.43	1689.57
317.64	1697.77
317.85	1671.14
318.07	1703.91
318.28	1738.73
318.49	1923.04
318.70	1966.05
318.92	1892.32
319.13	1857.51
319.34	1894.37
319.56	1812.45
319.77	1918.95
319.98	1828.84
320.20	1859.56
320.41	1800.16
320.62	1791.97
320.83	1660.90
321.05	1859.56
321.26	1738.73
321.47	1685.48
321.69	1814.50
321.90	1681.38
322.11	1677.29
322.32	1726.44
322.54	1806.31
322.75	1681.38
322.96	1775.59
323.18	1613.80
323.39	1650.66
323.60	1677.29
323.81	1740.77
324.03	1675.24
324.24	1714.15
324.45	1744.87
324.66	1646.57
324.88	1818.60
325.09	1783.78
325.30	1718.25
325.52	1748.97
325.73	1685.48
325.94	1689.57
326.15	1615.85
326.37	1632.23
326.58	1757.16
326.79	1748.97
327.00	1751.01
327.22	1689.57
327.43	1699.81
327.64	1558.50
327.85	1665.00
328.07	1724.39
328.28	1832.93
328.49	1644.52
328.70	1714.15
328.92	1667.05
329.13	1681.38
329.34	1726.44
329.55	1814.50
329.76	1675.24
329.98	1679.33
330.19	1753.06
330.40	1753.06
330.61	1740.77
330.83	1734.63
331.04	1681.38
331.25	1708.01
331.46	1693.67
331.68	1673.19
331.89	1722.34
332.10	1722.34
332.31	1591.27
332.52	1640.42
332.74	1681.38
332.95	1609.70
333.16	1685.48
333.37	1738.73
333.58	1679.33
333.80	1748.97
334.01	1681.38
334.22	1726.44
334.43	1677.29
334.64	1701.86
334.86	1617.90
335.07	1609.70
335.28	1832.93
335.49	1624.04
335.70	1689.57
335.92	1759.21
336.13	1824.74
336.34	1732.58
336.55	1748.97
336.76	1767.40
336.98	1624.04
337.19	1671.14
337.40	1812.45
337.61	1931.23
337.82	1691.62
338.04	1710.05
338.25	1683.43
338.46	1656.81
338.67	1679.33
338.88	1656.81
339.09	1685.48
339.31	1693.67
339.52	1652.71
339.73	1677.29
339.94	1660.90
340.15	1699.81
340.36	1669.09
340.58	1673.19
340.79	1703.91
341.00	1771.49
341.21	1677.29
341.42	1902.56
341.63	1695.72
341.85	1714.15
342.06	1771.49
342.27	1677.29
342.48	1615.85
342.69	1679.33
342.90	1755.11
343.12	1736.68
343.33	1660.90
343.54	1740.77
343.75	1822.69
343.96	1712.10
344.17	1669.09
344.38	1654.76
344.60	1646.57
344.81	1624.04
345.02	1660.90
345.23	1763.30
345.44	1931.23
345.65	1705.96
345.86	1757.16
346.07	1734.63
346.29	1656.81
346.50	1757.16
346.71	1757.16
346.92	1751.01
347.13	1767.40
347.34	1740.77
347.55	1703.91
347.76	1732.58
347.98	1624.04
348.19	1691.62
348.40	1763.30
348.61	1673.19
348.82	1787.88
349.03	1658.85
349.24	1654.76
349.45	1794.02
349.66	1669.09
349.88	1679.33
350.09	1724.39
350.30	1771.49
350.51	1796.07
350.72	1748.97
350.93	1791.97
351.14	1632.23
351.35	1779.68
351.56	1640.42
351.77	1724.39
351.99	1720.29
352.20	1773.54
352.41	1759.21
352.62	1671.14
352.83	1681.38
353.04	1738.73
353.25	1746.92
353.46	1800.16
353.67	1785.83
353.88	1646.57
354.09	1718.25
354.30	1648.61
354.52	1734.63
354.73	1640.42
354.94	1705.96
355.15	1693.67
355.36	1775.59
355.57	1669.09
355.78	1714.15
355.99	1613.80
356.20	1595.37
356.41	1787.88
356.62	1714.15
356.83	1808.36
357.04	1806.31
357.25	1689.57
357.46	1695.72
357.68	1669.09
357.89	1650.66
358.10	1746.92
358.31	1677.29
358.52	1751.01
358.73	1712.10
358.94	1675.24
359.15	1718.25
359.36	1708.01
359.57	1722.34
359.78	1734.63
359.99	1763.30
360.20	1650.66
360.41	1669.09
360.62	1751.01
360.83	1738.73
361.04	1773.54
361.25	1806.31
361.46	1841.12
361.67	1718.25
361.88	1734.63
362.09	1796.07
362.30	1753.06
362.51	1648.61
362.72	1734.63
362.93	1779.68
363.14	1722.34
363.35	1753.06
363.56	1732.58
363.78	1699.81
363.99	1718.25
364.20	1689.57
364.41	1736.68
364.62	1785.83
364.83	1761.25
365.04	1757.16
365.25	1718.25
365.46	1820.64
365.67	1656.81
365.88	1658.85
366.09	1714.15
366.30	1669.09
366.51	1718.25
366.72	1679.33
366.93	1652.71
367.14	1724.39
367.35	1759.21
367.56	1767.40
367.77	1888.23
367.98	1705.96
368.18	1753.06
368.39	1675.24
368.60	1675.24
368.81	1720.29
369.02	1796.07
369.23	1687.53
369.44	1677.29
369.65	1761.25
369.86	1662.95
370.07	1695.72
370.28	1665.00
370.49	1759.21
370.70	1857.51
370.91	1681.38
371.12	1630.18
371.33	1716.20
371.54	1677.29
371.75	1798.12
371.96	1525.74
372.17	1736.68
372.38	1681.38
372.59	1785.83
372.80	1679.33
373.01	1667.05
373.22	1748.97
373.43	1740.77
373.64	1673.19
373.85	1814.50
374.06	1787.88
374.26	1673.19
374.47	1720.29
374.68	1775.59
374.89	1767.40
375.10	1705.96
375.31	1761.25
375.52	1708.01
375.73	1687.53
375.94	1636.33
376.15	1767.40
376.36	1720.29
376.57	1724.39
376.78	1701.86
376.99	1742.82
377.20	1781.73
377.40	1695.72
377.61	1789.92
377.82	1617.90
378.03	1732.58
378.24	1710.05
378.45	1716.20
378.66	1714.15
378.87	1646.57
379.08	1648.61
379.29	1722.34
379.50	1763.30
379.71	1656.81
379.91	1730.53
380.12	1669.09
380.33	1730.53
380.54	1703.91
380.75	1724.39
380.96	1736.68
381.17	1783.78
381.38	1755.11
381.59	1740.77
381.80	1802.21
382.00	1843.17
382.21	1775.59
382.42	1871.84
382.63	1933.28
382.84	1759.21
383.05	1791.97
383.26	1787.88
383.47	1732.58
383.68	1669.09
383.88	1804.26
384.09	1681.38
384.30	1785.83
384.51	1763.30
384.72	1732.58
384.93	1566.70
385.14	1763.30
385.35	1824.74
385.55	1677.29
385.76	1787.88
385.97	1675.24
386.18	1673.19
386.39	1722.34
386.60	1679.33
386.81	1714.15
387.02	1636.33
387.22	1673.19
387.43	1779.68
387.64	1818.60
387.85	1939.43
388.06	2213.85
388.27	4739.00
388.48	9039.73
388.68	11593.55
388.89	13330.23
389.10	13979.43
389.31	11876.17
389.52	9736.04
389.73	8726.39
389.93	7745.42
390.14	7135.12
390.35	6633.37
390.56	6006.69
390.77	4992.95
390.98	4069.31
391.18	3002.32
391.39	2398.17
391.60	1929.19
391.81	1861.60
392.02	1794.02
392.23	1808.36
392.43	1738.73
392.64	1759.21
392.85	1744.87
393.06	1783.78
393.27	1701.86
393.47	1660.90
393.68	1755.11
393.89	1740.77
394.10	1732.58
394.31	1722.34
394.52	1730.53
394.72	1701.86
394.93	1785.83
395.14	1673.19
395.35	1769.44
395.56	1667.05
395.76	1720.29
395.97	1763.30
396.18	1849.32
396.39	1910.75
396.60	2070.50
396.80	1951.71
397.01	1779.68
397.22	1912.80
397.43	1816.55
397.64	1814.50
397.84	1886.18
398.05	1890.28
398.26	1675.24
398.47	1800.16
398.67	1867.75
398.88	1722.34
399.09	1728.49
399.30	1744.87
399.51	1744.87
399.71	1662.95
399.92	1732.58
400.13	1736.68
400.34	1712.10
400.54	1687.53
400.75	1886.18
400.96	1738.73
401.17	1812.45
401.37	1798.12
401.58	1703.91
401.79	1665.00
402.00	1914.85
402.21	2058.21
402.41	2119.65
402.62	2050.02
402.83	2242.53
403.04	2076.64
403.24	2078.69
403.45	1880.04
403.66	2062.30
403.87	1875.94
404.07	1912.80
404.28	1974.24
404.49	1888.23
404.70	1814.50
404.90	1804.26
405.11	1759.21
405.32	1734.63
405.52	1812.45
405.73	1714.15
405.94	1642.47
406.15	1621.99
406.35	1710.05
406.56	1781.73
406.77	1785.83
406.98	1765.35
407.18	1689.57
407.39	1796.07
407.60	1656.81
407.80	1697.77
408.01	1679.33
408.22	1724.39
408.43	1724.39
408.63	1722.34
408.84	1701.86
409.05	1744.87
409.25	1624.04
409.46	1677.29
409.67	1705.96
409.88	1685.48
410.08	1712.10
410.29	1683.43
410.50	1710.05
410.70	1726.44
410.91	1619.94
411.12	1779.68
411.32	1691.62
411.53	1675.24
411.74	1828.84
411.95	1855.46
412.15	1800.16
412.36	1820.64
412.57	1777.64
412.77	1796.07
412.98	1718.25
413.19	1679.33
413.39	1814.50
413.60	1771.49
413.81	1828.84
414.01	1724.39
414.22	1763.30
414.43	1734.63
414.63	1699.81
414.84	1773.54
415.05	1759.21
415.25	1621.99
415.46	1763.30
415.67	1767.40
415.87	1697.77
416.08	1685.48
416.29	1671.14
416.49	1800.16
416.70	1783.78
416.91	1703.91
417.11	1771.49
417.32	1724.39
417.53	1798.12
417.73	1789.92
417.94	1642.47
418.15	1773.54
418.35	1642.47
418.56	1669.09
418.77	1896.42
418.97	1724.39
419.18	1742.82
419.38	1591.27
419.59	1746.92
419.80	1791.97
420.00	1748.97
420.21	1734.63
420.42	1785.83
420.62	1746.92
420.83	1617.90
421.04	1687.53
421.24	1716.20
421.45	1718.25
421.65	1767.40
421.86	1658.85
422.07	1734.63
422.27	1705.96
422.48	1687.53
422.69	1634.28
422.89	1671.14
423.10	1693.67
423.30	1656.81
423.51	1779.68
423.72	1685.48
423.92	1742.82
424.13	1628.14
424.33	1703.91
424.54	1716.20
424.75	1708.01
424.95	1789.92
425.16	1736.68
425.36	1691.62
425.57	1753.06
425.78	1685.48
425.98	1808.36
426.19	1603.56
426.39	1624.04
426.60	1796.07
426.81	1828.84
427.01	1708.01
427.22	1720.29
427.42	1650.66
427.63	1636.33
427.83	1751.01
428.04	1802.21
428.25	1785.83
428.45	1753.06
428.66	1703.91
428.86	1652.71
429.07	1681.38
429.28	1734.63
429.48	1722.34
429.69	1679.33
429.89	1730.53
430.10	1632.23
430.30	1738.73
430.51	1789.92
430.71	1701.86
430.92	1722.34
431.13	1714.15
431.33	1695.72
431.54	1740.77
431.74	1746.92
431.95	1828.84
432.15	1679.33
432.36	1722.34
432.56	1746.92
432.77	1759.21
432.98	1839.08
433.18	1701.86
433.39	1656.81
433.59	1697.77
433.80	1839.08
434.00	1890.28
434.21	1726.44
434.41	1734.63
434.62	1855.46
434.82	1679.33
435.03	1626.09
435.23	1746.92
435.44	1648.61
435.64	1748.97
435.85	1753.06
436.06	1738.73
436.26	1722.34
436.47	1734.63
436.67	1751.01
436.88	1777.64
437.08	1730.53
437.29	1730.53
437.49	1759.21
437.70	1751.01
437.90	1746.92
438.11	1771.49
438.31	1816.55
438.52	1828.84
438.72	1894.37
438.93	2013.15
439.13	1839.08
439.34	1808.36
439.54	1810.40
439.75	1806.31
439.95	1783.78
440.16	1708.01
440.36	1810.40
440.57	1841.12
440.77	1746.92
440.98	1710.05
441.18	1867.75
441.39	1757.16
441.59	1705.96
441.80	1820.64
442.00	1720.29
442.21	1814.50
442.41	1667.05
442.62	1867.75
442.82	1667.05
443.02	1632.23
443.23	1755.11
443.43	1695.72
443.64	1824.74
443.84	1746.92
444.05	1777.64
444.25	1726.44
444.46	1744.87
444.66	1712.10
444.87	1787.88
445.07	1638.38
445.28	1751.01
445.48	1847.27
445.69	1796.07
445.89	1861.60
446.09	1822.69
446.30	2013.15
446.50	2516.95
446.71	4063.17
446.91	5113.78
447.12	5683.11
447.32	5906.34
447.53	5291.95
447.73	4579.26
447.93	4034.50
448.14	3700.68
448.34	3373.00
448.55	3145.68
448.75	3127.25
448.96	2977.75
449.16	2725.85
449.36	2453.47
449.57	2211.81
449.77	1853.41
449.98	1765.35
450.18	1787.88
450.39	1859.56
450.59	1734.63
450.79	1665.00
451.00	1687.53
451.20	1777.64
451.41	1767.40
451.61	1757.16
451.81	1769.44
452.02	1720.29
452.22	1636.33
452.43	1734.63
452.63	1673.19
