SpectraSuite Data File
++++++++++++++++++++++++++++++++++++
Date: Wed May 04 18:44:18 CEST 2016
User: root
Dark Spectrum Present: No
Reference Spectrum Present: No
Number of Sampled Component Spectra: 1
Spectrometers: USB4C02835
Integration Time (usec): 100000 (USB4C02835)
Spectra Averaged: 1 (USB4C02835)
Boxcar Smoothing: 0 (USB4C02835)
Correct for Electrical Dark: No (USB4C02835)
Strobe/Lamp Enabled: No (USB4C02835)
Correct for Detector Non-linearity: No (USB4C02835)
Correct for Stray Light: No (USB4C02835)
Number of Pixels in Processed Spectrum: 3648
>>>>>Begin Processed Spectral Data<<<<<
177.47	1447.91
177.69	1447.91
177.91	1447.91
178.13	1558.50
178.36	1499.11
178.58	1665.00
178.80	1787.88
179.02	1587.18
179.24	1667.05
179.46	1679.33
179.68	1720.29
179.90	1679.33
180.13	1691.62
180.35	1656.81
180.57	1675.24
180.79	1695.72
181.01	1726.44
181.23	1783.78
181.45	1732.58
181.67	1675.24
181.90	1783.78
182.12	1662.95
182.34	1636.33
182.56	1812.45
182.78	1673.19
183.00	1744.87
183.22	1734.63
183.44	1591.27
183.66	1877.99
183.89	1849.32
184.11	1689.57
184.33	1656.81
184.55	1763.30
184.77	1742.82
184.99	1677.29
185.21	1681.38
185.43	1892.32
185.65	1603.56
185.87	1718.25
186.10	1847.27
186.32	1777.64
186.54	1685.48
186.76	1730.53
186.98	1779.68
187.20	1636.33
187.42	1667.05
187.64	1744.87
187.86	1728.49
188.08	1726.44
188.30	1677.29
188.52	1691.62
188.75	1822.69
188.97	1810.40
189.19	1679.33
189.41	1718.25
189.63	1748.97
189.85	1677.29
190.07	1646.57
190.29	1665.00
190.51	1759.21
190.73	1605.61
190.95	1824.74
191.17	1687.53
191.39	1603.56
191.61	1791.97
191.84	1708.01
192.06	1751.01
192.28	1578.98
192.50	1910.75
192.72	1740.77
192.94	1644.52
193.16	1791.97
193.38	1746.92
193.60	1708.01
193.82	1693.67
194.04	1775.59
194.26	1693.67
194.48	1716.20
194.70	1656.81
194.92	1654.76
195.14	1751.01
195.36	1687.53
195.58	1677.29
195.80	1757.16
196.02	1658.85
196.24	1628.14
196.46	1626.09
196.69	1691.62
196.91	1816.55
197.13	1710.05
197.35	1683.43
197.57	1693.67
197.79	1697.77
198.01	1740.77
198.23	1755.11
198.45	1734.63
198.67	1697.77
198.89	1710.05
199.11	1744.87
199.33	1669.09
199.55	1656.81
199.77	1705.96
199.99	1701.86
200.21	1656.81
200.43	1652.71
200.65	1624.04
200.87	1568.74
201.09	1662.95
201.31	1763.30
201.53	1738.73
201.75	1789.92
201.97	1703.91
202.19	1705.96
202.41	1767.40
202.63	1837.03
202.85	1751.01
203.07	1712.10
203.29	1685.48
203.51	1687.53
203.73	1648.61
203.95	1875.94
204.17	1695.72
204.39	1755.11
204.61	1714.15
204.83	1591.27
205.05	1761.25
205.27	1779.68
205.49	1779.68
205.71	1665.00
205.93	1679.33
206.15	1718.25
206.37	1683.43
206.59	1648.61
206.81	1679.33
207.03	1644.52
207.25	1675.24
207.47	1765.35
207.69	1658.85
207.91	1769.44
208.13	1720.29
208.34	1703.91
208.56	1736.68
208.78	1794.02
209.00	1716.20
209.22	1648.61
209.44	1708.01
209.66	1703.91
209.88	1705.96
210.10	1710.05
210.32	1667.05
210.54	1779.68
210.76	1685.48
210.98	1753.06
211.20	1613.80
211.42	1736.68
211.64	1712.10
211.86	1773.54
212.08	1808.36
212.30	1751.01
212.52	1794.02
212.74	1708.01
212.96	1730.53
213.17	1800.16
213.39	1771.49
213.61	1806.31
213.83	1841.12
214.05	1742.82
214.27	1759.21
214.49	1611.75
214.71	1660.90
214.93	1771.49
215.15	1740.77
215.37	1767.40
215.59	1593.32
215.81	1712.10
216.03	1710.05
216.24	1701.86
216.46	1722.34
216.68	1693.67
216.90	1673.19
217.12	1732.58
217.34	1705.96
217.56	1718.25
217.78	1796.07
218.00	1705.96
218.22	1687.53
218.44	1683.43
218.66	1834.98
218.87	1808.36
219.09	1712.10
219.31	1755.11
219.53	1701.86
219.75	1607.66
219.97	1697.77
220.19	1691.62
220.41	1701.86
220.63	1771.49
220.85	1701.86
221.06	1783.78
221.28	1757.16
221.50	1761.25
221.72	1687.53
221.94	1695.72
222.16	1701.86
222.38	1798.12
222.60	1652.71
222.82	1689.57
223.03	1728.49
223.25	1677.29
223.47	1814.50
223.69	1826.79
223.91	1701.86
224.13	1763.30
224.35	1734.63
224.57	1665.00
224.78	1746.92
225.00	1638.38
225.22	1628.14
225.44	1716.20
225.66	1738.73
225.88	1689.57
226.10	1716.20
226.32	1744.87
226.53	1740.77
226.75	1742.82
226.97	1662.95
227.19	1751.01
227.41	1650.66
227.63	1673.19
227.85	1605.61
228.06	1699.81
228.28	1665.00
228.50	1781.73
228.72	1669.09
228.94	1667.05
229.16	1585.13
229.37	1626.09
229.59	1656.81
229.81	1742.82
230.03	1671.14
230.25	1642.47
230.47	1540.07
230.69	1667.05
230.90	1773.54
231.12	1681.38
231.34	1695.72
231.56	1738.73
231.78	1718.25
232.00	1759.21
232.21	1703.91
232.43	1689.57
232.65	1568.74
232.87	1681.38
233.09	1628.14
233.30	1642.47
233.52	1818.60
233.74	1699.81
233.96	1636.33
234.18	1695.72
234.40	1726.44
234.61	1796.07
234.83	1597.42
235.05	1593.32
235.27	1773.54
235.49	1837.03
235.70	1839.08
235.92	1839.08
236.14	1669.09
236.36	1843.17
236.58	1634.28
236.79	1753.06
237.01	1781.73
237.23	1716.20
237.45	1755.11
237.67	1708.01
237.88	1736.68
238.10	1751.01
238.32	1701.86
238.54	1765.35
238.76	1738.73
238.97	1722.34
239.19	1693.67
239.41	1755.11
239.63	1724.39
239.85	1630.18
240.06	1665.00
240.28	1626.09
240.50	1732.58
240.72	1669.09
240.93	1667.05
241.15	1736.68
241.37	1650.66
241.59	1677.29
241.81	1740.77
242.02	1628.14
242.24	1654.76
242.46	1794.02
242.68	1652.71
242.89	1748.97
243.11	1771.49
243.33	1708.01
243.55	1751.01
243.76	1710.05
243.98	1728.49
244.20	1697.77
244.42	1703.91
244.64	1740.77
244.85	1617.90
245.07	1665.00
245.29	1748.97
245.51	1732.58
245.72	1761.25
245.94	1763.30
246.16	1775.59
246.38	1732.58
246.59	1646.57
246.81	1660.90
247.03	1746.92
247.24	1607.66
247.46	1693.67
247.68	1714.15
247.90	1613.80
248.11	1640.42
248.33	1798.12
248.55	1685.48
248.77	1697.77
248.98	1824.74
249.20	1734.63
249.42	1726.44
249.64	1673.19
249.85	1701.86
250.07	1662.95
250.29	1722.34
250.50	1796.07
250.72	1607.66
250.94	1712.10
251.16	1773.54
251.37	1753.06
251.59	1720.29
251.81	1781.73
252.02	1787.88
252.24	1654.76
252.46	1738.73
252.68	1607.66
252.89	1636.33
253.11	1585.13
253.33	1832.93
253.54	1781.73
253.76	1583.08
253.98	1640.42
254.20	1613.80
254.41	1712.10
254.63	1734.63
254.85	1660.90
255.06	1746.92
255.28	1771.49
255.50	1648.61
255.71	1628.14
255.93	1595.37
256.15	1720.29
256.36	1619.94
256.58	1724.39
256.80	1736.68
257.02	1732.58
257.23	1705.96
257.45	1650.66
257.67	1695.72
257.88	1693.67
258.10	1632.23
258.32	1669.09
258.53	1751.01
258.75	1759.21
258.97	1667.05
259.18	1693.67
259.40	1771.49
259.62	1830.88
259.83	1789.92
260.05	1746.92
260.27	1910.75
260.48	1705.96
260.70	1665.00
260.92	1585.13
261.13	1757.16
261.35	1843.17
261.57	1781.73
261.78	1550.31
262.00	1619.94
262.22	1724.39
262.43	1609.70
262.65	1595.37
262.86	1658.85
263.08	1892.32
263.30	1683.43
263.51	1695.72
263.73	1687.53
263.95	1814.50
264.16	1695.72
264.38	1615.85
264.60	1787.88
264.81	1687.53
265.03	1812.45
265.25	1728.49
265.46	1724.39
265.68	1789.92
265.89	1736.68
266.11	1617.90
266.33	1800.16
266.54	1746.92
266.76	1691.62
266.98	1695.72
267.19	1798.12
267.41	1800.16
267.62	1746.92
267.84	1585.13
268.06	1755.11
268.27	1791.97
268.49	1693.67
268.70	1763.30
268.92	1718.25
269.14	1613.80
269.35	1560.55
269.57	1714.15
269.79	1818.60
270.00	1722.34
270.22	1837.03
270.43	1693.67
270.65	1619.94
270.87	1753.06
271.08	1759.21
271.30	1701.86
271.51	1691.62
271.73	1775.59
271.95	1687.53
272.16	1693.67
272.38	1730.53
272.59	1714.15
272.81	1697.77
273.02	1679.33
273.24	1800.16
273.46	1759.21
273.67	1619.94
273.89	1742.82
274.10	1644.52
274.32	1806.31
274.54	1714.15
274.75	1810.40
274.97	1648.61
275.18	1724.39
275.40	1794.02
275.61	1783.78
275.83	1667.05
276.05	1669.09
276.26	1722.34
276.48	1726.44
276.69	1699.81
276.91	1636.33
277.12	1769.44
277.34	1734.63
277.55	1744.87
277.77	1687.53
277.99	1720.29
278.20	1654.76
278.42	1695.72
278.63	1570.79
278.85	1632.23
279.06	1593.32
279.28	1708.01
279.49	1800.16
279.71	1736.68
279.93	1671.14
280.14	1748.97
280.36	1599.46
280.57	1722.34
280.79	1732.58
281.00	1640.42
281.22	1728.49
281.43	1746.92
281.65	1634.28
281.86	1667.05
282.08	1705.96
282.29	1765.35
282.51	1638.38
282.73	1605.61
282.94	1671.14
283.16	1681.38
283.37	1748.97
283.59	1693.67
283.80	1705.96
284.02	1693.67
284.23	1767.40
284.45	1677.29
284.66	1568.74
284.88	1660.90
285.09	1652.71
285.31	1751.01
285.52	1757.16
285.74	1665.00
285.95	1724.39
286.17	1656.81
286.38	1765.35
286.60	1722.34
286.81	1648.61
287.03	1611.75
287.24	1681.38
287.46	1753.06
287.67	1787.88
287.89	1740.77
288.10	1746.92
288.32	1708.01
288.53	1726.44
288.75	1734.63
288.96	1648.61
289.18	1683.43
289.39	1703.91
289.61	1732.58
289.82	1861.60
290.04	1802.21
290.25	1638.38
290.47	1718.25
290.68	1701.86
290.90	1804.26
291.11	1630.18
291.33	1787.88
291.54	1675.24
291.76	1665.00
291.97	1681.38
292.18	1753.06
292.40	1636.33
292.61	1730.53
292.83	1826.79
293.04	1748.97
293.26	1673.19
293.47	1687.53
293.69	1638.38
293.90	1693.67
294.12	1730.53
294.33	1689.57
294.55	1671.14
294.76	1769.44
294.97	1753.06
295.19	1806.31
295.40	1642.47
295.62	1761.25
295.83	1773.54
296.05	1693.67
296.26	1734.63
296.48	1654.76
296.69	1669.09
296.90	1607.66
297.12	1712.10
297.33	1789.92
297.55	1748.97
297.76	1730.53
297.98	1779.68
298.19	1720.29
298.41	1746.92
298.62	1671.14
298.83	1771.49
299.05	1716.20
299.26	1705.96
299.48	1669.09
299.69	1767.40
299.90	1763.30
300.12	1652.71
300.33	1746.92
300.55	1732.58
300.76	1742.82
300.98	1552.36
301.19	1730.53
301.40	1705.96
301.62	1697.77
301.83	1697.77
302.05	1699.81
302.26	1683.43
302.47	1689.57
302.69	1673.19
302.90	1765.35
303.12	1703.91
303.33	1701.86
303.54	1816.55
303.76	1615.85
303.97	1755.11
304.19	1861.60
304.40	1581.03
304.61	1744.87
304.83	1755.11
305.04	1808.36
305.26	1785.83
305.47	1611.75
305.68	1699.81
305.90	1634.28
306.11	1761.25
306.33	1691.62
306.54	1644.52
306.75	1613.80
306.97	1617.90
307.18	1632.23
307.39	1636.33
307.61	1740.77
307.82	1695.72
308.04	1763.30
308.25	1626.09
308.46	1716.20
308.68	1673.19
308.89	1753.06
309.10	1751.01
309.32	1689.57
309.53	1697.77
309.74	1751.01
309.96	1716.20
310.17	1759.21
310.39	1667.05
310.60	1785.83
310.81	1685.48
311.03	1601.51
311.24	1757.16
311.45	1687.53
311.67	1806.31
311.88	1742.82
312.09	1613.80
312.31	1656.81
312.52	1689.57
312.73	1705.96
312.95	1636.33
313.16	1617.90
313.37	1794.02
313.59	1732.58
313.80	1705.96
314.01	1710.05
314.23	1726.44
314.44	1624.04
314.65	1630.18
314.87	1611.75
315.08	1656.81
315.29	1667.05
315.51	1609.70
315.72	1570.79
315.93	1830.88
316.15	1771.49
316.36	1632.23
316.57	1669.09
316.79	1714.15
317.00	1675.24
317.21	1703.91
317.43	1724.39
317.64	1779.68
317.85	1691.62
318.07	1689.57
318.28	1804.26
318.49	1818.60
318.70	2004.96
318.92	1994.72
319.13	1945.57
319.34	1943.52
319.56	1894.37
319.77	1832.93
319.98	1779.68
320.20	1787.88
320.41	1779.68
320.62	1753.06
320.83	1621.99
321.05	1869.80
321.26	1718.25
321.47	1673.19
321.69	1779.68
321.90	1685.48
322.11	1673.19
322.32	1691.62
322.54	1843.17
322.75	1662.95
322.96	1824.74
323.18	1638.38
323.39	1644.52
323.60	1636.33
323.81	1773.54
324.03	1572.84
324.24	1718.25
324.45	1771.49
324.66	1705.96
324.88	1746.92
325.09	1748.97
325.30	1710.05
325.52	1738.73
325.73	1685.48
325.94	1624.04
326.15	1613.80
326.37	1689.57
326.58	1722.34
326.79	1791.97
327.00	1675.24
327.22	1638.38
327.43	1693.67
327.64	1593.32
327.85	1705.96
328.07	1669.09
328.28	1804.26
328.49	1656.81
328.70	1716.20
328.92	1654.76
329.13	1644.52
329.34	1722.34
329.55	1781.73
329.76	1841.12
329.98	1716.20
330.19	1783.78
330.40	1740.77
330.61	1738.73
330.83	1767.40
331.04	1685.48
331.25	1722.34
331.46	1687.53
331.68	1593.32
331.89	1742.82
332.10	1718.25
332.31	1650.66
332.52	1681.38
332.74	1689.57
332.95	1712.10
333.16	1708.01
333.37	1730.53
333.58	1703.91
333.80	1785.83
334.01	1566.70
334.22	1685.48
334.43	1660.90
334.64	1734.63
334.86	1697.77
335.07	1619.94
335.28	1777.64
335.49	1714.15
335.70	1722.34
335.92	1771.49
336.13	1877.99
336.34	1728.49
336.55	1734.63
336.76	1699.81
336.98	1595.37
337.19	1746.92
337.40	1748.97
337.61	1828.84
337.82	1626.09
338.04	1781.73
338.25	1640.42
338.46	1687.53
338.67	1665.00
338.88	1658.85
339.09	1665.00
339.31	1671.14
339.52	1609.70
339.73	1673.19
339.94	1726.44
340.15	1794.02
340.36	1630.18
340.58	1777.64
340.79	1685.48
341.00	1748.97
341.21	1642.47
341.42	1744.87
341.63	1697.77
341.85	1794.02
342.06	1710.05
342.27	1732.58
342.48	1718.25
342.69	1613.80
342.90	1685.48
343.12	1689.57
343.33	1640.42
343.54	1744.87
343.75	1794.02
343.96	1701.86
344.17	1660.90
344.38	1718.25
344.60	1656.81
344.81	1619.94
345.02	1714.15
345.23	1742.82
345.44	1873.89
345.65	1824.74
345.86	1718.25
346.07	1689.57
346.29	1681.38
346.50	1804.26
346.71	1734.63
346.92	1808.36
347.13	1771.49
347.34	1689.57
347.55	1726.44
347.76	1736.68
347.98	1617.90
348.19	1701.86
348.40	1779.68
348.61	1667.05
348.82	1708.01
349.03	1740.77
349.24	1671.14
349.45	1789.92
349.66	1634.28
349.88	1652.71
350.09	1683.43
350.30	1810.40
350.51	1781.73
350.72	1718.25
350.93	1710.05
351.14	1699.81
351.35	1695.72
351.56	1775.59
351.77	1699.81
351.99	1755.11
352.20	1761.25
352.41	1759.21
352.62	1660.90
352.83	1710.05
353.04	1626.09
353.25	1648.61
353.46	1757.16
353.67	1693.67
353.88	1572.84
354.09	1769.44
354.30	1742.82
354.52	1783.78
354.73	1681.38
354.94	1673.19
355.15	1705.96
355.36	1826.79
355.57	1703.91
355.78	1724.39
355.99	1714.15
356.20	1695.72
356.41	1748.97
356.62	1681.38
356.83	1691.62
357.04	1783.78
357.25	1644.52
357.46	1781.73
357.68	1611.75
357.89	1607.66
358.10	1669.09
358.31	1787.88
358.52	1777.64
358.73	1687.53
358.94	1689.57
359.15	1732.58
359.36	1726.44
359.57	1708.01
359.78	1634.28
359.99	1767.40
360.20	1597.42
360.41	1689.57
360.62	1720.29
360.83	1738.73
361.04	1783.78
361.25	1751.01
361.46	1816.55
361.67	1787.88
361.88	1738.73
362.09	1822.69
362.30	1769.44
362.51	1603.56
362.72	1771.49
362.93	1730.53
363.14	1767.40
363.35	1849.32
363.56	1714.15
363.78	1740.77
363.99	1759.21
364.20	1671.14
364.41	1660.90
364.62	1857.51
364.83	1705.96
365.04	1728.49
365.25	1748.97
365.46	1746.92
365.67	1611.75
365.88	1767.40
366.09	1660.90
366.30	1644.52
366.51	1671.14
366.72	1726.44
366.93	1658.85
367.14	1650.66
367.35	1771.49
367.56	1691.62
367.77	1812.45
367.98	1732.58
368.18	1746.92
368.39	1771.49
368.60	1685.48
368.81	1724.39
369.02	1763.30
369.23	1722.34
369.44	1691.62
369.65	1689.57
369.86	1734.63
370.07	1699.81
370.28	1718.25
370.49	1703.91
370.70	1746.92
370.91	1691.62
371.12	1648.61
371.33	1738.73
371.54	1626.09
371.75	1847.27
371.96	1662.95
372.17	1675.24
372.38	1689.57
372.59	1681.38
372.80	1716.20
373.01	1705.96
373.22	1705.96
373.43	1730.53
373.64	1607.66
373.85	1771.49
374.06	1839.08
374.26	1736.68
374.47	1734.63
374.68	1816.55
374.89	1728.49
375.10	1628.14
375.31	1806.31
375.52	1740.77
375.73	1695.72
375.94	1718.25
376.15	1789.92
376.36	1718.25
376.57	1685.48
376.78	1671.14
376.99	1708.01
377.20	1789.92
377.40	1646.57
377.61	1810.40
377.82	1599.46
378.03	1757.16
378.24	1804.26
378.45	1701.86
378.66	1765.35
378.87	1609.70
379.08	1648.61
379.29	1665.00
379.50	1724.39
379.71	1662.95
379.91	1785.83
380.12	1734.63
380.33	1728.49
380.54	1675.24
380.75	1718.25
380.96	1673.19
381.17	1812.45
381.38	1751.01
381.59	1718.25
381.80	1769.44
382.00	1910.75
382.21	1861.60
382.42	1830.88
382.63	1873.89
382.84	1775.59
383.05	1744.87
383.26	1732.58
383.47	1748.97
383.68	1716.20
383.88	1781.73
384.09	1714.15
384.30	1757.16
384.51	1759.21
384.72	1710.05
384.93	1636.33
385.14	1724.39
385.35	1746.92
385.55	1638.38
385.76	1804.26
385.97	1644.52
386.18	1656.81
386.39	1613.80
386.60	1716.20
386.81	1787.88
387.02	1736.68
387.22	1576.94
387.43	1814.50
387.64	1816.55
387.85	1920.99
388.06	2338.78
388.27	4736.95
388.48	9185.14
388.68	11874.12
388.89	13565.74
389.10	14505.76
389.31	12162.89
389.52	9969.51
389.73	8650.62
389.93	8015.75
390.14	7292.82
390.35	6625.18
390.56	6061.99
390.77	5101.49
390.98	3979.20
391.18	3006.42
391.39	2416.60
391.60	1927.14
391.81	1898.47
392.02	1773.54
392.23	1869.80
392.43	1718.25
392.64	1820.64
392.85	1675.24
393.06	1800.16
393.27	1718.25
393.47	1703.91
393.68	1681.38
393.89	1705.96
394.10	1789.92
394.31	1687.53
394.52	1648.61
394.72	1648.61
394.93	1808.36
395.14	1636.33
395.35	1697.77
395.56	1673.19
395.76	1748.97
395.97	1845.22
396.18	1902.56
396.39	1980.39
396.60	2062.30
396.80	1853.41
397.01	1943.52
397.22	1865.70
397.43	1904.61
397.64	1720.29
397.84	1904.61
398.05	1863.65
398.26	1771.49
398.47	1798.12
398.67	1757.16
398.88	1771.49
399.09	1771.49
399.30	1673.19
399.51	1767.40
399.71	1683.43
399.92	1687.53
400.13	1798.12
400.34	1804.26
400.54	1693.67
400.75	1808.36
400.96	1796.07
401.17	1744.87
401.37	1689.57
401.58	1634.28
401.79	1712.10
402.00	1912.80
402.21	2097.12
402.41	2015.20
402.62	2095.07
402.83	2232.29
403.04	2090.98
403.24	2164.70
403.45	1933.28
403.66	1968.10
403.87	1935.33
404.07	1957.86
404.28	1908.71
404.49	1923.04
404.70	1781.73
404.90	1806.31
405.11	1736.68
405.32	1765.35
405.52	1732.58
405.73	1681.38
405.94	1656.81
406.15	1681.38
406.35	1755.11
406.56	1748.97
406.77	1726.44
406.98	1738.73
407.18	1695.72
407.39	1730.53
407.60	1687.53
407.80	1714.15
408.01	1703.91
408.22	1763.30
408.43	1693.67
408.63	1734.63
408.84	1769.44
409.05	1744.87
409.25	1720.29
409.46	1687.53
409.67	1693.67
409.88	1667.05
410.08	1769.44
410.29	1738.73
410.50	1744.87
410.70	1677.29
410.91	1716.20
411.12	1726.44
411.32	1689.57
411.53	1667.05
411.74	1853.41
411.95	1845.22
412.15	1687.53
412.36	1798.12
412.57	1861.60
412.77	1853.41
412.98	1705.96
413.19	1691.62
413.39	1736.68
413.60	1775.59
413.81	1906.66
414.01	1716.20
414.22	1816.55
414.43	1763.30
414.63	1789.92
414.84	1826.79
415.05	1656.81
415.25	1626.09
415.46	1724.39
415.67	1728.49
415.87	1722.34
416.08	1767.40
416.29	1738.73
416.49	1710.05
416.70	1736.68
416.91	1632.23
417.11	1785.83
417.32	1839.08
417.53	1724.39
417.73	1740.77
417.94	1742.82
418.15	1789.92
418.35	1708.01
418.56	1712.10
418.77	1824.74
418.97	1640.42
419.18	1695.72
419.38	1648.61
419.59	1660.90
419.80	1834.98
420.00	1669.09
420.21	1714.15
420.42	1738.73
420.62	1757.16
420.83	1697.77
421.04	1708.01
421.24	1703.91
421.45	1755.11
421.65	1753.06
421.86	1652.71
422.07	1744.87
422.27	1734.63
422.48	1646.57
422.69	1683.43
422.89	1724.39
423.10	1628.14
423.30	1632.23
423.51	1789.92
423.72	1705.96
423.92	1658.85
424.13	1671.14
424.33	1763.30
424.54	1722.34
424.75	1785.83
424.95	1785.83
425.16	1832.93
425.36	1718.25
425.57	1820.64
425.78	1767.40
425.98	1798.12
426.19	1695.72
426.39	1619.94
426.60	1773.54
426.81	1742.82
427.01	1693.67
427.22	1675.24
427.42	1605.61
427.63	1675.24
427.83	1714.15
428.04	1779.68
428.25	1834.98
428.45	1744.87
428.66	1787.88
428.86	1624.04
429.07	1683.43
429.28	1783.78
429.48	1685.48
429.69	1619.94
429.89	1726.44
430.10	1742.82
430.30	1710.05
430.51	1826.79
430.71	1671.14
430.92	1673.19
431.13	1699.81
431.33	1808.36
431.54	1751.01
431.74	1839.08
431.95	1777.64
432.15	1738.73
432.36	1763.30
432.56	1738.73
432.77	1824.74
432.98	1812.45
433.18	1753.06
433.39	1712.10
433.59	1701.86
433.80	1767.40
434.00	1818.60
434.21	1677.29
434.41	1619.94
434.62	1789.92
434.82	1685.48
435.03	1662.95
435.23	1802.21
435.44	1632.23
435.64	1771.49
435.85	1722.34
436.06	1791.97
436.26	1734.63
436.47	1751.01
436.67	1667.05
436.88	1773.54
437.08	1767.40
437.29	1841.12
437.49	1665.00
437.70	1759.21
437.90	1716.20
438.11	1820.64
438.31	1830.88
438.52	1912.80
438.72	1916.90
438.93	1996.77
439.13	1871.84
439.34	1869.80
439.54	1830.88
439.75	1787.88
439.95	1853.41
440.16	1714.15
440.36	1689.57
440.57	1757.16
440.77	1800.16
440.98	1759.21
441.18	1808.36
441.39	1681.38
441.59	1673.19
441.80	1851.36
442.00	1738.73
442.21	1777.64
442.41	1708.01
442.62	1755.11
442.82	1636.33
443.02	1710.05
443.23	1730.53
443.43	1736.68
443.64	1822.69
443.84	1685.48
444.05	1888.23
444.25	1736.68
444.46	1806.31
444.66	1740.77
444.87	1902.56
445.07	1677.29
445.28	1724.39
445.48	1859.56
445.69	1845.22
445.89	1832.93
446.09	1751.01
446.30	1929.19
446.50	2533.34
446.71	4091.84
446.91	5134.26
447.12	5812.14
447.32	6113.19
447.53	5291.95
447.73	4470.72
447.93	4024.26
448.14	3721.16
448.34	3553.23
448.55	3160.02
448.75	3170.26
448.96	2934.74
449.16	2584.54
449.36	2496.47
449.57	2082.78
449.77	1978.34
449.98	1777.64
450.18	1812.45
450.39	1810.40
450.59	1800.16
450.79	1718.25
451.00	1740.77
451.20	1832.93
451.41	1705.96
451.61	1769.44
451.81	1785.83
452.02	1714.15
452.22	1689.57
452.43	1734.63
452.63	1685.48
