SpectraSuite Data File
++++++++++++++++++++++++++++++++++++
Date: Wed May 04 18:44:07 CEST 2016
User: root
Dark Spectrum Present: No
Reference Spectrum Present: No
Number of Sampled Component Spectra: 1
Spectrometers: USB4C02835
Integration Time (usec): 100000 (USB4C02835)
Spectra Averaged: 1 (USB4C02835)
Boxcar Smoothing: 0 (USB4C02835)
Correct for Electrical Dark: No (USB4C02835)
Strobe/Lamp Enabled: No (USB4C02835)
Correct for Detector Non-linearity: No (USB4C02835)
Correct for Stray Light: No (USB4C02835)
Number of Pixels in Processed Spectrum: 3648
>>>>>Begin Processed Spectral Data<<<<<
177.47	1437.67
177.69	1437.67
177.91	1437.67
178.13	1472.49
178.36	1466.35
178.58	1720.29
178.80	1697.77
179.02	1681.38
179.24	1572.84
179.46	1724.39
179.68	1701.86
179.90	1673.19
180.13	1667.05
180.35	1669.09
180.57	1710.05
180.79	1718.25
181.01	1626.09
181.23	1681.38
181.45	1744.87
181.67	1677.29
181.90	1691.62
182.12	1599.46
182.34	1611.75
182.56	1765.35
182.78	1742.82
183.00	1710.05
183.22	1712.10
183.44	1558.50
183.66	1853.41
183.89	1789.92
184.11	1681.38
184.33	1710.05
184.55	1822.69
184.77	1728.49
184.99	1746.92
185.21	1705.96
185.43	1841.12
185.65	1609.70
185.87	1771.49
186.10	1851.36
186.32	1886.18
186.54	1796.07
186.76	1800.16
186.98	1769.44
187.20	1650.66
187.42	1685.48
187.64	1732.58
187.86	1771.49
188.08	1763.30
188.30	1751.01
188.52	1710.05
188.75	1787.88
188.97	1787.88
189.19	1644.52
189.41	1722.34
189.63	1734.63
189.85	1679.33
190.07	1628.14
190.29	1652.71
190.51	1675.24
190.73	1640.42
190.95	1736.68
191.17	1701.86
191.39	1648.61
191.61	1726.44
191.84	1681.38
192.06	1791.97
192.28	1679.33
192.50	1839.08
192.72	1716.20
192.94	1771.49
193.16	1763.30
193.38	1687.53
193.60	1724.39
193.82	1691.62
194.04	1714.15
194.26	1726.44
194.48	1746.92
194.70	1677.29
194.92	1718.25
195.14	1781.73
195.36	1630.18
195.58	1738.73
195.80	1656.81
196.02	1712.10
196.24	1718.25
196.46	1767.40
196.69	1699.81
196.91	1853.41
197.13	1740.77
197.35	1685.48
197.57	1789.92
197.79	1669.09
198.01	1703.91
198.23	1697.77
198.45	1693.67
198.67	1595.37
198.89	1748.97
199.11	1736.68
199.33	1681.38
199.55	1572.84
199.77	1728.49
199.99	1791.97
200.21	1642.47
200.43	1726.44
200.65	1578.98
200.87	1644.52
201.09	1693.67
201.31	1736.68
201.53	1822.69
201.75	1695.72
201.97	1644.52
202.19	1724.39
202.41	1783.78
202.63	1796.07
202.85	1736.68
203.07	1705.96
203.29	1665.00
203.51	1697.77
203.73	1720.29
203.95	1869.80
204.17	1701.86
204.39	1617.90
204.61	1744.87
204.83	1705.96
205.05	1759.21
205.27	1783.78
205.49	1771.49
205.71	1767.40
205.93	1619.94
206.15	1667.05
206.37	1660.90
206.59	1789.92
206.81	1640.42
207.03	1693.67
207.25	1650.66
207.47	1738.73
207.69	1683.43
207.91	1818.60
208.13	1822.69
208.34	1560.55
208.56	1683.43
208.78	1755.11
209.00	1697.77
209.22	1744.87
209.44	1691.62
209.66	1697.77
209.88	1716.20
210.10	1687.53
210.32	1595.37
210.54	1781.73
210.76	1742.82
210.98	1730.53
211.20	1632.23
211.42	1748.97
211.64	1798.12
211.86	1693.67
212.08	1730.53
212.30	1695.72
212.52	1718.25
212.74	1722.34
212.96	1626.09
213.17	1730.53
213.39	1744.87
213.61	1808.36
213.83	1730.53
214.05	1761.25
214.27	1742.82
214.49	1621.99
214.71	1691.62
214.93	1687.53
215.15	1714.15
215.37	1804.26
215.59	1605.61
215.81	1714.15
216.03	1847.27
216.24	1705.96
216.46	1773.54
216.68	1773.54
216.90	1742.82
217.12	1763.30
217.34	1738.73
217.56	1673.19
217.78	1775.59
218.00	1828.84
218.22	1677.29
218.44	1773.54
218.66	1748.97
218.87	1859.56
219.09	1681.38
219.31	1800.16
219.53	1738.73
219.75	1593.32
219.97	1757.16
220.19	1740.77
220.41	1720.29
220.63	1775.59
220.85	1673.19
221.06	1673.19
221.28	1722.34
221.50	1736.68
221.72	1705.96
221.94	1726.44
222.16	1714.15
222.38	1779.68
222.60	1781.73
222.82	1714.15
223.03	1726.44
223.25	1621.99
223.47	1816.55
223.69	1824.74
223.91	1783.78
224.13	1660.90
224.35	1673.19
224.57	1771.49
224.78	1767.40
225.00	1636.33
225.22	1771.49
225.44	1714.15
225.66	1742.82
225.88	1671.14
226.10	1763.30
226.32	1720.29
226.53	1867.75
226.75	1650.66
226.97	1689.57
227.19	1724.39
227.41	1681.38
227.63	1683.43
227.85	1665.00
228.06	1718.25
228.28	1730.53
228.50	1787.88
228.72	1630.18
228.94	1683.43
229.16	1599.46
229.37	1597.42
229.59	1662.95
229.81	1845.22
230.03	1691.62
230.25	1671.14
230.47	1705.96
230.69	1673.19
230.90	1763.30
231.12	1681.38
231.34	1701.86
231.56	1732.58
231.78	1662.95
232.00	1720.29
232.21	1720.29
232.43	1699.81
232.65	1576.94
232.87	1708.01
233.09	1701.86
233.30	1632.23
233.52	1789.92
233.74	1697.77
233.96	1683.43
234.18	1695.72
234.40	1677.29
234.61	1812.45
234.83	1652.71
235.05	1691.62
235.27	1800.16
235.49	1767.40
235.70	1710.05
235.92	1763.30
236.14	1736.68
236.36	1806.31
236.58	1660.90
236.79	1802.21
237.01	1748.97
237.23	1669.09
237.45	1853.41
237.67	1685.48
237.88	1720.29
238.10	1759.21
238.32	1603.56
238.54	1748.97
238.76	1691.62
238.97	1667.05
239.19	1701.86
239.41	1789.92
239.63	1751.01
239.85	1669.09
240.06	1687.53
240.28	1714.15
240.50	1802.21
240.72	1638.38
240.93	1693.67
241.15	1781.73
241.37	1753.06
241.59	1855.46
241.81	1708.01
242.02	1683.43
242.24	1712.10
242.46	1691.62
242.68	1656.81
242.89	1753.06
243.11	1726.44
243.33	1646.57
243.55	1701.86
243.76	1783.78
243.98	1687.53
244.20	1767.40
244.42	1693.67
244.64	1689.57
244.85	1578.98
245.07	1640.42
245.29	1712.10
245.51	1685.48
245.72	1710.05
245.94	1755.11
246.16	1765.35
246.38	1779.68
246.59	1724.39
246.81	1650.66
247.03	1681.38
247.24	1624.04
247.46	1587.18
247.68	1757.16
247.90	1685.48
248.11	1724.39
248.33	1781.73
248.55	1769.44
248.77	1765.35
248.98	1738.73
249.20	1740.77
249.42	1617.90
249.64	1705.96
249.85	1736.68
250.07	1611.75
250.29	1771.49
250.50	1781.73
250.72	1617.90
250.94	1685.48
251.16	1855.46
251.37	1863.65
251.59	1652.71
251.81	1726.44
252.02	1759.21
252.24	1648.61
252.46	1800.16
252.68	1648.61
252.89	1660.90
253.11	1642.47
253.33	1748.97
253.54	1736.68
253.76	1611.75
253.98	1697.77
254.20	1683.43
254.41	1671.14
254.63	1740.77
254.85	1624.04
255.06	1716.20
255.28	1763.30
255.50	1705.96
255.71	1583.08
255.93	1667.05
256.15	1703.91
256.36	1697.77
256.58	1675.24
256.80	1777.64
257.02	1660.90
257.23	1650.66
257.45	1769.44
257.67	1689.57
257.88	1669.09
258.10	1712.10
258.32	1701.86
258.53	1705.96
258.75	1689.57
258.97	1607.66
259.18	1718.25
259.40	1783.78
259.62	1896.42
259.83	1777.64
260.05	1679.33
260.27	1972.19
260.48	1789.92
260.70	1662.95
260.92	1738.73
261.13	1763.30
261.35	1746.92
261.57	1705.96
261.78	1636.33
262.00	1675.24
262.22	1779.68
262.43	1632.23
262.65	1691.62
262.86	1665.00
263.08	1791.97
263.30	1695.72
263.51	1675.24
263.73	1716.20
263.95	1779.68
264.16	1611.75
264.38	1712.10
264.60	1683.43
264.81	1652.71
265.03	1791.97
265.25	1800.16
265.46	1708.01
265.68	1798.12
265.89	1703.91
266.11	1642.47
266.33	1652.71
266.54	1673.19
266.76	1755.11
266.98	1699.81
267.19	1769.44
267.41	1794.02
267.62	1701.86
267.84	1718.25
268.06	1751.01
268.27	1720.29
268.49	1777.64
268.70	1630.18
268.92	1693.67
269.14	1677.29
269.35	1628.14
269.57	1742.82
269.79	1785.83
270.00	1656.81
270.22	1806.31
270.43	1669.09
270.65	1624.04
270.87	1755.11
271.08	1779.68
271.30	1787.88
271.51	1675.24
271.73	1681.38
271.95	1837.03
272.16	1714.15
272.38	1703.91
272.59	1708.01
272.81	1757.16
273.02	1753.06
273.24	1728.49
273.46	1724.39
273.67	1677.29
273.89	1693.67
274.10	1714.15
274.32	1708.01
274.54	1697.77
274.75	1705.96
274.97	1695.72
275.18	1726.44
275.40	1767.40
275.61	1689.57
275.83	1644.52
276.05	1693.67
276.26	1683.43
276.48	1681.38
276.69	1669.09
276.91	1677.29
277.12	1808.36
277.34	1755.11
277.55	1753.06
277.77	1705.96
277.99	1665.00
278.20	1681.38
278.42	1718.25
278.63	1640.42
278.85	1619.94
279.06	1628.14
279.28	1708.01
279.49	1705.96
279.71	1726.44
279.93	1667.05
280.14	1642.47
280.36	1662.95
280.57	1732.58
280.79	1744.87
281.00	1673.19
281.22	1658.85
281.43	1824.74
281.65	1558.50
281.86	1574.89
282.08	1701.86
282.29	1837.03
282.51	1654.76
282.73	1679.33
282.94	1619.94
283.16	1732.58
283.37	1734.63
283.59	1699.81
283.80	1730.53
284.02	1656.81
284.23	1736.68
284.45	1697.77
284.66	1652.71
284.88	1689.57
285.09	1724.39
285.31	1789.92
285.52	1673.19
285.74	1697.77
285.95	1771.49
286.17	1695.72
286.38	1732.58
286.60	1687.53
286.81	1677.29
287.03	1716.20
287.24	1699.81
287.46	1730.53
287.67	1665.00
287.89	1902.56
288.10	1738.73
288.32	1755.11
288.53	1810.40
288.75	1734.63
288.96	1705.96
289.18	1689.57
289.39	1748.97
289.61	1703.91
289.82	1808.36
290.04	1845.22
290.25	1591.27
290.47	1656.81
290.68	1667.05
290.90	1808.36
291.11	1593.32
291.33	1701.86
291.54	1794.02
291.76	1644.52
291.97	1685.48
292.18	1695.72
292.40	1662.95
292.61	1658.85
292.83	1871.84
293.04	1724.39
293.26	1710.05
293.47	1734.63
293.69	1656.81
293.90	1685.48
294.12	1775.59
294.33	1738.73
294.55	1705.96
294.76	1724.39
294.97	1759.21
295.19	1808.36
295.40	1665.00
295.62	1730.53
295.83	1738.73
296.05	1617.90
296.26	1834.98
296.48	1705.96
296.69	1714.15
296.90	1673.19
297.12	1746.92
297.33	1722.34
297.55	1687.53
297.76	1751.01
297.98	1740.77
298.19	1701.86
298.41	1751.01
298.62	1667.05
298.83	1818.60
299.05	1785.83
299.26	1742.82
299.48	1654.76
299.69	1710.05
299.90	1665.00
300.12	1652.71
300.33	1767.40
300.55	1693.67
300.76	1742.82
300.98	1660.90
301.19	1759.21
301.40	1656.81
301.62	1757.16
301.83	1681.38
302.05	1667.05
302.26	1693.67
302.47	1673.19
302.69	1611.75
302.90	1685.48
303.12	1570.79
303.33	1746.92
303.54	1853.41
303.76	1679.33
303.97	1751.01
304.19	1757.16
304.40	1601.51
304.61	1712.10
304.83	1800.16
305.04	1746.92
305.26	1732.58
305.47	1658.85
305.68	1699.81
305.90	1699.81
306.11	1740.77
306.33	1681.38
306.54	1619.94
306.75	1703.91
306.97	1595.37
307.18	1630.18
307.39	1644.52
307.61	1763.30
307.82	1687.53
308.04	1699.81
308.25	1691.62
308.46	1677.29
308.68	1708.01
308.89	1724.39
309.10	1855.46
309.32	1787.88
309.53	1689.57
309.74	1724.39
309.96	1689.57
310.17	1710.05
310.39	1734.63
310.60	1701.86
310.81	1677.29
311.03	1673.19
311.24	1769.44
311.45	1720.29
311.67	1843.17
311.88	1736.68
312.09	1705.96
312.31	1710.05
312.52	1665.00
312.73	1726.44
312.95	1613.80
313.16	1624.04
313.37	1781.73
313.59	1748.97
313.80	1705.96
314.01	1843.17
314.23	1652.71
314.44	1646.57
314.65	1679.33
314.87	1667.05
315.08	1746.92
315.29	1753.06
315.51	1683.43
315.72	1624.04
315.93	1748.97
316.15	1794.02
316.36	1683.43
316.57	1675.24
316.79	1738.73
317.00	1714.15
317.21	1730.53
317.43	1697.77
317.64	1738.73
317.85	1650.66
318.07	1769.44
318.28	1794.02
318.49	1873.89
318.70	1886.18
318.92	1902.56
319.13	1943.52
319.34	1923.04
319.56	1890.28
319.77	1753.06
319.98	1775.59
320.20	1826.79
320.41	1789.92
320.62	1800.16
320.83	1658.85
321.05	1843.17
321.26	1734.63
321.47	1740.77
321.69	1824.74
321.90	1697.77
322.11	1705.96
322.32	1732.58
322.54	1812.45
322.75	1638.38
322.96	1816.55
323.18	1669.09
323.39	1607.66
323.60	1658.85
323.81	1738.73
324.03	1640.42
324.24	1701.86
324.45	1722.34
324.66	1748.97
324.88	1822.69
325.09	1837.03
325.30	1708.01
325.52	1726.44
325.73	1701.86
325.94	1683.43
326.15	1558.50
326.37	1667.05
326.58	1746.92
326.79	1751.01
327.00	1617.90
327.22	1665.00
327.43	1652.71
327.64	1681.38
327.85	1683.43
328.07	1689.57
328.28	1816.55
328.49	1650.66
328.70	1621.99
328.92	1740.77
329.13	1701.86
329.34	1796.07
329.55	1759.21
329.76	1779.68
329.98	1675.24
330.19	1763.30
330.40	1675.24
330.61	1712.10
330.83	1761.25
331.04	1712.10
331.25	1677.29
331.46	1712.10
331.68	1675.24
331.89	1730.53
332.10	1734.63
332.31	1654.76
332.52	1751.01
332.74	1685.48
332.95	1638.38
333.16	1695.72
333.37	1693.67
333.58	1669.09
333.80	1669.09
334.01	1593.32
334.22	1714.15
334.43	1667.05
334.64	1705.96
334.86	1703.91
335.07	1695.72
335.28	1726.44
335.49	1587.18
335.70	1785.83
335.92	1812.45
336.13	1812.45
336.34	1779.68
336.55	1748.97
336.76	1726.44
336.98	1628.14
337.19	1673.19
337.40	1765.35
337.61	1822.69
337.82	1636.33
338.04	1738.73
338.25	1638.38
338.46	1742.82
338.67	1665.00
338.88	1669.09
339.09	1650.66
339.31	1695.72
339.52	1648.61
339.73	1703.91
339.94	1650.66
340.15	1683.43
340.36	1652.71
340.58	1689.57
340.79	1757.16
341.00	1779.68
341.21	1617.90
341.42	1841.12
341.63	1665.00
341.85	1714.15
342.06	1691.62
342.27	1714.15
342.48	1769.44
342.69	1656.81
342.90	1812.45
343.12	1732.58
343.33	1695.72
343.54	1779.68
343.75	1716.20
343.96	1656.81
344.17	1710.05
344.38	1693.67
344.60	1624.04
344.81	1673.19
345.02	1658.85
345.23	1781.73
345.44	1802.21
345.65	1722.34
345.86	1675.24
346.07	1753.06
346.29	1705.96
346.50	1755.11
346.71	1775.59
346.92	1746.92
347.13	1826.79
347.34	1662.95
347.55	1679.33
347.76	1675.24
347.98	1638.38
348.19	1691.62
348.40	1671.14
348.61	1624.04
348.82	1767.40
349.03	1675.24
349.24	1681.38
349.45	1796.07
349.66	1552.36
349.88	1775.59
350.09	1626.09
350.30	1824.74
350.51	1830.88
350.72	1697.77
350.93	1691.62
351.14	1640.42
351.35	1716.20
351.56	1744.87
351.77	1736.68
351.99	1814.50
352.20	1834.98
352.41	1794.02
352.62	1665.00
352.83	1697.77
353.04	1708.01
353.25	1685.48
353.46	1767.40
353.67	1824.74
353.88	1599.46
354.09	1726.44
354.30	1697.77
354.52	1746.92
354.73	1771.49
354.94	1585.13
355.15	1662.95
355.36	1802.21
355.57	1716.20
355.78	1710.05
355.99	1675.24
356.20	1732.58
356.41	1787.88
356.62	1755.11
356.83	1693.67
357.04	1718.25
357.25	1591.27
357.46	1742.82
357.68	1648.61
357.89	1638.38
358.10	1671.14
358.31	1703.91
358.52	1748.97
358.73	1638.38
358.94	1640.42
359.15	1732.58
359.36	1714.15
359.57	1714.15
359.78	1714.15
359.99	1689.57
360.20	1665.00
360.41	1734.63
360.62	1773.54
360.83	1660.90
361.04	1742.82
361.25	1759.21
361.46	1800.16
361.67	1771.49
361.88	1714.15
362.09	1769.44
362.30	1783.78
362.51	1662.95
362.72	1730.53
362.93	1699.81
363.14	1746.92
363.35	1701.86
363.56	1656.81
363.78	1769.44
363.99	1705.96
364.20	1667.05
364.41	1781.73
364.62	1810.40
364.83	1763.30
365.04	1738.73
365.25	1675.24
365.46	1808.36
365.67	1656.81
365.88	1619.94
366.09	1697.77
366.30	1708.01
366.51	1632.23
366.72	1677.29
366.93	1703.91
367.14	1751.01
367.35	1814.50
367.56	1736.68
367.77	1806.31
367.98	1708.01
368.18	1654.76
368.39	1763.30
368.60	1640.42
368.81	1740.77
369.02	1765.35
369.23	1779.68
369.44	1624.04
369.65	1718.25
369.86	1757.16
370.07	1804.26
370.28	1652.71
370.49	1767.40
370.70	1798.12
370.91	1609.70
371.12	1540.07
371.33	1722.34
371.54	1726.44
371.75	1824.74
371.96	1607.66
372.17	1808.36
372.38	1712.10
372.59	1771.49
372.80	1724.39
373.01	1730.53
373.22	1765.35
373.43	1693.67
373.64	1693.67
373.85	1796.07
374.06	1771.49
374.26	1748.97
374.47	1757.16
374.68	1781.73
374.89	1705.96
375.10	1693.67
375.31	1781.73
375.52	1720.29
375.73	1722.34
375.94	1624.04
376.15	1773.54
376.36	1624.04
376.57	1605.61
376.78	1710.05
376.99	1693.67
377.20	1771.49
377.40	1675.24
377.61	1820.64
377.82	1607.66
378.03	1798.12
378.24	1710.05
378.45	1712.10
378.66	1722.34
378.87	1615.85
379.08	1697.77
379.29	1742.82
379.50	1791.97
379.71	1691.62
379.91	1755.11
380.12	1642.47
380.33	1658.85
380.54	1716.20
380.75	1708.01
380.96	1744.87
381.17	1767.40
381.38	1681.38
381.59	1679.33
381.80	1775.59
382.00	1865.70
382.21	1724.39
382.42	1841.12
382.63	1869.80
382.84	1705.96
383.05	1849.32
383.26	1787.88
383.47	1730.53
383.68	1824.74
383.88	1759.21
384.09	1775.59
384.30	1787.88
384.51	1722.34
384.72	1673.19
384.93	1591.27
385.14	1689.57
385.35	1708.01
385.55	1626.09
385.76	1783.78
385.97	1701.86
386.18	1566.70
386.39	1660.90
386.60	1695.72
386.81	1681.38
387.02	1615.85
387.22	1697.77
387.43	1742.82
387.64	1767.40
387.85	1865.70
388.06	2226.14
388.27	4681.66
388.48	9310.07
388.68	11835.21
388.89	13563.70
389.10	14473.00
389.31	12099.40
389.52	9867.11
389.73	8793.98
389.93	7948.17
390.14	7278.48
390.35	6670.23
390.56	5990.31
390.77	5033.91
390.98	3940.29
391.18	3157.97
391.39	2426.84
391.60	2002.91
391.81	1841.12
392.02	1691.62
392.23	1904.61
392.43	1726.44
392.64	1892.32
392.85	1806.31
393.06	1857.51
393.27	1699.81
393.47	1667.05
393.68	1779.68
393.89	1636.33
394.10	1724.39
394.31	1718.25
394.52	1685.48
394.72	1699.81
394.93	1806.31
395.14	1581.03
395.35	1746.92
395.56	1691.62
395.76	1744.87
395.97	1859.56
396.18	1892.32
396.39	1886.18
396.60	2088.93
396.80	1961.95
397.01	1783.78
397.22	1896.42
397.43	1910.75
397.64	1712.10
397.84	1812.45
398.05	1861.60
398.26	1826.79
398.47	1837.03
398.67	1714.15
398.88	1757.16
399.09	1759.21
399.30	1701.86
399.51	1751.01
399.71	1673.19
399.92	1748.97
400.13	1722.34
400.34	1683.43
400.54	1714.15
400.75	1746.92
400.96	1771.49
401.17	1841.12
401.37	1767.40
401.58	1808.36
401.79	1691.62
402.00	1892.32
402.21	2140.13
402.41	2068.45
402.62	2090.98
402.83	2189.28
403.04	2031.58
403.24	2174.94
403.45	1970.15
403.66	1980.39
403.87	1994.72
404.07	1880.04
404.28	1943.52
404.49	2045.92
404.70	1781.73
404.90	1814.50
405.11	1746.92
405.32	1695.72
405.52	1705.96
405.73	1716.20
405.94	1644.52
406.15	1691.62
406.35	1726.44
406.56	1726.44
406.77	1759.21
406.98	1720.29
407.18	1724.39
407.39	1841.12
407.60	1671.14
407.80	1779.68
408.01	1697.77
408.22	1714.15
408.43	1570.79
408.63	1730.53
408.84	1744.87
409.05	1796.07
409.25	1656.81
409.46	1560.55
409.67	1712.10
409.88	1683.43
410.08	1746.92
410.29	1703.91
410.50	1783.78
410.70	1742.82
410.91	1726.44
411.12	1691.62
411.32	1712.10
411.53	1771.49
411.74	1865.70
411.95	1808.36
412.15	1763.30
412.36	1826.79
412.57	1718.25
412.77	1900.52
412.98	1730.53
413.19	1650.66
413.39	1806.31
413.60	1751.01
413.81	1849.32
414.01	1765.35
414.22	1757.16
414.43	1845.22
414.63	1767.40
414.84	1769.44
415.05	1732.58
415.25	1642.47
415.46	1798.12
415.67	1689.57
415.87	1730.53
416.08	1742.82
416.29	1681.38
416.49	1748.97
416.70	1714.15
416.91	1746.92
417.11	1748.97
417.32	1759.21
417.53	1787.88
417.73	1734.63
417.94	1734.63
418.15	1781.73
418.35	1628.14
418.56	1714.15
418.77	1853.41
418.97	1693.67
419.18	1665.00
419.38	1662.95
419.59	1779.68
419.80	1865.70
420.00	1636.33
420.21	1673.19
420.42	1759.21
420.62	1740.77
420.83	1708.01
421.04	1769.44
421.24	1712.10
421.45	1800.16
421.65	1783.78
421.86	1767.40
422.07	1787.88
422.27	1671.14
422.48	1767.40
422.69	1732.58
422.89	1695.72
423.10	1738.73
423.30	1730.53
423.51	1691.62
423.72	1685.48
423.92	1742.82
424.13	1607.66
424.33	1722.34
424.54	1771.49
424.75	1640.42
424.95	1779.68
425.16	1759.21
425.36	1605.61
425.57	1816.55
425.78	1802.21
425.98	1781.73
426.19	1693.67
426.39	1738.73
426.60	1726.44
426.81	1789.92
427.01	1800.16
427.22	1665.00
427.42	1660.90
427.63	1695.72
427.83	1781.73
428.04	1816.55
428.25	1800.16
428.45	1789.92
428.66	1703.91
428.86	1708.01
429.07	1734.63
429.28	1722.34
429.48	1697.77
429.69	1671.14
429.89	1746.92
430.10	1714.15
430.30	1718.25
430.51	1781.73
430.71	1710.05
430.92	1744.87
431.13	1683.43
431.33	1865.70
431.54	1802.21
431.74	1808.36
431.95	1826.79
432.15	1589.22
432.36	1714.15
432.56	1759.21
432.77	1834.98
432.98	1814.50
433.18	1712.10
433.39	1689.57
433.59	1697.77
433.80	1898.47
434.00	1863.65
434.21	1665.00
434.41	1722.34
434.62	1853.41
434.82	1675.24
435.03	1681.38
435.23	1798.12
435.44	1660.90
435.64	1708.01
435.85	1730.53
436.06	1814.50
436.26	1730.53
436.47	1738.73
436.67	1687.53
436.88	1736.68
437.08	1830.88
437.29	1832.93
437.49	1742.82
437.70	1673.19
437.90	1685.48
438.11	1785.83
438.31	1828.84
438.52	1837.03
438.72	1937.38
438.93	2013.15
439.13	1877.99
439.34	1851.36
439.54	1722.34
439.75	1812.45
439.95	1855.46
440.16	1716.20
440.36	1689.57
440.57	1738.73
440.77	1730.53
440.98	1728.49
441.18	1771.49
441.39	1720.29
441.59	1677.29
441.80	1771.49
442.00	1714.15
442.21	1800.16
442.41	1634.28
442.62	1775.59
442.82	1705.96
443.02	1775.59
443.23	1751.01
443.43	1779.68
443.64	1789.92
443.84	1708.01
444.05	1898.47
444.25	1722.34
444.46	1701.86
444.66	1734.63
444.87	1877.99
445.07	1675.24
445.28	1656.81
445.48	1816.55
445.69	1759.21
445.89	1892.32
446.09	1785.83
446.30	2015.20
446.50	2537.43
446.71	4097.99
446.91	5154.74
447.12	5732.26
447.32	6104.99
447.53	5457.84
447.73	4601.79
447.93	4118.47
448.14	3743.69
448.34	3592.14
448.55	3266.51
448.75	3135.44
448.96	2992.08
449.16	2621.40
449.36	2547.67
449.57	2199.52
449.77	1918.95
449.98	1779.68
450.18	1796.07
450.39	1755.11
450.59	1781.73
450.79	1710.05
451.00	1667.05
451.20	1804.26
451.41	1800.16
451.61	1798.12
451.81	1675.24
452.02	1710.05
452.22	1691.62
452.43	1716.20
452.63	1673.19
