SpectraSuite Data File
++++++++++++++++++++++++++++++++++++
Date: Wed May 04 18:44:52 CEST 2016
User: root
Dark Spectrum Present: No
Reference Spectrum Present: No
Number of Sampled Component Spectra: 1
Spectrometers: USB4C02835
Integration Time (usec): 100000 (USB4C02835)
Spectra Averaged: 1 (USB4C02835)
Boxcar Smoothing: 0 (USB4C02835)
Correct for Electrical Dark: No (USB4C02835)
Strobe/Lamp Enabled: No (USB4C02835)
Correct for Detector Non-linearity: No (USB4C02835)
Correct for Stray Light: No (USB4C02835)
Number of Pixels in Processed Spectrum: 3648
>>>>>Begin Processed Spectral Data<<<<<
177.47	1476.59
177.69	1476.59
177.91	1476.59
178.13	1462.25
178.36	1519.59
178.58	1673.19
178.80	1812.45
179.02	1628.14
179.24	1673.19
179.46	1675.24
179.68	1705.96
179.90	1693.67
180.13	1701.86
180.35	1671.14
180.57	1662.95
180.79	1736.68
181.01	1683.43
181.23	1775.59
181.45	1794.02
181.67	1748.97
181.90	1769.44
182.12	1654.76
182.34	1609.70
182.56	1787.88
182.78	1705.96
183.00	1742.82
183.22	1662.95
183.44	1634.28
183.66	1910.75
183.89	1867.75
184.11	1689.57
184.33	1798.12
184.55	1769.44
184.77	1787.88
184.99	1677.29
185.21	1703.91
185.43	1845.22
185.65	1673.19
185.87	1742.82
186.10	1761.25
186.32	1832.93
186.54	1730.53
186.76	1714.15
186.98	1787.88
187.20	1701.86
187.42	1662.95
187.64	1687.53
187.86	1763.30
188.08	1769.44
188.30	1665.00
188.52	1722.34
188.75	1787.88
188.97	1828.84
189.19	1658.85
189.41	1665.00
189.63	1683.43
189.85	1681.38
190.07	1640.42
190.29	1673.19
190.51	1761.25
190.73	1697.77
190.95	1775.59
191.17	1710.05
191.39	1699.81
191.61	1730.53
191.84	1705.96
192.06	1681.38
192.28	1562.60
192.50	1931.23
192.72	1736.68
192.94	1679.33
193.16	1763.30
193.38	1697.77
193.60	1720.29
193.82	1701.86
194.04	1769.44
194.26	1722.34
194.48	1697.77
194.70	1697.77
194.92	1669.09
195.14	1777.64
195.36	1693.67
195.58	1720.29
195.80	1763.30
196.02	1662.95
196.24	1720.29
196.46	1699.81
196.69	1648.61
196.91	1824.74
197.13	1785.83
197.35	1624.04
197.57	1781.73
197.79	1720.29
198.01	1742.82
198.23	1755.11
198.45	1685.48
198.67	1640.42
198.89	1708.01
199.11	1759.21
199.33	1613.80
199.55	1624.04
199.77	1665.00
199.99	1796.07
200.21	1716.20
200.43	1716.20
200.65	1695.72
200.87	1599.46
201.09	1681.38
201.31	1660.90
201.53	1765.35
201.75	1697.77
201.97	1791.97
202.19	1665.00
202.41	1705.96
202.63	1775.59
202.85	1812.45
203.07	1685.48
203.29	1685.48
203.51	1681.38
203.73	1607.66
203.95	1851.36
204.17	1740.77
204.39	1748.97
204.61	1691.62
204.83	1658.85
205.05	1761.25
205.27	1761.25
205.49	1951.71
205.71	1665.00
205.93	1585.13
206.15	1660.90
206.37	1689.57
206.59	1703.91
206.81	1685.48
207.03	1591.27
207.25	1738.73
207.47	1730.53
207.69	1738.73
207.91	1863.65
208.13	1794.02
208.34	1714.15
208.56	1611.75
208.78	1746.92
209.00	1683.43
209.22	1632.23
209.44	1679.33
209.66	1677.29
209.88	1636.33
210.10	1644.52
210.32	1669.09
210.54	1759.21
210.76	1693.67
210.98	1699.81
211.20	1548.26
211.42	1695.72
211.64	1683.43
211.86	1763.30
212.08	1701.86
212.30	1773.54
212.52	1699.81
212.74	1708.01
212.96	1710.05
213.17	1763.30
213.39	1746.92
213.61	1742.82
213.83	1767.40
214.05	1660.90
214.27	1765.35
214.49	1681.38
214.71	1699.81
214.93	1787.88
215.15	1695.72
215.37	1830.88
215.59	1675.24
215.81	1699.81
216.03	1771.49
216.24	1617.90
216.46	1767.40
216.68	1701.86
216.90	1665.00
217.12	1769.44
217.34	1693.67
217.56	1781.73
217.78	1826.79
218.00	1753.06
218.22	1671.14
218.44	1759.21
218.66	1705.96
218.87	1771.49
219.09	1693.67
219.31	1681.38
219.53	1667.05
219.75	1748.97
219.97	1718.25
220.19	1775.59
220.41	1638.38
220.63	1742.82
220.85	1701.86
221.06	1701.86
221.28	1826.79
221.50	1726.44
221.72	1654.76
221.94	1718.25
222.16	1677.29
222.38	1796.07
222.60	1769.44
222.82	1718.25
223.03	1769.44
223.25	1642.47
223.47	1720.29
223.69	1802.21
223.91	1703.91
224.13	1765.35
224.35	1628.14
224.57	1781.73
224.78	1746.92
225.00	1703.91
225.22	1744.87
225.44	1699.81
225.66	1701.86
225.88	1671.14
226.10	1734.63
226.32	1669.09
226.53	1810.40
226.75	1656.81
226.97	1751.01
227.19	1583.08
227.41	1615.85
227.63	1621.99
227.85	1677.29
228.06	1730.53
228.28	1718.25
228.50	1779.68
228.72	1683.43
228.94	1693.67
229.16	1589.22
229.37	1646.57
229.59	1691.62
229.81	1759.21
230.03	1662.95
230.25	1595.37
230.47	1599.46
230.69	1609.70
230.90	1828.84
231.12	1609.70
231.34	1728.49
231.56	1712.10
231.78	1660.90
232.00	1634.28
232.21	1734.63
232.43	1669.09
232.65	1609.70
232.87	1710.05
233.09	1660.90
233.30	1642.47
233.52	1718.25
233.74	1703.91
233.96	1730.53
234.18	1767.40
234.40	1691.62
234.61	1837.03
234.83	1730.53
235.05	1650.66
235.27	1718.25
235.49	1742.82
235.70	1708.01
235.92	1755.11
236.14	1718.25
236.36	1812.45
236.58	1695.72
236.79	1703.91
237.01	1804.26
237.23	1673.19
237.45	1845.22
237.67	1687.53
237.88	1740.77
238.10	1742.82
238.32	1687.53
238.54	1705.96
238.76	1654.76
238.97	1624.04
239.19	1699.81
239.41	1734.63
239.63	1769.44
239.85	1667.05
240.06	1720.29
240.28	1671.14
240.50	1802.21
240.72	1697.77
240.93	1703.91
241.15	1724.39
241.37	1689.57
241.59	1789.92
241.81	1636.33
242.02	1675.24
242.24	1681.38
242.46	1740.77
242.68	1652.71
242.89	1742.82
243.11	1718.25
243.33	1714.15
243.55	1763.30
243.76	1693.67
243.98	1632.23
244.20	1708.01
244.42	1667.05
244.64	1746.92
244.85	1665.00
245.07	1667.05
245.29	1732.58
245.51	1716.20
245.72	1771.49
245.94	1740.77
246.16	1681.38
246.38	1710.05
246.59	1714.15
246.81	1626.09
247.03	1699.81
247.24	1599.46
247.46	1640.42
247.68	1695.72
247.90	1605.61
248.11	1638.38
248.33	1744.87
248.55	1689.57
248.77	1738.73
248.98	1767.40
249.20	1794.02
249.42	1646.57
249.64	1822.69
249.85	1693.67
250.07	1675.24
250.29	1755.11
250.50	1753.06
250.72	1638.38
250.94	1724.39
251.16	1767.40
251.37	1718.25
251.59	1742.82
251.81	1736.68
252.02	1820.64
252.24	1685.48
252.46	1826.79
252.68	1726.44
252.89	1701.86
253.11	1595.37
253.33	1763.30
253.54	1728.49
253.76	1691.62
253.98	1662.95
254.20	1738.73
254.41	1570.79
254.63	1677.29
254.85	1683.43
255.06	1689.57
255.28	1705.96
255.50	1669.09
255.71	1630.18
255.93	1667.05
256.15	1796.07
256.36	1667.05
256.58	1697.77
256.80	1738.73
257.02	1662.95
257.23	1740.77
257.45	1732.58
257.67	1798.12
257.88	1724.39
258.10	1681.38
258.32	1787.88
258.53	1673.19
258.75	1765.35
258.97	1701.86
259.18	1683.43
259.40	1732.58
259.62	1781.73
259.83	1861.60
260.05	1751.01
260.27	2039.78
260.48	1753.06
260.70	1650.66
260.92	1681.38
261.13	1693.67
261.35	1626.09
261.57	1763.30
261.78	1675.24
262.00	1697.77
262.22	1742.82
262.43	1665.00
262.65	1644.52
262.86	1683.43
263.08	1804.26
263.30	1654.76
263.51	1558.50
263.73	1650.66
263.95	1814.50
264.16	1669.09
264.38	1673.19
264.60	1726.44
264.81	1730.53
265.03	1808.36
265.25	1816.55
265.46	1705.96
265.68	1796.07
265.89	1779.68
266.11	1628.14
266.33	1794.02
266.54	1779.68
266.76	1722.34
266.98	1687.53
267.19	1841.12
267.41	1755.11
267.62	1748.97
267.84	1646.57
268.06	1708.01
268.27	1640.42
268.49	1779.68
268.70	1777.64
268.92	1755.11
269.14	1601.51
269.35	1648.61
269.57	1687.53
269.79	1746.92
270.00	1669.09
270.22	1863.65
270.43	1632.23
270.65	1562.60
270.87	1689.57
271.08	1726.44
271.30	1734.63
271.51	1746.92
271.73	1710.05
271.95	1714.15
272.16	1753.06
272.38	1685.48
272.59	1687.53
272.81	1773.54
273.02	1724.39
273.24	1712.10
273.46	1757.16
273.67	1593.32
273.89	1658.85
274.10	1648.61
274.32	1834.98
274.54	1703.91
274.75	1632.23
274.97	1718.25
275.18	1785.83
275.40	1789.92
275.61	1714.15
275.83	1746.92
276.05	1683.43
276.26	1703.91
276.48	1755.11
276.69	1789.92
276.91	1665.00
277.12	1671.14
277.34	1710.05
277.55	1763.30
277.77	1640.42
277.99	1667.05
278.20	1736.68
278.42	1679.33
278.63	1726.44
278.85	1703.91
279.06	1685.48
279.28	1769.44
279.49	1748.97
279.71	1714.15
279.93	1636.33
280.14	1697.77
280.36	1652.71
280.57	1742.82
280.79	1796.07
281.00	1636.33
281.22	1691.62
281.43	1746.92
281.65	1572.84
281.86	1599.46
282.08	1744.87
282.29	1884.13
282.51	1621.99
282.73	1642.47
282.94	1583.08
283.16	1712.10
283.37	1779.68
283.59	1720.29
283.80	1742.82
284.02	1855.46
284.23	1718.25
284.45	1609.70
284.66	1714.15
284.88	1693.67
285.09	1734.63
285.31	1705.96
285.52	1730.53
285.74	1634.28
285.95	1800.16
286.17	1685.48
286.38	1722.34
286.60	1652.71
286.81	1691.62
287.03	1658.85
287.24	1679.33
287.46	1742.82
287.67	1710.05
287.89	1863.65
288.10	1753.06
288.32	1685.48
288.53	1812.45
288.75	1669.09
288.96	1798.12
289.18	1669.09
289.39	1648.61
289.61	1720.29
289.82	1834.98
290.04	1771.49
290.25	1601.51
290.47	1669.09
290.68	1630.18
290.90	1775.59
291.11	1652.71
291.33	1642.47
291.54	1611.75
291.76	1615.85
291.97	1697.77
292.18	1697.77
292.40	1730.53
292.61	1644.52
292.83	1816.55
293.04	1732.58
293.26	1738.73
293.47	1665.00
293.69	1611.75
293.90	1691.62
294.12	1781.73
294.33	1673.19
294.55	1718.25
294.76	1695.72
294.97	1796.07
295.19	1781.73
295.40	1667.05
295.62	1755.11
295.83	1701.86
296.05	1658.85
296.26	1722.34
296.48	1628.14
296.69	1615.85
296.90	1751.01
297.12	1773.54
297.33	1732.58
297.55	1722.34
297.76	1794.02
297.98	1748.97
298.19	1662.95
298.41	1716.20
298.62	1681.38
298.83	1832.93
299.05	1687.53
299.26	1693.67
299.48	1681.38
299.69	1730.53
299.90	1697.77
300.12	1701.86
300.33	1726.44
300.55	1689.57
300.76	1779.68
300.98	1671.14
301.19	1820.64
301.40	1691.62
301.62	1763.30
301.83	1763.30
302.05	1705.96
302.26	1710.05
302.47	1787.88
302.69	1621.99
302.90	1697.77
303.12	1583.08
303.33	1699.81
303.54	1857.51
303.76	1609.70
303.97	1751.01
304.19	1798.12
304.40	1712.10
304.61	1804.26
304.83	1763.30
305.04	1726.44
305.26	1789.92
305.47	1695.72
305.68	1759.21
305.90	1638.38
306.11	1730.53
306.33	1708.01
306.54	1650.66
306.75	1687.53
306.97	1568.74
307.18	1726.44
307.39	1697.77
307.61	1712.10
307.82	1650.66
308.04	1828.84
308.25	1708.01
308.46	1759.21
308.68	1689.57
308.89	1712.10
309.10	1773.54
309.32	1748.97
309.53	1763.30
309.74	1681.38
309.96	1789.92
310.17	1826.79
310.39	1646.57
310.60	1705.96
310.81	1617.90
311.03	1718.25
311.24	1736.68
311.45	1734.63
311.67	1787.88
311.88	1718.25
312.09	1628.14
312.31	1691.62
312.52	1767.40
312.73	1720.29
312.95	1701.86
313.16	1605.61
313.37	1744.87
313.59	1734.63
313.80	1824.74
314.01	1771.49
314.23	1708.01
314.44	1681.38
314.65	1714.15
314.87	1650.66
315.08	1716.20
315.29	1679.33
315.51	1675.24
315.72	1589.22
315.93	1796.07
316.15	1714.15
316.36	1691.62
316.57	1824.74
316.79	1794.02
317.00	1621.99
317.21	1791.97
317.43	1673.19
317.64	1810.40
317.85	1681.38
318.07	1681.38
318.28	1779.68
318.49	1900.52
318.70	1959.91
318.92	1867.75
319.13	1863.65
319.34	1873.89
319.56	1779.68
319.77	1814.50
319.98	1796.07
320.20	1695.72
320.41	1796.07
320.62	1693.67
320.83	1734.63
321.05	1837.03
321.26	1748.97
321.47	1804.26
321.69	1757.16
321.90	1689.57
322.11	1703.91
322.32	1806.31
322.54	1781.73
322.75	1607.66
322.96	1839.08
323.18	1589.22
323.39	1591.27
323.60	1662.95
323.81	1759.21
324.03	1624.04
324.24	1683.43
324.45	1753.06
324.66	1697.77
324.88	1777.64
325.09	1736.68
325.30	1744.87
325.52	1740.77
325.73	1677.29
325.94	1683.43
326.15	1613.80
326.37	1642.47
326.58	1738.73
326.79	1847.27
327.00	1644.52
327.22	1697.77
327.43	1701.86
327.64	1640.42
327.85	1695.72
328.07	1730.53
328.28	1800.16
328.49	1677.29
328.70	1728.49
328.92	1677.29
329.13	1662.95
329.34	1716.20
329.55	1851.36
329.76	1804.26
329.98	1769.44
330.19	1804.26
330.40	1710.05
330.61	1712.10
330.83	1812.45
331.04	1669.09
331.25	1675.24
331.46	1714.15
331.68	1669.09
331.89	1683.43
332.10	1654.76
332.31	1652.71
332.52	1712.10
332.74	1779.68
332.95	1667.05
333.16	1718.25
333.37	1755.11
333.58	1732.58
333.80	1714.15
334.01	1583.08
334.22	1714.15
334.43	1673.19
334.64	1751.01
334.86	1636.33
335.07	1652.71
335.28	1789.92
335.49	1597.42
335.70	1697.77
335.92	1708.01
336.13	1875.94
336.34	1679.33
336.55	1734.63
336.76	1794.02
336.98	1624.04
337.19	1665.00
337.40	1806.31
337.61	1841.12
337.82	1742.82
338.04	1769.44
338.25	1636.33
338.46	1677.29
338.67	1697.77
338.88	1640.42
339.09	1613.80
339.31	1654.76
339.52	1617.90
339.73	1632.23
339.94	1783.78
340.15	1744.87
340.36	1736.68
340.58	1617.90
340.79	1740.77
341.00	1683.43
341.21	1669.09
341.42	1834.98
341.63	1685.48
341.85	1847.27
342.06	1667.05
342.27	1685.48
342.48	1787.88
342.69	1558.50
342.90	1638.38
343.12	1767.40
343.33	1757.16
343.54	1775.59
343.75	1830.88
343.96	1667.05
344.17	1632.23
344.38	1689.57
344.60	1691.62
344.81	1701.86
345.02	1701.86
345.23	1685.48
345.44	1843.17
345.65	1710.05
345.86	1794.02
346.07	1722.34
346.29	1687.53
346.50	1771.49
346.71	1744.87
346.92	1746.92
347.13	1812.45
347.34	1652.71
347.55	1736.68
347.76	1697.77
347.98	1675.24
348.19	1712.10
348.40	1853.41
348.61	1681.38
348.82	1804.26
349.03	1734.63
349.24	1728.49
349.45	1787.88
349.66	1624.04
349.88	1769.44
350.09	1726.44
350.30	1806.31
350.51	1746.92
350.72	1712.10
350.93	1722.34
351.14	1730.53
351.35	1785.83
351.56	1634.28
351.77	1708.01
351.99	1742.82
352.20	1851.36
352.41	1748.97
352.62	1654.76
352.83	1621.99
353.04	1601.51
353.25	1628.14
353.46	1722.34
353.67	1673.19
353.88	1687.53
354.09	1716.20
354.30	1708.01
354.52	1714.15
354.73	1718.25
354.94	1720.29
355.15	1722.34
355.36	1759.21
355.57	1738.73
355.78	1757.16
355.99	1650.66
356.20	1621.99
356.41	1800.16
356.62	1679.33
356.83	1779.68
357.04	1843.17
357.25	1533.93
357.46	1697.77
357.68	1624.04
357.89	1662.95
358.10	1669.09
358.31	1679.33
358.52	1634.28
358.73	1714.15
358.94	1644.52
359.15	1720.29
359.36	1800.16
359.57	1794.02
359.78	1755.11
359.99	1693.67
360.20	1665.00
360.41	1722.34
360.62	1718.25
360.83	1691.62
361.04	1730.53
361.25	1748.97
361.46	1837.03
361.67	1744.87
361.88	1753.06
362.09	1718.25
362.30	1722.34
362.51	1658.85
362.72	1615.85
362.93	1779.68
363.14	1814.50
363.35	1722.34
363.56	1677.29
363.78	1763.30
363.99	1687.53
364.20	1669.09
364.41	1769.44
364.62	1865.70
364.83	1660.90
365.04	1716.20
365.25	1691.62
365.46	1871.84
365.67	1679.33
365.88	1646.57
366.09	1644.52
366.30	1734.63
366.51	1746.92
366.72	1716.20
366.93	1730.53
367.14	1710.05
367.35	1765.35
367.56	1710.05
367.77	1779.68
367.98	1695.72
368.18	1740.77
368.39	1730.53
368.60	1652.71
368.81	1771.49
369.02	1789.92
369.23	1689.57
369.44	1654.76
369.65	1705.96
369.86	1673.19
370.07	1730.53
370.28	1757.16
370.49	1728.49
370.70	1759.21
370.91	1601.51
371.12	1650.66
371.33	1751.01
371.54	1642.47
371.75	1853.41
371.96	1589.22
372.17	1716.20
372.38	1734.63
372.59	1751.01
372.80	1705.96
373.01	1687.53
373.22	1738.73
373.43	1740.77
373.64	1679.33
373.85	1765.35
374.06	1771.49
374.26	1687.53
374.47	1730.53
374.68	1785.83
374.89	1751.01
375.10	1732.58
375.31	1771.49
375.52	1761.25
375.73	1716.20
375.94	1634.28
376.15	1863.65
376.36	1669.09
376.57	1732.58
376.78	1683.43
376.99	1660.90
377.20	1740.77
377.40	1626.09
377.61	1806.31
377.82	1693.67
378.03	1777.64
378.24	1757.16
378.45	1734.63
378.66	1712.10
378.87	1619.94
379.08	1648.61
379.29	1718.25
379.50	1824.74
379.71	1701.86
379.91	1716.20
380.12	1759.21
380.33	1691.62
380.54	1708.01
380.75	1728.49
380.96	1691.62
381.17	1769.44
381.38	1753.06
381.59	1744.87
381.80	1753.06
382.00	1871.84
382.21	1837.03
382.42	1888.23
382.63	1892.32
382.84	1751.01
383.05	1771.49
383.26	1849.32
383.47	1730.53
383.68	1781.73
383.88	1740.77
384.09	1703.91
384.30	1841.12
384.51	1722.34
384.72	1732.58
384.93	1632.23
385.14	1742.82
385.35	1753.06
385.55	1660.90
385.76	1763.30
385.97	1742.82
386.18	1626.09
386.39	1748.97
386.60	1701.86
386.81	1687.53
387.02	1736.68
387.22	1648.61
387.43	1794.02
387.64	1740.77
387.85	1906.66
388.06	2240.48
388.27	4673.46
388.48	9058.17
388.68	11724.62
388.89	13393.72
389.10	14243.62
389.31	11824.97
389.52	9531.25
389.73	8509.31
389.93	7907.21
390.14	7221.14
390.35	6547.36
390.56	6002.60
390.77	5064.63
390.98	3852.23
391.18	3002.32
391.39	2312.16
391.60	1886.18
391.81	1857.51
392.02	1800.16
392.23	1855.46
392.43	1685.48
392.64	1830.88
392.85	1765.35
393.06	1798.12
393.27	1679.33
393.47	1669.09
393.68	1755.11
393.89	1687.53
394.10	1695.72
394.31	1679.33
394.52	1675.24
394.72	1675.24
394.93	1802.21
395.14	1679.33
395.35	1767.40
395.56	1621.99
395.76	1689.57
395.97	1814.50
396.18	1910.75
396.39	1853.41
396.60	2047.97
396.80	2033.63
397.01	1806.31
397.22	1845.22
397.43	1892.32
397.64	1734.63
397.84	1869.80
398.05	1873.89
398.26	1826.79
398.47	1804.26
398.67	1757.16
398.88	1716.20
399.09	1765.35
399.30	1677.29
399.51	1748.97
399.71	1660.90
399.92	1675.24
400.13	1720.29
400.34	1703.91
400.54	1755.11
400.75	1812.45
400.96	1775.59
401.17	1779.68
401.37	1761.25
401.58	1716.20
401.79	1703.91
402.00	1847.27
402.21	2019.30
402.41	2072.54
402.62	2125.79
402.83	2080.74
403.04	2068.45
403.24	2158.56
403.45	1902.56
403.66	1910.75
403.87	2000.87
404.07	1927.14
404.28	1959.91
404.49	1933.28
404.70	1759.21
404.90	1841.12
405.11	1763.30
405.32	1761.25
405.52	1642.47
405.73	1681.38
405.94	1681.38
406.15	1714.15
406.35	1787.88
406.56	1765.35
406.77	1611.75
406.98	1765.35
407.18	1689.57
407.39	1775.59
407.60	1669.09
407.80	1765.35
408.01	1667.05
408.22	1787.88
408.43	1720.29
408.63	1728.49
408.84	1744.87
409.05	1791.97
409.25	1630.18
409.46	1744.87
409.67	1638.38
409.88	1689.57
410.08	1718.25
410.29	1669.09
410.50	1812.45
410.70	1724.39
410.91	1601.51
411.12	1804.26
411.32	1771.49
411.53	1677.29
411.74	1828.84
411.95	1738.73
412.15	1775.59
412.36	1800.16
412.57	1810.40
412.77	1837.03
412.98	1687.53
413.19	1705.96
413.39	1810.40
413.60	1718.25
413.81	1775.59
414.01	1771.49
414.22	1767.40
414.43	1755.11
414.63	1660.90
414.84	1746.92
415.05	1697.77
415.25	1650.66
415.46	1812.45
415.67	1705.96
415.87	1759.21
416.08	1785.83
416.29	1732.58
416.49	1744.87
416.70	1777.64
416.91	1724.39
417.11	1624.04
417.32	1742.82
417.53	1773.54
417.73	1787.88
417.94	1710.05
418.15	1791.97
418.35	1726.44
418.56	1685.48
418.77	1841.12
418.97	1691.62
419.18	1665.00
419.38	1621.99
419.59	1697.77
419.80	1794.02
420.00	1624.04
420.21	1671.14
420.42	1703.91
420.62	1632.23
420.83	1751.01
421.04	1681.38
421.24	1695.72
421.45	1732.58
421.65	1693.67
421.86	1679.33
422.07	1763.30
422.27	1748.97
422.48	1710.05
422.69	1701.86
422.89	1769.44
423.10	1777.64
423.30	1599.46
423.51	1675.24
423.72	1708.01
423.92	1689.57
424.13	1583.08
424.33	1652.71
424.54	1783.78
424.75	1740.77
424.95	1810.40
425.16	1767.40
425.36	1746.92
425.57	1757.16
425.78	1746.92
425.98	1771.49
426.19	1638.38
426.39	1689.57
426.60	1642.47
426.81	1779.68
427.01	1665.00
427.22	1671.14
427.42	1609.70
427.63	1683.43
427.83	1777.64
428.04	1841.12
428.25	1738.73
428.45	1775.59
428.66	1804.26
428.86	1740.77
429.07	1660.90
429.28	1644.52
429.48	1636.33
429.69	1765.35
429.89	1761.25
430.10	1703.91
430.30	1685.48
430.51	1863.65
430.71	1687.53
430.92	1771.49
431.13	1673.19
431.33	1712.10
431.54	1714.15
431.74	1816.55
431.95	1845.22
432.15	1630.18
432.36	1755.11
432.56	1798.12
432.77	1804.26
432.98	1828.84
433.18	1722.34
433.39	1728.49
433.59	1720.29
433.80	1765.35
434.00	1834.98
434.21	1693.67
434.41	1701.86
434.62	1814.50
434.82	1697.77
435.03	1640.42
435.23	1736.68
435.44	1667.05
435.64	1734.63
435.85	1753.06
436.06	1746.92
436.26	1775.59
436.47	1689.57
436.67	1701.86
436.88	1708.01
437.08	1837.03
437.29	1769.44
437.49	1689.57
437.70	1791.97
437.90	1767.40
438.11	1816.55
438.31	1759.21
438.52	1820.64
438.72	1961.95
438.93	1937.38
439.13	1806.31
439.34	1808.36
439.54	1777.64
439.75	1843.17
439.95	1824.74
440.16	1687.53
440.36	1779.68
440.57	1779.68
440.77	1794.02
440.98	1763.30
441.18	1746.92
441.39	1693.67
441.59	1697.77
441.80	1828.84
442.00	1728.49
442.21	1779.68
442.41	1640.42
442.62	1734.63
442.82	1693.67
443.02	1751.01
443.23	1751.01
443.43	1753.06
443.64	1896.42
443.84	1652.71
444.05	1798.12
444.25	1701.86
444.46	1742.82
444.66	1796.07
444.87	1783.78
445.07	1621.99
445.28	1777.64
445.48	1800.16
445.69	1781.73
445.89	1914.85
446.09	1798.12
446.30	2004.96
446.50	2625.50
446.71	4081.60
446.91	5081.01
447.12	5771.18
447.32	6076.32
447.53	5339.05
447.73	4509.63
447.93	4093.89
448.14	3665.86
448.34	3440.59
448.55	3061.71
448.75	3110.86
448.96	2934.74
449.16	2664.41
449.36	2398.17
449.57	2117.60
449.77	1912.80
449.98	1814.50
450.18	1791.97
450.39	1845.22
450.59	1781.73
450.79	1751.01
451.00	1744.87
451.20	1806.31
451.41	1742.82
451.61	1740.77
451.81	1761.25
452.02	1654.76
452.22	1705.96
452.43	1697.77
452.63	1669.09
