SpectraSuite Data File
++++++++++++++++++++++++++++++++++++
Date: Wed May 04 18:44:00 CEST 2016
User: root
Dark Spectrum Present: No
Reference Spectrum Present: No
Number of Sampled Component Spectra: 1
Spectrometers: USB4C02835
Integration Time (usec): 100000 (USB4C02835)
Spectra Averaged: 1 (USB4C02835)
Boxcar Smoothing: 0 (USB4C02835)
Correct for Electrical Dark: No (USB4C02835)
Strobe/Lamp Enabled: No (USB4C02835)
Correct for Detector Non-linearity: No (USB4C02835)
Correct for Stray Light: No (USB4C02835)
Number of Pixels in Processed Spectrum: 3648
>>>>>Begin Processed Spectral Data<<<<<
177.47	1503.21
177.69	1503.21
177.91	1503.21
178.13	1550.31
178.36	1468.39
178.58	1646.57
178.80	1738.73
179.02	1669.09
179.24	1632.23
179.46	1697.77
179.68	1787.88
179.90	1724.39
180.13	1703.91
180.35	1589.22
180.57	1724.39
180.79	1746.92
181.01	1751.01
181.23	1742.82
181.45	1845.22
181.67	1673.19
181.90	1771.49
182.12	1701.86
182.34	1742.82
182.56	1716.20
182.78	1757.16
183.00	1779.68
183.22	1769.44
183.44	1644.52
183.66	1787.88
183.89	1814.50
184.11	1757.16
184.33	1720.29
184.55	1771.49
184.77	1728.49
184.99	1744.87
185.21	1617.90
185.43	1906.66
185.65	1720.29
185.87	1599.46
186.10	1779.68
186.32	1808.36
186.54	1720.29
186.76	1669.09
186.98	1771.49
187.20	1683.43
187.42	1697.77
187.64	1693.67
187.86	1693.67
188.08	1787.88
188.30	1759.21
188.52	1689.57
188.75	1742.82
188.97	1810.40
189.19	1689.57
189.41	1714.15
189.63	1753.06
189.85	1652.71
190.07	1685.48
190.29	1617.90
190.51	1693.67
190.73	1560.55
190.95	1763.30
191.17	1724.39
191.39	1603.56
191.61	1814.50
191.84	1673.19
192.06	1708.01
192.28	1675.24
192.50	1853.41
192.72	1755.11
192.94	1701.86
193.16	1781.73
193.38	1681.38
193.60	1687.53
193.82	1685.48
194.04	1761.25
194.26	1757.16
194.48	1746.92
194.70	1712.10
194.92	1646.57
195.14	1726.44
195.36	1751.01
195.58	1703.91
195.80	1730.53
196.02	1697.77
196.24	1716.20
196.46	1751.01
196.69	1691.62
196.91	1888.23
197.13	1687.53
197.35	1648.61
197.57	1726.44
197.79	1710.05
198.01	1794.02
198.23	1703.91
198.45	1683.43
198.67	1736.68
198.89	1683.43
199.11	1681.38
199.33	1724.39
199.55	1601.51
199.77	1699.81
199.99	1746.92
200.21	1746.92
200.43	1763.30
200.65	1650.66
200.87	1644.52
201.09	1644.52
201.31	1667.05
201.53	1814.50
201.75	1693.67
201.97	1755.11
202.19	1642.47
202.41	1673.19
202.63	1814.50
202.85	1701.86
203.07	1748.97
203.29	1681.38
203.51	1628.14
203.73	1650.66
203.95	1839.08
204.17	1773.54
204.39	1753.06
204.61	1730.53
204.83	1708.01
205.05	1751.01
205.27	1695.72
205.49	1832.93
205.71	1716.20
205.93	1708.01
206.15	1665.00
206.37	1781.73
206.59	1673.19
206.81	1630.18
207.03	1617.90
207.25	1691.62
207.47	1757.16
207.69	1714.15
207.91	1841.12
208.13	1753.06
208.34	1716.20
208.56	1667.05
208.78	1771.49
209.00	1697.77
209.22	1665.00
209.44	1705.96
209.66	1724.39
209.88	1689.57
210.10	1748.97
210.32	1728.49
210.54	1744.87
210.76	1710.05
210.98	1757.16
211.20	1611.75
211.42	1726.44
211.64	1732.58
211.86	1738.73
212.08	1728.49
212.30	1660.90
212.52	1660.90
212.74	1722.34
212.96	1699.81
213.17	1734.63
213.39	1765.35
213.61	1828.84
213.83	1773.54
214.05	1673.19
214.27	1730.53
214.49	1648.61
214.71	1642.47
214.93	1732.58
215.15	1677.29
215.37	1736.68
215.59	1619.94
215.81	1734.63
216.03	1822.69
216.24	1736.68
216.46	1695.72
216.68	1753.06
216.90	1708.01
217.12	1722.34
217.34	1812.45
217.56	1699.81
217.78	1787.88
218.00	1755.11
218.22	1804.26
218.44	1732.58
218.66	1757.16
218.87	1634.28
219.09	1761.25
219.31	1720.29
219.53	1732.58
219.75	1728.49
219.97	1734.63
220.19	1738.73
220.41	1705.96
220.63	1806.31
220.85	1726.44
221.06	1665.00
221.28	1804.26
221.50	1777.64
221.72	1648.61
221.94	1683.43
222.16	1746.92
222.38	1759.21
222.60	1740.77
222.82	1628.14
223.03	1783.78
223.25	1626.09
223.47	1748.97
223.69	1867.75
223.91	1822.69
224.13	1763.30
224.35	1689.57
224.57	1773.54
224.78	1785.83
225.00	1705.96
225.22	1703.91
225.44	1656.81
225.66	1710.05
225.88	1585.13
226.10	1800.16
226.32	1689.57
226.53	1775.59
226.75	1705.96
226.97	1699.81
227.19	1746.92
227.41	1724.39
227.63	1773.54
227.85	1587.18
228.06	1644.52
228.28	1759.21
228.50	1671.14
228.72	1656.81
228.94	1722.34
229.16	1601.51
229.37	1605.61
229.59	1660.90
229.81	1814.50
230.03	1691.62
230.25	1640.42
230.47	1650.66
230.69	1683.43
230.90	1728.49
231.12	1662.95
231.34	1714.15
231.56	1705.96
231.78	1599.46
232.00	1728.49
232.21	1646.57
232.43	1703.91
232.65	1589.22
232.87	1681.38
233.09	1720.29
233.30	1665.00
233.52	1746.92
233.74	1746.92
233.96	1738.73
234.18	1714.15
234.40	1691.62
234.61	1783.78
234.83	1624.04
235.05	1599.46
235.27	1865.70
235.49	1775.59
235.70	1722.34
235.92	1806.31
236.14	1753.06
236.36	1822.69
236.58	1628.14
236.79	1757.16
237.01	1705.96
237.23	1730.53
237.45	1789.92
237.67	1638.38
237.88	1734.63
238.10	1898.47
238.32	1617.90
238.54	1693.67
238.76	1763.30
238.97	1626.09
239.19	1679.33
239.41	1769.44
239.63	1794.02
239.85	1718.25
240.06	1681.38
240.28	1650.66
240.50	1787.88
240.72	1697.77
240.93	1701.86
241.15	1783.78
241.37	1667.05
241.59	1703.91
241.81	1673.19
242.02	1714.15
242.24	1775.59
242.46	1689.57
242.68	1599.46
242.89	1656.81
243.11	1708.01
243.33	1673.19
243.55	1748.97
243.76	1755.11
243.98	1662.95
244.20	1740.77
244.42	1720.29
244.64	1675.24
244.85	1656.81
245.07	1660.90
245.29	1693.67
245.51	1705.96
245.72	1697.77
245.94	1775.59
246.16	1714.15
246.38	1746.92
246.59	1701.86
246.81	1644.52
247.03	1779.68
247.24	1675.24
247.46	1726.44
247.68	1699.81
247.90	1699.81
248.11	1644.52
248.33	1722.34
248.55	1718.25
248.77	1730.53
248.98	1697.77
249.20	1818.60
249.42	1712.10
249.64	1705.96
249.85	1691.62
250.07	1652.71
250.29	1705.96
250.50	1726.44
250.72	1644.52
250.94	1765.35
251.16	1851.36
251.37	1781.73
251.59	1779.68
251.81	1771.49
252.02	1718.25
252.24	1677.29
252.46	1820.64
252.68	1624.04
252.89	1697.77
253.11	1642.47
253.33	1802.21
253.54	1746.92
253.76	1626.09
253.98	1658.85
254.20	1648.61
254.41	1554.41
254.63	1644.52
254.85	1632.23
255.06	1669.09
255.28	1769.44
255.50	1683.43
255.71	1630.18
255.93	1646.57
256.15	1693.67
256.36	1771.49
256.58	1689.57
256.80	1720.29
257.02	1701.86
257.23	1724.39
257.45	1724.39
257.67	1769.44
257.88	1640.42
258.10	1746.92
258.32	1755.11
258.53	1744.87
258.75	1771.49
258.97	1658.85
259.18	1781.73
259.40	1683.43
259.62	1808.36
259.83	1714.15
260.05	1718.25
260.27	1949.67
260.48	1820.64
260.70	1689.57
260.92	1675.24
261.13	1722.34
261.35	1740.77
261.57	1746.92
261.78	1603.56
262.00	1624.04
262.22	1769.44
262.43	1685.48
262.65	1658.85
262.86	1693.67
263.08	1839.08
263.30	1779.68
263.51	1617.90
263.73	1632.23
263.95	1832.93
264.16	1691.62
264.38	1691.62
264.60	1791.97
264.81	1658.85
265.03	1732.58
265.25	1710.05
265.46	1755.11
265.68	1787.88
265.89	1800.16
266.11	1681.38
266.33	1697.77
266.54	1763.30
266.76	1722.34
266.98	1738.73
267.19	1802.21
267.41	1783.78
267.62	1728.49
267.84	1638.38
268.06	1730.53
268.27	1691.62
268.49	1751.01
268.70	1740.77
268.92	1728.49
269.14	1568.74
269.35	1593.32
269.57	1691.62
269.79	1724.39
270.00	1626.09
270.22	1771.49
270.43	1652.71
270.65	1601.51
270.87	1699.81
271.08	1736.68
271.30	1734.63
271.51	1732.58
271.73	1771.49
271.95	1771.49
272.16	1759.21
272.38	1648.61
272.59	1587.18
272.81	1718.25
273.02	1736.68
273.24	1689.57
273.46	1744.87
273.67	1681.38
273.89	1656.81
274.10	1673.19
274.32	1683.43
274.54	1771.49
274.75	1730.53
274.97	1742.82
275.18	1726.44
275.40	1757.16
275.61	1714.15
275.83	1648.61
276.05	1683.43
276.26	1701.86
276.48	1785.83
276.69	1685.48
276.91	1755.11
277.12	1765.35
277.34	1726.44
277.55	1738.73
277.77	1734.63
277.99	1781.73
278.20	1687.53
278.42	1636.33
278.63	1640.42
278.85	1583.08
279.06	1605.61
279.28	1726.44
279.49	1800.16
279.71	1757.16
279.93	1714.15
280.14	1714.15
280.36	1712.10
280.57	1699.81
280.79	1763.30
281.00	1648.61
281.22	1656.81
281.43	1798.12
281.65	1619.94
281.86	1665.00
282.08	1761.25
282.29	1789.92
282.51	1716.20
282.73	1656.81
282.94	1675.24
283.16	1789.92
283.37	1828.84
283.59	1712.10
283.80	1703.91
284.02	1730.53
284.23	1677.29
284.45	1685.48
284.66	1652.71
284.88	1703.91
285.09	1787.88
285.31	1744.87
285.52	1681.38
285.74	1675.24
285.95	1656.81
286.17	1710.05
286.38	1763.30
286.60	1632.23
286.81	1656.81
287.03	1738.73
287.24	1771.49
287.46	1667.05
287.67	1775.59
287.89	1806.31
288.10	1693.67
288.32	1712.10
288.53	1693.67
288.75	1710.05
288.96	1753.06
289.18	1701.86
289.39	1703.91
289.61	1712.10
289.82	1810.40
290.04	1732.58
290.25	1621.99
290.47	1722.34
290.68	1699.81
290.90	1843.17
291.11	1617.90
291.33	1753.06
291.54	1675.24
291.76	1648.61
291.97	1767.40
292.18	1734.63
292.40	1650.66
292.61	1660.90
292.83	1814.50
293.04	1730.53
293.26	1687.53
293.47	1759.21
293.69	1716.20
293.90	1722.34
294.12	1738.73
294.33	1753.06
294.55	1652.71
294.76	1701.86
294.97	1849.32
295.19	1755.11
295.40	1718.25
295.62	1730.53
295.83	1789.92
296.05	1708.01
296.26	1775.59
296.48	1613.80
296.69	1714.15
296.90	1671.14
297.12	1710.05
297.33	1814.50
297.55	1693.67
297.76	1744.87
297.98	1751.01
298.19	1726.44
298.41	1740.77
298.62	1665.00
298.83	1755.11
299.05	1644.52
299.26	1624.04
299.48	1679.33
299.69	1673.19
299.90	1697.77
300.12	1671.14
300.33	1755.11
300.55	1724.39
300.76	1710.05
300.98	1683.43
301.19	1759.21
301.40	1751.01
301.62	1703.91
301.83	1701.86
302.05	1693.67
302.26	1708.01
302.47	1812.45
302.69	1654.76
302.90	1748.97
303.12	1615.85
303.33	1802.21
303.54	1771.49
303.76	1714.15
303.97	1742.82
304.19	1796.07
304.40	1603.56
304.61	1738.73
304.83	1783.78
305.04	1804.26
305.26	1734.63
305.47	1699.81
305.68	1701.86
305.90	1662.95
306.11	1714.15
306.33	1718.25
306.54	1714.15
306.75	1691.62
306.97	1583.08
307.18	1632.23
307.39	1646.57
307.61	1734.63
307.82	1669.09
308.04	1695.72
308.25	1628.14
308.46	1757.16
308.68	1703.91
308.89	1726.44
309.10	1757.16
309.32	1796.07
309.53	1675.24
309.74	1753.06
309.96	1695.72
310.17	1753.06
310.39	1626.09
310.60	1691.62
310.81	1783.78
311.03	1560.55
311.24	1802.21
311.45	1695.72
311.67	1759.21
311.88	1722.34
312.09	1751.01
312.31	1634.28
312.52	1665.00
312.73	1724.39
312.95	1603.56
313.16	1564.65
313.37	1632.23
313.59	1708.01
313.80	1763.30
314.01	1736.68
314.23	1738.73
314.44	1689.57
314.65	1603.56
314.87	1679.33
315.08	1673.19
315.29	1710.05
315.51	1714.15
315.72	1615.85
315.93	1822.69
316.15	1738.73
316.36	1714.15
316.57	1683.43
316.79	1773.54
317.00	1732.58
317.21	1746.92
317.43	1689.57
317.64	1734.63
317.85	1669.09
318.07	1728.49
318.28	1830.88
318.49	1937.38
318.70	1923.04
318.92	1951.71
319.13	1968.10
319.34	1988.58
319.56	1830.88
319.77	1808.36
319.98	1816.55
320.20	1828.84
320.41	1853.41
320.62	1734.63
320.83	1609.70
321.05	1816.55
321.26	1730.53
321.47	1796.07
321.69	1785.83
321.90	1630.18
322.11	1648.61
322.32	1775.59
322.54	1783.78
322.75	1658.85
322.96	1943.52
323.18	1599.46
323.39	1656.81
323.60	1626.09
323.81	1710.05
324.03	1603.56
324.24	1691.62
324.45	1691.62
324.66	1697.77
324.88	1804.26
325.09	1859.56
325.30	1703.91
325.52	1681.38
325.73	1642.47
325.94	1617.90
326.15	1681.38
326.37	1697.77
326.58	1759.21
326.79	1800.16
327.00	1669.09
327.22	1724.39
327.43	1703.91
327.64	1746.92
327.85	1812.45
328.07	1697.77
328.28	1855.46
328.49	1669.09
328.70	1744.87
328.92	1703.91
329.13	1710.05
329.34	1671.14
329.55	1873.89
329.76	1837.03
329.98	1581.03
330.19	1785.83
330.40	1671.14
330.61	1730.53
330.83	1781.73
331.04	1628.14
331.25	1720.29
331.46	1712.10
331.68	1640.42
331.89	1736.68
332.10	1757.16
332.31	1660.90
332.52	1681.38
332.74	1822.69
332.95	1617.90
333.16	1687.53
333.37	1705.96
333.58	1609.70
333.80	1726.44
334.01	1615.85
334.22	1621.99
334.43	1642.47
334.64	1734.63
334.86	1660.90
335.07	1693.67
335.28	1716.20
335.49	1728.49
335.70	1751.01
335.92	1765.35
336.13	1849.32
336.34	1708.01
336.55	1763.30
336.76	1726.44
336.98	1720.29
337.19	1705.96
337.40	1798.12
337.61	1818.60
337.82	1757.16
338.04	1746.92
338.25	1679.33
338.46	1654.76
338.67	1689.57
338.88	1656.81
339.09	1734.63
339.31	1658.85
339.52	1615.85
339.73	1605.61
339.94	1701.86
340.15	1742.82
340.36	1683.43
340.58	1667.05
340.79	1615.85
341.00	1779.68
341.21	1644.52
341.42	1812.45
341.63	1671.14
341.85	1718.25
342.06	1712.10
342.27	1646.57
342.48	1687.53
342.69	1589.22
342.90	1755.11
343.12	1693.67
343.33	1656.81
343.54	1759.21
343.75	1794.02
343.96	1718.25
344.17	1681.38
344.38	1699.81
344.60	1658.85
344.81	1712.10
345.02	1726.44
345.23	1783.78
345.44	1847.27
345.65	1765.35
345.86	1779.68
346.07	1693.67
346.29	1665.00
346.50	1730.53
346.71	1798.12
346.92	1796.07
347.13	1845.22
347.34	1681.38
347.55	1695.72
347.76	1683.43
347.98	1634.28
348.19	1679.33
348.40	1787.88
348.61	1605.61
348.82	1820.64
349.03	1673.19
349.24	1634.28
349.45	1796.07
349.66	1607.66
349.88	1732.58
350.09	1722.34
350.30	1810.40
350.51	1794.02
350.72	1722.34
350.93	1765.35
351.14	1714.15
351.35	1755.11
351.56	1791.97
351.77	1650.66
351.99	1753.06
352.20	1828.84
352.41	1775.59
352.62	1609.70
352.83	1710.05
353.04	1751.01
353.25	1599.46
353.46	1796.07
353.67	1771.49
353.88	1574.89
354.09	1738.73
354.30	1691.62
354.52	1779.68
354.73	1667.05
354.94	1662.95
355.15	1753.06
355.36	1802.21
355.57	1689.57
355.78	1796.07
355.99	1671.14
356.20	1699.81
356.41	1798.12
356.62	1742.82
356.83	1714.15
357.04	1808.36
357.25	1640.42
357.46	1626.09
357.68	1626.09
357.89	1701.86
358.10	1718.25
358.31	1650.66
358.52	1626.09
358.73	1689.57
358.94	1646.57
359.15	1718.25
359.36	1748.97
359.57	1703.91
359.78	1697.77
359.99	1773.54
360.20	1701.86
360.41	1732.58
360.62	1736.68
360.83	1677.29
361.04	1791.97
361.25	1734.63
361.46	1822.69
361.67	1761.25
361.88	1763.30
362.09	1847.27
362.30	1724.39
362.51	1683.43
362.72	1718.25
362.93	1722.34
363.14	1673.19
363.35	1728.49
363.56	1613.80
363.78	1769.44
363.99	1662.95
364.20	1753.06
364.41	1716.20
364.62	1857.51
364.83	1689.57
365.04	1679.33
365.25	1667.05
365.46	1785.83
365.67	1667.05
365.88	1763.30
366.09	1681.38
366.30	1744.87
366.51	1669.09
366.72	1650.66
366.93	1728.49
367.14	1671.14
367.35	1769.44
367.56	1775.59
367.77	1767.40
367.98	1736.68
368.18	1808.36
368.39	1710.05
368.60	1681.38
368.81	1748.97
369.02	1767.40
369.23	1712.10
369.44	1595.37
369.65	1712.10
369.86	1716.20
370.07	1814.50
370.28	1652.71
370.49	1712.10
370.70	1802.21
370.91	1685.48
371.12	1585.13
371.33	1759.21
371.54	1697.77
371.75	1896.42
371.96	1624.04
372.17	1746.92
372.38	1744.87
372.59	1693.67
372.80	1691.62
373.01	1695.72
373.22	1777.64
373.43	1628.14
373.64	1630.18
373.85	1802.21
374.06	1744.87
374.26	1710.05
374.47	1738.73
374.68	1708.01
374.89	1765.35
375.10	1710.05
375.31	1742.82
375.52	1701.86
375.73	1738.73
375.94	1660.90
376.15	1902.56
376.36	1624.04
376.57	1621.99
376.78	1701.86
376.99	1699.81
377.20	1816.55
377.40	1740.77
377.61	1744.87
377.82	1677.29
378.03	1773.54
378.24	1701.86
378.45	1726.44
378.66	1714.15
378.87	1667.05
379.08	1630.18
379.29	1712.10
379.50	1806.31
379.71	1742.82
379.91	1808.36
380.12	1662.95
380.33	1761.25
380.54	1677.29
380.75	1738.73
380.96	1720.29
381.17	1730.53
381.38	1728.49
381.59	1777.64
381.80	1785.83
382.00	1865.70
382.21	1734.63
382.42	1771.49
382.63	1884.13
382.84	1775.59
383.05	1751.01
383.26	1830.88
383.47	1681.38
383.68	1755.11
383.88	1824.74
384.09	1759.21
384.30	1806.31
384.51	1761.25
384.72	1689.57
384.93	1640.42
385.14	1722.34
385.35	1787.88
385.55	1665.00
385.76	1812.45
385.97	1736.68
386.18	1687.53
386.39	1652.71
386.60	1675.24
386.81	1771.49
387.02	1675.24
387.22	1669.09
387.43	1818.60
387.64	1849.32
387.85	1853.41
388.06	2107.36
388.27	4765.62
388.48	9056.12
388.68	11667.28
388.89	13420.34
389.10	14063.40
389.31	11931.47
389.52	9660.27
389.73	8726.39
389.93	7810.95
390.14	7333.78
390.35	6700.95
390.56	6023.08
390.77	5015.48
390.98	3860.42
391.18	3078.10
391.39	2394.08
391.60	1961.95
391.81	1863.65
392.02	1771.49
392.23	1902.56
392.43	1658.85
392.64	1843.17
392.85	1767.40
393.06	1740.77
393.27	1771.49
393.47	1714.15
393.68	1783.78
393.89	1699.81
394.10	1847.27
394.31	1693.67
394.52	1761.25
394.72	1673.19
394.93	1763.30
395.14	1636.33
395.35	1665.00
395.56	1638.38
395.76	1742.82
395.97	1785.83
396.18	1851.36
396.39	1877.99
396.60	2074.59
396.80	1927.14
397.01	1933.28
397.22	1857.51
397.43	1873.89
397.64	1769.44
397.84	1845.22
398.05	1783.78
398.26	1767.40
398.47	1755.11
398.67	1751.01
398.88	1730.53
399.09	1689.57
399.30	1759.21
399.51	1753.06
399.71	1677.29
399.92	1783.78
400.13	1734.63
400.34	1693.67
400.54	1800.16
400.75	1841.12
400.96	1736.68
401.17	1880.04
401.37	1746.92
401.58	1691.62
401.79	1808.36
402.00	1751.01
402.21	2131.94
402.41	1998.82
402.62	2095.07
402.83	2181.09
403.04	2140.13
403.24	2099.17
403.45	1890.28
403.66	2066.40
403.87	1914.85
404.07	1949.67
404.28	1894.37
404.49	1920.99
404.70	1826.79
404.90	1843.17
405.11	1732.58
405.32	1746.92
405.52	1677.29
405.73	1681.38
405.94	1724.39
406.15	1812.45
406.35	1820.64
406.56	1755.11
406.77	1710.05
406.98	1691.62
407.18	1732.58
407.39	1718.25
407.60	1624.04
407.80	1699.81
408.01	1728.49
408.22	1730.53
408.43	1689.57
408.63	1763.30
408.84	1710.05
409.05	1775.59
409.25	1679.33
409.46	1763.30
409.67	1628.14
409.88	1685.48
410.08	1734.63
410.29	1644.52
410.50	1814.50
410.70	1789.92
410.91	1609.70
411.12	1804.26
411.32	1787.88
411.53	1755.11
411.74	1820.64
411.95	1812.45
412.15	1839.08
412.36	1832.93
412.57	1800.16
412.77	1839.08
412.98	1710.05
413.19	1748.97
413.39	1757.16
413.60	1781.73
413.81	1824.74
414.01	1755.11
414.22	1830.88
414.43	1791.97
414.63	1730.53
414.84	1810.40
415.05	1775.59
415.25	1724.39
415.46	1742.82
415.67	1736.68
415.87	1802.21
416.08	1757.16
416.29	1695.72
416.49	1783.78
416.70	1697.77
416.91	1675.24
417.11	1675.24
417.32	1722.34
417.53	1814.50
417.73	1771.49
417.94	1746.92
418.15	1736.68
418.35	1722.34
418.56	1710.05
418.77	1906.66
418.97	1634.28
419.18	1669.09
419.38	1562.60
419.59	1675.24
419.80	1849.32
420.00	1695.72
420.21	1697.77
420.42	1677.29
420.62	1730.53
420.83	1714.15
421.04	1624.04
421.24	1675.24
421.45	1755.11
421.65	1724.39
421.86	1734.63
422.07	1640.42
422.27	1757.16
422.48	1693.67
422.69	1714.15
422.89	1728.49
423.10	1769.44
423.30	1656.81
423.51	1697.77
423.72	1734.63
423.92	1826.79
424.13	1667.05
424.33	1800.16
424.54	1775.59
424.75	1740.77
424.95	1796.07
425.16	1746.92
425.36	1710.05
425.57	1802.21
425.78	1689.57
425.98	1818.60
426.19	1673.19
426.39	1644.52
426.60	1673.19
426.81	1808.36
427.01	1619.94
427.22	1658.85
427.42	1652.71
427.63	1658.85
427.83	1769.44
428.04	1787.88
428.25	1769.44
428.45	1832.93
428.66	1798.12
428.86	1658.85
429.07	1656.81
429.28	1726.44
429.48	1769.44
429.69	1759.21
429.89	1779.68
430.10	1648.61
430.30	1824.74
430.51	1759.21
430.71	1718.25
430.92	1701.86
431.13	1710.05
431.33	1763.30
431.54	1740.77
431.74	1814.50
431.95	1785.83
432.15	1619.94
432.36	1728.49
432.56	1732.58
432.77	1746.92
432.98	1724.39
433.18	1671.14
433.39	1652.71
433.59	1755.11
433.80	1824.74
434.00	1869.80
434.21	1628.14
434.41	1677.29
434.62	1865.70
434.82	1732.58
435.03	1650.66
435.23	1724.39
435.44	1669.09
435.64	1734.63
435.85	1740.77
436.06	1728.49
436.26	1771.49
436.47	1701.86
436.67	1693.67
436.88	1804.26
437.08	1779.68
437.29	1800.16
437.49	1734.63
437.70	1732.58
437.90	1728.49
438.11	1810.40
438.31	1789.92
438.52	1896.42
438.72	1910.75
438.93	1951.71
439.13	1800.16
439.34	1886.18
439.54	1738.73
439.75	1800.16
439.95	1806.31
440.16	1679.33
440.36	1820.64
440.57	1679.33
440.77	1736.68
440.98	1701.86
441.18	1855.46
441.39	1730.53
441.59	1685.48
441.80	1853.41
442.00	1773.54
442.21	1755.11
442.41	1636.33
442.62	1744.87
442.82	1693.67
443.02	1761.25
443.23	1773.54
443.43	1718.25
443.64	1837.03
443.84	1681.38
444.05	1933.28
444.25	1695.72
444.46	1767.40
444.66	1744.87
444.87	1785.83
445.07	1621.99
445.28	1718.25
445.48	1865.70
445.69	1818.60
445.89	1951.71
446.09	1789.92
446.30	2004.96
446.50	2580.44
446.71	4034.50
446.91	5218.22
447.12	5803.94
447.32	5883.81
447.53	5173.17
447.73	4415.42
447.93	3950.53
448.14	3651.53
448.34	3510.22
448.55	3221.45
448.75	3133.39
448.96	2983.89
449.16	2623.45
449.36	2451.42
449.57	2228.19
449.77	1951.71
449.98	1781.73
450.18	1859.56
450.39	1769.44
450.59	1724.39
450.79	1783.78
451.00	1791.97
451.20	1740.77
451.41	1775.59
451.61	1742.82
451.81	1724.39
452.02	1779.68
452.22	1703.91
452.43	1734.63
452.63	1695.72
