SpectraSuite Data File
++++++++++++++++++++++++++++++++++++
Date: Wed May 04 18:44:16 CEST 2016
User: root
Dark Spectrum Present: No
Reference Spectrum Present: No
Number of Sampled Component Spectra: 1
Spectrometers: USB4C02835
Integration Time (usec): 100000 (USB4C02835)
Spectra Averaged: 1 (USB4C02835)
Boxcar Smoothing: 0 (USB4C02835)
Correct for Electrical Dark: No (USB4C02835)
Strobe/Lamp Enabled: No (USB4C02835)
Correct for Detector Non-linearity: No (USB4C02835)
Correct for Stray Light: No (USB4C02835)
Number of Pixels in Processed Spectrum: 3648
>>>>>Begin Processed Spectral Data<<<<<
177.47	1470.44
177.69	1470.44
177.91	1470.44
178.13	1441.77
178.36	1464.30
178.58	1660.90
178.80	1677.29
179.02	1675.24
179.24	1650.66
179.46	1693.67
179.68	1755.11
179.90	1644.52
180.13	1773.54
180.35	1685.48
180.57	1671.14
180.79	1724.39
181.01	1726.44
181.23	1720.29
181.45	1744.87
181.67	1701.86
181.90	1828.84
182.12	1589.22
182.34	1677.29
182.56	1759.21
182.78	1665.00
183.00	1693.67
183.22	1710.05
183.44	1578.98
183.66	1888.23
183.89	1820.64
184.11	1679.33
184.33	1757.16
184.55	1800.16
184.77	1687.53
184.99	1640.42
185.21	1665.00
185.43	1779.68
185.65	1697.77
185.87	1609.70
186.10	1796.07
186.32	1890.28
186.54	1701.86
186.76	1742.82
186.98	1671.14
187.20	1769.44
187.42	1609.70
187.64	1705.96
187.86	1730.53
188.08	1718.25
188.30	1748.97
188.52	1689.57
188.75	1824.74
188.97	1726.44
189.19	1705.96
189.41	1722.34
189.63	1759.21
189.85	1650.66
190.07	1630.18
190.29	1624.04
190.51	1763.30
190.73	1662.95
190.95	1775.59
191.17	1740.77
191.39	1681.38
191.61	1679.33
191.84	1693.67
192.06	1755.11
192.28	1576.94
192.50	1857.51
192.72	1726.44
192.94	1697.77
193.16	1751.01
193.38	1722.34
193.60	1650.66
193.82	1712.10
194.04	1726.44
194.26	1826.79
194.48	1675.24
194.70	1691.62
194.92	1716.20
195.14	1699.81
195.36	1613.80
195.58	1671.14
195.80	1689.57
196.02	1642.47
196.24	1662.95
196.46	1816.55
196.69	1734.63
196.91	1851.36
197.13	1732.58
197.35	1746.92
197.57	1812.45
197.79	1708.01
198.01	1753.06
198.23	1693.67
198.45	1708.01
198.67	1667.05
198.89	1697.77
199.11	1804.26
199.33	1718.25
199.55	1540.07
199.77	1718.25
199.99	1781.73
200.21	1779.68
200.43	1681.38
200.65	1593.32
200.87	1587.18
201.09	1734.63
201.31	1689.57
201.53	1757.16
201.75	1710.05
201.97	1755.11
202.19	1681.38
202.41	1794.02
202.63	1806.31
202.85	1798.12
203.07	1699.81
203.29	1669.09
203.51	1683.43
203.73	1685.48
203.95	1816.55
204.17	1710.05
204.39	1689.57
204.61	1675.24
204.83	1746.92
205.05	1636.33
205.27	1734.63
205.49	1800.16
205.71	1748.97
205.93	1624.04
206.15	1708.01
206.37	1705.96
206.59	1705.96
206.81	1621.99
207.03	1677.29
207.25	1689.57
207.47	1726.44
207.69	1652.71
207.91	1748.97
208.13	1726.44
208.34	1648.61
208.56	1681.38
208.78	1740.77
209.00	1738.73
209.22	1718.25
209.44	1697.77
209.66	1738.73
209.88	1722.34
210.10	1705.96
210.32	1621.99
210.54	1763.30
210.76	1753.06
210.98	1738.73
211.20	1585.13
211.42	1652.71
211.64	1816.55
211.86	1730.53
212.08	1742.82
212.30	1732.58
212.52	1654.76
212.74	1695.72
212.96	1701.86
213.17	1685.48
213.39	1763.30
213.61	1812.45
213.83	1699.81
214.05	1757.16
214.27	1806.31
214.49	1675.24
214.71	1646.57
214.93	1812.45
215.15	1695.72
215.37	1757.16
215.59	1738.73
215.81	1800.16
216.03	1703.91
216.24	1685.48
216.46	1740.77
216.68	1740.77
216.90	1710.05
217.12	1779.68
217.34	1724.39
217.56	1724.39
217.78	1865.70
218.00	1736.68
218.22	1673.19
218.44	1658.85
218.66	1662.95
218.87	1748.97
219.09	1650.66
219.31	1730.53
219.53	1705.96
219.75	1691.62
219.97	1748.97
220.19	1732.58
220.41	1679.33
220.63	1763.30
220.85	1712.10
221.06	1687.53
221.28	1787.88
221.50	1757.16
221.72	1751.01
221.94	1740.77
222.16	1728.49
222.38	1796.07
222.60	1705.96
222.82	1695.72
223.03	1724.39
223.25	1656.81
223.47	1738.73
223.69	1787.88
223.91	1765.35
224.13	1714.15
224.35	1644.52
224.57	1763.30
224.78	1804.26
225.00	1667.05
225.22	1681.38
225.44	1705.96
225.66	1785.83
225.88	1697.77
226.10	1771.49
226.32	1679.33
226.53	1789.92
226.75	1685.48
226.97	1693.67
227.19	1697.77
227.41	1685.48
227.63	1638.38
227.85	1673.19
228.06	1681.38
228.28	1685.48
228.50	1773.54
228.72	1775.59
228.94	1726.44
229.16	1603.56
229.37	1638.38
229.59	1642.47
229.81	1828.84
230.03	1669.09
230.25	1665.00
230.47	1714.15
230.69	1675.24
230.90	1755.11
231.12	1660.90
231.34	1656.81
231.56	1767.40
231.78	1607.66
232.00	1755.11
232.21	1730.53
232.43	1730.53
232.65	1546.22
232.87	1726.44
233.09	1634.28
233.30	1648.61
233.52	1701.86
233.74	1714.15
233.96	1697.77
234.18	1742.82
234.40	1689.57
234.61	1796.07
234.83	1642.47
235.05	1525.74
235.27	1820.64
235.49	1820.64
235.70	1728.49
235.92	1763.30
236.14	1697.77
236.36	1822.69
236.58	1619.94
236.79	1736.68
237.01	1722.34
237.23	1714.15
237.45	1806.31
237.67	1609.70
237.88	1728.49
238.10	1806.31
238.32	1712.10
238.54	1751.01
238.76	1708.01
238.97	1677.29
239.19	1599.46
239.41	1800.16
239.63	1710.05
239.85	1615.85
240.06	1746.92
240.28	1683.43
240.50	1761.25
240.72	1746.92
240.93	1716.20
241.15	1789.92
241.37	1726.44
241.59	1830.88
241.81	1746.92
242.02	1708.01
242.24	1767.40
242.46	1771.49
242.68	1658.85
242.89	1755.11
243.11	1699.81
243.33	1708.01
243.55	1763.30
243.76	1705.96
243.98	1697.77
244.20	1681.38
244.42	1648.61
244.64	1753.06
244.85	1611.75
245.07	1644.52
245.29	1748.97
245.51	1683.43
245.72	1728.49
245.94	1767.40
246.16	1718.25
246.38	1765.35
246.59	1716.20
246.81	1640.42
247.03	1638.38
247.24	1554.41
247.46	1728.49
247.68	1724.39
247.90	1673.19
248.11	1630.18
248.33	1763.30
248.55	1648.61
248.77	1675.24
248.98	1789.92
249.20	1800.16
249.42	1755.11
249.64	1685.48
249.85	1712.10
250.07	1712.10
250.29	1740.77
250.50	1824.74
250.72	1677.29
250.94	1726.44
251.16	1769.44
251.37	1843.17
251.59	1714.15
251.81	1638.38
252.02	1783.78
252.24	1636.33
252.46	1675.24
252.68	1742.82
252.89	1701.86
253.11	1701.86
253.33	1847.27
253.54	1742.82
253.76	1693.67
253.98	1742.82
254.20	1693.67
254.41	1638.38
254.63	1755.11
254.85	1675.24
255.06	1714.15
255.28	1769.44
255.50	1681.38
255.71	1679.33
255.93	1581.03
256.15	1660.90
256.36	1730.53
256.58	1722.34
256.80	1771.49
257.02	1644.52
257.23	1658.85
257.45	1701.86
257.67	1748.97
257.88	1660.90
258.10	1769.44
258.32	1720.29
258.53	1691.62
258.75	1781.73
258.97	1640.42
259.18	1703.91
259.40	1673.19
259.62	1820.64
259.83	1808.36
260.05	1744.87
260.27	1964.00
260.48	1683.43
260.70	1718.25
260.92	1693.67
261.13	1669.09
261.35	1730.53
261.57	1738.73
261.78	1640.42
262.00	1705.96
262.22	1806.31
262.43	1679.33
262.65	1634.28
262.86	1691.62
263.08	1779.68
263.30	1665.00
263.51	1603.56
263.73	1669.09
263.95	1757.16
264.16	1640.42
264.38	1566.70
264.60	1732.58
264.81	1703.91
265.03	1783.78
265.25	1748.97
265.46	1652.71
265.68	1787.88
265.89	1724.39
266.11	1558.50
266.33	1718.25
266.54	1738.73
266.76	1728.49
266.98	1773.54
267.19	1748.97
267.41	1751.01
267.62	1689.57
267.84	1607.66
268.06	1689.57
268.27	1677.29
268.49	1757.16
268.70	1730.53
268.92	1738.73
269.14	1621.99
269.35	1636.33
269.57	1681.38
269.79	1736.68
270.00	1644.52
270.22	1837.03
270.43	1626.09
270.65	1560.55
270.87	1705.96
271.08	1748.97
271.30	1738.73
271.51	1683.43
271.73	1697.77
271.95	1785.83
272.16	1681.38
272.38	1773.54
272.59	1738.73
272.81	1701.86
273.02	1693.67
273.24	1748.97
273.46	1736.68
273.67	1632.23
273.89	1632.23
274.10	1695.72
274.32	1814.50
274.54	1769.44
274.75	1787.88
274.97	1683.43
275.18	1724.39
275.40	1697.77
275.61	1658.85
275.83	1796.07
276.05	1705.96
276.26	1720.29
276.48	1705.96
276.69	1644.52
276.91	1708.01
277.12	1740.77
277.34	1738.73
277.55	1794.02
277.77	1769.44
277.99	1689.57
278.20	1687.53
278.42	1658.85
278.63	1646.57
278.85	1648.61
279.06	1691.62
279.28	1751.01
279.49	1826.79
279.71	1804.26
279.93	1726.44
280.14	1726.44
280.36	1705.96
280.57	1773.54
280.79	1802.21
281.00	1718.25
281.22	1716.20
281.43	1763.30
281.65	1566.70
281.86	1636.33
282.08	1656.81
282.29	1781.73
282.51	1726.44
282.73	1695.72
282.94	1658.85
283.16	1646.57
283.37	1814.50
283.59	1662.95
283.80	1734.63
284.02	1648.61
284.23	1736.68
284.45	1609.70
284.66	1634.28
284.88	1720.29
285.09	1757.16
285.31	1746.92
285.52	1710.05
285.74	1708.01
285.95	1724.39
286.17	1734.63
286.38	1759.21
286.60	1746.92
286.81	1669.09
287.03	1615.85
287.24	1744.87
287.46	1691.62
287.67	1703.91
287.89	1822.69
288.10	1683.43
288.32	1681.38
288.53	1853.41
288.75	1689.57
288.96	1703.91
289.18	1695.72
289.39	1679.33
289.61	1775.59
289.82	1812.45
290.04	1849.32
290.25	1683.43
290.47	1742.82
290.68	1683.43
290.90	1718.25
291.11	1654.76
291.33	1697.77
291.54	1656.81
291.76	1652.71
291.97	1595.37
292.18	1740.77
292.40	1703.91
292.61	1646.57
292.83	1871.84
293.04	1740.77
293.26	1763.30
293.47	1693.67
293.69	1687.53
293.90	1734.63
294.12	1740.77
294.33	1699.81
294.55	1712.10
294.76	1714.15
294.97	1789.92
295.19	1847.27
295.40	1673.19
295.62	1742.82
295.83	1738.73
296.05	1767.40
296.26	1765.35
296.48	1722.34
296.69	1705.96
296.90	1695.72
297.12	1800.16
297.33	1710.05
297.55	1730.53
297.76	1746.92
297.98	1703.91
298.19	1695.72
298.41	1767.40
298.62	1710.05
298.83	1779.68
299.05	1757.16
299.26	1677.29
299.48	1615.85
299.69	1748.97
299.90	1712.10
300.12	1732.58
300.33	1703.91
300.55	1693.67
300.76	1765.35
300.98	1658.85
301.19	1763.30
301.40	1708.01
301.62	1626.09
301.83	1677.29
302.05	1708.01
302.26	1665.00
302.47	1722.34
302.69	1644.52
302.90	1722.34
303.12	1583.08
303.33	1761.25
303.54	1804.26
303.76	1710.05
303.97	1730.53
304.19	1730.53
304.40	1636.33
304.61	1771.49
304.83	1773.54
305.04	1763.30
305.26	1775.59
305.47	1734.63
305.68	1705.96
305.90	1673.19
306.11	1791.97
306.33	1667.05
306.54	1712.10
306.75	1689.57
306.97	1656.81
307.18	1656.81
307.39	1656.81
307.61	1771.49
307.82	1744.87
308.04	1679.33
308.25	1656.81
308.46	1740.77
308.68	1730.53
308.89	1685.48
309.10	1716.20
309.32	1732.58
309.53	1640.42
309.74	1794.02
309.96	1732.58
310.17	1730.53
310.39	1705.96
310.60	1712.10
310.81	1714.15
311.03	1619.94
311.24	1796.07
311.45	1751.01
311.67	1808.36
311.88	1691.62
312.09	1720.29
312.31	1656.81
312.52	1712.10
312.73	1701.86
312.95	1701.86
313.16	1685.48
313.37	1796.07
313.59	1665.00
313.80	1853.41
314.01	1791.97
314.23	1673.19
314.44	1621.99
314.65	1705.96
314.87	1611.75
315.08	1658.85
315.29	1730.53
315.51	1626.09
315.72	1621.99
315.93	1751.01
316.15	1753.06
316.36	1691.62
316.57	1742.82
316.79	1757.16
317.00	1728.49
317.21	1740.77
317.43	1673.19
317.64	1716.20
317.85	1617.90
318.07	1654.76
318.28	1849.32
318.49	1781.73
318.70	1984.48
318.92	1918.95
319.13	1806.31
319.34	1945.57
319.56	1875.94
319.77	1861.60
319.98	1820.64
320.20	1736.68
320.41	1787.88
320.62	1837.03
320.83	1673.19
321.05	1839.08
321.26	1742.82
321.47	1693.67
321.69	1738.73
321.90	1576.94
322.11	1632.23
322.32	1736.68
322.54	1810.40
322.75	1675.24
322.96	1857.51
323.18	1593.32
323.39	1611.75
323.60	1732.58
323.81	1718.25
324.03	1736.68
324.24	1673.19
324.45	1650.66
324.66	1734.63
324.88	1820.64
325.09	1787.88
325.30	1738.73
325.52	1662.95
325.73	1785.83
325.94	1705.96
326.15	1630.18
326.37	1675.24
326.58	1689.57
326.79	1779.68
327.00	1673.19
327.22	1677.29
327.43	1671.14
327.64	1695.72
327.85	1757.16
328.07	1697.77
328.28	1767.40
328.49	1578.98
328.70	1734.63
328.92	1697.77
329.13	1693.67
329.34	1736.68
329.55	1818.60
329.76	1734.63
329.98	1650.66
330.19	1751.01
330.40	1697.77
330.61	1695.72
330.83	1751.01
331.04	1693.67
331.25	1660.90
331.46	1642.47
331.68	1632.23
331.89	1738.73
332.10	1789.92
332.31	1669.09
332.52	1728.49
332.74	1748.97
332.95	1687.53
333.16	1665.00
333.37	1755.11
333.58	1675.24
333.80	1834.98
334.01	1685.48
334.22	1607.66
334.43	1642.47
334.64	1693.67
334.86	1673.19
335.07	1646.57
335.28	1828.84
335.49	1652.71
335.70	1724.39
335.92	1722.34
336.13	1853.41
336.34	1767.40
336.55	1648.61
336.76	1736.68
336.98	1611.75
337.19	1662.95
337.40	1808.36
337.61	1847.27
337.82	1658.85
338.04	1744.87
338.25	1605.61
338.46	1697.77
338.67	1685.48
338.88	1648.61
339.09	1646.57
339.31	1714.15
339.52	1636.33
339.73	1646.57
339.94	1685.48
340.15	1742.82
340.36	1697.77
340.58	1748.97
340.79	1665.00
341.00	1716.20
341.21	1599.46
341.42	1828.84
341.63	1650.66
341.85	1652.71
342.06	1681.38
342.27	1669.09
342.48	1746.92
342.69	1705.96
342.90	1787.88
343.12	1695.72
343.33	1634.28
343.54	1755.11
343.75	1779.68
343.96	1652.71
344.17	1724.39
344.38	1632.23
344.60	1667.05
344.81	1759.21
345.02	1638.38
345.23	1814.50
345.44	1949.67
345.65	1718.25
345.86	1740.77
346.07	1677.29
346.29	1732.58
346.50	1748.97
346.71	1785.83
346.92	1814.50
347.13	1822.69
347.34	1726.44
347.55	1609.70
347.76	1669.09
347.98	1673.19
348.19	1769.44
348.40	1806.31
348.61	1677.29
348.82	1712.10
349.03	1736.68
349.24	1626.09
349.45	1810.40
349.66	1605.61
349.88	1697.77
350.09	1675.24
350.30	1869.80
350.51	1765.35
350.72	1765.35
350.93	1730.53
351.14	1656.81
351.35	1775.59
351.56	1691.62
351.77	1701.86
351.99	1771.49
352.20	1794.02
352.41	1759.21
352.62	1730.53
352.83	1687.53
353.04	1708.01
353.25	1701.86
353.46	1761.25
353.67	1789.92
353.88	1603.56
354.09	1710.05
354.30	1671.14
354.52	1753.06
354.73	1708.01
354.94	1640.42
355.15	1710.05
355.36	1757.16
355.57	1681.38
355.78	1742.82
355.99	1705.96
356.20	1681.38
356.41	1767.40
356.62	1726.44
356.83	1667.05
357.04	1834.98
357.25	1705.96
357.46	1697.77
357.68	1619.94
357.89	1619.94
358.10	1712.10
358.31	1716.20
358.52	1708.01
358.73	1662.95
358.94	1658.85
359.15	1701.86
359.36	1742.82
359.57	1751.01
359.78	1691.62
359.99	1722.34
360.20	1660.90
360.41	1728.49
360.62	1722.34
360.83	1681.38
361.04	1734.63
361.25	1685.48
361.46	1832.93
361.67	1712.10
361.88	1753.06
362.09	1757.16
362.30	1781.73
362.51	1611.75
362.72	1640.42
362.93	1703.91
363.14	1779.68
363.35	1724.39
363.56	1695.72
363.78	1783.78
363.99	1746.92
364.20	1624.04
364.41	1787.88
364.62	1753.06
364.83	1751.01
365.04	1740.77
365.25	1728.49
365.46	1839.08
365.67	1619.94
365.88	1761.25
366.09	1669.09
366.30	1654.76
366.51	1771.49
366.72	1740.77
366.93	1744.87
367.14	1654.76
367.35	1742.82
367.56	1742.82
367.77	1820.64
367.98	1703.91
368.18	1689.57
368.39	1689.57
368.60	1742.82
368.81	1730.53
369.02	1691.62
369.23	1697.77
369.44	1603.56
369.65	1693.67
369.86	1765.35
370.07	1757.16
370.28	1665.00
370.49	1806.31
370.70	1775.59
370.91	1675.24
371.12	1660.90
371.33	1732.58
371.54	1677.29
371.75	1816.55
371.96	1552.36
372.17	1771.49
372.38	1685.48
372.59	1695.72
372.80	1712.10
373.01	1685.48
373.22	1751.01
373.43	1681.38
373.64	1679.33
373.85	1847.27
374.06	1837.03
374.26	1798.12
374.47	1730.53
374.68	1820.64
374.89	1722.34
375.10	1681.38
375.31	1714.15
375.52	1634.28
375.73	1730.53
375.94	1638.38
376.15	1855.46
376.36	1695.72
376.57	1751.01
376.78	1679.33
376.99	1701.86
377.20	1775.59
377.40	1724.39
377.61	1828.84
377.82	1667.05
378.03	1853.41
378.24	1701.86
378.45	1708.01
378.66	1677.29
378.87	1540.07
379.08	1642.47
379.29	1722.34
379.50	1763.30
379.71	1718.25
379.91	1808.36
380.12	1783.78
380.33	1744.87
380.54	1738.73
380.75	1683.43
380.96	1734.63
381.17	1755.11
381.38	1679.33
381.59	1773.54
381.80	1740.77
382.00	1855.46
382.21	1800.16
382.42	1843.17
382.63	1882.08
382.84	1812.45
383.05	1820.64
383.26	1847.27
383.47	1703.91
383.68	1693.67
383.88	1800.16
384.09	1705.96
384.30	1730.53
384.51	1746.92
384.72	1654.76
384.93	1656.81
385.14	1720.29
385.35	1730.53
385.55	1562.60
385.76	1783.78
385.97	1736.68
386.18	1718.25
386.39	1658.85
386.60	1720.29
386.81	1669.09
387.02	1667.05
387.22	1689.57
387.43	1781.73
387.64	1810.40
387.85	1888.23
388.06	2170.85
388.27	4616.12
388.48	9203.57
388.68	11726.67
388.89	13625.14
389.10	13952.81
389.31	12003.14
389.52	9682.80
389.73	8511.36
389.93	7899.02
390.14	7171.99
390.35	6653.85
390.56	6076.32
390.77	4988.85
390.98	3876.80
391.18	3063.76
391.39	2310.11
391.60	1925.09
391.81	1923.04
392.02	1720.29
392.23	1902.56
392.43	1701.86
392.64	1837.03
392.85	1703.91
393.06	1828.84
393.27	1691.62
393.47	1667.05
393.68	1755.11
393.89	1728.49
394.10	1824.74
394.31	1753.06
394.52	1646.57
394.72	1675.24
394.93	1794.02
395.14	1609.70
395.35	1769.44
395.56	1720.29
395.76	1710.05
395.97	1806.31
396.18	1839.08
396.39	1875.94
396.60	2220.00
396.80	1998.82
397.01	1896.42
397.22	1894.37
397.43	1910.75
397.64	1779.68
397.84	1849.32
398.05	1894.37
398.26	1751.01
398.47	1877.99
398.67	1798.12
398.88	1697.77
399.09	1783.78
399.30	1671.14
399.51	1746.92
399.71	1634.28
399.92	1685.48
400.13	1703.91
400.34	1691.62
400.54	1728.49
400.75	1843.17
400.96	1695.72
401.17	1857.51
401.37	1755.11
401.58	1755.11
401.79	1718.25
402.00	1873.89
402.21	2086.88
402.41	2066.40
402.62	2076.64
402.83	2222.05
403.04	2086.88
403.24	2203.61
403.45	1910.75
403.66	1964.00
403.87	1912.80
404.07	1927.14
404.28	2021.35
404.49	1882.08
404.70	1834.98
404.90	1816.55
405.11	1658.85
405.32	1830.88
405.52	1611.75
405.73	1665.00
405.94	1599.46
406.15	1660.90
406.35	1806.31
406.56	1796.07
406.77	1759.21
406.98	1734.63
407.18	1599.46
407.39	1755.11
407.60	1732.58
407.80	1730.53
408.01	1693.67
408.22	1791.97
408.43	1705.96
408.63	1748.97
408.84	1742.82
409.05	1740.77
409.25	1626.09
409.46	1593.32
409.67	1722.34
409.88	1683.43
410.08	1751.01
410.29	1703.91
410.50	1726.44
410.70	1742.82
410.91	1697.77
411.12	1769.44
411.32	1708.01
411.53	1683.43
411.74	1857.51
411.95	1798.12
412.15	1796.07
412.36	1789.92
412.57	1781.73
412.77	1847.27
412.98	1732.58
413.19	1718.25
413.39	1851.36
413.60	1800.16
413.81	1783.78
414.01	1712.10
414.22	1740.77
414.43	1873.89
414.63	1767.40
414.84	1818.60
415.05	1761.25
415.25	1656.81
415.46	1703.91
415.67	1701.86
415.87	1753.06
416.08	1746.92
416.29	1695.72
416.49	1798.12
416.70	1658.85
416.91	1736.68
417.11	1728.49
417.32	1746.92
417.53	1759.21
417.73	1757.16
417.94	1755.11
418.15	1628.14
418.35	1716.20
418.56	1755.11
418.77	1800.16
418.97	1746.92
419.18	1777.64
419.38	1570.79
419.59	1669.09
419.80	1796.07
420.00	1634.28
420.21	1660.90
420.42	1781.73
420.62	1699.81
420.83	1681.38
421.04	1644.52
421.24	1705.96
421.45	1724.39
421.65	1773.54
421.86	1701.86
422.07	1722.34
422.27	1695.72
422.48	1755.11
422.69	1681.38
422.89	1673.19
423.10	1777.64
423.30	1687.53
423.51	1685.48
423.72	1685.48
423.92	1761.25
424.13	1599.46
424.33	1718.25
424.54	1796.07
424.75	1767.40
424.95	1837.03
425.16	1652.71
425.36	1734.63
425.57	1830.88
425.78	1685.48
425.98	1763.30
426.19	1615.85
426.39	1669.09
426.60	1683.43
426.81	1755.11
427.01	1740.77
427.22	1697.77
427.42	1656.81
427.63	1697.77
427.83	1791.97
428.04	1794.02
428.25	1783.78
428.45	1755.11
428.66	1787.88
428.86	1804.26
429.07	1677.29
429.28	1738.73
429.48	1658.85
429.69	1720.29
429.89	1791.97
430.10	1722.34
430.30	1748.97
430.51	1796.07
430.71	1693.67
430.92	1701.86
431.13	1669.09
431.33	1755.11
431.54	1773.54
431.74	1765.35
431.95	1806.31
432.15	1697.77
432.36	1736.68
432.56	1820.64
432.77	1775.59
432.98	1783.78
433.18	1708.01
433.39	1691.62
433.59	1697.77
433.80	1849.32
434.00	1822.69
434.21	1697.77
434.41	1691.62
434.62	1904.61
434.82	1708.01
435.03	1665.00
435.23	1751.01
435.44	1597.42
435.64	1646.57
435.85	1697.77
436.06	1781.73
436.26	1789.92
436.47	1677.29
436.67	1710.05
436.88	1755.11
437.08	1779.68
437.29	1808.36
437.49	1712.10
437.70	1804.26
437.90	1804.26
438.11	1820.64
438.31	1783.78
438.52	1865.70
438.72	1896.42
438.93	2002.91
439.13	1839.08
439.34	1871.84
439.54	1834.98
439.75	1867.75
439.95	1818.60
440.16	1677.29
440.36	1724.39
440.57	1738.73
440.77	1816.55
440.98	1755.11
441.18	1804.26
441.39	1732.58
441.59	1628.14
441.80	1847.27
442.00	1730.53
442.21	1775.59
442.41	1714.15
442.62	1732.58
442.82	1650.66
443.02	1726.44
443.23	1771.49
443.43	1722.34
443.64	1900.52
443.84	1742.82
444.05	1824.74
444.25	1787.88
444.46	1722.34
444.66	1802.21
444.87	1855.46
445.07	1658.85
445.28	1716.20
445.48	1843.17
445.69	1718.25
445.89	1880.04
446.09	1771.49
446.30	1988.58
446.50	2617.30
446.71	4151.23
446.91	5072.82
447.12	5683.11
447.32	6094.76
447.53	5324.72
447.73	4386.75
447.93	3942.34
448.14	3631.05
448.34	3542.99
448.55	3157.97
448.75	3203.02
448.96	3004.37
449.16	2619.35
449.36	2455.51
449.57	2228.19
449.77	1937.38
449.98	1853.41
450.18	1826.79
450.39	1853.41
450.59	1845.22
450.79	1718.25
451.00	1644.52
451.20	1744.87
451.41	1716.20
451.61	1738.73
451.81	1712.10
452.02	1732.58
452.22	1693.67
452.43	1681.38
452.63	1689.57
