SpectraSuite Data File
++++++++++++++++++++++++++++++++++++
Date: Wed May 04 18:44:48 CEST 2016
User: root
Dark Spectrum Present: No
Reference Spectrum Present: No
Number of Sampled Component Spectra: 1
Spectrometers: USB4C02835
Integration Time (usec): 100000 (USB4C02835)
Spectra Averaged: 1 (USB4C02835)
Boxcar Smoothing: 0 (USB4C02835)
Correct for Electrical Dark: No (USB4C02835)
Strobe/Lamp Enabled: No (USB4C02835)
Correct for Detector Non-linearity: No (USB4C02835)
Correct for Stray Light: No (USB4C02835)
Number of Pixels in Processed Spectrum: 3648
>>>>>Begin Processed Spectral Data<<<<<
177.47	1478.63
177.69	1478.63
177.91	1478.63
178.13	1490.92
178.36	1507.30
178.58	1677.29
178.80	1769.44
179.02	1593.32
179.24	1673.19
179.46	1609.70
179.68	1794.02
179.90	1705.96
180.13	1789.92
180.35	1642.47
180.57	1679.33
180.79	1757.16
181.01	1679.33
181.23	1806.31
181.45	1773.54
181.67	1755.11
181.90	1761.25
182.12	1662.95
182.34	1613.80
182.56	1738.73
182.78	1714.15
183.00	1648.61
183.22	1722.34
183.44	1638.38
183.66	1818.60
183.89	1753.06
184.11	1699.81
184.33	1783.78
184.55	1742.82
184.77	1652.71
184.99	1703.91
185.21	1644.52
185.43	1814.50
185.65	1632.23
185.87	1789.92
186.10	1800.16
186.32	1849.32
186.54	1681.38
186.76	1656.81
186.98	1744.87
187.20	1712.10
187.42	1722.34
187.64	1681.38
187.86	1751.01
188.08	1789.92
188.30	1687.53
188.52	1742.82
188.75	1828.84
188.97	1814.50
189.19	1646.57
189.41	1718.25
189.63	1742.82
189.85	1648.61
190.07	1619.94
190.29	1683.43
190.51	1665.00
190.73	1636.33
190.95	1800.16
191.17	1603.56
191.39	1621.99
191.61	1720.29
191.84	1722.34
192.06	1722.34
192.28	1603.56
192.50	1894.37
192.72	1798.12
192.94	1769.44
193.16	1720.29
193.38	1732.58
193.60	1685.48
193.82	1720.29
194.04	1781.73
194.26	1726.44
194.48	1685.48
194.70	1669.09
194.92	1677.29
195.14	1779.68
195.36	1724.39
195.58	1701.86
195.80	1689.57
196.02	1681.38
196.24	1744.87
196.46	1697.77
196.69	1748.97
196.91	1843.17
197.13	1728.49
197.35	1695.72
197.57	1744.87
197.79	1701.86
198.01	1689.57
198.23	1771.49
198.45	1726.44
198.67	1644.52
198.89	1687.53
199.11	1742.82
199.33	1673.19
199.55	1650.66
199.77	1765.35
199.99	1781.73
200.21	1705.96
200.43	1746.92
200.65	1642.47
200.87	1533.93
201.09	1701.86
201.31	1669.09
201.53	1777.64
201.75	1714.15
201.97	1730.53
202.19	1675.24
202.41	1732.58
202.63	1902.56
202.85	1658.85
203.07	1671.14
203.29	1763.30
203.51	1677.29
203.73	1705.96
203.95	1800.16
204.17	1730.53
204.39	1722.34
204.61	1697.77
204.83	1673.19
205.05	1742.82
205.27	1740.77
205.49	1798.12
205.71	1652.71
205.93	1757.16
206.15	1773.54
206.37	1681.38
206.59	1718.25
206.81	1660.90
207.03	1667.05
207.25	1679.33
207.47	1791.97
207.69	1669.09
207.91	1824.74
208.13	1771.49
208.34	1695.72
208.56	1732.58
208.78	1648.61
209.00	1679.33
209.22	1675.24
209.44	1675.24
209.66	1742.82
209.88	1695.72
210.10	1689.57
210.32	1673.19
210.54	1712.10
210.76	1699.81
210.98	1767.40
211.20	1548.26
211.42	1646.57
211.64	1779.68
211.86	1728.49
212.08	1718.25
212.30	1730.53
212.52	1726.44
212.74	1728.49
212.96	1787.88
213.17	1730.53
213.39	1812.45
213.61	1816.55
213.83	1798.12
214.05	1789.92
214.27	1748.97
214.49	1687.53
214.71	1628.14
214.93	1755.11
215.15	1701.86
215.37	1796.07
215.59	1558.50
215.81	1773.54
216.03	1810.40
216.24	1722.34
216.46	1720.29
216.68	1724.39
216.90	1759.21
217.12	1753.06
217.34	1695.72
217.56	1791.97
217.78	1794.02
218.00	1742.82
218.22	1654.76
218.44	1679.33
218.66	1824.74
218.87	1814.50
219.09	1669.09
219.31	1705.96
219.53	1708.01
219.75	1722.34
219.97	1703.91
220.19	1689.57
220.41	1732.58
220.63	1675.24
220.85	1708.01
221.06	1724.39
221.28	1802.21
221.50	1675.24
221.72	1748.97
221.94	1724.39
222.16	1746.92
222.38	1806.31
222.60	1755.11
222.82	1597.42
223.03	1767.40
223.25	1667.05
223.47	1775.59
223.69	1845.22
223.91	1732.58
224.13	1695.72
224.35	1695.72
224.57	1796.07
224.78	1617.90
225.00	1595.37
225.22	1705.96
225.44	1695.72
225.66	1744.87
225.88	1687.53
226.10	1767.40
226.32	1697.77
226.53	1777.64
226.75	1642.47
226.97	1603.56
227.19	1710.05
227.41	1624.04
227.63	1669.09
227.85	1636.33
228.06	1718.25
228.28	1701.86
228.50	1785.83
228.72	1585.13
228.94	1624.04
229.16	1638.38
229.37	1638.38
229.59	1644.52
229.81	1755.11
230.03	1607.66
230.25	1689.57
230.47	1636.33
230.69	1595.37
230.90	1714.15
231.12	1656.81
231.34	1656.81
231.56	1734.63
231.78	1646.57
232.00	1693.67
232.21	1738.73
232.43	1699.81
232.65	1677.29
232.87	1660.90
233.09	1630.18
233.30	1714.15
233.52	1695.72
233.74	1734.63
233.96	1736.68
234.18	1667.05
234.40	1687.53
234.61	1773.54
234.83	1673.19
235.05	1632.23
235.27	1787.88
235.49	1785.83
235.70	1730.53
235.92	1802.21
236.14	1773.54
236.36	1837.03
236.58	1597.42
236.79	1628.14
237.01	1703.91
237.23	1751.01
237.45	1822.69
237.67	1650.66
237.88	1744.87
238.10	1818.60
238.32	1681.38
238.54	1708.01
238.76	1765.35
238.97	1632.23
239.19	1646.57
239.41	1755.11
239.63	1849.32
239.85	1689.57
240.06	1738.73
240.28	1708.01
240.50	1814.50
240.72	1740.77
240.93	1726.44
241.15	1757.16
241.37	1732.58
241.59	1779.68
241.81	1677.29
242.02	1757.16
242.24	1677.29
242.46	1751.01
242.68	1626.09
242.89	1681.38
243.11	1748.97
243.33	1722.34
243.55	1742.82
243.76	1794.02
243.98	1658.85
244.20	1601.51
244.42	1636.33
244.64	1740.77
244.85	1607.66
245.07	1701.86
245.29	1794.02
245.51	1691.62
245.72	1716.20
245.94	1667.05
246.16	1679.33
246.38	1730.53
246.59	1652.71
246.81	1689.57
247.03	1687.53
247.24	1624.04
247.46	1599.46
247.68	1722.34
247.90	1669.09
248.11	1669.09
248.33	1761.25
248.55	1693.67
248.77	1755.11
248.98	1800.16
249.20	1822.69
249.42	1689.57
249.64	1746.92
249.85	1804.26
250.07	1701.86
250.29	1773.54
250.50	1701.86
250.72	1660.90
250.94	1751.01
251.16	1820.64
251.37	1720.29
251.59	1751.01
251.81	1740.77
252.02	1740.77
252.24	1613.80
252.46	1742.82
252.68	1671.14
252.89	1648.61
253.11	1708.01
253.33	1769.44
253.54	1800.16
253.76	1617.90
253.98	1665.00
254.20	1726.44
254.41	1603.56
254.63	1685.48
254.85	1552.36
255.06	1683.43
255.28	1718.25
255.50	1691.62
255.71	1697.77
255.93	1656.81
256.15	1679.33
256.36	1736.68
256.58	1734.63
256.80	1705.96
257.02	1638.38
257.23	1710.05
257.45	1611.75
257.67	1740.77
257.88	1648.61
258.10	1791.97
258.32	1648.61
258.53	1744.87
258.75	1865.70
258.97	1669.09
259.18	1742.82
259.40	1708.01
259.62	1732.58
259.83	1800.16
260.05	1734.63
260.27	1978.34
260.48	1779.68
260.70	1581.03
260.92	1675.24
261.13	1703.91
261.35	1722.34
261.57	1746.92
261.78	1644.52
262.00	1691.62
262.22	1765.35
262.43	1697.77
262.65	1699.81
262.86	1716.20
263.08	1820.64
263.30	1648.61
263.51	1587.18
263.73	1710.05
263.95	1763.30
264.16	1601.51
264.38	1634.28
264.60	1689.57
264.81	1669.09
265.03	1767.40
265.25	1796.07
265.46	1685.48
265.68	1779.68
265.89	1789.92
266.11	1587.18
266.33	1726.44
266.54	1861.60
266.76	1775.59
266.98	1755.11
267.19	1789.92
267.41	1724.39
267.62	1683.43
267.84	1568.74
268.06	1634.28
268.27	1773.54
268.49	1705.96
268.70	1751.01
268.92	1708.01
269.14	1615.85
269.35	1638.38
269.57	1677.29
269.79	1763.30
270.00	1673.19
270.22	1734.63
270.43	1630.18
270.65	1562.60
270.87	1708.01
271.08	1714.15
271.30	1783.78
271.51	1748.97
271.73	1777.64
271.95	1722.34
272.16	1667.05
272.38	1718.25
272.59	1685.48
272.81	1710.05
273.02	1728.49
273.24	1730.53
273.46	1732.58
273.67	1689.57
273.89	1640.42
274.10	1611.75
274.32	1736.68
274.54	1726.44
274.75	1773.54
274.97	1609.70
275.18	1742.82
275.40	1757.16
275.61	1691.62
275.83	1734.63
276.05	1621.99
276.26	1710.05
276.48	1744.87
276.69	1636.33
276.91	1660.90
277.12	1783.78
277.34	1734.63
277.55	1732.58
277.77	1765.35
277.99	1681.38
278.20	1644.52
278.42	1654.76
278.63	1681.38
278.85	1624.04
279.06	1691.62
279.28	1710.05
279.49	1722.34
279.71	1708.01
279.93	1724.39
280.14	1714.15
280.36	1656.81
280.57	1787.88
280.79	1822.69
281.00	1667.05
281.22	1634.28
281.43	1800.16
281.65	1566.70
281.86	1646.57
282.08	1753.06
282.29	1791.97
282.51	1693.67
282.73	1667.05
282.94	1632.23
283.16	1771.49
283.37	1841.12
283.59	1689.57
283.80	1732.58
284.02	1705.96
284.23	1806.31
284.45	1689.57
284.66	1691.62
284.88	1703.91
285.09	1718.25
285.31	1759.21
285.52	1712.10
285.74	1628.14
285.95	1755.11
286.17	1687.53
286.38	1783.78
286.60	1714.15
286.81	1685.48
287.03	1751.01
287.24	1775.59
287.46	1783.78
287.67	1716.20
287.89	1775.59
288.10	1724.39
288.32	1658.85
288.53	1808.36
288.75	1740.77
288.96	1767.40
289.18	1656.81
289.39	1726.44
289.61	1767.40
289.82	1898.47
290.04	1800.16
290.25	1628.14
290.47	1669.09
290.68	1718.25
290.90	1791.97
291.11	1642.47
291.33	1685.48
291.54	1671.14
291.76	1636.33
291.97	1742.82
292.18	1681.38
292.40	1673.19
292.61	1611.75
292.83	1808.36
293.04	1748.97
293.26	1681.38
293.47	1656.81
293.69	1669.09
293.90	1705.96
294.12	1773.54
294.33	1722.34
294.55	1648.61
294.76	1812.45
294.97	1769.44
295.19	1839.08
295.40	1652.71
295.62	1699.81
295.83	1773.54
296.05	1583.08
296.26	1779.68
296.48	1658.85
296.69	1748.97
296.90	1665.00
297.12	1740.77
297.33	1779.68
297.55	1730.53
297.76	1755.11
297.98	1763.30
298.19	1675.24
298.41	1705.96
298.62	1609.70
298.83	1806.31
299.05	1660.90
299.26	1732.58
299.48	1642.47
299.69	1783.78
299.90	1759.21
300.12	1671.14
300.33	1744.87
300.55	1736.68
300.76	1705.96
300.98	1650.66
301.19	1800.16
301.40	1740.77
301.62	1624.04
301.83	1703.91
302.05	1720.29
302.26	1712.10
302.47	1656.81
302.69	1732.58
302.90	1665.00
303.12	1607.66
303.33	1755.11
303.54	1800.16
303.76	1728.49
303.97	1773.54
304.19	1826.79
304.40	1656.81
304.61	1757.16
304.83	1886.18
305.04	1767.40
305.26	1740.77
305.47	1656.81
305.68	1693.67
305.90	1677.29
306.11	1738.73
306.33	1744.87
306.54	1667.05
306.75	1650.66
306.97	1669.09
307.18	1679.33
307.39	1734.63
307.61	1769.44
307.82	1716.20
308.04	1765.35
308.25	1648.61
308.46	1714.15
308.68	1757.16
308.89	1712.10
309.10	1773.54
309.32	1751.01
309.53	1642.47
309.74	1677.29
309.96	1728.49
310.17	1804.26
310.39	1648.61
310.60	1798.12
310.81	1720.29
311.03	1667.05
311.24	1765.35
311.45	1697.77
311.67	1816.55
311.88	1726.44
312.09	1712.10
312.31	1636.33
312.52	1667.05
312.73	1691.62
312.95	1691.62
313.16	1619.94
313.37	1812.45
313.59	1734.63
313.80	1761.25
314.01	1818.60
314.23	1771.49
314.44	1689.57
314.65	1669.09
314.87	1632.23
315.08	1644.52
315.29	1689.57
315.51	1679.33
315.72	1615.85
315.93	1824.74
316.15	1777.64
316.36	1673.19
316.57	1726.44
316.79	1761.25
317.00	1671.14
317.21	1734.63
317.43	1671.14
317.64	1671.14
317.85	1763.30
318.07	1662.95
318.28	1779.68
318.49	1839.08
318.70	1996.77
318.92	1923.04
319.13	1871.84
319.34	1847.27
319.56	1882.08
319.77	1867.75
319.98	1855.46
320.20	1800.16
320.41	1875.94
320.62	1787.88
320.83	1695.72
321.05	1869.80
321.26	1748.97
321.47	1685.48
321.69	1746.92
321.90	1705.96
322.11	1742.82
322.32	1648.61
322.54	1812.45
322.75	1638.38
322.96	1777.64
323.18	1619.94
323.39	1662.95
323.60	1736.68
323.81	1796.07
324.03	1662.95
324.24	1708.01
324.45	1724.39
324.66	1685.48
324.88	1726.44
325.09	1781.73
325.30	1718.25
325.52	1679.33
325.73	1742.82
325.94	1640.42
326.15	1615.85
326.37	1607.66
326.58	1783.78
326.79	1724.39
327.00	1650.66
327.22	1761.25
327.43	1685.48
327.64	1701.86
327.85	1779.68
328.07	1691.62
328.28	1763.30
328.49	1675.24
328.70	1742.82
328.92	1730.53
329.13	1648.61
329.34	1720.29
329.55	1894.37
329.76	1714.15
329.98	1617.90
330.19	1740.77
330.40	1755.11
330.61	1755.11
330.83	1804.26
331.04	1601.51
331.25	1730.53
331.46	1697.77
331.68	1705.96
331.89	1693.67
332.10	1740.77
332.31	1648.61
332.52	1695.72
332.74	1771.49
332.95	1652.71
333.16	1632.23
333.37	1681.38
333.58	1716.20
333.80	1755.11
334.01	1644.52
334.22	1632.23
334.43	1679.33
334.64	1669.09
334.86	1675.24
335.07	1677.29
335.28	1730.53
335.49	1687.53
335.70	1783.78
335.92	1826.79
336.13	1830.88
336.34	1759.21
336.55	1724.39
336.76	1763.30
336.98	1667.05
337.19	1716.20
337.40	1755.11
337.61	1863.65
337.82	1679.33
338.04	1679.33
338.25	1675.24
338.46	1710.05
338.67	1730.53
338.88	1660.90
339.09	1621.99
339.31	1730.53
339.52	1634.28
339.73	1673.19
339.94	1656.81
340.15	1699.81
340.36	1630.18
340.58	1712.10
340.79	1681.38
341.00	1687.53
341.21	1619.94
341.42	1777.64
341.63	1636.33
341.85	1794.02
342.06	1730.53
342.27	1669.09
342.48	1712.10
342.69	1597.42
342.90	1695.72
343.12	1742.82
343.33	1646.57
343.54	1761.25
343.75	1765.35
343.96	1708.01
344.17	1685.48
344.38	1767.40
344.60	1654.76
344.81	1634.28
345.02	1624.04
345.23	1777.64
345.44	1783.78
345.65	1769.44
345.86	1734.63
346.07	1691.62
346.29	1642.47
346.50	1665.00
346.71	1767.40
346.92	1837.03
347.13	1828.84
347.34	1746.92
347.55	1701.86
347.76	1701.86
347.98	1540.07
348.19	1701.86
348.40	1814.50
348.61	1693.67
348.82	1798.12
349.03	1734.63
349.24	1669.09
349.45	1841.12
349.66	1662.95
349.88	1710.05
350.09	1693.67
350.30	1769.44
350.51	1734.63
350.72	1677.29
350.93	1765.35
351.14	1675.24
351.35	1757.16
351.56	1710.05
351.77	1759.21
351.99	1708.01
352.20	1763.30
352.41	1699.81
352.62	1544.17
352.83	1681.38
353.04	1705.96
353.25	1718.25
353.46	1732.58
353.67	1841.12
353.88	1619.94
354.09	1677.29
354.30	1751.01
354.52	1716.20
354.73	1611.75
354.94	1638.38
355.15	1677.29
355.36	1812.45
355.57	1693.67
355.78	1769.44
355.99	1677.29
356.20	1681.38
356.41	1722.34
356.62	1724.39
356.83	1759.21
357.04	1753.06
357.25	1611.75
357.46	1677.29
357.68	1652.71
357.89	1587.18
358.10	1685.48
358.31	1722.34
358.52	1652.71
358.73	1613.80
358.94	1695.72
359.15	1609.70
359.36	1685.48
359.57	1677.29
359.78	1656.81
359.99	1781.73
360.20	1671.14
360.41	1738.73
360.62	1759.21
360.83	1757.16
361.04	1687.53
361.25	1734.63
361.46	1820.64
361.67	1789.92
361.88	1769.44
362.09	1746.92
362.30	1839.08
362.51	1640.42
362.72	1785.83
362.93	1779.68
363.14	1794.02
363.35	1708.01
363.56	1609.70
363.78	1765.35
363.99	1714.15
364.20	1683.43
364.41	1652.71
364.62	1855.46
364.83	1773.54
365.04	1677.29
365.25	1685.48
365.46	1816.55
365.67	1705.96
365.88	1734.63
366.09	1755.11
366.30	1675.24
366.51	1691.62
366.72	1669.09
366.93	1751.01
367.14	1714.15
367.35	1744.87
367.56	1656.81
367.77	1818.60
367.98	1755.11
368.18	1742.82
368.39	1736.68
368.60	1681.38
368.81	1728.49
369.02	1716.20
369.23	1742.82
369.44	1619.94
369.65	1689.57
369.86	1753.06
370.07	1796.07
370.28	1681.38
370.49	1748.97
370.70	1742.82
370.91	1691.62
371.12	1644.52
371.33	1734.63
371.54	1677.29
371.75	1806.31
371.96	1578.98
372.17	1740.77
372.38	1720.29
372.59	1748.97
372.80	1693.67
373.01	1714.15
373.22	1665.00
373.43	1767.40
373.64	1691.62
373.85	1765.35
374.06	1812.45
374.26	1769.44
374.47	1732.58
374.68	1773.54
374.89	1712.10
375.10	1675.24
375.31	1714.15
375.52	1691.62
375.73	1718.25
375.94	1638.38
376.15	1742.82
376.36	1714.15
376.57	1638.38
376.78	1669.09
376.99	1703.91
377.20	1742.82
377.40	1593.32
377.61	1830.88
377.82	1673.19
378.03	1744.87
378.24	1777.64
378.45	1693.67
378.66	1693.67
378.87	1640.42
379.08	1609.70
379.29	1728.49
379.50	1884.13
379.71	1740.77
379.91	1724.39
380.12	1699.81
380.33	1701.86
380.54	1714.15
380.75	1685.48
380.96	1767.40
381.17	1841.12
381.38	1757.16
381.59	1818.60
381.80	1763.30
382.00	1875.94
382.21	1746.92
382.42	1857.51
382.63	1847.27
382.84	1771.49
383.05	1818.60
383.26	1816.55
383.47	1763.30
383.68	1763.30
383.88	1697.77
384.09	1708.01
384.30	1769.44
384.51	1759.21
384.72	1730.53
384.93	1660.90
385.14	1773.54
385.35	1685.48
385.55	1646.57
385.76	1802.21
385.97	1742.82
386.18	1609.70
386.39	1720.29
386.60	1726.44
386.81	1679.33
387.02	1755.11
387.22	1730.53
387.43	1851.36
387.64	1816.55
387.85	1918.95
388.06	2246.62
388.27	4573.11
388.48	9076.60
388.68	11421.52
388.89	13274.93
389.10	14014.25
389.31	11827.02
389.52	9521.01
389.73	8515.45
389.93	7686.03
390.14	7217.04
390.35	6563.74
390.56	5949.35
390.77	4906.93
390.98	3921.86
391.18	2985.94
391.39	2389.98
391.60	1970.15
391.81	1894.37
392.02	1789.92
392.23	1871.84
392.43	1748.97
392.64	1761.25
392.85	1755.11
393.06	1820.64
393.27	1763.30
393.47	1658.85
393.68	1796.07
393.89	1671.14
394.10	1767.40
394.31	1667.05
394.52	1640.42
394.72	1638.38
394.93	1798.12
395.14	1665.00
395.35	1777.64
395.56	1650.66
395.76	1669.09
395.97	1775.59
396.18	1888.23
396.39	1898.47
396.60	2033.63
396.80	1931.23
397.01	1902.56
397.22	1900.52
397.43	1863.65
397.64	1781.73
397.84	1775.59
398.05	1904.61
398.26	1845.22
398.47	1861.60
398.67	1753.06
398.88	1718.25
399.09	1746.92
399.30	1689.57
399.51	1730.53
399.71	1638.38
399.92	1763.30
400.13	1781.73
400.34	1693.67
400.54	1681.38
400.75	1916.90
400.96	1824.74
401.17	1873.89
401.37	1693.67
401.58	1708.01
401.79	1757.16
402.00	1857.51
402.21	2052.06
402.41	2072.54
402.62	2056.16
402.83	2168.80
403.04	2023.39
403.24	2217.95
403.45	1892.32
403.66	1988.58
403.87	2009.06
404.07	2017.25
404.28	1949.67
404.49	1920.99
404.70	1855.46
404.90	1820.64
405.11	1781.73
405.32	1740.77
405.52	1675.24
405.73	1658.85
405.94	1632.23
406.15	1714.15
406.35	1746.92
406.56	1761.25
406.77	1630.18
406.98	1738.73
407.18	1683.43
407.39	1720.29
407.60	1716.20
407.80	1683.43
408.01	1720.29
408.22	1742.82
408.43	1753.06
408.63	1701.86
408.84	1677.29
409.05	1705.96
409.25	1699.81
409.46	1677.29
409.67	1658.85
409.88	1705.96
410.08	1755.11
410.29	1689.57
410.50	1740.77
410.70	1744.87
410.91	1697.77
411.12	1742.82
411.32	1839.08
411.53	1748.97
411.74	1808.36
411.95	1796.07
412.15	1753.06
412.36	1796.07
412.57	1724.39
412.77	1894.37
412.98	1708.01
413.19	1671.14
413.39	1828.84
413.60	1748.97
413.81	1841.12
414.01	1712.10
414.22	1751.01
414.43	1738.73
414.63	1636.33
414.84	1837.03
415.05	1759.21
415.25	1665.00
415.46	1646.57
415.67	1673.19
415.87	1695.72
416.08	1818.60
416.29	1570.79
416.49	1761.25
416.70	1703.91
416.91	1685.48
417.11	1705.96
417.32	1748.97
417.53	1714.15
417.73	1775.59
417.94	1687.53
418.15	1771.49
418.35	1695.72
418.56	1740.77
418.77	1800.16
418.97	1714.15
419.18	1689.57
419.38	1650.66
419.59	1759.21
419.80	1789.92
420.00	1701.86
420.21	1636.33
420.42	1781.73
420.62	1681.38
420.83	1642.47
421.04	1724.39
421.24	1705.96
421.45	1759.21
421.65	1738.73
421.86	1730.53
422.07	1728.49
422.27	1746.92
422.48	1648.61
422.69	1636.33
422.89	1697.77
423.10	1695.72
423.30	1621.99
423.51	1691.62
423.72	1777.64
423.92	1734.63
424.13	1648.61
424.33	1697.77
424.54	1726.44
424.75	1691.62
424.95	1755.11
425.16	1740.77
425.36	1708.01
425.57	1748.97
425.78	1785.83
425.98	1843.17
426.19	1714.15
426.39	1599.46
426.60	1712.10
426.81	1701.86
427.01	1724.39
427.22	1728.49
427.42	1556.46
427.63	1679.33
427.83	1777.64
428.04	1796.07
428.25	1695.72
428.45	1796.07
428.66	1708.01
428.86	1734.63
429.07	1714.15
429.28	1746.92
429.48	1695.72
429.69	1732.58
429.89	1724.39
430.10	1607.66
430.30	1732.58
430.51	1826.79
430.71	1654.76
430.92	1654.76
431.13	1695.72
431.33	1708.01
431.54	1779.68
431.74	1779.68
431.95	1767.40
432.15	1677.29
432.36	1722.34
432.56	1796.07
432.77	1869.80
432.98	1822.69
433.18	1767.40
433.39	1724.39
433.59	1726.44
433.80	1837.03
434.00	1783.78
434.21	1665.00
434.41	1632.23
434.62	1880.04
434.82	1675.24
435.03	1699.81
435.23	1763.30
435.44	1648.61
435.64	1794.02
435.85	1656.81
436.06	1802.21
436.26	1787.88
436.47	1724.39
436.67	1693.67
436.88	1777.64
437.08	1794.02
437.29	1802.21
437.49	1742.82
437.70	1814.50
437.90	1701.86
438.11	1832.93
438.31	1757.16
438.52	1867.75
438.72	1886.18
438.93	1947.62
439.13	1849.32
439.34	1814.50
439.54	1826.79
439.75	1794.02
439.95	1822.69
440.16	1826.79
440.36	1771.49
440.57	1839.08
440.77	1802.21
440.98	1708.01
441.18	1769.44
441.39	1718.25
441.59	1677.29
441.80	1802.21
442.00	1673.19
442.21	1832.93
442.41	1708.01
442.62	1816.55
442.82	1705.96
443.02	1789.92
443.23	1765.35
443.43	1705.96
443.64	1843.17
443.84	1675.24
444.05	1775.59
444.25	1798.12
444.46	1779.68
444.66	1712.10
444.87	1806.31
445.07	1683.43
445.28	1759.21
445.48	1773.54
445.69	1798.12
445.89	1845.22
446.09	1734.63
446.30	2011.11
446.50	2660.31
446.71	4097.99
446.91	5105.59
447.12	5980.07
447.32	5951.40
447.53	5279.66
447.73	4411.32
447.93	4003.78
448.14	3598.28
448.34	3524.55
448.55	3155.92
448.75	3170.26
448.96	3065.81
449.16	2648.02
449.36	2500.57
449.57	2115.55
449.77	1920.99
449.98	1765.35
450.18	1757.16
450.39	1816.55
450.59	1759.21
450.79	1736.68
451.00	1691.62
451.20	1740.77
451.41	1734.63
451.61	1734.63
451.81	1740.77
452.02	1746.92
452.22	1656.81
452.43	1691.62
452.63	1662.95
