SpectraSuite Data File
++++++++++++++++++++++++++++++++++++
Date: Wed May 04 18:43:58 CEST 2016
User: root
Dark Spectrum Present: No
Reference Spectrum Present: No
Number of Sampled Component Spectra: 1
Spectrometers: USB4C02835
Integration Time (usec): 100000 (USB4C02835)
Spectra Averaged: 1 (USB4C02835)
Boxcar Smoothing: 0 (USB4C02835)
Correct for Electrical Dark: No (USB4C02835)
Strobe/Lamp Enabled: No (USB4C02835)
Correct for Detector Non-linearity: No (USB4C02835)
Correct for Stray Light: No (USB4C02835)
Number of Pixels in Processed Spectrum: 3648
>>>>>Begin Processed Spectral Data<<<<<
177.47	1417.19
177.69	1417.19
177.91	1417.19
178.13	1486.83
178.36	1542.12
178.58	1632.23
178.80	1695.72
179.02	1568.74
179.24	1689.57
179.46	1734.63
179.68	1796.07
179.90	1615.85
180.13	1767.40
180.35	1712.10
180.57	1656.81
180.79	1808.36
181.01	1669.09
181.23	1740.77
181.45	1822.69
181.67	1804.26
181.90	1732.58
182.12	1673.19
182.34	1603.56
182.56	1767.40
182.78	1722.34
183.00	1705.96
183.22	1777.64
183.44	1554.41
183.66	1894.37
183.89	1767.40
184.11	1755.11
184.33	1669.09
184.55	1773.54
184.77	1761.25
184.99	1691.62
185.21	1681.38
185.43	1830.88
185.65	1587.18
185.87	1732.58
186.10	1837.03
186.32	1834.98
186.54	1751.01
186.76	1791.97
186.98	1738.73
187.20	1644.52
187.42	1695.72
187.64	1708.01
187.86	1718.25
188.08	1720.29
188.30	1675.24
188.52	1689.57
188.75	1748.97
188.97	1841.12
189.19	1681.38
189.41	1681.38
189.63	1775.59
189.85	1726.44
190.07	1591.27
190.29	1648.61
190.51	1685.48
190.73	1675.24
190.95	1755.11
191.17	1671.14
191.39	1658.85
191.61	1736.68
191.84	1716.20
192.06	1681.38
192.28	1644.52
192.50	1832.93
192.72	1744.87
192.94	1695.72
193.16	1781.73
193.38	1779.68
193.60	1705.96
193.82	1742.82
194.04	1753.06
194.26	1693.67
194.48	1751.01
194.70	1636.33
194.92	1660.90
195.14	1746.92
195.36	1671.14
195.58	1669.09
195.80	1681.38
196.02	1667.05
196.24	1701.86
196.46	1691.62
196.69	1693.67
196.91	1794.02
197.13	1744.87
197.35	1626.09
197.57	1796.07
197.79	1681.38
198.01	1724.39
198.23	1839.08
198.45	1710.05
198.67	1710.05
198.89	1703.91
199.11	1791.97
199.33	1662.95
199.55	1701.86
199.77	1699.81
199.99	1787.88
200.21	1683.43
200.43	1708.01
200.65	1701.86
200.87	1568.74
201.09	1656.81
201.31	1658.85
201.53	1681.38
201.75	1722.34
201.97	1621.99
202.19	1677.29
202.41	1712.10
202.63	1816.55
202.85	1738.73
203.07	1744.87
203.29	1712.10
203.51	1667.05
203.73	1658.85
203.95	1855.46
204.17	1744.87
204.39	1730.53
204.61	1748.97
204.83	1732.58
205.05	1751.01
205.27	1765.35
205.49	1802.21
205.71	1662.95
205.93	1564.65
206.15	1757.16
206.37	1724.39
206.59	1691.62
206.81	1679.33
207.03	1658.85
207.25	1619.94
207.47	1718.25
207.69	1703.91
207.91	1867.75
208.13	1779.68
208.34	1710.05
208.56	1636.33
208.78	1742.82
209.00	1615.85
209.22	1724.39
209.44	1695.72
209.66	1697.77
209.88	1716.20
210.10	1722.34
210.32	1656.81
210.54	1728.49
210.76	1681.38
210.98	1800.16
211.20	1531.88
211.42	1787.88
211.64	1734.63
211.86	1708.01
212.08	1734.63
212.30	1669.09
212.52	1683.43
212.74	1712.10
212.96	1683.43
213.17	1759.21
213.39	1689.57
213.61	1787.88
213.83	1755.11
214.05	1675.24
214.27	1687.53
214.49	1570.79
214.71	1673.19
214.93	1765.35
215.15	1650.66
215.37	1712.10
215.59	1656.81
215.81	1763.30
216.03	1744.87
216.24	1685.48
216.46	1701.86
216.68	1693.67
216.90	1785.83
217.12	1773.54
217.34	1751.01
217.56	1710.05
217.78	1822.69
218.00	1714.15
218.22	1708.01
218.44	1740.77
218.66	1798.12
218.87	1802.21
219.09	1708.01
219.31	1701.86
219.53	1753.06
219.75	1644.52
219.97	1669.09
220.19	1740.77
220.41	1685.48
220.63	1810.40
220.85	1712.10
221.06	1685.48
221.28	1751.01
221.50	1771.49
221.72	1667.05
221.94	1699.81
222.16	1681.38
222.38	1796.07
222.60	1736.68
222.82	1658.85
223.03	1810.40
223.25	1669.09
223.47	1804.26
223.69	1834.98
223.91	1761.25
224.13	1708.01
224.35	1720.29
224.57	1722.34
224.78	1810.40
225.00	1609.70
225.22	1679.33
225.44	1665.00
225.66	1779.68
225.88	1671.14
226.10	1748.97
226.32	1722.34
226.53	1826.79
226.75	1689.57
226.97	1656.81
227.19	1724.39
227.41	1658.85
227.63	1624.04
227.85	1609.70
228.06	1679.33
228.28	1697.77
228.50	1736.68
228.72	1566.70
228.94	1617.90
229.16	1619.94
229.37	1724.39
229.59	1693.67
229.81	1834.98
230.03	1648.61
230.25	1654.76
230.47	1685.48
230.69	1589.22
230.90	1730.53
231.12	1671.14
231.34	1738.73
231.56	1834.98
231.78	1685.48
232.00	1722.34
232.21	1738.73
232.43	1720.29
232.65	1546.22
232.87	1708.01
233.09	1681.38
233.30	1699.81
233.52	1763.30
233.74	1681.38
233.96	1685.48
234.18	1755.11
234.40	1687.53
234.61	1845.22
234.83	1654.76
235.05	1628.14
235.27	1859.56
235.49	1753.06
235.70	1753.06
235.92	1820.64
236.14	1744.87
236.36	1894.37
236.58	1640.42
236.79	1712.10
237.01	1695.72
237.23	1730.53
237.45	1847.27
237.67	1656.81
237.88	1728.49
238.10	1759.21
238.32	1656.81
238.54	1718.25
238.76	1722.34
238.97	1673.19
239.19	1689.57
239.41	1796.07
239.63	1767.40
239.85	1695.72
240.06	1740.77
240.28	1630.18
240.50	1820.64
240.72	1656.81
240.93	1708.01
241.15	1753.06
241.37	1646.57
241.59	1712.10
241.81	1662.95
242.02	1734.63
242.24	1734.63
242.46	1654.76
242.68	1742.82
242.89	1740.77
243.11	1773.54
243.33	1724.39
243.55	1773.54
243.76	1667.05
243.98	1701.86
244.20	1691.62
244.42	1755.11
244.64	1708.01
244.85	1667.05
245.07	1665.00
245.29	1689.57
245.51	1669.09
245.72	1697.77
245.94	1691.62
246.16	1638.38
246.38	1740.77
246.59	1660.90
246.81	1665.00
247.03	1669.09
247.24	1650.66
247.46	1619.94
247.68	1669.09
247.90	1699.81
248.11	1730.53
248.33	1738.73
248.55	1730.53
248.77	1712.10
248.98	1824.74
249.20	1832.93
249.42	1669.09
249.64	1685.48
249.85	1714.15
250.07	1685.48
250.29	1771.49
250.50	1667.05
250.72	1681.38
250.94	1761.25
251.16	1791.97
251.37	1808.36
251.59	1771.49
251.81	1730.53
252.02	1830.88
252.24	1695.72
252.46	1734.63
252.68	1697.77
252.89	1730.53
253.11	1624.04
253.33	1804.26
253.54	1824.74
253.76	1675.24
253.98	1732.58
254.20	1751.01
254.41	1624.04
254.63	1677.29
254.85	1673.19
255.06	1714.15
255.28	1695.72
255.50	1660.90
255.71	1693.67
255.93	1667.05
256.15	1732.58
256.36	1656.81
256.58	1660.90
256.80	1691.62
257.02	1791.97
257.23	1699.81
257.45	1677.29
257.67	1726.44
257.88	1662.95
258.10	1779.68
258.32	1701.86
258.53	1728.49
258.75	1765.35
258.97	1710.05
259.18	1740.77
259.40	1791.97
259.62	1822.69
259.83	1843.17
260.05	1759.21
260.27	1929.19
260.48	1726.44
260.70	1640.42
260.92	1722.34
261.13	1718.25
261.35	1710.05
261.57	1718.25
261.78	1578.98
262.00	1755.11
262.22	1779.68
262.43	1624.04
262.65	1640.42
262.86	1691.62
263.08	1820.64
263.30	1722.34
263.51	1624.04
263.73	1648.61
263.95	1761.25
264.16	1615.85
264.38	1654.76
264.60	1712.10
264.81	1665.00
265.03	1746.92
265.25	1695.72
265.46	1673.19
265.68	1736.68
265.89	1640.42
266.11	1613.80
266.33	1777.64
266.54	1759.21
266.76	1804.26
266.98	1736.68
267.19	1839.08
267.41	1732.58
267.62	1675.24
267.84	1634.28
268.06	1724.39
268.27	1716.20
268.49	1755.11
268.70	1708.01
268.92	1701.86
269.14	1703.91
269.35	1593.32
269.57	1767.40
269.79	1726.44
270.00	1648.61
270.22	1769.44
270.43	1687.53
270.65	1560.55
270.87	1730.53
271.08	1744.87
271.30	1791.97
271.51	1703.91
271.73	1773.54
271.95	1789.92
272.16	1753.06
272.38	1689.57
272.59	1679.33
272.81	1681.38
273.02	1738.73
273.24	1779.68
273.46	1789.92
273.67	1607.66
273.89	1669.09
274.10	1658.85
274.32	1744.87
274.54	1714.15
274.75	1716.20
274.97	1726.44
275.18	1740.77
275.40	1705.96
275.61	1708.01
275.83	1697.77
276.05	1646.57
276.26	1761.25
276.48	1740.77
276.69	1703.91
276.91	1718.25
277.12	1839.08
277.34	1763.30
277.55	1751.01
277.77	1703.91
277.99	1703.91
278.20	1677.29
278.42	1667.05
278.63	1628.14
278.85	1697.77
279.06	1593.32
279.28	1705.96
279.49	1712.10
279.71	1765.35
279.93	1779.68
280.14	1740.77
280.36	1687.53
280.57	1773.54
280.79	1705.96
281.00	1685.48
281.22	1710.05
281.43	1775.59
281.65	1585.13
281.86	1626.09
282.08	1783.78
282.29	1787.88
282.51	1677.29
282.73	1681.38
282.94	1544.17
283.16	1755.11
283.37	1781.73
283.59	1716.20
283.80	1822.69
284.02	1660.90
284.23	1771.49
284.45	1644.52
284.66	1630.18
284.88	1671.14
285.09	1742.82
285.31	1822.69
285.52	1775.59
285.74	1650.66
285.95	1796.07
286.17	1703.91
286.38	1689.57
286.60	1681.38
286.81	1630.18
287.03	1648.61
287.24	1662.95
287.46	1712.10
287.67	1746.92
287.89	1751.01
288.10	1730.53
288.32	1740.77
288.53	1820.64
288.75	1810.40
288.96	1751.01
289.18	1812.45
289.39	1710.05
289.61	1728.49
289.82	1851.36
290.04	1841.12
290.25	1673.19
290.47	1746.92
290.68	1679.33
290.90	1775.59
291.11	1595.37
291.33	1800.16
291.54	1669.09
291.76	1673.19
291.97	1701.86
292.18	1789.92
292.40	1697.77
292.61	1599.46
292.83	1814.50
293.04	1816.55
293.26	1712.10
293.47	1681.38
293.69	1667.05
293.90	1636.33
294.12	1796.07
294.33	1724.39
294.55	1742.82
294.76	1775.59
294.97	1791.97
295.19	1808.36
295.40	1685.48
295.62	1785.83
295.83	1857.51
296.05	1652.71
296.26	1761.25
296.48	1634.28
296.69	1673.19
296.90	1746.92
297.12	1808.36
297.33	1787.88
297.55	1665.00
297.76	1703.91
297.98	1804.26
298.19	1708.01
298.41	1716.20
298.62	1603.56
298.83	1863.65
299.05	1779.68
299.26	1671.14
299.48	1619.94
299.69	1765.35
299.90	1685.48
300.12	1730.53
300.33	1736.68
300.55	1763.30
300.76	1732.58
300.98	1591.27
301.19	1806.31
301.40	1716.20
301.62	1767.40
301.83	1665.00
302.05	1716.20
302.26	1697.77
302.47	1710.05
302.69	1656.81
302.90	1669.09
303.12	1632.23
303.33	1816.55
303.54	1787.88
303.76	1658.85
303.97	1736.68
304.19	1841.12
304.40	1736.68
304.61	1734.63
304.83	1722.34
305.04	1742.82
305.26	1773.54
305.47	1693.67
305.68	1662.95
305.90	1615.85
306.11	1791.97
306.33	1673.19
306.54	1628.14
306.75	1703.91
306.97	1570.79
307.18	1673.19
307.39	1652.71
307.61	1746.92
307.82	1617.90
308.04	1740.77
308.25	1677.29
308.46	1660.90
308.68	1738.73
308.89	1728.49
309.10	1781.73
309.32	1714.15
309.53	1689.57
309.74	1718.25
309.96	1701.86
310.17	1802.21
310.39	1624.04
310.60	1748.97
310.81	1701.86
311.03	1650.66
311.24	1751.01
311.45	1683.43
311.67	1837.03
311.88	1781.73
312.09	1710.05
312.31	1591.27
312.52	1789.92
312.73	1759.21
312.95	1607.66
313.16	1687.53
313.37	1691.62
313.59	1703.91
313.80	1767.40
314.01	1814.50
314.23	1697.77
314.44	1658.85
314.65	1693.67
314.87	1581.03
315.08	1708.01
315.29	1738.73
315.51	1746.92
315.72	1669.09
315.93	1791.97
316.15	1816.55
316.36	1728.49
316.57	1708.01
316.79	1720.29
317.00	1660.90
317.21	1695.72
317.43	1638.38
317.64	1730.53
317.85	1724.39
318.07	1697.77
318.28	1693.67
318.49	1845.22
318.70	1961.95
318.92	1882.08
319.13	1882.08
319.34	1898.47
319.56	1830.88
319.77	1759.21
319.98	1798.12
320.20	1765.35
320.41	1806.31
320.62	1734.63
320.83	1675.24
321.05	1855.46
321.26	1685.48
321.47	1697.77
321.69	1832.93
321.90	1636.33
322.11	1656.81
322.32	1759.21
322.54	1808.36
322.75	1697.77
322.96	1855.46
323.18	1617.90
323.39	1634.28
323.60	1607.66
323.81	1773.54
324.03	1689.57
324.24	1716.20
324.45	1746.92
324.66	1710.05
324.88	1753.06
325.09	1767.40
325.30	1738.73
325.52	1736.68
325.73	1689.57
325.94	1648.61
326.15	1646.57
326.37	1660.90
326.58	1755.11
326.79	1822.69
327.00	1656.81
327.22	1751.01
327.43	1728.49
327.64	1648.61
327.85	1806.31
328.07	1681.38
328.28	1871.84
328.49	1710.05
328.70	1652.71
328.92	1708.01
329.13	1695.72
329.34	1769.44
329.55	1837.03
329.76	1773.54
329.98	1691.62
330.19	1814.50
330.40	1720.29
330.61	1712.10
330.83	1775.59
331.04	1681.38
331.25	1720.29
331.46	1675.24
331.68	1705.96
331.89	1839.08
332.10	1787.88
332.31	1599.46
332.52	1720.29
332.74	1757.16
332.95	1683.43
333.16	1714.15
333.37	1771.49
333.58	1669.09
333.80	1775.59
334.01	1611.75
334.22	1708.01
334.43	1685.48
334.64	1748.97
334.86	1748.97
335.07	1615.85
335.28	1757.16
335.49	1667.05
335.70	1687.53
335.92	1763.30
336.13	1800.16
336.34	1730.53
336.55	1753.06
336.76	1699.81
336.98	1507.30
337.19	1738.73
337.40	1753.06
337.61	1769.44
337.82	1689.57
338.04	1740.77
338.25	1619.94
338.46	1695.72
338.67	1697.77
338.88	1621.99
339.09	1679.33
339.31	1640.42
339.52	1660.90
339.73	1591.27
339.94	1720.29
340.15	1773.54
340.36	1691.62
340.58	1705.96
340.79	1667.05
341.00	1796.07
341.21	1675.24
341.42	1818.60
341.63	1640.42
341.85	1691.62
342.06	1701.86
342.27	1701.86
342.48	1765.35
342.69	1689.57
342.90	1720.29
343.12	1796.07
343.33	1652.71
343.54	1716.20
343.75	1810.40
343.96	1744.87
344.17	1648.61
344.38	1777.64
344.60	1642.47
344.81	1654.76
345.02	1695.72
345.23	1736.68
345.44	1839.08
345.65	1748.97
345.86	1697.77
346.07	1699.81
346.29	1738.73
346.50	1728.49
346.71	1796.07
346.92	1820.64
347.13	1824.74
347.34	1748.97
347.55	1714.15
347.76	1726.44
347.98	1583.08
348.19	1669.09
348.40	1742.82
348.61	1722.34
348.82	1804.26
349.03	1759.21
349.24	1619.94
349.45	1789.92
349.66	1566.70
349.88	1673.19
350.09	1705.96
350.30	1767.40
350.51	1718.25
350.72	1761.25
350.93	1773.54
351.14	1632.23
351.35	1740.77
351.56	1726.44
351.77	1724.39
351.99	1757.16
352.20	1703.91
352.41	1787.88
352.62	1624.04
352.83	1722.34
353.04	1673.19
353.25	1644.52
353.46	1759.21
353.67	1744.87
353.88	1710.05
354.09	1775.59
354.30	1677.29
354.52	1775.59
354.73	1771.49
354.94	1628.14
355.15	1701.86
355.36	1763.30
355.57	1675.24
355.78	1718.25
355.99	1679.33
356.20	1703.91
356.41	1828.84
356.62	1660.90
356.83	1705.96
357.04	1767.40
357.25	1632.23
357.46	1732.58
357.68	1675.24
357.89	1685.48
358.10	1675.24
358.31	1679.33
358.52	1705.96
358.73	1617.90
358.94	1656.81
359.15	1656.81
359.36	1730.53
359.57	1632.23
359.78	1697.77
359.99	1738.73
360.20	1681.38
360.41	1691.62
360.62	1710.05
360.83	1697.77
361.04	1744.87
361.25	1763.30
361.46	1773.54
361.67	1763.30
361.88	1732.58
362.09	1742.82
362.30	1794.02
362.51	1728.49
362.72	1705.96
362.93	1763.30
363.14	1691.62
363.35	1677.29
363.56	1669.09
363.78	1783.78
363.99	1712.10
364.20	1705.96
364.41	1669.09
364.62	1775.59
364.83	1697.77
365.04	1677.29
365.25	1712.10
365.46	1751.01
365.67	1673.19
365.88	1714.15
366.09	1757.16
366.30	1681.38
366.51	1703.91
366.72	1640.42
366.93	1687.53
367.14	1740.77
367.35	1771.49
367.56	1650.66
367.77	1832.93
367.98	1671.14
368.18	1781.73
368.39	1708.01
368.60	1611.75
368.81	1779.68
369.02	1724.39
369.23	1683.43
369.44	1628.14
369.65	1763.30
369.86	1724.39
370.07	1830.88
370.28	1656.81
370.49	1796.07
370.70	1734.63
370.91	1642.47
371.12	1712.10
371.33	1718.25
371.54	1632.23
371.75	1906.66
371.96	1642.47
372.17	1791.97
372.38	1728.49
372.59	1701.86
372.80	1689.57
373.01	1718.25
373.22	1783.78
373.43	1736.68
373.64	1675.24
373.85	1816.55
374.06	1800.16
374.26	1669.09
374.47	1716.20
374.68	1824.74
374.89	1781.73
375.10	1730.53
375.31	1665.00
375.52	1722.34
375.73	1718.25
375.94	1685.48
376.15	1746.92
376.36	1652.71
376.57	1712.10
376.78	1712.10
376.99	1695.72
377.20	1814.50
377.40	1683.43
377.61	1810.40
377.82	1681.38
378.03	1769.44
378.24	1746.92
378.45	1607.66
378.66	1703.91
378.87	1665.00
379.08	1609.70
379.29	1683.43
379.50	1718.25
379.71	1703.91
379.91	1773.54
380.12	1693.67
380.33	1665.00
380.54	1652.71
380.75	1705.96
380.96	1685.48
381.17	1724.39
381.38	1734.63
381.59	1800.16
381.80	1708.01
382.00	1837.03
382.21	1824.74
382.42	1902.56
382.63	1865.70
382.84	1763.30
383.05	1718.25
383.26	1812.45
383.47	1787.88
383.68	1798.12
383.88	1697.77
384.09	1716.20
384.30	1839.08
384.51	1691.62
384.72	1804.26
384.93	1679.33
385.14	1755.11
385.35	1800.16
385.55	1646.57
385.76	1798.12
385.97	1718.25
386.18	1687.53
386.39	1644.52
386.60	1685.48
386.81	1685.48
387.02	1701.86
387.22	1642.47
387.43	1767.40
387.64	1816.55
387.85	1904.61
388.06	2330.59
388.27	4644.79
388.48	9135.99
388.68	11603.79
388.89	13371.19
389.10	14014.25
389.31	11781.96
389.52	9647.98
389.73	8560.51
389.93	7819.14
390.14	7208.85
390.35	6727.58
390.56	5949.35
390.77	4958.13
390.98	3885.00
391.18	2994.13
391.39	2392.03
391.60	1970.15
391.81	1796.07
392.02	1748.97
392.23	1849.32
392.43	1728.49
392.64	1783.78
392.85	1718.25
393.06	1841.12
393.27	1685.48
393.47	1667.05
393.68	1699.81
393.89	1742.82
394.10	1794.02
394.31	1665.00
394.52	1597.42
394.72	1740.77
394.93	1857.51
395.14	1648.61
395.35	1783.78
395.56	1642.47
395.76	1705.96
395.97	1751.01
396.18	1892.32
396.39	1933.28
396.60	2144.22
396.80	1974.24
397.01	1880.04
397.22	1853.41
397.43	1920.99
397.64	1726.44
397.84	1853.41
398.05	1906.66
398.26	1728.49
398.47	1724.39
398.67	1796.07
398.88	1751.01
399.09	1726.44
399.30	1744.87
399.51	1773.54
399.71	1691.62
399.92	1724.39
400.13	1847.27
400.34	1681.38
400.54	1652.71
400.75	1828.84
400.96	1714.15
401.17	1830.88
401.37	1806.31
401.58	1742.82
401.79	1710.05
402.00	1925.09
402.21	2101.22
402.41	2013.15
402.62	2060.26
402.83	2131.94
403.04	2162.66
403.24	2187.23
403.45	1931.23
403.66	2043.87
403.87	1904.61
404.07	1910.75
404.28	2021.35
404.49	1877.99
404.70	1892.32
404.90	1814.50
405.11	1798.12
405.32	1800.16
405.52	1656.81
405.73	1628.14
405.94	1695.72
406.15	1789.92
406.35	1763.30
406.56	1726.44
406.77	1652.71
406.98	1728.49
407.18	1726.44
407.39	1859.56
407.60	1683.43
407.80	1736.68
408.01	1726.44
408.22	1812.45
408.43	1728.49
408.63	1753.06
408.84	1773.54
409.05	1765.35
409.25	1658.85
409.46	1660.90
409.67	1726.44
409.88	1667.05
410.08	1699.81
410.29	1728.49
410.50	1755.11
410.70	1779.68
410.91	1648.61
411.12	1708.01
411.32	1738.73
411.53	1611.75
411.74	1818.60
411.95	1808.36
412.15	1834.98
412.36	1847.27
412.57	1818.60
412.77	1798.12
412.98	1810.40
413.19	1755.11
413.39	1777.64
413.60	1779.68
413.81	1857.51
414.01	1740.77
414.22	1746.92
414.43	1804.26
414.63	1697.77
414.84	1816.55
415.05	1757.16
415.25	1632.23
415.46	1728.49
415.67	1722.34
415.87	1761.25
416.08	1767.40
416.29	1675.24
416.49	1824.74
416.70	1716.20
416.91	1681.38
417.11	1677.29
417.32	1705.96
417.53	1738.73
417.73	1730.53
417.94	1761.25
418.15	1716.20
418.35	1640.42
418.56	1640.42
418.77	1855.46
418.97	1665.00
419.18	1757.16
419.38	1566.70
419.59	1775.59
419.80	1861.60
420.00	1632.23
420.21	1783.78
420.42	1857.51
420.62	1732.58
420.83	1726.44
421.04	1689.57
421.24	1665.00
421.45	1751.01
421.65	1730.53
421.86	1644.52
422.07	1800.16
422.27	1728.49
422.48	1789.92
422.69	1705.96
422.89	1679.33
423.10	1689.57
423.30	1779.68
423.51	1681.38
423.72	1636.33
423.92	1665.00
424.13	1726.44
424.33	1748.97
424.54	1703.91
424.75	1751.01
424.95	1861.60
425.16	1746.92
425.36	1714.15
425.57	1783.78
425.78	1726.44
425.98	1710.05
426.19	1759.21
426.39	1599.46
426.60	1701.86
426.81	1769.44
427.01	1662.95
427.22	1718.25
427.42	1738.73
427.63	1624.04
427.83	1837.03
428.04	1777.64
428.25	1732.58
428.45	1724.39
428.66	1757.16
428.86	1691.62
429.07	1761.25
429.28	1681.38
429.48	1710.05
429.69	1728.49
429.89	1675.24
430.10	1738.73
430.30	1773.54
430.51	1734.63
430.71	1646.57
430.92	1705.96
431.13	1615.85
431.33	1746.92
431.54	1708.01
431.74	1875.94
431.95	1865.70
432.15	1652.71
432.36	1654.76
432.56	1662.95
432.77	1832.93
432.98	1822.69
433.18	1800.16
433.39	1751.01
433.59	1714.15
433.80	1824.74
434.00	1871.84
434.21	1683.43
434.41	1697.77
434.62	1837.03
434.82	1675.24
435.03	1732.58
435.23	1767.40
435.44	1632.23
435.64	1722.34
435.85	1705.96
436.06	1779.68
436.26	1798.12
436.47	1779.68
436.67	1718.25
436.88	1701.86
437.08	1802.21
437.29	1759.21
437.49	1787.88
437.70	1828.84
437.90	1724.39
438.11	1796.07
438.31	1779.68
438.52	1859.56
438.72	1900.52
438.93	1996.77
439.13	1759.21
439.34	1908.71
439.54	1785.83
439.75	1794.02
439.95	1822.69
440.16	1708.01
440.36	1769.44
440.57	1791.97
440.77	1789.92
440.98	1732.58
441.18	1755.11
441.39	1708.01
441.59	1630.18
441.80	1824.74
442.00	1716.20
442.21	1843.17
442.41	1710.05
442.62	1769.44
442.82	1660.90
443.02	1701.86
443.23	1757.16
443.43	1763.30
443.64	1779.68
443.84	1695.72
444.05	1853.41
444.25	1742.82
444.46	1751.01
444.66	1742.82
444.87	1824.74
445.07	1660.90
445.28	1746.92
445.48	1781.73
445.69	1845.22
445.89	1839.08
446.09	1773.54
446.30	1982.43
446.50	2527.19
446.71	4204.48
446.91	5148.59
447.12	5818.28
447.32	6057.89
447.53	5267.38
447.73	4431.80
447.93	3940.29
448.14	3545.03
448.34	3510.22
448.55	3102.67
448.75	3086.29
448.96	2938.84
449.16	2658.26
449.36	2426.84
449.57	2084.83
449.77	1976.29
449.98	1816.55
450.18	1914.85
450.39	1802.21
450.59	1808.36
450.79	1691.62
451.00	1665.00
451.20	1861.60
451.41	1675.24
451.61	1724.39
451.81	1724.39
452.02	1679.33
452.22	1718.25
452.43	1679.33
452.63	1769.44
