SpectraSuite Data File
++++++++++++++++++++++++++++++++++++
Date: Wed May 04 18:43:59 CEST 2016
User: root
Dark Spectrum Present: No
Reference Spectrum Present: No
Number of Sampled Component Spectra: 1
Spectrometers: USB4C02835
Integration Time (usec): 100000 (USB4C02835)
Spectra Averaged: 1 (USB4C02835)
Boxcar Smoothing: 0 (USB4C02835)
Correct for Electrical Dark: No (USB4C02835)
Strobe/Lamp Enabled: No (USB4C02835)
Correct for Detector Non-linearity: No (USB4C02835)
Correct for Stray Light: No (USB4C02835)
Number of Pixels in Processed Spectrum: 3648
>>>>>Begin Processed Spectral Data<<<<<
177.47	1501.16
177.69	1501.16
177.91	1501.16
178.13	1482.73
178.36	1404.91
178.58	1652.71
178.80	1726.44
179.02	1607.66
179.24	1667.05
179.46	1646.57
179.68	1705.96
179.90	1695.72
180.13	1675.24
180.35	1763.30
180.57	1705.96
180.79	1718.25
181.01	1789.92
181.23	1726.44
181.45	1839.08
181.67	1660.90
181.90	1759.21
182.12	1656.81
182.34	1716.20
182.56	1714.15
182.78	1708.01
183.00	1761.25
183.22	1658.85
183.44	1603.56
183.66	1791.97
183.89	1789.92
184.11	1693.67
184.33	1742.82
184.55	1820.64
184.77	1705.96
184.99	1722.34
185.21	1683.43
185.43	1861.60
185.65	1607.66
185.87	1665.00
186.10	1794.02
186.32	1834.98
186.54	1751.01
186.76	1693.67
186.98	1802.21
187.20	1708.01
187.42	1705.96
187.64	1671.14
187.86	1748.97
188.08	1748.97
188.30	1677.29
188.52	1703.91
188.75	1796.07
188.97	1806.31
189.19	1687.53
189.41	1689.57
189.63	1722.34
189.85	1703.91
190.07	1628.14
190.29	1587.18
190.51	1681.38
190.73	1648.61
190.95	1800.16
191.17	1712.10
191.39	1605.61
191.61	1722.34
191.84	1742.82
192.06	1710.05
192.28	1621.99
192.50	1890.28
192.72	1757.16
192.94	1685.48
193.16	1681.38
193.38	1738.73
193.60	1751.01
193.82	1673.19
194.04	1810.40
194.26	1691.62
194.48	1734.63
194.70	1665.00
194.92	1632.23
195.14	1779.68
195.36	1638.38
195.58	1677.29
195.80	1660.90
196.02	1662.95
196.24	1652.71
196.46	1779.68
196.69	1681.38
196.91	1843.17
197.13	1587.18
197.35	1587.18
197.57	1822.69
197.79	1806.31
198.01	1714.15
198.23	1798.12
198.45	1675.24
198.67	1669.09
198.89	1644.52
199.11	1714.15
199.33	1722.34
199.55	1576.94
199.77	1730.53
199.99	1777.64
200.21	1771.49
200.43	1675.24
200.65	1675.24
200.87	1589.22
201.09	1609.70
201.31	1703.91
201.53	1738.73
201.75	1730.53
201.97	1660.90
202.19	1669.09
202.41	1748.97
202.63	1810.40
202.85	1746.92
203.07	1714.15
203.29	1669.09
203.51	1697.77
203.73	1730.53
203.95	1871.84
204.17	1730.53
204.39	1732.58
204.61	1685.48
204.83	1675.24
205.05	1720.29
205.27	1767.40
205.49	1783.78
205.71	1714.15
205.93	1648.61
206.15	1697.77
206.37	1648.61
206.59	1697.77
206.81	1671.14
207.03	1685.48
207.25	1591.27
207.47	1759.21
207.69	1732.58
207.91	1757.16
208.13	1775.59
208.34	1755.11
208.56	1667.05
208.78	1757.16
209.00	1767.40
209.22	1675.24
209.44	1730.53
209.66	1673.19
209.88	1693.67
210.10	1738.73
210.32	1687.53
210.54	1767.40
210.76	1708.01
210.98	1787.88
211.20	1587.18
211.42	1667.05
211.64	1773.54
211.86	1730.53
212.08	1808.36
212.30	1794.02
212.52	1701.86
212.74	1767.40
212.96	1687.53
213.17	1728.49
213.39	1710.05
213.61	1812.45
213.83	1820.64
214.05	1697.77
214.27	1810.40
214.49	1691.62
214.71	1662.95
214.93	1761.25
215.15	1708.01
215.37	1695.72
215.59	1644.52
215.81	1728.49
216.03	1738.73
216.24	1675.24
216.46	1755.11
216.68	1667.05
216.90	1708.01
217.12	1859.56
217.34	1654.76
217.56	1710.05
217.78	1810.40
218.00	1720.29
218.22	1740.77
218.44	1740.77
218.66	1716.20
218.87	1849.32
219.09	1769.44
219.31	1802.21
219.53	1804.26
219.75	1679.33
219.97	1714.15
220.19	1714.15
220.41	1738.73
220.63	1759.21
220.85	1761.25
221.06	1712.10
221.28	1755.11
221.50	1730.53
221.72	1730.53
221.94	1773.54
222.16	1642.47
222.38	1761.25
222.60	1730.53
222.82	1734.63
223.03	1763.30
223.25	1665.00
223.47	1734.63
223.69	1869.80
223.91	1751.01
224.13	1746.92
224.35	1640.42
224.57	1759.21
224.78	1763.30
225.00	1662.95
225.22	1673.19
225.44	1642.47
225.66	1771.49
225.88	1736.68
226.10	1763.30
226.32	1710.05
226.53	1773.54
226.75	1724.39
226.97	1767.40
227.19	1691.62
227.41	1640.42
227.63	1679.33
227.85	1589.22
228.06	1665.00
228.28	1773.54
228.50	1771.49
228.72	1665.00
228.94	1619.94
229.16	1644.52
229.37	1644.52
229.59	1634.28
229.81	1832.93
230.03	1662.95
230.25	1705.96
230.47	1611.75
230.69	1644.52
230.90	1691.62
231.12	1624.04
231.34	1736.68
231.56	1765.35
231.78	1669.09
232.00	1691.62
232.21	1681.38
232.43	1665.00
232.65	1613.80
232.87	1720.29
233.09	1689.57
233.30	1642.47
233.52	1763.30
233.74	1726.44
233.96	1687.53
234.18	1718.25
234.40	1679.33
234.61	1757.16
234.83	1667.05
235.05	1675.24
235.27	1937.38
235.49	1806.31
235.70	1765.35
235.92	1781.73
236.14	1769.44
236.36	1837.03
236.58	1636.33
236.79	1732.58
237.01	1675.24
237.23	1697.77
237.45	1736.68
237.67	1734.63
237.88	1701.86
238.10	1794.02
238.32	1621.99
238.54	1681.38
238.76	1720.29
238.97	1667.05
239.19	1669.09
239.41	1812.45
239.63	1783.78
239.85	1642.47
240.06	1683.43
240.28	1740.77
240.50	1738.73
240.72	1740.77
240.93	1718.25
241.15	1787.88
241.37	1755.11
241.59	1839.08
241.81	1646.57
242.02	1634.28
242.24	1775.59
242.46	1796.07
242.68	1640.42
242.89	1742.82
243.11	1802.21
243.33	1767.40
243.55	1648.61
243.76	1728.49
243.98	1632.23
244.20	1660.90
244.42	1771.49
244.64	1710.05
244.85	1646.57
245.07	1613.80
245.29	1738.73
245.51	1757.16
245.72	1652.71
245.94	1757.16
246.16	1667.05
246.38	1773.54
246.59	1671.14
246.81	1634.28
247.03	1740.77
247.24	1628.14
247.46	1669.09
247.68	1685.48
247.90	1703.91
248.11	1624.04
248.33	1710.05
248.55	1681.38
248.77	1654.76
248.98	1677.29
249.20	1761.25
249.42	1722.34
249.64	1728.49
249.85	1699.81
250.07	1730.53
250.29	1763.30
250.50	1738.73
250.72	1658.85
250.94	1736.68
251.16	1802.21
251.37	1816.55
251.59	1677.29
251.81	1701.86
252.02	1789.92
252.24	1714.15
252.46	1771.49
252.68	1605.61
252.89	1628.14
253.11	1601.51
253.33	1765.35
253.54	1746.92
253.76	1681.38
253.98	1654.76
254.20	1687.53
254.41	1638.38
254.63	1673.19
254.85	1671.14
255.06	1740.77
255.28	1624.04
255.50	1665.00
255.71	1665.00
255.93	1628.14
256.15	1681.38
256.36	1695.72
256.58	1650.66
256.80	1712.10
257.02	1738.73
257.23	1689.57
257.45	1708.01
257.67	1763.30
257.88	1703.91
258.10	1728.49
258.32	1630.18
258.53	1708.01
258.75	1798.12
258.97	1714.15
259.18	1708.01
259.40	1718.25
259.62	1800.16
259.83	1808.36
260.05	1708.01
260.27	2000.87
260.48	1806.31
260.70	1628.14
260.92	1703.91
261.13	1697.77
261.35	1705.96
261.57	1763.30
261.78	1613.80
262.00	1695.72
262.22	1738.73
262.43	1650.66
262.65	1693.67
262.86	1689.57
263.08	1906.66
263.30	1689.57
263.51	1566.70
263.73	1619.94
263.95	1818.60
264.16	1673.19
264.38	1677.29
264.60	1751.01
264.81	1724.39
265.03	1783.78
265.25	1744.87
265.46	1646.57
265.68	1753.06
265.89	1685.48
266.11	1576.94
266.33	1769.44
266.54	1744.87
266.76	1738.73
266.98	1738.73
267.19	1779.68
267.41	1730.53
267.62	1671.14
267.84	1583.08
268.06	1714.15
268.27	1671.14
268.49	1810.40
268.70	1796.07
268.92	1660.90
269.14	1607.66
269.35	1681.38
269.57	1705.96
269.79	1689.57
270.00	1681.38
270.22	1816.55
270.43	1755.11
270.65	1597.42
270.87	1710.05
271.08	1761.25
271.30	1822.69
271.51	1740.77
271.73	1724.39
271.95	1839.08
272.16	1722.34
272.38	1744.87
272.59	1646.57
272.81	1773.54
273.02	1701.86
273.24	1724.39
273.46	1755.11
273.67	1652.71
273.89	1703.91
274.10	1615.85
274.32	1740.77
274.54	1703.91
274.75	1695.72
274.97	1632.23
275.18	1722.34
275.40	1669.09
275.61	1712.10
275.83	1746.92
276.05	1658.85
276.26	1699.81
276.48	1779.68
276.69	1652.71
276.91	1732.58
277.12	1837.03
277.34	1675.24
277.55	1767.40
277.77	1716.20
277.99	1644.52
278.20	1705.96
278.42	1632.23
278.63	1644.52
278.85	1806.31
279.06	1595.37
279.28	1703.91
279.49	1814.50
279.71	1830.88
279.93	1673.19
280.14	1681.38
280.36	1697.77
280.57	1759.21
280.79	1751.01
281.00	1644.52
281.22	1683.43
281.43	1724.39
281.65	1630.18
281.86	1669.09
282.08	1755.11
282.29	1857.51
282.51	1751.01
282.73	1597.42
282.94	1636.33
283.16	1781.73
283.37	1767.40
283.59	1714.15
283.80	1732.58
284.02	1738.73
284.23	1703.91
284.45	1724.39
284.66	1638.38
284.88	1728.49
285.09	1808.36
285.31	1777.64
285.52	1787.88
285.74	1673.19
285.95	1720.29
286.17	1705.96
286.38	1779.68
286.60	1703.91
286.81	1597.42
287.03	1636.33
287.24	1681.38
287.46	1693.67
287.67	1708.01
287.89	1880.04
288.10	1689.57
288.32	1718.25
288.53	1781.73
288.75	1654.76
288.96	1732.58
289.18	1617.90
289.39	1753.06
289.61	1826.79
289.82	1789.92
290.04	1841.12
290.25	1724.39
290.47	1730.53
290.68	1691.62
290.90	1724.39
291.11	1595.37
291.33	1755.11
291.54	1644.52
291.76	1673.19
291.97	1654.76
292.18	1794.02
292.40	1658.85
292.61	1687.53
292.83	1775.59
293.04	1710.05
293.26	1701.86
293.47	1665.00
293.69	1632.23
293.90	1693.67
294.12	1742.82
294.33	1714.15
294.55	1619.94
294.76	1726.44
294.97	1796.07
295.19	1849.32
295.40	1757.16
295.62	1757.16
295.83	1767.40
296.05	1605.61
296.26	1753.06
296.48	1716.20
296.69	1757.16
296.90	1748.97
297.12	1722.34
297.33	1726.44
297.55	1679.33
297.76	1759.21
297.98	1751.01
298.19	1697.77
298.41	1742.82
298.62	1658.85
298.83	1746.92
299.05	1697.77
299.26	1695.72
299.48	1658.85
299.69	1718.25
299.90	1697.77
300.12	1671.14
300.33	1701.86
300.55	1683.43
300.76	1732.58
300.98	1615.85
301.19	1757.16
301.40	1638.38
301.62	1685.48
301.83	1744.87
302.05	1732.58
302.26	1697.77
302.47	1681.38
302.69	1673.19
302.90	1716.20
303.12	1662.95
303.33	1718.25
303.54	1816.55
303.76	1738.73
303.97	1748.97
304.19	1818.60
304.40	1660.90
304.61	1785.83
304.83	1865.70
305.04	1826.79
305.26	1734.63
305.47	1652.71
305.68	1724.39
305.90	1607.66
306.11	1714.15
306.33	1673.19
306.54	1589.22
306.75	1708.01
306.97	1628.14
307.18	1751.01
307.39	1710.05
307.61	1753.06
307.82	1677.29
308.04	1720.29
308.25	1701.86
308.46	1736.68
308.68	1701.86
308.89	1728.49
309.10	1785.83
309.32	1755.11
309.53	1703.91
309.74	1726.44
309.96	1667.05
310.17	1748.97
310.39	1693.67
310.60	1730.53
310.81	1685.48
311.03	1648.61
311.24	1722.34
311.45	1708.01
311.67	1832.93
311.88	1708.01
312.09	1654.76
312.31	1714.15
312.52	1720.29
312.73	1732.58
312.95	1660.90
313.16	1667.05
313.37	1746.92
313.59	1689.57
313.80	1759.21
314.01	1757.16
314.23	1740.77
314.44	1687.53
314.65	1699.81
314.87	1654.76
315.08	1716.20
315.29	1714.15
315.51	1648.61
315.72	1624.04
315.93	1759.21
316.15	1779.68
316.36	1673.19
316.57	1652.71
316.79	1769.44
317.00	1701.86
317.21	1658.85
317.43	1667.05
317.64	1812.45
317.85	1697.77
318.07	1697.77
318.28	1718.25
318.49	1886.18
318.70	2002.91
318.92	1935.33
319.13	1877.99
319.34	1902.56
319.56	1812.45
319.77	1834.98
319.98	1810.40
320.20	1847.27
320.41	1744.87
320.62	1740.77
320.83	1656.81
321.05	1908.71
321.26	1730.53
321.47	1669.09
321.69	1724.39
321.90	1630.18
322.11	1642.47
322.32	1775.59
322.54	1787.88
322.75	1740.77
322.96	1830.88
323.18	1646.57
323.39	1652.71
323.60	1701.86
323.81	1804.26
324.03	1714.15
324.24	1705.96
324.45	1736.68
324.66	1679.33
324.88	1722.34
325.09	1806.31
325.30	1708.01
325.52	1742.82
325.73	1789.92
325.94	1613.80
326.15	1636.33
326.37	1675.24
326.58	1765.35
326.79	1683.43
327.00	1621.99
327.22	1781.73
327.43	1640.42
327.64	1599.46
327.85	1794.02
328.07	1669.09
328.28	1845.22
328.49	1699.81
328.70	1634.28
328.92	1634.28
329.13	1716.20
329.34	1699.81
329.55	1779.68
329.76	1757.16
329.98	1685.48
330.19	1710.05
330.40	1763.30
330.61	1695.72
330.83	1679.33
331.04	1611.75
331.25	1654.76
331.46	1705.96
331.68	1636.33
331.89	1701.86
332.10	1599.46
332.31	1679.33
332.52	1667.05
332.74	1738.73
332.95	1648.61
333.16	1648.61
333.37	1746.92
333.58	1636.33
333.80	1681.38
334.01	1609.70
334.22	1650.66
334.43	1742.82
334.64	1771.49
334.86	1642.47
335.07	1652.71
335.28	1779.68
335.49	1601.51
335.70	1730.53
335.92	1810.40
336.13	1853.41
336.34	1748.97
336.55	1681.38
336.76	1669.09
336.98	1646.57
337.19	1648.61
337.40	1857.51
337.61	1867.75
337.82	1697.77
338.04	1808.36
338.25	1576.94
338.46	1777.64
338.67	1681.38
338.88	1714.15
339.09	1677.29
339.31	1701.86
339.52	1624.04
339.73	1634.28
339.94	1699.81
340.15	1769.44
340.36	1669.09
340.58	1636.33
340.79	1634.28
341.00	1730.53
341.21	1675.24
341.42	1773.54
341.63	1685.48
341.85	1751.01
342.06	1714.15
342.27	1636.33
342.48	1767.40
342.69	1638.38
342.90	1746.92
343.12	1701.86
343.33	1677.29
343.54	1828.84
343.75	1837.03
343.96	1753.06
344.17	1628.14
344.38	1642.47
344.60	1665.00
344.81	1634.28
345.02	1697.77
345.23	1777.64
345.44	1843.17
345.65	1818.60
345.86	1787.88
346.07	1734.63
346.29	1662.95
346.50	1714.15
346.71	1746.92
346.92	1687.53
347.13	1826.79
347.34	1675.24
347.55	1691.62
347.76	1703.91
347.98	1632.23
348.19	1744.87
348.40	1771.49
348.61	1693.67
348.82	1810.40
349.03	1665.00
349.24	1718.25
349.45	1746.92
349.66	1648.61
349.88	1687.53
350.09	1722.34
350.30	1755.11
350.51	1794.02
350.72	1693.67
350.93	1681.38
351.14	1677.29
351.35	1722.34
351.56	1736.68
351.77	1771.49
351.99	1734.63
352.20	1785.83
352.41	1783.78
352.62	1587.18
352.83	1701.86
353.04	1726.44
353.25	1673.19
353.46	1824.74
353.67	1787.88
353.88	1638.38
354.09	1716.20
354.30	1693.67
354.52	1812.45
354.73	1718.25
354.94	1681.38
355.15	1644.52
355.36	1892.32
355.57	1724.39
355.78	1691.62
355.99	1726.44
356.20	1722.34
356.41	1826.79
356.62	1697.77
356.83	1761.25
357.04	1759.21
357.25	1570.79
357.46	1751.01
357.68	1683.43
357.89	1738.73
358.10	1763.30
358.31	1736.68
358.52	1703.91
358.73	1652.71
358.94	1656.81
359.15	1603.56
359.36	1730.53
359.57	1705.96
359.78	1732.58
359.99	1755.11
360.20	1660.90
360.41	1658.85
360.62	1710.05
360.83	1730.53
361.04	1769.44
361.25	1804.26
361.46	1808.36
361.67	1763.30
361.88	1732.58
362.09	1732.58
362.30	1714.15
362.51	1673.19
362.72	1751.01
362.93	1771.49
363.14	1693.67
363.35	1724.39
363.56	1665.00
363.78	1765.35
363.99	1775.59
364.20	1705.96
364.41	1798.12
364.62	1773.54
364.83	1703.91
365.04	1693.67
365.25	1705.96
365.46	1912.80
365.67	1765.35
365.88	1658.85
366.09	1675.24
366.30	1685.48
366.51	1714.15
366.72	1677.29
366.93	1740.77
367.14	1759.21
367.35	1818.60
367.56	1757.16
367.77	1753.06
367.98	1642.47
368.18	1755.11
368.39	1714.15
368.60	1652.71
368.81	1767.40
369.02	1751.01
369.23	1646.57
369.44	1632.23
369.65	1669.09
369.86	1722.34
370.07	1734.63
370.28	1671.14
370.49	1710.05
370.70	1740.77
370.91	1628.14
371.12	1628.14
371.33	1794.02
371.54	1669.09
371.75	1744.87
371.96	1558.50
372.17	1697.77
372.38	1697.77
372.59	1742.82
372.80	1648.61
373.01	1730.53
373.22	1712.10
373.43	1728.49
373.64	1556.46
373.85	1781.73
374.06	1880.04
374.26	1681.38
374.47	1712.10
374.68	1818.60
374.89	1703.91
375.10	1794.02
375.31	1769.44
375.52	1755.11
375.73	1722.34
375.94	1687.53
376.15	1779.68
376.36	1607.66
376.57	1638.38
376.78	1621.99
376.99	1656.81
377.20	1748.97
377.40	1720.29
377.61	1802.21
377.82	1619.94
378.03	1796.07
378.24	1751.01
378.45	1720.29
378.66	1830.88
378.87	1603.56
379.08	1632.23
379.29	1642.47
379.50	1867.75
379.71	1689.57
379.91	1796.07
380.12	1794.02
380.33	1740.77
380.54	1701.86
380.75	1642.47
380.96	1671.14
381.17	1751.01
381.38	1710.05
381.59	1800.16
381.80	1728.49
382.00	1845.22
382.21	1767.40
382.42	1914.85
382.63	1955.81
382.84	1736.68
383.05	1794.02
383.26	1783.78
383.47	1767.40
383.68	1806.31
383.88	1769.44
384.09	1740.77
384.30	1830.88
384.51	1716.20
384.72	1656.81
384.93	1595.37
385.14	1701.86
385.35	1716.20
385.55	1599.46
385.76	1769.44
385.97	1798.12
386.18	1681.38
386.39	1669.09
386.60	1697.77
386.81	1697.77
387.02	1640.42
387.22	1638.38
387.43	1753.06
387.64	1849.32
387.85	1845.22
388.06	2185.18
388.27	4714.42
388.48	9088.89
388.68	11536.21
388.89	13588.27
389.10	13989.67
389.31	12160.84
389.52	9777.00
389.73	8554.37
389.93	7933.83
390.14	7174.03
390.35	6678.43
390.56	6023.08
390.77	4984.76
390.98	3950.53
391.18	2992.08
391.39	2478.04
391.60	1918.95
391.81	1898.47
392.02	1753.06
392.23	1927.14
392.43	1742.82
392.64	1802.21
392.85	1763.30
393.06	1798.12
393.27	1720.29
393.47	1648.61
393.68	1748.97
393.89	1728.49
394.10	1802.21
394.31	1703.91
394.52	1720.29
394.72	1683.43
394.93	1812.45
395.14	1624.04
395.35	1779.68
395.56	1720.29
395.76	1697.77
395.97	1867.75
396.18	1855.46
396.39	1857.51
396.60	2164.70
396.80	1947.62
397.01	1796.07
397.22	1859.56
397.43	1880.04
397.64	1755.11
397.84	1828.84
398.05	1902.56
398.26	1726.44
398.47	1791.97
398.67	1746.92
398.88	1751.01
399.09	1812.45
399.30	1677.29
399.51	1701.86
399.71	1677.29
399.92	1730.53
400.13	1771.49
400.34	1748.97
400.54	1746.92
400.75	1857.51
400.96	1763.30
401.17	1818.60
401.37	1748.97
401.58	1787.88
401.79	1775.59
402.00	1918.95
402.21	2121.70
402.41	2097.12
402.62	2148.32
402.83	2181.09
403.04	2045.92
403.24	2142.18
403.45	1959.91
403.66	1933.28
403.87	1966.05
404.07	1927.14
404.28	1968.10
404.49	1865.70
404.70	1808.36
404.90	1728.49
405.11	1769.44
405.32	1720.29
405.52	1673.19
405.73	1671.14
405.94	1689.57
406.15	1701.86
406.35	1701.86
406.56	1714.15
406.77	1712.10
406.98	1779.68
407.18	1662.95
407.39	1730.53
407.60	1734.63
407.80	1722.34
408.01	1710.05
408.22	1773.54
408.43	1669.09
408.63	1787.88
408.84	1748.97
409.05	1722.34
409.25	1615.85
409.46	1642.47
409.67	1695.72
409.88	1742.82
410.08	1685.48
410.29	1679.33
410.50	1773.54
410.70	1708.01
410.91	1613.80
411.12	1779.68
411.32	1736.68
411.53	1640.42
411.74	1812.45
411.95	1761.25
412.15	1751.01
412.36	1843.17
412.57	1779.68
412.77	1849.32
412.98	1742.82
413.19	1699.81
413.39	1736.68
413.60	1744.87
413.81	1818.60
414.01	1697.77
414.22	1699.81
414.43	1869.80
414.63	1746.92
414.84	1769.44
415.05	1689.57
415.25	1681.38
415.46	1755.11
415.67	1593.32
415.87	1697.77
416.08	1691.62
416.29	1730.53
416.49	1787.88
416.70	1693.67
416.91	1781.73
417.11	1679.33
417.32	1728.49
417.53	1753.06
417.73	1724.39
417.94	1708.01
418.15	1712.10
418.35	1677.29
418.56	1753.06
418.77	1839.08
418.97	1718.25
419.18	1669.09
419.38	1607.66
419.59	1624.04
419.80	1851.36
420.00	1669.09
420.21	1736.68
420.42	1736.68
420.62	1751.01
420.83	1656.81
421.04	1740.77
421.24	1681.38
421.45	1761.25
421.65	1697.77
421.86	1802.21
422.07	1685.48
422.27	1767.40
422.48	1718.25
422.69	1658.85
422.89	1697.77
423.10	1660.90
423.30	1660.90
423.51	1748.97
423.72	1734.63
423.92	1773.54
424.13	1603.56
424.33	1697.77
424.54	1746.92
424.75	1722.34
424.95	1791.97
425.16	1744.87
425.36	1689.57
425.57	1820.64
425.78	1642.47
425.98	1798.12
426.19	1624.04
426.39	1724.39
426.60	1718.25
426.81	1806.31
427.01	1767.40
427.22	1724.39
427.42	1644.52
427.63	1703.91
427.83	1767.40
428.04	1828.84
428.25	1837.03
428.45	1769.44
428.66	1720.29
428.86	1681.38
429.07	1724.39
429.28	1667.05
429.48	1794.02
429.69	1617.90
429.89	1720.29
430.10	1705.96
430.30	1724.39
430.51	1884.13
430.71	1576.94
430.92	1693.67
431.13	1669.09
431.33	1804.26
431.54	1687.53
431.74	1757.16
431.95	1796.07
432.15	1654.76
432.36	1708.01
432.56	1755.11
432.77	1875.94
432.98	1832.93
433.18	1654.76
433.39	1771.49
433.59	1802.21
433.80	1773.54
434.00	1873.89
434.21	1765.35
434.41	1677.29
434.62	1857.51
434.82	1665.00
435.03	1640.42
435.23	1759.21
435.44	1587.18
435.64	1783.78
435.85	1748.97
436.06	1701.86
436.26	1791.97
436.47	1720.29
436.67	1621.99
436.88	1738.73
437.08	1753.06
437.29	1796.07
437.49	1714.15
437.70	1804.26
437.90	1763.30
438.11	1785.83
438.31	1884.13
438.52	1898.47
438.72	1927.14
438.93	1855.46
439.13	1882.08
439.34	1908.71
439.54	1691.62
439.75	1828.84
439.95	1808.36
440.16	1751.01
440.36	1767.40
440.57	1767.40
440.77	1681.38
440.98	1687.53
441.18	1804.26
441.39	1703.91
441.59	1660.90
441.80	1791.97
442.00	1755.11
442.21	1744.87
442.41	1714.15
442.62	1722.34
442.82	1691.62
443.02	1773.54
443.23	1751.01
443.43	1693.67
443.64	1884.13
443.84	1765.35
444.05	1804.26
444.25	1730.53
444.46	1660.90
444.66	1761.25
444.87	1791.97
445.07	1621.99
445.28	1705.96
445.48	1771.49
445.69	1765.35
445.89	1912.80
446.09	1701.86
446.30	2025.44
446.50	2598.87
446.71	4237.25
446.91	4997.04
447.12	5719.98
447.32	5969.83
447.53	5318.57
447.73	4427.71
447.93	3856.33
448.14	3665.86
448.34	3553.23
448.55	3125.20
448.75	3098.58
448.96	2932.69
449.16	2594.78
449.36	2508.76
449.57	2125.79
449.77	2000.87
449.98	1800.16
450.18	1812.45
450.39	1892.32
450.59	1732.58
450.79	1746.92
451.00	1699.81
451.20	1791.97
451.41	1783.78
451.61	1759.21
451.81	1775.59
452.02	1687.53
452.22	1714.15
452.43	1708.01
452.63	1693.67
