SpectraSuite Data File
++++++++++++++++++++++++++++++++++++
Date: Wed May 04 18:44:40 CEST 2016
User: root
Dark Spectrum Present: No
Reference Spectrum Present: No
Number of Sampled Component Spectra: 1
Spectrometers: USB4C02835
Integration Time (usec): 100000 (USB4C02835)
Spectra Averaged: 1 (USB4C02835)
Boxcar Smoothing: 0 (USB4C02835)
Correct for Electrical Dark: No (USB4C02835)
Strobe/Lamp Enabled: No (USB4C02835)
Correct for Detector Non-linearity: No (USB4C02835)
Correct for Stray Light: No (USB4C02835)
Number of Pixels in Processed Spectrum: 3648
>>>>>Begin Processed Spectral Data<<<<<
177.47	1429.48
177.69	1429.48
177.91	1429.48
178.13	1478.63
178.36	1513.45
178.58	1806.31
178.80	1761.25
179.02	1652.71
179.24	1640.42
179.46	1683.43
179.68	1800.16
179.90	1685.48
180.13	1734.63
180.35	1599.46
180.57	1722.34
180.79	1755.11
181.01	1697.77
181.23	1718.25
181.45	1730.53
181.67	1787.88
181.90	1714.15
182.12	1660.90
182.34	1636.33
182.56	1703.91
182.78	1705.96
183.00	1767.40
183.22	1705.96
183.44	1662.95
183.66	1853.41
183.89	1787.88
184.11	1681.38
184.33	1777.64
184.55	1806.31
184.77	1701.86
184.99	1767.40
185.21	1667.05
185.43	1832.93
185.65	1619.94
185.87	1665.00
186.10	1734.63
186.32	1804.26
186.54	1781.73
186.76	1755.11
186.98	1720.29
187.20	1710.05
187.42	1671.14
187.64	1701.86
187.86	1751.01
188.08	1763.30
188.30	1677.29
188.52	1705.96
188.75	1853.41
188.97	1806.31
189.19	1673.19
189.41	1697.77
189.63	1685.48
189.85	1753.06
190.07	1609.70
190.29	1591.27
190.51	1716.20
190.73	1609.70
190.95	1751.01
191.17	1697.77
191.39	1611.75
191.61	1642.47
191.84	1693.67
192.06	1757.16
192.28	1679.33
192.50	1845.22
192.72	1703.91
192.94	1726.44
193.16	1798.12
193.38	1699.81
193.60	1570.79
193.82	1673.19
194.04	1781.73
194.26	1736.68
194.48	1695.72
194.70	1705.96
194.92	1685.48
195.14	1742.82
195.36	1681.38
195.58	1677.29
195.80	1722.34
196.02	1726.44
196.24	1779.68
196.46	1791.97
196.69	1652.71
196.91	1832.93
197.13	1628.14
197.35	1605.61
197.57	1773.54
197.79	1683.43
198.01	1708.01
198.23	1691.62
198.45	1771.49
198.67	1638.38
198.89	1652.71
199.11	1689.57
199.33	1632.23
199.55	1585.13
199.77	1751.01
199.99	1826.79
200.21	1624.04
200.43	1755.11
200.65	1693.67
200.87	1644.52
201.09	1675.24
201.31	1720.29
201.53	1724.39
201.75	1736.68
201.97	1650.66
202.19	1744.87
202.41	1689.57
202.63	1834.98
202.85	1769.44
203.07	1671.14
203.29	1710.05
203.51	1650.66
203.73	1669.09
203.95	1861.60
204.17	1746.92
204.39	1714.15
204.61	1662.95
204.83	1746.92
205.05	1757.16
205.27	1705.96
205.49	1814.50
205.71	1621.99
205.93	1662.95
206.15	1667.05
206.37	1697.77
206.59	1671.14
206.81	1615.85
207.03	1648.61
207.25	1609.70
207.47	1751.01
207.69	1708.01
207.91	1824.74
208.13	1728.49
208.34	1708.01
208.56	1636.33
208.78	1763.30
209.00	1652.71
209.22	1716.20
209.44	1640.42
209.66	1722.34
209.88	1652.71
210.10	1652.71
210.32	1703.91
210.54	1787.88
210.76	1660.90
210.98	1767.40
211.20	1587.18
211.42	1693.67
211.64	1845.22
211.86	1812.45
212.08	1794.02
212.30	1730.53
212.52	1714.15
212.74	1785.83
212.96	1642.47
213.17	1738.73
213.39	1695.72
213.61	1834.98
213.83	1777.64
214.05	1730.53
214.27	1775.59
214.49	1673.19
214.71	1701.86
214.93	1783.78
215.15	1691.62
215.37	1767.40
215.59	1660.90
215.81	1828.84
216.03	1804.26
216.24	1744.87
216.46	1722.34
216.68	1746.92
216.90	1777.64
217.12	1804.26
217.34	1671.14
217.56	1693.67
217.78	1810.40
218.00	1724.39
218.22	1746.92
218.44	1683.43
218.66	1640.42
218.87	1734.63
219.09	1816.55
219.31	1720.29
219.53	1689.57
219.75	1677.29
219.97	1677.29
220.19	1734.63
220.41	1746.92
220.63	1738.73
220.85	1773.54
221.06	1679.33
221.28	1777.64
221.50	1773.54
221.72	1781.73
221.94	1730.53
222.16	1660.90
222.38	1769.44
222.60	1767.40
222.82	1677.29
223.03	1785.83
223.25	1609.70
223.47	1757.16
223.69	1865.70
223.91	1718.25
224.13	1699.81
224.35	1644.52
224.57	1834.98
224.78	1734.63
225.00	1619.94
225.22	1650.66
225.44	1675.24
225.66	1685.48
225.88	1679.33
226.10	1751.01
226.32	1755.11
226.53	1785.83
226.75	1685.48
226.97	1699.81
227.19	1679.33
227.41	1662.95
227.63	1677.29
227.85	1638.38
228.06	1798.12
228.28	1775.59
228.50	1775.59
228.72	1669.09
228.94	1632.23
229.16	1593.32
229.37	1656.81
229.59	1662.95
229.81	1773.54
230.03	1701.86
230.25	1591.27
230.47	1667.05
230.69	1611.75
230.90	1738.73
231.12	1619.94
231.34	1697.77
231.56	1728.49
231.78	1677.29
232.00	1695.72
232.21	1712.10
232.43	1695.72
232.65	1556.46
232.87	1732.58
233.09	1675.24
233.30	1718.25
233.52	1775.59
233.74	1611.75
233.96	1624.04
234.18	1681.38
234.40	1712.10
234.61	1804.26
234.83	1640.42
235.05	1669.09
235.27	1873.89
235.49	1738.73
235.70	1705.96
235.92	1789.92
236.14	1697.77
236.36	1826.79
236.58	1650.66
236.79	1755.11
237.01	1695.72
237.23	1744.87
237.45	1814.50
237.67	1753.06
237.88	1712.10
238.10	1730.53
238.32	1714.15
238.54	1718.25
238.76	1708.01
238.97	1728.49
239.19	1603.56
239.41	1714.15
239.63	1785.83
239.85	1689.57
240.06	1738.73
240.28	1667.05
240.50	1818.60
240.72	1718.25
240.93	1630.18
241.15	1804.26
241.37	1722.34
241.59	1808.36
241.81	1681.38
242.02	1695.72
242.24	1789.92
242.46	1753.06
242.68	1701.86
242.89	1697.77
243.11	1783.78
243.33	1703.91
243.55	1728.49
243.76	1710.05
243.98	1781.73
244.20	1759.21
244.42	1738.73
244.64	1648.61
244.85	1654.76
245.07	1662.95
245.29	1710.05
245.51	1710.05
245.72	1699.81
245.94	1738.73
246.16	1783.78
246.38	1757.16
246.59	1583.08
246.81	1724.39
247.03	1662.95
247.24	1714.15
247.46	1671.14
247.68	1722.34
247.90	1722.34
248.11	1732.58
248.33	1834.98
248.55	1720.29
248.77	1714.15
248.98	1800.16
249.20	1808.36
249.42	1701.86
249.64	1722.34
249.85	1638.38
250.07	1601.51
250.29	1751.01
250.50	1763.30
250.72	1679.33
250.94	1761.25
251.16	1822.69
251.37	1718.25
251.59	1826.79
251.81	1724.39
252.02	1855.46
252.24	1714.15
252.46	1791.97
252.68	1726.44
252.89	1730.53
253.11	1677.29
253.33	1820.64
253.54	1814.50
253.76	1679.33
253.98	1732.58
254.20	1634.28
254.41	1619.94
254.63	1726.44
254.85	1652.71
255.06	1681.38
255.28	1746.92
255.50	1640.42
255.71	1683.43
255.93	1658.85
256.15	1671.14
256.36	1703.91
256.58	1687.53
256.80	1691.62
257.02	1751.01
257.23	1708.01
257.45	1724.39
257.67	1728.49
257.88	1722.34
258.10	1697.77
258.32	1697.77
258.53	1671.14
258.75	1736.68
258.97	1626.09
259.18	1755.11
259.40	1757.16
259.62	1802.21
259.83	1722.34
260.05	1765.35
260.27	2033.63
260.48	1742.82
260.70	1626.09
260.92	1683.43
261.13	1718.25
261.35	1665.00
261.57	1689.57
261.78	1558.50
262.00	1634.28
262.22	1693.67
262.43	1710.05
262.65	1726.44
262.86	1724.39
263.08	1820.64
263.30	1683.43
263.51	1617.90
263.73	1732.58
263.95	1751.01
264.16	1667.05
264.38	1638.38
264.60	1759.21
264.81	1697.77
265.03	1761.25
265.25	1734.63
265.46	1697.77
265.68	1818.60
265.89	1771.49
266.11	1576.94
266.33	1734.63
266.54	1763.30
266.76	1765.35
266.98	1726.44
267.19	1763.30
267.41	1787.88
267.62	1734.63
267.84	1626.09
268.06	1791.97
268.27	1724.39
268.49	1777.64
268.70	1734.63
268.92	1787.88
269.14	1705.96
269.35	1714.15
269.57	1705.96
269.79	1771.49
270.00	1660.90
270.22	1820.64
270.43	1585.13
270.65	1626.09
270.87	1636.33
271.08	1785.83
271.30	1718.25
271.51	1662.95
271.73	1751.01
271.95	1767.40
272.16	1689.57
272.38	1722.34
272.59	1691.62
272.81	1724.39
273.02	1679.33
273.24	1740.77
273.46	1710.05
273.67	1703.91
273.89	1683.43
274.10	1705.96
274.32	1775.59
274.54	1703.91
274.75	1751.01
274.97	1669.09
275.18	1775.59
275.40	1791.97
275.61	1742.82
275.83	1636.33
276.05	1671.14
276.26	1656.81
276.48	1683.43
276.69	1687.53
276.91	1609.70
277.12	1734.63
277.34	1689.57
277.55	1871.84
277.77	1751.01
277.99	1691.62
278.20	1638.38
278.42	1638.38
278.63	1669.09
278.85	1705.96
279.06	1665.00
279.28	1734.63
279.49	1802.21
279.71	1720.29
279.93	1665.00
280.14	1650.66
280.36	1638.38
280.57	1701.86
280.79	1730.53
281.00	1636.33
281.22	1665.00
281.43	1767.40
281.65	1542.12
281.86	1628.14
282.08	1751.01
282.29	1820.64
282.51	1724.39
282.73	1632.23
282.94	1665.00
283.16	1685.48
283.37	1822.69
283.59	1726.44
283.80	1722.34
284.02	1681.38
284.23	1685.48
284.45	1712.10
284.66	1581.03
284.88	1705.96
285.09	1710.05
285.31	1687.53
285.52	1785.83
285.74	1632.23
285.95	1738.73
286.17	1632.23
286.38	1734.63
286.60	1681.38
286.81	1619.94
287.03	1720.29
287.24	1689.57
287.46	1742.82
287.67	1669.09
287.89	1877.99
288.10	1650.66
288.32	1677.29
288.53	1771.49
288.75	1660.90
288.96	1769.44
289.18	1665.00
289.39	1695.72
289.61	1687.53
289.82	1918.95
290.04	1873.89
290.25	1660.90
290.47	1748.97
290.68	1648.61
290.90	1822.69
291.11	1640.42
291.33	1705.96
291.54	1640.42
291.76	1679.33
291.97	1787.88
292.18	1673.19
292.40	1669.09
292.61	1722.34
292.83	1841.12
293.04	1683.43
293.26	1734.63
293.47	1685.48
293.69	1650.66
293.90	1669.09
294.12	1744.87
294.33	1708.01
294.55	1695.72
294.76	1755.11
294.97	1757.16
295.19	1877.99
295.40	1693.67
295.62	1691.62
295.83	1744.87
296.05	1636.33
296.26	1791.97
296.48	1665.00
296.69	1724.39
296.90	1646.57
297.12	1738.73
297.33	1738.73
297.55	1669.09
297.76	1761.25
297.98	1794.02
298.19	1757.16
298.41	1675.24
298.62	1617.90
298.83	1800.16
299.05	1652.71
299.26	1712.10
299.48	1615.85
299.69	1777.64
299.90	1720.29
300.12	1724.39
300.33	1665.00
300.55	1722.34
300.76	1771.49
300.98	1652.71
301.19	1798.12
301.40	1648.61
301.62	1656.81
301.83	1669.09
302.05	1699.81
302.26	1683.43
302.47	1716.20
302.69	1611.75
302.90	1656.81
303.12	1662.95
303.33	1834.98
303.54	1763.30
303.76	1665.00
303.97	1665.00
304.19	1763.30
304.40	1581.03
304.61	1736.68
304.83	1751.01
305.04	1724.39
305.26	1734.63
305.47	1699.81
305.68	1712.10
305.90	1656.81
306.11	1732.58
306.33	1652.71
306.54	1693.67
306.75	1642.47
306.97	1574.89
307.18	1628.14
307.39	1601.51
307.61	1763.30
307.82	1718.25
308.04	1787.88
308.25	1669.09
308.46	1755.11
308.68	1742.82
308.89	1716.20
309.10	1753.06
309.32	1669.09
309.53	1675.24
309.74	1718.25
309.96	1691.62
310.17	1791.97
310.39	1712.10
310.60	1667.05
310.81	1699.81
311.03	1685.48
311.24	1783.78
311.45	1738.73
311.67	1832.93
311.88	1689.57
312.09	1730.53
312.31	1613.80
312.52	1640.42
312.73	1681.38
312.95	1669.09
313.16	1708.01
313.37	1695.72
313.59	1775.59
313.80	1771.49
314.01	1802.21
314.23	1644.52
314.44	1710.05
314.65	1636.33
314.87	1591.27
315.08	1644.52
315.29	1665.00
315.51	1636.33
315.72	1652.71
315.93	1820.64
316.15	1771.49
316.36	1662.95
316.57	1755.11
316.79	1685.48
317.00	1652.71
317.21	1751.01
317.43	1617.90
317.64	1667.05
317.85	1689.57
318.07	1667.05
318.28	1787.88
318.49	1877.99
318.70	2025.44
318.92	1816.55
319.13	1863.65
319.34	1912.80
319.56	1791.97
319.77	1753.06
319.98	1812.45
320.20	1873.89
320.41	1744.87
320.62	1798.12
320.83	1767.40
321.05	1912.80
321.26	1695.72
321.47	1671.14
321.69	1753.06
321.90	1605.61
322.11	1714.15
322.32	1736.68
322.54	1820.64
322.75	1726.44
322.96	1880.04
323.18	1665.00
323.39	1609.70
323.60	1624.04
323.81	1742.82
324.03	1648.61
324.24	1656.81
324.45	1683.43
324.66	1662.95
324.88	1761.25
325.09	1738.73
325.30	1720.29
325.52	1740.77
325.73	1742.82
325.94	1746.92
326.15	1603.56
326.37	1658.85
326.58	1738.73
326.79	1742.82
327.00	1558.50
327.22	1726.44
327.43	1654.76
327.64	1658.85
327.85	1742.82
328.07	1736.68
328.28	1798.12
328.49	1667.05
328.70	1761.25
328.92	1734.63
329.13	1697.77
329.34	1693.67
329.55	1816.55
329.76	1720.29
329.98	1681.38
330.19	1771.49
330.40	1746.92
330.61	1660.90
330.83	1730.53
331.04	1681.38
331.25	1701.86
331.46	1679.33
331.68	1613.80
331.89	1800.16
332.10	1732.58
332.31	1691.62
332.52	1697.77
332.74	1763.30
332.95	1714.15
333.16	1697.77
333.37	1732.58
333.58	1624.04
333.80	1724.39
334.01	1648.61
334.22	1708.01
334.43	1740.77
334.64	1695.72
334.86	1683.43
335.07	1601.51
335.28	1779.68
335.49	1636.33
335.70	1751.01
335.92	1808.36
336.13	1822.69
336.34	1832.93
336.55	1720.29
336.76	1728.49
336.98	1589.22
337.19	1611.75
337.40	1781.73
337.61	1847.27
337.82	1689.57
338.04	1783.78
338.25	1654.76
338.46	1699.81
338.67	1636.33
338.88	1677.29
339.09	1685.48
339.31	1607.66
339.52	1656.81
339.73	1667.05
339.94	1751.01
340.15	1812.45
340.36	1687.53
340.58	1634.28
340.79	1689.57
341.00	1779.68
341.21	1638.38
341.42	1759.21
341.63	1658.85
341.85	1738.73
342.06	1681.38
342.27	1658.85
342.48	1724.39
342.69	1685.48
342.90	1726.44
343.12	1791.97
343.33	1665.00
343.54	1677.29
343.75	1734.63
343.96	1621.99
344.17	1691.62
344.38	1683.43
344.60	1677.29
344.81	1708.01
345.02	1681.38
345.23	1703.91
345.44	1781.73
345.65	1777.64
345.86	1744.87
346.07	1685.48
346.29	1656.81
346.50	1769.44
346.71	1720.29
346.92	1775.59
347.13	1830.88
347.34	1744.87
347.55	1740.77
347.76	1697.77
347.98	1689.57
348.19	1710.05
348.40	1755.11
348.61	1669.09
348.82	1740.77
349.03	1681.38
349.24	1648.61
349.45	1783.78
349.66	1554.41
349.88	1730.53
350.09	1685.48
350.30	1775.59
350.51	1765.35
350.72	1656.81
350.93	1716.20
351.14	1675.24
351.35	1755.11
351.56	1722.34
351.77	1705.96
351.99	1705.96
352.20	1681.38
352.41	1763.30
352.62	1570.79
352.83	1677.29
353.04	1636.33
353.25	1738.73
353.46	1812.45
353.67	1769.44
353.88	1636.33
354.09	1671.14
354.30	1746.92
354.52	1767.40
354.73	1708.01
354.94	1738.73
355.15	1771.49
355.36	1843.17
355.57	1675.24
355.78	1816.55
355.99	1673.19
356.20	1732.58
356.41	1812.45
356.62	1724.39
356.83	1726.44
357.04	1777.64
357.25	1654.76
357.46	1685.48
357.68	1683.43
357.89	1746.92
358.10	1689.57
358.31	1714.15
358.52	1667.05
358.73	1689.57
358.94	1611.75
359.15	1759.21
359.36	1779.68
359.57	1726.44
359.78	1665.00
359.99	1781.73
360.20	1644.52
360.41	1695.72
360.62	1730.53
360.83	1708.01
361.04	1742.82
361.25	1693.67
361.46	1781.73
361.67	1705.96
361.88	1787.88
362.09	1712.10
362.30	1753.06
362.51	1703.91
362.72	1746.92
362.93	1714.15
363.14	1732.58
363.35	1773.54
363.56	1628.14
363.78	1800.16
363.99	1742.82
364.20	1570.79
364.41	1751.01
364.62	1818.60
364.83	1755.11
365.04	1675.24
365.25	1683.43
365.46	1806.31
365.67	1720.29
365.88	1779.68
366.09	1650.66
366.30	1695.72
366.51	1728.49
366.72	1669.09
366.93	1689.57
367.14	1701.86
367.35	1828.84
367.56	1730.53
367.77	1816.55
367.98	1621.99
368.18	1736.68
368.39	1677.29
368.60	1675.24
368.81	1769.44
369.02	1716.20
369.23	1746.92
369.44	1648.61
369.65	1685.48
369.86	1734.63
370.07	1804.26
370.28	1665.00
370.49	1789.92
370.70	1679.33
370.91	1636.33
371.12	1648.61
371.33	1818.60
371.54	1783.78
371.75	1765.35
371.96	1650.66
372.17	1724.39
372.38	1738.73
372.59	1736.68
372.80	1769.44
373.01	1761.25
373.22	1724.39
373.43	1712.10
373.64	1617.90
373.85	1724.39
374.06	1755.11
374.26	1757.16
374.47	1744.87
374.68	1816.55
374.89	1757.16
375.10	1691.62
375.31	1765.35
375.52	1716.20
375.73	1732.58
375.94	1644.52
376.15	1767.40
376.36	1636.33
376.57	1599.46
376.78	1767.40
376.99	1640.42
377.20	1781.73
377.40	1710.05
377.61	1794.02
377.82	1628.14
378.03	1732.58
378.24	1759.21
378.45	1648.61
378.66	1730.53
378.87	1640.42
379.08	1589.22
379.29	1693.67
379.50	1767.40
379.71	1720.29
379.91	1771.49
380.12	1714.15
380.33	1716.20
380.54	1734.63
380.75	1732.58
380.96	1687.53
381.17	1826.79
381.38	1667.05
381.59	1738.73
381.80	1697.77
382.00	1918.95
382.21	1834.98
382.42	1755.11
382.63	1939.43
382.84	1777.64
383.05	1757.16
383.26	1873.89
383.47	1804.26
383.68	1806.31
383.88	1771.49
384.09	1710.05
384.30	1824.74
384.51	1691.62
384.72	1636.33
384.93	1636.33
385.14	1716.20
385.35	1855.46
385.55	1669.09
385.76	1869.80
385.97	1759.21
386.18	1660.90
386.39	1667.05
386.60	1730.53
386.81	1656.81
387.02	1667.05
387.22	1695.72
387.43	1763.30
387.64	1789.92
387.85	1916.90
388.06	2211.81
388.27	4634.55
388.48	9211.76
388.68	11544.40
388.89	13758.25
389.10	14202.66
389.31	11982.67
389.52	9746.28
389.73	8808.31
389.93	7839.62
390.14	7196.56
390.35	6678.43
390.56	5939.11
390.77	5109.68
390.98	4003.78
391.18	3043.28
391.39	2379.74
391.60	1935.33
391.81	1873.89
392.02	1734.63
392.23	1910.75
392.43	1759.21
392.64	1800.16
392.85	1681.38
393.06	1814.50
393.27	1738.73
393.47	1705.96
393.68	1771.49
393.89	1669.09
394.10	1880.04
394.31	1701.86
394.52	1654.76
394.72	1658.85
394.93	1779.68
395.14	1667.05
395.35	1751.01
395.56	1730.53
395.76	1691.62
395.97	1843.17
396.18	1847.27
396.39	1894.37
396.60	2084.83
396.80	1957.86
397.01	1896.42
397.22	1898.47
397.43	1796.07
397.64	1804.26
397.84	1828.84
398.05	1894.37
398.26	1810.40
398.47	1849.32
398.67	1800.16
398.88	1751.01
399.09	1712.10
399.30	1726.44
399.51	1816.55
399.71	1701.86
399.92	1720.29
400.13	1763.30
400.34	1730.53
400.54	1701.86
400.75	1802.21
400.96	1771.49
401.17	1796.07
401.37	1816.55
401.58	1716.20
401.79	1714.15
402.00	1886.18
402.21	2179.04
402.41	2107.36
402.62	2097.12
402.83	2111.46
403.04	2103.26
403.24	2121.70
403.45	1845.22
403.66	1994.72
403.87	1935.33
404.07	2015.20
404.28	1953.76
404.49	1968.10
404.70	1865.70
404.90	1796.07
405.11	1812.45
405.32	1748.97
405.52	1640.42
405.73	1734.63
405.94	1644.52
406.15	1753.06
406.35	1765.35
406.56	1687.53
406.77	1665.00
406.98	1722.34
407.18	1695.72
407.39	1791.97
407.60	1650.66
407.80	1742.82
408.01	1628.14
408.22	1689.57
408.43	1710.05
408.63	1763.30
408.84	1742.82
409.05	1738.73
409.25	1671.14
409.46	1644.52
409.67	1662.95
409.88	1714.15
410.08	1771.49
410.29	1662.95
410.50	1777.64
410.70	1810.40
410.91	1636.33
411.12	1714.15
411.32	1712.10
411.53	1650.66
411.74	1880.04
411.95	1787.88
412.15	1744.87
412.36	1839.08
412.57	1841.12
412.77	1820.64
412.98	1816.55
413.19	1658.85
413.39	1775.59
413.60	1787.88
413.81	1794.02
414.01	1648.61
414.22	1708.01
414.43	1748.97
414.63	1685.48
414.84	1783.78
415.05	1703.91
415.25	1632.23
415.46	1843.17
415.67	1720.29
415.87	1812.45
416.08	1701.86
416.29	1716.20
416.49	1742.82
416.70	1714.15
416.91	1746.92
417.11	1714.15
417.32	1812.45
417.53	1785.83
417.73	1767.40
417.94	1685.48
418.15	1677.29
418.35	1789.92
418.56	1755.11
418.77	1875.94
418.97	1699.81
419.18	1775.59
419.38	1607.66
419.59	1730.53
419.80	1808.36
420.00	1658.85
420.21	1724.39
420.42	1794.02
420.62	1718.25
420.83	1710.05
421.04	1660.90
421.24	1677.29
421.45	1734.63
421.65	1812.45
421.86	1611.75
422.07	1757.16
422.27	1669.09
422.48	1718.25
422.69	1708.01
422.89	1722.34
423.10	1753.06
423.30	1695.72
423.51	1697.77
423.72	1691.62
423.92	1837.03
424.13	1654.76
424.33	1708.01
424.54	1789.92
424.75	1720.29
424.95	1796.07
425.16	1763.30
425.36	1685.48
425.57	1783.78
425.78	1751.01
425.98	1763.30
426.19	1746.92
426.39	1644.52
426.60	1679.33
426.81	1810.40
427.01	1761.25
427.22	1667.05
427.42	1576.94
427.63	1656.81
427.83	1691.62
428.04	1826.79
428.25	1761.25
428.45	1765.35
428.66	1800.16
428.86	1714.15
429.07	1677.29
429.28	1732.58
429.48	1644.52
429.69	1652.71
429.89	1775.59
430.10	1648.61
430.30	1779.68
430.51	1769.44
430.71	1697.77
430.92	1642.47
431.13	1687.53
431.33	1816.55
431.54	1744.87
431.74	1783.78
431.95	1785.83
432.15	1638.38
432.36	1701.86
432.56	1748.97
432.77	1855.46
432.98	1832.93
433.18	1732.58
433.39	1720.29
433.59	1748.97
433.80	1851.36
434.00	1830.88
434.21	1718.25
434.41	1669.09
434.62	1873.89
434.82	1642.47
435.03	1665.00
435.23	1732.58
435.44	1593.32
435.64	1636.33
435.85	1759.21
436.06	1787.88
436.26	1812.45
436.47	1630.18
436.67	1683.43
436.88	1755.11
437.08	1675.24
437.29	1824.74
437.49	1751.01
437.70	1765.35
437.90	1708.01
438.11	1865.70
438.31	1791.97
438.52	2000.87
438.72	1961.95
438.93	1968.10
439.13	1779.68
439.34	1908.71
439.54	1824.74
439.75	1867.75
439.95	1820.64
440.16	1691.62
440.36	1726.44
440.57	1834.98
440.77	1757.16
440.98	1665.00
441.18	1748.97
441.39	1726.44
441.59	1665.00
441.80	1871.84
442.00	1665.00
442.21	1812.45
442.41	1738.73
442.62	1794.02
442.82	1705.96
443.02	1710.05
443.23	1722.34
443.43	1753.06
443.64	1839.08
443.84	1689.57
444.05	1806.31
444.25	1728.49
444.46	1787.88
444.66	1789.92
444.87	1810.40
445.07	1710.05
445.28	1701.86
445.48	1849.32
445.69	1734.63
445.89	1902.56
446.09	1808.36
446.30	1957.86
446.50	2521.05
446.71	4159.42
446.91	5298.10
447.12	5801.90
447.32	6023.08
447.53	5437.36
447.73	4427.71
447.93	3909.57
448.14	3672.01
448.34	3418.06
448.55	3198.93
448.75	3096.53
448.96	3020.75
449.16	2686.94
449.36	2408.41
449.57	2191.33
449.77	1953.76
449.98	1890.28
450.18	1857.51
450.39	1810.40
450.59	1755.11
450.79	1773.54
451.00	1738.73
451.20	1826.79
451.41	1712.10
451.61	1753.06
451.81	1693.67
452.02	1703.91
452.22	1755.11
452.43	1613.80
452.63	1689.57
