SpectraSuite Data File
++++++++++++++++++++++++++++++++++++
Date: Wed May 04 18:44:08 CEST 2016
User: root
Dark Spectrum Present: No
Reference Spectrum Present: No
Number of Sampled Component Spectra: 1
Spectrometers: USB4C02835
Integration Time (usec): 100000 (USB4C02835)
Spectra Averaged: 1 (USB4C02835)
Boxcar Smoothing: 0 (USB4C02835)
Correct for Electrical Dark: No (USB4C02835)
Strobe/Lamp Enabled: No (USB4C02835)
Correct for Detector Non-linearity: No (USB4C02835)
Correct for Stray Light: No (USB4C02835)
Number of Pixels in Processed Spectrum: 3648
>>>>>Begin Processed Spectral Data<<<<<
177.47	1529.83
177.69	1529.83
177.91	1529.83
178.13	1402.86
178.36	1478.63
178.58	1648.61
178.80	1787.88
179.02	1595.37
179.24	1626.09
179.46	1644.52
179.68	1716.20
179.90	1652.71
180.13	1726.44
180.35	1646.57
180.57	1716.20
180.79	1771.49
181.01	1675.24
181.23	1732.58
181.45	1796.07
181.67	1806.31
181.90	1699.81
182.12	1679.33
182.34	1648.61
182.56	1744.87
182.78	1771.49
183.00	1730.53
183.22	1812.45
183.44	1601.51
183.66	1841.12
183.89	1779.68
184.11	1714.15
184.33	1746.92
184.55	1701.86
184.77	1722.34
184.99	1740.77
185.21	1755.11
185.43	1781.73
185.65	1652.71
185.87	1773.54
186.10	1851.36
186.32	1767.40
186.54	1708.01
186.76	1730.53
186.98	1757.16
187.20	1695.72
187.42	1671.14
187.64	1814.50
187.86	1765.35
188.08	1724.39
188.30	1716.20
188.52	1675.24
188.75	1777.64
188.97	1812.45
189.19	1677.29
189.41	1687.53
189.63	1771.49
189.85	1732.58
190.07	1617.90
190.29	1665.00
190.51	1705.96
190.73	1669.09
190.95	1777.64
191.17	1685.48
191.39	1691.62
191.61	1665.00
191.84	1603.56
192.06	1738.73
192.28	1576.94
192.50	1902.56
192.72	1744.87
192.94	1656.81
193.16	1785.83
193.38	1652.71
193.60	1671.14
193.82	1636.33
194.04	1769.44
194.26	1665.00
194.48	1726.44
194.70	1679.33
194.92	1699.81
195.14	1736.68
195.36	1660.90
195.58	1705.96
195.80	1662.95
196.02	1701.86
196.24	1812.45
196.46	1705.96
196.69	1654.76
196.91	1839.08
197.13	1673.19
197.35	1652.71
197.57	1712.10
197.79	1681.38
198.01	1761.25
198.23	1708.01
198.45	1726.44
198.67	1695.72
198.89	1714.15
199.11	1634.28
199.33	1691.62
199.55	1587.18
199.77	1656.81
199.99	1705.96
200.21	1701.86
200.43	1720.29
200.65	1628.14
200.87	1621.99
201.09	1718.25
201.31	1662.95
201.53	1808.36
201.75	1759.21
201.97	1671.14
202.19	1724.39
202.41	1730.53
202.63	1841.12
202.85	1746.92
203.07	1751.01
203.29	1757.16
203.51	1665.00
203.73	1628.14
203.95	1841.12
204.17	1769.44
204.39	1712.10
204.61	1695.72
204.83	1665.00
205.05	1746.92
205.27	1742.82
205.49	1871.84
205.71	1665.00
205.93	1685.48
206.15	1697.77
206.37	1683.43
206.59	1683.43
206.81	1658.85
207.03	1619.94
207.25	1632.23
207.47	1806.31
207.69	1710.05
207.91	1763.30
208.13	1769.44
208.34	1572.84
208.56	1728.49
208.78	1708.01
209.00	1718.25
209.22	1681.38
209.44	1648.61
209.66	1650.66
209.88	1724.39
210.10	1718.25
210.32	1681.38
210.54	1820.64
210.76	1742.82
210.98	1695.72
211.20	1548.26
211.42	1757.16
211.64	1806.31
211.86	1718.25
212.08	1748.97
212.30	1648.61
212.52	1646.57
212.74	1746.92
212.96	1734.63
213.17	1679.33
213.39	1748.97
213.61	1773.54
213.83	1751.01
214.05	1691.62
214.27	1765.35
214.49	1624.04
214.71	1650.66
214.93	1781.73
215.15	1667.05
215.37	1763.30
215.59	1710.05
215.81	1705.96
216.03	1724.39
216.24	1689.57
216.46	1636.33
216.68	1703.91
216.90	1744.87
217.12	1744.87
217.34	1665.00
217.56	1751.01
217.78	1701.86
218.00	1726.44
218.22	1771.49
218.44	1796.07
218.66	1724.39
218.87	1751.01
219.09	1701.86
219.31	1755.11
219.53	1648.61
219.75	1689.57
219.97	1720.29
220.19	1796.07
220.41	1671.14
220.63	1779.68
220.85	1759.21
221.06	1605.61
221.28	1816.55
221.50	1736.68
221.72	1720.29
221.94	1757.16
222.16	1693.67
222.38	1746.92
222.60	1775.59
222.82	1630.18
223.03	1814.50
223.25	1603.56
223.47	1746.92
223.69	1886.18
223.91	1753.06
224.13	1705.96
224.35	1603.56
224.57	1787.88
224.78	1710.05
225.00	1599.46
225.22	1732.58
225.44	1716.20
225.66	1796.07
225.88	1640.42
226.10	1744.87
226.32	1710.05
226.53	1779.68
226.75	1714.15
226.97	1724.39
227.19	1730.53
227.41	1691.62
227.63	1724.39
227.85	1624.04
228.06	1722.34
228.28	1703.91
228.50	1703.91
228.72	1658.85
228.94	1728.49
229.16	1642.47
229.37	1665.00
229.59	1583.08
229.81	1726.44
230.03	1621.99
230.25	1576.94
230.47	1611.75
230.69	1646.57
230.90	1763.30
231.12	1681.38
231.34	1691.62
231.56	1728.49
231.78	1642.47
232.00	1722.34
232.21	1648.61
232.43	1648.61
232.65	1572.84
232.87	1810.40
233.09	1652.71
233.30	1695.72
233.52	1738.73
233.74	1689.57
233.96	1644.52
234.18	1732.58
234.40	1650.66
234.61	1873.89
234.83	1619.94
235.05	1652.71
235.27	1834.98
235.49	1730.53
235.70	1640.42
235.92	1775.59
236.14	1798.12
236.36	1896.42
236.58	1697.77
236.79	1748.97
237.01	1628.14
237.23	1673.19
237.45	1826.79
237.67	1638.38
237.88	1703.91
238.10	1812.45
238.32	1599.46
238.54	1714.15
238.76	1705.96
238.97	1757.16
239.19	1683.43
239.41	1802.21
239.63	1757.16
239.85	1669.09
240.06	1710.05
240.28	1646.57
240.50	1773.54
240.72	1767.40
240.93	1619.94
241.15	1794.02
241.37	1738.73
241.59	1724.39
241.81	1703.91
242.02	1742.82
242.24	1744.87
242.46	1736.68
242.68	1701.86
242.89	1832.93
243.11	1714.15
243.33	1746.92
243.55	1640.42
243.76	1740.77
243.98	1683.43
244.20	1771.49
244.42	1695.72
244.64	1818.60
244.85	1660.90
245.07	1722.34
245.29	1744.87
245.51	1695.72
245.72	1671.14
245.94	1746.92
246.16	1734.63
246.38	1730.53
246.59	1728.49
246.81	1701.86
247.03	1640.42
247.24	1626.09
247.46	1667.05
247.68	1718.25
247.90	1675.24
248.11	1603.56
248.33	1781.73
248.55	1708.01
248.77	1648.61
248.98	1742.82
249.20	1806.31
249.42	1689.57
249.64	1746.92
249.85	1644.52
250.07	1759.21
250.29	1738.73
250.50	1746.92
250.72	1564.65
250.94	1679.33
251.16	1802.21
251.37	1757.16
251.59	1708.01
251.81	1755.11
252.02	1732.58
252.24	1615.85
252.46	1746.92
252.68	1677.29
252.89	1632.23
253.11	1638.38
253.33	1767.40
253.54	1787.88
253.76	1615.85
253.98	1634.28
254.20	1697.77
254.41	1603.56
254.63	1748.97
254.85	1675.24
255.06	1681.38
255.28	1787.88
255.50	1648.61
255.71	1648.61
255.93	1669.09
256.15	1751.01
256.36	1673.19
256.58	1746.92
256.80	1738.73
257.02	1675.24
257.23	1691.62
257.45	1720.29
257.67	1697.77
257.88	1609.70
258.10	1771.49
258.32	1732.58
258.53	1718.25
258.75	1845.22
258.97	1669.09
259.18	1820.64
259.40	1724.39
259.62	1763.30
259.83	1789.92
260.05	1781.73
260.27	1972.19
260.48	1787.88
260.70	1652.71
260.92	1701.86
261.13	1742.82
261.35	1658.85
261.57	1791.97
261.78	1615.85
262.00	1632.23
262.22	1732.58
262.43	1648.61
262.65	1662.95
262.86	1748.97
263.08	1785.83
263.30	1748.97
263.51	1638.38
263.73	1603.56
263.95	1693.67
264.16	1648.61
264.38	1681.38
264.60	1728.49
264.81	1654.76
265.03	1775.59
265.25	1755.11
265.46	1757.16
265.68	1736.68
265.89	1755.11
266.11	1617.90
266.33	1781.73
266.54	1765.35
266.76	1716.20
266.98	1757.16
267.19	1816.55
267.41	1771.49
267.62	1730.53
267.84	1574.89
268.06	1740.77
268.27	1671.14
268.49	1765.35
268.70	1699.81
268.92	1710.05
269.14	1671.14
269.35	1671.14
269.57	1714.15
269.79	1765.35
270.00	1636.33
270.22	1837.03
270.43	1720.29
270.65	1578.98
270.87	1751.01
271.08	1775.59
271.30	1781.73
271.51	1656.81
271.73	1763.30
271.95	1777.64
272.16	1744.87
272.38	1712.10
272.59	1714.15
272.81	1691.62
273.02	1771.49
273.24	1712.10
273.46	1734.63
273.67	1634.28
273.89	1716.20
274.10	1615.85
274.32	1777.64
274.54	1675.24
274.75	1769.44
274.97	1701.86
275.18	1738.73
275.40	1734.63
275.61	1644.52
275.83	1695.72
276.05	1656.81
276.26	1701.86
276.48	1716.20
276.69	1656.81
276.91	1626.09
277.12	1697.77
277.34	1763.30
277.55	1771.49
277.77	1708.01
277.99	1796.07
278.20	1695.72
278.42	1628.14
278.63	1658.85
278.85	1681.38
279.06	1660.90
279.28	1660.90
279.49	1765.35
279.71	1699.81
279.93	1710.05
280.14	1695.72
280.36	1648.61
280.57	1746.92
280.79	1730.53
281.00	1624.04
281.22	1636.33
281.43	1791.97
281.65	1628.14
281.86	1640.42
282.08	1718.25
282.29	1746.92
282.51	1667.05
282.73	1638.38
282.94	1632.23
283.16	1716.20
283.37	1808.36
283.59	1705.96
283.80	1693.67
284.02	1755.11
284.23	1703.91
284.45	1630.18
284.66	1644.52
284.88	1632.23
285.09	1751.01
285.31	1701.86
285.52	1722.34
285.74	1640.42
285.95	1773.54
286.17	1761.25
286.38	1726.44
286.60	1640.42
286.81	1665.00
287.03	1722.34
287.24	1624.04
287.46	1681.38
287.67	1744.87
287.89	1818.60
288.10	1665.00
288.32	1705.96
288.53	1738.73
288.75	1669.09
288.96	1791.97
289.18	1675.24
289.39	1730.53
289.61	1726.44
289.82	1837.03
290.04	1789.92
290.25	1689.57
290.47	1650.66
290.68	1677.29
290.90	1804.26
291.11	1574.89
291.33	1755.11
291.54	1632.23
291.76	1701.86
291.97	1738.73
292.18	1791.97
292.40	1630.18
292.61	1667.05
292.83	1742.82
293.04	1861.60
293.26	1744.87
293.47	1767.40
293.69	1691.62
293.90	1699.81
294.12	1796.07
294.33	1642.47
294.55	1732.58
294.76	1796.07
294.97	1796.07
295.19	1841.12
295.40	1744.87
295.62	1626.09
295.83	1789.92
296.05	1685.48
296.26	1718.25
296.48	1679.33
296.69	1697.77
296.90	1644.52
297.12	1701.86
297.33	1751.01
297.55	1783.78
297.76	1740.77
297.98	1820.64
298.19	1724.39
298.41	1681.38
298.62	1648.61
298.83	1740.77
299.05	1734.63
299.26	1658.85
299.48	1665.00
299.69	1806.31
299.90	1738.73
300.12	1701.86
300.33	1781.73
300.55	1720.29
300.76	1841.12
300.98	1589.22
301.19	1685.48
301.40	1605.61
301.62	1689.57
301.83	1789.92
302.05	1714.15
302.26	1673.19
302.47	1673.19
302.69	1652.71
302.90	1771.49
303.12	1609.70
303.33	1794.02
303.54	1802.21
303.76	1681.38
303.97	1800.16
304.19	1796.07
304.40	1654.76
304.61	1724.39
304.83	1726.44
305.04	1744.87
305.26	1675.24
305.47	1636.33
305.68	1648.61
305.90	1675.24
306.11	1742.82
306.33	1681.38
306.54	1630.18
306.75	1658.85
306.97	1554.41
307.18	1640.42
307.39	1687.53
307.61	1734.63
307.82	1675.24
308.04	1730.53
308.25	1695.72
308.46	1636.33
308.68	1759.21
308.89	1656.81
309.10	1720.29
309.32	1753.06
309.53	1689.57
309.74	1748.97
309.96	1662.95
310.17	1789.92
310.39	1689.57
310.60	1613.80
310.81	1730.53
311.03	1671.14
311.24	1714.15
311.45	1755.11
311.67	1828.84
311.88	1769.44
312.09	1671.14
312.31	1718.25
312.52	1722.34
312.73	1662.95
312.95	1628.14
313.16	1669.09
313.37	1826.79
313.59	1783.78
313.80	1728.49
314.01	1812.45
314.23	1740.77
314.44	1730.53
314.65	1566.70
314.87	1716.20
315.08	1662.95
315.29	1701.86
315.51	1701.86
315.72	1656.81
315.93	1708.01
316.15	1748.97
316.36	1746.92
316.57	1644.52
316.79	1802.21
317.00	1699.81
317.21	1773.54
317.43	1656.81
317.64	1722.34
317.85	1636.33
318.07	1644.52
318.28	1785.83
318.49	1920.99
318.70	1976.29
318.92	1927.14
319.13	1914.85
319.34	1939.43
319.56	1794.02
319.77	1869.80
319.98	1798.12
320.20	1759.21
320.41	1724.39
320.62	1851.36
320.83	1656.81
321.05	1912.80
321.26	1761.25
321.47	1701.86
321.69	1742.82
321.90	1609.70
322.11	1636.33
322.32	1693.67
322.54	1681.38
322.75	1652.71
322.96	1867.75
323.18	1638.38
323.39	1624.04
323.60	1722.34
323.81	1769.44
324.03	1656.81
324.24	1708.01
324.45	1640.42
324.66	1667.05
324.88	1832.93
325.09	1798.12
325.30	1724.39
325.52	1722.34
325.73	1789.92
325.94	1701.86
326.15	1581.03
326.37	1654.76
326.58	1818.60
326.79	1859.56
327.00	1673.19
327.22	1728.49
327.43	1716.20
327.64	1753.06
327.85	1755.11
328.07	1679.33
328.28	1783.78
328.49	1693.67
328.70	1767.40
328.92	1751.01
329.13	1660.90
329.34	1800.16
329.55	1816.55
329.76	1808.36
329.98	1703.91
330.19	1796.07
330.40	1734.63
330.61	1783.78
330.83	1740.77
331.04	1658.85
331.25	1667.05
331.46	1691.62
331.68	1683.43
331.89	1705.96
332.10	1656.81
332.31	1689.57
332.52	1703.91
332.74	1722.34
332.95	1607.66
333.16	1716.20
333.37	1777.64
333.58	1722.34
333.80	1783.78
334.01	1609.70
334.22	1630.18
334.43	1624.04
334.64	1710.05
334.86	1589.22
335.07	1683.43
335.28	1763.30
335.49	1578.98
335.70	1695.72
335.92	1753.06
336.13	1810.40
336.34	1722.34
336.55	1783.78
336.76	1734.63
336.98	1673.19
337.19	1701.86
337.40	1683.43
337.61	1804.26
337.82	1746.92
338.04	1703.91
338.25	1554.41
338.46	1724.39
338.67	1751.01
338.88	1638.38
339.09	1626.09
339.31	1685.48
339.52	1642.47
339.73	1609.70
339.94	1718.25
340.15	1730.53
340.36	1656.81
340.58	1716.20
340.79	1617.90
341.00	1742.82
341.21	1656.81
341.42	1818.60
341.63	1685.48
341.85	1742.82
342.06	1705.96
342.27	1695.72
342.48	1763.30
342.69	1601.51
342.90	1716.20
343.12	1753.06
343.33	1673.19
343.54	1777.64
343.75	1828.84
343.96	1650.66
344.17	1716.20
344.38	1595.37
344.60	1644.52
344.81	1658.85
345.02	1679.33
345.23	1775.59
345.44	1841.12
345.65	1771.49
345.86	1755.11
346.07	1732.58
346.29	1716.20
346.50	1748.97
346.71	1695.72
346.92	1830.88
347.13	1767.40
347.34	1656.81
347.55	1634.28
347.76	1730.53
347.98	1617.90
348.19	1730.53
348.40	1771.49
348.61	1740.77
348.82	1824.74
349.03	1732.58
349.24	1675.24
349.45	1769.44
349.66	1648.61
349.88	1695.72
350.09	1671.14
350.30	1802.21
350.51	1794.02
350.72	1753.06
350.93	1742.82
351.14	1671.14
351.35	1748.97
351.56	1619.94
351.77	1744.87
351.99	1693.67
352.20	1839.08
352.41	1796.07
352.62	1644.52
352.83	1638.38
353.04	1730.53
353.25	1767.40
353.46	1779.68
353.67	1800.16
353.88	1617.90
354.09	1714.15
354.30	1769.44
354.52	1742.82
354.73	1722.34
354.94	1681.38
355.15	1773.54
355.36	1841.12
355.57	1671.14
355.78	1722.34
355.99	1624.04
356.20	1679.33
356.41	1775.59
356.62	1800.16
356.83	1677.29
357.04	1771.49
357.25	1540.07
357.46	1619.94
357.68	1636.33
357.89	1683.43
358.10	1802.21
358.31	1726.44
358.52	1640.42
358.73	1624.04
358.94	1583.08
359.15	1607.66
359.36	1791.97
359.57	1738.73
359.78	1675.24
359.99	1746.92
360.20	1720.29
360.41	1773.54
360.62	1744.87
360.83	1673.19
361.04	1746.92
361.25	1757.16
361.46	1755.11
361.67	1751.01
361.88	1738.73
362.09	1851.36
362.30	1777.64
362.51	1685.48
362.72	1720.29
362.93	1755.11
363.14	1748.97
363.35	1736.68
363.56	1689.57
363.78	1714.15
363.99	1728.49
364.20	1667.05
364.41	1769.44
364.62	1802.21
364.83	1785.83
365.04	1720.29
365.25	1740.77
365.46	1789.92
365.67	1603.56
365.88	1693.67
366.09	1679.33
366.30	1710.05
366.51	1683.43
366.72	1730.53
366.93	1701.86
367.14	1705.96
367.35	1736.68
367.56	1832.93
367.77	1779.68
367.98	1712.10
368.18	1746.92
368.39	1751.01
368.60	1722.34
368.81	1746.92
369.02	1746.92
369.23	1677.29
369.44	1638.38
369.65	1673.19
369.86	1785.83
370.07	1679.33
370.28	1636.33
370.49	1761.25
370.70	1775.59
370.91	1681.38
371.12	1632.23
371.33	1732.58
371.54	1636.33
371.75	1761.25
371.96	1607.66
372.17	1769.44
372.38	1722.34
372.59	1781.73
372.80	1677.29
373.01	1697.77
373.22	1740.77
373.43	1695.72
373.64	1644.52
373.85	1804.26
374.06	1779.68
374.26	1777.64
374.47	1767.40
374.68	1773.54
374.89	1701.86
375.10	1779.68
375.31	1724.39
375.52	1681.38
375.73	1716.20
375.94	1628.14
376.15	1816.55
376.36	1677.29
376.57	1689.57
376.78	1640.42
376.99	1822.69
377.20	1820.64
377.40	1642.47
377.61	1871.84
377.82	1685.48
378.03	1751.01
378.24	1683.43
378.45	1675.24
378.66	1642.47
378.87	1613.80
379.08	1542.12
379.29	1650.66
379.50	1744.87
379.71	1720.29
379.91	1753.06
380.12	1677.29
380.33	1738.73
380.54	1734.63
380.75	1681.38
380.96	1746.92
381.17	1714.15
381.38	1681.38
381.59	1767.40
381.80	1777.64
382.00	1865.70
382.21	1845.22
382.42	1880.04
382.63	1925.09
382.84	1726.44
383.05	1847.27
383.26	1837.03
383.47	1697.77
383.68	1849.32
383.88	1769.44
384.09	1787.88
384.30	1851.36
384.51	1720.29
384.72	1740.77
384.93	1642.47
385.14	1751.01
385.35	1843.17
385.55	1648.61
385.76	1806.31
385.97	1710.05
386.18	1652.71
386.39	1665.00
386.60	1744.87
386.81	1687.53
387.02	1691.62
387.22	1685.48
387.43	1744.87
387.64	1779.68
387.85	1877.99
388.06	2176.99
388.27	4921.27
388.48	9150.32
388.68	11837.26
388.89	13524.79
389.10	14231.33
389.31	12013.38
389.52	9756.52
389.73	8705.92
389.93	7935.88
390.14	7188.37
390.35	6684.57
390.56	6027.17
390.77	5126.07
390.98	3887.04
391.18	3155.92
391.39	2379.74
391.60	1951.71
391.81	1849.32
392.02	1714.15
392.23	1832.93
392.43	1718.25
392.64	1824.74
392.85	1785.83
393.06	1814.50
393.27	1724.39
393.47	1650.66
393.68	1728.49
393.89	1730.53
394.10	1771.49
394.31	1689.57
394.52	1603.56
394.72	1652.71
394.93	1763.30
395.14	1695.72
395.35	1712.10
395.56	1695.72
395.76	1714.15
395.97	1796.07
396.18	1918.95
396.39	1871.84
396.60	2047.97
396.80	2004.96
397.01	1916.90
397.22	1927.14
397.43	1841.12
397.64	1832.93
397.84	1916.90
398.05	1865.70
398.26	1777.64
398.47	1734.63
398.67	1806.31
398.88	1681.38
399.09	1693.67
399.30	1761.25
399.51	1732.58
399.71	1714.15
399.92	1687.53
400.13	1761.25
400.34	1665.00
400.54	1689.57
400.75	1861.60
400.96	1748.97
401.17	1869.80
401.37	1728.49
401.58	1640.42
401.79	1779.68
402.00	1818.60
402.21	2121.70
402.41	2125.79
402.62	2127.84
402.83	2224.09
403.04	2086.88
403.24	2117.60
403.45	1861.60
403.66	1939.43
403.87	1898.47
404.07	1986.53
404.28	1918.95
404.49	1937.38
404.70	1834.98
404.90	1828.84
405.11	1804.26
405.32	1808.36
405.52	1671.14
405.73	1626.09
405.94	1685.48
406.15	1685.48
406.35	1748.97
406.56	1783.78
406.77	1775.59
406.98	1720.29
407.18	1722.34
407.39	1796.07
407.60	1699.81
407.80	1755.11
408.01	1654.76
408.22	1679.33
408.43	1583.08
408.63	1718.25
408.84	1714.15
409.05	1820.64
409.25	1738.73
409.46	1689.57
409.67	1718.25
409.88	1708.01
410.08	1656.81
410.29	1724.39
410.50	1738.73
410.70	1705.96
410.91	1630.18
411.12	1742.82
411.32	1695.72
411.53	1726.44
411.74	1880.04
411.95	1777.64
412.15	1853.41
412.36	1808.36
412.57	1734.63
412.77	1837.03
412.98	1685.48
413.19	1697.77
413.39	1818.60
413.60	1820.64
413.81	1783.78
414.01	1638.38
414.22	1726.44
414.43	1800.16
414.63	1726.44
414.84	1816.55
415.05	1796.07
415.25	1648.61
415.46	1785.83
415.67	1642.47
415.87	1718.25
416.08	1708.01
416.29	1681.38
416.49	1783.78
416.70	1658.85
416.91	1689.57
417.11	1675.24
417.32	1820.64
417.53	1755.11
417.73	1843.17
417.94	1687.53
418.15	1720.29
418.35	1785.83
418.56	1753.06
418.77	1886.18
418.97	1599.46
419.18	1689.57
419.38	1607.66
419.59	1740.77
419.80	1732.58
420.00	1675.24
420.21	1714.15
420.42	1783.78
420.62	1771.49
420.83	1654.76
421.04	1669.09
421.24	1716.20
421.45	1775.59
421.65	1832.93
421.86	1675.24
422.07	1796.07
422.27	1662.95
422.48	1724.39
422.69	1591.27
422.89	1736.68
423.10	1759.21
423.30	1650.66
423.51	1701.86
423.72	1667.05
423.92	1685.48
424.13	1703.91
424.33	1705.96
424.54	1736.68
424.75	1705.96
424.95	1787.88
425.16	1746.92
425.36	1677.29
425.57	1791.97
425.78	1669.09
425.98	1748.97
426.19	1665.00
426.39	1767.40
426.60	1710.05
426.81	1818.60
427.01	1675.24
427.22	1632.23
427.42	1683.43
427.63	1656.81
427.83	1738.73
428.04	1798.12
428.25	1755.11
428.45	1771.49
428.66	1722.34
428.86	1740.77
429.07	1681.38
429.28	1656.81
429.48	1716.20
429.69	1740.77
429.89	1751.01
430.10	1691.62
430.30	1720.29
430.51	1761.25
430.71	1656.81
430.92	1738.73
431.13	1660.90
431.33	1767.40
431.54	1753.06
431.74	1763.30
431.95	1800.16
432.15	1656.81
432.36	1679.33
432.56	1685.48
432.77	1751.01
432.98	1863.65
433.18	1802.21
433.39	1730.53
433.59	1757.16
433.80	1886.18
434.00	1949.67
434.21	1626.09
434.41	1753.06
434.62	1873.89
434.82	1650.66
435.03	1665.00
435.23	1777.64
435.44	1599.46
435.64	1732.58
435.85	1759.21
436.06	1728.49
436.26	1783.78
436.47	1665.00
436.67	1673.19
436.88	1669.09
437.08	1779.68
437.29	1861.60
437.49	1699.81
437.70	1802.21
437.90	1710.05
438.11	1898.47
438.31	1826.79
438.52	1900.52
438.72	1865.70
438.93	1951.71
439.13	1877.99
439.34	1841.12
439.54	1732.58
439.75	1861.60
439.95	1853.41
440.16	1714.15
440.36	1714.15
440.57	1751.01
440.77	1746.92
440.98	1875.94
441.18	1759.21
441.39	1759.21
441.59	1679.33
441.80	1804.26
442.00	1732.58
442.21	1808.36
442.41	1656.81
442.62	1832.93
442.82	1695.72
443.02	1685.48
443.23	1722.34
443.43	1781.73
443.64	1826.79
443.84	1679.33
444.05	1839.08
444.25	1693.67
444.46	1755.11
444.66	1767.40
444.87	1814.50
445.07	1607.66
445.28	1705.96
445.48	1830.88
445.69	1834.98
445.89	1861.60
446.09	1720.29
446.30	1970.15
446.50	2596.82
446.71	4243.39
446.91	5404.59
447.12	5748.65
447.32	6148.00
447.53	5396.40
447.73	4394.94
447.93	4046.79
448.14	3637.19
448.34	3555.27
448.55	3135.44
448.75	3139.54
448.96	2936.79
449.16	2607.06
449.36	2404.32
449.57	2172.89
449.77	1966.05
449.98	1804.26
450.18	1804.26
450.39	1847.27
450.59	1775.59
450.79	1732.58
451.00	1738.73
451.20	1824.74
451.41	1744.87
451.61	1728.49
451.81	1785.83
452.02	1789.92
452.22	1724.39
452.43	1689.57
452.63	1595.37
