SpectraSuite Data File
++++++++++++++++++++++++++++++++++++
Date: Wed May 04 18:44:26 CEST 2016
User: root
Dark Spectrum Present: No
Reference Spectrum Present: No
Number of Sampled Component Spectra: 1
Spectrometers: USB4C02835
Integration Time (usec): 100000 (USB4C02835)
Spectra Averaged: 1 (USB4C02835)
Boxcar Smoothing: 0 (USB4C02835)
Correct for Electrical Dark: No (USB4C02835)
Strobe/Lamp Enabled: No (USB4C02835)
Correct for Detector Non-linearity: No (USB4C02835)
Correct for Stray Light: No (USB4C02835)
Number of Pixels in Processed Spectrum: 3648
>>>>>Begin Processed Spectral Data<<<<<
177.47	1417.19
177.69	1417.19
177.91	1417.19
178.13	1419.24
178.36	1411.05
178.58	1634.28
178.80	1710.05
179.02	1687.53
179.24	1626.09
179.46	1636.33
179.68	1773.54
179.90	1673.19
180.13	1703.91
180.35	1714.15
180.57	1697.77
180.79	1800.16
181.01	1644.52
181.23	1816.55
181.45	1746.92
181.67	1712.10
181.90	1722.34
182.12	1718.25
182.34	1626.09
182.56	1789.92
182.78	1693.67
183.00	1718.25
183.22	1822.69
183.44	1613.80
183.66	1861.60
183.89	1818.60
184.11	1712.10
184.33	1730.53
184.55	1798.12
184.77	1763.30
184.99	1699.81
185.21	1769.44
185.43	1855.46
185.65	1640.42
185.87	1708.01
186.10	1820.64
186.32	1888.23
186.54	1767.40
186.76	1730.53
186.98	1802.21
187.20	1671.14
187.42	1748.97
187.64	1767.40
187.86	1697.77
188.08	1744.87
188.30	1658.85
188.52	1683.43
188.75	1740.77
188.97	1779.68
189.19	1695.72
189.41	1738.73
189.63	1748.97
189.85	1718.25
190.07	1677.29
190.29	1583.08
190.51	1763.30
190.73	1669.09
190.95	1748.97
191.17	1615.85
191.39	1619.94
191.61	1687.53
191.84	1650.66
192.06	1757.16
192.28	1679.33
192.50	1882.08
192.72	1796.07
192.94	1695.72
193.16	1769.44
193.38	1732.58
193.60	1693.67
193.82	1665.00
194.04	1705.96
194.26	1759.21
194.48	1708.01
194.70	1656.81
194.92	1648.61
195.14	1826.79
195.36	1687.53
195.58	1697.77
195.80	1630.18
196.02	1619.94
196.24	1693.67
196.46	1810.40
196.69	1591.27
196.91	1865.70
197.13	1705.96
197.35	1636.33
197.57	1828.84
197.79	1748.97
198.01	1732.58
198.23	1740.77
198.45	1716.20
198.67	1566.70
198.89	1665.00
199.11	1675.24
199.33	1720.29
199.55	1624.04
199.77	1665.00
199.99	1822.69
200.21	1679.33
200.43	1740.77
200.65	1632.23
200.87	1640.42
201.09	1794.02
201.31	1728.49
201.53	1722.34
201.75	1677.29
201.97	1693.67
202.19	1675.24
202.41	1697.77
202.63	1841.12
202.85	1761.25
203.07	1781.73
203.29	1695.72
203.51	1646.57
203.73	1701.86
203.95	1898.47
204.17	1693.67
204.39	1701.86
204.61	1710.05
204.83	1724.39
205.05	1759.21
205.27	1839.08
205.49	1796.07
205.71	1732.58
205.93	1681.38
206.15	1574.89
206.37	1697.77
206.59	1695.72
206.81	1767.40
207.03	1677.29
207.25	1630.18
207.47	1730.53
207.69	1732.58
207.91	1791.97
208.13	1851.36
208.34	1714.15
208.56	1685.48
208.78	1751.01
209.00	1708.01
209.22	1681.38
209.44	1689.57
209.66	1746.92
209.88	1705.96
210.10	1683.43
210.32	1730.53
210.54	1818.60
210.76	1759.21
210.98	1765.35
211.20	1646.57
211.42	1714.15
211.64	1779.68
211.86	1699.81
212.08	1701.86
212.30	1726.44
212.52	1687.53
212.74	1783.78
212.96	1722.34
213.17	1675.24
213.39	1732.58
213.61	1755.11
213.83	1759.21
214.05	1671.14
214.27	1724.39
214.49	1603.56
214.71	1701.86
214.93	1748.97
215.15	1714.15
215.37	1759.21
215.59	1570.79
215.81	1738.73
216.03	1771.49
216.24	1746.92
216.46	1691.62
216.68	1697.77
216.90	1849.32
217.12	1853.41
217.34	1722.34
217.56	1693.67
217.78	1791.97
218.00	1759.21
218.22	1744.87
218.44	1755.11
218.66	1665.00
218.87	1845.22
219.09	1638.38
219.31	1722.34
219.53	1767.40
219.75	1683.43
219.97	1695.72
220.19	1826.79
220.41	1615.85
220.63	1796.07
220.85	1720.29
221.06	1685.48
221.28	1767.40
221.50	1718.25
221.72	1648.61
221.94	1687.53
222.16	1736.68
222.38	1751.01
222.60	1716.20
222.82	1697.77
223.03	1722.34
223.25	1585.13
223.47	1785.83
223.69	1847.27
223.91	1759.21
224.13	1689.57
224.35	1675.24
224.57	1767.40
224.78	1710.05
225.00	1634.28
225.22	1736.68
225.44	1757.16
225.66	1665.00
225.88	1648.61
226.10	1710.05
226.32	1738.73
226.53	1812.45
226.75	1710.05
226.97	1714.15
227.19	1693.67
227.41	1638.38
227.63	1701.86
227.85	1613.80
228.06	1748.97
228.28	1796.07
228.50	1730.53
228.72	1687.53
228.94	1685.48
229.16	1640.42
229.37	1583.08
229.59	1597.42
229.81	1755.11
230.03	1693.67
230.25	1626.09
230.47	1621.99
230.69	1714.15
230.90	1726.44
231.12	1638.38
231.34	1683.43
231.56	1718.25
231.78	1669.09
232.00	1712.10
232.21	1671.14
232.43	1675.24
232.65	1626.09
232.87	1708.01
233.09	1662.95
233.30	1607.66
233.52	1712.10
233.74	1660.90
233.96	1628.14
234.18	1736.68
234.40	1736.68
234.61	1832.93
234.83	1671.14
235.05	1591.27
235.27	1830.88
235.49	1802.21
235.70	1753.06
235.92	1748.97
236.14	1794.02
236.36	1935.33
236.58	1640.42
236.79	1738.73
237.01	1746.92
237.23	1726.44
237.45	1800.16
237.67	1662.95
237.88	1695.72
238.10	1884.13
238.32	1626.09
238.54	1726.44
238.76	1722.34
238.97	1665.00
239.19	1658.85
239.41	1724.39
239.63	1728.49
239.85	1681.38
240.06	1662.95
240.28	1724.39
240.50	1738.73
240.72	1685.48
240.93	1691.62
241.15	1783.78
241.37	1687.53
241.59	1794.02
241.81	1667.05
242.02	1724.39
242.24	1703.91
242.46	1628.14
242.68	1617.90
242.89	1689.57
243.11	1755.11
243.33	1673.19
243.55	1738.73
243.76	1689.57
243.98	1689.57
244.20	1751.01
244.42	1742.82
244.64	1771.49
244.85	1646.57
245.07	1685.48
245.29	1837.03
245.51	1701.86
245.72	1705.96
245.94	1728.49
246.16	1716.20
246.38	1761.25
246.59	1624.04
246.81	1607.66
247.03	1632.23
247.24	1667.05
247.46	1722.34
247.68	1708.01
247.90	1705.96
248.11	1665.00
248.33	1769.44
248.55	1662.95
248.77	1804.26
248.98	1693.67
249.20	1804.26
249.42	1705.96
249.64	1742.82
249.85	1718.25
250.07	1646.57
250.29	1718.25
250.50	1667.05
250.72	1636.33
250.94	1751.01
251.16	1740.77
251.37	1763.30
251.59	1732.58
251.81	1652.71
252.02	1855.46
252.24	1671.14
252.46	1759.21
252.68	1679.33
252.89	1738.73
253.11	1578.98
253.33	1800.16
253.54	1710.05
253.76	1611.75
253.98	1761.25
254.20	1701.86
254.41	1660.90
254.63	1724.39
254.85	1634.28
255.06	1730.53
255.28	1802.21
255.50	1650.66
255.71	1679.33
255.93	1640.42
256.15	1689.57
256.36	1746.92
256.58	1691.62
256.80	1724.39
257.02	1691.62
257.23	1619.94
257.45	1662.95
257.67	1724.39
257.88	1699.81
258.10	1708.01
258.32	1683.43
258.53	1718.25
258.75	1847.27
258.97	1675.24
259.18	1665.00
259.40	1660.90
259.62	1738.73
259.83	1720.29
260.05	1751.01
260.27	1976.29
260.48	1832.93
260.70	1665.00
260.92	1669.09
261.13	1740.77
261.35	1763.30
261.57	1761.25
261.78	1581.03
262.00	1748.97
262.22	1701.86
262.43	1636.33
262.65	1654.76
262.86	1730.53
263.08	1857.51
263.30	1708.01
263.51	1644.52
263.73	1660.90
263.95	1746.92
264.16	1644.52
264.38	1644.52
264.60	1699.81
264.81	1624.04
265.03	1789.92
265.25	1751.01
265.46	1734.63
265.68	1789.92
265.89	1775.59
266.11	1654.76
266.33	1714.15
266.54	1759.21
266.76	1695.72
266.98	1734.63
267.19	1806.31
267.41	1742.82
267.62	1683.43
267.84	1646.57
268.06	1738.73
268.27	1691.62
268.49	1679.33
268.70	1816.55
268.92	1675.24
269.14	1599.46
269.35	1665.00
269.57	1738.73
269.79	1718.25
270.00	1656.81
270.22	1814.50
270.43	1660.90
270.65	1628.14
270.87	1708.01
271.08	1818.60
271.30	1744.87
271.51	1679.33
271.73	1732.58
271.95	1763.30
272.16	1742.82
272.38	1660.90
272.59	1648.61
272.81	1728.49
273.02	1730.53
273.24	1732.58
273.46	1839.08
273.67	1601.51
273.89	1687.53
274.10	1593.32
274.32	1800.16
274.54	1640.42
274.75	1701.86
274.97	1683.43
275.18	1736.68
275.40	1640.42
275.61	1718.25
275.83	1660.90
276.05	1654.76
276.26	1724.39
276.48	1748.97
276.69	1693.67
276.91	1730.53
277.12	1824.74
277.34	1798.12
277.55	1781.73
277.77	1648.61
277.99	1732.58
278.20	1656.81
278.42	1593.32
278.63	1736.68
278.85	1757.16
279.06	1636.33
279.28	1718.25
279.49	1791.97
279.71	1714.15
279.93	1697.77
280.14	1710.05
280.36	1642.47
280.57	1798.12
280.79	1761.25
281.00	1667.05
281.22	1660.90
281.43	1791.97
281.65	1593.32
281.86	1701.86
282.08	1697.77
282.29	1875.94
282.51	1607.66
282.73	1701.86
282.94	1597.42
283.16	1765.35
283.37	1714.15
283.59	1683.43
283.80	1673.19
284.02	1775.59
284.23	1699.81
284.45	1705.96
284.66	1679.33
284.88	1710.05
285.09	1761.25
285.31	1755.11
285.52	1748.97
285.74	1634.28
285.95	1757.16
286.17	1708.01
286.38	1787.88
286.60	1638.38
286.81	1656.81
287.03	1710.05
287.24	1683.43
287.46	1734.63
287.67	1748.97
287.89	1763.30
288.10	1740.77
288.32	1769.44
288.53	1773.54
288.75	1740.77
288.96	1755.11
289.18	1683.43
289.39	1669.09
289.61	1753.06
289.82	1832.93
290.04	1763.30
290.25	1630.18
290.47	1720.29
290.68	1671.14
290.90	1818.60
291.11	1621.99
291.33	1746.92
291.54	1652.71
291.76	1681.38
291.97	1683.43
292.18	1724.39
292.40	1703.91
292.61	1718.25
292.83	1771.49
293.04	1826.79
293.26	1767.40
293.47	1722.34
293.69	1658.85
293.90	1679.33
294.12	1826.79
294.33	1683.43
294.55	1744.87
294.76	1736.68
294.97	1767.40
295.19	1841.12
295.40	1714.15
295.62	1712.10
295.83	1742.82
296.05	1675.24
296.26	1845.22
296.48	1689.57
296.69	1734.63
296.90	1673.19
297.12	1734.63
297.33	1781.73
297.55	1736.68
297.76	1722.34
297.98	1724.39
298.19	1748.97
298.41	1656.81
298.62	1656.81
298.83	1775.59
299.05	1769.44
299.26	1710.05
299.48	1710.05
299.69	1781.73
299.90	1701.86
300.12	1624.04
300.33	1691.62
300.55	1665.00
300.76	1755.11
300.98	1624.04
301.19	1757.16
301.40	1673.19
301.62	1671.14
301.83	1746.92
302.05	1748.97
302.26	1726.44
302.47	1751.01
302.69	1679.33
302.90	1746.92
303.12	1619.94
303.33	1748.97
303.54	1804.26
303.76	1681.38
303.97	1673.19
304.19	1740.77
304.40	1642.47
304.61	1804.26
304.83	1826.79
305.04	1763.30
305.26	1744.87
305.47	1783.78
305.68	1648.61
305.90	1720.29
306.11	1695.72
306.33	1689.57
306.54	1648.61
306.75	1728.49
306.97	1615.85
307.18	1632.23
307.39	1673.19
307.61	1732.58
307.82	1685.48
308.04	1748.97
308.25	1607.66
308.46	1665.00
308.68	1683.43
308.89	1646.57
309.10	1763.30
309.32	1738.73
309.53	1722.34
309.74	1699.81
309.96	1673.19
310.17	1724.39
310.39	1644.52
310.60	1738.73
310.81	1693.67
311.03	1634.28
311.24	1759.21
311.45	1683.43
311.67	1763.30
311.88	1675.24
312.09	1708.01
312.31	1619.94
312.52	1705.96
312.73	1710.05
312.95	1658.85
313.16	1701.86
313.37	1732.58
313.59	1708.01
313.80	1769.44
314.01	1818.60
314.23	1708.01
314.44	1632.23
314.65	1619.94
314.87	1714.15
315.08	1646.57
315.29	1677.29
315.51	1601.51
315.72	1689.57
315.93	1818.60
316.15	1730.53
316.36	1675.24
316.57	1779.68
316.79	1738.73
317.00	1691.62
317.21	1783.78
317.43	1667.05
317.64	1755.11
317.85	1652.71
318.07	1658.85
318.28	1824.74
318.49	1865.70
318.70	2015.20
318.92	1880.04
319.13	1834.98
319.34	1906.66
319.56	1789.92
319.77	1837.03
319.98	1837.03
320.20	1804.26
320.41	1775.59
320.62	1806.31
320.83	1703.91
321.05	1855.46
321.26	1759.21
321.47	1691.62
321.69	1808.36
321.90	1619.94
322.11	1679.33
322.32	1720.29
322.54	1841.12
322.75	1650.66
322.96	1832.93
323.18	1677.29
323.39	1601.51
323.60	1734.63
323.81	1718.25
324.03	1665.00
324.24	1734.63
324.45	1796.07
324.66	1660.90
324.88	1814.50
325.09	1863.65
325.30	1667.05
325.52	1832.93
325.73	1667.05
325.94	1632.23
326.15	1617.90
326.37	1613.80
326.58	1804.26
326.79	1791.97
327.00	1595.37
327.22	1691.62
327.43	1613.80
327.64	1679.33
327.85	1759.21
328.07	1644.52
328.28	1812.45
328.49	1705.96
328.70	1687.53
328.92	1656.81
329.13	1697.77
329.34	1716.20
329.55	1814.50
329.76	1742.82
329.98	1685.48
330.19	1796.07
330.40	1722.34
330.61	1689.57
330.83	1820.64
331.04	1667.05
331.25	1718.25
331.46	1705.96
331.68	1642.47
331.89	1730.53
332.10	1728.49
332.31	1634.28
332.52	1658.85
332.74	1763.30
332.95	1669.09
333.16	1722.34
333.37	1705.96
333.58	1665.00
333.80	1710.05
334.01	1673.19
334.22	1660.90
334.43	1548.26
334.64	1675.24
334.86	1648.61
335.07	1722.34
335.28	1771.49
335.49	1669.09
335.70	1675.24
335.92	1765.35
336.13	1812.45
336.34	1783.78
336.55	1714.15
336.76	1708.01
336.98	1605.61
337.19	1701.86
337.40	1789.92
337.61	1841.12
337.82	1658.85
338.04	1845.22
338.25	1624.04
338.46	1695.72
338.67	1679.33
338.88	1701.86
339.09	1701.86
339.31	1611.75
339.52	1613.80
339.73	1574.89
339.94	1689.57
340.15	1722.34
340.36	1732.58
340.58	1714.15
340.79	1689.57
341.00	1816.55
341.21	1640.42
341.42	1755.11
341.63	1804.26
341.85	1761.25
342.06	1679.33
342.27	1703.91
342.48	1732.58
342.69	1593.32
342.90	1740.77
343.12	1763.30
343.33	1685.48
343.54	1732.58
343.75	1738.73
343.96	1710.05
344.17	1701.86
344.38	1589.22
344.60	1607.66
344.81	1671.14
345.02	1708.01
345.23	1806.31
345.44	1822.69
345.65	1785.83
345.86	1773.54
346.07	1675.24
346.29	1699.81
346.50	1779.68
346.71	1761.25
346.92	1705.96
347.13	1771.49
347.34	1607.66
347.55	1779.68
347.76	1822.69
347.98	1630.18
348.19	1771.49
348.40	1822.69
348.61	1681.38
348.82	1759.21
349.03	1824.74
349.24	1632.23
349.45	1769.44
349.66	1642.47
349.88	1701.86
350.09	1673.19
350.30	1730.53
350.51	1748.97
350.72	1695.72
350.93	1732.58
351.14	1617.90
351.35	1746.92
351.56	1753.06
351.77	1658.85
351.99	1785.83
352.20	1830.88
352.41	1802.21
352.62	1642.47
352.83	1677.29
353.04	1652.71
353.25	1732.58
353.46	1746.92
353.67	1796.07
353.88	1691.62
354.09	1753.06
354.30	1669.09
354.52	1787.88
354.73	1658.85
354.94	1744.87
355.15	1781.73
355.36	1777.64
355.57	1728.49
355.78	1730.53
355.99	1689.57
356.20	1748.97
356.41	1839.08
356.62	1726.44
356.83	1636.33
357.04	1773.54
357.25	1609.70
357.46	1720.29
357.68	1654.76
357.89	1714.15
358.10	1712.10
358.31	1695.72
358.52	1685.48
358.73	1671.14
358.94	1675.24
359.15	1656.81
359.36	1798.12
359.57	1683.43
359.78	1693.67
359.99	1685.48
360.20	1634.28
360.41	1710.05
360.62	1771.49
360.83	1636.33
361.04	1720.29
361.25	1722.34
361.46	1779.68
361.67	1736.68
361.88	1744.87
362.09	1794.02
362.30	1744.87
362.51	1703.91
362.72	1603.56
362.93	1832.93
363.14	1726.44
363.35	1761.25
363.56	1755.11
363.78	1761.25
363.99	1751.01
364.20	1675.24
364.41	1669.09
364.62	1798.12
364.83	1714.15
365.04	1722.34
365.25	1738.73
365.46	1832.93
365.67	1685.48
365.88	1759.21
366.09	1644.52
366.30	1726.44
366.51	1650.66
366.72	1677.29
366.93	1671.14
367.14	1646.57
367.35	1710.05
367.56	1701.86
367.77	1751.01
367.98	1665.00
368.18	1742.82
368.39	1726.44
368.60	1617.90
368.81	1822.69
369.02	1744.87
369.23	1695.72
369.44	1703.91
369.65	1677.29
369.86	1738.73
370.07	1761.25
370.28	1611.75
370.49	1734.63
370.70	1773.54
370.91	1638.38
371.12	1658.85
371.33	1738.73
371.54	1744.87
371.75	1843.17
371.96	1572.84
372.17	1755.11
372.38	1675.24
372.59	1667.05
372.80	1765.35
373.01	1654.76
373.22	1742.82
373.43	1691.62
373.64	1763.30
373.85	1834.98
374.06	1783.78
374.26	1738.73
374.47	1751.01
374.68	1775.59
374.89	1751.01
375.10	1671.14
375.31	1755.11
375.52	1724.39
375.73	1699.81
375.94	1742.82
376.15	1718.25
376.36	1689.57
376.57	1648.61
376.78	1716.20
376.99	1769.44
377.20	1718.25
377.40	1665.00
377.61	1828.84
377.82	1619.94
378.03	1779.68
378.24	1822.69
378.45	1771.49
378.66	1720.29
378.87	1609.70
379.08	1669.09
379.29	1695.72
379.50	1771.49
379.71	1697.77
379.91	1708.01
380.12	1685.48
380.33	1656.81
380.54	1648.61
380.75	1675.24
380.96	1642.47
381.17	1777.64
381.38	1673.19
381.59	1783.78
381.80	1837.03
382.00	1855.46
382.21	1800.16
382.42	1933.28
382.63	1898.47
382.84	1738.73
383.05	1761.25
383.26	1800.16
383.47	1771.49
383.68	1724.39
383.88	1810.40
384.09	1738.73
384.30	1783.78
384.51	1730.53
384.72	1652.71
384.93	1636.33
385.14	1699.81
385.35	1791.97
385.55	1578.98
385.76	1753.06
385.97	1710.05
386.18	1662.95
386.39	1708.01
386.60	1726.44
386.81	1671.14
387.02	1763.30
387.22	1744.87
387.43	1765.35
387.64	1796.07
387.85	1943.52
388.06	2234.33
388.27	4665.27
388.48	9054.07
388.68	11562.83
388.89	13504.31
389.10	13977.39
389.31	11824.97
389.52	9920.36
389.73	8478.59
389.93	7776.14
390.14	7292.82
390.35	6700.95
390.56	5867.43
390.77	5015.48
390.98	3891.14
391.18	3028.95
391.39	2334.68
391.60	1994.72
391.81	1880.04
392.02	1714.15
392.23	1814.50
392.43	1767.40
392.64	1800.16
392.85	1683.43
393.06	1734.63
393.27	1677.29
393.47	1732.58
393.68	1701.86
393.89	1734.63
394.10	1824.74
394.31	1624.04
394.52	1671.14
394.72	1642.47
394.93	1789.92
395.14	1701.86
395.35	1732.58
395.56	1646.57
395.76	1701.86
395.97	1802.21
396.18	1925.09
396.39	1867.75
396.60	2133.98
396.80	1955.81
397.01	1947.62
397.22	1892.32
397.43	1880.04
397.64	1849.32
397.84	1814.50
398.05	1882.08
398.26	1716.20
398.47	1843.17
398.67	1869.80
398.88	1720.29
399.09	1720.29
399.30	1669.09
399.51	1787.88
399.71	1587.18
399.92	1728.49
400.13	1744.87
400.34	1681.38
400.54	1646.57
400.75	1818.60
400.96	1705.96
401.17	1871.84
401.37	1687.53
401.58	1710.05
401.79	1738.73
402.00	1880.04
402.21	2144.22
402.41	2078.69
402.62	2230.24
402.83	2224.09
403.04	2090.98
403.24	2215.90
403.45	1918.95
403.66	1927.14
403.87	1867.75
404.07	1970.15
404.28	1959.91
404.49	1943.52
404.70	1712.10
404.90	1843.17
405.11	1814.50
405.32	1779.68
405.52	1656.81
405.73	1662.95
405.94	1658.85
406.15	1718.25
406.35	1710.05
406.56	1728.49
406.77	1761.25
406.98	1787.88
407.18	1712.10
407.39	1890.28
407.60	1720.29
407.80	1718.25
408.01	1689.57
408.22	1798.12
408.43	1695.72
408.63	1722.34
408.84	1773.54
409.05	1753.06
409.25	1644.52
409.46	1642.47
409.67	1660.90
409.88	1679.33
410.08	1687.53
410.29	1642.47
410.50	1722.34
410.70	1791.97
410.91	1605.61
411.12	1791.97
411.32	1675.24
411.53	1634.28
411.74	1806.31
411.95	1812.45
412.15	1845.22
412.36	1732.58
412.57	1886.18
412.77	1847.27
412.98	1714.15
413.19	1738.73
413.39	1730.53
413.60	1796.07
413.81	1755.11
414.01	1683.43
414.22	1751.01
414.43	1791.97
414.63	1804.26
414.84	1794.02
415.05	1755.11
415.25	1656.81
415.46	1734.63
415.67	1654.76
415.87	1744.87
416.08	1771.49
416.29	1677.29
416.49	1697.77
416.70	1689.57
416.91	1685.48
417.11	1685.48
417.32	1757.16
417.53	1742.82
417.73	1837.03
417.94	1671.14
418.15	1736.68
418.35	1798.12
418.56	1730.53
418.77	1812.45
418.97	1675.24
419.18	1716.20
419.38	1591.27
419.59	1742.82
419.80	1802.21
420.00	1775.59
420.21	1689.57
420.42	1718.25
420.62	1746.92
420.83	1609.70
421.04	1712.10
421.24	1679.33
421.45	1730.53
421.65	1740.77
421.86	1677.29
422.07	1761.25
422.27	1796.07
422.48	1783.78
422.69	1673.19
422.89	1685.48
423.10	1738.73
423.30	1619.94
423.51	1722.34
423.72	1746.92
423.92	1746.92
424.13	1650.66
424.33	1671.14
424.54	1701.86
424.75	1722.34
424.95	1826.79
425.16	1685.48
425.36	1708.01
425.57	1740.77
425.78	1720.29
425.98	1767.40
426.19	1718.25
426.39	1646.57
426.60	1773.54
426.81	1798.12
427.01	1665.00
427.22	1667.05
427.42	1642.47
427.63	1619.94
427.83	1716.20
428.04	1794.02
428.25	1761.25
428.45	1853.41
428.66	1695.72
428.86	1656.81
429.07	1697.77
429.28	1718.25
429.48	1710.05
429.69	1689.57
429.89	1705.96
430.10	1710.05
430.30	1710.05
430.51	1794.02
430.71	1730.53
430.92	1699.81
431.13	1705.96
431.33	1726.44
431.54	1826.79
431.74	1734.63
431.95	1882.08
432.15	1673.19
432.36	1712.10
432.56	1757.16
432.77	1812.45
432.98	1822.69
433.18	1714.15
433.39	1701.86
433.59	1734.63
433.80	1822.69
434.00	1847.27
434.21	1703.91
434.41	1677.29
434.62	1853.41
434.82	1755.11
435.03	1701.86
435.23	1720.29
435.44	1601.51
435.64	1716.20
435.85	1722.34
436.06	1789.92
436.26	1779.68
436.47	1673.19
436.67	1681.38
436.88	1677.29
437.08	1740.77
437.29	1796.07
437.49	1708.01
437.70	1757.16
437.90	1751.01
438.11	1873.89
438.31	1748.97
438.52	1941.47
438.72	1896.42
438.93	1880.04
439.13	1751.01
439.34	1849.32
439.54	1849.32
439.75	1765.35
439.95	1789.92
440.16	1794.02
440.36	1714.15
440.57	1783.78
440.77	1761.25
440.98	1767.40
441.18	1855.46
441.39	1710.05
441.59	1665.00
441.80	1812.45
442.00	1701.86
442.21	1777.64
442.41	1601.51
442.62	1742.82
442.82	1679.33
443.02	1699.81
443.23	1734.63
443.43	1789.92
443.64	1710.05
443.84	1720.29
444.05	1875.94
444.25	1720.29
444.46	1710.05
444.66	1794.02
444.87	1779.68
445.07	1695.72
445.28	1755.11
445.48	1859.56
445.69	1804.26
445.89	1923.04
446.09	1701.86
446.30	2009.06
446.50	2637.78
446.71	4106.18
446.91	5181.36
447.12	5828.52
447.32	5894.05
447.53	5326.77
447.73	4458.43
447.93	4059.07
448.14	3698.63
448.34	3450.83
448.55	3196.88
448.75	3200.98
448.96	2934.74
449.16	2621.40
449.36	2482.14
449.57	2279.39
449.77	1853.41
449.98	1845.22
450.18	1873.89
450.39	1740.77
450.59	1783.78
450.79	1693.67
451.00	1695.72
451.20	1814.50
451.41	1738.73
451.61	1755.11
451.81	1736.68
452.02	1736.68
452.22	1732.58
452.43	1740.77
452.63	1765.35
