SpectraSuite Data File
++++++++++++++++++++++++++++++++++++
Date: Wed May 04 18:44:25 CEST 2016
User: root
Dark Spectrum Present: No
Reference Spectrum Present: No
Number of Sampled Component Spectra: 1
Spectrometers: USB4C02835
Integration Time (usec): 100000 (USB4C02835)
Spectra Averaged: 1 (USB4C02835)
Boxcar Smoothing: 0 (USB4C02835)
Correct for Electrical Dark: No (USB4C02835)
Strobe/Lamp Enabled: No (USB4C02835)
Correct for Detector Non-linearity: No (USB4C02835)
Correct for Stray Light: No (USB4C02835)
Number of Pixels in Processed Spectrum: 3648
>>>>>Begin Processed Spectral Data<<<<<
177.47	1443.82
177.69	1443.82
177.91	1443.82
178.13	1492.97
178.36	1458.15
178.58	1652.71
178.80	1830.88
179.02	1675.24
179.24	1646.57
179.46	1615.85
179.68	1759.21
179.90	1748.97
180.13	1667.05
180.35	1630.18
180.57	1724.39
180.79	1718.25
181.01	1679.33
181.23	1791.97
181.45	1742.82
181.67	1757.16
181.90	1789.92
182.12	1644.52
182.34	1617.90
182.56	1705.96
182.78	1681.38
183.00	1705.96
183.22	1689.57
183.44	1617.90
183.66	1785.83
183.89	1798.12
184.11	1763.30
184.33	1701.86
184.55	1791.97
184.77	1755.11
184.99	1720.29
185.21	1673.19
185.43	1865.70
185.65	1716.20
185.87	1722.34
186.10	1845.22
186.32	1849.32
186.54	1695.72
186.76	1738.73
186.98	1761.25
187.20	1665.00
187.42	1718.25
187.64	1701.86
187.86	1724.39
188.08	1699.81
188.30	1673.19
188.52	1658.85
188.75	1773.54
188.97	1820.64
189.19	1708.01
189.41	1705.96
189.63	1685.48
189.85	1712.10
190.07	1665.00
190.29	1703.91
190.51	1769.44
190.73	1632.23
190.95	1748.97
191.17	1638.38
191.39	1683.43
191.61	1689.57
191.84	1603.56
192.06	1806.31
192.28	1640.42
192.50	1849.32
192.72	1730.53
192.94	1640.42
193.16	1681.38
193.38	1673.19
193.60	1740.77
193.82	1701.86
194.04	1828.84
194.26	1806.31
194.48	1742.82
194.70	1652.71
194.92	1712.10
195.14	1722.34
195.36	1722.34
195.58	1654.76
195.80	1767.40
196.02	1638.38
196.24	1681.38
196.46	1683.43
196.69	1662.95
196.91	1857.51
197.13	1656.81
197.35	1691.62
197.57	1759.21
197.79	1687.53
198.01	1736.68
198.23	1740.77
198.45	1693.67
198.67	1656.81
198.89	1697.77
199.11	1697.77
199.33	1673.19
199.55	1591.27
199.77	1658.85
199.99	1746.92
200.21	1617.90
200.43	1654.76
200.65	1744.87
200.87	1560.55
201.09	1734.63
201.31	1675.24
201.53	1742.82
201.75	1658.85
201.97	1732.58
202.19	1662.95
202.41	1683.43
202.63	1849.32
202.85	1732.58
203.07	1714.15
203.29	1648.61
203.51	1675.24
203.73	1669.09
203.95	1949.67
204.17	1701.86
204.39	1705.96
204.61	1683.43
204.83	1683.43
205.05	1710.05
205.27	1804.26
205.49	1796.07
205.71	1665.00
205.93	1587.18
206.15	1628.14
206.37	1644.52
206.59	1650.66
206.81	1656.81
207.03	1648.61
207.25	1605.61
207.47	1763.30
207.69	1785.83
207.91	1687.53
208.13	1791.97
208.34	1703.91
208.56	1656.81
208.78	1654.76
209.00	1718.25
209.22	1656.81
209.44	1685.48
209.66	1677.29
209.88	1787.88
210.10	1724.39
210.32	1652.71
210.54	1806.31
210.76	1669.09
210.98	1771.49
211.20	1538.02
211.42	1689.57
211.64	1728.49
211.86	1685.48
212.08	1734.63
212.30	1728.49
212.52	1779.68
212.74	1746.92
212.96	1734.63
213.17	1720.29
213.39	1763.30
213.61	1804.26
213.83	1826.79
214.05	1697.77
214.27	1757.16
214.49	1587.18
214.71	1632.23
214.93	1812.45
215.15	1640.42
215.37	1757.16
215.59	1640.42
215.81	1683.43
216.03	1820.64
216.24	1677.29
216.46	1701.86
216.68	1669.09
216.90	1783.78
217.12	1787.88
217.34	1730.53
217.56	1689.57
217.78	1824.74
218.00	1716.20
218.22	1720.29
218.44	1699.81
218.66	1705.96
218.87	1822.69
219.09	1701.86
219.31	1716.20
219.53	1724.39
219.75	1658.85
219.97	1689.57
220.19	1697.77
220.41	1722.34
220.63	1757.16
220.85	1660.90
221.06	1681.38
221.28	1814.50
221.50	1726.44
221.72	1693.67
221.94	1726.44
222.16	1705.96
222.38	1722.34
222.60	1742.82
222.82	1652.71
223.03	1791.97
223.25	1626.09
223.47	1644.52
223.69	1818.60
223.91	1845.22
224.13	1697.77
224.35	1667.05
224.57	1751.01
224.78	1722.34
225.00	1687.53
225.22	1677.29
225.44	1755.11
225.66	1806.31
225.88	1669.09
226.10	1761.25
226.32	1751.01
226.53	1767.40
226.75	1687.53
226.97	1785.83
227.19	1634.28
227.41	1658.85
227.63	1722.34
227.85	1644.52
228.06	1732.58
228.28	1742.82
228.50	1705.96
228.72	1644.52
228.94	1685.48
229.16	1648.61
229.37	1630.18
229.59	1675.24
229.81	1765.35
230.03	1601.51
230.25	1662.95
230.47	1634.28
230.69	1638.38
230.90	1769.44
231.12	1660.90
231.34	1736.68
231.56	1689.57
231.78	1652.71
232.00	1687.53
232.21	1687.53
232.43	1730.53
232.65	1517.54
232.87	1751.01
233.09	1650.66
233.30	1632.23
233.52	1789.92
233.74	1724.39
233.96	1669.09
234.18	1753.06
234.40	1654.76
234.61	1814.50
234.83	1599.46
235.05	1591.27
235.27	1810.40
235.49	1718.25
235.70	1710.05
235.92	1691.62
236.14	1738.73
236.36	1806.31
236.58	1640.42
236.79	1714.15
237.01	1689.57
237.23	1742.82
237.45	1775.59
237.67	1654.76
237.88	1705.96
238.10	1769.44
238.32	1685.48
238.54	1708.01
238.76	1695.72
238.97	1736.68
239.19	1736.68
239.41	1748.97
239.63	1714.15
239.85	1718.25
240.06	1720.29
240.28	1642.47
240.50	1736.68
240.72	1759.21
240.93	1695.72
241.15	1724.39
241.37	1740.77
241.59	1740.77
241.81	1767.40
242.02	1703.91
242.24	1742.82
242.46	1736.68
242.68	1630.18
242.89	1763.30
243.11	1810.40
243.33	1705.96
243.55	1755.11
243.76	1644.52
243.98	1683.43
244.20	1724.39
244.42	1736.68
244.64	1673.19
244.85	1601.51
245.07	1685.48
245.29	1718.25
245.51	1716.20
245.72	1705.96
245.94	1832.93
246.16	1683.43
246.38	1806.31
246.59	1693.67
246.81	1634.28
247.03	1656.81
247.24	1626.09
247.46	1626.09
247.68	1708.01
247.90	1714.15
248.11	1738.73
248.33	1720.29
248.55	1687.53
248.77	1714.15
248.98	1751.01
249.20	1757.16
249.42	1753.06
249.64	1761.25
249.85	1757.16
250.07	1695.72
250.29	1714.15
250.50	1775.59
250.72	1621.99
250.94	1757.16
251.16	1763.30
251.37	1724.39
251.59	1738.73
251.81	1763.30
252.02	1802.21
252.24	1742.82
252.46	1808.36
252.68	1597.42
252.89	1650.66
253.11	1626.09
253.33	1800.16
253.54	1775.59
253.76	1595.37
253.98	1630.18
254.20	1722.34
254.41	1628.14
254.63	1669.09
254.85	1568.74
255.06	1722.34
255.28	1654.76
255.50	1705.96
255.71	1675.24
255.93	1648.61
256.15	1644.52
256.36	1773.54
256.58	1646.57
256.80	1724.39
257.02	1628.14
257.23	1722.34
257.45	1714.15
257.67	1785.83
257.88	1689.57
258.10	1824.74
258.32	1804.26
258.53	1744.87
258.75	1714.15
258.97	1654.76
259.18	1734.63
259.40	1765.35
259.62	1800.16
259.83	1800.16
260.05	1722.34
260.27	2015.20
260.48	1738.73
260.70	1677.29
260.92	1708.01
261.13	1761.25
261.35	1728.49
261.57	1736.68
261.78	1585.13
262.00	1624.04
262.22	1796.07
262.43	1626.09
262.65	1691.62
262.86	1705.96
263.08	1812.45
263.30	1751.01
263.51	1632.23
263.73	1675.24
263.95	1818.60
264.16	1724.39
264.38	1689.57
264.60	1742.82
264.81	1669.09
265.03	1683.43
265.25	1765.35
265.46	1708.01
265.68	1767.40
265.89	1746.92
266.11	1611.75
266.33	1724.39
266.54	1804.26
266.76	1757.16
266.98	1761.25
267.19	1759.21
267.41	1806.31
267.62	1765.35
267.84	1632.23
268.06	1738.73
268.27	1769.44
268.49	1777.64
268.70	1730.53
268.92	1652.71
269.14	1712.10
269.35	1675.24
269.57	1654.76
269.79	1691.62
270.00	1726.44
270.22	1742.82
270.43	1591.27
270.65	1560.55
270.87	1775.59
271.08	1785.83
271.30	1796.07
271.51	1703.91
271.73	1800.16
271.95	1832.93
272.16	1759.21
272.38	1677.29
272.59	1658.85
272.81	1779.68
273.02	1726.44
273.24	1697.77
273.46	1755.11
273.67	1660.90
273.89	1626.09
274.10	1628.14
274.32	1669.09
274.54	1691.62
274.75	1742.82
274.97	1665.00
275.18	1705.96
275.40	1718.25
275.61	1658.85
275.83	1689.57
276.05	1601.51
276.26	1607.66
276.48	1728.49
276.69	1685.48
276.91	1736.68
277.12	1730.53
277.34	1732.58
277.55	1742.82
277.77	1728.49
277.99	1648.61
278.20	1630.18
278.42	1677.29
278.63	1691.62
278.85	1675.24
279.06	1621.99
279.28	1714.15
279.49	1732.58
279.71	1701.86
279.93	1615.85
280.14	1802.21
280.36	1632.23
280.57	1708.01
280.79	1724.39
281.00	1679.33
281.22	1683.43
281.43	1802.21
281.65	1638.38
281.86	1624.04
282.08	1796.07
282.29	1777.64
282.51	1687.53
282.73	1648.61
282.94	1701.86
283.16	1765.35
283.37	1789.92
283.59	1619.94
283.80	1665.00
284.02	1665.00
284.23	1691.62
284.45	1677.29
284.66	1650.66
284.88	1708.01
285.09	1738.73
285.31	1695.72
285.52	1742.82
285.74	1591.27
285.95	1761.25
286.17	1787.88
286.38	1757.16
286.60	1689.57
286.81	1665.00
287.03	1757.16
287.24	1722.34
287.46	1732.58
287.67	1796.07
287.89	1800.16
288.10	1636.33
288.32	1705.96
288.53	1751.01
288.75	1712.10
288.96	1775.59
289.18	1671.14
289.39	1718.25
289.61	1832.93
289.82	1832.93
290.04	1761.25
290.25	1673.19
290.47	1701.86
290.68	1652.71
290.90	1718.25
291.11	1646.57
291.33	1871.84
291.54	1597.42
291.76	1648.61
291.97	1722.34
292.18	1646.57
292.40	1648.61
292.61	1740.77
292.83	1900.52
293.04	1730.53
293.26	1716.20
293.47	1652.71
293.69	1636.33
293.90	1673.19
294.12	1810.40
294.33	1654.76
294.55	1757.16
294.76	1697.77
294.97	1785.83
295.19	1841.12
295.40	1621.99
295.62	1710.05
295.83	1742.82
296.05	1714.15
296.26	1759.21
296.48	1673.19
296.69	1699.81
296.90	1683.43
297.12	1826.79
297.33	1791.97
297.55	1701.86
297.76	1751.01
297.98	1791.97
298.19	1689.57
298.41	1751.01
298.62	1671.14
298.83	1837.03
299.05	1718.25
299.26	1617.90
299.48	1628.14
299.69	1763.30
299.90	1697.77
300.12	1560.55
300.33	1724.39
300.55	1669.09
300.76	1710.05
300.98	1665.00
301.19	1714.15
301.40	1699.81
301.62	1679.33
301.83	1675.24
302.05	1744.87
302.26	1669.09
302.47	1714.15
302.69	1626.09
302.90	1730.53
303.12	1611.75
303.33	1765.35
303.54	1767.40
303.76	1683.43
303.97	1679.33
304.19	1816.55
304.40	1642.47
304.61	1693.67
304.83	1751.01
305.04	1757.16
305.26	1722.34
305.47	1656.81
305.68	1699.81
305.90	1658.85
306.11	1755.11
306.33	1673.19
306.54	1640.42
306.75	1632.23
306.97	1640.42
307.18	1697.77
307.39	1697.77
307.61	1734.63
307.82	1695.72
308.04	1779.68
308.25	1677.29
308.46	1755.11
308.68	1697.77
308.89	1718.25
309.10	1781.73
309.32	1751.01
309.53	1634.28
309.74	1755.11
309.96	1624.04
310.17	1791.97
310.39	1632.23
310.60	1728.49
310.81	1810.40
311.03	1685.48
311.24	1730.53
311.45	1665.00
311.67	1896.42
311.88	1673.19
312.09	1716.20
312.31	1732.58
312.52	1728.49
312.73	1732.58
312.95	1669.09
313.16	1679.33
313.37	1757.16
313.59	1705.96
313.80	1814.50
314.01	1751.01
314.23	1697.77
314.44	1769.44
314.65	1601.51
314.87	1689.57
315.08	1685.48
315.29	1632.23
315.51	1710.05
315.72	1609.70
315.93	1769.44
316.15	1802.21
316.36	1671.14
316.57	1722.34
316.79	1746.92
317.00	1681.38
317.21	1759.21
317.43	1665.00
317.64	1724.39
317.85	1734.63
318.07	1673.19
318.28	1769.44
318.49	1935.33
318.70	2064.35
318.92	1900.52
319.13	1871.84
319.34	1957.86
319.56	1914.85
319.77	1869.80
319.98	1816.55
320.20	1789.92
320.41	1851.36
320.62	1765.35
320.83	1642.47
321.05	1824.74
321.26	1724.39
321.47	1669.09
321.69	1822.69
321.90	1636.33
322.11	1767.40
322.32	1722.34
322.54	1816.55
322.75	1732.58
322.96	1863.65
323.18	1656.81
323.39	1624.04
323.60	1681.38
323.81	1759.21
324.03	1626.09
324.24	1720.29
324.45	1720.29
324.66	1714.15
324.88	1791.97
325.09	1787.88
325.30	1720.29
325.52	1718.25
325.73	1654.76
325.94	1597.42
326.15	1669.09
326.37	1708.01
326.58	1732.58
326.79	1865.70
327.00	1681.38
327.22	1736.68
327.43	1693.67
327.64	1601.51
327.85	1634.28
328.07	1658.85
328.28	1814.50
328.49	1607.66
328.70	1701.86
328.92	1728.49
329.13	1738.73
329.34	1828.84
329.55	1759.21
329.76	1763.30
329.98	1705.96
330.19	1712.10
330.40	1742.82
330.61	1722.34
330.83	1808.36
331.04	1665.00
331.25	1658.85
331.46	1679.33
331.68	1607.66
331.89	1687.53
332.10	1705.96
332.31	1708.01
332.52	1691.62
332.74	1867.75
332.95	1648.61
333.16	1617.90
333.37	1746.92
333.58	1681.38
333.80	1669.09
334.01	1681.38
334.22	1720.29
334.43	1708.01
334.64	1716.20
334.86	1646.57
335.07	1699.81
335.28	1781.73
335.49	1679.33
335.70	1763.30
335.92	1800.16
336.13	1767.40
336.34	1769.44
336.55	1718.25
336.76	1705.96
336.98	1665.00
337.19	1648.61
337.40	1822.69
337.61	1886.18
337.82	1689.57
338.04	1769.44
338.25	1607.66
338.46	1718.25
338.67	1650.66
338.88	1609.70
339.09	1687.53
339.31	1708.01
339.52	1673.19
339.73	1599.46
339.94	1611.75
340.15	1681.38
340.36	1617.90
340.58	1773.54
340.79	1705.96
341.00	1767.40
341.21	1617.90
341.42	1834.98
341.63	1714.15
341.85	1796.07
342.06	1720.29
342.27	1648.61
342.48	1765.35
342.69	1615.85
342.90	1697.77
343.12	1740.77
343.33	1697.77
343.54	1830.88
343.75	1779.68
343.96	1695.72
344.17	1626.09
344.38	1667.05
344.60	1652.71
344.81	1667.05
345.02	1667.05
345.23	1734.63
345.44	1865.70
345.65	1814.50
345.86	1730.53
346.07	1734.63
346.29	1757.16
346.50	1726.44
346.71	1738.73
346.92	1806.31
347.13	1806.31
347.34	1685.48
347.55	1636.33
347.76	1718.25
347.98	1640.42
348.19	1687.53
348.40	1789.92
348.61	1685.48
348.82	1779.68
349.03	1746.92
349.24	1716.20
349.45	1828.84
349.66	1593.32
349.88	1730.53
350.09	1701.86
350.30	1730.53
350.51	1771.49
350.72	1687.53
350.93	1769.44
351.14	1681.38
351.35	1734.63
351.56	1693.67
351.77	1755.11
351.99	1679.33
352.20	1732.58
352.41	1820.64
352.62	1601.51
352.83	1724.39
353.04	1748.97
353.25	1632.23
353.46	1767.40
353.67	1658.85
353.88	1607.66
354.09	1755.11
354.30	1669.09
354.52	1701.86
354.73	1722.34
354.94	1705.96
355.15	1765.35
355.36	1824.74
355.57	1693.67
355.78	1705.96
355.99	1626.09
356.20	1697.77
356.41	1773.54
356.62	1714.15
356.83	1710.05
357.04	1845.22
357.25	1601.51
357.46	1746.92
357.68	1648.61
357.89	1660.90
358.10	1742.82
358.31	1720.29
358.52	1722.34
358.73	1667.05
358.94	1619.94
359.15	1746.92
359.36	1740.77
359.57	1728.49
359.78	1736.68
359.99	1798.12
360.20	1675.24
360.41	1697.77
360.62	1710.05
360.83	1695.72
361.04	1714.15
361.25	1822.69
361.46	1849.32
361.67	1738.73
361.88	1640.42
362.09	1794.02
362.30	1761.25
362.51	1675.24
362.72	1722.34
362.93	1794.02
363.14	1738.73
363.35	1708.01
363.56	1638.38
363.78	1660.90
363.99	1744.87
364.20	1681.38
364.41	1816.55
364.62	1787.88
364.83	1710.05
365.04	1773.54
365.25	1775.59
365.46	1824.74
365.67	1617.90
365.88	1695.72
366.09	1697.77
366.30	1685.48
366.51	1669.09
366.72	1683.43
366.93	1681.38
367.14	1650.66
367.35	1744.87
367.56	1800.16
367.77	1806.31
367.98	1701.86
368.18	1683.43
368.39	1728.49
368.60	1748.97
368.81	1695.72
369.02	1681.38
369.23	1730.53
369.44	1665.00
369.65	1716.20
369.86	1708.01
370.07	1703.91
370.28	1677.29
370.49	1675.24
370.70	1703.91
370.91	1642.47
371.12	1615.85
371.33	1710.05
371.54	1746.92
371.75	1818.60
371.96	1611.75
372.17	1742.82
372.38	1656.81
372.59	1769.44
372.80	1613.80
373.01	1691.62
373.22	1671.14
373.43	1699.81
373.64	1628.14
373.85	1755.11
374.06	1828.84
374.26	1734.63
374.47	1728.49
374.68	1845.22
374.89	1789.92
375.10	1742.82
375.31	1832.93
375.52	1718.25
375.73	1667.05
375.94	1681.38
376.15	1808.36
376.36	1718.25
376.57	1646.57
376.78	1617.90
376.99	1746.92
377.20	1703.91
377.40	1671.14
377.61	1826.79
377.82	1710.05
378.03	1787.88
378.24	1816.55
378.45	1691.62
378.66	1718.25
378.87	1693.67
379.08	1599.46
379.29	1677.29
379.50	1769.44
379.71	1726.44
379.91	1787.88
380.12	1783.78
380.33	1693.67
380.54	1656.81
380.75	1693.67
380.96	1714.15
381.17	1753.06
381.38	1742.82
381.59	1779.68
381.80	1730.53
382.00	1896.42
382.21	1847.27
382.42	1796.07
382.63	1888.23
382.84	1746.92
383.05	1753.06
383.26	1779.68
383.47	1732.58
383.68	1730.53
383.88	1843.17
384.09	1746.92
384.30	1761.25
384.51	1777.64
384.72	1656.81
384.93	1683.43
385.14	1726.44
385.35	1841.12
385.55	1699.81
385.76	1798.12
385.97	1746.92
386.18	1632.23
386.39	1724.39
386.60	1691.62
386.81	1699.81
387.02	1632.23
387.22	1677.29
387.43	1798.12
387.64	1900.52
387.85	1949.67
388.06	2252.77
388.27	4681.66
388.48	9234.29
388.68	11579.22
388.89	13520.69
389.10	14012.20
389.31	11884.36
389.52	9690.99
389.73	8632.19
389.93	7819.14
390.14	7143.32
390.35	6627.23
390.56	5842.85
390.77	4995.00
390.98	3958.72
391.18	2994.13
391.39	2332.64
391.60	1920.99
391.81	1902.56
392.02	1759.21
392.23	1875.94
392.43	1746.92
392.64	1771.49
392.85	1785.83
393.06	1863.65
393.27	1732.58
393.47	1697.77
393.68	1693.67
393.89	1685.48
394.10	1777.64
394.31	1619.94
394.52	1665.00
394.72	1656.81
394.93	1765.35
395.14	1640.42
395.35	1759.21
395.56	1648.61
395.76	1734.63
395.97	1818.60
396.18	1910.75
396.39	1910.75
396.60	2045.92
396.80	1976.29
397.01	1904.61
397.22	1906.66
397.43	1841.12
397.64	1789.92
397.84	1771.49
398.05	1787.88
398.26	1771.49
398.47	1849.32
398.67	1783.78
398.88	1751.01
399.09	1781.73
399.30	1775.59
399.51	1781.73
399.71	1626.09
399.92	1708.01
400.13	1755.11
400.34	1650.66
400.54	1685.48
400.75	1824.74
400.96	1773.54
401.17	1820.64
401.37	1781.73
401.58	1730.53
401.79	1677.29
402.00	1927.14
402.21	2064.35
402.41	2103.26
402.62	2168.80
402.83	2197.47
403.04	2164.70
403.24	2181.09
403.45	1822.69
403.66	1933.28
403.87	1927.14
404.07	1984.48
404.28	1966.05
404.49	1941.47
404.70	1808.36
404.90	1855.46
405.11	1800.16
405.32	1767.40
405.52	1755.11
405.73	1658.85
405.94	1671.14
406.15	1761.25
406.35	1789.92
406.56	1832.93
406.77	1753.06
406.98	1738.73
407.18	1581.03
407.39	1818.60
407.60	1693.67
407.80	1777.64
408.01	1695.72
408.22	1730.53
408.43	1677.29
408.63	1691.62
408.84	1804.26
409.05	1785.83
409.25	1732.58
409.46	1697.77
409.67	1640.42
409.88	1687.53
410.08	1693.67
410.29	1644.52
410.50	1710.05
410.70	1732.58
410.91	1695.72
411.12	1734.63
411.32	1730.53
411.53	1757.16
411.74	1828.84
411.95	1837.03
412.15	1779.68
412.36	1791.97
412.57	1855.46
412.77	1855.46
412.98	1728.49
413.19	1693.67
413.39	1765.35
413.60	1761.25
413.81	1873.89
414.01	1636.33
414.22	1908.71
414.43	1697.77
414.63	1689.57
414.84	1732.58
415.05	1621.99
415.25	1642.47
415.46	1728.49
415.67	1744.87
415.87	1710.05
416.08	1699.81
416.29	1746.92
416.49	1783.78
416.70	1675.24
416.91	1685.48
417.11	1732.58
417.32	1755.11
417.53	1818.60
417.73	1783.78
417.94	1669.09
418.15	1730.53
418.35	1673.19
418.56	1705.96
418.77	1902.56
418.97	1767.40
419.18	1640.42
419.38	1605.61
419.59	1621.99
419.80	1830.88
420.00	1646.57
420.21	1634.28
420.42	1746.92
420.62	1771.49
420.83	1681.38
421.04	1705.96
421.24	1738.73
421.45	1736.68
421.65	1656.81
421.86	1738.73
422.07	1798.12
422.27	1722.34
422.48	1785.83
422.69	1732.58
422.89	1689.57
423.10	1673.19
423.30	1675.24
423.51	1650.66
423.72	1757.16
423.92	1732.58
424.13	1597.42
424.33	1685.48
424.54	1738.73
424.75	1669.09
424.95	1828.84
425.16	1796.07
425.36	1683.43
425.57	1742.82
425.78	1716.20
425.98	1765.35
426.19	1726.44
426.39	1705.96
426.60	1738.73
426.81	1843.17
427.01	1640.42
427.22	1638.38
427.42	1601.51
427.63	1654.76
427.83	1757.16
428.04	1791.97
428.25	1701.86
428.45	1783.78
428.66	1748.97
428.86	1746.92
429.07	1685.48
429.28	1746.92
429.48	1624.04
429.69	1615.85
429.89	1746.92
430.10	1626.09
430.30	1720.29
430.51	1695.72
430.71	1732.58
430.92	1658.85
431.13	1687.53
431.33	1673.19
431.54	1755.11
431.74	1830.88
431.95	1861.60
432.15	1574.89
432.36	1726.44
432.56	1708.01
432.77	1804.26
432.98	1818.60
433.18	1773.54
433.39	1746.92
433.59	1728.49
433.80	1916.90
434.00	1888.23
434.21	1609.70
434.41	1605.61
434.62	1890.28
434.82	1673.19
435.03	1685.48
435.23	1767.40
435.44	1644.52
435.64	1746.92
435.85	1710.05
436.06	1742.82
436.26	1710.05
436.47	1683.43
436.67	1708.01
436.88	1683.43
437.08	1798.12
437.29	1834.98
437.49	1722.34
437.70	1845.22
437.90	1763.30
438.11	1812.45
438.31	1845.22
438.52	1826.79
438.72	1941.47
438.93	1943.52
439.13	1849.32
439.34	1802.21
439.54	1798.12
439.75	1810.40
439.95	1814.50
440.16	1763.30
440.36	1822.69
440.57	1812.45
440.77	1802.21
440.98	1724.39
441.18	1785.83
441.39	1710.05
441.59	1742.82
441.80	1841.12
442.00	1687.53
442.21	1761.25
442.41	1662.95
442.62	1806.31
442.82	1617.90
443.02	1681.38
443.23	1785.83
443.43	1740.77
443.64	1828.84
443.84	1812.45
444.05	1808.36
444.25	1816.55
444.46	1763.30
444.66	1789.92
444.87	1841.12
445.07	1636.33
445.28	1722.34
445.48	1806.31
445.69	1718.25
445.89	1959.91
446.09	1773.54
446.30	2105.31
446.50	2559.96
446.71	4169.66
446.91	5070.77
447.12	5795.75
447.32	5984.16
447.53	5285.81
447.73	4456.38
447.93	3960.77
448.14	3706.82
448.34	3450.83
448.55	3155.92
448.75	3059.67
448.96	2992.08
449.16	2596.82
449.36	2504.67
449.57	2207.71
449.77	1939.43
449.98	1804.26
450.18	1837.03
450.39	1777.64
450.59	1757.16
450.79	1759.21
451.00	1728.49
451.20	1785.83
451.41	1800.16
451.61	1726.44
451.81	1746.92
452.02	1728.49
452.22	1771.49
452.43	1728.49
452.63	1691.62
