SpectraSuite Data File
++++++++++++++++++++++++++++++++++++
Date: Wed May 04 18:44:46 CEST 2016
User: root
Dark Spectrum Present: No
Reference Spectrum Present: No
Number of Sampled Component Spectra: 1
Spectrometers: USB4C02835
Integration Time (usec): 100000 (USB4C02835)
Spectra Averaged: 1 (USB4C02835)
Boxcar Smoothing: 0 (USB4C02835)
Correct for Electrical Dark: No (USB4C02835)
Strobe/Lamp Enabled: No (USB4C02835)
Correct for Detector Non-linearity: No (USB4C02835)
Correct for Stray Light: No (USB4C02835)
Number of Pixels in Processed Spectrum: 3648
>>>>>Begin Processed Spectral Data<<<<<
177.47	1495.02
177.69	1495.02
177.91	1495.02
178.13	1445.87
178.36	1492.97
178.58	1675.24
178.80	1708.01
179.02	1714.15
179.24	1685.48
179.46	1681.38
179.68	1785.83
179.90	1757.16
180.13	1683.43
180.35	1636.33
180.57	1640.42
180.79	1734.63
181.01	1742.82
181.23	1787.88
181.45	1710.05
181.67	1681.38
181.90	1724.39
182.12	1652.71
182.34	1683.43
182.56	1693.67
182.78	1744.87
183.00	1718.25
183.22	1705.96
183.44	1585.13
183.66	1861.60
183.89	1730.53
184.11	1740.77
184.33	1671.14
184.55	1748.97
184.77	1660.90
184.99	1742.82
185.21	1673.19
185.43	1855.46
185.65	1673.19
185.87	1718.25
186.10	1791.97
186.32	1787.88
186.54	1714.15
186.76	1798.12
186.98	1705.96
187.20	1638.38
187.42	1671.14
187.64	1751.01
187.86	1708.01
188.08	1771.49
188.30	1677.29
188.52	1722.34
188.75	1855.46
188.97	1779.68
189.19	1732.58
189.41	1679.33
189.63	1755.11
189.85	1687.53
190.07	1712.10
190.29	1648.61
190.51	1791.97
190.73	1648.61
190.95	1710.05
191.17	1705.96
191.39	1609.70
191.61	1673.19
191.84	1632.23
192.06	1724.39
192.28	1656.81
192.50	1916.90
192.72	1695.72
192.94	1763.30
193.16	1697.77
193.38	1755.11
193.60	1716.20
193.82	1677.29
194.04	1771.49
194.26	1726.44
194.48	1652.71
194.70	1759.21
194.92	1646.57
195.14	1785.83
195.36	1748.97
195.58	1685.48
195.80	1726.44
196.02	1671.14
196.24	1658.85
196.46	1710.05
196.69	1689.57
196.91	1877.99
197.13	1669.09
197.35	1650.66
197.57	1789.92
197.79	1656.81
198.01	1710.05
198.23	1746.92
198.45	1759.21
198.67	1652.71
198.89	1722.34
199.11	1730.53
199.33	1699.81
199.55	1570.79
199.77	1687.53
199.99	1769.44
200.21	1662.95
200.43	1705.96
200.65	1574.89
200.87	1595.37
201.09	1638.38
201.31	1673.19
201.53	1695.72
201.75	1705.96
201.97	1697.77
202.19	1634.28
202.41	1742.82
202.63	1779.68
202.85	1716.20
203.07	1740.77
203.29	1691.62
203.51	1669.09
203.73	1665.00
203.95	1974.24
204.17	1701.86
204.39	1730.53
204.61	1728.49
204.83	1615.85
205.05	1744.87
205.27	1748.97
205.49	1800.16
205.71	1681.38
205.93	1648.61
206.15	1718.25
206.37	1740.77
206.59	1708.01
206.81	1683.43
207.03	1722.34
207.25	1646.57
207.47	1755.11
207.69	1673.19
207.91	1734.63
208.13	1808.36
208.34	1667.05
208.56	1710.05
208.78	1724.39
209.00	1751.01
209.22	1718.25
209.44	1652.71
209.66	1708.01
209.88	1665.00
210.10	1628.14
210.32	1667.05
210.54	1791.97
210.76	1697.77
210.98	1699.81
211.20	1591.27
211.42	1695.72
211.64	1748.97
211.86	1746.92
212.08	1806.31
212.30	1687.53
212.52	1757.16
212.74	1767.40
212.96	1740.77
213.17	1777.64
213.39	1746.92
213.61	1824.74
213.83	1802.21
214.05	1656.81
214.27	1736.68
214.49	1599.46
214.71	1615.85
214.93	1771.49
215.15	1687.53
215.37	1732.58
215.59	1626.09
215.81	1751.01
216.03	1798.12
216.24	1748.97
216.46	1714.15
216.68	1658.85
216.90	1755.11
217.12	1742.82
217.34	1691.62
217.56	1787.88
217.78	1783.78
218.00	1728.49
218.22	1665.00
218.44	1761.25
218.66	1619.94
218.87	1746.92
219.09	1695.72
219.31	1710.05
219.53	1712.10
219.75	1738.73
219.97	1654.76
220.19	1755.11
220.41	1751.01
220.63	1738.73
220.85	1783.78
221.06	1687.53
221.28	1769.44
221.50	1783.78
221.72	1691.62
221.94	1767.40
222.16	1681.38
222.38	1761.25
222.60	1773.54
222.82	1634.28
223.03	1732.58
223.25	1611.75
223.47	1722.34
223.69	1931.23
223.91	1708.01
224.13	1667.05
224.35	1722.34
224.57	1734.63
224.78	1662.95
225.00	1617.90
225.22	1710.05
225.44	1673.19
225.66	1742.82
225.88	1665.00
226.10	1822.69
226.32	1687.53
226.53	1761.25
226.75	1734.63
226.97	1728.49
227.19	1744.87
227.41	1656.81
227.63	1667.05
227.85	1726.44
228.06	1722.34
228.28	1681.38
228.50	1751.01
228.72	1617.90
228.94	1644.52
229.16	1607.66
229.37	1626.09
229.59	1673.19
229.81	1781.73
230.03	1716.20
230.25	1681.38
230.47	1679.33
230.69	1654.76
230.90	1746.92
231.12	1716.20
231.34	1773.54
231.56	1824.74
231.78	1654.76
232.00	1771.49
232.21	1675.24
232.43	1734.63
232.65	1597.42
232.87	1605.61
233.09	1646.57
233.30	1695.72
233.52	1798.12
233.74	1705.96
233.96	1730.53
234.18	1759.21
234.40	1681.38
234.61	1761.25
234.83	1660.90
235.05	1617.90
235.27	1816.55
235.49	1787.88
235.70	1759.21
235.92	1755.11
236.14	1732.58
236.36	1902.56
236.58	1697.77
236.79	1701.86
237.01	1695.72
237.23	1699.81
237.45	1773.54
237.67	1697.77
237.88	1812.45
238.10	1820.64
238.32	1689.57
238.54	1665.00
238.76	1615.85
238.97	1683.43
239.19	1675.24
239.41	1794.02
239.63	1804.26
239.85	1667.05
240.06	1683.43
240.28	1619.94
240.50	1734.63
240.72	1689.57
240.93	1705.96
241.15	1783.78
241.37	1662.95
241.59	1871.84
241.81	1763.30
242.02	1681.38
242.24	1724.39
242.46	1746.92
242.68	1669.09
242.89	1812.45
243.11	1742.82
243.33	1720.29
243.55	1697.77
243.76	1714.15
243.98	1740.77
244.20	1697.77
244.42	1689.57
244.64	1628.14
244.85	1642.47
245.07	1679.33
245.29	1740.77
245.51	1632.23
245.72	1642.47
245.94	1812.45
246.16	1722.34
246.38	1746.92
246.59	1716.20
246.81	1705.96
247.03	1726.44
247.24	1630.18
247.46	1650.66
247.68	1652.71
247.90	1660.90
248.11	1685.48
248.33	1732.58
248.55	1751.01
248.77	1679.33
248.98	1738.73
249.20	1794.02
249.42	1693.67
249.64	1753.06
249.85	1738.73
250.07	1701.86
250.29	1738.73
250.50	1775.59
250.72	1626.09
250.94	1703.91
251.16	1877.99
251.37	1695.72
251.59	1767.40
251.81	1728.49
252.02	1687.53
252.24	1589.22
252.46	1775.59
252.68	1726.44
252.89	1646.57
253.11	1677.29
253.33	1730.53
253.54	1746.92
253.76	1556.46
253.98	1585.13
254.20	1689.57
254.41	1665.00
254.63	1693.67
254.85	1617.90
255.06	1738.73
255.28	1738.73
255.50	1740.77
255.71	1695.72
255.93	1660.90
256.15	1701.86
256.36	1740.77
256.58	1650.66
256.80	1714.15
257.02	1679.33
257.23	1662.95
257.45	1646.57
257.67	1755.11
257.88	1665.00
258.10	1744.87
258.32	1644.52
258.53	1699.81
258.75	1767.40
258.97	1722.34
259.18	1742.82
259.40	1665.00
259.62	1781.73
259.83	1828.84
260.05	1689.57
260.27	1935.33
260.48	1808.36
260.70	1632.23
260.92	1677.29
261.13	1693.67
261.35	1726.44
261.57	1746.92
261.78	1617.90
262.00	1642.47
262.22	1771.49
262.43	1632.23
262.65	1673.19
262.86	1683.43
263.08	1740.77
263.30	1658.85
263.51	1609.70
263.73	1738.73
263.95	1828.84
264.16	1654.76
264.38	1607.66
264.60	1730.53
264.81	1738.73
265.03	1777.64
265.25	1708.01
265.46	1781.73
265.68	1787.88
265.89	1722.34
266.11	1660.90
266.33	1718.25
266.54	1789.92
266.76	1796.07
266.98	1775.59
267.19	1751.01
267.41	1802.21
267.62	1665.00
267.84	1609.70
268.06	1773.54
268.27	1742.82
268.49	1787.88
268.70	1730.53
268.92	1660.90
269.14	1591.27
269.35	1665.00
269.57	1736.68
269.79	1763.30
270.00	1697.77
270.22	1800.16
270.43	1603.56
270.65	1599.46
270.87	1691.62
271.08	1791.97
271.30	1828.84
271.51	1667.05
271.73	1736.68
271.95	1775.59
272.16	1816.55
272.38	1714.15
272.59	1712.10
272.81	1714.15
273.02	1730.53
273.24	1800.16
273.46	1753.06
273.67	1697.77
273.89	1650.66
274.10	1685.48
274.32	1820.64
274.54	1609.70
274.75	1773.54
274.97	1675.24
275.18	1693.67
275.40	1779.68
275.61	1710.05
275.83	1681.38
276.05	1718.25
276.26	1687.53
276.48	1755.11
276.69	1669.09
276.91	1642.47
277.12	1808.36
277.34	1761.25
277.55	1871.84
277.77	1644.52
277.99	1689.57
278.20	1638.38
278.42	1593.32
278.63	1656.81
278.85	1615.85
279.06	1689.57
279.28	1771.49
279.49	1779.68
279.71	1736.68
279.93	1775.59
280.14	1763.30
280.36	1665.00
280.57	1691.62
280.79	1738.73
281.00	1683.43
281.22	1695.72
281.43	1708.01
281.65	1605.61
281.86	1665.00
282.08	1740.77
282.29	1830.88
282.51	1648.61
282.73	1630.18
282.94	1632.23
283.16	1789.92
283.37	1904.61
283.59	1712.10
283.80	1763.30
284.02	1757.16
284.23	1796.07
284.45	1716.20
284.66	1722.34
284.88	1632.23
285.09	1732.58
285.31	1740.77
285.52	1771.49
285.74	1630.18
285.95	1763.30
286.17	1726.44
286.38	1710.05
286.60	1679.33
286.81	1677.29
287.03	1695.72
287.24	1636.33
287.46	1722.34
287.67	1748.97
287.89	1837.03
288.10	1681.38
288.32	1665.00
288.53	1787.88
288.75	1673.19
288.96	1722.34
289.18	1652.71
289.39	1712.10
289.61	1611.75
289.82	1843.17
290.04	1832.93
290.25	1640.42
290.47	1683.43
290.68	1701.86
290.90	1763.30
291.11	1609.70
291.33	1814.50
291.54	1691.62
291.76	1652.71
291.97	1701.86
292.18	1705.96
292.40	1656.81
292.61	1714.15
292.83	1798.12
293.04	1751.01
293.26	1662.95
293.47	1648.61
293.69	1652.71
293.90	1630.18
294.12	1789.92
294.33	1675.24
294.55	1728.49
294.76	1812.45
294.97	1849.32
295.19	1837.03
295.40	1730.53
295.62	1732.58
295.83	1703.91
296.05	1720.29
296.26	1767.40
296.48	1681.38
296.69	1708.01
296.90	1720.29
297.12	1742.82
297.33	1746.92
297.55	1718.25
297.76	1679.33
297.98	1794.02
298.19	1689.57
298.41	1742.82
298.62	1777.64
298.83	1753.06
299.05	1765.35
299.26	1656.81
299.48	1656.81
299.69	1683.43
299.90	1716.20
300.12	1583.08
300.33	1644.52
300.55	1667.05
300.76	1757.16
300.98	1619.94
301.19	1777.64
301.40	1732.58
301.62	1718.25
301.83	1726.44
302.05	1708.01
302.26	1791.97
302.47	1751.01
302.69	1636.33
302.90	1757.16
303.12	1613.80
303.33	1738.73
303.54	1845.22
303.76	1681.38
303.97	1703.91
304.19	1867.75
304.40	1724.39
304.61	1714.15
304.83	1851.36
305.04	1683.43
305.26	1812.45
305.47	1583.08
305.68	1738.73
305.90	1568.74
306.11	1738.73
306.33	1693.67
306.54	1675.24
306.75	1667.05
306.97	1640.42
307.18	1667.05
307.39	1617.90
307.61	1716.20
307.82	1642.47
308.04	1708.01
308.25	1636.33
308.46	1724.39
308.68	1683.43
308.89	1701.86
309.10	1701.86
309.32	1718.25
309.53	1736.68
309.74	1759.21
309.96	1726.44
310.17	1726.44
310.39	1691.62
310.60	1681.38
310.81	1712.10
311.03	1677.29
311.24	1830.88
311.45	1714.15
311.67	1877.99
311.88	1738.73
312.09	1691.62
312.31	1705.96
312.52	1689.57
312.73	1804.26
312.95	1628.14
313.16	1716.20
313.37	1791.97
313.59	1761.25
313.80	1769.44
314.01	1785.83
314.23	1638.38
314.44	1652.71
314.65	1677.29
314.87	1621.99
315.08	1726.44
315.29	1712.10
315.51	1630.18
315.72	1673.19
315.93	1751.01
316.15	1814.50
316.36	1624.04
316.57	1703.91
316.79	1695.72
317.00	1691.62
317.21	1744.87
317.43	1677.29
317.64	1708.01
317.85	1732.58
318.07	1662.95
318.28	1783.78
318.49	1869.80
318.70	1933.28
318.92	1929.19
319.13	1798.12
319.34	1814.50
319.56	1812.45
319.77	1775.59
319.98	1832.93
320.20	1806.31
320.41	1802.21
320.62	1779.68
320.83	1652.71
321.05	1886.18
321.26	1697.77
321.47	1767.40
321.69	1839.08
321.90	1736.68
322.11	1683.43
322.32	1759.21
322.54	1740.77
322.75	1665.00
322.96	1787.88
323.18	1589.22
323.39	1544.17
323.60	1775.59
323.81	1691.62
324.03	1617.90
324.24	1757.16
324.45	1716.20
324.66	1714.15
324.88	1755.11
325.09	1751.01
325.30	1730.53
325.52	1734.63
325.73	1697.77
325.94	1638.38
326.15	1613.80
326.37	1714.15
326.58	1755.11
326.79	1851.36
327.00	1679.33
327.22	1673.19
327.43	1689.57
327.64	1685.48
327.85	1689.57
328.07	1763.30
328.28	1783.78
328.49	1689.57
328.70	1654.76
328.92	1677.29
329.13	1679.33
329.34	1705.96
329.55	1806.31
329.76	1767.40
329.98	1640.42
330.19	1796.07
330.40	1800.16
330.61	1763.30
330.83	1726.44
331.04	1687.53
331.25	1726.44
331.46	1736.68
331.68	1654.76
331.89	1787.88
332.10	1720.29
332.31	1601.51
332.52	1740.77
332.74	1746.92
332.95	1654.76
333.16	1722.34
333.37	1734.63
333.58	1613.80
333.80	1734.63
334.01	1589.22
334.22	1703.91
334.43	1689.57
334.64	1740.77
334.86	1671.14
335.07	1648.61
335.28	1775.59
335.49	1613.80
335.70	1753.06
335.92	1746.92
336.13	1816.55
336.34	1742.82
336.55	1665.00
336.76	1683.43
336.98	1538.02
337.19	1755.11
337.40	1740.77
337.61	1865.70
337.82	1738.73
338.04	1751.01
338.25	1619.94
338.46	1636.33
338.67	1646.57
338.88	1701.86
339.09	1619.94
339.31	1648.61
339.52	1677.29
339.73	1558.50
339.94	1716.20
340.15	1722.34
340.36	1665.00
340.58	1685.48
340.79	1710.05
341.00	1769.44
341.21	1679.33
341.42	1851.36
341.63	1685.48
341.85	1771.49
342.06	1665.00
342.27	1650.66
342.48	1777.64
342.69	1621.99
342.90	1796.07
343.12	1734.63
343.33	1720.29
343.54	1845.22
343.75	1796.07
343.96	1708.01
344.17	1683.43
344.38	1763.30
344.60	1689.57
344.81	1640.42
345.02	1744.87
345.23	1763.30
345.44	1843.17
345.65	1828.84
345.86	1642.47
346.07	1671.14
346.29	1699.81
346.50	1802.21
346.71	1746.92
346.92	1791.97
347.13	1918.95
347.34	1683.43
347.55	1681.38
347.76	1732.58
347.98	1626.09
348.19	1671.14
348.40	1771.49
348.61	1722.34
348.82	1679.33
349.03	1697.77
349.24	1687.53
349.45	1841.12
349.66	1675.24
349.88	1718.25
350.09	1734.63
350.30	1783.78
350.51	1777.64
350.72	1763.30
350.93	1681.38
351.14	1751.01
351.35	1755.11
351.56	1701.86
351.77	1738.73
351.99	1738.73
352.20	1796.07
352.41	1769.44
352.62	1568.74
352.83	1769.44
353.04	1689.57
353.25	1669.09
353.46	1708.01
353.67	1755.11
353.88	1513.45
354.09	1697.77
354.30	1757.16
354.52	1716.20
354.73	1746.92
354.94	1734.63
355.15	1730.53
355.36	1761.25
355.57	1720.29
355.78	1753.06
355.99	1650.66
356.20	1697.77
356.41	1789.92
356.62	1708.01
356.83	1681.38
357.04	1775.59
357.25	1703.91
357.46	1687.53
357.68	1634.28
357.89	1640.42
358.10	1683.43
358.31	1701.86
358.52	1669.09
358.73	1628.14
358.94	1630.18
359.15	1701.86
359.36	1765.35
359.57	1730.53
359.78	1712.10
359.99	1689.57
360.20	1699.81
360.41	1701.86
360.62	1732.58
360.83	1705.96
361.04	1685.48
361.25	1820.64
361.46	1845.22
361.67	1728.49
361.88	1753.06
362.09	1781.73
362.30	1697.77
362.51	1665.00
362.72	1667.05
362.93	1734.63
363.14	1755.11
363.35	1767.40
363.56	1656.81
363.78	1740.77
363.99	1781.73
364.20	1693.67
364.41	1753.06
364.62	1785.83
364.83	1691.62
365.04	1667.05
365.25	1615.85
365.46	1804.26
365.67	1697.77
365.88	1771.49
366.09	1744.87
366.30	1617.90
366.51	1685.48
366.72	1644.52
366.93	1720.29
367.14	1691.62
367.35	1748.97
367.56	1695.72
367.77	1816.55
367.98	1685.48
368.18	1710.05
368.39	1722.34
368.60	1648.61
368.81	1796.07
369.02	1722.34
369.23	1683.43
369.44	1607.66
369.65	1630.18
369.86	1779.68
370.07	1697.77
370.28	1677.29
370.49	1746.92
370.70	1738.73
370.91	1673.19
371.12	1640.42
371.33	1816.55
371.54	1675.24
371.75	1763.30
371.96	1595.37
372.17	1642.47
372.38	1681.38
372.59	1738.73
372.80	1697.77
373.01	1705.96
373.22	1738.73
373.43	1703.91
373.64	1658.85
373.85	1791.97
374.06	1767.40
374.26	1816.55
374.47	1632.23
374.68	1839.08
374.89	1757.16
375.10	1685.48
375.31	1765.35
375.52	1693.67
375.73	1730.53
375.94	1689.57
376.15	1761.25
376.36	1689.57
376.57	1667.05
376.78	1777.64
376.99	1691.62
377.20	1798.12
377.40	1734.63
377.61	1771.49
377.82	1603.56
378.03	1806.31
378.24	1679.33
378.45	1714.15
378.66	1681.38
378.87	1679.33
379.08	1689.57
379.29	1675.24
379.50	1804.26
379.71	1701.86
379.91	1673.19
380.12	1636.33
380.33	1726.44
380.54	1671.14
380.75	1775.59
380.96	1638.38
381.17	1718.25
381.38	1734.63
381.59	1820.64
381.80	1755.11
382.00	1853.41
382.21	1796.07
382.42	1841.12
382.63	1886.18
382.84	1812.45
383.05	1724.39
383.26	1839.08
383.47	1812.45
383.68	1816.55
383.88	1759.21
384.09	1755.11
384.30	1828.84
384.51	1681.38
384.72	1658.85
384.93	1648.61
385.14	1681.38
385.35	1843.17
385.55	1630.18
385.76	1834.98
385.97	1740.77
386.18	1675.24
386.39	1640.42
386.60	1781.73
386.81	1691.62
387.02	1712.10
387.22	1642.47
387.43	1826.79
387.64	1886.18
387.85	1898.47
388.06	2256.86
388.27	4847.54
388.48	9168.76
388.68	11636.56
388.89	13420.34
389.10	14149.42
389.31	11949.90
389.52	9641.84
389.73	8421.25
389.93	7899.02
390.14	7311.25
390.35	6627.23
390.56	5980.07
390.77	5121.97
390.98	3948.48
391.18	2926.55
391.39	2392.03
391.60	1986.53
391.81	1832.93
392.02	1751.01
392.23	1843.17
392.43	1755.11
392.64	1679.33
392.85	1843.17
393.06	1828.84
393.27	1695.72
393.47	1644.52
393.68	1669.09
393.89	1671.14
394.10	1775.59
394.31	1732.58
394.52	1697.77
394.72	1677.29
394.93	1755.11
395.14	1695.72
395.35	1818.60
395.56	1617.90
395.76	1705.96
395.97	1812.45
396.18	1892.32
396.39	1896.42
396.60	2105.31
396.80	1957.86
397.01	1834.98
397.22	1910.75
397.43	1884.13
397.64	1730.53
397.84	1806.31
398.05	1865.70
398.26	1794.02
398.47	1761.25
398.67	1761.25
398.88	1759.21
399.09	1787.88
399.30	1720.29
399.51	1748.97
399.71	1683.43
399.92	1722.34
400.13	1718.25
400.34	1746.92
400.54	1728.49
400.75	1806.31
400.96	1734.63
401.17	1886.18
401.37	1767.40
401.58	1669.09
401.79	1710.05
402.00	1855.46
402.21	2017.25
402.41	2023.39
402.62	2142.18
402.83	2136.03
403.04	2078.69
403.24	2084.83
403.45	1871.84
403.66	2009.06
403.87	1908.71
404.07	1935.33
404.28	2000.87
404.49	1941.47
404.70	1787.88
404.90	1789.92
405.11	1734.63
405.32	1763.30
405.52	1748.97
405.73	1640.42
405.94	1658.85
406.15	1722.34
406.35	1791.97
406.56	1816.55
406.77	1685.48
406.98	1701.86
407.18	1716.20
407.39	1785.83
407.60	1626.09
407.80	1732.58
408.01	1705.96
408.22	1736.68
408.43	1652.71
408.63	1746.92
408.84	1714.15
409.05	1755.11
409.25	1646.57
409.46	1665.00
409.67	1689.57
409.88	1667.05
410.08	1742.82
410.29	1679.33
410.50	1683.43
410.70	1751.01
410.91	1652.71
411.12	1732.58
411.32	1652.71
411.53	1677.29
411.74	1890.28
411.95	1830.88
412.15	1765.35
412.36	1755.11
412.57	1798.12
412.77	1834.98
412.98	1710.05
413.19	1703.91
413.39	1777.64
413.60	1742.82
413.81	1832.93
414.01	1705.96
414.22	1789.92
414.43	1791.97
414.63	1703.91
414.84	1816.55
415.05	1712.10
415.25	1599.46
415.46	1761.25
415.67	1720.29
415.87	1708.01
416.08	1736.68
416.29	1742.82
416.49	1722.34
416.70	1722.34
416.91	1697.77
417.11	1648.61
417.32	1742.82
417.53	1748.97
417.73	1734.63
417.94	1705.96
418.15	1683.43
418.35	1630.18
418.56	1798.12
418.77	1867.75
418.97	1748.97
419.18	1714.15
419.38	1605.61
419.59	1771.49
419.80	1814.50
420.00	1765.35
420.21	1726.44
420.42	1744.87
420.62	1763.30
420.83	1714.15
421.04	1636.33
421.24	1675.24
421.45	1689.57
421.65	1728.49
421.86	1665.00
422.07	1753.06
422.27	1763.30
422.48	1708.01
422.69	1628.14
422.89	1689.57
423.10	1728.49
423.30	1609.70
423.51	1787.88
423.72	1742.82
423.92	1742.82
424.13	1662.95
424.33	1693.67
424.54	1781.73
424.75	1718.25
424.95	1828.84
425.16	1800.16
425.36	1761.25
425.57	1781.73
425.78	1798.12
425.98	1693.67
426.19	1695.72
426.39	1658.85
426.60	1714.15
426.81	1761.25
427.01	1785.83
427.22	1613.80
427.42	1611.75
427.63	1681.38
427.83	1806.31
428.04	1822.69
428.25	1808.36
428.45	1863.65
428.66	1740.77
428.86	1687.53
429.07	1734.63
429.28	1738.73
429.48	1685.48
429.69	1624.04
429.89	1656.81
430.10	1640.42
430.30	1771.49
430.51	1714.15
430.71	1673.19
430.92	1681.38
431.13	1701.86
431.33	1755.11
431.54	1767.40
431.74	1779.68
431.95	1814.50
432.15	1652.71
432.36	1759.21
432.56	1708.01
432.77	1810.40
432.98	1830.88
433.18	1667.05
433.39	1769.44
433.59	1683.43
433.80	1822.69
434.00	1851.36
434.21	1677.29
434.41	1718.25
434.62	1812.45
434.82	1744.87
435.03	1597.42
435.23	1755.11
435.44	1619.94
435.64	1701.86
435.85	1779.68
436.06	1828.84
436.26	1824.74
436.47	1669.09
436.67	1679.33
436.88	1738.73
437.08	1800.16
437.29	1802.21
437.49	1728.49
437.70	1796.07
437.90	1736.68
438.11	1800.16
438.31	1834.98
438.52	1841.12
438.72	1918.95
438.93	1910.75
439.13	1861.60
439.34	1853.41
439.54	1740.77
439.75	1826.79
439.95	1794.02
440.16	1648.61
440.36	1755.11
440.57	1796.07
440.77	1816.55
440.98	1759.21
441.18	1828.84
441.39	1800.16
441.59	1669.09
441.80	1865.70
442.00	1746.92
442.21	1837.03
442.41	1624.04
442.62	1802.21
442.82	1683.43
443.02	1716.20
443.23	1751.01
443.43	1710.05
443.64	1839.08
443.84	1660.90
444.05	1830.88
444.25	1761.25
444.46	1695.72
444.66	1751.01
444.87	1837.03
445.07	1722.34
445.28	1720.29
445.48	1789.92
445.69	1820.64
445.89	1882.08
446.09	1761.25
446.30	2025.44
446.50	2566.10
446.71	4138.94
446.91	5181.36
447.12	5836.71
447.32	5914.53
447.53	5427.12
447.73	4370.37
447.93	3995.59
448.14	3659.72
448.34	3499.98
448.55	3178.45
448.75	3059.67
448.96	3028.95
449.16	2668.50
449.36	2459.61
449.57	2170.85
449.77	1898.47
449.98	1816.55
450.18	1773.54
450.39	1761.25
450.59	1796.07
450.79	1767.40
451.00	1708.01
451.20	1859.56
451.41	1726.44
451.61	1753.06
451.81	1720.29
452.02	1751.01
452.22	1667.05
452.43	1671.14
452.63	1640.42
