SpectraSuite Data File
++++++++++++++++++++++++++++++++++++
Date: Wed May 04 18:44:17 CEST 2016
User: root
Dark Spectrum Present: No
Reference Spectrum Present: No
Number of Sampled Component Spectra: 1
Spectrometers: USB4C02835
Integration Time (usec): 100000 (USB4C02835)
Spectra Averaged: 1 (USB4C02835)
Boxcar Smoothing: 0 (USB4C02835)
Correct for Electrical Dark: No (USB4C02835)
Strobe/Lamp Enabled: No (USB4C02835)
Correct for Detector Non-linearity: No (USB4C02835)
Correct for Stray Light: No (USB4C02835)
Number of Pixels in Processed Spectrum: 3648
>>>>>Begin Processed Spectral Data<<<<<
177.47	1380.33
177.69	1380.33
177.91	1380.33
178.13	1497.07
178.36	1466.35
178.58	1646.57
178.80	1755.11
179.02	1634.28
179.24	1656.81
179.46	1705.96
179.68	1757.16
179.90	1720.29
180.13	1716.20
180.35	1578.98
180.57	1757.16
180.79	1617.90
181.01	1730.53
181.23	1800.16
181.45	1751.01
181.67	1677.29
181.90	1771.49
182.12	1646.57
182.34	1673.19
182.56	1746.92
182.78	1734.63
183.00	1773.54
183.22	1765.35
183.44	1599.46
183.66	1837.03
183.89	1849.32
184.11	1736.68
184.33	1671.14
184.55	1791.97
184.77	1740.77
184.99	1806.31
185.21	1757.16
185.43	1839.08
185.65	1734.63
185.87	1744.87
186.10	1777.64
186.32	1867.75
186.54	1769.44
186.76	1824.74
186.98	1724.39
187.20	1744.87
187.42	1669.09
187.64	1718.25
187.86	1757.16
188.08	1767.40
188.30	1673.19
188.52	1716.20
188.75	1742.82
188.97	1804.26
189.19	1722.34
189.41	1697.77
189.63	1789.92
189.85	1648.61
190.07	1642.47
190.29	1722.34
190.51	1687.53
190.73	1648.61
190.95	1771.49
191.17	1681.38
191.39	1669.09
191.61	1728.49
191.84	1644.52
192.06	1767.40
192.28	1654.76
192.50	1886.18
192.72	1787.88
192.94	1728.49
193.16	1732.58
193.38	1763.30
193.60	1658.85
193.82	1683.43
194.04	1796.07
194.26	1779.68
194.48	1708.01
194.70	1691.62
194.92	1753.06
195.14	1710.05
195.36	1679.33
195.58	1722.34
195.80	1748.97
196.02	1562.60
196.24	1691.62
196.46	1683.43
196.69	1734.63
196.91	1814.50
197.13	1609.70
197.35	1650.66
197.57	1779.68
197.79	1695.72
198.01	1802.21
198.23	1740.77
198.45	1730.53
198.67	1626.09
198.89	1667.05
199.11	1726.44
199.33	1628.14
199.55	1665.00
199.77	1732.58
199.99	1751.01
200.21	1714.15
200.43	1738.73
200.65	1677.29
200.87	1587.18
201.09	1613.80
201.31	1732.58
201.53	1746.92
201.75	1730.53
201.97	1697.77
202.19	1644.52
202.41	1642.47
202.63	1804.26
202.85	1736.68
203.07	1763.30
203.29	1683.43
203.51	1689.57
203.73	1642.47
203.95	1886.18
204.17	1787.88
204.39	1720.29
204.61	1683.43
204.83	1621.99
205.05	1775.59
205.27	1767.40
205.49	1832.93
205.71	1681.38
205.93	1640.42
206.15	1720.29
206.37	1693.67
206.59	1705.96
206.81	1644.52
207.03	1583.08
207.25	1640.42
207.47	1753.06
207.69	1693.67
207.91	1742.82
208.13	1767.40
208.34	1650.66
208.56	1669.09
208.78	1628.14
209.00	1710.05
209.22	1613.80
209.44	1658.85
209.66	1697.77
209.88	1640.42
210.10	1677.29
210.32	1675.24
210.54	1765.35
210.76	1658.85
210.98	1800.16
211.20	1642.47
211.42	1755.11
211.64	1808.36
211.86	1759.21
212.08	1755.11
212.30	1675.24
212.52	1712.10
212.74	1699.81
212.96	1753.06
213.17	1773.54
213.39	1753.06
213.61	1904.61
213.83	1755.11
214.05	1705.96
214.27	1767.40
214.49	1681.38
214.71	1628.14
214.93	1789.92
215.15	1773.54
215.37	1744.87
215.59	1656.81
215.81	1748.97
216.03	1796.07
216.24	1722.34
216.46	1705.96
216.68	1781.73
216.90	1843.17
217.12	1783.78
217.34	1732.58
217.56	1740.77
217.78	1845.22
218.00	1699.81
218.22	1589.22
218.44	1748.97
218.66	1761.25
218.87	1740.77
219.09	1654.76
219.31	1687.53
219.53	1724.39
219.75	1677.29
219.97	1652.71
220.19	1699.81
220.41	1617.90
220.63	1814.50
220.85	1712.10
221.06	1638.38
221.28	1841.12
221.50	1636.33
221.72	1722.34
221.94	1710.05
222.16	1755.11
222.38	1771.49
222.60	1695.72
222.82	1656.81
223.03	1746.92
223.25	1673.19
223.47	1767.40
223.69	1820.64
223.91	1722.34
224.13	1712.10
224.35	1677.29
224.57	1755.11
224.78	1781.73
225.00	1638.38
225.22	1761.25
225.44	1798.12
225.66	1783.78
225.88	1624.04
226.10	1779.68
226.32	1703.91
226.53	1771.49
226.75	1714.15
226.97	1714.15
227.19	1703.91
227.41	1611.75
227.63	1726.44
227.85	1607.66
228.06	1687.53
228.28	1705.96
228.50	1746.92
228.72	1662.95
228.94	1695.72
229.16	1603.56
229.37	1660.90
229.59	1624.04
229.81	1730.53
230.03	1703.91
230.25	1658.85
230.47	1710.05
230.69	1669.09
230.90	1773.54
231.12	1685.48
231.34	1730.53
231.56	1726.44
231.78	1648.61
232.00	1718.25
232.21	1751.01
232.43	1791.97
232.65	1626.09
232.87	1755.11
233.09	1697.77
233.30	1673.19
233.52	1767.40
233.74	1720.29
233.96	1712.10
234.18	1689.57
234.40	1640.42
234.61	1824.74
234.83	1574.89
235.05	1617.90
235.27	1796.07
235.49	1802.21
235.70	1740.77
235.92	1742.82
236.14	1699.81
236.36	1812.45
236.58	1628.14
236.79	1662.95
237.01	1691.62
237.23	1675.24
237.45	1830.88
237.67	1722.34
237.88	1648.61
238.10	1734.63
238.32	1617.90
238.54	1701.86
238.76	1722.34
238.97	1667.05
239.19	1646.57
239.41	1730.53
239.63	1734.63
239.85	1681.38
240.06	1683.43
240.28	1683.43
240.50	1798.12
240.72	1681.38
240.93	1697.77
241.15	1771.49
241.37	1689.57
241.59	1804.26
241.81	1720.29
242.02	1652.71
242.24	1818.60
242.46	1779.68
242.68	1691.62
242.89	1660.90
243.11	1701.86
243.33	1761.25
243.55	1779.68
243.76	1636.33
243.98	1624.04
244.20	1728.49
244.42	1751.01
244.64	1691.62
244.85	1564.65
245.07	1740.77
245.29	1718.25
245.51	1652.71
245.72	1757.16
245.94	1791.97
246.16	1783.78
246.38	1734.63
246.59	1632.23
246.81	1578.98
247.03	1605.61
247.24	1613.80
247.46	1638.38
247.68	1765.35
247.90	1685.48
248.11	1732.58
248.33	1785.83
248.55	1701.86
248.77	1710.05
248.98	1744.87
249.20	1824.74
249.42	1738.73
249.64	1691.62
249.85	1628.14
250.07	1646.57
250.29	1757.16
250.50	1761.25
250.72	1640.42
250.94	1824.74
251.16	1824.74
251.37	1722.34
251.59	1722.34
251.81	1748.97
252.02	1849.32
252.24	1695.72
252.46	1767.40
252.68	1673.19
252.89	1595.37
253.11	1650.66
253.33	1865.70
253.54	1771.49
253.76	1613.80
253.98	1712.10
254.20	1736.68
254.41	1619.94
254.63	1740.77
254.85	1630.18
255.06	1724.39
255.28	1755.11
255.50	1714.15
255.71	1697.77
255.93	1607.66
256.15	1675.24
256.36	1689.57
256.58	1755.11
256.80	1742.82
257.02	1677.29
257.23	1673.19
257.45	1685.48
257.67	1796.07
257.88	1687.53
258.10	1710.05
258.32	1693.67
258.53	1763.30
258.75	1796.07
258.97	1732.58
259.18	1724.39
259.40	1681.38
259.62	1775.59
259.83	1757.16
260.05	1855.46
260.27	1976.29
260.48	1802.21
260.70	1658.85
260.92	1669.09
261.13	1630.18
261.35	1720.29
261.57	1708.01
261.78	1624.04
262.00	1675.24
262.22	1718.25
262.43	1665.00
262.65	1740.77
262.86	1716.20
263.08	1855.46
263.30	1699.81
263.51	1646.57
263.73	1640.42
263.95	1820.64
264.16	1687.53
264.38	1679.33
264.60	1789.92
264.81	1687.53
265.03	1714.15
265.25	1746.92
265.46	1705.96
265.68	1812.45
265.89	1722.34
266.11	1662.95
266.33	1736.68
266.54	1769.44
266.76	1738.73
266.98	1767.40
267.19	1730.53
267.41	1716.20
267.62	1681.38
267.84	1669.09
268.06	1755.11
268.27	1693.67
268.49	1710.05
268.70	1699.81
268.92	1656.81
269.14	1576.94
269.35	1640.42
269.57	1705.96
269.79	1728.49
270.00	1652.71
270.22	1755.11
270.43	1583.08
270.65	1601.51
270.87	1681.38
271.08	1818.60
271.30	1728.49
271.51	1718.25
271.73	1722.34
271.95	1722.34
272.16	1687.53
272.38	1742.82
272.59	1701.86
272.81	1830.88
273.02	1736.68
273.24	1708.01
273.46	1734.63
273.67	1654.76
273.89	1730.53
274.10	1679.33
274.32	1775.59
274.54	1714.15
274.75	1708.01
274.97	1667.05
275.18	1753.06
275.40	1740.77
275.61	1658.85
275.83	1744.87
276.05	1626.09
276.26	1742.82
276.48	1738.73
276.69	1699.81
276.91	1695.72
277.12	1796.07
277.34	1755.11
277.55	1806.31
277.77	1718.25
277.99	1732.58
278.20	1691.62
278.42	1626.09
278.63	1652.71
278.85	1755.11
279.06	1675.24
279.28	1738.73
279.49	1841.12
279.71	1767.40
279.93	1644.52
280.14	1746.92
280.36	1685.48
280.57	1746.92
280.79	1740.77
281.00	1691.62
281.22	1626.09
281.43	1746.92
281.65	1615.85
281.86	1650.66
282.08	1775.59
282.29	1843.17
282.51	1621.99
282.73	1607.66
282.94	1640.42
283.16	1804.26
283.37	1820.64
283.59	1705.96
283.80	1695.72
284.02	1724.39
284.23	1757.16
284.45	1656.81
284.66	1669.09
284.88	1658.85
285.09	1705.96
285.31	1751.01
285.52	1644.52
285.74	1656.81
285.95	1808.36
286.17	1714.15
286.38	1759.21
286.60	1687.53
286.81	1689.57
287.03	1701.86
287.24	1605.61
287.46	1697.77
287.67	1716.20
287.89	1855.46
288.10	1642.47
288.32	1734.63
288.53	1675.24
288.75	1705.96
288.96	1748.97
289.18	1718.25
289.39	1697.77
289.61	1746.92
289.82	1832.93
290.04	1804.26
290.25	1652.71
290.47	1699.81
290.68	1675.24
290.90	1781.73
291.11	1701.86
291.33	1718.25
291.54	1742.82
291.76	1755.11
291.97	1705.96
292.18	1730.53
292.40	1644.52
292.61	1626.09
292.83	1859.56
293.04	1710.05
293.26	1671.14
293.47	1679.33
293.69	1603.56
293.90	1695.72
294.12	1767.40
294.33	1677.29
294.55	1812.45
294.76	1826.79
294.97	1746.92
295.19	1802.21
295.40	1738.73
295.62	1798.12
295.83	1736.68
296.05	1644.52
296.26	1759.21
296.48	1738.73
296.69	1794.02
296.90	1617.90
297.12	1669.09
297.33	1834.98
297.55	1724.39
297.76	1656.81
297.98	1697.77
298.19	1617.90
298.41	1722.34
298.62	1660.90
298.83	1794.02
299.05	1652.71
299.26	1679.33
299.48	1634.28
299.69	1730.53
299.90	1703.91
300.12	1665.00
300.33	1740.77
300.55	1687.53
300.76	1730.53
300.98	1677.29
301.19	1705.96
301.40	1705.96
301.62	1742.82
301.83	1746.92
302.05	1712.10
302.26	1652.71
302.47	1763.30
302.69	1642.47
302.90	1732.58
303.12	1632.23
303.33	1734.63
303.54	1806.31
303.76	1648.61
303.97	1773.54
304.19	1771.49
304.40	1730.53
304.61	1724.39
304.83	1769.44
305.04	1716.20
305.26	1705.96
305.47	1656.81
305.68	1691.62
305.90	1624.04
306.11	1712.10
306.33	1669.09
306.54	1624.04
306.75	1597.42
306.97	1624.04
307.18	1570.79
307.39	1642.47
307.61	1740.77
307.82	1685.48
308.04	1697.77
308.25	1687.53
308.46	1755.11
308.68	1667.05
308.89	1748.97
309.10	1746.92
309.32	1699.81
309.53	1685.48
309.74	1789.92
309.96	1736.68
310.17	1767.40
310.39	1601.51
310.60	1808.36
310.81	1763.30
311.03	1665.00
311.24	1675.24
311.45	1746.92
311.67	1800.16
311.88	1708.01
312.09	1669.09
312.31	1644.52
312.52	1712.10
312.73	1648.61
312.95	1671.14
313.16	1679.33
313.37	1687.53
313.59	1746.92
313.80	1755.11
314.01	1738.73
314.23	1681.38
314.44	1593.32
314.65	1642.47
314.87	1734.63
315.08	1710.05
315.29	1687.53
315.51	1640.42
315.72	1658.85
315.93	1771.49
316.15	1746.92
316.36	1669.09
316.57	1798.12
316.79	1687.53
317.00	1669.09
317.21	1699.81
317.43	1648.61
317.64	1648.61
317.85	1681.38
318.07	1759.21
318.28	1761.25
318.49	1794.02
318.70	1916.90
318.92	1863.65
319.13	1894.37
319.34	1875.94
319.56	1724.39
319.77	1859.56
319.98	1882.08
320.20	1931.23
320.41	1748.97
320.62	1746.92
320.83	1701.86
321.05	1904.61
321.26	1718.25
321.47	1726.44
321.69	1710.05
321.90	1669.09
322.11	1660.90
322.32	1732.58
322.54	1775.59
322.75	1730.53
322.96	1812.45
323.18	1605.61
323.39	1605.61
323.60	1640.42
323.81	1753.06
324.03	1730.53
324.24	1679.33
324.45	1697.77
324.66	1681.38
324.88	1814.50
325.09	1884.13
325.30	1728.49
325.52	1718.25
325.73	1714.15
325.94	1665.00
326.15	1658.85
326.37	1691.62
326.58	1701.86
326.79	1771.49
327.00	1628.14
327.22	1697.77
327.43	1677.29
327.64	1605.61
327.85	1730.53
328.07	1740.77
328.28	1800.16
328.49	1695.72
328.70	1701.86
328.92	1701.86
329.13	1744.87
329.34	1748.97
329.55	1834.98
329.76	1744.87
329.98	1689.57
330.19	1769.44
330.40	1712.10
330.61	1734.63
330.83	1736.68
331.04	1730.53
331.25	1613.80
331.46	1650.66
331.68	1601.51
331.89	1779.68
332.10	1701.86
332.31	1644.52
332.52	1710.05
332.74	1724.39
332.95	1636.33
333.16	1677.29
333.37	1781.73
333.58	1710.05
333.80	1736.68
334.01	1671.14
334.22	1726.44
334.43	1681.38
334.64	1759.21
334.86	1601.51
335.07	1611.75
335.28	1746.92
335.49	1679.33
335.70	1720.29
335.92	1671.14
336.13	1767.40
336.34	1787.88
336.55	1714.15
336.76	1714.15
336.98	1646.57
337.19	1693.67
337.40	1814.50
337.61	1865.70
337.82	1695.72
338.04	1773.54
338.25	1687.53
338.46	1646.57
338.67	1730.53
338.88	1671.14
339.09	1740.77
339.31	1693.67
339.52	1613.80
339.73	1650.66
339.94	1652.71
340.15	1798.12
340.36	1656.81
340.58	1781.73
340.79	1671.14
341.00	1781.73
341.21	1640.42
341.42	1783.78
341.63	1724.39
341.85	1695.72
342.06	1804.26
342.27	1679.33
342.48	1650.66
342.69	1658.85
342.90	1712.10
343.12	1746.92
343.33	1675.24
343.54	1744.87
343.75	1804.26
343.96	1712.10
344.17	1609.70
344.38	1726.44
344.60	1660.90
344.81	1695.72
345.02	1744.87
345.23	1757.16
345.44	1900.52
345.65	1730.53
345.86	1728.49
346.07	1744.87
346.29	1652.71
346.50	1753.06
346.71	1759.21
346.92	1730.53
347.13	1830.88
347.34	1705.96
347.55	1648.61
347.76	1714.15
347.98	1632.23
348.19	1695.72
348.40	1757.16
348.61	1701.86
348.82	1837.03
349.03	1759.21
349.24	1640.42
349.45	1800.16
349.66	1533.93
349.88	1724.39
350.09	1699.81
350.30	1798.12
350.51	1748.97
350.72	1720.29
350.93	1785.83
351.14	1646.57
351.35	1767.40
351.56	1697.77
351.77	1726.44
351.99	1742.82
352.20	1773.54
352.41	1744.87
352.62	1648.61
352.83	1687.53
353.04	1732.58
353.25	1732.58
353.46	1798.12
353.67	1755.11
353.88	1589.22
354.09	1671.14
354.30	1728.49
354.52	1791.97
354.73	1718.25
354.94	1716.20
355.15	1734.63
355.36	1779.68
355.57	1662.95
355.78	1701.86
355.99	1716.20
356.20	1701.86
356.41	1771.49
356.62	1712.10
356.83	1673.19
357.04	1736.68
357.25	1626.09
357.46	1695.72
357.68	1613.80
357.89	1609.70
358.10	1722.34
358.31	1693.67
358.52	1681.38
358.73	1658.85
358.94	1724.39
359.15	1712.10
359.36	1757.16
359.57	1730.53
359.78	1722.34
359.99	1650.66
360.20	1650.66
360.41	1640.42
360.62	1695.72
360.83	1722.34
361.04	1705.96
361.25	1783.78
361.46	1767.40
361.67	1804.26
361.88	1734.63
362.09	1761.25
362.30	1705.96
362.51	1660.90
362.72	1697.77
362.93	1757.16
363.14	1798.12
363.35	1730.53
363.56	1736.68
363.78	1734.63
363.99	1796.07
364.20	1632.23
364.41	1785.83
364.62	1841.12
364.83	1787.88
365.04	1730.53
365.25	1763.30
365.46	1834.98
365.67	1712.10
365.88	1728.49
366.09	1695.72
366.30	1685.48
366.51	1767.40
366.72	1648.61
366.93	1701.86
367.14	1683.43
367.35	1861.60
367.56	1636.33
367.77	1820.64
367.98	1765.35
368.18	1761.25
368.39	1812.45
368.60	1642.47
368.81	1693.67
369.02	1689.57
369.23	1710.05
369.44	1613.80
369.65	1675.24
369.86	1710.05
370.07	1732.58
370.28	1630.18
370.49	1669.09
370.70	1800.16
370.91	1634.28
371.12	1714.15
371.33	1734.63
371.54	1705.96
371.75	1826.79
371.96	1673.19
372.17	1724.39
372.38	1699.81
372.59	1734.63
372.80	1673.19
373.01	1654.76
373.22	1740.77
373.43	1703.91
373.64	1665.00
373.85	1773.54
374.06	1767.40
374.26	1720.29
374.47	1718.25
374.68	1765.35
374.89	1681.38
375.10	1652.71
375.31	1787.88
375.52	1697.77
375.73	1763.30
375.94	1695.72
376.15	1765.35
376.36	1644.52
376.57	1703.91
376.78	1667.05
376.99	1748.97
377.20	1830.88
377.40	1656.81
377.61	1779.68
377.82	1660.90
378.03	1808.36
378.24	1724.39
378.45	1724.39
378.66	1697.77
378.87	1648.61
379.08	1648.61
379.29	1673.19
379.50	1736.68
379.71	1736.68
379.91	1796.07
380.12	1675.24
380.33	1742.82
380.54	1714.15
380.75	1708.01
380.96	1679.33
381.17	1785.83
381.38	1738.73
381.59	1800.16
381.80	1777.64
382.00	1853.41
382.21	1771.49
382.42	1873.89
382.63	1959.91
382.84	1753.06
383.05	1806.31
383.26	1877.99
383.47	1730.53
383.68	1755.11
383.88	1765.35
384.09	1708.01
384.30	1832.93
384.51	1728.49
384.72	1685.48
384.93	1597.42
385.14	1781.73
385.35	1771.49
385.55	1642.47
385.76	1753.06
385.97	1728.49
386.18	1624.04
386.39	1689.57
386.60	1658.85
386.81	1712.10
387.02	1732.58
387.22	1748.97
387.43	1787.88
387.64	1818.60
387.85	1880.04
388.06	2285.53
388.27	4736.95
388.48	9060.21
388.68	11429.71
388.89	13383.48
389.10	13784.88
389.31	11761.48
389.52	9607.02
389.73	8435.58
389.93	7849.86
390.14	7075.73
390.35	6395.81
390.56	6080.42
390.77	4884.41
390.98	3942.34
391.18	3141.58
391.39	2365.40
391.60	1892.32
391.81	1834.98
392.02	1685.48
392.23	1810.40
392.43	1691.62
392.64	1826.79
392.85	1718.25
393.06	1849.32
393.27	1736.68
393.47	1687.53
393.68	1773.54
393.89	1691.62
394.10	1779.68
394.31	1681.38
394.52	1679.33
394.72	1650.66
394.93	1748.97
395.14	1699.81
395.35	1759.21
395.56	1669.09
395.76	1771.49
395.97	1753.06
396.18	1908.71
396.39	1859.56
396.60	2062.30
396.80	1986.53
397.01	1855.46
397.22	1746.92
397.43	1865.70
397.64	1755.11
397.84	1785.83
398.05	1814.50
398.26	1755.11
398.47	1798.12
398.67	1779.68
398.88	1675.24
399.09	1787.88
399.30	1712.10
399.51	1771.49
399.71	1730.53
399.92	1726.44
400.13	1730.53
400.34	1730.53
400.54	1667.05
400.75	1851.36
400.96	1724.39
401.17	1822.69
401.37	1738.73
401.58	1660.90
401.79	1697.77
402.00	1863.65
402.21	2009.06
402.41	2129.89
402.62	2105.31
402.83	2164.70
403.04	2136.03
403.24	2093.02
403.45	1855.46
403.66	2000.87
403.87	1920.99
404.07	1953.76
404.28	1929.19
404.49	1998.82
404.70	1800.16
404.90	1824.74
405.11	1791.97
405.32	1746.92
405.52	1722.34
405.73	1712.10
405.94	1734.63
406.15	1699.81
406.35	1755.11
406.56	1748.97
406.77	1789.92
406.98	1714.15
407.18	1648.61
407.39	1826.79
407.60	1687.53
407.80	1773.54
408.01	1628.14
408.22	1691.62
408.43	1617.90
408.63	1646.57
408.84	1806.31
409.05	1720.29
409.25	1658.85
409.46	1679.33
409.67	1648.61
409.88	1650.66
410.08	1753.06
410.29	1701.86
410.50	1748.97
410.70	1746.92
410.91	1642.47
411.12	1730.53
411.32	1701.86
411.53	1789.92
411.74	1775.59
411.95	1820.64
412.15	1755.11
412.36	1804.26
412.57	1794.02
412.77	1820.64
412.98	1748.97
413.19	1738.73
413.39	1798.12
413.60	1812.45
413.81	1839.08
414.01	1710.05
414.22	1773.54
414.43	1796.07
414.63	1755.11
414.84	1730.53
415.05	1796.07
415.25	1638.38
415.46	1751.01
415.67	1769.44
415.87	1796.07
416.08	1687.53
416.29	1705.96
416.49	1738.73
416.70	1669.09
416.91	1697.77
417.11	1691.62
417.32	1753.06
417.53	1824.74
417.73	1767.40
417.94	1701.86
418.15	1708.01
418.35	1767.40
418.56	1714.15
418.77	1886.18
418.97	1701.86
419.18	1734.63
419.38	1611.75
419.59	1746.92
419.80	1748.97
420.00	1701.86
420.21	1708.01
420.42	1837.03
420.62	1757.16
420.83	1714.15
421.04	1712.10
421.24	1761.25
421.45	1791.97
421.65	1812.45
421.86	1699.81
422.07	1824.74
422.27	1740.77
422.48	1615.85
422.69	1703.91
422.89	1691.62
423.10	1683.43
423.30	1658.85
423.51	1710.05
423.72	1718.25
423.92	1712.10
424.13	1695.72
424.33	1753.06
424.54	1734.63
424.75	1712.10
424.95	1783.78
425.16	1820.64
425.36	1720.29
425.57	1830.88
425.78	1740.77
425.98	1732.58
426.19	1632.23
426.39	1712.10
426.60	1679.33
426.81	1816.55
427.01	1742.82
427.22	1716.20
427.42	1595.37
427.63	1691.62
427.83	1728.49
428.04	1763.30
428.25	1783.78
428.45	1849.32
428.66	1791.97
428.86	1693.67
429.07	1726.44
429.28	1751.01
429.48	1662.95
429.69	1744.87
429.89	1665.00
430.10	1624.04
430.30	1703.91
430.51	1779.68
430.71	1679.33
430.92	1691.62
431.13	1669.09
431.33	1742.82
431.54	1742.82
431.74	1820.64
431.95	1804.26
432.15	1701.86
432.36	1699.81
432.56	1804.26
432.77	1779.68
432.98	1785.83
433.18	1699.81
433.39	1740.77
433.59	1722.34
433.80	1898.47
434.00	1830.88
434.21	1746.92
434.41	1667.05
434.62	1857.51
434.82	1656.81
435.03	1665.00
435.23	1751.01
435.44	1658.85
435.64	1732.58
435.85	1712.10
436.06	1777.64
436.26	1701.86
436.47	1695.72
436.67	1665.00
436.88	1699.81
437.08	1869.80
437.29	1775.59
437.49	1732.58
437.70	1787.88
437.90	1759.21
438.11	1845.22
438.31	1751.01
438.52	1865.70
438.72	1910.75
438.93	1939.43
439.13	1798.12
439.34	1816.55
439.54	1783.78
439.75	1806.31
439.95	1849.32
440.16	1693.67
440.36	1767.40
440.57	1757.16
440.77	1746.92
440.98	1765.35
441.18	1728.49
441.39	1681.38
441.59	1689.57
441.80	1806.31
442.00	1726.44
442.21	1744.87
442.41	1673.19
442.62	1755.11
442.82	1675.24
443.02	1761.25
443.23	1724.39
443.43	1683.43
443.64	1775.59
443.84	1695.72
444.05	1771.49
444.25	1841.12
444.46	1716.20
444.66	1783.78
444.87	1814.50
445.07	1615.85
445.28	1738.73
445.48	1802.21
445.69	1722.34
445.89	1865.70
446.09	1781.73
446.30	1972.19
446.50	2582.49
446.71	4065.22
446.91	5113.78
447.12	5732.26
447.32	6137.76
447.53	5324.72
447.73	4440.00
447.93	4077.51
448.14	3637.19
448.34	3424.20
448.55	3114.96
448.75	3061.71
448.96	2953.17
449.16	2723.80
449.36	2445.27
449.57	2084.83
449.77	1937.38
449.98	1820.64
450.18	1859.56
450.39	1834.98
450.59	1812.45
450.79	1740.77
451.00	1746.92
451.20	1775.59
451.41	1718.25
451.61	1683.43
451.81	1640.42
452.02	1705.96
452.22	1685.48
452.43	1710.05
452.63	1730.53
