SpectraSuite Data File
++++++++++++++++++++++++++++++++++++
Date: Wed May 04 18:44:24 CEST 2016
User: root
Dark Spectrum Present: No
Reference Spectrum Present: No
Number of Sampled Component Spectra: 1
Spectrometers: USB4C02835
Integration Time (usec): 100000 (USB4C02835)
Spectra Averaged: 1 (USB4C02835)
Boxcar Smoothing: 0 (USB4C02835)
Correct for Electrical Dark: No (USB4C02835)
Strobe/Lamp Enabled: No (USB4C02835)
Correct for Detector Non-linearity: No (USB4C02835)
Correct for Stray Light: No (USB4C02835)
Number of Pixels in Processed Spectrum: 3648
>>>>>Begin Processed Spectral Data<<<<<
177.47	1445.87
177.69	1445.87
177.91	1445.87
178.13	1445.87
178.36	1396.71
178.58	1656.81
178.80	1771.49
179.02	1644.52
179.24	1648.61
179.46	1716.20
179.68	1697.77
179.90	1669.09
180.13	1738.73
180.35	1685.48
180.57	1712.10
180.79	1798.12
181.01	1708.01
181.23	1779.68
181.45	1773.54
181.67	1683.43
181.90	1734.63
182.12	1691.62
182.34	1660.90
182.56	1812.45
182.78	1742.82
183.00	1644.52
183.22	1628.14
183.44	1640.42
183.66	1820.64
183.89	1796.07
184.11	1722.34
184.33	1755.11
184.55	1732.58
184.77	1765.35
184.99	1755.11
185.21	1665.00
185.43	1884.13
185.65	1673.19
185.87	1677.29
186.10	1804.26
186.32	1789.92
186.54	1710.05
186.76	1789.92
186.98	1787.88
187.20	1691.62
187.42	1669.09
187.64	1744.87
187.86	1701.86
188.08	1685.48
188.30	1687.53
188.52	1714.15
188.75	1765.35
188.97	1785.83
189.19	1685.48
189.41	1757.16
189.63	1779.68
189.85	1624.04
190.07	1656.81
190.29	1597.42
190.51	1728.49
190.73	1589.22
190.95	1701.86
191.17	1669.09
191.39	1630.18
191.61	1669.09
191.84	1624.04
192.06	1769.44
192.28	1642.47
192.50	1871.84
192.72	1701.86
192.94	1685.48
193.16	1777.64
193.38	1716.20
193.60	1644.52
193.82	1703.91
194.04	1832.93
194.26	1708.01
194.48	1695.72
194.70	1736.68
194.92	1697.77
195.14	1783.78
195.36	1654.76
195.58	1787.88
195.80	1687.53
196.02	1617.90
196.24	1753.06
196.46	1716.20
196.69	1695.72
196.91	1898.47
197.13	1718.25
197.35	1634.28
197.57	1859.56
197.79	1765.35
198.01	1734.63
198.23	1705.96
198.45	1712.10
198.67	1624.04
198.89	1693.67
199.11	1738.73
199.33	1644.52
199.55	1617.90
199.77	1685.48
199.99	1769.44
200.21	1695.72
200.43	1718.25
200.65	1683.43
200.87	1591.27
201.09	1648.61
201.31	1689.57
201.53	1791.97
201.75	1697.77
201.97	1669.09
202.19	1703.91
202.41	1677.29
202.63	1726.44
202.85	1761.25
203.07	1687.53
203.29	1777.64
203.51	1628.14
203.73	1640.42
203.95	1935.33
204.17	1798.12
204.39	1734.63
204.61	1726.44
204.83	1632.23
205.05	1701.86
205.27	1738.73
205.49	1802.21
205.71	1837.03
205.93	1597.42
206.15	1667.05
206.37	1724.39
206.59	1613.80
206.81	1650.66
207.03	1630.18
207.25	1710.05
207.47	1736.68
207.69	1665.00
207.91	1802.21
208.13	1828.84
208.34	1665.00
208.56	1634.28
208.78	1763.30
209.00	1669.09
209.22	1628.14
209.44	1722.34
209.66	1685.48
209.88	1705.96
210.10	1640.42
210.32	1595.37
210.54	1728.49
210.76	1675.24
210.98	1757.16
211.20	1615.85
211.42	1699.81
211.64	1791.97
211.86	1689.57
212.08	1800.16
212.30	1765.35
212.52	1724.39
212.74	1738.73
212.96	1648.61
213.17	1705.96
213.39	1812.45
213.61	1769.44
213.83	1787.88
214.05	1703.91
214.27	1710.05
214.49	1640.42
214.71	1644.52
214.93	1726.44
215.15	1738.73
215.37	1654.76
215.59	1642.47
215.81	1759.21
216.03	1734.63
216.24	1724.39
216.46	1660.90
216.68	1716.20
216.90	1808.36
217.12	1740.77
217.34	1681.38
217.56	1738.73
217.78	1761.25
218.00	1722.34
218.22	1728.49
218.44	1689.57
218.66	1787.88
218.87	1740.77
219.09	1650.66
219.31	1753.06
219.53	1695.72
219.75	1718.25
219.97	1640.42
220.19	1716.20
220.41	1640.42
220.63	1767.40
220.85	1734.63
221.06	1705.96
221.28	1673.19
221.50	1736.68
221.72	1679.33
221.94	1681.38
222.16	1687.53
222.38	1785.83
222.60	1710.05
222.82	1701.86
223.03	1667.05
223.25	1662.95
223.47	1777.64
223.69	1808.36
223.91	1728.49
224.13	1763.30
224.35	1662.95
224.57	1730.53
224.78	1681.38
225.00	1681.38
225.22	1677.29
225.44	1763.30
225.66	1734.63
225.88	1660.90
226.10	1802.21
226.32	1732.58
226.53	1775.59
226.75	1697.77
226.97	1765.35
227.19	1742.82
227.41	1675.24
227.63	1683.43
227.85	1662.95
228.06	1648.61
228.28	1744.87
228.50	1732.58
228.72	1660.90
228.94	1763.30
229.16	1634.28
229.37	1640.42
229.59	1701.86
229.81	1759.21
230.03	1681.38
230.25	1603.56
230.47	1650.66
230.69	1583.08
230.90	1687.53
231.12	1798.12
231.34	1708.01
231.56	1699.81
231.78	1681.38
232.00	1781.73
232.21	1685.48
232.43	1626.09
232.65	1617.90
232.87	1671.14
233.09	1628.14
233.30	1683.43
233.52	1732.58
233.74	1667.05
233.96	1617.90
234.18	1755.11
234.40	1693.67
234.61	1746.92
234.83	1607.66
235.05	1601.51
235.27	1812.45
235.49	1738.73
235.70	1712.10
235.92	1773.54
236.14	1656.81
236.36	1798.12
236.58	1576.94
236.79	1703.91
237.01	1617.90
237.23	1738.73
237.45	1761.25
237.67	1652.71
237.88	1689.57
238.10	1798.12
238.32	1634.28
238.54	1681.38
238.76	1685.48
238.97	1656.81
239.19	1662.95
239.41	1734.63
239.63	1773.54
239.85	1658.85
240.06	1677.29
240.28	1644.52
240.50	1759.21
240.72	1771.49
240.93	1701.86
241.15	1736.68
241.37	1742.82
241.59	1800.16
241.81	1681.38
242.02	1769.44
242.24	1738.73
242.46	1732.58
242.68	1652.71
242.89	1779.68
243.11	1734.63
243.33	1734.63
243.55	1783.78
243.76	1832.93
243.98	1701.86
244.20	1708.01
244.42	1681.38
244.64	1781.73
244.85	1601.51
245.07	1685.48
245.29	1708.01
245.51	1720.29
245.72	1740.77
245.94	1728.49
246.16	1701.86
246.38	1755.11
246.59	1660.90
246.81	1685.48
247.03	1710.05
247.24	1576.94
247.46	1736.68
247.68	1763.30
247.90	1589.22
248.11	1701.86
248.33	1759.21
248.55	1705.96
248.77	1755.11
248.98	1746.92
249.20	1824.74
249.42	1669.09
249.64	1662.95
249.85	1720.29
250.07	1669.09
250.29	1751.01
250.50	1763.30
250.72	1644.52
250.94	1783.78
251.16	1746.92
251.37	1759.21
251.59	1767.40
251.81	1740.77
252.02	1744.87
252.24	1624.04
252.46	1773.54
252.68	1669.09
252.89	1662.95
253.11	1550.31
253.33	1794.02
253.54	1679.33
253.76	1603.56
253.98	1681.38
254.20	1726.44
254.41	1570.79
254.63	1693.67
254.85	1585.13
255.06	1693.67
255.28	1814.50
255.50	1628.14
255.71	1687.53
255.93	1617.90
256.15	1660.90
256.36	1767.40
256.58	1751.01
256.80	1728.49
257.02	1677.29
257.23	1658.85
257.45	1785.83
257.67	1722.34
257.88	1660.90
258.10	1716.20
258.32	1742.82
258.53	1621.99
258.75	1796.07
258.97	1671.14
259.18	1714.15
259.40	1652.71
259.62	1800.16
259.83	1738.73
260.05	1751.01
260.27	1861.60
260.48	1806.31
260.70	1597.42
260.92	1773.54
261.13	1683.43
261.35	1730.53
261.57	1757.16
261.78	1662.95
262.00	1691.62
262.22	1644.52
262.43	1673.19
262.65	1703.91
262.86	1683.43
263.08	1755.11
263.30	1736.68
263.51	1587.18
263.73	1662.95
263.95	1658.85
264.16	1619.94
264.38	1640.42
264.60	1669.09
264.81	1685.48
265.03	1748.97
265.25	1789.92
265.46	1644.52
265.68	1791.97
265.89	1753.06
266.11	1585.13
266.33	1640.42
266.54	1806.31
266.76	1710.05
266.98	1683.43
267.19	1746.92
267.41	1783.78
267.62	1693.67
267.84	1619.94
268.06	1722.34
268.27	1718.25
268.49	1677.29
268.70	1761.25
268.92	1732.58
269.14	1693.67
269.35	1654.76
269.57	1744.87
269.79	1740.77
270.00	1675.24
270.22	1828.84
270.43	1677.29
270.65	1591.27
270.87	1697.77
271.08	1775.59
271.30	1730.53
271.51	1730.53
271.73	1736.68
271.95	1789.92
272.16	1605.61
272.38	1720.29
272.59	1673.19
272.81	1718.25
273.02	1738.73
273.24	1720.29
273.46	1740.77
273.67	1677.29
273.89	1609.70
274.10	1761.25
274.32	1751.01
274.54	1738.73
274.75	1718.25
274.97	1710.05
275.18	1791.97
275.40	1730.53
275.61	1646.57
275.83	1759.21
276.05	1644.52
276.26	1703.91
276.48	1703.91
276.69	1716.20
276.91	1669.09
277.12	1771.49
277.34	1738.73
277.55	1804.26
277.77	1751.01
277.99	1669.09
278.20	1619.94
278.42	1599.46
278.63	1683.43
278.85	1732.58
279.06	1636.33
279.28	1738.73
279.49	1675.24
279.71	1771.49
279.93	1722.34
280.14	1656.81
280.36	1652.71
280.57	1767.40
280.79	1714.15
281.00	1652.71
281.22	1705.96
281.43	1685.48
281.65	1566.70
281.86	1630.18
282.08	1701.86
282.29	1828.84
282.51	1683.43
282.73	1722.34
282.94	1593.32
283.16	1787.88
283.37	1773.54
283.59	1742.82
283.80	1767.40
284.02	1738.73
284.23	1724.39
284.45	1699.81
284.66	1646.57
284.88	1636.33
285.09	1718.25
285.31	1732.58
285.52	1761.25
285.74	1599.46
285.95	1734.63
286.17	1738.73
286.38	1730.53
286.60	1607.66
286.81	1705.96
287.03	1722.34
287.24	1697.77
287.46	1701.86
287.67	1746.92
287.89	1845.22
288.10	1683.43
288.32	1693.67
288.53	1753.06
288.75	1785.83
288.96	1746.92
289.18	1669.09
289.39	1673.19
289.61	1785.83
289.82	1863.65
290.04	1837.03
290.25	1648.61
290.47	1697.77
290.68	1650.66
290.90	1783.78
291.11	1665.00
291.33	1705.96
291.54	1613.80
291.76	1605.61
291.97	1736.68
292.18	1751.01
292.40	1736.68
292.61	1621.99
292.83	1802.21
293.04	1730.53
293.26	1744.87
293.47	1708.01
293.69	1654.76
293.90	1724.39
294.12	1808.36
294.33	1699.81
294.55	1665.00
294.76	1746.92
294.97	1814.50
295.19	1843.17
295.40	1703.91
295.62	1685.48
295.83	1701.86
296.05	1611.75
296.26	1753.06
296.48	1648.61
296.69	1697.77
296.90	1652.71
297.12	1755.11
297.33	1802.21
297.55	1695.72
297.76	1744.87
297.98	1695.72
298.19	1677.29
298.41	1671.14
298.62	1644.52
298.83	1783.78
299.05	1683.43
299.26	1693.67
299.48	1607.66
299.69	1751.01
299.90	1705.96
300.12	1650.66
300.33	1650.66
300.55	1730.53
300.76	1746.92
300.98	1703.91
301.19	1742.82
301.40	1685.48
301.62	1693.67
301.83	1697.77
302.05	1658.85
302.26	1738.73
302.47	1722.34
302.69	1601.51
302.90	1730.53
303.12	1564.65
303.33	1712.10
303.54	1726.44
303.76	1705.96
303.97	1712.10
304.19	1771.49
304.40	1650.66
304.61	1695.72
304.83	1767.40
305.04	1738.73
305.26	1787.88
305.47	1660.90
305.68	1675.24
305.90	1687.53
306.11	1783.78
306.33	1595.37
306.54	1665.00
306.75	1628.14
306.97	1665.00
307.18	1634.28
307.39	1693.67
307.61	1785.83
307.82	1638.38
308.04	1628.14
308.25	1617.90
308.46	1728.49
308.68	1759.21
308.89	1642.47
309.10	1791.97
309.32	1724.39
309.53	1712.10
309.74	1665.00
309.96	1710.05
310.17	1722.34
310.39	1740.77
310.60	1730.53
310.81	1748.97
311.03	1632.23
311.24	1665.00
311.45	1638.38
311.67	1763.30
311.88	1687.53
312.09	1656.81
312.31	1665.00
312.52	1695.72
312.73	1683.43
312.95	1595.37
313.16	1695.72
313.37	1781.73
313.59	1658.85
313.80	1755.11
314.01	1728.49
314.23	1771.49
314.44	1675.24
314.65	1662.95
314.87	1699.81
315.08	1755.11
315.29	1632.23
315.51	1630.18
315.72	1630.18
315.93	1753.06
316.15	1726.44
316.36	1677.29
316.57	1759.21
316.79	1767.40
317.00	1689.57
317.21	1720.29
317.43	1701.86
317.64	1714.15
317.85	1648.61
318.07	1669.09
318.28	1746.92
318.49	1918.95
318.70	1953.76
318.92	1861.60
319.13	1798.12
319.34	1814.50
319.56	1806.31
319.77	1877.99
319.98	1820.64
320.20	1843.17
320.41	1802.21
320.62	1751.01
320.83	1689.57
321.05	1888.23
321.26	1708.01
321.47	1683.43
321.69	1705.96
321.90	1644.52
322.11	1742.82
322.32	1726.44
322.54	1738.73
322.75	1665.00
322.96	1882.08
323.18	1599.46
323.39	1667.05
323.60	1705.96
323.81	1771.49
324.03	1714.15
324.24	1755.11
324.45	1718.25
324.66	1675.24
324.88	1769.44
325.09	1765.35
325.30	1673.19
325.52	1734.63
325.73	1730.53
325.94	1632.23
326.15	1574.89
326.37	1630.18
326.58	1769.44
326.79	1798.12
327.00	1736.68
327.22	1730.53
327.43	1662.95
327.64	1601.51
327.85	1783.78
328.07	1767.40
328.28	1820.64
328.49	1671.14
328.70	1738.73
328.92	1628.14
329.13	1708.01
329.34	1781.73
329.55	1794.02
329.76	1736.68
329.98	1689.57
330.19	1812.45
330.40	1685.48
330.61	1763.30
330.83	1746.92
331.04	1611.75
331.25	1708.01
331.46	1681.38
331.68	1650.66
331.89	1796.07
332.10	1679.33
332.31	1701.86
332.52	1734.63
332.74	1783.78
332.95	1695.72
333.16	1669.09
333.37	1681.38
333.58	1701.86
333.80	1675.24
334.01	1703.91
334.22	1648.61
334.43	1648.61
334.64	1689.57
334.86	1529.83
335.07	1638.38
335.28	1800.16
335.49	1644.52
335.70	1763.30
335.92	1759.21
336.13	1853.41
336.34	1730.53
336.55	1669.09
336.76	1621.99
336.98	1626.09
337.19	1746.92
337.40	1804.26
337.61	1828.84
337.82	1675.24
338.04	1826.79
338.25	1632.23
338.46	1665.00
338.67	1722.34
338.88	1671.14
339.09	1667.05
339.31	1724.39
339.52	1691.62
339.73	1714.15
339.94	1730.53
340.15	1832.93
340.36	1681.38
340.58	1699.81
340.79	1662.95
341.00	1763.30
341.21	1648.61
341.42	1859.56
341.63	1708.01
341.85	1800.16
342.06	1751.01
342.27	1708.01
342.48	1812.45
342.69	1634.28
342.90	1734.63
343.12	1855.46
343.33	1660.90
343.54	1769.44
343.75	1730.53
343.96	1681.38
344.17	1654.76
344.38	1697.77
344.60	1638.38
344.81	1679.33
345.02	1652.71
345.23	1785.83
345.44	1789.92
345.65	1712.10
345.86	1820.64
346.07	1740.77
346.29	1722.34
346.50	1746.92
346.71	1740.77
346.92	1787.88
347.13	1830.88
347.34	1697.77
347.55	1681.38
347.76	1765.35
347.98	1689.57
348.19	1761.25
348.40	1757.16
348.61	1671.14
348.82	1822.69
349.03	1783.78
349.24	1697.77
349.45	1763.30
349.66	1501.16
349.88	1728.49
350.09	1667.05
350.30	1746.92
350.51	1794.02
350.72	1695.72
350.93	1751.01
351.14	1683.43
351.35	1708.01
351.56	1761.25
351.77	1652.71
351.99	1804.26
352.20	1773.54
352.41	1744.87
352.62	1603.56
352.83	1755.11
353.04	1671.14
353.25	1703.91
353.46	1742.82
353.67	1738.73
353.88	1591.27
354.09	1726.44
354.30	1730.53
354.52	1736.68
354.73	1759.21
354.94	1748.97
355.15	1646.57
355.36	1763.30
355.57	1738.73
355.78	1689.57
355.99	1640.42
356.20	1736.68
356.41	1806.31
356.62	1722.34
356.83	1794.02
357.04	1753.06
357.25	1566.70
357.46	1689.57
357.68	1632.23
357.89	1640.42
358.10	1761.25
358.31	1746.92
358.52	1710.05
358.73	1697.77
358.94	1642.47
359.15	1617.90
359.36	1765.35
359.57	1691.62
359.78	1687.53
359.99	1720.29
360.20	1671.14
360.41	1728.49
360.62	1759.21
360.83	1712.10
361.04	1712.10
361.25	1683.43
361.46	1824.74
361.67	1734.63
361.88	1732.58
362.09	1732.58
362.30	1746.92
362.51	1726.44
362.72	1687.53
362.93	1708.01
363.14	1783.78
363.35	1744.87
363.56	1660.90
363.78	1761.25
363.99	1691.62
364.20	1609.70
364.41	1771.49
364.62	1820.64
364.83	1734.63
365.04	1685.48
365.25	1728.49
365.46	1779.68
365.67	1699.81
365.88	1697.77
366.09	1703.91
366.30	1677.29
366.51	1675.24
366.72	1660.90
366.93	1738.73
367.14	1710.05
367.35	1761.25
367.56	1808.36
367.77	1834.98
367.98	1728.49
368.18	1677.29
368.39	1773.54
368.60	1724.39
368.81	1763.30
369.02	1722.34
369.23	1703.91
369.44	1632.23
369.65	1660.90
369.86	1759.21
370.07	1781.73
370.28	1736.68
370.49	1699.81
370.70	1726.44
370.91	1652.71
371.12	1658.85
371.33	1820.64
371.54	1603.56
371.75	1820.64
371.96	1675.24
372.17	1738.73
372.38	1708.01
372.59	1732.58
372.80	1636.33
373.01	1722.34
373.22	1796.07
373.43	1695.72
373.64	1699.81
373.85	1810.40
374.06	1902.56
374.26	1822.69
374.47	1685.48
374.68	1810.40
374.89	1775.59
375.10	1771.49
375.31	1746.92
375.52	1732.58
375.73	1714.15
375.94	1677.29
376.15	1757.16
376.36	1718.25
376.57	1710.05
376.78	1632.23
376.99	1644.52
377.20	1718.25
377.40	1724.39
377.61	1818.60
377.82	1669.09
378.03	1861.60
378.24	1742.82
378.45	1695.72
378.66	1773.54
378.87	1544.17
379.08	1673.19
379.29	1724.39
379.50	1767.40
379.71	1755.11
379.91	1746.92
380.12	1628.14
380.33	1748.97
380.54	1638.38
380.75	1636.33
380.96	1787.88
381.17	1726.44
381.38	1779.68
381.59	1816.55
381.80	1736.68
382.00	1798.12
382.21	1765.35
382.42	1849.32
382.63	1884.13
382.84	1845.22
383.05	1779.68
383.26	1761.25
383.47	1738.73
383.68	1779.68
383.88	1662.95
384.09	1787.88
384.30	1884.13
384.51	1718.25
384.72	1607.66
384.93	1693.67
385.14	1839.08
385.35	1751.01
385.55	1683.43
385.76	1757.16
385.97	1658.85
386.18	1689.57
386.39	1642.47
386.60	1632.23
386.81	1755.11
387.02	1681.38
387.22	1636.33
387.43	1794.02
387.64	1798.12
387.85	1941.47
388.06	2281.44
388.27	4732.86
388.48	9158.52
388.68	11478.86
388.89	13565.74
389.10	13823.79
389.31	11986.76
389.52	9670.51
389.73	8488.83
389.93	7845.77
390.14	7301.01
390.35	6645.66
390.56	5986.21
390.77	4982.71
390.98	3901.38
391.18	2990.03
391.39	2392.03
391.60	1908.71
391.81	1820.64
392.02	1703.91
392.23	1775.59
392.43	1759.21
392.64	1806.31
392.85	1656.81
393.06	1773.54
393.27	1722.34
393.47	1683.43
393.68	1718.25
393.89	1703.91
394.10	1777.64
394.31	1712.10
394.52	1708.01
394.72	1673.19
394.93	1783.78
395.14	1693.67
395.35	1712.10
395.56	1720.29
395.76	1761.25
395.97	1828.84
396.18	1837.03
396.39	1951.71
396.60	2138.08
396.80	1986.53
397.01	1873.89
397.22	1900.52
397.43	1892.32
397.64	1787.88
397.84	1820.64
398.05	1990.63
398.26	1816.55
398.47	1763.30
398.67	1783.78
398.88	1697.77
399.09	1777.64
399.30	1742.82
399.51	1755.11
399.71	1660.90
399.92	1697.77
400.13	1761.25
400.34	1742.82
400.54	1648.61
400.75	1732.58
400.96	1701.86
401.17	1812.45
401.37	1724.39
401.58	1722.34
401.79	1761.25
402.00	1865.70
402.21	2064.35
402.41	2062.30
402.62	2101.22
402.83	2246.62
403.04	2152.42
403.24	2138.08
403.45	1894.37
403.66	1964.00
403.87	1882.08
404.07	1968.10
404.28	1906.66
404.49	1925.09
404.70	1800.16
404.90	1753.06
405.11	1742.82
405.32	1738.73
405.52	1660.90
405.73	1660.90
405.94	1665.00
406.15	1652.71
406.35	1710.05
406.56	1763.30
406.77	1724.39
406.98	1781.73
407.18	1609.70
407.39	1746.92
407.60	1697.77
407.80	1779.68
408.01	1703.91
408.22	1730.53
408.43	1607.66
408.63	1675.24
408.84	1769.44
409.05	1767.40
409.25	1691.62
409.46	1679.33
409.67	1708.01
409.88	1746.92
410.08	1683.43
410.29	1728.49
410.50	1720.29
410.70	1755.11
410.91	1681.38
411.12	1722.34
411.32	1757.16
411.53	1677.29
411.74	1720.29
411.95	1869.80
412.15	1763.30
412.36	1834.98
412.57	1832.93
412.77	1834.98
412.98	1730.53
413.19	1730.53
413.39	1839.08
413.60	1757.16
413.81	1847.27
414.01	1759.21
414.22	1751.01
414.43	1697.77
414.63	1632.23
414.84	1779.68
415.05	1740.77
415.25	1669.09
415.46	1742.82
415.67	1675.24
415.87	1773.54
416.08	1705.96
416.29	1656.81
416.49	1683.43
416.70	1669.09
416.91	1712.10
417.11	1755.11
417.32	1705.96
417.53	1728.49
417.73	1763.30
417.94	1644.52
418.15	1697.77
418.35	1705.96
418.56	1640.42
418.77	1802.21
418.97	1667.05
419.18	1714.15
419.38	1626.09
419.59	1642.47
419.80	1855.46
420.00	1615.85
420.21	1708.01
420.42	1761.25
420.62	1724.39
420.83	1703.91
421.04	1753.06
421.24	1703.91
421.45	1755.11
421.65	1779.68
421.86	1693.67
422.07	1724.39
422.27	1652.71
422.48	1714.15
422.69	1621.99
422.89	1726.44
423.10	1693.67
423.30	1665.00
423.51	1681.38
423.72	1753.06
423.92	1787.88
424.13	1732.58
424.33	1740.77
424.54	1726.44
424.75	1677.29
424.95	1746.92
425.16	1701.86
425.36	1710.05
425.57	1785.83
425.78	1712.10
425.98	1828.84
426.19	1615.85
426.39	1652.71
426.60	1800.16
426.81	1791.97
427.01	1753.06
427.22	1722.34
427.42	1615.85
427.63	1621.99
427.83	1693.67
428.04	1859.56
428.25	1834.98
428.45	1783.78
428.66	1775.59
428.86	1683.43
429.07	1771.49
429.28	1742.82
429.48	1699.81
429.69	1705.96
429.89	1697.77
430.10	1679.33
430.30	1753.06
430.51	1722.34
430.71	1699.81
430.92	1730.53
431.13	1587.18
431.33	1777.64
431.54	1703.91
431.74	1886.18
431.95	1775.59
432.15	1628.14
432.36	1705.96
432.56	1691.62
432.77	1808.36
432.98	1830.88
433.18	1726.44
433.39	1728.49
433.59	1701.86
433.80	1771.49
434.00	1824.74
434.21	1642.47
434.41	1718.25
434.62	1877.99
434.82	1695.72
435.03	1613.80
435.23	1708.01
435.44	1597.42
435.64	1726.44
435.85	1691.62
436.06	1738.73
436.26	1751.01
436.47	1658.85
436.67	1660.90
436.88	1769.44
437.08	1714.15
437.29	1837.03
437.49	1744.87
437.70	1763.30
437.90	1693.67
438.11	1828.84
438.31	1800.16
438.52	1935.33
438.72	1892.32
438.93	1906.66
439.13	1839.08
439.34	1859.56
439.54	1759.21
439.75	1791.97
439.95	1763.30
440.16	1644.52
440.36	1730.53
440.57	1746.92
440.77	1759.21
440.98	1798.12
441.18	1738.73
441.39	1748.97
441.59	1654.76
441.80	1810.40
442.00	1734.63
442.21	1789.92
442.41	1681.38
442.62	1728.49
442.82	1658.85
443.02	1740.77
443.23	1734.63
443.43	1724.39
443.64	1734.63
443.84	1705.96
444.05	1794.02
444.25	1791.97
444.46	1746.92
444.66	1777.64
444.87	1855.46
445.07	1605.61
445.28	1697.77
445.48	1789.92
445.69	1751.01
445.89	1869.80
446.09	1740.77
446.30	2023.39
446.50	2611.16
446.71	4032.45
446.91	5171.12
447.12	5613.48
447.32	6000.55
447.53	5230.51
447.73	4384.70
447.93	3991.49
448.14	3565.51
448.34	3442.64
448.55	3151.82
448.75	3098.58
448.96	2990.03
449.16	2717.65
449.36	2367.45
449.57	2088.93
449.77	2002.91
449.98	1781.73
450.18	1796.07
450.39	1763.30
450.59	1773.54
450.79	1724.39
451.00	1708.01
451.20	1804.26
451.41	1751.01
451.61	1716.20
451.81	1755.11
452.02	1714.15
452.22	1722.34
452.43	1730.53
452.63	1708.01
