SpectraSuite Data File
++++++++++++++++++++++++++++++++++++
Date: Wed May 04 18:44:47 CEST 2016
User: root
Dark Spectrum Present: No
Reference Spectrum Present: No
Number of Sampled Component Spectra: 1
Spectrometers: USB4C02835
Integration Time (usec): 100000 (USB4C02835)
Spectra Averaged: 1 (USB4C02835)
Boxcar Smoothing: 0 (USB4C02835)
Correct for Electrical Dark: No (USB4C02835)
Strobe/Lamp Enabled: No (USB4C02835)
Correct for Detector Non-linearity: No (USB4C02835)
Correct for Stray Light: No (USB4C02835)
Number of Pixels in Processed Spectrum: 3648
>>>>>Begin Processed Spectral Data<<<<<
177.47	1456.11
177.69	1456.11
177.91	1456.11
178.13	1425.39
178.36	1544.17
178.58	1703.91
178.80	1732.58
179.02	1628.14
179.24	1628.14
179.46	1730.53
179.68	1802.21
179.90	1705.96
180.13	1685.48
180.35	1679.33
180.57	1683.43
180.79	1761.25
181.01	1787.88
181.23	1742.82
181.45	1890.28
181.67	1681.38
181.90	1767.40
182.12	1677.29
182.34	1564.65
182.56	1734.63
182.78	1677.29
183.00	1681.38
183.22	1693.67
183.44	1607.66
183.66	1894.37
183.89	1734.63
184.11	1738.73
184.33	1718.25
184.55	1783.78
184.77	1761.25
184.99	1697.77
185.21	1685.48
185.43	1847.27
185.65	1660.90
185.87	1685.48
186.10	1888.23
186.32	1771.49
186.54	1771.49
186.76	1734.63
186.98	1744.87
187.20	1753.06
187.42	1650.66
187.64	1720.29
187.86	1761.25
188.08	1884.13
188.30	1683.43
188.52	1687.53
188.75	1798.12
188.97	1705.96
189.19	1689.57
189.41	1687.53
189.63	1755.11
189.85	1619.94
190.07	1652.71
190.29	1601.51
190.51	1800.16
190.73	1681.38
190.95	1771.49
191.17	1693.67
191.39	1665.00
191.61	1722.34
191.84	1683.43
192.06	1783.78
192.28	1617.90
192.50	1865.70
192.72	1712.10
192.94	1722.34
193.16	1724.39
193.38	1726.44
193.60	1644.52
193.82	1660.90
194.04	1710.05
194.26	1722.34
194.48	1699.81
194.70	1724.39
194.92	1689.57
195.14	1722.34
195.36	1685.48
195.58	1757.16
195.80	1650.66
196.02	1689.57
196.24	1703.91
196.46	1740.77
196.69	1638.38
196.91	1796.07
197.13	1652.71
197.35	1718.25
197.57	1773.54
197.79	1703.91
198.01	1689.57
198.23	1757.16
198.45	1804.26
198.67	1669.09
198.89	1697.77
199.11	1751.01
199.33	1619.94
199.55	1556.46
199.77	1703.91
199.99	1761.25
200.21	1673.19
200.43	1720.29
200.65	1687.53
200.87	1576.94
201.09	1636.33
201.31	1697.77
201.53	1763.30
201.75	1683.43
201.97	1665.00
202.19	1679.33
202.41	1677.29
202.63	1822.69
202.85	1712.10
203.07	1722.34
203.29	1619.94
203.51	1683.43
203.73	1632.23
203.95	1896.42
204.17	1826.79
204.39	1755.11
204.61	1701.86
204.83	1675.24
205.05	1738.73
205.27	1722.34
205.49	1834.98
205.71	1720.29
205.93	1630.18
206.15	1646.57
206.37	1671.14
206.59	1642.47
206.81	1648.61
207.03	1660.90
207.25	1652.71
207.47	1763.30
207.69	1689.57
207.91	1773.54
208.13	1761.25
208.34	1662.95
208.56	1689.57
208.78	1802.21
209.00	1656.81
209.22	1681.38
209.44	1656.81
209.66	1736.68
209.88	1636.33
210.10	1685.48
210.32	1710.05
210.54	1781.73
210.76	1671.14
210.98	1804.26
211.20	1574.89
211.42	1759.21
211.64	1769.44
211.86	1673.19
212.08	1738.73
212.30	1726.44
212.52	1665.00
212.74	1759.21
212.96	1732.58
213.17	1726.44
213.39	1734.63
213.61	1796.07
213.83	1771.49
214.05	1701.86
214.27	1734.63
214.49	1632.23
214.71	1683.43
214.93	1744.87
215.15	1681.38
215.37	1781.73
215.59	1669.09
215.81	1714.15
216.03	1765.35
216.24	1650.66
216.46	1810.40
216.68	1708.01
216.90	1830.88
217.12	1720.29
217.34	1665.00
217.56	1660.90
217.78	1769.44
218.00	1705.96
218.22	1775.59
218.44	1724.39
218.66	1765.35
218.87	1806.31
219.09	1734.63
219.31	1755.11
219.53	1705.96
219.75	1642.47
219.97	1716.20
220.19	1761.25
220.41	1689.57
220.63	1761.25
220.85	1689.57
221.06	1705.96
221.28	1771.49
221.50	1720.29
221.72	1714.15
221.94	1679.33
222.16	1652.71
222.38	1783.78
222.60	1742.82
222.82	1703.91
223.03	1787.88
223.25	1605.61
223.47	1712.10
223.69	1855.46
223.91	1683.43
224.13	1734.63
224.35	1722.34
224.57	1779.68
224.78	1687.53
225.00	1673.19
225.22	1689.57
225.44	1697.77
225.66	1755.11
225.88	1710.05
226.10	1783.78
226.32	1738.73
226.53	1796.07
226.75	1691.62
226.97	1732.58
227.19	1712.10
227.41	1726.44
227.63	1652.71
227.85	1617.90
228.06	1759.21
228.28	1720.29
228.50	1724.39
228.72	1687.53
228.94	1732.58
229.16	1578.98
229.37	1607.66
229.59	1689.57
229.81	1783.78
230.03	1673.19
230.25	1669.09
230.47	1576.94
230.69	1648.61
230.90	1765.35
231.12	1697.77
231.34	1730.53
231.56	1808.36
231.78	1652.71
232.00	1701.86
232.21	1724.39
232.43	1789.92
232.65	1583.08
232.87	1679.33
233.09	1685.48
233.30	1644.52
233.52	1855.46
233.74	1763.30
233.96	1665.00
234.18	1720.29
234.40	1701.86
234.61	1845.22
234.83	1685.48
235.05	1607.66
235.27	1822.69
235.49	1751.01
235.70	1687.53
235.92	1814.50
236.14	1714.15
236.36	1841.12
236.58	1669.09
236.79	1685.48
237.01	1652.71
237.23	1644.52
237.45	1828.84
237.67	1685.48
237.88	1669.09
238.10	1882.08
238.32	1712.10
238.54	1634.28
238.76	1681.38
238.97	1685.48
239.19	1648.61
239.41	1779.68
239.63	1763.30
239.85	1652.71
240.06	1638.38
240.28	1634.28
240.50	1787.88
240.72	1669.09
240.93	1755.11
241.15	1722.34
241.37	1685.48
241.59	1789.92
241.81	1685.48
242.02	1609.70
242.24	1755.11
242.46	1730.53
242.68	1656.81
242.89	1691.62
243.11	1732.58
243.33	1697.77
243.55	1683.43
243.76	1689.57
243.98	1689.57
244.20	1732.58
244.42	1722.34
244.64	1718.25
244.85	1607.66
245.07	1648.61
245.29	1726.44
245.51	1722.34
245.72	1722.34
245.94	1812.45
246.16	1712.10
246.38	1822.69
246.59	1626.09
246.81	1685.48
247.03	1662.95
247.24	1699.81
247.46	1728.49
247.68	1728.49
247.90	1703.91
248.11	1679.33
248.33	1734.63
248.55	1730.53
248.77	1724.39
248.98	1722.34
249.20	1720.29
249.42	1708.01
249.64	1800.16
249.85	1736.68
250.07	1697.77
250.29	1771.49
250.50	1740.77
250.72	1687.53
250.94	1679.33
251.16	1820.64
251.37	1734.63
251.59	1689.57
251.81	1748.97
252.02	1751.01
252.24	1656.81
252.46	1751.01
252.68	1644.52
252.89	1759.21
253.11	1636.33
253.33	1773.54
253.54	1816.55
253.76	1660.90
253.98	1701.86
254.20	1656.81
254.41	1621.99
254.63	1730.53
254.85	1681.38
255.06	1654.76
255.28	1730.53
255.50	1603.56
255.71	1673.19
255.93	1646.57
256.15	1716.20
256.36	1777.64
256.58	1714.15
256.80	1761.25
257.02	1759.21
257.23	1617.90
257.45	1708.01
257.67	1787.88
257.88	1613.80
258.10	1724.39
258.32	1757.16
258.53	1734.63
258.75	1794.02
258.97	1630.18
259.18	1800.16
259.40	1718.25
259.62	1869.80
259.83	1714.15
260.05	1746.92
260.27	1974.24
260.48	1763.30
260.70	1636.33
260.92	1763.30
261.13	1722.34
261.35	1710.05
261.57	1648.61
261.78	1613.80
262.00	1648.61
262.22	1759.21
262.43	1701.86
262.65	1669.09
262.86	1697.77
263.08	1849.32
263.30	1708.01
263.51	1714.15
263.73	1601.51
263.95	1828.84
264.16	1658.85
264.38	1673.19
264.60	1791.97
264.81	1771.49
265.03	1689.57
265.25	1773.54
265.46	1697.77
265.68	1738.73
265.89	1839.08
266.11	1671.14
266.33	1830.88
266.54	1810.40
266.76	1716.20
266.98	1783.78
267.19	1837.03
267.41	1761.25
267.62	1693.67
267.84	1634.28
268.06	1673.19
268.27	1775.59
268.49	1777.64
268.70	1732.58
268.92	1611.75
269.14	1607.66
269.35	1693.67
269.57	1701.86
269.79	1755.11
270.00	1681.38
270.22	1744.87
270.43	1619.94
270.65	1558.50
270.87	1705.96
271.08	1740.77
271.30	1775.59
271.51	1748.97
271.73	1710.05
271.95	1816.55
272.16	1732.58
272.38	1714.15
272.59	1642.47
272.81	1710.05
273.02	1753.06
273.24	1722.34
273.46	1771.49
273.67	1640.42
273.89	1673.19
274.10	1660.90
274.32	1783.78
274.54	1751.01
274.75	1757.16
274.97	1720.29
275.18	1755.11
275.40	1722.34
275.61	1701.86
275.83	1685.48
276.05	1638.38
276.26	1708.01
276.48	1710.05
276.69	1693.67
276.91	1671.14
277.12	1804.26
277.34	1789.92
277.55	1820.64
277.77	1755.11
277.99	1714.15
278.20	1646.57
278.42	1665.00
278.63	1671.14
278.85	1589.22
279.06	1636.33
279.28	1667.05
279.49	1720.29
279.71	1789.92
279.93	1671.14
280.14	1732.58
280.36	1648.61
280.57	1746.92
280.79	1767.40
281.00	1621.99
281.22	1695.72
281.43	1726.44
281.65	1568.74
281.86	1691.62
282.08	1757.16
282.29	1802.21
282.51	1603.56
282.73	1689.57
282.94	1642.47
283.16	1708.01
283.37	1847.27
283.59	1697.77
283.80	1665.00
284.02	1742.82
284.23	1738.73
284.45	1658.85
284.66	1626.09
284.88	1634.28
285.09	1722.34
285.31	1730.53
285.52	1687.53
285.74	1634.28
285.95	1734.63
286.17	1691.62
286.38	1767.40
286.60	1783.78
286.81	1660.90
287.03	1712.10
287.24	1609.70
287.46	1781.73
287.67	1753.06
287.89	1841.12
288.10	1675.24
288.32	1751.01
288.53	1744.87
288.75	1740.77
288.96	1802.21
289.18	1744.87
289.39	1697.77
289.61	1771.49
289.82	1849.32
290.04	1761.25
290.25	1656.81
290.47	1685.48
290.68	1638.38
290.90	1734.63
291.11	1648.61
291.33	1757.16
291.54	1673.19
291.76	1652.71
291.97	1679.33
292.18	1753.06
292.40	1691.62
292.61	1667.05
292.83	1820.64
293.04	1798.12
293.26	1718.25
293.47	1779.68
293.69	1656.81
293.90	1718.25
294.12	1789.92
294.33	1720.29
294.55	1697.77
294.76	1746.92
294.97	1767.40
295.19	1855.46
295.40	1630.18
295.62	1769.44
295.83	1808.36
296.05	1675.24
296.26	1785.83
296.48	1673.19
296.69	1726.44
296.90	1718.25
297.12	1779.68
297.33	1683.43
297.55	1726.44
297.76	1710.05
297.98	1761.25
298.19	1701.86
298.41	1660.90
298.62	1667.05
298.83	1794.02
299.05	1722.34
299.26	1703.91
299.48	1695.72
299.69	1757.16
299.90	1720.29
300.12	1669.09
300.33	1744.87
300.55	1722.34
300.76	1710.05
300.98	1593.32
301.19	1761.25
301.40	1716.20
301.62	1644.52
301.83	1665.00
302.05	1740.77
302.26	1771.49
302.47	1730.53
302.69	1699.81
302.90	1763.30
303.12	1642.47
303.33	1703.91
303.54	1824.74
303.76	1726.44
303.97	1714.15
304.19	1832.93
304.40	1671.14
304.61	1722.34
304.83	1779.68
305.04	1763.30
305.26	1748.97
305.47	1632.23
305.68	1734.63
305.90	1679.33
306.11	1708.01
306.33	1669.09
306.54	1781.73
306.75	1589.22
306.97	1642.47
307.18	1675.24
307.39	1730.53
307.61	1789.92
307.82	1722.34
308.04	1771.49
308.25	1605.61
308.46	1730.53
308.68	1746.92
308.89	1732.58
309.10	1857.51
309.32	1765.35
309.53	1701.86
309.74	1802.21
309.96	1746.92
310.17	1796.07
310.39	1662.95
310.60	1763.30
310.81	1667.05
311.03	1714.15
311.24	1761.25
311.45	1691.62
311.67	1853.41
311.88	1722.34
312.09	1769.44
312.31	1656.81
312.52	1703.91
312.73	1736.68
312.95	1613.80
313.16	1654.76
313.37	1710.05
313.59	1703.91
313.80	1695.72
314.01	1820.64
314.23	1617.90
314.44	1705.96
314.65	1624.04
314.87	1660.90
315.08	1679.33
315.29	1710.05
315.51	1765.35
315.72	1699.81
315.93	1828.84
316.15	1771.49
316.36	1710.05
316.57	1761.25
316.79	1697.77
317.00	1677.29
317.21	1771.49
317.43	1640.42
317.64	1652.71
317.85	1683.43
318.07	1710.05
318.28	1783.78
318.49	1841.12
318.70	1988.58
318.92	1875.94
319.13	1853.41
319.34	1875.94
319.56	1894.37
319.77	1894.37
319.98	1724.39
320.20	1849.32
320.41	1789.92
320.62	1783.78
320.83	1662.95
321.05	1847.27
321.26	1781.73
321.47	1759.21
321.69	1716.20
321.90	1630.18
322.11	1621.99
322.32	1708.01
322.54	1753.06
322.75	1687.53
322.96	1847.27
323.18	1597.42
323.39	1613.80
323.60	1656.81
323.81	1705.96
324.03	1648.61
324.24	1673.19
324.45	1705.96
324.66	1656.81
324.88	1794.02
325.09	1779.68
325.30	1636.33
325.52	1691.62
325.73	1726.44
325.94	1638.38
326.15	1624.04
326.37	1699.81
326.58	1775.59
326.79	1828.84
327.00	1568.74
327.22	1785.83
327.43	1654.76
327.64	1669.09
327.85	1740.77
328.07	1722.34
328.28	1822.69
328.49	1705.96
328.70	1710.05
328.92	1708.01
329.13	1687.53
329.34	1755.11
329.55	1824.74
329.76	1777.64
329.98	1607.66
330.19	1806.31
330.40	1742.82
330.61	1755.11
330.83	1746.92
331.04	1626.09
331.25	1736.68
331.46	1660.90
331.68	1724.39
331.89	1755.11
332.10	1718.25
332.31	1656.81
332.52	1671.14
332.74	1701.86
332.95	1636.33
333.16	1724.39
333.37	1765.35
333.58	1656.81
333.80	1748.97
334.01	1626.09
334.22	1697.77
334.43	1746.92
334.64	1642.47
334.86	1585.13
335.07	1601.51
335.28	1816.55
335.49	1574.89
335.70	1730.53
335.92	1851.36
336.13	1812.45
336.34	1701.86
336.55	1738.73
336.76	1742.82
336.98	1562.60
337.19	1712.10
337.40	1800.16
337.61	1869.80
337.82	1673.19
338.04	1677.29
338.25	1603.56
338.46	1607.66
338.67	1667.05
338.88	1726.44
339.09	1662.95
339.31	1687.53
339.52	1665.00
339.73	1638.38
339.94	1714.15
340.15	1734.63
340.36	1667.05
340.58	1834.98
340.79	1648.61
341.00	1753.06
341.21	1617.90
341.42	1789.92
341.63	1681.38
341.85	1740.77
342.06	1714.15
342.27	1767.40
342.48	1822.69
342.69	1613.80
342.90	1726.44
343.12	1771.49
343.33	1699.81
343.54	1640.42
343.75	1742.82
343.96	1705.96
344.17	1689.57
344.38	1714.15
344.60	1689.57
344.81	1673.19
345.02	1732.58
345.23	1779.68
345.44	1863.65
345.65	1769.44
345.86	1734.63
346.07	1791.97
346.29	1701.86
346.50	1742.82
346.71	1722.34
346.92	1789.92
347.13	1796.07
347.34	1660.90
347.55	1701.86
347.76	1748.97
347.98	1611.75
348.19	1730.53
348.40	1814.50
348.61	1712.10
348.82	1798.12
349.03	1794.02
349.24	1693.67
349.45	1796.07
349.66	1624.04
349.88	1621.99
350.09	1703.91
350.30	1824.74
350.51	1705.96
350.72	1742.82
350.93	1742.82
351.14	1689.57
351.35	1703.91
351.56	1677.29
351.77	1665.00
351.99	1781.73
352.20	1703.91
352.41	1705.96
352.62	1613.80
352.83	1650.66
353.04	1693.67
353.25	1730.53
353.46	1726.44
353.67	1763.30
353.88	1562.60
354.09	1738.73
354.30	1740.77
354.52	1736.68
354.73	1771.49
354.94	1636.33
355.15	1757.16
355.36	1769.44
355.57	1773.54
355.78	1822.69
355.99	1740.77
356.20	1665.00
356.41	1783.78
356.62	1724.39
356.83	1751.01
357.04	1763.30
357.25	1619.94
357.46	1640.42
357.68	1697.77
357.89	1685.48
358.10	1742.82
358.31	1732.58
358.52	1662.95
358.73	1669.09
358.94	1658.85
359.15	1720.29
359.36	1785.83
359.57	1673.19
359.78	1724.39
359.99	1656.81
360.20	1665.00
360.41	1710.05
360.62	1769.44
360.83	1734.63
361.04	1683.43
361.25	1779.68
361.46	1785.83
361.67	1765.35
361.88	1816.55
362.09	1753.06
362.30	1742.82
362.51	1712.10
362.72	1789.92
362.93	1689.57
363.14	1808.36
363.35	1806.31
363.56	1648.61
363.78	1785.83
363.99	1716.20
364.20	1703.91
364.41	1669.09
364.62	1804.26
364.83	1646.57
365.04	1697.77
365.25	1697.77
365.46	1826.79
365.67	1593.32
365.88	1744.87
366.09	1667.05
366.30	1634.28
366.51	1705.96
366.72	1656.81
366.93	1730.53
367.14	1755.11
367.35	1847.27
367.56	1738.73
367.77	1826.79
367.98	1695.72
368.18	1775.59
368.39	1685.48
368.60	1632.23
368.81	1771.49
369.02	1728.49
369.23	1669.09
369.44	1681.38
369.65	1619.94
369.86	1689.57
370.07	1789.92
370.28	1681.38
370.49	1755.11
370.70	1798.12
370.91	1687.53
371.12	1679.33
371.33	1734.63
371.54	1636.33
371.75	1839.08
371.96	1576.94
372.17	1767.40
372.38	1683.43
372.59	1701.86
372.80	1681.38
373.01	1665.00
373.22	1669.09
373.43	1716.20
373.64	1650.66
373.85	1837.03
374.06	1806.31
374.26	1791.97
374.47	1757.16
374.68	1695.72
374.89	1695.72
375.10	1642.47
375.31	1767.40
375.52	1679.33
375.73	1718.25
375.94	1669.09
376.15	1863.65
376.36	1697.77
376.57	1611.75
376.78	1705.96
376.99	1640.42
377.20	1748.97
377.40	1683.43
377.61	1857.51
377.82	1728.49
378.03	1847.27
378.24	1738.73
378.45	1748.97
378.66	1691.62
378.87	1656.81
379.08	1621.99
379.29	1681.38
379.50	1744.87
379.71	1675.24
379.91	1734.63
380.12	1665.00
380.33	1697.77
380.54	1744.87
380.75	1738.73
380.96	1724.39
381.17	1757.16
381.38	1759.21
381.59	1736.68
381.80	1806.31
382.00	1900.52
382.21	1796.07
382.42	1830.88
382.63	1888.23
382.84	1730.53
383.05	1847.27
383.26	1841.12
383.47	1759.21
383.68	1816.55
383.88	1722.34
384.09	1722.34
384.30	1777.64
384.51	1730.53
384.72	1703.91
384.93	1656.81
385.14	1761.25
385.35	1798.12
385.55	1660.90
385.76	1847.27
385.97	1773.54
386.18	1589.22
386.39	1710.05
386.60	1656.81
386.81	1689.57
387.02	1714.15
387.22	1677.29
387.43	1863.65
387.64	1779.68
387.85	1902.56
388.06	2263.01
388.27	4769.72
388.48	9025.40
388.68	11571.02
388.89	13369.14
389.10	14085.93
389.31	11908.94
389.52	9611.12
389.73	8624.00
389.93	8011.65
390.14	7180.18
390.35	6596.51
390.56	6000.55
390.77	5117.87
390.98	4036.55
391.18	2998.23
391.39	2334.68
391.60	1972.19
391.81	1873.89
392.02	1732.58
392.23	1867.75
392.43	1699.81
392.64	1898.47
392.85	1763.30
393.06	1763.30
393.27	1708.01
393.47	1695.72
393.68	1736.68
393.89	1728.49
394.10	1818.60
394.31	1660.90
394.52	1681.38
394.72	1650.66
394.93	1822.69
395.14	1593.32
395.35	1761.25
395.56	1603.56
395.76	1669.09
395.97	1736.68
396.18	1882.08
396.39	1964.00
396.60	2101.22
396.80	1992.67
397.01	1877.99
397.22	1826.79
397.43	1935.33
397.64	1818.60
397.84	1890.28
398.05	1935.33
398.26	1789.92
398.47	1806.31
398.67	1841.12
398.88	1767.40
399.09	1722.34
399.30	1691.62
399.51	1744.87
399.71	1691.62
399.92	1714.15
400.13	1746.92
400.34	1679.33
400.54	1746.92
400.75	1800.16
400.96	1759.21
401.17	1898.47
401.37	1789.92
401.58	1619.94
401.79	1699.81
402.00	1914.85
402.21	2054.11
402.41	2148.32
402.62	2136.03
402.83	2115.55
403.04	2156.51
403.24	2217.95
403.45	1877.99
403.66	1982.43
403.87	1912.80
404.07	1902.56
404.28	1992.67
404.49	1937.38
404.70	1751.01
404.90	1869.80
405.11	1718.25
405.32	1681.38
405.52	1599.46
405.73	1656.81
405.94	1628.14
406.15	1689.57
406.35	1767.40
406.56	1648.61
406.77	1734.63
406.98	1703.91
407.18	1615.85
407.39	1791.97
407.60	1640.42
407.80	1773.54
408.01	1640.42
408.22	1720.29
408.43	1642.47
408.63	1703.91
408.84	1765.35
409.05	1820.64
409.25	1701.86
409.46	1712.10
409.67	1640.42
409.88	1697.77
410.08	1777.64
410.29	1738.73
410.50	1787.88
410.70	1722.34
410.91	1681.38
411.12	1736.68
411.32	1667.05
411.53	1665.00
411.74	1812.45
411.95	1824.74
412.15	1787.88
412.36	1841.12
412.57	1808.36
412.77	1808.36
412.98	1728.49
413.19	1689.57
413.39	1783.78
413.60	1748.97
413.81	1830.88
414.01	1808.36
414.22	1765.35
414.43	1824.74
414.63	1714.15
414.84	1769.44
415.05	1740.77
415.25	1683.43
415.46	1701.86
415.67	1644.52
415.87	1751.01
416.08	1691.62
416.29	1716.20
416.49	1746.92
416.70	1720.29
416.91	1724.39
417.11	1681.38
417.32	1753.06
417.53	1773.54
417.73	1705.96
417.94	1767.40
418.15	1656.81
418.35	1771.49
418.56	1765.35
418.77	1937.38
418.97	1697.77
419.18	1751.01
419.38	1595.37
419.59	1716.20
419.80	1834.98
420.00	1665.00
420.21	1665.00
420.42	1761.25
420.62	1699.81
420.83	1632.23
421.04	1771.49
421.24	1671.14
421.45	1716.20
421.65	1767.40
421.86	1691.62
422.07	1755.11
422.27	1800.16
422.48	1679.33
422.69	1638.38
422.89	1757.16
423.10	1658.85
423.30	1619.94
423.51	1771.49
423.72	1757.16
423.92	1759.21
424.13	1665.00
424.33	1751.01
424.54	1757.16
424.75	1755.11
424.95	1851.36
425.16	1728.49
425.36	1624.04
425.57	1783.78
425.78	1699.81
425.98	1755.11
426.19	1656.81
426.39	1726.44
426.60	1705.96
426.81	1796.07
427.01	1681.38
427.22	1671.14
427.42	1546.22
427.63	1677.29
427.83	1757.16
428.04	1839.08
428.25	1781.73
428.45	1716.20
428.66	1703.91
428.86	1746.92
429.07	1716.20
429.28	1740.77
429.48	1689.57
429.69	1642.47
429.89	1767.40
430.10	1722.34
430.30	1718.25
430.51	1767.40
430.71	1724.39
430.92	1667.05
431.13	1671.14
431.33	1736.68
431.54	1804.26
431.74	1820.64
431.95	1759.21
432.15	1611.75
432.36	1783.78
432.56	1802.21
432.77	1849.32
432.98	1845.22
433.18	1736.68
433.39	1658.85
433.59	1777.64
433.80	1806.31
434.00	1834.98
434.21	1771.49
434.41	1630.18
434.62	1845.22
434.82	1566.70
435.03	1677.29
435.23	1791.97
435.44	1533.93
435.64	1789.92
435.85	1787.88
436.06	1703.91
436.26	1712.10
436.47	1691.62
436.67	1722.34
436.88	1710.05
437.08	1753.06
437.29	1880.04
437.49	1650.66
437.70	1724.39
437.90	1816.55
438.11	1820.64
438.31	1773.54
438.52	1865.70
438.72	1982.43
438.93	1970.15
439.13	1916.90
439.34	1828.84
439.54	1804.26
439.75	1781.73
439.95	1738.73
440.16	1710.05
440.36	1777.64
440.57	1740.77
440.77	1847.27
440.98	1777.64
441.18	1757.16
441.39	1748.97
441.59	1640.42
441.80	1873.89
442.00	1783.78
442.21	1755.11
442.41	1697.77
442.62	1845.22
442.82	1683.43
443.02	1671.14
443.23	1765.35
443.43	1712.10
443.64	1828.84
443.84	1703.91
444.05	1802.21
444.25	1791.97
444.46	1769.44
444.66	1763.30
444.87	1796.07
445.07	1601.51
445.28	1722.34
445.48	1763.30
445.69	1726.44
445.89	1865.70
446.09	1757.16
446.30	1923.04
446.50	2611.16
446.71	4091.84
446.91	5248.94
447.12	5705.64
447.32	5892.01
447.53	5281.71
447.73	4485.05
447.93	4069.31
448.14	3682.25
448.34	3528.65
448.55	3164.11
448.75	3157.97
448.96	2852.82
449.16	2562.01
449.36	2502.62
449.57	2181.09
449.77	1947.62
449.98	1843.17
450.18	1800.16
450.39	1869.80
450.59	1720.29
450.79	1703.91
451.00	1730.53
451.20	1814.50
451.41	1714.15
451.61	1751.01
451.81	1718.25
452.02	1665.00
452.22	1757.16
452.43	1748.97
452.63	1703.91
