SpectraSuite Data File
++++++++++++++++++++++++++++++++++++
Date: Wed May 04 18:44:22 CEST 2016
User: root
Dark Spectrum Present: No
Reference Spectrum Present: No
Number of Sampled Component Spectra: 1
Spectrometers: USB4C02835
Integration Time (usec): 100000 (USB4C02835)
Spectra Averaged: 1 (USB4C02835)
Boxcar Smoothing: 0 (USB4C02835)
Correct for Electrical Dark: No (USB4C02835)
Strobe/Lamp Enabled: No (USB4C02835)
Correct for Detector Non-linearity: No (USB4C02835)
Correct for Stray Light: No (USB4C02835)
Number of Pixels in Processed Spectrum: 3648
>>>>>Begin Processed Spectral Data<<<<<
177.47	1501.16
177.69	1501.16
177.91	1501.16
178.13	1423.34
178.36	1503.21
178.58	1656.81
178.80	1718.25
179.02	1687.53
179.24	1710.05
179.46	1726.44
179.68	1701.86
179.90	1691.62
180.13	1665.00
180.35	1667.05
180.57	1691.62
180.79	1826.79
181.01	1650.66
181.23	1810.40
181.45	1783.78
181.67	1720.29
181.90	1779.68
182.12	1646.57
182.34	1656.81
182.56	1806.31
182.78	1697.77
183.00	1685.48
183.22	1794.02
183.44	1607.66
183.66	1857.51
183.89	1773.54
184.11	1722.34
184.33	1775.59
184.55	1814.50
184.77	1708.01
184.99	1658.85
185.21	1574.89
185.43	1828.84
185.65	1654.76
185.87	1658.85
186.10	1871.84
186.32	1830.88
186.54	1734.63
186.76	1740.77
186.98	1689.57
187.20	1705.96
187.42	1738.73
187.64	1642.47
187.86	1681.38
188.08	1781.73
188.30	1708.01
188.52	1720.29
188.75	1734.63
188.97	1785.83
189.19	1669.09
189.41	1703.91
189.63	1718.25
189.85	1619.94
190.07	1583.08
190.29	1701.86
190.51	1757.16
190.73	1599.46
190.95	1748.97
191.17	1746.92
191.39	1548.26
191.61	1662.95
191.84	1662.95
192.06	1724.39
192.28	1665.00
192.50	1855.46
192.72	1712.10
192.94	1742.82
193.16	1748.97
193.38	1777.64
193.60	1683.43
193.82	1689.57
194.04	1785.83
194.26	1669.09
194.48	1701.86
194.70	1624.04
194.92	1693.67
195.14	1693.67
195.36	1705.96
195.58	1746.92
195.80	1773.54
196.02	1660.90
196.24	1734.63
196.46	1742.82
196.69	1685.48
196.91	1845.22
197.13	1728.49
197.35	1603.56
197.57	1783.78
197.79	1697.77
198.01	1677.29
198.23	1773.54
198.45	1687.53
198.67	1642.47
198.89	1746.92
199.11	1689.57
199.33	1687.53
199.55	1560.55
199.77	1828.84
199.99	1765.35
200.21	1642.47
200.43	1712.10
200.65	1705.96
200.87	1597.42
201.09	1689.57
201.31	1695.72
201.53	1753.06
201.75	1667.05
201.97	1701.86
202.19	1738.73
202.41	1683.43
202.63	1841.12
202.85	1773.54
203.07	1671.14
203.29	1617.90
203.51	1640.42
203.73	1687.53
203.95	1894.37
204.17	1730.53
204.39	1746.92
204.61	1734.63
204.83	1681.38
205.05	1708.01
205.27	1787.88
205.49	1779.68
205.71	1689.57
205.93	1652.71
206.15	1675.24
206.37	1742.82
206.59	1662.95
206.81	1685.48
207.03	1628.14
207.25	1636.33
207.47	1769.44
207.69	1658.85
207.91	1751.01
208.13	1796.07
208.34	1630.18
208.56	1650.66
208.78	1677.29
209.00	1726.44
209.22	1724.39
209.44	1712.10
209.66	1722.34
209.88	1687.53
210.10	1689.57
210.32	1642.47
210.54	1744.87
210.76	1697.77
210.98	1695.72
211.20	1650.66
211.42	1732.58
211.64	1742.82
211.86	1755.11
212.08	1791.97
212.30	1648.61
212.52	1759.21
212.74	1736.68
212.96	1718.25
213.17	1798.12
213.39	1755.11
213.61	1798.12
213.83	1703.91
214.05	1708.01
214.27	1818.60
214.49	1609.70
214.71	1681.38
214.93	1787.88
215.15	1691.62
215.37	1806.31
215.59	1748.97
215.81	1710.05
216.03	1746.92
216.24	1712.10
216.46	1685.48
216.68	1726.44
216.90	1703.91
217.12	1781.73
217.34	1712.10
217.56	1714.15
217.78	1732.58
218.00	1705.96
218.22	1783.78
218.44	1734.63
218.66	1681.38
218.87	1794.02
219.09	1703.91
219.31	1675.24
219.53	1673.19
219.75	1775.59
219.97	1677.29
220.19	1767.40
220.41	1703.91
220.63	1738.73
220.85	1738.73
221.06	1665.00
221.28	1791.97
221.50	1675.24
221.72	1791.97
221.94	1759.21
222.16	1763.30
222.38	1710.05
222.60	1783.78
222.82	1740.77
223.03	1851.36
223.25	1695.72
223.47	1665.00
223.69	1845.22
223.91	1710.05
224.13	1705.96
224.35	1665.00
224.57	1753.06
224.78	1767.40
225.00	1679.33
225.22	1699.81
225.44	1667.05
225.66	1736.68
225.88	1673.19
226.10	1732.58
226.32	1730.53
226.53	1800.16
226.75	1761.25
226.97	1630.18
227.19	1705.96
227.41	1718.25
227.63	1646.57
227.85	1660.90
228.06	1673.19
228.28	1761.25
228.50	1820.64
228.72	1619.94
228.94	1710.05
229.16	1667.05
229.37	1642.47
229.59	1648.61
229.81	1771.49
230.03	1691.62
230.25	1636.33
230.47	1658.85
230.69	1716.20
230.90	1740.77
231.12	1693.67
231.34	1720.29
231.56	1791.97
231.78	1572.84
232.00	1777.64
232.21	1621.99
232.43	1697.77
232.65	1638.38
232.87	1648.61
233.09	1681.38
233.30	1728.49
233.52	1839.08
233.74	1779.68
233.96	1701.86
234.18	1671.14
234.40	1722.34
234.61	1837.03
234.83	1613.80
235.05	1642.47
235.27	1814.50
235.49	1779.68
235.70	1693.67
235.92	1787.88
236.14	1695.72
236.36	1826.79
236.58	1677.29
236.79	1740.77
237.01	1677.29
237.23	1697.77
237.45	1820.64
237.67	1724.39
237.88	1697.77
238.10	1759.21
238.32	1640.42
238.54	1716.20
238.76	1660.90
238.97	1615.85
239.19	1691.62
239.41	1716.20
239.63	1722.34
239.85	1738.73
240.06	1728.49
240.28	1685.48
240.50	1798.12
240.72	1619.94
240.93	1665.00
241.15	1796.07
241.37	1791.97
241.59	1781.73
241.81	1687.53
242.02	1714.15
242.24	1771.49
242.46	1746.92
242.68	1673.19
242.89	1716.20
243.11	1699.81
243.33	1734.63
243.55	1748.97
243.76	1601.51
243.98	1640.42
244.20	1736.68
244.42	1710.05
244.64	1720.29
244.85	1564.65
245.07	1656.81
245.29	1769.44
245.51	1736.68
245.72	1783.78
245.94	1773.54
246.16	1677.29
246.38	1755.11
246.59	1681.38
246.81	1626.09
247.03	1738.73
247.24	1640.42
247.46	1673.19
247.68	1748.97
247.90	1683.43
248.11	1638.38
248.33	1720.29
248.55	1658.85
248.77	1673.19
248.98	1744.87
249.20	1818.60
249.42	1742.82
249.64	1656.81
249.85	1691.62
250.07	1677.29
250.29	1755.11
250.50	1761.25
250.72	1544.17
250.94	1798.12
251.16	1849.32
251.37	1722.34
251.59	1714.15
251.81	1701.86
252.02	1785.83
252.24	1722.34
252.46	1798.12
252.68	1646.57
252.89	1665.00
253.11	1599.46
253.33	1777.64
253.54	1746.92
253.76	1658.85
253.98	1716.20
254.20	1687.53
254.41	1587.18
254.63	1705.96
254.85	1665.00
255.06	1611.75
255.28	1701.86
255.50	1703.91
255.71	1656.81
255.93	1677.29
256.15	1763.30
256.36	1738.73
256.58	1685.48
256.80	1681.38
257.02	1646.57
257.23	1742.82
257.45	1718.25
257.67	1820.64
257.88	1626.09
258.10	1796.07
258.32	1689.57
258.53	1701.86
258.75	1810.40
258.97	1679.33
259.18	1677.29
259.40	1673.19
259.62	1798.12
259.83	1789.92
260.05	1767.40
260.27	1947.62
260.48	1751.01
260.70	1689.57
260.92	1615.85
261.13	1697.77
261.35	1703.91
261.57	1699.81
261.78	1646.57
262.00	1687.53
262.22	1712.10
262.43	1615.85
262.65	1699.81
262.86	1681.38
263.08	1898.47
263.30	1726.44
263.51	1599.46
263.73	1695.72
263.95	1753.06
264.16	1560.55
264.38	1673.19
264.60	1652.71
264.81	1705.96
265.03	1761.25
265.25	1722.34
265.46	1734.63
265.68	1777.64
265.89	1775.59
266.11	1593.32
266.33	1730.53
266.54	1759.21
266.76	1765.35
266.98	1734.63
267.19	1814.50
267.41	1730.53
267.62	1701.86
267.84	1640.42
268.06	1742.82
268.27	1763.30
268.49	1789.92
268.70	1796.07
268.92	1685.48
269.14	1636.33
269.35	1638.38
269.57	1677.29
269.79	1789.92
270.00	1615.85
270.22	1759.21
270.43	1718.25
270.65	1564.65
270.87	1705.96
271.08	1677.29
271.30	1777.64
271.51	1658.85
271.73	1767.40
271.95	1832.93
272.16	1687.53
272.38	1714.15
272.59	1542.12
272.81	1703.91
273.02	1742.82
273.24	1714.15
273.46	1767.40
273.67	1642.47
273.89	1665.00
274.10	1658.85
274.32	1740.77
274.54	1708.01
274.75	1701.86
274.97	1730.53
275.18	1746.92
275.40	1699.81
275.61	1669.09
275.83	1767.40
276.05	1658.85
276.26	1634.28
276.48	1744.87
276.69	1650.66
276.91	1669.09
277.12	1818.60
277.34	1746.92
277.55	1748.97
277.77	1697.77
277.99	1763.30
278.20	1640.42
278.42	1644.52
278.63	1652.71
278.85	1621.99
279.06	1667.05
279.28	1705.96
279.49	1751.01
279.71	1689.57
279.93	1763.30
280.14	1796.07
280.36	1675.24
280.57	1763.30
280.79	1744.87
281.00	1718.25
281.22	1677.29
281.43	1767.40
281.65	1617.90
281.86	1613.80
282.08	1728.49
282.29	1773.54
282.51	1736.68
282.73	1646.57
282.94	1658.85
283.16	1718.25
283.37	1765.35
283.59	1697.77
283.80	1738.73
284.02	1662.95
284.23	1794.02
284.45	1681.38
284.66	1701.86
284.88	1667.05
285.09	1669.09
285.31	1738.73
285.52	1775.59
285.74	1650.66
285.95	1716.20
286.17	1769.44
286.38	1767.40
286.60	1650.66
286.81	1671.14
287.03	1746.92
287.24	1769.44
287.46	1740.77
287.67	1697.77
287.89	1802.21
288.10	1656.81
288.32	1705.96
288.53	1847.27
288.75	1734.63
288.96	1742.82
289.18	1636.33
289.39	1677.29
289.61	1699.81
289.82	1841.12
290.04	1843.17
290.25	1619.94
290.47	1691.62
290.68	1650.66
290.90	1849.32
291.11	1658.85
291.33	1740.77
291.54	1640.42
291.76	1689.57
291.97	1738.73
292.18	1742.82
292.40	1665.00
292.61	1685.48
292.83	1867.75
293.04	1771.49
293.26	1699.81
293.47	1679.33
293.69	1636.33
293.90	1708.01
294.12	1783.78
294.33	1705.96
294.55	1771.49
294.76	1775.59
294.97	1738.73
295.19	1877.99
295.40	1689.57
295.62	1765.35
295.83	1814.50
296.05	1626.09
296.26	1701.86
296.48	1722.34
296.69	1791.97
296.90	1621.99
297.12	1777.64
297.33	1710.05
297.55	1658.85
297.76	1718.25
297.98	1757.16
298.19	1791.97
298.41	1679.33
298.62	1658.85
298.83	1755.11
299.05	1732.58
299.26	1634.28
299.48	1683.43
299.69	1710.05
299.90	1681.38
300.12	1638.38
300.33	1771.49
300.55	1681.38
300.76	1787.88
300.98	1630.18
301.19	1742.82
301.40	1658.85
301.62	1656.81
301.83	1746.92
302.05	1773.54
302.26	1669.09
302.47	1621.99
302.69	1669.09
302.90	1767.40
303.12	1548.26
303.33	1744.87
303.54	1845.22
303.76	1718.25
303.97	1708.01
304.19	1775.59
304.40	1742.82
304.61	1701.86
304.83	1851.36
305.04	1746.92
305.26	1693.67
305.47	1650.66
305.68	1705.96
305.90	1740.77
306.11	1744.87
306.33	1705.96
306.54	1722.34
306.75	1693.67
306.97	1681.38
307.18	1617.90
307.39	1693.67
307.61	1800.16
307.82	1710.05
308.04	1708.01
308.25	1681.38
308.46	1748.97
308.68	1726.44
308.89	1714.15
309.10	1798.12
309.32	1798.12
309.53	1669.09
309.74	1630.18
309.96	1675.24
310.17	1812.45
310.39	1693.67
310.60	1765.35
310.81	1671.14
311.03	1628.14
311.24	1767.40
311.45	1714.15
311.67	1830.88
311.88	1703.91
312.09	1701.86
312.31	1701.86
312.52	1761.25
312.73	1662.95
312.95	1617.90
313.16	1687.53
313.37	1751.01
313.59	1767.40
313.80	1732.58
314.01	1796.07
314.23	1644.52
314.44	1646.57
314.65	1683.43
314.87	1683.43
315.08	1673.19
315.29	1654.76
315.51	1636.33
315.72	1566.70
315.93	1779.68
316.15	1724.39
316.36	1656.81
316.57	1730.53
316.79	1738.73
317.00	1689.57
317.21	1753.06
317.43	1685.48
317.64	1626.09
317.85	1660.90
318.07	1712.10
318.28	1841.12
318.49	1824.74
318.70	1992.67
318.92	1859.56
319.13	1861.60
319.34	1890.28
319.56	1814.50
319.77	1826.79
319.98	1837.03
320.20	1828.84
320.41	1837.03
320.62	1769.44
320.83	1755.11
321.05	1847.27
321.26	1816.55
321.47	1726.44
321.69	1699.81
321.90	1656.81
322.11	1619.94
322.32	1814.50
322.54	1888.23
322.75	1656.81
322.96	1796.07
323.18	1708.01
323.39	1564.65
323.60	1644.52
323.81	1767.40
324.03	1697.77
324.24	1738.73
324.45	1701.86
324.66	1662.95
324.88	1824.74
325.09	1812.45
325.30	1800.16
325.52	1708.01
325.73	1740.77
325.94	1634.28
326.15	1644.52
326.37	1708.01
326.58	1732.58
326.79	1755.11
327.00	1683.43
327.22	1744.87
327.43	1724.39
327.64	1660.90
327.85	1757.16
328.07	1722.34
328.28	1822.69
328.49	1693.67
328.70	1759.21
328.92	1708.01
329.13	1785.83
329.34	1708.01
329.55	1851.36
329.76	1714.15
329.98	1701.86
330.19	1746.92
330.40	1718.25
330.61	1736.68
330.83	1779.68
331.04	1726.44
331.25	1683.43
331.46	1632.23
331.68	1767.40
331.89	1794.02
332.10	1730.53
332.31	1681.38
332.52	1603.56
332.74	1781.73
332.95	1628.14
333.16	1724.39
333.37	1734.63
333.58	1677.29
333.80	1730.53
334.01	1613.80
334.22	1654.76
334.43	1685.48
334.64	1701.86
334.86	1685.48
335.07	1714.15
335.28	1751.01
335.49	1646.57
335.70	1738.73
335.92	1662.95
336.13	1865.70
336.34	1771.49
336.55	1732.58
336.76	1626.09
336.98	1568.74
337.19	1699.81
337.40	1806.31
337.61	1853.41
337.82	1712.10
338.04	1775.59
338.25	1574.89
338.46	1720.29
338.67	1687.53
338.88	1642.47
339.09	1667.05
339.31	1652.71
339.52	1583.08
339.73	1667.05
339.94	1757.16
340.15	1804.26
340.36	1755.11
340.58	1722.34
340.79	1730.53
341.00	1742.82
341.21	1648.61
341.42	1824.74
341.63	1683.43
341.85	1701.86
342.06	1699.81
342.27	1624.04
342.48	1753.06
342.69	1673.19
342.90	1691.62
343.12	1802.21
343.33	1679.33
343.54	1771.49
343.75	1828.84
343.96	1611.75
344.17	1714.15
344.38	1736.68
344.60	1685.48
344.81	1578.98
345.02	1753.06
345.23	1767.40
345.44	1853.41
345.65	1763.30
345.86	1701.86
346.07	1765.35
346.29	1632.23
346.50	1736.68
346.71	1771.49
346.92	1767.40
347.13	1853.41
347.34	1705.96
347.55	1699.81
347.76	1685.48
347.98	1650.66
348.19	1716.20
348.40	1767.40
348.61	1646.57
348.82	1783.78
349.03	1679.33
349.24	1724.39
349.45	1851.36
349.66	1587.18
349.88	1712.10
350.09	1611.75
350.30	1800.16
350.51	1687.53
350.72	1728.49
350.93	1730.53
351.14	1658.85
351.35	1718.25
351.56	1652.71
351.77	1722.34
351.99	1826.79
352.20	1755.11
352.41	1732.58
352.62	1570.79
352.83	1679.33
353.04	1673.19
353.25	1679.33
353.46	1800.16
353.67	1775.59
353.88	1648.61
354.09	1716.20
354.30	1665.00
354.52	1779.68
354.73	1679.33
354.94	1675.24
355.15	1736.68
355.36	1787.88
355.57	1611.75
355.78	1763.30
355.99	1642.47
356.20	1710.05
356.41	1861.60
356.62	1763.30
356.83	1734.63
357.04	1822.69
357.25	1613.80
357.46	1636.33
357.68	1652.71
357.89	1636.33
358.10	1771.49
358.31	1705.96
358.52	1701.86
358.73	1626.09
358.94	1644.52
359.15	1705.96
359.36	1822.69
359.57	1775.59
359.78	1669.09
359.99	1703.91
360.20	1677.29
360.41	1662.95
360.62	1716.20
360.83	1669.09
361.04	1771.49
361.25	1667.05
361.46	1832.93
361.67	1705.96
361.88	1773.54
362.09	1802.21
362.30	1687.53
362.51	1673.19
362.72	1765.35
362.93	1806.31
363.14	1724.39
363.35	1744.87
363.56	1632.23
363.78	1763.30
363.99	1716.20
364.20	1712.10
364.41	1796.07
364.62	1814.50
364.83	1726.44
365.04	1689.57
365.25	1775.59
365.46	1730.53
365.67	1667.05
365.88	1740.77
366.09	1665.00
366.30	1726.44
366.51	1685.48
366.72	1611.75
366.93	1746.92
367.14	1722.34
367.35	1820.64
367.56	1755.11
367.77	1822.69
367.98	1683.43
368.18	1660.90
368.39	1718.25
368.60	1656.81
368.81	1712.10
369.02	1730.53
369.23	1673.19
369.44	1619.94
369.65	1681.38
369.86	1708.01
370.07	1744.87
370.28	1679.33
370.49	1761.25
370.70	1730.53
370.91	1685.48
371.12	1761.25
371.33	1757.16
371.54	1703.91
371.75	1800.16
371.96	1609.70
372.17	1761.25
372.38	1730.53
372.59	1759.21
372.80	1718.25
373.01	1716.20
373.22	1667.05
373.43	1660.90
373.64	1638.38
373.85	1812.45
374.06	1812.45
374.26	1753.06
374.47	1738.73
374.68	1712.10
374.89	1759.21
375.10	1644.52
375.31	1763.30
375.52	1791.97
375.73	1734.63
375.94	1638.38
376.15	1779.68
376.36	1644.52
376.57	1691.62
376.78	1632.23
376.99	1746.92
377.20	1701.86
377.40	1714.15
377.61	1859.56
377.82	1703.91
378.03	1751.01
378.24	1746.92
378.45	1720.29
378.66	1746.92
378.87	1685.48
379.08	1603.56
379.29	1560.55
379.50	1746.92
379.71	1718.25
379.91	1669.09
380.12	1722.34
380.33	1744.87
380.54	1669.09
380.75	1714.15
380.96	1687.53
381.17	1794.02
381.38	1738.73
381.59	1773.54
381.80	1824.74
382.00	1875.94
382.21	1759.21
382.42	1894.37
382.63	1900.52
382.84	1785.83
383.05	1800.16
383.26	1865.70
383.47	1773.54
383.68	1796.07
383.88	1832.93
384.09	1771.49
384.30	1828.84
384.51	1730.53
384.72	1681.38
384.93	1652.71
385.14	1689.57
385.35	1732.58
385.55	1621.99
385.76	1834.98
385.97	1812.45
386.18	1638.38
386.39	1726.44
386.60	1683.43
386.81	1699.81
387.02	1646.57
387.22	1673.19
387.43	1738.73
387.64	1800.16
387.85	1896.42
388.06	2238.43
388.27	4712.38
388.48	9135.99
388.68	11802.44
388.89	13743.92
389.10	14348.07
389.31	12031.82
389.52	9752.43
389.73	8580.99
389.93	8079.24
390.14	7284.62
390.35	6586.27
390.56	5879.72
390.77	4976.56
390.98	3964.87
391.18	3106.77
391.39	2293.72
391.60	1984.48
391.81	1904.61
392.02	1734.63
392.23	1814.50
392.43	1710.05
392.64	1783.78
392.85	1755.11
393.06	1710.05
393.27	1816.55
393.47	1736.68
393.68	1722.34
393.89	1691.62
394.10	1748.97
394.31	1736.68
394.52	1701.86
394.72	1636.33
394.93	1771.49
395.14	1761.25
395.35	1685.48
395.56	1669.09
395.76	1738.73
395.97	1837.03
396.18	1906.66
396.39	1843.17
396.60	2109.41
396.80	1945.57
397.01	1882.08
397.22	1802.21
397.43	1802.21
397.64	1763.30
397.84	1814.50
398.05	1853.41
398.26	1781.73
398.47	1730.53
398.67	1744.87
398.88	1730.53
399.09	1658.85
399.30	1697.77
399.51	1789.92
399.71	1626.09
399.92	1691.62
400.13	1808.36
400.34	1697.77
400.54	1611.75
400.75	1787.88
400.96	1759.21
401.17	1843.17
401.37	1779.68
401.58	1755.11
401.79	1708.01
402.00	1839.08
402.21	1980.39
402.41	2101.22
402.62	2109.41
402.83	2172.89
403.04	2140.13
403.24	2123.74
403.45	1937.38
403.66	1894.37
403.87	1935.33
404.07	1968.10
404.28	1935.33
404.49	1931.23
404.70	1828.84
404.90	1830.88
405.11	1734.63
405.32	1779.68
405.52	1603.56
405.73	1708.01
405.94	1673.19
406.15	1699.81
406.35	1728.49
406.56	1771.49
406.77	1650.66
406.98	1771.49
407.18	1724.39
407.39	1798.12
407.60	1652.71
407.80	1828.84
408.01	1687.53
408.22	1732.58
408.43	1650.66
408.63	1697.77
408.84	1851.36
409.05	1761.25
409.25	1683.43
409.46	1708.01
409.67	1697.77
409.88	1652.71
410.08	1691.62
410.29	1767.40
410.50	1720.29
410.70	1677.29
410.91	1662.95
411.12	1720.29
411.32	1699.81
411.53	1716.20
411.74	1820.64
411.95	1875.94
412.15	1746.92
412.36	1759.21
412.57	1832.93
412.77	1802.21
412.98	1712.10
413.19	1751.01
413.39	1775.59
413.60	1744.87
413.81	1814.50
414.01	1697.77
414.22	1736.68
414.43	1789.92
414.63	1685.48
414.84	1767.40
415.05	1681.38
415.25	1669.09
415.46	1785.83
415.67	1697.77
415.87	1671.14
416.08	1656.81
416.29	1658.85
416.49	1820.64
416.70	1658.85
416.91	1615.85
417.11	1611.75
417.32	1775.59
417.53	1794.02
417.73	1794.02
417.94	1730.53
418.15	1687.53
418.35	1697.77
418.56	1673.19
418.77	1787.88
418.97	1718.25
419.18	1665.00
419.38	1609.70
419.59	1673.19
419.80	1796.07
420.00	1724.39
420.21	1720.29
420.42	1748.97
420.62	1726.44
420.83	1681.38
421.04	1712.10
421.24	1679.33
421.45	1753.06
421.65	1705.96
421.86	1687.53
422.07	1742.82
422.27	1720.29
422.48	1726.44
422.69	1677.29
422.89	1736.68
423.10	1683.43
423.30	1667.05
423.51	1753.06
423.72	1712.10
423.92	1765.35
424.13	1619.94
424.33	1724.39
424.54	1863.65
424.75	1734.63
424.95	1796.07
425.16	1757.16
425.36	1712.10
425.57	1693.67
425.78	1708.01
425.98	1853.41
426.19	1662.95
426.39	1757.16
426.60	1734.63
426.81	1820.64
427.01	1716.20
427.22	1716.20
427.42	1644.52
427.63	1710.05
427.83	1800.16
428.04	1814.50
428.25	1734.63
428.45	1748.97
428.66	1748.97
428.86	1673.19
429.07	1732.58
429.28	1720.29
429.48	1759.21
429.69	1718.25
429.89	1718.25
430.10	1665.00
430.30	1787.88
430.51	1730.53
430.71	1748.97
430.92	1757.16
431.13	1742.82
431.33	1726.44
431.54	1689.57
431.74	1861.60
431.95	1800.16
432.15	1619.94
432.36	1701.86
432.56	1830.88
432.77	1877.99
432.98	1828.84
433.18	1716.20
433.39	1705.96
433.59	1644.52
433.80	1804.26
434.00	1875.94
434.21	1652.71
434.41	1695.72
434.62	1800.16
434.82	1685.48
435.03	1648.61
435.23	1714.15
435.44	1605.61
435.64	1722.34
435.85	1730.53
436.06	1761.25
436.26	1648.61
436.47	1730.53
436.67	1718.25
436.88	1716.20
437.08	1789.92
437.29	1796.07
437.49	1736.68
437.70	1767.40
437.90	1673.19
438.11	1970.15
438.31	1779.68
438.52	1894.37
438.72	1955.81
438.93	1996.77
439.13	1802.21
439.34	1920.99
439.54	1845.22
439.75	1818.60
439.95	1800.16
440.16	1732.58
440.36	1716.20
440.57	1753.06
440.77	1755.11
440.98	1767.40
441.18	1796.07
441.39	1697.77
441.59	1701.86
441.80	1886.18
442.00	1832.93
442.21	1826.79
442.41	1660.90
442.62	1791.97
442.82	1718.25
443.02	1703.91
443.23	1738.73
443.43	1728.49
443.64	1798.12
443.84	1705.96
444.05	1851.36
444.25	1775.59
444.46	1718.25
444.66	1732.58
444.87	1705.96
445.07	1648.61
445.28	1765.35
445.48	1863.65
445.69	1738.73
445.89	1824.74
446.09	1757.16
446.30	1943.52
446.50	2668.50
446.71	4153.28
446.91	5177.26
447.12	5750.70
447.32	6084.52
447.53	5207.98
447.73	4425.66
447.93	3950.53
448.14	3721.16
448.34	3377.10
448.55	3229.65
448.75	3143.63
448.96	2936.79
449.16	2619.35
449.36	2519.00
449.57	2195.42
449.77	1961.95
449.98	1798.12
450.18	1810.40
450.39	1875.94
450.59	1877.99
450.79	1779.68
451.00	1677.29
451.20	1730.53
451.41	1767.40
451.61	1730.53
451.81	1771.49
452.02	1771.49
452.22	1693.67
452.43	1689.57
452.63	1724.39
