SpectraSuite Data File
++++++++++++++++++++++++++++++++++++
Date: Wed May 04 18:44:06 CEST 2016
User: root
Dark Spectrum Present: No
Reference Spectrum Present: No
Number of Sampled Component Spectra: 1
Spectrometers: USB4C02835
Integration Time (usec): 100000 (USB4C02835)
Spectra Averaged: 1 (USB4C02835)
Boxcar Smoothing: 0 (USB4C02835)
Correct for Electrical Dark: No (USB4C02835)
Strobe/Lamp Enabled: No (USB4C02835)
Correct for Detector Non-linearity: No (USB4C02835)
Correct for Stray Light: No (USB4C02835)
Number of Pixels in Processed Spectrum: 3648
>>>>>Begin Processed Spectral Data<<<<<
177.47	1495.02
177.69	1495.02
177.91	1495.02
178.13	1482.73
178.36	1427.43
178.58	1761.25
178.80	1662.95
179.02	1662.95
179.24	1603.56
179.46	1697.77
179.68	1800.16
179.90	1687.53
180.13	1689.57
180.35	1640.42
180.57	1675.24
180.79	1775.59
181.01	1759.21
181.23	1710.05
181.45	1779.68
181.67	1724.39
181.90	1781.73
182.12	1640.42
182.34	1583.08
182.56	1658.85
182.78	1775.59
183.00	1701.86
183.22	1746.92
183.44	1636.33
183.66	1849.32
183.89	1783.78
184.11	1650.66
184.33	1767.40
184.55	1779.68
184.77	1669.09
184.99	1773.54
185.21	1642.47
185.43	1863.65
185.65	1683.43
185.87	1765.35
186.10	1865.70
186.32	1828.84
186.54	1716.20
186.76	1742.82
186.98	1759.21
187.20	1642.47
187.42	1746.92
187.64	1722.34
187.86	1740.77
188.08	1804.26
188.30	1658.85
188.52	1687.53
188.75	1703.91
188.97	1810.40
189.19	1699.81
189.41	1611.75
189.63	1740.77
189.85	1701.86
190.07	1652.71
190.29	1601.51
190.51	1656.81
190.73	1667.05
190.95	1802.21
191.17	1685.48
191.39	1613.80
191.61	1683.43
191.84	1685.48
192.06	1732.58
192.28	1630.18
192.50	1816.55
192.72	1720.29
192.94	1748.97
193.16	1800.16
193.38	1708.01
193.60	1665.00
193.82	1755.11
194.04	1726.44
194.26	1611.75
194.48	1705.96
194.70	1703.91
194.92	1681.38
195.14	1769.44
195.36	1665.00
195.58	1710.05
195.80	1605.61
196.02	1673.19
196.24	1695.72
196.46	1712.10
196.69	1755.11
196.91	1789.92
197.13	1646.57
197.35	1673.19
197.57	1734.63
197.79	1771.49
198.01	1718.25
198.23	1689.57
198.45	1708.01
198.67	1675.24
198.89	1660.90
199.11	1728.49
199.33	1611.75
199.55	1673.19
199.77	1728.49
199.99	1730.53
200.21	1695.72
200.43	1712.10
200.65	1660.90
200.87	1624.04
201.09	1728.49
201.31	1683.43
201.53	1769.44
201.75	1693.67
201.97	1699.81
202.19	1660.90
202.41	1673.19
202.63	1873.89
202.85	1757.16
203.07	1746.92
203.29	1685.48
203.51	1691.62
203.73	1587.18
203.95	1857.51
204.17	1748.97
204.39	1689.57
204.61	1677.29
204.83	1730.53
205.05	1728.49
205.27	1759.21
205.49	1814.50
205.71	1728.49
205.93	1662.95
206.15	1689.57
206.37	1814.50
206.59	1687.53
206.81	1673.19
207.03	1687.53
207.25	1583.08
207.47	1710.05
207.69	1626.09
207.91	1771.49
208.13	1744.87
208.34	1646.57
208.56	1710.05
208.78	1679.33
209.00	1656.81
209.22	1656.81
209.44	1603.56
209.66	1726.44
209.88	1716.20
210.10	1697.77
210.32	1662.95
210.54	1775.59
210.76	1644.52
210.98	1751.01
211.20	1646.57
211.42	1716.20
211.64	1708.01
211.86	1744.87
212.08	1763.30
212.30	1775.59
212.52	1648.61
212.74	1734.63
212.96	1687.53
213.17	1789.92
213.39	1730.53
213.61	1763.30
213.83	1802.21
214.05	1718.25
214.27	1781.73
214.49	1710.05
214.71	1710.05
214.93	1746.92
215.15	1755.11
215.37	1816.55
215.59	1628.14
215.81	1759.21
216.03	1730.53
216.24	1722.34
216.46	1695.72
216.68	1679.33
216.90	1787.88
217.12	1816.55
217.34	1685.48
217.56	1724.39
217.78	1806.31
218.00	1759.21
218.22	1699.81
218.44	1759.21
218.66	1671.14
218.87	1751.01
219.09	1699.81
219.31	1763.30
219.53	1732.58
219.75	1660.90
219.97	1734.63
220.19	1734.63
220.41	1581.03
220.63	1820.64
220.85	1679.33
221.06	1689.57
221.28	1728.49
221.50	1773.54
221.72	1685.48
221.94	1648.61
222.16	1632.23
222.38	1675.24
222.60	1730.53
222.82	1648.61
223.03	1773.54
223.25	1650.66
223.47	1828.84
223.69	1791.97
223.91	1755.11
224.13	1787.88
224.35	1744.87
224.57	1789.92
224.78	1705.96
225.00	1699.81
225.22	1646.57
225.44	1740.77
225.66	1785.83
225.88	1787.88
226.10	1757.16
226.32	1681.38
226.53	1785.83
226.75	1677.29
226.97	1697.77
227.19	1634.28
227.41	1613.80
227.63	1632.23
227.85	1607.66
228.06	1634.28
228.28	1716.20
228.50	1800.16
228.72	1683.43
228.94	1689.57
229.16	1660.90
229.37	1748.97
229.59	1673.19
229.81	1771.49
230.03	1689.57
230.25	1589.22
230.47	1685.48
230.69	1665.00
230.90	1800.16
231.12	1718.25
231.34	1763.30
231.56	1759.21
231.78	1601.51
232.00	1652.71
232.21	1714.15
232.43	1638.38
232.65	1568.74
232.87	1794.02
233.09	1701.86
233.30	1693.67
233.52	1781.73
233.74	1767.40
233.96	1703.91
234.18	1787.88
234.40	1732.58
234.61	1830.88
234.83	1621.99
235.05	1716.20
235.27	1839.08
235.49	1804.26
235.70	1783.78
235.92	1824.74
236.14	1718.25
236.36	1851.36
236.58	1609.70
236.79	1783.78
237.01	1789.92
237.23	1679.33
237.45	1884.13
237.67	1656.81
237.88	1683.43
238.10	1847.27
238.32	1687.53
238.54	1669.09
238.76	1685.48
238.97	1724.39
239.19	1710.05
239.41	1769.44
239.63	1843.17
239.85	1703.91
240.06	1695.72
240.28	1652.71
240.50	1755.11
240.72	1771.49
240.93	1646.57
241.15	1691.62
241.37	1701.86
241.59	1796.07
241.81	1716.20
242.02	1755.11
242.24	1759.21
242.46	1697.77
242.68	1710.05
242.89	1800.16
243.11	1742.82
243.33	1630.18
243.55	1771.49
243.76	1736.68
243.98	1705.96
244.20	1738.73
244.42	1681.38
244.64	1667.05
244.85	1615.85
245.07	1648.61
245.29	1748.97
245.51	1734.63
245.72	1714.15
245.94	1693.67
246.16	1740.77
246.38	1730.53
246.59	1660.90
246.81	1632.23
247.03	1662.95
247.24	1691.62
247.46	1636.33
247.68	1705.96
247.90	1716.20
248.11	1677.29
248.33	1839.08
248.55	1695.72
248.77	1691.62
248.98	1769.44
249.20	1767.40
249.42	1771.49
249.64	1757.16
249.85	1787.88
250.07	1701.86
250.29	1820.64
250.50	1783.78
250.72	1705.96
250.94	1691.62
251.16	1824.74
251.37	1755.11
251.59	1705.96
251.81	1751.01
252.02	1738.73
252.24	1724.39
252.46	1738.73
252.68	1601.51
252.89	1718.25
253.11	1558.50
253.33	1820.64
253.54	1800.16
253.76	1665.00
253.98	1730.53
254.20	1726.44
254.41	1656.81
254.63	1722.34
254.85	1611.75
255.06	1699.81
255.28	1751.01
255.50	1738.73
255.71	1701.86
255.93	1665.00
256.15	1578.98
256.36	1652.71
256.58	1632.23
256.80	1724.39
257.02	1609.70
257.23	1697.77
257.45	1607.66
257.67	1802.21
257.88	1691.62
258.10	1714.15
258.32	1705.96
258.53	1693.67
258.75	1816.55
258.97	1665.00
259.18	1718.25
259.40	1650.66
259.62	1824.74
259.83	1810.40
260.05	1726.44
260.27	1959.91
260.48	1695.72
260.70	1665.00
260.92	1732.58
261.13	1636.33
261.35	1759.21
261.57	1683.43
261.78	1636.33
262.00	1611.75
262.22	1732.58
262.43	1624.04
262.65	1683.43
262.86	1699.81
263.08	1902.56
263.30	1691.62
263.51	1599.46
263.73	1677.29
263.95	1757.16
264.16	1689.57
264.38	1685.48
264.60	1718.25
264.81	1701.86
265.03	1732.58
265.25	1775.59
265.46	1638.38
265.68	1734.63
265.89	1658.85
266.11	1583.08
266.33	1781.73
266.54	1814.50
266.76	1640.42
266.98	1789.92
267.19	1755.11
267.41	1771.49
267.62	1691.62
267.84	1638.38
268.06	1724.39
268.27	1673.19
268.49	1824.74
268.70	1761.25
268.92	1626.09
269.14	1712.10
269.35	1593.32
269.57	1742.82
269.79	1718.25
270.00	1652.71
270.22	1908.71
270.43	1656.81
270.65	1607.66
270.87	1654.76
271.08	1648.61
271.30	1734.63
271.51	1710.05
271.73	1714.15
271.95	1761.25
272.16	1757.16
272.38	1755.11
272.59	1673.19
272.81	1640.42
273.02	1718.25
273.24	1748.97
273.46	1744.87
273.67	1703.91
273.89	1552.36
274.10	1691.62
274.32	1796.07
274.54	1701.86
274.75	1722.34
274.97	1681.38
275.18	1720.29
275.40	1722.34
275.61	1732.58
275.83	1699.81
276.05	1595.37
276.26	1722.34
276.48	1738.73
276.69	1683.43
276.91	1662.95
277.12	1789.92
277.34	1769.44
277.55	1708.01
277.77	1771.49
277.99	1748.97
278.20	1652.71
278.42	1689.57
278.63	1701.86
278.85	1630.18
279.06	1644.52
279.28	1771.49
279.49	1705.96
279.71	1761.25
279.93	1675.24
280.14	1775.59
280.36	1621.99
280.57	1767.40
280.79	1767.40
281.00	1673.19
281.22	1583.08
281.43	1759.21
281.65	1574.89
281.86	1681.38
282.08	1751.01
282.29	1837.03
282.51	1656.81
282.73	1630.18
282.94	1689.57
283.16	1837.03
283.37	1814.50
283.59	1726.44
283.80	1697.77
284.02	1738.73
284.23	1763.30
284.45	1660.90
284.66	1671.14
284.88	1665.00
285.09	1763.30
285.31	1751.01
285.52	1763.30
285.74	1642.47
285.95	1685.48
286.17	1665.00
286.38	1742.82
286.60	1685.48
286.81	1628.14
287.03	1740.77
287.24	1732.58
287.46	1708.01
287.67	1683.43
287.89	1814.50
288.10	1753.06
288.32	1621.99
288.53	1656.81
288.75	1726.44
288.96	1816.55
289.18	1679.33
289.39	1720.29
289.61	1800.16
289.82	1869.80
290.04	1789.92
290.25	1665.00
290.47	1761.25
290.68	1599.46
290.90	1759.21
291.11	1628.14
291.33	1806.31
291.54	1605.61
291.76	1710.05
291.97	1732.58
292.18	1689.57
292.40	1685.48
292.61	1669.09
292.83	1806.31
293.04	1724.39
293.26	1681.38
293.47	1708.01
293.69	1798.12
293.90	1730.53
294.12	1828.84
294.33	1671.14
294.55	1699.81
294.76	1771.49
294.97	1818.60
295.19	1828.84
295.40	1722.34
295.62	1751.01
295.83	1824.74
296.05	1640.42
296.26	1773.54
296.48	1658.85
296.69	1671.14
296.90	1714.15
297.12	1746.92
297.33	1798.12
297.55	1695.72
297.76	1767.40
297.98	1796.07
298.19	1755.11
298.41	1673.19
298.62	1714.15
298.83	1757.16
299.05	1697.77
299.26	1652.71
299.48	1705.96
299.69	1736.68
299.90	1746.92
300.12	1601.51
300.33	1787.88
300.55	1759.21
300.76	1708.01
300.98	1589.22
301.19	1697.77
301.40	1701.86
301.62	1648.61
301.83	1699.81
302.05	1726.44
302.26	1697.77
302.47	1705.96
302.69	1607.66
302.90	1695.72
303.12	1603.56
303.33	1714.15
303.54	1796.07
303.76	1697.77
303.97	1736.68
304.19	1769.44
304.40	1615.85
304.61	1726.44
304.83	1808.36
305.04	1734.63
305.26	1689.57
305.47	1705.96
305.68	1689.57
305.90	1683.43
306.11	1689.57
306.33	1595.37
306.54	1673.19
306.75	1654.76
306.97	1615.85
307.18	1665.00
307.39	1695.72
307.61	1779.68
307.82	1705.96
308.04	1738.73
308.25	1605.61
308.46	1814.50
308.68	1652.71
308.89	1665.00
309.10	1759.21
309.32	1744.87
309.53	1736.68
309.74	1656.81
309.96	1751.01
310.17	1767.40
310.39	1724.39
310.60	1730.53
310.81	1665.00
311.03	1675.24
311.24	1804.26
311.45	1673.19
311.67	1769.44
311.88	1748.97
312.09	1683.43
312.31	1669.09
312.52	1751.01
312.73	1687.53
312.95	1617.90
313.16	1687.53
313.37	1724.39
313.59	1722.34
313.80	1783.78
314.01	1808.36
314.23	1710.05
314.44	1591.27
314.65	1658.85
314.87	1667.05
315.08	1656.81
315.29	1673.19
315.51	1697.77
315.72	1648.61
315.93	1837.03
316.15	1781.73
316.36	1773.54
316.57	1662.95
316.79	1669.09
317.00	1718.25
317.21	1736.68
317.43	1697.77
317.64	1652.71
317.85	1681.38
318.07	1701.86
318.28	1699.81
318.49	1853.41
318.70	1923.04
318.92	1867.75
319.13	1927.14
319.34	1867.75
319.56	1830.88
319.77	1837.03
319.98	1746.92
320.20	1746.92
320.41	1730.53
320.62	1767.40
320.83	1632.23
321.05	1804.26
321.26	1720.29
321.47	1689.57
321.69	1716.20
321.90	1603.56
322.11	1630.18
322.32	1710.05
322.54	1812.45
322.75	1748.97
322.96	1871.84
323.18	1617.90
323.39	1554.41
323.60	1679.33
323.81	1798.12
324.03	1671.14
324.24	1722.34
324.45	1810.40
324.66	1630.18
324.88	1781.73
325.09	1751.01
325.30	1740.77
325.52	1710.05
325.73	1732.58
325.94	1624.04
326.15	1640.42
326.37	1632.23
326.58	1748.97
326.79	1816.55
327.00	1636.33
327.22	1740.77
327.43	1708.01
327.64	1626.09
327.85	1685.48
328.07	1714.15
328.28	1826.79
328.49	1638.38
328.70	1683.43
328.92	1648.61
329.13	1748.97
329.34	1703.91
329.55	1763.30
329.76	1789.92
329.98	1689.57
330.19	1773.54
330.40	1751.01
330.61	1742.82
330.83	1771.49
331.04	1626.09
331.25	1806.31
331.46	1656.81
331.68	1652.71
331.89	1714.15
332.10	1679.33
332.31	1665.00
332.52	1687.53
332.74	1845.22
332.95	1613.80
333.16	1699.81
333.37	1761.25
333.58	1695.72
333.80	1716.20
334.01	1597.42
334.22	1734.63
334.43	1697.77
334.64	1761.25
334.86	1691.62
335.07	1705.96
335.28	1812.45
335.49	1619.94
335.70	1761.25
335.92	1705.96
336.13	1855.46
336.34	1732.58
336.55	1683.43
336.76	1687.53
336.98	1662.95
337.19	1667.05
337.40	1826.79
337.61	1875.94
337.82	1742.82
338.04	1767.40
338.25	1605.61
338.46	1751.01
338.67	1607.66
338.88	1675.24
339.09	1615.85
339.31	1662.95
339.52	1658.85
339.73	1595.37
339.94	1679.33
340.15	1734.63
340.36	1662.95
340.58	1687.53
340.79	1638.38
341.00	1714.15
341.21	1697.77
341.42	1771.49
341.63	1617.90
341.85	1814.50
342.06	1802.21
342.27	1638.38
342.48	1773.54
342.69	1628.14
342.90	1808.36
343.12	1757.16
343.33	1675.24
343.54	1751.01
343.75	1755.11
343.96	1681.38
344.17	1693.67
344.38	1605.61
344.60	1632.23
344.81	1677.29
345.02	1691.62
345.23	1767.40
345.44	1841.12
345.65	1730.53
345.86	1673.19
346.07	1650.66
346.29	1644.52
346.50	1800.16
346.71	1744.87
346.92	1843.17
347.13	1880.04
347.34	1751.01
347.55	1726.44
347.76	1800.16
347.98	1677.29
348.19	1730.53
348.40	1777.64
348.61	1652.71
348.82	1746.92
349.03	1685.48
349.24	1675.24
349.45	1869.80
349.66	1587.18
349.88	1740.77
350.09	1683.43
350.30	1798.12
350.51	1837.03
350.72	1693.67
350.93	1726.44
351.14	1740.77
351.35	1771.49
351.56	1814.50
351.77	1726.44
351.99	1785.83
352.20	1804.26
352.41	1740.77
352.62	1585.13
352.83	1724.39
353.04	1689.57
353.25	1630.18
353.46	1839.08
353.67	1759.21
353.88	1560.55
354.09	1734.63
354.30	1738.73
354.52	1736.68
354.73	1701.86
354.94	1695.72
355.15	1685.48
355.36	1800.16
355.57	1677.29
355.78	1656.81
355.99	1744.87
356.20	1648.61
356.41	1720.29
356.62	1728.49
356.83	1722.34
357.04	1675.24
357.25	1638.38
357.46	1607.66
357.68	1619.94
357.89	1654.76
358.10	1652.71
358.31	1740.77
358.52	1683.43
358.73	1619.94
358.94	1693.67
359.15	1722.34
359.36	1687.53
359.57	1656.81
359.78	1738.73
359.99	1677.29
360.20	1681.38
360.41	1634.28
360.62	1734.63
360.83	1742.82
361.04	1726.44
361.25	1757.16
361.46	1875.94
361.67	1759.21
361.88	1763.30
362.09	1755.11
362.30	1693.67
362.51	1669.09
362.72	1650.66
362.93	1759.21
363.14	1771.49
363.35	1726.44
363.56	1683.43
363.78	1771.49
363.99	1775.59
364.20	1689.57
364.41	1632.23
364.62	1769.44
364.83	1761.25
365.04	1708.01
365.25	1695.72
365.46	1837.03
365.67	1665.00
365.88	1748.97
366.09	1695.72
366.30	1593.32
366.51	1677.29
366.72	1650.66
366.93	1775.59
367.14	1656.81
367.35	1810.40
367.56	1804.26
367.77	1808.36
367.98	1652.71
368.18	1714.15
368.39	1761.25
368.60	1705.96
368.81	1751.01
369.02	1675.24
369.23	1628.14
369.44	1646.57
369.65	1607.66
369.86	1701.86
370.07	1794.02
370.28	1615.85
370.49	1716.20
370.70	1716.20
370.91	1656.81
371.12	1685.48
371.33	1710.05
371.54	1628.14
371.75	1794.02
371.96	1624.04
372.17	1665.00
372.38	1728.49
372.59	1746.92
372.80	1689.57
373.01	1650.66
373.22	1777.64
373.43	1773.54
373.64	1660.90
373.85	1820.64
374.06	1806.31
374.26	1777.64
374.47	1728.49
374.68	1796.07
374.89	1785.83
375.10	1683.43
375.31	1755.11
375.52	1703.91
375.73	1732.58
375.94	1667.05
376.15	1837.03
376.36	1767.40
376.57	1734.63
376.78	1732.58
376.99	1732.58
377.20	1865.70
377.40	1685.48
377.61	1828.84
377.82	1699.81
378.03	1783.78
378.24	1720.29
378.45	1705.96
378.66	1683.43
378.87	1646.57
379.08	1673.19
379.29	1738.73
379.50	1773.54
379.71	1675.24
379.91	1703.91
380.12	1710.05
380.33	1730.53
380.54	1660.90
380.75	1646.57
380.96	1693.67
381.17	1751.01
381.38	1665.00
381.59	1804.26
381.80	1685.48
382.00	1894.37
382.21	1763.30
382.42	1888.23
382.63	1914.85
382.84	1796.07
383.05	1746.92
383.26	1789.92
383.47	1646.57
383.68	1783.78
383.88	1714.15
384.09	1665.00
384.30	1918.95
384.51	1732.58
384.72	1673.19
384.93	1591.27
385.14	1775.59
385.35	1730.53
385.55	1632.23
385.76	1798.12
385.97	1740.77
386.18	1572.84
386.39	1671.14
386.60	1757.16
386.81	1636.33
387.02	1755.11
387.22	1693.67
387.43	1748.97
387.64	1845.22
387.85	1877.99
388.06	2160.61
388.27	4751.29
388.48	9242.48
388.68	11585.36
388.89	13575.98
389.10	14198.57
389.31	12056.39
389.52	9785.19
389.73	8667.00
389.93	8075.14
390.14	7354.26
390.35	6594.46
390.56	6047.65
390.77	4917.17
390.98	3966.92
391.18	3074.00
391.39	2338.78
391.60	1992.67
391.81	1964.00
392.02	1753.06
392.23	1837.03
392.43	1783.78
392.64	1841.12
392.85	1705.96
393.06	1738.73
393.27	1714.15
393.47	1689.57
393.68	1689.57
393.89	1746.92
394.10	1796.07
394.31	1687.53
394.52	1705.96
394.72	1669.09
394.93	1781.73
395.14	1673.19
395.35	1734.63
395.56	1683.43
395.76	1699.81
395.97	1865.70
396.18	1957.86
396.39	1943.52
396.60	2090.98
396.80	1863.65
397.01	1884.13
397.22	1839.08
397.43	1959.91
397.64	1767.40
397.84	1918.95
398.05	1892.32
398.26	1763.30
398.47	1761.25
398.67	1787.88
398.88	1673.19
399.09	1753.06
399.30	1710.05
399.51	1687.53
399.71	1675.24
399.92	1671.14
400.13	1679.33
400.34	1718.25
400.54	1753.06
400.75	1865.70
400.96	1695.72
401.17	1806.31
401.37	1677.29
401.58	1689.57
401.79	1771.49
402.00	1931.23
402.21	2035.68
402.41	2086.88
402.62	2158.56
402.83	2131.94
403.04	2129.89
403.24	2123.74
403.45	1902.56
403.66	1998.82
403.87	1927.14
404.07	1939.43
404.28	1910.75
404.49	1955.81
404.70	1814.50
404.90	1832.93
405.11	1716.20
405.32	1777.64
405.52	1630.18
405.73	1708.01
405.94	1617.90
406.15	1757.16
406.35	1828.84
406.56	1757.16
406.77	1683.43
406.98	1722.34
407.18	1667.05
407.39	1785.83
407.60	1671.14
407.80	1773.54
408.01	1689.57
408.22	1730.53
408.43	1724.39
408.63	1732.58
408.84	1705.96
409.05	1775.59
409.25	1644.52
409.46	1638.38
409.67	1642.47
409.88	1757.16
410.08	1732.58
410.29	1705.96
410.50	1728.49
410.70	1800.16
410.91	1716.20
411.12	1712.10
411.32	1783.78
411.53	1732.58
411.74	1796.07
411.95	1849.32
412.15	1753.06
412.36	1787.88
412.57	1824.74
412.77	1857.51
412.98	1673.19
413.19	1769.44
413.39	1783.78
413.60	1839.08
413.81	1798.12
414.01	1689.57
414.22	1708.01
414.43	1863.65
414.63	1710.05
414.84	1816.55
415.05	1675.24
415.25	1619.94
415.46	1785.83
415.67	1726.44
415.87	1746.92
416.08	1689.57
416.29	1701.86
416.49	1746.92
416.70	1640.42
416.91	1730.53
417.11	1691.62
417.32	1712.10
417.53	1714.15
417.73	1751.01
417.94	1791.97
418.15	1701.86
418.35	1687.53
418.56	1738.73
418.77	1851.36
418.97	1732.58
419.18	1742.82
419.38	1621.99
419.59	1671.14
419.80	1794.02
420.00	1638.38
420.21	1662.95
420.42	1708.01
420.62	1722.34
420.83	1708.01
421.04	1634.28
421.24	1705.96
421.45	1736.68
421.65	1791.97
421.86	1628.14
422.07	1714.15
422.27	1781.73
422.48	1724.39
422.69	1648.61
422.89	1656.81
423.10	1716.20
423.30	1660.90
423.51	1794.02
423.72	1757.16
423.92	1744.87
424.13	1644.52
424.33	1730.53
424.54	1753.06
424.75	1818.60
424.95	1765.35
425.16	1753.06
425.36	1736.68
425.57	1818.60
425.78	1656.81
425.98	1771.49
426.19	1665.00
426.39	1687.53
426.60	1814.50
426.81	1896.42
427.01	1718.25
427.22	1662.95
427.42	1609.70
427.63	1748.97
427.83	1767.40
428.04	1816.55
428.25	1865.70
428.45	1740.77
428.66	1785.83
428.86	1822.69
429.07	1687.53
429.28	1697.77
429.48	1701.86
429.69	1693.67
429.89	1728.49
430.10	1617.90
430.30	1642.47
430.51	1753.06
430.71	1671.14
430.92	1689.57
431.13	1712.10
431.33	1804.26
431.54	1673.19
431.74	1800.16
431.95	1753.06
432.15	1570.79
432.36	1648.61
432.56	1767.40
432.77	1816.55
432.98	1765.35
433.18	1716.20
433.39	1689.57
433.59	1724.39
433.80	1763.30
434.00	1880.04
434.21	1605.61
434.41	1650.66
434.62	1845.22
434.82	1689.57
435.03	1687.53
435.23	1751.01
435.44	1624.04
435.64	1724.39
435.85	1701.86
436.06	1753.06
436.26	1751.01
436.47	1722.34
436.67	1724.39
436.88	1783.78
437.08	1828.84
437.29	1785.83
437.49	1755.11
437.70	1859.56
437.90	1679.33
438.11	1853.41
438.31	1828.84
438.52	1857.51
438.72	1972.19
438.93	1945.57
439.13	1875.94
439.34	1865.70
439.54	1718.25
439.75	1777.64
439.95	1839.08
440.16	1808.36
440.36	1781.73
440.57	1849.32
440.77	1751.01
440.98	1757.16
441.18	1744.87
441.39	1738.73
441.59	1683.43
441.80	1871.84
442.00	1757.16
442.21	1859.56
442.41	1652.71
442.62	1800.16
442.82	1742.82
443.02	1736.68
443.23	1791.97
443.43	1744.87
443.64	1812.45
443.84	1726.44
444.05	1861.60
444.25	1742.82
444.46	1748.97
444.66	1755.11
444.87	1769.44
445.07	1648.61
445.28	1777.64
445.48	1832.93
445.69	1791.97
445.89	1834.98
446.09	1794.02
446.30	1923.04
446.50	2635.74
446.71	4138.94
446.91	5119.92
447.12	5898.15
447.32	6004.64
447.53	5380.01
447.73	4493.24
447.93	4018.11
448.14	3655.62
448.34	3471.31
448.55	3063.76
448.75	3100.62
448.96	2932.69
449.16	2676.70
449.36	2443.23
449.57	2127.84
449.77	1996.77
449.98	1933.28
450.18	1845.22
450.39	1830.88
450.59	1765.35
450.79	1734.63
451.00	1673.19
451.20	1765.35
451.41	1757.16
451.61	1755.11
451.81	1759.21
452.02	1710.05
452.22	1746.92
452.43	1732.58
452.63	1701.86
