SpectraSuite Data File
++++++++++++++++++++++++++++++++++++
Date: Mon Jun 06 14:39:37 CEST 2016
User: root
Dark Spectrum Present: No
Reference Spectrum Present: No
Number of Sampled Component Spectra: 1
Spectrometers: USB4C02835
Integration Time (usec): 100000 (USB4C02835)
Spectra Averaged: 1 (USB4C02835)
Boxcar Smoothing: 0 (USB4C02835)
Correct for Electrical Dark: No (USB4C02835)
Strobe/Lamp Enabled: No (USB4C02835)
Correct for Detector Non-linearity: No (USB4C02835)
Correct for Stray Light: No (USB4C02835)
Number of Pixels in Processed Spectrum: 3648
>>>>>Begin Processed Spectral Data<<<<<
177.47	1447.91
177.69	1447.91
177.91	1447.91
178.13	1507.30
178.36	1437.67
178.58	1611.75
178.80	1736.68
179.02	1560.55
179.24	1638.38
179.46	1710.05
179.68	1738.73
179.90	1642.47
180.13	1736.68
180.35	1695.72
180.57	1656.81
180.79	1728.49
181.01	1755.11
181.23	1720.29
181.45	1783.78
181.67	1822.69
181.90	1718.25
182.12	1669.09
182.34	1654.76
182.56	1757.16
182.78	1669.09
183.00	1632.23
183.22	1724.39
183.44	1597.42
183.66	1826.79
183.89	1695.72
184.11	1681.38
184.33	1732.58
184.55	1791.97
184.77	1740.77
184.99	1724.39
185.21	1697.77
185.43	1843.17
185.65	1652.71
185.87	1714.15
186.10	1849.32
186.32	1839.08
186.54	1665.00
186.76	1771.49
186.98	1738.73
187.20	1638.38
187.42	1726.44
187.64	1722.34
187.86	1724.39
188.08	1773.54
188.30	1624.04
188.52	1720.29
188.75	1791.97
188.97	1677.29
189.19	1689.57
189.41	1730.53
189.63	1742.82
189.85	1708.01
190.07	1705.96
190.29	1535.98
190.51	1734.63
190.73	1703.91
190.95	1759.21
191.17	1724.39
191.39	1646.57
191.61	1708.01
191.84	1638.38
192.06	1722.34
192.28	1605.61
192.50	1935.33
192.72	1794.02
192.94	1716.20
193.16	1781.73
193.38	1656.81
193.60	1656.81
193.82	1685.48
194.04	1732.58
194.26	1783.78
194.48	1720.29
194.70	1681.38
194.92	1677.29
195.14	1697.77
195.36	1677.29
195.58	1830.88
195.80	1675.24
196.02	1617.90
196.24	1720.29
196.46	1755.11
196.69	1650.66
196.91	1804.26
197.13	1589.22
197.35	1705.96
197.57	1794.02
197.79	1714.15
198.01	1712.10
198.23	1740.77
198.45	1775.59
198.67	1648.61
198.89	1652.71
199.11	1708.01
199.33	1648.61
199.55	1642.47
199.77	1699.81
199.99	1757.16
200.21	1658.85
200.43	1730.53
200.65	1578.98
200.87	1658.85
201.09	1648.61
201.31	1789.92
201.53	1726.44
201.75	1615.85
201.97	1714.15
202.19	1695.72
202.41	1746.92
202.63	1748.97
202.85	1744.87
203.07	1658.85
203.29	1689.57
203.51	1658.85
203.73	1681.38
203.95	1853.41
204.17	1728.49
204.39	1689.57
204.61	1658.85
204.83	1755.11
205.05	1728.49
205.27	1693.67
205.49	1824.74
205.71	1699.81
205.93	1636.33
206.15	1652.71
206.37	1742.82
206.59	1710.05
206.81	1689.57
207.03	1601.51
207.25	1658.85
207.47	1695.72
207.69	1607.66
207.91	1802.21
208.13	1761.25
208.34	1609.70
208.56	1669.09
208.78	1755.11
209.00	1679.33
209.22	1609.70
209.44	1662.95
209.66	1714.15
209.88	1724.39
210.10	1720.29
210.32	1705.96
210.54	1818.60
210.76	1677.29
210.98	1810.40
211.20	1611.75
211.42	1691.62
211.64	1781.73
211.86	1732.58
212.08	1710.05
212.30	1800.16
212.52	1730.53
212.74	1773.54
212.96	1665.00
213.17	1755.11
213.39	1693.67
213.61	1779.68
213.83	1675.24
214.05	1560.55
214.27	1775.59
214.49	1761.25
214.71	1581.03
214.93	1806.31
215.15	1656.81
215.37	1708.01
215.59	1638.38
215.81	1751.01
216.03	1800.16
216.24	1714.15
216.46	1748.97
216.68	1687.53
216.90	1763.30
217.12	1779.68
217.34	1720.29
217.56	1767.40
217.78	1730.53
218.00	1767.40
218.22	1744.87
218.44	1738.73
218.66	1662.95
218.87	1802.21
219.09	1656.81
219.31	1669.09
219.53	1779.68
219.75	1753.06
219.97	1714.15
220.19	1689.57
220.41	1708.01
220.63	1687.53
220.85	1761.25
221.06	1644.52
221.28	1779.68
221.50	1740.77
221.72	1714.15
221.94	1759.21
222.16	1683.43
222.38	1798.12
222.60	1708.01
222.82	1703.91
223.03	1783.78
223.25	1673.19
223.47	1748.97
223.69	1814.50
223.91	1687.53
224.13	1716.20
224.35	1652.71
224.57	1722.34
224.78	1742.82
225.00	1644.52
225.22	1722.34
225.44	1708.01
225.66	1779.68
225.88	1652.71
226.10	1718.25
226.32	1679.33
226.53	1759.21
226.75	1712.10
226.97	1710.05
227.19	1755.11
227.41	1658.85
227.63	1642.47
227.85	1628.14
228.06	1701.86
228.28	1638.38
228.50	1697.77
228.72	1656.81
228.94	1669.09
229.16	1531.88
229.37	1714.15
229.59	1710.05
229.81	1761.25
230.03	1636.33
230.25	1619.94
230.47	1576.94
230.69	1587.18
230.90	1802.21
231.12	1644.52
231.34	1648.61
231.56	1755.11
231.78	1595.37
232.00	1761.25
232.21	1695.72
232.43	1667.05
232.65	1581.03
232.87	1751.01
233.09	1687.53
233.30	1662.95
233.52	1691.62
233.74	1773.54
233.96	1646.57
234.18	1712.10
234.40	1671.14
234.61	1865.70
234.83	1564.65
235.05	1644.52
235.27	1816.55
235.49	1746.92
235.70	1718.25
235.92	1828.84
236.14	1705.96
236.36	1853.41
236.58	1621.99
236.79	1632.23
237.01	1712.10
237.23	1652.71
237.45	1806.31
237.67	1634.28
237.88	1710.05
238.10	1849.32
238.32	1683.43
238.54	1656.81
238.76	1662.95
238.97	1751.01
239.19	1671.14
239.41	1708.01
239.63	1761.25
239.85	1681.38
240.06	1740.77
240.28	1638.38
240.50	1751.01
240.72	1701.86
240.93	1705.96
241.15	1681.38
241.37	1681.38
241.59	1773.54
241.81	1648.61
242.02	1636.33
242.24	1697.77
242.46	1726.44
242.68	1687.53
242.89	1775.59
243.11	1699.81
243.33	1691.62
243.55	1789.92
243.76	1714.15
243.98	1673.19
244.20	1751.01
244.42	1742.82
244.64	1695.72
244.85	1679.33
245.07	1660.90
245.29	1712.10
245.51	1693.67
245.72	1697.77
245.94	1853.41
246.16	1748.97
246.38	1755.11
246.59	1724.39
246.81	1603.56
247.03	1626.09
247.24	1599.46
247.46	1673.19
247.68	1675.24
247.90	1718.25
248.11	1683.43
248.33	1687.53
248.55	1751.01
248.77	1710.05
248.98	1816.55
249.20	1798.12
249.42	1716.20
249.64	1744.87
249.85	1779.68
250.07	1648.61
250.29	1656.81
250.50	1775.59
250.72	1642.47
250.94	1671.14
251.16	1890.28
251.37	1751.01
251.59	1736.68
251.81	1728.49
252.02	1839.08
252.24	1626.09
252.46	1763.30
252.68	1644.52
252.89	1621.99
253.11	1626.09
253.33	1816.55
253.54	1794.02
253.76	1628.14
253.98	1718.25
254.20	1701.86
254.41	1705.96
254.63	1767.40
254.85	1660.90
255.06	1691.62
255.28	1763.30
255.50	1761.25
255.71	1683.43
255.93	1673.19
256.15	1652.71
256.36	1824.74
256.58	1605.61
256.80	1722.34
257.02	1673.19
257.23	1705.96
257.45	1757.16
257.67	1724.39
257.88	1671.14
258.10	1689.57
258.32	1720.29
258.53	1761.25
258.75	1826.79
258.97	1665.00
259.18	1626.09
259.40	1720.29
259.62	1839.08
259.83	1726.44
260.05	1730.53
260.27	1943.52
260.48	1796.07
260.70	1615.85
260.92	1683.43
261.13	1681.38
261.35	1757.16
261.57	1665.00
261.78	1656.81
262.00	1648.61
262.22	1736.68
262.43	1660.90
262.65	1695.72
262.86	1683.43
263.08	1826.79
263.30	1710.05
263.51	1550.31
263.73	1705.96
263.95	1769.44
264.16	1628.14
264.38	1685.48
264.60	1732.58
264.81	1628.14
265.03	1777.64
265.25	1757.16
265.46	1689.57
265.68	1775.59
265.89	1740.77
266.11	1591.27
266.33	1742.82
266.54	1834.98
266.76	1695.72
266.98	1757.16
267.19	1816.55
267.41	1779.68
267.62	1742.82
267.84	1648.61
268.06	1724.39
268.27	1712.10
268.49	1675.24
268.70	1800.16
268.92	1689.57
269.14	1603.56
269.35	1626.09
269.57	1644.52
269.79	1705.96
270.00	1611.75
270.22	1759.21
270.43	1644.52
270.65	1628.14
270.87	1667.05
271.08	1806.31
271.30	1781.73
271.51	1673.19
271.73	1851.36
271.95	1701.86
272.16	1671.14
272.38	1671.14
272.59	1665.00
272.81	1697.77
273.02	1701.86
273.24	1794.02
273.46	1728.49
273.67	1578.98
273.89	1734.63
274.10	1619.94
274.32	1773.54
274.54	1730.53
274.75	1660.90
274.97	1624.04
275.18	1718.25
275.40	1748.97
275.61	1658.85
275.83	1705.96
276.05	1599.46
276.26	1710.05
276.48	1734.63
276.69	1675.24
276.91	1714.15
277.12	1779.68
277.34	1767.40
277.55	1751.01
277.77	1681.38
277.99	1673.19
278.20	1656.81
278.42	1691.62
278.63	1619.94
278.85	1689.57
279.06	1699.81
279.28	1687.53
279.49	1804.26
279.71	1697.77
279.93	1720.29
280.14	1742.82
280.36	1628.14
280.57	1806.31
280.79	1783.78
281.00	1687.53
281.22	1624.04
281.43	1771.49
281.65	1583.08
281.86	1689.57
282.08	1667.05
282.29	1671.14
282.51	1605.61
282.73	1634.28
282.94	1619.94
283.16	1777.64
283.37	1742.82
283.59	1734.63
283.80	1652.71
284.02	1714.15
284.23	1658.85
284.45	1650.66
284.66	1595.37
284.88	1691.62
285.09	1716.20
285.31	1744.87
285.52	1748.97
285.74	1601.51
285.95	1701.86
286.17	1769.44
286.38	1755.11
286.60	1683.43
286.81	1705.96
287.03	1738.73
287.24	1701.86
287.46	1718.25
287.67	1697.77
287.89	1783.78
288.10	1695.72
288.32	1748.97
288.53	1720.29
288.75	1738.73
288.96	1808.36
289.18	1650.66
289.39	1671.14
289.61	1730.53
289.82	1748.97
290.04	1763.30
290.25	1607.66
290.47	1740.77
290.68	1656.81
290.90	1796.07
291.11	1660.90
291.33	1703.91
291.54	1718.25
291.76	1693.67
291.97	1673.19
292.18	1732.58
292.40	1576.94
292.61	1646.57
292.83	1812.45
293.04	1781.73
293.26	1718.25
293.47	1726.44
293.69	1724.39
293.90	1740.77
294.12	1781.73
294.33	1675.24
294.55	1757.16
294.76	1712.10
294.97	1736.68
295.19	1855.46
295.40	1724.39
295.62	1763.30
295.83	1828.84
296.05	1638.38
296.26	1753.06
296.48	1660.90
296.69	1716.20
296.90	1683.43
297.12	1716.20
297.33	1820.64
297.55	1734.63
297.76	1728.49
297.98	1746.92
298.19	1705.96
298.41	1683.43
298.62	1669.09
298.83	1832.93
299.05	1677.29
299.26	1681.38
299.48	1683.43
299.69	1710.05
299.90	1761.25
300.12	1626.09
300.33	1779.68
300.55	1693.67
300.76	1759.21
300.98	1648.61
301.19	1849.32
301.40	1636.33
301.62	1695.72
301.83	1685.48
302.05	1712.10
302.26	1683.43
302.47	1789.92
302.69	1660.90
302.90	1734.63
303.12	1615.85
303.33	1724.39
303.54	1802.21
303.76	1730.53
303.97	1755.11
304.19	1888.23
304.40	1609.70
304.61	1765.35
304.83	1828.84
305.04	1738.73
305.26	1714.15
305.47	1650.66
305.68	1689.57
305.90	1636.33
306.11	1769.44
306.33	1732.58
306.54	1679.33
306.75	1654.76
306.97	1671.14
307.18	1669.09
307.39	1648.61
307.61	1730.53
307.82	1621.99
308.04	1705.96
308.25	1589.22
308.46	1699.81
308.68	1703.91
308.89	1712.10
309.10	1802.21
309.32	1765.35
309.53	1693.67
309.74	1734.63
309.96	1689.57
310.17	1753.06
310.39	1671.14
310.60	1685.48
310.81	1656.81
311.03	1632.23
311.24	1695.72
311.45	1773.54
311.67	1748.97
311.88	1759.21
312.09	1726.44
312.31	1673.19
312.52	1712.10
312.73	1753.06
312.95	1693.67
313.16	1675.24
313.37	1746.92
313.59	1708.01
313.80	1683.43
314.01	1763.30
314.23	1660.90
314.44	1683.43
314.65	1632.23
314.87	1648.61
315.08	1714.15
315.29	1615.85
315.51	1755.11
315.72	1570.79
315.93	1785.83
316.15	1755.11
316.36	1685.48
316.57	1763.30
316.79	1755.11
317.00	1791.97
317.21	1761.25
317.43	1648.61
317.64	1701.86
317.85	1658.85
318.07	1634.28
318.28	1603.56
318.49	1824.74
318.70	1953.76
318.92	1847.27
319.13	1796.07
319.34	1818.60
319.56	1796.07
319.77	1761.25
319.98	1744.87
320.20	1798.12
320.41	1773.54
320.62	1677.29
320.83	1695.72
321.05	1802.21
321.26	1660.90
321.47	1673.19
321.69	1781.73
321.90	1626.09
322.11	1687.53
322.32	1691.62
322.54	1837.03
322.75	1648.61
322.96	1832.93
323.18	1644.52
323.39	1646.57
323.60	1648.61
323.81	1761.25
324.03	1656.81
324.24	1746.92
324.45	1667.05
324.66	1728.49
324.88	1816.55
325.09	1765.35
325.30	1660.90
325.52	1722.34
325.73	1720.29
325.94	1648.61
326.15	1642.47
326.37	1683.43
326.58	1773.54
326.79	1787.88
327.00	1646.57
327.22	1748.97
327.43	1667.05
327.64	1589.22
327.85	1734.63
328.07	1595.37
328.28	1783.78
328.49	1660.90
328.70	1640.42
328.92	1665.00
329.13	1701.86
329.34	1740.77
329.55	1808.36
329.76	1681.38
329.98	1652.71
330.19	1751.01
330.40	1679.33
330.61	1581.03
330.83	1714.15
331.04	1689.57
331.25	1681.38
331.46	1669.09
331.68	1660.90
331.89	1712.10
332.10	1730.53
332.31	1576.94
332.52	1650.66
332.74	1781.73
332.95	1640.42
333.16	1689.57
333.37	1671.14
333.58	1734.63
333.80	1691.62
334.01	1632.23
334.22	1742.82
334.43	1689.57
334.64	1681.38
334.86	1607.66
335.07	1685.48
335.28	1767.40
335.49	1605.61
335.70	1726.44
335.92	1726.44
336.13	1771.49
336.34	1722.34
336.55	1736.68
336.76	1701.86
336.98	1554.41
337.19	1779.68
337.40	1769.44
337.61	1890.28
337.82	1701.86
338.04	1677.29
338.25	1642.47
338.46	1658.85
338.67	1671.14
338.88	1708.01
339.09	1595.37
339.31	1626.09
339.52	1658.85
339.73	1705.96
339.94	1718.25
340.15	1728.49
340.36	1583.08
340.58	1742.82
340.79	1658.85
341.00	1820.64
341.21	1685.48
341.42	1828.84
341.63	1773.54
341.85	1804.26
342.06	1777.64
342.27	1650.66
342.48	1722.34
342.69	1638.38
342.90	1763.30
343.12	1683.43
343.33	1656.81
343.54	1759.21
343.75	1767.40
343.96	1708.01
344.17	1714.15
344.38	1689.57
344.60	1695.72
344.81	1642.47
345.02	1705.96
345.23	1710.05
345.44	1851.36
345.65	1691.62
345.86	1722.34
346.07	1724.39
346.29	1697.77
346.50	1755.11
346.71	1738.73
346.92	1806.31
347.13	1845.22
347.34	1681.38
347.55	1748.97
347.76	1748.97
347.98	1654.76
348.19	1660.90
348.40	1730.53
348.61	1683.43
348.82	1789.92
349.03	1746.92
349.24	1644.52
349.45	1781.73
349.66	1581.03
349.88	1578.98
350.09	1710.05
350.30	1746.92
350.51	1794.02
350.72	1714.15
350.93	1726.44
351.14	1755.11
351.35	1746.92
351.56	1779.68
351.77	1638.38
351.99	1718.25
352.20	1822.69
352.41	1785.83
352.62	1558.50
352.83	1712.10
353.04	1669.09
353.25	1675.24
353.46	1746.92
353.67	1724.39
353.88	1628.14
354.09	1693.67
354.30	1671.14
354.52	1767.40
354.73	1589.22
354.94	1703.91
355.15	1648.61
355.36	1851.36
355.57	1644.52
355.78	1716.20
355.99	1685.48
356.20	1775.59
356.41	1806.31
356.62	1734.63
356.83	1673.19
357.04	1751.01
357.25	1503.21
357.46	1683.43
357.68	1699.81
357.89	1603.56
358.10	1736.68
358.31	1701.86
358.52	1718.25
358.73	1617.90
358.94	1613.80
359.15	1705.96
359.36	1763.30
359.57	1716.20
359.78	1708.01
359.99	1771.49
360.20	1783.78
360.41	1689.57
360.62	1730.53
360.83	1665.00
361.04	1728.49
361.25	1796.07
361.46	1865.70
361.67	1802.21
361.88	1712.10
362.09	1699.81
362.30	1714.15
362.51	1632.23
362.72	1679.33
362.93	1767.40
363.14	1726.44
363.35	1728.49
363.56	1683.43
363.78	1724.39
363.99	1744.87
364.20	1689.57
364.41	1726.44
364.62	1681.38
364.83	1699.81
365.04	1667.05
365.25	1734.63
365.46	1748.97
365.67	1697.77
365.88	1724.39
366.09	1660.90
366.30	1662.95
366.51	1669.09
366.72	1607.66
366.93	1671.14
367.14	1646.57
367.35	1798.12
367.56	1624.04
367.77	1849.32
367.98	1718.25
368.18	1734.63
368.39	1714.15
368.60	1697.77
368.81	1658.85
369.02	1722.34
369.23	1605.61
369.44	1615.85
369.65	1703.91
369.86	1730.53
370.07	1683.43
370.28	1646.57
370.49	1757.16
370.70	1761.25
370.91	1628.14
371.12	1660.90
371.33	1746.92
371.54	1673.19
371.75	1818.60
371.96	1601.51
372.17	1687.53
372.38	1738.73
372.59	1746.92
372.80	1665.00
373.01	1640.42
373.22	1724.39
373.43	1695.72
373.64	1628.14
373.85	1791.97
374.06	1765.35
374.26	1722.34
374.47	1718.25
374.68	1841.12
374.89	1667.05
375.10	1683.43
375.31	1802.21
375.52	1640.42
375.73	1712.10
375.94	1685.48
376.15	1730.53
376.36	1644.52
376.57	1675.24
376.78	1648.61
376.99	1701.86
377.20	1775.59
377.40	1638.38
377.61	1849.32
377.82	1665.00
378.03	1757.16
378.24	1773.54
378.45	1742.82
378.66	1759.21
378.87	1603.56
379.08	1644.52
379.29	1648.61
379.50	1796.07
379.71	1640.42
379.91	1724.39
380.12	1722.34
380.33	1681.38
380.54	1705.96
380.75	1705.96
380.96	1658.85
381.17	1816.55
381.38	1695.72
381.59	1763.30
381.80	1693.67
382.00	1789.92
382.21	1785.83
382.42	1845.22
382.63	1861.60
382.84	1746.92
383.05	1697.77
383.26	1834.98
383.47	1751.01
383.68	1787.88
383.88	1767.40
384.09	1740.77
384.30	1806.31
384.51	1736.68
384.72	1712.10
384.93	1640.42
385.14	1734.63
385.35	1808.36
385.55	1626.09
385.76	1769.44
385.97	1652.71
386.18	1636.33
386.39	1636.33
386.60	1705.96
386.81	1634.28
387.02	1685.48
387.22	1640.42
387.43	1708.01
387.64	1769.44
387.85	1845.22
388.06	2213.85
388.27	4347.84
388.48	6795.16
388.68	8298.37
388.89	9922.41
389.10	9865.07
389.31	8617.85
389.52	7843.72
389.73	6807.45
389.93	6352.80
390.14	5918.63
390.35	5277.62
390.56	4583.35
390.77	3772.36
390.98	3164.11
391.18	2543.58
391.39	2107.36
391.60	1826.79
391.81	1857.51
392.02	1738.73
392.23	1857.51
392.43	1753.06
392.64	1794.02
392.85	1767.40
393.06	1812.45
393.27	1712.10
393.47	1652.71
393.68	1789.92
393.89	1679.33
394.10	1873.89
394.31	1718.25
394.52	1648.61
394.72	1652.71
394.93	1753.06
395.14	1656.81
395.35	1757.16
395.56	1660.90
395.76	1773.54
395.97	1705.96
396.18	1755.11
396.39	1814.50
396.60	2031.58
396.80	1912.80
397.01	1896.42
397.22	1820.64
397.43	1861.60
397.64	1726.44
397.84	1771.49
398.05	1828.84
398.26	1722.34
398.47	1738.73
398.67	1755.11
398.88	1796.07
399.09	1718.25
399.30	1687.53
399.51	1748.97
399.71	1710.05
399.92	1689.57
400.13	1710.05
400.34	1673.19
400.54	1636.33
400.75	1757.16
400.96	1779.68
401.17	1867.75
401.37	1751.01
401.58	1689.57
401.79	1699.81
402.00	1837.03
402.21	1964.00
402.41	1894.37
402.62	2011.11
402.83	2062.30
403.04	2029.54
403.24	2050.02
403.45	1855.46
403.66	1902.56
403.87	1904.61
404.07	1961.95
404.28	1918.95
404.49	1910.75
404.70	1787.88
404.90	1769.44
405.11	1705.96
405.32	1755.11
405.52	1708.01
405.73	1679.33
405.94	1638.38
406.15	1695.72
406.35	1726.44
406.56	1701.86
406.77	1701.86
406.98	1751.01
407.18	1671.14
407.39	1851.36
407.60	1658.85
407.80	1751.01
408.01	1691.62
408.22	1687.53
408.43	1650.66
408.63	1800.16
408.84	1777.64
409.05	1796.07
409.25	1660.90
409.46	1654.76
409.67	1765.35
409.88	1607.66
410.08	1689.57
410.29	1710.05
410.50	1736.68
410.70	1779.68
410.91	1593.32
411.12	1701.86
411.32	1681.38
411.53	1714.15
411.74	1814.50
411.95	1798.12
412.15	1812.45
412.36	1812.45
412.57	1763.30
412.77	1812.45
412.98	1632.23
413.19	1617.90
413.39	1789.92
413.60	1671.14
413.81	1787.88
414.01	1667.05
414.22	1787.88
414.43	1791.97
414.63	1632.23
414.84	1728.49
415.05	1740.77
415.25	1718.25
415.46	1734.63
415.67	1740.77
415.87	1660.90
416.08	1691.62
416.29	1689.57
416.49	1796.07
416.70	1708.01
416.91	1753.06
417.11	1693.67
417.32	1746.92
417.53	1787.88
417.73	1712.10
417.94	1656.81
418.15	1771.49
418.35	1628.14
418.56	1640.42
418.77	1738.73
418.97	1730.53
419.18	1693.67
419.38	1570.79
419.59	1697.77
419.80	1794.02
420.00	1681.38
420.21	1802.21
420.42	1744.87
420.62	1652.71
420.83	1628.14
421.04	1718.25
421.24	1665.00
421.45	1771.49
421.65	1677.29
421.86	1716.20
422.07	1701.86
422.27	1697.77
422.48	1679.33
422.69	1693.67
422.89	1636.33
423.10	1662.95
423.30	1583.08
423.51	1669.09
423.72	1753.06
423.92	1720.29
424.13	1646.57
424.33	1656.81
424.54	1722.34
424.75	1687.53
424.95	1902.56
425.16	1718.25
425.36	1738.73
425.57	1853.41
425.78	1767.40
425.98	1710.05
426.19	1658.85
426.39	1712.10
426.60	1644.52
426.81	1757.16
427.01	1722.34
427.22	1603.56
427.42	1662.95
427.63	1705.96
427.83	1697.77
428.04	1734.63
428.25	1705.96
428.45	1802.21
428.66	1777.64
428.86	1646.57
429.07	1708.01
429.28	1667.05
429.48	1705.96
429.69	1744.87
429.89	1691.62
430.10	1734.63
430.30	1738.73
430.51	1751.01
430.71	1669.09
430.92	1724.39
431.13	1642.47
431.33	1730.53
431.54	1804.26
431.74	1820.64
431.95	1800.16
432.15	1718.25
432.36	1675.24
432.56	1796.07
432.77	1771.49
432.98	1734.63
433.18	1818.60
433.39	1667.05
433.59	1681.38
433.80	1757.16
434.00	1869.80
434.21	1728.49
434.41	1728.49
434.62	1789.92
434.82	1619.94
435.03	1667.05
435.23	1718.25
435.44	1669.09
435.64	1757.16
435.85	1742.82
436.06	1783.78
436.26	1800.16
436.47	1667.05
436.67	1738.73
436.88	1765.35
437.08	1742.82
437.29	1765.35
437.49	1685.48
437.70	1746.92
437.90	1734.63
438.11	1877.99
438.31	1691.62
438.52	1847.27
438.72	1869.80
438.93	1779.68
439.13	1734.63
439.34	1787.88
439.54	1714.15
439.75	1875.94
439.95	1785.83
440.16	1665.00
440.36	1748.97
440.57	1738.73
440.77	1726.44
440.98	1685.48
441.18	1740.77
441.39	1705.96
441.59	1662.95
441.80	1794.02
442.00	1837.03
442.21	1806.31
442.41	1726.44
442.62	1820.64
442.82	1658.85
443.02	1652.71
443.23	1751.01
443.43	1650.66
443.64	1767.40
443.84	1718.25
444.05	1820.64
444.25	1738.73
444.46	1716.20
444.66	1703.91
444.87	1763.30
445.07	1652.71
445.28	1628.14
445.48	1812.45
445.69	1791.97
445.89	1906.66
446.09	1828.84
446.30	1984.48
446.50	2705.37
446.71	3778.50
446.91	4280.25
447.12	4835.25
447.32	4736.95
447.53	4349.89
447.73	3852.23
447.93	3663.82
448.14	3346.38
448.34	3225.55
448.55	2963.41
448.75	2850.77
448.96	2740.18
449.16	2510.81
449.36	2252.77
449.57	2019.30
449.77	1783.78
449.98	1748.97
450.18	1843.17
450.39	1820.64
450.59	1705.96
450.79	1791.97
451.00	1658.85
451.20	1814.50
451.41	1689.57
451.61	1806.31
451.81	1693.67
452.02	1683.43
452.22	1718.25
452.43	1718.25
452.63	1624.04
