SpectraSuite Data File
++++++++++++++++++++++++++++++++++++
Date: Mon Jun 06 14:23:17 CEST 2016
User: root
Dark Spectrum Present: No
Reference Spectrum Present: No
Number of Sampled Component Spectra: 1
Spectrometers: USB4C02835
Integration Time (usec): 100000 (USB4C02835)
Spectra Averaged: 1 (USB4C02835)
Boxcar Smoothing: 0 (USB4C02835)
Correct for Electrical Dark: No (USB4C02835)
Strobe/Lamp Enabled: No (USB4C02835)
Correct for Detector Non-linearity: No (USB4C02835)
Correct for Stray Light: No (USB4C02835)
Number of Pixels in Processed Spectrum: 3648
>>>>>Begin Processed Spectral Data<<<<<
177.47	1466.35
177.69	1466.35
177.91	1466.35
178.13	1423.34
178.36	1437.67
178.58	1615.85
178.80	1765.35
179.02	1626.09
179.24	1736.68
179.46	1730.53
179.68	1726.44
179.90	1665.00
180.13	1687.53
180.35	1697.77
180.57	1687.53
180.79	1759.21
181.01	1628.14
181.23	1724.39
181.45	1834.98
181.67	1732.58
181.90	1652.71
182.12	1740.77
182.34	1673.19
182.56	1716.20
182.78	1624.04
183.00	1656.81
183.22	1757.16
183.44	1617.90
183.66	1867.75
183.89	1802.21
184.11	1689.57
184.33	1769.44
184.55	1763.30
184.77	1691.62
184.99	1751.01
185.21	1683.43
185.43	1761.25
185.65	1716.20
185.87	1701.86
186.10	1849.32
186.32	1861.60
186.54	1695.72
186.76	1722.34
186.98	1751.01
187.20	1794.02
187.42	1646.57
187.64	1724.39
187.86	1730.53
188.08	1703.91
188.30	1724.39
188.52	1652.71
188.75	1789.92
188.97	1769.44
189.19	1632.23
189.41	1642.47
189.63	1722.34
189.85	1609.70
190.07	1611.75
190.29	1699.81
190.51	1679.33
190.73	1591.27
190.95	1671.14
191.17	1765.35
191.39	1595.37
191.61	1675.24
191.84	1658.85
192.06	1746.92
192.28	1587.18
192.50	1789.92
192.72	1685.48
192.94	1708.01
193.16	1812.45
193.38	1697.77
193.60	1644.52
193.82	1624.04
194.04	1791.97
194.26	1697.77
194.48	1662.95
194.70	1665.00
194.92	1669.09
195.14	1781.73
195.36	1671.14
195.58	1726.44
195.80	1689.57
196.02	1708.01
196.24	1652.71
196.46	1726.44
196.69	1617.90
196.91	1791.97
197.13	1708.01
197.35	1619.94
197.57	1810.40
197.79	1677.29
198.01	1765.35
198.23	1716.20
198.45	1728.49
198.67	1703.91
198.89	1656.81
199.11	1701.86
199.33	1748.97
199.55	1587.18
199.77	1689.57
199.99	1726.44
200.21	1630.18
200.43	1767.40
200.65	1597.42
200.87	1599.46
201.09	1761.25
201.31	1679.33
201.53	1724.39
201.75	1705.96
201.97	1677.29
202.19	1681.38
202.41	1724.39
202.63	1853.41
202.85	1748.97
203.07	1697.77
203.29	1581.03
203.51	1689.57
203.73	1656.81
203.95	1804.26
204.17	1708.01
204.39	1798.12
204.61	1630.18
204.83	1650.66
205.05	1710.05
205.27	1732.58
205.49	1779.68
205.71	1701.86
205.93	1636.33
206.15	1671.14
206.37	1746.92
206.59	1714.15
206.81	1611.75
207.03	1611.75
207.25	1656.81
207.47	1755.11
207.69	1652.71
207.91	1751.01
208.13	1714.15
208.34	1710.05
208.56	1685.48
208.78	1675.24
209.00	1656.81
209.22	1732.58
209.44	1665.00
209.66	1691.62
209.88	1783.78
210.10	1716.20
210.32	1734.63
210.54	1761.25
210.76	1671.14
210.98	1773.54
211.20	1683.43
211.42	1675.24
211.64	1845.22
211.86	1693.67
212.08	1740.77
212.30	1789.92
212.52	1601.51
212.74	1712.10
212.96	1695.72
213.17	1722.34
213.39	1714.15
213.61	1689.57
213.83	1650.66
214.05	1624.04
214.27	1765.35
214.49	1501.16
214.71	1675.24
214.93	1724.39
215.15	1767.40
215.37	1710.05
215.59	1656.81
215.81	1646.57
216.03	1820.64
216.24	1683.43
216.46	1660.90
216.68	1708.01
216.90	1681.38
217.12	1834.98
217.34	1640.42
217.56	1744.87
217.78	1734.63
218.00	1779.68
218.22	1710.05
218.44	1751.01
218.66	1669.09
218.87	1824.74
219.09	1613.80
219.31	1738.73
219.53	1722.34
219.75	1697.77
219.97	1693.67
220.19	1828.84
220.41	1720.29
220.63	1783.78
220.85	1753.06
221.06	1587.18
221.28	1751.01
221.50	1671.14
221.72	1726.44
221.94	1671.14
222.16	1710.05
222.38	1730.53
222.60	1652.71
222.82	1691.62
223.03	1730.53
223.25	1585.13
223.47	1769.44
223.69	1837.03
223.91	1679.33
224.13	1705.96
224.35	1656.81
224.57	1683.43
224.78	1771.49
225.00	1656.81
225.22	1701.86
225.44	1665.00
225.66	1705.96
225.88	1624.04
226.10	1759.21
226.32	1738.73
226.53	1736.68
226.75	1669.09
226.97	1699.81
227.19	1742.82
227.41	1685.48
227.63	1708.01
227.85	1746.92
228.06	1798.12
228.28	1701.86
228.50	1830.88
228.72	1703.91
228.94	1714.15
229.16	1640.42
229.37	1636.33
229.59	1603.56
229.81	1703.91
230.03	1683.43
230.25	1691.62
230.47	1662.95
230.69	1640.42
230.90	1730.53
231.12	1634.28
231.34	1744.87
231.56	1791.97
231.78	1714.15
232.00	1677.29
232.21	1648.61
232.43	1681.38
232.65	1658.85
232.87	1687.53
233.09	1628.14
233.30	1705.96
233.52	1736.68
233.74	1816.55
233.96	1611.75
234.18	1771.49
234.40	1646.57
234.61	1837.03
234.83	1624.04
235.05	1578.98
235.27	1800.16
235.49	1804.26
235.70	1771.49
235.92	1796.07
236.14	1714.15
236.36	1796.07
236.58	1599.46
236.79	1714.15
237.01	1712.10
237.23	1679.33
237.45	1744.87
237.67	1701.86
237.88	1765.35
238.10	1828.84
238.32	1644.52
238.54	1636.33
238.76	1626.09
238.97	1595.37
239.19	1681.38
239.41	1738.73
239.63	1714.15
239.85	1644.52
240.06	1738.73
240.28	1652.71
240.50	1765.35
240.72	1685.48
240.93	1720.29
241.15	1720.29
241.37	1640.42
241.59	1830.88
241.81	1712.10
242.02	1720.29
242.24	1738.73
242.46	1828.84
242.68	1665.00
242.89	1685.48
243.11	1757.16
243.33	1669.09
243.55	1712.10
243.76	1734.63
243.98	1621.99
244.20	1722.34
244.42	1695.72
244.64	1628.14
244.85	1621.99
245.07	1640.42
245.29	1716.20
245.51	1734.63
245.72	1720.29
245.94	1714.15
246.16	1656.81
246.38	1738.73
246.59	1673.19
246.81	1613.80
247.03	1679.33
247.24	1624.04
247.46	1681.38
247.68	1742.82
247.90	1640.42
248.11	1697.77
248.33	1658.85
248.55	1730.53
248.77	1734.63
248.98	1773.54
249.20	1810.40
249.42	1710.05
249.64	1738.73
249.85	1767.40
250.07	1738.73
250.29	1732.58
250.50	1722.34
250.72	1656.81
250.94	1757.16
251.16	1828.84
251.37	1779.68
251.59	1693.67
251.81	1662.95
252.02	1726.44
252.24	1603.56
252.46	1830.88
252.68	1728.49
252.89	1601.51
253.11	1671.14
253.33	1785.83
253.54	1800.16
253.76	1652.71
253.98	1617.90
254.20	1652.71
254.41	1576.94
254.63	1708.01
254.85	1630.18
255.06	1654.76
255.28	1785.83
255.50	1679.33
255.71	1648.61
255.93	1665.00
256.15	1703.91
256.36	1794.02
256.58	1693.67
256.80	1755.11
257.02	1638.38
257.23	1652.71
257.45	1738.73
257.67	1730.53
257.88	1697.77
258.10	1734.63
258.32	1796.07
258.53	1691.62
258.75	1701.86
258.97	1683.43
259.18	1734.63
259.40	1708.01
259.62	1763.30
259.83	1734.63
260.05	1720.29
260.27	1894.37
260.48	1753.06
260.70	1675.24
260.92	1699.81
261.13	1740.77
261.35	1687.53
261.57	1712.10
261.78	1581.03
262.00	1675.24
262.22	1712.10
262.43	1722.34
262.65	1576.94
262.86	1712.10
263.08	1867.75
263.30	1718.25
263.51	1646.57
263.73	1632.23
263.95	1757.16
264.16	1632.23
264.38	1642.47
264.60	1705.96
264.81	1689.57
265.03	1693.67
265.25	1728.49
265.46	1763.30
265.68	1738.73
265.89	1724.39
266.11	1636.33
266.33	1708.01
266.54	1818.60
266.76	1763.30
266.98	1736.68
267.19	1718.25
267.41	1871.84
267.62	1697.77
267.84	1570.79
268.06	1746.92
268.27	1626.09
268.49	1689.57
268.70	1681.38
268.92	1691.62
269.14	1644.52
269.35	1642.47
269.57	1699.81
269.79	1722.34
270.00	1656.81
270.22	1820.64
270.43	1652.71
270.65	1527.78
270.87	1705.96
271.08	1773.54
271.30	1740.77
271.51	1708.01
271.73	1701.86
271.95	1759.21
272.16	1667.05
272.38	1699.81
272.59	1619.94
272.81	1705.96
273.02	1695.72
273.24	1708.01
273.46	1798.12
273.67	1609.70
273.89	1654.76
274.10	1656.81
274.32	1681.38
274.54	1738.73
274.75	1806.31
274.97	1783.78
275.18	1738.73
275.40	1656.81
275.61	1656.81
275.83	1718.25
276.05	1660.90
276.26	1724.39
276.48	1789.92
276.69	1644.52
276.91	1685.48
277.12	1742.82
277.34	1718.25
277.55	1726.44
277.77	1681.38
277.99	1726.44
278.20	1697.77
278.42	1673.19
278.63	1632.23
278.85	1644.52
279.06	1624.04
279.28	1669.09
279.49	1787.88
279.71	1771.49
279.93	1660.90
280.14	1685.48
280.36	1648.61
280.57	1751.01
280.79	1714.15
281.00	1687.53
281.22	1677.29
281.43	1763.30
281.65	1597.42
281.86	1679.33
282.08	1718.25
282.29	1902.56
282.51	1640.42
282.73	1669.09
282.94	1634.28
283.16	1742.82
283.37	1834.98
283.59	1693.67
283.80	1751.01
284.02	1691.62
284.23	1765.35
284.45	1675.24
284.66	1628.14
284.88	1701.86
285.09	1605.61
285.31	1667.05
285.52	1767.40
285.74	1691.62
285.95	1744.87
286.17	1705.96
286.38	1736.68
286.60	1689.57
286.81	1619.94
287.03	1673.19
287.24	1650.66
287.46	1748.97
287.67	1662.95
287.89	1841.12
288.10	1710.05
288.32	1751.01
288.53	1757.16
288.75	1681.38
288.96	1712.10
289.18	1665.00
289.39	1658.85
289.61	1708.01
289.82	1851.36
290.04	1814.50
290.25	1742.82
290.47	1615.85
290.68	1701.86
290.90	1710.05
291.11	1599.46
291.33	1718.25
291.54	1593.32
291.76	1632.23
291.97	1722.34
292.18	1714.15
292.40	1660.90
292.61	1669.09
292.83	1867.75
293.04	1652.71
293.26	1718.25
293.47	1689.57
293.69	1697.77
293.90	1701.86
294.12	1740.77
294.33	1658.85
294.55	1724.39
294.76	1720.29
294.97	1814.50
295.19	1816.55
295.40	1624.04
295.62	1638.38
295.83	1691.62
296.05	1681.38
296.26	1740.77
296.48	1640.42
296.69	1701.86
296.90	1769.44
297.12	1677.29
297.33	1746.92
297.55	1693.67
297.76	1685.48
297.98	1755.11
298.19	1726.44
298.41	1742.82
298.62	1599.46
298.83	1724.39
299.05	1732.58
299.26	1679.33
299.48	1570.79
299.69	1736.68
299.90	1732.58
300.12	1630.18
300.33	1677.29
300.55	1716.20
300.76	1728.49
300.98	1644.52
301.19	1755.11
301.40	1703.91
301.62	1712.10
301.83	1703.91
302.05	1705.96
302.26	1726.44
302.47	1685.48
302.69	1617.90
302.90	1646.57
303.12	1507.30
303.33	1642.47
303.54	1767.40
303.76	1744.87
303.97	1722.34
304.19	1861.60
304.40	1693.67
304.61	1736.68
304.83	1814.50
305.04	1732.58
305.26	1679.33
305.47	1656.81
305.68	1648.61
305.90	1640.42
306.11	1718.25
306.33	1665.00
306.54	1665.00
306.75	1662.95
306.97	1593.32
307.18	1644.52
307.39	1654.76
307.61	1781.73
307.82	1683.43
308.04	1779.68
308.25	1646.57
308.46	1710.05
308.68	1716.20
308.89	1699.81
309.10	1783.78
309.32	1685.48
309.53	1705.96
309.74	1722.34
309.96	1628.14
310.17	1765.35
310.39	1695.72
310.60	1763.30
310.81	1732.58
311.03	1630.18
311.24	1697.77
311.45	1730.53
311.67	1703.91
311.88	1675.24
312.09	1714.15
312.31	1644.52
312.52	1652.71
312.73	1699.81
312.95	1632.23
313.16	1685.48
313.37	1755.11
313.59	1716.20
313.80	1726.44
314.01	1814.50
314.23	1673.19
314.44	1705.96
314.65	1673.19
314.87	1673.19
315.08	1689.57
315.29	1669.09
315.51	1570.79
315.72	1685.48
315.93	1763.30
316.15	1849.32
316.36	1640.42
316.57	1716.20
316.79	1761.25
317.00	1748.97
317.21	1746.92
317.43	1619.94
317.64	1736.68
317.85	1720.29
318.07	1677.29
318.28	1650.66
318.49	1804.26
318.70	1818.60
318.92	1734.63
319.13	1832.93
319.34	1892.32
319.56	1736.68
319.77	1751.01
319.98	1853.41
320.20	1697.77
320.41	1802.21
320.62	1814.50
320.83	1654.76
321.05	1855.46
321.26	1732.58
321.47	1744.87
321.69	1732.58
321.90	1671.14
322.11	1701.86
322.32	1669.09
322.54	1759.21
322.75	1730.53
322.96	1814.50
323.18	1640.42
323.39	1601.51
323.60	1595.37
323.81	1683.43
324.03	1595.37
324.24	1796.07
324.45	1712.10
324.66	1636.33
324.88	1814.50
325.09	1603.56
325.30	1714.15
325.52	1751.01
325.73	1753.06
325.94	1619.94
326.15	1583.08
326.37	1697.77
326.58	1751.01
326.79	1738.73
327.00	1597.42
327.22	1722.34
327.43	1695.72
327.64	1652.71
327.85	1734.63
328.07	1718.25
328.28	1861.60
328.49	1691.62
328.70	1669.09
328.92	1701.86
329.13	1671.14
329.34	1683.43
329.55	1726.44
329.76	1732.58
329.98	1726.44
330.19	1691.62
330.40	1708.01
330.61	1738.73
330.83	1648.61
331.04	1619.94
331.25	1814.50
331.46	1687.53
331.68	1720.29
331.89	1822.69
332.10	1726.44
332.31	1636.33
332.52	1724.39
332.74	1775.59
332.95	1595.37
333.16	1697.77
333.37	1808.36
333.58	1712.10
333.80	1738.73
334.01	1675.24
334.22	1693.67
334.43	1685.48
334.64	1710.05
334.86	1642.47
335.07	1638.38
335.28	1810.40
335.49	1540.07
335.70	1726.44
335.92	1787.88
336.13	1888.23
336.34	1689.57
336.55	1712.10
336.76	1695.72
336.98	1644.52
337.19	1691.62
337.40	1783.78
337.61	1822.69
337.82	1632.23
338.04	1740.77
338.25	1646.57
338.46	1667.05
338.67	1648.61
338.88	1716.20
339.09	1585.13
339.31	1703.91
339.52	1574.89
339.73	1675.24
339.94	1644.52
340.15	1765.35
340.36	1603.56
340.58	1716.20
340.79	1660.90
341.00	1671.14
341.21	1677.29
341.42	1654.76
341.63	1673.19
341.85	1814.50
342.06	1748.97
342.27	1673.19
342.48	1771.49
342.69	1644.52
342.90	1763.30
343.12	1804.26
343.33	1675.24
343.54	1789.92
343.75	1767.40
343.96	1626.09
344.17	1701.86
344.38	1669.09
344.60	1642.47
344.81	1677.29
345.02	1705.96
345.23	1791.97
345.44	1757.16
345.65	1759.21
345.86	1695.72
346.07	1693.67
346.29	1687.53
346.50	1687.53
346.71	1794.02
346.92	1761.25
347.13	1839.08
347.34	1665.00
347.55	1646.57
347.76	1677.29
347.98	1599.46
348.19	1624.04
348.40	1806.31
348.61	1644.52
348.82	1763.30
349.03	1742.82
349.24	1675.24
349.45	1796.07
349.66	1619.94
349.88	1710.05
350.09	1640.42
350.30	1834.98
350.51	1783.78
350.72	1755.11
350.93	1722.34
351.14	1656.81
351.35	1759.21
351.56	1691.62
351.77	1753.06
351.99	1701.86
352.20	1787.88
352.41	1765.35
352.62	1615.85
352.83	1712.10
353.04	1683.43
353.25	1699.81
353.46	1746.92
353.67	1775.59
353.88	1617.90
354.09	1675.24
354.30	1705.96
354.52	1718.25
354.73	1665.00
354.94	1757.16
355.15	1705.96
355.36	1841.12
355.57	1710.05
355.78	1755.11
355.99	1660.90
356.20	1697.77
356.41	1816.55
356.62	1794.02
356.83	1789.92
357.04	1689.57
357.25	1626.09
357.46	1673.19
357.68	1613.80
357.89	1587.18
358.10	1689.57
358.31	1701.86
358.52	1705.96
358.73	1677.29
358.94	1685.48
359.15	1611.75
359.36	1718.25
359.57	1695.72
359.78	1732.58
359.99	1710.05
360.20	1699.81
360.41	1669.09
360.62	1732.58
360.83	1738.73
361.04	1705.96
361.25	1794.02
361.46	1810.40
361.67	1697.77
361.88	1722.34
362.09	1730.53
362.30	1673.19
362.51	1708.01
362.72	1748.97
362.93	1681.38
363.14	1810.40
363.35	1714.15
363.56	1697.77
363.78	1787.88
363.99	1726.44
364.20	1648.61
364.41	1724.39
364.62	1826.79
364.83	1775.59
365.04	1765.35
365.25	1697.77
365.46	1845.22
365.67	1640.42
365.88	1632.23
366.09	1716.20
366.30	1695.72
366.51	1621.99
366.72	1679.33
366.93	1681.38
367.14	1714.15
367.35	1755.11
367.56	1683.43
367.77	1779.68
367.98	1722.34
368.18	1710.05
368.39	1703.91
368.60	1712.10
368.81	1810.40
369.02	1755.11
369.23	1650.66
369.44	1609.70
369.65	1665.00
369.86	1746.92
370.07	1837.03
370.28	1703.91
370.49	1730.53
370.70	1734.63
370.91	1619.94
371.12	1710.05
371.33	1708.01
371.54	1617.90
371.75	1800.16
371.96	1556.46
372.17	1722.34
372.38	1648.61
372.59	1789.92
372.80	1685.48
373.01	1691.62
373.22	1714.15
373.43	1714.15
373.64	1599.46
373.85	1724.39
374.06	1847.27
374.26	1814.50
374.47	1740.77
374.68	1841.12
374.89	1705.96
375.10	1671.14
375.31	1763.30
375.52	1751.01
375.73	1763.30
375.94	1615.85
376.15	1775.59
376.36	1640.42
376.57	1644.52
376.78	1626.09
376.99	1697.77
377.20	1738.73
377.40	1642.47
377.61	1865.70
377.82	1650.66
378.03	1789.92
378.24	1726.44
378.45	1730.53
378.66	1669.09
378.87	1656.81
379.08	1611.75
379.29	1689.57
379.50	1767.40
379.71	1636.33
379.91	1751.01
380.12	1677.29
380.33	1748.97
380.54	1728.49
380.75	1697.77
380.96	1714.15
381.17	1736.68
381.38	1796.07
381.59	1691.62
381.80	1644.52
382.00	1765.35
382.21	1783.78
382.42	1816.55
382.63	1859.56
382.84	1810.40
383.05	1755.11
383.26	1763.30
383.47	1708.01
383.68	1771.49
383.88	1675.24
384.09	1732.58
384.30	1804.26
384.51	1703.91
384.72	1726.44
384.93	1638.38
385.14	1638.38
385.35	1787.88
385.55	1640.42
385.76	1742.82
385.97	1683.43
386.18	1646.57
386.39	1650.66
386.60	1712.10
386.81	1726.44
387.02	1669.09
387.22	1701.86
387.43	1826.79
387.64	1783.78
387.85	1900.52
388.06	2191.33
388.27	4149.18
388.48	6893.46
388.68	8200.07
388.89	9678.70
389.10	9930.60
389.31	8472.45
389.52	7475.09
389.73	6793.11
389.93	6297.50
390.14	5869.48
390.35	5175.22
390.56	4655.03
390.77	3686.34
390.98	3024.85
391.18	2469.85
391.39	2084.83
391.60	1923.04
391.81	1861.60
392.02	1724.39
392.23	1877.99
392.43	1781.73
392.64	1742.82
392.85	1800.16
393.06	1816.55
393.27	1605.61
393.47	1656.81
393.68	1730.53
393.89	1722.34
394.10	1742.82
394.31	1726.44
394.52	1636.33
394.72	1734.63
394.93	1853.41
395.14	1599.46
395.35	1789.92
395.56	1683.43
395.76	1791.97
395.97	1783.78
396.18	1882.08
396.39	1822.69
396.60	2033.63
396.80	1804.26
397.01	1892.32
397.22	1834.98
397.43	1871.84
397.64	1765.35
397.84	1843.17
398.05	1839.08
398.26	1693.67
398.47	1789.92
398.67	1734.63
398.88	1761.25
399.09	1746.92
399.30	1669.09
399.51	1685.48
399.71	1638.38
399.92	1658.85
400.13	1738.73
400.34	1679.33
400.54	1695.72
400.75	1734.63
400.96	1675.24
401.17	1785.83
401.37	1746.92
401.58	1640.42
401.79	1740.77
402.00	1804.26
402.21	2023.39
402.41	1927.14
402.62	1968.10
402.83	2025.44
403.04	2093.02
403.24	2099.17
403.45	1818.60
403.66	1865.70
403.87	1875.94
404.07	1927.14
404.28	1892.32
404.49	1869.80
404.70	1781.73
404.90	1763.30
405.11	1703.91
405.32	1742.82
405.52	1638.38
405.73	1679.33
405.94	1714.15
406.15	1718.25
406.35	1755.11
406.56	1763.30
406.77	1716.20
406.98	1769.44
407.18	1673.19
407.39	1781.73
407.60	1763.30
407.80	1736.68
408.01	1669.09
408.22	1673.19
408.43	1675.24
408.63	1716.20
408.84	1728.49
409.05	1779.68
409.25	1624.04
409.46	1632.23
409.67	1699.81
409.88	1746.92
410.08	1708.01
410.29	1703.91
410.50	1767.40
410.70	1742.82
410.91	1685.48
411.12	1740.77
411.32	1714.15
411.53	1689.57
411.74	1816.55
411.95	1757.16
412.15	1716.20
412.36	1763.30
412.57	1730.53
412.77	1851.36
412.98	1761.25
413.19	1716.20
413.39	1824.74
413.60	1695.72
413.81	1822.69
414.01	1634.28
414.22	1757.16
414.43	1751.01
414.63	1675.24
414.84	1742.82
415.05	1787.88
415.25	1662.95
415.46	1791.97
415.67	1658.85
415.87	1724.39
416.08	1751.01
416.29	1632.23
416.49	1699.81
416.70	1615.85
416.91	1695.72
417.11	1665.00
417.32	1814.50
417.53	1732.58
417.73	1689.57
417.94	1736.68
418.15	1656.81
418.35	1718.25
418.56	1683.43
418.77	1814.50
418.97	1681.38
419.18	1746.92
419.38	1556.46
419.59	1703.91
419.80	1783.78
420.00	1701.86
420.21	1777.64
420.42	1779.68
420.62	1751.01
420.83	1665.00
421.04	1693.67
421.24	1681.38
421.45	1765.35
421.65	1736.68
421.86	1652.71
422.07	1693.67
422.27	1697.77
422.48	1769.44
422.69	1697.77
422.89	1675.24
423.10	1697.77
423.30	1591.27
423.51	1726.44
423.72	1665.00
423.92	1763.30
424.13	1611.75
424.33	1689.57
424.54	1712.10
424.75	1681.38
424.95	1734.63
425.16	1742.82
425.36	1701.86
425.57	1693.67
425.78	1755.11
425.98	1697.77
426.19	1669.09
426.39	1714.15
426.60	1794.02
426.81	1763.30
427.01	1714.15
427.22	1619.94
427.42	1685.48
427.63	1652.71
427.83	1816.55
428.04	1804.26
428.25	1753.06
428.45	1767.40
428.66	1720.29
428.86	1738.73
429.07	1722.34
429.28	1742.82
429.48	1660.90
429.69	1701.86
429.89	1677.29
430.10	1650.66
430.30	1740.77
430.51	1810.40
430.71	1669.09
430.92	1669.09
431.13	1681.38
431.33	1714.15
431.54	1796.07
431.74	1773.54
431.95	1869.80
432.15	1708.01
432.36	1607.66
432.56	1779.68
432.77	1800.16
432.98	1791.97
433.18	1722.34
433.39	1755.11
433.59	1644.52
433.80	1822.69
434.00	1802.21
434.21	1656.81
434.41	1619.94
434.62	1851.36
434.82	1660.90
435.03	1746.92
435.23	1769.44
435.44	1607.66
435.64	1755.11
435.85	1701.86
436.06	1726.44
436.26	1740.77
436.47	1689.57
436.67	1691.62
436.88	1734.63
437.08	1804.26
437.29	1855.46
437.49	1726.44
437.70	1742.82
437.90	1701.86
438.11	1929.19
438.31	1757.16
438.52	1896.42
438.72	1951.71
438.93	1898.47
439.13	1818.60
439.34	1810.40
439.54	1716.20
439.75	1802.21
439.95	1839.08
440.16	1665.00
440.36	1849.32
440.57	1783.78
440.77	1755.11
440.98	1714.15
441.18	1785.83
441.39	1654.76
441.59	1671.14
441.80	1794.02
442.00	1759.21
442.21	1814.50
442.41	1636.33
442.62	1834.98
442.82	1685.48
443.02	1681.38
443.23	1804.26
443.43	1665.00
443.64	1830.88
443.84	1613.80
444.05	1771.49
444.25	1705.96
444.46	1796.07
444.66	1636.33
444.87	1740.77
445.07	1634.28
445.28	1679.33
445.48	1812.45
445.69	1812.45
445.89	1902.56
446.09	1787.88
446.30	2050.02
446.50	2693.08
446.71	3833.80
446.91	4392.89
447.12	4782.01
447.32	4868.02
447.53	4276.16
447.73	3868.61
447.93	3579.85
448.14	3346.38
448.34	3133.39
448.55	2881.49
448.75	2836.44
448.96	2609.11
449.16	2529.24
449.36	2303.96
449.57	2115.55
449.77	1875.94
449.98	1820.64
450.18	1892.32
450.39	1751.01
450.59	1775.59
450.79	1695.72
451.00	1712.10
451.20	1804.26
451.41	1675.24
451.61	1828.84
451.81	1660.90
452.02	1724.39
452.22	1734.63
452.43	1679.33
452.63	1691.62
