SpectraSuite Data File
++++++++++++++++++++++++++++++++++++
Date: Mon Jun 06 16:22:37 CEST 2016
User: root
Dark Spectrum Present: No
Reference Spectrum Present: No
Number of Sampled Component Spectra: 1
Spectrometers: USB4C02835
Integration Time (usec): 100000 (USB4C02835)
Spectra Averaged: 1 (USB4C02835)
Boxcar Smoothing: 0 (USB4C02835)
Correct for Electrical Dark: No (USB4C02835)
Strobe/Lamp Enabled: No (USB4C02835)
Correct for Detector Non-linearity: No (USB4C02835)
Correct for Stray Light: No (USB4C02835)
Number of Pixels in Processed Spectrum: 3648
>>>>>Begin Processed Spectral Data<<<<<
177.47	1427.43
177.69	1427.43
177.91	1427.43
178.13	1509.35
178.36	1527.78
178.58	1677.29
178.80	1728.49
179.02	1714.15
179.24	1597.42
179.46	1703.91
179.68	1732.58
179.90	1781.73
180.13	1665.00
180.35	1658.85
180.57	1673.19
180.79	1767.40
181.01	1798.12
181.23	1800.16
181.45	1677.29
181.67	1769.44
181.90	1742.82
182.12	1636.33
182.34	1662.95
182.56	1753.06
182.78	1746.92
183.00	1689.57
183.22	1738.73
183.44	1654.76
183.66	1902.56
183.89	1742.82
184.11	1802.21
184.33	1673.19
184.55	1830.88
184.77	1669.09
184.99	1656.81
185.21	1693.67
185.43	1845.22
185.65	1751.01
185.87	1757.16
186.10	1806.31
186.32	1816.55
186.54	1755.11
186.76	1728.49
186.98	1753.06
187.20	1736.68
187.42	1697.77
187.64	1613.80
187.86	1708.01
188.08	1746.92
188.30	1720.29
188.52	1808.36
188.75	1685.48
188.97	1804.26
189.19	1746.92
189.41	1738.73
189.63	1763.30
189.85	1687.53
190.07	1656.81
190.29	1665.00
190.51	1767.40
190.73	1628.14
190.95	1701.86
191.17	1687.53
191.39	1689.57
191.61	1708.01
191.84	1728.49
192.06	1718.25
192.28	1624.04
192.50	1861.60
192.72	1728.49
192.94	1665.00
193.16	1773.54
193.38	1744.87
193.60	1675.24
193.82	1619.94
194.04	1722.34
194.26	1691.62
194.48	1796.07
194.70	1656.81
194.92	1621.99
195.14	1755.11
195.36	1714.15
195.58	1736.68
195.80	1691.62
196.02	1687.53
196.24	1724.39
196.46	1710.05
196.69	1665.00
196.91	1826.79
197.13	1673.19
197.35	1667.05
197.57	1773.54
197.79	1748.97
198.01	1722.34
198.23	1837.03
198.45	1761.25
198.67	1679.33
198.89	1722.34
199.11	1728.49
199.33	1681.38
199.55	1660.90
199.77	1695.72
199.99	1724.39
200.21	1652.71
200.43	1740.77
200.65	1656.81
200.87	1634.28
201.09	1660.90
201.31	1562.60
201.53	1673.19
201.75	1734.63
201.97	1699.81
202.19	1626.09
202.41	1771.49
202.63	1814.50
202.85	1691.62
203.07	1814.50
203.29	1730.53
203.51	1611.75
203.73	1669.09
203.95	1890.28
204.17	1791.97
204.39	1751.01
204.61	1679.33
204.83	1691.62
205.05	1759.21
205.27	1730.53
205.49	1824.74
205.71	1669.09
205.93	1605.61
206.15	1722.34
206.37	1681.38
206.59	1748.97
206.81	1644.52
207.03	1689.57
207.25	1611.75
207.47	1742.82
207.69	1681.38
207.91	1828.84
208.13	1761.25
208.34	1710.05
208.56	1697.77
208.78	1751.01
209.00	1705.96
209.22	1699.81
209.44	1755.11
209.66	1753.06
209.88	1724.39
210.10	1669.09
210.32	1712.10
210.54	1783.78
210.76	1685.48
210.98	1794.02
211.20	1589.22
211.42	1744.87
211.64	1769.44
211.86	1775.59
212.08	1763.30
212.30	1791.97
212.52	1673.19
212.74	1701.86
212.96	1736.68
213.17	1730.53
213.39	1779.68
213.61	1773.54
213.83	1734.63
214.05	1677.29
214.27	1736.68
214.49	1605.61
214.71	1593.32
214.93	1810.40
215.15	1695.72
215.37	1789.92
215.59	1652.71
215.81	1724.39
216.03	1746.92
216.24	1697.77
216.46	1658.85
216.68	1677.29
216.90	1791.97
217.12	1839.08
217.34	1730.53
217.56	1720.29
217.78	1822.69
218.00	1765.35
218.22	1740.77
218.44	1716.20
218.66	1732.58
218.87	1777.64
219.09	1675.24
219.31	1677.29
219.53	1742.82
219.75	1718.25
219.97	1722.34
220.19	1757.16
220.41	1714.15
220.63	1796.07
220.85	1728.49
221.06	1701.86
221.28	1781.73
221.50	1841.12
221.72	1728.49
221.94	1771.49
222.16	1736.68
222.38	1781.73
222.60	1734.63
222.82	1648.61
223.03	1738.73
223.25	1708.01
223.47	1859.56
223.69	1820.64
223.91	1767.40
224.13	1683.43
224.35	1636.33
224.57	1736.68
224.78	1796.07
225.00	1624.04
225.22	1644.52
225.44	1728.49
225.66	1818.60
225.88	1693.67
226.10	1779.68
226.32	1634.28
226.53	1748.97
226.75	1632.23
226.97	1695.72
227.19	1673.19
227.41	1718.25
227.63	1656.81
227.85	1607.66
228.06	1751.01
228.28	1683.43
228.50	1751.01
228.72	1650.66
228.94	1689.57
229.16	1595.37
229.37	1603.56
229.59	1650.66
229.81	1775.59
230.03	1730.53
230.25	1656.81
230.47	1685.48
230.69	1617.90
230.90	1804.26
231.12	1667.05
231.34	1785.83
231.56	1736.68
231.78	1632.23
232.00	1716.20
232.21	1730.53
232.43	1714.15
232.65	1599.46
232.87	1740.77
233.09	1685.48
233.30	1679.33
233.52	1773.54
233.74	1681.38
233.96	1822.69
234.18	1701.86
234.40	1767.40
234.61	1824.74
234.83	1689.57
235.05	1585.13
235.27	1886.18
235.49	1775.59
235.70	1675.24
235.92	1779.68
236.14	1755.11
236.36	1843.17
236.58	1705.96
236.79	1736.68
237.01	1660.90
237.23	1673.19
237.45	1867.75
237.67	1640.42
237.88	1716.20
238.10	1812.45
238.32	1638.38
238.54	1716.20
238.76	1656.81
238.97	1732.58
239.19	1671.14
239.41	1787.88
239.63	1757.16
239.85	1687.53
240.06	1695.72
240.28	1628.14
240.50	1734.63
240.72	1697.77
240.93	1681.38
241.15	1783.78
241.37	1708.01
241.59	1820.64
241.81	1693.67
242.02	1687.53
242.24	1761.25
242.46	1781.73
242.68	1595.37
242.89	1681.38
243.11	1755.11
243.33	1699.81
243.55	1693.67
243.76	1755.11
243.98	1675.24
244.20	1738.73
244.42	1740.77
244.64	1746.92
244.85	1730.53
245.07	1548.26
245.29	1716.20
245.51	1705.96
245.72	1726.44
245.94	1791.97
246.16	1689.57
246.38	1796.07
246.59	1689.57
246.81	1705.96
247.03	1695.72
247.24	1683.43
247.46	1677.29
247.68	1828.84
247.90	1697.77
248.11	1703.91
248.33	1734.63
248.55	1748.97
248.77	1755.11
248.98	1722.34
249.20	1789.92
249.42	1738.73
249.64	1783.78
249.85	1644.52
250.07	1687.53
250.29	1720.29
250.50	1742.82
250.72	1601.51
250.94	1722.34
251.16	1798.12
251.37	1746.92
251.59	1685.48
251.81	1765.35
252.02	1888.23
252.24	1615.85
252.46	1775.59
252.68	1632.23
252.89	1712.10
253.11	1607.66
253.33	1828.84
253.54	1712.10
253.76	1603.56
253.98	1751.01
254.20	1742.82
254.41	1669.09
254.63	1718.25
254.85	1681.38
255.06	1695.72
255.28	1755.11
255.50	1673.19
255.71	1642.47
255.93	1636.33
256.15	1703.91
256.36	1710.05
256.58	1605.61
256.80	1679.33
257.02	1710.05
257.23	1654.76
257.45	1642.47
257.67	1728.49
257.88	1652.71
258.10	1755.11
258.32	1734.63
258.53	1710.05
258.75	1816.55
258.97	1634.28
259.18	1751.01
259.40	1712.10
259.62	1839.08
259.83	1767.40
260.05	1753.06
260.27	1986.53
260.48	1718.25
260.70	1710.05
260.92	1640.42
261.13	1730.53
261.35	1726.44
261.57	1753.06
261.78	1568.74
262.00	1687.53
262.22	1712.10
262.43	1724.39
262.65	1675.24
262.86	1634.28
263.08	1861.60
263.30	1703.91
263.51	1560.55
263.73	1714.15
263.95	1736.68
264.16	1705.96
264.38	1720.29
264.60	1724.39
264.81	1712.10
265.03	1824.74
265.25	1755.11
265.46	1689.57
265.68	1757.16
265.89	1761.25
266.11	1722.34
266.33	1781.73
266.54	1796.07
266.76	1742.82
266.98	1755.11
267.19	1826.79
267.41	1826.79
267.62	1748.97
267.84	1640.42
268.06	1804.26
268.27	1726.44
268.49	1779.68
268.70	1736.68
268.92	1738.73
269.14	1687.53
269.35	1640.42
269.57	1724.39
269.79	1689.57
270.00	1630.18
270.22	1847.27
270.43	1687.53
270.65	1611.75
270.87	1742.82
271.08	1769.44
271.30	1773.54
271.51	1734.63
271.73	1789.92
271.95	1783.78
272.16	1619.94
272.38	1705.96
272.59	1730.53
272.81	1738.73
273.02	1751.01
273.24	1730.53
273.46	1751.01
273.67	1705.96
273.89	1624.04
274.10	1693.67
274.32	1744.87
274.54	1656.81
274.75	1648.61
274.97	1744.87
275.18	1830.88
275.40	1773.54
275.61	1804.26
275.83	1695.72
276.05	1691.62
276.26	1656.81
276.48	1662.95
276.69	1705.96
276.91	1669.09
277.12	1759.21
277.34	1828.84
277.55	1794.02
277.77	1738.73
277.99	1746.92
278.20	1656.81
278.42	1669.09
278.63	1640.42
278.85	1652.71
279.06	1624.04
279.28	1751.01
279.49	1789.92
279.71	1796.07
279.93	1681.38
280.14	1689.57
280.36	1697.77
280.57	1714.15
280.79	1796.07
281.00	1603.56
281.22	1617.90
281.43	1828.84
281.65	1529.83
281.86	1726.44
282.08	1783.78
282.29	1804.26
282.51	1650.66
282.73	1746.92
282.94	1669.09
283.16	1718.25
283.37	1816.55
283.59	1689.57
283.80	1787.88
284.02	1753.06
284.23	1789.92
284.45	1673.19
284.66	1691.62
284.88	1632.23
285.09	1789.92
285.31	1800.16
285.52	1710.05
285.74	1667.05
285.95	1730.53
286.17	1697.77
286.38	1783.78
286.60	1613.80
286.81	1744.87
287.03	1673.19
287.24	1730.53
287.46	1787.88
287.67	1693.67
287.89	1845.22
288.10	1705.96
288.32	1775.59
288.53	1740.77
288.75	1724.39
288.96	1703.91
289.18	1673.19
289.39	1671.14
289.61	1757.16
289.82	1798.12
290.04	1828.84
290.25	1730.53
290.47	1748.97
290.68	1681.38
290.90	1869.80
291.11	1679.33
291.33	1804.26
291.54	1677.29
291.76	1613.80
291.97	1712.10
292.18	1757.16
292.40	1697.77
292.61	1679.33
292.83	1796.07
293.04	1726.44
293.26	1720.29
293.47	1654.76
293.69	1742.82
293.90	1763.30
294.12	1703.91
294.33	1796.07
294.55	1744.87
294.76	1699.81
294.97	1746.92
295.19	1847.27
295.40	1757.16
295.62	1761.25
295.83	1724.39
296.05	1697.77
296.26	1773.54
296.48	1742.82
296.69	1730.53
296.90	1660.90
297.12	1740.77
297.33	1779.68
297.55	1728.49
297.76	1677.29
297.98	1726.44
298.19	1738.73
298.41	1634.28
298.62	1744.87
298.83	1779.68
299.05	1697.77
299.26	1621.99
299.48	1630.18
299.69	1751.01
299.90	1685.48
300.12	1681.38
300.33	1742.82
300.55	1701.86
300.76	1730.53
300.98	1681.38
301.19	1791.97
301.40	1652.71
301.62	1705.96
301.83	1671.14
302.05	1771.49
302.26	1765.35
302.47	1683.43
302.69	1648.61
302.90	1787.88
303.12	1697.77
303.33	1695.72
303.54	1755.11
303.76	1660.90
303.97	1742.82
304.19	1785.83
304.40	1613.80
304.61	1708.01
304.83	1804.26
305.04	1771.49
305.26	1746.92
305.47	1630.18
305.68	1755.11
305.90	1683.43
306.11	1712.10
306.33	1736.68
306.54	1763.30
306.75	1718.25
306.97	1638.38
307.18	1667.05
307.39	1638.38
307.61	1810.40
307.82	1710.05
308.04	1751.01
308.25	1640.42
308.46	1673.19
308.68	1718.25
308.89	1779.68
309.10	1720.29
309.32	1724.39
309.53	1734.63
309.74	1804.26
309.96	1712.10
310.17	1755.11
310.39	1744.87
310.60	1769.44
310.81	1763.30
311.03	1621.99
311.24	1794.02
311.45	1740.77
311.67	1824.74
311.88	1732.58
312.09	1728.49
312.31	1712.10
312.52	1705.96
312.73	1697.77
312.95	1673.19
313.16	1611.75
313.37	1787.88
313.59	1720.29
313.80	1710.05
314.01	1810.40
314.23	1669.09
314.44	1748.97
314.65	1599.46
314.87	1667.05
315.08	1726.44
315.29	1781.73
315.51	1759.21
315.72	1624.04
315.93	1773.54
316.15	1746.92
316.36	1685.48
316.57	1734.63
316.79	1683.43
317.00	1652.71
317.21	1806.31
317.43	1699.81
317.64	1720.29
317.85	1705.96
318.07	1652.71
318.28	1763.30
318.49	1847.27
318.70	1898.47
318.92	1914.85
319.13	1812.45
319.34	1834.98
319.56	1779.68
319.77	1800.16
319.98	1787.88
320.20	1763.30
320.41	1751.01
320.62	1712.10
320.83	1714.15
321.05	1863.65
321.26	1744.87
321.47	1654.76
321.69	1798.12
321.90	1617.90
322.11	1732.58
322.32	1724.39
322.54	1826.79
322.75	1697.77
322.96	1871.84
323.18	1667.05
323.39	1677.29
323.60	1730.53
323.81	1808.36
324.03	1632.23
324.24	1691.62
324.45	1687.53
324.66	1716.20
324.88	1769.44
325.09	1904.61
325.30	1732.58
325.52	1804.26
325.73	1765.35
325.94	1660.90
326.15	1578.98
326.37	1722.34
326.58	1802.21
326.79	1849.32
327.00	1716.20
327.22	1812.45
327.43	1708.01
327.64	1673.19
327.85	1712.10
328.07	1689.57
328.28	1861.60
328.49	1642.47
328.70	1658.85
328.92	1673.19
329.13	1738.73
329.34	1775.59
329.55	1880.04
329.76	1751.01
329.98	1728.49
330.19	1777.64
330.40	1742.82
330.61	1626.09
330.83	1767.40
331.04	1640.42
331.25	1736.68
331.46	1675.24
331.68	1660.90
331.89	1738.73
332.10	1626.09
332.31	1665.00
332.52	1722.34
332.74	1839.08
332.95	1656.81
333.16	1656.81
333.37	1724.39
333.58	1687.53
333.80	1632.23
334.01	1607.66
334.22	1734.63
334.43	1755.11
334.64	1685.48
334.86	1644.52
335.07	1701.86
335.28	1816.55
335.49	1722.34
335.70	1746.92
335.92	1726.44
336.13	1773.54
336.34	1748.97
336.55	1730.53
336.76	1683.43
336.98	1583.08
337.19	1734.63
337.40	1796.07
337.61	1781.73
337.82	1755.11
338.04	1798.12
338.25	1603.56
338.46	1775.59
338.67	1648.61
338.88	1691.62
339.09	1685.48
339.31	1675.24
339.52	1705.96
339.73	1609.70
339.94	1697.77
340.15	1730.53
340.36	1632.23
340.58	1705.96
340.79	1624.04
341.00	1804.26
341.21	1632.23
341.42	1808.36
341.63	1708.01
341.85	1714.15
342.06	1687.53
342.27	1667.05
342.48	1789.92
342.69	1693.67
342.90	1736.68
343.12	1798.12
343.33	1738.73
343.54	1738.73
343.75	1763.30
343.96	1761.25
344.17	1732.58
344.38	1687.53
344.60	1636.33
344.81	1607.66
345.02	1665.00
345.23	1734.63
345.44	1808.36
345.65	1757.16
345.86	1689.57
346.07	1726.44
346.29	1658.85
346.50	1816.55
346.71	1701.86
346.92	1761.25
347.13	1820.64
347.34	1677.29
347.55	1681.38
347.76	1753.06
347.98	1585.13
348.19	1642.47
348.40	1771.49
348.61	1716.20
348.82	1812.45
349.03	1773.54
349.24	1767.40
349.45	1714.15
349.66	1574.89
349.88	1751.01
350.09	1691.62
350.30	1748.97
350.51	1843.17
350.72	1701.86
350.93	1746.92
351.14	1738.73
351.35	1769.44
351.56	1669.09
351.77	1757.16
351.99	1701.86
352.20	1751.01
352.41	1802.21
352.62	1578.98
352.83	1654.76
353.04	1722.34
353.25	1767.40
353.46	1822.69
353.67	1783.78
353.88	1562.60
354.09	1675.24
354.30	1718.25
354.52	1699.81
354.73	1720.29
354.94	1738.73
355.15	1681.38
355.36	1804.26
355.57	1718.25
355.78	1748.97
355.99	1646.57
356.20	1673.19
356.41	1787.88
356.62	1716.20
356.83	1724.39
357.04	1806.31
357.25	1583.08
357.46	1705.96
357.68	1619.94
357.89	1718.25
358.10	1820.64
358.31	1759.21
358.52	1675.24
358.73	1673.19
358.94	1701.86
359.15	1675.24
359.36	1783.78
359.57	1662.95
359.78	1746.92
359.99	1738.73
360.20	1630.18
360.41	1638.38
360.62	1751.01
360.83	1691.62
361.04	1730.53
361.25	1775.59
361.46	1718.25
361.67	1714.15
361.88	1757.16
362.09	1705.96
362.30	1773.54
362.51	1718.25
362.72	1730.53
362.93	1722.34
363.14	1716.20
363.35	1703.91
363.56	1648.61
363.78	1740.77
363.99	1730.53
364.20	1728.49
364.41	1730.53
364.62	1820.64
364.83	1748.97
365.04	1730.53
365.25	1718.25
365.46	1685.48
365.67	1673.19
365.88	1691.62
366.09	1681.38
366.30	1705.96
366.51	1751.01
366.72	1611.75
366.93	1658.85
367.14	1679.33
367.35	1816.55
367.56	1662.95
367.77	1834.98
367.98	1693.67
368.18	1763.30
368.39	1763.30
368.60	1658.85
368.81	1744.87
369.02	1722.34
369.23	1728.49
369.44	1648.61
369.65	1685.48
369.86	1701.86
370.07	1759.21
370.28	1677.29
370.49	1722.34
370.70	1787.88
370.91	1617.90
371.12	1587.18
371.33	1787.88
371.54	1652.71
371.75	1824.74
371.96	1560.55
372.17	1716.20
372.38	1697.77
372.59	1830.88
372.80	1685.48
373.01	1718.25
373.22	1751.01
373.43	1761.25
373.64	1683.43
373.85	1816.55
374.06	1843.17
374.26	1751.01
374.47	1763.30
374.68	1800.16
374.89	1695.72
375.10	1806.31
375.31	1804.26
375.52	1640.42
375.73	1796.07
375.94	1611.75
376.15	1779.68
376.36	1673.19
376.57	1687.53
376.78	1689.57
376.99	1808.36
377.20	1755.11
377.40	1720.29
377.61	1894.37
377.82	1742.82
378.03	1728.49
378.24	1714.15
378.45	1687.53
378.66	1748.97
378.87	1611.75
379.08	1564.65
379.29	1701.86
379.50	1843.17
379.71	1667.05
379.91	1734.63
380.12	1695.72
380.33	1667.05
380.54	1798.12
380.75	1714.15
380.96	1779.68
381.17	1740.77
381.38	1742.82
381.59	1736.68
381.80	1834.98
382.00	1826.79
382.21	1761.25
382.42	1894.37
382.63	1875.94
382.84	1789.92
383.05	1773.54
383.26	1759.21
383.47	1716.20
383.68	1755.11
383.88	1767.40
384.09	1675.24
384.30	1863.65
384.51	1718.25
384.72	1636.33
384.93	1710.05
385.14	1751.01
385.35	1765.35
385.55	1648.61
385.76	1794.02
385.97	1687.53
386.18	1705.96
386.39	1665.00
386.60	1718.25
386.81	1630.18
387.02	1683.43
387.22	1697.77
387.43	1845.22
387.64	1791.97
387.85	1877.99
388.06	2189.28
388.27	4249.54
388.48	6647.71
388.68	8195.97
388.89	9492.34
389.10	9633.64
389.31	8482.69
389.52	7466.89
389.73	6649.75
389.93	6154.15
390.14	5930.92
390.35	5023.67
390.56	4509.63
390.77	3641.29
390.98	3008.47
391.18	2463.71
391.39	2140.13
391.60	1959.91
391.81	1837.03
392.02	1746.92
392.23	1908.71
392.43	1810.40
392.64	1851.36
392.85	1746.92
393.06	1787.88
393.27	1720.29
393.47	1726.44
393.68	1785.83
393.89	1726.44
394.10	1779.68
394.31	1636.33
394.52	1654.76
394.72	1710.05
394.93	1816.55
395.14	1726.44
395.35	1779.68
395.56	1683.43
395.76	1708.01
395.97	1783.78
396.18	1890.28
396.39	1900.52
396.60	1986.53
396.80	1880.04
397.01	1843.17
397.22	1877.99
397.43	1832.93
397.64	1779.68
397.84	1837.03
398.05	1953.76
398.26	1781.73
398.47	1759.21
398.67	1736.68
398.88	1753.06
399.09	1763.30
399.30	1714.15
399.51	1796.07
399.71	1699.81
399.92	1669.09
400.13	1718.25
400.34	1640.42
400.54	1701.86
400.75	1798.12
400.96	1699.81
401.17	1806.31
401.37	1740.77
401.58	1794.02
401.79	1726.44
402.00	1816.55
402.21	2125.79
402.41	1959.91
402.62	1988.58
402.83	2041.82
403.04	1908.71
403.24	2101.22
403.45	1939.43
403.66	1873.89
403.87	1929.19
404.07	1906.66
404.28	1855.46
404.49	1959.91
404.70	1849.32
404.90	1724.39
405.11	1796.07
405.32	1794.02
405.52	1656.81
405.73	1691.62
405.94	1665.00
406.15	1705.96
406.35	1728.49
406.56	1693.67
406.77	1712.10
406.98	1740.77
407.18	1685.48
407.39	1740.77
407.60	1697.77
407.80	1783.78
408.01	1628.14
408.22	1732.58
408.43	1734.63
408.63	1726.44
408.84	1693.67
409.05	1794.02
409.25	1574.89
409.46	1740.77
409.67	1734.63
409.88	1701.86
410.08	1724.39
410.29	1734.63
410.50	1710.05
410.70	1740.77
410.91	1646.57
411.12	1710.05
411.32	1710.05
411.53	1703.91
411.74	1763.30
411.95	1812.45
412.15	1822.69
412.36	1773.54
412.57	1751.01
412.77	1753.06
412.98	1742.82
413.19	1816.55
413.39	1761.25
413.60	1771.49
413.81	1726.44
414.01	1621.99
414.22	1765.35
414.43	1787.88
414.63	1699.81
414.84	1796.07
415.05	1789.92
415.25	1548.26
415.46	1748.97
415.67	1714.15
415.87	1771.49
416.08	1667.05
416.29	1695.72
416.49	1689.57
416.70	1687.53
416.91	1679.33
417.11	1773.54
417.32	1765.35
417.53	1771.49
417.73	1693.67
417.94	1751.01
418.15	1714.15
418.35	1667.05
418.56	1726.44
418.77	1861.60
418.97	1626.09
419.18	1619.94
419.38	1548.26
419.59	1691.62
419.80	1845.22
420.00	1675.24
420.21	1753.06
420.42	1746.92
420.62	1697.77
420.83	1687.53
421.04	1730.53
421.24	1685.48
421.45	1814.50
421.65	1732.58
421.86	1775.59
422.07	1726.44
422.27	1849.32
422.48	1767.40
422.69	1705.96
422.89	1720.29
423.10	1697.77
423.30	1611.75
423.51	1710.05
423.72	1712.10
423.92	1779.68
424.13	1646.57
424.33	1742.82
424.54	1798.12
424.75	1746.92
424.95	1751.01
425.16	1648.61
425.36	1742.82
425.57	1730.53
425.78	1828.84
425.98	1746.92
426.19	1648.61
426.39	1705.96
426.60	1736.68
426.81	1789.92
427.01	1705.96
427.22	1626.09
427.42	1607.66
427.63	1726.44
427.83	1724.39
428.04	1767.40
428.25	1695.72
428.45	1808.36
428.66	1845.22
428.86	1712.10
429.07	1687.53
429.28	1689.57
429.48	1732.58
429.69	1662.95
429.89	1800.16
430.10	1691.62
430.30	1810.40
430.51	1779.68
430.71	1708.01
430.92	1759.21
431.13	1710.05
431.33	1728.49
431.54	1667.05
431.74	1861.60
431.95	1853.41
432.15	1632.23
432.36	1785.83
432.56	1761.25
432.77	1882.08
432.98	1783.78
433.18	1816.55
433.39	1771.49
433.59	1677.29
433.80	1824.74
434.00	1847.27
434.21	1685.48
434.41	1654.76
434.62	1816.55
434.82	1626.09
435.03	1652.71
435.23	1781.73
435.44	1708.01
435.64	1677.29
435.85	1691.62
436.06	1791.97
436.26	1753.06
436.47	1736.68
436.67	1660.90
436.88	1777.64
437.08	1726.44
437.29	1863.65
437.49	1779.68
437.70	1767.40
437.90	1724.39
438.11	1873.89
438.31	1830.88
438.52	1923.04
438.72	1853.41
438.93	1841.12
439.13	1789.92
439.34	1808.36
439.54	1687.53
439.75	1779.68
439.95	1820.64
440.16	1767.40
440.36	1759.21
440.57	1757.16
440.77	1751.01
440.98	1677.29
441.18	1800.16
441.39	1689.57
441.59	1683.43
441.80	1861.60
442.00	1798.12
442.21	1767.40
442.41	1648.61
442.62	1695.72
442.82	1695.72
443.02	1685.48
443.23	1662.95
443.43	1689.57
443.64	1880.04
443.84	1714.15
444.05	1857.51
444.25	1744.87
444.46	1685.48
444.66	1726.44
444.87	1806.31
445.07	1642.47
445.28	1726.44
445.48	1839.08
445.69	1806.31
445.89	1837.03
446.09	1826.79
446.30	1961.95
446.50	2684.89
446.71	3733.45
446.91	4255.68
447.12	4818.87
447.32	4978.61
447.53	4282.30
447.73	3913.67
447.93	3485.64
448.14	3284.94
448.34	3125.20
448.55	2891.73
448.75	2811.86
448.96	2676.70
449.16	2482.14
449.36	2308.06
449.57	2009.06
449.77	1859.56
449.98	1847.27
450.18	1949.67
450.39	1865.70
450.59	1800.16
450.79	1736.68
451.00	1710.05
451.20	1837.03
451.41	1789.92
451.61	1783.78
451.81	1751.01
452.02	1693.67
452.22	1742.82
452.43	1722.34
452.63	1757.16
