SpectraSuite Data File
++++++++++++++++++++++++++++++++++++
Date: Mon Jun 06 15:19:37 CEST 2016
User: root
Dark Spectrum Present: No
Reference Spectrum Present: No
Number of Sampled Component Spectra: 1
Spectrometers: USB4C02835
Integration Time (usec): 100000 (USB4C02835)
Spectra Averaged: 1 (USB4C02835)
Boxcar Smoothing: 0 (USB4C02835)
Correct for Electrical Dark: No (USB4C02835)
Strobe/Lamp Enabled: No (USB4C02835)
Correct for Detector Non-linearity: No (USB4C02835)
Correct for Stray Light: No (USB4C02835)
Number of Pixels in Processed Spectrum: 3648
>>>>>Begin Processed Spectral Data<<<<<
177.47	1427.43
177.69	1427.43
177.91	1427.43
178.13	1490.92
178.36	1476.59
178.58	1662.95
178.80	1710.05
179.02	1642.47
179.24	1703.91
179.46	1730.53
179.68	1779.68
179.90	1677.29
180.13	1695.72
180.35	1632.23
180.57	1697.77
180.79	1767.40
181.01	1669.09
181.23	1748.97
181.45	1699.81
181.67	1724.39
181.90	1714.15
182.12	1656.81
182.34	1578.98
182.56	1705.96
182.78	1609.70
183.00	1689.57
183.22	1746.92
183.44	1665.00
183.66	1894.37
183.89	1880.04
184.11	1681.38
184.33	1761.25
184.55	1796.07
184.77	1710.05
184.99	1683.43
185.21	1695.72
185.43	1781.73
185.65	1716.20
185.87	1699.81
186.10	1828.84
186.32	1839.08
186.54	1742.82
186.76	1789.92
186.98	1812.45
187.20	1691.62
187.42	1722.34
187.64	1683.43
187.86	1705.96
188.08	1722.34
188.30	1693.67
188.52	1722.34
188.75	1769.44
188.97	1781.73
189.19	1619.94
189.41	1740.77
189.63	1726.44
189.85	1712.10
190.07	1677.29
190.29	1634.28
190.51	1794.02
190.73	1621.99
190.95	1753.06
191.17	1681.38
191.39	1638.38
191.61	1630.18
191.84	1703.91
192.06	1726.44
192.28	1560.55
192.50	1900.52
192.72	1746.92
192.94	1689.57
193.16	1759.21
193.38	1765.35
193.60	1607.66
193.82	1691.62
194.04	1720.29
194.26	1744.87
194.48	1683.43
194.70	1691.62
194.92	1701.86
195.14	1789.92
195.36	1609.70
195.58	1722.34
195.80	1646.57
196.02	1697.77
196.24	1673.19
196.46	1681.38
196.69	1624.04
196.91	1890.28
197.13	1683.43
197.35	1724.39
197.57	1804.26
197.79	1777.64
198.01	1724.39
198.23	1740.77
198.45	1673.19
198.67	1656.81
198.89	1685.48
199.11	1748.97
199.33	1605.61
199.55	1585.13
199.77	1730.53
199.99	1755.11
200.21	1679.33
200.43	1759.21
200.65	1662.95
200.87	1601.51
201.09	1701.86
201.31	1687.53
201.53	1777.64
201.75	1705.96
201.97	1748.97
202.19	1775.59
202.41	1640.42
202.63	1757.16
202.85	1814.50
203.07	1697.77
203.29	1746.92
203.51	1726.44
203.73	1642.47
203.95	1968.10
204.17	1730.53
204.39	1773.54
204.61	1685.48
204.83	1687.53
205.05	1781.73
205.27	1761.25
205.49	1880.04
205.71	1730.53
205.93	1675.24
206.15	1722.34
206.37	1744.87
206.59	1673.19
206.81	1632.23
207.03	1712.10
207.25	1621.99
207.47	1755.11
207.69	1652.71
207.91	1794.02
208.13	1765.35
208.34	1675.24
208.56	1703.91
208.78	1763.30
209.00	1730.53
209.22	1697.77
209.44	1720.29
209.66	1701.86
209.88	1650.66
210.10	1652.71
210.32	1714.15
210.54	1746.92
210.76	1710.05
210.98	1781.73
211.20	1572.84
211.42	1705.96
211.64	1763.30
211.86	1748.97
212.08	1701.86
212.30	1740.77
212.52	1693.67
212.74	1697.77
212.96	1673.19
213.17	1673.19
213.39	1796.07
213.61	1730.53
213.83	1705.96
214.05	1662.95
214.27	1738.73
214.49	1748.97
214.71	1656.81
214.93	1777.64
215.15	1740.77
215.37	1738.73
215.59	1751.01
215.81	1712.10
216.03	1769.44
216.24	1703.91
216.46	1746.92
216.68	1699.81
216.90	1718.25
217.12	1722.34
217.34	1736.68
217.56	1804.26
217.78	1796.07
218.00	1759.21
218.22	1679.33
218.44	1730.53
218.66	1673.19
218.87	1748.97
219.09	1665.00
219.31	1714.15
219.53	1730.53
219.75	1626.09
219.97	1726.44
220.19	1675.24
220.41	1681.38
220.63	1685.48
220.85	1656.81
221.06	1730.53
221.28	1748.97
221.50	1740.77
221.72	1660.90
221.94	1791.97
222.16	1656.81
222.38	1705.96
222.60	1753.06
222.82	1677.29
223.03	1728.49
223.25	1662.95
223.47	1726.44
223.69	1857.51
223.91	1742.82
224.13	1746.92
224.35	1732.58
224.57	1726.44
224.78	1763.30
225.00	1669.09
225.22	1689.57
225.44	1734.63
225.66	1746.92
225.88	1689.57
226.10	1767.40
226.32	1656.81
226.53	1818.60
226.75	1646.57
226.97	1712.10
227.19	1710.05
227.41	1628.14
227.63	1681.38
227.85	1619.94
228.06	1658.85
228.28	1834.98
228.50	1718.25
228.72	1632.23
228.94	1675.24
229.16	1589.22
229.37	1720.29
229.59	1689.57
229.81	1726.44
230.03	1650.66
230.25	1558.50
230.47	1617.90
230.69	1667.05
230.90	1703.91
231.12	1677.29
231.34	1742.82
231.56	1738.73
231.78	1599.46
232.00	1738.73
232.21	1681.38
232.43	1705.96
232.65	1640.42
232.87	1751.01
233.09	1593.32
233.30	1716.20
233.52	1712.10
233.74	1712.10
233.96	1691.62
234.18	1736.68
234.40	1732.58
234.61	1757.16
234.83	1632.23
235.05	1648.61
235.27	1781.73
235.49	1740.77
235.70	1685.48
235.92	1834.98
236.14	1697.77
236.36	1861.60
236.58	1607.66
236.79	1746.92
237.01	1740.77
237.23	1660.90
237.45	1839.08
237.67	1662.95
237.88	1718.25
238.10	1834.98
238.32	1638.38
238.54	1693.67
238.76	1689.57
238.97	1634.28
239.19	1671.14
239.41	1753.06
239.63	1789.92
239.85	1644.52
240.06	1671.14
240.28	1634.28
240.50	1845.22
240.72	1765.35
240.93	1687.53
241.15	1724.39
241.37	1701.86
241.59	1744.87
241.81	1748.97
242.02	1710.05
242.24	1695.72
242.46	1699.81
242.68	1681.38
242.89	1732.58
243.11	1689.57
243.33	1787.88
243.55	1652.71
243.76	1767.40
243.98	1632.23
244.20	1689.57
244.42	1753.06
244.64	1673.19
244.85	1699.81
245.07	1642.47
245.29	1755.11
245.51	1773.54
245.72	1755.11
245.94	1697.77
246.16	1783.78
246.38	1808.36
246.59	1701.86
246.81	1689.57
247.03	1591.27
247.24	1607.66
247.46	1705.96
247.68	1785.83
247.90	1730.53
248.11	1722.34
248.33	1718.25
248.55	1650.66
248.77	1720.29
248.98	1755.11
249.20	1832.93
249.42	1779.68
249.64	1779.68
249.85	1669.09
250.07	1636.33
250.29	1742.82
250.50	1761.25
250.72	1677.29
250.94	1722.34
251.16	1849.32
251.37	1804.26
251.59	1724.39
251.81	1742.82
252.02	1722.34
252.24	1685.48
252.46	1777.64
252.68	1671.14
252.89	1695.72
253.11	1693.67
253.33	1806.31
253.54	1804.26
253.76	1619.94
253.98	1761.25
254.20	1734.63
254.41	1654.76
254.63	1665.00
254.85	1656.81
255.06	1689.57
255.28	1777.64
255.50	1732.58
255.71	1662.95
255.93	1673.19
256.15	1642.47
256.36	1730.53
256.58	1665.00
256.80	1738.73
257.02	1652.71
257.23	1712.10
257.45	1689.57
257.67	1746.92
257.88	1636.33
258.10	1777.64
258.32	1718.25
258.53	1714.15
258.75	1789.92
258.97	1607.66
259.18	1726.44
259.40	1785.83
259.62	1728.49
259.83	1820.64
260.05	1791.97
260.27	2021.35
260.48	1771.49
260.70	1658.85
260.92	1703.91
261.13	1679.33
261.35	1740.77
261.57	1718.25
261.78	1701.86
262.00	1626.09
262.22	1722.34
262.43	1626.09
262.65	1732.58
262.86	1722.34
263.08	1877.99
263.30	1759.21
263.51	1628.14
263.73	1726.44
263.95	1761.25
264.16	1730.53
264.38	1679.33
264.60	1712.10
264.81	1736.68
265.03	1787.88
265.25	1697.77
265.46	1660.90
265.68	1791.97
265.89	1689.57
266.11	1652.71
266.33	1800.16
266.54	1748.97
266.76	1722.34
266.98	1781.73
267.19	1871.84
267.41	1781.73
267.62	1718.25
267.84	1621.99
268.06	1789.92
268.27	1730.53
268.49	1857.51
268.70	1748.97
268.92	1769.44
269.14	1693.67
269.35	1705.96
269.57	1701.86
269.79	1683.43
270.00	1820.64
270.22	1812.45
270.43	1640.42
270.65	1515.50
270.87	1658.85
271.08	1701.86
271.30	1755.11
271.51	1710.05
271.73	1759.21
271.95	1740.77
272.16	1734.63
272.38	1701.86
272.59	1607.66
272.81	1730.53
273.02	1738.73
273.24	1714.15
273.46	1832.93
273.67	1718.25
273.89	1544.17
274.10	1593.32
274.32	1753.06
274.54	1705.96
274.75	1654.76
274.97	1697.77
275.18	1767.40
275.40	1763.30
275.61	1718.25
275.83	1802.21
276.05	1683.43
276.26	1722.34
276.48	1742.82
276.69	1722.34
276.91	1578.98
277.12	1763.30
277.34	1734.63
277.55	1738.73
277.77	1773.54
277.99	1732.58
278.20	1624.04
278.42	1734.63
278.63	1667.05
278.85	1722.34
279.06	1681.38
279.28	1757.16
279.49	1834.98
279.71	1683.43
279.93	1710.05
280.14	1779.68
280.36	1665.00
280.57	1783.78
280.79	1705.96
281.00	1697.77
281.22	1685.48
281.43	1734.63
281.65	1609.70
281.86	1675.24
282.08	1791.97
282.29	1787.88
282.51	1662.95
282.73	1695.72
282.94	1605.61
283.16	1724.39
283.37	1824.74
283.59	1728.49
283.80	1742.82
284.02	1744.87
284.23	1718.25
284.45	1697.77
284.66	1595.37
284.88	1697.77
285.09	1695.72
285.31	1724.39
285.52	1806.31
285.74	1624.04
285.95	1787.88
286.17	1742.82
286.38	1753.06
286.60	1667.05
286.81	1665.00
287.03	1589.22
287.24	1683.43
287.46	1757.16
287.67	1824.74
287.89	1832.93
288.10	1673.19
288.32	1728.49
288.53	1738.73
288.75	1744.87
288.96	1751.01
289.18	1656.81
289.39	1724.39
289.61	1746.92
289.82	1777.64
290.04	1767.40
290.25	1675.24
290.47	1714.15
290.68	1660.90
290.90	1767.40
291.11	1658.85
291.33	1824.74
291.54	1650.66
291.76	1634.28
291.97	1683.43
292.18	1730.53
292.40	1669.09
292.61	1726.44
292.83	1890.28
293.04	1695.72
293.26	1681.38
293.47	1740.77
293.69	1675.24
293.90	1667.05
294.12	1820.64
294.33	1648.61
294.55	1701.86
294.76	1722.34
294.97	1867.75
295.19	1812.45
295.40	1695.72
295.62	1742.82
295.83	1751.01
296.05	1705.96
296.26	1738.73
296.48	1669.09
296.69	1712.10
296.90	1712.10
297.12	1722.34
297.33	1853.41
297.55	1716.20
297.76	1689.57
297.98	1744.87
298.19	1781.73
298.41	1746.92
298.62	1603.56
298.83	1806.31
299.05	1812.45
299.26	1636.33
299.48	1621.99
299.69	1660.90
299.90	1708.01
300.12	1654.76
300.33	1716.20
300.55	1683.43
300.76	1802.21
300.98	1636.33
301.19	1802.21
301.40	1722.34
301.62	1714.15
301.83	1800.16
302.05	1732.58
302.26	1626.09
302.47	1736.68
302.69	1697.77
302.90	1697.77
303.12	1599.46
303.33	1785.83
303.54	1816.55
303.76	1701.86
303.97	1716.20
304.19	1779.68
304.40	1646.57
304.61	1800.16
304.83	1757.16
305.04	1800.16
305.26	1775.59
305.47	1705.96
305.68	1763.30
305.90	1654.76
306.11	1826.79
306.33	1656.81
306.54	1615.85
306.75	1746.92
306.97	1578.98
307.18	1656.81
307.39	1748.97
307.61	1816.55
307.82	1740.77
308.04	1757.16
308.25	1701.86
308.46	1742.82
308.68	1714.15
308.89	1730.53
309.10	1779.68
309.32	1802.21
309.53	1740.77
309.74	1662.95
309.96	1685.48
310.17	1818.60
310.39	1585.13
310.60	1673.19
310.81	1712.10
311.03	1591.27
311.24	1726.44
311.45	1705.96
311.67	1873.89
311.88	1742.82
312.09	1724.39
312.31	1726.44
312.52	1701.86
312.73	1740.77
312.95	1572.84
313.16	1615.85
313.37	1820.64
313.59	1789.92
313.80	1822.69
314.01	1783.78
314.23	1656.81
314.44	1681.38
314.65	1634.28
314.87	1714.15
315.08	1718.25
315.29	1648.61
315.51	1626.09
315.72	1654.76
315.93	1779.68
316.15	1753.06
316.36	1714.15
316.57	1658.85
316.79	1751.01
317.00	1738.73
317.21	1761.25
317.43	1705.96
317.64	1716.20
317.85	1593.32
318.07	1695.72
318.28	1724.39
318.49	1771.49
318.70	1908.71
318.92	1808.36
319.13	1859.56
319.34	1861.60
319.56	1787.88
319.77	1773.54
319.98	1822.69
320.20	1761.25
320.41	1701.86
320.62	1757.16
320.83	1656.81
321.05	1857.51
321.26	1703.91
321.47	1703.91
321.69	1783.78
321.90	1632.23
322.11	1742.82
322.32	1667.05
322.54	1730.53
322.75	1630.18
322.96	1847.27
323.18	1624.04
323.39	1624.04
323.60	1722.34
323.81	1755.11
324.03	1677.29
324.24	1738.73
324.45	1734.63
324.66	1669.09
324.88	1720.29
325.09	1808.36
325.30	1697.77
325.52	1775.59
325.73	1691.62
325.94	1708.01
326.15	1658.85
326.37	1619.94
326.58	1720.29
326.79	1839.08
327.00	1632.23
327.22	1746.92
327.43	1650.66
327.64	1636.33
327.85	1753.06
328.07	1701.86
328.28	1806.31
328.49	1691.62
328.70	1660.90
328.92	1738.73
329.13	1699.81
329.34	1763.30
329.55	1748.97
329.76	1783.78
329.98	1669.09
330.19	1736.68
330.40	1710.05
330.61	1714.15
330.83	1787.88
331.04	1673.19
331.25	1695.72
331.46	1636.33
331.68	1716.20
331.89	1763.30
332.10	1695.72
332.31	1624.04
332.52	1679.33
332.74	1789.92
332.95	1615.85
333.16	1687.53
333.37	1744.87
333.58	1689.57
333.80	1798.12
334.01	1626.09
334.22	1669.09
334.43	1607.66
334.64	1740.77
334.86	1558.50
335.07	1726.44
335.28	1769.44
335.49	1656.81
335.70	1785.83
335.92	1800.16
336.13	1839.08
336.34	1757.16
336.55	1720.29
336.76	1685.48
336.98	1609.70
337.19	1701.86
337.40	1796.07
337.61	1935.33
337.82	1703.91
338.04	1712.10
338.25	1665.00
338.46	1726.44
338.67	1718.25
338.88	1646.57
339.09	1646.57
339.31	1656.81
339.52	1611.75
339.73	1632.23
339.94	1789.92
340.15	1693.67
340.36	1658.85
340.58	1712.10
340.79	1630.18
341.00	1718.25
341.21	1626.09
341.42	1804.26
341.63	1671.14
341.85	1744.87
342.06	1732.58
342.27	1689.57
342.48	1708.01
342.69	1658.85
342.90	1718.25
343.12	1732.58
343.33	1705.96
343.54	1691.62
343.75	1816.55
343.96	1738.73
344.17	1640.42
344.38	1695.72
344.60	1636.33
344.81	1695.72
345.02	1689.57
345.23	1744.87
345.44	1787.88
345.65	1748.97
345.86	1775.59
346.07	1759.21
346.29	1703.91
346.50	1789.92
346.71	1687.53
346.92	1818.60
347.13	1935.33
347.34	1648.61
347.55	1699.81
347.76	1753.06
347.98	1626.09
348.19	1738.73
348.40	1804.26
348.61	1767.40
348.82	1800.16
349.03	1763.30
349.24	1691.62
349.45	1798.12
349.66	1611.75
349.88	1665.00
350.09	1665.00
350.30	1767.40
350.51	1777.64
350.72	1740.77
350.93	1697.77
351.14	1697.77
351.35	1644.52
351.56	1730.53
351.77	1726.44
351.99	1718.25
352.20	1828.84
352.41	1783.78
352.62	1619.94
352.83	1724.39
353.04	1703.91
353.25	1742.82
353.46	1699.81
353.67	1720.29
353.88	1587.18
354.09	1699.81
354.30	1718.25
354.52	1732.58
354.73	1742.82
354.94	1689.57
355.15	1691.62
355.36	1867.75
355.57	1724.39
355.78	1828.84
355.99	1667.05
356.20	1693.67
356.41	1859.56
356.62	1759.21
356.83	1794.02
357.04	1822.69
357.25	1593.32
357.46	1605.61
357.68	1603.56
357.89	1656.81
358.10	1730.53
358.31	1675.24
358.52	1658.85
358.73	1628.14
358.94	1667.05
359.15	1722.34
359.36	1761.25
359.57	1673.19
359.78	1746.92
359.99	1761.25
360.20	1665.00
360.41	1714.15
360.62	1746.92
360.83	1710.05
361.04	1681.38
361.25	1687.53
361.46	1824.74
361.67	1755.11
361.88	1724.39
362.09	1722.34
362.30	1718.25
362.51	1701.86
362.72	1714.15
362.93	1728.49
363.14	1751.01
363.35	1730.53
363.56	1650.66
363.78	1738.73
363.99	1779.68
364.20	1693.67
364.41	1779.68
364.62	1818.60
364.83	1757.16
365.04	1654.76
365.25	1683.43
365.46	1865.70
365.67	1642.47
365.88	1589.22
366.09	1722.34
366.30	1720.29
366.51	1712.10
366.72	1681.38
366.93	1746.92
367.14	1691.62
367.35	1867.75
367.56	1703.91
367.77	1748.97
367.98	1751.01
368.18	1800.16
368.39	1683.43
368.60	1640.42
368.81	1673.19
369.02	1685.48
369.23	1673.19
369.44	1542.12
369.65	1667.05
369.86	1722.34
370.07	1769.44
370.28	1714.15
370.49	1689.57
370.70	1740.77
370.91	1677.29
371.12	1669.09
371.33	1734.63
371.54	1746.92
371.75	1701.86
371.96	1611.75
372.17	1695.72
372.38	1775.59
372.59	1759.21
372.80	1691.62
373.01	1798.12
373.22	1701.86
373.43	1695.72
373.64	1708.01
373.85	1779.68
374.06	1845.22
374.26	1722.34
374.47	1740.77
374.68	1841.12
374.89	1763.30
375.10	1669.09
375.31	1732.58
375.52	1765.35
375.73	1677.29
375.94	1648.61
376.15	1826.79
376.36	1648.61
376.57	1705.96
376.78	1665.00
376.99	1699.81
377.20	1765.35
377.40	1595.37
377.61	1869.80
377.82	1699.81
378.03	1845.22
378.24	1728.49
378.45	1708.01
378.66	1712.10
378.87	1624.04
379.08	1648.61
379.29	1753.06
379.50	1755.11
379.71	1673.19
379.91	1730.53
380.12	1650.66
380.33	1798.12
380.54	1714.15
380.75	1791.97
380.96	1679.33
381.17	1785.83
381.38	1720.29
381.59	1787.88
381.80	1632.23
382.00	1830.88
382.21	1691.62
382.42	1798.12
382.63	1857.51
382.84	1804.26
383.05	1794.02
383.26	1791.97
383.47	1693.67
383.68	1787.88
383.88	1808.36
384.09	1748.97
384.30	1843.17
384.51	1763.30
384.72	1642.47
384.93	1595.37
385.14	1685.48
385.35	1740.77
385.55	1587.18
385.76	1783.78
385.97	1685.48
386.18	1689.57
386.39	1617.90
386.60	1703.91
386.81	1685.48
387.02	1638.38
387.22	1669.09
387.43	1732.58
387.64	1796.07
387.85	1908.71
388.06	2277.34
388.27	4229.06
388.48	6578.08
388.68	8038.28
388.89	9246.58
389.10	9402.22
389.31	8208.26
389.52	7395.22
389.73	6678.43
389.93	6164.39
390.14	5629.87
390.35	5152.69
390.56	4446.14
390.77	3719.11
390.98	3061.71
391.18	2527.19
391.39	2181.09
391.60	1841.12
391.81	1796.07
392.02	1728.49
392.23	1880.04
392.43	1677.29
392.64	1898.47
392.85	1701.86
393.06	1779.68
393.27	1763.30
393.47	1767.40
393.68	1697.77
393.89	1691.62
394.10	1720.29
394.31	1671.14
394.52	1632.23
394.72	1636.33
394.93	1859.56
395.14	1693.67
395.35	1775.59
395.56	1589.22
395.76	1751.01
395.97	1736.68
396.18	1759.21
396.39	1851.36
396.60	2011.11
396.80	1877.99
397.01	1861.60
397.22	1859.56
397.43	1849.32
397.64	1796.07
397.84	1806.31
398.05	1871.84
398.26	1705.96
398.47	1861.60
398.67	1738.73
398.88	1720.29
399.09	1742.82
399.30	1628.14
399.51	1789.92
399.71	1628.14
399.92	1677.29
400.13	1654.76
400.34	1736.68
400.54	1757.16
400.75	1841.12
400.96	1820.64
401.17	1806.31
401.37	1724.39
401.58	1744.87
401.79	1654.76
402.00	1820.64
402.21	2072.54
402.41	1982.43
402.62	1972.19
402.83	2007.01
403.04	1937.38
403.24	2029.54
403.45	1841.12
403.66	1865.70
403.87	1859.56
404.07	1902.56
404.28	1875.94
404.49	1910.75
404.70	1761.25
404.90	1714.15
405.11	1759.21
405.32	1814.50
405.52	1693.67
405.73	1691.62
405.94	1683.43
406.15	1748.97
406.35	1685.48
406.56	1757.16
406.77	1683.43
406.98	1724.39
407.18	1634.28
407.39	1769.44
407.60	1710.05
407.80	1736.68
408.01	1671.14
408.22	1751.01
408.43	1691.62
408.63	1751.01
408.84	1773.54
409.05	1697.77
409.25	1673.19
409.46	1714.15
409.67	1693.67
409.88	1720.29
410.08	1703.91
410.29	1691.62
410.50	1730.53
410.70	1724.39
410.91	1636.33
411.12	1720.29
411.32	1736.68
411.53	1605.61
411.74	1787.88
411.95	1796.07
412.15	1783.78
412.36	1779.68
412.57	1781.73
412.77	1787.88
412.98	1693.67
413.19	1697.77
413.39	1699.81
413.60	1773.54
413.81	1748.97
414.01	1646.57
414.22	1720.29
414.43	1742.82
414.63	1720.29
414.84	1736.68
415.05	1824.74
415.25	1574.89
415.46	1736.68
415.67	1673.19
415.87	1744.87
416.08	1806.31
416.29	1671.14
416.49	1691.62
416.70	1630.18
416.91	1667.05
417.11	1683.43
417.32	1828.84
417.53	1753.06
417.73	1628.14
417.94	1646.57
418.15	1771.49
418.35	1705.96
418.56	1675.24
418.77	1847.27
418.97	1671.14
419.18	1642.47
419.38	1591.27
419.59	1771.49
419.80	1800.16
420.00	1665.00
420.21	1787.88
420.42	1783.78
420.62	1740.77
420.83	1667.05
421.04	1703.91
421.24	1665.00
421.45	1728.49
421.65	1697.77
421.86	1667.05
422.07	1701.86
422.27	1742.82
422.48	1773.54
422.69	1703.91
422.89	1724.39
423.10	1650.66
423.30	1699.81
423.51	1697.77
423.72	1804.26
423.92	1763.30
424.13	1673.19
424.33	1724.39
424.54	1732.58
424.75	1740.77
424.95	1873.89
425.16	1759.21
425.36	1783.78
425.57	1740.77
425.78	1759.21
425.98	1855.46
426.19	1748.97
426.39	1656.81
426.60	1683.43
426.81	1796.07
427.01	1781.73
427.22	1632.23
427.42	1667.05
427.63	1665.00
427.83	1697.77
428.04	1787.88
428.25	1822.69
428.45	1708.01
428.66	1771.49
428.86	1728.49
429.07	1646.57
429.28	1679.33
429.48	1695.72
429.69	1638.38
429.89	1773.54
430.10	1644.52
430.30	1839.08
430.51	1773.54
430.71	1648.61
430.92	1748.97
431.13	1675.24
431.33	1798.12
431.54	1699.81
431.74	1814.50
431.95	1867.75
432.15	1722.34
432.36	1734.63
432.56	1787.88
432.77	1861.60
432.98	1832.93
433.18	1753.06
433.39	1675.24
433.59	1814.50
433.80	1834.98
434.00	1738.73
434.21	1673.19
434.41	1708.01
434.62	1798.12
434.82	1654.76
435.03	1626.09
435.23	1763.30
435.44	1593.32
435.64	1683.43
435.85	1798.12
436.06	1789.92
436.26	1683.43
436.47	1812.45
436.67	1722.34
436.88	1769.44
437.08	1679.33
437.29	1802.21
437.49	1650.66
437.70	1740.77
437.90	1701.86
438.11	1830.88
438.31	1779.68
438.52	1822.69
438.72	1861.60
438.93	1914.85
439.13	1775.59
439.34	1837.03
439.54	1783.78
439.75	1744.87
439.95	1851.36
440.16	1712.10
440.36	1816.55
440.57	1742.82
440.77	1722.34
440.98	1730.53
441.18	1755.11
441.39	1687.53
441.59	1660.90
441.80	1912.80
442.00	1673.19
442.21	1877.99
442.41	1679.33
442.62	1816.55
442.82	1687.53
443.02	1738.73
443.23	1748.97
443.43	1777.64
443.64	1806.31
443.84	1626.09
444.05	1798.12
444.25	1691.62
444.46	1734.63
444.66	1732.58
444.87	1888.23
445.07	1669.09
445.28	1726.44
445.48	1746.92
445.69	1800.16
445.89	1759.21
446.09	1826.79
446.30	2039.78
446.50	2648.02
446.71	3680.20
446.91	4165.57
447.12	4605.88
447.32	4665.27
447.53	4257.73
447.73	3794.89
447.93	3536.84
448.14	3295.18
448.34	3114.96
448.55	2752.47
448.75	2848.72
448.96	2703.32
449.16	2365.40
449.36	2283.49
449.57	2002.91
449.77	1941.47
449.98	1816.55
450.18	1812.45
450.39	1802.21
450.59	1728.49
450.79	1724.39
451.00	1748.97
451.20	1824.74
451.41	1751.01
451.61	1832.93
451.81	1755.11
452.02	1699.81
452.22	1771.49
452.43	1697.77
452.63	1724.39
