SpectraSuite Data File
++++++++++++++++++++++++++++++++++++
Date: Mon Jun 06 16:14:17 CEST 2016
User: root
Dark Spectrum Present: No
Reference Spectrum Present: No
Number of Sampled Component Spectra: 1
Spectrometers: USB4C02835
Integration Time (usec): 100000 (USB4C02835)
Spectra Averaged: 1 (USB4C02835)
Boxcar Smoothing: 0 (USB4C02835)
Correct for Electrical Dark: No (USB4C02835)
Strobe/Lamp Enabled: No (USB4C02835)
Correct for Detector Non-linearity: No (USB4C02835)
Correct for Stray Light: No (USB4C02835)
Number of Pixels in Processed Spectrum: 3648
>>>>>Begin Processed Spectral Data<<<<<
177.47	1417.19
177.69	1417.19
177.91	1417.19
178.13	1505.26
178.36	1492.97
178.58	1656.81
178.80	1703.91
179.02	1619.94
179.24	1650.66
179.46	1697.77
179.68	1730.53
179.90	1669.09
180.13	1738.73
180.35	1697.77
180.57	1691.62
180.79	1708.01
181.01	1701.86
181.23	1820.64
181.45	1787.88
181.67	1689.57
181.90	1708.01
182.12	1669.09
182.34	1665.00
182.56	1785.83
182.78	1748.97
183.00	1751.01
183.22	1763.30
183.44	1542.12
183.66	1937.38
183.89	1789.92
184.11	1609.70
184.33	1791.97
184.55	1816.55
184.77	1673.19
184.99	1847.27
185.21	1656.81
185.43	1871.84
185.65	1699.81
185.87	1759.21
186.10	1871.84
186.32	1783.78
186.54	1716.20
186.76	1763.30
186.98	1781.73
187.20	1757.16
187.42	1691.62
187.64	1689.57
187.86	1728.49
188.08	1761.25
188.30	1761.25
188.52	1685.48
188.75	1771.49
188.97	1767.40
189.19	1738.73
189.41	1712.10
189.63	1787.88
189.85	1708.01
190.07	1685.48
190.29	1597.42
190.51	1667.05
190.73	1605.61
190.95	1779.68
191.17	1705.96
191.39	1681.38
191.61	1677.29
191.84	1726.44
192.06	1804.26
192.28	1630.18
192.50	1902.56
192.72	1683.43
192.94	1720.29
193.16	1769.44
193.38	1816.55
193.60	1746.92
193.82	1656.81
194.04	1779.68
194.26	1761.25
194.48	1734.63
194.70	1685.48
194.92	1683.43
195.14	1751.01
195.36	1677.29
195.58	1748.97
195.80	1722.34
196.02	1607.66
196.24	1712.10
196.46	1732.58
196.69	1652.71
196.91	1806.31
197.13	1691.62
197.35	1726.44
197.57	1877.99
197.79	1728.49
198.01	1693.67
198.23	1763.30
198.45	1716.20
198.67	1681.38
198.89	1675.24
199.11	1699.81
199.33	1634.28
199.55	1589.22
199.77	1654.76
199.99	1753.06
200.21	1738.73
200.43	1814.50
200.65	1626.09
200.87	1554.41
201.09	1701.86
201.31	1695.72
201.53	1810.40
201.75	1722.34
201.97	1710.05
202.19	1777.64
202.41	1744.87
202.63	1798.12
202.85	1705.96
203.07	1697.77
203.29	1660.90
203.51	1687.53
203.73	1691.62
203.95	1929.19
204.17	1677.29
204.39	1746.92
204.61	1734.63
204.83	1658.85
205.05	1779.68
205.27	1761.25
205.49	1800.16
205.71	1648.61
205.93	1761.25
206.15	1677.29
206.37	1769.44
206.59	1687.53
206.81	1615.85
207.03	1677.29
207.25	1685.48
207.47	1722.34
207.69	1720.29
207.91	1794.02
208.13	1773.54
208.34	1677.29
208.56	1603.56
208.78	1734.63
209.00	1652.71
209.22	1726.44
209.44	1767.40
209.66	1640.42
209.88	1722.34
210.10	1744.87
210.32	1665.00
210.54	1781.73
210.76	1763.30
210.98	1738.73
211.20	1595.37
211.42	1761.25
211.64	1785.83
211.86	1724.39
212.08	1740.77
212.30	1697.77
212.52	1722.34
212.74	1767.40
212.96	1617.90
213.17	1730.53
213.39	1718.25
213.61	1794.02
213.83	1769.44
214.05	1599.46
214.27	1691.62
214.49	1658.85
214.71	1652.71
214.93	1765.35
215.15	1615.85
215.37	1691.62
215.59	1621.99
215.81	1673.19
216.03	1787.88
216.24	1712.10
216.46	1716.20
216.68	1755.11
216.90	1800.16
217.12	1781.73
217.34	1732.58
217.56	1652.71
217.78	1787.88
218.00	1757.16
218.22	1738.73
218.44	1765.35
218.66	1841.12
218.87	1869.80
219.09	1652.71
219.31	1681.38
219.53	1644.52
219.75	1732.58
219.97	1779.68
220.19	1693.67
220.41	1773.54
220.63	1787.88
220.85	1722.34
221.06	1708.01
221.28	1777.64
221.50	1763.30
221.72	1734.63
221.94	1728.49
222.16	1685.48
222.38	1751.01
222.60	1705.96
222.82	1712.10
223.03	1796.07
223.25	1566.70
223.47	1779.68
223.69	1845.22
223.91	1730.53
224.13	1691.62
224.35	1650.66
224.57	1834.98
224.78	1753.06
225.00	1699.81
225.22	1689.57
225.44	1689.57
225.66	1769.44
225.88	1703.91
226.10	1882.08
226.32	1728.49
226.53	1759.21
226.75	1648.61
226.97	1695.72
227.19	1677.29
227.41	1765.35
227.63	1753.06
227.85	1611.75
228.06	1728.49
228.28	1710.05
228.50	1722.34
228.72	1626.09
228.94	1691.62
229.16	1603.56
229.37	1660.90
229.59	1732.58
229.81	1767.40
230.03	1753.06
230.25	1583.08
230.47	1671.14
230.69	1701.86
230.90	1779.68
231.12	1695.72
231.34	1726.44
231.56	1773.54
231.78	1640.42
232.00	1738.73
232.21	1673.19
232.43	1740.77
232.65	1630.18
232.87	1716.20
233.09	1667.05
233.30	1769.44
233.52	1740.77
233.74	1673.19
233.96	1708.01
234.18	1667.05
234.40	1714.15
234.61	1822.69
234.83	1574.89
235.05	1605.61
235.27	1892.32
235.49	1746.92
235.70	1650.66
235.92	1763.30
236.14	1703.91
236.36	1873.89
236.58	1662.95
236.79	1736.68
237.01	1613.80
237.23	1765.35
237.45	1826.79
237.67	1634.28
237.88	1691.62
238.10	1722.34
238.32	1624.04
238.54	1677.29
238.76	1751.01
238.97	1638.38
239.19	1656.81
239.41	1710.05
239.63	1757.16
239.85	1589.22
240.06	1679.33
240.28	1740.77
240.50	1769.44
240.72	1705.96
240.93	1736.68
241.15	1716.20
241.37	1708.01
241.59	1794.02
241.81	1671.14
242.02	1687.53
242.24	1677.29
242.46	1746.92
242.68	1654.76
242.89	1746.92
243.11	1734.63
243.33	1695.72
243.55	1705.96
243.76	1783.78
243.98	1726.44
244.20	1720.29
244.42	1708.01
244.64	1656.81
244.85	1705.96
245.07	1636.33
245.29	1789.92
245.51	1753.06
245.72	1687.53
245.94	1775.59
246.16	1767.40
246.38	1697.77
246.59	1738.73
246.81	1658.85
247.03	1640.42
247.24	1648.61
247.46	1621.99
247.68	1708.01
247.90	1806.31
248.11	1695.72
248.33	1726.44
248.55	1730.53
248.77	1683.43
248.98	1734.63
249.20	1912.80
249.42	1718.25
249.64	1732.58
249.85	1642.47
250.07	1755.11
250.29	1787.88
250.50	1779.68
250.72	1611.75
250.94	1716.20
251.16	1773.54
251.37	1791.97
251.59	1730.53
251.81	1771.49
252.02	1683.43
252.24	1683.43
252.46	1796.07
252.68	1701.86
252.89	1718.25
253.11	1644.52
253.33	1845.22
253.54	1787.88
253.76	1621.99
253.98	1673.19
254.20	1746.92
254.41	1611.75
254.63	1689.57
254.85	1728.49
255.06	1808.36
255.28	1718.25
255.50	1755.11
255.71	1722.34
255.93	1705.96
256.15	1701.86
256.36	1746.92
256.58	1650.66
256.80	1701.86
257.02	1697.77
257.23	1681.38
257.45	1828.84
257.67	1800.16
257.88	1689.57
258.10	1783.78
258.32	1812.45
258.53	1763.30
258.75	1753.06
258.97	1665.00
259.18	1681.38
259.40	1730.53
259.62	1843.17
259.83	1767.40
260.05	1720.29
260.27	2041.82
260.48	1636.33
260.70	1724.39
260.92	1738.73
261.13	1728.49
261.35	1777.64
261.57	1767.40
261.78	1650.66
262.00	1626.09
262.22	1755.11
262.43	1617.90
262.65	1642.47
262.86	1658.85
263.08	1849.32
263.30	1658.85
263.51	1556.46
263.73	1673.19
263.95	1755.11
264.16	1710.05
264.38	1705.96
264.60	1791.97
264.81	1691.62
265.03	1787.88
265.25	1765.35
265.46	1755.11
265.68	1796.07
265.89	1837.03
266.11	1646.57
266.33	1732.58
266.54	1777.64
266.76	1716.20
266.98	1703.91
267.19	1808.36
267.41	1791.97
267.62	1708.01
267.84	1576.94
268.06	1695.72
268.27	1742.82
268.49	1785.83
268.70	1755.11
268.92	1781.73
269.14	1726.44
269.35	1603.56
269.57	1681.38
269.79	1777.64
270.00	1703.91
270.22	1699.81
270.43	1726.44
270.65	1591.27
270.87	1726.44
271.08	1683.43
271.30	1714.15
271.51	1726.44
271.73	1814.50
271.95	1748.97
272.16	1714.15
272.38	1751.01
272.59	1746.92
272.81	1748.97
273.02	1736.68
273.24	1734.63
273.46	1765.35
273.67	1669.09
273.89	1681.38
274.10	1703.91
274.32	1767.40
274.54	1720.29
274.75	1687.53
274.97	1724.39
275.18	1714.15
275.40	1718.25
275.61	1738.73
275.83	1748.97
276.05	1628.14
276.26	1628.14
276.48	1808.36
276.69	1728.49
276.91	1650.66
277.12	1697.77
277.34	1691.62
277.55	1740.77
277.77	1712.10
277.99	1742.82
278.20	1677.29
278.42	1669.09
278.63	1654.76
278.85	1695.72
279.06	1656.81
279.28	1771.49
279.49	1710.05
279.71	1714.15
279.93	1650.66
280.14	1730.53
280.36	1658.85
280.57	1714.15
280.79	1712.10
281.00	1730.53
281.22	1640.42
281.43	1769.44
281.65	1667.05
281.86	1671.14
282.08	1730.53
282.29	1777.64
282.51	1640.42
282.73	1660.90
282.94	1593.32
283.16	1783.78
283.37	1759.21
283.59	1734.63
283.80	1720.29
284.02	1712.10
284.23	1767.40
284.45	1742.82
284.66	1626.09
284.88	1640.42
285.09	1744.87
285.31	1730.53
285.52	1751.01
285.74	1578.98
285.95	1775.59
286.17	1705.96
286.38	1714.15
286.60	1697.77
286.81	1722.34
287.03	1693.67
287.24	1712.10
287.46	1718.25
287.67	1751.01
287.89	1912.80
288.10	1640.42
288.32	1667.05
288.53	1796.07
288.75	1726.44
288.96	1734.63
289.18	1634.28
289.39	1679.33
289.61	1785.83
289.82	1900.52
290.04	1816.55
290.25	1693.67
290.47	1751.01
290.68	1685.48
290.90	1765.35
291.11	1705.96
291.33	1767.40
291.54	1638.38
291.76	1746.92
291.97	1759.21
292.18	1720.29
292.40	1648.61
292.61	1613.80
292.83	1798.12
293.04	1718.25
293.26	1726.44
293.47	1662.95
293.69	1714.15
293.90	1736.68
294.12	1791.97
294.33	1701.86
294.55	1712.10
294.76	1779.68
294.97	1806.31
295.19	1853.41
295.40	1701.86
295.62	1697.77
295.83	1720.29
296.05	1609.70
296.26	1816.55
296.48	1675.24
296.69	1701.86
296.90	1738.73
297.12	1687.53
297.33	1769.44
297.55	1705.96
297.76	1769.44
297.98	1736.68
298.19	1722.34
298.41	1669.09
298.62	1636.33
298.83	1779.68
299.05	1757.16
299.26	1730.53
299.48	1710.05
299.69	1794.02
299.90	1662.95
300.12	1628.14
300.33	1697.77
300.55	1751.01
300.76	1744.87
300.98	1630.18
301.19	1822.69
301.40	1669.09
301.62	1699.81
301.83	1677.29
302.05	1703.91
302.26	1726.44
302.47	1697.77
302.69	1611.75
302.90	1679.33
303.12	1595.37
303.33	1742.82
303.54	1845.22
303.76	1673.19
303.97	1640.42
304.19	1787.88
304.40	1638.38
304.61	1722.34
304.83	1748.97
305.04	1736.68
305.26	1712.10
305.47	1695.72
305.68	1726.44
305.90	1667.05
306.11	1736.68
306.33	1662.95
306.54	1685.48
306.75	1648.61
306.97	1607.66
307.18	1640.42
307.39	1703.91
307.61	1730.53
307.82	1648.61
308.04	1691.62
308.25	1597.42
308.46	1714.15
308.68	1767.40
308.89	1673.19
309.10	1806.31
309.32	1638.38
309.53	1710.05
309.74	1718.25
309.96	1759.21
310.17	1732.58
310.39	1699.81
310.60	1687.53
310.81	1677.29
311.03	1726.44
311.24	1771.49
311.45	1677.29
311.67	1783.78
311.88	1746.92
312.09	1634.28
312.31	1665.00
312.52	1658.85
312.73	1691.62
312.95	1552.36
313.16	1699.81
313.37	1828.84
313.59	1636.33
313.80	1753.06
314.01	1816.55
314.23	1665.00
314.44	1613.80
314.65	1658.85
314.87	1634.28
315.08	1693.67
315.29	1701.86
315.51	1673.19
315.72	1669.09
315.93	1767.40
316.15	1814.50
316.36	1714.15
316.57	1753.06
316.79	1705.96
317.00	1648.61
317.21	1763.30
317.43	1658.85
317.64	1710.05
317.85	1689.57
318.07	1656.81
318.28	1673.19
318.49	1771.49
318.70	1894.37
318.92	1871.84
319.13	1855.46
319.34	1880.04
319.56	1783.78
319.77	1738.73
319.98	1814.50
320.20	1751.01
320.41	1785.83
320.62	1791.97
320.83	1648.61
321.05	1861.60
321.26	1755.11
321.47	1794.02
321.69	1699.81
321.90	1689.57
322.11	1691.62
322.32	1738.73
322.54	1740.77
322.75	1583.08
322.96	1794.02
323.18	1660.90
323.39	1626.09
323.60	1697.77
323.81	1732.58
324.03	1658.85
324.24	1640.42
324.45	1671.14
324.66	1644.52
324.88	1736.68
325.09	1798.12
325.30	1701.86
325.52	1798.12
325.73	1753.06
325.94	1689.57
326.15	1636.33
326.37	1605.61
326.58	1771.49
326.79	1761.25
327.00	1640.42
327.22	1736.68
327.43	1679.33
327.64	1593.32
327.85	1771.49
328.07	1720.29
328.28	1796.07
328.49	1636.33
328.70	1636.33
328.92	1726.44
329.13	1662.95
329.34	1751.01
329.55	1857.51
329.76	1728.49
329.98	1775.59
330.19	1699.81
330.40	1812.45
330.61	1716.20
330.83	1841.12
331.04	1628.14
331.25	1732.58
331.46	1746.92
331.68	1615.85
331.89	1773.54
332.10	1755.11
332.31	1677.29
332.52	1732.58
332.74	1720.29
332.95	1658.85
333.16	1677.29
333.37	1730.53
333.58	1681.38
333.80	1738.73
334.01	1646.57
334.22	1742.82
334.43	1720.29
334.64	1646.57
334.86	1697.77
335.07	1681.38
335.28	1837.03
335.49	1689.57
335.70	1683.43
335.92	1748.97
336.13	1818.60
336.34	1744.87
336.55	1732.58
336.76	1740.77
336.98	1603.56
337.19	1683.43
337.40	1849.32
337.61	1828.84
337.82	1683.43
338.04	1759.21
338.25	1599.46
338.46	1714.15
338.67	1705.96
338.88	1705.96
339.09	1632.23
339.31	1662.95
339.52	1621.99
339.73	1662.95
339.94	1843.17
340.15	1771.49
340.36	1646.57
340.58	1699.81
340.79	1673.19
341.00	1763.30
341.21	1677.29
341.42	1767.40
341.63	1640.42
341.85	1796.07
342.06	1701.86
342.27	1601.51
342.48	1759.21
342.69	1624.04
342.90	1730.53
343.12	1699.81
343.33	1683.43
343.54	1703.91
343.75	1839.08
343.96	1691.62
344.17	1697.77
344.38	1673.19
344.60	1697.77
344.81	1632.23
345.02	1746.92
345.23	1726.44
345.44	1771.49
345.65	1730.53
345.86	1794.02
346.07	1742.82
346.29	1660.90
346.50	1734.63
346.71	1677.29
346.92	1822.69
347.13	1841.12
347.34	1724.39
347.55	1681.38
347.76	1685.48
347.98	1617.90
348.19	1710.05
348.40	1773.54
348.61	1624.04
348.82	1808.36
349.03	1759.21
349.24	1665.00
349.45	1826.79
349.66	1669.09
349.88	1667.05
350.09	1689.57
350.30	1748.97
350.51	1742.82
350.72	1734.63
350.93	1667.05
351.14	1644.52
351.35	1738.73
351.56	1685.48
351.77	1708.01
351.99	1759.21
352.20	1794.02
352.41	1759.21
352.62	1642.47
352.83	1681.38
353.04	1726.44
353.25	1599.46
353.46	1769.44
353.67	1828.84
353.88	1556.46
354.09	1751.01
354.30	1746.92
354.52	1769.44
354.73	1687.53
354.94	1662.95
355.15	1701.86
355.36	1824.74
355.57	1738.73
355.78	1759.21
355.99	1578.98
356.20	1648.61
356.41	1722.34
356.62	1705.96
356.83	1730.53
357.04	1800.16
357.25	1619.94
357.46	1734.63
357.68	1619.94
357.89	1712.10
358.10	1787.88
358.31	1724.39
358.52	1714.15
358.73	1681.38
358.94	1638.38
359.15	1689.57
359.36	1783.78
359.57	1703.91
359.78	1718.25
359.99	1710.05
360.20	1642.47
360.41	1712.10
360.62	1744.87
360.83	1820.64
361.04	1718.25
361.25	1761.25
361.46	1849.32
361.67	1730.53
361.88	1800.16
362.09	1814.50
362.30	1705.96
362.51	1738.73
362.72	1818.60
362.93	1755.11
363.14	1734.63
363.35	1705.96
363.56	1689.57
363.78	1751.01
363.99	1742.82
364.20	1615.85
364.41	1658.85
364.62	1824.74
364.83	1734.63
365.04	1689.57
365.25	1732.58
365.46	1748.97
365.67	1648.61
365.88	1656.81
366.09	1689.57
366.30	1716.20
366.51	1798.12
366.72	1714.15
366.93	1732.58
367.14	1748.97
367.35	1820.64
367.56	1712.10
367.77	1853.41
367.98	1673.19
368.18	1789.92
368.39	1759.21
368.60	1656.81
368.81	1787.88
369.02	1708.01
369.23	1683.43
369.44	1634.28
369.65	1710.05
369.86	1759.21
370.07	1808.36
370.28	1675.24
370.49	1742.82
370.70	1697.77
370.91	1603.56
371.12	1685.48
371.33	1751.01
371.54	1710.05
371.75	1806.31
371.96	1599.46
372.17	1697.77
372.38	1714.15
372.59	1787.88
372.80	1720.29
373.01	1687.53
373.22	1740.77
373.43	1738.73
373.64	1636.33
373.85	1834.98
374.06	1832.93
374.26	1787.88
374.47	1701.86
374.68	1779.68
374.89	1712.10
375.10	1787.88
375.31	1755.11
375.52	1714.15
375.73	1699.81
375.94	1705.96
376.15	1773.54
376.36	1660.90
376.57	1693.67
376.78	1734.63
376.99	1740.77
377.20	1816.55
377.40	1742.82
377.61	1773.54
377.82	1742.82
378.03	1859.56
378.24	1763.30
378.45	1654.76
378.66	1724.39
378.87	1619.94
379.08	1665.00
379.29	1728.49
379.50	1798.12
379.71	1652.71
379.91	1796.07
380.12	1714.15
380.33	1734.63
380.54	1716.20
380.75	1730.53
380.96	1716.20
381.17	1841.12
381.38	1705.96
381.59	1667.05
381.80	1697.77
382.00	1927.14
382.21	1677.29
382.42	1828.84
382.63	1875.94
382.84	1763.30
383.05	1826.79
383.26	1791.97
383.47	1679.33
383.68	1759.21
383.88	1728.49
384.09	1751.01
384.30	1822.69
384.51	1689.57
384.72	1650.66
384.93	1689.57
385.14	1728.49
385.35	1828.84
385.55	1585.13
385.76	1818.60
385.97	1779.68
386.18	1681.38
386.39	1710.05
386.60	1769.44
386.81	1652.71
387.02	1734.63
387.22	1683.43
387.43	1777.64
387.64	1791.97
387.85	1898.47
388.06	2142.18
388.27	4204.48
388.48	6715.29
388.68	7976.84
388.89	9598.83
389.10	9828.20
389.31	8640.38
389.52	7552.91
389.73	6719.39
389.93	6176.67
390.14	5857.19
390.35	5218.22
390.56	4560.83
390.77	3721.16
390.98	3102.67
391.18	2516.95
391.39	2164.70
391.60	1845.22
391.81	1845.22
392.02	1697.77
392.23	1857.51
392.43	1789.92
392.64	1759.21
392.85	1693.67
393.06	1791.97
393.27	1765.35
393.47	1687.53
393.68	1683.43
393.89	1714.15
394.10	1804.26
394.31	1681.38
394.52	1665.00
394.72	1683.43
394.93	1769.44
395.14	1613.80
395.35	1726.44
395.56	1689.57
395.76	1787.88
395.97	1849.32
396.18	1865.70
396.39	1818.60
396.60	1947.62
396.80	1902.56
397.01	1755.11
397.22	1837.03
397.43	1853.41
397.64	1773.54
397.84	1755.11
398.05	1837.03
398.26	1837.03
398.47	1787.88
398.67	1828.84
398.88	1828.84
399.09	1722.34
399.30	1710.05
399.51	1794.02
399.71	1724.39
399.92	1755.11
400.13	1685.48
400.34	1771.49
400.54	1744.87
400.75	1873.89
400.96	1714.15
401.17	1869.80
401.37	1748.97
401.58	1753.06
401.79	1728.49
402.00	1959.91
402.21	2095.07
402.41	1998.82
402.62	1994.72
402.83	1986.53
403.04	2023.39
403.24	2154.46
403.45	1841.12
403.66	1947.62
403.87	1892.32
404.07	1882.08
404.28	1900.52
404.49	1892.32
404.70	1748.97
404.90	1834.98
405.11	1742.82
405.32	1734.63
405.52	1695.72
405.73	1710.05
405.94	1693.67
406.15	1705.96
406.35	1777.64
406.56	1791.97
406.77	1734.63
406.98	1699.81
407.18	1611.75
407.39	1816.55
407.60	1658.85
407.80	1748.97
408.01	1734.63
408.22	1724.39
408.43	1687.53
408.63	1708.01
408.84	1703.91
409.05	1726.44
409.25	1640.42
409.46	1654.76
409.67	1738.73
409.88	1689.57
410.08	1705.96
410.29	1644.52
410.50	1769.44
410.70	1765.35
410.91	1667.05
411.12	1751.01
411.32	1773.54
411.53	1695.72
411.74	1849.32
411.95	1796.07
412.15	1775.59
412.36	1794.02
412.57	1769.44
412.77	1810.40
412.98	1751.01
413.19	1738.73
413.39	1740.77
413.60	1767.40
413.81	1763.30
414.01	1681.38
414.22	1746.92
414.43	1697.77
414.63	1662.95
414.84	1763.30
415.05	1740.77
415.25	1630.18
415.46	1779.68
415.67	1673.19
415.87	1708.01
416.08	1716.20
416.29	1761.25
416.49	1656.81
416.70	1718.25
416.91	1705.96
417.11	1679.33
417.32	1669.09
417.53	1701.86
417.73	1765.35
417.94	1769.44
418.15	1781.73
418.35	1771.49
418.56	1740.77
418.77	1820.64
418.97	1763.30
419.18	1744.87
419.38	1595.37
419.59	1703.91
419.80	1761.25
420.00	1705.96
420.21	1742.82
420.42	1771.49
420.62	1699.81
420.83	1755.11
421.04	1658.85
421.24	1736.68
421.45	1775.59
421.65	1779.68
421.86	1712.10
422.07	1763.30
422.27	1767.40
422.48	1714.15
422.69	1669.09
422.89	1716.20
423.10	1703.91
423.30	1712.10
423.51	1708.01
423.72	1738.73
423.92	1783.78
424.13	1595.37
424.33	1697.77
424.54	1816.55
424.75	1708.01
424.95	1763.30
425.16	1761.25
425.36	1730.53
425.57	1748.97
425.78	1685.48
425.98	1796.07
426.19	1652.71
426.39	1720.29
426.60	1789.92
426.81	1843.17
427.01	1769.44
427.22	1665.00
427.42	1572.84
427.63	1689.57
427.83	1804.26
428.04	1826.79
428.25	1769.44
428.45	1832.93
428.66	1775.59
428.86	1705.96
429.07	1673.19
429.28	1724.39
429.48	1726.44
429.69	1687.53
429.89	1738.73
430.10	1630.18
430.30	1763.30
430.51	1769.44
430.71	1634.28
430.92	1718.25
431.13	1667.05
431.33	1759.21
431.54	1712.10
431.74	1812.45
431.95	1855.46
432.15	1673.19
432.36	1775.59
432.56	1837.03
432.77	1851.36
432.98	1849.32
433.18	1744.87
433.39	1671.14
433.59	1693.67
433.80	1830.88
434.00	1847.27
434.21	1722.34
434.41	1681.38
434.62	1816.55
434.82	1640.42
435.03	1734.63
435.23	1748.97
435.44	1667.05
435.64	1703.91
435.85	1751.01
436.06	1726.44
436.26	1861.60
436.47	1699.81
436.67	1746.92
436.88	1691.62
437.08	1804.26
437.29	1828.84
437.49	1755.11
437.70	1791.97
437.90	1662.95
438.11	1816.55
438.31	1800.16
438.52	1791.97
438.72	1847.27
438.93	1894.37
439.13	1732.58
439.34	1779.68
439.54	1699.81
439.75	1796.07
439.95	1789.92
440.16	1738.73
440.36	1779.68
440.57	1789.92
440.77	1728.49
440.98	1812.45
441.18	1775.59
441.39	1767.40
441.59	1730.53
441.80	1824.74
442.00	1771.49
442.21	1816.55
442.41	1699.81
442.62	1828.84
442.82	1665.00
443.02	1822.69
443.23	1763.30
443.43	1742.82
443.64	1886.18
443.84	1730.53
444.05	1822.69
444.25	1705.96
444.46	1734.63
444.66	1791.97
444.87	1787.88
445.07	1675.24
445.28	1814.50
445.48	1855.46
445.69	1763.30
445.89	1847.27
446.09	1769.44
446.30	2050.02
446.50	2613.21
446.71	3825.61
446.91	4343.74
447.12	4732.86
447.32	4831.16
447.53	4304.83
447.73	3827.65
447.93	3581.90
448.14	3354.57
448.34	3147.73
448.55	2854.87
448.75	2840.53
448.96	2725.85
449.16	2306.01
449.36	2277.34
449.57	2121.70
449.77	1910.75
449.98	1832.93
450.18	1832.93
450.39	1871.84
450.59	1722.34
450.79	1656.81
451.00	1730.53
451.20	1890.28
451.41	1730.53
451.61	1812.45
451.81	1740.77
452.02	1746.92
452.22	1708.01
452.43	1736.68
452.63	1677.29
