SpectraSuite Data File
++++++++++++++++++++++++++++++++++++
Date: Mon Jun 06 17:39:57 CEST 2016
User: root
Dark Spectrum Present: No
Reference Spectrum Present: No
Number of Sampled Component Spectra: 1
Spectrometers: USB4C02835
Integration Time (usec): 100000 (USB4C02835)
Spectra Averaged: 1 (USB4C02835)
Boxcar Smoothing: 0 (USB4C02835)
Correct for Electrical Dark: No (USB4C02835)
Strobe/Lamp Enabled: No (USB4C02835)
Correct for Detector Non-linearity: No (USB4C02835)
Correct for Stray Light: No (USB4C02835)
Number of Pixels in Processed Spectrum: 3648
>>>>>Begin Processed Spectral Data<<<<<
177.47	1486.83
177.69	1486.83
177.91	1486.83
178.13	1488.87
178.36	1411.05
178.58	1732.58
178.80	1761.25
179.02	1658.85
179.24	1650.66
179.46	1697.77
179.68	1683.43
179.90	1732.58
180.13	1646.57
180.35	1685.48
180.57	1740.77
180.79	1775.59
181.01	1671.14
181.23	1787.88
181.45	1730.53
181.67	1714.15
181.90	1732.58
182.12	1677.29
182.34	1648.61
182.56	1722.34
182.78	1734.63
183.00	1693.67
183.22	1722.34
183.44	1587.18
183.66	1871.84
183.89	1734.63
184.11	1720.29
184.33	1812.45
184.55	1798.12
184.77	1738.73
184.99	1738.73
185.21	1648.61
185.43	1824.74
185.65	1734.63
185.87	1708.01
186.10	1943.52
186.32	1869.80
186.54	1773.54
186.76	1810.40
186.98	1675.24
187.20	1736.68
187.42	1677.29
187.64	1662.95
187.86	1744.87
188.08	1781.73
188.30	1738.73
188.52	1734.63
188.75	1783.78
188.97	1804.26
189.19	1636.33
189.41	1716.20
189.63	1683.43
189.85	1748.97
190.07	1617.90
190.29	1660.90
190.51	1767.40
190.73	1658.85
190.95	1753.06
191.17	1695.72
191.39	1660.90
191.61	1667.05
191.84	1722.34
192.06	1738.73
192.28	1634.28
192.50	1906.66
192.72	1777.64
192.94	1671.14
193.16	1734.63
193.38	1742.82
193.60	1634.28
193.82	1714.15
194.04	1744.87
194.26	1753.06
194.48	1757.16
194.70	1648.61
194.92	1726.44
195.14	1779.68
195.36	1624.04
195.58	1681.38
195.80	1757.16
196.02	1730.53
196.24	1740.77
196.46	1720.29
196.69	1677.29
196.91	1802.21
197.13	1685.48
197.35	1681.38
197.57	1761.25
197.79	1730.53
198.01	1728.49
198.23	1791.97
198.45	1755.11
198.67	1683.43
198.89	1748.97
199.11	1763.30
199.33	1695.72
199.55	1572.84
199.77	1761.25
199.99	1814.50
200.21	1695.72
200.43	1748.97
200.65	1648.61
200.87	1595.37
201.09	1732.58
201.31	1675.24
201.53	1802.21
201.75	1718.25
201.97	1722.34
202.19	1720.29
202.41	1755.11
202.63	1832.93
202.85	1716.20
203.07	1673.19
203.29	1671.14
203.51	1667.05
203.73	1736.68
203.95	1943.52
204.17	1744.87
204.39	1746.92
204.61	1699.81
204.83	1673.19
205.05	1767.40
205.27	1738.73
205.49	1849.32
205.71	1779.68
205.93	1581.03
206.15	1687.53
206.37	1679.33
206.59	1669.09
206.81	1628.14
207.03	1619.94
207.25	1658.85
207.47	1728.49
207.69	1716.20
207.91	1779.68
208.13	1822.69
208.34	1615.85
208.56	1691.62
208.78	1714.15
209.00	1669.09
209.22	1732.58
209.44	1722.34
209.66	1732.58
209.88	1734.63
210.10	1681.38
210.32	1734.63
210.54	1877.99
210.76	1718.25
210.98	1826.79
211.20	1685.48
211.42	1775.59
211.64	1820.64
211.86	1759.21
212.08	1730.53
212.30	1708.01
212.52	1658.85
212.74	1726.44
212.96	1642.47
213.17	1744.87
213.39	1753.06
213.61	1812.45
213.83	1714.15
214.05	1701.86
214.27	1716.20
214.49	1665.00
214.71	1675.24
214.93	1763.30
215.15	1671.14
215.37	1804.26
215.59	1587.18
215.81	1861.60
216.03	1765.35
216.24	1755.11
216.46	1720.29
216.68	1701.86
216.90	1724.39
217.12	1822.69
217.34	1683.43
217.56	1712.10
217.78	1689.57
218.00	1746.92
218.22	1728.49
218.44	1734.63
218.66	1701.86
218.87	1820.64
219.09	1638.38
219.31	1779.68
219.53	1787.88
219.75	1732.58
219.97	1716.20
220.19	1687.53
220.41	1712.10
220.63	1779.68
220.85	1742.82
221.06	1667.05
221.28	1853.41
221.50	1736.68
221.72	1771.49
221.94	1757.16
222.16	1691.62
222.38	1746.92
222.60	1687.53
222.82	1722.34
223.03	1726.44
223.25	1665.00
223.47	1695.72
223.69	1804.26
223.91	1746.92
224.13	1677.29
224.35	1638.38
224.57	1771.49
224.78	1761.25
225.00	1716.20
225.22	1740.77
225.44	1658.85
225.66	1722.34
225.88	1660.90
226.10	1789.92
226.32	1791.97
226.53	1871.84
226.75	1726.44
226.97	1683.43
227.19	1708.01
227.41	1632.23
227.63	1710.05
227.85	1652.71
228.06	1714.15
228.28	1728.49
228.50	1716.20
228.72	1681.38
228.94	1759.21
229.16	1642.47
229.37	1595.37
229.59	1705.96
229.81	1796.07
230.03	1695.72
230.25	1640.42
230.47	1654.76
230.69	1581.03
230.90	1746.92
231.12	1669.09
231.34	1712.10
231.56	1738.73
231.78	1693.67
232.00	1716.20
232.21	1710.05
232.43	1734.63
232.65	1611.75
232.87	1732.58
233.09	1691.62
233.30	1679.33
233.52	1798.12
233.74	1665.00
233.96	1691.62
234.18	1751.01
234.40	1708.01
234.61	1888.23
234.83	1642.47
235.05	1624.04
235.27	1918.95
235.49	1839.08
235.70	1734.63
235.92	1791.97
236.14	1769.44
236.36	1859.56
236.58	1617.90
236.79	1755.11
237.01	1675.24
237.23	1677.29
237.45	1853.41
237.67	1701.86
237.88	1746.92
238.10	1761.25
238.32	1710.05
238.54	1742.82
238.76	1751.01
238.97	1724.39
239.19	1703.91
239.41	1779.68
239.63	1818.60
239.85	1642.47
240.06	1724.39
240.28	1703.91
240.50	1751.01
240.72	1675.24
240.93	1693.67
241.15	1845.22
241.37	1748.97
241.59	1767.40
241.81	1648.61
242.02	1699.81
242.24	1736.68
242.46	1753.06
242.68	1712.10
242.89	1697.77
243.11	1712.10
243.33	1691.62
243.55	1697.77
243.76	1693.67
243.98	1722.34
244.20	1767.40
244.42	1695.72
244.64	1675.24
244.85	1665.00
245.07	1665.00
245.29	1800.16
245.51	1744.87
245.72	1714.15
245.94	1779.68
246.16	1730.53
246.38	1705.96
246.59	1638.38
246.81	1644.52
247.03	1671.14
247.24	1685.48
247.46	1656.81
247.68	1714.15
247.90	1605.61
248.11	1691.62
248.33	1755.11
248.55	1669.09
248.77	1708.01
248.98	1755.11
249.20	1900.52
249.42	1724.39
249.64	1757.16
249.85	1703.91
250.07	1736.68
250.29	1757.16
250.50	1730.53
250.72	1669.09
250.94	1789.92
251.16	1853.41
251.37	1722.34
251.59	1775.59
251.81	1746.92
252.02	1787.88
252.24	1744.87
252.46	1871.84
252.68	1658.85
252.89	1738.73
253.11	1632.23
253.33	1810.40
253.54	1730.53
253.76	1605.61
253.98	1693.67
254.20	1763.30
254.41	1705.96
254.63	1716.20
254.85	1673.19
255.06	1783.78
255.28	1665.00
255.50	1630.18
255.71	1662.95
255.93	1656.81
256.15	1675.24
256.36	1718.25
256.58	1726.44
256.80	1779.68
257.02	1714.15
257.23	1656.81
257.45	1798.12
257.67	1789.92
257.88	1753.06
258.10	1716.20
258.32	1748.97
258.53	1650.66
258.75	1802.21
258.97	1634.28
259.18	1791.97
259.40	1720.29
259.62	1771.49
259.83	1798.12
260.05	1644.52
260.27	1953.76
260.48	1800.16
260.70	1634.28
260.92	1722.34
261.13	1708.01
261.35	1710.05
261.57	1759.21
261.78	1570.79
262.00	1628.14
262.22	1925.09
262.43	1708.01
262.65	1660.90
262.86	1677.29
263.08	1820.64
263.30	1734.63
263.51	1685.48
263.73	1695.72
263.95	1757.16
264.16	1705.96
264.38	1632.23
264.60	1789.92
264.81	1736.68
265.03	1773.54
265.25	1787.88
265.46	1656.81
265.68	1708.01
265.89	1802.21
266.11	1642.47
266.33	1810.40
266.54	1845.22
266.76	1804.26
266.98	1757.16
267.19	1789.92
267.41	1802.21
267.62	1710.05
267.84	1624.04
268.06	1708.01
268.27	1734.63
268.49	1779.68
268.70	1746.92
268.92	1679.33
269.14	1642.47
269.35	1742.82
269.57	1710.05
269.79	1763.30
270.00	1705.96
270.22	1710.05
270.43	1685.48
270.65	1671.14
270.87	1685.48
271.08	1765.35
271.30	1794.02
271.51	1732.58
271.73	1785.83
271.95	1798.12
272.16	1732.58
272.38	1734.63
272.59	1665.00
272.81	1751.01
273.02	1738.73
273.24	1718.25
273.46	1810.40
273.67	1656.81
273.89	1660.90
274.10	1681.38
274.32	1703.91
274.54	1771.49
274.75	1753.06
274.97	1695.72
275.18	1746.92
275.40	1755.11
275.61	1738.73
275.83	1728.49
276.05	1673.19
276.26	1705.96
276.48	1779.68
276.69	1685.48
276.91	1681.38
277.12	1767.40
277.34	1816.55
277.55	1697.77
277.77	1777.64
277.99	1730.53
278.20	1681.38
278.42	1687.53
278.63	1658.85
278.85	1693.67
279.06	1687.53
279.28	1810.40
279.49	1671.14
279.71	1744.87
279.93	1708.01
280.14	1783.78
280.36	1683.43
280.57	1775.59
280.79	1781.73
281.00	1640.42
281.22	1708.01
281.43	1810.40
281.65	1693.67
281.86	1673.19
282.08	1701.86
282.29	1830.88
282.51	1660.90
282.73	1630.18
282.94	1589.22
283.16	1740.77
283.37	1867.75
283.59	1757.16
283.80	1710.05
284.02	1751.01
284.23	1796.07
284.45	1742.82
284.66	1693.67
284.88	1621.99
285.09	1722.34
285.31	1724.39
285.52	1748.97
285.74	1638.38
285.95	1808.36
286.17	1773.54
286.38	1820.64
286.60	1650.66
286.81	1691.62
287.03	1738.73
287.24	1691.62
287.46	1718.25
287.67	1726.44
287.89	1869.80
288.10	1681.38
288.32	1771.49
288.53	1794.02
288.75	1642.47
288.96	1679.33
289.18	1662.95
289.39	1759.21
289.61	1751.01
289.82	1804.26
290.04	1773.54
290.25	1699.81
290.47	1648.61
290.68	1693.67
290.90	1789.92
291.11	1609.70
291.33	1718.25
291.54	1691.62
291.76	1609.70
291.97	1828.84
292.18	1738.73
292.40	1712.10
292.61	1689.57
292.83	1900.52
293.04	1814.50
293.26	1718.25
293.47	1642.47
293.69	1742.82
293.90	1777.64
294.12	1730.53
294.33	1738.73
294.55	1769.44
294.76	1812.45
294.97	1802.21
295.19	1865.70
295.40	1693.67
295.62	1681.38
295.83	1820.64
296.05	1648.61
296.26	1738.73
296.48	1646.57
296.69	1695.72
296.90	1656.81
297.12	1759.21
297.33	1785.83
297.55	1771.49
297.76	1722.34
297.98	1830.88
298.19	1708.01
298.41	1753.06
298.62	1701.86
298.83	1779.68
299.05	1671.14
299.26	1665.00
299.48	1669.09
299.69	1826.79
299.90	1755.11
300.12	1685.48
300.33	1726.44
300.55	1808.36
300.76	1710.05
300.98	1595.37
301.19	1716.20
301.40	1781.73
301.62	1759.21
301.83	1744.87
302.05	1699.81
302.26	1654.76
302.47	1751.01
302.69	1687.53
302.90	1689.57
303.12	1617.90
303.33	1720.29
303.54	1882.08
303.76	1671.14
303.97	1740.77
304.19	1824.74
304.40	1632.23
304.61	1708.01
304.83	1886.18
305.04	1779.68
305.26	1806.31
305.47	1734.63
305.68	1730.53
305.90	1703.91
306.11	1720.29
306.33	1689.57
306.54	1685.48
306.75	1705.96
306.97	1673.19
307.18	1675.24
307.39	1675.24
307.61	1787.88
307.82	1669.09
308.04	1763.30
308.25	1689.57
308.46	1800.16
308.68	1695.72
308.89	1705.96
309.10	1791.97
309.32	1781.73
309.53	1742.82
309.74	1699.81
309.96	1685.48
310.17	1867.75
310.39	1669.09
310.60	1753.06
310.81	1708.01
311.03	1662.95
311.24	1755.11
311.45	1734.63
311.67	1781.73
311.88	1710.05
312.09	1685.48
312.31	1667.05
312.52	1722.34
312.73	1685.48
312.95	1554.41
313.16	1679.33
313.37	1787.88
313.59	1738.73
313.80	1734.63
314.01	1834.98
314.23	1626.09
314.44	1757.16
314.65	1728.49
314.87	1734.63
315.08	1681.38
315.29	1718.25
315.51	1697.77
315.72	1710.05
315.93	1701.86
316.15	1849.32
316.36	1710.05
316.57	1652.71
316.79	1722.34
317.00	1763.30
317.21	1744.87
317.43	1757.16
317.64	1716.20
317.85	1710.05
318.07	1681.38
318.28	1722.34
318.49	1763.30
318.70	1949.67
318.92	1877.99
319.13	1822.69
319.34	1851.36
319.56	1794.02
319.77	1810.40
319.98	1783.78
320.20	1763.30
320.41	1740.77
320.62	1734.63
320.83	1630.18
321.05	1847.27
321.26	1789.92
321.47	1705.96
321.69	1796.07
321.90	1699.81
322.11	1660.90
322.32	1771.49
322.54	1814.50
322.75	1689.57
322.96	1865.70
323.18	1634.28
323.39	1662.95
323.60	1710.05
323.81	1820.64
324.03	1716.20
324.24	1722.34
324.45	1761.25
324.66	1718.25
324.88	1716.20
325.09	1789.92
325.30	1757.16
325.52	1703.91
325.73	1714.15
325.94	1642.47
326.15	1603.56
326.37	1705.96
326.58	1791.97
326.79	1761.25
327.00	1626.09
327.22	1798.12
327.43	1689.57
327.64	1611.75
327.85	1720.29
328.07	1740.77
328.28	1837.03
328.49	1660.90
328.70	1773.54
328.92	1734.63
329.13	1677.29
329.34	1765.35
329.55	1857.51
329.76	1824.74
329.98	1716.20
330.19	1820.64
330.40	1806.31
330.61	1748.97
330.83	1787.88
331.04	1644.52
331.25	1685.48
331.46	1806.31
331.68	1603.56
331.89	1751.01
332.10	1763.30
332.31	1665.00
332.52	1746.92
332.74	1800.16
332.95	1624.04
333.16	1687.53
333.37	1751.01
333.58	1716.20
333.80	1783.78
334.01	1615.85
334.22	1736.68
334.43	1665.00
334.64	1746.92
334.86	1630.18
335.07	1677.29
335.28	1724.39
335.49	1636.33
335.70	1755.11
335.92	1753.06
336.13	1841.12
336.34	1755.11
336.55	1798.12
336.76	1777.64
336.98	1611.75
337.19	1660.90
337.40	1810.40
337.61	1818.60
337.82	1708.01
338.04	1779.68
338.25	1599.46
338.46	1648.61
338.67	1669.09
338.88	1675.24
339.09	1679.33
339.31	1607.66
339.52	1695.72
339.73	1689.57
339.94	1683.43
340.15	1746.92
340.36	1681.38
340.58	1693.67
340.79	1681.38
341.00	1742.82
341.21	1581.03
341.42	1808.36
341.63	1683.43
341.85	1781.73
342.06	1746.92
342.27	1658.85
342.48	1804.26
342.69	1705.96
342.90	1763.30
343.12	1712.10
343.33	1693.67
343.54	1818.60
343.75	1871.84
343.96	1730.53
344.17	1644.52
344.38	1734.63
344.60	1738.73
344.81	1652.71
345.02	1703.91
345.23	1757.16
345.44	1871.84
345.65	1703.91
345.86	1779.68
346.07	1650.66
346.29	1644.52
346.50	1751.01
346.71	1755.11
346.92	1781.73
347.13	1886.18
347.34	1716.20
347.55	1667.05
347.76	1689.57
347.98	1656.81
348.19	1667.05
348.40	1753.06
348.61	1644.52
348.82	1808.36
349.03	1748.97
349.24	1687.53
349.45	1746.92
349.66	1601.51
349.88	1761.25
350.09	1673.19
350.30	1710.05
350.51	1769.44
350.72	1781.73
350.93	1667.05
351.14	1671.14
351.35	1757.16
351.56	1740.77
351.77	1730.53
351.99	1751.01
352.20	1808.36
352.41	1781.73
352.62	1640.42
352.83	1705.96
353.04	1607.66
353.25	1642.47
353.46	1853.41
353.67	1781.73
353.88	1597.42
354.09	1673.19
354.30	1720.29
354.52	1763.30
354.73	1730.53
354.94	1730.53
355.15	1771.49
355.36	1849.32
355.57	1701.86
355.78	1751.01
355.99	1665.00
356.20	1738.73
356.41	1746.92
356.62	1691.62
356.83	1730.53
357.04	1734.63
357.25	1566.70
357.46	1744.87
357.68	1646.57
357.89	1626.09
358.10	1687.53
358.31	1673.19
358.52	1658.85
358.73	1630.18
358.94	1703.91
359.15	1730.53
359.36	1759.21
359.57	1746.92
359.78	1677.29
359.99	1693.67
360.20	1669.09
360.41	1742.82
360.62	1810.40
360.83	1679.33
361.04	1699.81
361.25	1748.97
361.46	1861.60
361.67	1732.58
361.88	1753.06
362.09	1818.60
362.30	1761.25
362.51	1738.73
362.72	1714.15
362.93	1755.11
363.14	1775.59
363.35	1767.40
363.56	1685.48
363.78	1755.11
363.99	1775.59
364.20	1738.73
364.41	1689.57
364.62	1886.18
364.83	1724.39
365.04	1656.81
365.25	1701.86
365.46	1843.17
365.67	1738.73
365.88	1671.14
366.09	1718.25
366.30	1656.81
366.51	1771.49
366.72	1615.85
366.93	1763.30
367.14	1701.86
367.35	1853.41
367.56	1660.90
367.77	1843.17
367.98	1724.39
368.18	1738.73
368.39	1779.68
368.60	1652.71
368.81	1779.68
369.02	1705.96
369.23	1660.90
369.44	1667.05
369.65	1660.90
369.86	1710.05
370.07	1822.69
370.28	1712.10
370.49	1716.20
370.70	1800.16
370.91	1660.90
371.12	1679.33
371.33	1740.77
371.54	1748.97
371.75	1828.84
371.96	1583.08
372.17	1789.92
372.38	1673.19
372.59	1736.68
372.80	1685.48
373.01	1755.11
373.22	1751.01
373.43	1736.68
373.64	1613.80
373.85	1832.93
374.06	1814.50
374.26	1757.16
374.47	1796.07
374.68	1828.84
374.89	1665.00
375.10	1734.63
375.31	1740.77
375.52	1724.39
375.73	1705.96
375.94	1687.53
376.15	1755.11
376.36	1689.57
376.57	1691.62
376.78	1708.01
376.99	1701.86
377.20	1820.64
377.40	1730.53
377.61	1824.74
377.82	1607.66
378.03	1794.02
378.24	1796.07
378.45	1742.82
378.66	1769.44
378.87	1658.85
379.08	1626.09
379.29	1785.83
379.50	1804.26
379.71	1671.14
379.91	1785.83
380.12	1705.96
380.33	1712.10
380.54	1746.92
380.75	1699.81
380.96	1695.72
381.17	1740.77
381.38	1787.88
381.59	1828.84
381.80	1759.21
382.00	1873.89
382.21	1689.57
382.42	1855.46
382.63	1884.13
382.84	1789.92
383.05	1853.41
383.26	1900.52
383.47	1845.22
383.68	1755.11
383.88	1794.02
384.09	1746.92
384.30	1820.64
384.51	1714.15
384.72	1675.24
384.93	1687.53
385.14	1712.10
385.35	1773.54
385.55	1626.09
385.76	1767.40
385.97	1775.59
386.18	1691.62
386.39	1689.57
386.60	1714.15
386.81	1662.95
387.02	1708.01
387.22	1642.47
387.43	1853.41
387.64	1820.64
387.85	1832.93
388.06	2154.46
388.27	4196.29
388.48	6885.27
388.68	8200.07
388.89	9686.89
389.10	9918.31
389.31	8740.73
389.52	7589.77
389.73	6649.75
389.93	6156.19
390.14	5752.74
390.35	5263.28
390.56	4677.56
390.77	3786.69
390.98	3119.06
391.18	2557.91
391.39	2039.78
391.60	1853.41
391.81	1818.60
392.02	1744.87
392.23	1824.74
392.43	1740.77
392.64	1820.64
392.85	1662.95
393.06	1802.21
393.27	1822.69
393.47	1703.91
393.68	1818.60
393.89	1724.39
394.10	1802.21
394.31	1662.95
394.52	1681.38
394.72	1712.10
394.93	1804.26
395.14	1689.57
395.35	1796.07
395.56	1662.95
395.76	1769.44
395.97	1722.34
396.18	1927.14
396.39	1861.60
396.60	2002.91
396.80	1992.67
397.01	1853.41
397.22	1861.60
397.43	1828.84
397.64	1814.50
397.84	1804.26
398.05	1859.56
398.26	1755.11
398.47	1826.79
398.67	1761.25
398.88	1685.48
399.09	1714.15
399.30	1642.47
399.51	1728.49
399.71	1671.14
399.92	1636.33
400.13	1759.21
400.34	1675.24
400.54	1695.72
400.75	1845.22
400.96	1738.73
401.17	1732.58
401.37	1716.20
401.58	1767.40
401.79	1746.92
402.00	1888.23
402.21	2035.68
402.41	1980.39
402.62	1998.82
402.83	2011.11
403.04	1974.24
403.24	2107.36
403.45	1865.70
403.66	1953.76
403.87	1828.84
404.07	1990.63
404.28	1923.04
404.49	1927.14
404.70	1837.03
404.90	1767.40
405.11	1787.88
405.32	1781.73
405.52	1689.57
405.73	1677.29
405.94	1644.52
406.15	1726.44
406.35	1814.50
406.56	1730.53
406.77	1644.52
406.98	1689.57
407.18	1611.75
407.39	1748.97
407.60	1687.53
407.80	1773.54
408.01	1695.72
408.22	1710.05
408.43	1769.44
408.63	1697.77
408.84	1728.49
409.05	1794.02
409.25	1703.91
409.46	1632.23
409.67	1683.43
409.88	1675.24
410.08	1705.96
410.29	1783.78
410.50	1734.63
410.70	1703.91
410.91	1677.29
411.12	1730.53
411.32	1654.76
411.53	1724.39
411.74	1841.12
411.95	1884.13
412.15	1724.39
412.36	1757.16
412.57	1767.40
412.77	1812.45
412.98	1697.77
413.19	1732.58
413.39	1738.73
413.60	1806.31
413.81	1828.84
414.01	1685.48
414.22	1785.83
414.43	1787.88
414.63	1697.77
414.84	1812.45
415.05	1679.33
415.25	1730.53
415.46	1775.59
415.67	1708.01
415.87	1734.63
416.08	1826.79
416.29	1695.72
416.49	1722.34
416.70	1685.48
416.91	1769.44
417.11	1701.86
417.32	1751.01
417.53	1837.03
417.73	1798.12
417.94	1787.88
418.15	1804.26
418.35	1650.66
418.56	1724.39
418.77	1832.93
418.97	1714.15
419.18	1751.01
419.38	1570.79
419.59	1761.25
419.80	1863.65
420.00	1683.43
420.21	1765.35
420.42	1828.84
420.62	1712.10
420.83	1691.62
421.04	1724.39
421.24	1796.07
421.45	1804.26
421.65	1763.30
421.86	1746.92
422.07	1697.77
422.27	1691.62
422.48	1769.44
422.69	1697.77
422.89	1738.73
423.10	1742.82
423.30	1714.15
423.51	1718.25
423.72	1732.58
423.92	1779.68
424.13	1667.05
424.33	1755.11
424.54	1736.68
424.75	1738.73
424.95	1767.40
425.16	1779.68
425.36	1648.61
425.57	1714.15
425.78	1705.96
425.98	1773.54
426.19	1714.15
426.39	1716.20
426.60	1724.39
426.81	1855.46
427.01	1712.10
427.22	1685.48
427.42	1712.10
427.63	1669.09
427.83	1740.77
428.04	1783.78
428.25	1775.59
428.45	1822.69
428.66	1781.73
428.86	1689.57
429.07	1742.82
429.28	1787.88
429.48	1742.82
429.69	1751.01
429.89	1738.73
430.10	1675.24
430.30	1777.64
430.51	1800.16
430.71	1742.82
430.92	1759.21
431.13	1671.14
431.33	1775.59
431.54	1746.92
431.74	1746.92
431.95	1851.36
432.15	1665.00
432.36	1689.57
432.56	1732.58
432.77	1808.36
432.98	1832.93
433.18	1730.53
433.39	1712.10
433.59	1728.49
433.80	1837.03
434.00	1920.99
434.21	1652.71
434.41	1689.57
434.62	1816.55
434.82	1644.52
435.03	1755.11
435.23	1742.82
435.44	1621.99
435.64	1753.06
435.85	1808.36
436.06	1808.36
436.26	1763.30
436.47	1787.88
436.67	1714.15
436.88	1710.05
437.08	1724.39
437.29	1779.68
437.49	1804.26
437.70	1839.08
437.90	1716.20
438.11	1847.27
438.31	1841.12
438.52	1873.89
438.72	1824.74
438.93	1935.33
439.13	1757.16
439.34	1818.60
439.54	1736.68
439.75	1808.36
439.95	1857.51
440.16	1738.73
440.36	1656.81
440.57	1839.08
440.77	1781.73
440.98	1703.91
441.18	1759.21
441.39	1712.10
441.59	1693.67
441.80	1808.36
442.00	1777.64
442.21	1882.08
442.41	1734.63
442.62	1771.49
442.82	1615.85
443.02	1787.88
443.23	1753.06
443.43	1695.72
443.64	1843.17
443.84	1667.05
444.05	1810.40
444.25	1671.14
444.46	1802.21
444.66	1708.01
444.87	1884.13
445.07	1624.04
445.28	1740.77
445.48	1896.42
445.69	1712.10
445.89	1828.84
446.09	1779.68
446.30	2023.39
446.50	2713.56
446.71	3725.26
446.91	4366.27
447.12	4841.40
447.32	4927.41
447.53	4431.80
447.73	3956.68
447.93	3608.52
448.14	3356.62
448.34	3190.74
448.55	2897.88
448.75	2916.31
448.96	2688.98
449.16	2465.75
449.36	2217.95
449.57	2090.98
449.77	1902.56
449.98	1798.12
450.18	1796.07
450.39	1826.79
450.59	1763.30
450.79	1775.59
451.00	1781.73
451.20	1791.97
451.41	1771.49
451.61	1703.91
451.81	1755.11
452.02	1781.73
452.22	1740.77
452.43	1779.68
452.63	1673.19
