SpectraSuite Data File
++++++++++++++++++++++++++++++++++++
Date: Mon Jun 06 15:20:57 CEST 2016
User: root
Dark Spectrum Present: No
Reference Spectrum Present: No
Number of Sampled Component Spectra: 1
Spectrometers: USB4C02835
Integration Time (usec): 100000 (USB4C02835)
Spectra Averaged: 1 (USB4C02835)
Boxcar Smoothing: 0 (USB4C02835)
Correct for Electrical Dark: No (USB4C02835)
Strobe/Lamp Enabled: No (USB4C02835)
Correct for Detector Non-linearity: No (USB4C02835)
Correct for Stray Light: No (USB4C02835)
Number of Pixels in Processed Spectrum: 3648
>>>>>Begin Processed Spectral Data<<<<<
177.47	1509.35
177.69	1509.35
177.91	1509.35
178.13	1503.21
178.36	1423.34
178.58	1564.65
178.80	1765.35
179.02	1656.81
179.24	1650.66
179.46	1714.15
179.68	1796.07
179.90	1716.20
180.13	1716.20
180.35	1621.99
180.57	1665.00
180.79	1730.53
181.01	1605.61
181.23	1718.25
181.45	1779.68
181.67	1695.72
181.90	1736.68
182.12	1650.66
182.34	1566.70
182.56	1751.01
182.78	1685.48
183.00	1689.57
183.22	1708.01
183.44	1621.99
183.66	1851.36
183.89	1755.11
184.11	1703.91
184.33	1736.68
184.55	1763.30
184.77	1714.15
184.99	1708.01
185.21	1693.67
185.43	1863.65
185.65	1767.40
185.87	1689.57
186.10	1869.80
186.32	1847.27
186.54	1787.88
186.76	1767.40
186.98	1804.26
187.20	1673.19
187.42	1701.86
187.64	1716.20
187.86	1708.01
188.08	1761.25
188.30	1640.42
188.52	1697.77
188.75	1800.16
188.97	1789.92
189.19	1636.33
189.41	1718.25
189.63	1785.83
189.85	1603.56
190.07	1640.42
190.29	1611.75
190.51	1665.00
190.73	1681.38
190.95	1773.54
191.17	1748.97
191.39	1632.23
191.61	1697.77
191.84	1603.56
192.06	1714.15
192.28	1648.61
192.50	1849.32
192.72	1738.73
192.94	1667.05
193.16	1857.51
193.38	1755.11
193.60	1615.85
193.82	1722.34
194.04	1845.22
194.26	1751.01
194.48	1673.19
194.70	1697.77
194.92	1738.73
195.14	1777.64
195.36	1679.33
195.58	1814.50
195.80	1734.63
196.02	1699.81
196.24	1759.21
196.46	1665.00
196.69	1626.09
196.91	1906.66
197.13	1687.53
197.35	1691.62
197.57	1783.78
197.79	1679.33
198.01	1705.96
198.23	1810.40
198.45	1800.16
198.67	1683.43
198.89	1744.87
199.11	1740.77
199.33	1673.19
199.55	1595.37
199.77	1699.81
199.99	1736.68
200.21	1701.86
200.43	1724.39
200.65	1624.04
200.87	1624.04
201.09	1712.10
201.31	1748.97
201.53	1734.63
201.75	1687.53
201.97	1751.01
202.19	1695.72
202.41	1753.06
202.63	1769.44
202.85	1677.29
203.07	1683.43
203.29	1654.76
203.51	1710.05
203.73	1734.63
203.95	1841.12
204.17	1728.49
204.39	1796.07
204.61	1660.90
204.83	1748.97
205.05	1804.26
205.27	1816.55
205.49	1853.41
205.71	1697.77
205.93	1630.18
206.15	1667.05
206.37	1650.66
206.59	1714.15
206.81	1660.90
207.03	1576.94
207.25	1626.09
207.47	1755.11
207.69	1781.73
207.91	1806.31
208.13	1863.65
208.34	1671.14
208.56	1609.70
208.78	1769.44
209.00	1738.73
209.22	1669.09
209.44	1693.67
209.66	1724.39
209.88	1712.10
210.10	1718.25
210.32	1775.59
210.54	1757.16
210.76	1675.24
210.98	1740.77
211.20	1538.02
211.42	1765.35
211.64	1845.22
211.86	1818.60
212.08	1789.92
212.30	1779.68
212.52	1734.63
212.74	1769.44
212.96	1763.30
213.17	1665.00
213.39	1714.15
213.61	1800.16
213.83	1656.81
214.05	1658.85
214.27	1765.35
214.49	1705.96
214.71	1681.38
214.93	1818.60
215.15	1751.01
215.37	1687.53
215.59	1626.09
215.81	1765.35
216.03	1769.44
216.24	1806.31
216.46	1695.72
216.68	1718.25
216.90	1779.68
217.12	1724.39
217.34	1771.49
217.56	1751.01
217.78	1732.58
218.00	1681.38
218.22	1665.00
218.44	1755.11
218.66	1675.24
218.87	1894.37
219.09	1648.61
219.31	1685.48
219.53	1748.97
219.75	1730.53
219.97	1730.53
220.19	1742.82
220.41	1650.66
220.63	1785.83
220.85	1753.06
221.06	1714.15
221.28	1863.65
221.50	1771.49
221.72	1740.77
221.94	1748.97
222.16	1708.01
222.38	1726.44
222.60	1796.07
222.82	1693.67
223.03	1771.49
223.25	1660.90
223.47	1742.82
223.69	1841.12
223.91	1742.82
224.13	1736.68
224.35	1636.33
224.57	1818.60
224.78	1660.90
225.00	1644.52
225.22	1720.29
225.44	1697.77
225.66	1761.25
225.88	1679.33
226.10	1781.73
226.32	1708.01
226.53	1751.01
226.75	1714.15
226.97	1705.96
227.19	1728.49
227.41	1597.42
227.63	1705.96
227.85	1644.52
228.06	1763.30
228.28	1697.77
228.50	1828.84
228.72	1677.29
228.94	1681.38
229.16	1599.46
229.37	1705.96
229.59	1675.24
229.81	1751.01
230.03	1654.76
230.25	1642.47
230.47	1677.29
230.69	1587.18
230.90	1718.25
231.12	1624.04
231.34	1738.73
231.56	1744.87
231.78	1626.09
232.00	1683.43
232.21	1714.15
232.43	1617.90
232.65	1640.42
232.87	1714.15
233.09	1671.14
233.30	1751.01
233.52	1720.29
233.74	1724.39
233.96	1681.38
234.18	1593.32
234.40	1550.31
234.61	1818.60
234.83	1691.62
235.05	1587.18
235.27	1781.73
235.49	1763.30
235.70	1677.29
235.92	1742.82
236.14	1822.69
236.36	1820.64
236.58	1632.23
236.79	1767.40
237.01	1710.05
237.23	1722.34
237.45	1742.82
237.67	1681.38
237.88	1710.05
238.10	1761.25
238.32	1628.14
238.54	1740.77
238.76	1753.06
238.97	1673.19
239.19	1701.86
239.41	1714.15
239.63	1818.60
239.85	1738.73
240.06	1732.58
240.28	1710.05
240.50	1748.97
240.72	1691.62
240.93	1648.61
241.15	1744.87
241.37	1697.77
241.59	1677.29
241.81	1716.20
242.02	1757.16
242.24	1667.05
242.46	1710.05
242.68	1652.71
242.89	1716.20
243.11	1806.31
243.33	1701.86
243.55	1789.92
243.76	1796.07
243.98	1638.38
244.20	1705.96
244.42	1722.34
244.64	1697.77
244.85	1679.33
245.07	1636.33
245.29	1705.96
245.51	1730.53
245.72	1685.48
245.94	1779.68
246.16	1671.14
246.38	1705.96
246.59	1632.23
246.81	1697.77
247.03	1716.20
247.24	1642.47
247.46	1632.23
247.68	1710.05
247.90	1728.49
248.11	1624.04
248.33	1753.06
248.55	1695.72
248.77	1665.00
248.98	1691.62
249.20	1894.37
249.42	1718.25
249.64	1687.53
249.85	1705.96
250.07	1699.81
250.29	1738.73
250.50	1662.95
250.72	1650.66
250.94	1705.96
251.16	1843.17
251.37	1806.31
251.59	1755.11
251.81	1667.05
252.02	1785.83
252.24	1769.44
252.46	1685.48
252.68	1726.44
252.89	1705.96
253.11	1689.57
253.33	1824.74
253.54	1759.21
253.76	1701.86
253.98	1701.86
254.20	1665.00
254.41	1648.61
254.63	1722.34
254.85	1648.61
255.06	1624.04
255.28	1689.57
255.50	1724.39
255.71	1679.33
255.93	1617.90
256.15	1720.29
256.36	1753.06
256.58	1683.43
256.80	1636.33
257.02	1638.38
257.23	1658.85
257.45	1712.10
257.67	1703.91
257.88	1691.62
258.10	1710.05
258.32	1744.87
258.53	1769.44
258.75	1722.34
258.97	1705.96
259.18	1699.81
259.40	1742.82
259.62	1853.41
259.83	1710.05
260.05	1775.59
260.27	1959.91
260.48	1742.82
260.70	1732.58
260.92	1742.82
261.13	1689.57
261.35	1646.57
261.57	1804.26
261.78	1638.38
262.00	1675.24
262.22	1736.68
262.43	1642.47
262.65	1701.86
262.86	1722.34
263.08	1851.36
263.30	1671.14
263.51	1615.85
263.73	1634.28
263.95	1734.63
264.16	1708.01
264.38	1699.81
264.60	1744.87
264.81	1699.81
265.03	1738.73
265.25	1755.11
265.46	1605.61
265.68	1771.49
265.89	1701.86
266.11	1654.76
266.33	1687.53
266.54	1861.60
266.76	1730.53
266.98	1789.92
267.19	1816.55
267.41	1755.11
267.62	1724.39
267.84	1601.51
268.06	1695.72
268.27	1667.05
268.49	1877.99
268.70	1718.25
268.92	1701.86
269.14	1718.25
269.35	1615.85
269.57	1714.15
269.79	1757.16
270.00	1597.42
270.22	1837.03
270.43	1697.77
270.65	1576.94
270.87	1765.35
271.08	1732.58
271.30	1832.93
271.51	1796.07
271.73	1767.40
271.95	1759.21
272.16	1773.54
272.38	1738.73
272.59	1611.75
272.81	1746.92
273.02	1671.14
273.24	1759.21
273.46	1777.64
273.67	1658.85
273.89	1662.95
274.10	1748.97
274.32	1777.64
274.54	1785.83
274.75	1695.72
274.97	1617.90
275.18	1773.54
275.40	1753.06
275.61	1720.29
275.83	1693.67
276.05	1644.52
276.26	1681.38
276.48	1691.62
276.69	1722.34
276.91	1638.38
277.12	1740.77
277.34	1757.16
277.55	1771.49
277.77	1744.87
277.99	1671.14
278.20	1681.38
278.42	1640.42
278.63	1722.34
278.85	1718.25
279.06	1681.38
279.28	1685.48
279.49	1775.59
279.71	1724.39
279.93	1660.90
280.14	1710.05
280.36	1581.03
280.57	1736.68
280.79	1767.40
281.00	1744.87
281.22	1718.25
281.43	1699.81
281.65	1621.99
281.86	1683.43
282.08	1703.91
282.29	1849.32
282.51	1613.80
282.73	1613.80
282.94	1714.15
283.16	1769.44
283.37	1785.83
283.59	1701.86
283.80	1837.03
284.02	1656.81
284.23	1759.21
284.45	1695.72
284.66	1695.72
284.88	1652.71
285.09	1808.36
285.31	1738.73
285.52	1701.86
285.74	1558.50
285.95	1794.02
286.17	1720.29
286.38	1767.40
286.60	1648.61
286.81	1677.29
287.03	1738.73
287.24	1716.20
287.46	1705.96
287.67	1705.96
287.89	1892.32
288.10	1619.94
288.32	1789.92
288.53	1824.74
288.75	1679.33
288.96	1722.34
289.18	1728.49
289.39	1751.01
289.61	1837.03
289.82	1796.07
290.04	1777.64
290.25	1734.63
290.47	1658.85
290.68	1669.09
290.90	1796.07
291.11	1734.63
291.33	1798.12
291.54	1599.46
291.76	1665.00
291.97	1791.97
292.18	1718.25
292.40	1585.13
292.61	1560.55
292.83	1853.41
293.04	1708.01
293.26	1816.55
293.47	1699.81
293.69	1644.52
293.90	1693.67
294.12	1796.07
294.33	1697.77
294.55	1763.30
294.76	1785.83
294.97	1777.64
295.19	1755.11
295.40	1726.44
295.62	1740.77
295.83	1746.92
296.05	1621.99
296.26	1773.54
296.48	1697.77
296.69	1734.63
296.90	1673.19
297.12	1718.25
297.33	1802.21
297.55	1748.97
297.76	1710.05
297.98	1818.60
298.19	1697.77
298.41	1681.38
298.62	1644.52
298.83	1781.73
299.05	1744.87
299.26	1685.48
299.48	1689.57
299.69	1771.49
299.90	1812.45
300.12	1708.01
300.33	1724.39
300.55	1781.73
300.76	1765.35
300.98	1646.57
301.19	1730.53
301.40	1677.29
301.62	1642.47
301.83	1804.26
302.05	1691.62
302.26	1624.04
302.47	1705.96
302.69	1669.09
302.90	1697.77
303.12	1505.26
303.33	1755.11
303.54	1746.92
303.76	1705.96
303.97	1685.48
304.19	1773.54
304.40	1667.05
304.61	1730.53
304.83	1789.92
305.04	1773.54
305.26	1710.05
305.47	1708.01
305.68	1705.96
305.90	1693.67
306.11	1771.49
306.33	1638.38
306.54	1744.87
306.75	1640.42
306.97	1648.61
307.18	1710.05
307.39	1597.42
307.61	1714.15
307.82	1654.76
308.04	1730.53
308.25	1685.48
308.46	1652.71
308.68	1705.96
308.89	1638.38
309.10	1765.35
309.32	1667.05
309.53	1761.25
309.74	1720.29
309.96	1726.44
310.17	1753.06
310.39	1712.10
310.60	1781.73
310.81	1701.86
311.03	1685.48
311.24	1689.57
311.45	1687.53
311.67	1834.98
311.88	1718.25
312.09	1695.72
312.31	1728.49
312.52	1705.96
312.73	1697.77
312.95	1671.14
313.16	1632.23
313.37	1767.40
313.59	1765.35
313.80	1751.01
314.01	1796.07
314.23	1695.72
314.44	1662.95
314.65	1650.66
314.87	1658.85
315.08	1722.34
315.29	1710.05
315.51	1630.18
315.72	1675.24
315.93	1863.65
316.15	1794.02
316.36	1630.18
316.57	1644.52
316.79	1769.44
317.00	1665.00
317.21	1693.67
317.43	1654.76
317.64	1613.80
317.85	1628.14
318.07	1669.09
318.28	1777.64
318.49	1818.60
318.70	1904.61
318.92	1863.65
319.13	1806.31
319.34	1787.88
319.56	1806.31
319.77	1806.31
319.98	1777.64
320.20	1761.25
320.41	1734.63
320.62	1718.25
320.83	1640.42
321.05	1841.12
321.26	1726.44
321.47	1654.76
321.69	1765.35
321.90	1628.14
322.11	1640.42
322.32	1708.01
322.54	1847.27
322.75	1775.59
322.96	1843.17
323.18	1648.61
323.39	1597.42
323.60	1753.06
323.81	1755.11
324.03	1722.34
324.24	1728.49
324.45	1697.77
324.66	1669.09
324.88	1800.16
325.09	1710.05
325.30	1712.10
325.52	1736.68
325.73	1693.67
325.94	1685.48
326.15	1566.70
326.37	1722.34
326.58	1812.45
326.79	1746.92
327.00	1638.38
327.22	1775.59
327.43	1660.90
327.64	1624.04
327.85	1730.53
328.07	1697.77
328.28	1775.59
328.49	1718.25
328.70	1675.24
328.92	1708.01
329.13	1638.38
329.34	1740.77
329.55	1812.45
329.76	1712.10
329.98	1722.34
330.19	1761.25
330.40	1683.43
330.61	1775.59
330.83	1724.39
331.04	1732.58
331.25	1740.77
331.46	1716.20
331.68	1632.23
331.89	1781.73
332.10	1689.57
332.31	1660.90
332.52	1748.97
332.74	1738.73
332.95	1681.38
333.16	1751.01
333.37	1820.64
333.58	1609.70
333.80	1789.92
334.01	1552.36
334.22	1642.47
334.43	1673.19
334.64	1683.43
334.86	1615.85
335.07	1581.03
335.28	1773.54
335.49	1662.95
335.70	1744.87
335.92	1759.21
336.13	1818.60
336.34	1775.59
336.55	1695.72
336.76	1718.25
336.98	1660.90
337.19	1728.49
337.40	1787.88
337.61	1894.37
337.82	1654.76
338.04	1781.73
338.25	1673.19
338.46	1779.68
338.67	1697.77
338.88	1564.65
339.09	1650.66
339.31	1712.10
339.52	1712.10
339.73	1646.57
339.94	1656.81
340.15	1703.91
340.36	1703.91
340.58	1712.10
340.79	1667.05
341.00	1701.86
341.21	1597.42
341.42	1755.11
341.63	1751.01
341.85	1677.29
342.06	1714.15
342.27	1669.09
342.48	1798.12
342.69	1554.41
342.90	1779.68
343.12	1732.58
343.33	1757.16
343.54	1761.25
343.75	1855.46
343.96	1810.40
344.17	1722.34
344.38	1701.86
344.60	1681.38
344.81	1607.66
345.02	1748.97
345.23	1736.68
345.44	1757.16
345.65	1751.01
345.86	1765.35
346.07	1638.38
346.29	1722.34
346.50	1814.50
346.71	1701.86
346.92	1695.72
347.13	1843.17
347.34	1796.07
347.55	1730.53
347.76	1720.29
347.98	1605.61
348.19	1701.86
348.40	1748.97
348.61	1718.25
348.82	1748.97
349.03	1767.40
349.24	1632.23
349.45	1830.88
349.66	1574.89
349.88	1751.01
350.09	1609.70
350.30	1738.73
350.51	1798.12
350.72	1791.97
350.93	1685.48
351.14	1734.63
351.35	1722.34
351.56	1718.25
351.77	1697.77
351.99	1755.11
352.20	1785.83
352.41	1769.44
352.62	1658.85
352.83	1722.34
353.04	1724.39
353.25	1591.27
353.46	1804.26
353.67	1759.21
353.88	1607.66
354.09	1689.57
354.30	1746.92
354.52	1789.92
354.73	1726.44
354.94	1753.06
355.15	1699.81
355.36	1849.32
355.57	1718.25
355.78	1740.77
355.99	1652.71
356.20	1687.53
356.41	1837.03
356.62	1740.77
356.83	1732.58
357.04	1775.59
357.25	1652.71
357.46	1691.62
357.68	1587.18
357.89	1673.19
358.10	1714.15
358.31	1767.40
358.52	1583.08
358.73	1648.61
358.94	1621.99
359.15	1708.01
359.36	1746.92
359.57	1710.05
359.78	1718.25
359.99	1746.92
360.20	1640.42
360.41	1714.15
360.62	1730.53
360.83	1765.35
361.04	1804.26
361.25	1648.61
361.46	1789.92
361.67	1734.63
361.88	1705.96
362.09	1812.45
362.30	1783.78
362.51	1601.51
362.72	1693.67
362.93	1738.73
363.14	1775.59
363.35	1724.39
363.56	1646.57
363.78	1732.58
363.99	1746.92
364.20	1650.66
364.41	1710.05
364.62	1804.26
364.83	1755.11
365.04	1671.14
365.25	1710.05
365.46	1847.27
365.67	1689.57
365.88	1593.32
366.09	1660.90
366.30	1710.05
366.51	1730.53
366.72	1665.00
366.93	1736.68
367.14	1757.16
367.35	1773.54
367.56	1714.15
367.77	1791.97
367.98	1712.10
368.18	1769.44
368.39	1673.19
368.60	1683.43
368.81	1765.35
369.02	1681.38
369.23	1744.87
369.44	1656.81
369.65	1728.49
369.86	1699.81
370.07	1736.68
370.28	1646.57
370.49	1791.97
370.70	1789.92
370.91	1716.20
371.12	1630.18
371.33	1740.77
371.54	1687.53
371.75	1847.27
371.96	1607.66
372.17	1691.62
372.38	1763.30
372.59	1789.92
372.80	1718.25
373.01	1798.12
373.22	1751.01
373.43	1705.96
373.64	1683.43
373.85	1814.50
374.06	1732.58
374.26	1720.29
374.47	1603.56
374.68	1845.22
374.89	1730.53
375.10	1662.95
375.31	1845.22
375.52	1646.57
375.73	1771.49
375.94	1732.58
376.15	1820.64
376.36	1718.25
376.57	1658.85
376.78	1734.63
376.99	1769.44
377.20	1757.16
377.40	1771.49
377.61	1869.80
377.82	1689.57
378.03	1849.32
378.24	1787.88
378.45	1748.97
378.66	1677.29
378.87	1603.56
379.08	1607.66
379.29	1605.61
379.50	1705.96
379.71	1669.09
379.91	1781.73
380.12	1626.09
380.33	1773.54
380.54	1701.86
380.75	1734.63
380.96	1701.86
381.17	1736.68
381.38	1728.49
381.59	1744.87
381.80	1689.57
382.00	1877.99
382.21	1726.44
382.42	1755.11
382.63	1923.04
382.84	1724.39
383.05	1761.25
383.26	1804.26
383.47	1734.63
383.68	1818.60
383.88	1808.36
384.09	1810.40
384.30	1943.52
384.51	1687.53
384.72	1681.38
384.93	1613.80
385.14	1753.06
385.35	1834.98
385.55	1697.77
385.76	1822.69
385.97	1728.49
386.18	1705.96
386.39	1685.48
386.60	1681.38
386.81	1787.88
387.02	1658.85
387.22	1769.44
387.43	1699.81
387.64	1843.17
387.85	1875.94
388.06	2228.19
388.27	4159.42
388.48	6582.17
388.68	8163.20
388.89	9434.99
389.10	9506.67
389.31	8275.84
389.52	7427.98
389.73	6700.95
389.93	6184.87
390.14	5832.62
390.35	5050.29
390.56	4564.92
390.77	3727.30
390.98	2965.46
391.18	2484.19
391.39	2201.57
391.60	1822.69
391.81	1867.75
392.02	1730.53
392.23	1875.94
392.43	1701.86
392.64	1814.50
392.85	1757.16
393.06	1798.12
393.27	1748.97
393.47	1710.05
393.68	1738.73
393.89	1736.68
394.10	1767.40
394.31	1640.42
394.52	1660.90
394.72	1658.85
394.93	1832.93
395.14	1693.67
395.35	1685.48
395.56	1705.96
395.76	1728.49
395.97	1806.31
396.18	1841.12
396.39	1910.75
396.60	2013.15
396.80	1814.50
397.01	1822.69
397.22	1808.36
397.43	1765.35
397.64	1755.11
397.84	1757.16
398.05	1900.52
398.26	1794.02
398.47	1802.21
398.67	1738.73
398.88	1763.30
399.09	1697.77
399.30	1744.87
399.51	1757.16
399.71	1640.42
399.92	1683.43
400.13	1714.15
400.34	1679.33
400.54	1796.07
400.75	1806.31
400.96	1720.29
401.17	1794.02
401.37	1720.29
401.58	1673.19
401.79	1779.68
402.00	1865.70
402.21	1959.91
402.41	1964.00
402.62	1978.34
402.83	2027.49
403.04	2004.96
403.24	2115.55
403.45	1822.69
403.66	1947.62
403.87	1890.28
404.07	1933.28
404.28	1933.28
404.49	1994.72
404.70	1796.07
404.90	1837.03
405.11	1730.53
405.32	1728.49
405.52	1761.25
405.73	1685.48
405.94	1726.44
406.15	1693.67
406.35	1791.97
406.56	1773.54
406.77	1671.14
406.98	1742.82
407.18	1673.19
407.39	1767.40
407.60	1789.92
407.80	1683.43
408.01	1679.33
408.22	1656.81
408.43	1683.43
408.63	1767.40
408.84	1804.26
409.05	1806.31
409.25	1642.47
409.46	1665.00
409.67	1677.29
409.88	1648.61
410.08	1730.53
410.29	1753.06
410.50	1736.68
410.70	1746.92
410.91	1566.70
411.12	1757.16
411.32	1699.81
411.53	1775.59
411.74	1857.51
411.95	1798.12
412.15	1779.68
412.36	1763.30
412.57	1777.64
412.77	1839.08
412.98	1708.01
413.19	1675.24
413.39	1830.88
413.60	1718.25
413.81	1837.03
414.01	1619.94
414.22	1662.95
414.43	1755.11
414.63	1699.81
414.84	1785.83
415.05	1644.52
415.25	1697.77
415.46	1785.83
415.67	1705.96
415.87	1740.77
416.08	1732.58
416.29	1691.62
416.49	1789.92
416.70	1654.76
416.91	1662.95
417.11	1699.81
417.32	1712.10
417.53	1771.49
417.73	1708.01
417.94	1675.24
418.15	1738.73
418.35	1703.91
418.56	1718.25
418.77	1824.74
418.97	1705.96
419.18	1720.29
419.38	1595.37
419.59	1703.91
419.80	1689.57
420.00	1773.54
420.21	1671.14
420.42	1726.44
420.62	1726.44
420.83	1705.96
421.04	1806.31
421.24	1705.96
421.45	1765.35
421.65	1785.83
421.86	1681.38
422.07	1665.00
422.27	1820.64
422.48	1714.15
422.69	1626.09
422.89	1679.33
423.10	1787.88
423.30	1771.49
423.51	1732.58
423.72	1783.78
423.92	1654.76
424.13	1660.90
424.33	1722.34
424.54	1798.12
424.75	1746.92
424.95	1796.07
425.16	1751.01
425.36	1734.63
425.57	1763.30
425.78	1716.20
425.98	1755.11
426.19	1689.57
426.39	1652.71
426.60	1724.39
426.81	1757.16
427.01	1640.42
427.22	1669.09
427.42	1730.53
427.63	1665.00
427.83	1720.29
428.04	1810.40
428.25	1814.50
428.45	1798.12
428.66	1744.87
428.86	1710.05
429.07	1751.01
429.28	1726.44
429.48	1728.49
429.69	1656.81
429.89	1705.96
430.10	1763.30
430.30	1761.25
430.51	1804.26
430.71	1697.77
430.92	1708.01
431.13	1716.20
431.33	1716.20
431.54	1773.54
431.74	1845.22
431.95	1798.12
432.15	1656.81
432.36	1740.77
432.56	1771.49
432.77	1789.92
432.98	1867.75
433.18	1761.25
433.39	1705.96
433.59	1761.25
433.80	1818.60
434.00	1820.64
434.21	1689.57
434.41	1716.20
434.62	1822.69
434.82	1589.22
435.03	1685.48
435.23	1744.87
435.44	1652.71
435.64	1732.58
435.85	1763.30
436.06	1794.02
436.26	1798.12
436.47	1681.38
436.67	1691.62
436.88	1736.68
437.08	1765.35
437.29	1755.11
437.49	1722.34
437.70	1834.98
437.90	1751.01
438.11	1822.69
438.31	1763.30
438.52	1748.97
438.72	1834.98
438.93	1898.47
439.13	1763.30
439.34	1845.22
439.54	1746.92
439.75	1755.11
439.95	1859.56
440.16	1699.81
440.36	1746.92
440.57	1753.06
440.77	1746.92
440.98	1763.30
441.18	1757.16
441.39	1697.77
441.59	1703.91
441.80	1867.75
442.00	1761.25
442.21	1861.60
442.41	1699.81
442.62	1808.36
442.82	1744.87
443.02	1761.25
443.23	1744.87
443.43	1755.11
443.64	1806.31
443.84	1665.00
444.05	1806.31
444.25	1705.96
444.46	1806.31
444.66	1771.49
444.87	1839.08
445.07	1714.15
445.28	1751.01
445.48	1863.65
445.69	1806.31
445.89	1841.12
446.09	1714.15
446.30	2025.44
446.50	2666.46
446.71	3590.09
446.91	4218.82
447.12	4685.75
447.32	4650.94
447.53	4208.58
447.73	3792.84
447.93	3602.38
448.14	3250.13
448.34	3172.30
448.55	2908.12
448.75	2908.12
448.96	2684.89
449.16	2443.23
449.36	2301.92
449.57	2058.21
449.77	1863.65
449.98	1789.92
450.18	1884.13
450.39	1800.16
450.59	1802.21
450.79	1714.15
451.00	1673.19
451.20	1724.39
451.41	1726.44
451.61	1697.77
451.81	1718.25
452.02	1712.10
452.22	1665.00
452.43	1748.97
452.63	1683.43
