SpectraSuite Data File
++++++++++++++++++++++++++++++++++++
Date: Mon Jun 06 15:52:17 CEST 2016
User: root
Dark Spectrum Present: No
Reference Spectrum Present: No
Number of Sampled Component Spectra: 1
Spectrometers: USB4C02835
Integration Time (usec): 100000 (USB4C02835)
Spectra Averaged: 1 (USB4C02835)
Boxcar Smoothing: 0 (USB4C02835)
Correct for Electrical Dark: No (USB4C02835)
Strobe/Lamp Enabled: No (USB4C02835)
Correct for Detector Non-linearity: No (USB4C02835)
Correct for Stray Light: No (USB4C02835)
Number of Pixels in Processed Spectrum: 3648
>>>>>Begin Processed Spectral Data<<<<<
177.47	1445.87
177.69	1445.87
177.91	1445.87
178.13	1466.35
178.36	1419.24
178.58	1583.08
178.80	1732.58
179.02	1689.57
179.24	1634.28
179.46	1710.05
179.68	1751.01
179.90	1734.63
180.13	1705.96
180.35	1617.90
180.57	1689.57
180.79	1755.11
181.01	1708.01
181.23	1697.77
181.45	1755.11
181.67	1765.35
181.90	1767.40
182.12	1691.62
182.34	1628.14
182.56	1771.49
182.78	1718.25
183.00	1699.81
183.22	1783.78
183.44	1638.38
183.66	1759.21
183.89	1832.93
184.11	1785.83
184.33	1716.20
184.55	1773.54
184.77	1755.11
184.99	1695.72
185.21	1671.14
185.43	1826.79
185.65	1697.77
185.87	1699.81
186.10	1851.36
186.32	1853.41
186.54	1665.00
186.76	1730.53
186.98	1761.25
187.20	1697.77
187.42	1677.29
187.64	1740.77
187.86	1705.96
188.08	1783.78
188.30	1742.82
188.52	1751.01
188.75	1744.87
188.97	1726.44
189.19	1626.09
189.41	1712.10
189.63	1765.35
189.85	1679.33
190.07	1650.66
190.29	1718.25
190.51	1703.91
190.73	1617.90
190.95	1755.11
191.17	1701.86
191.39	1675.24
191.61	1699.81
191.84	1732.58
192.06	1714.15
192.28	1621.99
192.50	1830.88
192.72	1755.11
192.94	1714.15
193.16	1746.92
193.38	1757.16
193.60	1689.57
193.82	1660.90
194.04	1830.88
194.26	1656.81
194.48	1677.29
194.70	1665.00
194.92	1660.90
195.14	1818.60
195.36	1628.14
195.58	1716.20
195.80	1746.92
196.02	1607.66
196.24	1761.25
196.46	1714.15
196.69	1703.91
196.91	1886.18
197.13	1708.01
197.35	1714.15
197.57	1814.50
197.79	1689.57
198.01	1781.73
198.23	1710.05
198.45	1726.44
198.67	1675.24
198.89	1753.06
199.11	1798.12
199.33	1628.14
199.55	1632.23
199.77	1617.90
199.99	1777.64
200.21	1687.53
200.43	1722.34
200.65	1640.42
200.87	1601.51
201.09	1710.05
201.31	1632.23
201.53	1806.31
201.75	1726.44
201.97	1710.05
202.19	1732.58
202.41	1722.34
202.63	1892.32
202.85	1796.07
203.07	1681.38
203.29	1691.62
203.51	1650.66
203.73	1681.38
203.95	1945.57
204.17	1701.86
204.39	1820.64
204.61	1705.96
204.83	1716.20
205.05	1738.73
205.27	1705.96
205.49	1857.51
205.71	1716.20
205.93	1660.90
206.15	1667.05
206.37	1783.78
206.59	1720.29
206.81	1665.00
207.03	1712.10
207.25	1669.09
207.47	1722.34
207.69	1771.49
207.91	1826.79
208.13	1812.45
208.34	1687.53
208.56	1671.14
208.78	1769.44
209.00	1695.72
209.22	1742.82
209.44	1662.95
209.66	1673.19
209.88	1771.49
210.10	1730.53
210.32	1665.00
210.54	1822.69
210.76	1667.05
210.98	1644.52
211.20	1578.98
211.42	1671.14
211.64	1730.53
211.86	1708.01
212.08	1714.15
212.30	1697.77
212.52	1724.39
212.74	1726.44
212.96	1716.20
213.17	1724.39
213.39	1806.31
213.61	1820.64
213.83	1689.57
214.05	1591.27
214.27	1738.73
214.49	1628.14
214.71	1652.71
214.93	1796.07
215.15	1640.42
215.37	1697.77
215.59	1621.99
215.81	1757.16
216.03	1679.33
216.24	1669.09
216.46	1734.63
216.68	1773.54
216.90	1660.90
217.12	1769.44
217.34	1677.29
217.56	1691.62
217.78	1824.74
218.00	1773.54
218.22	1771.49
218.44	1753.06
218.66	1654.76
218.87	1742.82
219.09	1722.34
219.31	1757.16
219.53	1671.14
219.75	1699.81
219.97	1685.48
220.19	1755.11
220.41	1701.86
220.63	1771.49
220.85	1701.86
221.06	1615.85
221.28	1722.34
221.50	1753.06
221.72	1779.68
221.94	1724.39
222.16	1759.21
222.38	1710.05
222.60	1673.19
222.82	1693.67
223.03	1742.82
223.25	1628.14
223.47	1720.29
223.69	1820.64
223.91	1699.81
224.13	1703.91
224.35	1734.63
224.57	1771.49
224.78	1744.87
225.00	1712.10
225.22	1687.53
225.44	1716.20
225.66	1802.21
225.88	1691.62
226.10	1732.58
226.32	1740.77
226.53	1763.30
226.75	1716.20
226.97	1716.20
227.19	1775.59
227.41	1658.85
227.63	1648.61
227.85	1656.81
228.06	1771.49
228.28	1775.59
228.50	1742.82
228.72	1720.29
228.94	1611.75
229.16	1699.81
229.37	1712.10
229.59	1726.44
229.81	1794.02
230.03	1648.61
230.25	1581.03
230.47	1667.05
230.69	1632.23
230.90	1697.77
231.12	1697.77
231.34	1783.78
231.56	1777.64
231.78	1578.98
232.00	1677.29
232.21	1697.77
232.43	1673.19
232.65	1644.52
232.87	1734.63
233.09	1687.53
233.30	1714.15
233.52	1734.63
233.74	1769.44
233.96	1693.67
234.18	1746.92
234.40	1703.91
234.61	1738.73
234.83	1585.13
235.05	1654.76
235.27	1841.12
235.49	1761.25
235.70	1742.82
235.92	1818.60
236.14	1744.87
236.36	1873.89
236.58	1648.61
236.79	1720.29
237.01	1710.05
237.23	1671.14
237.45	1783.78
237.67	1656.81
237.88	1806.31
238.10	1816.55
238.32	1681.38
238.54	1671.14
238.76	1779.68
238.97	1578.98
239.19	1673.19
239.41	1806.31
239.63	1804.26
239.85	1693.67
240.06	1712.10
240.28	1718.25
240.50	1761.25
240.72	1738.73
240.93	1671.14
241.15	1730.53
241.37	1710.05
241.59	1757.16
241.81	1689.57
242.02	1677.29
242.24	1738.73
242.46	1726.44
242.68	1744.87
242.89	1705.96
243.11	1744.87
243.33	1597.42
243.55	1701.86
243.76	1796.07
243.98	1654.76
244.20	1798.12
244.42	1691.62
244.64	1734.63
244.85	1617.90
245.07	1656.81
245.29	1777.64
245.51	1759.21
245.72	1763.30
245.94	1722.34
246.16	1744.87
246.38	1753.06
246.59	1695.72
246.81	1613.80
247.03	1722.34
247.24	1558.50
247.46	1710.05
247.68	1718.25
247.90	1662.95
248.11	1695.72
248.33	1769.44
248.55	1718.25
248.77	1796.07
248.98	1740.77
249.20	1839.08
249.42	1693.67
249.64	1722.34
249.85	1697.77
250.07	1691.62
250.29	1722.34
250.50	1738.73
250.72	1695.72
250.94	1812.45
251.16	1867.75
251.37	1648.61
251.59	1800.16
251.81	1751.01
252.02	1830.88
252.24	1650.66
252.46	1738.73
252.68	1689.57
252.89	1691.62
253.11	1718.25
253.33	1787.88
253.54	1791.97
253.76	1638.38
253.98	1757.16
254.20	1665.00
254.41	1648.61
254.63	1697.77
254.85	1650.66
255.06	1636.33
255.28	1759.21
255.50	1660.90
255.71	1572.84
255.93	1615.85
256.15	1626.09
256.36	1650.66
256.58	1665.00
256.80	1716.20
257.02	1697.77
257.23	1677.29
257.45	1716.20
257.67	1728.49
257.88	1703.91
258.10	1748.97
258.32	1665.00
258.53	1658.85
258.75	1847.27
258.97	1679.33
259.18	1734.63
259.40	1701.86
259.62	1769.44
259.83	1777.64
260.05	1761.25
260.27	1978.34
260.48	1820.64
260.70	1730.53
260.92	1703.91
261.13	1714.15
261.35	1667.05
261.57	1669.09
261.78	1662.95
262.00	1681.38
262.22	1738.73
262.43	1624.04
262.65	1714.15
262.86	1726.44
263.08	1810.40
263.30	1748.97
263.51	1630.18
263.73	1640.42
263.95	1746.92
264.16	1611.75
264.38	1636.33
264.60	1703.91
264.81	1644.52
265.03	1816.55
265.25	1820.64
265.46	1656.81
265.68	1787.88
265.89	1796.07
266.11	1705.96
266.33	1759.21
266.54	1781.73
266.76	1689.57
266.98	1757.16
267.19	1816.55
267.41	1810.40
267.62	1699.81
267.84	1675.24
268.06	1703.91
268.27	1773.54
268.49	1816.55
268.70	1720.29
268.92	1681.38
269.14	1710.05
269.35	1560.55
269.57	1617.90
269.79	1714.15
270.00	1685.48
270.22	1853.41
270.43	1753.06
270.65	1652.71
270.87	1775.59
271.08	1710.05
271.30	1814.50
271.51	1761.25
271.73	1718.25
271.95	1787.88
272.16	1746.92
272.38	1662.95
272.59	1751.01
272.81	1732.58
273.02	1730.53
273.24	1742.82
273.46	1783.78
273.67	1712.10
273.89	1710.05
274.10	1632.23
274.32	1814.50
274.54	1740.77
274.75	1724.39
274.97	1730.53
275.18	1761.25
275.40	1759.21
275.61	1687.53
275.83	1736.68
276.05	1667.05
276.26	1652.71
276.48	1689.57
276.69	1734.63
276.91	1718.25
277.12	1791.97
277.34	1718.25
277.55	1808.36
277.77	1697.77
277.99	1738.73
278.20	1673.19
278.42	1652.71
278.63	1675.24
278.85	1660.90
279.06	1693.67
279.28	1705.96
279.49	1771.49
279.71	1769.44
279.93	1662.95
280.14	1783.78
280.36	1695.72
280.57	1734.63
280.79	1720.29
281.00	1701.86
281.22	1716.20
281.43	1812.45
281.65	1560.55
281.86	1689.57
282.08	1736.68
282.29	1808.36
282.51	1769.44
282.73	1665.00
282.94	1595.37
283.16	1654.76
283.37	1814.50
283.59	1642.47
283.80	1722.34
284.02	1728.49
284.23	1728.49
284.45	1779.68
284.66	1683.43
284.88	1611.75
285.09	1746.92
285.31	1785.83
285.52	1691.62
285.74	1589.22
285.95	1779.68
286.17	1677.29
286.38	1740.77
286.60	1697.77
286.81	1728.49
287.03	1720.29
287.24	1724.39
287.46	1775.59
287.67	1650.66
287.89	1828.84
288.10	1732.58
288.32	1705.96
288.53	1789.92
288.75	1748.97
288.96	1708.01
289.18	1716.20
289.39	1703.91
289.61	1658.85
289.82	1791.97
290.04	1796.07
290.25	1658.85
290.47	1708.01
290.68	1695.72
290.90	1755.11
291.11	1646.57
291.33	1667.05
291.54	1701.86
291.76	1730.53
291.97	1658.85
292.18	1822.69
292.40	1693.67
292.61	1718.25
292.83	1812.45
293.04	1722.34
293.26	1734.63
293.47	1767.40
293.69	1642.47
293.90	1708.01
294.12	1849.32
294.33	1773.54
294.55	1693.67
294.76	1769.44
294.97	1834.98
295.19	1828.84
295.40	1673.19
295.62	1755.11
295.83	1746.92
296.05	1636.33
296.26	1845.22
296.48	1685.48
296.69	1751.01
296.90	1720.29
297.12	1812.45
297.33	1816.55
297.55	1761.25
297.76	1701.86
297.98	1818.60
298.19	1726.44
298.41	1732.58
298.62	1691.62
298.83	1779.68
299.05	1748.97
299.26	1695.72
299.48	1689.57
299.69	1789.92
299.90	1701.86
300.12	1642.47
300.33	1763.30
300.55	1730.53
300.76	1732.58
300.98	1710.05
301.19	1814.50
301.40	1646.57
301.62	1734.63
301.83	1712.10
302.05	1751.01
302.26	1710.05
302.47	1746.92
302.69	1658.85
302.90	1732.58
303.12	1638.38
303.33	1716.20
303.54	1834.98
303.76	1656.81
303.97	1632.23
304.19	1886.18
304.40	1636.33
304.61	1763.30
304.83	1855.46
305.04	1728.49
305.26	1781.73
305.47	1658.85
305.68	1660.90
305.90	1595.37
306.11	1699.81
306.33	1734.63
306.54	1654.76
306.75	1767.40
306.97	1652.71
307.18	1746.92
307.39	1697.77
307.61	1773.54
307.82	1687.53
308.04	1722.34
308.25	1701.86
308.46	1644.52
308.68	1708.01
308.89	1673.19
309.10	1759.21
309.32	1744.87
309.53	1751.01
309.74	1751.01
309.96	1710.05
310.17	1722.34
310.39	1710.05
310.60	1812.45
310.81	1691.62
311.03	1615.85
311.24	1826.79
311.45	1738.73
311.67	1742.82
311.88	1763.30
312.09	1619.94
312.31	1722.34
312.52	1728.49
312.73	1685.48
312.95	1650.66
313.16	1675.24
313.37	1814.50
313.59	1757.16
313.80	1763.30
314.01	1816.55
314.23	1757.16
314.44	1714.15
314.65	1632.23
314.87	1728.49
315.08	1687.53
315.29	1705.96
315.51	1615.85
315.72	1642.47
315.93	1875.94
316.15	1810.40
316.36	1695.72
316.57	1697.77
316.79	1777.64
317.00	1742.82
317.21	1742.82
317.43	1814.50
317.64	1748.97
317.85	1652.71
318.07	1681.38
318.28	1740.77
318.49	1828.84
318.70	1869.80
318.92	1920.99
319.13	1847.27
319.34	1918.95
319.56	1845.22
319.77	1853.41
319.98	1746.92
320.20	1800.16
320.41	1765.35
320.62	1699.81
320.83	1621.99
321.05	1931.23
321.26	1724.39
321.47	1654.76
321.69	1802.21
321.90	1730.53
322.11	1691.62
322.32	1744.87
322.54	1804.26
322.75	1724.39
322.96	1814.50
323.18	1675.24
323.39	1597.42
323.60	1705.96
323.81	1826.79
324.03	1650.66
324.24	1699.81
324.45	1662.95
324.66	1665.00
324.88	1796.07
325.09	1775.59
325.30	1722.34
325.52	1779.68
325.73	1751.01
325.94	1697.77
326.15	1656.81
326.37	1648.61
326.58	1761.25
326.79	1841.12
327.00	1714.15
327.22	1744.87
327.43	1722.34
327.64	1675.24
327.85	1695.72
328.07	1697.77
328.28	1767.40
328.49	1705.96
328.70	1736.68
328.92	1648.61
329.13	1724.39
329.34	1740.77
329.55	1837.03
329.76	1732.58
329.98	1677.29
330.19	1785.83
330.40	1720.29
330.61	1757.16
330.83	1738.73
331.04	1705.96
331.25	1724.39
331.46	1701.86
331.68	1615.85
331.89	1771.49
332.10	1675.24
332.31	1656.81
332.52	1683.43
332.74	1740.77
332.95	1615.85
333.16	1720.29
333.37	1757.16
333.58	1710.05
333.80	1718.25
334.01	1634.28
334.22	1738.73
334.43	1675.24
334.64	1677.29
334.86	1660.90
335.07	1669.09
335.28	1798.12
335.49	1658.85
335.70	1775.59
335.92	1767.40
336.13	1820.64
336.34	1742.82
336.55	1740.77
336.76	1779.68
336.98	1599.46
337.19	1744.87
337.40	1843.17
337.61	1882.08
337.82	1677.29
338.04	1781.73
338.25	1667.05
338.46	1761.25
338.67	1697.77
338.88	1736.68
339.09	1681.38
339.31	1669.09
339.52	1636.33
339.73	1609.70
339.94	1619.94
340.15	1720.29
340.36	1650.66
340.58	1665.00
340.79	1712.10
341.00	1689.57
341.21	1632.23
341.42	1785.83
341.63	1748.97
341.85	1798.12
342.06	1734.63
342.27	1673.19
342.48	1732.58
342.69	1681.38
342.90	1730.53
343.12	1746.92
343.33	1691.62
343.54	1742.82
343.75	1767.40
343.96	1716.20
344.17	1675.24
344.38	1644.52
344.60	1673.19
344.81	1587.18
345.02	1642.47
345.23	1748.97
345.44	1814.50
345.65	1712.10
345.86	1726.44
346.07	1734.63
346.29	1787.88
346.50	1728.49
346.71	1738.73
346.92	1818.60
347.13	1914.85
347.34	1624.04
347.55	1730.53
347.76	1742.82
347.98	1716.20
348.19	1662.95
348.40	1673.19
348.61	1710.05
348.82	1759.21
349.03	1767.40
349.24	1683.43
349.45	1794.02
349.66	1607.66
349.88	1773.54
350.09	1638.38
350.30	1757.16
350.51	1755.11
350.72	1771.49
350.93	1697.77
351.14	1755.11
351.35	1753.06
351.56	1757.16
351.77	1683.43
351.99	1753.06
352.20	1787.88
352.41	1722.34
352.62	1621.99
352.83	1714.15
353.04	1703.91
353.25	1736.68
353.46	1761.25
353.67	1716.20
353.88	1595.37
354.09	1705.96
354.30	1656.81
354.52	1701.86
354.73	1710.05
354.94	1728.49
355.15	1722.34
355.36	1865.70
355.57	1740.77
355.78	1714.15
355.99	1687.53
356.20	1683.43
356.41	1753.06
356.62	1783.78
356.83	1753.06
357.04	1769.44
357.25	1615.85
357.46	1775.59
357.68	1587.18
357.89	1687.53
358.10	1738.73
358.31	1648.61
358.52	1705.96
358.73	1687.53
358.94	1685.48
359.15	1642.47
359.36	1722.34
359.57	1789.92
359.78	1665.00
359.99	1726.44
360.20	1617.90
360.41	1648.61
360.62	1767.40
360.83	1769.44
361.04	1681.38
361.25	1705.96
361.46	1814.50
361.67	1779.68
361.88	1773.54
362.09	1771.49
362.30	1740.77
362.51	1712.10
362.72	1775.59
362.93	1789.92
363.14	1751.01
363.35	1757.16
363.56	1697.77
363.78	1785.83
363.99	1728.49
364.20	1636.33
364.41	1755.11
364.62	1734.63
364.83	1779.68
365.04	1671.14
365.25	1746.92
365.46	1789.92
365.67	1650.66
365.88	1726.44
366.09	1726.44
366.30	1673.19
366.51	1746.92
366.72	1650.66
366.93	1712.10
367.14	1742.82
367.35	1761.25
367.56	1718.25
367.77	1746.92
367.98	1665.00
368.18	1755.11
368.39	1697.77
368.60	1638.38
368.81	1789.92
369.02	1701.86
369.23	1693.67
369.44	1587.18
369.65	1677.29
369.86	1730.53
370.07	1751.01
370.28	1697.77
370.49	1677.29
370.70	1689.57
370.91	1591.27
371.12	1736.68
371.33	1716.20
371.54	1665.00
371.75	1834.98
371.96	1624.04
372.17	1742.82
372.38	1695.72
372.59	1810.40
372.80	1634.28
373.01	1673.19
373.22	1701.86
373.43	1701.86
373.64	1689.57
373.85	1802.21
374.06	1839.08
374.26	1755.11
374.47	1720.29
374.68	1730.53
374.89	1705.96
375.10	1740.77
375.31	1701.86
375.52	1722.34
375.73	1662.95
375.94	1634.28
376.15	1751.01
376.36	1728.49
376.57	1785.83
376.78	1646.57
376.99	1740.77
377.20	1781.73
377.40	1667.05
377.61	1746.92
377.82	1652.71
378.03	1779.68
378.24	1667.05
378.45	1720.29
378.66	1761.25
378.87	1605.61
379.08	1634.28
379.29	1722.34
379.50	1804.26
379.71	1708.01
379.91	1691.62
380.12	1638.38
380.33	1753.06
380.54	1734.63
380.75	1656.81
380.96	1687.53
381.17	1767.40
381.38	1720.29
381.59	1714.15
381.80	1779.68
382.00	1810.40
382.21	1759.21
382.42	1775.59
382.63	1853.41
382.84	1871.84
383.05	1859.56
383.26	1875.94
383.47	1658.85
383.68	1751.01
383.88	1767.40
384.09	1771.49
384.30	1855.46
384.51	1716.20
384.72	1683.43
384.93	1642.47
385.14	1654.76
385.35	1794.02
385.55	1671.14
385.76	1818.60
385.97	1671.14
386.18	1617.90
386.39	1718.25
386.60	1710.05
386.81	1767.40
387.02	1712.10
387.22	1640.42
387.43	1789.92
387.64	1839.08
387.85	1929.19
388.06	2176.99
388.27	4124.61
388.48	6526.88
388.68	8034.18
388.89	9324.40
389.10	9512.81
389.31	8275.84
389.52	7321.49
389.73	6424.48
389.93	6049.70
390.14	5654.44
390.35	5033.91
390.56	4483.00
390.77	3694.54
390.98	3069.91
391.18	2482.14
391.39	2113.50
391.60	1916.90
391.81	1892.32
392.02	1658.85
392.23	1822.69
392.43	1669.09
392.64	1791.97
392.85	1785.83
393.06	1820.64
393.27	1716.20
393.47	1665.00
393.68	1773.54
393.89	1753.06
394.10	1810.40
394.31	1660.90
394.52	1757.16
394.72	1636.33
394.93	1785.83
395.14	1665.00
395.35	1753.06
395.56	1681.38
395.76	1742.82
395.97	1830.88
396.18	1771.49
396.39	1759.21
396.60	2021.35
396.80	1912.80
397.01	1837.03
397.22	1812.45
397.43	1927.14
397.64	1720.29
397.84	1746.92
398.05	1820.64
398.26	1765.35
398.47	1771.49
398.67	1748.97
398.88	1683.43
399.09	1730.53
399.30	1722.34
399.51	1834.98
399.71	1658.85
399.92	1705.96
400.13	1726.44
400.34	1769.44
400.54	1722.34
400.75	1728.49
400.96	1714.15
401.17	1837.03
401.37	1726.44
401.58	1728.49
401.79	1744.87
402.00	1916.90
402.21	1964.00
402.41	1968.10
402.62	2021.35
402.83	2047.97
403.04	1982.43
403.24	2138.08
403.45	1855.46
403.66	1974.24
403.87	1910.75
404.07	1886.18
404.28	1927.14
404.49	1943.52
404.70	1781.73
404.90	1794.02
405.11	1744.87
405.32	1769.44
405.52	1669.09
405.73	1658.85
405.94	1669.09
406.15	1755.11
406.35	1761.25
406.56	1779.68
406.77	1716.20
406.98	1773.54
407.18	1624.04
407.39	1822.69
407.60	1683.43
407.80	1714.15
408.01	1726.44
408.22	1804.26
408.43	1662.95
408.63	1742.82
408.84	1718.25
409.05	1787.88
409.25	1679.33
409.46	1673.19
409.67	1669.09
409.88	1693.67
410.08	1748.97
410.29	1642.47
410.50	1718.25
410.70	1755.11
410.91	1687.53
411.12	1734.63
411.32	1648.61
411.53	1724.39
411.74	1781.73
411.95	1779.68
412.15	1800.16
412.36	1769.44
412.57	1759.21
412.77	1765.35
412.98	1824.74
413.19	1697.77
413.39	1691.62
413.60	1771.49
413.81	1714.15
414.01	1628.14
414.22	1716.20
414.43	1781.73
414.63	1726.44
414.84	1839.08
415.05	1732.58
415.25	1703.91
415.46	1705.96
415.67	1734.63
415.87	1783.78
416.08	1699.81
416.29	1771.49
416.49	1746.92
416.70	1708.01
416.91	1746.92
417.11	1699.81
417.32	1763.30
417.53	1779.68
417.73	1791.97
417.94	1724.39
418.15	1746.92
418.35	1767.40
418.56	1748.97
418.77	1869.80
418.97	1648.61
419.18	1665.00
419.38	1626.09
419.59	1716.20
419.80	1855.46
420.00	1660.90
420.21	1771.49
420.42	1794.02
420.62	1755.11
420.83	1724.39
421.04	1746.92
421.24	1712.10
421.45	1738.73
421.65	1728.49
421.86	1689.57
422.07	1845.22
422.27	1847.27
422.48	1783.78
422.69	1574.89
422.89	1693.67
423.10	1796.07
423.30	1609.70
423.51	1740.77
423.72	1632.23
423.92	1804.26
424.13	1677.29
424.33	1685.48
424.54	1757.16
424.75	1712.10
424.95	1806.31
425.16	1697.77
425.36	1742.82
425.57	1847.27
425.78	1787.88
425.98	1757.16
426.19	1665.00
426.39	1738.73
426.60	1765.35
426.81	1826.79
427.01	1691.62
427.22	1642.47
427.42	1640.42
427.63	1724.39
427.83	1810.40
428.04	1820.64
428.25	1798.12
428.45	1722.34
428.66	1759.21
428.86	1804.26
429.07	1740.77
429.28	1740.77
429.48	1773.54
429.69	1691.62
429.89	1746.92
430.10	1656.81
430.30	1800.16
430.51	1769.44
430.71	1724.39
430.92	1740.77
431.13	1609.70
431.33	1730.53
431.54	1701.86
431.74	1794.02
431.95	1849.32
432.15	1615.85
432.36	1748.97
432.56	1816.55
432.77	1794.02
432.98	1787.88
433.18	1677.29
433.39	1699.81
433.59	1665.00
433.80	1828.84
434.00	1912.80
434.21	1712.10
434.41	1691.62
434.62	1796.07
434.82	1705.96
435.03	1699.81
435.23	1718.25
435.44	1728.49
435.64	1755.11
435.85	1722.34
436.06	1767.40
436.26	1732.58
436.47	1796.07
436.67	1681.38
436.88	1806.31
437.08	1751.01
437.29	1794.02
437.49	1683.43
437.70	1837.03
437.90	1681.38
438.11	1890.28
438.31	1753.06
438.52	1857.51
438.72	1886.18
438.93	1863.65
439.13	1837.03
439.34	1830.88
439.54	1703.91
439.75	1798.12
439.95	1837.03
440.16	1691.62
440.36	1843.17
440.57	1751.01
440.77	1804.26
440.98	1769.44
441.18	1701.86
441.39	1693.67
441.59	1705.96
441.80	1824.74
442.00	1769.44
442.21	1751.01
442.41	1646.57
442.62	1755.11
442.82	1708.01
443.02	1718.25
443.23	1808.36
443.43	1720.29
443.64	1775.59
443.84	1687.53
444.05	1818.60
444.25	1734.63
444.46	1798.12
444.66	1761.25
444.87	1845.22
445.07	1679.33
445.28	1791.97
445.48	1847.27
445.69	1794.02
445.89	1884.13
446.09	1771.49
446.30	2074.59
446.50	2627.54
446.71	3680.20
446.91	4130.75
447.12	4714.42
447.32	4616.12
447.53	4282.30
447.73	3911.62
447.93	3520.46
448.14	3282.89
448.34	3127.25
448.55	2906.07
448.75	2781.14
448.96	2574.30
449.16	2326.49
449.36	2353.12
449.57	2080.74
449.77	1945.57
449.98	1746.92
450.18	1783.78
450.39	1824.74
450.59	1755.11
450.79	1665.00
451.00	1732.58
451.20	1791.97
451.41	1753.06
451.61	1882.08
451.81	1775.59
452.02	1761.25
452.22	1722.34
452.43	1695.72
452.63	1724.39
