SpectraSuite Data File
++++++++++++++++++++++++++++++++++++
Date: Mon Jun 06 14:01:37 CEST 2016
User: root
Dark Spectrum Present: No
Reference Spectrum Present: No
Number of Sampled Component Spectra: 1
Spectrometers: USB4C02835
Integration Time (usec): 100000 (USB4C02835)
Spectra Averaged: 1 (USB4C02835)
Boxcar Smoothing: 0 (USB4C02835)
Correct for Electrical Dark: No (USB4C02835)
Strobe/Lamp Enabled: No (USB4C02835)
Correct for Detector Non-linearity: No (USB4C02835)
Correct for Stray Light: No (USB4C02835)
Number of Pixels in Processed Spectrum: 3648
>>>>>Begin Processed Spectral Data<<<<<
177.47	1492.97
177.69	1492.97
177.91	1492.97
178.13	1374.19
178.36	1478.63
178.58	1617.90
178.80	1734.63
179.02	1650.66
179.24	1644.52
179.46	1736.68
179.68	1732.58
179.90	1783.78
180.13	1693.67
180.35	1701.86
180.57	1724.39
180.79	1669.09
181.01	1640.42
181.23	1761.25
181.45	1724.39
181.67	1695.72
181.90	1800.16
182.12	1624.04
182.34	1740.77
182.56	1679.33
182.78	1748.97
183.00	1751.01
183.22	1755.11
183.44	1591.27
183.66	1826.79
183.89	1812.45
184.11	1738.73
184.33	1665.00
184.55	1763.30
184.77	1697.77
184.99	1708.01
185.21	1667.05
185.43	1820.64
185.65	1708.01
185.87	1718.25
186.10	1812.45
186.32	1771.49
186.54	1736.68
186.76	1658.85
186.98	1787.88
187.20	1609.70
187.42	1755.11
187.64	1697.77
187.86	1621.99
188.08	1726.44
188.30	1646.57
188.52	1693.67
188.75	1755.11
188.97	1800.16
189.19	1742.82
189.41	1724.39
189.63	1695.72
189.85	1746.92
190.07	1689.57
190.29	1621.99
190.51	1761.25
190.73	1564.65
190.95	1738.73
191.17	1699.81
191.39	1660.90
191.61	1656.81
191.84	1687.53
192.06	1710.05
192.28	1652.71
192.50	1785.83
192.72	1697.77
192.94	1691.62
193.16	1775.59
193.38	1714.15
193.60	1634.28
193.82	1705.96
194.04	1767.40
194.26	1691.62
194.48	1675.24
194.70	1662.95
194.92	1652.71
195.14	1736.68
195.36	1654.76
195.58	1742.82
195.80	1632.23
196.02	1642.47
196.24	1714.15
196.46	1658.85
196.69	1648.61
196.91	1824.74
197.13	1703.91
197.35	1681.38
197.57	1783.78
197.79	1681.38
198.01	1677.29
198.23	1781.73
198.45	1675.24
198.67	1654.76
198.89	1646.57
199.11	1724.39
199.33	1656.81
199.55	1585.13
199.77	1615.85
199.99	1718.25
200.21	1734.63
200.43	1636.33
200.65	1632.23
200.87	1566.70
201.09	1748.97
201.31	1681.38
201.53	1806.31
201.75	1820.64
201.97	1671.14
202.19	1720.29
202.41	1652.71
202.63	1808.36
202.85	1763.30
203.07	1746.92
203.29	1652.71
203.51	1648.61
203.73	1662.95
203.95	1877.99
204.17	1693.67
204.39	1748.97
204.61	1718.25
204.83	1609.70
205.05	1738.73
205.27	1787.88
205.49	1798.12
205.71	1636.33
205.93	1585.13
206.15	1613.80
206.37	1665.00
206.59	1660.90
206.81	1681.38
207.03	1607.66
207.25	1662.95
207.47	1716.20
207.69	1673.19
207.91	1828.84
208.13	1724.39
208.34	1708.01
208.56	1757.16
208.78	1740.77
209.00	1667.05
209.22	1728.49
209.44	1697.77
209.66	1697.77
209.88	1720.29
210.10	1595.37
210.32	1753.06
210.54	1751.01
210.76	1619.94
210.98	1775.59
211.20	1585.13
211.42	1732.58
211.64	1740.77
211.86	1783.78
212.08	1789.92
212.30	1705.96
212.52	1695.72
212.74	1667.05
212.96	1712.10
213.17	1755.11
213.39	1640.42
213.61	1779.68
213.83	1755.11
214.05	1611.75
214.27	1773.54
214.49	1552.36
214.71	1665.00
214.93	1759.21
215.15	1665.00
215.37	1738.73
215.59	1636.33
215.81	1742.82
216.03	1804.26
216.24	1738.73
216.46	1687.53
216.68	1714.15
216.90	1726.44
217.12	1636.33
217.34	1716.20
217.56	1748.97
217.78	1806.31
218.00	1783.78
218.22	1740.77
218.44	1722.34
218.66	1648.61
218.87	1728.49
219.09	1687.53
219.31	1738.73
219.53	1712.10
219.75	1587.18
219.97	1738.73
220.19	1734.63
220.41	1714.15
220.63	1691.62
220.85	1726.44
221.06	1689.57
221.28	1730.53
221.50	1724.39
221.72	1681.38
221.94	1705.96
222.16	1603.56
222.38	1757.16
222.60	1759.21
222.82	1638.38
223.03	1742.82
223.25	1640.42
223.47	1753.06
223.69	1877.99
223.91	1726.44
224.13	1742.82
224.35	1708.01
224.57	1705.96
224.78	1720.29
225.00	1691.62
225.22	1714.15
225.44	1574.89
225.66	1771.49
225.88	1703.91
226.10	1710.05
226.32	1714.15
226.53	1708.01
226.75	1687.53
226.97	1654.76
227.19	1714.15
227.41	1621.99
227.63	1697.77
227.85	1607.66
228.06	1703.91
228.28	1740.77
228.50	1675.24
228.72	1578.98
228.94	1722.34
229.16	1644.52
229.37	1556.46
229.59	1675.24
229.81	1755.11
230.03	1697.77
230.25	1624.04
230.47	1564.65
230.69	1695.72
230.90	1638.38
231.12	1685.48
231.34	1724.39
231.56	1800.16
231.78	1626.09
232.00	1710.05
232.21	1597.42
232.43	1640.42
232.65	1578.98
232.87	1742.82
233.09	1648.61
233.30	1662.95
233.52	1742.82
233.74	1716.20
233.96	1802.21
234.18	1691.62
234.40	1714.15
234.61	1853.41
234.83	1667.05
235.05	1693.67
235.27	1787.88
235.49	1843.17
235.70	1673.19
235.92	1740.77
236.14	1710.05
236.36	1847.27
236.58	1654.76
236.79	1714.15
237.01	1609.70
237.23	1626.09
237.45	1832.93
237.67	1720.29
237.88	1685.48
238.10	1783.78
238.32	1634.28
238.54	1677.29
238.76	1646.57
238.97	1675.24
239.19	1628.14
239.41	1798.12
239.63	1708.01
239.85	1697.77
240.06	1759.21
240.28	1699.81
240.50	1714.15
240.72	1650.66
240.93	1734.63
241.15	1785.83
241.37	1761.25
241.59	1812.45
241.81	1689.57
242.02	1660.90
242.24	1730.53
242.46	1736.68
242.68	1673.19
242.89	1742.82
243.11	1734.63
243.33	1738.73
243.55	1693.67
243.76	1726.44
243.98	1617.90
244.20	1632.23
244.42	1699.81
244.64	1769.44
244.85	1638.38
245.07	1712.10
245.29	1740.77
245.51	1710.05
245.72	1671.14
245.94	1755.11
246.16	1722.34
246.38	1773.54
246.59	1640.42
246.81	1683.43
247.03	1736.68
247.24	1603.56
247.46	1640.42
247.68	1708.01
247.90	1669.09
248.11	1619.94
248.33	1767.40
248.55	1658.85
248.77	1746.92
248.98	1765.35
249.20	1810.40
249.42	1712.10
249.64	1683.43
249.85	1726.44
250.07	1636.33
250.29	1689.57
250.50	1771.49
250.72	1591.27
250.94	1705.96
251.16	1769.44
251.37	1810.40
251.59	1634.28
251.81	1742.82
252.02	1734.63
252.24	1689.57
252.46	1779.68
252.68	1697.77
252.89	1626.09
253.11	1583.08
253.33	1812.45
253.54	1669.09
253.76	1656.81
253.98	1638.38
254.20	1656.81
254.41	1595.37
254.63	1646.57
254.85	1705.96
255.06	1720.29
255.28	1705.96
255.50	1685.48
255.71	1718.25
255.93	1636.33
256.15	1726.44
256.36	1800.16
256.58	1701.86
256.80	1839.08
257.02	1630.18
257.23	1736.68
257.45	1669.09
257.67	1703.91
257.88	1667.05
258.10	1636.33
258.32	1677.29
258.53	1759.21
258.75	1755.11
258.97	1644.52
259.18	1656.81
259.40	1685.48
259.62	1751.01
259.83	1787.88
260.05	1775.59
260.27	1949.67
260.48	1677.29
260.70	1656.81
260.92	1699.81
261.13	1685.48
261.35	1683.43
261.57	1755.11
261.78	1609.70
262.00	1626.09
262.22	1755.11
262.43	1607.66
262.65	1677.29
262.86	1677.29
263.08	1822.69
263.30	1677.29
263.51	1558.50
263.73	1656.81
263.95	1783.78
264.16	1685.48
264.38	1662.95
264.60	1693.67
264.81	1660.90
265.03	1804.26
265.25	1789.92
265.46	1675.24
265.68	1742.82
265.89	1751.01
266.11	1574.89
266.33	1679.33
266.54	1765.35
266.76	1716.20
266.98	1810.40
267.19	1781.73
267.41	1767.40
267.62	1642.47
267.84	1583.08
268.06	1662.95
268.27	1689.57
268.49	1742.82
268.70	1710.05
268.92	1693.67
269.14	1687.53
269.35	1638.38
269.57	1642.47
269.79	1818.60
270.00	1667.05
270.22	1785.83
270.43	1630.18
270.65	1615.85
270.87	1757.16
271.08	1720.29
271.30	1744.87
271.51	1722.34
271.73	1640.42
271.95	1779.68
272.16	1726.44
272.38	1705.96
272.59	1718.25
272.81	1705.96
273.02	1712.10
273.24	1660.90
273.46	1791.97
273.67	1619.94
273.89	1603.56
274.10	1640.42
274.32	1791.97
274.54	1712.10
274.75	1794.02
274.97	1693.67
275.18	1732.58
275.40	1728.49
275.61	1681.38
275.83	1681.38
276.05	1675.24
276.26	1673.19
276.48	1757.16
276.69	1660.90
276.91	1734.63
277.12	1800.16
277.34	1714.15
277.55	1738.73
277.77	1728.49
277.99	1675.24
278.20	1712.10
278.42	1681.38
278.63	1626.09
278.85	1634.28
279.06	1652.71
279.28	1687.53
279.49	1769.44
279.71	1730.53
279.93	1718.25
280.14	1798.12
280.36	1632.23
280.57	1734.63
280.79	1767.40
281.00	1636.33
281.22	1720.29
281.43	1753.06
281.65	1617.90
281.86	1642.47
282.08	1705.96
282.29	1771.49
282.51	1611.75
282.73	1632.23
282.94	1529.83
283.16	1689.57
283.37	1775.59
283.59	1742.82
283.80	1748.97
284.02	1753.06
284.23	1742.82
284.45	1644.52
284.66	1665.00
284.88	1681.38
285.09	1726.44
285.31	1730.53
285.52	1714.15
285.74	1562.60
285.95	1783.78
286.17	1673.19
286.38	1787.88
286.60	1701.86
286.81	1589.22
287.03	1638.38
287.24	1662.95
287.46	1716.20
287.67	1660.90
287.89	1804.26
288.10	1779.68
288.32	1679.33
288.53	1701.86
288.75	1781.73
288.96	1765.35
289.18	1669.09
289.39	1665.00
289.61	1738.73
289.82	1824.74
290.04	1765.35
290.25	1652.71
290.47	1728.49
290.68	1648.61
290.90	1738.73
291.11	1613.80
291.33	1759.21
291.54	1644.52
291.76	1595.37
291.97	1687.53
292.18	1744.87
292.40	1685.48
292.61	1644.52
292.83	1865.70
293.04	1763.30
293.26	1667.05
293.47	1730.53
293.69	1687.53
293.90	1660.90
294.12	1730.53
294.33	1679.33
294.55	1681.38
294.76	1785.83
294.97	1787.88
295.19	1779.68
295.40	1644.52
295.62	1705.96
295.83	1757.16
296.05	1638.38
296.26	1781.73
296.48	1624.04
296.69	1650.66
296.90	1675.24
297.12	1697.77
297.33	1785.83
297.55	1675.24
297.76	1755.11
297.98	1843.17
298.19	1755.11
298.41	1787.88
298.62	1671.14
298.83	1730.53
299.05	1722.34
299.26	1662.95
299.48	1658.85
299.69	1746.92
299.90	1732.58
300.12	1644.52
300.33	1699.81
300.55	1753.06
300.76	1708.01
300.98	1611.75
301.19	1693.67
301.40	1732.58
301.62	1701.86
301.83	1679.33
302.05	1656.81
302.26	1695.72
302.47	1640.42
302.69	1630.18
302.90	1685.48
303.12	1591.27
303.33	1824.74
303.54	1890.28
303.76	1699.81
303.97	1691.62
304.19	1816.55
304.40	1654.76
304.61	1732.58
304.83	1791.97
305.04	1830.88
305.26	1777.64
305.47	1593.32
305.68	1673.19
305.90	1595.37
306.11	1738.73
306.33	1730.53
306.54	1708.01
306.75	1689.57
306.97	1597.42
307.18	1609.70
307.39	1628.14
307.61	1736.68
307.82	1587.18
308.04	1755.11
308.25	1677.29
308.46	1685.48
308.68	1712.10
308.89	1683.43
309.10	1744.87
309.32	1697.77
309.53	1660.90
309.74	1751.01
309.96	1660.90
310.17	1773.54
310.39	1714.15
310.60	1714.15
310.81	1699.81
311.03	1644.52
311.24	1669.09
311.45	1781.73
311.67	1773.54
311.88	1662.95
312.09	1759.21
312.31	1705.96
312.52	1683.43
312.73	1679.33
312.95	1628.14
313.16	1660.90
313.37	1849.32
313.59	1716.20
313.80	1726.44
314.01	1796.07
314.23	1671.14
314.44	1671.14
314.65	1662.95
314.87	1701.86
315.08	1632.23
315.29	1640.42
315.51	1632.23
315.72	1599.46
315.93	1789.92
316.15	1763.30
316.36	1650.66
316.57	1689.57
316.79	1759.21
317.00	1708.01
317.21	1736.68
317.43	1613.80
317.64	1689.57
317.85	1603.56
318.07	1658.85
318.28	1673.19
318.49	1841.12
318.70	1857.51
318.92	1884.13
319.13	1800.16
319.34	1865.70
319.56	1775.59
319.77	1771.49
319.98	1748.97
320.20	1693.67
320.41	1738.73
320.62	1820.64
320.83	1665.00
321.05	1896.42
321.26	1777.64
321.47	1759.21
321.69	1732.58
321.90	1585.13
322.11	1599.46
322.32	1689.57
322.54	1804.26
322.75	1691.62
322.96	1822.69
323.18	1642.47
323.39	1583.08
323.60	1669.09
323.81	1802.21
324.03	1656.81
324.24	1656.81
324.45	1695.72
324.66	1720.29
324.88	1732.58
325.09	1751.01
325.30	1646.57
325.52	1773.54
325.73	1703.91
325.94	1726.44
326.15	1640.42
326.37	1652.71
326.58	1769.44
326.79	1705.96
327.00	1683.43
327.22	1773.54
327.43	1738.73
327.64	1628.14
327.85	1763.30
328.07	1767.40
328.28	1810.40
328.49	1693.67
328.70	1705.96
328.92	1697.77
329.13	1605.61
329.34	1748.97
329.55	1806.31
329.76	1734.63
329.98	1712.10
330.19	1773.54
330.40	1658.85
330.61	1730.53
330.83	1802.21
331.04	1662.95
331.25	1736.68
331.46	1650.66
331.68	1615.85
331.89	1781.73
332.10	1660.90
332.31	1724.39
332.52	1763.30
332.74	1806.31
332.95	1615.85
333.16	1632.23
333.37	1724.39
333.58	1652.71
333.80	1708.01
334.01	1624.04
334.22	1646.57
334.43	1640.42
334.64	1667.05
334.86	1687.53
335.07	1710.05
335.28	1730.53
335.49	1617.90
335.70	1683.43
335.92	1734.63
336.13	1822.69
336.34	1708.01
336.55	1732.58
336.76	1669.09
336.98	1591.27
337.19	1660.90
337.40	1761.25
337.61	1765.35
337.82	1720.29
338.04	1765.35
338.25	1611.75
338.46	1665.00
338.67	1691.62
338.88	1621.99
339.09	1722.34
339.31	1624.04
339.52	1679.33
339.73	1599.46
339.94	1726.44
340.15	1751.01
340.36	1705.96
340.58	1677.29
340.79	1675.24
341.00	1800.16
341.21	1671.14
341.42	1769.44
341.63	1669.09
341.85	1740.77
342.06	1656.81
342.27	1630.18
342.48	1738.73
342.69	1603.56
342.90	1673.19
343.12	1705.96
343.33	1656.81
343.54	1701.86
343.75	1785.83
343.96	1759.21
344.17	1677.29
344.38	1726.44
344.60	1650.66
344.81	1644.52
345.02	1699.81
345.23	1699.81
345.44	1757.16
345.65	1714.15
345.86	1757.16
346.07	1648.61
346.29	1699.81
346.50	1720.29
346.71	1728.49
346.92	1740.77
347.13	1789.92
347.34	1673.19
347.55	1763.30
347.76	1716.20
347.98	1650.66
348.19	1708.01
348.40	1738.73
348.61	1679.33
348.82	1755.11
349.03	1746.92
349.24	1597.42
349.45	1740.77
349.66	1677.29
349.88	1685.48
350.09	1724.39
350.30	1804.26
350.51	1785.83
350.72	1693.67
350.93	1710.05
351.14	1652.71
351.35	1710.05
351.56	1703.91
351.77	1761.25
351.99	1722.34
352.20	1757.16
352.41	1789.92
352.62	1648.61
352.83	1669.09
353.04	1769.44
353.25	1681.38
353.46	1748.97
353.67	1791.97
353.88	1576.94
354.09	1761.25
354.30	1714.15
354.52	1738.73
354.73	1679.33
354.94	1671.14
355.15	1724.39
355.36	1828.84
355.57	1779.68
355.78	1755.11
355.99	1660.90
356.20	1701.86
356.41	1820.64
356.62	1757.16
356.83	1681.38
357.04	1748.97
357.25	1626.09
357.46	1595.37
357.68	1599.46
357.89	1671.14
358.10	1759.21
358.31	1726.44
358.52	1673.19
358.73	1669.09
358.94	1632.23
359.15	1609.70
359.36	1689.57
359.57	1726.44
359.78	1681.38
359.99	1763.30
360.20	1673.19
360.41	1654.76
360.62	1755.11
360.83	1783.78
361.04	1701.86
361.25	1710.05
361.46	1771.49
361.67	1775.59
361.88	1693.67
362.09	1753.06
362.30	1718.25
362.51	1695.72
362.72	1691.62
362.93	1697.77
363.14	1748.97
363.35	1628.14
363.56	1658.85
363.78	1800.16
363.99	1806.31
364.20	1650.66
364.41	1683.43
364.62	1861.60
364.83	1755.11
365.04	1724.39
365.25	1744.87
365.46	1900.52
365.67	1648.61
365.88	1542.12
366.09	1748.97
366.30	1716.20
366.51	1685.48
366.72	1581.03
366.93	1665.00
367.14	1742.82
367.35	1845.22
367.56	1757.16
367.77	1779.68
367.98	1689.57
368.18	1757.16
368.39	1722.34
368.60	1597.42
368.81	1730.53
369.02	1775.59
369.23	1710.05
369.44	1626.09
369.65	1724.39
369.86	1738.73
370.07	1677.29
370.28	1689.57
370.49	1734.63
370.70	1775.59
370.91	1593.32
371.12	1632.23
371.33	1658.85
371.54	1665.00
371.75	1839.08
371.96	1574.89
372.17	1781.73
372.38	1689.57
372.59	1726.44
372.80	1687.53
373.01	1675.24
373.22	1701.86
373.43	1730.53
373.64	1691.62
373.85	1781.73
374.06	1861.60
374.26	1746.92
374.47	1804.26
374.68	1828.84
374.89	1757.16
375.10	1658.85
375.31	1777.64
375.52	1755.11
375.73	1769.44
375.94	1624.04
376.15	1746.92
376.36	1687.53
376.57	1716.20
376.78	1767.40
376.99	1714.15
377.20	1763.30
377.40	1718.25
377.61	1830.88
377.82	1695.72
378.03	1798.12
378.24	1736.68
378.45	1744.87
378.66	1783.78
378.87	1736.68
379.08	1615.85
379.29	1679.33
379.50	1738.73
379.71	1656.81
379.91	1730.53
380.12	1619.94
380.33	1824.74
380.54	1726.44
380.75	1724.39
380.96	1669.09
381.17	1755.11
381.38	1736.68
381.59	1730.53
381.80	1699.81
382.00	1918.95
382.21	1759.21
382.42	1853.41
382.63	1880.04
382.84	1705.96
383.05	1777.64
383.26	1755.11
383.47	1748.97
383.68	1730.53
383.88	1824.74
384.09	1677.29
384.30	1771.49
384.51	1673.19
384.72	1650.66
384.93	1554.41
385.14	1673.19
385.35	1705.96
385.55	1646.57
385.76	1800.16
385.97	1708.01
386.18	1656.81
386.39	1720.29
386.60	1701.86
386.81	1636.33
387.02	1681.38
387.22	1662.95
387.43	1765.35
387.64	1812.45
387.85	1914.85
388.06	2314.20
388.27	4347.84
388.48	6803.35
388.68	8202.11
388.89	9787.24
389.10	9883.50
389.31	8636.28
389.52	7710.60
389.73	6829.98
389.93	6272.93
390.14	5797.80
390.35	5246.90
390.56	4679.61
390.77	3860.42
390.98	3012.56
391.18	2572.25
391.39	2115.55
391.60	1812.45
391.81	1890.28
392.02	1724.39
392.23	1877.99
392.43	1652.71
392.64	1746.92
392.85	1681.38
393.06	1765.35
393.27	1730.53
393.47	1677.29
393.68	1761.25
393.89	1673.19
394.10	1800.16
394.31	1669.09
394.52	1665.00
394.72	1779.68
394.93	1806.31
395.14	1708.01
395.35	1812.45
395.56	1669.09
395.76	1705.96
395.97	1826.79
396.18	1791.97
396.39	1814.50
396.60	2082.78
396.80	1871.84
397.01	1789.92
397.22	1822.69
397.43	1822.69
397.64	1714.15
397.84	1806.31
398.05	1880.04
398.26	1763.30
398.47	1867.75
398.67	1783.78
398.88	1738.73
399.09	1722.34
399.30	1746.92
399.51	1650.66
399.71	1718.25
399.92	1761.25
400.13	1771.49
400.34	1724.39
400.54	1724.39
400.75	1806.31
400.96	1736.68
401.17	1787.88
401.37	1765.35
401.58	1712.10
401.79	1712.10
402.00	1800.16
402.21	1980.39
402.41	1980.39
402.62	1964.00
402.83	2013.15
403.04	1947.62
403.24	2031.58
403.45	1873.89
403.66	1894.37
403.87	1904.61
404.07	1908.71
404.28	1898.47
404.49	1900.52
404.70	1710.05
404.90	1722.34
405.11	1808.36
405.32	1689.57
405.52	1714.15
405.73	1691.62
405.94	1685.48
406.15	1738.73
406.35	1744.87
406.56	1736.68
406.77	1779.68
406.98	1748.97
407.18	1617.90
407.39	1789.92
407.60	1662.95
407.80	1683.43
408.01	1673.19
408.22	1675.24
408.43	1667.05
408.63	1742.82
408.84	1794.02
409.05	1765.35
409.25	1767.40
409.46	1585.13
409.67	1644.52
409.88	1681.38
410.08	1746.92
410.29	1675.24
410.50	1730.53
410.70	1832.93
410.91	1652.71
411.12	1800.16
411.32	1705.96
411.53	1648.61
411.74	1744.87
411.95	1765.35
412.15	1791.97
412.36	1742.82
412.57	1787.88
412.77	1853.41
412.98	1699.81
413.19	1763.30
413.39	1757.16
413.60	1804.26
413.81	1742.82
414.01	1648.61
414.22	1722.34
414.43	1730.53
414.63	1759.21
414.84	1767.40
415.05	1621.99
415.25	1642.47
415.46	1714.15
415.67	1626.09
415.87	1689.57
416.08	1632.23
416.29	1667.05
416.49	1701.86
416.70	1656.81
416.91	1734.63
417.11	1787.88
417.32	1642.47
417.53	1755.11
417.73	1705.96
417.94	1724.39
418.15	1730.53
418.35	1636.33
418.56	1705.96
418.77	1802.21
418.97	1673.19
419.18	1673.19
419.38	1636.33
419.59	1658.85
419.80	1832.93
420.00	1640.42
420.21	1763.30
420.42	1794.02
420.62	1736.68
420.83	1665.00
421.04	1671.14
421.24	1718.25
421.45	1767.40
421.65	1748.97
421.86	1740.77
422.07	1710.05
422.27	1787.88
422.48	1779.68
422.69	1669.09
422.89	1689.57
423.10	1701.86
423.30	1679.33
423.51	1705.96
423.72	1767.40
423.92	1669.09
424.13	1722.34
424.33	1658.85
424.54	1755.11
424.75	1677.29
424.95	1728.49
425.16	1787.88
425.36	1724.39
425.57	1724.39
425.78	1726.44
425.98	1830.88
426.19	1605.61
426.39	1644.52
426.60	1646.57
426.81	1732.58
427.01	1677.29
427.22	1695.72
427.42	1689.57
427.63	1695.72
427.83	1777.64
428.04	1855.46
428.25	1824.74
428.45	1779.68
428.66	1763.30
428.86	1722.34
429.07	1705.96
429.28	1708.01
429.48	1654.76
429.69	1644.52
429.89	1748.97
430.10	1593.32
430.30	1789.92
430.51	1734.63
430.71	1648.61
430.92	1767.40
431.13	1578.98
431.33	1802.21
431.54	1708.01
431.74	1832.93
431.95	1800.16
432.15	1753.06
432.36	1712.10
432.56	1742.82
432.77	1748.97
432.98	1818.60
433.18	1787.88
433.39	1767.40
433.59	1697.77
433.80	1796.07
434.00	1837.03
434.21	1675.24
434.41	1675.24
434.62	1894.37
434.82	1701.86
435.03	1675.24
435.23	1781.73
435.44	1607.66
435.64	1654.76
435.85	1701.86
436.06	1800.16
436.26	1814.50
436.47	1746.92
436.67	1671.14
436.88	1685.48
437.08	1708.01
437.29	1734.63
437.49	1738.73
437.70	1757.16
437.90	1757.16
438.11	1877.99
438.31	1781.73
438.52	1751.01
438.72	1859.56
438.93	1884.13
439.13	1765.35
439.34	1783.78
439.54	1724.39
439.75	1712.10
439.95	1800.16
440.16	1720.29
440.36	1742.82
440.57	1732.58
440.77	1814.50
440.98	1771.49
441.18	1753.06
441.39	1728.49
441.59	1646.57
441.80	1730.53
442.00	1742.82
442.21	1822.69
442.41	1671.14
442.62	1775.59
442.82	1699.81
443.02	1746.92
443.23	1732.58
443.43	1714.15
443.64	1757.16
443.84	1701.86
444.05	1738.73
444.25	1781.73
444.46	1689.57
444.66	1720.29
444.87	1710.05
445.07	1636.33
445.28	1771.49
445.48	1828.84
445.69	1787.88
445.89	1812.45
446.09	1718.25
446.30	1972.19
446.50	2717.65
446.71	3743.69
446.91	4394.94
447.12	4777.91
447.32	4964.28
447.53	4382.65
447.73	3841.99
447.93	3639.24
448.14	3258.32
448.34	3235.79
448.55	2992.08
448.75	2893.78
448.96	2688.98
449.16	2488.28
449.36	2193.37
449.57	2076.64
449.77	1906.66
449.98	1851.36
450.18	1773.54
450.39	1871.84
450.59	1767.40
450.79	1783.78
451.00	1656.81
451.20	1818.60
451.41	1660.90
451.61	1734.63
451.81	1708.01
452.02	1748.97
452.22	1740.77
452.43	1718.25
452.63	1693.67
