SpectraSuite Data File
++++++++++++++++++++++++++++++++++++
Date: Mon Jun 06 13:00:57 CEST 2016
User: root
Dark Spectrum Present: No
Reference Spectrum Present: No
Number of Sampled Component Spectra: 1
Spectrometers: USB4C02835
Integration Time (usec): 100000 (USB4C02835)
Spectra Averaged: 1 (USB4C02835)
Boxcar Smoothing: 0 (USB4C02835)
Correct for Electrical Dark: No (USB4C02835)
Strobe/Lamp Enabled: No (USB4C02835)
Correct for Detector Non-linearity: No (USB4C02835)
Correct for Stray Light: No (USB4C02835)
Number of Pixels in Processed Spectrum: 3648
>>>>>Begin Processed Spectral Data<<<<<
177.47	1439.72
177.69	1439.72
177.91	1439.72
178.13	1497.07
178.36	1435.63
178.58	1673.19
178.80	1701.86
179.02	1613.80
179.24	1595.37
179.46	1675.24
179.68	1769.44
179.90	1656.81
180.13	1654.76
180.35	1652.71
180.57	1693.67
180.79	1699.81
181.01	1701.86
181.23	1771.49
181.45	1796.07
181.67	1691.62
181.90	1740.77
182.12	1591.27
182.34	1642.47
182.56	1689.57
182.78	1705.96
183.00	1662.95
183.22	1785.83
183.44	1662.95
183.66	1875.94
183.89	1783.78
184.11	1648.61
184.33	1755.11
184.55	1779.68
184.77	1724.39
184.99	1710.05
185.21	1660.90
185.43	1798.12
185.65	1671.14
185.87	1701.86
186.10	1828.84
186.32	1845.22
186.54	1732.58
186.76	1720.29
186.98	1748.97
187.20	1656.81
187.42	1691.62
187.64	1673.19
187.86	1693.67
188.08	1755.11
188.30	1730.53
188.52	1673.19
188.75	1683.43
188.97	1744.87
189.19	1665.00
189.41	1578.98
189.63	1787.88
189.85	1757.16
190.07	1535.98
190.29	1619.94
190.51	1720.29
190.73	1652.71
190.95	1701.86
191.17	1683.43
191.39	1611.75
191.61	1609.70
191.84	1691.62
192.06	1705.96
192.28	1607.66
192.50	1832.93
192.72	1755.11
192.94	1648.61
193.16	1796.07
193.38	1785.83
193.60	1654.76
193.82	1771.49
194.04	1742.82
194.26	1697.77
194.48	1665.00
194.70	1720.29
194.92	1646.57
195.14	1699.81
195.36	1660.90
195.58	1740.77
195.80	1646.57
196.02	1593.32
196.24	1689.57
196.46	1724.39
196.69	1722.34
196.91	1794.02
197.13	1636.33
197.35	1632.23
197.57	1837.03
197.79	1765.35
198.01	1677.29
198.23	1796.07
198.45	1726.44
198.67	1540.07
198.89	1722.34
199.11	1677.29
199.33	1681.38
199.55	1560.55
199.77	1697.77
199.99	1761.25
200.21	1716.20
200.43	1720.29
200.65	1609.70
200.87	1566.70
201.09	1671.14
201.31	1710.05
201.53	1624.04
201.75	1732.58
201.97	1789.92
202.19	1710.05
202.41	1748.97
202.63	1822.69
202.85	1705.96
203.07	1718.25
203.29	1681.38
203.51	1593.32
203.73	1626.09
203.95	1853.41
204.17	1710.05
204.39	1671.14
204.61	1730.53
204.83	1679.33
205.05	1757.16
205.27	1728.49
205.49	1814.50
205.71	1740.77
205.93	1615.85
206.15	1697.77
206.37	1687.53
206.59	1638.38
206.81	1660.90
207.03	1660.90
207.25	1665.00
207.47	1751.01
207.69	1652.71
207.91	1755.11
208.13	1744.87
208.34	1650.66
208.56	1697.77
208.78	1722.34
209.00	1673.19
209.22	1607.66
209.44	1708.01
209.66	1624.04
209.88	1693.67
210.10	1662.95
210.32	1671.14
210.54	1818.60
210.76	1693.67
210.98	1787.88
211.20	1544.17
211.42	1701.86
211.64	1814.50
211.86	1748.97
212.08	1716.20
212.30	1728.49
212.52	1753.06
212.74	1732.58
212.96	1722.34
213.17	1746.92
213.39	1742.82
213.61	1722.34
213.83	1751.01
214.05	1656.81
214.27	1701.86
214.49	1705.96
214.71	1740.77
214.93	1828.84
215.15	1710.05
215.37	1732.58
215.59	1587.18
215.81	1708.01
216.03	1773.54
216.24	1710.05
216.46	1695.72
216.68	1755.11
216.90	1726.44
217.12	1777.64
217.34	1650.66
217.56	1693.67
217.78	1775.59
218.00	1671.14
218.22	1728.49
218.44	1652.71
218.66	1791.97
218.87	1722.34
219.09	1646.57
219.31	1751.01
219.53	1710.05
219.75	1665.00
219.97	1654.76
220.19	1769.44
220.41	1677.29
220.63	1736.68
220.85	1699.81
221.06	1632.23
221.28	1777.64
221.50	1742.82
221.72	1767.40
221.94	1683.43
222.16	1730.53
222.38	1728.49
222.60	1728.49
222.82	1726.44
223.03	1685.48
223.25	1654.76
223.47	1759.21
223.69	1787.88
223.91	1705.96
224.13	1615.85
224.35	1736.68
224.57	1755.11
224.78	1744.87
225.00	1660.90
225.22	1681.38
225.44	1665.00
225.66	1722.34
225.88	1705.96
226.10	1798.12
226.32	1755.11
226.53	1802.21
226.75	1679.33
226.97	1716.20
227.19	1705.96
227.41	1617.90
227.63	1669.09
227.85	1638.38
228.06	1677.29
228.28	1708.01
228.50	1724.39
228.72	1681.38
228.94	1677.29
229.16	1634.28
229.37	1576.94
229.59	1730.53
229.81	1771.49
230.03	1673.19
230.25	1638.38
230.47	1644.52
230.69	1585.13
230.90	1800.16
231.12	1632.23
231.34	1638.38
231.56	1744.87
231.78	1691.62
232.00	1630.18
232.21	1621.99
232.43	1734.63
232.65	1591.27
232.87	1736.68
233.09	1660.90
233.30	1693.67
233.52	1697.77
233.74	1667.05
233.96	1705.96
234.18	1714.15
234.40	1687.53
234.61	1814.50
234.83	1628.14
235.05	1685.48
235.27	1843.17
235.49	1798.12
235.70	1720.29
235.92	1777.64
236.14	1689.57
236.36	1798.12
236.58	1644.52
236.79	1644.52
237.01	1673.19
237.23	1671.14
237.45	1841.12
237.67	1667.05
237.88	1677.29
238.10	1796.07
238.32	1662.95
238.54	1714.15
238.76	1691.62
238.97	1710.05
239.19	1726.44
239.41	1755.11
239.63	1720.29
239.85	1652.71
240.06	1689.57
240.28	1708.01
240.50	1746.92
240.72	1740.77
240.93	1759.21
241.15	1802.21
241.37	1683.43
241.59	1824.74
241.81	1701.86
242.02	1693.67
242.24	1722.34
242.46	1722.34
242.68	1613.80
242.89	1681.38
243.11	1746.92
243.33	1656.81
243.55	1767.40
243.76	1787.88
243.98	1695.72
244.20	1697.77
244.42	1705.96
244.64	1656.81
244.85	1644.52
245.07	1583.08
245.29	1726.44
245.51	1671.14
245.72	1810.40
245.94	1740.77
246.16	1685.48
246.38	1765.35
246.59	1662.95
246.81	1730.53
247.03	1687.53
247.24	1624.04
247.46	1669.09
247.68	1736.68
247.90	1660.90
248.11	1683.43
248.33	1730.53
248.55	1703.91
248.77	1669.09
248.98	1769.44
249.20	1808.36
249.42	1759.21
249.64	1746.92
249.85	1679.33
250.07	1630.18
250.29	1730.53
250.50	1753.06
250.72	1615.85
250.94	1714.15
251.16	1855.46
251.37	1857.51
251.59	1740.77
251.81	1732.58
252.02	1681.38
252.24	1650.66
252.46	1837.03
252.68	1621.99
252.89	1726.44
253.11	1597.42
253.33	1773.54
253.54	1777.64
253.76	1634.28
253.98	1701.86
254.20	1671.14
254.41	1669.09
254.63	1769.44
254.85	1630.18
255.06	1757.16
255.28	1738.73
255.50	1710.05
255.71	1673.19
255.93	1648.61
256.15	1765.35
256.36	1757.16
256.58	1658.85
256.80	1755.11
257.02	1726.44
257.23	1675.24
257.45	1757.16
257.67	1796.07
257.88	1630.18
258.10	1693.67
258.32	1673.19
258.53	1728.49
258.75	1771.49
258.97	1642.47
259.18	1683.43
259.40	1662.95
259.62	1791.97
259.83	1738.73
260.05	1746.92
260.27	1990.63
260.48	1726.44
260.70	1599.46
260.92	1798.12
261.13	1728.49
261.35	1728.49
261.57	1718.25
261.78	1566.70
262.00	1673.19
262.22	1771.49
262.43	1671.14
262.65	1705.96
262.86	1603.56
263.08	1804.26
263.30	1710.05
263.51	1531.88
263.73	1667.05
263.95	1863.65
264.16	1636.33
264.38	1662.95
264.60	1738.73
264.81	1720.29
265.03	1810.40
265.25	1779.68
265.46	1650.66
265.68	1791.97
265.89	1757.16
266.11	1587.18
266.33	1724.39
266.54	1740.77
266.76	1738.73
266.98	1714.15
267.19	1730.53
267.41	1769.44
267.62	1634.28
267.84	1548.26
268.06	1697.77
268.27	1757.16
268.49	1755.11
268.70	1798.12
268.92	1685.48
269.14	1640.42
269.35	1560.55
269.57	1738.73
269.79	1712.10
270.00	1699.81
270.22	1765.35
270.43	1665.00
270.65	1583.08
270.87	1730.53
271.08	1748.97
271.30	1683.43
271.51	1728.49
271.73	1755.11
271.95	1796.07
272.16	1703.91
272.38	1757.16
272.59	1671.14
272.81	1681.38
273.02	1689.57
273.24	1708.01
273.46	1718.25
273.67	1665.00
273.89	1632.23
274.10	1681.38
274.32	1712.10
274.54	1687.53
274.75	1656.81
274.97	1644.52
275.18	1693.67
275.40	1724.39
275.61	1767.40
275.83	1781.73
276.05	1611.75
276.26	1751.01
276.48	1679.33
276.69	1660.90
276.91	1726.44
277.12	1773.54
277.34	1812.45
277.55	1710.05
277.77	1665.00
277.99	1740.77
278.20	1636.33
278.42	1652.71
278.63	1662.95
278.85	1710.05
279.06	1671.14
279.28	1658.85
279.49	1738.73
279.71	1787.88
279.93	1751.01
280.14	1667.05
280.36	1720.29
280.57	1804.26
280.79	1775.59
281.00	1607.66
281.22	1593.32
281.43	1736.68
281.65	1630.18
281.86	1601.51
282.08	1755.11
282.29	1822.69
282.51	1648.61
282.73	1636.33
282.94	1599.46
283.16	1736.68
283.37	1816.55
283.59	1689.57
283.80	1748.97
284.02	1738.73
284.23	1748.97
284.45	1695.72
284.66	1665.00
284.88	1681.38
285.09	1775.59
285.31	1748.97
285.52	1679.33
285.74	1681.38
285.95	1777.64
286.17	1660.90
286.38	1771.49
286.60	1673.19
286.81	1644.52
287.03	1691.62
287.24	1734.63
287.46	1742.82
287.67	1697.77
287.89	1779.68
288.10	1687.53
288.32	1724.39
288.53	1781.73
288.75	1656.81
288.96	1751.01
289.18	1671.14
289.39	1693.67
289.61	1728.49
289.82	1826.79
290.04	1779.68
290.25	1673.19
290.47	1697.77
290.68	1615.85
290.90	1730.53
291.11	1613.80
291.33	1701.86
291.54	1574.89
291.76	1615.85
291.97	1681.38
292.18	1710.05
292.40	1601.51
292.61	1681.38
292.83	1859.56
293.04	1703.91
293.26	1724.39
293.47	1681.38
293.69	1697.77
293.90	1757.16
294.12	1806.31
294.33	1703.91
294.55	1753.06
294.76	1798.12
294.97	1736.68
295.19	1820.64
295.40	1648.61
295.62	1726.44
295.83	1734.63
296.05	1642.47
296.26	1679.33
296.48	1640.42
296.69	1755.11
296.90	1693.67
297.12	1669.09
297.33	1759.21
297.55	1765.35
297.76	1771.49
297.98	1791.97
298.19	1673.19
298.41	1671.14
298.62	1658.85
298.83	1724.39
299.05	1689.57
299.26	1650.66
299.48	1724.39
299.69	1738.73
299.90	1759.21
300.12	1648.61
300.33	1718.25
300.55	1716.20
300.76	1708.01
300.98	1673.19
301.19	1726.44
301.40	1720.29
301.62	1703.91
301.83	1675.24
302.05	1619.94
302.26	1679.33
302.47	1724.39
302.69	1695.72
302.90	1724.39
303.12	1533.93
303.33	1689.57
303.54	1849.32
303.76	1736.68
303.97	1665.00
304.19	1777.64
304.40	1640.42
304.61	1718.25
304.83	1830.88
305.04	1732.58
305.26	1773.54
305.47	1648.61
305.68	1611.75
305.90	1638.38
306.11	1705.96
306.33	1679.33
306.54	1642.47
306.75	1640.42
306.97	1583.08
307.18	1607.66
307.39	1751.01
307.61	1751.01
307.82	1687.53
308.04	1763.30
308.25	1652.71
308.46	1667.05
308.68	1634.28
308.89	1734.63
309.10	1773.54
309.32	1697.77
309.53	1667.05
309.74	1759.21
309.96	1675.24
310.17	1781.73
310.39	1730.53
310.60	1712.10
310.81	1718.25
311.03	1628.14
311.24	1775.59
311.45	1652.71
311.67	1800.16
311.88	1705.96
312.09	1746.92
312.31	1630.18
312.52	1740.77
312.73	1669.09
312.95	1599.46
313.16	1556.46
313.37	1759.21
313.59	1732.58
313.80	1751.01
314.01	1798.12
314.23	1767.40
314.44	1624.04
314.65	1644.52
314.87	1708.01
315.08	1718.25
315.29	1669.09
315.51	1683.43
315.72	1566.70
315.93	1826.79
316.15	1763.30
316.36	1642.47
316.57	1708.01
316.79	1714.15
317.00	1697.77
317.21	1755.11
317.43	1730.53
317.64	1763.30
317.85	1658.85
318.07	1636.33
318.28	1796.07
318.49	1806.31
318.70	1886.18
318.92	1796.07
319.13	1775.59
319.34	1777.64
319.56	1777.64
319.77	1724.39
319.98	1744.87
320.20	1691.62
320.41	1753.06
320.62	1701.86
320.83	1624.04
321.05	1867.75
321.26	1675.24
321.47	1660.90
321.69	1759.21
321.90	1683.43
322.11	1636.33
322.32	1705.96
322.54	1808.36
322.75	1665.00
322.96	1820.64
323.18	1533.93
323.39	1628.14
323.60	1652.71
323.81	1775.59
324.03	1611.75
324.24	1703.91
324.45	1687.53
324.66	1687.53
324.88	1818.60
325.09	1724.39
325.30	1746.92
325.52	1730.53
325.73	1742.82
325.94	1615.85
326.15	1583.08
326.37	1634.28
326.58	1667.05
326.79	1767.40
327.00	1652.71
327.22	1695.72
327.43	1693.67
327.64	1642.47
327.85	1783.78
328.07	1658.85
328.28	1804.26
328.49	1691.62
328.70	1722.34
328.92	1742.82
329.13	1705.96
329.34	1726.44
329.55	1822.69
329.76	1757.16
329.98	1746.92
330.19	1808.36
330.40	1703.91
330.61	1718.25
330.83	1701.86
331.04	1759.21
331.25	1667.05
331.46	1630.18
331.68	1593.32
331.89	1714.15
332.10	1656.81
332.31	1691.62
332.52	1669.09
332.74	1789.92
332.95	1656.81
333.16	1642.47
333.37	1738.73
333.58	1642.47
333.80	1759.21
334.01	1605.61
334.22	1718.25
334.43	1642.47
334.64	1712.10
334.86	1615.85
335.07	1607.66
335.28	1763.30
335.49	1603.56
335.70	1728.49
335.92	1738.73
336.13	1794.02
336.34	1714.15
336.55	1738.73
336.76	1712.10
336.98	1597.42
337.19	1744.87
337.40	1789.92
337.61	1865.70
337.82	1656.81
338.04	1828.84
338.25	1636.33
338.46	1712.10
338.67	1624.04
338.88	1697.77
339.09	1615.85
339.31	1683.43
339.52	1726.44
339.73	1662.95
339.94	1755.11
340.15	1738.73
340.36	1687.53
340.58	1691.62
340.79	1724.39
341.00	1726.44
341.21	1648.61
341.42	1755.11
341.63	1679.33
341.85	1710.05
342.06	1738.73
342.27	1669.09
342.48	1806.31
342.69	1603.56
342.90	1693.67
343.12	1716.20
343.33	1757.16
343.54	1759.21
343.75	1767.40
343.96	1689.57
344.17	1619.94
344.38	1648.61
344.60	1673.19
344.81	1638.38
345.02	1759.21
345.23	1837.03
345.44	1902.56
345.65	1728.49
345.86	1640.42
346.07	1753.06
346.29	1662.95
346.50	1720.29
346.71	1683.43
346.92	1740.77
347.13	1820.64
347.34	1693.67
347.55	1673.19
347.76	1671.14
347.98	1583.08
348.19	1777.64
348.40	1794.02
348.61	1699.81
348.82	1810.40
349.03	1699.81
349.24	1609.70
349.45	1777.64
349.66	1632.23
349.88	1634.28
350.09	1626.09
350.30	1830.88
350.51	1734.63
350.72	1630.18
350.93	1665.00
351.14	1634.28
351.35	1742.82
351.56	1632.23
351.77	1642.47
351.99	1703.91
352.20	1820.64
352.41	1728.49
352.62	1658.85
352.83	1726.44
353.04	1619.94
353.25	1687.53
353.46	1714.15
353.67	1744.87
353.88	1640.42
354.09	1687.53
354.30	1740.77
354.52	1771.49
354.73	1697.77
354.94	1617.90
355.15	1763.30
355.36	1820.64
355.57	1683.43
355.78	1703.91
355.99	1654.76
356.20	1646.57
356.41	1773.54
356.62	1675.24
356.83	1701.86
357.04	1822.69
357.25	1632.23
357.46	1638.38
357.68	1634.28
357.89	1607.66
358.10	1724.39
358.31	1695.72
358.52	1615.85
358.73	1669.09
358.94	1609.70
359.15	1679.33
359.36	1738.73
359.57	1763.30
359.78	1656.81
359.99	1718.25
360.20	1697.77
360.41	1654.76
360.62	1802.21
360.83	1701.86
361.04	1673.19
361.25	1769.44
361.46	1794.02
361.67	1724.39
361.88	1710.05
362.09	1710.05
362.30	1775.59
362.51	1621.99
362.72	1642.47
362.93	1755.11
363.14	1787.88
363.35	1744.87
363.56	1662.95
363.78	1753.06
363.99	1748.97
364.20	1607.66
364.41	1691.62
364.62	1779.68
364.83	1742.82
365.04	1687.53
365.25	1757.16
365.46	1804.26
365.67	1624.04
365.88	1640.42
366.09	1669.09
366.30	1683.43
366.51	1701.86
366.72	1644.52
366.93	1699.81
367.14	1765.35
367.35	1759.21
367.56	1783.78
367.77	1787.88
367.98	1705.96
368.18	1757.16
368.39	1744.87
368.60	1693.67
368.81	1693.67
369.02	1677.29
369.23	1800.16
369.44	1599.46
369.65	1726.44
369.86	1767.40
370.07	1775.59
370.28	1599.46
370.49	1683.43
370.70	1742.82
370.91	1648.61
371.12	1607.66
371.33	1767.40
371.54	1695.72
371.75	1843.17
371.96	1583.08
372.17	1632.23
372.38	1697.77
372.59	1720.29
372.80	1697.77
373.01	1718.25
373.22	1734.63
373.43	1753.06
373.64	1613.80
373.85	1789.92
374.06	1810.40
374.26	1751.01
374.47	1689.57
374.68	1695.72
374.89	1697.77
375.10	1679.33
375.31	1757.16
375.52	1718.25
375.73	1718.25
375.94	1689.57
376.15	1816.55
376.36	1597.42
376.57	1648.61
376.78	1710.05
376.99	1665.00
377.20	1781.73
377.40	1589.22
377.61	1888.23
377.82	1677.29
378.03	1814.50
378.24	1658.85
378.45	1667.05
378.66	1695.72
378.87	1648.61
379.08	1572.84
379.29	1656.81
379.50	1763.30
379.71	1681.38
379.91	1681.38
380.12	1746.92
380.33	1681.38
380.54	1695.72
380.75	1722.34
380.96	1753.06
381.17	1740.77
381.38	1751.01
381.59	1705.96
381.80	1685.48
382.00	1873.89
382.21	1763.30
382.42	1779.68
382.63	1847.27
382.84	1837.03
383.05	1822.69
383.26	1837.03
383.47	1718.25
383.68	1726.44
383.88	1802.21
384.09	1619.94
384.30	1767.40
384.51	1769.44
384.72	1624.04
384.93	1675.24
385.14	1703.91
385.35	1624.04
385.55	1611.75
385.76	1738.73
385.97	1669.09
386.18	1665.00
386.39	1646.57
386.60	1640.42
386.81	1677.29
387.02	1611.75
387.22	1640.42
387.43	1785.83
387.64	1763.30
387.85	1871.84
388.06	2195.42
388.27	4216.77
388.48	6913.94
388.68	8300.42
388.89	9877.35
389.10	10049.38
389.31	8779.64
389.52	7589.77
389.73	6803.35
389.93	6367.13
390.14	6012.84
390.35	5273.52
390.56	4640.70
390.77	3858.37
390.98	3137.49
391.18	2506.71
391.39	2123.74
391.60	1867.75
391.81	1794.02
392.02	1718.25
392.23	1796.07
392.43	1697.77
392.64	1753.06
392.85	1810.40
393.06	1841.12
393.27	1681.38
393.47	1708.01
393.68	1744.87
393.89	1617.90
394.10	1744.87
394.31	1673.19
394.52	1687.53
394.72	1683.43
394.93	1734.63
395.14	1644.52
395.35	1724.39
395.56	1646.57
395.76	1705.96
395.97	1843.17
396.18	1822.69
396.39	1861.60
396.60	2019.30
396.80	1949.67
397.01	1896.42
397.22	1816.55
397.43	1812.45
397.64	1751.01
397.84	1689.57
398.05	1839.08
398.26	1761.25
398.47	1781.73
398.67	1781.73
398.88	1712.10
399.09	1812.45
399.30	1703.91
399.51	1675.24
399.71	1695.72
399.92	1714.15
400.13	1662.95
400.34	1669.09
400.54	1781.73
400.75	1787.88
400.96	1738.73
401.17	1816.55
401.37	1732.58
401.58	1736.68
401.79	1771.49
402.00	1853.41
402.21	1959.91
402.41	1914.85
402.62	1990.63
402.83	2017.25
403.04	1976.29
403.24	2017.25
403.45	1855.46
403.66	1861.60
403.87	1931.23
404.07	1880.04
404.28	1857.51
404.49	1804.26
404.70	1771.49
404.90	1728.49
405.11	1724.39
405.32	1798.12
405.52	1665.00
405.73	1675.24
405.94	1675.24
406.15	1644.52
406.35	1746.92
406.56	1701.86
406.77	1716.20
406.98	1714.15
407.18	1615.85
407.39	1843.17
407.60	1730.53
407.80	1710.05
408.01	1615.85
408.22	1763.30
408.43	1644.52
408.63	1767.40
408.84	1720.29
409.05	1705.96
409.25	1687.53
409.46	1693.67
409.67	1701.86
409.88	1697.77
410.08	1740.77
410.29	1738.73
410.50	1761.25
410.70	1712.10
410.91	1662.95
411.12	1714.15
411.32	1701.86
411.53	1650.66
411.74	1800.16
411.95	1748.97
412.15	1761.25
412.36	1748.97
412.57	1759.21
412.77	1816.55
412.98	1695.72
413.19	1673.19
413.39	1767.40
413.60	1691.62
413.81	1857.51
414.01	1660.90
414.22	1681.38
414.43	1800.16
414.63	1681.38
414.84	1722.34
415.05	1789.92
415.25	1646.57
415.46	1802.21
415.67	1716.20
415.87	1746.92
416.08	1687.53
416.29	1689.57
416.49	1705.96
416.70	1681.38
416.91	1609.70
417.11	1671.14
417.32	1771.49
417.53	1761.25
417.73	1648.61
417.94	1732.58
418.15	1765.35
418.35	1673.19
418.56	1775.59
418.77	1828.84
418.97	1736.68
419.18	1675.24
419.38	1558.50
419.59	1705.96
419.80	1806.31
420.00	1714.15
420.21	1687.53
420.42	1744.87
420.62	1665.00
420.83	1632.23
421.04	1699.81
421.24	1648.61
421.45	1791.97
421.65	1736.68
421.86	1734.63
422.07	1687.53
422.27	1628.14
422.48	1753.06
422.69	1660.90
422.89	1683.43
423.10	1710.05
423.30	1636.33
423.51	1716.20
423.72	1822.69
423.92	1708.01
424.13	1708.01
424.33	1660.90
424.54	1820.64
424.75	1726.44
424.95	1783.78
425.16	1738.73
425.36	1658.85
425.57	1720.29
425.78	1755.11
425.98	1789.92
426.19	1681.38
426.39	1619.94
426.60	1669.09
426.81	1779.68
427.01	1742.82
427.22	1648.61
427.42	1581.03
427.63	1667.05
427.83	1722.34
428.04	1765.35
428.25	1736.68
428.45	1730.53
428.66	1843.17
428.86	1669.09
429.07	1689.57
429.28	1689.57
429.48	1671.14
429.69	1632.23
429.89	1787.88
430.10	1597.42
430.30	1744.87
430.51	1824.74
430.71	1708.01
430.92	1691.62
431.13	1656.81
431.33	1722.34
431.54	1751.01
431.74	1742.82
431.95	1865.70
432.15	1714.15
432.36	1738.73
432.56	1830.88
432.77	1820.64
432.98	1775.59
433.18	1724.39
433.39	1656.81
433.59	1689.57
433.80	1765.35
434.00	1826.79
434.21	1667.05
434.41	1705.96
434.62	1910.75
434.82	1667.05
435.03	1675.24
435.23	1775.59
435.44	1677.29
435.64	1652.71
435.85	1751.01
436.06	1837.03
436.26	1732.58
436.47	1624.04
436.67	1708.01
436.88	1738.73
437.08	1740.77
437.29	1732.58
437.49	1701.86
437.70	1775.59
437.90	1746.92
438.11	1828.84
438.31	1728.49
438.52	1853.41
438.72	1912.80
438.93	1923.04
439.13	1722.34
439.34	1804.26
439.54	1701.86
439.75	1861.60
439.95	1734.63
440.16	1679.33
440.36	1787.88
440.57	1822.69
440.77	1755.11
440.98	1761.25
441.18	1744.87
441.39	1646.57
441.59	1720.29
441.80	1890.28
442.00	1634.28
442.21	1824.74
442.41	1683.43
442.62	1705.96
442.82	1665.00
443.02	1746.92
443.23	1757.16
443.43	1691.62
443.64	1746.92
443.84	1669.09
444.05	1779.68
444.25	1714.15
444.46	1769.44
444.66	1708.01
444.87	1814.50
445.07	1675.24
445.28	1767.40
445.48	1742.82
445.69	1796.07
445.89	1863.65
446.09	1767.40
446.30	2043.87
446.50	2674.65
446.71	3733.45
446.91	4372.41
447.12	4888.50
447.32	4833.21
447.53	4362.17
447.73	3876.80
447.93	3579.85
448.14	3235.79
448.34	3196.88
448.55	2869.20
448.75	2826.20
448.96	2754.52
449.16	2443.23
449.36	2265.05
449.57	2080.74
449.77	1945.57
449.98	1779.68
450.18	1742.82
450.39	1773.54
450.59	1718.25
450.79	1701.86
451.00	1697.77
451.20	1746.92
451.41	1744.87
451.61	1710.05
451.81	1767.40
452.02	1724.39
452.22	1654.76
452.43	1769.44
452.63	1681.38
