SpectraSuite Data File
++++++++++++++++++++++++++++++++++++
Date: Mon Jun 06 14:43:57 CEST 2016
User: root
Dark Spectrum Present: No
Reference Spectrum Present: No
Number of Sampled Component Spectra: 1
Spectrometers: USB4C02835
Integration Time (usec): 100000 (USB4C02835)
Spectra Averaged: 1 (USB4C02835)
Boxcar Smoothing: 0 (USB4C02835)
Correct for Electrical Dark: No (USB4C02835)
Strobe/Lamp Enabled: No (USB4C02835)
Correct for Detector Non-linearity: No (USB4C02835)
Correct for Stray Light: No (USB4C02835)
Number of Pixels in Processed Spectrum: 3648
>>>>>Begin Processed Spectral Data<<<<<
177.47	1523.69
177.69	1523.69
177.91	1523.69
178.13	1435.63
178.36	1454.06
178.58	1697.77
178.80	1808.36
179.02	1652.71
179.24	1652.71
179.46	1708.01
179.68	1845.22
179.90	1595.37
180.13	1710.05
180.35	1662.95
180.57	1611.75
180.79	1671.14
181.01	1722.34
181.23	1742.82
181.45	1806.31
181.67	1683.43
181.90	1763.30
182.12	1644.52
182.34	1630.18
182.56	1742.82
182.78	1689.57
183.00	1742.82
183.22	1726.44
183.44	1681.38
183.66	1826.79
183.89	1812.45
184.11	1726.44
184.33	1794.02
184.55	1804.26
184.77	1779.68
184.99	1714.15
185.21	1716.20
185.43	1806.31
185.65	1656.81
185.87	1732.58
186.10	1847.27
186.32	1832.93
186.54	1683.43
186.76	1726.44
186.98	1740.77
187.20	1636.33
187.42	1726.44
187.64	1734.63
187.86	1794.02
188.08	1732.58
188.30	1732.58
188.52	1640.42
188.75	1796.07
188.97	1716.20
189.19	1650.66
189.41	1736.68
189.63	1693.67
189.85	1632.23
190.07	1710.05
190.29	1652.71
190.51	1720.29
190.73	1605.61
190.95	1783.78
191.17	1744.87
191.39	1601.51
191.61	1710.05
191.84	1658.85
192.06	1665.00
192.28	1605.61
192.50	1851.36
192.72	1738.73
192.94	1675.24
193.16	1759.21
193.38	1759.21
193.60	1689.57
193.82	1708.01
194.04	1697.77
194.26	1732.58
194.48	1665.00
194.70	1710.05
194.92	1662.95
195.14	1755.11
195.36	1597.42
195.58	1703.91
195.80	1695.72
196.02	1609.70
196.24	1656.81
196.46	1744.87
196.69	1724.39
196.91	1855.46
197.13	1648.61
197.35	1699.81
197.57	1763.30
197.79	1701.86
198.01	1683.43
198.23	1812.45
198.45	1755.11
198.67	1609.70
198.89	1701.86
199.11	1734.63
199.33	1681.38
199.55	1665.00
199.77	1644.52
199.99	1798.12
200.21	1609.70
200.43	1728.49
200.65	1638.38
200.87	1535.98
201.09	1734.63
201.31	1630.18
201.53	1779.68
201.75	1703.91
201.97	1732.58
202.19	1751.01
202.41	1703.91
202.63	1853.41
202.85	1755.11
203.07	1679.33
203.29	1718.25
203.51	1722.34
203.73	1675.24
203.95	1804.26
204.17	1767.40
204.39	1787.88
204.61	1652.71
204.83	1665.00
205.05	1675.24
205.27	1738.73
205.49	1818.60
205.71	1673.19
205.93	1675.24
206.15	1638.38
206.37	1726.44
206.59	1724.39
206.81	1632.23
207.03	1628.14
207.25	1619.94
207.47	1761.25
207.69	1687.53
207.91	1726.44
208.13	1800.16
208.34	1708.01
208.56	1746.92
208.78	1740.77
209.00	1687.53
209.22	1685.48
209.44	1691.62
209.66	1759.21
209.88	1710.05
210.10	1658.85
210.32	1693.67
210.54	1810.40
210.76	1693.67
210.98	1734.63
211.20	1572.84
211.42	1671.14
211.64	1763.30
211.86	1665.00
212.08	1718.25
212.30	1732.58
212.52	1654.76
212.74	1759.21
212.96	1716.20
213.17	1781.73
213.39	1703.91
213.61	1814.50
213.83	1652.71
214.05	1673.19
214.27	1740.77
214.49	1607.66
214.71	1732.58
214.93	1746.92
215.15	1722.34
215.37	1724.39
215.59	1720.29
215.81	1718.25
216.03	1689.57
216.24	1705.96
216.46	1669.09
216.68	1708.01
216.90	1734.63
217.12	1710.05
217.34	1669.09
217.56	1787.88
217.78	1787.88
218.00	1689.57
218.22	1724.39
218.44	1701.86
218.66	1757.16
218.87	1818.60
219.09	1687.53
219.31	1648.61
219.53	1714.15
219.75	1689.57
219.97	1718.25
220.19	1693.67
220.41	1632.23
220.63	1759.21
220.85	1654.76
221.06	1712.10
221.28	1732.58
221.50	1718.25
221.72	1632.23
221.94	1648.61
222.16	1693.67
222.38	1683.43
222.60	1722.34
222.82	1634.28
223.03	1748.97
223.25	1570.79
223.47	1771.49
223.69	1853.41
223.91	1769.44
224.13	1708.01
224.35	1636.33
224.57	1785.83
224.78	1746.92
225.00	1648.61
225.22	1632.23
225.44	1720.29
225.66	1708.01
225.88	1781.73
226.10	1724.39
226.32	1802.21
226.53	1746.92
226.75	1699.81
226.97	1724.39
227.19	1757.16
227.41	1679.33
227.63	1650.66
227.85	1689.57
228.06	1691.62
228.28	1685.48
228.50	1763.30
228.72	1617.90
228.94	1730.53
229.16	1656.81
229.37	1658.85
229.59	1638.38
229.81	1824.74
230.03	1654.76
230.25	1568.74
230.47	1660.90
230.69	1701.86
230.90	1779.68
231.12	1650.66
231.34	1765.35
231.56	1753.06
231.78	1673.19
232.00	1771.49
232.21	1669.09
232.43	1708.01
232.65	1576.94
232.87	1740.77
233.09	1642.47
233.30	1654.76
233.52	1779.68
233.74	1722.34
233.96	1738.73
234.18	1683.43
234.40	1673.19
234.61	1820.64
234.83	1691.62
235.05	1630.18
235.27	1863.65
235.49	1814.50
235.70	1583.08
235.92	1796.07
236.14	1785.83
236.36	1804.26
236.58	1550.31
236.79	1703.91
237.01	1679.33
237.23	1660.90
237.45	1742.82
237.67	1705.96
237.88	1720.29
238.10	1830.88
238.32	1630.18
238.54	1736.68
238.76	1689.57
238.97	1658.85
239.19	1662.95
239.41	1736.68
239.63	1740.77
239.85	1587.18
240.06	1656.81
240.28	1732.58
240.50	1656.81
240.72	1642.47
240.93	1675.24
241.15	1652.71
241.37	1687.53
241.59	1765.35
241.81	1669.09
242.02	1701.86
242.24	1724.39
242.46	1673.19
242.68	1642.47
242.89	1722.34
243.11	1753.06
243.33	1744.87
243.55	1734.63
243.76	1699.81
243.98	1624.04
244.20	1742.82
244.42	1720.29
244.64	1708.01
244.85	1630.18
245.07	1607.66
245.29	1759.21
245.51	1728.49
245.72	1703.91
245.94	1783.78
246.16	1757.16
246.38	1705.96
246.59	1665.00
246.81	1683.43
247.03	1673.19
247.24	1591.27
247.46	1699.81
247.68	1730.53
247.90	1746.92
248.11	1697.77
248.33	1804.26
248.55	1783.78
248.77	1736.68
248.98	1695.72
249.20	1783.78
249.42	1703.91
249.64	1708.01
249.85	1722.34
250.07	1701.86
250.29	1736.68
250.50	1744.87
250.72	1630.18
250.94	1656.81
251.16	1751.01
251.37	1767.40
251.59	1691.62
251.81	1804.26
252.02	1808.36
252.24	1669.09
252.46	1816.55
252.68	1710.05
252.89	1726.44
253.11	1611.75
253.33	1708.01
253.54	1712.10
253.76	1613.80
253.98	1665.00
254.20	1617.90
254.41	1642.47
254.63	1687.53
254.85	1671.14
255.06	1765.35
255.28	1648.61
255.50	1644.52
255.71	1642.47
255.93	1669.09
256.15	1669.09
256.36	1734.63
256.58	1636.33
256.80	1681.38
257.02	1665.00
257.23	1624.04
257.45	1687.53
257.67	1689.57
257.88	1615.85
258.10	1708.01
258.32	1779.68
258.53	1708.01
258.75	1810.40
258.97	1677.29
259.18	1722.34
259.40	1728.49
259.62	1800.16
259.83	1759.21
260.05	1748.97
260.27	1902.56
260.48	1738.73
260.70	1660.90
260.92	1701.86
261.13	1691.62
261.35	1683.43
261.57	1777.64
261.78	1599.46
262.00	1691.62
262.22	1722.34
262.43	1662.95
262.65	1617.90
262.86	1665.00
263.08	1783.78
263.30	1689.57
263.51	1638.38
263.73	1705.96
263.95	1744.87
264.16	1617.90
264.38	1689.57
264.60	1796.07
264.81	1705.96
265.03	1724.39
265.25	1712.10
265.46	1660.90
265.68	1753.06
265.89	1781.73
266.11	1507.30
266.33	1736.68
266.54	1730.53
266.76	1691.62
266.98	1753.06
267.19	1775.59
267.41	1728.49
267.62	1665.00
267.84	1615.85
268.06	1689.57
268.27	1683.43
268.49	1806.31
268.70	1781.73
268.92	1705.96
269.14	1628.14
269.35	1669.09
269.57	1634.28
269.79	1781.73
270.00	1701.86
270.22	1742.82
270.43	1703.91
270.65	1525.74
270.87	1695.72
271.08	1705.96
271.30	1736.68
271.51	1679.33
271.73	1697.77
271.95	1730.53
272.16	1621.99
272.38	1714.15
272.59	1650.66
272.81	1763.30
273.02	1685.48
273.24	1783.78
273.46	1720.29
273.67	1679.33
273.89	1591.27
274.10	1636.33
274.32	1708.01
274.54	1687.53
274.75	1746.92
274.97	1665.00
275.18	1785.83
275.40	1726.44
275.61	1691.62
275.83	1708.01
276.05	1566.70
276.26	1669.09
276.48	1708.01
276.69	1689.57
276.91	1597.42
277.12	1763.30
277.34	1730.53
277.55	1765.35
277.77	1665.00
277.99	1654.76
278.20	1652.71
278.42	1634.28
278.63	1675.24
278.85	1609.70
279.06	1656.81
279.28	1730.53
279.49	1748.97
279.71	1722.34
279.93	1650.66
280.14	1652.71
280.36	1679.33
280.57	1779.68
280.79	1675.24
281.00	1708.01
281.22	1667.05
281.43	1753.06
281.65	1632.23
281.86	1716.20
282.08	1691.62
282.29	1742.82
282.51	1607.66
282.73	1576.94
282.94	1693.67
283.16	1800.16
283.37	1796.07
283.59	1648.61
283.80	1710.05
284.02	1726.44
284.23	1763.30
284.45	1728.49
284.66	1642.47
284.88	1685.48
285.09	1693.67
285.31	1742.82
285.52	1730.53
285.74	1599.46
285.95	1767.40
286.17	1701.86
286.38	1761.25
286.60	1685.48
286.81	1660.90
287.03	1656.81
287.24	1656.81
287.46	1748.97
287.67	1787.88
287.89	1781.73
288.10	1689.57
288.32	1722.34
288.53	1714.15
288.75	1644.52
288.96	1710.05
289.18	1695.72
289.39	1687.53
289.61	1718.25
289.82	1791.97
290.04	1808.36
290.25	1609.70
290.47	1742.82
290.68	1746.92
290.90	1810.40
291.11	1564.65
291.33	1634.28
291.54	1675.24
291.76	1658.85
291.97	1746.92
292.18	1708.01
292.40	1636.33
292.61	1685.48
292.83	1751.01
293.04	1746.92
293.26	1738.73
293.47	1697.77
293.69	1640.42
293.90	1726.44
294.12	1742.82
294.33	1726.44
294.55	1689.57
294.76	1753.06
294.97	1699.81
295.19	1787.88
295.40	1767.40
295.62	1703.91
295.83	1724.39
296.05	1662.95
296.26	1771.49
296.48	1746.92
296.69	1681.38
296.90	1597.42
297.12	1746.92
297.33	1746.92
297.55	1710.05
297.76	1779.68
297.98	1724.39
298.19	1728.49
298.41	1746.92
298.62	1673.19
298.83	1751.01
299.05	1621.99
299.26	1748.97
299.48	1628.14
299.69	1746.92
299.90	1822.69
300.12	1693.67
300.33	1705.96
300.55	1710.05
300.76	1718.25
300.98	1636.33
301.19	1708.01
301.40	1689.57
301.62	1685.48
301.83	1697.77
302.05	1681.38
302.26	1736.68
302.47	1634.28
302.69	1695.72
302.90	1673.19
303.12	1630.18
303.33	1738.73
303.54	1757.16
303.76	1746.92
303.97	1753.06
304.19	1710.05
304.40	1581.03
304.61	1794.02
304.83	1880.04
305.04	1800.16
305.26	1759.21
305.47	1591.27
305.68	1660.90
305.90	1648.61
306.11	1697.77
306.33	1708.01
306.54	1730.53
306.75	1755.11
306.97	1583.08
307.18	1722.34
307.39	1648.61
307.61	1730.53
307.82	1650.66
308.04	1685.48
308.25	1617.90
308.46	1689.57
308.68	1716.20
308.89	1699.81
309.10	1734.63
309.32	1701.86
309.53	1677.29
309.74	1765.35
309.96	1687.53
310.17	1705.96
310.39	1585.13
310.60	1722.34
310.81	1734.63
311.03	1578.98
311.24	1732.58
311.45	1665.00
311.67	1834.98
311.88	1738.73
312.09	1656.81
312.31	1652.71
312.52	1712.10
312.73	1665.00
312.95	1671.14
313.16	1656.81
313.37	1738.73
313.59	1675.24
313.80	1775.59
314.01	1828.84
314.23	1677.29
314.44	1652.71
314.65	1724.39
314.87	1632.23
315.08	1660.90
315.29	1722.34
315.51	1689.57
315.72	1691.62
315.93	1755.11
316.15	1789.92
316.36	1669.09
316.57	1689.57
316.79	1693.67
317.00	1722.34
317.21	1722.34
317.43	1591.27
317.64	1685.48
317.85	1783.78
318.07	1679.33
318.28	1708.01
318.49	1783.78
318.70	1888.23
318.92	1871.84
319.13	1871.84
319.34	1877.99
319.56	1834.98
319.77	1800.16
319.98	1763.30
320.20	1787.88
320.41	1767.40
320.62	1763.30
320.83	1599.46
321.05	1804.26
321.26	1767.40
321.47	1658.85
321.69	1751.01
321.90	1568.74
322.11	1703.91
322.32	1728.49
322.54	1775.59
322.75	1722.34
322.96	1830.88
323.18	1646.57
323.39	1714.15
323.60	1636.33
323.81	1728.49
324.03	1669.09
324.24	1646.57
324.45	1710.05
324.66	1699.81
324.88	1787.88
325.09	1738.73
325.30	1599.46
325.52	1771.49
325.73	1740.77
325.94	1701.86
326.15	1630.18
326.37	1654.76
326.58	1724.39
326.79	1773.54
327.00	1648.61
327.22	1728.49
327.43	1695.72
327.64	1615.85
327.85	1781.73
328.07	1757.16
328.28	1824.74
328.49	1679.33
328.70	1675.24
328.92	1728.49
329.13	1669.09
329.34	1671.14
329.55	1816.55
329.76	1751.01
329.98	1634.28
330.19	1728.49
330.40	1677.29
330.61	1798.12
330.83	1738.73
331.04	1662.95
331.25	1699.81
331.46	1585.13
331.68	1595.37
331.89	1798.12
332.10	1708.01
332.31	1691.62
332.52	1705.96
332.74	1730.53
332.95	1630.18
333.16	1695.72
333.37	1691.62
333.58	1638.38
333.80	1710.05
334.01	1636.33
334.22	1693.67
334.43	1718.25
334.64	1685.48
334.86	1619.94
335.07	1628.14
335.28	1796.07
335.49	1497.07
335.70	1728.49
335.92	1736.68
336.13	1824.74
336.34	1787.88
336.55	1667.05
336.76	1734.63
336.98	1576.94
337.19	1716.20
337.40	1779.68
337.61	1865.70
337.82	1667.05
338.04	1767.40
338.25	1564.65
338.46	1673.19
338.67	1648.61
338.88	1656.81
339.09	1642.47
339.31	1689.57
339.52	1607.66
339.73	1644.52
339.94	1726.44
340.15	1769.44
340.36	1595.37
340.58	1748.97
340.79	1591.27
341.00	1689.57
341.21	1669.09
341.42	1742.82
341.63	1708.01
341.85	1804.26
342.06	1800.16
342.27	1587.18
342.48	1687.53
342.69	1599.46
342.90	1714.15
343.12	1744.87
343.33	1697.77
343.54	1724.39
343.75	1748.97
343.96	1705.96
344.17	1644.52
344.38	1667.05
344.60	1710.05
344.81	1619.94
345.02	1679.33
345.23	1667.05
345.44	1806.31
345.65	1724.39
345.86	1728.49
346.07	1708.01
346.29	1714.15
346.50	1730.53
346.71	1771.49
346.92	1841.12
347.13	1890.28
347.34	1615.85
347.55	1755.11
347.76	1718.25
347.98	1609.70
348.19	1714.15
348.40	1757.16
348.61	1689.57
348.82	1722.34
349.03	1777.64
349.24	1677.29
349.45	1771.49
349.66	1624.04
349.88	1755.11
350.09	1636.33
350.30	1726.44
350.51	1759.21
350.72	1693.67
350.93	1695.72
351.14	1628.14
351.35	1728.49
351.56	1728.49
351.77	1724.39
351.99	1746.92
352.20	1855.46
352.41	1781.73
352.62	1601.51
352.83	1722.34
353.04	1650.66
353.25	1646.57
353.46	1802.21
353.67	1648.61
353.88	1589.22
354.09	1728.49
354.30	1693.67
354.52	1742.82
354.73	1673.19
354.94	1648.61
355.15	1642.47
355.36	1869.80
355.57	1648.61
355.78	1681.38
355.99	1621.99
356.20	1710.05
356.41	1810.40
356.62	1673.19
356.83	1695.72
357.04	1820.64
357.25	1566.70
357.46	1650.66
357.68	1658.85
357.89	1669.09
358.10	1683.43
358.31	1652.71
358.52	1738.73
358.73	1683.43
358.94	1730.53
359.15	1648.61
359.36	1759.21
359.57	1740.77
359.78	1734.63
359.99	1757.16
360.20	1757.16
360.41	1734.63
360.62	1789.92
360.83	1769.44
361.04	1652.71
361.25	1708.01
361.46	1804.26
361.67	1791.97
361.88	1691.62
362.09	1814.50
362.30	1783.78
362.51	1662.95
362.72	1744.87
362.93	1669.09
363.14	1708.01
363.35	1656.81
363.56	1632.23
363.78	1814.50
363.99	1781.73
364.20	1675.24
364.41	1710.05
364.62	1812.45
364.83	1771.49
365.04	1759.21
365.25	1716.20
365.46	1779.68
365.67	1660.90
365.88	1693.67
366.09	1605.61
366.30	1705.96
366.51	1744.87
366.72	1605.61
366.93	1726.44
367.14	1611.75
367.35	1779.68
367.56	1691.62
367.77	1740.77
367.98	1728.49
368.18	1662.95
368.39	1679.33
368.60	1681.38
368.81	1730.53
369.02	1740.77
369.23	1658.85
369.44	1626.09
369.65	1681.38
369.86	1691.62
370.07	1681.38
370.28	1703.91
370.49	1753.06
370.70	1732.58
370.91	1636.33
371.12	1591.27
371.33	1683.43
371.54	1724.39
371.75	1755.11
371.96	1583.08
372.17	1693.67
372.38	1675.24
372.59	1777.64
372.80	1658.85
373.01	1685.48
373.22	1765.35
373.43	1665.00
373.64	1587.18
373.85	1738.73
374.06	1806.31
374.26	1714.15
374.47	1667.05
374.68	1767.40
374.89	1603.56
375.10	1718.25
375.31	1779.68
375.52	1732.58
375.73	1695.72
375.94	1624.04
376.15	1798.12
376.36	1615.85
376.57	1619.94
376.78	1673.19
376.99	1689.57
377.20	1806.31
377.40	1683.43
377.61	1751.01
377.82	1617.90
378.03	1857.51
378.24	1714.15
378.45	1685.48
378.66	1720.29
378.87	1599.46
379.08	1669.09
379.29	1681.38
379.50	1777.64
379.71	1673.19
379.91	1716.20
380.12	1673.19
380.33	1675.24
380.54	1748.97
380.75	1687.53
380.96	1701.86
381.17	1845.22
381.38	1728.49
381.59	1751.01
381.80	1681.38
382.00	1861.60
382.21	1665.00
382.42	1783.78
382.63	1849.32
382.84	1781.73
383.05	1789.92
383.26	1814.50
383.47	1763.30
383.68	1685.48
383.88	1726.44
384.09	1720.29
384.30	1871.84
384.51	1697.77
384.72	1671.14
384.93	1667.05
385.14	1691.62
385.35	1738.73
385.55	1660.90
385.76	1740.77
385.97	1703.91
386.18	1722.34
386.39	1636.33
386.60	1654.76
386.81	1753.06
387.02	1665.00
387.22	1650.66
387.43	1783.78
387.64	1781.73
387.85	1861.60
388.06	2213.85
388.27	4362.17
388.48	6893.46
388.68	8351.62
388.89	9906.02
389.10	9899.88
389.31	8734.59
389.52	7704.46
389.73	6950.81
389.93	6244.26
390.14	5842.85
390.35	5273.52
390.56	4657.08
390.77	3841.99
390.98	3067.86
391.18	2506.71
391.39	2031.58
391.60	1757.16
391.81	1898.47
392.02	1738.73
392.23	1875.94
392.43	1705.96
392.64	1798.12
392.85	1722.34
393.06	1791.97
393.27	1718.25
393.47	1712.10
393.68	1685.48
393.89	1675.24
394.10	1767.40
394.31	1681.38
394.52	1755.11
394.72	1691.62
394.93	1736.68
395.14	1615.85
395.35	1761.25
395.56	1673.19
395.76	1800.16
395.97	1767.40
396.18	1873.89
396.39	1896.42
396.60	2007.01
396.80	1964.00
397.01	1810.40
397.22	1828.84
397.43	1857.51
397.64	1804.26
397.84	1759.21
398.05	1900.52
398.26	1767.40
398.47	1746.92
398.67	1818.60
398.88	1675.24
399.09	1761.25
399.30	1636.33
399.51	1701.86
399.71	1601.51
399.92	1802.21
400.13	1689.57
400.34	1667.05
400.54	1759.21
400.75	1771.49
400.96	1757.16
401.17	1810.40
401.37	1738.73
401.58	1716.20
401.79	1679.33
402.00	1810.40
402.21	1984.48
402.41	1941.47
402.62	1976.29
402.83	1998.82
403.04	2041.82
403.24	2043.87
403.45	1884.13
403.66	1888.23
403.87	1859.56
404.07	1871.84
404.28	1900.52
404.49	1892.32
404.70	1744.87
404.90	1755.11
405.11	1751.01
405.32	1767.40
405.52	1695.72
405.73	1699.81
405.94	1705.96
406.15	1753.06
406.35	1757.16
406.56	1720.29
406.77	1710.05
406.98	1708.01
407.18	1652.71
407.39	1798.12
407.60	1726.44
407.80	1667.05
408.01	1632.23
408.22	1697.77
408.43	1699.81
408.63	1730.53
408.84	1720.29
409.05	1771.49
409.25	1638.38
409.46	1669.09
409.67	1667.05
409.88	1665.00
410.08	1763.30
410.29	1652.71
410.50	1740.77
410.70	1744.87
410.91	1662.95
411.12	1722.34
411.32	1644.52
411.53	1683.43
411.74	1796.07
411.95	1755.11
412.15	1738.73
412.36	1783.78
412.57	1763.30
412.77	1740.77
412.98	1732.58
413.19	1746.92
413.39	1740.77
413.60	1710.05
413.81	1771.49
414.01	1689.57
414.22	1759.21
414.43	1748.97
414.63	1742.82
414.84	1777.64
415.05	1683.43
415.25	1615.85
415.46	1689.57
415.67	1742.82
415.87	1718.25
416.08	1691.62
416.29	1744.87
416.49	1730.53
416.70	1624.04
416.91	1662.95
417.11	1660.90
417.32	1814.50
417.53	1748.97
417.73	1767.40
417.94	1697.77
418.15	1765.35
418.35	1728.49
418.56	1699.81
418.77	1794.02
418.97	1738.73
419.18	1726.44
419.38	1636.33
419.59	1738.73
419.80	1732.58
420.00	1679.33
420.21	1748.97
420.42	1761.25
420.62	1726.44
420.83	1734.63
421.04	1718.25
421.24	1712.10
421.45	1738.73
421.65	1767.40
421.86	1701.86
422.07	1744.87
422.27	1761.25
422.48	1677.29
422.69	1699.81
422.89	1712.10
423.10	1681.38
423.30	1712.10
423.51	1755.11
423.72	1656.81
423.92	1736.68
424.13	1687.53
424.33	1769.44
424.54	1728.49
424.75	1687.53
424.95	1826.79
425.16	1685.48
425.36	1615.85
425.57	1693.67
425.78	1794.02
425.98	1683.43
426.19	1724.39
426.39	1619.94
426.60	1783.78
426.81	1771.49
427.01	1654.76
427.22	1705.96
427.42	1640.42
427.63	1662.95
427.83	1726.44
428.04	1779.68
428.25	1804.26
428.45	1779.68
428.66	1724.39
428.86	1630.18
429.07	1650.66
429.28	1701.86
429.48	1714.15
429.69	1636.33
429.89	1716.20
430.10	1712.10
430.30	1796.07
430.51	1810.40
430.71	1574.89
430.92	1689.57
431.13	1634.28
431.33	1767.40
431.54	1812.45
431.74	1789.92
431.95	1818.60
432.15	1705.96
432.36	1744.87
432.56	1738.73
432.77	1828.84
432.98	1814.50
433.18	1681.38
433.39	1699.81
433.59	1675.24
433.80	1839.08
434.00	1875.94
434.21	1736.68
434.41	1710.05
434.62	1902.56
434.82	1585.13
435.03	1646.57
435.23	1710.05
435.44	1617.90
435.64	1669.09
435.85	1740.77
436.06	1785.83
436.26	1705.96
436.47	1759.21
436.67	1638.38
436.88	1640.42
437.08	1796.07
437.29	1757.16
437.49	1697.77
437.70	1740.77
437.90	1722.34
438.11	1853.41
438.31	1763.30
438.52	1877.99
438.72	1857.51
438.93	1906.66
439.13	1779.68
439.34	1822.69
439.54	1800.16
439.75	1787.88
439.95	1767.40
440.16	1746.92
440.36	1828.84
440.57	1853.41
440.77	1740.77
440.98	1691.62
441.18	1683.43
441.39	1712.10
441.59	1619.94
441.80	1851.36
442.00	1697.77
442.21	1765.35
442.41	1624.04
442.62	1796.07
442.82	1675.24
443.02	1818.60
443.23	1722.34
443.43	1738.73
443.64	1820.64
443.84	1681.38
444.05	1759.21
444.25	1779.68
444.46	1753.06
444.66	1736.68
444.87	1796.07
445.07	1591.27
445.28	1771.49
445.48	1769.44
445.69	1781.73
445.89	1826.79
446.09	1681.38
446.30	2047.97
446.50	2645.98
446.71	3778.50
446.91	4345.79
447.12	4816.82
447.32	4886.45
447.53	4302.78
447.73	3979.20
447.93	3516.36
448.14	3311.57
448.34	3239.89
448.55	2963.41
448.75	2844.63
448.96	2701.27
449.16	2455.51
449.36	2256.86
449.57	2002.91
449.77	1935.33
449.98	1705.96
450.18	1816.55
450.39	1781.73
450.59	1837.03
450.79	1732.58
451.00	1665.00
451.20	1802.21
451.41	1724.39
451.61	1767.40
451.81	1771.49
452.02	1646.57
452.22	1697.77
452.43	1732.58
452.63	1675.24
