SpectraSuite Data File
++++++++++++++++++++++++++++++++++++
Date: Mon Jun 06 17:31:57 CEST 2016
User: root
Dark Spectrum Present: No
Reference Spectrum Present: No
Number of Sampled Component Spectra: 1
Spectrometers: USB4C02835
Integration Time (usec): 100000 (USB4C02835)
Spectra Averaged: 1 (USB4C02835)
Boxcar Smoothing: 0 (USB4C02835)
Correct for Electrical Dark: No (USB4C02835)
Strobe/Lamp Enabled: No (USB4C02835)
Correct for Detector Non-linearity: No (USB4C02835)
Correct for Stray Light: No (USB4C02835)
Number of Pixels in Processed Spectrum: 3648
>>>>>Begin Processed Spectral Data<<<<<
177.47	1402.86
177.69	1402.86
177.91	1402.86
178.13	1525.74
178.36	1517.54
178.58	1607.66
178.80	1710.05
179.02	1697.77
179.24	1615.85
179.46	1714.15
179.68	1767.40
179.90	1654.76
180.13	1740.77
180.35	1640.42
180.57	1695.72
180.79	1740.77
181.01	1736.68
181.23	1734.63
181.45	1787.88
181.67	1808.36
181.90	1740.77
182.12	1665.00
182.34	1724.39
182.56	1728.49
182.78	1720.29
183.00	1701.86
183.22	1742.82
183.44	1630.18
183.66	1884.13
183.89	1871.84
184.11	1687.53
184.33	1789.92
184.55	1757.16
184.77	1683.43
184.99	1763.30
185.21	1757.16
185.43	1861.60
185.65	1708.01
185.87	1755.11
186.10	1816.55
186.32	1877.99
186.54	1738.73
186.76	1722.34
186.98	1751.01
187.20	1740.77
187.42	1697.77
187.64	1732.58
187.86	1753.06
188.08	1732.58
188.30	1720.29
188.52	1697.77
188.75	1849.32
188.97	1687.53
189.19	1714.15
189.41	1734.63
189.63	1802.21
189.85	1681.38
190.07	1683.43
190.29	1564.65
190.51	1683.43
190.73	1615.85
190.95	1779.68
191.17	1652.71
191.39	1667.05
191.61	1667.05
191.84	1722.34
192.06	1767.40
192.28	1650.66
192.50	1914.85
192.72	1728.49
192.94	1726.44
193.16	1736.68
193.38	1761.25
193.60	1609.70
193.82	1720.29
194.04	1710.05
194.26	1798.12
194.48	1705.96
194.70	1697.77
194.92	1730.53
195.14	1691.62
195.36	1681.38
195.58	1699.81
195.80	1777.64
196.02	1763.30
196.24	1734.63
196.46	1759.21
196.69	1665.00
196.91	1884.13
197.13	1718.25
197.35	1642.47
197.57	1761.25
197.79	1738.73
198.01	1734.63
198.23	1785.83
198.45	1718.25
198.67	1591.27
198.89	1669.09
199.11	1753.06
199.33	1689.57
199.55	1665.00
199.77	1685.48
199.99	1775.59
200.21	1742.82
200.43	1769.44
200.65	1679.33
200.87	1595.37
201.09	1685.48
201.31	1697.77
201.53	1771.49
201.75	1732.58
201.97	1755.11
202.19	1722.34
202.41	1789.92
202.63	1873.89
202.85	1748.97
203.07	1738.73
203.29	1705.96
203.51	1681.38
203.73	1697.77
203.95	1927.14
204.17	1785.83
204.39	1736.68
204.61	1701.86
204.83	1730.53
205.05	1761.25
205.27	1740.77
205.49	1804.26
205.71	1755.11
205.93	1656.81
206.15	1652.71
206.37	1679.33
206.59	1683.43
206.81	1628.14
207.03	1675.24
207.25	1675.24
207.47	1775.59
207.69	1662.95
207.91	1830.88
208.13	1748.97
208.34	1665.00
208.56	1703.91
208.78	1734.63
209.00	1665.00
209.22	1708.01
209.44	1720.29
209.66	1718.25
209.88	1710.05
210.10	1742.82
210.32	1736.68
210.54	1830.88
210.76	1671.14
210.98	1753.06
211.20	1609.70
211.42	1779.68
211.64	1791.97
211.86	1697.77
212.08	1736.68
212.30	1763.30
212.52	1751.01
212.74	1818.60
212.96	1730.53
213.17	1722.34
213.39	1759.21
213.61	1779.68
213.83	1722.34
214.05	1665.00
214.27	1732.58
214.49	1656.81
214.71	1609.70
214.93	1820.64
215.15	1771.49
215.37	1785.83
215.59	1585.13
215.81	1695.72
216.03	1798.12
216.24	1759.21
216.46	1644.52
216.68	1705.96
216.90	1796.07
217.12	1740.77
217.34	1650.66
217.56	1734.63
217.78	1814.50
218.00	1796.07
218.22	1724.39
218.44	1800.16
218.66	1716.20
218.87	1769.44
219.09	1703.91
219.31	1783.78
219.53	1767.40
219.75	1630.18
219.97	1714.15
220.19	1714.15
220.41	1683.43
220.63	1751.01
220.85	1800.16
221.06	1710.05
221.28	1746.92
221.50	1714.15
221.72	1722.34
221.94	1746.92
222.16	1642.47
222.38	1796.07
222.60	1759.21
222.82	1701.86
223.03	1755.11
223.25	1734.63
223.47	1802.21
223.69	1796.07
223.91	1730.53
224.13	1683.43
224.35	1660.90
224.57	1742.82
224.78	1732.58
225.00	1683.43
225.22	1773.54
225.44	1683.43
225.66	1791.97
225.88	1761.25
226.10	1775.59
226.32	1744.87
226.53	1832.93
226.75	1662.95
226.97	1736.68
227.19	1732.58
227.41	1650.66
227.63	1718.25
227.85	1685.48
228.06	1767.40
228.28	1720.29
228.50	1726.44
228.72	1648.61
228.94	1705.96
229.16	1628.14
229.37	1634.28
229.59	1660.90
229.81	1740.77
230.03	1654.76
230.25	1665.00
230.47	1681.38
230.69	1611.75
230.90	1722.34
231.12	1695.72
231.34	1705.96
231.56	1751.01
231.78	1712.10
232.00	1767.40
232.21	1724.39
232.43	1744.87
232.65	1570.79
232.87	1798.12
233.09	1658.85
233.30	1634.28
233.52	1771.49
233.74	1732.58
233.96	1673.19
234.18	1722.34
234.40	1681.38
234.61	1787.88
234.83	1626.09
235.05	1681.38
235.27	1783.78
235.49	1796.07
235.70	1722.34
235.92	1765.35
236.14	1703.91
236.36	1824.74
236.58	1714.15
236.79	1746.92
237.01	1681.38
237.23	1732.58
237.45	1873.89
237.67	1656.81
237.88	1695.72
238.10	1849.32
238.32	1671.14
238.54	1654.76
238.76	1722.34
238.97	1654.76
239.19	1720.29
239.41	1755.11
239.63	1775.59
239.85	1689.57
240.06	1689.57
240.28	1689.57
240.50	1814.50
240.72	1675.24
240.93	1718.25
241.15	1736.68
241.37	1726.44
241.59	1767.40
241.81	1726.44
242.02	1701.86
242.24	1742.82
242.46	1751.01
242.68	1732.58
242.89	1718.25
243.11	1765.35
243.33	1660.90
243.55	1722.34
243.76	1716.20
243.98	1636.33
244.20	1705.96
244.42	1734.63
244.64	1718.25
244.85	1673.19
245.07	1607.66
245.29	1837.03
245.51	1710.05
245.72	1767.40
245.94	1718.25
246.16	1693.67
246.38	1730.53
246.59	1701.86
246.81	1697.77
247.03	1646.57
247.24	1636.33
247.46	1673.19
247.68	1767.40
247.90	1693.67
248.11	1695.72
248.33	1714.15
248.55	1640.42
248.77	1834.98
248.98	1708.01
249.20	1832.93
249.42	1644.52
249.64	1802.21
249.85	1726.44
250.07	1613.80
250.29	1802.21
250.50	1814.50
250.72	1583.08
250.94	1736.68
251.16	1871.84
251.37	1802.21
251.59	1738.73
251.81	1800.16
252.02	1818.60
252.24	1628.14
252.46	1763.30
252.68	1671.14
252.89	1636.33
253.11	1658.85
253.33	1824.74
253.54	1806.31
253.76	1665.00
253.98	1685.48
254.20	1681.38
254.41	1675.24
254.63	1724.39
254.85	1679.33
255.06	1703.91
255.28	1716.20
255.50	1748.97
255.71	1691.62
255.93	1628.14
256.15	1679.33
256.36	1697.77
256.58	1687.53
256.80	1734.63
257.02	1697.77
257.23	1658.85
257.45	1695.72
257.67	1794.02
257.88	1681.38
258.10	1730.53
258.32	1705.96
258.53	1785.83
258.75	1755.11
258.97	1652.71
259.18	1720.29
259.40	1673.19
259.62	1837.03
259.83	1802.21
260.05	1742.82
260.27	1980.39
260.48	1791.97
260.70	1667.05
260.92	1777.64
261.13	1716.20
261.35	1722.34
261.57	1697.77
261.78	1640.42
262.00	1724.39
262.22	1652.71
262.43	1708.01
262.65	1748.97
262.86	1697.77
263.08	1820.64
263.30	1761.25
263.51	1675.24
263.73	1687.53
263.95	1798.12
264.16	1677.29
264.38	1628.14
264.60	1734.63
264.81	1697.77
265.03	1708.01
265.25	1826.79
265.46	1722.34
265.68	1759.21
265.89	1746.92
266.11	1671.14
266.33	1761.25
266.54	1802.21
266.76	1708.01
266.98	1748.97
267.19	1769.44
267.41	1794.02
267.62	1712.10
267.84	1609.70
268.06	1710.05
268.27	1638.38
268.49	1796.07
268.70	1773.54
268.92	1687.53
269.14	1650.66
269.35	1591.27
269.57	1705.96
269.79	1759.21
270.00	1652.71
270.22	1769.44
270.43	1708.01
270.65	1642.47
270.87	1654.76
271.08	1708.01
271.30	1759.21
271.51	1591.27
271.73	1724.39
271.95	1800.16
272.16	1781.73
272.38	1687.53
272.59	1693.67
272.81	1769.44
273.02	1761.25
273.24	1689.57
273.46	1769.44
273.67	1611.75
273.89	1675.24
274.10	1701.86
274.32	1759.21
274.54	1781.73
274.75	1830.88
274.97	1648.61
275.18	1787.88
275.40	1667.05
275.61	1699.81
275.83	1730.53
276.05	1751.01
276.26	1701.86
276.48	1787.88
276.69	1689.57
276.91	1640.42
277.12	1806.31
277.34	1814.50
277.55	1779.68
277.77	1701.86
277.99	1718.25
278.20	1638.38
278.42	1667.05
278.63	1634.28
278.85	1605.61
279.06	1638.38
279.28	1771.49
279.49	1773.54
279.71	1705.96
279.93	1673.19
280.14	1632.23
280.36	1632.23
280.57	1734.63
280.79	1744.87
281.00	1654.76
281.22	1644.52
281.43	1802.21
281.65	1671.14
281.86	1656.81
282.08	1773.54
282.29	1867.75
282.51	1722.34
282.73	1671.14
282.94	1632.23
283.16	1757.16
283.37	1806.31
283.59	1800.16
283.80	1736.68
284.02	1705.96
284.23	1765.35
284.45	1689.57
284.66	1712.10
284.88	1685.48
285.09	1722.34
285.31	1753.06
285.52	1697.77
285.74	1626.09
285.95	1808.36
286.17	1689.57
286.38	1730.53
286.60	1644.52
286.81	1636.33
287.03	1726.44
287.24	1734.63
287.46	1716.20
287.67	1726.44
287.89	1791.97
288.10	1708.01
288.32	1718.25
288.53	1791.97
288.75	1681.38
288.96	1728.49
289.18	1712.10
289.39	1636.33
289.61	1755.11
289.82	1837.03
290.04	1853.41
290.25	1654.76
290.47	1712.10
290.68	1746.92
290.90	1796.07
291.11	1660.90
291.33	1708.01
291.54	1734.63
291.76	1644.52
291.97	1751.01
292.18	1748.97
292.40	1734.63
292.61	1669.09
292.83	1812.45
293.04	1796.07
293.26	1665.00
293.47	1771.49
293.69	1703.91
293.90	1802.21
294.12	1746.92
294.33	1705.96
294.55	1699.81
294.76	1728.49
294.97	1820.64
295.19	1839.08
295.40	1722.34
295.62	1701.86
295.83	1804.26
296.05	1654.76
296.26	1771.49
296.48	1687.53
296.69	1740.77
296.90	1736.68
297.12	1761.25
297.33	1796.07
297.55	1736.68
297.76	1716.20
297.98	1753.06
298.19	1712.10
298.41	1691.62
298.62	1632.23
298.83	1775.59
299.05	1763.30
299.26	1630.18
299.48	1695.72
299.69	1759.21
299.90	1740.77
300.12	1726.44
300.33	1798.12
300.55	1617.90
300.76	1714.15
300.98	1609.70
301.19	1765.35
301.40	1642.47
301.62	1650.66
301.83	1708.01
302.05	1712.10
302.26	1759.21
302.47	1751.01
302.69	1605.61
302.90	1716.20
303.12	1634.28
303.33	1730.53
303.54	1832.93
303.76	1755.11
303.97	1732.58
304.19	1740.77
304.40	1679.33
304.61	1781.73
304.83	1875.94
305.04	1812.45
305.26	1724.39
305.47	1681.38
305.68	1687.53
305.90	1621.99
306.11	1718.25
306.33	1671.14
306.54	1708.01
306.75	1689.57
306.97	1638.38
307.18	1697.77
307.39	1740.77
307.61	1738.73
307.82	1697.77
308.04	1703.91
308.25	1746.92
308.46	1771.49
308.68	1665.00
308.89	1677.29
309.10	1761.25
309.32	1763.30
309.53	1734.63
309.74	1675.24
309.96	1695.72
310.17	1718.25
310.39	1748.97
310.60	1755.11
310.81	1748.97
311.03	1673.19
311.24	1716.20
311.45	1740.77
311.67	1859.56
311.88	1783.78
312.09	1636.33
312.31	1671.14
312.52	1695.72
312.73	1640.42
312.95	1685.48
313.16	1656.81
313.37	1785.83
313.59	1734.63
313.80	1748.97
314.01	1863.65
314.23	1662.95
314.44	1669.09
314.65	1716.20
314.87	1587.18
315.08	1677.29
315.29	1728.49
315.51	1697.77
315.72	1650.66
315.93	1804.26
316.15	1771.49
316.36	1724.39
316.57	1769.44
316.79	1746.92
317.00	1748.97
317.21	1802.21
317.43	1550.31
317.64	1753.06
317.85	1662.95
318.07	1687.53
318.28	1751.01
318.49	1781.73
318.70	1910.75
318.92	1859.56
319.13	1806.31
319.34	1847.27
319.56	1853.41
319.77	1894.37
319.98	1785.83
320.20	1843.17
320.41	1722.34
320.62	1740.77
320.83	1708.01
321.05	1824.74
321.26	1703.91
321.47	1767.40
321.69	1734.63
321.90	1689.57
322.11	1789.92
322.32	1736.68
322.54	1785.83
322.75	1677.29
322.96	1884.13
323.18	1626.09
323.39	1562.60
323.60	1669.09
323.81	1699.81
324.03	1761.25
324.24	1726.44
324.45	1781.73
324.66	1701.86
324.88	1824.74
325.09	1798.12
325.30	1726.44
325.52	1687.53
325.73	1863.65
325.94	1597.42
326.15	1628.14
326.37	1669.09
326.58	1742.82
326.79	1804.26
327.00	1669.09
327.22	1775.59
327.43	1695.72
327.64	1677.29
327.85	1720.29
328.07	1673.19
328.28	1787.88
328.49	1712.10
328.70	1599.46
328.92	1683.43
329.13	1783.78
329.34	1767.40
329.55	1822.69
329.76	1816.55
329.98	1669.09
330.19	1769.44
330.40	1806.31
330.61	1734.63
330.83	1720.29
331.04	1724.39
331.25	1677.29
331.46	1646.57
331.68	1658.85
331.89	1740.77
332.10	1677.29
332.31	1679.33
332.52	1693.67
332.74	1701.86
332.95	1595.37
333.16	1765.35
333.37	1697.77
333.58	1632.23
333.80	1695.72
334.01	1640.42
334.22	1701.86
334.43	1714.15
334.64	1636.33
334.86	1652.71
335.07	1644.52
335.28	1796.07
335.49	1589.22
335.70	1771.49
335.92	1771.49
336.13	1800.16
336.34	1726.44
336.55	1789.92
336.76	1740.77
336.98	1611.75
337.19	1734.63
337.40	1818.60
337.61	1916.90
337.82	1703.91
338.04	1765.35
338.25	1685.48
338.46	1769.44
338.67	1720.29
338.88	1722.34
339.09	1683.43
339.31	1605.61
339.52	1660.90
339.73	1599.46
339.94	1697.77
340.15	1748.97
340.36	1732.58
340.58	1685.48
340.79	1681.38
341.00	1771.49
341.21	1611.75
341.42	1888.23
341.63	1761.25
341.85	1734.63
342.06	1722.34
342.27	1716.20
342.48	1708.01
342.69	1654.76
342.90	1701.86
343.12	1712.10
343.33	1691.62
343.54	1718.25
343.75	1765.35
343.96	1781.73
344.17	1722.34
344.38	1677.29
344.60	1738.73
344.81	1691.62
345.02	1638.38
345.23	1777.64
345.44	1851.36
345.65	1794.02
345.86	1755.11
346.07	1759.21
346.29	1673.19
346.50	1691.62
346.71	1699.81
346.92	1810.40
347.13	1837.03
347.34	1677.29
347.55	1728.49
347.76	1789.92
347.98	1660.90
348.19	1687.53
348.40	1779.68
348.61	1660.90
348.82	1818.60
349.03	1771.49
349.24	1669.09
349.45	1767.40
349.66	1621.99
349.88	1669.09
350.09	1656.81
350.30	1742.82
350.51	1789.92
350.72	1820.64
350.93	1771.49
351.14	1714.15
351.35	1685.48
351.56	1775.59
351.77	1734.63
351.99	1773.54
352.20	1787.88
352.41	1794.02
352.62	1574.89
352.83	1697.77
353.04	1642.47
353.25	1755.11
353.46	1773.54
353.67	1820.64
353.88	1613.80
354.09	1654.76
354.30	1714.15
354.52	1789.92
354.73	1732.58
354.94	1650.66
355.15	1697.77
355.36	1828.84
355.57	1714.15
355.78	1759.21
355.99	1685.48
356.20	1632.23
356.41	1812.45
356.62	1734.63
356.83	1732.58
357.04	1796.07
357.25	1669.09
357.46	1705.96
357.68	1644.52
357.89	1701.86
358.10	1687.53
358.31	1740.77
358.52	1781.73
358.73	1714.15
358.94	1619.94
359.15	1675.24
359.36	1697.77
359.57	1685.48
359.78	1687.53
359.99	1757.16
360.20	1628.14
360.41	1736.68
360.62	1746.92
360.83	1722.34
361.04	1748.97
361.25	1675.24
361.46	1789.92
361.67	1681.38
361.88	1787.88
362.09	1789.92
362.30	1783.78
362.51	1718.25
362.72	1714.15
362.93	1767.40
363.14	1773.54
363.35	1701.86
363.56	1746.92
363.78	1865.70
363.99	1771.49
364.20	1746.92
364.41	1675.24
364.62	1837.03
364.83	1765.35
365.04	1685.48
365.25	1687.53
365.46	1791.97
365.67	1716.20
365.88	1689.57
366.09	1714.15
366.30	1677.29
366.51	1724.39
366.72	1607.66
366.93	1679.33
367.14	1675.24
367.35	1726.44
367.56	1687.53
367.77	1789.92
367.98	1826.79
368.18	1753.06
368.39	1796.07
368.60	1775.59
368.81	1730.53
369.02	1781.73
369.23	1718.25
369.44	1615.85
369.65	1685.48
369.86	1691.62
370.07	1730.53
370.28	1689.57
370.49	1675.24
370.70	1724.39
370.91	1708.01
371.12	1665.00
371.33	1751.01
371.54	1624.04
371.75	1832.93
371.96	1556.46
372.17	1765.35
372.38	1681.38
372.59	1775.59
372.80	1660.90
373.01	1632.23
373.22	1708.01
373.43	1681.38
373.64	1650.66
373.85	1814.50
374.06	1767.40
374.26	1753.06
374.47	1763.30
374.68	1773.54
374.89	1744.87
375.10	1763.30
375.31	1742.82
375.52	1650.66
375.73	1708.01
375.94	1701.86
376.15	1830.88
376.36	1671.14
376.57	1595.37
376.78	1738.73
376.99	1740.77
377.20	1837.03
377.40	1691.62
377.61	1789.92
377.82	1685.48
378.03	1806.31
378.24	1783.78
378.45	1789.92
378.66	1632.23
378.87	1679.33
379.08	1626.09
379.29	1701.86
379.50	1818.60
379.71	1738.73
379.91	1708.01
380.12	1699.81
380.33	1734.63
380.54	1679.33
380.75	1718.25
380.96	1708.01
381.17	1802.21
381.38	1796.07
381.59	1673.19
381.80	1665.00
382.00	1855.46
382.21	1816.55
382.42	1875.94
382.63	1859.56
382.84	1812.45
383.05	1791.97
383.26	1826.79
383.47	1802.21
383.68	1814.50
383.88	1771.49
384.09	1800.16
384.30	1859.56
384.51	1730.53
384.72	1751.01
384.93	1679.33
385.14	1681.38
385.35	1789.92
385.55	1691.62
385.76	1787.88
385.97	1800.16
386.18	1708.01
386.39	1714.15
386.60	1656.81
386.81	1699.81
387.02	1679.33
387.22	1693.67
387.43	1867.75
387.64	1761.25
387.85	1898.47
388.06	2133.98
388.27	4270.01
388.48	6760.34
388.68	8142.72
388.89	9578.35
389.10	9793.39
389.31	8705.92
389.52	7602.06
389.73	6811.54
389.93	6158.24
390.14	5984.16
390.35	5162.93
390.56	4632.51
390.77	3643.34
390.98	2979.79
391.18	2467.80
391.39	2123.74
391.60	1918.95
391.81	1929.19
392.02	1757.16
392.23	1855.46
392.43	1773.54
392.64	1847.27
392.85	1765.35
393.06	1818.60
393.27	1744.87
393.47	1673.19
393.68	1695.72
393.89	1722.34
394.10	1820.64
394.31	1648.61
394.52	1697.77
394.72	1757.16
394.93	1800.16
395.14	1638.38
395.35	1705.96
395.56	1685.48
395.76	1796.07
395.97	1779.68
396.18	1800.16
396.39	1779.68
396.60	2060.26
396.80	1931.23
397.01	1908.71
397.22	1886.18
397.43	1861.60
397.64	1794.02
397.84	1757.16
398.05	1873.89
398.26	1730.53
398.47	1771.49
398.67	1841.12
398.88	1757.16
399.09	1726.44
399.30	1683.43
399.51	1800.16
399.71	1699.81
399.92	1742.82
400.13	1753.06
400.34	1740.77
400.54	1685.48
400.75	1730.53
400.96	1703.91
401.17	1851.36
401.37	1759.21
401.58	1640.42
401.79	1677.29
402.00	1863.65
402.21	2052.06
402.41	1949.67
402.62	1941.47
402.83	2082.78
403.04	2004.96
403.24	2107.36
403.45	1877.99
403.66	1976.29
403.87	1857.51
404.07	1920.99
404.28	1877.99
404.49	1980.39
404.70	1685.48
404.90	1806.31
405.11	1755.11
405.32	1771.49
405.52	1740.77
405.73	1691.62
405.94	1685.48
406.15	1685.48
406.35	1710.05
406.56	1810.40
406.77	1683.43
406.98	1767.40
407.18	1685.48
407.39	1800.16
407.60	1656.81
407.80	1802.21
408.01	1642.47
408.22	1697.77
408.43	1734.63
408.63	1742.82
408.84	1724.39
409.05	1748.97
409.25	1648.61
409.46	1697.77
409.67	1722.34
409.88	1681.38
410.08	1705.96
410.29	1681.38
410.50	1708.01
410.70	1771.49
410.91	1669.09
411.12	1751.01
411.32	1738.73
411.53	1716.20
411.74	1751.01
411.95	1777.64
412.15	1775.59
412.36	1761.25
412.57	1730.53
412.77	1806.31
412.98	1667.05
413.19	1751.01
413.39	1802.21
413.60	1652.71
413.81	1773.54
414.01	1650.66
414.22	1744.87
414.43	1734.63
414.63	1693.67
414.84	1716.20
415.05	1705.96
415.25	1589.22
415.46	1658.85
415.67	1740.77
415.87	1779.68
416.08	1724.39
416.29	1712.10
416.49	1712.10
416.70	1585.13
416.91	1712.10
417.11	1718.25
417.32	1775.59
417.53	1802.21
417.73	1798.12
417.94	1675.24
418.15	1697.77
418.35	1691.62
418.56	1708.01
418.77	1904.61
418.97	1798.12
419.18	1714.15
419.38	1554.41
419.59	1785.83
419.80	1779.68
420.00	1722.34
420.21	1779.68
420.42	1820.64
420.62	1732.58
420.83	1710.05
421.04	1675.24
421.24	1748.97
421.45	1818.60
421.65	1769.44
421.86	1679.33
422.07	1722.34
422.27	1748.97
422.48	1734.63
422.69	1591.27
422.89	1726.44
423.10	1658.85
423.30	1681.38
423.51	1695.72
423.72	1767.40
423.92	1787.88
424.13	1677.29
424.33	1761.25
424.54	1753.06
424.75	1681.38
424.95	1832.93
425.16	1736.68
425.36	1701.86
425.57	1806.31
425.78	1697.77
425.98	1781.73
426.19	1722.34
426.39	1761.25
426.60	1757.16
426.81	1767.40
427.01	1751.01
427.22	1693.67
427.42	1581.03
427.63	1650.66
427.83	1697.77
428.04	1888.23
428.25	1746.92
428.45	1804.26
428.66	1845.22
428.86	1634.28
429.07	1671.14
429.28	1691.62
429.48	1742.82
429.69	1689.57
429.89	1808.36
430.10	1683.43
430.30	1734.63
430.51	1794.02
430.71	1619.94
430.92	1648.61
431.13	1701.86
431.33	1781.73
431.54	1757.16
431.74	1808.36
431.95	1888.23
432.15	1732.58
432.36	1722.34
432.56	1773.54
432.77	1867.75
432.98	1802.21
433.18	1783.78
433.39	1748.97
433.59	1689.57
433.80	1861.60
434.00	1861.60
434.21	1667.05
434.41	1673.19
434.62	1785.83
434.82	1714.15
435.03	1744.87
435.23	1728.49
435.44	1644.52
435.64	1816.55
435.85	1763.30
436.06	1820.64
436.26	1796.07
436.47	1654.76
436.67	1761.25
436.88	1646.57
437.08	1716.20
437.29	1800.16
437.49	1740.77
437.70	1751.01
437.90	1722.34
438.11	1884.13
438.31	1753.06
438.52	1837.03
438.72	1871.84
438.93	1904.61
439.13	1746.92
439.34	1767.40
439.54	1730.53
439.75	1794.02
439.95	1832.93
440.16	1734.63
440.36	1773.54
440.57	1787.88
440.77	1802.21
440.98	1761.25
441.18	1773.54
441.39	1734.63
441.59	1757.16
441.80	1906.66
442.00	1781.73
442.21	1830.88
442.41	1677.29
442.62	1828.84
442.82	1683.43
443.02	1683.43
443.23	1742.82
443.43	1699.81
443.64	1806.31
443.84	1693.67
444.05	1867.75
444.25	1759.21
444.46	1689.57
444.66	1777.64
444.87	1884.13
445.07	1628.14
445.28	1785.83
445.48	1837.03
445.69	1773.54
445.89	1886.18
446.09	1753.06
446.30	1970.15
446.50	2676.70
446.71	3704.78
446.91	4253.63
447.12	4659.13
447.32	4839.35
447.53	4450.24
447.73	3991.49
447.93	3444.68
448.14	3305.42
448.34	3176.40
448.55	2861.01
448.75	2858.96
448.96	2678.74
449.16	2488.28
449.36	2340.83
449.57	2058.21
449.77	1859.56
449.98	1791.97
450.18	1892.32
450.39	1804.26
450.59	1763.30
450.79	1751.01
451.00	1751.01
451.20	1828.84
451.41	1695.72
451.61	1738.73
451.81	1771.49
452.02	1810.40
452.22	1675.24
452.43	1652.71
452.63	1712.10
