SpectraSuite Data File
++++++++++++++++++++++++++++++++++++
Date: Mon Jun 06 15:53:17 CEST 2016
User: root
Dark Spectrum Present: No
Reference Spectrum Present: No
Number of Sampled Component Spectra: 1
Spectrometers: USB4C02835
Integration Time (usec): 100000 (USB4C02835)
Spectra Averaged: 1 (USB4C02835)
Boxcar Smoothing: 0 (USB4C02835)
Correct for Electrical Dark: No (USB4C02835)
Strobe/Lamp Enabled: No (USB4C02835)
Correct for Detector Non-linearity: No (USB4C02835)
Correct for Stray Light: No (USB4C02835)
Number of Pixels in Processed Spectrum: 3648
>>>>>Begin Processed Spectral Data<<<<<
177.47	1458.15
177.69	1458.15
177.91	1458.15
178.13	1417.19
178.36	1488.87
178.58	1583.08
178.80	1714.15
179.02	1652.71
179.24	1667.05
179.46	1693.67
179.68	1759.21
179.90	1744.87
180.13	1730.53
180.35	1640.42
180.57	1734.63
180.79	1789.92
181.01	1765.35
181.23	1777.64
181.45	1748.97
181.67	1757.16
181.90	1820.64
182.12	1603.56
182.34	1578.98
182.56	1732.58
182.78	1812.45
183.00	1708.01
183.22	1662.95
183.44	1601.51
183.66	1804.26
183.89	1871.84
184.11	1808.36
184.33	1734.63
184.55	1734.63
184.77	1761.25
184.99	1820.64
185.21	1695.72
185.43	1818.60
185.65	1724.39
185.87	1699.81
186.10	1708.01
186.32	1886.18
186.54	1705.96
186.76	1757.16
186.98	1724.39
187.20	1683.43
187.42	1724.39
187.64	1763.30
187.86	1691.62
188.08	1742.82
188.30	1671.14
188.52	1787.88
188.75	1779.68
188.97	1830.88
189.19	1683.43
189.41	1677.29
189.63	1755.11
189.85	1630.18
190.07	1675.24
190.29	1615.85
190.51	1726.44
190.73	1607.66
190.95	1816.55
191.17	1753.06
191.39	1572.84
191.61	1767.40
191.84	1691.62
192.06	1773.54
192.28	1667.05
192.50	1892.32
192.72	1787.88
192.94	1701.86
193.16	1785.83
193.38	1728.49
193.60	1628.14
193.82	1736.68
194.04	1734.63
194.26	1722.34
194.48	1767.40
194.70	1658.85
194.92	1710.05
195.14	1724.39
195.36	1744.87
195.58	1730.53
195.80	1665.00
196.02	1685.48
196.24	1705.96
196.46	1751.01
196.69	1630.18
196.91	1843.17
197.13	1695.72
197.35	1642.47
197.57	1806.31
197.79	1740.77
198.01	1673.19
198.23	1804.26
198.45	1648.61
198.67	1705.96
198.89	1669.09
199.11	1703.91
199.33	1654.76
199.55	1581.03
199.77	1677.29
199.99	1728.49
200.21	1701.86
200.43	1734.63
200.65	1591.27
200.87	1583.08
201.09	1673.19
201.31	1751.01
201.53	1802.21
201.75	1701.86
201.97	1714.15
202.19	1722.34
202.41	1789.92
202.63	1763.30
202.85	1718.25
203.07	1720.29
203.29	1673.19
203.51	1652.71
203.73	1728.49
203.95	1873.89
204.17	1740.77
204.39	1740.77
204.61	1683.43
204.83	1705.96
205.05	1789.92
205.27	1787.88
205.49	1841.12
205.71	1656.81
205.93	1634.28
206.15	1695.72
206.37	1699.81
206.59	1683.43
206.81	1677.29
207.03	1673.19
207.25	1609.70
207.47	1740.77
207.69	1665.00
207.91	1791.97
208.13	1779.68
208.34	1638.38
208.56	1675.24
208.78	1755.11
209.00	1646.57
209.22	1640.42
209.44	1791.97
209.66	1619.94
209.88	1708.01
210.10	1720.29
210.32	1656.81
210.54	1845.22
210.76	1710.05
210.98	1783.78
211.20	1669.09
211.42	1703.91
211.64	1748.97
211.86	1724.39
212.08	1751.01
212.30	1687.53
212.52	1771.49
212.74	1763.30
212.96	1703.91
213.17	1746.92
213.39	1738.73
213.61	1828.84
213.83	1714.15
214.05	1607.66
214.27	1714.15
214.49	1646.57
214.71	1693.67
214.93	1771.49
215.15	1771.49
215.37	1722.34
215.59	1662.95
215.81	1804.26
216.03	1742.82
216.24	1734.63
216.46	1763.30
216.68	1681.38
216.90	1712.10
217.12	1814.50
217.34	1619.94
217.56	1724.39
217.78	1816.55
218.00	1732.58
218.22	1677.29
218.44	1777.64
218.66	1748.97
218.87	1777.64
219.09	1730.53
219.31	1816.55
219.53	1730.53
219.75	1624.04
219.97	1660.90
220.19	1708.01
220.41	1677.29
220.63	1789.92
220.85	1751.01
221.06	1697.77
221.28	1830.88
221.50	1738.73
221.72	1804.26
221.94	1669.09
222.16	1753.06
222.38	1816.55
222.60	1689.57
222.82	1650.66
223.03	1796.07
223.25	1714.15
223.47	1740.77
223.69	1888.23
223.91	1771.49
224.13	1617.90
224.35	1654.76
224.57	1767.40
224.78	1755.11
225.00	1681.38
225.22	1665.00
225.44	1753.06
225.66	1785.83
225.88	1701.86
226.10	1763.30
226.32	1718.25
226.53	1722.34
226.75	1693.67
226.97	1699.81
227.19	1705.96
227.41	1662.95
227.63	1687.53
227.85	1687.53
228.06	1677.29
228.28	1775.59
228.50	1753.06
228.72	1621.99
228.94	1646.57
229.16	1583.08
229.37	1658.85
229.59	1681.38
229.81	1783.78
230.03	1716.20
230.25	1656.81
230.47	1693.67
230.69	1621.99
230.90	1779.68
231.12	1679.33
231.34	1732.58
231.56	1791.97
231.78	1665.00
232.00	1748.97
232.21	1677.29
232.43	1679.33
232.65	1560.55
232.87	1755.11
233.09	1642.47
233.30	1728.49
233.52	1710.05
233.74	1697.77
233.96	1701.86
234.18	1726.44
234.40	1681.38
234.61	1896.42
234.83	1658.85
235.05	1652.71
235.27	1851.36
235.49	1699.81
235.70	1787.88
235.92	1730.53
236.14	1722.34
236.36	1867.75
236.58	1689.57
236.79	1681.38
237.01	1648.61
237.23	1714.15
237.45	1841.12
237.67	1654.76
237.88	1796.07
238.10	1820.64
238.32	1619.94
238.54	1681.38
238.76	1796.07
238.97	1626.09
239.19	1632.23
239.41	1781.73
239.63	1699.81
239.85	1617.90
240.06	1722.34
240.28	1728.49
240.50	1722.34
240.72	1744.87
240.93	1718.25
241.15	1746.92
241.37	1730.53
241.59	1794.02
241.81	1689.57
242.02	1699.81
242.24	1814.50
242.46	1761.25
242.68	1724.39
242.89	1718.25
243.11	1834.98
243.33	1662.95
243.55	1734.63
243.76	1740.77
243.98	1652.71
244.20	1759.21
244.42	1724.39
244.64	1710.05
244.85	1693.67
245.07	1591.27
245.29	1771.49
245.51	1650.66
245.72	1677.29
245.94	1761.25
246.16	1718.25
246.38	1779.68
246.59	1662.95
246.81	1624.04
247.03	1708.01
247.24	1531.88
247.46	1701.86
247.68	1687.53
247.90	1613.80
248.11	1656.81
248.33	1767.40
248.55	1681.38
248.77	1718.25
248.98	1757.16
249.20	1820.64
249.42	1693.67
249.64	1830.88
249.85	1720.29
250.07	1681.38
250.29	1734.63
250.50	1714.15
250.72	1728.49
250.94	1675.24
251.16	1781.73
251.37	1847.27
251.59	1734.63
251.81	1783.78
252.02	1755.11
252.24	1673.19
252.46	1804.26
252.68	1703.91
252.89	1636.33
253.11	1599.46
253.33	1814.50
253.54	1794.02
253.76	1632.23
253.98	1726.44
254.20	1687.53
254.41	1626.09
254.63	1660.90
254.85	1615.85
255.06	1652.71
255.28	1716.20
255.50	1642.47
255.71	1669.09
255.93	1654.76
256.15	1685.48
256.36	1695.72
256.58	1642.47
256.80	1783.78
257.02	1765.35
257.23	1675.24
257.45	1605.61
257.67	1845.22
257.88	1689.57
258.10	1691.62
258.32	1638.38
258.53	1693.67
258.75	1843.17
258.97	1681.38
259.18	1763.30
259.40	1703.91
259.62	1904.61
259.83	1734.63
260.05	1755.11
260.27	2007.01
260.48	1804.26
260.70	1658.85
260.92	1644.52
261.13	1722.34
261.35	1771.49
261.57	1824.74
261.78	1585.13
262.00	1673.19
262.22	1783.78
262.43	1648.61
262.65	1650.66
262.86	1683.43
263.08	1849.32
263.30	1656.81
263.51	1665.00
263.73	1648.61
263.95	1748.97
264.16	1656.81
264.38	1591.27
264.60	1757.16
264.81	1714.15
265.03	1787.88
265.25	1781.73
265.46	1724.39
265.68	1732.58
265.89	1769.44
266.11	1599.46
266.33	1800.16
266.54	1787.88
266.76	1779.68
266.98	1806.31
267.19	1771.49
267.41	1705.96
267.62	1755.11
267.84	1636.33
268.06	1759.21
268.27	1705.96
268.49	1765.35
268.70	1755.11
268.92	1699.81
269.14	1628.14
269.35	1634.28
269.57	1806.31
269.79	1767.40
270.00	1665.00
270.22	1781.73
270.43	1677.29
270.65	1587.18
270.87	1652.71
271.08	1755.11
271.30	1771.49
271.51	1748.97
271.73	1646.57
271.95	1816.55
272.16	1730.53
272.38	1730.53
272.59	1626.09
272.81	1722.34
273.02	1703.91
273.24	1777.64
273.46	1718.25
273.67	1708.01
273.89	1601.51
274.10	1718.25
274.32	1736.68
274.54	1769.44
274.75	1693.67
274.97	1667.05
275.18	1705.96
275.40	1660.90
275.61	1685.48
275.83	1738.73
276.05	1701.86
276.26	1718.25
276.48	1722.34
276.69	1740.77
276.91	1587.18
277.12	1775.59
277.34	1730.53
277.55	1808.36
277.77	1751.01
277.99	1626.09
278.20	1638.38
278.42	1576.94
278.63	1652.71
278.85	1671.14
279.06	1667.05
279.28	1722.34
279.49	1742.82
279.71	1761.25
279.93	1748.97
280.14	1724.39
280.36	1589.22
280.57	1839.08
280.79	1712.10
281.00	1687.53
281.22	1703.91
281.43	1773.54
281.65	1605.61
281.86	1691.62
282.08	1740.77
282.29	1837.03
282.51	1658.85
282.73	1716.20
282.94	1603.56
283.16	1763.30
283.37	1773.54
283.59	1699.81
283.80	1640.42
284.02	1640.42
284.23	1689.57
284.45	1679.33
284.66	1705.96
284.88	1732.58
285.09	1701.86
285.31	1705.96
285.52	1759.21
285.74	1591.27
285.95	1773.54
286.17	1689.57
286.38	1781.73
286.60	1656.81
286.81	1695.72
287.03	1662.95
287.24	1763.30
287.46	1710.05
287.67	1730.53
287.89	1800.16
288.10	1722.34
288.32	1742.82
288.53	1818.60
288.75	1667.05
288.96	1746.92
289.18	1732.58
289.39	1705.96
289.61	1773.54
289.82	1837.03
290.04	1820.64
290.25	1662.95
290.47	1708.01
290.68	1738.73
290.90	1861.60
291.11	1648.61
291.33	1742.82
291.54	1605.61
291.76	1654.76
291.97	1699.81
292.18	1759.21
292.40	1671.14
292.61	1683.43
292.83	1826.79
293.04	1812.45
293.26	1769.44
293.47	1771.49
293.69	1691.62
293.90	1699.81
294.12	1726.44
294.33	1734.63
294.55	1708.01
294.76	1822.69
294.97	1728.49
295.19	1865.70
295.40	1748.97
295.62	1732.58
295.83	1681.38
296.05	1697.77
296.26	1771.49
296.48	1703.91
296.69	1724.39
296.90	1656.81
297.12	1791.97
297.33	1796.07
297.55	1681.38
297.76	1771.49
297.98	1808.36
298.19	1615.85
298.41	1748.97
298.62	1660.90
298.83	1771.49
299.05	1722.34
299.26	1605.61
299.48	1681.38
299.69	1789.92
299.90	1759.21
300.12	1669.09
300.33	1665.00
300.55	1708.01
300.76	1765.35
300.98	1673.19
301.19	1755.11
301.40	1742.82
301.62	1712.10
301.83	1810.40
302.05	1794.02
302.26	1720.29
302.47	1714.15
302.69	1624.04
302.90	1691.62
303.12	1554.41
303.33	1697.77
303.54	1740.77
303.76	1642.47
303.97	1697.77
304.19	1824.74
304.40	1607.66
304.61	1751.01
304.83	1824.74
305.04	1785.83
305.26	1773.54
305.47	1695.72
305.68	1742.82
305.90	1699.81
306.11	1771.49
306.33	1679.33
306.54	1675.24
306.75	1673.19
306.97	1605.61
307.18	1712.10
307.39	1714.15
307.61	1771.49
307.82	1740.77
308.04	1673.19
308.25	1724.39
308.46	1695.72
308.68	1685.48
308.89	1714.15
309.10	1845.22
309.32	1720.29
309.53	1677.29
309.74	1665.00
309.96	1708.01
310.17	1839.08
310.39	1744.87
310.60	1673.19
310.81	1708.01
311.03	1617.90
311.24	1773.54
311.45	1746.92
311.67	1898.47
311.88	1673.19
312.09	1630.18
312.31	1693.67
312.52	1728.49
312.73	1740.77
312.95	1615.85
313.16	1675.24
313.37	1781.73
313.59	1716.20
313.80	1724.39
314.01	1771.49
314.23	1685.48
314.44	1642.47
314.65	1710.05
314.87	1699.81
315.08	1708.01
315.29	1689.57
315.51	1703.91
315.72	1595.37
315.93	1748.97
316.15	1773.54
316.36	1697.77
316.57	1751.01
316.79	1728.49
317.00	1714.15
317.21	1736.68
317.43	1644.52
317.64	1781.73
317.85	1671.14
318.07	1691.62
318.28	1697.77
318.49	1830.88
318.70	1896.42
318.92	1796.07
319.13	1816.55
319.34	1927.14
319.56	1769.44
319.77	1761.25
319.98	1822.69
320.20	1785.83
320.41	1763.30
320.62	1740.77
320.83	1648.61
321.05	1816.55
321.26	1673.19
321.47	1693.67
321.69	1787.88
321.90	1636.33
322.11	1718.25
322.32	1705.96
322.54	1794.02
322.75	1701.86
322.96	1843.17
323.18	1681.38
323.39	1560.55
323.60	1679.33
323.81	1787.88
324.03	1712.10
324.24	1691.62
324.45	1671.14
324.66	1748.97
324.88	1748.97
325.09	1834.98
325.30	1718.25
325.52	1708.01
325.73	1720.29
325.94	1658.85
326.15	1669.09
326.37	1662.95
326.58	1708.01
326.79	1851.36
327.00	1671.14
327.22	1759.21
327.43	1714.15
327.64	1665.00
327.85	1714.15
328.07	1722.34
328.28	1882.08
328.49	1693.67
328.70	1714.15
328.92	1740.77
329.13	1791.97
329.34	1705.96
329.55	1808.36
329.76	1794.02
329.98	1718.25
330.19	1703.91
330.40	1763.30
330.61	1683.43
330.83	1832.93
331.04	1667.05
331.25	1730.53
331.46	1667.05
331.68	1609.70
331.89	1773.54
332.10	1624.04
332.31	1572.84
332.52	1769.44
332.74	1736.68
332.95	1619.94
333.16	1761.25
333.37	1746.92
333.58	1648.61
333.80	1734.63
334.01	1640.42
334.22	1703.91
334.43	1656.81
334.64	1658.85
334.86	1597.42
335.07	1654.76
335.28	1738.73
335.49	1681.38
335.70	1759.21
335.92	1714.15
336.13	1839.08
336.34	1726.44
336.55	1724.39
336.76	1757.16
336.98	1642.47
337.19	1730.53
337.40	1755.11
337.61	1871.84
337.82	1656.81
338.04	1722.34
338.25	1648.61
338.46	1660.90
338.67	1705.96
338.88	1675.24
339.09	1685.48
339.31	1638.38
339.52	1638.38
339.73	1638.38
339.94	1652.71
340.15	1771.49
340.36	1695.72
340.58	1773.54
340.79	1685.48
341.00	1746.92
341.21	1667.05
341.42	1873.89
341.63	1691.62
341.85	1806.31
342.06	1720.29
342.27	1628.14
342.48	1767.40
342.69	1617.90
342.90	1667.05
343.12	1701.86
343.33	1662.95
343.54	1779.68
343.75	1857.51
343.96	1724.39
344.17	1681.38
344.38	1695.72
344.60	1693.67
344.81	1619.94
345.02	1656.81
345.23	1791.97
345.44	1832.93
345.65	1730.53
345.86	1710.05
346.07	1644.52
346.29	1718.25
346.50	1804.26
346.71	1742.82
346.92	1769.44
347.13	1839.08
347.34	1773.54
347.55	1613.80
347.76	1724.39
347.98	1611.75
348.19	1624.04
348.40	1701.86
348.61	1742.82
348.82	1789.92
349.03	1757.16
349.24	1640.42
349.45	1787.88
349.66	1611.75
349.88	1734.63
350.09	1652.71
350.30	1716.20
350.51	1759.21
350.72	1685.48
350.93	1667.05
351.14	1708.01
351.35	1708.01
351.56	1755.11
351.77	1705.96
351.99	1724.39
352.20	1822.69
352.41	1757.16
352.62	1615.85
352.83	1701.86
353.04	1697.77
353.25	1640.42
353.46	1759.21
353.67	1736.68
353.88	1591.27
354.09	1720.29
354.30	1701.86
354.52	1849.32
354.73	1730.53
354.94	1693.67
355.15	1742.82
355.36	1820.64
355.57	1683.43
355.78	1658.85
355.99	1640.42
356.20	1701.86
356.41	1742.82
356.62	1779.68
356.83	1695.72
357.04	1849.32
357.25	1675.24
357.46	1701.86
357.68	1679.33
357.89	1693.67
358.10	1734.63
358.31	1773.54
358.52	1716.20
358.73	1621.99
358.94	1646.57
359.15	1693.67
359.36	1697.77
359.57	1689.57
359.78	1669.09
359.99	1716.20
360.20	1611.75
360.41	1714.15
360.62	1675.24
360.83	1759.21
361.04	1738.73
361.25	1738.73
361.46	1779.68
361.67	1701.86
361.88	1734.63
362.09	1705.96
362.30	1748.97
362.51	1710.05
362.72	1708.01
362.93	1724.39
363.14	1763.30
363.35	1781.73
363.56	1697.77
363.78	1787.88
363.99	1740.77
364.20	1669.09
364.41	1683.43
364.62	1824.74
364.83	1675.24
365.04	1726.44
365.25	1748.97
365.46	1832.93
365.67	1626.09
365.88	1689.57
366.09	1683.43
366.30	1658.85
366.51	1679.33
366.72	1683.43
366.93	1775.59
367.14	1697.77
367.35	1773.54
367.56	1710.05
367.77	1830.88
367.98	1685.48
368.18	1785.83
368.39	1730.53
368.60	1662.95
368.81	1869.80
369.02	1812.45
369.23	1718.25
369.44	1556.46
369.65	1665.00
369.86	1724.39
370.07	1734.63
370.28	1617.90
370.49	1779.68
370.70	1683.43
370.91	1740.77
371.12	1685.48
371.33	1796.07
371.54	1671.14
371.75	1773.54
371.96	1626.09
372.17	1716.20
372.38	1654.76
372.59	1828.84
372.80	1787.88
373.01	1656.81
373.22	1759.21
373.43	1681.38
373.64	1687.53
373.85	1771.49
374.06	1732.58
374.26	1767.40
374.47	1763.30
374.68	1851.36
374.89	1669.09
375.10	1667.05
375.31	1732.58
375.52	1742.82
375.73	1710.05
375.94	1624.04
376.15	1746.92
376.36	1669.09
376.57	1734.63
376.78	1732.58
376.99	1712.10
377.20	1851.36
377.40	1687.53
377.61	1816.55
377.82	1611.75
378.03	1791.97
378.24	1751.01
378.45	1685.48
378.66	1712.10
378.87	1576.94
379.08	1605.61
379.29	1710.05
379.50	1828.84
379.71	1689.57
379.91	1734.63
380.12	1695.72
380.33	1658.85
380.54	1769.44
380.75	1789.92
380.96	1763.30
381.17	1753.06
381.38	1677.29
381.59	1751.01
381.80	1708.01
382.00	1855.46
382.21	1816.55
382.42	1861.60
382.63	1857.51
382.84	1789.92
383.05	1765.35
383.26	1814.50
383.47	1718.25
383.68	1830.88
383.88	1789.92
384.09	1746.92
384.30	1800.16
384.51	1724.39
384.72	1669.09
384.93	1650.66
385.14	1669.09
385.35	1834.98
385.55	1624.04
385.76	1763.30
385.97	1693.67
386.18	1662.95
386.39	1658.85
386.60	1742.82
386.81	1712.10
387.02	1669.09
387.22	1687.53
387.43	1759.21
387.64	1800.16
387.85	1849.32
388.06	2199.52
388.27	4263.87
388.48	6606.75
388.68	8087.43
388.89	9647.98
389.10	9742.19
389.31	8374.14
389.52	7485.33
389.73	6725.53
389.93	6244.26
390.14	5760.94
390.35	5109.68
390.56	4507.58
390.77	3692.49
390.98	2879.44
391.18	2445.27
391.39	2140.13
391.60	1851.36
391.81	1896.42
392.02	1673.19
392.23	1877.99
392.43	1740.77
392.64	1802.21
392.85	1675.24
393.06	1748.97
393.27	1775.59
393.47	1675.24
393.68	1675.24
393.89	1689.57
394.10	1710.05
394.31	1679.33
394.52	1683.43
394.72	1648.61
394.93	1763.30
395.14	1648.61
395.35	1714.15
395.56	1681.38
395.76	1734.63
395.97	1794.02
396.18	1783.78
396.39	1767.40
396.60	2095.07
396.80	1964.00
397.01	1800.16
397.22	1820.64
397.43	1896.42
397.64	1767.40
397.84	1832.93
398.05	1898.47
398.26	1722.34
398.47	1769.44
398.67	1765.35
398.88	1701.86
399.09	1714.15
399.30	1646.57
399.51	1828.84
399.71	1640.42
399.92	1724.39
400.13	1695.72
400.34	1714.15
400.54	1751.01
400.75	1820.64
400.96	1804.26
401.17	1828.84
401.37	1818.60
401.58	1611.75
401.79	1646.57
402.00	1902.56
402.21	1990.63
402.41	1992.67
402.62	2058.21
402.83	2086.88
403.04	2080.74
403.24	2039.78
403.45	1806.31
403.66	1894.37
403.87	1877.99
404.07	1968.10
404.28	1978.34
404.49	1869.80
404.70	1837.03
404.90	1775.59
405.11	1734.63
405.32	1808.36
405.52	1810.40
405.73	1671.14
405.94	1714.15
406.15	1755.11
406.35	1720.29
406.56	1599.46
406.77	1724.39
406.98	1738.73
407.18	1644.52
407.39	1785.83
407.60	1681.38
407.80	1765.35
408.01	1794.02
408.22	1751.01
408.43	1658.85
408.63	1732.58
408.84	1769.44
409.05	1771.49
409.25	1703.91
409.46	1673.19
409.67	1771.49
409.88	1642.47
410.08	1638.38
410.29	1718.25
410.50	1742.82
410.70	1769.44
410.91	1685.48
411.12	1669.09
411.32	1783.78
411.53	1753.06
411.74	1777.64
411.95	1816.55
412.15	1753.06
412.36	1781.73
412.57	1740.77
412.77	1869.80
412.98	1783.78
413.19	1665.00
413.39	1820.64
413.60	1763.30
413.81	1724.39
414.01	1746.92
414.22	1732.58
414.43	1767.40
414.63	1671.14
414.84	1771.49
415.05	1726.44
415.25	1591.27
415.46	1810.40
415.67	1714.15
415.87	1738.73
416.08	1755.11
416.29	1728.49
416.49	1718.25
416.70	1708.01
416.91	1689.57
417.11	1726.44
417.32	1820.64
417.53	1755.11
417.73	1736.68
417.94	1798.12
418.15	1689.57
418.35	1669.09
418.56	1712.10
418.77	1855.46
418.97	1701.86
419.18	1734.63
419.38	1593.32
419.59	1683.43
419.80	1771.49
420.00	1617.90
420.21	1683.43
420.42	1791.97
420.62	1722.34
420.83	1703.91
421.04	1710.05
421.24	1730.53
421.45	1714.15
421.65	1757.16
421.86	1650.66
422.07	1746.92
422.27	1699.81
422.48	1730.53
422.69	1626.09
422.89	1761.25
423.10	1732.58
423.30	1669.09
423.51	1708.01
423.72	1705.96
423.92	1746.92
424.13	1581.03
424.33	1677.29
424.54	1769.44
424.75	1691.62
424.95	1826.79
425.16	1755.11
425.36	1742.82
425.57	1775.59
425.78	1720.29
425.98	1759.21
426.19	1626.09
426.39	1675.24
426.60	1794.02
426.81	1705.96
427.01	1726.44
427.22	1691.62
427.42	1591.27
427.63	1640.42
427.83	1806.31
428.04	1859.56
428.25	1802.21
428.45	1783.78
428.66	1822.69
428.86	1740.77
429.07	1636.33
429.28	1691.62
429.48	1722.34
429.69	1693.67
429.89	1685.48
430.10	1591.27
430.30	1765.35
430.51	1814.50
430.71	1734.63
430.92	1665.00
431.13	1697.77
431.33	1724.39
431.54	1753.06
431.74	1816.55
431.95	1841.12
432.15	1626.09
432.36	1669.09
432.56	1742.82
432.77	1857.51
432.98	1802.21
433.18	1787.88
433.39	1695.72
433.59	1757.16
433.80	1798.12
434.00	1896.42
434.21	1695.72
434.41	1724.39
434.62	1882.08
434.82	1642.47
435.03	1667.05
435.23	1808.36
435.44	1710.05
435.64	1728.49
435.85	1708.01
436.06	1757.16
436.26	1775.59
436.47	1753.06
436.67	1683.43
436.88	1683.43
437.08	1722.34
437.29	1830.88
437.49	1759.21
437.70	1730.53
437.90	1683.43
438.11	1845.22
438.31	1779.68
438.52	1853.41
438.72	1828.84
438.93	1925.09
439.13	1796.07
439.34	1763.30
439.54	1720.29
439.75	1789.92
439.95	1771.49
440.16	1697.77
440.36	1746.92
440.57	1789.92
440.77	1736.68
440.98	1728.49
441.18	1767.40
441.39	1652.71
441.59	1701.86
441.80	1808.36
442.00	1714.15
442.21	1837.03
442.41	1669.09
442.62	1798.12
442.82	1701.86
443.02	1740.77
443.23	1730.53
443.43	1734.63
443.64	1787.88
443.84	1681.38
444.05	1882.08
444.25	1654.76
444.46	1777.64
444.66	1794.02
444.87	1818.60
445.07	1628.14
445.28	1726.44
445.48	1757.16
445.69	1751.01
445.89	1853.41
446.09	1779.68
446.30	2013.15
446.50	2676.70
446.71	3749.83
446.91	4206.53
447.12	4691.90
447.32	4683.70
447.53	4358.08
447.73	3741.64
447.93	3635.14
448.14	3295.18
448.34	3248.08
448.55	2869.20
448.75	2779.09
448.96	2729.94
449.16	2389.98
449.36	2224.09
449.57	2062.30
449.77	1959.91
449.98	1849.32
450.18	1802.21
450.39	1849.32
450.59	1781.73
450.79	1730.53
451.00	1746.92
451.20	1828.84
451.41	1771.49
451.61	1773.54
451.81	1689.57
452.02	1738.73
452.22	1732.58
452.43	1634.28
452.63	1761.25
