SpectraSuite Data File
++++++++++++++++++++++++++++++++++++
Date: Mon Jun 06 17:08:37 CEST 2016
User: root
Dark Spectrum Present: No
Reference Spectrum Present: No
Number of Sampled Component Spectra: 1
Spectrometers: USB4C02835
Integration Time (usec): 100000 (USB4C02835)
Spectra Averaged: 1 (USB4C02835)
Boxcar Smoothing: 0 (USB4C02835)
Correct for Electrical Dark: No (USB4C02835)
Strobe/Lamp Enabled: No (USB4C02835)
Correct for Detector Non-linearity: No (USB4C02835)
Correct for Stray Light: No (USB4C02835)
Number of Pixels in Processed Spectrum: 3648
>>>>>Begin Processed Spectral Data<<<<<
177.47	1452.01
177.69	1452.01
177.91	1452.01
178.13	1413.10
178.36	1445.87
178.58	1636.33
178.80	1693.67
179.02	1621.99
179.24	1689.57
179.46	1689.57
179.68	1722.34
179.90	1732.58
180.13	1675.24
180.35	1673.19
180.57	1751.01
180.79	1687.53
181.01	1738.73
181.23	1798.12
181.45	1746.92
181.67	1789.92
181.90	1710.05
182.12	1683.43
182.34	1673.19
182.56	1736.68
182.78	1703.91
183.00	1665.00
183.22	1703.91
183.44	1615.85
183.66	1925.09
183.89	1748.97
184.11	1691.62
184.33	1744.87
184.55	1740.77
184.77	1734.63
184.99	1673.19
185.21	1665.00
185.43	1857.51
185.65	1597.42
185.87	1683.43
186.10	1806.31
186.32	1873.89
186.54	1804.26
186.76	1732.58
186.98	1796.07
187.20	1757.16
187.42	1681.38
187.64	1718.25
187.86	1748.97
188.08	1779.68
188.30	1669.09
188.52	1765.35
188.75	1791.97
188.97	1822.69
189.19	1761.25
189.41	1691.62
189.63	1724.39
189.85	1679.33
190.07	1644.52
190.29	1679.33
190.51	1665.00
190.73	1665.00
190.95	1800.16
191.17	1802.21
191.39	1679.33
191.61	1718.25
191.84	1740.77
192.06	1804.26
192.28	1615.85
192.50	1824.74
192.72	1712.10
192.94	1691.62
193.16	1767.40
193.38	1722.34
193.60	1583.08
193.82	1662.95
194.04	1714.15
194.26	1724.39
194.48	1791.97
194.70	1624.04
194.92	1660.90
195.14	1771.49
195.36	1597.42
195.58	1695.72
195.80	1726.44
196.02	1714.15
196.24	1710.05
196.46	1761.25
196.69	1615.85
196.91	1816.55
197.13	1771.49
197.35	1722.34
197.57	1767.40
197.79	1794.02
198.01	1712.10
198.23	1808.36
198.45	1857.51
198.67	1705.96
198.89	1671.14
199.11	1693.67
199.33	1712.10
199.55	1593.32
199.77	1794.02
199.99	1746.92
200.21	1673.19
200.43	1763.30
200.65	1691.62
200.87	1667.05
201.09	1636.33
201.31	1697.77
201.53	1724.39
201.75	1724.39
201.97	1742.82
202.19	1724.39
202.41	1771.49
202.63	1822.69
202.85	1716.20
203.07	1734.63
203.29	1665.00
203.51	1607.66
203.73	1593.32
203.95	1847.27
204.17	1662.95
204.39	1771.49
204.61	1689.57
204.83	1632.23
205.05	1759.21
205.27	1759.21
205.49	1916.90
205.71	1701.86
205.93	1611.75
206.15	1652.71
206.37	1726.44
206.59	1710.05
206.81	1566.70
207.03	1667.05
207.25	1619.94
207.47	1763.30
207.69	1705.96
207.91	1757.16
208.13	1898.47
208.34	1640.42
208.56	1652.71
208.78	1720.29
209.00	1710.05
209.22	1683.43
209.44	1710.05
209.66	1644.52
209.88	1722.34
210.10	1687.53
210.32	1658.85
210.54	1775.59
210.76	1701.86
210.98	1693.67
211.20	1538.02
211.42	1730.53
211.64	1812.45
211.86	1734.63
212.08	1621.99
212.30	1798.12
212.52	1722.34
212.74	1697.77
212.96	1730.53
213.17	1771.49
213.39	1841.12
213.61	1830.88
213.83	1777.64
214.05	1621.99
214.27	1804.26
214.49	1699.81
214.71	1634.28
214.93	1732.58
215.15	1683.43
215.37	1781.73
215.59	1628.14
215.81	1746.92
216.03	1748.97
216.24	1675.24
216.46	1734.63
216.68	1779.68
216.90	1701.86
217.12	1724.39
217.34	1722.34
217.56	1693.67
217.78	1728.49
218.00	1667.05
218.22	1736.68
218.44	1656.81
218.66	1718.25
218.87	1822.69
219.09	1628.14
219.31	1765.35
219.53	1714.15
219.75	1697.77
219.97	1669.09
220.19	1691.62
220.41	1650.66
220.63	1767.40
220.85	1763.30
221.06	1665.00
221.28	1892.32
221.50	1763.30
221.72	1683.43
221.94	1755.11
222.16	1705.96
222.38	1814.50
222.60	1728.49
222.82	1669.09
223.03	1732.58
223.25	1609.70
223.47	1675.24
223.69	1871.84
223.91	1755.11
224.13	1744.87
224.35	1671.14
224.57	1771.49
224.78	1699.81
225.00	1726.44
225.22	1740.77
225.44	1699.81
225.66	1755.11
225.88	1718.25
226.10	1730.53
226.32	1630.18
226.53	1804.26
226.75	1718.25
226.97	1748.97
227.19	1705.96
227.41	1693.67
227.63	1658.85
227.85	1671.14
228.06	1708.01
228.28	1724.39
228.50	1759.21
228.72	1652.71
228.94	1716.20
229.16	1648.61
229.37	1675.24
229.59	1714.15
229.81	1834.98
230.03	1626.09
230.25	1679.33
230.47	1685.48
230.69	1599.46
230.90	1738.73
231.12	1667.05
231.34	1740.77
231.56	1773.54
231.78	1716.20
232.00	1757.16
232.21	1660.90
232.43	1687.53
232.65	1570.79
232.87	1820.64
233.09	1595.37
233.30	1728.49
233.52	1730.53
233.74	1726.44
233.96	1638.38
234.18	1607.66
234.40	1685.48
234.61	1834.98
234.83	1634.28
235.05	1607.66
235.27	1826.79
235.49	1775.59
235.70	1724.39
235.92	1802.21
236.14	1730.53
236.36	1869.80
236.58	1660.90
236.79	1730.53
237.01	1699.81
237.23	1730.53
237.45	1816.55
237.67	1740.77
237.88	1658.85
238.10	1824.74
238.32	1652.71
238.54	1609.70
238.76	1632.23
238.97	1681.38
239.19	1691.62
239.41	1826.79
239.63	1691.62
239.85	1699.81
240.06	1652.71
240.28	1728.49
240.50	1798.12
240.72	1779.68
240.93	1683.43
241.15	1769.44
241.37	1673.19
241.59	1759.21
241.81	1740.77
242.02	1652.71
242.24	1751.01
242.46	1763.30
242.68	1644.52
242.89	1685.48
243.11	1755.11
243.33	1701.86
243.55	1744.87
243.76	1771.49
243.98	1748.97
244.20	1710.05
244.42	1673.19
244.64	1705.96
244.85	1699.81
245.07	1693.67
245.29	1726.44
245.51	1703.91
245.72	1763.30
245.94	1736.68
246.16	1763.30
246.38	1722.34
246.59	1791.97
246.81	1665.00
247.03	1681.38
247.24	1675.24
247.46	1689.57
247.68	1746.92
247.90	1732.58
248.11	1783.78
248.33	1734.63
248.55	1636.33
248.77	1689.57
248.98	1777.64
249.20	1802.21
249.42	1665.00
249.64	1726.44
249.85	1722.34
250.07	1603.56
250.29	1755.11
250.50	1771.49
250.72	1636.33
250.94	1736.68
251.16	1865.70
251.37	1746.92
251.59	1761.25
251.81	1681.38
252.02	1746.92
252.24	1673.19
252.46	1820.64
252.68	1660.90
252.89	1648.61
253.11	1624.04
253.33	1765.35
253.54	1732.58
253.76	1652.71
253.98	1710.05
254.20	1705.96
254.41	1673.19
254.63	1701.86
254.85	1630.18
255.06	1675.24
255.28	1798.12
255.50	1714.15
255.71	1660.90
255.93	1656.81
256.15	1693.67
256.36	1714.15
256.58	1683.43
256.80	1765.35
257.02	1681.38
257.23	1652.71
257.45	1800.16
257.67	1767.40
257.88	1652.71
258.10	1779.68
258.32	1738.73
258.53	1716.20
258.75	1763.30
258.97	1757.16
259.18	1656.81
259.40	1683.43
259.62	1796.07
259.83	1816.55
260.05	1753.06
260.27	1943.52
260.48	1773.54
260.70	1718.25
260.92	1705.96
261.13	1724.39
261.35	1701.86
261.57	1697.77
261.78	1599.46
262.00	1624.04
262.22	1765.35
262.43	1701.86
262.65	1734.63
262.86	1667.05
263.08	1830.88
263.30	1732.58
263.51	1626.09
263.73	1621.99
263.95	1783.78
264.16	1662.95
264.38	1673.19
264.60	1720.29
264.81	1755.11
265.03	1746.92
265.25	1787.88
265.46	1714.15
265.68	1812.45
265.89	1771.49
266.11	1607.66
266.33	1779.68
266.54	1787.88
266.76	1712.10
266.98	1714.15
267.19	1794.02
267.41	1716.20
267.62	1679.33
267.84	1665.00
268.06	1665.00
268.27	1708.01
268.49	1773.54
268.70	1787.88
268.92	1791.97
269.14	1740.77
269.35	1726.44
269.57	1761.25
269.79	1738.73
270.00	1597.42
270.22	1804.26
270.43	1724.39
270.65	1658.85
270.87	1656.81
271.08	1769.44
271.30	1787.88
271.51	1730.53
271.73	1839.08
271.95	1697.77
272.16	1726.44
272.38	1748.97
272.59	1683.43
272.81	1746.92
273.02	1687.53
273.24	1753.06
273.46	1740.77
273.67	1669.09
273.89	1644.52
274.10	1687.53
274.32	1761.25
274.54	1785.83
274.75	1730.53
274.97	1681.38
275.18	1763.30
275.40	1755.11
275.61	1714.15
275.83	1693.67
276.05	1585.13
276.26	1650.66
276.48	1755.11
276.69	1665.00
276.91	1642.47
277.12	1746.92
277.34	1781.73
277.55	1771.49
277.77	1683.43
277.99	1578.98
278.20	1781.73
278.42	1581.03
278.63	1632.23
278.85	1615.85
279.06	1699.81
279.28	1728.49
279.49	1712.10
279.71	1722.34
279.93	1708.01
280.14	1724.39
280.36	1673.19
280.57	1822.69
280.79	1861.60
281.00	1665.00
281.22	1665.00
281.43	1794.02
281.65	1687.53
281.86	1671.14
282.08	1744.87
282.29	1796.07
282.51	1689.57
282.73	1652.71
282.94	1636.33
283.16	1716.20
283.37	1775.59
283.59	1640.42
283.80	1703.91
284.02	1705.96
284.23	1699.81
284.45	1722.34
284.66	1662.95
284.88	1728.49
285.09	1685.48
285.31	1697.77
285.52	1701.86
285.74	1599.46
285.95	1775.59
286.17	1673.19
286.38	1740.77
286.60	1693.67
286.81	1656.81
287.03	1730.53
287.24	1689.57
287.46	1755.11
287.67	1712.10
287.89	1871.84
288.10	1724.39
288.32	1722.34
288.53	1730.53
288.75	1734.63
288.96	1718.25
289.18	1677.29
289.39	1708.01
289.61	1771.49
289.82	1834.98
290.04	1693.67
290.25	1654.76
290.47	1642.47
290.68	1681.38
290.90	1857.51
291.11	1701.86
291.33	1791.97
291.54	1617.90
291.76	1591.27
291.97	1691.62
292.18	1765.35
292.40	1708.01
292.61	1624.04
292.83	1886.18
293.04	1673.19
293.26	1746.92
293.47	1665.00
293.69	1626.09
293.90	1718.25
294.12	1714.15
294.33	1742.82
294.55	1716.20
294.76	1822.69
294.97	1800.16
295.19	1837.03
295.40	1710.05
295.62	1830.88
295.83	1783.78
296.05	1658.85
296.26	1742.82
296.48	1755.11
296.69	1648.61
296.90	1701.86
297.12	1783.78
297.33	1738.73
297.55	1710.05
297.76	1699.81
297.98	1814.50
298.19	1748.97
298.41	1697.77
298.62	1619.94
298.83	1800.16
299.05	1738.73
299.26	1724.39
299.48	1697.77
299.69	1804.26
299.90	1712.10
300.12	1589.22
300.33	1720.29
300.55	1703.91
300.76	1757.16
300.98	1681.38
301.19	1748.97
301.40	1718.25
301.62	1675.24
301.83	1734.63
302.05	1685.48
302.26	1701.86
302.47	1705.96
302.69	1619.94
302.90	1796.07
303.12	1611.75
303.33	1763.30
303.54	1798.12
303.76	1601.51
303.97	1669.09
304.19	1794.02
304.40	1683.43
304.61	1740.77
304.83	1757.16
305.04	1705.96
305.26	1677.29
305.47	1615.85
305.68	1642.47
305.90	1761.25
306.11	1742.82
306.33	1712.10
306.54	1722.34
306.75	1714.15
306.97	1656.81
307.18	1605.61
307.39	1744.87
307.61	1791.97
307.82	1660.90
308.04	1748.97
308.25	1771.49
308.46	1748.97
308.68	1673.19
308.89	1665.00
309.10	1740.77
309.32	1718.25
309.53	1705.96
309.74	1751.01
309.96	1691.62
310.17	1751.01
310.39	1683.43
310.60	1716.20
310.81	1718.25
311.03	1583.08
311.24	1794.02
311.45	1671.14
311.67	1859.56
311.88	1652.71
312.09	1628.14
312.31	1689.57
312.52	1685.48
312.73	1669.09
312.95	1667.05
313.16	1710.05
313.37	1738.73
313.59	1755.11
313.80	1832.93
314.01	1771.49
314.23	1730.53
314.44	1619.94
314.65	1693.67
314.87	1714.15
315.08	1710.05
315.29	1652.71
315.51	1638.38
315.72	1652.71
315.93	1765.35
316.15	1779.68
316.36	1697.77
316.57	1751.01
316.79	1757.16
317.00	1677.29
317.21	1701.86
317.43	1636.33
317.64	1714.15
317.85	1669.09
318.07	1701.86
318.28	1783.78
318.49	1755.11
318.70	1929.19
318.92	1773.54
319.13	1886.18
319.34	1816.55
319.56	1763.30
319.77	1828.84
319.98	1773.54
320.20	1712.10
320.41	1822.69
320.62	1740.77
320.83	1708.01
321.05	1908.71
321.26	1705.96
321.47	1687.53
321.69	1773.54
321.90	1599.46
322.11	1703.91
322.32	1738.73
322.54	1820.64
322.75	1662.95
322.96	1826.79
323.18	1656.81
323.39	1583.08
323.60	1691.62
323.81	1685.48
324.03	1689.57
324.24	1699.81
324.45	1740.77
324.66	1697.77
324.88	1708.01
325.09	1710.05
325.30	1652.71
325.52	1716.20
325.73	1648.61
325.94	1683.43
326.15	1654.76
326.37	1755.11
326.58	1748.97
326.79	1730.53
327.00	1710.05
327.22	1738.73
327.43	1730.53
327.64	1665.00
327.85	1720.29
328.07	1771.49
328.28	1757.16
328.49	1677.29
328.70	1748.97
328.92	1724.39
329.13	1687.53
329.34	1712.10
329.55	1808.36
329.76	1755.11
329.98	1716.20
330.19	1763.30
330.40	1689.57
330.61	1628.14
330.83	1871.84
331.04	1611.75
331.25	1714.15
331.46	1746.92
331.68	1613.80
331.89	1824.74
332.10	1726.44
332.31	1673.19
332.52	1724.39
332.74	1800.16
332.95	1630.18
333.16	1691.62
333.37	1744.87
333.58	1714.15
333.80	1716.20
334.01	1619.94
334.22	1638.38
334.43	1683.43
334.64	1726.44
334.86	1673.19
335.07	1648.61
335.28	1789.92
335.49	1599.46
335.70	1744.87
335.92	1775.59
336.13	1877.99
336.34	1710.05
336.55	1636.33
336.76	1697.77
336.98	1589.22
337.19	1703.91
337.40	1837.03
337.61	1906.66
337.82	1648.61
338.04	1730.53
338.25	1679.33
338.46	1673.19
338.67	1693.67
338.88	1738.73
339.09	1636.33
339.31	1658.85
339.52	1632.23
339.73	1621.99
339.94	1714.15
340.15	1740.77
340.36	1730.53
340.58	1675.24
340.79	1685.48
341.00	1767.40
341.21	1624.04
341.42	1740.77
341.63	1779.68
341.85	1734.63
342.06	1769.44
342.27	1681.38
342.48	1773.54
342.69	1628.14
342.90	1753.06
343.12	1839.08
343.33	1759.21
343.54	1720.29
343.75	1791.97
343.96	1787.88
344.17	1617.90
344.38	1732.58
344.60	1665.00
344.81	1724.39
345.02	1685.48
345.23	1767.40
345.44	1849.32
345.65	1816.55
345.86	1787.88
346.07	1705.96
346.29	1685.48
346.50	1753.06
346.71	1779.68
346.92	1759.21
347.13	1791.97
347.34	1687.53
347.55	1652.71
347.76	1769.44
347.98	1595.37
348.19	1697.77
348.40	1843.17
348.61	1691.62
348.82	1738.73
349.03	1691.62
349.24	1615.85
349.45	1822.69
349.66	1601.51
349.88	1765.35
350.09	1669.09
350.30	1779.68
350.51	1810.40
350.72	1636.33
350.93	1757.16
351.14	1671.14
351.35	1798.12
351.56	1693.67
351.77	1671.14
351.99	1722.34
352.20	1847.27
352.41	1767.40
352.62	1619.94
352.83	1714.15
353.04	1748.97
353.25	1736.68
353.46	1773.54
353.67	1824.74
353.88	1609.70
354.09	1646.57
354.30	1748.97
354.52	1734.63
354.73	1634.28
354.94	1583.08
355.15	1699.81
355.36	1794.02
355.57	1691.62
355.78	1738.73
355.99	1626.09
356.20	1710.05
356.41	1761.25
356.62	1689.57
356.83	1691.62
357.04	1757.16
357.25	1697.77
357.46	1669.09
357.68	1673.19
357.89	1732.58
358.10	1740.77
358.31	1720.29
358.52	1783.78
358.73	1603.56
358.94	1703.91
359.15	1632.23
359.36	1730.53
359.57	1726.44
359.78	1802.21
359.99	1720.29
360.20	1667.05
360.41	1681.38
360.62	1767.40
360.83	1787.88
361.04	1730.53
361.25	1746.92
361.46	1791.97
361.67	1773.54
361.88	1714.15
362.09	1714.15
362.30	1722.34
362.51	1644.52
362.72	1714.15
362.93	1740.77
363.14	1853.41
363.35	1722.34
363.56	1642.47
363.78	1775.59
363.99	1693.67
364.20	1685.48
364.41	1753.06
364.62	1812.45
364.83	1701.86
365.04	1716.20
365.25	1732.58
365.46	1814.50
365.67	1675.24
365.88	1636.33
366.09	1677.29
366.30	1589.22
366.51	1669.09
366.72	1712.10
366.93	1632.23
367.14	1701.86
367.35	1699.81
367.56	1699.81
367.77	1818.60
367.98	1624.04
368.18	1712.10
368.39	1746.92
368.60	1675.24
368.81	1703.91
369.02	1740.77
369.23	1724.39
369.44	1619.94
369.65	1658.85
369.86	1751.01
370.07	1804.26
370.28	1656.81
370.49	1736.68
370.70	1712.10
370.91	1640.42
371.12	1632.23
371.33	1722.34
371.54	1738.73
371.75	1837.03
371.96	1535.98
372.17	1722.34
372.38	1691.62
372.59	1800.16
372.80	1742.82
373.01	1712.10
373.22	1712.10
373.43	1757.16
373.64	1587.18
373.85	1769.44
374.06	1804.26
374.26	1748.97
374.47	1775.59
374.68	1763.30
374.89	1714.15
375.10	1734.63
375.31	1789.92
375.52	1773.54
375.73	1652.71
375.94	1669.09
376.15	1849.32
376.36	1665.00
376.57	1714.15
376.78	1697.77
376.99	1765.35
377.20	1753.06
377.40	1697.77
377.61	1791.97
377.82	1632.23
378.03	1796.07
378.24	1636.33
378.45	1718.25
378.66	1802.21
378.87	1665.00
379.08	1640.42
379.29	1693.67
379.50	1705.96
379.71	1701.86
379.91	1796.07
380.12	1638.38
380.33	1736.68
380.54	1753.06
380.75	1751.01
380.96	1710.05
381.17	1697.77
381.38	1726.44
381.59	1863.65
381.80	1755.11
382.00	1877.99
382.21	1738.73
382.42	1853.41
382.63	1843.17
382.84	1796.07
383.05	1796.07
383.26	1847.27
383.47	1705.96
383.68	1744.87
383.88	1734.63
384.09	1783.78
384.30	1855.46
384.51	1691.62
384.72	1751.01
384.93	1652.71
385.14	1697.77
385.35	1775.59
385.55	1656.81
385.76	1763.30
385.97	1777.64
386.18	1722.34
386.39	1652.71
386.60	1667.05
386.81	1724.39
387.02	1607.66
387.22	1667.05
387.43	1804.26
387.64	1736.68
387.85	1847.27
388.06	2318.30
388.27	4239.30
388.48	6829.98
388.68	8312.71
388.89	9535.34
389.10	9637.74
389.31	8439.68
389.52	7663.50
389.73	6733.72
389.93	6281.12
390.14	5685.16
390.35	5126.07
390.56	4581.31
390.77	3751.88
390.98	3080.14
391.18	2545.63
391.39	2170.85
391.60	1886.18
391.81	1853.41
392.02	1714.15
392.23	1832.93
392.43	1728.49
392.64	1785.83
392.85	1839.08
393.06	1861.60
393.27	1693.67
393.47	1708.01
393.68	1789.92
393.89	1714.15
394.10	1771.49
394.31	1675.24
394.52	1665.00
394.72	1665.00
394.93	1845.22
395.14	1630.18
395.35	1681.38
395.56	1681.38
395.76	1748.97
395.97	1791.97
396.18	1869.80
396.39	1816.55
396.60	2045.92
396.80	1890.28
397.01	1851.36
397.22	1775.59
397.43	1841.12
397.64	1730.53
397.84	1832.93
398.05	1935.33
398.26	1734.63
398.47	1804.26
398.67	1802.21
398.88	1751.01
399.09	1791.97
399.30	1691.62
399.51	1765.35
399.71	1697.77
399.92	1732.58
400.13	1771.49
400.34	1734.63
400.54	1744.87
400.75	1773.54
400.96	1697.77
401.17	1855.46
401.37	1724.39
401.58	1583.08
401.79	1751.01
402.00	1877.99
402.21	2033.63
402.41	1902.56
402.62	2095.07
402.83	1992.67
403.04	2002.91
403.24	2017.25
403.45	1898.47
403.66	1947.62
403.87	1871.84
404.07	1906.66
404.28	1918.95
404.49	1839.08
404.70	1736.68
404.90	1751.01
405.11	1759.21
405.32	1777.64
405.52	1673.19
405.73	1630.18
405.94	1712.10
406.15	1746.92
406.35	1763.30
406.56	1798.12
406.77	1771.49
406.98	1718.25
407.18	1767.40
407.39	1781.73
407.60	1730.53
407.80	1712.10
408.01	1669.09
408.22	1775.59
408.43	1718.25
408.63	1882.08
408.84	1757.16
409.05	1783.78
409.25	1675.24
409.46	1685.48
409.67	1738.73
409.88	1714.15
410.08	1736.68
410.29	1679.33
410.50	1802.21
410.70	1757.16
410.91	1703.91
411.12	1748.97
411.32	1761.25
411.53	1679.33
411.74	1791.97
411.95	1814.50
412.15	1789.92
412.36	1869.80
412.57	1773.54
412.77	1818.60
412.98	1732.58
413.19	1728.49
413.39	1728.49
413.60	1699.81
413.81	1796.07
414.01	1656.81
414.22	1751.01
414.43	1763.30
414.63	1730.53
414.84	1755.11
415.05	1685.48
415.25	1685.48
415.46	1865.70
415.67	1628.14
415.87	1804.26
416.08	1714.15
416.29	1630.18
416.49	1722.34
416.70	1783.78
416.91	1720.29
417.11	1771.49
417.32	1791.97
417.53	1814.50
417.73	1794.02
417.94	1705.96
418.15	1695.72
418.35	1710.05
418.56	1701.86
418.77	1869.80
418.97	1746.92
419.18	1648.61
419.38	1654.76
419.59	1617.90
419.80	1773.54
420.00	1708.01
420.21	1767.40
420.42	1820.64
420.62	1761.25
420.83	1705.96
421.04	1687.53
421.24	1695.72
421.45	1703.91
421.65	1828.84
421.86	1724.39
422.07	1734.63
422.27	1687.53
422.48	1812.45
422.69	1656.81
422.89	1757.16
423.10	1662.95
423.30	1722.34
423.51	1695.72
423.72	1755.11
423.92	1716.20
424.13	1689.57
424.33	1701.86
424.54	1759.21
424.75	1681.38
424.95	1802.21
425.16	1759.21
425.36	1658.85
425.57	1740.77
425.78	1755.11
425.98	1851.36
426.19	1722.34
426.39	1705.96
426.60	1845.22
426.81	1865.70
427.01	1724.39
427.22	1677.29
427.42	1642.47
427.63	1691.62
427.83	1675.24
428.04	1804.26
428.25	1884.13
428.45	1810.40
428.66	1812.45
428.86	1730.53
429.07	1675.24
429.28	1763.30
429.48	1703.91
429.69	1748.97
429.89	1753.06
430.10	1677.29
430.30	1832.93
430.51	1763.30
430.71	1691.62
430.92	1677.29
431.13	1658.85
431.33	1787.88
431.54	1720.29
431.74	1740.77
431.95	1837.03
432.15	1654.76
432.36	1736.68
432.56	1765.35
432.77	1779.68
432.98	1740.77
433.18	1775.59
433.39	1624.04
433.59	1710.05
433.80	1853.41
434.00	1941.47
434.21	1685.48
434.41	1675.24
434.62	1888.23
434.82	1718.25
435.03	1658.85
435.23	1630.18
435.44	1650.66
435.64	1765.35
435.85	1796.07
436.06	1820.64
436.26	1773.54
436.47	1744.87
436.67	1701.86
436.88	1722.34
437.08	1806.31
437.29	1769.44
437.49	1697.77
437.70	1714.15
437.90	1730.53
438.11	1880.04
438.31	1806.31
438.52	1837.03
438.72	1851.36
438.93	1908.71
439.13	1800.16
439.34	1832.93
439.54	1794.02
439.75	1814.50
439.95	1812.45
440.16	1695.72
440.36	1753.06
440.57	1722.34
440.77	1757.16
440.98	1705.96
441.18	1806.31
441.39	1753.06
441.59	1732.58
441.80	1841.12
442.00	1734.63
442.21	1783.78
442.41	1693.67
442.62	1841.12
442.82	1728.49
443.02	1767.40
443.23	1798.12
443.43	1628.14
443.64	1808.36
443.84	1710.05
444.05	1857.51
444.25	1726.44
444.46	1671.14
444.66	1751.01
444.87	1810.40
445.07	1681.38
445.28	1763.30
445.48	1765.35
445.69	1697.77
445.89	1820.64
446.09	1761.25
446.30	1982.43
446.50	2623.45
446.71	3688.39
446.91	4319.17
447.12	4714.42
447.32	4739.00
447.53	4368.32
447.73	3831.75
447.93	3585.99
448.14	3237.84
448.34	3184.59
448.55	2934.74
448.75	2856.92
448.96	2662.36
449.16	2471.90
449.36	2258.91
449.57	2047.97
449.77	1914.85
449.98	1777.64
450.18	1851.36
450.39	1853.41
450.59	1753.06
450.79	1701.86
451.00	1767.40
451.20	1810.40
451.41	1697.77
451.61	1732.58
451.81	1755.11
452.02	1683.43
452.22	1699.81
452.43	1753.06
452.63	1740.77
