SpectraSuite Data File
++++++++++++++++++++++++++++++++++++
Date: Mon Jun 06 14:00:37 CEST 2016
User: root
Dark Spectrum Present: No
Reference Spectrum Present: No
Number of Sampled Component Spectra: 1
Spectrometers: USB4C02835
Integration Time (usec): 100000 (USB4C02835)
Spectra Averaged: 1 (USB4C02835)
Boxcar Smoothing: 0 (USB4C02835)
Correct for Electrical Dark: No (USB4C02835)
Strobe/Lamp Enabled: No (USB4C02835)
Correct for Detector Non-linearity: No (USB4C02835)
Correct for Stray Light: No (USB4C02835)
Number of Pixels in Processed Spectrum: 3648
>>>>>Begin Processed Spectral Data<<<<<
177.47	1468.39
177.69	1468.39
177.91	1468.39
178.13	1458.15
178.36	1480.68
178.58	1677.29
178.80	1685.48
179.02	1595.37
179.24	1646.57
179.46	1722.34
179.68	1742.82
179.90	1669.09
180.13	1656.81
180.35	1619.94
180.57	1675.24
180.79	1777.64
181.01	1642.47
181.23	1726.44
181.45	1744.87
181.67	1777.64
181.90	1667.05
182.12	1751.01
182.34	1617.90
182.56	1628.14
182.78	1755.11
183.00	1691.62
183.22	1775.59
183.44	1646.57
183.66	1824.74
183.89	1849.32
184.11	1669.09
184.33	1679.33
184.55	1714.15
184.77	1644.52
184.99	1697.77
185.21	1638.38
185.43	1794.02
185.65	1691.62
185.87	1665.00
186.10	1808.36
186.32	1808.36
186.54	1679.33
186.76	1705.96
186.98	1697.77
187.20	1722.34
187.42	1708.01
187.64	1742.82
187.86	1724.39
188.08	1742.82
188.30	1667.05
188.52	1710.05
188.75	1753.06
188.97	1681.38
189.19	1677.29
189.41	1740.77
189.63	1669.09
189.85	1736.68
190.07	1665.00
190.29	1675.24
190.51	1769.44
190.73	1599.46
190.95	1761.25
191.17	1656.81
191.39	1660.90
191.61	1591.27
191.84	1689.57
192.06	1710.05
192.28	1527.78
192.50	1863.65
192.72	1738.73
192.94	1697.77
193.16	1810.40
193.38	1673.19
193.60	1712.10
193.82	1669.09
194.04	1822.69
194.26	1742.82
194.48	1656.81
194.70	1677.29
194.92	1687.53
195.14	1781.73
195.36	1669.09
195.58	1675.24
195.80	1761.25
196.02	1681.38
196.24	1730.53
196.46	1763.30
196.69	1689.57
196.91	1888.23
197.13	1615.85
197.35	1708.01
197.57	1851.36
197.79	1746.92
198.01	1705.96
198.23	1736.68
198.45	1650.66
198.67	1656.81
198.89	1757.16
199.11	1738.73
199.33	1712.10
199.55	1630.18
199.77	1701.86
199.99	1718.25
200.21	1693.67
200.43	1669.09
200.65	1576.94
200.87	1624.04
201.09	1716.20
201.31	1675.24
201.53	1689.57
201.75	1757.16
201.97	1726.44
202.19	1656.81
202.41	1726.44
202.63	1785.83
202.85	1789.92
203.07	1675.24
203.29	1636.33
203.51	1624.04
203.73	1636.33
203.95	1902.56
204.17	1742.82
204.39	1775.59
204.61	1720.29
204.83	1650.66
205.05	1757.16
205.27	1810.40
205.49	1732.58
205.71	1716.20
205.93	1662.95
206.15	1746.92
206.37	1714.15
206.59	1732.58
206.81	1628.14
207.03	1665.00
207.25	1599.46
207.47	1714.15
207.69	1652.71
207.91	1724.39
208.13	1740.77
208.34	1722.34
208.56	1601.51
208.78	1785.83
209.00	1705.96
209.22	1705.96
209.44	1675.24
209.66	1644.52
209.88	1775.59
210.10	1730.53
210.32	1714.15
210.54	1849.32
210.76	1718.25
210.98	1714.15
211.20	1685.48
211.42	1759.21
211.64	1755.11
211.86	1695.72
212.08	1697.77
212.30	1669.09
212.52	1710.05
212.74	1720.29
212.96	1728.49
213.17	1724.39
213.39	1726.44
213.61	1796.07
213.83	1816.55
214.05	1671.14
214.27	1744.87
214.49	1658.85
214.71	1636.33
214.93	1765.35
215.15	1693.67
215.37	1671.14
215.59	1699.81
215.81	1722.34
216.03	1744.87
216.24	1796.07
216.46	1632.23
216.68	1736.68
216.90	1775.59
217.12	1773.54
217.34	1740.77
217.56	1648.61
217.78	1734.63
218.00	1675.24
218.22	1687.53
218.44	1671.14
218.66	1697.77
218.87	1884.13
219.09	1701.86
219.31	1687.53
219.53	1654.76
219.75	1636.33
219.97	1724.39
220.19	1722.34
220.41	1708.01
220.63	1806.31
220.85	1712.10
221.06	1591.27
221.28	1777.64
221.50	1734.63
221.72	1726.44
221.94	1728.49
222.16	1624.04
222.38	1763.30
222.60	1720.29
222.82	1746.92
223.03	1669.09
223.25	1638.38
223.47	1796.07
223.69	1869.80
223.91	1761.25
224.13	1722.34
224.35	1652.71
224.57	1787.88
224.78	1722.34
225.00	1679.33
225.22	1736.68
225.44	1654.76
225.66	1751.01
225.88	1701.86
226.10	1841.12
226.32	1673.19
226.53	1783.78
226.75	1730.53
226.97	1667.05
227.19	1783.78
227.41	1656.81
227.63	1660.90
227.85	1632.23
228.06	1701.86
228.28	1671.14
228.50	1767.40
228.72	1624.04
228.94	1636.33
229.16	1626.09
229.37	1599.46
229.59	1621.99
229.81	1771.49
230.03	1660.90
230.25	1746.92
230.47	1673.19
230.69	1642.47
230.90	1759.21
231.12	1726.44
231.34	1675.24
231.56	1816.55
231.78	1621.99
232.00	1667.05
232.21	1632.23
232.43	1658.85
232.65	1578.98
232.87	1667.05
233.09	1650.66
233.30	1673.19
233.52	1691.62
233.74	1615.85
233.96	1673.19
234.18	1673.19
234.40	1648.61
234.61	1763.30
234.83	1640.42
235.05	1689.57
235.27	1839.08
235.49	1726.44
235.70	1708.01
235.92	1820.64
236.14	1695.72
236.36	1818.60
236.58	1679.33
236.79	1703.91
237.01	1734.63
237.23	1634.28
237.45	1818.60
237.67	1648.61
237.88	1757.16
238.10	1853.41
238.32	1642.47
238.54	1697.77
238.76	1656.81
238.97	1697.77
239.19	1634.28
239.41	1751.01
239.63	1814.50
239.85	1685.48
240.06	1722.34
240.28	1615.85
240.50	1779.68
240.72	1726.44
240.93	1742.82
241.15	1699.81
241.37	1828.84
241.59	1818.60
241.81	1714.15
242.02	1675.24
242.24	1691.62
242.46	1742.82
242.68	1632.23
242.89	1693.67
243.11	1726.44
243.33	1699.81
243.55	1693.67
243.76	1714.15
243.98	1671.14
244.20	1722.34
244.42	1701.86
244.64	1667.05
244.85	1718.25
245.07	1619.94
245.29	1703.91
245.51	1720.29
245.72	1708.01
245.94	1775.59
246.16	1710.05
246.38	1773.54
246.59	1689.57
246.81	1685.48
247.03	1642.47
247.24	1562.60
247.46	1687.53
247.68	1708.01
247.90	1693.67
248.11	1654.76
248.33	1669.09
248.55	1656.81
248.77	1691.62
248.98	1751.01
249.20	1816.55
249.42	1718.25
249.64	1689.57
249.85	1673.19
250.07	1691.62
250.29	1705.96
250.50	1748.97
250.72	1570.79
250.94	1675.24
251.16	1796.07
251.37	1796.07
251.59	1746.92
251.81	1785.83
252.02	1751.01
252.24	1654.76
252.46	1693.67
252.68	1658.85
252.89	1642.47
253.11	1677.29
253.33	1841.12
253.54	1771.49
253.76	1656.81
253.98	1683.43
254.20	1699.81
254.41	1636.33
254.63	1630.18
254.85	1587.18
255.06	1751.01
255.28	1722.34
255.50	1683.43
255.71	1617.90
255.93	1603.56
256.15	1640.42
256.36	1738.73
256.58	1640.42
256.80	1789.92
257.02	1656.81
257.23	1648.61
257.45	1669.09
257.67	1718.25
257.88	1691.62
258.10	1755.11
258.32	1757.16
258.53	1712.10
258.75	1800.16
258.97	1585.13
259.18	1710.05
259.40	1665.00
259.62	1837.03
259.83	1724.39
260.05	1800.16
260.27	1959.91
260.48	1738.73
260.70	1595.37
260.92	1673.19
261.13	1615.85
261.35	1693.67
261.57	1734.63
261.78	1566.70
262.00	1685.48
262.22	1746.92
262.43	1660.90
262.65	1722.34
262.86	1691.62
263.08	1810.40
263.30	1667.05
263.51	1619.94
263.73	1728.49
263.95	1712.10
264.16	1644.52
264.38	1685.48
264.60	1642.47
264.81	1681.38
265.03	1759.21
265.25	1804.26
265.46	1689.57
265.68	1800.16
265.89	1796.07
266.11	1642.47
266.33	1742.82
266.54	1775.59
266.76	1769.44
266.98	1765.35
267.19	1708.01
267.41	1734.63
267.62	1681.38
267.84	1628.14
268.06	1765.35
268.27	1691.62
268.49	1816.55
268.70	1726.44
268.92	1746.92
269.14	1697.77
269.35	1630.18
269.57	1607.66
269.79	1726.44
270.00	1742.82
270.22	1816.55
270.43	1697.77
270.65	1626.09
270.87	1681.38
271.08	1738.73
271.30	1748.97
271.51	1722.34
271.73	1734.63
271.95	1755.11
272.16	1724.39
272.38	1697.77
272.59	1722.34
272.81	1658.85
273.02	1746.92
273.24	1751.01
273.46	1687.53
273.67	1624.04
273.89	1671.14
274.10	1681.38
274.32	1757.16
274.54	1734.63
274.75	1716.20
274.97	1675.24
275.18	1710.05
275.40	1740.77
275.61	1701.86
275.83	1763.30
276.05	1656.81
276.26	1677.29
276.48	1734.63
276.69	1722.34
276.91	1673.19
277.12	1718.25
277.34	1701.86
277.55	1665.00
277.77	1665.00
277.99	1597.42
278.20	1660.90
278.42	1652.71
278.63	1630.18
278.85	1726.44
279.06	1669.09
279.28	1693.67
279.49	1730.53
279.71	1736.68
279.93	1681.38
280.14	1689.57
280.36	1652.71
280.57	1708.01
280.79	1837.03
281.00	1722.34
281.22	1710.05
281.43	1724.39
281.65	1609.70
281.86	1662.95
282.08	1710.05
282.29	1818.60
282.51	1656.81
282.73	1630.18
282.94	1560.55
283.16	1730.53
283.37	1810.40
283.59	1730.53
283.80	1671.14
284.02	1699.81
284.23	1703.91
284.45	1636.33
284.66	1628.14
284.88	1712.10
285.09	1718.25
285.31	1767.40
285.52	1730.53
285.74	1665.00
285.95	1681.38
286.17	1703.91
286.38	1777.64
286.60	1697.77
286.81	1646.57
287.03	1689.57
287.24	1665.00
287.46	1767.40
287.67	1714.15
287.89	1771.49
288.10	1597.42
288.32	1777.64
288.53	1787.88
288.75	1720.29
288.96	1699.81
289.18	1677.29
289.39	1683.43
289.61	1665.00
289.82	1759.21
290.04	1804.26
290.25	1636.33
290.47	1689.57
290.68	1701.86
290.90	1775.59
291.11	1656.81
291.33	1734.63
291.54	1656.81
291.76	1658.85
291.97	1730.53
292.18	1683.43
292.40	1677.29
292.61	1632.23
292.83	1837.03
293.04	1742.82
293.26	1638.38
293.47	1705.96
293.69	1640.42
293.90	1673.19
294.12	1791.97
294.33	1681.38
294.55	1621.99
294.76	1740.77
294.97	1802.21
295.19	1812.45
295.40	1691.62
295.62	1728.49
295.83	1775.59
296.05	1691.62
296.26	1781.73
296.48	1703.91
296.69	1705.96
296.90	1759.21
297.12	1763.30
297.33	1675.24
297.55	1779.68
297.76	1746.92
297.98	1759.21
298.19	1662.95
298.41	1710.05
298.62	1548.26
298.83	1751.01
299.05	1665.00
299.26	1669.09
299.48	1724.39
299.69	1783.78
299.90	1662.95
300.12	1636.33
300.33	1738.73
300.55	1722.34
300.76	1669.09
300.98	1671.14
301.19	1722.34
301.40	1699.81
301.62	1697.77
301.83	1755.11
302.05	1652.71
302.26	1660.90
302.47	1697.77
302.69	1621.99
302.90	1771.49
303.12	1689.57
303.33	1742.82
303.54	1806.31
303.76	1669.09
303.97	1714.15
304.19	1744.87
304.40	1665.00
304.61	1714.15
304.83	1886.18
305.04	1738.73
305.26	1755.11
305.47	1654.76
305.68	1654.76
305.90	1665.00
306.11	1726.44
306.33	1687.53
306.54	1656.81
306.75	1718.25
306.97	1593.32
307.18	1685.48
307.39	1742.82
307.61	1716.20
307.82	1665.00
308.04	1689.57
308.25	1591.27
308.46	1755.11
308.68	1730.53
308.89	1683.43
309.10	1708.01
309.32	1730.53
309.53	1691.62
309.74	1718.25
309.96	1683.43
310.17	1796.07
310.39	1669.09
310.60	1705.96
310.81	1740.77
311.03	1673.19
311.24	1726.44
311.45	1628.14
311.67	1826.79
311.88	1679.33
312.09	1642.47
312.31	1632.23
312.52	1683.43
312.73	1689.57
312.95	1658.85
313.16	1660.90
313.37	1767.40
313.59	1767.40
313.80	1724.39
314.01	1796.07
314.23	1675.24
314.44	1675.24
314.65	1662.95
314.87	1710.05
315.08	1685.48
315.29	1662.95
315.51	1677.29
315.72	1568.74
315.93	1828.84
316.15	1796.07
316.36	1720.29
316.57	1667.05
316.79	1732.58
317.00	1697.77
317.21	1726.44
317.43	1691.62
317.64	1755.11
317.85	1669.09
318.07	1656.81
318.28	1732.58
318.49	1824.74
318.70	1923.04
318.92	1816.55
319.13	1791.97
319.34	1742.82
319.56	1789.92
319.77	1785.83
319.98	1810.40
320.20	1779.68
320.41	1742.82
320.62	1775.59
320.83	1644.52
321.05	1904.61
321.26	1740.77
321.47	1660.90
321.69	1714.15
321.90	1640.42
322.11	1646.57
322.32	1708.01
322.54	1773.54
322.75	1626.09
322.96	1884.13
323.18	1652.71
323.39	1560.55
323.60	1744.87
323.81	1781.73
324.03	1695.72
324.24	1746.92
324.45	1732.58
324.66	1669.09
324.88	1740.77
325.09	1779.68
325.30	1609.70
325.52	1763.30
325.73	1783.78
325.94	1611.75
326.15	1656.81
326.37	1703.91
326.58	1689.57
326.79	1791.97
327.00	1718.25
327.22	1742.82
327.43	1701.86
327.64	1632.23
327.85	1763.30
328.07	1697.77
328.28	1837.03
328.49	1658.85
328.70	1632.23
328.92	1660.90
329.13	1636.33
329.34	1648.61
329.55	1781.73
329.76	1773.54
329.98	1724.39
330.19	1716.20
330.40	1726.44
330.61	1679.33
330.83	1722.34
331.04	1652.71
331.25	1710.05
331.46	1751.01
331.68	1677.29
331.89	1740.77
332.10	1751.01
332.31	1640.42
332.52	1734.63
332.74	1779.68
332.95	1632.23
333.16	1677.29
333.37	1740.77
333.58	1654.76
333.80	1708.01
334.01	1601.51
334.22	1593.32
334.43	1615.85
334.64	1675.24
334.86	1710.05
335.07	1665.00
335.28	1865.70
335.49	1591.27
335.70	1787.88
335.92	1751.01
336.13	1810.40
336.34	1765.35
336.55	1736.68
336.76	1724.39
336.98	1603.56
337.19	1675.24
337.40	1802.21
337.61	1818.60
337.82	1720.29
338.04	1712.10
338.25	1558.50
338.46	1701.86
338.67	1759.21
338.88	1621.99
339.09	1574.89
339.31	1724.39
339.52	1703.91
339.73	1636.33
339.94	1699.81
340.15	1767.40
340.36	1667.05
340.58	1685.48
340.79	1632.23
341.00	1730.53
341.21	1703.91
341.42	1759.21
341.63	1691.62
341.85	1763.30
342.06	1703.91
342.27	1617.90
342.48	1683.43
342.69	1695.72
342.90	1769.44
343.12	1757.16
343.33	1628.14
343.54	1761.25
343.75	1712.10
343.96	1710.05
344.17	1685.48
344.38	1636.33
344.60	1644.52
344.81	1673.19
345.02	1644.52
345.23	1691.62
345.44	1693.67
345.65	1746.92
345.86	1632.23
346.07	1701.86
346.29	1697.77
346.50	1732.58
346.71	1730.53
346.92	1726.44
347.13	1845.22
347.34	1632.23
347.55	1656.81
347.76	1757.16
347.98	1626.09
348.19	1714.15
348.40	1787.88
348.61	1695.72
348.82	1789.92
349.03	1722.34
349.24	1726.44
349.45	1761.25
349.66	1628.14
349.88	1683.43
350.09	1685.48
350.30	1814.50
350.51	1710.05
350.72	1681.38
350.93	1824.74
351.14	1652.71
351.35	1773.54
351.56	1685.48
351.77	1603.56
351.99	1726.44
352.20	1794.02
352.41	1783.78
352.62	1607.66
352.83	1634.28
353.04	1652.71
353.25	1652.71
353.46	1732.58
353.67	1705.96
353.88	1624.04
354.09	1669.09
354.30	1740.77
354.52	1679.33
354.73	1732.58
354.94	1697.77
355.15	1732.58
355.36	1734.63
355.57	1628.14
355.78	1710.05
355.99	1710.05
356.20	1689.57
356.41	1787.88
356.62	1767.40
356.83	1656.81
357.04	1810.40
357.25	1611.75
357.46	1599.46
357.68	1574.89
357.89	1638.38
358.10	1669.09
358.31	1746.92
358.52	1751.01
358.73	1685.48
358.94	1644.52
359.15	1654.76
359.36	1767.40
359.57	1716.20
359.78	1691.62
359.99	1753.06
360.20	1607.66
360.41	1621.99
360.62	1587.18
360.83	1779.68
361.04	1779.68
361.25	1687.53
361.46	1814.50
361.67	1794.02
361.88	1720.29
362.09	1796.07
362.30	1746.92
362.51	1679.33
362.72	1742.82
362.93	1761.25
363.14	1806.31
363.35	1697.77
363.56	1607.66
363.78	1681.38
363.99	1789.92
364.20	1658.85
364.41	1726.44
364.62	1798.12
364.83	1742.82
365.04	1662.95
365.25	1746.92
365.46	1765.35
365.67	1685.48
365.88	1562.60
366.09	1685.48
366.30	1714.15
366.51	1708.01
366.72	1652.71
366.93	1675.24
367.14	1726.44
367.35	1781.73
367.56	1679.33
367.77	1855.46
367.98	1603.56
368.18	1726.44
368.39	1740.77
368.60	1656.81
368.81	1787.88
369.02	1695.72
369.23	1718.25
369.44	1599.46
369.65	1593.32
369.86	1738.73
370.07	1769.44
370.28	1626.09
370.49	1781.73
370.70	1769.44
370.91	1644.52
371.12	1621.99
371.33	1726.44
371.54	1685.48
371.75	1826.79
371.96	1533.93
372.17	1697.77
372.38	1701.86
372.59	1703.91
372.80	1667.05
373.01	1644.52
373.22	1697.77
373.43	1703.91
373.64	1626.09
373.85	1730.53
374.06	1732.58
374.26	1722.34
374.47	1712.10
374.68	1748.97
374.89	1748.97
375.10	1703.91
375.31	1714.15
375.52	1712.10
375.73	1787.88
375.94	1595.37
376.15	1869.80
376.36	1746.92
376.57	1628.14
376.78	1746.92
376.99	1748.97
377.20	1794.02
377.40	1621.99
377.61	1775.59
377.82	1699.81
378.03	1757.16
378.24	1708.01
378.45	1640.42
378.66	1746.92
378.87	1665.00
379.08	1640.42
379.29	1710.05
379.50	1722.34
379.71	1708.01
379.91	1789.92
380.12	1671.14
380.33	1765.35
380.54	1681.38
380.75	1677.29
380.96	1685.48
381.17	1671.14
381.38	1755.11
381.59	1763.30
381.80	1636.33
382.00	1814.50
382.21	1751.01
382.42	1777.64
382.63	1800.16
382.84	1781.73
383.05	1763.30
383.26	1937.38
383.47	1736.68
383.68	1658.85
383.88	1761.25
384.09	1665.00
384.30	1884.13
384.51	1732.58
384.72	1640.42
384.93	1673.19
385.14	1687.53
385.35	1818.60
385.55	1652.71
385.76	1724.39
385.97	1658.85
386.18	1601.51
386.39	1630.18
386.60	1630.18
386.81	1650.66
387.02	1673.19
387.22	1673.19
387.43	1751.01
387.64	1828.84
387.85	1767.40
388.06	2224.09
388.27	4294.59
388.48	6795.16
388.68	8257.41
388.89	9693.04
389.10	9832.30
389.31	8472.45
389.52	7448.46
389.73	6666.14
389.93	6262.69
390.14	5851.05
390.35	5285.81
390.56	4577.21
390.77	3782.60
390.98	2959.31
391.18	2588.63
391.39	2136.03
391.60	1875.94
391.81	1822.69
392.02	1720.29
392.23	1935.33
392.43	1712.10
392.64	1834.98
392.85	1662.95
393.06	1785.83
393.27	1730.53
393.47	1667.05
393.68	1708.01
393.89	1730.53
394.10	1740.77
394.31	1671.14
394.52	1617.90
394.72	1695.72
394.93	1791.97
395.14	1656.81
395.35	1669.09
395.56	1681.38
395.76	1656.81
395.97	1736.68
396.18	1865.70
396.39	1916.90
396.60	2015.20
396.80	1898.47
397.01	1939.43
397.22	1808.36
397.43	1916.90
397.64	1662.95
397.84	1755.11
398.05	1804.26
398.26	1742.82
398.47	1714.15
398.67	1769.44
398.88	1673.19
399.09	1685.48
399.30	1699.81
399.51	1783.78
399.71	1605.61
399.92	1679.33
400.13	1708.01
400.34	1701.86
400.54	1716.20
400.75	1765.35
400.96	1681.38
401.17	1746.92
401.37	1705.96
401.58	1712.10
401.79	1730.53
402.00	1845.22
402.21	1974.24
402.41	1937.38
402.62	1996.77
402.83	2123.74
403.04	2041.82
403.24	2078.69
403.45	1796.07
403.66	1888.23
403.87	1837.03
404.07	1886.18
404.28	1886.18
404.49	1955.81
404.70	1781.73
404.90	1748.97
405.11	1642.47
405.32	1785.83
405.52	1669.09
405.73	1718.25
405.94	1683.43
406.15	1732.58
406.35	1773.54
406.56	1759.21
406.77	1716.20
406.98	1794.02
407.18	1617.90
407.39	1834.98
407.60	1650.66
407.80	1753.06
408.01	1667.05
408.22	1734.63
408.43	1632.23
408.63	1708.01
408.84	1738.73
409.05	1779.68
409.25	1650.66
409.46	1671.14
409.67	1642.47
409.88	1640.42
410.08	1685.48
410.29	1705.96
410.50	1679.33
410.70	1681.38
410.91	1669.09
411.12	1697.77
411.32	1794.02
411.53	1673.19
411.74	1859.56
411.95	1812.45
412.15	1775.59
412.36	1847.27
412.57	1771.49
412.77	1796.07
412.98	1699.81
413.19	1685.48
413.39	1748.97
413.60	1769.44
413.81	1857.51
414.01	1648.61
414.22	1738.73
414.43	1687.53
414.63	1636.33
414.84	1701.86
415.05	1648.61
415.25	1632.23
415.46	1751.01
415.67	1710.05
415.87	1789.92
416.08	1728.49
416.29	1667.05
416.49	1798.12
416.70	1679.33
416.91	1718.25
417.11	1722.34
417.32	1712.10
417.53	1728.49
417.73	1730.53
417.94	1687.53
418.15	1687.53
418.35	1712.10
418.56	1705.96
418.77	1773.54
418.97	1683.43
419.18	1648.61
419.38	1550.31
419.59	1654.76
419.80	1830.88
420.00	1658.85
420.21	1785.83
420.42	1798.12
420.62	1691.62
420.83	1673.19
421.04	1677.29
421.24	1701.86
421.45	1820.64
421.65	1763.30
421.86	1665.00
422.07	1722.34
422.27	1662.95
422.48	1736.68
422.69	1671.14
422.89	1718.25
423.10	1671.14
423.30	1662.95
423.51	1775.59
423.72	1669.09
423.92	1761.25
424.13	1646.57
424.33	1714.15
424.54	1742.82
424.75	1763.30
424.95	1685.48
425.16	1740.77
425.36	1712.10
425.57	1689.57
425.78	1794.02
425.98	1744.87
426.19	1654.76
426.39	1687.53
426.60	1765.35
426.81	1822.69
427.01	1697.77
427.22	1576.94
427.42	1632.23
427.63	1634.28
427.83	1773.54
428.04	1779.68
428.25	1771.49
428.45	1757.16
428.66	1708.01
428.86	1669.09
429.07	1746.92
429.28	1714.15
429.48	1613.80
429.69	1701.86
429.89	1720.29
430.10	1583.08
430.30	1662.95
430.51	1800.16
430.71	1726.44
430.92	1681.38
431.13	1763.30
431.33	1763.30
431.54	1757.16
431.74	1791.97
431.95	1873.89
432.15	1703.91
432.36	1751.01
432.56	1697.77
432.77	1828.84
432.98	1820.64
433.18	1751.01
433.39	1642.47
433.59	1689.57
433.80	1843.17
434.00	1796.07
434.21	1734.63
434.41	1699.81
434.62	1824.74
434.82	1691.62
435.03	1681.38
435.23	1769.44
435.44	1632.23
435.64	1714.15
435.85	1722.34
436.06	1722.34
436.26	1783.78
436.47	1738.73
436.67	1763.30
436.88	1701.86
437.08	1669.09
437.29	1779.68
437.49	1699.81
437.70	1828.84
437.90	1693.67
438.11	1920.99
438.31	1712.10
438.52	1857.51
438.72	1812.45
438.93	1953.76
439.13	1808.36
439.34	1806.31
439.54	1742.82
439.75	1859.56
439.95	1871.84
440.16	1658.85
440.36	1755.11
440.57	1699.81
440.77	1753.06
440.98	1734.63
441.18	1732.58
441.39	1648.61
441.59	1607.66
441.80	1814.50
442.00	1687.53
442.21	1808.36
442.41	1621.99
442.62	1746.92
442.82	1740.77
443.02	1744.87
443.23	1751.01
443.43	1669.09
443.64	1822.69
443.84	1650.66
444.05	1736.68
444.25	1712.10
444.46	1640.42
444.66	1759.21
444.87	1759.21
445.07	1675.24
445.28	1742.82
445.48	1716.20
445.69	1755.11
445.89	1894.37
446.09	1757.16
446.30	1974.24
446.50	2662.36
446.71	3647.43
446.91	4249.54
447.12	4712.38
447.32	4749.24
447.53	4294.59
447.73	3887.04
447.93	3592.14
448.14	3297.23
448.34	3198.93
448.55	2965.46
448.75	2873.30
448.96	2701.27
449.16	2469.85
449.36	2338.78
449.57	2107.36
449.77	1904.61
449.98	1779.68
450.18	1837.03
450.39	1828.84
450.59	1798.12
450.79	1744.87
451.00	1626.09
451.20	1724.39
451.41	1783.78
451.61	1800.16
451.81	1724.39
452.02	1665.00
452.22	1693.67
452.43	1703.91
452.63	1677.29
