SpectraSuite Data File
++++++++++++++++++++++++++++++++++++
Date: Mon Jun 06 16:42:17 CEST 2016
User: root
Dark Spectrum Present: No
Reference Spectrum Present: No
Number of Sampled Component Spectra: 1
Spectrometers: USB4C02835
Integration Time (usec): 100000 (USB4C02835)
Spectra Averaged: 1 (USB4C02835)
Boxcar Smoothing: 0 (USB4C02835)
Correct for Electrical Dark: No (USB4C02835)
Strobe/Lamp Enabled: No (USB4C02835)
Correct for Detector Non-linearity: No (USB4C02835)
Correct for Stray Light: No (USB4C02835)
Number of Pixels in Processed Spectrum: 3648
>>>>>Begin Processed Spectral Data<<<<<
177.47	1470.44
177.69	1470.44
177.91	1470.44
178.13	1486.83
178.36	1462.25
178.58	1689.57
178.80	1708.01
179.02	1619.94
179.24	1634.28
179.46	1683.43
179.68	1734.63
179.90	1718.25
180.13	1697.77
180.35	1593.32
180.57	1785.83
180.79	1726.44
181.01	1710.05
181.23	1732.58
181.45	1685.48
181.67	1738.73
181.90	1714.15
182.12	1660.90
182.34	1722.34
182.56	1683.43
182.78	1736.68
183.00	1714.15
183.22	1714.15
183.44	1673.19
183.66	1886.18
183.89	1822.69
184.11	1726.44
184.33	1712.10
184.55	1742.82
184.77	1757.16
184.99	1744.87
185.21	1652.71
185.43	1789.92
185.65	1710.05
185.87	1757.16
186.10	1877.99
186.32	1806.31
186.54	1744.87
186.76	1771.49
186.98	1816.55
187.20	1701.86
187.42	1667.05
187.64	1703.91
187.86	1722.34
188.08	1755.11
188.30	1667.05
188.52	1615.85
188.75	1779.68
188.97	1748.97
189.19	1671.14
189.41	1669.09
189.63	1716.20
189.85	1699.81
190.07	1644.52
190.29	1687.53
190.51	1732.58
190.73	1650.66
190.95	1738.73
191.17	1726.44
191.39	1705.96
191.61	1779.68
191.84	1683.43
192.06	1771.49
192.28	1632.23
192.50	1865.70
192.72	1724.39
192.94	1679.33
193.16	1769.44
193.38	1669.09
193.60	1581.03
193.82	1736.68
194.04	1708.01
194.26	1742.82
194.48	1665.00
194.70	1677.29
194.92	1626.09
195.14	1736.68
195.36	1648.61
195.58	1728.49
195.80	1703.91
196.02	1605.61
196.24	1724.39
196.46	1736.68
196.69	1638.38
196.91	1802.21
197.13	1675.24
197.35	1701.86
197.57	1810.40
197.79	1726.44
198.01	1738.73
198.23	1806.31
198.45	1701.86
198.67	1697.77
198.89	1748.97
199.11	1767.40
199.33	1650.66
199.55	1624.04
199.77	1679.33
199.99	1824.74
200.21	1701.86
200.43	1697.77
200.65	1630.18
200.87	1535.98
201.09	1679.33
201.31	1699.81
201.53	1826.79
201.75	1714.15
201.97	1699.81
202.19	1665.00
202.41	1705.96
202.63	1830.88
202.85	1691.62
203.07	1763.30
203.29	1732.58
203.51	1660.90
203.73	1673.19
203.95	1914.85
204.17	1675.24
204.39	1755.11
204.61	1636.33
204.83	1683.43
205.05	1818.60
205.27	1714.15
205.49	1730.53
205.71	1738.73
205.93	1587.18
206.15	1648.61
206.37	1665.00
206.59	1665.00
206.81	1636.33
207.03	1665.00
207.25	1759.21
207.47	1748.97
207.69	1695.72
207.91	1818.60
208.13	1800.16
208.34	1605.61
208.56	1669.09
208.78	1732.58
209.00	1746.92
209.22	1669.09
209.44	1714.15
209.66	1652.71
209.88	1742.82
210.10	1681.38
210.32	1781.73
210.54	1791.97
210.76	1669.09
210.98	1732.58
211.20	1624.04
211.42	1714.15
211.64	1830.88
211.86	1791.97
212.08	1785.83
212.30	1716.20
212.52	1652.71
212.74	1714.15
212.96	1697.77
213.17	1804.26
213.39	1722.34
213.61	1757.16
213.83	1708.01
214.05	1714.15
214.27	1718.25
214.49	1695.72
214.71	1624.04
214.93	1783.78
215.15	1730.53
215.37	1699.81
215.59	1613.80
215.81	1605.61
216.03	1781.73
216.24	1751.01
216.46	1742.82
216.68	1724.39
216.90	1734.63
217.12	1757.16
217.34	1660.90
217.56	1724.39
217.78	1814.50
218.00	1796.07
218.22	1781.73
218.44	1722.34
218.66	1710.05
218.87	1791.97
219.09	1722.34
219.31	1732.58
219.53	1779.68
219.75	1650.66
219.97	1646.57
220.19	1730.53
220.41	1751.01
220.63	1796.07
220.85	1748.97
221.06	1695.72
221.28	1806.31
221.50	1746.92
221.72	1722.34
221.94	1675.24
222.16	1742.82
222.38	1660.90
222.60	1820.64
222.82	1683.43
223.03	1775.59
223.25	1607.66
223.47	1701.86
223.69	1857.51
223.91	1751.01
224.13	1609.70
224.35	1695.72
224.57	1783.78
224.78	1820.64
225.00	1669.09
225.22	1775.59
225.44	1697.77
225.66	1697.77
225.88	1665.00
226.10	1773.54
226.32	1763.30
226.53	1753.06
226.75	1710.05
226.97	1705.96
227.19	1681.38
227.41	1673.19
227.63	1722.34
227.85	1638.38
228.06	1736.68
228.28	1755.11
228.50	1751.01
228.72	1685.48
228.94	1658.85
229.16	1595.37
229.37	1658.85
229.59	1728.49
229.81	1755.11
230.03	1687.53
230.25	1601.51
230.47	1611.75
230.69	1652.71
230.90	1777.64
231.12	1644.52
231.34	1681.38
231.56	1755.11
231.78	1742.82
232.00	1656.81
232.21	1681.38
232.43	1710.05
232.65	1599.46
232.87	1714.15
233.09	1687.53
233.30	1796.07
233.52	1783.78
233.74	1669.09
233.96	1740.77
234.18	1726.44
234.40	1662.95
234.61	1832.93
234.83	1624.04
235.05	1742.82
235.27	1767.40
235.49	1800.16
235.70	1720.29
235.92	1757.16
236.14	1722.34
236.36	1859.56
236.58	1685.48
236.79	1775.59
237.01	1703.91
237.23	1716.20
237.45	1759.21
237.67	1695.72
237.88	1730.53
238.10	1775.59
238.32	1693.67
238.54	1628.14
238.76	1716.20
238.97	1624.04
239.19	1671.14
239.41	1742.82
239.63	1769.44
239.85	1679.33
240.06	1720.29
240.28	1685.48
240.50	1767.40
240.72	1693.67
240.93	1681.38
241.15	1802.21
241.37	1730.53
241.59	1730.53
241.81	1687.53
242.02	1771.49
242.24	1724.39
242.46	1757.16
242.68	1628.14
242.89	1783.78
243.11	1773.54
243.33	1746.92
243.55	1783.78
243.76	1783.78
243.98	1630.18
244.20	1724.39
244.42	1746.92
244.64	1683.43
244.85	1642.47
245.07	1705.96
245.29	1769.44
245.51	1753.06
245.72	1726.44
245.94	1783.78
246.16	1763.30
246.38	1791.97
246.59	1640.42
246.81	1609.70
247.03	1617.90
247.24	1660.90
247.46	1691.62
247.68	1742.82
247.90	1687.53
248.11	1705.96
248.33	1722.34
248.55	1681.38
248.77	1800.16
248.98	1777.64
249.20	1851.36
249.42	1650.66
249.64	1701.86
249.85	1722.34
250.07	1701.86
250.29	1740.77
250.50	1759.21
250.72	1669.09
250.94	1798.12
251.16	1877.99
251.37	1796.07
251.59	1716.20
251.81	1791.97
252.02	1798.12
252.24	1691.62
252.46	1771.49
252.68	1671.14
252.89	1626.09
253.11	1562.60
253.33	1816.55
253.54	1820.64
253.76	1665.00
253.98	1732.58
254.20	1642.47
254.41	1693.67
254.63	1683.43
254.85	1624.04
255.06	1708.01
255.28	1681.38
255.50	1714.15
255.71	1687.53
255.93	1601.51
256.15	1722.34
256.36	1794.02
256.58	1665.00
256.80	1726.44
257.02	1699.81
257.23	1693.67
257.45	1714.15
257.67	1685.48
257.88	1705.96
258.10	1775.59
258.32	1660.90
258.53	1716.20
258.75	1710.05
258.97	1724.39
259.18	1789.92
259.40	1654.76
259.62	1763.30
259.83	1734.63
260.05	1730.53
260.27	1964.00
260.48	1751.01
260.70	1660.90
260.92	1775.59
261.13	1779.68
261.35	1720.29
261.57	1763.30
261.78	1636.33
262.00	1611.75
262.22	1769.44
262.43	1677.29
262.65	1652.71
262.86	1648.61
263.08	1877.99
263.30	1665.00
263.51	1679.33
263.73	1665.00
263.95	1763.30
264.16	1642.47
264.38	1656.81
264.60	1771.49
264.81	1642.47
265.03	1734.63
265.25	1757.16
265.46	1748.97
265.68	1761.25
265.89	1773.54
266.11	1638.38
266.33	1693.67
266.54	1673.19
266.76	1779.68
266.98	1712.10
267.19	1773.54
267.41	1783.78
267.62	1724.39
267.84	1636.33
268.06	1675.24
268.27	1673.19
268.49	1796.07
268.70	1820.64
268.92	1734.63
269.14	1624.04
269.35	1654.76
269.57	1734.63
269.79	1802.21
270.00	1691.62
270.22	1820.64
270.43	1581.03
270.65	1644.52
270.87	1789.92
271.08	1714.15
271.30	1744.87
271.51	1695.72
271.73	1802.21
271.95	1789.92
272.16	1732.58
272.38	1685.48
272.59	1708.01
272.81	1820.64
273.02	1697.77
273.24	1714.15
273.46	1710.05
273.67	1566.70
273.89	1746.92
274.10	1624.04
274.32	1765.35
274.54	1662.95
274.75	1744.87
274.97	1738.73
275.18	1738.73
275.40	1783.78
275.61	1671.14
275.83	1718.25
276.05	1652.71
276.26	1699.81
276.48	1732.58
276.69	1660.90
276.91	1652.71
277.12	1767.40
277.34	1722.34
277.55	1751.01
277.77	1658.85
277.99	1638.38
278.20	1636.33
278.42	1738.73
278.63	1783.78
278.85	1654.76
279.06	1669.09
279.28	1712.10
279.49	1773.54
279.71	1802.21
279.93	1718.25
280.14	1650.66
280.36	1683.43
280.57	1791.97
280.79	1769.44
281.00	1619.94
281.22	1685.48
281.43	1751.01
281.65	1632.23
281.86	1718.25
282.08	1689.57
282.29	1814.50
282.51	1587.18
282.73	1751.01
282.94	1638.38
283.16	1744.87
283.37	1796.07
283.59	1730.53
283.80	1638.38
284.02	1736.68
284.23	1683.43
284.45	1710.05
284.66	1636.33
284.88	1669.09
285.09	1703.91
285.31	1714.15
285.52	1712.10
285.74	1550.31
285.95	1726.44
286.17	1765.35
286.38	1748.97
286.60	1665.00
286.81	1644.52
287.03	1705.96
287.24	1669.09
287.46	1769.44
287.67	1724.39
287.89	1810.40
288.10	1714.15
288.32	1759.21
288.53	1814.50
288.75	1718.25
288.96	1757.16
289.18	1636.33
289.39	1763.30
289.61	1796.07
289.82	1873.89
290.04	1849.32
290.25	1708.01
290.47	1755.11
290.68	1718.25
290.90	1820.64
291.11	1646.57
291.33	1787.88
291.54	1685.48
291.76	1701.86
291.97	1761.25
292.18	1726.44
292.40	1703.91
292.61	1646.57
292.83	1900.52
293.04	1785.83
293.26	1765.35
293.47	1722.34
293.69	1626.09
293.90	1789.92
294.12	1843.17
294.33	1732.58
294.55	1771.49
294.76	1720.29
294.97	1716.20
295.19	1847.27
295.40	1699.81
295.62	1832.93
295.83	1804.26
296.05	1699.81
296.26	1777.64
296.48	1624.04
296.69	1703.91
296.90	1761.25
297.12	1746.92
297.33	1755.11
297.55	1712.10
297.76	1736.68
297.98	1822.69
298.19	1662.95
298.41	1681.38
298.62	1644.52
298.83	1798.12
299.05	1755.11
299.26	1640.42
299.48	1660.90
299.69	1652.71
299.90	1720.29
300.12	1673.19
300.33	1777.64
300.55	1705.96
300.76	1787.88
300.98	1722.34
301.19	1732.58
301.40	1658.85
301.62	1691.62
301.83	1730.53
302.05	1701.86
302.26	1701.86
302.47	1740.77
302.69	1564.65
302.90	1734.63
303.12	1630.18
303.33	1703.91
303.54	1830.88
303.76	1675.24
303.97	1794.02
304.19	1767.40
304.40	1677.29
304.61	1697.77
304.83	1812.45
305.04	1845.22
305.26	1785.83
305.47	1656.81
305.68	1732.58
305.90	1685.48
306.11	1734.63
306.33	1669.09
306.54	1638.38
306.75	1722.34
306.97	1656.81
307.18	1654.76
307.39	1693.67
307.61	1765.35
307.82	1679.33
308.04	1728.49
308.25	1650.66
308.46	1710.05
308.68	1697.77
308.89	1693.67
309.10	1699.81
309.32	1839.08
309.53	1722.34
309.74	1673.19
309.96	1714.15
310.17	1746.92
310.39	1693.67
310.60	1705.96
310.81	1693.67
311.03	1634.28
311.24	1755.11
311.45	1734.63
311.67	1794.02
311.88	1644.52
312.09	1607.66
312.31	1699.81
312.52	1757.16
312.73	1669.09
312.95	1609.70
313.16	1648.61
313.37	1845.22
313.59	1693.67
313.80	1746.92
314.01	1771.49
314.23	1681.38
314.44	1673.19
314.65	1628.14
314.87	1624.04
315.08	1689.57
315.29	1691.62
315.51	1615.85
315.72	1628.14
315.93	1755.11
316.15	1775.59
316.36	1708.01
316.57	1642.47
316.79	1697.77
317.00	1714.15
317.21	1673.19
317.43	1642.47
317.64	1718.25
317.85	1648.61
318.07	1636.33
318.28	1687.53
318.49	1820.64
318.70	1920.99
318.92	1812.45
319.13	1812.45
319.34	1834.98
319.56	1765.35
319.77	1724.39
319.98	1789.92
320.20	1763.30
320.41	1689.57
320.62	1742.82
320.83	1695.72
321.05	1839.08
321.26	1724.39
321.47	1693.67
321.69	1783.78
321.90	1632.23
322.11	1697.77
322.32	1763.30
322.54	1746.92
322.75	1730.53
322.96	1839.08
323.18	1613.80
323.39	1656.81
323.60	1722.34
323.81	1734.63
324.03	1691.62
324.24	1693.67
324.45	1726.44
324.66	1673.19
324.88	1767.40
325.09	1806.31
325.30	1720.29
325.52	1730.53
325.73	1697.77
325.94	1656.81
326.15	1665.00
326.37	1701.86
326.58	1738.73
326.79	1740.77
327.00	1667.05
327.22	1738.73
327.43	1687.53
327.64	1701.86
327.85	1650.66
328.07	1740.77
328.28	1863.65
328.49	1628.14
328.70	1734.63
328.92	1691.62
329.13	1671.14
329.34	1722.34
329.55	1849.32
329.76	1765.35
329.98	1763.30
330.19	1775.59
330.40	1724.39
330.61	1730.53
330.83	1767.40
331.04	1656.81
331.25	1767.40
331.46	1691.62
331.68	1673.19
331.89	1748.97
332.10	1685.48
332.31	1673.19
332.52	1681.38
332.74	1783.78
332.95	1654.76
333.16	1679.33
333.37	1767.40
333.58	1751.01
333.80	1724.39
334.01	1632.23
334.22	1714.15
334.43	1632.23
334.64	1677.29
334.86	1648.61
335.07	1669.09
335.28	1779.68
335.49	1640.42
335.70	1845.22
335.92	1687.53
336.13	1828.84
336.34	1742.82
336.55	1800.16
336.76	1669.09
336.98	1642.47
337.19	1636.33
337.40	1871.84
337.61	1871.84
337.82	1695.72
338.04	1759.21
338.25	1652.71
338.46	1583.08
338.67	1624.04
338.88	1636.33
339.09	1673.19
339.31	1703.91
339.52	1689.57
339.73	1669.09
339.94	1759.21
340.15	1820.64
340.36	1667.05
340.58	1683.43
340.79	1691.62
341.00	1685.48
341.21	1665.00
341.42	1794.02
341.63	1699.81
341.85	1763.30
342.06	1728.49
342.27	1677.29
342.48	1779.68
342.69	1650.66
342.90	1730.53
343.12	1820.64
343.33	1730.53
343.54	1773.54
343.75	1785.83
343.96	1683.43
344.17	1665.00
344.38	1734.63
344.60	1691.62
344.81	1642.47
345.02	1689.57
345.23	1738.73
345.44	1804.26
345.65	1724.39
345.86	1679.33
346.07	1791.97
346.29	1611.75
346.50	1738.73
346.71	1693.67
346.92	1812.45
347.13	1759.21
347.34	1673.19
347.55	1656.81
347.76	1718.25
347.98	1718.25
348.19	1705.96
348.40	1796.07
348.61	1667.05
348.82	1894.37
349.03	1839.08
349.24	1665.00
349.45	1814.50
349.66	1626.09
349.88	1734.63
350.09	1718.25
350.30	1777.64
350.51	1855.46
350.72	1765.35
350.93	1658.85
351.14	1640.42
351.35	1736.68
351.56	1722.34
351.77	1712.10
351.99	1744.87
352.20	1800.16
352.41	1736.68
352.62	1615.85
352.83	1710.05
353.04	1685.48
353.25	1757.16
353.46	1746.92
353.67	1742.82
353.88	1656.81
354.09	1716.20
354.30	1714.15
354.52	1740.77
354.73	1673.19
354.94	1695.72
355.15	1685.48
355.36	1816.55
355.57	1619.94
355.78	1736.68
355.99	1714.15
356.20	1640.42
356.41	1773.54
356.62	1648.61
356.83	1673.19
357.04	1845.22
357.25	1628.14
357.46	1691.62
357.68	1578.98
357.89	1712.10
358.10	1755.11
358.31	1738.73
358.52	1656.81
358.73	1673.19
358.94	1673.19
359.15	1621.99
359.36	1648.61
359.57	1677.29
359.78	1671.14
359.99	1787.88
360.20	1742.82
360.41	1699.81
360.62	1763.30
360.83	1705.96
361.04	1779.68
361.25	1787.88
361.46	1845.22
361.67	1662.95
361.88	1677.29
362.09	1816.55
362.30	1718.25
362.51	1677.29
362.72	1673.19
362.93	1771.49
363.14	1789.92
363.35	1665.00
363.56	1650.66
363.78	1767.40
363.99	1810.40
364.20	1603.56
364.41	1722.34
364.62	1804.26
364.83	1681.38
365.04	1710.05
365.25	1714.15
365.46	1855.46
365.67	1679.33
365.88	1624.04
366.09	1697.77
366.30	1767.40
366.51	1679.33
366.72	1640.42
366.93	1587.18
367.14	1726.44
367.35	1763.30
367.56	1726.44
367.77	1828.84
367.98	1679.33
368.18	1773.54
368.39	1718.25
368.60	1677.29
368.81	1722.34
369.02	1732.58
369.23	1736.68
369.44	1599.46
369.65	1681.38
369.86	1740.77
370.07	1736.68
370.28	1603.56
370.49	1746.92
370.70	1597.42
370.91	1734.63
371.12	1669.09
371.33	1726.44
371.54	1695.72
371.75	1804.26
371.96	1583.08
372.17	1681.38
372.38	1656.81
372.59	1777.64
372.80	1732.58
373.01	1699.81
373.22	1722.34
373.43	1759.21
373.64	1675.24
373.85	1834.98
374.06	1820.64
374.26	1796.07
374.47	1708.01
374.68	1777.64
374.89	1738.73
375.10	1728.49
375.31	1710.05
375.52	1689.57
375.73	1689.57
375.94	1763.30
376.15	1796.07
376.36	1605.61
376.57	1673.19
376.78	1671.14
376.99	1730.53
377.20	1798.12
377.40	1722.34
377.61	1808.36
377.82	1632.23
378.03	1746.92
378.24	1785.83
378.45	1712.10
378.66	1771.49
378.87	1646.57
379.08	1585.13
379.29	1679.33
379.50	1742.82
379.71	1697.77
379.91	1720.29
380.12	1697.77
380.33	1679.33
380.54	1775.59
380.75	1736.68
380.96	1693.67
381.17	1705.96
381.38	1689.57
381.59	1720.29
381.80	1753.06
382.00	1865.70
382.21	1734.63
382.42	1857.51
382.63	1918.95
382.84	1789.92
383.05	1769.44
383.26	1816.55
383.47	1738.73
383.68	1740.77
383.88	1705.96
384.09	1732.58
384.30	1806.31
384.51	1722.34
384.72	1691.62
384.93	1652.71
385.14	1636.33
385.35	1746.92
385.55	1656.81
385.76	1718.25
385.97	1765.35
386.18	1597.42
386.39	1734.63
386.60	1718.25
386.81	1673.19
387.02	1660.90
387.22	1691.62
387.43	1789.92
387.64	1804.26
387.85	1886.18
388.06	2179.04
388.27	4313.02
388.48	6703.00
388.68	8226.69
388.89	9408.37
389.10	9678.70
389.31	8566.65
389.52	7499.66
389.73	6576.03
389.93	6334.37
390.14	5844.90
390.35	5171.12
390.56	4413.37
390.77	3772.36
390.98	3074.00
391.18	2469.85
391.39	2117.60
391.60	1812.45
391.81	1884.13
392.02	1728.49
392.23	1839.08
392.43	1796.07
392.64	1800.16
392.85	1636.33
393.06	1767.40
393.27	1738.73
393.47	1609.70
393.68	1732.58
393.89	1679.33
394.10	1791.97
394.31	1650.66
394.52	1646.57
394.72	1683.43
394.93	1767.40
395.14	1615.85
395.35	1791.97
395.56	1689.57
395.76	1753.06
395.97	1794.02
396.18	1841.12
396.39	1794.02
396.60	1898.47
396.80	1869.80
397.01	1951.71
397.22	1804.26
397.43	1814.50
397.64	1736.68
397.84	1861.60
398.05	1861.60
398.26	1665.00
398.47	1695.72
398.67	1779.68
398.88	1728.49
399.09	1773.54
399.30	1662.95
399.51	1685.48
399.71	1654.76
399.92	1679.33
400.13	1742.82
400.34	1705.96
400.54	1695.72
400.75	1820.64
400.96	1771.49
401.17	1798.12
401.37	1759.21
401.58	1699.81
401.79	1779.68
402.00	1896.42
402.21	2004.96
402.41	1980.39
402.62	1994.72
402.83	2101.22
403.04	2019.30
403.24	2021.35
403.45	1875.94
403.66	1953.76
403.87	1824.74
404.07	1789.92
404.28	2019.30
404.49	1855.46
404.70	1755.11
404.90	1748.97
405.11	1798.12
405.32	1705.96
405.52	1728.49
405.73	1732.58
405.94	1697.77
406.15	1716.20
406.35	1744.87
406.56	1718.25
406.77	1734.63
406.98	1714.15
407.18	1697.77
407.39	1728.49
407.60	1730.53
407.80	1683.43
408.01	1689.57
408.22	1703.91
408.43	1589.22
408.63	1755.11
408.84	1796.07
409.05	1748.97
409.25	1656.81
409.46	1644.52
409.67	1683.43
409.88	1642.47
410.08	1779.68
410.29	1685.48
410.50	1699.81
410.70	1759.21
410.91	1677.29
411.12	1777.64
411.32	1673.19
411.53	1689.57
411.74	1757.16
411.95	1814.50
412.15	1779.68
412.36	1736.68
412.57	1824.74
412.77	1771.49
412.98	1787.88
413.19	1742.82
413.39	1759.21
413.60	1683.43
413.81	1787.88
414.01	1648.61
414.22	1740.77
414.43	1767.40
414.63	1673.19
414.84	1765.35
415.05	1746.92
415.25	1609.70
415.46	1802.21
415.67	1697.77
415.87	1751.01
416.08	1687.53
416.29	1665.00
416.49	1796.07
416.70	1677.29
416.91	1710.05
417.11	1650.66
417.32	1708.01
417.53	1755.11
417.73	1763.30
417.94	1681.38
418.15	1824.74
418.35	1671.14
418.56	1740.77
418.77	1851.36
418.97	1726.44
419.18	1748.97
419.38	1599.46
419.59	1714.15
419.80	1853.41
420.00	1581.03
420.21	1779.68
420.42	1781.73
420.62	1796.07
420.83	1681.38
421.04	1708.01
421.24	1638.38
421.45	1708.01
421.65	1744.87
421.86	1667.05
422.07	1632.23
422.27	1769.44
422.48	1751.01
422.69	1693.67
422.89	1738.73
423.10	1681.38
423.30	1646.57
423.51	1714.15
423.72	1683.43
423.92	1753.06
424.13	1705.96
424.33	1751.01
424.54	1683.43
424.75	1734.63
424.95	1882.08
425.16	1748.97
425.36	1773.54
425.57	1738.73
425.78	1751.01
425.98	1763.30
426.19	1697.77
426.39	1722.34
426.60	1683.43
426.81	1726.44
427.01	1746.92
427.22	1662.95
427.42	1570.79
427.63	1646.57
427.83	1740.77
428.04	1796.07
428.25	1753.06
428.45	1798.12
428.66	1761.25
428.86	1746.92
429.07	1695.72
429.28	1669.09
429.48	1660.90
429.69	1718.25
429.89	1722.34
430.10	1621.99
430.30	1789.92
430.51	1763.30
430.71	1658.85
430.92	1738.73
431.13	1699.81
431.33	1773.54
431.54	1708.01
431.74	1785.83
431.95	1791.97
432.15	1658.85
432.36	1638.38
432.56	1898.47
432.77	1800.16
432.98	1837.03
433.18	1738.73
433.39	1699.81
433.59	1710.05
433.80	1826.79
434.00	1945.57
434.21	1753.06
434.41	1648.61
434.62	1865.70
434.82	1730.53
435.03	1726.44
435.23	1775.59
435.44	1681.38
435.64	1748.97
435.85	1685.48
436.06	1726.44
436.26	1763.30
436.47	1724.39
436.67	1705.96
436.88	1789.92
437.08	1697.77
437.29	1773.54
437.49	1695.72
437.70	1789.92
437.90	1671.14
438.11	1857.51
438.31	1834.98
438.52	1804.26
438.72	1759.21
438.93	1961.95
439.13	1794.02
439.34	1847.27
439.54	1742.82
439.75	1837.03
439.95	1843.17
440.16	1734.63
440.36	1759.21
440.57	1771.49
440.77	1734.63
440.98	1726.44
441.18	1785.83
441.39	1677.29
441.59	1632.23
441.80	1877.99
442.00	1734.63
442.21	1806.31
442.41	1718.25
442.62	1763.30
442.82	1675.24
443.02	1660.90
443.23	1691.62
443.43	1712.10
443.64	1796.07
443.84	1671.14
444.05	1759.21
444.25	1775.59
444.46	1679.33
444.66	1710.05
444.87	1804.26
445.07	1665.00
445.28	1759.21
445.48	1783.78
445.69	1814.50
445.89	1855.46
446.09	1732.58
446.30	2060.26
446.50	2611.16
446.71	3721.16
446.91	4288.45
447.12	4769.72
447.32	4892.60
447.53	4364.22
447.73	3889.09
447.93	3581.90
448.14	3274.70
448.34	3246.03
448.55	2891.73
448.75	2809.81
448.96	2688.98
449.16	2494.43
449.36	2349.02
449.57	2017.25
449.77	1929.19
449.98	1753.06
450.18	1761.25
450.39	1920.99
450.59	1746.92
450.79	1705.96
451.00	1683.43
451.20	1779.68
451.41	1699.81
451.61	1746.92
451.81	1742.82
452.02	1708.01
452.22	1757.16
452.43	1689.57
452.63	1710.05
