SpectraSuite Data File
++++++++++++++++++++++++++++++++++++
Date: Mon Jun 06 16:19:37 CEST 2016
User: root
Dark Spectrum Present: No
Reference Spectrum Present: No
Number of Sampled Component Spectra: 1
Spectrometers: USB4C02835
Integration Time (usec): 100000 (USB4C02835)
Spectra Averaged: 1 (USB4C02835)
Boxcar Smoothing: 0 (USB4C02835)
Correct for Electrical Dark: No (USB4C02835)
Strobe/Lamp Enabled: No (USB4C02835)
Correct for Detector Non-linearity: No (USB4C02835)
Correct for Stray Light: No (USB4C02835)
Number of Pixels in Processed Spectrum: 3648
>>>>>Begin Processed Spectral Data<<<<<
177.47	1484.78
177.69	1484.78
177.91	1484.78
178.13	1531.88
178.36	1425.39
178.58	1667.05
178.80	1804.26
179.02	1566.70
179.24	1662.95
179.46	1621.99
179.68	1716.20
179.90	1724.39
180.13	1681.38
180.35	1687.53
180.57	1699.81
180.79	1712.10
181.01	1697.77
181.23	1767.40
181.45	1771.49
181.67	1673.19
181.90	1730.53
182.12	1671.14
182.34	1621.99
182.56	1681.38
182.78	1695.72
183.00	1722.34
183.22	1695.72
183.44	1675.24
183.66	1822.69
183.89	1812.45
184.11	1683.43
184.33	1722.34
184.55	1816.55
184.77	1824.74
184.99	1638.38
185.21	1677.29
185.43	1871.84
185.65	1656.81
185.87	1791.97
186.10	1869.80
186.32	1886.18
186.54	1759.21
186.76	1773.54
186.98	1732.58
187.20	1689.57
187.42	1738.73
187.64	1716.20
187.86	1667.05
188.08	1708.01
188.30	1742.82
188.52	1783.78
188.75	1746.92
188.97	1820.64
189.19	1675.24
189.41	1673.19
189.63	1730.53
189.85	1673.19
190.07	1667.05
190.29	1673.19
190.51	1621.99
190.73	1640.42
190.95	1775.59
191.17	1705.96
191.39	1619.94
191.61	1660.90
191.84	1642.47
192.06	1712.10
192.28	1646.57
192.50	1890.28
192.72	1722.34
192.94	1699.81
193.16	1794.02
193.38	1726.44
193.60	1640.42
193.82	1746.92
194.04	1714.15
194.26	1736.68
194.48	1687.53
194.70	1681.38
194.92	1703.91
195.14	1767.40
195.36	1662.95
195.58	1763.30
195.80	1746.92
196.02	1675.24
196.24	1626.09
196.46	1705.96
196.69	1677.29
196.91	1832.93
197.13	1714.15
197.35	1609.70
197.57	1830.88
197.79	1724.39
198.01	1724.39
198.23	1783.78
198.45	1755.11
198.67	1718.25
198.89	1759.21
199.11	1767.40
199.33	1667.05
199.55	1638.38
199.77	1658.85
199.99	1757.16
200.21	1681.38
200.43	1771.49
200.65	1687.53
200.87	1544.17
201.09	1712.10
201.31	1636.33
201.53	1718.25
201.75	1691.62
201.97	1714.15
202.19	1699.81
202.41	1689.57
202.63	1865.70
202.85	1734.63
203.07	1748.97
203.29	1720.29
203.51	1746.92
203.73	1681.38
203.95	1875.94
204.17	1689.57
204.39	1632.23
204.61	1710.05
204.83	1708.01
205.05	1755.11
205.27	1791.97
205.49	1863.65
205.71	1732.58
205.93	1611.75
206.15	1656.81
206.37	1763.30
206.59	1626.09
206.81	1710.05
207.03	1755.11
207.25	1681.38
207.47	1771.49
207.69	1720.29
207.91	1796.07
208.13	1734.63
208.34	1738.73
208.56	1695.72
208.78	1769.44
209.00	1732.58
209.22	1675.24
209.44	1716.20
209.66	1681.38
209.88	1730.53
210.10	1701.86
210.32	1761.25
210.54	1820.64
210.76	1748.97
210.98	1751.01
211.20	1492.97
211.42	1714.15
211.64	1753.06
211.86	1757.16
212.08	1712.10
212.30	1748.97
212.52	1714.15
212.74	1771.49
212.96	1742.82
213.17	1802.21
213.39	1685.48
213.61	1796.07
213.83	1710.05
214.05	1648.61
214.27	1759.21
214.49	1683.43
214.71	1650.66
214.93	1779.68
215.15	1705.96
215.37	1777.64
215.59	1652.71
215.81	1683.43
216.03	1751.01
216.24	1734.63
216.46	1771.49
216.68	1742.82
216.90	1724.39
217.12	1748.97
217.34	1679.33
217.56	1699.81
217.78	1759.21
218.00	1722.34
218.22	1773.54
218.44	1675.24
218.66	1728.49
218.87	1814.50
219.09	1650.66
219.31	1685.48
219.53	1726.44
219.75	1634.28
219.97	1724.39
220.19	1716.20
220.41	1703.91
220.63	1722.34
220.85	1720.29
221.06	1667.05
221.28	1687.53
221.50	1798.12
221.72	1753.06
221.94	1755.11
222.16	1732.58
222.38	1708.01
222.60	1771.49
222.82	1708.01
223.03	1736.68
223.25	1667.05
223.47	1814.50
223.69	1767.40
223.91	1732.58
224.13	1693.67
224.35	1697.77
224.57	1771.49
224.78	1753.06
225.00	1658.85
225.22	1732.58
225.44	1708.01
225.66	1814.50
225.88	1628.14
226.10	1753.06
226.32	1708.01
226.53	1773.54
226.75	1697.77
226.97	1671.14
227.19	1734.63
227.41	1687.53
227.63	1660.90
227.85	1669.09
228.06	1769.44
228.28	1703.91
228.50	1751.01
228.72	1693.67
228.94	1679.33
229.16	1650.66
229.37	1677.29
229.59	1665.00
229.81	1839.08
230.03	1753.06
230.25	1716.20
230.47	1652.71
230.69	1646.57
230.90	1767.40
231.12	1636.33
231.34	1695.72
231.56	1730.53
231.78	1716.20
232.00	1785.83
232.21	1730.53
232.43	1673.19
232.65	1574.89
232.87	1779.68
233.09	1656.81
233.30	1644.52
233.52	1732.58
233.74	1665.00
233.96	1744.87
234.18	1636.33
234.40	1705.96
234.61	1802.21
234.83	1538.02
235.05	1718.25
235.27	1918.95
235.49	1796.07
235.70	1683.43
235.92	1728.49
236.14	1781.73
236.36	1855.46
236.58	1656.81
236.79	1703.91
237.01	1667.05
237.23	1613.80
237.45	1796.07
237.67	1714.15
237.88	1714.15
238.10	1839.08
238.32	1662.95
238.54	1724.39
238.76	1714.15
238.97	1787.88
239.19	1667.05
239.41	1812.45
239.63	1712.10
239.85	1675.24
240.06	1710.05
240.28	1718.25
240.50	1765.35
240.72	1632.23
240.93	1769.44
241.15	1798.12
241.37	1669.09
241.59	1812.45
241.81	1742.82
242.02	1650.66
242.24	1718.25
242.46	1812.45
242.68	1669.09
242.89	1697.77
243.11	1826.79
243.33	1689.57
243.55	1744.87
243.76	1712.10
243.98	1736.68
244.20	1695.72
244.42	1699.81
244.64	1710.05
244.85	1564.65
245.07	1667.05
245.29	1783.78
245.51	1685.48
245.72	1767.40
245.94	1757.16
246.16	1714.15
246.38	1820.64
246.59	1665.00
246.81	1652.71
247.03	1730.53
247.24	1607.66
247.46	1701.86
247.68	1748.97
247.90	1701.86
248.11	1718.25
248.33	1804.26
248.55	1722.34
248.77	1734.63
248.98	1712.10
249.20	1832.93
249.42	1710.05
249.64	1689.57
249.85	1665.00
250.07	1660.90
250.29	1775.59
250.50	1689.57
250.72	1642.47
250.94	1714.15
251.16	1832.93
251.37	1824.74
251.59	1761.25
251.81	1826.79
252.02	1843.17
252.24	1677.29
252.46	1830.88
252.68	1667.05
252.89	1675.24
253.11	1576.94
253.33	1869.80
253.54	1814.50
253.76	1665.00
253.98	1667.05
254.20	1693.67
254.41	1683.43
254.63	1710.05
254.85	1615.85
255.06	1722.34
255.28	1787.88
255.50	1734.63
255.71	1632.23
255.93	1644.52
256.15	1660.90
256.36	1703.91
256.58	1681.38
256.80	1722.34
257.02	1660.90
257.23	1695.72
257.45	1763.30
257.67	1724.39
257.88	1652.71
258.10	1748.97
258.32	1636.33
258.53	1730.53
258.75	1812.45
258.97	1665.00
259.18	1687.53
259.40	1687.53
259.62	1800.16
259.83	1775.59
260.05	1753.06
260.27	2039.78
260.48	1763.30
260.70	1665.00
260.92	1697.77
261.13	1681.38
261.35	1705.96
261.57	1740.77
261.78	1583.08
262.00	1705.96
262.22	1771.49
262.43	1730.53
262.65	1718.25
262.86	1662.95
263.08	1822.69
263.30	1720.29
263.51	1644.52
263.73	1699.81
263.95	1724.39
264.16	1691.62
264.38	1638.38
264.60	1656.81
264.81	1662.95
265.03	1718.25
265.25	1773.54
265.46	1669.09
265.68	1744.87
265.89	1652.71
266.11	1607.66
266.33	1691.62
266.54	1734.63
266.76	1714.15
266.98	1755.11
267.19	1837.03
267.41	1791.97
267.62	1755.11
267.84	1640.42
268.06	1767.40
268.27	1701.86
268.49	1658.85
268.70	1814.50
268.92	1714.15
269.14	1632.23
269.35	1648.61
269.57	1685.48
269.79	1755.11
270.00	1683.43
270.22	1796.07
270.43	1769.44
270.65	1587.18
270.87	1658.85
271.08	1732.58
271.30	1714.15
271.51	1693.67
271.73	1755.11
271.95	1857.51
272.16	1685.48
272.38	1787.88
272.59	1605.61
272.81	1798.12
273.02	1701.86
273.24	1712.10
273.46	1791.97
273.67	1732.58
273.89	1693.67
274.10	1691.62
274.32	1857.51
274.54	1722.34
274.75	1765.35
274.97	1744.87
275.18	1755.11
275.40	1726.44
275.61	1718.25
275.83	1687.53
276.05	1603.56
276.26	1734.63
276.48	1746.92
276.69	1665.00
276.91	1738.73
277.12	1777.64
277.34	1787.88
277.55	1820.64
277.77	1738.73
277.99	1656.81
278.20	1621.99
278.42	1658.85
278.63	1613.80
278.85	1677.29
279.06	1671.14
279.28	1753.06
279.49	1832.93
279.71	1787.88
279.93	1753.06
280.14	1757.16
280.36	1705.96
280.57	1785.83
280.79	1652.71
281.00	1628.14
281.22	1679.33
281.43	1796.07
281.65	1619.94
281.86	1708.01
282.08	1761.25
282.29	1802.21
282.51	1615.85
282.73	1705.96
282.94	1574.89
283.16	1765.35
283.37	1851.36
283.59	1773.54
283.80	1691.62
284.02	1695.72
284.23	1773.54
284.45	1667.05
284.66	1673.19
284.88	1683.43
285.09	1701.86
285.31	1767.40
285.52	1736.68
285.74	1601.51
285.95	1722.34
286.17	1693.67
286.38	1800.16
286.60	1683.43
286.81	1642.47
287.03	1714.15
287.24	1714.15
287.46	1832.93
287.67	1779.68
287.89	1804.26
288.10	1634.28
288.32	1804.26
288.53	1732.58
288.75	1722.34
288.96	1769.44
289.18	1777.64
289.39	1710.05
289.61	1816.55
289.82	1888.23
290.04	1736.68
290.25	1695.72
290.47	1642.47
290.68	1742.82
290.90	1769.44
291.11	1669.09
291.33	1761.25
291.54	1648.61
291.76	1626.09
291.97	1695.72
292.18	1765.35
292.40	1654.76
292.61	1669.09
292.83	1824.74
293.04	1669.09
293.26	1736.68
293.47	1771.49
293.69	1665.00
293.90	1783.78
294.12	1753.06
294.33	1705.96
294.55	1718.25
294.76	1689.57
294.97	1863.65
295.19	1873.89
295.40	1669.09
295.62	1763.30
295.83	1771.49
296.05	1683.43
296.26	1810.40
296.48	1738.73
296.69	1714.15
296.90	1705.96
297.12	1718.25
297.33	1812.45
297.55	1695.72
297.76	1742.82
297.98	1804.26
298.19	1742.82
298.41	1695.72
298.62	1697.77
298.83	1826.79
299.05	1761.25
299.26	1722.34
299.48	1708.01
299.69	1767.40
299.90	1716.20
300.12	1718.25
300.33	1767.40
300.55	1716.20
300.76	1781.73
300.98	1628.14
301.19	1800.16
301.40	1689.57
301.62	1677.29
301.83	1738.73
302.05	1716.20
302.26	1726.44
302.47	1736.68
302.69	1681.38
302.90	1732.58
303.12	1650.66
303.33	1685.48
303.54	1785.83
303.76	1671.14
303.97	1679.33
304.19	1738.73
304.40	1738.73
304.61	1763.30
304.83	1820.64
305.04	1806.31
305.26	1705.96
305.47	1701.86
305.68	1669.09
305.90	1648.61
306.11	1783.78
306.33	1681.38
306.54	1705.96
306.75	1665.00
306.97	1685.48
307.18	1748.97
307.39	1757.16
307.61	1781.73
307.82	1650.66
308.04	1736.68
308.25	1681.38
308.46	1724.39
308.68	1742.82
308.89	1689.57
309.10	1834.98
309.32	1724.39
309.53	1628.14
309.74	1746.92
309.96	1665.00
310.17	1701.86
310.39	1673.19
310.60	1800.16
310.81	1724.39
311.03	1644.52
311.24	1751.01
311.45	1667.05
311.67	1849.32
311.88	1748.97
312.09	1732.58
312.31	1640.42
312.52	1802.21
312.73	1667.05
312.95	1681.38
313.16	1617.90
313.37	1736.68
313.59	1720.29
313.80	1757.16
314.01	1785.83
314.23	1665.00
314.44	1681.38
314.65	1677.29
314.87	1712.10
315.08	1662.95
315.29	1644.52
315.51	1705.96
315.72	1646.57
315.93	1826.79
316.15	1787.88
316.36	1671.14
316.57	1689.57
316.79	1775.59
317.00	1699.81
317.21	1730.53
317.43	1595.37
317.64	1789.92
317.85	1665.00
318.07	1714.15
318.28	1656.81
318.49	1820.64
318.70	1918.95
318.92	1867.75
319.13	1849.32
319.34	1888.23
319.56	1779.68
319.77	1767.40
319.98	1748.97
320.20	1832.93
320.41	1755.11
320.62	1800.16
320.83	1714.15
321.05	1904.61
321.26	1767.40
321.47	1722.34
321.69	1806.31
321.90	1673.19
322.11	1716.20
322.32	1748.97
322.54	1777.64
322.75	1656.81
322.96	1806.31
323.18	1679.33
323.39	1617.90
323.60	1599.46
323.81	1826.79
324.03	1703.91
324.24	1763.30
324.45	1757.16
324.66	1751.01
324.88	1804.26
325.09	1804.26
325.30	1708.01
325.52	1771.49
325.73	1769.44
325.94	1642.47
326.15	1648.61
326.37	1675.24
326.58	1779.68
326.79	1861.60
327.00	1667.05
327.22	1695.72
327.43	1669.09
327.64	1681.38
327.85	1683.43
328.07	1779.68
328.28	1855.46
328.49	1732.58
328.70	1734.63
328.92	1708.01
329.13	1677.29
329.34	1720.29
329.55	1769.44
329.76	1769.44
329.98	1718.25
330.19	1789.92
330.40	1785.83
330.61	1669.09
330.83	1759.21
331.04	1654.76
331.25	1728.49
331.46	1640.42
331.68	1652.71
331.89	1775.59
332.10	1714.15
332.31	1652.71
332.52	1701.86
332.74	1767.40
332.95	1640.42
333.16	1607.66
333.37	1783.78
333.58	1781.73
333.80	1736.68
334.01	1673.19
334.22	1708.01
334.43	1720.29
334.64	1791.97
334.86	1691.62
335.07	1648.61
335.28	1822.69
335.49	1599.46
335.70	1779.68
335.92	1806.31
336.13	1779.68
336.34	1804.26
336.55	1755.11
336.76	1703.91
336.98	1605.61
337.19	1757.16
337.40	1744.87
337.61	1845.22
337.82	1703.91
338.04	1779.68
338.25	1595.37
338.46	1759.21
338.67	1652.71
338.88	1624.04
339.09	1634.28
339.31	1665.00
339.52	1724.39
339.73	1681.38
339.94	1722.34
340.15	1716.20
340.36	1748.97
340.58	1732.58
340.79	1691.62
341.00	1701.86
341.21	1673.19
341.42	1847.27
341.63	1689.57
341.85	1865.70
342.06	1744.87
342.27	1611.75
342.48	1798.12
342.69	1642.47
342.90	1722.34
343.12	1712.10
343.33	1724.39
343.54	1748.97
343.75	1765.35
343.96	1738.73
344.17	1708.01
344.38	1683.43
344.60	1714.15
344.81	1673.19
345.02	1669.09
345.23	1773.54
345.44	1818.60
345.65	1744.87
345.86	1722.34
346.07	1671.14
346.29	1673.19
346.50	1757.16
346.71	1716.20
346.92	1794.02
347.13	1841.12
347.34	1687.53
347.55	1716.20
347.76	1740.77
347.98	1617.90
348.19	1714.15
348.40	1751.01
348.61	1718.25
348.82	1804.26
349.03	1722.34
349.24	1716.20
349.45	1769.44
349.66	1630.18
349.88	1742.82
350.09	1693.67
350.30	1783.78
350.51	1761.25
350.72	1769.44
350.93	1689.57
351.14	1699.81
351.35	1724.39
351.56	1769.44
351.77	1697.77
351.99	1650.66
352.20	1812.45
352.41	1765.35
352.62	1660.90
352.83	1732.58
353.04	1769.44
353.25	1687.53
353.46	1730.53
353.67	1755.11
353.88	1621.99
354.09	1767.40
354.30	1693.67
354.52	1787.88
354.73	1656.81
354.94	1677.29
355.15	1732.58
355.36	1865.70
355.57	1658.85
355.78	1845.22
355.99	1570.79
356.20	1626.09
356.41	1775.59
356.62	1791.97
356.83	1710.05
357.04	1834.98
357.25	1556.46
357.46	1748.97
357.68	1587.18
357.89	1697.77
358.10	1751.01
358.31	1718.25
358.52	1734.63
358.73	1658.85
358.94	1673.19
359.15	1658.85
359.36	1718.25
359.57	1691.62
359.78	1716.20
359.99	1814.50
360.20	1644.52
360.41	1742.82
360.62	1816.55
360.83	1730.53
361.04	1794.02
361.25	1716.20
361.46	1824.74
361.67	1771.49
361.88	1798.12
362.09	1738.73
362.30	1691.62
362.51	1607.66
362.72	1755.11
362.93	1751.01
363.14	1816.55
363.35	1677.29
363.56	1636.33
363.78	1730.53
363.99	1892.32
364.20	1683.43
364.41	1724.39
364.62	1849.32
364.83	1705.96
365.04	1671.14
365.25	1726.44
365.46	1806.31
365.67	1703.91
365.88	1658.85
366.09	1730.53
366.30	1638.38
366.51	1761.25
366.72	1611.75
366.93	1630.18
367.14	1757.16
367.35	1740.77
367.56	1751.01
367.77	1828.84
367.98	1689.57
368.18	1800.16
368.39	1742.82
368.60	1773.54
368.81	1746.92
369.02	1714.15
369.23	1734.63
369.44	1638.38
369.65	1697.77
369.86	1755.11
370.07	1804.26
370.28	1714.15
370.49	1753.06
370.70	1740.77
370.91	1636.33
371.12	1611.75
371.33	1716.20
371.54	1734.63
371.75	1781.73
371.96	1603.56
372.17	1748.97
372.38	1742.82
372.59	1763.30
372.80	1718.25
373.01	1656.81
373.22	1724.39
373.43	1718.25
373.64	1662.95
373.85	1767.40
374.06	1851.36
374.26	1726.44
374.47	1720.29
374.68	1759.21
374.89	1761.25
375.10	1748.97
375.31	1806.31
375.52	1789.92
375.73	1730.53
375.94	1675.24
376.15	1814.50
376.36	1683.43
376.57	1687.53
376.78	1652.71
376.99	1738.73
377.20	1710.05
377.40	1708.01
377.61	1781.73
377.82	1636.33
378.03	1777.64
378.24	1769.44
378.45	1710.05
378.66	1748.97
378.87	1644.52
379.08	1632.23
379.29	1673.19
379.50	1761.25
379.71	1753.06
379.91	1746.92
380.12	1712.10
380.33	1699.81
380.54	1681.38
380.75	1669.09
380.96	1791.97
381.17	1796.07
381.38	1718.25
381.59	1701.86
381.80	1648.61
382.00	1853.41
382.21	1708.01
382.42	1732.58
382.63	1886.18
382.84	1748.97
383.05	1773.54
383.26	1808.36
383.47	1771.49
383.68	1699.81
383.88	1789.92
384.09	1710.05
384.30	1843.17
384.51	1714.15
384.72	1683.43
384.93	1611.75
385.14	1714.15
385.35	1785.83
385.55	1673.19
385.76	1877.99
385.97	1716.20
386.18	1656.81
386.39	1714.15
386.60	1740.77
386.81	1671.14
387.02	1646.57
387.22	1662.95
387.43	1767.40
387.64	1857.51
387.85	1861.60
388.06	2248.67
388.27	4114.37
388.48	6524.83
388.68	8251.27
388.89	9308.02
389.10	9611.12
389.31	8396.67
389.52	7462.80
389.73	6608.80
389.93	6111.14
390.14	5666.73
390.35	5066.67
390.56	4591.55
390.77	3667.91
390.98	3022.80
391.18	2471.90
391.39	2136.03
391.60	1755.11
391.81	1896.42
392.02	1755.11
392.23	1837.03
392.43	1753.06
392.64	1787.88
392.85	1705.96
393.06	1853.41
393.27	1691.62
393.47	1683.43
393.68	1703.91
393.89	1724.39
394.10	1796.07
394.31	1734.63
394.52	1658.85
394.72	1742.82
394.93	1761.25
395.14	1658.85
395.35	1726.44
395.56	1701.86
395.76	1755.11
395.97	1744.87
396.18	1875.94
396.39	1847.27
396.60	2031.58
396.80	1918.95
397.01	1894.37
397.22	1875.94
397.43	1875.94
397.64	1660.90
397.84	1804.26
398.05	1841.12
398.26	1724.39
398.47	1767.40
398.67	1765.35
398.88	1753.06
399.09	1767.40
399.30	1646.57
399.51	1806.31
399.71	1691.62
399.92	1722.34
400.13	1804.26
400.34	1716.20
400.54	1722.34
400.75	1798.12
400.96	1736.68
401.17	1832.93
401.37	1765.35
401.58	1691.62
401.79	1662.95
402.00	1826.79
402.21	2021.35
402.41	1986.53
402.62	2013.15
402.83	2101.22
403.04	1945.57
403.24	2090.98
403.45	1849.32
403.66	1935.33
403.87	1851.36
404.07	1953.76
404.28	1959.91
404.49	1853.41
404.70	1800.16
404.90	1763.30
405.11	1742.82
405.32	1730.53
405.52	1648.61
405.73	1689.57
405.94	1665.00
406.15	1736.68
406.35	1677.29
406.56	1751.01
406.77	1751.01
406.98	1785.83
407.18	1722.34
407.39	1812.45
407.60	1667.05
407.80	1718.25
408.01	1763.30
408.22	1695.72
408.43	1650.66
408.63	1787.88
408.84	1769.44
409.05	1808.36
409.25	1697.77
409.46	1685.48
409.67	1673.19
409.88	1689.57
410.08	1671.14
410.29	1730.53
410.50	1839.08
410.70	1794.02
410.91	1705.96
411.12	1810.40
411.32	1648.61
411.53	1763.30
411.74	1775.59
411.95	1783.78
412.15	1724.39
412.36	1781.73
412.57	1761.25
412.77	1748.97
412.98	1689.57
413.19	1748.97
413.39	1710.05
413.60	1880.04
413.81	1798.12
414.01	1581.03
414.22	1714.15
414.43	1783.78
414.63	1710.05
414.84	1773.54
415.05	1660.90
415.25	1615.85
415.46	1746.92
415.67	1773.54
415.87	1763.30
416.08	1710.05
416.29	1701.86
416.49	1785.83
416.70	1695.72
416.91	1722.34
417.11	1722.34
417.32	1730.53
417.53	1806.31
417.73	1771.49
417.94	1695.72
418.15	1777.64
418.35	1738.73
418.56	1728.49
418.77	1808.36
418.97	1767.40
419.18	1726.44
419.38	1593.32
419.59	1734.63
419.80	1761.25
420.00	1691.62
420.21	1746.92
420.42	1791.97
420.62	1775.59
420.83	1716.20
421.04	1728.49
421.24	1744.87
421.45	1791.97
421.65	1761.25
421.86	1701.86
422.07	1787.88
422.27	1736.68
422.48	1730.53
422.69	1687.53
422.89	1710.05
423.10	1638.38
423.30	1654.76
423.51	1681.38
423.72	1724.39
423.92	1726.44
424.13	1667.05
424.33	1703.91
424.54	1867.75
424.75	1757.16
424.95	1806.31
425.16	1712.10
425.36	1742.82
425.57	1771.49
425.78	1728.49
425.98	1738.73
426.19	1720.29
426.39	1703.91
426.60	1654.76
426.81	1875.94
427.01	1677.29
427.22	1669.09
427.42	1714.15
427.63	1667.05
427.83	1800.16
428.04	1820.64
428.25	1746.92
428.45	1806.31
428.66	1794.02
428.86	1767.40
429.07	1689.57
429.28	1744.87
429.48	1697.77
429.69	1681.38
429.89	1738.73
430.10	1654.76
430.30	1693.67
430.51	1757.16
430.71	1703.91
430.92	1736.68
431.13	1716.20
431.33	1794.02
431.54	1804.26
431.74	1857.51
431.95	1855.46
432.15	1693.67
432.36	1765.35
432.56	1730.53
432.77	1802.21
432.98	1820.64
433.18	1781.73
433.39	1748.97
433.59	1787.88
433.80	1853.41
434.00	1857.51
434.21	1708.01
434.41	1710.05
434.62	1837.03
434.82	1662.95
435.03	1724.39
435.23	1759.21
435.44	1669.09
435.64	1748.97
435.85	1783.78
436.06	1828.84
436.26	1728.49
436.47	1658.85
436.67	1691.62
436.88	1656.81
437.08	1759.21
437.29	1658.85
437.49	1785.83
437.70	1820.64
437.90	1742.82
438.11	1947.62
438.31	1742.82
438.52	1927.14
438.72	1978.34
438.93	1886.18
439.13	1812.45
439.34	1886.18
439.54	1761.25
439.75	1869.80
439.95	1751.01
440.16	1669.09
440.36	1712.10
440.57	1693.67
440.77	1738.73
440.98	1763.30
441.18	1712.10
441.39	1695.72
441.59	1726.44
441.80	1857.51
442.00	1699.81
442.21	1845.22
442.41	1658.85
442.62	1855.46
442.82	1718.25
443.02	1751.01
443.23	1744.87
443.43	1662.95
443.64	1724.39
443.84	1720.29
444.05	1894.37
444.25	1724.39
444.46	1724.39
444.66	1781.73
444.87	1763.30
445.07	1634.28
445.28	1730.53
445.48	1800.16
445.69	1787.88
445.89	1832.93
446.09	1748.97
446.30	2023.39
446.50	2564.06
446.71	3817.41
446.91	4372.41
447.12	4622.27
447.32	4814.77
447.53	4290.49
447.73	3807.17
447.93	3381.20
448.14	3368.91
448.34	3139.54
448.55	2850.77
448.75	2930.64
448.96	2734.04
449.16	2416.60
449.36	2242.53
449.57	2090.98
449.77	1896.42
449.98	1812.45
450.18	1818.60
450.39	1781.73
450.59	1812.45
450.79	1812.45
451.00	1740.77
451.20	1759.21
451.41	1775.59
451.61	1748.97
451.81	1669.09
452.02	1687.53
452.22	1748.97
452.43	1718.25
452.63	1665.00
