SpectraSuite Data File
++++++++++++++++++++++++++++++++++++
Date: Mon Jun 06 14:28:37 CEST 2016
User: root
Dark Spectrum Present: No
Reference Spectrum Present: No
Number of Sampled Component Spectra: 1
Spectrometers: USB4C02835
Integration Time (usec): 100000 (USB4C02835)
Spectra Averaged: 1 (USB4C02835)
Boxcar Smoothing: 0 (USB4C02835)
Correct for Electrical Dark: No (USB4C02835)
Strobe/Lamp Enabled: No (USB4C02835)
Correct for Detector Non-linearity: No (USB4C02835)
Correct for Stray Light: No (USB4C02835)
Number of Pixels in Processed Spectrum: 3648
>>>>>Begin Processed Spectral Data<<<<<
177.47	1495.02
177.69	1495.02
177.91	1495.02
178.13	1417.19
178.36	1505.26
178.58	1693.67
178.80	1656.81
179.02	1585.13
179.24	1658.85
179.46	1662.95
179.68	1783.78
179.90	1644.52
180.13	1779.68
180.35	1695.72
180.57	1673.19
180.79	1763.30
181.01	1642.47
181.23	1808.36
181.45	1826.79
181.67	1765.35
181.90	1730.53
182.12	1603.56
182.34	1679.33
182.56	1675.24
182.78	1683.43
183.00	1621.99
183.22	1775.59
183.44	1581.03
183.66	1777.64
183.89	1773.54
184.11	1718.25
184.33	1724.39
184.55	1769.44
184.77	1662.95
184.99	1751.01
185.21	1726.44
185.43	1843.17
185.65	1687.53
185.87	1742.82
186.10	1791.97
186.32	1816.55
186.54	1691.62
186.76	1736.68
186.98	1740.77
187.20	1677.29
187.42	1662.95
187.64	1710.05
187.86	1761.25
188.08	1755.11
188.30	1705.96
188.52	1720.29
188.75	1820.64
188.97	1734.63
189.19	1597.42
189.41	1722.34
189.63	1738.73
189.85	1728.49
190.07	1662.95
190.29	1626.09
190.51	1728.49
190.73	1576.94
190.95	1767.40
191.17	1705.96
191.39	1615.85
191.61	1710.05
191.84	1617.90
192.06	1787.88
192.28	1665.00
192.50	1918.95
192.72	1722.34
192.94	1763.30
193.16	1769.44
193.38	1683.43
193.60	1665.00
193.82	1701.86
194.04	1751.01
194.26	1693.67
194.48	1679.33
194.70	1650.66
194.92	1687.53
195.14	1755.11
195.36	1599.46
195.58	1736.68
195.80	1638.38
196.02	1679.33
196.24	1624.04
196.46	1677.29
196.69	1660.90
196.91	1810.40
197.13	1675.24
197.35	1660.90
197.57	1771.49
197.79	1732.58
198.01	1720.29
198.23	1656.81
198.45	1681.38
198.67	1626.09
198.89	1695.72
199.11	1812.45
199.33	1605.61
199.55	1656.81
199.77	1693.67
199.99	1845.22
200.21	1658.85
200.43	1734.63
200.65	1669.09
200.87	1587.18
201.09	1665.00
201.31	1669.09
201.53	1726.44
201.75	1705.96
201.97	1703.91
202.19	1697.77
202.41	1650.66
202.63	1828.84
202.85	1720.29
203.07	1742.82
203.29	1730.53
203.51	1624.04
203.73	1609.70
203.95	1814.50
204.17	1720.29
204.39	1730.53
204.61	1595.37
204.83	1677.29
205.05	1757.16
205.27	1738.73
205.49	1839.08
205.71	1675.24
205.93	1679.33
206.15	1669.09
206.37	1607.66
206.59	1730.53
206.81	1617.90
207.03	1656.81
207.25	1593.32
207.47	1753.06
207.69	1636.33
207.91	1757.16
208.13	1763.30
208.34	1640.42
208.56	1611.75
208.78	1779.68
209.00	1636.33
209.22	1669.09
209.44	1665.00
209.66	1740.77
209.88	1697.77
210.10	1613.80
210.32	1710.05
210.54	1753.06
210.76	1720.29
210.98	1738.73
211.20	1595.37
211.42	1708.01
211.64	1820.64
211.86	1667.05
212.08	1691.62
212.30	1701.86
212.52	1697.77
212.74	1738.73
212.96	1748.97
213.17	1730.53
213.39	1673.19
213.61	1734.63
213.83	1708.01
214.05	1656.81
214.27	1699.81
214.49	1658.85
214.71	1656.81
214.93	1748.97
215.15	1619.94
215.37	1710.05
215.59	1615.85
215.81	1718.25
216.03	1763.30
216.24	1751.01
216.46	1691.62
216.68	1716.20
216.90	1742.82
217.12	1734.63
217.34	1714.15
217.56	1708.01
217.78	1763.30
218.00	1726.44
218.22	1695.72
218.44	1722.34
218.66	1705.96
218.87	1814.50
219.09	1708.01
219.31	1708.01
219.53	1681.38
219.75	1644.52
219.97	1658.85
220.19	1736.68
220.41	1773.54
220.63	1746.92
220.85	1736.68
221.06	1746.92
221.28	1775.59
221.50	1724.39
221.72	1746.92
221.94	1730.53
222.16	1710.05
222.38	1728.49
222.60	1740.77
222.82	1714.15
223.03	1716.20
223.25	1619.94
223.47	1746.92
223.69	1769.44
223.91	1683.43
224.13	1697.77
224.35	1697.77
224.57	1732.58
224.78	1701.86
225.00	1652.71
225.22	1748.97
225.44	1705.96
225.66	1710.05
225.88	1716.20
226.10	1722.34
226.32	1746.92
226.53	1779.68
226.75	1646.57
226.97	1738.73
227.19	1744.87
227.41	1601.51
227.63	1740.77
227.85	1638.38
228.06	1732.58
228.28	1687.53
228.50	1656.81
228.72	1689.57
228.94	1652.71
229.16	1607.66
229.37	1662.95
229.59	1677.29
229.81	1761.25
230.03	1654.76
230.25	1658.85
230.47	1626.09
230.69	1558.50
230.90	1728.49
231.12	1679.33
231.34	1738.73
231.56	1740.77
231.78	1628.14
232.00	1681.38
232.21	1716.20
232.43	1652.71
232.65	1560.55
232.87	1662.95
233.09	1646.57
233.30	1677.29
233.52	1695.72
233.74	1654.76
233.96	1703.91
234.18	1667.05
234.40	1720.29
234.61	1746.92
234.83	1621.99
235.05	1640.42
235.27	1865.70
235.49	1777.64
235.70	1796.07
235.92	1796.07
236.14	1728.49
236.36	1886.18
236.58	1578.98
236.79	1732.58
237.01	1726.44
237.23	1621.99
237.45	1765.35
237.67	1652.71
237.88	1656.81
238.10	1814.50
238.32	1607.66
238.54	1669.09
238.76	1710.05
238.97	1652.71
239.19	1648.61
239.41	1742.82
239.63	1767.40
239.85	1671.14
240.06	1665.00
240.28	1656.81
240.50	1724.39
240.72	1744.87
240.93	1701.86
241.15	1837.03
241.37	1701.86
241.59	1845.22
241.81	1734.63
242.02	1632.23
242.24	1744.87
242.46	1734.63
242.68	1695.72
242.89	1724.39
243.11	1771.49
243.33	1687.53
243.55	1718.25
243.76	1705.96
243.98	1648.61
244.20	1634.28
244.42	1677.29
244.64	1644.52
244.85	1701.86
245.07	1603.56
245.29	1748.97
245.51	1658.85
245.72	1714.15
245.94	1771.49
246.16	1761.25
246.38	1697.77
246.59	1654.76
246.81	1652.71
247.03	1613.80
247.24	1644.52
247.46	1693.67
247.68	1740.77
247.90	1742.82
248.11	1648.61
248.33	1763.30
248.55	1757.16
248.77	1755.11
248.98	1783.78
249.20	1779.68
249.42	1660.90
249.64	1697.77
249.85	1751.01
250.07	1595.37
250.29	1763.30
250.50	1820.64
250.72	1640.42
250.94	1757.16
251.16	1767.40
251.37	1722.34
251.59	1617.90
251.81	1685.48
252.02	1787.88
252.24	1679.33
252.46	1726.44
252.68	1658.85
252.89	1701.86
253.11	1603.56
253.33	1763.30
253.54	1742.82
253.76	1685.48
253.98	1667.05
254.20	1619.94
254.41	1538.02
254.63	1697.77
254.85	1685.48
255.06	1667.05
255.28	1697.77
255.50	1583.08
255.71	1648.61
255.93	1607.66
256.15	1591.27
256.36	1697.77
256.58	1636.33
256.80	1695.72
257.02	1656.81
257.23	1673.19
257.45	1789.92
257.67	1761.25
257.88	1640.42
258.10	1730.53
258.32	1671.14
258.53	1677.29
258.75	1765.35
258.97	1691.62
259.18	1681.38
259.40	1652.71
259.62	1824.74
259.83	1771.49
260.05	1744.87
260.27	2007.01
260.48	1781.73
260.70	1689.57
260.92	1730.53
261.13	1703.91
261.35	1689.57
261.57	1724.39
261.78	1578.98
262.00	1656.81
262.22	1689.57
262.43	1632.23
262.65	1693.67
262.86	1763.30
263.08	1812.45
263.30	1609.70
263.51	1546.22
263.73	1685.48
263.95	1728.49
264.16	1697.77
264.38	1642.47
264.60	1724.39
264.81	1763.30
265.03	1785.83
265.25	1736.68
265.46	1673.19
265.68	1773.54
265.89	1779.68
266.11	1583.08
266.33	1767.40
266.54	1777.64
266.76	1755.11
266.98	1705.96
267.19	1769.44
267.41	1722.34
267.62	1669.09
267.84	1650.66
268.06	1679.33
268.27	1693.67
268.49	1791.97
268.70	1710.05
268.92	1708.01
269.14	1636.33
269.35	1658.85
269.57	1615.85
269.79	1796.07
270.00	1687.53
270.22	1804.26
270.43	1675.24
270.65	1576.94
270.87	1660.90
271.08	1718.25
271.30	1763.30
271.51	1667.05
271.73	1753.06
271.95	1783.78
272.16	1767.40
272.38	1724.39
272.59	1591.27
272.81	1783.78
273.02	1759.21
273.24	1683.43
273.46	1785.83
273.67	1648.61
273.89	1628.14
274.10	1691.62
274.32	1732.58
274.54	1683.43
274.75	1742.82
274.97	1642.47
275.18	1722.34
275.40	1720.29
275.61	1728.49
275.83	1781.73
276.05	1636.33
276.26	1726.44
276.48	1763.30
276.69	1673.19
276.91	1640.42
277.12	1798.12
277.34	1738.73
277.55	1763.30
277.77	1687.53
277.99	1730.53
278.20	1638.38
278.42	1708.01
278.63	1656.81
278.85	1699.81
279.06	1742.82
279.28	1638.38
279.49	1740.77
279.71	1767.40
279.93	1652.71
280.14	1710.05
280.36	1601.51
280.57	1714.15
280.79	1775.59
281.00	1662.95
281.22	1677.29
281.43	1726.44
281.65	1578.98
281.86	1738.73
282.08	1730.53
282.29	1816.55
282.51	1683.43
282.73	1646.57
282.94	1574.89
283.16	1751.01
283.37	1767.40
283.59	1681.38
283.80	1677.29
284.02	1759.21
284.23	1705.96
284.45	1681.38
284.66	1609.70
284.88	1642.47
285.09	1757.16
285.31	1800.16
285.52	1755.11
285.74	1560.55
285.95	1683.43
286.17	1716.20
286.38	1781.73
286.60	1595.37
286.81	1662.95
287.03	1632.23
287.24	1640.42
287.46	1683.43
287.67	1759.21
287.89	1777.64
288.10	1685.48
288.32	1732.58
288.53	1791.97
288.75	1681.38
288.96	1763.30
289.18	1685.48
289.39	1669.09
289.61	1751.01
289.82	1771.49
290.04	1746.92
290.25	1581.03
290.47	1757.16
290.68	1734.63
290.90	1796.07
291.11	1595.37
291.33	1759.21
291.54	1638.38
291.76	1665.00
291.97	1738.73
292.18	1730.53
292.40	1621.99
292.61	1712.10
292.83	1849.32
293.04	1755.11
293.26	1716.20
293.47	1648.61
293.69	1708.01
293.90	1728.49
294.12	1804.26
294.33	1724.39
294.55	1734.63
294.76	1744.87
294.97	1767.40
295.19	1841.12
295.40	1689.57
295.62	1742.82
295.83	1781.73
296.05	1636.33
296.26	1699.81
296.48	1710.05
296.69	1757.16
296.90	1703.91
297.12	1710.05
297.33	1761.25
297.55	1716.20
297.76	1767.40
297.98	1759.21
298.19	1640.42
298.41	1701.86
298.62	1671.14
298.83	1785.83
299.05	1722.34
299.26	1697.77
299.48	1714.15
299.69	1718.25
299.90	1691.62
300.12	1636.33
300.33	1779.68
300.55	1681.38
300.76	1673.19
300.98	1669.09
301.19	1722.34
301.40	1763.30
301.62	1691.62
301.83	1767.40
302.05	1714.15
302.26	1708.01
302.47	1632.23
302.69	1597.42
302.90	1710.05
303.12	1566.70
303.33	1763.30
303.54	1841.12
303.76	1714.15
303.97	1705.96
304.19	1796.07
304.40	1640.42
304.61	1693.67
304.83	1865.70
305.04	1781.73
305.26	1734.63
305.47	1667.05
305.68	1660.90
305.90	1607.66
306.11	1822.69
306.33	1675.24
306.54	1648.61
306.75	1669.09
306.97	1621.99
307.18	1652.71
307.39	1652.71
307.61	1765.35
307.82	1732.58
308.04	1685.48
308.25	1701.86
308.46	1718.25
308.68	1650.66
308.89	1650.66
309.10	1748.97
309.32	1816.55
309.53	1732.58
309.74	1685.48
309.96	1703.91
310.17	1746.92
310.39	1710.05
310.60	1699.81
310.81	1689.57
311.03	1619.94
311.24	1765.35
311.45	1660.90
311.67	1834.98
311.88	1724.39
312.09	1673.19
312.31	1683.43
312.52	1732.58
312.73	1679.33
312.95	1589.22
313.16	1636.33
313.37	1685.48
313.59	1689.57
313.80	1728.49
314.01	1781.73
314.23	1757.16
314.44	1693.67
314.65	1624.04
314.87	1732.58
315.08	1656.81
315.29	1708.01
315.51	1599.46
315.72	1671.14
315.93	1853.41
316.15	1779.68
316.36	1712.10
316.57	1675.24
316.79	1705.96
317.00	1601.51
317.21	1769.44
317.43	1656.81
317.64	1632.23
317.85	1570.79
318.07	1636.33
318.28	1699.81
318.49	1820.64
318.70	1953.76
318.92	1820.64
319.13	1818.60
319.34	1935.33
319.56	1767.40
319.77	1765.35
319.98	1847.27
320.20	1806.31
320.41	1722.34
320.62	1712.10
320.83	1626.09
321.05	1830.88
321.26	1695.72
321.47	1742.82
321.69	1783.78
321.90	1636.33
322.11	1718.25
322.32	1722.34
322.54	1798.12
322.75	1665.00
322.96	1800.16
323.18	1654.76
323.39	1540.07
323.60	1656.81
323.81	1787.88
324.03	1732.58
324.24	1689.57
324.45	1693.67
324.66	1691.62
324.88	1740.77
325.09	1798.12
325.30	1699.81
325.52	1665.00
325.73	1732.58
325.94	1691.62
326.15	1572.84
326.37	1677.29
326.58	1771.49
326.79	1787.88
327.00	1652.71
327.22	1673.19
327.43	1671.14
327.64	1624.04
327.85	1779.68
328.07	1708.01
328.28	1816.55
328.49	1720.29
328.70	1673.19
328.92	1738.73
329.13	1617.90
329.34	1738.73
329.55	1787.88
329.76	1791.97
329.98	1683.43
330.19	1779.68
330.40	1755.11
330.61	1736.68
330.83	1771.49
331.04	1695.72
331.25	1693.67
331.46	1624.04
331.68	1656.81
331.89	1695.72
332.10	1736.68
332.31	1617.90
332.52	1744.87
332.74	1724.39
332.95	1589.22
333.16	1628.14
333.37	1736.68
333.58	1665.00
333.80	1677.29
334.01	1638.38
334.22	1695.72
334.43	1605.61
334.64	1669.09
334.86	1605.61
335.07	1581.03
335.28	1751.01
335.49	1615.85
335.70	1736.68
335.92	1697.77
336.13	1834.98
336.34	1683.43
336.55	1697.77
336.76	1722.34
336.98	1658.85
337.19	1763.30
337.40	1806.31
337.61	1908.71
337.82	1665.00
338.04	1722.34
338.25	1646.57
338.46	1689.57
338.67	1648.61
338.88	1781.73
339.09	1665.00
339.31	1722.34
339.52	1646.57
339.73	1624.04
339.94	1701.86
340.15	1730.53
340.36	1611.75
340.58	1691.62
340.79	1660.90
341.00	1714.15
341.21	1640.42
341.42	1861.60
341.63	1705.96
341.85	1755.11
342.06	1730.53
342.27	1624.04
342.48	1808.36
342.69	1646.57
342.90	1685.48
343.12	1671.14
343.33	1736.68
343.54	1767.40
343.75	1773.54
343.96	1761.25
344.17	1662.95
344.38	1652.71
344.60	1654.76
344.81	1693.67
345.02	1681.38
345.23	1699.81
345.44	1751.01
345.65	1687.53
345.86	1771.49
346.07	1751.01
346.29	1716.20
346.50	1849.32
346.71	1777.64
346.92	1708.01
347.13	1736.68
347.34	1644.52
347.55	1693.67
347.76	1677.29
347.98	1662.95
348.19	1677.29
348.40	1734.63
348.61	1730.53
348.82	1800.16
349.03	1675.24
349.24	1658.85
349.45	1843.17
349.66	1535.98
349.88	1689.57
350.09	1687.53
350.30	1689.57
350.51	1800.16
350.72	1693.67
350.93	1783.78
351.14	1644.52
351.35	1732.58
351.56	1669.09
351.77	1654.76
351.99	1740.77
352.20	1808.36
352.41	1736.68
352.62	1609.70
352.83	1656.81
353.04	1648.61
353.25	1673.19
353.46	1779.68
353.67	1740.77
353.88	1538.02
354.09	1656.81
354.30	1757.16
354.52	1732.58
354.73	1724.39
354.94	1683.43
355.15	1736.68
355.36	1722.34
355.57	1718.25
355.78	1726.44
355.99	1677.29
356.20	1775.59
356.41	1757.16
356.62	1783.78
356.83	1708.01
357.04	1800.16
357.25	1603.56
357.46	1681.38
357.68	1656.81
357.89	1691.62
358.10	1677.29
358.31	1652.71
358.52	1691.62
358.73	1636.33
358.94	1652.71
359.15	1693.67
359.36	1761.25
359.57	1697.77
359.78	1705.96
359.99	1757.16
360.20	1619.94
360.41	1628.14
360.62	1742.82
360.83	1767.40
361.04	1765.35
361.25	1722.34
361.46	1830.88
361.67	1691.62
361.88	1644.52
362.09	1814.50
362.30	1787.88
362.51	1712.10
362.72	1738.73
362.93	1734.63
363.14	1812.45
363.35	1759.21
363.56	1660.90
363.78	1767.40
363.99	1783.78
364.20	1624.04
364.41	1746.92
364.62	1810.40
364.83	1673.19
365.04	1685.48
365.25	1759.21
365.46	1834.98
365.67	1669.09
365.88	1603.56
366.09	1683.43
366.30	1656.81
366.51	1703.91
366.72	1619.94
366.93	1660.90
367.14	1646.57
367.35	1720.29
367.56	1697.77
367.77	1820.64
367.98	1767.40
368.18	1677.29
368.39	1789.92
368.60	1624.04
368.81	1746.92
369.02	1697.77
369.23	1753.06
369.44	1556.46
369.65	1660.90
369.86	1705.96
370.07	1683.43
370.28	1679.33
370.49	1779.68
370.70	1691.62
370.91	1654.76
371.12	1601.51
371.33	1771.49
371.54	1693.67
371.75	1781.73
371.96	1646.57
372.17	1767.40
372.38	1703.91
372.59	1665.00
372.80	1767.40
373.01	1665.00
373.22	1701.86
373.43	1689.57
373.64	1689.57
373.85	1810.40
374.06	1783.78
374.26	1742.82
374.47	1798.12
374.68	1773.54
374.89	1714.15
375.10	1691.62
375.31	1783.78
375.52	1685.48
375.73	1767.40
375.94	1587.18
376.15	1740.77
376.36	1658.85
376.57	1638.38
376.78	1681.38
376.99	1724.39
377.20	1722.34
377.40	1716.20
377.61	1857.51
377.82	1722.34
378.03	1806.31
378.24	1705.96
378.45	1771.49
378.66	1769.44
378.87	1552.36
379.08	1640.42
379.29	1683.43
379.50	1775.59
379.71	1701.86
379.91	1781.73
380.12	1746.92
380.33	1677.29
380.54	1722.34
380.75	1744.87
380.96	1658.85
381.17	1771.49
381.38	1650.66
381.59	1738.73
381.80	1640.42
382.00	1865.70
382.21	1701.86
382.42	1808.36
382.63	1931.23
382.84	1746.92
383.05	1783.78
383.26	1738.73
383.47	1689.57
383.68	1740.77
383.88	1744.87
384.09	1777.64
384.30	1804.26
384.51	1699.81
384.72	1703.91
384.93	1595.37
385.14	1746.92
385.35	1789.92
385.55	1677.29
385.76	1734.63
385.97	1673.19
386.18	1634.28
386.39	1669.09
386.60	1679.33
386.81	1683.43
387.02	1605.61
387.22	1681.38
387.43	1665.00
387.64	1787.88
387.85	1890.28
388.06	2213.85
388.27	4276.16
388.48	6915.99
388.68	8378.24
388.89	9535.34
389.10	9846.63
389.31	8497.02
389.52	7511.95
389.73	6743.96
389.93	6209.44
390.14	5789.61
390.35	5128.11
390.56	4634.55
390.77	3688.39
390.98	3061.71
391.18	2508.76
391.39	2119.65
391.60	1886.18
391.81	1820.64
392.02	1673.19
392.23	1873.89
392.43	1710.05
392.64	1800.16
392.85	1656.81
393.06	1837.03
393.27	1671.14
393.47	1673.19
393.68	1687.53
393.89	1734.63
394.10	1757.16
394.31	1603.56
394.52	1675.24
394.72	1751.01
394.93	1806.31
395.14	1673.19
395.35	1787.88
395.56	1701.86
395.76	1759.21
395.97	1783.78
396.18	1839.08
396.39	1828.84
396.60	1980.39
396.80	1986.53
397.01	1806.31
397.22	1804.26
397.43	1814.50
397.64	1703.91
397.84	1804.26
398.05	1832.93
398.26	1775.59
398.47	1744.87
398.67	1722.34
398.88	1781.73
399.09	1830.88
399.30	1648.61
399.51	1681.38
399.71	1736.68
399.92	1734.63
400.13	1701.86
400.34	1630.18
400.54	1648.61
400.75	1830.88
400.96	1652.71
401.17	1847.27
401.37	1662.95
401.58	1665.00
401.79	1720.29
402.00	1814.50
402.21	1988.58
402.41	1886.18
402.62	1994.72
402.83	2070.50
403.04	1974.24
403.24	2033.63
403.45	1861.60
403.66	1988.58
403.87	1804.26
404.07	1841.12
404.28	1861.60
404.49	1884.13
404.70	1740.77
404.90	1746.92
405.11	1769.44
405.32	1667.05
405.52	1656.81
405.73	1654.76
405.94	1636.33
406.15	1755.11
406.35	1738.73
406.56	1742.82
406.77	1691.62
406.98	1771.49
407.18	1744.87
407.39	1806.31
407.60	1722.34
407.80	1738.73
408.01	1685.48
408.22	1718.25
408.43	1665.00
408.63	1667.05
408.84	1710.05
409.05	1779.68
409.25	1621.99
409.46	1697.77
409.67	1738.73
409.88	1773.54
410.08	1804.26
410.29	1685.48
410.50	1781.73
410.70	1751.01
410.91	1699.81
411.12	1791.97
411.32	1710.05
411.53	1710.05
411.74	1779.68
411.95	1712.10
412.15	1746.92
412.36	1789.92
412.57	1791.97
412.77	1683.43
412.98	1722.34
413.19	1648.61
413.39	1771.49
413.60	1818.60
413.81	1777.64
414.01	1642.47
414.22	1710.05
414.43	1826.79
414.63	1687.53
414.84	1804.26
415.05	1705.96
415.25	1660.90
415.46	1753.06
415.67	1656.81
415.87	1685.48
416.08	1726.44
416.29	1730.53
416.49	1716.20
416.70	1636.33
416.91	1712.10
417.11	1681.38
417.32	1753.06
417.53	1806.31
417.73	1746.92
417.94	1650.66
418.15	1730.53
418.35	1746.92
418.56	1673.19
418.77	1802.21
418.97	1660.90
419.18	1632.23
419.38	1576.94
419.59	1619.94
419.80	1847.27
420.00	1701.86
420.21	1796.07
420.42	1742.82
420.62	1740.77
420.83	1736.68
421.04	1697.77
421.24	1705.96
421.45	1763.30
421.65	1806.31
421.86	1665.00
422.07	1722.34
422.27	1632.23
422.48	1683.43
422.69	1660.90
422.89	1669.09
423.10	1677.29
423.30	1638.38
423.51	1751.01
423.72	1773.54
423.92	1757.16
424.13	1599.46
424.33	1615.85
424.54	1789.92
424.75	1654.76
424.95	1841.12
425.16	1755.11
425.36	1705.96
425.57	1705.96
425.78	1759.21
425.98	1769.44
426.19	1734.63
426.39	1679.33
426.60	1726.44
426.81	1794.02
427.01	1697.77
427.22	1695.72
427.42	1611.75
427.63	1714.15
427.83	1798.12
428.04	1769.44
428.25	1781.73
428.45	1814.50
428.66	1785.83
428.86	1640.42
429.07	1724.39
429.28	1673.19
429.48	1642.47
429.69	1669.09
429.89	1738.73
430.10	1601.51
430.30	1834.98
430.51	1730.53
430.71	1611.75
430.92	1746.92
431.13	1697.77
431.33	1665.00
431.54	1693.67
431.74	1839.08
431.95	1767.40
432.15	1632.23
432.36	1726.44
432.56	1773.54
432.77	1853.41
432.98	1865.70
433.18	1716.20
433.39	1654.76
433.59	1646.57
433.80	1830.88
434.00	1920.99
434.21	1673.19
434.41	1683.43
434.62	1877.99
434.82	1753.06
435.03	1689.57
435.23	1705.96
435.44	1619.94
435.64	1683.43
435.85	1705.96
436.06	1716.20
436.26	1779.68
436.47	1652.71
436.67	1681.38
436.88	1683.43
437.08	1751.01
437.29	1824.74
437.49	1697.77
437.70	1732.58
437.90	1763.30
438.11	1800.16
438.31	1742.82
438.52	1818.60
438.72	1804.26
438.93	1910.75
439.13	1738.73
439.34	1886.18
439.54	1669.09
439.75	1710.05
439.95	1751.01
440.16	1697.77
440.36	1701.86
440.57	1810.40
440.77	1720.29
440.98	1732.58
441.18	1779.68
441.39	1656.81
441.59	1669.09
441.80	1798.12
442.00	1691.62
442.21	1724.39
442.41	1613.80
442.62	1761.25
442.82	1683.43
443.02	1769.44
443.23	1777.64
443.43	1685.48
443.64	1763.30
443.84	1695.72
444.05	1812.45
444.25	1710.05
444.46	1708.01
444.66	1771.49
444.87	1808.36
445.07	1708.01
445.28	1683.43
445.48	1812.45
445.69	1751.01
445.89	1843.17
446.09	1808.36
446.30	1974.24
446.50	2545.63
446.71	3682.25
446.91	4323.26
447.12	4749.24
447.32	4837.30
447.53	4335.55
447.73	3876.80
447.93	3639.24
448.14	3311.57
448.34	3301.33
448.55	2934.74
448.75	2744.28
448.96	2625.50
449.16	2529.24
449.36	2246.62
449.57	2007.01
449.77	1970.15
449.98	1804.26
450.18	1787.88
450.39	1863.65
450.59	1714.15
450.79	1781.73
451.00	1652.71
451.20	1742.82
451.41	1712.10
451.61	1722.34
451.81	1763.30
452.02	1710.05
452.22	1712.10
452.43	1726.44
452.63	1665.00
