SpectraSuite Data File
++++++++++++++++++++++++++++++++++++
Date: Mon Jun 06 12:10:37 CEST 2016
User: root
Dark Spectrum Present: No
Reference Spectrum Present: No
Number of Sampled Component Spectra: 1
Spectrometers: USB4C02835
Integration Time (usec): 100000 (USB4C02835)
Spectra Averaged: 1 (USB4C02835)
Boxcar Smoothing: 0 (USB4C02835)
Correct for Electrical Dark: No (USB4C02835)
Strobe/Lamp Enabled: No (USB4C02835)
Correct for Detector Non-linearity: No (USB4C02835)
Correct for Stray Light: No (USB4C02835)
Number of Pixels in Processed Spectrum: 3648
>>>>>Begin Processed Spectral Data<<<<<
177.47	1511.40
177.69	1511.40
177.91	1511.40
178.13	1466.35
178.36	1458.15
178.58	1632.23
178.80	1691.62
179.02	1566.70
179.24	1648.61
179.46	1740.77
179.68	1738.73
179.90	1695.72
180.13	1687.53
180.35	1679.33
180.57	1652.71
180.79	1734.63
181.01	1667.05
181.23	1718.25
181.45	1767.40
181.67	1712.10
181.90	1794.02
182.12	1599.46
182.34	1613.80
182.56	1738.73
182.78	1708.01
183.00	1640.42
183.22	1714.15
183.44	1609.70
183.66	1806.31
183.89	1771.49
184.11	1617.90
184.33	1685.48
184.55	1828.84
184.77	1726.44
184.99	1718.25
185.21	1648.61
185.43	1851.36
185.65	1650.66
185.87	1724.39
186.10	1822.69
186.32	1828.84
186.54	1669.09
186.76	1697.77
186.98	1722.34
187.20	1626.09
187.42	1714.15
187.64	1730.53
187.86	1673.19
188.08	1708.01
188.30	1718.25
188.52	1773.54
188.75	1712.10
188.97	1748.97
189.19	1697.77
189.41	1675.24
189.63	1675.24
189.85	1630.18
190.07	1615.85
190.29	1587.18
190.51	1703.91
190.73	1640.42
190.95	1732.58
191.17	1671.14
191.39	1607.66
191.61	1677.29
191.84	1583.08
192.06	1673.19
192.28	1572.84
192.50	1957.86
192.72	1732.58
192.94	1726.44
193.16	1775.59
193.38	1767.40
193.60	1568.74
193.82	1667.05
194.04	1736.68
194.26	1746.92
194.48	1689.57
194.70	1607.66
194.92	1660.90
195.14	1757.16
195.36	1730.53
195.58	1730.53
195.80	1689.57
196.02	1640.42
196.24	1699.81
196.46	1677.29
196.69	1716.20
196.91	1882.08
197.13	1613.80
197.35	1634.28
197.57	1798.12
197.79	1689.57
198.01	1665.00
198.23	1689.57
198.45	1652.71
198.67	1701.86
198.89	1718.25
199.11	1742.82
199.33	1654.76
199.55	1566.70
199.77	1617.90
199.99	1710.05
200.21	1632.23
200.43	1753.06
200.65	1638.38
200.87	1601.51
201.09	1644.52
201.31	1681.38
201.53	1755.11
201.75	1738.73
201.97	1679.33
202.19	1712.10
202.41	1755.11
202.63	1783.78
202.85	1736.68
203.07	1685.48
203.29	1730.53
203.51	1634.28
203.73	1599.46
203.95	1871.84
204.17	1724.39
204.39	1755.11
204.61	1669.09
204.83	1658.85
205.05	1744.87
205.27	1691.62
205.49	1767.40
205.71	1658.85
205.93	1624.04
206.15	1617.90
206.37	1724.39
206.59	1699.81
206.81	1656.81
207.03	1605.61
207.25	1621.99
207.47	1746.92
207.69	1646.57
207.91	1728.49
208.13	1828.84
208.34	1611.75
208.56	1699.81
208.78	1726.44
209.00	1683.43
209.22	1595.37
209.44	1665.00
209.66	1593.32
209.88	1759.21
210.10	1757.16
210.32	1589.22
210.54	1716.20
210.76	1667.05
210.98	1748.97
211.20	1550.31
211.42	1695.72
211.64	1732.58
211.86	1708.01
212.08	1765.35
212.30	1722.34
212.52	1693.67
212.74	1714.15
212.96	1746.92
213.17	1724.39
213.39	1734.63
213.61	1820.64
213.83	1810.40
214.05	1587.18
214.27	1757.16
214.49	1669.09
214.71	1638.38
214.93	1738.73
215.15	1667.05
215.37	1708.01
215.59	1640.42
215.81	1714.15
216.03	1761.25
216.24	1712.10
216.46	1669.09
216.68	1689.57
216.90	1710.05
217.12	1673.19
217.34	1718.25
217.56	1644.52
217.78	1724.39
218.00	1697.77
218.22	1705.96
218.44	1742.82
218.66	1751.01
218.87	1802.21
219.09	1744.87
219.31	1648.61
219.53	1689.57
219.75	1687.53
219.97	1679.33
220.19	1673.19
220.41	1681.38
220.63	1736.68
220.85	1648.61
221.06	1701.86
221.28	1669.09
221.50	1701.86
221.72	1722.34
221.94	1777.64
222.16	1644.52
222.38	1697.77
222.60	1718.25
222.82	1726.44
223.03	1689.57
223.25	1587.18
223.47	1726.44
223.69	1787.88
223.91	1724.39
224.13	1652.71
224.35	1681.38
224.57	1689.57
224.78	1689.57
225.00	1703.91
225.22	1665.00
225.44	1652.71
225.66	1632.23
225.88	1660.90
226.10	1705.96
226.32	1673.19
226.53	1740.77
226.75	1685.48
226.97	1673.19
227.19	1638.38
227.41	1681.38
227.63	1626.09
227.85	1566.70
228.06	1673.19
228.28	1687.53
228.50	1796.07
228.72	1566.70
228.94	1683.43
229.16	1599.46
229.37	1658.85
229.59	1671.14
229.81	1708.01
230.03	1581.03
230.25	1619.94
230.47	1624.04
230.69	1589.22
230.90	1726.44
231.12	1677.29
231.34	1617.90
231.56	1714.15
231.78	1591.27
232.00	1699.81
232.21	1716.20
232.43	1648.61
232.65	1619.94
232.87	1753.06
233.09	1638.38
233.30	1644.52
233.52	1740.77
233.74	1714.15
233.96	1634.28
234.18	1673.19
234.40	1693.67
234.61	1765.35
234.83	1585.13
235.05	1632.23
235.27	1832.93
235.49	1767.40
235.70	1673.19
235.92	1822.69
236.14	1796.07
236.36	1853.41
236.58	1630.18
236.79	1701.86
237.01	1722.34
237.23	1710.05
237.45	1726.44
237.67	1667.05
237.88	1681.38
238.10	1773.54
238.32	1619.94
238.54	1730.53
238.76	1619.94
238.97	1656.81
239.19	1679.33
239.41	1708.01
239.63	1716.20
239.85	1583.08
240.06	1720.29
240.28	1658.85
240.50	1810.40
240.72	1708.01
240.93	1769.44
241.15	1847.27
241.37	1660.90
241.59	1779.68
241.81	1718.25
242.02	1742.82
242.24	1673.19
242.46	1667.05
242.68	1615.85
242.89	1718.25
243.11	1728.49
243.33	1703.91
243.55	1667.05
243.76	1722.34
243.98	1605.61
244.20	1689.57
244.42	1687.53
244.64	1681.38
244.85	1626.09
245.07	1630.18
245.29	1714.15
245.51	1640.42
245.72	1775.59
245.94	1724.39
246.16	1624.04
246.38	1720.29
246.59	1681.38
246.81	1640.42
247.03	1744.87
247.24	1540.07
247.46	1681.38
247.68	1755.11
247.90	1628.14
248.11	1699.81
248.33	1734.63
248.55	1691.62
248.77	1681.38
248.98	1734.63
249.20	1771.49
249.42	1624.04
249.64	1701.86
249.85	1699.81
250.07	1724.39
250.29	1755.11
250.50	1818.60
250.72	1591.27
250.94	1677.29
251.16	1822.69
251.37	1730.53
251.59	1744.87
251.81	1728.49
252.02	1722.34
252.24	1716.20
252.46	1806.31
252.68	1630.18
252.89	1607.66
253.11	1591.27
253.33	1845.22
253.54	1730.53
253.76	1636.33
253.98	1726.44
254.20	1693.67
254.41	1607.66
254.63	1716.20
254.85	1669.09
255.06	1636.33
255.28	1689.57
255.50	1712.10
255.71	1691.62
255.93	1648.61
256.15	1667.05
256.36	1638.38
256.58	1648.61
256.80	1763.30
257.02	1669.09
257.23	1716.20
257.45	1611.75
257.67	1779.68
257.88	1708.01
258.10	1703.91
258.32	1632.23
258.53	1646.57
258.75	1755.11
258.97	1646.57
259.18	1640.42
259.40	1689.57
259.62	1863.65
259.83	1724.39
260.05	1685.48
260.27	1929.19
260.48	1724.39
260.70	1576.94
260.92	1736.68
261.13	1630.18
261.35	1671.14
261.57	1656.81
261.78	1697.77
262.00	1656.81
262.22	1703.91
262.43	1660.90
262.65	1652.71
262.86	1798.12
263.08	1828.84
263.30	1746.92
263.51	1646.57
263.73	1736.68
263.95	1763.30
264.16	1642.47
264.38	1732.58
264.60	1681.38
264.81	1679.33
265.03	1728.49
265.25	1714.15
265.46	1669.09
265.68	1701.86
265.89	1679.33
266.11	1615.85
266.33	1681.38
266.54	1695.72
266.76	1789.92
266.98	1726.44
267.19	1789.92
267.41	1695.72
267.62	1689.57
267.84	1662.95
268.06	1765.35
268.27	1736.68
268.49	1724.39
268.70	1718.25
268.92	1691.62
269.14	1732.58
269.35	1652.71
269.57	1652.71
269.79	1697.77
270.00	1660.90
270.22	1845.22
270.43	1605.61
270.65	1642.47
270.87	1669.09
271.08	1744.87
271.30	1748.97
271.51	1771.49
271.73	1656.81
271.95	1755.11
272.16	1730.53
272.38	1695.72
272.59	1652.71
272.81	1642.47
273.02	1779.68
273.24	1689.57
273.46	1746.92
273.67	1644.52
273.89	1609.70
274.10	1654.76
274.32	1769.44
274.54	1806.31
274.75	1736.68
274.97	1599.46
275.18	1767.40
275.40	1777.64
275.61	1640.42
275.83	1624.04
276.05	1595.37
276.26	1691.62
276.48	1779.68
276.69	1646.57
276.91	1708.01
277.12	1769.44
277.34	1681.38
277.55	1853.41
277.77	1718.25
277.99	1660.90
278.20	1597.42
278.42	1671.14
278.63	1665.00
278.85	1607.66
279.06	1697.77
279.28	1710.05
279.49	1712.10
279.71	1728.49
279.93	1716.20
280.14	1722.34
280.36	1697.77
280.57	1738.73
280.79	1726.44
281.00	1646.57
281.22	1630.18
281.43	1755.11
281.65	1636.33
281.86	1658.85
282.08	1757.16
282.29	1761.25
282.51	1605.61
282.73	1638.38
282.94	1624.04
283.16	1738.73
283.37	1767.40
283.59	1665.00
283.80	1687.53
284.02	1714.15
284.23	1785.83
284.45	1650.66
284.66	1665.00
284.88	1656.81
285.09	1685.48
285.31	1730.53
285.52	1777.64
285.74	1548.26
285.95	1767.40
286.17	1628.14
286.38	1728.49
286.60	1667.05
286.81	1667.05
287.03	1722.34
287.24	1705.96
287.46	1787.88
287.67	1708.01
287.89	1794.02
288.10	1615.85
288.32	1710.05
288.53	1822.69
288.75	1650.66
288.96	1689.57
289.18	1701.86
289.39	1677.29
289.61	1714.15
289.82	1761.25
290.04	1765.35
290.25	1648.61
290.47	1615.85
290.68	1667.05
290.90	1751.01
291.11	1527.78
291.33	1689.57
291.54	1710.05
291.76	1533.93
291.97	1769.44
292.18	1755.11
292.40	1619.94
292.61	1710.05
292.83	1857.51
293.04	1675.24
293.26	1683.43
293.47	1673.19
293.69	1601.51
293.90	1720.29
294.12	1685.48
294.33	1685.48
294.55	1640.42
294.76	1708.01
294.97	1744.87
295.19	1843.17
295.40	1687.53
295.62	1730.53
295.83	1822.69
296.05	1677.29
296.26	1708.01
296.48	1609.70
296.69	1652.71
296.90	1607.66
297.12	1701.86
297.33	1710.05
297.55	1722.34
297.76	1779.68
297.98	1781.73
298.19	1734.63
298.41	1648.61
298.62	1638.38
298.83	1773.54
299.05	1722.34
299.26	1628.14
299.48	1646.57
299.69	1730.53
299.90	1701.86
300.12	1619.94
300.33	1710.05
300.55	1675.24
300.76	1667.05
300.98	1624.04
301.19	1673.19
301.40	1665.00
301.62	1665.00
301.83	1677.29
302.05	1705.96
302.26	1738.73
302.47	1667.05
302.69	1587.18
302.90	1687.53
303.12	1548.26
303.33	1691.62
303.54	1818.60
303.76	1710.05
303.97	1697.77
304.19	1800.16
304.40	1632.23
304.61	1753.06
304.83	1841.12
305.04	1738.73
305.26	1738.73
305.47	1632.23
305.68	1687.53
305.90	1609.70
306.11	1640.42
306.33	1714.15
306.54	1667.05
306.75	1630.18
306.97	1587.18
307.18	1624.04
307.39	1603.56
307.61	1699.81
307.82	1593.32
308.04	1722.34
308.25	1650.66
308.46	1687.53
308.68	1718.25
308.89	1753.06
309.10	1718.25
309.32	1716.20
309.53	1669.09
309.74	1716.20
309.96	1689.57
310.17	1761.25
310.39	1685.48
310.60	1708.01
310.81	1624.04
311.03	1677.29
311.24	1705.96
311.45	1708.01
311.67	1783.78
311.88	1767.40
312.09	1636.33
312.31	1683.43
312.52	1681.38
312.73	1662.95
312.95	1634.28
313.16	1648.61
313.37	1761.25
313.59	1650.66
313.80	1843.17
314.01	1818.60
314.23	1638.38
314.44	1665.00
314.65	1617.90
314.87	1640.42
315.08	1662.95
315.29	1755.11
315.51	1695.72
315.72	1675.24
315.93	1771.49
316.15	1691.62
316.36	1718.25
316.57	1689.57
316.79	1656.81
317.00	1644.52
317.21	1738.73
317.43	1619.94
317.64	1673.19
317.85	1578.98
318.07	1644.52
318.28	1722.34
318.49	1810.40
318.70	1890.28
318.92	1761.25
319.13	1746.92
319.34	1898.47
319.56	1718.25
319.77	1757.16
319.98	1759.21
320.20	1759.21
320.41	1734.63
320.62	1751.01
320.83	1630.18
321.05	1794.02
321.26	1722.34
321.47	1660.90
321.69	1722.34
321.90	1595.37
322.11	1648.61
322.32	1687.53
322.54	1779.68
322.75	1640.42
322.96	1814.50
323.18	1654.76
323.39	1572.84
323.60	1677.29
323.81	1769.44
324.03	1673.19
324.24	1683.43
324.45	1681.38
324.66	1671.14
324.88	1716.20
325.09	1826.79
325.30	1685.48
325.52	1794.02
325.73	1703.91
325.94	1705.96
326.15	1662.95
326.37	1644.52
326.58	1755.11
326.79	1755.11
327.00	1722.34
327.22	1640.42
327.43	1603.56
327.64	1624.04
327.85	1710.05
328.07	1693.67
328.28	1826.79
328.49	1613.80
328.70	1658.85
328.92	1753.06
329.13	1599.46
329.34	1726.44
329.55	1767.40
329.76	1759.21
329.98	1730.53
330.19	1769.44
330.40	1722.34
330.61	1681.38
330.83	1685.48
331.04	1652.71
331.25	1722.34
331.46	1726.44
331.68	1617.90
331.89	1720.29
332.10	1675.24
332.31	1634.28
332.52	1675.24
332.74	1720.29
332.95	1693.67
333.16	1640.42
333.37	1660.90
333.58	1720.29
333.80	1708.01
334.01	1621.99
334.22	1617.90
334.43	1718.25
334.64	1644.52
334.86	1585.13
335.07	1603.56
335.28	1744.87
335.49	1640.42
335.70	1708.01
335.92	1759.21
336.13	1800.16
336.34	1771.49
336.55	1746.92
336.76	1705.96
336.98	1632.23
337.19	1753.06
337.40	1849.32
337.61	1763.30
337.82	1607.66
338.04	1738.73
338.25	1617.90
338.46	1597.42
338.67	1636.33
338.88	1642.47
339.09	1632.23
339.31	1667.05
339.52	1595.37
339.73	1581.03
339.94	1654.76
340.15	1775.59
340.36	1658.85
340.58	1646.57
340.79	1640.42
341.00	1693.67
341.21	1576.94
341.42	1800.16
341.63	1695.72
341.85	1705.96
342.06	1716.20
342.27	1644.52
342.48	1722.34
342.69	1517.54
342.90	1763.30
343.12	1757.16
343.33	1609.70
343.54	1759.21
343.75	1802.21
343.96	1724.39
344.17	1656.81
344.38	1677.29
344.60	1681.38
344.81	1701.86
345.02	1599.46
345.23	1683.43
345.44	1751.01
345.65	1697.77
345.86	1730.53
346.07	1716.20
346.29	1640.42
346.50	1681.38
346.71	1712.10
346.92	1775.59
347.13	1775.59
347.34	1685.48
347.55	1714.15
347.76	1695.72
347.98	1716.20
348.19	1581.03
348.40	1806.31
348.61	1646.57
348.82	1773.54
349.03	1812.45
349.24	1640.42
349.45	1865.70
349.66	1554.41
349.88	1718.25
350.09	1634.28
350.30	1724.39
350.51	1726.44
350.72	1693.67
350.93	1763.30
351.14	1636.33
351.35	1650.66
351.56	1675.24
351.77	1648.61
351.99	1697.77
352.20	1746.92
352.41	1777.64
352.62	1570.79
352.83	1624.04
353.04	1669.09
353.25	1640.42
353.46	1773.54
353.67	1710.05
353.88	1615.85
354.09	1734.63
354.30	1632.23
354.52	1740.77
354.73	1714.15
354.94	1671.14
355.15	1716.20
355.36	1806.31
355.57	1701.86
355.78	1673.19
355.99	1630.18
356.20	1613.80
356.41	1785.83
356.62	1677.29
356.83	1718.25
357.04	1783.78
357.25	1615.85
357.46	1732.58
357.68	1538.02
357.89	1628.14
358.10	1634.28
358.31	1652.71
358.52	1720.29
358.73	1593.32
358.94	1685.48
359.15	1714.15
359.36	1697.77
359.57	1777.64
359.78	1685.48
359.99	1712.10
360.20	1693.67
360.41	1681.38
360.62	1710.05
360.83	1683.43
361.04	1648.61
361.25	1693.67
361.46	1773.54
361.67	1822.69
361.88	1716.20
362.09	1714.15
362.30	1687.53
362.51	1605.61
362.72	1746.92
362.93	1714.15
363.14	1726.44
363.35	1673.19
363.56	1644.52
363.78	1638.38
363.99	1728.49
364.20	1650.66
364.41	1722.34
364.62	1867.75
364.83	1705.96
365.04	1687.53
365.25	1667.05
365.46	1732.58
365.67	1648.61
365.88	1593.32
366.09	1677.29
366.30	1665.00
366.51	1599.46
366.72	1613.80
366.93	1718.25
367.14	1701.86
367.35	1796.07
367.56	1683.43
367.77	1740.77
367.98	1671.14
368.18	1632.23
368.39	1669.09
368.60	1617.90
368.81	1746.92
369.02	1748.97
369.23	1595.37
369.44	1540.07
369.65	1619.94
369.86	1656.81
370.07	1775.59
370.28	1681.38
370.49	1689.57
370.70	1748.97
370.91	1583.08
371.12	1597.42
371.33	1693.67
371.54	1540.07
371.75	1763.30
371.96	1632.23
372.17	1716.20
372.38	1626.09
372.59	1742.82
372.80	1681.38
373.01	1683.43
373.22	1671.14
373.43	1708.01
373.64	1648.61
373.85	1683.43
374.06	1791.97
374.26	1681.38
374.47	1765.35
374.68	1759.21
374.89	1671.14
375.10	1693.67
375.31	1693.67
375.52	1701.86
375.73	1689.57
375.94	1652.71
376.15	1671.14
376.36	1591.27
376.57	1710.05
376.78	1652.71
376.99	1781.73
377.20	1789.92
377.40	1619.94
377.61	1806.31
377.82	1574.89
378.03	1730.53
378.24	1705.96
378.45	1667.05
378.66	1708.01
378.87	1611.75
379.08	1601.51
379.29	1656.81
379.50	1824.74
379.71	1671.14
379.91	1773.54
380.12	1693.67
380.33	1714.15
380.54	1689.57
380.75	1650.66
380.96	1644.52
381.17	1734.63
381.38	1650.66
381.59	1755.11
381.80	1751.01
382.00	1828.84
382.21	1677.29
382.42	1857.51
382.63	1800.16
382.84	1671.14
383.05	1699.81
383.26	1777.64
383.47	1746.92
383.68	1763.30
383.88	1687.53
384.09	1646.57
384.30	1800.16
384.51	1679.33
384.72	1656.81
384.93	1662.95
385.14	1667.05
385.35	1783.78
385.55	1654.76
385.76	1832.93
385.97	1677.29
386.18	1646.57
386.39	1636.33
386.60	1636.33
386.81	1648.61
387.02	1693.67
387.22	1656.81
387.43	1669.09
387.64	1777.64
387.85	1859.56
388.06	2152.42
388.27	4323.26
388.48	6979.48
388.68	8380.29
388.89	9750.38
389.10	10059.62
389.31	8724.35
389.52	7692.17
389.73	6872.98
389.93	6223.78
390.14	5992.36
390.35	5337.01
390.56	4624.31
390.77	3698.63
390.98	3065.81
391.18	2586.58
391.39	2170.85
391.60	1880.04
391.81	1894.37
392.02	1718.25
392.23	1843.17
392.43	1775.59
392.64	1804.26
392.85	1703.91
393.06	1757.16
393.27	1689.57
393.47	1656.81
393.68	1714.15
393.89	1626.09
394.10	1828.84
394.31	1599.46
394.52	1632.23
394.72	1681.38
394.93	1673.19
395.14	1660.90
395.35	1753.06
395.56	1667.05
395.76	1673.19
395.97	1845.22
396.18	1826.79
396.39	1757.16
396.60	2066.40
396.80	1812.45
397.01	1839.08
397.22	1820.64
397.43	1832.93
397.64	1697.77
397.84	1863.65
398.05	1832.93
398.26	1705.96
398.47	1744.87
398.67	1865.70
398.88	1687.53
399.09	1708.01
399.30	1665.00
399.51	1796.07
399.71	1691.62
399.92	1656.81
400.13	1705.96
400.34	1728.49
400.54	1728.49
400.75	1724.39
400.96	1662.95
401.17	1810.40
401.37	1742.82
401.58	1718.25
401.79	1669.09
402.00	1816.55
402.21	2000.87
402.41	1800.16
402.62	1947.62
402.83	2066.40
403.04	1945.57
403.24	2113.50
403.45	1843.17
403.66	1935.33
403.87	1847.27
404.07	1931.23
404.28	1877.99
404.49	1830.88
404.70	1789.92
404.90	1746.92
405.11	1773.54
405.32	1683.43
405.52	1679.33
405.73	1667.05
405.94	1730.53
406.15	1710.05
406.35	1785.83
406.56	1746.92
406.77	1689.57
406.98	1728.49
407.18	1607.66
407.39	1822.69
407.60	1667.05
407.80	1705.96
408.01	1646.57
408.22	1712.10
408.43	1656.81
408.63	1665.00
408.84	1734.63
409.05	1763.30
409.25	1669.09
409.46	1667.05
409.67	1685.48
409.88	1689.57
410.08	1710.05
410.29	1705.96
410.50	1644.52
410.70	1710.05
410.91	1617.90
411.12	1757.16
411.32	1681.38
411.53	1644.52
411.74	1781.73
411.95	1820.64
412.15	1705.96
412.36	1869.80
412.57	1810.40
412.77	1763.30
412.98	1640.42
413.19	1689.57
413.39	1755.11
413.60	1771.49
413.81	1763.30
414.01	1628.14
414.22	1771.49
414.43	1703.91
414.63	1716.20
414.84	1679.33
415.05	1669.09
415.25	1660.90
415.46	1738.73
415.67	1662.95
415.87	1755.11
416.08	1716.20
416.29	1669.09
416.49	1794.02
416.70	1703.91
416.91	1667.05
417.11	1644.52
417.32	1722.34
417.53	1755.11
417.73	1783.78
417.94	1656.81
418.15	1650.66
418.35	1726.44
418.56	1705.96
418.77	1828.84
418.97	1734.63
419.18	1673.19
419.38	1597.42
419.59	1630.18
419.80	1765.35
420.00	1650.66
420.21	1642.47
420.42	1777.64
420.62	1712.10
420.83	1710.05
421.04	1644.52
421.24	1724.39
421.45	1738.73
421.65	1701.86
421.86	1658.85
422.07	1716.20
422.27	1714.15
422.48	1695.72
422.69	1615.85
422.89	1654.76
423.10	1638.38
423.30	1605.61
423.51	1660.90
423.72	1718.25
423.92	1697.77
424.13	1685.48
424.33	1624.04
424.54	1730.53
424.75	1662.95
424.95	1847.27
425.16	1740.77
425.36	1755.11
425.57	1705.96
425.78	1681.38
425.98	1738.73
426.19	1689.57
426.39	1691.62
426.60	1701.86
426.81	1724.39
427.01	1650.66
427.22	1669.09
427.42	1648.61
427.63	1597.42
427.83	1767.40
428.04	1757.16
428.25	1781.73
428.45	1697.77
428.66	1755.11
428.86	1665.00
429.07	1675.24
429.28	1689.57
429.48	1679.33
429.69	1597.42
429.89	1718.25
430.10	1619.94
430.30	1734.63
430.51	1755.11
430.71	1615.85
430.92	1712.10
431.13	1677.29
431.33	1748.97
431.54	1703.91
431.74	1777.64
431.95	1826.79
432.15	1648.61
432.36	1681.38
432.56	1695.72
432.77	1820.64
432.98	1765.35
433.18	1712.10
433.39	1732.58
433.59	1667.05
433.80	1873.89
434.00	1787.88
434.21	1693.67
434.41	1705.96
434.62	1808.36
434.82	1628.14
435.03	1658.85
435.23	1736.68
435.44	1593.32
435.64	1740.77
435.85	1628.14
436.06	1763.30
436.26	1697.77
436.47	1728.49
436.67	1656.81
436.88	1658.85
437.08	1740.77
437.29	1781.73
437.49	1681.38
437.70	1751.01
437.90	1685.48
438.11	1751.01
438.31	1740.77
438.52	1810.40
438.72	1865.70
438.93	1832.93
439.13	1796.07
439.34	1785.83
439.54	1755.11
439.75	1794.02
439.95	1816.55
440.16	1720.29
440.36	1800.16
440.57	1814.50
440.77	1705.96
440.98	1693.67
441.18	1759.21
441.39	1613.80
441.59	1636.33
441.80	1816.55
442.00	1732.58
442.21	1826.79
442.41	1697.77
442.62	1781.73
442.82	1722.34
443.02	1712.10
443.23	1685.48
443.43	1662.95
443.64	1800.16
443.84	1632.23
444.05	1771.49
444.25	1687.53
444.46	1697.77
444.66	1759.21
444.87	1800.16
445.07	1601.51
445.28	1775.59
445.48	1810.40
445.69	1787.88
445.89	1914.85
446.09	1775.59
446.30	2086.88
446.50	2723.80
446.71	3823.56
446.91	4386.75
447.12	4868.02
447.32	4888.50
447.53	4337.60
447.73	3803.08
447.93	3559.37
448.14	3262.41
448.34	3205.07
448.55	2869.20
448.75	2840.53
448.96	2791.38
449.16	2435.03
449.36	2248.67
449.57	2054.11
449.77	1890.28
449.98	1779.68
450.18	1845.22
450.39	1837.03
450.59	1701.86
450.79	1730.53
451.00	1699.81
451.20	1742.82
451.41	1738.73
451.61	1746.92
451.81	1724.39
452.02	1693.67
452.22	1714.15
452.43	1564.65
452.63	1730.53
