SpectraSuite Data File
++++++++++++++++++++++++++++++++++++
Date: Mon Jun 06 15:35:57 CEST 2016
User: root
Dark Spectrum Present: No
Reference Spectrum Present: No
Number of Sampled Component Spectra: 1
Spectrometers: USB4C02835
Integration Time (usec): 100000 (USB4C02835)
Spectra Averaged: 1 (USB4C02835)
Boxcar Smoothing: 0 (USB4C02835)
Correct for Electrical Dark: No (USB4C02835)
Strobe/Lamp Enabled: No (USB4C02835)
Correct for Detector Non-linearity: No (USB4C02835)
Correct for Stray Light: No (USB4C02835)
Number of Pixels in Processed Spectrum: 3648
>>>>>Begin Processed Spectral Data<<<<<
177.47	1454.06
177.69	1454.06
177.91	1454.06
178.13	1499.11
178.36	1507.30
178.58	1630.18
178.80	1705.96
179.02	1619.94
179.24	1626.09
179.46	1681.38
179.68	1734.63
179.90	1714.15
180.13	1701.86
180.35	1671.14
180.57	1730.53
180.79	1761.25
181.01	1665.00
181.23	1787.88
181.45	1800.16
181.67	1822.69
181.90	1746.92
182.12	1726.44
182.34	1722.34
182.56	1724.39
182.78	1732.58
183.00	1689.57
183.22	1751.01
183.44	1626.09
183.66	1845.22
183.89	1748.97
184.11	1701.86
184.33	1699.81
184.55	1814.50
184.77	1732.58
184.99	1714.15
185.21	1671.14
185.43	1789.92
185.65	1683.43
185.87	1804.26
186.10	1880.04
186.32	1853.41
186.54	1738.73
186.76	1769.44
186.98	1785.83
187.20	1718.25
187.42	1665.00
187.64	1701.86
187.86	1775.59
188.08	1787.88
188.30	1665.00
188.52	1789.92
188.75	1738.73
188.97	1812.45
189.19	1636.33
189.41	1669.09
189.63	1753.06
189.85	1724.39
190.07	1597.42
190.29	1679.33
190.51	1746.92
190.73	1665.00
190.95	1726.44
191.17	1705.96
191.39	1617.90
191.61	1597.42
191.84	1665.00
192.06	1755.11
192.28	1669.09
192.50	1863.65
192.72	1703.91
192.94	1726.44
193.16	1679.33
193.38	1761.25
193.60	1640.42
193.82	1609.70
194.04	1734.63
194.26	1751.01
194.48	1687.53
194.70	1683.43
194.92	1675.24
195.14	1804.26
195.36	1560.55
195.58	1769.44
195.80	1693.67
196.02	1685.48
196.24	1650.66
196.46	1763.30
196.69	1685.48
196.91	1791.97
197.13	1683.43
197.35	1669.09
197.57	1769.44
197.79	1834.98
198.01	1744.87
198.23	1736.68
198.45	1773.54
198.67	1660.90
198.89	1665.00
199.11	1712.10
199.33	1697.77
199.55	1546.22
199.77	1798.12
199.99	1794.02
200.21	1656.81
200.43	1705.96
200.65	1662.95
200.87	1599.46
201.09	1703.91
201.31	1681.38
201.53	1681.38
201.75	1779.68
201.97	1712.10
202.19	1759.21
202.41	1669.09
202.63	1855.46
202.85	1779.68
203.07	1753.06
203.29	1644.52
203.51	1634.28
203.73	1714.15
203.95	1912.80
204.17	1718.25
204.39	1748.97
204.61	1714.15
204.83	1748.97
205.05	1810.40
205.27	1800.16
205.49	1767.40
205.71	1673.19
205.93	1675.24
206.15	1609.70
206.37	1740.77
206.59	1681.38
206.81	1572.84
207.03	1691.62
207.25	1667.05
207.47	1767.40
207.69	1652.71
207.91	1783.78
208.13	1683.43
208.34	1648.61
208.56	1673.19
208.78	1757.16
209.00	1671.14
209.22	1658.85
209.44	1636.33
209.66	1652.71
209.88	1734.63
210.10	1701.86
210.32	1650.66
210.54	1791.97
210.76	1677.29
210.98	1673.19
211.20	1519.59
211.42	1771.49
211.64	1796.07
211.86	1718.25
212.08	1669.09
212.30	1665.00
212.52	1683.43
212.74	1783.78
212.96	1656.81
213.17	1755.11
213.39	1716.20
213.61	1763.30
213.83	1716.20
214.05	1626.09
214.27	1753.06
214.49	1687.53
214.71	1665.00
214.93	1734.63
215.15	1724.39
215.37	1685.48
215.59	1611.75
215.81	1724.39
216.03	1804.26
216.24	1667.05
216.46	1712.10
216.68	1746.92
216.90	1730.53
217.12	1796.07
217.34	1712.10
217.56	1732.58
217.78	1798.12
218.00	1781.73
218.22	1714.15
218.44	1722.34
218.66	1683.43
218.87	1822.69
219.09	1640.42
219.31	1738.73
219.53	1634.28
219.75	1628.14
219.97	1693.67
220.19	1767.40
220.41	1701.86
220.63	1736.68
220.85	1812.45
221.06	1673.19
221.28	1757.16
221.50	1763.30
221.72	1677.29
221.94	1777.64
222.16	1677.29
222.38	1699.81
222.60	1701.86
222.82	1693.67
223.03	1765.35
223.25	1581.03
223.47	1804.26
223.69	1734.63
223.91	1714.15
224.13	1701.86
224.35	1691.62
224.57	1773.54
224.78	1728.49
225.00	1691.62
225.22	1671.14
225.44	1662.95
225.66	1734.63
225.88	1679.33
226.10	1791.97
226.32	1720.29
226.53	1853.41
226.75	1693.67
226.97	1718.25
227.19	1705.96
227.41	1734.63
227.63	1669.09
227.85	1615.85
228.06	1755.11
228.28	1665.00
228.50	1822.69
228.72	1654.76
228.94	1703.91
229.16	1648.61
229.37	1574.89
229.59	1642.47
229.81	1728.49
230.03	1722.34
230.25	1628.14
230.47	1662.95
230.69	1636.33
230.90	1777.64
231.12	1662.95
231.34	1757.16
231.56	1781.73
231.78	1652.71
232.00	1703.91
232.21	1755.11
232.43	1689.57
232.65	1638.38
232.87	1755.11
233.09	1673.19
233.30	1675.24
233.52	1734.63
233.74	1736.68
233.96	1763.30
234.18	1703.91
234.40	1732.58
234.61	1877.99
234.83	1638.38
235.05	1589.22
235.27	1843.17
235.49	1787.88
235.70	1738.73
235.92	1781.73
236.14	1755.11
236.36	1869.80
236.58	1613.80
236.79	1820.64
237.01	1744.87
237.23	1771.49
237.45	1863.65
237.67	1656.81
237.88	1791.97
238.10	1806.31
238.32	1624.04
238.54	1732.58
238.76	1722.34
238.97	1691.62
239.19	1654.76
239.41	1765.35
239.63	1732.58
239.85	1689.57
240.06	1755.11
240.28	1624.04
240.50	1796.07
240.72	1726.44
240.93	1656.81
241.15	1722.34
241.37	1744.87
241.59	1796.07
241.81	1714.15
242.02	1722.34
242.24	1722.34
242.46	1839.08
242.68	1667.05
242.89	1699.81
243.11	1710.05
243.33	1738.73
243.55	1714.15
243.76	1689.57
243.98	1634.28
244.20	1722.34
244.42	1724.39
244.64	1812.45
244.85	1658.85
245.07	1671.14
245.29	1710.05
245.51	1724.39
245.72	1726.44
245.94	1728.49
246.16	1736.68
246.38	1740.77
246.59	1705.96
246.81	1738.73
247.03	1701.86
247.24	1665.00
247.46	1660.90
247.68	1728.49
247.90	1642.47
248.11	1738.73
248.33	1812.45
248.55	1796.07
248.77	1640.42
248.98	1806.31
249.20	1845.22
249.42	1822.69
249.64	1720.29
249.85	1779.68
250.07	1648.61
250.29	1771.49
250.50	1748.97
250.72	1683.43
250.94	1685.48
251.16	1830.88
251.37	1730.53
251.59	1740.77
251.81	1710.05
252.02	1699.81
252.24	1671.14
252.46	1767.40
252.68	1669.09
252.89	1665.00
253.11	1611.75
253.33	1800.16
253.54	1759.21
253.76	1703.91
253.98	1714.15
254.20	1728.49
254.41	1615.85
254.63	1669.09
254.85	1697.77
255.06	1722.34
255.28	1640.42
255.50	1705.96
255.71	1632.23
255.93	1636.33
256.15	1726.44
256.36	1779.68
256.58	1640.42
256.80	1669.09
257.02	1648.61
257.23	1708.01
257.45	1699.81
257.67	1718.25
257.88	1718.25
258.10	1777.64
258.32	1648.61
258.53	1689.57
258.75	1775.59
258.97	1753.06
259.18	1710.05
259.40	1742.82
259.62	1841.12
259.83	1757.16
260.05	1820.64
260.27	1961.95
260.48	1800.16
260.70	1681.38
260.92	1734.63
261.13	1665.00
261.35	1710.05
261.57	1789.92
261.78	1593.32
262.00	1660.90
262.22	1763.30
262.43	1665.00
262.65	1755.11
262.86	1714.15
263.08	1853.41
263.30	1746.92
263.51	1603.56
263.73	1691.62
263.95	1845.22
264.16	1718.25
264.38	1701.86
264.60	1695.72
264.81	1763.30
265.03	1820.64
265.25	1765.35
265.46	1675.24
265.68	1734.63
265.89	1697.77
266.11	1570.79
266.33	1796.07
266.54	1763.30
266.76	1753.06
266.98	1777.64
267.19	1769.44
267.41	1738.73
267.62	1773.54
267.84	1621.99
268.06	1665.00
268.27	1656.81
268.49	1738.73
268.70	1757.16
268.92	1738.73
269.14	1613.80
269.35	1626.09
269.57	1820.64
269.79	1677.29
270.00	1640.42
270.22	1816.55
270.43	1632.23
270.65	1634.28
270.87	1724.39
271.08	1804.26
271.30	1740.77
271.51	1693.67
271.73	1724.39
271.95	1710.05
272.16	1734.63
272.38	1724.39
272.59	1671.14
272.81	1763.30
273.02	1734.63
273.24	1689.57
273.46	1753.06
273.67	1703.91
273.89	1603.56
274.10	1753.06
274.32	1832.93
274.54	1712.10
274.75	1679.33
274.97	1617.90
275.18	1806.31
275.40	1710.05
275.61	1681.38
275.83	1728.49
276.05	1693.67
276.26	1691.62
276.48	1736.68
276.69	1607.66
276.91	1636.33
277.12	1773.54
277.34	1826.79
277.55	1712.10
277.77	1656.81
277.99	1652.71
278.20	1683.43
278.42	1640.42
278.63	1599.46
278.85	1681.38
279.06	1615.85
279.28	1734.63
279.49	1761.25
279.71	1746.92
279.93	1699.81
280.14	1675.24
280.36	1638.38
280.57	1769.44
280.79	1818.60
281.00	1642.47
281.22	1642.47
281.43	1818.60
281.65	1595.37
281.86	1681.38
282.08	1763.30
282.29	1796.07
282.51	1689.57
282.73	1624.04
282.94	1665.00
283.16	1781.73
283.37	1785.83
283.59	1724.39
283.80	1683.43
284.02	1775.59
284.23	1753.06
284.45	1689.57
284.66	1665.00
284.88	1611.75
285.09	1751.01
285.31	1765.35
285.52	1859.56
285.74	1576.94
285.95	1669.09
286.17	1738.73
286.38	1736.68
286.60	1648.61
286.81	1574.89
287.03	1732.58
287.24	1755.11
287.46	1789.92
287.67	1712.10
287.89	1871.84
288.10	1665.00
288.32	1652.71
288.53	1855.46
288.75	1656.81
288.96	1740.77
289.18	1675.24
289.39	1699.81
289.61	1824.74
289.82	1804.26
290.04	1828.84
290.25	1716.20
290.47	1757.16
290.68	1603.56
290.90	1794.02
291.11	1671.14
291.33	1767.40
291.54	1658.85
291.76	1660.90
291.97	1693.67
292.18	1777.64
292.40	1753.06
292.61	1578.98
292.83	1826.79
293.04	1730.53
293.26	1781.73
293.47	1708.01
293.69	1673.19
293.90	1683.43
294.12	1744.87
294.33	1703.91
294.55	1628.14
294.76	1816.55
294.97	1845.22
295.19	1871.84
295.40	1667.05
295.62	1757.16
295.83	1759.21
296.05	1693.67
296.26	1775.59
296.48	1660.90
296.69	1779.68
296.90	1742.82
297.12	1773.54
297.33	1802.21
297.55	1728.49
297.76	1787.88
297.98	1800.16
298.19	1738.73
298.41	1759.21
298.62	1626.09
298.83	1804.26
299.05	1679.33
299.26	1722.34
299.48	1669.09
299.69	1728.49
299.90	1705.96
300.12	1669.09
300.33	1818.60
300.55	1726.44
300.76	1710.05
300.98	1632.23
301.19	1738.73
301.40	1738.73
301.62	1738.73
301.83	1615.85
302.05	1685.48
302.26	1695.72
302.47	1734.63
302.69	1703.91
302.90	1744.87
303.12	1716.20
303.33	1798.12
303.54	1791.97
303.76	1740.77
303.97	1796.07
304.19	1830.88
304.40	1712.10
304.61	1722.34
304.83	1847.27
305.04	1798.12
305.26	1767.40
305.47	1644.52
305.68	1708.01
305.90	1589.22
306.11	1779.68
306.33	1675.24
306.54	1656.81
306.75	1685.48
306.97	1642.47
307.18	1683.43
307.39	1701.86
307.61	1775.59
307.82	1624.04
308.04	1695.72
308.25	1628.14
308.46	1753.06
308.68	1710.05
308.89	1693.67
309.10	1771.49
309.32	1677.29
309.53	1640.42
309.74	1808.36
309.96	1689.57
310.17	1761.25
310.39	1677.29
310.60	1656.81
310.81	1714.15
311.03	1595.37
311.24	1699.81
311.45	1699.81
311.67	1828.84
311.88	1675.24
312.09	1701.86
312.31	1738.73
312.52	1701.86
312.73	1730.53
312.95	1646.57
313.16	1652.71
313.37	1814.50
313.59	1671.14
313.80	1800.16
314.01	1804.26
314.23	1693.67
314.44	1740.77
314.65	1621.99
314.87	1705.96
315.08	1640.42
315.29	1765.35
315.51	1654.76
315.72	1593.32
315.93	1773.54
316.15	1787.88
316.36	1648.61
316.57	1660.90
316.79	1712.10
317.00	1730.53
317.21	1841.12
317.43	1714.15
317.64	1722.34
317.85	1732.58
318.07	1673.19
318.28	1710.05
318.49	1929.19
318.70	1886.18
318.92	1935.33
319.13	1855.46
319.34	1865.70
319.56	1806.31
319.77	1763.30
319.98	1732.58
320.20	1761.25
320.41	1701.86
320.62	1755.11
320.83	1685.48
321.05	1933.28
321.26	1787.88
321.47	1689.57
321.69	1791.97
321.90	1650.66
322.11	1777.64
322.32	1763.30
322.54	1736.68
322.75	1675.24
322.96	1931.23
323.18	1648.61
323.39	1574.89
323.60	1720.29
323.81	1695.72
324.03	1665.00
324.24	1683.43
324.45	1736.68
324.66	1708.01
324.88	1783.78
325.09	1753.06
325.30	1708.01
325.52	1714.15
325.73	1785.83
325.94	1667.05
326.15	1593.32
326.37	1673.19
326.58	1773.54
326.79	1798.12
327.00	1695.72
327.22	1722.34
327.43	1746.92
327.64	1587.18
327.85	1761.25
328.07	1691.62
328.28	1816.55
328.49	1611.75
328.70	1736.68
328.92	1755.11
329.13	1775.59
329.34	1779.68
329.55	1810.40
329.76	1763.30
329.98	1656.81
330.19	1738.73
330.40	1679.33
330.61	1726.44
330.83	1763.30
331.04	1595.37
331.25	1736.68
331.46	1757.16
331.68	1632.23
331.89	1705.96
332.10	1697.77
332.31	1626.09
332.52	1716.20
332.74	1763.30
332.95	1646.57
333.16	1671.14
333.37	1673.19
333.58	1675.24
333.80	1648.61
334.01	1636.33
334.22	1669.09
334.43	1654.76
334.64	1648.61
334.86	1644.52
335.07	1611.75
335.28	1751.01
335.49	1593.32
335.70	1710.05
335.92	1808.36
336.13	1853.41
336.34	1726.44
336.55	1740.77
336.76	1734.63
336.98	1665.00
337.19	1665.00
337.40	1810.40
337.61	1867.75
337.82	1724.39
338.04	1736.68
338.25	1542.12
338.46	1648.61
338.67	1699.81
338.88	1636.33
339.09	1685.48
339.31	1783.78
339.52	1615.85
339.73	1705.96
339.94	1724.39
340.15	1757.16
340.36	1673.19
340.58	1665.00
340.79	1667.05
341.00	1722.34
341.21	1656.81
341.42	1767.40
341.63	1740.77
341.85	1734.63
342.06	1722.34
342.27	1683.43
342.48	1697.77
342.69	1630.18
342.90	1705.96
343.12	1759.21
343.33	1718.25
343.54	1804.26
343.75	1763.30
343.96	1728.49
344.17	1640.42
344.38	1712.10
344.60	1691.62
344.81	1708.01
345.02	1716.20
345.23	1806.31
345.44	1775.59
345.65	1695.72
345.86	1828.84
346.07	1755.11
346.29	1675.24
346.50	1730.53
346.71	1714.15
346.92	1832.93
347.13	1796.07
347.34	1708.01
347.55	1632.23
347.76	1689.57
347.98	1701.86
348.19	1681.38
348.40	1773.54
348.61	1695.72
348.82	1810.40
349.03	1730.53
349.24	1681.38
349.45	1736.68
349.66	1656.81
349.88	1646.57
350.09	1665.00
350.30	1863.65
350.51	1757.16
350.72	1712.10
350.93	1763.30
351.14	1656.81
351.35	1789.92
351.56	1732.58
351.77	1697.77
351.99	1755.11
352.20	1791.97
352.41	1804.26
352.62	1695.72
352.83	1679.33
353.04	1705.96
353.25	1728.49
353.46	1808.36
353.67	1710.05
353.88	1609.70
354.09	1689.57
354.30	1740.77
354.52	1701.86
354.73	1648.61
354.94	1640.42
355.15	1726.44
355.36	1808.36
355.57	1673.19
355.78	1701.86
355.99	1738.73
356.20	1652.71
356.41	1771.49
356.62	1718.25
356.83	1644.52
357.04	1832.93
357.25	1601.51
357.46	1673.19
357.68	1648.61
357.89	1605.61
358.10	1744.87
358.31	1703.91
358.52	1705.96
358.73	1697.77
358.94	1677.29
359.15	1626.09
359.36	1746.92
359.57	1730.53
359.78	1722.34
359.99	1748.97
360.20	1605.61
360.41	1695.72
360.62	1697.77
360.83	1644.52
361.04	1730.53
361.25	1712.10
361.46	1771.49
361.67	1736.68
361.88	1806.31
362.09	1720.29
362.30	1796.07
362.51	1677.29
362.72	1697.77
362.93	1775.59
363.14	1687.53
363.35	1693.67
363.56	1701.86
363.78	1757.16
363.99	1767.40
364.20	1669.09
364.41	1654.76
364.62	1873.89
364.83	1726.44
365.04	1693.67
365.25	1757.16
365.46	1867.75
365.67	1652.71
365.88	1644.52
366.09	1683.43
366.30	1751.01
366.51	1710.05
366.72	1574.89
366.93	1714.15
367.14	1732.58
367.35	1814.50
367.56	1740.77
367.77	1710.05
367.98	1689.57
368.18	1767.40
368.39	1718.25
368.60	1705.96
368.81	1662.95
369.02	1673.19
369.23	1730.53
369.44	1673.19
369.65	1701.86
369.86	1832.93
370.07	1738.73
370.28	1640.42
370.49	1755.11
370.70	1734.63
370.91	1648.61
371.12	1660.90
371.33	1816.55
371.54	1677.29
371.75	1765.35
371.96	1564.65
372.17	1705.96
372.38	1695.72
372.59	1755.11
372.80	1730.53
373.01	1712.10
373.22	1761.25
373.43	1714.15
373.64	1654.76
373.85	1746.92
374.06	1755.11
374.26	1794.02
374.47	1761.25
374.68	1873.89
374.89	1800.16
375.10	1714.15
375.31	1705.96
375.52	1755.11
375.73	1677.29
375.94	1603.56
376.15	1789.92
376.36	1681.38
376.57	1718.25
376.78	1736.68
376.99	1796.07
377.20	1761.25
377.40	1703.91
377.61	1882.08
377.82	1669.09
378.03	1740.77
378.24	1714.15
378.45	1716.20
378.66	1705.96
378.87	1665.00
379.08	1665.00
379.29	1732.58
379.50	1746.92
379.71	1669.09
379.91	1716.20
380.12	1675.24
380.33	1734.63
380.54	1720.29
380.75	1755.11
380.96	1671.14
381.17	1794.02
381.38	1738.73
381.59	1708.01
381.80	1755.11
382.00	1806.31
382.21	1783.78
382.42	1843.17
382.63	1814.50
382.84	1718.25
383.05	1787.88
383.26	1855.46
383.47	1755.11
383.68	1755.11
383.88	1718.25
384.09	1697.77
384.30	1787.88
384.51	1728.49
384.72	1697.77
384.93	1677.29
385.14	1738.73
385.35	1839.08
385.55	1640.42
385.76	1785.83
385.97	1794.02
386.18	1642.47
386.39	1703.91
386.60	1640.42
386.81	1701.86
387.02	1636.33
387.22	1679.33
387.43	1716.20
387.64	1789.92
387.85	1869.80
388.06	2205.66
388.27	4163.52
388.48	6700.95
388.68	8081.28
388.89	9396.08
389.10	9717.61
389.31	8507.26
389.52	7194.51
389.73	6754.20
389.93	6154.15
390.14	5740.46
390.35	5121.97
390.56	4487.10
390.77	3700.68
390.98	3010.51
391.18	2580.44
391.39	2090.98
391.60	1841.12
391.81	1834.98
392.02	1705.96
392.23	1816.55
392.43	1669.09
392.64	1824.74
392.85	1681.38
393.06	1894.37
393.27	1794.02
393.47	1599.46
393.68	1806.31
393.89	1714.15
394.10	1744.87
394.31	1718.25
394.52	1738.73
394.72	1720.29
394.93	1734.63
395.14	1583.08
395.35	1761.25
395.56	1732.58
395.76	1746.92
395.97	1841.12
396.18	1871.84
396.39	1882.08
396.60	2031.58
396.80	1890.28
397.01	1877.99
397.22	1855.46
397.43	1849.32
397.64	1771.49
397.84	1822.69
398.05	1875.94
398.26	1804.26
398.47	1761.25
398.67	1818.60
398.88	1720.29
399.09	1722.34
399.30	1705.96
399.51	1708.01
399.71	1679.33
399.92	1720.29
400.13	1777.64
400.34	1746.92
400.54	1656.81
400.75	1779.68
400.96	1726.44
401.17	1783.78
401.37	1703.91
401.58	1740.77
401.79	1689.57
402.00	1849.32
402.21	1988.58
402.41	1927.14
402.62	2043.87
402.83	1976.29
403.04	1908.71
403.24	2037.73
403.45	1804.26
403.66	1904.61
403.87	1828.84
404.07	1847.27
404.28	1906.66
404.49	1877.99
404.70	1777.64
404.90	1787.88
405.11	1755.11
405.32	1726.44
405.52	1699.81
405.73	1708.01
405.94	1597.42
406.15	1673.19
406.35	1701.86
406.56	1738.73
406.77	1744.87
406.98	1720.29
407.18	1697.77
407.39	1787.88
407.60	1689.57
407.80	1705.96
408.01	1740.77
408.22	1720.29
408.43	1714.15
408.63	1755.11
408.84	1726.44
409.05	1791.97
409.25	1611.75
409.46	1716.20
409.67	1658.85
409.88	1667.05
410.08	1710.05
410.29	1658.85
410.50	1726.44
410.70	1722.34
410.91	1628.14
411.12	1814.50
411.32	1656.81
411.53	1652.71
411.74	1853.41
411.95	1771.49
412.15	1732.58
412.36	1767.40
412.57	1845.22
412.77	1806.31
412.98	1755.11
413.19	1705.96
413.39	1820.64
413.60	1798.12
413.81	1834.98
414.01	1740.77
414.22	1775.59
414.43	1755.11
414.63	1714.15
414.84	1775.59
415.05	1779.68
415.25	1638.38
415.46	1691.62
415.67	1662.95
415.87	1744.87
416.08	1695.72
416.29	1636.33
416.49	1693.67
416.70	1630.18
416.91	1769.44
417.11	1724.39
417.32	1789.92
417.53	1742.82
417.73	1665.00
417.94	1742.82
418.15	1732.58
418.35	1830.88
418.56	1683.43
418.77	1849.32
418.97	1683.43
419.18	1660.90
419.38	1642.47
419.59	1697.77
419.80	1902.56
420.00	1691.62
420.21	1738.73
420.42	1783.78
420.62	1722.34
420.83	1636.33
421.04	1708.01
421.24	1687.53
421.45	1748.97
421.65	1775.59
421.86	1720.29
422.07	1736.68
422.27	1755.11
422.48	1732.58
422.69	1624.04
422.89	1681.38
423.10	1712.10
423.30	1652.71
423.51	1718.25
423.72	1796.07
423.92	1812.45
424.13	1640.42
424.33	1818.60
424.54	1775.59
424.75	1724.39
424.95	1783.78
425.16	1718.25
425.36	1685.48
425.57	1804.26
425.78	1740.77
425.98	1822.69
426.19	1689.57
426.39	1699.81
426.60	1716.20
426.81	1865.70
427.01	1806.31
427.22	1689.57
427.42	1701.86
427.63	1712.10
427.83	1728.49
428.04	1789.92
428.25	1753.06
428.45	1757.16
428.66	1810.40
428.86	1724.39
429.07	1699.81
429.28	1800.16
429.48	1726.44
429.69	1726.44
429.89	1779.68
430.10	1621.99
430.30	1736.68
430.51	1771.49
430.71	1665.00
430.92	1695.72
431.13	1701.86
431.33	1728.49
431.54	1671.14
431.74	1740.77
431.95	1802.21
432.15	1644.52
432.36	1740.77
432.56	1834.98
432.77	1791.97
432.98	1816.55
433.18	1773.54
433.39	1732.58
433.59	1751.01
433.80	1804.26
434.00	1845.22
434.21	1712.10
434.41	1665.00
434.62	1880.04
434.82	1605.61
435.03	1654.76
435.23	1730.53
435.44	1673.19
435.64	1691.62
435.85	1722.34
436.06	1837.03
436.26	1742.82
436.47	1757.16
436.67	1728.49
436.88	1720.29
437.08	1802.21
437.29	1751.01
437.49	1744.87
437.70	1796.07
437.90	1802.21
438.11	1849.32
438.31	1796.07
438.52	1839.08
438.72	1857.51
438.93	1859.56
439.13	1746.92
439.34	1886.18
439.54	1855.46
439.75	1736.68
439.95	1789.92
440.16	1730.53
440.36	1746.92
440.57	1775.59
440.77	1746.92
440.98	1767.40
441.18	1701.86
441.39	1724.39
441.59	1654.76
441.80	1869.80
442.00	1685.48
442.21	1826.79
442.41	1714.15
442.62	1824.74
442.82	1732.58
443.02	1800.16
443.23	1779.68
443.43	1636.33
443.64	1802.21
443.84	1689.57
444.05	1740.77
444.25	1748.97
444.46	1673.19
444.66	1761.25
444.87	1804.26
445.07	1638.38
445.28	1781.73
445.48	1804.26
445.69	1847.27
445.89	1865.70
446.09	1785.83
446.30	2103.26
446.50	2576.34
446.71	3647.43
446.91	4290.49
447.12	4650.94
447.32	4863.93
447.53	4276.16
447.73	3719.11
447.93	3430.35
448.14	3295.18
448.34	3198.93
448.55	2906.07
448.75	2813.91
448.96	2639.83
449.16	2371.55
449.36	2285.53
449.57	2080.74
449.77	1906.66
449.98	1804.26
450.18	1910.75
450.39	1834.98
450.59	1751.01
450.79	1789.92
451.00	1677.29
451.20	1834.98
451.41	1720.29
451.61	1820.64
451.81	1677.29
452.02	1734.63
452.22	1806.31
452.43	1730.53
452.63	1640.42
