SpectraSuite Data File
++++++++++++++++++++++++++++++++++++
Date: Mon Jun 06 15:27:37 CEST 2016
User: root
Dark Spectrum Present: No
Reference Spectrum Present: No
Number of Sampled Component Spectra: 1
Spectrometers: USB4C02835
Integration Time (usec): 100000 (USB4C02835)
Spectra Averaged: 1 (USB4C02835)
Boxcar Smoothing: 0 (USB4C02835)
Correct for Electrical Dark: No (USB4C02835)
Strobe/Lamp Enabled: No (USB4C02835)
Correct for Detector Non-linearity: No (USB4C02835)
Correct for Stray Light: No (USB4C02835)
Number of Pixels in Processed Spectrum: 3648
>>>>>Begin Processed Spectral Data<<<<<
177.47	1490.92
177.69	1490.92
177.91	1490.92
178.13	1415.15
178.36	1427.43
178.58	1701.86
178.80	1730.53
179.02	1648.61
179.24	1605.61
179.46	1705.96
179.68	1800.16
179.90	1751.01
180.13	1755.11
180.35	1658.85
180.57	1656.81
180.79	1748.97
181.01	1734.63
181.23	1767.40
181.45	1814.50
181.67	1740.77
181.90	1763.30
182.12	1685.48
182.34	1689.57
182.56	1665.00
182.78	1646.57
183.00	1730.53
183.22	1763.30
183.44	1538.02
183.66	1834.98
183.89	1761.25
184.11	1710.05
184.33	1755.11
184.55	1800.16
184.77	1716.20
184.99	1757.16
185.21	1693.67
185.43	1912.80
185.65	1648.61
185.87	1714.15
186.10	1896.42
186.32	1875.94
186.54	1746.92
186.76	1691.62
186.98	1755.11
187.20	1705.96
187.42	1722.34
187.64	1689.57
187.86	1763.30
188.08	1738.73
188.30	1728.49
188.52	1705.96
188.75	1806.31
188.97	1771.49
189.19	1716.20
189.41	1650.66
189.63	1738.73
189.85	1695.72
190.07	1626.09
190.29	1695.72
190.51	1738.73
190.73	1658.85
190.95	1751.01
191.17	1699.81
191.39	1619.94
191.61	1693.67
191.84	1718.25
192.06	1751.01
192.28	1591.27
192.50	1900.52
192.72	1677.29
192.94	1656.81
193.16	1677.29
193.38	1779.68
193.60	1697.77
193.82	1787.88
194.04	1748.97
194.26	1742.82
194.48	1767.40
194.70	1646.57
194.92	1695.72
195.14	1773.54
195.36	1671.14
195.58	1720.29
195.80	1683.43
196.02	1738.73
196.24	1667.05
196.46	1701.86
196.69	1689.57
196.91	1890.28
197.13	1720.29
197.35	1634.28
197.57	1818.60
197.79	1744.87
198.01	1755.11
198.23	1671.14
198.45	1689.57
198.67	1671.14
198.89	1640.42
199.11	1746.92
199.33	1654.76
199.55	1570.79
199.77	1685.48
199.99	1697.77
200.21	1703.91
200.43	1736.68
200.65	1699.81
200.87	1591.27
201.09	1714.15
201.31	1703.91
201.53	1746.92
201.75	1814.50
201.97	1703.91
202.19	1740.77
202.41	1810.40
202.63	1800.16
202.85	1759.21
203.07	1705.96
203.29	1744.87
203.51	1677.29
203.73	1703.91
203.95	1976.29
204.17	1730.53
204.39	1691.62
204.61	1683.43
204.83	1679.33
205.05	1712.10
205.27	1710.05
205.49	1853.41
205.71	1720.29
205.93	1607.66
206.15	1628.14
206.37	1685.48
206.59	1697.77
206.81	1710.05
207.03	1751.01
207.25	1683.43
207.47	1738.73
207.69	1677.29
207.91	1814.50
208.13	1783.78
208.34	1681.38
208.56	1642.47
208.78	1712.10
209.00	1740.77
209.22	1685.48
209.44	1654.76
209.66	1716.20
209.88	1687.53
210.10	1763.30
210.32	1689.57
210.54	1771.49
210.76	1673.19
210.98	1695.72
211.20	1638.38
211.42	1757.16
211.64	1787.88
211.86	1755.11
212.08	1738.73
212.30	1783.78
212.52	1636.33
212.74	1765.35
212.96	1777.64
213.17	1671.14
213.39	1781.73
213.61	1845.22
213.83	1800.16
214.05	1617.90
214.27	1810.40
214.49	1634.28
214.71	1617.90
214.93	1810.40
215.15	1708.01
215.37	1701.86
215.59	1574.89
215.81	1812.45
216.03	1857.51
216.24	1771.49
216.46	1673.19
216.68	1769.44
216.90	1726.44
217.12	1742.82
217.34	1767.40
217.56	1748.97
217.78	1910.75
218.00	1714.15
218.22	1665.00
218.44	1773.54
218.66	1763.30
218.87	1873.89
219.09	1677.29
219.31	1775.59
219.53	1726.44
219.75	1765.35
219.97	1708.01
220.19	1738.73
220.41	1646.57
220.63	1816.55
220.85	1783.78
221.06	1679.33
221.28	1761.25
221.50	1726.44
221.72	1691.62
221.94	1726.44
222.16	1685.48
222.38	1746.92
222.60	1716.20
222.82	1705.96
223.03	1808.36
223.25	1658.85
223.47	1728.49
223.69	1798.12
223.91	1761.25
224.13	1714.15
224.35	1722.34
224.57	1746.92
224.78	1765.35
225.00	1650.66
225.22	1773.54
225.44	1783.78
225.66	1722.34
225.88	1699.81
226.10	1765.35
226.32	1796.07
226.53	1841.12
226.75	1705.96
226.97	1736.68
227.19	1720.29
227.41	1619.94
227.63	1568.74
227.85	1613.80
228.06	1742.82
228.28	1652.71
228.50	1771.49
228.72	1712.10
228.94	1732.58
229.16	1613.80
229.37	1695.72
229.59	1636.33
229.81	1861.60
230.03	1738.73
230.25	1578.98
230.47	1617.90
230.69	1669.09
230.90	1763.30
231.12	1681.38
231.34	1757.16
231.56	1679.33
231.78	1652.71
232.00	1769.44
232.21	1720.29
232.43	1730.53
232.65	1544.17
232.87	1665.00
233.09	1710.05
233.30	1703.91
233.52	1636.33
233.74	1691.62
233.96	1675.24
234.18	1755.11
234.40	1726.44
234.61	1769.44
234.83	1671.14
235.05	1642.47
235.27	1859.56
235.49	1798.12
235.70	1718.25
235.92	1767.40
236.14	1773.54
236.36	1875.94
236.58	1603.56
236.79	1734.63
237.01	1734.63
237.23	1783.78
237.45	1763.30
237.67	1736.68
237.88	1669.09
238.10	1783.78
238.32	1677.29
238.54	1708.01
238.76	1693.67
238.97	1689.57
239.19	1683.43
239.41	1755.11
239.63	1734.63
239.85	1710.05
240.06	1681.38
240.28	1740.77
240.50	1740.77
240.72	1740.77
240.93	1656.81
241.15	1783.78
241.37	1748.97
241.59	1779.68
241.81	1638.38
242.02	1697.77
242.24	1744.87
242.46	1796.07
242.68	1697.77
242.89	1767.40
243.11	1751.01
243.33	1673.19
243.55	1718.25
243.76	1759.21
243.98	1722.34
244.20	1691.62
244.42	1662.95
244.64	1775.59
244.85	1609.70
245.07	1656.81
245.29	1736.68
245.51	1710.05
245.72	1722.34
245.94	1763.30
246.16	1820.64
246.38	1775.59
246.59	1609.70
246.81	1662.95
247.03	1697.77
247.24	1705.96
247.46	1660.90
247.68	1693.67
247.90	1759.21
248.11	1642.47
248.33	1746.92
248.55	1734.63
248.77	1703.91
248.98	1736.68
249.20	1757.16
249.42	1734.63
249.64	1800.16
249.85	1675.24
250.07	1644.52
250.29	1765.35
250.50	1736.68
250.72	1626.09
250.94	1779.68
251.16	1804.26
251.37	1736.68
251.59	1787.88
251.81	1705.96
252.02	1820.64
252.24	1673.19
252.46	1759.21
252.68	1611.75
252.89	1699.81
253.11	1654.76
253.33	1898.47
253.54	1830.88
253.76	1560.55
253.98	1675.24
254.20	1724.39
254.41	1669.09
254.63	1720.29
254.85	1665.00
255.06	1718.25
255.28	1732.58
255.50	1736.68
255.71	1677.29
255.93	1697.77
256.15	1669.09
256.36	1757.16
256.58	1679.33
256.80	1738.73
257.02	1677.29
257.23	1660.90
257.45	1718.25
257.67	1761.25
257.88	1656.81
258.10	1724.39
258.32	1722.34
258.53	1734.63
258.75	1789.92
258.97	1724.39
259.18	1753.06
259.40	1730.53
259.62	1777.64
259.83	1843.17
260.05	1710.05
260.27	1939.43
260.48	1718.25
260.70	1550.31
260.92	1751.01
261.13	1671.14
261.35	1650.66
261.57	1718.25
261.78	1624.04
262.00	1708.01
262.22	1757.16
262.43	1695.72
262.65	1728.49
262.86	1689.57
263.08	1804.26
263.30	1755.11
263.51	1642.47
263.73	1652.71
263.95	1751.01
264.16	1724.39
264.38	1634.28
264.60	1763.30
264.81	1634.28
265.03	1867.75
265.25	1740.77
265.46	1746.92
265.68	1722.34
265.89	1757.16
266.11	1628.14
266.33	1810.40
266.54	1755.11
266.76	1765.35
266.98	1789.92
267.19	1767.40
267.41	1748.97
267.62	1660.90
267.84	1619.94
268.06	1705.96
268.27	1701.86
268.49	1800.16
268.70	1847.27
268.92	1740.77
269.14	1640.42
269.35	1626.09
269.57	1708.01
269.79	1746.92
270.00	1673.19
270.22	1849.32
270.43	1603.56
270.65	1611.75
270.87	1738.73
271.08	1773.54
271.30	1703.91
271.51	1755.11
271.73	1851.36
271.95	1757.16
272.16	1718.25
272.38	1857.51
272.59	1681.38
272.81	1826.79
273.02	1687.53
273.24	1708.01
273.46	1775.59
273.67	1695.72
273.89	1699.81
274.10	1665.00
274.32	1748.97
274.54	1746.92
274.75	1759.21
274.97	1644.52
275.18	1755.11
275.40	1769.44
275.61	1699.81
275.83	1716.20
276.05	1603.56
276.26	1746.92
276.48	1724.39
276.69	1660.90
276.91	1681.38
277.12	1826.79
277.34	1742.82
277.55	1804.26
277.77	1798.12
277.99	1705.96
278.20	1619.94
278.42	1701.86
278.63	1746.92
278.85	1675.24
279.06	1632.23
279.28	1744.87
279.49	1787.88
279.71	1714.15
279.93	1726.44
280.14	1714.15
280.36	1710.05
280.57	1765.35
280.79	1763.30
281.00	1755.11
281.22	1693.67
281.43	1785.83
281.65	1601.51
281.86	1673.19
282.08	1677.29
282.29	1787.88
282.51	1656.81
282.73	1695.72
282.94	1605.61
283.16	1730.53
283.37	1783.78
283.59	1687.53
283.80	1744.87
284.02	1708.01
284.23	1701.86
284.45	1732.58
284.66	1693.67
284.88	1658.85
285.09	1753.06
285.31	1748.97
285.52	1679.33
285.74	1648.61
285.95	1738.73
286.17	1724.39
286.38	1761.25
286.60	1660.90
286.81	1738.73
287.03	1730.53
287.24	1681.38
287.46	1677.29
287.67	1732.58
287.89	1794.02
288.10	1656.81
288.32	1773.54
288.53	1834.98
288.75	1716.20
288.96	1816.55
289.18	1652.71
289.39	1703.91
289.61	1658.85
289.82	1832.93
290.04	1804.26
290.25	1679.33
290.47	1744.87
290.68	1714.15
290.90	1855.46
291.11	1689.57
291.33	1794.02
291.54	1724.39
291.76	1685.48
291.97	1669.09
292.18	1806.31
292.40	1710.05
292.61	1624.04
292.83	1802.21
293.04	1730.53
293.26	1751.01
293.47	1697.77
293.69	1642.47
293.90	1681.38
294.12	1796.07
294.33	1712.10
294.55	1665.00
294.76	1722.34
294.97	1736.68
295.19	1886.18
295.40	1621.99
295.62	1748.97
295.83	1802.21
296.05	1705.96
296.26	1677.29
296.48	1669.09
296.69	1716.20
296.90	1724.39
297.12	1740.77
297.33	1812.45
297.55	1759.21
297.76	1765.35
297.98	1701.86
298.19	1761.25
298.41	1683.43
298.62	1675.24
298.83	1806.31
299.05	1728.49
299.26	1714.15
299.48	1718.25
299.69	1832.93
299.90	1697.77
300.12	1751.01
300.33	1728.49
300.55	1677.29
300.76	1755.11
300.98	1740.77
301.19	1814.50
301.40	1675.24
301.62	1779.68
301.83	1734.63
302.05	1785.83
302.26	1712.10
302.47	1718.25
302.69	1693.67
302.90	1662.95
303.12	1593.32
303.33	1726.44
303.54	1822.69
303.76	1630.18
303.97	1728.49
304.19	1814.50
304.40	1693.67
304.61	1783.78
304.83	1873.89
305.04	1753.06
305.26	1765.35
305.47	1636.33
305.68	1703.91
305.90	1665.00
306.11	1751.01
306.33	1714.15
306.54	1652.71
306.75	1681.38
306.97	1593.32
307.18	1689.57
307.39	1656.81
307.61	1800.16
307.82	1669.09
308.04	1787.88
308.25	1753.06
308.46	1722.34
308.68	1683.43
308.89	1730.53
309.10	1753.06
309.32	1755.11
309.53	1687.53
309.74	1759.21
309.96	1697.77
310.17	1740.77
310.39	1677.29
310.60	1691.62
310.81	1746.92
311.03	1634.28
311.24	1740.77
311.45	1714.15
311.67	1830.88
311.88	1769.44
312.09	1728.49
312.31	1636.33
312.52	1699.81
312.73	1675.24
312.95	1621.99
313.16	1619.94
313.37	1724.39
313.59	1791.97
313.80	1695.72
314.01	1814.50
314.23	1652.71
314.44	1716.20
314.65	1660.90
314.87	1681.38
315.08	1738.73
315.29	1675.24
315.51	1714.15
315.72	1675.24
315.93	1796.07
316.15	1773.54
316.36	1722.34
316.57	1755.11
316.79	1779.68
317.00	1755.11
317.21	1742.82
317.43	1685.48
317.64	1806.31
317.85	1652.71
318.07	1652.71
318.28	1746.92
318.49	1810.40
318.70	1902.56
318.92	1869.80
319.13	1806.31
319.34	1886.18
319.56	1828.84
319.77	1728.49
319.98	1773.54
320.20	1761.25
320.41	1828.84
320.62	1712.10
320.83	1714.15
321.05	1859.56
321.26	1730.53
321.47	1697.77
321.69	1738.73
321.90	1652.71
322.11	1669.09
322.32	1693.67
322.54	1787.88
322.75	1714.15
322.96	1828.84
323.18	1634.28
323.39	1619.94
323.60	1726.44
323.81	1748.97
324.03	1687.53
324.24	1617.90
324.45	1753.06
324.66	1693.67
324.88	1785.83
325.09	1767.40
325.30	1658.85
325.52	1812.45
325.73	1761.25
325.94	1640.42
326.15	1585.13
326.37	1675.24
326.58	1820.64
326.79	1814.50
327.00	1724.39
327.22	1746.92
327.43	1681.38
327.64	1632.23
327.85	1689.57
328.07	1753.06
328.28	1839.08
328.49	1718.25
328.70	1679.33
328.92	1689.57
329.13	1679.33
329.34	1697.77
329.55	1837.03
329.76	1849.32
329.98	1689.57
330.19	1832.93
330.40	1730.53
330.61	1712.10
330.83	1699.81
331.04	1728.49
331.25	1755.11
331.46	1699.81
331.68	1726.44
331.89	1728.49
332.10	1736.68
332.31	1648.61
332.52	1742.82
332.74	1789.92
332.95	1595.37
333.16	1728.49
333.37	1755.11
333.58	1689.57
333.80	1742.82
334.01	1619.94
334.22	1720.29
334.43	1640.42
334.64	1738.73
334.86	1621.99
335.07	1646.57
335.28	1837.03
335.49	1685.48
335.70	1740.77
335.92	1753.06
336.13	1886.18
336.34	1800.16
336.55	1718.25
336.76	1781.73
336.98	1634.28
337.19	1746.92
337.40	1857.51
337.61	1796.07
337.82	1695.72
338.04	1705.96
338.25	1673.19
338.46	1738.73
338.67	1726.44
338.88	1652.71
339.09	1685.48
339.31	1761.25
339.52	1617.90
339.73	1654.76
339.94	1660.90
340.15	1769.44
340.36	1720.29
340.58	1652.71
340.79	1662.95
341.00	1751.01
341.21	1681.38
341.42	1845.22
341.63	1708.01
341.85	1738.73
342.06	1767.40
342.27	1634.28
342.48	1740.77
342.69	1615.85
342.90	1734.63
343.12	1726.44
343.33	1681.38
343.54	1767.40
343.75	1732.58
343.96	1685.48
344.17	1640.42
344.38	1662.95
344.60	1712.10
344.81	1638.38
345.02	1667.05
345.23	1814.50
345.44	1865.70
345.65	1765.35
345.86	1708.01
346.07	1738.73
346.29	1730.53
346.50	1685.48
346.71	1720.29
346.92	1781.73
347.13	1800.16
347.34	1732.58
347.55	1689.57
347.76	1751.01
347.98	1658.85
348.19	1656.81
348.40	1775.59
348.61	1667.05
348.82	1837.03
349.03	1789.92
349.24	1673.19
349.45	1810.40
349.66	1613.80
349.88	1740.77
350.09	1689.57
350.30	1804.26
350.51	1755.11
350.72	1744.87
350.93	1771.49
351.14	1665.00
351.35	1765.35
351.56	1748.97
351.77	1689.57
351.99	1759.21
352.20	1863.65
352.41	1837.03
352.62	1599.46
352.83	1808.36
353.04	1722.34
353.25	1660.90
353.46	1708.01
353.67	1802.21
353.88	1667.05
354.09	1832.93
354.30	1712.10
354.52	1710.05
354.73	1628.14
354.94	1683.43
355.15	1738.73
355.36	1773.54
355.57	1667.05
355.78	1722.34
355.99	1667.05
356.20	1742.82
356.41	1775.59
356.62	1767.40
356.83	1710.05
357.04	1810.40
357.25	1642.47
357.46	1693.67
357.68	1677.29
357.89	1677.29
358.10	1691.62
358.31	1703.91
358.52	1705.96
358.73	1671.14
358.94	1695.72
359.15	1681.38
359.36	1751.01
359.57	1667.05
359.78	1656.81
359.99	1712.10
360.20	1591.27
360.41	1652.71
360.62	1720.29
360.83	1701.86
361.04	1800.16
361.25	1810.40
361.46	1837.03
361.67	1722.34
361.88	1791.97
362.09	1810.40
362.30	1746.92
362.51	1681.38
362.72	1740.77
362.93	1748.97
363.14	1800.16
363.35	1677.29
363.56	1601.51
363.78	1826.79
363.99	1740.77
364.20	1673.19
364.41	1714.15
364.62	1767.40
364.83	1771.49
365.04	1742.82
365.25	1732.58
365.46	1892.32
365.67	1695.72
365.88	1640.42
366.09	1665.00
366.30	1699.81
366.51	1656.81
366.72	1644.52
366.93	1744.87
367.14	1701.86
367.35	1861.60
367.56	1753.06
367.77	1863.65
367.98	1791.97
368.18	1779.68
368.39	1693.67
368.60	1654.76
368.81	1685.48
369.02	1767.40
369.23	1740.77
369.44	1636.33
369.65	1677.29
369.86	1632.23
370.07	1791.97
370.28	1675.24
370.49	1714.15
370.70	1710.05
370.91	1636.33
371.12	1583.08
371.33	1806.31
371.54	1677.29
371.75	1794.02
371.96	1585.13
372.17	1726.44
372.38	1726.44
372.59	1685.48
372.80	1677.29
373.01	1708.01
373.22	1755.11
373.43	1728.49
373.64	1679.33
373.85	1800.16
374.06	1765.35
374.26	1783.78
374.47	1644.52
374.68	1722.34
374.89	1796.07
375.10	1675.24
375.31	1906.66
375.52	1708.01
375.73	1683.43
375.94	1708.01
376.15	1736.68
376.36	1658.85
376.57	1701.86
376.78	1796.07
376.99	1669.09
377.20	1820.64
377.40	1689.57
377.61	1787.88
377.82	1607.66
378.03	1779.68
378.24	1796.07
378.45	1681.38
378.66	1734.63
378.87	1570.79
379.08	1673.19
379.29	1689.57
379.50	1771.49
379.71	1714.15
379.91	1740.77
380.12	1665.00
380.33	1746.92
380.54	1681.38
380.75	1736.68
380.96	1708.01
381.17	1771.49
381.38	1740.77
381.59	1810.40
381.80	1710.05
382.00	1839.08
382.21	1796.07
382.42	1814.50
382.63	1816.55
382.84	1781.73
383.05	1796.07
383.26	1820.64
383.47	1734.63
383.68	1767.40
383.88	1697.77
384.09	1710.05
384.30	1800.16
384.51	1728.49
384.72	1716.20
384.93	1689.57
385.14	1718.25
385.35	1757.16
385.55	1693.67
385.76	1763.30
385.97	1742.82
386.18	1757.16
386.39	1697.77
386.60	1712.10
386.81	1691.62
387.02	1718.25
387.22	1685.48
387.43	1783.78
387.64	1810.40
387.85	1834.98
388.06	2168.80
388.27	4239.30
388.48	6684.57
388.68	8069.00
388.89	9430.90
389.10	9570.16
389.31	8376.19
389.52	7427.98
389.73	6553.50
389.93	6289.31
390.14	5855.14
390.35	5064.63
390.56	4427.71
390.77	3729.35
390.98	3024.85
391.18	2492.38
391.39	2127.84
391.60	1798.12
391.81	1871.84
392.02	1753.06
392.23	1789.92
392.43	1814.50
392.64	1732.58
392.85	1677.29
393.06	1794.02
393.27	1685.48
393.47	1685.48
393.68	1789.92
393.89	1710.05
394.10	1798.12
394.31	1710.05
394.52	1697.77
394.72	1734.63
394.93	1740.77
395.14	1624.04
395.35	1738.73
395.56	1681.38
395.76	1755.11
395.97	1843.17
396.18	1757.16
396.39	1796.07
396.60	2058.21
396.80	1853.41
397.01	1830.88
397.22	1847.27
397.43	1847.27
397.64	1746.92
397.84	1824.74
398.05	1802.21
398.26	1734.63
398.47	1767.40
398.67	1763.30
398.88	1783.78
399.09	1738.73
399.30	1652.71
399.51	1738.73
399.71	1640.42
399.92	1689.57
400.13	1779.68
400.34	1687.53
400.54	1714.15
400.75	1818.60
400.96	1746.92
401.17	1763.30
401.37	1697.77
401.58	1714.15
401.79	1773.54
402.00	1796.07
402.21	1834.98
402.41	2033.63
402.62	1980.39
402.83	2041.82
403.04	2000.87
403.24	2060.26
403.45	1873.89
403.66	1953.76
403.87	1914.85
404.07	2000.87
404.28	1923.04
404.49	1882.08
404.70	1773.54
404.90	1705.96
405.11	1726.44
405.32	1800.16
405.52	1691.62
405.73	1697.77
405.94	1767.40
406.15	1724.39
406.35	1746.92
406.56	1728.49
406.77	1726.44
406.98	1691.62
407.18	1691.62
407.39	1791.97
407.60	1685.48
407.80	1839.08
408.01	1685.48
408.22	1728.49
408.43	1693.67
408.63	1693.67
408.84	1738.73
409.05	1732.58
409.25	1654.76
409.46	1665.00
409.67	1746.92
409.88	1710.05
410.08	1734.63
410.29	1675.24
410.50	1761.25
410.70	1773.54
410.91	1658.85
411.12	1665.00
411.32	1742.82
411.53	1724.39
411.74	1798.12
411.95	1773.54
412.15	1759.21
412.36	1748.97
412.57	1771.49
412.77	1798.12
412.98	1695.72
413.19	1730.53
413.39	1732.58
413.60	1730.53
413.81	1832.93
414.01	1673.19
414.22	1742.82
414.43	1826.79
414.63	1703.91
414.84	1814.50
415.05	1728.49
415.25	1603.56
415.46	1777.64
415.67	1722.34
415.87	1734.63
416.08	1724.39
416.29	1662.95
416.49	1830.88
416.70	1710.05
416.91	1671.14
417.11	1722.34
417.32	1726.44
417.53	1763.30
417.73	1742.82
417.94	1738.73
418.15	1746.92
418.35	1738.73
418.56	1824.74
418.77	1863.65
418.97	1734.63
419.18	1675.24
419.38	1599.46
419.59	1746.92
419.80	1845.22
420.00	1689.57
420.21	1718.25
420.42	1734.63
420.62	1714.15
420.83	1671.14
421.04	1781.73
421.24	1726.44
421.45	1771.49
421.65	1783.78
421.86	1691.62
422.07	1736.68
422.27	1794.02
422.48	1695.72
422.69	1683.43
422.89	1710.05
423.10	1701.86
423.30	1648.61
423.51	1738.73
423.72	1691.62
423.92	1779.68
424.13	1642.47
424.33	1796.07
424.54	1742.82
424.75	1632.23
424.95	1828.84
425.16	1761.25
425.36	1763.30
425.57	1738.73
425.78	1738.73
425.98	1808.36
426.19	1771.49
426.39	1685.48
426.60	1701.86
426.81	1818.60
427.01	1695.72
427.22	1708.01
427.42	1648.61
427.63	1710.05
427.83	1736.68
428.04	1775.59
428.25	1728.49
428.45	1857.51
428.66	1734.63
428.86	1718.25
429.07	1779.68
429.28	1675.24
429.48	1705.96
429.69	1662.95
429.89	1751.01
430.10	1667.05
430.30	1705.96
430.51	1804.26
430.71	1677.29
430.92	1740.77
431.13	1648.61
431.33	1757.16
431.54	1732.58
431.74	1828.84
431.95	1896.42
432.15	1738.73
432.36	1755.11
432.56	1722.34
432.77	1794.02
432.98	1810.40
433.18	1742.82
433.39	1730.53
433.59	1718.25
433.80	1787.88
434.00	1890.28
434.21	1705.96
434.41	1724.39
434.62	1796.07
434.82	1665.00
435.03	1683.43
435.23	1773.54
435.44	1648.61
435.64	1740.77
435.85	1796.07
436.06	1787.88
436.26	1800.16
436.47	1691.62
436.67	1726.44
436.88	1695.72
437.08	1789.92
437.29	1832.93
437.49	1791.97
437.70	1826.79
437.90	1634.28
438.11	1828.84
438.31	1763.30
438.52	1822.69
438.72	1871.84
438.93	1968.10
439.13	1800.16
439.34	1841.12
439.54	1738.73
439.75	1742.82
439.95	1705.96
440.16	1785.83
440.36	1812.45
440.57	1808.36
440.77	1791.97
440.98	1740.77
441.18	1769.44
441.39	1712.10
441.59	1742.82
441.80	1849.32
442.00	1806.31
442.21	1839.08
442.41	1665.00
442.62	1820.64
442.82	1732.58
443.02	1757.16
443.23	1773.54
443.43	1722.34
443.64	1841.12
443.84	1665.00
444.05	1757.16
444.25	1716.20
444.46	1726.44
444.66	1677.29
444.87	1812.45
445.07	1607.66
445.28	1769.44
445.48	1808.36
445.69	1857.51
445.89	1943.52
446.09	1714.15
446.30	2062.30
446.50	2607.06
446.71	3712.97
446.91	4175.81
447.12	4612.03
447.32	4806.58
447.53	4263.87
447.73	3788.74
447.93	3563.47
448.14	3221.45
448.34	3198.93
448.55	2838.48
448.75	2787.29
448.96	2709.46
449.16	2426.84
449.36	2293.72
449.57	2017.25
449.77	1886.18
449.98	1781.73
450.18	1904.61
450.39	1787.88
450.59	1716.20
450.79	1746.92
451.00	1726.44
451.20	1804.26
451.41	1695.72
451.61	1867.75
451.81	1726.44
452.02	1705.96
452.22	1693.67
452.43	1730.53
452.63	1679.33
