SpectraSuite Data File
++++++++++++++++++++++++++++++++++++
Date: Mon Jun 06 15:28:17 CEST 2016
User: root
Dark Spectrum Present: No
Reference Spectrum Present: No
Number of Sampled Component Spectra: 1
Spectrometers: USB4C02835
Integration Time (usec): 100000 (USB4C02835)
Spectra Averaged: 1 (USB4C02835)
Boxcar Smoothing: 0 (USB4C02835)
Correct for Electrical Dark: No (USB4C02835)
Strobe/Lamp Enabled: No (USB4C02835)
Correct for Detector Non-linearity: No (USB4C02835)
Correct for Stray Light: No (USB4C02835)
Number of Pixels in Processed Spectrum: 3648
>>>>>Begin Processed Spectral Data<<<<<
177.47	1507.30
177.69	1507.30
177.91	1507.30
178.13	1478.63
178.36	1454.06
178.58	1644.52
178.80	1738.73
179.02	1667.05
179.24	1683.43
179.46	1718.25
179.68	1703.91
179.90	1718.25
180.13	1740.77
180.35	1687.53
180.57	1755.11
180.79	1691.62
181.01	1722.34
181.23	1789.92
181.45	1738.73
181.67	1751.01
181.90	1742.82
182.12	1689.57
182.34	1652.71
182.56	1685.48
182.78	1667.05
183.00	1726.44
183.22	1699.81
183.44	1617.90
183.66	1822.69
183.89	1787.88
184.11	1638.38
184.33	1794.02
184.55	1748.97
184.77	1728.49
184.99	1787.88
185.21	1636.33
185.43	1847.27
185.65	1671.14
185.87	1738.73
186.10	1841.12
186.32	1806.31
186.54	1662.95
186.76	1748.97
186.98	1724.39
187.20	1665.00
187.42	1771.49
187.64	1722.34
187.86	1748.97
188.08	1726.44
188.30	1699.81
188.52	1726.44
188.75	1841.12
188.97	1880.04
189.19	1658.85
189.41	1703.91
189.63	1710.05
189.85	1748.97
190.07	1669.09
190.29	1648.61
190.51	1687.53
190.73	1626.09
190.95	1804.26
191.17	1681.38
191.39	1613.80
191.61	1748.97
191.84	1617.90
192.06	1751.01
192.28	1595.37
192.50	2002.91
192.72	1781.73
192.94	1654.76
193.16	1763.30
193.38	1783.78
193.60	1648.61
193.82	1689.57
194.04	1744.87
194.26	1794.02
194.48	1724.39
194.70	1689.57
194.92	1697.77
195.14	1763.30
195.36	1712.10
195.58	1771.49
195.80	1714.15
196.02	1652.71
196.24	1675.24
196.46	1710.05
196.69	1736.68
196.91	1871.84
197.13	1722.34
197.35	1679.33
197.57	1755.11
197.79	1808.36
198.01	1710.05
198.23	1695.72
198.45	1681.38
198.67	1652.71
198.89	1722.34
199.11	1716.20
199.33	1656.81
199.55	1523.69
199.77	1783.78
199.99	1761.25
200.21	1640.42
200.43	1730.53
200.65	1677.29
200.87	1572.84
201.09	1677.29
201.31	1640.42
201.53	1742.82
201.75	1722.34
201.97	1730.53
202.19	1773.54
202.41	1720.29
202.63	1912.80
202.85	1785.83
203.07	1683.43
203.29	1769.44
203.51	1613.80
203.73	1767.40
203.95	1912.80
204.17	1798.12
204.39	1794.02
204.61	1744.87
204.83	1681.38
205.05	1794.02
205.27	1773.54
205.49	1892.32
205.71	1804.26
205.93	1677.29
206.15	1617.90
206.37	1716.20
206.59	1726.44
206.81	1607.66
207.03	1665.00
207.25	1601.51
207.47	1710.05
207.69	1673.19
207.91	1744.87
208.13	1744.87
208.34	1716.20
208.56	1603.56
208.78	1800.16
209.00	1677.29
209.22	1662.95
209.44	1599.46
209.66	1669.09
209.88	1732.58
210.10	1685.48
210.32	1665.00
210.54	1746.92
210.76	1679.33
210.98	1738.73
211.20	1626.09
211.42	1667.05
211.64	1843.17
211.86	1669.09
212.08	1783.78
212.30	1681.38
212.52	1712.10
212.74	1722.34
212.96	1714.15
213.17	1753.06
213.39	1763.30
213.61	1742.82
213.83	1738.73
214.05	1609.70
214.27	1781.73
214.49	1689.57
214.71	1603.56
214.93	1742.82
215.15	1781.73
215.37	1718.25
215.59	1626.09
215.81	1703.91
216.03	1763.30
216.24	1714.15
216.46	1652.71
216.68	1703.91
216.90	1794.02
217.12	1775.59
217.34	1728.49
217.56	1730.53
217.78	1798.12
218.00	1761.25
218.22	1785.83
218.44	1705.96
218.66	1669.09
218.87	1775.59
219.09	1712.10
219.31	1736.68
219.53	1742.82
219.75	1671.14
219.97	1730.53
220.19	1751.01
220.41	1689.57
220.63	1783.78
220.85	1697.77
221.06	1667.05
221.28	1775.59
221.50	1689.57
221.72	1705.96
221.94	1691.62
222.16	1693.67
222.38	1783.78
222.60	1767.40
222.82	1624.04
223.03	1738.73
223.25	1654.76
223.47	1744.87
223.69	1785.83
223.91	1779.68
224.13	1710.05
224.35	1699.81
224.57	1748.97
224.78	1689.57
225.00	1640.42
225.22	1687.53
225.44	1779.68
225.66	1800.16
225.88	1658.85
226.10	1673.19
226.32	1689.57
226.53	1796.07
226.75	1644.52
226.97	1669.09
227.19	1730.53
227.41	1619.94
227.63	1656.81
227.85	1621.99
228.06	1685.48
228.28	1759.21
228.50	1789.92
228.72	1685.48
228.94	1634.28
229.16	1621.99
229.37	1685.48
229.59	1621.99
229.81	1673.19
230.03	1796.07
230.25	1660.90
230.47	1611.75
230.69	1669.09
230.90	1816.55
231.12	1740.77
231.34	1671.14
231.56	1728.49
231.78	1728.49
232.00	1681.38
232.21	1744.87
232.43	1691.62
232.65	1581.03
232.87	1728.49
233.09	1681.38
233.30	1601.51
233.52	1726.44
233.74	1740.77
233.96	1708.01
234.18	1783.78
234.40	1607.66
234.61	1738.73
234.83	1630.18
235.05	1638.38
235.27	1957.86
235.49	1853.41
235.70	1742.82
235.92	1783.78
236.14	1697.77
236.36	1816.55
236.58	1705.96
236.79	1781.73
237.01	1722.34
237.23	1687.53
237.45	1832.93
237.67	1650.66
237.88	1714.15
238.10	1888.23
238.32	1662.95
238.54	1730.53
238.76	1783.78
238.97	1630.18
239.19	1701.86
239.41	1820.64
239.63	1802.21
239.85	1714.15
240.06	1701.86
240.28	1755.11
240.50	1736.68
240.72	1705.96
240.93	1697.77
241.15	1798.12
241.37	1708.01
241.59	1830.88
241.81	1687.53
242.02	1722.34
242.24	1761.25
242.46	1753.06
242.68	1724.39
242.89	1714.15
243.11	1734.63
243.33	1806.31
243.55	1705.96
243.76	1800.16
243.98	1677.29
244.20	1734.63
244.42	1667.05
244.64	1800.16
244.85	1650.66
245.07	1724.39
245.29	1744.87
245.51	1777.64
245.72	1820.64
245.94	1771.49
246.16	1730.53
246.38	1804.26
246.59	1646.57
246.81	1683.43
247.03	1681.38
247.24	1638.38
247.46	1697.77
247.68	1714.15
247.90	1724.39
248.11	1769.44
248.33	1839.08
248.55	1728.49
248.77	1669.09
248.98	1804.26
249.20	1800.16
249.42	1746.92
249.64	1720.29
249.85	1742.82
250.07	1730.53
250.29	1728.49
250.50	1810.40
250.72	1593.32
250.94	1728.49
251.16	1812.45
251.37	1767.40
251.59	1734.63
251.81	1808.36
252.02	1814.50
252.24	1730.53
252.46	1701.86
252.68	1695.72
252.89	1646.57
253.11	1665.00
253.33	1834.98
253.54	1794.02
253.76	1687.53
253.98	1611.75
254.20	1738.73
254.41	1595.37
254.63	1730.53
254.85	1593.32
255.06	1767.40
255.28	1777.64
255.50	1751.01
255.71	1740.77
255.93	1679.33
256.15	1708.01
256.36	1753.06
256.58	1693.67
256.80	1796.07
257.02	1820.64
257.23	1771.49
257.45	1712.10
257.67	1806.31
257.88	1656.81
258.10	1720.29
258.32	1705.96
258.53	1740.77
258.75	1767.40
258.97	1783.78
259.18	1640.42
259.40	1712.10
259.62	1824.74
259.83	1761.25
260.05	1695.72
260.27	1951.71
260.48	1759.21
260.70	1718.25
260.92	1724.39
261.13	1730.53
261.35	1695.72
261.57	1662.95
261.78	1630.18
262.00	1675.24
262.22	1724.39
262.43	1703.91
262.65	1785.83
262.86	1648.61
263.08	1851.36
263.30	1650.66
263.51	1613.80
263.73	1691.62
263.95	1810.40
264.16	1652.71
264.38	1572.84
264.60	1773.54
264.81	1687.53
265.03	1757.16
265.25	1796.07
265.46	1665.00
265.68	1759.21
265.89	1806.31
266.11	1685.48
266.33	1804.26
266.54	1826.79
266.76	1744.87
266.98	1722.34
267.19	1742.82
267.41	1691.62
267.62	1695.72
267.84	1617.90
268.06	1763.30
268.27	1732.58
268.49	1806.31
268.70	1800.16
268.92	1699.81
269.14	1652.71
269.35	1558.50
269.57	1673.19
269.79	1740.77
270.00	1685.48
270.22	1779.68
270.43	1703.91
270.65	1605.61
270.87	1748.97
271.08	1693.67
271.30	1720.29
271.51	1665.00
271.73	1771.49
271.95	1738.73
272.16	1746.92
272.38	1669.09
272.59	1697.77
272.81	1689.57
273.02	1716.20
273.24	1748.97
273.46	1716.20
273.67	1660.90
273.89	1656.81
274.10	1693.67
274.32	1740.77
274.54	1781.73
274.75	1738.73
274.97	1759.21
275.18	1763.30
275.40	1759.21
275.61	1771.49
275.83	1761.25
276.05	1714.15
276.26	1748.97
276.48	1763.30
276.69	1724.39
276.91	1777.64
277.12	1751.01
277.34	1791.97
277.55	1830.88
277.77	1789.92
277.99	1697.77
278.20	1671.14
278.42	1677.29
278.63	1683.43
278.85	1685.48
279.06	1669.09
279.28	1714.15
279.49	1738.73
279.71	1701.86
279.93	1726.44
280.14	1705.96
280.36	1642.47
280.57	1783.78
280.79	1800.16
281.00	1591.27
281.22	1761.25
281.43	1753.06
281.65	1572.84
281.86	1691.62
282.08	1673.19
282.29	1845.22
282.51	1638.38
282.73	1677.29
282.94	1636.33
283.16	1763.30
283.37	1771.49
283.59	1683.43
283.80	1697.77
284.02	1738.73
284.23	1779.68
284.45	1722.34
284.66	1677.29
284.88	1685.48
285.09	1675.24
285.31	1679.33
285.52	1714.15
285.74	1689.57
285.95	1671.14
286.17	1769.44
286.38	1849.32
286.60	1691.62
286.81	1685.48
287.03	1675.24
287.24	1703.91
287.46	1751.01
287.67	1701.86
287.89	1896.42
288.10	1767.40
288.32	1740.77
288.53	1839.08
288.75	1787.88
288.96	1748.97
289.18	1703.91
289.39	1675.24
289.61	1804.26
289.82	1886.18
290.04	1834.98
290.25	1642.47
290.47	1722.34
290.68	1669.09
290.90	1798.12
291.11	1654.76
291.33	1789.92
291.54	1591.27
291.76	1714.15
291.97	1763.30
292.18	1738.73
292.40	1732.58
292.61	1654.76
292.83	1888.23
293.04	1716.20
293.26	1695.72
293.47	1679.33
293.69	1642.47
293.90	1667.05
294.12	1736.68
294.33	1724.39
294.55	1730.53
294.76	1802.21
294.97	1732.58
295.19	1832.93
295.40	1656.81
295.62	1681.38
295.83	1779.68
296.05	1695.72
296.26	1753.06
296.48	1669.09
296.69	1746.92
296.90	1697.77
297.12	1757.16
297.33	1748.97
297.55	1679.33
297.76	1783.78
297.98	1763.30
298.19	1746.92
298.41	1724.39
298.62	1628.14
298.83	1794.02
299.05	1732.58
299.26	1689.57
299.48	1701.86
299.69	1794.02
299.90	1763.30
300.12	1769.44
300.33	1804.26
300.55	1761.25
300.76	1746.92
300.98	1667.05
301.19	1781.73
301.40	1658.85
301.62	1665.00
301.83	1773.54
302.05	1687.53
302.26	1746.92
302.47	1665.00
302.69	1646.57
302.90	1710.05
303.12	1566.70
303.33	1802.21
303.54	1800.16
303.76	1730.53
303.97	1722.34
304.19	1843.17
304.40	1730.53
304.61	1783.78
304.83	1873.89
305.04	1748.97
305.26	1665.00
305.47	1712.10
305.68	1724.39
305.90	1652.71
306.11	1796.07
306.33	1699.81
306.54	1679.33
306.75	1640.42
306.97	1632.23
307.18	1734.63
307.39	1763.30
307.61	1767.40
307.82	1681.38
308.04	1751.01
308.25	1701.86
308.46	1646.57
308.68	1755.11
308.89	1660.90
309.10	1740.77
309.32	1708.01
309.53	1714.15
309.74	1689.57
309.96	1687.53
310.17	1712.10
310.39	1720.29
310.60	1712.10
310.81	1765.35
311.03	1636.33
311.24	1724.39
311.45	1708.01
311.67	1812.45
311.88	1736.68
312.09	1681.38
312.31	1697.77
312.52	1654.76
312.73	1697.77
312.95	1681.38
313.16	1658.85
313.37	1742.82
313.59	1777.64
313.80	1730.53
314.01	1763.30
314.23	1722.34
314.44	1662.95
314.65	1646.57
314.87	1712.10
315.08	1673.19
315.29	1630.18
315.51	1671.14
315.72	1744.87
315.93	1773.54
316.15	1751.01
316.36	1656.81
316.57	1701.86
316.79	1689.57
317.00	1705.96
317.21	1697.77
317.43	1728.49
317.64	1759.21
317.85	1724.39
318.07	1775.59
318.28	1677.29
318.49	1773.54
318.70	1877.99
318.92	1804.26
319.13	1855.46
319.34	1816.55
319.56	1857.51
319.77	1810.40
319.98	1806.31
320.20	1748.97
320.41	1812.45
320.62	1697.77
320.83	1665.00
321.05	1791.97
321.26	1771.49
321.47	1710.05
321.69	1722.34
321.90	1628.14
322.11	1660.90
322.32	1726.44
322.54	1761.25
322.75	1703.91
322.96	1787.88
323.18	1673.19
323.39	1624.04
323.60	1603.56
323.81	1746.92
324.03	1654.76
324.24	1675.24
324.45	1685.48
324.66	1746.92
324.88	1843.17
325.09	1697.77
325.30	1775.59
325.52	1724.39
325.73	1837.03
325.94	1640.42
326.15	1632.23
326.37	1675.24
326.58	1808.36
326.79	1796.07
327.00	1611.75
327.22	1744.87
327.43	1642.47
327.64	1683.43
327.85	1783.78
328.07	1654.76
328.28	1789.92
328.49	1638.38
328.70	1710.05
328.92	1687.53
329.13	1669.09
329.34	1757.16
329.55	1757.16
329.76	1769.44
329.98	1734.63
330.19	1746.92
330.40	1767.40
330.61	1714.15
330.83	1789.92
331.04	1683.43
331.25	1734.63
331.46	1728.49
331.68	1683.43
331.89	1738.73
332.10	1693.67
332.31	1644.52
332.52	1697.77
332.74	1736.68
332.95	1603.56
333.16	1722.34
333.37	1714.15
333.58	1736.68
333.80	1767.40
334.01	1648.61
334.22	1722.34
334.43	1705.96
334.64	1744.87
334.86	1685.48
335.07	1603.56
335.28	1765.35
335.49	1593.32
335.70	1671.14
335.92	1708.01
336.13	1861.60
336.34	1669.09
336.55	1660.90
336.76	1742.82
336.98	1619.94
337.19	1708.01
337.40	1828.84
337.61	1916.90
337.82	1640.42
338.04	1720.29
338.25	1660.90
338.46	1703.91
338.67	1705.96
338.88	1628.14
339.09	1605.61
339.31	1665.00
339.52	1640.42
339.73	1652.71
339.94	1740.77
340.15	1773.54
340.36	1744.87
340.58	1773.54
340.79	1691.62
341.00	1722.34
341.21	1679.33
341.42	1839.08
341.63	1646.57
341.85	1712.10
342.06	1759.21
342.27	1654.76
342.48	1734.63
342.69	1679.33
342.90	1638.38
343.12	1791.97
343.33	1716.20
343.54	1695.72
343.75	1771.49
343.96	1728.49
344.17	1662.95
344.38	1734.63
344.60	1630.18
344.81	1679.33
345.02	1705.96
345.23	1810.40
345.44	1794.02
345.65	1796.07
345.86	1718.25
346.07	1759.21
346.29	1691.62
346.50	1738.73
346.71	1730.53
346.92	1834.98
347.13	1869.80
347.34	1658.85
347.55	1708.01
347.76	1753.06
347.98	1660.90
348.19	1669.09
348.40	1845.22
348.61	1626.09
348.82	1886.18
349.03	1822.69
349.24	1710.05
349.45	1855.46
349.66	1630.18
349.88	1701.86
350.09	1628.14
350.30	1806.31
350.51	1744.87
350.72	1683.43
350.93	1755.11
351.14	1675.24
351.35	1730.53
351.56	1697.77
351.77	1755.11
351.99	1744.87
352.20	1820.64
352.41	1775.59
352.62	1634.28
352.83	1687.53
353.04	1675.24
353.25	1650.66
353.46	1742.82
353.67	1775.59
353.88	1632.23
354.09	1787.88
354.30	1732.58
354.52	1773.54
354.73	1730.53
354.94	1714.15
355.15	1710.05
355.36	1773.54
355.57	1656.81
355.78	1767.40
355.99	1648.61
356.20	1699.81
356.41	1806.31
356.62	1716.20
356.83	1765.35
357.04	1740.77
357.25	1650.66
357.46	1734.63
357.68	1697.77
357.89	1628.14
358.10	1697.77
358.31	1669.09
358.52	1761.25
358.73	1695.72
358.94	1673.19
359.15	1701.86
359.36	1789.92
359.57	1779.68
359.78	1652.71
359.99	1804.26
360.20	1695.72
360.41	1720.29
360.62	1800.16
360.83	1718.25
361.04	1781.73
361.25	1710.05
361.46	1744.87
361.67	1767.40
361.88	1783.78
362.09	1753.06
362.30	1787.88
362.51	1589.22
362.72	1677.29
362.93	1791.97
363.14	1796.07
363.35	1740.77
363.56	1673.19
363.78	1738.73
363.99	1740.77
364.20	1751.01
364.41	1779.68
364.62	1839.08
364.83	1695.72
365.04	1634.28
365.25	1671.14
365.46	1824.74
365.67	1708.01
365.88	1691.62
366.09	1675.24
366.30	1708.01
366.51	1650.66
366.72	1603.56
366.93	1716.20
367.14	1716.20
367.35	1810.40
367.56	1781.73
367.77	1738.73
367.98	1730.53
368.18	1757.16
368.39	1654.76
368.60	1634.28
368.81	1783.78
369.02	1738.73
369.23	1738.73
369.44	1705.96
369.65	1746.92
369.86	1812.45
370.07	1777.64
370.28	1703.91
370.49	1822.69
370.70	1720.29
370.91	1687.53
371.12	1667.05
371.33	1841.12
371.54	1699.81
371.75	1808.36
371.96	1550.31
372.17	1763.30
372.38	1746.92
372.59	1767.40
372.80	1658.85
373.01	1759.21
373.22	1693.67
373.43	1665.00
373.64	1742.82
373.85	1703.91
374.06	1843.17
374.26	1787.88
374.47	1726.44
374.68	1777.64
374.89	1675.24
375.10	1652.71
375.31	1746.92
375.52	1720.29
375.73	1705.96
375.94	1611.75
376.15	1785.83
376.36	1679.33
376.57	1685.48
376.78	1615.85
376.99	1742.82
377.20	1779.68
377.40	1695.72
377.61	1802.21
377.82	1697.77
378.03	1791.97
378.24	1751.01
378.45	1748.97
378.66	1730.53
378.87	1626.09
379.08	1632.23
379.29	1685.48
379.50	1740.77
379.71	1650.66
379.91	1732.58
380.12	1658.85
380.33	1689.57
380.54	1773.54
380.75	1722.34
380.96	1646.57
381.17	1738.73
381.38	1736.68
381.59	1767.40
381.80	1773.54
382.00	1861.60
382.21	1736.68
382.42	1902.56
382.63	1894.37
382.84	1720.29
383.05	1808.36
383.26	1789.92
383.47	1726.44
383.68	1746.92
383.88	1779.68
384.09	1689.57
384.30	1822.69
384.51	1675.24
384.72	1646.57
384.93	1701.86
385.14	1738.73
385.35	1761.25
385.55	1679.33
385.76	1732.58
385.97	1722.34
386.18	1679.33
386.39	1675.24
386.60	1773.54
386.81	1665.00
387.02	1656.81
387.22	1724.39
387.43	1771.49
387.64	1886.18
387.85	1867.75
388.06	2119.65
388.27	4081.60
388.48	6522.78
388.68	8028.04
388.89	9303.92
389.10	9557.87
389.31	8284.03
389.52	7362.45
389.73	6539.16
389.93	5975.97
390.14	5713.83
390.35	5124.02
390.56	4480.96
390.77	3839.94
390.98	2969.55
391.18	2426.84
391.39	2090.98
391.60	1841.12
391.81	1951.71
392.02	1648.61
392.23	1830.88
392.43	1771.49
392.64	1763.30
392.85	1763.30
393.06	1824.74
393.27	1695.72
393.47	1722.34
393.68	1720.29
393.89	1728.49
394.10	1834.98
394.31	1675.24
394.52	1669.09
394.72	1695.72
394.93	1822.69
395.14	1640.42
395.35	1722.34
395.56	1638.38
395.76	1712.10
395.97	1822.69
396.18	1857.51
396.39	1804.26
396.60	2025.44
396.80	1839.08
397.01	1798.12
397.22	1832.93
397.43	1855.46
397.64	1746.92
397.84	1873.89
398.05	1884.13
398.26	1789.92
398.47	1767.40
398.67	1841.12
398.88	1787.88
399.09	1806.31
399.30	1703.91
399.51	1714.15
399.71	1662.95
399.92	1716.20
400.13	1701.86
400.34	1705.96
400.54	1642.47
400.75	1810.40
400.96	1800.16
401.17	1746.92
401.37	1753.06
401.58	1708.01
401.79	1703.91
402.00	1824.74
402.21	2027.49
402.41	1927.14
402.62	1961.95
402.83	1949.67
403.04	1964.00
403.24	2074.59
403.45	1787.88
403.66	1912.80
403.87	1812.45
404.07	1906.66
404.28	1916.90
404.49	1884.13
404.70	1757.16
404.90	1837.03
405.11	1777.64
405.32	1779.68
405.52	1650.66
405.73	1689.57
405.94	1699.81
406.15	1708.01
406.35	1777.64
406.56	1798.12
406.77	1705.96
406.98	1771.49
407.18	1660.90
407.39	1812.45
407.60	1724.39
407.80	1755.11
408.01	1638.38
408.22	1759.21
408.43	1742.82
408.63	1699.81
408.84	1738.73
409.05	1755.11
409.25	1605.61
409.46	1632.23
409.67	1730.53
409.88	1679.33
410.08	1732.58
410.29	1689.57
410.50	1744.87
410.70	1724.39
410.91	1648.61
411.12	1773.54
411.32	1722.34
411.53	1597.42
411.74	1820.64
411.95	1779.68
412.15	1748.97
412.36	1763.30
412.57	1798.12
412.77	1871.84
412.98	1746.92
413.19	1761.25
413.39	1734.63
413.60	1769.44
413.81	1806.31
414.01	1710.05
414.22	1732.58
414.43	1794.02
414.63	1769.44
414.84	1853.41
415.05	1757.16
415.25	1652.71
415.46	1759.21
415.67	1656.81
415.87	1742.82
416.08	1726.44
416.29	1673.19
416.49	1699.81
416.70	1675.24
416.91	1691.62
417.11	1679.33
417.32	1798.12
417.53	1695.72
417.73	1765.35
417.94	1716.20
418.15	1718.25
418.35	1693.67
418.56	1705.96
418.77	1886.18
418.97	1646.57
419.18	1691.62
419.38	1576.94
419.59	1677.29
419.80	1800.16
420.00	1693.67
420.21	1759.21
420.42	1751.01
420.62	1730.53
420.83	1744.87
421.04	1710.05
421.24	1607.66
421.45	1791.97
421.65	1765.35
421.86	1669.09
422.07	1746.92
422.27	1767.40
422.48	1767.40
422.69	1685.48
422.89	1699.81
423.10	1677.29
423.30	1599.46
423.51	1783.78
423.72	1632.23
423.92	1773.54
424.13	1632.23
424.33	1738.73
424.54	1814.50
424.75	1755.11
424.95	1810.40
425.16	1771.49
425.36	1665.00
425.57	1800.16
425.78	1736.68
425.98	1781.73
426.19	1703.91
426.39	1644.52
426.60	1779.68
426.81	1869.80
427.01	1722.34
427.22	1632.23
427.42	1701.86
427.63	1687.53
427.83	1791.97
428.04	1843.17
428.25	1761.25
428.45	1763.30
428.66	1771.49
428.86	1716.20
429.07	1656.81
429.28	1771.49
429.48	1650.66
429.69	1681.38
429.89	1660.90
430.10	1689.57
430.30	1810.40
430.51	1806.31
430.71	1675.24
430.92	1748.97
431.13	1718.25
431.33	1765.35
431.54	1669.09
431.74	1832.93
431.95	1820.64
432.15	1658.85
432.36	1769.44
432.56	1746.92
432.77	1873.89
432.98	1855.46
433.18	1767.40
433.39	1658.85
433.59	1677.29
433.80	1773.54
434.00	1859.56
434.21	1652.71
434.41	1683.43
434.62	1929.19
434.82	1603.56
435.03	1619.94
435.23	1658.85
435.44	1669.09
435.64	1783.78
435.85	1699.81
436.06	1763.30
436.26	1781.73
436.47	1705.96
436.67	1697.77
436.88	1779.68
437.08	1734.63
437.29	1800.16
437.49	1787.88
437.70	1740.77
437.90	1726.44
438.11	1800.16
438.31	1765.35
438.52	1861.60
438.72	1890.28
438.93	1908.71
439.13	1812.45
439.34	1847.27
439.54	1720.29
439.75	1812.45
439.95	1675.24
440.16	1679.33
440.36	1724.39
440.57	1814.50
440.77	1753.06
440.98	1734.63
441.18	1763.30
441.39	1673.19
441.59	1683.43
441.80	1902.56
442.00	1730.53
442.21	1783.78
442.41	1689.57
442.62	1828.84
442.82	1738.73
443.02	1665.00
443.23	1755.11
443.43	1677.29
443.64	1837.03
443.84	1671.14
444.05	1810.40
444.25	1665.00
444.46	1632.23
444.66	1759.21
444.87	1837.03
445.07	1679.33
445.28	1726.44
445.48	1765.35
445.69	1714.15
445.89	1849.32
446.09	1738.73
446.30	2017.25
446.50	2639.83
446.71	3758.02
446.91	4124.61
447.12	4822.97
447.32	4767.67
447.53	4227.01
447.73	3833.80
447.93	3434.44
448.14	3327.95
448.34	3200.98
448.55	2926.55
448.75	2783.19
448.96	2607.06
449.16	2484.19
449.36	2303.96
449.57	2066.40
449.77	2009.06
449.98	1724.39
450.18	1777.64
450.39	1826.79
450.59	1755.11
450.79	1796.07
451.00	1671.14
451.20	1796.07
451.41	1701.86
451.61	1773.54
451.81	1724.39
452.02	1816.55
452.22	1712.10
452.43	1734.63
452.63	1722.34
