SpectraSuite Data File
++++++++++++++++++++++++++++++++++++
Date: Mon Jun 06 12:52:37 CEST 2016
User: root
Dark Spectrum Present: No
Reference Spectrum Present: No
Number of Sampled Component Spectra: 1
Spectrometers: USB4C02835
Integration Time (usec): 100000 (USB4C02835)
Spectra Averaged: 1 (USB4C02835)
Boxcar Smoothing: 0 (USB4C02835)
Correct for Electrical Dark: No (USB4C02835)
Strobe/Lamp Enabled: No (USB4C02835)
Correct for Detector Non-linearity: No (USB4C02835)
Correct for Stray Light: No (USB4C02835)
Number of Pixels in Processed Spectrum: 3648
>>>>>Begin Processed Spectral Data<<<<<
177.47	1464.30
177.69	1464.30
177.91	1464.30
178.13	1439.72
178.36	1398.76
178.58	1605.61
178.80	1705.96
179.02	1615.85
179.24	1632.23
179.46	1708.01
179.68	1789.92
179.90	1701.86
180.13	1638.38
180.35	1638.38
180.57	1703.91
180.79	1638.38
181.01	1730.53
181.23	1779.68
181.45	1783.78
181.67	1710.05
181.90	1755.11
182.12	1681.38
182.34	1550.31
182.56	1802.21
182.78	1724.39
183.00	1710.05
183.22	1726.44
183.44	1673.19
183.66	1904.61
183.89	1802.21
184.11	1714.15
184.33	1722.34
184.55	1783.78
184.77	1714.15
184.99	1714.15
185.21	1724.39
185.43	1796.07
185.65	1689.57
185.87	1708.01
186.10	1871.84
186.32	1832.93
186.54	1734.63
186.76	1718.25
186.98	1755.11
187.20	1708.01
187.42	1677.29
187.64	1617.90
187.86	1630.18
188.08	1705.96
188.30	1644.52
188.52	1642.47
188.75	1804.26
188.97	1812.45
189.19	1726.44
189.41	1685.48
189.63	1662.95
189.85	1597.42
190.07	1632.23
190.29	1632.23
190.51	1724.39
190.73	1679.33
190.95	1746.92
191.17	1669.09
191.39	1660.90
191.61	1722.34
191.84	1656.81
192.06	1677.29
192.28	1601.51
192.50	1869.80
192.72	1767.40
192.94	1714.15
193.16	1816.55
193.38	1755.11
193.60	1636.33
193.82	1644.52
194.04	1794.02
194.26	1689.57
194.48	1767.40
194.70	1708.01
194.92	1718.25
195.14	1716.20
195.36	1738.73
195.58	1691.62
195.80	1691.62
196.02	1681.38
196.24	1738.73
196.46	1675.24
196.69	1609.70
196.91	1814.50
197.13	1587.18
197.35	1732.58
197.57	1841.12
197.79	1843.17
198.01	1789.92
198.23	1718.25
198.45	1794.02
198.67	1634.28
198.89	1716.20
199.11	1697.77
199.33	1624.04
199.55	1601.51
199.77	1722.34
199.99	1773.54
200.21	1679.33
200.43	1667.05
200.65	1574.89
200.87	1527.78
201.09	1718.25
201.31	1708.01
201.53	1669.09
201.75	1695.72
201.97	1683.43
202.19	1716.20
202.41	1730.53
202.63	1873.89
202.85	1738.73
203.07	1734.63
203.29	1669.09
203.51	1748.97
203.73	1650.66
203.95	1826.79
204.17	1617.90
204.39	1787.88
204.61	1701.86
204.83	1619.94
205.05	1662.95
205.27	1734.63
205.49	1796.07
205.71	1746.92
205.93	1669.09
206.15	1650.66
206.37	1736.68
206.59	1724.39
206.81	1621.99
207.03	1634.28
207.25	1638.38
207.47	1730.53
207.69	1683.43
207.91	1869.80
208.13	1689.57
208.34	1634.28
208.56	1617.90
208.78	1771.49
209.00	1570.79
209.22	1771.49
209.44	1685.48
209.66	1585.13
209.88	1689.57
210.10	1697.77
210.32	1615.85
210.54	1783.78
210.76	1720.29
210.98	1746.92
211.20	1650.66
211.42	1675.24
211.64	1724.39
211.86	1728.49
212.08	1728.49
212.30	1705.96
212.52	1562.60
212.74	1697.77
212.96	1738.73
213.17	1716.20
213.39	1755.11
213.61	1742.82
213.83	1697.77
214.05	1718.25
214.27	1722.34
214.49	1591.27
214.71	1607.66
214.93	1753.06
215.15	1675.24
215.37	1726.44
215.59	1656.81
215.81	1806.31
216.03	1765.35
216.24	1669.09
216.46	1716.20
216.68	1746.92
216.90	1779.68
217.12	1671.14
217.34	1638.38
217.56	1720.29
217.78	1757.16
218.00	1658.85
218.22	1736.68
218.44	1689.57
218.66	1669.09
218.87	1775.59
219.09	1640.42
219.31	1693.67
219.53	1673.19
219.75	1685.48
219.97	1677.29
220.19	1800.16
220.41	1748.97
220.63	1771.49
220.85	1736.68
221.06	1636.33
221.28	1775.59
221.50	1722.34
221.72	1693.67
221.94	1681.38
222.16	1650.66
222.38	1691.62
222.60	1816.55
222.82	1648.61
223.03	1703.91
223.25	1628.14
223.47	1714.15
223.69	1863.65
223.91	1763.30
224.13	1705.96
224.35	1654.76
224.57	1751.01
224.78	1744.87
225.00	1658.85
225.22	1724.39
225.44	1689.57
225.66	1675.24
225.88	1585.13
226.10	1791.97
226.32	1712.10
226.53	1841.12
226.75	1646.57
226.97	1640.42
227.19	1691.62
227.41	1658.85
227.63	1681.38
227.85	1677.29
228.06	1675.24
228.28	1685.48
228.50	1724.39
228.72	1673.19
228.94	1689.57
229.16	1613.80
229.37	1705.96
229.59	1716.20
229.81	1787.88
230.03	1683.43
230.25	1609.70
230.47	1558.50
230.69	1677.29
230.90	1689.57
231.12	1695.72
231.34	1669.09
231.56	1779.68
231.78	1656.81
232.00	1779.68
232.21	1626.09
232.43	1603.56
232.65	1607.66
232.87	1728.49
233.09	1636.33
233.30	1630.18
233.52	1720.29
233.74	1714.15
233.96	1677.29
234.18	1638.38
234.40	1703.91
234.61	1824.74
234.83	1660.90
235.05	1642.47
235.27	1789.92
235.49	1730.53
235.70	1712.10
235.92	1806.31
236.14	1771.49
236.36	1783.78
236.58	1710.05
236.79	1744.87
237.01	1787.88
237.23	1703.91
237.45	1748.97
237.67	1624.04
237.88	1667.05
238.10	1773.54
238.32	1685.48
238.54	1783.78
238.76	1669.09
238.97	1628.14
239.19	1757.16
239.41	1728.49
239.63	1759.21
239.85	1628.14
240.06	1687.53
240.28	1673.19
240.50	1800.16
240.72	1636.33
240.93	1669.09
241.15	1841.12
241.37	1585.13
241.59	1767.40
241.81	1724.39
242.02	1683.43
242.24	1730.53
242.46	1714.15
242.68	1744.87
242.89	1699.81
243.11	1718.25
243.33	1683.43
243.55	1724.39
243.76	1730.53
243.98	1732.58
244.20	1693.67
244.42	1699.81
244.64	1658.85
244.85	1603.56
245.07	1607.66
245.29	1703.91
245.51	1591.27
245.72	1685.48
245.94	1753.06
246.16	1732.58
246.38	1716.20
246.59	1726.44
246.81	1712.10
247.03	1708.01
247.24	1607.66
247.46	1740.77
247.68	1767.40
247.90	1693.67
248.11	1689.57
248.33	1720.29
248.55	1779.68
248.77	1730.53
248.98	1738.73
249.20	1789.92
249.42	1722.34
249.64	1728.49
249.85	1681.38
250.07	1662.95
250.29	1759.21
250.50	1753.06
250.72	1628.14
250.94	1759.21
251.16	1789.92
251.37	1755.11
251.59	1697.77
251.81	1716.20
252.02	1816.55
252.24	1630.18
252.46	1775.59
252.68	1712.10
252.89	1636.33
253.11	1632.23
253.33	1796.07
253.54	1660.90
253.76	1630.18
253.98	1710.05
254.20	1656.81
254.41	1564.65
254.63	1617.90
254.85	1630.18
255.06	1699.81
255.28	1763.30
255.50	1710.05
255.71	1708.01
255.93	1691.62
256.15	1677.29
256.36	1814.50
256.58	1601.51
256.80	1691.62
257.02	1736.68
257.23	1654.76
257.45	1718.25
257.67	1779.68
257.88	1615.85
258.10	1660.90
258.32	1656.81
258.53	1697.77
258.75	1753.06
258.97	1640.42
259.18	1734.63
259.40	1755.11
259.62	1867.75
259.83	1779.68
260.05	1718.25
260.27	1972.19
260.48	1701.86
260.70	1736.68
260.92	1759.21
261.13	1689.57
261.35	1767.40
261.57	1724.39
261.78	1570.79
262.00	1685.48
262.22	1687.53
262.43	1658.85
262.65	1691.62
262.86	1689.57
263.08	1867.75
263.30	1746.92
263.51	1583.08
263.73	1652.71
263.95	1769.44
264.16	1730.53
264.38	1685.48
264.60	1660.90
264.81	1708.01
265.03	1761.25
265.25	1775.59
265.46	1605.61
265.68	1732.58
265.89	1667.05
266.11	1640.42
266.33	1689.57
266.54	1824.74
266.76	1681.38
266.98	1761.25
267.19	1787.88
267.41	1746.92
267.62	1665.00
267.84	1658.85
268.06	1775.59
268.27	1673.19
268.49	1738.73
268.70	1728.49
268.92	1701.86
269.14	1630.18
269.35	1652.71
269.57	1718.25
269.79	1708.01
270.00	1630.18
270.22	1830.88
270.43	1722.34
270.65	1572.84
270.87	1751.01
271.08	1744.87
271.30	1693.67
271.51	1671.14
271.73	1701.86
271.95	1810.40
272.16	1703.91
272.38	1720.29
272.59	1669.09
272.81	1765.35
273.02	1693.67
273.24	1732.58
273.46	1742.82
273.67	1718.25
273.89	1615.85
274.10	1710.05
274.32	1720.29
274.54	1669.09
274.75	1693.67
274.97	1689.57
275.18	1628.14
275.40	1751.01
275.61	1658.85
275.83	1734.63
276.05	1615.85
276.26	1708.01
276.48	1685.48
276.69	1665.00
276.91	1665.00
277.12	1714.15
277.34	1724.39
277.55	1763.30
277.77	1683.43
277.99	1751.01
278.20	1677.29
278.42	1669.09
278.63	1677.29
278.85	1681.38
279.06	1591.27
279.28	1791.97
279.49	1763.30
279.71	1791.97
279.93	1673.19
280.14	1656.81
280.36	1681.38
280.57	1798.12
280.79	1697.77
281.00	1687.53
281.22	1658.85
281.43	1791.97
281.65	1513.45
281.86	1654.76
282.08	1718.25
282.29	1818.60
282.51	1619.94
282.73	1603.56
282.94	1648.61
283.16	1771.49
283.37	1777.64
283.59	1714.15
283.80	1826.79
284.02	1673.19
284.23	1699.81
284.45	1712.10
284.66	1638.38
284.88	1693.67
285.09	1705.96
285.31	1679.33
285.52	1781.73
285.74	1564.65
285.95	1693.67
286.17	1701.86
286.38	1724.39
286.60	1626.09
286.81	1665.00
287.03	1628.14
287.24	1732.58
287.46	1763.30
287.67	1701.86
287.89	1845.22
288.10	1671.14
288.32	1761.25
288.53	1767.40
288.75	1732.58
288.96	1736.68
289.18	1640.42
289.39	1662.95
289.61	1734.63
289.82	1708.01
290.04	1826.79
290.25	1703.91
290.47	1703.91
290.68	1753.06
290.90	1757.16
291.11	1609.70
291.33	1757.16
291.54	1564.65
291.76	1677.29
291.97	1771.49
292.18	1687.53
292.40	1685.48
292.61	1601.51
292.83	1812.45
293.04	1771.49
293.26	1748.97
293.47	1650.66
293.69	1605.61
293.90	1710.05
294.12	1814.50
294.33	1689.57
294.55	1652.71
294.76	1771.49
294.97	1759.21
295.19	1839.08
295.40	1738.73
295.62	1742.82
295.83	1753.06
296.05	1648.61
296.26	1771.49
296.48	1665.00
296.69	1636.33
296.90	1671.14
297.12	1791.97
297.33	1763.30
297.55	1720.29
297.76	1796.07
297.98	1716.20
298.19	1736.68
298.41	1648.61
298.62	1648.61
298.83	1755.11
299.05	1695.72
299.26	1701.86
299.48	1675.24
299.69	1714.15
299.90	1705.96
300.12	1640.42
300.33	1683.43
300.55	1652.71
300.76	1720.29
300.98	1648.61
301.19	1746.92
301.40	1718.25
301.62	1652.71
301.83	1761.25
302.05	1718.25
302.26	1783.78
302.47	1701.86
302.69	1654.76
302.90	1732.58
303.12	1576.94
303.33	1695.72
303.54	1722.34
303.76	1710.05
303.97	1757.16
304.19	1816.55
304.40	1636.33
304.61	1714.15
304.83	1808.36
305.04	1802.21
305.26	1708.01
305.47	1646.57
305.68	1755.11
305.90	1636.33
306.11	1714.15
306.33	1665.00
306.54	1658.85
306.75	1728.49
306.97	1597.42
307.18	1673.19
307.39	1624.04
307.61	1681.38
307.82	1693.67
308.04	1701.86
308.25	1638.38
308.46	1691.62
308.68	1712.10
308.89	1685.48
309.10	1665.00
309.32	1654.76
309.53	1630.18
309.74	1730.53
309.96	1751.01
310.17	1783.78
310.39	1693.67
310.60	1644.52
310.81	1630.18
311.03	1624.04
311.24	1716.20
311.45	1755.11
311.67	1832.93
311.88	1687.53
312.09	1683.43
312.31	1701.86
312.52	1687.53
312.73	1714.15
312.95	1705.96
313.16	1685.48
313.37	1763.30
313.59	1746.92
313.80	1755.11
314.01	1730.53
314.23	1671.14
314.44	1669.09
314.65	1611.75
314.87	1660.90
315.08	1753.06
315.29	1628.14
315.51	1697.77
315.72	1621.99
315.93	1787.88
316.15	1853.41
316.36	1771.49
316.57	1798.12
316.79	1728.49
317.00	1691.62
317.21	1687.53
317.43	1693.67
317.64	1693.67
317.85	1644.52
318.07	1656.81
318.28	1660.90
318.49	1794.02
318.70	1929.19
318.92	1796.07
319.13	1849.32
319.34	1904.61
319.56	1765.35
319.77	1804.26
319.98	1748.97
320.20	1759.21
320.41	1728.49
320.62	1695.72
320.83	1611.75
321.05	1849.32
321.26	1705.96
321.47	1716.20
321.69	1765.35
321.90	1636.33
322.11	1675.24
322.32	1798.12
322.54	1714.15
322.75	1730.53
322.96	1865.70
323.18	1607.66
323.39	1593.32
323.60	1636.33
323.81	1798.12
324.03	1652.71
324.24	1660.90
324.45	1689.57
324.66	1644.52
324.88	1779.68
325.09	1834.98
325.30	1648.61
325.52	1730.53
325.73	1671.14
325.94	1671.14
326.15	1675.24
326.37	1650.66
326.58	1734.63
326.79	1769.44
327.00	1640.42
327.22	1693.67
327.43	1624.04
327.64	1587.18
327.85	1705.96
328.07	1730.53
328.28	1783.78
328.49	1615.85
328.70	1708.01
328.92	1746.92
329.13	1699.81
329.34	1724.39
329.55	1748.97
329.76	1757.16
329.98	1761.25
330.19	1802.21
330.40	1697.77
330.61	1658.85
330.83	1751.01
331.04	1681.38
331.25	1710.05
331.46	1656.81
331.68	1683.43
331.89	1771.49
332.10	1765.35
332.31	1628.14
332.52	1660.90
332.74	1689.57
332.95	1644.52
333.16	1677.29
333.37	1755.11
333.58	1658.85
333.80	1642.47
334.01	1591.27
334.22	1695.72
334.43	1615.85
334.64	1662.95
334.86	1667.05
335.07	1644.52
335.28	1767.40
335.49	1585.13
335.70	1710.05
335.92	1845.22
336.13	1896.42
336.34	1746.92
336.55	1710.05
336.76	1642.47
336.98	1591.27
337.19	1701.86
337.40	1755.11
337.61	1777.64
337.82	1681.38
338.04	1765.35
338.25	1650.66
338.46	1611.75
338.67	1644.52
338.88	1619.94
339.09	1660.90
339.31	1687.53
339.52	1634.28
339.73	1654.76
339.94	1632.23
340.15	1685.48
340.36	1687.53
340.58	1662.95
340.79	1646.57
341.00	1769.44
341.21	1587.18
341.42	1791.97
341.63	1710.05
341.85	1804.26
342.06	1742.82
342.27	1574.89
342.48	1740.77
342.69	1665.00
342.90	1656.81
343.12	1701.86
343.33	1648.61
343.54	1742.82
343.75	1773.54
343.96	1730.53
344.17	1689.57
344.38	1683.43
344.60	1632.23
344.81	1617.90
345.02	1708.01
345.23	1742.82
345.44	1820.64
345.65	1763.30
345.86	1742.82
346.07	1593.32
346.29	1720.29
346.50	1675.24
346.71	1722.34
346.92	1757.16
347.13	1787.88
347.34	1712.10
347.55	1714.15
347.76	1662.95
347.98	1660.90
348.19	1669.09
348.40	1765.35
348.61	1628.14
348.82	1804.26
349.03	1808.36
349.24	1626.09
349.45	1730.53
349.66	1632.23
349.88	1740.77
350.09	1595.37
350.30	1748.97
350.51	1791.97
350.72	1720.29
350.93	1689.57
351.14	1689.57
351.35	1808.36
351.56	1718.25
351.77	1748.97
351.99	1742.82
352.20	1771.49
352.41	1753.06
352.62	1619.94
352.83	1802.21
353.04	1652.71
353.25	1771.49
353.46	1742.82
353.67	1759.21
353.88	1574.89
354.09	1781.73
354.30	1787.88
354.52	1804.26
354.73	1652.71
354.94	1656.81
355.15	1677.29
355.36	1834.98
355.57	1667.05
355.78	1734.63
355.99	1671.14
356.20	1648.61
356.41	1765.35
356.62	1726.44
356.83	1710.05
357.04	1736.68
357.25	1617.90
357.46	1648.61
357.68	1677.29
357.89	1646.57
358.10	1628.14
358.31	1701.86
358.52	1761.25
358.73	1658.85
358.94	1681.38
359.15	1746.92
359.36	1746.92
359.57	1728.49
359.78	1683.43
359.99	1691.62
360.20	1632.23
360.41	1691.62
360.62	1759.21
360.83	1648.61
361.04	1722.34
361.25	1665.00
361.46	1724.39
361.67	1771.49
361.88	1650.66
362.09	1710.05
362.30	1730.53
362.51	1601.51
362.72	1705.96
362.93	1763.30
363.14	1804.26
363.35	1714.15
363.56	1667.05
363.78	1785.83
363.99	1732.58
364.20	1671.14
364.41	1718.25
364.62	1808.36
364.83	1665.00
365.04	1671.14
365.25	1689.57
365.46	1804.26
365.67	1730.53
365.88	1648.61
366.09	1714.15
366.30	1771.49
366.51	1751.01
366.72	1585.13
366.93	1734.63
367.14	1720.29
367.35	1746.92
367.56	1691.62
367.77	1761.25
367.98	1636.33
368.18	1656.81
368.39	1679.33
368.60	1699.81
368.81	1796.07
369.02	1726.44
369.23	1669.09
369.44	1652.71
369.65	1632.23
369.86	1777.64
370.07	1697.77
370.28	1632.23
370.49	1712.10
370.70	1808.36
370.91	1656.81
371.12	1736.68
371.33	1726.44
371.54	1708.01
371.75	1818.60
371.96	1583.08
372.17	1671.14
372.38	1714.15
372.59	1728.49
372.80	1630.18
373.01	1658.85
373.22	1748.97
373.43	1701.86
373.64	1642.47
373.85	1656.81
374.06	1777.64
374.26	1746.92
374.47	1673.19
374.68	1826.79
374.89	1732.58
375.10	1718.25
375.31	1779.68
375.52	1687.53
375.73	1765.35
375.94	1687.53
376.15	1732.58
376.36	1652.71
376.57	1738.73
376.78	1726.44
376.99	1730.53
377.20	1769.44
377.40	1607.66
377.61	1818.60
377.82	1691.62
378.03	1767.40
378.24	1691.62
378.45	1671.14
378.66	1646.57
378.87	1591.27
379.08	1640.42
379.29	1683.43
379.50	1763.30
379.71	1632.23
379.91	1785.83
380.12	1693.67
380.33	1757.16
380.54	1689.57
380.75	1712.10
380.96	1671.14
381.17	1755.11
381.38	1722.34
381.59	1654.76
381.80	1744.87
382.00	1775.59
382.21	1742.82
382.42	1830.88
382.63	1886.18
382.84	1746.92
383.05	1769.44
383.26	1865.70
383.47	1673.19
383.68	1761.25
383.88	1722.34
384.09	1742.82
384.30	1718.25
384.51	1722.34
384.72	1662.95
384.93	1665.00
385.14	1697.77
385.35	1843.17
385.55	1613.80
385.76	1849.32
385.97	1703.91
386.18	1624.04
386.39	1607.66
386.60	1718.25
386.81	1718.25
387.02	1624.04
387.22	1628.14
387.43	1832.93
387.64	1763.30
387.85	1845.22
388.06	2254.81
388.27	4278.21
388.48	6739.87
388.68	8013.70
388.89	9738.09
389.10	9906.02
389.31	8783.74
389.52	7710.60
389.73	6750.10
389.93	6143.91
390.14	6016.93
390.35	5148.59
390.56	4446.14
390.77	3680.20
390.98	3006.42
391.18	2570.20
391.39	2152.42
391.60	1900.52
391.81	1855.46
392.02	1712.10
392.23	1861.60
392.43	1712.10
392.64	1769.44
392.85	1781.73
393.06	1830.88
393.27	1736.68
393.47	1697.77
393.68	1708.01
393.89	1765.35
394.10	1728.49
394.31	1712.10
394.52	1654.76
394.72	1699.81
394.93	1830.88
395.14	1611.75
395.35	1703.91
395.56	1667.05
395.76	1724.39
395.97	1734.63
396.18	1853.41
396.39	1804.26
396.60	2000.87
396.80	1812.45
397.01	1806.31
397.22	1798.12
397.43	1800.16
397.64	1669.09
397.84	1794.02
398.05	1800.16
398.26	1734.63
398.47	1785.83
398.67	1773.54
398.88	1730.53
399.09	1763.30
399.30	1736.68
399.51	1724.39
399.71	1667.05
399.92	1642.47
400.13	1705.96
400.34	1681.38
400.54	1660.90
400.75	1820.64
400.96	1705.96
401.17	1773.54
401.37	1726.44
401.58	1691.62
401.79	1697.77
402.00	1849.32
402.21	1966.05
402.41	1906.66
402.62	2025.44
402.83	2066.40
403.04	1988.58
403.24	2074.59
403.45	1826.79
403.66	1978.34
403.87	1867.75
404.07	1949.67
404.28	1951.71
404.49	1869.80
404.70	1746.92
404.90	1757.16
405.11	1757.16
405.32	1701.86
405.52	1632.23
405.73	1685.48
405.94	1644.52
406.15	1697.77
406.35	1730.53
406.56	1744.87
406.77	1746.92
406.98	1722.34
407.18	1699.81
407.39	1779.68
407.60	1669.09
407.80	1740.77
408.01	1701.86
408.22	1701.86
408.43	1638.38
408.63	1742.82
408.84	1767.40
409.05	1787.88
409.25	1658.85
409.46	1679.33
409.67	1667.05
409.88	1662.95
410.08	1669.09
410.29	1665.00
410.50	1796.07
410.70	1716.20
410.91	1591.27
411.12	1677.29
411.32	1679.33
411.53	1681.38
411.74	1796.07
411.95	1730.53
412.15	1730.53
412.36	1783.78
412.57	1800.16
412.77	1783.78
412.98	1701.86
413.19	1624.04
413.39	1722.34
413.60	1757.16
413.81	1800.16
414.01	1677.29
414.22	1710.05
414.43	1810.40
414.63	1705.96
414.84	1830.88
415.05	1691.62
415.25	1587.18
415.46	1705.96
415.67	1613.80
415.87	1695.72
416.08	1775.59
416.29	1773.54
416.49	1667.05
416.70	1654.76
416.91	1648.61
417.11	1726.44
417.32	1738.73
417.53	1779.68
417.73	1722.34
417.94	1710.05
418.15	1699.81
418.35	1703.91
418.56	1730.53
418.77	1814.50
418.97	1734.63
419.18	1734.63
419.38	1595.37
419.59	1685.48
419.80	1812.45
420.00	1726.44
420.21	1671.14
420.42	1765.35
420.62	1734.63
420.83	1646.57
421.04	1675.24
421.24	1669.09
421.45	1718.25
421.65	1714.15
421.86	1673.19
422.07	1742.82
422.27	1720.29
422.48	1695.72
422.69	1675.24
422.89	1732.58
423.10	1693.67
423.30	1578.98
423.51	1736.68
423.72	1617.90
423.92	1712.10
424.13	1665.00
424.33	1716.20
424.54	1775.59
424.75	1742.82
424.95	1828.84
425.16	1738.73
425.36	1673.19
425.57	1757.16
425.78	1746.92
425.98	1763.30
426.19	1632.23
426.39	1708.01
426.60	1716.20
426.81	1798.12
427.01	1763.30
427.22	1746.92
427.42	1601.51
427.63	1697.77
427.83	1689.57
428.04	1882.08
428.25	1744.87
428.45	1765.35
428.66	1728.49
428.86	1708.01
429.07	1693.67
429.28	1665.00
429.48	1599.46
429.69	1650.66
429.89	1744.87
430.10	1681.38
430.30	1763.30
430.51	1771.49
430.71	1597.42
430.92	1648.61
431.13	1626.09
431.33	1771.49
431.54	1681.38
431.74	1794.02
431.95	1755.11
432.15	1667.05
432.36	1720.29
432.56	1828.84
432.77	1781.73
432.98	1755.11
433.18	1693.67
433.39	1736.68
433.59	1695.72
433.80	1902.56
434.00	1845.22
434.21	1755.11
434.41	1767.40
434.62	1906.66
434.82	1640.42
435.03	1685.48
435.23	1714.15
435.44	1642.47
435.64	1785.83
435.85	1804.26
436.06	1755.11
436.26	1742.82
436.47	1740.77
436.67	1718.25
436.88	1730.53
437.08	1695.72
437.29	1806.31
437.49	1734.63
437.70	1800.16
437.90	1646.57
438.11	1877.99
438.31	1734.63
438.52	1837.03
438.72	1837.03
438.93	1892.32
439.13	1851.36
439.34	1820.64
439.54	1675.24
439.75	1677.29
439.95	1853.41
440.16	1806.31
440.36	1726.44
440.57	1832.93
440.77	1740.77
440.98	1675.24
441.18	1755.11
441.39	1648.61
441.59	1720.29
441.80	1804.26
442.00	1718.25
442.21	1689.57
442.41	1673.19
442.62	1722.34
442.82	1681.38
443.02	1769.44
443.23	1675.24
443.43	1699.81
443.64	1832.93
443.84	1718.25
444.05	1851.36
444.25	1705.96
444.46	1769.44
444.66	1738.73
444.87	1865.70
445.07	1640.42
445.28	1720.29
445.48	1814.50
445.69	1798.12
445.89	1871.84
446.09	1755.11
446.30	1978.34
446.50	2527.19
446.71	3721.16
446.91	4349.89
447.12	4790.20
447.32	4779.96
447.53	4429.76
447.73	3962.82
447.93	3565.51
448.14	3387.34
448.34	3190.74
448.55	2869.20
448.75	2883.54
448.96	2709.46
449.16	2369.50
449.36	2334.68
449.57	2064.35
449.77	1857.51
449.98	1775.59
450.18	1783.78
450.39	1818.60
450.59	1769.44
450.79	1689.57
451.00	1724.39
451.20	1824.74
451.41	1746.92
451.61	1714.15
451.81	1714.15
452.02	1699.81
452.22	1740.77
452.43	1685.48
452.63	1689.57
