SpectraSuite Data File
++++++++++++++++++++++++++++++++++++
Date: Mon Jun 06 13:45:57 CEST 2016
User: root
Dark Spectrum Present: No
Reference Spectrum Present: No
Number of Sampled Component Spectra: 1
Spectrometers: USB4C02835
Integration Time (usec): 100000 (USB4C02835)
Spectra Averaged: 1 (USB4C02835)
Boxcar Smoothing: 0 (USB4C02835)
Correct for Electrical Dark: No (USB4C02835)
Strobe/Lamp Enabled: No (USB4C02835)
Correct for Detector Non-linearity: No (USB4C02835)
Correct for Stray Light: No (USB4C02835)
Number of Pixels in Processed Spectrum: 3648
>>>>>Begin Processed Spectral Data<<<<<
177.47	1447.91
177.69	1447.91
177.91	1447.91
178.13	1470.44
178.36	1527.78
178.58	1673.19
178.80	1712.10
179.02	1626.09
179.24	1712.10
179.46	1685.48
179.68	1689.57
179.90	1705.96
180.13	1640.42
180.35	1644.52
180.57	1675.24
180.79	1804.26
181.01	1705.96
181.23	1789.92
181.45	1796.07
181.67	1673.19
181.90	1734.63
182.12	1685.48
182.34	1667.05
182.56	1691.62
182.78	1656.81
183.00	1763.30
183.22	1703.91
183.44	1550.31
183.66	1808.36
183.89	1724.39
184.11	1701.86
184.33	1779.68
184.55	1757.16
184.77	1712.10
184.99	1730.53
185.21	1636.33
185.43	1853.41
185.65	1601.51
185.87	1681.38
186.10	1810.40
186.32	1822.69
186.54	1697.77
186.76	1693.67
186.98	1691.62
187.20	1736.68
187.42	1671.14
187.64	1734.63
187.86	1748.97
188.08	1826.79
188.30	1675.24
188.52	1742.82
188.75	1712.10
188.97	1771.49
189.19	1705.96
189.41	1720.29
189.63	1748.97
189.85	1685.48
190.07	1652.71
190.29	1632.23
190.51	1656.81
190.73	1593.32
190.95	1701.86
191.17	1693.67
191.39	1619.94
191.61	1667.05
191.84	1640.42
192.06	1757.16
192.28	1701.86
192.50	1798.12
192.72	1734.63
192.94	1640.42
193.16	1732.58
193.38	1763.30
193.60	1656.81
193.82	1624.04
194.04	1710.05
194.26	1716.20
194.48	1738.73
194.70	1732.58
194.92	1697.77
195.14	1726.44
195.36	1691.62
195.58	1673.19
195.80	1650.66
196.02	1673.19
196.24	1693.67
196.46	1734.63
196.69	1673.19
196.91	1818.60
197.13	1656.81
197.35	1624.04
197.57	1781.73
197.79	1677.29
198.01	1736.68
198.23	1714.15
198.45	1746.92
198.67	1648.61
198.89	1755.11
199.11	1701.86
199.33	1691.62
199.55	1609.70
199.77	1781.73
199.99	1791.97
200.21	1718.25
200.43	1791.97
200.65	1648.61
200.87	1523.69
201.09	1748.97
201.31	1656.81
201.53	1693.67
201.75	1705.96
201.97	1712.10
202.19	1730.53
202.41	1771.49
202.63	1853.41
202.85	1785.83
203.07	1619.94
203.29	1615.85
203.51	1632.23
203.73	1632.23
203.95	1880.04
204.17	1677.29
204.39	1742.82
204.61	1685.48
204.83	1710.05
205.05	1738.73
205.27	1705.96
205.49	1781.73
205.71	1685.48
205.93	1673.19
206.15	1697.77
206.37	1742.82
206.59	1677.29
206.81	1585.13
207.03	1710.05
207.25	1638.38
207.47	1705.96
207.69	1667.05
207.91	1765.35
208.13	1767.40
208.34	1710.05
208.56	1542.12
208.78	1734.63
209.00	1726.44
209.22	1689.57
209.44	1718.25
209.66	1718.25
209.88	1738.73
210.10	1705.96
210.32	1708.01
210.54	1851.36
210.76	1705.96
210.98	1714.15
211.20	1587.18
211.42	1652.71
211.64	1718.25
211.86	1691.62
212.08	1759.21
212.30	1675.24
212.52	1724.39
212.74	1742.82
212.96	1724.39
213.17	1708.01
213.39	1679.33
213.61	1855.46
213.83	1642.47
214.05	1617.90
214.27	1714.15
214.49	1683.43
214.71	1712.10
214.93	1769.44
215.15	1746.92
215.37	1744.87
215.59	1701.86
215.81	1773.54
216.03	1763.30
216.24	1660.90
216.46	1671.14
216.68	1685.48
216.90	1761.25
217.12	1714.15
217.34	1679.33
217.56	1716.20
217.78	1781.73
218.00	1683.43
218.22	1693.67
218.44	1714.15
218.66	1722.34
218.87	1824.74
219.09	1687.53
219.31	1667.05
219.53	1779.68
219.75	1710.05
219.97	1689.57
220.19	1712.10
220.41	1705.96
220.63	1767.40
220.85	1681.38
221.06	1638.38
221.28	1685.48
221.50	1742.82
221.72	1736.68
221.94	1693.67
222.16	1718.25
222.38	1720.29
222.60	1796.07
222.82	1703.91
223.03	1724.39
223.25	1679.33
223.47	1679.33
223.69	1791.97
223.91	1730.53
224.13	1652.71
224.35	1677.29
224.57	1824.74
224.78	1677.29
225.00	1677.29
225.22	1652.71
225.44	1734.63
225.66	1722.34
225.88	1687.53
226.10	1767.40
226.32	1720.29
226.53	1769.44
226.75	1689.57
226.97	1679.33
227.19	1703.91
227.41	1742.82
227.63	1697.77
227.85	1605.61
228.06	1738.73
228.28	1708.01
228.50	1785.83
228.72	1650.66
228.94	1699.81
229.16	1599.46
229.37	1687.53
229.59	1685.48
229.81	1748.97
230.03	1730.53
230.25	1650.66
230.47	1615.85
230.69	1595.37
230.90	1812.45
231.12	1687.53
231.34	1697.77
231.56	1683.43
231.78	1636.33
232.00	1671.14
232.21	1669.09
232.43	1675.24
232.65	1570.79
232.87	1671.14
233.09	1595.37
233.30	1710.05
233.52	1738.73
233.74	1744.87
233.96	1652.71
234.18	1716.20
234.40	1689.57
234.61	1820.64
234.83	1671.14
235.05	1583.08
235.27	1800.16
235.49	1746.92
235.70	1710.05
235.92	1794.02
236.14	1734.63
236.36	1849.32
236.58	1619.94
236.79	1748.97
237.01	1697.77
237.23	1675.24
237.45	1763.30
237.67	1699.81
237.88	1767.40
238.10	1849.32
238.32	1681.38
238.54	1642.47
238.76	1728.49
238.97	1726.44
239.19	1568.74
239.41	1722.34
239.63	1746.92
239.85	1724.39
240.06	1724.39
240.28	1648.61
240.50	1746.92
240.72	1679.33
240.93	1673.19
241.15	1775.59
241.37	1724.39
241.59	1775.59
241.81	1738.73
242.02	1701.86
242.24	1712.10
242.46	1798.12
242.68	1585.13
242.89	1691.62
243.11	1705.96
243.33	1673.19
243.55	1597.42
243.76	1718.25
243.98	1724.39
244.20	1646.57
244.42	1697.77
244.64	1693.67
244.85	1644.52
245.07	1685.48
245.29	1695.72
245.51	1802.21
245.72	1705.96
245.94	1734.63
246.16	1656.81
246.38	1746.92
246.59	1669.09
246.81	1673.19
247.03	1662.95
247.24	1513.45
247.46	1679.33
247.68	1677.29
247.90	1714.15
248.11	1656.81
248.33	1804.26
248.55	1757.16
248.77	1697.77
248.98	1740.77
249.20	1806.31
249.42	1738.73
249.64	1708.01
249.85	1738.73
250.07	1615.85
250.29	1753.06
250.50	1789.92
250.72	1609.70
250.94	1681.38
251.16	1777.64
251.37	1742.82
251.59	1740.77
251.81	1726.44
252.02	1787.88
252.24	1599.46
252.46	1708.01
252.68	1640.42
252.89	1673.19
253.11	1550.31
253.33	1828.84
253.54	1738.73
253.76	1601.51
253.98	1632.23
254.20	1640.42
254.41	1642.47
254.63	1656.81
254.85	1687.53
255.06	1738.73
255.28	1705.96
255.50	1691.62
255.71	1589.22
255.93	1615.85
256.15	1632.23
256.36	1732.58
256.58	1675.24
256.80	1730.53
257.02	1669.09
257.23	1654.76
257.45	1638.38
257.67	1681.38
257.88	1658.85
258.10	1701.86
258.32	1712.10
258.53	1705.96
258.75	1773.54
258.97	1652.71
259.18	1658.85
259.40	1716.20
259.62	1736.68
259.83	1789.92
260.05	1701.86
260.27	1984.48
260.48	1685.48
260.70	1603.56
260.92	1621.99
261.13	1724.39
261.35	1714.15
261.57	1863.65
261.78	1624.04
262.00	1574.89
262.22	1806.31
262.43	1667.05
262.65	1734.63
262.86	1658.85
263.08	1761.25
263.30	1693.67
263.51	1597.42
263.73	1646.57
263.95	1810.40
264.16	1650.66
264.38	1669.09
264.60	1720.29
264.81	1632.23
265.03	1703.91
265.25	1751.01
265.46	1662.95
265.68	1755.11
265.89	1677.29
266.11	1630.18
266.33	1734.63
266.54	1761.25
266.76	1699.81
266.98	1779.68
267.19	1744.87
267.41	1689.57
267.62	1578.98
267.84	1554.41
268.06	1744.87
268.27	1708.01
268.49	1798.12
268.70	1785.83
268.92	1673.19
269.14	1691.62
269.35	1607.66
269.57	1613.80
269.79	1685.48
270.00	1652.71
270.22	1742.82
270.43	1642.47
270.65	1574.89
270.87	1759.21
271.08	1730.53
271.30	1738.73
271.51	1689.57
271.73	1640.42
271.95	1748.97
272.16	1730.53
272.38	1691.62
272.59	1576.94
272.81	1607.66
273.02	1685.48
273.24	1685.48
273.46	1781.73
273.67	1722.34
273.89	1607.66
274.10	1714.15
274.32	1724.39
274.54	1626.09
274.75	1742.82
274.97	1591.27
275.18	1769.44
275.40	1791.97
275.61	1673.19
275.83	1662.95
276.05	1597.42
276.26	1726.44
276.48	1685.48
276.69	1701.86
276.91	1599.46
277.12	1841.12
277.34	1712.10
277.55	1767.40
277.77	1736.68
277.99	1687.53
278.20	1648.61
278.42	1656.81
278.63	1640.42
278.85	1593.32
279.06	1654.76
279.28	1744.87
279.49	1701.86
279.71	1802.21
279.93	1656.81
280.14	1654.76
280.36	1681.38
280.57	1722.34
280.79	1746.92
281.00	1716.20
281.22	1644.52
281.43	1759.21
281.65	1681.38
281.86	1578.98
282.08	1773.54
282.29	1759.21
282.51	1644.52
282.73	1673.19
282.94	1597.42
283.16	1736.68
283.37	1775.59
283.59	1662.95
283.80	1726.44
284.02	1738.73
284.23	1738.73
284.45	1650.66
284.66	1624.04
284.88	1710.05
285.09	1660.90
285.31	1708.01
285.52	1685.48
285.74	1669.09
285.95	1730.53
286.17	1755.11
286.38	1736.68
286.60	1589.22
286.81	1697.77
287.03	1626.09
287.24	1730.53
287.46	1746.92
287.67	1716.20
287.89	1894.37
288.10	1656.81
288.32	1718.25
288.53	1804.26
288.75	1769.44
288.96	1755.11
289.18	1669.09
289.39	1681.38
289.61	1669.09
289.82	1816.55
290.04	1857.51
290.25	1605.61
290.47	1757.16
290.68	1718.25
290.90	1767.40
291.11	1669.09
291.33	1685.48
291.54	1677.29
291.76	1640.42
291.97	1703.91
292.18	1753.06
292.40	1761.25
292.61	1638.38
292.83	1834.98
293.04	1697.77
293.26	1708.01
293.47	1552.36
293.69	1642.47
293.90	1683.43
294.12	1738.73
294.33	1685.48
294.55	1710.05
294.76	1724.39
294.97	1773.54
295.19	1808.36
295.40	1681.38
295.62	1722.34
295.83	1746.92
296.05	1705.96
296.26	1742.82
296.48	1626.09
296.69	1705.96
296.90	1597.42
297.12	1783.78
297.33	1753.06
297.55	1699.81
297.76	1724.39
297.98	1718.25
298.19	1619.94
298.41	1644.52
298.62	1632.23
298.83	1769.44
299.05	1771.49
299.26	1685.48
299.48	1701.86
299.69	1746.92
299.90	1658.85
300.12	1738.73
300.33	1697.77
300.55	1669.09
300.76	1710.05
300.98	1683.43
301.19	1660.90
301.40	1638.38
301.62	1634.28
301.83	1697.77
302.05	1660.90
302.26	1673.19
302.47	1710.05
302.69	1660.90
302.90	1708.01
303.12	1650.66
303.33	1677.29
303.54	1796.07
303.76	1693.67
303.97	1755.11
304.19	1798.12
304.40	1697.77
304.61	1751.01
304.83	1738.73
305.04	1738.73
305.26	1753.06
305.47	1589.22
305.68	1679.33
305.90	1632.23
306.11	1703.91
306.33	1687.53
306.54	1648.61
306.75	1665.00
306.97	1597.42
307.18	1662.95
307.39	1593.32
307.61	1779.68
307.82	1621.99
308.04	1669.09
308.25	1658.85
308.46	1722.34
308.68	1693.67
308.89	1705.96
309.10	1724.39
309.32	1722.34
309.53	1730.53
309.74	1740.77
309.96	1687.53
310.17	1734.63
310.39	1683.43
310.60	1671.14
310.81	1687.53
311.03	1605.61
311.24	1646.57
311.45	1691.62
311.67	1773.54
311.88	1691.62
312.09	1691.62
312.31	1691.62
312.52	1601.51
312.73	1720.29
312.95	1628.14
313.16	1646.57
313.37	1708.01
313.59	1683.43
313.80	1722.34
314.01	1845.22
314.23	1603.56
314.44	1658.85
314.65	1636.33
314.87	1607.66
315.08	1656.81
315.29	1671.14
315.51	1621.99
315.72	1621.99
315.93	1753.06
316.15	1826.79
316.36	1671.14
316.57	1665.00
316.79	1662.95
317.00	1734.63
317.21	1726.44
317.43	1705.96
317.64	1740.77
317.85	1687.53
318.07	1632.23
318.28	1701.86
318.49	1824.74
318.70	1923.04
318.92	1853.41
319.13	1877.99
319.34	1865.70
319.56	1746.92
319.77	1824.74
319.98	1742.82
320.20	1757.16
320.41	1785.83
320.62	1632.23
320.83	1701.86
321.05	1767.40
321.26	1734.63
321.47	1710.05
321.69	1675.24
321.90	1691.62
322.11	1701.86
322.32	1771.49
322.54	1806.31
322.75	1689.57
322.96	1882.08
323.18	1595.37
323.39	1667.05
323.60	1640.42
323.81	1734.63
324.03	1636.33
324.24	1695.72
324.45	1730.53
324.66	1609.70
324.88	1798.12
325.09	1873.89
325.30	1677.29
325.52	1665.00
325.73	1697.77
325.94	1624.04
326.15	1595.37
326.37	1609.70
326.58	1679.33
326.79	1808.36
327.00	1640.42
327.22	1746.92
327.43	1714.15
327.64	1632.23
327.85	1689.57
328.07	1673.19
328.28	1845.22
328.49	1683.43
328.70	1732.58
328.92	1734.63
329.13	1742.82
329.34	1710.05
329.55	1773.54
329.76	1665.00
329.98	1687.53
330.19	1720.29
330.40	1648.61
330.61	1705.96
330.83	1746.92
331.04	1636.33
331.25	1638.38
331.46	1681.38
331.68	1665.00
331.89	1734.63
332.10	1648.61
332.31	1638.38
332.52	1722.34
332.74	1814.50
332.95	1679.33
333.16	1714.15
333.37	1767.40
333.58	1662.95
333.80	1740.77
334.01	1619.94
334.22	1738.73
334.43	1636.33
334.64	1593.32
334.86	1724.39
335.07	1656.81
335.28	1705.96
335.49	1654.76
335.70	1681.38
335.92	1779.68
336.13	1830.88
336.34	1722.34
336.55	1691.62
336.76	1681.38
336.98	1605.61
337.19	1697.77
337.40	1808.36
337.61	1908.71
337.82	1642.47
338.04	1689.57
338.25	1550.31
338.46	1697.77
338.67	1656.81
338.88	1642.47
339.09	1644.52
339.31	1730.53
339.52	1615.85
339.73	1669.09
339.94	1687.53
340.15	1757.16
340.36	1658.85
340.58	1628.14
340.79	1693.67
341.00	1714.15
341.21	1574.89
341.42	1806.31
341.63	1689.57
341.85	1693.67
342.06	1693.67
342.27	1574.89
342.48	1677.29
342.69	1658.85
342.90	1716.20
343.12	1757.16
343.33	1673.19
343.54	1734.63
343.75	1697.77
343.96	1669.09
344.17	1667.05
344.38	1638.38
344.60	1699.81
344.81	1660.90
345.02	1703.91
345.23	1769.44
345.44	1712.10
345.65	1708.01
345.86	1673.19
346.07	1695.72
346.29	1646.57
346.50	1642.47
346.71	1734.63
346.92	1759.21
347.13	1812.45
347.34	1660.90
347.55	1656.81
347.76	1742.82
347.98	1599.46
348.19	1642.47
348.40	1765.35
348.61	1658.85
348.82	1755.11
349.03	1783.78
349.24	1624.04
349.45	1849.32
349.66	1615.85
349.88	1650.66
350.09	1693.67
350.30	1796.07
350.51	1757.16
350.72	1724.39
350.93	1689.57
351.14	1720.29
351.35	1712.10
351.56	1644.52
351.77	1673.19
351.99	1753.06
352.20	1742.82
352.41	1724.39
352.62	1593.32
352.83	1660.90
353.04	1683.43
353.25	1683.43
353.46	1746.92
353.67	1806.31
353.88	1587.18
354.09	1716.20
354.30	1675.24
354.52	1705.96
354.73	1685.48
354.94	1624.04
355.15	1730.53
355.36	1814.50
355.57	1710.05
355.78	1726.44
355.99	1681.38
356.20	1628.14
356.41	1777.64
356.62	1742.82
356.83	1691.62
357.04	1785.83
357.25	1615.85
357.46	1716.20
357.68	1656.81
357.89	1621.99
358.10	1787.88
358.31	1716.20
358.52	1677.29
358.73	1677.29
358.94	1621.99
359.15	1691.62
359.36	1697.77
359.57	1634.28
359.78	1734.63
359.99	1767.40
360.20	1665.00
360.41	1722.34
360.62	1691.62
360.83	1773.54
361.04	1730.53
361.25	1714.15
361.46	1783.78
361.67	1759.21
361.88	1634.28
362.09	1796.07
362.30	1656.81
362.51	1626.09
362.72	1636.33
362.93	1746.92
363.14	1687.53
363.35	1703.91
363.56	1638.38
363.78	1759.21
363.99	1724.39
364.20	1718.25
364.41	1781.73
364.62	1781.73
364.83	1689.57
365.04	1609.70
365.25	1673.19
365.46	1753.06
365.67	1642.47
365.88	1691.62
366.09	1689.57
366.30	1660.90
366.51	1677.29
366.72	1632.23
366.93	1687.53
367.14	1714.15
367.35	1726.44
367.56	1701.86
367.77	1722.34
367.98	1703.91
368.18	1726.44
368.39	1701.86
368.60	1673.19
368.81	1759.21
369.02	1720.29
369.23	1748.97
369.44	1593.32
369.65	1757.16
369.86	1693.67
370.07	1794.02
370.28	1585.13
370.49	1744.87
370.70	1769.44
370.91	1660.90
371.12	1671.14
371.33	1763.30
371.54	1665.00
371.75	1796.07
371.96	1574.89
372.17	1648.61
372.38	1652.71
372.59	1755.11
372.80	1615.85
373.01	1681.38
373.22	1732.58
373.43	1726.44
373.64	1658.85
373.85	1785.83
374.06	1789.92
374.26	1744.87
374.47	1697.77
374.68	1736.68
374.89	1744.87
375.10	1683.43
375.31	1710.05
375.52	1658.85
375.73	1761.25
375.94	1669.09
376.15	1800.16
376.36	1624.04
376.57	1685.48
376.78	1673.19
376.99	1720.29
377.20	1816.55
377.40	1669.09
377.61	1837.03
377.82	1638.38
378.03	1816.55
378.24	1730.53
378.45	1673.19
378.66	1701.86
378.87	1656.81
379.08	1642.47
379.29	1662.95
379.50	1746.92
379.71	1730.53
379.91	1810.40
380.12	1697.77
380.33	1693.67
380.54	1705.96
380.75	1728.49
380.96	1685.48
381.17	1757.16
381.38	1687.53
381.59	1718.25
381.80	1742.82
382.00	1787.88
382.21	1746.92
382.42	1728.49
382.63	1828.84
382.84	1779.68
383.05	1708.01
383.26	1837.03
383.47	1705.96
383.68	1718.25
383.88	1761.25
384.09	1718.25
384.30	1771.49
384.51	1708.01
384.72	1648.61
384.93	1644.52
385.14	1687.53
385.35	1798.12
385.55	1626.09
385.76	1781.73
385.97	1652.71
386.18	1519.59
386.39	1669.09
386.60	1662.95
386.81	1705.96
387.02	1613.80
387.22	1716.20
387.43	1771.49
387.64	1763.30
387.85	1859.56
388.06	2213.85
388.27	4353.98
388.48	6780.82
388.68	8228.74
388.89	9662.32
389.10	9994.09
389.31	8660.86
389.52	7720.84
389.73	6696.86
389.93	6156.19
390.14	5990.31
390.35	5259.18
390.56	4372.41
390.77	3661.77
390.98	3008.47
391.18	2545.63
391.39	2088.93
391.60	1865.70
391.81	1767.40
392.02	1593.32
392.23	1837.03
392.43	1769.44
392.64	1767.40
392.85	1720.29
393.06	1773.54
393.27	1773.54
393.47	1703.91
393.68	1742.82
393.89	1630.18
394.10	1757.16
394.31	1626.09
394.52	1626.09
394.72	1638.38
394.93	1767.40
395.14	1619.94
395.35	1734.63
395.56	1691.62
395.76	1765.35
395.97	1888.23
396.18	1791.97
396.39	1863.65
396.60	2054.11
396.80	1869.80
397.01	1918.95
397.22	1820.64
397.43	1896.42
397.64	1710.05
397.84	1834.98
398.05	1867.75
398.26	1675.24
398.47	1759.21
398.67	1769.44
398.88	1738.73
399.09	1640.42
399.30	1726.44
399.51	1689.57
399.71	1619.94
399.92	1759.21
400.13	1746.92
400.34	1716.20
400.54	1681.38
400.75	1746.92
400.96	1691.62
401.17	1785.83
401.37	1746.92
401.58	1755.11
401.79	1720.29
402.00	1828.84
402.21	1994.72
402.41	1943.52
402.62	2021.35
402.83	2029.54
403.04	1931.23
403.24	2064.35
403.45	1841.12
403.66	1996.77
403.87	1861.60
404.07	1843.17
404.28	1888.23
404.49	1871.84
404.70	1755.11
404.90	1779.68
405.11	1736.68
405.32	1693.67
405.52	1687.53
405.73	1675.24
405.94	1656.81
406.15	1665.00
406.35	1689.57
406.56	1642.47
406.77	1710.05
406.98	1710.05
407.18	1689.57
407.39	1826.79
407.60	1671.14
407.80	1720.29
408.01	1689.57
408.22	1734.63
408.43	1697.77
408.63	1730.53
408.84	1773.54
409.05	1783.78
409.25	1677.29
409.46	1609.70
409.67	1640.42
409.88	1732.58
410.08	1708.01
410.29	1644.52
410.50	1710.05
410.70	1796.07
410.91	1597.42
411.12	1738.73
411.32	1656.81
411.53	1671.14
411.74	1849.32
411.95	1771.49
412.15	1730.53
412.36	1826.79
412.57	1781.73
412.77	1775.59
412.98	1791.97
413.19	1697.77
413.39	1791.97
413.60	1761.25
413.81	1908.71
414.01	1650.66
414.22	1720.29
414.43	1732.58
414.63	1732.58
414.84	1763.30
415.05	1677.29
415.25	1615.85
415.46	1765.35
415.67	1728.49
415.87	1722.34
416.08	1732.58
416.29	1742.82
416.49	1742.82
416.70	1626.09
416.91	1636.33
417.11	1720.29
417.32	1697.77
417.53	1710.05
417.73	1767.40
417.94	1714.15
418.15	1755.11
418.35	1757.16
418.56	1775.59
418.77	1755.11
418.97	1681.38
419.18	1671.14
419.38	1619.94
419.59	1722.34
419.80	1740.77
420.00	1722.34
420.21	1665.00
420.42	1796.07
420.62	1677.29
420.83	1603.56
421.04	1740.77
421.24	1691.62
421.45	1763.30
421.65	1716.20
421.86	1644.52
422.07	1724.39
422.27	1667.05
422.48	1720.29
422.69	1669.09
422.89	1652.71
423.10	1687.53
423.30	1703.91
423.51	1769.44
423.72	1751.01
423.92	1767.40
424.13	1646.57
424.33	1742.82
424.54	1691.62
424.75	1689.57
424.95	1810.40
425.16	1730.53
425.36	1669.09
425.57	1779.68
425.78	1753.06
425.98	1789.92
426.19	1732.58
426.39	1632.23
426.60	1710.05
426.81	1775.59
427.01	1708.01
427.22	1691.62
427.42	1617.90
427.63	1611.75
427.83	1814.50
428.04	1771.49
428.25	1755.11
428.45	1714.15
428.66	1771.49
428.86	1736.68
429.07	1644.52
429.28	1746.92
429.48	1718.25
429.69	1648.61
429.89	1728.49
430.10	1703.91
430.30	1738.73
430.51	1828.84
430.71	1648.61
430.92	1761.25
431.13	1662.95
431.33	1746.92
431.54	1738.73
431.74	1796.07
431.95	1808.36
432.15	1624.04
432.36	1759.21
432.56	1783.78
432.77	1800.16
432.98	1810.40
433.18	1714.15
433.39	1761.25
433.59	1681.38
433.80	1746.92
434.00	1886.18
434.21	1642.47
434.41	1671.14
434.62	1896.42
434.82	1681.38
435.03	1699.81
435.23	1755.11
435.44	1626.09
435.64	1726.44
435.85	1591.27
436.06	1802.21
436.26	1796.07
436.47	1730.53
436.67	1697.77
436.88	1685.48
437.08	1751.01
437.29	1779.68
437.49	1710.05
437.70	1740.77
437.90	1738.73
438.11	1845.22
438.31	1765.35
438.52	1869.80
438.72	1804.26
438.93	1896.42
439.13	1763.30
439.34	1824.74
439.54	1800.16
439.75	1806.31
439.95	1859.56
440.16	1765.35
440.36	1689.57
440.57	1787.88
440.77	1755.11
440.98	1767.40
441.18	1744.87
441.39	1701.86
441.59	1597.42
441.80	1841.12
442.00	1710.05
442.21	1814.50
442.41	1638.38
442.62	1742.82
442.82	1671.14
443.02	1697.77
443.23	1757.16
443.43	1677.29
443.64	1775.59
443.84	1689.57
444.05	1877.99
444.25	1736.68
444.46	1726.44
444.66	1679.33
444.87	1816.55
445.07	1703.91
445.28	1689.57
445.48	1816.55
445.69	1834.98
445.89	1857.51
446.09	1765.35
446.30	2095.07
446.50	2645.98
446.71	3710.92
446.91	4265.92
447.12	4837.30
447.32	4755.38
447.53	4356.03
447.73	3925.96
447.93	3463.12
448.14	3258.32
448.34	3071.95
448.55	3000.27
448.75	2813.91
448.96	2607.06
449.16	2426.84
449.36	2279.39
449.57	2035.68
449.77	2025.44
449.98	1781.73
450.18	1863.65
450.39	1791.97
450.59	1781.73
450.79	1724.39
451.00	1656.81
451.20	1841.12
451.41	1710.05
451.61	1728.49
451.81	1738.73
452.02	1675.24
452.22	1626.09
452.43	1748.97
452.63	1697.77
