SpectraSuite Data File
++++++++++++++++++++++++++++++++++++
Date: Mon Jun 06 13:19:37 CEST 2016
User: root
Dark Spectrum Present: No
Reference Spectrum Present: No
Number of Sampled Component Spectra: 1
Spectrometers: USB4C02835
Integration Time (usec): 100000 (USB4C02835)
Spectra Averaged: 1 (USB4C02835)
Boxcar Smoothing: 0 (USB4C02835)
Correct for Electrical Dark: No (USB4C02835)
Strobe/Lamp Enabled: No (USB4C02835)
Correct for Detector Non-linearity: No (USB4C02835)
Correct for Stray Light: No (USB4C02835)
Number of Pixels in Processed Spectrum: 3648
>>>>>Begin Processed Spectral Data<<<<<
177.47	1472.49
177.69	1472.49
177.91	1472.49
178.13	1587.18
178.36	1423.34
178.58	1648.61
178.80	1687.53
179.02	1636.33
179.24	1644.52
179.46	1611.75
179.68	1761.25
179.90	1701.86
180.13	1605.61
180.35	1675.24
180.57	1665.00
180.79	1761.25
181.01	1724.39
181.23	1746.92
181.45	1662.95
181.67	1673.19
181.90	1812.45
182.12	1701.86
182.34	1665.00
182.56	1642.47
182.78	1681.38
183.00	1710.05
183.22	1701.86
183.44	1609.70
183.66	1828.84
183.89	1808.36
184.11	1714.15
184.33	1697.77
184.55	1767.40
184.77	1689.57
184.99	1677.29
185.21	1703.91
185.43	1787.88
185.65	1656.81
185.87	1714.15
186.10	1920.99
186.32	1796.07
186.54	1724.39
186.76	1689.57
186.98	1679.33
187.20	1708.01
187.42	1679.33
187.64	1701.86
187.86	1718.25
188.08	1771.49
188.30	1675.24
188.52	1652.71
188.75	1800.16
188.97	1794.02
189.19	1689.57
189.41	1736.68
189.63	1751.01
189.85	1642.47
190.07	1607.66
190.29	1671.14
190.51	1748.97
190.73	1611.75
190.95	1773.54
191.17	1804.26
191.39	1644.52
191.61	1607.66
191.84	1685.48
192.06	1697.77
192.28	1572.84
192.50	1812.45
192.72	1759.21
192.94	1699.81
193.16	1746.92
193.38	1718.25
193.60	1607.66
193.82	1679.33
194.04	1773.54
194.26	1687.53
194.48	1714.15
194.70	1662.95
194.92	1687.53
195.14	1820.64
195.36	1626.09
195.58	1720.29
195.80	1689.57
196.02	1613.80
196.24	1679.33
196.46	1744.87
196.69	1671.14
196.91	1871.84
197.13	1724.39
197.35	1701.86
197.57	1800.16
197.79	1736.68
198.01	1710.05
198.23	1746.92
198.45	1722.34
198.67	1689.57
198.89	1699.81
199.11	1738.73
199.33	1681.38
199.55	1624.04
199.77	1767.40
199.99	1796.07
200.21	1724.39
200.43	1744.87
200.65	1609.70
200.87	1599.46
201.09	1699.81
201.31	1667.05
201.53	1787.88
201.75	1693.67
201.97	1646.57
202.19	1691.62
202.41	1722.34
202.63	1800.16
202.85	1665.00
203.07	1689.57
203.29	1751.01
203.51	1658.85
203.73	1630.18
203.95	1880.04
204.17	1646.57
204.39	1671.14
204.61	1642.47
204.83	1648.61
205.05	1710.05
205.27	1775.59
205.49	1787.88
205.71	1685.48
205.93	1681.38
206.15	1656.81
206.37	1724.39
206.59	1714.15
206.81	1656.81
207.03	1691.62
207.25	1689.57
207.47	1734.63
207.69	1740.77
207.91	1769.44
208.13	1740.77
208.34	1587.18
208.56	1646.57
208.78	1716.20
209.00	1728.49
209.22	1566.70
209.44	1660.90
209.66	1544.17
209.88	1632.23
210.10	1730.53
210.32	1632.23
210.54	1781.73
210.76	1619.94
210.98	1779.68
211.20	1652.71
211.42	1683.43
211.64	1736.68
211.86	1726.44
212.08	1771.49
212.30	1703.91
212.52	1710.05
212.74	1732.58
212.96	1677.29
213.17	1728.49
213.39	1728.49
213.61	1837.03
213.83	1744.87
214.05	1609.70
214.27	1742.82
214.49	1665.00
214.71	1667.05
214.93	1679.33
215.15	1726.44
215.37	1718.25
215.59	1652.71
215.81	1738.73
216.03	1796.07
216.24	1681.38
216.46	1712.10
216.68	1650.66
216.90	1742.82
217.12	1777.64
217.34	1667.05
217.56	1693.67
217.78	1748.97
218.00	1683.43
218.22	1703.91
218.44	1751.01
218.66	1746.92
218.87	1738.73
219.09	1673.19
219.31	1759.21
219.53	1718.25
219.75	1703.91
219.97	1714.15
220.19	1767.40
220.41	1708.01
220.63	1751.01
220.85	1675.24
221.06	1697.77
221.28	1742.82
221.50	1708.01
221.72	1728.49
221.94	1685.48
222.16	1699.81
222.38	1667.05
222.60	1746.92
222.82	1658.85
223.03	1746.92
223.25	1634.28
223.47	1705.96
223.69	1718.25
223.91	1730.53
224.13	1701.86
224.35	1621.99
224.57	1720.29
224.78	1703.91
225.00	1703.91
225.22	1755.11
225.44	1650.66
225.66	1767.40
225.88	1640.42
226.10	1804.26
226.32	1759.21
226.53	1773.54
226.75	1646.57
226.97	1763.30
227.19	1724.39
227.41	1660.90
227.63	1660.90
227.85	1544.17
228.06	1621.99
228.28	1656.81
228.50	1730.53
228.72	1617.90
228.94	1697.77
229.16	1611.75
229.37	1624.04
229.59	1671.14
229.81	1775.59
230.03	1607.66
230.25	1697.77
230.47	1665.00
230.69	1628.14
230.90	1675.24
231.12	1628.14
231.34	1658.85
231.56	1673.19
231.78	1705.96
232.00	1703.91
232.21	1697.77
232.43	1642.47
232.65	1621.99
232.87	1802.21
233.09	1656.81
233.30	1681.38
233.52	1761.25
233.74	1652.71
233.96	1708.01
234.18	1703.91
234.40	1624.04
234.61	1804.26
234.83	1607.66
235.05	1658.85
235.27	1802.21
235.49	1837.03
235.70	1671.14
235.92	1765.35
236.14	1769.44
236.36	1923.04
236.58	1755.11
236.79	1740.77
237.01	1667.05
237.23	1679.33
237.45	1769.44
237.67	1681.38
237.88	1738.73
238.10	1843.17
238.32	1591.27
238.54	1705.96
238.76	1687.53
238.97	1648.61
239.19	1685.48
239.41	1724.39
239.63	1665.00
239.85	1708.01
240.06	1685.48
240.28	1601.51
240.50	1746.92
240.72	1679.33
240.93	1701.86
241.15	1783.78
241.37	1601.51
241.59	1695.72
241.81	1742.82
242.02	1722.34
242.24	1759.21
242.46	1740.77
242.68	1685.48
242.89	1669.09
243.11	1695.72
243.33	1636.33
243.55	1806.31
243.76	1703.91
243.98	1677.29
244.20	1685.48
244.42	1765.35
244.64	1634.28
244.85	1578.98
245.07	1652.71
245.29	1699.81
245.51	1769.44
245.72	1728.49
245.94	1826.79
246.16	1697.77
246.38	1730.53
246.59	1667.05
246.81	1697.77
247.03	1650.66
247.24	1595.37
247.46	1701.86
247.68	1693.67
247.90	1634.28
248.11	1650.66
248.33	1796.07
248.55	1544.17
248.77	1705.96
248.98	1730.53
249.20	1759.21
249.42	1691.62
249.64	1751.01
249.85	1779.68
250.07	1630.18
250.29	1671.14
250.50	1738.73
250.72	1593.32
250.94	1693.67
251.16	1775.59
251.37	1740.77
251.59	1748.97
251.81	1779.68
252.02	1767.40
252.24	1695.72
252.46	1718.25
252.68	1753.06
252.89	1636.33
253.11	1665.00
253.33	1740.77
253.54	1742.82
253.76	1591.27
253.98	1726.44
254.20	1650.66
254.41	1652.71
254.63	1656.81
254.85	1632.23
255.06	1638.38
255.28	1755.11
255.50	1650.66
255.71	1597.42
255.93	1714.15
256.15	1724.39
256.36	1734.63
256.58	1730.53
256.80	1697.77
257.02	1705.96
257.23	1681.38
257.45	1748.97
257.67	1714.15
257.88	1708.01
258.10	1669.09
258.32	1662.95
258.53	1617.90
258.75	1783.78
258.97	1632.23
259.18	1720.29
259.40	1710.05
259.62	1822.69
259.83	1828.84
260.05	1767.40
260.27	1980.39
260.48	1708.01
260.70	1562.60
260.92	1701.86
261.13	1708.01
261.35	1695.72
261.57	1705.96
261.78	1617.90
262.00	1624.04
262.22	1677.29
262.43	1665.00
262.65	1642.47
262.86	1697.77
263.08	1740.77
263.30	1691.62
263.51	1605.61
263.73	1687.53
263.95	1861.60
264.16	1583.08
264.38	1656.81
264.60	1771.49
264.81	1687.53
265.03	1847.27
265.25	1783.78
265.46	1644.52
265.68	1712.10
265.89	1679.33
266.11	1611.75
266.33	1759.21
266.54	1724.39
266.76	1767.40
266.98	1714.15
267.19	1779.68
267.41	1804.26
267.62	1656.81
267.84	1615.85
268.06	1716.20
268.27	1740.77
268.49	1802.21
268.70	1832.93
268.92	1634.28
269.14	1581.03
269.35	1630.18
269.57	1679.33
269.79	1810.40
270.00	1642.47
270.22	1783.78
270.43	1624.04
270.65	1640.42
270.87	1660.90
271.08	1660.90
271.30	1755.11
271.51	1675.24
271.73	1732.58
271.95	1740.77
272.16	1679.33
272.38	1689.57
272.59	1677.29
272.81	1650.66
273.02	1759.21
273.24	1751.01
273.46	1710.05
273.67	1591.27
273.89	1640.42
274.10	1636.33
274.32	1724.39
274.54	1714.15
274.75	1714.15
274.97	1646.57
275.18	1794.02
275.40	1738.73
275.61	1710.05
275.83	1740.77
276.05	1558.50
276.26	1689.57
276.48	1742.82
276.69	1611.75
276.91	1570.79
277.12	1759.21
277.34	1710.05
277.55	1742.82
277.77	1619.94
277.99	1621.99
278.20	1650.66
278.42	1605.61
278.63	1671.14
278.85	1615.85
279.06	1593.32
279.28	1695.72
279.49	1761.25
279.71	1769.44
279.93	1591.27
280.14	1652.71
280.36	1644.52
280.57	1734.63
280.79	1740.77
281.00	1675.24
281.22	1681.38
281.43	1826.79
281.65	1603.56
281.86	1658.85
282.08	1757.16
282.29	1767.40
282.51	1574.89
282.73	1671.14
282.94	1581.03
283.16	1812.45
283.37	1806.31
283.59	1703.91
283.80	1691.62
284.02	1718.25
284.23	1665.00
284.45	1671.14
284.66	1634.28
284.88	1652.71
285.09	1785.83
285.31	1638.38
285.52	1691.62
285.74	1640.42
285.95	1701.86
286.17	1808.36
286.38	1755.11
286.60	1724.39
286.81	1650.66
287.03	1718.25
287.24	1665.00
287.46	1726.44
287.67	1736.68
287.89	1787.88
288.10	1716.20
288.32	1755.11
288.53	1759.21
288.75	1761.25
288.96	1746.92
289.18	1642.47
289.39	1677.29
289.61	1656.81
289.82	1722.34
290.04	1808.36
290.25	1669.09
290.47	1740.77
290.68	1708.01
290.90	1738.73
291.11	1658.85
291.33	1718.25
291.54	1644.52
291.76	1677.29
291.97	1708.01
292.18	1701.86
292.40	1669.09
292.61	1640.42
292.83	1796.07
293.04	1751.01
293.26	1761.25
293.47	1665.00
293.69	1673.19
293.90	1699.81
294.12	1828.84
294.33	1705.96
294.55	1705.96
294.76	1759.21
294.97	1714.15
295.19	1812.45
295.40	1662.95
295.62	1662.95
295.83	1767.40
296.05	1669.09
296.26	1748.97
296.48	1634.28
296.69	1732.58
296.90	1667.05
297.12	1742.82
297.33	1746.92
297.55	1675.24
297.76	1730.53
297.98	1738.73
298.19	1679.33
298.41	1720.29
298.62	1685.48
298.83	1761.25
299.05	1669.09
299.26	1648.61
299.48	1683.43
299.69	1742.82
299.90	1665.00
300.12	1660.90
300.33	1693.67
300.55	1712.10
300.76	1722.34
300.98	1599.46
301.19	1755.11
301.40	1683.43
301.62	1681.38
301.83	1703.91
302.05	1695.72
302.26	1705.96
302.47	1669.09
302.69	1628.14
302.90	1687.53
303.12	1607.66
303.33	1757.16
303.54	1816.55
303.76	1710.05
303.97	1763.30
304.19	1751.01
304.40	1722.34
304.61	1755.11
304.83	1812.45
305.04	1753.06
305.26	1742.82
305.47	1624.04
305.68	1730.53
305.90	1652.71
306.11	1769.44
306.33	1781.73
306.54	1607.66
306.75	1687.53
306.97	1572.84
307.18	1646.57
307.39	1683.43
307.61	1769.44
307.82	1761.25
308.04	1705.96
308.25	1667.05
308.46	1738.73
308.68	1642.47
308.89	1685.48
309.10	1718.25
309.32	1658.85
309.53	1775.59
309.74	1794.02
309.96	1640.42
310.17	1675.24
310.39	1669.09
310.60	1722.34
310.81	1675.24
311.03	1714.15
311.24	1697.77
311.45	1681.38
311.67	1828.84
311.88	1734.63
312.09	1712.10
312.31	1720.29
312.52	1564.65
312.73	1687.53
312.95	1605.61
313.16	1673.19
313.37	1736.68
313.59	1681.38
313.80	1740.77
314.01	1724.39
314.23	1712.10
314.44	1630.18
314.65	1650.66
314.87	1662.95
315.08	1693.67
315.29	1619.94
315.51	1638.38
315.72	1693.67
315.93	1863.65
316.15	1738.73
316.36	1693.67
316.57	1677.29
316.79	1748.97
317.00	1718.25
317.21	1753.06
317.43	1652.71
317.64	1724.39
317.85	1576.94
318.07	1671.14
318.28	1703.91
318.49	1851.36
318.70	1882.08
318.92	1812.45
319.13	1812.45
319.34	1820.64
319.56	1787.88
319.77	1787.88
319.98	1785.83
320.20	1806.31
320.41	1724.39
320.62	1722.34
320.83	1619.94
321.05	1880.04
321.26	1748.97
321.47	1638.38
321.69	1759.21
321.90	1656.81
322.11	1648.61
322.32	1697.77
322.54	1767.40
322.75	1722.34
322.96	1837.03
323.18	1597.42
323.39	1613.80
323.60	1658.85
323.81	1779.68
324.03	1689.57
324.24	1638.38
324.45	1683.43
324.66	1609.70
324.88	1812.45
325.09	1773.54
325.30	1656.81
325.52	1714.15
325.73	1669.09
325.94	1656.81
326.15	1708.01
326.37	1722.34
326.58	1763.30
326.79	1800.16
327.00	1669.09
327.22	1738.73
327.43	1683.43
327.64	1572.84
327.85	1681.38
328.07	1691.62
328.28	1789.92
328.49	1665.00
328.70	1761.25
328.92	1624.04
329.13	1748.97
329.34	1685.48
329.55	1828.84
329.76	1740.77
329.98	1701.86
330.19	1662.95
330.40	1681.38
330.61	1683.43
330.83	1748.97
331.04	1681.38
331.25	1714.15
331.46	1714.15
331.68	1708.01
331.89	1732.58
332.10	1746.92
332.31	1656.81
332.52	1650.66
332.74	1781.73
332.95	1599.46
333.16	1697.77
333.37	1775.59
333.58	1716.20
333.80	1677.29
334.01	1609.70
334.22	1673.19
334.43	1718.25
334.64	1689.57
334.86	1626.09
335.07	1603.56
335.28	1775.59
335.49	1703.91
335.70	1724.39
335.92	1794.02
336.13	1787.88
336.34	1724.39
336.55	1646.57
336.76	1669.09
336.98	1560.55
337.19	1689.57
337.40	1781.73
337.61	1882.08
337.82	1687.53
338.04	1802.21
338.25	1648.61
338.46	1718.25
338.67	1613.80
338.88	1646.57
339.09	1624.04
339.31	1685.48
339.52	1587.18
339.73	1578.98
339.94	1699.81
340.15	1724.39
340.36	1740.77
340.58	1675.24
340.79	1626.09
341.00	1771.49
341.21	1599.46
341.42	1773.54
341.63	1708.01
341.85	1808.36
342.06	1705.96
342.27	1607.66
342.48	1744.87
342.69	1593.32
342.90	1730.53
343.12	1675.24
343.33	1679.33
343.54	1724.39
343.75	1779.68
343.96	1687.53
344.17	1691.62
344.38	1722.34
344.60	1634.28
344.81	1589.22
345.02	1646.57
345.23	1779.68
345.44	1724.39
345.65	1667.05
345.86	1703.91
346.07	1650.66
346.29	1644.52
346.50	1656.81
346.71	1845.22
346.92	1705.96
347.13	1820.64
347.34	1683.43
347.55	1687.53
347.76	1738.73
347.98	1626.09
348.19	1773.54
348.40	1753.06
348.61	1669.09
348.82	1796.07
349.03	1726.44
349.24	1654.76
349.45	1804.26
349.66	1591.27
349.88	1642.47
350.09	1599.46
350.30	1751.01
350.51	1787.88
350.72	1685.48
350.93	1763.30
351.14	1658.85
351.35	1710.05
351.56	1726.44
351.77	1677.29
351.99	1759.21
352.20	1730.53
352.41	1755.11
352.62	1535.98
352.83	1718.25
353.04	1746.92
353.25	1603.56
353.46	1773.54
353.67	1785.83
353.88	1607.66
354.09	1738.73
354.30	1736.68
354.52	1701.86
354.73	1755.11
354.94	1648.61
355.15	1751.01
355.36	1808.36
355.57	1636.33
355.78	1695.72
355.99	1634.28
356.20	1656.81
356.41	1789.92
356.62	1730.53
356.83	1679.33
357.04	1738.73
357.25	1626.09
357.46	1662.95
357.68	1613.80
357.89	1658.85
358.10	1697.77
358.31	1738.73
358.52	1683.43
358.73	1673.19
358.94	1574.89
359.15	1576.94
359.36	1742.82
359.57	1732.58
359.78	1687.53
359.99	1753.06
360.20	1695.72
360.41	1662.95
360.62	1740.77
360.83	1787.88
361.04	1656.81
361.25	1757.16
361.46	1740.77
361.67	1716.20
361.88	1808.36
362.09	1794.02
362.30	1734.63
362.51	1665.00
362.72	1710.05
362.93	1781.73
363.14	1777.64
363.35	1714.15
363.56	1624.04
363.78	1746.92
363.99	1789.92
364.20	1660.90
364.41	1757.16
364.62	1787.88
364.83	1656.81
365.04	1718.25
365.25	1675.24
365.46	1890.28
365.67	1685.48
365.88	1685.48
366.09	1742.82
366.30	1775.59
366.51	1738.73
366.72	1699.81
366.93	1648.61
367.14	1701.86
367.35	1837.03
367.56	1716.20
367.77	1720.29
367.98	1665.00
368.18	1650.66
368.39	1806.31
368.60	1667.05
368.81	1738.73
369.02	1673.19
369.23	1662.95
369.44	1636.33
369.65	1677.29
369.86	1789.92
370.07	1775.59
370.28	1636.33
370.49	1673.19
370.70	1640.42
370.91	1660.90
371.12	1685.48
371.33	1748.97
371.54	1712.10
371.75	1755.11
371.96	1624.04
372.17	1654.76
372.38	1691.62
372.59	1685.48
372.80	1677.29
373.01	1660.90
373.22	1650.66
373.43	1716.20
373.64	1732.58
373.85	1847.27
374.06	1826.79
374.26	1703.91
374.47	1734.63
374.68	1763.30
374.89	1716.20
375.10	1634.28
375.31	1773.54
375.52	1691.62
375.73	1683.43
375.94	1667.05
376.15	1802.21
376.36	1677.29
376.57	1708.01
376.78	1677.29
376.99	1699.81
377.20	1767.40
377.40	1769.44
377.61	1828.84
377.82	1607.66
378.03	1701.86
378.24	1705.96
378.45	1753.06
378.66	1617.90
378.87	1554.41
379.08	1601.51
379.29	1726.44
379.50	1753.06
379.71	1734.63
379.91	1746.92
380.12	1720.29
380.33	1738.73
380.54	1728.49
380.75	1667.05
380.96	1697.77
381.17	1820.64
381.38	1718.25
381.59	1757.16
381.80	1742.82
382.00	1787.88
382.21	1730.53
382.42	1890.28
382.63	1900.52
382.84	1687.53
383.05	1767.40
383.26	1783.78
383.47	1808.36
383.68	1785.83
383.88	1742.82
384.09	1753.06
384.30	1808.36
384.51	1636.33
384.72	1613.80
384.93	1693.67
385.14	1695.72
385.35	1755.11
385.55	1675.24
385.76	1744.87
385.97	1785.83
386.18	1650.66
386.39	1652.71
386.60	1730.53
386.81	1685.48
387.02	1695.72
387.22	1681.38
387.43	1742.82
387.64	1738.73
387.85	1822.69
388.06	2260.96
388.27	4288.45
388.48	6631.32
388.68	8171.40
388.89	9490.29
389.10	9766.76
389.31	8566.65
389.52	7749.51
389.73	6625.18
389.93	6260.64
390.14	5918.63
390.35	5111.73
390.56	4421.56
390.77	3719.11
390.98	3088.34
391.18	2453.47
391.39	2160.61
391.60	1828.84
391.81	1839.08
392.02	1724.39
392.23	1820.64
392.43	1687.53
392.64	1744.87
392.85	1693.67
393.06	1767.40
393.27	1759.21
393.47	1683.43
393.68	1689.57
393.89	1615.85
394.10	1726.44
394.31	1667.05
394.52	1665.00
394.72	1656.81
394.93	1781.73
395.14	1638.38
395.35	1734.63
395.56	1679.33
395.76	1703.91
395.97	1730.53
396.18	1789.92
396.39	1806.31
396.60	2011.11
396.80	1931.23
397.01	1834.98
397.22	1814.50
397.43	1861.60
397.64	1701.86
397.84	1771.49
398.05	1943.52
398.26	1791.97
398.47	1755.11
398.67	1804.26
398.88	1796.07
399.09	1738.73
399.30	1748.97
399.51	1734.63
399.71	1646.57
399.92	1722.34
400.13	1773.54
400.34	1681.38
400.54	1662.95
400.75	1820.64
400.96	1671.14
401.17	1830.88
401.37	1703.91
401.58	1726.44
401.79	1703.91
402.00	1820.64
402.21	1984.48
402.41	1929.19
402.62	1927.14
402.83	1945.57
403.04	1949.67
403.24	2009.06
403.45	1800.16
403.66	1847.27
403.87	1820.64
404.07	1820.64
404.28	1964.00
404.49	1888.23
404.70	1773.54
404.90	1847.27
405.11	1763.30
405.32	1761.25
405.52	1742.82
405.73	1574.89
405.94	1636.33
406.15	1734.63
406.35	1732.58
406.56	1720.29
406.77	1701.86
406.98	1771.49
407.18	1695.72
407.39	1839.08
407.60	1730.53
407.80	1761.25
408.01	1728.49
408.22	1693.67
408.43	1683.43
408.63	1722.34
408.84	1712.10
409.05	1751.01
409.25	1624.04
409.46	1634.28
409.67	1685.48
409.88	1652.71
410.08	1701.86
410.29	1640.42
410.50	1804.26
410.70	1736.68
410.91	1585.13
411.12	1697.77
411.32	1691.62
411.53	1677.29
411.74	1759.21
411.95	1732.58
412.15	1677.29
412.36	1806.31
412.57	1755.11
412.77	1796.07
412.98	1720.29
413.19	1683.43
413.39	1642.47
413.60	1716.20
413.81	1806.31
414.01	1626.09
414.22	1681.38
414.43	1773.54
414.63	1669.09
414.84	1697.77
415.05	1693.67
415.25	1636.33
415.46	1753.06
415.67	1742.82
415.87	1748.97
416.08	1691.62
416.29	1681.38
416.49	1785.83
416.70	1681.38
416.91	1714.15
417.11	1609.70
417.32	1722.34
417.53	1763.30
417.73	1677.29
417.94	1638.38
418.15	1701.86
418.35	1734.63
418.56	1656.81
418.77	1816.55
418.97	1746.92
419.18	1640.42
419.38	1583.08
419.59	1675.24
419.80	1746.92
420.00	1605.61
420.21	1769.44
420.42	1673.19
420.62	1703.91
420.83	1624.04
421.04	1679.33
421.24	1673.19
421.45	1728.49
421.65	1730.53
421.86	1724.39
422.07	1703.91
422.27	1757.16
422.48	1703.91
422.69	1699.81
422.89	1605.61
423.10	1650.66
423.30	1626.09
423.51	1658.85
423.72	1683.43
423.92	1755.11
424.13	1683.43
424.33	1660.90
424.54	1744.87
424.75	1714.15
424.95	1800.16
425.16	1757.16
425.36	1755.11
425.57	1722.34
425.78	1722.34
425.98	1761.25
426.19	1665.00
426.39	1722.34
426.60	1714.15
426.81	1736.68
427.01	1677.29
427.22	1624.04
427.42	1558.50
427.63	1718.25
427.83	1775.59
428.04	1787.88
428.25	1753.06
428.45	1767.40
428.66	1849.32
428.86	1755.11
429.07	1691.62
429.28	1689.57
429.48	1654.76
429.69	1650.66
429.89	1705.96
430.10	1687.53
430.30	1755.11
430.51	1804.26
430.71	1640.42
430.92	1681.38
431.13	1640.42
431.33	1714.15
431.54	1767.40
431.74	1775.59
431.95	1818.60
432.15	1634.28
432.36	1716.20
432.56	1689.57
432.77	1894.37
432.98	1830.88
433.18	1746.92
433.39	1714.15
433.59	1736.68
433.80	1853.41
434.00	1800.16
434.21	1701.86
434.41	1630.18
434.62	1863.65
434.82	1638.38
435.03	1646.57
435.23	1753.06
435.44	1599.46
435.64	1687.53
435.85	1697.77
436.06	1703.91
436.26	1724.39
436.47	1636.33
436.67	1695.72
436.88	1671.14
437.08	1734.63
437.29	1832.93
437.49	1654.76
437.70	1652.71
437.90	1708.01
438.11	1812.45
438.31	1769.44
438.52	1861.60
438.72	1820.64
438.93	1906.66
439.13	1812.45
439.34	1904.61
439.54	1740.77
439.75	1775.59
439.95	1796.07
440.16	1667.05
440.36	1771.49
440.57	1738.73
440.77	1798.12
440.98	1771.49
441.18	1800.16
441.39	1693.67
441.59	1648.61
441.80	1773.54
442.00	1728.49
442.21	1751.01
442.41	1595.37
442.62	1816.55
442.82	1693.67
443.02	1744.87
443.23	1832.93
443.43	1720.29
443.64	1802.21
443.84	1697.77
444.05	1753.06
444.25	1796.07
444.46	1746.92
444.66	1800.16
444.87	1804.26
445.07	1701.86
445.28	1703.91
445.48	1828.84
445.69	1853.41
445.89	1867.75
446.09	1771.49
446.30	1945.57
446.50	2643.93
446.71	3803.08
446.91	4335.55
447.12	4814.77
447.32	4712.38
447.53	4308.93
447.73	3798.98
447.93	3493.83
448.14	3356.62
448.34	3194.83
448.55	2838.48
448.75	2828.24
448.96	2670.55
449.16	2398.17
449.36	2375.64
449.57	2142.18
449.77	1910.75
449.98	1798.12
450.18	1863.65
450.39	1843.17
450.59	1783.78
450.79	1775.59
451.00	1640.42
451.20	1777.64
451.41	1712.10
451.61	1798.12
451.81	1742.82
452.02	1689.57
452.22	1656.81
452.43	1732.58
452.63	1753.06
