SpectraSuite Data File
++++++++++++++++++++++++++++++++++++
Date: Mon Jun 06 16:30:17 CEST 2016
User: root
Dark Spectrum Present: No
Reference Spectrum Present: No
Number of Sampled Component Spectra: 1
Spectrometers: USB4C02835
Integration Time (usec): 100000 (USB4C02835)
Spectra Averaged: 1 (USB4C02835)
Boxcar Smoothing: 0 (USB4C02835)
Correct for Electrical Dark: No (USB4C02835)
Strobe/Lamp Enabled: No (USB4C02835)
Correct for Detector Non-linearity: No (USB4C02835)
Correct for Stray Light: No (USB4C02835)
Number of Pixels in Processed Spectrum: 3648
>>>>>Begin Processed Spectral Data<<<<<
177.47	1492.97
177.69	1492.97
177.91	1492.97
178.13	1476.59
178.36	1464.30
178.58	1677.29
178.80	1781.73
179.02	1554.41
179.24	1603.56
179.46	1689.57
179.68	1755.11
179.90	1710.05
180.13	1695.72
180.35	1665.00
180.57	1654.76
180.79	1769.44
181.01	1685.48
181.23	1738.73
181.45	1787.88
181.67	1701.86
181.90	1746.92
182.12	1732.58
182.34	1570.79
182.56	1730.53
182.78	1769.44
183.00	1689.57
183.22	1705.96
183.44	1689.57
183.66	1908.71
183.89	1771.49
184.11	1814.50
184.33	1695.72
184.55	1802.21
184.77	1765.35
184.99	1734.63
185.21	1642.47
185.43	1812.45
185.65	1685.48
185.87	1714.15
186.10	1888.23
186.32	1865.70
186.54	1701.86
186.76	1787.88
186.98	1759.21
187.20	1701.86
187.42	1718.25
187.64	1746.92
187.86	1693.67
188.08	1734.63
188.30	1675.24
188.52	1708.01
188.75	1740.77
188.97	1783.78
189.19	1648.61
189.41	1697.77
189.63	1746.92
189.85	1728.49
190.07	1734.63
190.29	1681.38
190.51	1843.17
190.73	1615.85
190.95	1726.44
191.17	1687.53
191.39	1615.85
191.61	1671.14
191.84	1660.90
192.06	1675.24
192.28	1636.33
192.50	1841.12
192.72	1767.40
192.94	1665.00
193.16	1779.68
193.38	1736.68
193.60	1665.00
193.82	1662.95
194.04	1806.31
194.26	1691.62
194.48	1738.73
194.70	1650.66
194.92	1796.07
195.14	1714.15
195.36	1607.66
195.58	1781.73
195.80	1615.85
196.02	1615.85
196.24	1654.76
196.46	1736.68
196.69	1705.96
196.91	1873.89
197.13	1679.33
197.35	1753.06
197.57	1748.97
197.79	1726.44
198.01	1640.42
198.23	1736.68
198.45	1699.81
198.67	1640.42
198.89	1685.48
199.11	1667.05
199.33	1660.90
199.55	1597.42
199.77	1691.62
199.99	1796.07
200.21	1648.61
200.43	1710.05
200.65	1591.27
200.87	1638.38
201.09	1685.48
201.31	1673.19
201.53	1746.92
201.75	1685.48
201.97	1806.31
202.19	1708.01
202.41	1794.02
202.63	1873.89
202.85	1665.00
203.07	1638.38
203.29	1624.04
203.51	1636.33
203.73	1632.23
203.95	1828.84
204.17	1705.96
204.39	1812.45
204.61	1671.14
204.83	1697.77
205.05	1722.34
205.27	1798.12
205.49	1826.79
205.71	1726.44
205.93	1665.00
206.15	1703.91
206.37	1681.38
206.59	1730.53
206.81	1642.47
207.03	1691.62
207.25	1730.53
207.47	1804.26
207.69	1730.53
207.91	1832.93
208.13	1796.07
208.34	1699.81
208.56	1611.75
208.78	1742.82
209.00	1716.20
209.22	1697.77
209.44	1624.04
209.66	1763.30
209.88	1624.04
210.10	1665.00
210.32	1665.00
210.54	1806.31
210.76	1687.53
210.98	1765.35
211.20	1619.94
211.42	1769.44
211.64	1837.03
211.86	1744.87
212.08	1771.49
212.30	1753.06
212.52	1662.95
212.74	1746.92
212.96	1755.11
213.17	1787.88
213.39	1746.92
213.61	1845.22
213.83	1638.38
214.05	1615.85
214.27	1787.88
214.49	1683.43
214.71	1658.85
214.93	1767.40
215.15	1665.00
215.37	1724.39
215.59	1603.56
215.81	1775.59
216.03	1714.15
216.24	1775.59
216.46	1667.05
216.68	1746.92
216.90	1798.12
217.12	1820.64
217.34	1730.53
217.56	1718.25
217.78	1830.88
218.00	1691.62
218.22	1779.68
218.44	1722.34
218.66	1703.91
218.87	1748.97
219.09	1710.05
219.31	1773.54
219.53	1726.44
219.75	1755.11
219.97	1757.16
220.19	1691.62
220.41	1716.20
220.63	1701.86
220.85	1763.30
221.06	1681.38
221.28	1781.73
221.50	1705.96
221.72	1705.96
221.94	1632.23
222.16	1685.48
222.38	1726.44
222.60	1761.25
222.82	1701.86
223.03	1742.82
223.25	1736.68
223.47	1837.03
223.69	1834.98
223.91	1759.21
224.13	1773.54
224.35	1650.66
224.57	1759.21
224.78	1794.02
225.00	1683.43
225.22	1648.61
225.44	1720.29
225.66	1734.63
225.88	1673.19
226.10	1767.40
226.32	1746.92
226.53	1812.45
226.75	1697.77
226.97	1693.67
227.19	1667.05
227.41	1591.27
227.63	1669.09
227.85	1556.46
228.06	1744.87
228.28	1751.01
228.50	1773.54
228.72	1599.46
228.94	1720.29
229.16	1538.02
229.37	1675.24
229.59	1675.24
229.81	1804.26
230.03	1765.35
230.25	1638.38
230.47	1665.00
230.69	1667.05
230.90	1785.83
231.12	1691.62
231.34	1638.38
231.56	1761.25
231.78	1636.33
232.00	1738.73
232.21	1728.49
232.43	1736.68
232.65	1570.79
232.87	1679.33
233.09	1687.53
233.30	1660.90
233.52	1814.50
233.74	1667.05
233.96	1656.81
234.18	1757.16
234.40	1652.71
234.61	1798.12
234.83	1652.71
235.05	1669.09
235.27	1923.04
235.49	1791.97
235.70	1730.53
235.92	1783.78
236.14	1738.73
236.36	1773.54
236.58	1619.94
236.79	1748.97
237.01	1728.49
237.23	1710.05
237.45	1796.07
237.67	1687.53
237.88	1730.53
238.10	1806.31
238.32	1691.62
238.54	1693.67
238.76	1687.53
238.97	1703.91
239.19	1656.81
239.41	1796.07
239.63	1816.55
239.85	1703.91
240.06	1671.14
240.28	1744.87
240.50	1714.15
240.72	1744.87
240.93	1728.49
241.15	1816.55
241.37	1673.19
241.59	1734.63
241.81	1683.43
242.02	1669.09
242.24	1777.64
242.46	1769.44
242.68	1677.29
242.89	1734.63
243.11	1785.83
243.33	1730.53
243.55	1703.91
243.76	1724.39
243.98	1628.14
244.20	1683.43
244.42	1662.95
244.64	1677.29
244.85	1677.29
245.07	1658.85
245.29	1681.38
245.51	1669.09
245.72	1796.07
245.94	1804.26
246.16	1726.44
246.38	1783.78
246.59	1656.81
246.81	1660.90
247.03	1708.01
247.24	1675.24
247.46	1685.48
247.68	1769.44
247.90	1710.05
248.11	1720.29
248.33	1775.59
248.55	1761.25
248.77	1656.81
248.98	1714.15
249.20	1722.34
249.42	1746.92
249.64	1734.63
249.85	1681.38
250.07	1751.01
250.29	1761.25
250.50	1798.12
250.72	1665.00
250.94	1742.82
251.16	1789.92
251.37	1777.64
251.59	1724.39
251.81	1765.35
252.02	1824.74
252.24	1746.92
252.46	1744.87
252.68	1581.03
252.89	1730.53
253.11	1650.66
253.33	1884.13
253.54	1781.73
253.76	1626.09
253.98	1636.33
254.20	1728.49
254.41	1652.71
254.63	1697.77
254.85	1673.19
255.06	1726.44
255.28	1765.35
255.50	1732.58
255.71	1617.90
255.93	1609.70
256.15	1701.86
256.36	1755.11
256.58	1673.19
256.80	1683.43
257.02	1693.67
257.23	1703.91
257.45	1681.38
257.67	1783.78
257.88	1665.00
258.10	1703.91
258.32	1683.43
258.53	1818.60
258.75	1791.97
258.97	1683.43
259.18	1687.53
259.40	1722.34
259.62	1738.73
259.83	1757.16
260.05	1738.73
260.27	2019.30
260.48	1665.00
260.70	1675.24
260.92	1662.95
261.13	1726.44
261.35	1654.76
261.57	1730.53
261.78	1603.56
262.00	1617.90
262.22	1742.82
262.43	1667.05
262.65	1773.54
262.86	1648.61
263.08	1867.75
263.30	1675.24
263.51	1583.08
263.73	1640.42
263.95	1769.44
264.16	1685.48
264.38	1605.61
264.60	1751.01
264.81	1744.87
265.03	1779.68
265.25	1736.68
265.46	1660.90
265.68	1796.07
265.89	1816.55
266.11	1630.18
266.33	1759.21
266.54	1716.20
266.76	1705.96
266.98	1689.57
267.19	1751.01
267.41	1751.01
267.62	1705.96
267.84	1695.72
268.06	1728.49
268.27	1691.62
268.49	1841.12
268.70	1718.25
268.92	1681.38
269.14	1644.52
269.35	1636.33
269.57	1728.49
269.79	1742.82
270.00	1648.61
270.22	1748.97
270.43	1677.29
270.65	1562.60
270.87	1710.05
271.08	1769.44
271.30	1742.82
271.51	1744.87
271.73	1785.83
271.95	1796.07
272.16	1761.25
272.38	1763.30
272.59	1658.85
272.81	1751.01
273.02	1693.67
273.24	1726.44
273.46	1832.93
273.67	1693.67
273.89	1626.09
274.10	1757.16
274.32	1730.53
274.54	1708.01
274.75	1660.90
274.97	1675.24
275.18	1708.01
275.40	1759.21
275.61	1701.86
275.83	1759.21
276.05	1693.67
276.26	1710.05
276.48	1665.00
276.69	1681.38
276.91	1697.77
277.12	1691.62
277.34	1771.49
277.55	1714.15
277.77	1689.57
277.99	1763.30
278.20	1656.81
278.42	1607.66
278.63	1642.47
278.85	1699.81
279.06	1621.99
279.28	1716.20
279.49	1761.25
279.71	1763.30
279.93	1718.25
280.14	1679.33
280.36	1697.77
280.57	1716.20
280.79	1759.21
281.00	1773.54
281.22	1597.42
281.43	1765.35
281.65	1538.02
281.86	1646.57
282.08	1658.85
282.29	1859.56
282.51	1632.23
282.73	1742.82
282.94	1648.61
283.16	1818.60
283.37	1837.03
283.59	1699.81
283.80	1802.21
284.02	1681.38
284.23	1781.73
284.45	1615.85
284.66	1640.42
284.88	1718.25
285.09	1738.73
285.31	1798.12
285.52	1671.14
285.74	1624.04
285.95	1744.87
286.17	1689.57
286.38	1748.97
286.60	1730.53
286.81	1646.57
287.03	1650.66
287.24	1669.09
287.46	1693.67
287.67	1705.96
287.89	1865.70
288.10	1693.67
288.32	1736.68
288.53	1763.30
288.75	1693.67
288.96	1759.21
289.18	1609.70
289.39	1695.72
289.61	1775.59
289.82	1785.83
290.04	1828.84
290.25	1691.62
290.47	1640.42
290.68	1630.18
290.90	1687.53
291.11	1556.46
291.33	1841.12
291.54	1701.86
291.76	1619.94
291.97	1705.96
292.18	1703.91
292.40	1695.72
292.61	1708.01
292.83	1855.46
293.04	1720.29
293.26	1734.63
293.47	1644.52
293.69	1660.90
293.90	1736.68
294.12	1834.98
294.33	1724.39
294.55	1671.14
294.76	1779.68
294.97	1826.79
295.19	1853.41
295.40	1685.48
295.62	1730.53
295.83	1834.98
296.05	1701.86
296.26	1787.88
296.48	1636.33
296.69	1636.33
296.90	1710.05
297.12	1787.88
297.33	1830.88
297.55	1712.10
297.76	1701.86
297.98	1794.02
298.19	1703.91
298.41	1734.63
298.62	1695.72
298.83	1740.77
299.05	1757.16
299.26	1744.87
299.48	1640.42
299.69	1818.60
299.90	1697.77
300.12	1660.90
300.33	1744.87
300.55	1710.05
300.76	1660.90
300.98	1671.14
301.19	1785.83
301.40	1662.95
301.62	1703.91
301.83	1804.26
302.05	1759.21
302.26	1691.62
302.47	1738.73
302.69	1687.53
302.90	1724.39
303.12	1617.90
303.33	1738.73
303.54	1820.64
303.76	1667.05
303.97	1722.34
304.19	1875.94
304.40	1624.04
304.61	1677.29
304.83	1734.63
305.04	1767.40
305.26	1755.11
305.47	1654.76
305.68	1738.73
305.90	1621.99
306.11	1730.53
306.33	1732.58
306.54	1621.99
306.75	1677.29
306.97	1597.42
307.18	1646.57
307.39	1732.58
307.61	1730.53
307.82	1662.95
308.04	1789.92
308.25	1626.09
308.46	1740.77
308.68	1765.35
308.89	1650.66
309.10	1734.63
309.32	1730.53
309.53	1710.05
309.74	1673.19
309.96	1712.10
310.17	1751.01
310.39	1730.53
310.60	1742.82
310.81	1716.20
311.03	1615.85
311.24	1796.07
311.45	1708.01
311.67	1865.70
311.88	1691.62
312.09	1748.97
312.31	1708.01
312.52	1718.25
312.73	1773.54
312.95	1652.71
313.16	1767.40
313.37	1830.88
313.59	1736.68
313.80	1779.68
314.01	1773.54
314.23	1658.85
314.44	1642.47
314.65	1642.47
314.87	1710.05
315.08	1624.04
315.29	1583.08
315.51	1662.95
315.72	1626.09
315.93	1779.68
316.15	1787.88
316.36	1656.81
316.57	1697.77
316.79	1769.44
317.00	1720.29
317.21	1669.09
317.43	1660.90
317.64	1675.24
317.85	1640.42
318.07	1619.94
318.28	1746.92
318.49	1746.92
318.70	1882.08
318.92	1812.45
319.13	1808.36
319.34	1937.38
319.56	1736.68
319.77	1777.64
319.98	1787.88
320.20	1785.83
320.41	1816.55
320.62	1724.39
320.83	1656.81
321.05	1837.03
321.26	1773.54
321.47	1746.92
321.69	1771.49
321.90	1693.67
322.11	1695.72
322.32	1722.34
322.54	1820.64
322.75	1736.68
322.96	1685.48
323.18	1673.19
323.39	1535.98
323.60	1705.96
323.81	1724.39
324.03	1722.34
324.24	1689.57
324.45	1701.86
324.66	1718.25
324.88	1767.40
325.09	1861.60
325.30	1740.77
325.52	1720.29
325.73	1691.62
325.94	1658.85
326.15	1699.81
326.37	1667.05
326.58	1832.93
326.79	1779.68
327.00	1779.68
327.22	1708.01
327.43	1701.86
327.64	1691.62
327.85	1718.25
328.07	1685.48
328.28	1794.02
328.49	1665.00
328.70	1669.09
328.92	1753.06
329.13	1720.29
329.34	1767.40
329.55	1781.73
329.76	1714.15
329.98	1689.57
330.19	1884.13
330.40	1755.11
330.61	1710.05
330.83	1841.12
331.04	1679.33
331.25	1673.19
331.46	1654.76
331.68	1769.44
331.89	1828.84
332.10	1712.10
332.31	1613.80
332.52	1761.25
332.74	1783.78
332.95	1699.81
333.16	1662.95
333.37	1828.84
333.58	1734.63
333.80	1652.71
334.01	1632.23
334.22	1667.05
334.43	1705.96
334.64	1705.96
334.86	1665.00
335.07	1679.33
335.28	1748.97
335.49	1617.90
335.70	1761.25
335.92	1894.37
336.13	1824.74
336.34	1714.15
336.55	1724.39
336.76	1699.81
336.98	1626.09
337.19	1736.68
337.40	1800.16
337.61	1843.17
337.82	1738.73
338.04	1781.73
338.25	1527.78
338.46	1669.09
338.67	1767.40
338.88	1603.56
339.09	1675.24
339.31	1728.49
339.52	1691.62
339.73	1660.90
339.94	1634.28
340.15	1757.16
340.36	1675.24
340.58	1703.91
340.79	1765.35
341.00	1734.63
341.21	1705.96
341.42	1804.26
341.63	1736.68
341.85	1751.01
342.06	1714.15
342.27	1599.46
342.48	1738.73
342.69	1646.57
342.90	1789.92
343.12	1751.01
343.33	1646.57
343.54	1761.25
343.75	1771.49
343.96	1744.87
344.17	1708.01
344.38	1740.77
344.60	1656.81
344.81	1611.75
345.02	1763.30
345.23	1865.70
345.44	1804.26
345.65	1779.68
345.86	1761.25
346.07	1689.57
346.29	1703.91
346.50	1814.50
346.71	1685.48
346.92	1748.97
347.13	1798.12
347.34	1671.14
347.55	1699.81
347.76	1748.97
347.98	1642.47
348.19	1636.33
348.40	1746.92
348.61	1708.01
348.82	1849.32
349.03	1724.39
349.24	1681.38
349.45	1783.78
349.66	1578.98
349.88	1708.01
350.09	1761.25
350.30	1812.45
350.51	1849.32
350.72	1732.58
350.93	1714.15
351.14	1669.09
351.35	1687.53
351.56	1712.10
351.77	1730.53
351.99	1734.63
352.20	1812.45
352.41	1757.16
352.62	1595.37
352.83	1701.86
353.04	1718.25
353.25	1679.33
353.46	1699.81
353.67	1748.97
353.88	1585.13
354.09	1703.91
354.30	1761.25
354.52	1697.77
354.73	1650.66
354.94	1689.57
355.15	1767.40
355.36	1867.75
355.57	1650.66
355.78	1730.53
355.99	1650.66
356.20	1671.14
356.41	1757.16
356.62	1738.73
356.83	1701.86
357.04	1755.11
357.25	1701.86
357.46	1697.77
357.68	1636.33
357.89	1628.14
358.10	1685.48
358.31	1763.30
358.52	1675.24
358.73	1589.22
358.94	1665.00
359.15	1621.99
359.36	1697.77
359.57	1716.20
359.78	1705.96
359.99	1742.82
360.20	1718.25
360.41	1699.81
360.62	1720.29
360.83	1703.91
361.04	1730.53
361.25	1689.57
361.46	1761.25
361.67	1685.48
361.88	1785.83
362.09	1771.49
362.30	1695.72
362.51	1691.62
362.72	1693.67
362.93	1730.53
363.14	1748.97
363.35	1777.64
363.56	1615.85
363.78	1822.69
363.99	1759.21
364.20	1648.61
364.41	1755.11
364.62	1738.73
364.83	1777.64
365.04	1726.44
365.25	1689.57
365.46	1808.36
365.67	1632.23
365.88	1560.55
366.09	1667.05
366.30	1648.61
366.51	1753.06
366.72	1695.72
366.93	1701.86
367.14	1681.38
367.35	1791.97
367.56	1763.30
367.77	1820.64
367.98	1683.43
368.18	1658.85
368.39	1740.77
368.60	1626.09
368.81	1759.21
369.02	1693.67
369.23	1689.57
369.44	1599.46
369.65	1710.05
369.86	1689.57
370.07	1753.06
370.28	1665.00
370.49	1730.53
370.70	1703.91
370.91	1646.57
371.12	1685.48
371.33	1812.45
371.54	1705.96
371.75	1804.26
371.96	1646.57
372.17	1718.25
372.38	1675.24
372.59	1820.64
372.80	1718.25
373.01	1685.48
373.22	1624.04
373.43	1677.29
373.64	1677.29
373.85	1816.55
374.06	1814.50
374.26	1736.68
374.47	1695.72
374.68	1791.97
374.89	1746.92
375.10	1662.95
375.31	1802.21
375.52	1734.63
375.73	1738.73
375.94	1726.44
376.15	1812.45
376.36	1636.33
376.57	1605.61
376.78	1708.01
376.99	1800.16
377.20	1804.26
377.40	1718.25
377.61	1789.92
377.82	1652.71
378.03	1699.81
378.24	1748.97
378.45	1718.25
378.66	1726.44
378.87	1591.27
379.08	1636.33
379.29	1710.05
379.50	1839.08
379.71	1753.06
379.91	1765.35
380.12	1775.59
380.33	1671.14
380.54	1673.19
380.75	1693.67
380.96	1693.67
381.17	1685.48
381.38	1720.29
381.59	1773.54
381.80	1689.57
382.00	1765.35
382.21	1783.78
382.42	1812.45
382.63	1912.80
382.84	1748.97
383.05	1839.08
383.26	1869.80
383.47	1679.33
383.68	1787.88
383.88	1730.53
384.09	1759.21
384.30	1802.21
384.51	1703.91
384.72	1751.01
384.93	1642.47
385.14	1677.29
385.35	1796.07
385.55	1751.01
385.76	1783.78
385.97	1695.72
386.18	1689.57
386.39	1665.00
386.60	1691.62
386.81	1753.06
387.02	1667.05
387.22	1691.62
387.43	1763.30
387.64	1781.73
387.85	1839.08
388.06	2131.94
388.27	4298.69
388.48	6633.37
388.68	8335.23
388.89	9549.68
389.10	9783.15
389.31	8779.64
389.52	7649.16
389.73	6786.97
389.93	6231.97
390.14	5797.80
390.35	5117.87
390.56	4655.03
390.77	3745.73
390.98	3096.53
391.18	2527.19
391.39	2144.22
391.60	1935.33
391.81	1806.31
392.02	1738.73
392.23	1886.18
392.43	1783.78
392.64	1773.54
392.85	1667.05
393.06	1791.97
393.27	1744.87
393.47	1710.05
393.68	1759.21
393.89	1683.43
394.10	1804.26
394.31	1703.91
394.52	1705.96
394.72	1765.35
394.93	1771.49
395.14	1640.42
395.35	1789.92
395.56	1755.11
395.76	1812.45
395.97	1808.36
396.18	1820.64
396.39	1871.84
396.60	2041.82
396.80	1869.80
397.01	1812.45
397.22	1845.22
397.43	1845.22
397.64	1789.92
397.84	1748.97
398.05	1853.41
398.26	1763.30
398.47	1794.02
398.67	1767.40
398.88	1740.77
399.09	1716.20
399.30	1691.62
399.51	1763.30
399.71	1624.04
399.92	1722.34
400.13	1757.16
400.34	1771.49
400.54	1652.71
400.75	1804.26
400.96	1677.29
401.17	1789.92
401.37	1751.01
401.58	1648.61
401.79	1730.53
402.00	1853.41
402.21	1998.82
402.41	1984.48
402.62	2004.96
402.83	2004.96
403.04	1937.38
403.24	2074.59
403.45	1859.56
403.66	1966.05
403.87	1875.94
404.07	1906.66
404.28	1927.14
404.49	1863.65
404.70	1781.73
404.90	1751.01
405.11	1757.16
405.32	1755.11
405.52	1675.24
405.73	1734.63
405.94	1714.15
406.15	1699.81
406.35	1796.07
406.56	1689.57
406.77	1734.63
406.98	1751.01
407.18	1615.85
407.39	1841.12
407.60	1773.54
407.80	1787.88
408.01	1685.48
408.22	1783.78
408.43	1701.86
408.63	1753.06
408.84	1730.53
409.05	1738.73
409.25	1679.33
409.46	1654.76
409.67	1673.19
409.88	1689.57
410.08	1695.72
410.29	1632.23
410.50	1773.54
410.70	1705.96
410.91	1689.57
411.12	1763.30
411.32	1730.53
411.53	1767.40
411.74	1802.21
411.95	1779.68
412.15	1783.78
412.36	1822.69
412.57	1777.64
412.77	1779.68
412.98	1734.63
413.19	1714.15
413.39	1781.73
413.60	1710.05
413.81	1785.83
414.01	1650.66
414.22	1751.01
414.43	1740.77
414.63	1665.00
414.84	1757.16
415.05	1814.50
415.25	1677.29
415.46	1785.83
415.67	1705.96
415.87	1742.82
416.08	1722.34
416.29	1722.34
416.49	1834.98
416.70	1660.90
416.91	1658.85
417.11	1730.53
417.32	1759.21
417.53	1802.21
417.73	1808.36
417.94	1726.44
418.15	1751.01
418.35	1755.11
418.56	1730.53
418.77	1900.52
418.97	1746.92
419.18	1693.67
419.38	1595.37
419.59	1728.49
419.80	1880.04
420.00	1701.86
420.21	1701.86
420.42	1849.32
420.62	1695.72
420.83	1720.29
421.04	1669.09
421.24	1691.62
421.45	1787.88
421.65	1781.73
421.86	1644.52
422.07	1771.49
422.27	1767.40
422.48	1683.43
422.69	1662.95
422.89	1734.63
423.10	1650.66
423.30	1730.53
423.51	1738.73
423.72	1722.34
423.92	1804.26
424.13	1697.77
424.33	1685.48
424.54	1761.25
424.75	1722.34
424.95	1783.78
425.16	1773.54
425.36	1660.90
425.57	1775.59
425.78	1734.63
425.98	1761.25
426.19	1617.90
426.39	1765.35
426.60	1714.15
426.81	1794.02
427.01	1724.39
427.22	1644.52
427.42	1728.49
427.63	1755.11
427.83	1740.77
428.04	1767.40
428.25	1826.79
428.45	1800.16
428.66	1751.01
428.86	1757.16
429.07	1675.24
429.28	1705.96
429.48	1734.63
429.69	1679.33
429.89	1730.53
430.10	1718.25
430.30	1689.57
430.51	1800.16
430.71	1652.71
430.92	1726.44
431.13	1693.67
431.33	1765.35
431.54	1791.97
431.74	1781.73
431.95	1828.84
432.15	1658.85
432.36	1699.81
432.56	1765.35
432.77	1841.12
432.98	1814.50
433.18	1722.34
433.39	1691.62
433.59	1705.96
433.80	1820.64
434.00	1890.28
434.21	1673.19
434.41	1667.05
434.62	1867.75
434.82	1695.72
435.03	1650.66
435.23	1751.01
435.44	1632.23
435.64	1730.53
435.85	1810.40
436.06	1759.21
436.26	1775.59
436.47	1695.72
436.67	1701.86
436.88	1738.73
437.08	1787.88
437.29	1837.03
437.49	1728.49
437.70	1800.16
437.90	1775.59
438.11	1779.68
438.31	1746.92
438.52	1927.14
438.72	1925.09
438.93	1943.52
439.13	1777.64
439.34	1820.64
439.54	1759.21
439.75	1800.16
439.95	1812.45
440.16	1746.92
440.36	1679.33
440.57	1732.58
440.77	1746.92
440.98	1796.07
441.18	1761.25
441.39	1730.53
441.59	1675.24
441.80	1884.13
442.00	1761.25
442.21	1757.16
442.41	1679.33
442.62	1810.40
442.82	1552.36
443.02	1716.20
443.23	1791.97
443.43	1665.00
443.64	1857.51
443.84	1693.67
444.05	1771.49
444.25	1703.91
444.46	1609.70
444.66	1705.96
444.87	1820.64
445.07	1650.66
445.28	1673.19
445.48	1865.70
445.69	1783.78
445.89	1916.90
446.09	1751.01
446.30	2025.44
446.50	2516.95
446.71	3798.98
446.91	4347.84
447.12	4724.66
447.32	4720.57
447.53	4390.84
447.73	3782.60
447.93	3477.45
448.14	3248.08
448.34	3198.93
448.55	2998.23
448.75	2879.44
448.96	2703.32
449.16	2414.56
449.36	2293.72
449.57	2017.25
449.77	1951.71
449.98	1759.21
450.18	1769.44
450.39	1841.12
450.59	1730.53
450.79	1681.38
451.00	1654.76
451.20	1777.64
451.41	1726.44
451.61	1714.15
451.81	1775.59
452.02	1703.91
452.22	1658.85
452.43	1685.48
452.63	1720.29
