SpectraSuite Data File
++++++++++++++++++++++++++++++++++++
Date: Mon Jun 06 12:26:37 CEST 2016
User: root
Dark Spectrum Present: No
Reference Spectrum Present: No
Number of Sampled Component Spectra: 1
Spectrometers: USB4C02835
Integration Time (usec): 100000 (USB4C02835)
Spectra Averaged: 1 (USB4C02835)
Boxcar Smoothing: 0 (USB4C02835)
Correct for Electrical Dark: No (USB4C02835)
Strobe/Lamp Enabled: No (USB4C02835)
Correct for Detector Non-linearity: No (USB4C02835)
Correct for Stray Light: No (USB4C02835)
Number of Pixels in Processed Spectrum: 3648
>>>>>Begin Processed Spectral Data<<<<<
177.47	1492.97
177.69	1492.97
177.91	1492.97
178.13	1404.91
178.36	1511.40
178.58	1628.14
178.80	1652.71
179.02	1642.47
179.24	1636.33
179.46	1665.00
179.68	1738.73
179.90	1667.05
180.13	1667.05
180.35	1630.18
180.57	1599.46
180.79	1701.86
181.01	1724.39
181.23	1751.01
181.45	1767.40
181.67	1734.63
181.90	1781.73
182.12	1601.51
182.34	1601.51
182.56	1777.64
182.78	1667.05
183.00	1726.44
183.22	1718.25
183.44	1587.18
183.66	1841.12
183.89	1845.22
184.11	1689.57
184.33	1712.10
184.55	1771.49
184.77	1681.38
184.99	1714.15
185.21	1675.24
185.43	1798.12
185.65	1613.80
185.87	1716.20
186.10	1773.54
186.32	1853.41
186.54	1679.33
186.76	1687.53
186.98	1669.09
187.20	1667.05
187.42	1630.18
187.64	1636.33
187.86	1712.10
188.08	1675.24
188.30	1673.19
188.52	1746.92
188.75	1789.92
188.97	1763.30
189.19	1669.09
189.41	1638.38
189.63	1730.53
189.85	1667.05
190.07	1648.61
190.29	1576.94
190.51	1738.73
190.73	1689.57
190.95	1734.63
191.17	1603.56
191.39	1583.08
191.61	1689.57
191.84	1648.61
192.06	1718.25
192.28	1638.38
192.50	1882.08
192.72	1757.16
192.94	1726.44
193.16	1740.77
193.38	1681.38
193.60	1701.86
193.82	1640.42
194.04	1742.82
194.26	1716.20
194.48	1560.55
194.70	1615.85
194.92	1740.77
195.14	1753.06
195.36	1615.85
195.58	1708.01
195.80	1589.22
196.02	1640.42
196.24	1701.86
196.46	1779.68
196.69	1660.90
196.91	1845.22
197.13	1677.29
197.35	1660.90
197.57	1796.07
197.79	1746.92
198.01	1654.76
198.23	1693.67
198.45	1638.38
198.67	1689.57
198.89	1601.51
199.11	1732.58
199.33	1562.60
199.55	1570.79
199.77	1718.25
199.99	1697.77
200.21	1624.04
200.43	1730.53
200.65	1589.22
200.87	1572.84
201.09	1714.15
201.31	1705.96
201.53	1802.21
201.75	1658.85
201.97	1685.48
202.19	1708.01
202.41	1640.42
202.63	1816.55
202.85	1716.20
203.07	1691.62
203.29	1591.27
203.51	1585.13
203.73	1648.61
203.95	1773.54
204.17	1697.77
204.39	1681.38
204.61	1789.92
204.83	1650.66
205.05	1742.82
205.27	1777.64
205.49	1800.16
205.71	1646.57
205.93	1552.36
206.15	1757.16
206.37	1667.05
206.59	1734.63
206.81	1648.61
207.03	1642.47
207.25	1714.15
207.47	1740.77
207.69	1617.90
207.91	1783.78
208.13	1652.71
208.34	1626.09
208.56	1595.37
208.78	1759.21
209.00	1658.85
209.22	1683.43
209.44	1660.90
209.66	1697.77
209.88	1701.86
210.10	1673.19
210.32	1640.42
210.54	1791.97
210.76	1615.85
210.98	1728.49
211.20	1538.02
211.42	1681.38
211.64	1744.87
211.86	1697.77
212.08	1718.25
212.30	1714.15
212.52	1718.25
212.74	1716.20
212.96	1787.88
213.17	1740.77
213.39	1787.88
213.61	1779.68
213.83	1855.46
214.05	1665.00
214.27	1730.53
214.49	1601.51
214.71	1701.86
214.93	1753.06
215.15	1738.73
215.37	1685.48
215.59	1646.57
215.81	1658.85
216.03	1857.51
216.24	1697.77
216.46	1753.06
216.68	1763.30
216.90	1691.62
217.12	1789.92
217.34	1646.57
217.56	1769.44
217.78	1769.44
218.00	1626.09
218.22	1628.14
218.44	1765.35
218.66	1652.71
218.87	1761.25
219.09	1683.43
219.31	1755.11
219.53	1724.39
219.75	1560.55
219.97	1650.66
220.19	1744.87
220.41	1699.81
220.63	1726.44
220.85	1716.20
221.06	1630.18
221.28	1748.97
221.50	1734.63
221.72	1665.00
221.94	1734.63
222.16	1697.77
222.38	1730.53
222.60	1761.25
222.82	1722.34
223.03	1665.00
223.25	1615.85
223.47	1763.30
223.69	1751.01
223.91	1628.14
224.13	1685.48
224.35	1679.33
224.57	1722.34
224.78	1683.43
225.00	1679.33
225.22	1677.29
225.44	1732.58
225.66	1705.96
225.88	1673.19
226.10	1771.49
226.32	1599.46
226.53	1806.31
226.75	1695.72
226.97	1660.90
227.19	1720.29
227.41	1667.05
227.63	1712.10
227.85	1648.61
228.06	1665.00
228.28	1626.09
228.50	1730.53
228.72	1607.66
228.94	1744.87
229.16	1554.41
229.37	1615.85
229.59	1632.23
229.81	1720.29
230.03	1656.81
230.25	1601.51
230.47	1603.56
230.69	1617.90
230.90	1781.73
231.12	1652.71
231.34	1726.44
231.56	1759.21
231.78	1615.85
232.00	1751.01
232.21	1642.47
232.43	1712.10
232.65	1632.23
232.87	1714.15
233.09	1611.75
233.30	1662.95
233.52	1656.81
233.74	1667.05
233.96	1669.09
234.18	1708.01
234.40	1732.58
234.61	1761.25
234.83	1581.03
235.05	1634.28
235.27	1806.31
235.49	1859.56
235.70	1714.15
235.92	1781.73
236.14	1791.97
236.36	1832.93
236.58	1601.51
236.79	1718.25
237.01	1722.34
237.23	1710.05
237.45	1779.68
237.67	1644.52
237.88	1722.34
238.10	1845.22
238.32	1638.38
238.54	1648.61
238.76	1697.77
238.97	1626.09
239.19	1630.18
239.41	1746.92
239.63	1701.86
239.85	1638.38
240.06	1740.77
240.28	1624.04
240.50	1730.53
240.72	1679.33
240.93	1685.48
241.15	1699.81
241.37	1667.05
241.59	1734.63
241.81	1677.29
242.02	1689.57
242.24	1714.15
242.46	1718.25
242.68	1683.43
242.89	1787.88
243.11	1691.62
243.33	1703.91
243.55	1763.30
243.76	1755.11
243.98	1714.15
244.20	1652.71
244.42	1753.06
244.64	1728.49
244.85	1636.33
245.07	1607.66
245.29	1728.49
245.51	1581.03
245.72	1646.57
245.94	1730.53
246.16	1681.38
246.38	1685.48
246.59	1705.96
246.81	1640.42
247.03	1644.52
247.24	1605.61
247.46	1628.14
247.68	1740.77
247.90	1611.75
248.11	1683.43
248.33	1751.01
248.55	1665.00
248.77	1701.86
248.98	1740.77
249.20	1820.64
249.42	1710.05
249.64	1755.11
249.85	1656.81
250.07	1703.91
250.29	1648.61
250.50	1746.92
250.72	1601.51
250.94	1746.92
251.16	1855.46
251.37	1755.11
251.59	1763.30
251.81	1791.97
252.02	1798.12
252.24	1607.66
252.46	1845.22
252.68	1662.95
252.89	1654.76
253.11	1519.59
253.33	1796.07
253.54	1710.05
253.76	1609.70
253.98	1609.70
254.20	1673.19
254.41	1671.14
254.63	1632.23
254.85	1593.32
255.06	1744.87
255.28	1755.11
255.50	1628.14
255.71	1716.20
255.93	1628.14
256.15	1558.50
256.36	1697.77
256.58	1603.56
256.80	1697.77
257.02	1662.95
257.23	1677.29
257.45	1656.81
257.67	1763.30
257.88	1611.75
258.10	1708.01
258.32	1738.73
258.53	1710.05
258.75	1812.45
258.97	1632.23
259.18	1767.40
259.40	1751.01
259.62	1859.56
259.83	1759.21
260.05	1724.39
260.27	2004.96
260.48	1718.25
260.70	1607.66
260.92	1751.01
261.13	1705.96
261.35	1705.96
261.57	1734.63
261.78	1650.66
262.00	1646.57
262.22	1802.21
262.43	1675.24
262.65	1660.90
262.86	1730.53
263.08	1763.30
263.30	1697.77
263.51	1578.98
263.73	1570.79
263.95	1726.44
264.16	1665.00
264.38	1695.72
264.60	1685.48
264.81	1662.95
265.03	1779.68
265.25	1748.97
265.46	1673.19
265.68	1796.07
265.89	1669.09
266.11	1599.46
266.33	1742.82
266.54	1830.88
266.76	1673.19
266.98	1828.84
267.19	1763.30
267.41	1683.43
267.62	1714.15
267.84	1685.48
268.06	1732.58
268.27	1701.86
268.49	1771.49
268.70	1722.34
268.92	1677.29
269.14	1677.29
269.35	1593.32
269.57	1652.71
269.79	1701.86
270.00	1648.61
270.22	1802.21
270.43	1720.29
270.65	1624.04
270.87	1693.67
271.08	1718.25
271.30	1720.29
271.51	1695.72
271.73	1695.72
271.95	1845.22
272.16	1642.47
272.38	1681.38
272.59	1714.15
272.81	1724.39
273.02	1628.14
273.24	1652.71
273.46	1763.30
273.67	1656.81
273.89	1660.90
274.10	1703.91
274.32	1828.84
274.54	1730.53
274.75	1658.85
274.97	1644.52
275.18	1712.10
275.40	1708.01
275.61	1665.00
275.83	1718.25
276.05	1621.99
276.26	1714.15
276.48	1697.77
276.69	1722.34
276.91	1607.66
277.12	1685.48
277.34	1673.19
277.55	1783.78
277.77	1683.43
277.99	1697.77
278.20	1687.53
278.42	1615.85
278.63	1685.48
278.85	1619.94
279.06	1644.52
279.28	1679.33
279.49	1798.12
279.71	1779.68
279.93	1597.42
280.14	1720.29
280.36	1665.00
280.57	1839.08
280.79	1740.77
281.00	1656.81
281.22	1609.70
281.43	1791.97
281.65	1585.13
281.86	1621.99
282.08	1755.11
282.29	1800.16
282.51	1681.38
282.73	1642.47
282.94	1648.61
283.16	1728.49
283.37	1761.25
283.59	1675.24
283.80	1761.25
284.02	1681.38
284.23	1746.92
284.45	1656.81
284.66	1585.13
284.88	1656.81
285.09	1718.25
285.31	1744.87
285.52	1689.57
285.74	1603.56
285.95	1701.86
286.17	1673.19
286.38	1667.05
286.60	1705.96
286.81	1652.71
287.03	1703.91
287.24	1576.94
287.46	1748.97
287.67	1671.14
287.89	1808.36
288.10	1765.35
288.32	1675.24
288.53	1732.58
288.75	1701.86
288.96	1736.68
289.18	1650.66
289.39	1779.68
289.61	1722.34
289.82	1791.97
290.04	1755.11
290.25	1626.09
290.47	1710.05
290.68	1650.66
290.90	1812.45
291.11	1630.18
291.33	1824.74
291.54	1615.85
291.76	1687.53
291.97	1738.73
292.18	1705.96
292.40	1693.67
292.61	1705.96
292.83	1751.01
293.04	1779.68
293.26	1734.63
293.47	1621.99
293.69	1673.19
293.90	1644.52
294.12	1759.21
294.33	1691.62
294.55	1701.86
294.76	1773.54
294.97	1800.16
295.19	1834.98
295.40	1726.44
295.62	1757.16
295.83	1755.11
296.05	1628.14
296.26	1730.53
296.48	1593.32
296.69	1751.01
296.90	1634.28
297.12	1783.78
297.33	1828.84
297.55	1671.14
297.76	1724.39
297.98	1785.83
298.19	1662.95
298.41	1744.87
298.62	1652.71
298.83	1728.49
299.05	1679.33
299.26	1624.04
299.48	1656.81
299.69	1693.67
299.90	1759.21
300.12	1593.32
300.33	1748.97
300.55	1683.43
300.76	1724.39
300.98	1607.66
301.19	1804.26
301.40	1718.25
301.62	1624.04
301.83	1669.09
302.05	1652.71
302.26	1705.96
302.47	1718.25
302.69	1654.76
302.90	1767.40
303.12	1609.70
303.33	1738.73
303.54	1804.26
303.76	1634.28
303.97	1742.82
304.19	1820.64
304.40	1677.29
304.61	1804.26
304.83	1820.64
305.04	1757.16
305.26	1724.39
305.47	1671.14
305.68	1628.14
305.90	1583.08
306.11	1677.29
306.33	1595.37
306.54	1615.85
306.75	1687.53
306.97	1636.33
307.18	1611.75
307.39	1689.57
307.61	1773.54
307.82	1697.77
308.04	1714.15
308.25	1650.66
308.46	1716.20
308.68	1636.33
308.89	1675.24
309.10	1808.36
309.32	1689.57
309.53	1644.52
309.74	1779.68
309.96	1652.71
310.17	1732.58
310.39	1671.14
310.60	1767.40
310.81	1677.29
311.03	1630.18
311.24	1753.06
311.45	1701.86
311.67	1775.59
311.88	1732.58
312.09	1681.38
312.31	1615.85
312.52	1681.38
312.73	1648.61
312.95	1609.70
313.16	1650.66
313.37	1804.26
313.59	1699.81
313.80	1716.20
314.01	1804.26
314.23	1660.90
314.44	1685.48
314.65	1591.27
314.87	1679.33
315.08	1628.14
315.29	1648.61
315.51	1626.09
315.72	1568.74
315.93	1824.74
316.15	1742.82
316.36	1687.53
316.57	1632.23
316.79	1726.44
317.00	1599.46
317.21	1685.48
317.43	1671.14
317.64	1734.63
317.85	1632.23
318.07	1638.38
318.28	1720.29
318.49	1787.88
318.70	1935.33
318.92	1785.83
319.13	1804.26
319.34	1812.45
319.56	1720.29
319.77	1753.06
319.98	1775.59
320.20	1748.97
320.41	1730.53
320.62	1787.88
320.83	1660.90
321.05	1877.99
321.26	1693.67
321.47	1660.90
321.69	1765.35
321.90	1611.75
322.11	1632.23
322.32	1648.61
322.54	1798.12
322.75	1617.90
322.96	1832.93
323.18	1624.04
323.39	1617.90
323.60	1626.09
323.81	1826.79
324.03	1626.09
324.24	1679.33
324.45	1714.15
324.66	1673.19
324.88	1791.97
325.09	1781.73
325.30	1636.33
325.52	1746.92
325.73	1605.61
325.94	1705.96
326.15	1570.79
326.37	1654.76
326.58	1777.64
326.79	1787.88
327.00	1679.33
327.22	1685.48
327.43	1673.19
327.64	1652.71
327.85	1728.49
328.07	1677.29
328.28	1837.03
328.49	1593.32
328.70	1658.85
328.92	1648.61
329.13	1613.80
329.34	1730.53
329.55	1804.26
329.76	1738.73
329.98	1691.62
330.19	1734.63
330.40	1703.91
330.61	1738.73
330.83	1648.61
331.04	1667.05
331.25	1699.81
331.46	1673.19
331.68	1693.67
331.89	1740.77
332.10	1611.75
332.31	1658.85
332.52	1722.34
332.74	1753.06
332.95	1624.04
333.16	1701.86
333.37	1710.05
333.58	1648.61
333.80	1595.37
334.01	1578.98
334.22	1771.49
334.43	1710.05
334.64	1628.14
334.86	1595.37
335.07	1642.47
335.28	1855.46
335.49	1556.46
335.70	1671.14
335.92	1761.25
336.13	1880.04
336.34	1751.01
336.55	1656.81
336.76	1761.25
336.98	1638.38
337.19	1755.11
337.40	1777.64
337.61	1853.41
337.82	1628.14
338.04	1722.34
338.25	1632.23
338.46	1710.05
338.67	1708.01
338.88	1648.61
339.09	1581.03
339.31	1669.09
339.52	1632.23
339.73	1560.55
339.94	1705.96
340.15	1814.50
340.36	1634.28
340.58	1718.25
340.79	1601.51
341.00	1689.57
341.21	1613.80
341.42	1777.64
341.63	1753.06
341.85	1755.11
342.06	1712.10
342.27	1748.97
342.48	1714.15
342.69	1615.85
342.90	1695.72
343.12	1746.92
343.33	1718.25
343.54	1712.10
343.75	1763.30
343.96	1701.86
344.17	1624.04
344.38	1736.68
344.60	1628.14
344.81	1599.46
345.02	1632.23
345.23	1748.97
345.44	1779.68
345.65	1701.86
345.86	1621.99
346.07	1652.71
346.29	1650.66
346.50	1757.16
346.71	1685.48
346.92	1726.44
347.13	1791.97
347.34	1642.47
347.55	1726.44
347.76	1740.77
347.98	1587.18
348.19	1607.66
348.40	1748.97
348.61	1617.90
348.82	1726.44
349.03	1746.92
349.24	1640.42
349.45	1755.11
349.66	1656.81
349.88	1648.61
350.09	1673.19
350.30	1804.26
350.51	1710.05
350.72	1701.86
350.93	1787.88
351.14	1705.96
351.35	1765.35
351.56	1638.38
351.77	1665.00
351.99	1734.63
352.20	1726.44
352.41	1734.63
352.62	1564.65
352.83	1626.09
353.04	1593.32
353.25	1613.80
353.46	1814.50
353.67	1816.55
353.88	1630.18
354.09	1722.34
354.30	1689.57
354.52	1658.85
354.73	1621.99
354.94	1730.53
355.15	1650.66
355.36	1740.77
355.57	1685.48
355.78	1751.01
355.99	1648.61
356.20	1685.48
356.41	1718.25
356.62	1681.38
356.83	1785.83
357.04	1800.16
357.25	1660.90
357.46	1648.61
357.68	1615.85
357.89	1560.55
358.10	1656.81
358.31	1665.00
358.52	1730.53
358.73	1654.76
358.94	1652.71
359.15	1695.72
359.36	1712.10
359.57	1624.04
359.78	1638.38
359.99	1751.01
360.20	1640.42
360.41	1632.23
360.62	1783.78
360.83	1681.38
361.04	1675.24
361.25	1683.43
361.46	1769.44
361.67	1769.44
361.88	1691.62
362.09	1773.54
362.30	1632.23
362.51	1644.52
362.72	1642.47
362.93	1783.78
363.14	1724.39
363.35	1789.92
363.56	1746.92
363.78	1785.83
363.99	1748.97
364.20	1636.33
364.41	1738.73
364.62	1794.02
364.83	1691.62
365.04	1673.19
365.25	1697.77
365.46	1837.03
365.67	1720.29
365.88	1636.33
366.09	1689.57
366.30	1576.94
366.51	1662.95
366.72	1658.85
366.93	1746.92
367.14	1681.38
367.35	1742.82
367.56	1665.00
367.77	1791.97
367.98	1650.66
368.18	1708.01
368.39	1703.91
368.60	1683.43
368.81	1726.44
369.02	1683.43
369.23	1742.82
369.44	1656.81
369.65	1660.90
369.86	1699.81
370.07	1751.01
370.28	1751.01
370.49	1767.40
370.70	1724.39
370.91	1609.70
371.12	1611.75
371.33	1712.10
371.54	1671.14
371.75	1906.66
371.96	1605.61
372.17	1742.82
372.38	1748.97
372.59	1730.53
372.80	1646.57
373.01	1697.77
373.22	1722.34
373.43	1740.77
373.64	1730.53
373.85	1783.78
374.06	1765.35
374.26	1703.91
374.47	1765.35
374.68	1796.07
374.89	1740.77
375.10	1619.94
375.31	1763.30
375.52	1673.19
375.73	1650.66
375.94	1611.75
376.15	1742.82
376.36	1658.85
376.57	1699.81
376.78	1675.24
376.99	1708.01
377.20	1695.72
377.40	1701.86
377.61	1806.31
377.82	1648.61
378.03	1796.07
378.24	1714.15
378.45	1724.39
378.66	1646.57
378.87	1611.75
379.08	1611.75
379.29	1693.67
379.50	1759.21
379.71	1767.40
379.91	1691.62
380.12	1642.47
380.33	1701.86
380.54	1718.25
380.75	1753.06
380.96	1689.57
381.17	1789.92
381.38	1730.53
381.59	1652.71
381.80	1767.40
382.00	1859.56
382.21	1748.97
382.42	1798.12
382.63	1826.79
382.84	1757.16
383.05	1837.03
383.26	1755.11
383.47	1771.49
383.68	1732.58
383.88	1701.86
384.09	1656.81
384.30	1730.53
384.51	1722.34
384.72	1673.19
384.93	1679.33
385.14	1718.25
385.35	1820.64
385.55	1607.66
385.76	1697.77
385.97	1734.63
386.18	1634.28
386.39	1640.42
386.60	1693.67
386.81	1662.95
387.02	1673.19
387.22	1599.46
387.43	1679.33
387.64	1779.68
387.85	1869.80
388.06	2207.71
388.27	4437.95
388.48	6975.38
388.68	8220.55
388.89	9686.89
389.10	9895.78
389.31	8703.87
389.52	7661.45
389.73	6721.43
389.93	6283.17
390.14	5889.96
390.35	5105.59
390.56	4560.83
390.77	3700.68
390.98	3106.77
391.18	2600.92
391.39	2109.41
391.60	1863.65
391.81	1834.98
392.02	1730.53
392.23	1830.88
392.43	1730.53
392.64	1791.97
392.85	1691.62
393.06	1912.80
393.27	1624.04
393.47	1669.09
393.68	1738.73
393.89	1654.76
394.10	1800.16
394.31	1712.10
394.52	1658.85
394.72	1652.71
394.93	1732.58
395.14	1650.66
395.35	1730.53
395.56	1636.33
395.76	1693.67
395.97	1769.44
396.18	1814.50
396.39	1767.40
396.60	1978.34
396.80	1859.56
397.01	1900.52
397.22	1806.31
397.43	1755.11
397.64	1693.67
397.84	1771.49
398.05	1806.31
398.26	1751.01
398.47	1726.44
398.67	1837.03
398.88	1781.73
399.09	1794.02
399.30	1796.07
399.51	1722.34
399.71	1648.61
399.92	1732.58
400.13	1736.68
400.34	1685.48
400.54	1689.57
400.75	1732.58
400.96	1644.52
401.17	1775.59
401.37	1685.48
401.58	1656.81
401.79	1746.92
402.00	1818.60
402.21	2009.06
402.41	1908.71
402.62	2045.92
402.83	1976.29
403.04	1976.29
403.24	2066.40
403.45	1767.40
403.66	1849.32
403.87	1877.99
404.07	1845.22
404.28	1851.36
404.49	1871.84
404.70	1761.25
404.90	1751.01
405.11	1716.20
405.32	1794.02
405.52	1708.01
405.73	1642.47
405.94	1638.38
406.15	1648.61
406.35	1785.83
406.56	1734.63
406.77	1728.49
406.98	1738.73
407.18	1609.70
407.39	1763.30
407.60	1667.05
407.80	1712.10
408.01	1718.25
408.22	1757.16
408.43	1591.27
408.63	1703.91
408.84	1667.05
409.05	1763.30
409.25	1638.38
409.46	1669.09
409.67	1689.57
409.88	1677.29
410.08	1716.20
410.29	1681.38
410.50	1687.53
410.70	1755.11
410.91	1652.71
411.12	1656.81
411.32	1675.24
411.53	1710.05
411.74	1748.97
411.95	1755.11
412.15	1812.45
412.36	1757.16
412.57	1755.11
412.77	1789.92
412.98	1697.77
413.19	1730.53
413.39	1726.44
413.60	1783.78
413.81	1734.63
414.01	1648.61
414.22	1767.40
414.43	1652.71
414.63	1724.39
414.84	1751.01
415.05	1753.06
415.25	1681.38
415.46	1697.77
415.67	1619.94
415.87	1763.30
416.08	1718.25
416.29	1658.85
416.49	1701.86
416.70	1660.90
416.91	1738.73
417.11	1712.10
417.32	1638.38
417.53	1693.67
417.73	1699.81
417.94	1732.58
418.15	1726.44
418.35	1679.33
418.56	1783.78
418.77	1802.21
418.97	1736.68
419.18	1634.28
419.38	1527.78
419.59	1726.44
419.80	1748.97
420.00	1679.33
420.21	1681.38
420.42	1789.92
420.62	1714.15
420.83	1679.33
421.04	1679.33
421.24	1708.01
421.45	1718.25
421.65	1751.01
421.86	1683.43
422.07	1724.39
422.27	1693.67
422.48	1681.38
422.69	1628.14
422.89	1777.64
423.10	1636.33
423.30	1626.09
423.51	1744.87
423.72	1759.21
423.92	1724.39
424.13	1599.46
424.33	1746.92
424.54	1730.53
424.75	1736.68
424.95	1759.21
425.16	1687.53
425.36	1683.43
425.57	1697.77
425.78	1703.91
425.98	1755.11
426.19	1669.09
426.39	1568.74
426.60	1689.57
426.81	1753.06
427.01	1773.54
427.22	1667.05
427.42	1621.99
427.63	1636.33
427.83	1744.87
428.04	1738.73
428.25	1769.44
428.45	1710.05
428.66	1732.58
428.86	1705.96
429.07	1681.38
429.28	1738.73
429.48	1697.77
429.69	1724.39
429.89	1728.49
430.10	1673.19
430.30	1740.77
430.51	1775.59
430.71	1630.18
430.92	1705.96
431.13	1654.76
431.33	1761.25
431.54	1636.33
431.74	1781.73
431.95	1761.25
432.15	1599.46
432.36	1714.15
432.56	1724.39
432.77	1822.69
432.98	1763.30
433.18	1728.49
433.39	1722.34
433.59	1675.24
433.80	1861.60
434.00	1853.41
434.21	1665.00
434.41	1701.86
434.62	1775.59
434.82	1562.60
435.03	1681.38
435.23	1779.68
435.44	1607.66
435.64	1701.86
435.85	1654.76
436.06	1751.01
436.26	1757.16
436.47	1673.19
436.67	1658.85
436.88	1615.85
437.08	1699.81
437.29	1818.60
437.49	1679.33
437.70	1855.46
437.90	1722.34
438.11	1763.30
438.31	1849.32
438.52	1837.03
438.72	1845.22
438.93	1859.56
439.13	1800.16
439.34	1851.36
439.54	1777.64
439.75	1783.78
439.95	1806.31
440.16	1656.81
440.36	1693.67
440.57	1724.39
440.77	1728.49
440.98	1716.20
441.18	1681.38
441.39	1734.63
441.59	1705.96
441.80	1865.70
442.00	1658.85
442.21	1832.93
442.41	1714.15
442.62	1759.21
442.82	1681.38
443.02	1718.25
443.23	1726.44
443.43	1617.90
443.64	1873.89
443.84	1621.99
444.05	1806.31
444.25	1748.97
444.46	1624.04
444.66	1722.34
444.87	1837.03
445.07	1671.14
445.28	1791.97
445.48	1742.82
445.69	1779.68
445.89	1851.36
446.09	1763.30
446.30	1968.10
446.50	2746.33
446.71	3745.73
446.91	4405.18
447.12	4722.62
447.32	4827.06
447.53	4255.68
447.73	3932.10
447.93	3559.37
448.14	3282.89
448.34	3166.16
448.55	3018.71
448.75	2828.24
448.96	2705.37
449.16	2435.03
449.36	2281.44
449.57	2037.73
449.77	1804.26
449.98	1791.97
450.18	1787.88
450.39	1808.36
450.59	1724.39
450.79	1691.62
451.00	1734.63
451.20	1779.68
451.41	1701.86
451.61	1779.68
451.81	1708.01
452.02	1738.73
452.22	1683.43
452.43	1660.90
452.63	1712.10
