SpectraSuite Data File
++++++++++++++++++++++++++++++++++++
Date: Mon Jun 06 13:11:37 CEST 2016
User: root
Dark Spectrum Present: No
Reference Spectrum Present: No
Number of Sampled Component Spectra: 1
Spectrometers: USB4C02835
Integration Time (usec): 100000 (USB4C02835)
Spectra Averaged: 1 (USB4C02835)
Boxcar Smoothing: 0 (USB4C02835)
Correct for Electrical Dark: No (USB4C02835)
Strobe/Lamp Enabled: No (USB4C02835)
Correct for Detector Non-linearity: No (USB4C02835)
Correct for Stray Light: No (USB4C02835)
Number of Pixels in Processed Spectrum: 3648
>>>>>Begin Processed Spectral Data<<<<<
177.47	1505.26
177.69	1505.26
177.91	1505.26
178.13	1447.91
178.36	1476.59
178.58	1675.24
178.80	1757.16
179.02	1656.81
179.24	1624.04
179.46	1693.67
179.68	1748.97
179.90	1751.01
180.13	1810.40
180.35	1636.33
180.57	1683.43
180.79	1728.49
181.01	1738.73
181.23	1779.68
181.45	1765.35
181.67	1802.21
181.90	1755.11
182.12	1603.56
182.34	1624.04
182.56	1787.88
182.78	1716.20
183.00	1722.34
183.22	1742.82
183.44	1591.27
183.66	1863.65
183.89	1742.82
184.11	1751.01
184.33	1712.10
184.55	1763.30
184.77	1718.25
184.99	1701.86
185.21	1718.25
185.43	1882.08
185.65	1730.53
185.87	1771.49
186.10	1740.77
186.32	1894.37
186.54	1746.92
186.76	1800.16
186.98	1728.49
187.20	1665.00
187.42	1701.86
187.64	1714.15
187.86	1703.91
188.08	1751.01
188.30	1697.77
188.52	1667.05
188.75	1738.73
188.97	1765.35
189.19	1710.05
189.41	1677.29
189.63	1730.53
189.85	1640.42
190.07	1624.04
190.29	1660.90
190.51	1695.72
190.73	1587.18
190.95	1798.12
191.17	1695.72
191.39	1566.70
191.61	1660.90
191.84	1644.52
192.06	1761.25
192.28	1652.71
192.50	1865.70
192.72	1740.77
192.94	1662.95
193.16	1738.73
193.38	1728.49
193.60	1695.72
193.82	1701.86
194.04	1769.44
194.26	1697.77
194.48	1714.15
194.70	1648.61
194.92	1718.25
195.14	1679.33
195.36	1703.91
195.58	1718.25
195.80	1714.15
196.02	1619.94
196.24	1718.25
196.46	1734.63
196.69	1685.48
196.91	1775.59
197.13	1695.72
197.35	1738.73
197.57	1734.63
197.79	1724.39
198.01	1726.44
198.23	1767.40
198.45	1714.15
198.67	1595.37
198.89	1724.39
199.11	1738.73
199.33	1644.52
199.55	1611.75
199.77	1710.05
199.99	1787.88
200.21	1624.04
200.43	1712.10
200.65	1615.85
200.87	1554.41
201.09	1578.98
201.31	1738.73
201.53	1777.64
201.75	1757.16
201.97	1658.85
202.19	1728.49
202.41	1751.01
202.63	1820.64
202.85	1701.86
203.07	1656.81
203.29	1738.73
203.51	1624.04
203.73	1654.76
203.95	1841.12
204.17	1755.11
204.39	1748.97
204.61	1628.14
204.83	1660.90
205.05	1777.64
205.27	1683.43
205.49	1810.40
205.71	1658.85
205.93	1656.81
206.15	1656.81
206.37	1673.19
206.59	1626.09
206.81	1644.52
207.03	1669.09
207.25	1632.23
207.47	1718.25
207.69	1703.91
207.91	1812.45
208.13	1763.30
208.34	1718.25
208.56	1615.85
208.78	1759.21
209.00	1753.06
209.22	1650.66
209.44	1615.85
209.66	1677.29
209.88	1654.76
210.10	1681.38
210.32	1603.56
210.54	1785.83
210.76	1718.25
210.98	1751.01
211.20	1515.50
211.42	1714.15
211.64	1718.25
211.86	1726.44
212.08	1712.10
212.30	1636.33
212.52	1679.33
212.74	1751.01
212.96	1714.15
213.17	1738.73
213.39	1695.72
213.61	1814.50
213.83	1822.69
214.05	1644.52
214.27	1699.81
214.49	1617.90
214.71	1648.61
214.93	1736.68
215.15	1642.47
215.37	1714.15
215.59	1636.33
215.81	1812.45
216.03	1791.97
216.24	1703.91
216.46	1638.38
216.68	1730.53
216.90	1777.64
217.12	1755.11
217.34	1710.05
217.56	1740.77
217.78	1822.69
218.00	1710.05
218.22	1693.67
218.44	1685.48
218.66	1681.38
218.87	1796.07
219.09	1652.71
219.31	1789.92
219.53	1693.67
219.75	1660.90
219.97	1677.29
220.19	1751.01
220.41	1665.00
220.63	1824.74
220.85	1718.25
221.06	1671.14
221.28	1769.44
221.50	1812.45
221.72	1716.20
221.94	1638.38
222.16	1665.00
222.38	1652.71
222.60	1787.88
222.82	1626.09
223.03	1675.24
223.25	1638.38
223.47	1746.92
223.69	1781.73
223.91	1740.77
224.13	1699.81
224.35	1669.09
224.57	1746.92
224.78	1761.25
225.00	1665.00
225.22	1740.77
225.44	1665.00
225.66	1685.48
225.88	1660.90
226.10	1781.73
226.32	1777.64
226.53	1783.78
226.75	1718.25
226.97	1746.92
227.19	1695.72
227.41	1757.16
227.63	1611.75
227.85	1570.79
228.06	1660.90
228.28	1699.81
228.50	1779.68
228.72	1648.61
228.94	1628.14
229.16	1570.79
229.37	1642.47
229.59	1613.80
229.81	1837.03
230.03	1621.99
230.25	1619.94
230.47	1599.46
230.69	1624.04
230.90	1714.15
231.12	1708.01
231.34	1736.68
231.56	1667.05
231.78	1605.61
232.00	1714.15
232.21	1697.77
232.43	1671.14
232.65	1636.33
232.87	1705.96
233.09	1650.66
233.30	1685.48
233.52	1628.14
233.74	1693.67
233.96	1714.15
234.18	1660.90
234.40	1699.81
234.61	1787.88
234.83	1628.14
235.05	1613.80
235.27	1869.80
235.49	1748.97
235.70	1640.42
235.92	1816.55
236.14	1720.29
236.36	1800.16
236.58	1656.81
236.79	1746.92
237.01	1751.01
237.23	1687.53
237.45	1812.45
237.67	1675.24
237.88	1695.72
238.10	1832.93
238.32	1615.85
238.54	1716.20
238.76	1675.24
238.97	1671.14
239.19	1677.29
239.41	1685.48
239.63	1814.50
239.85	1699.81
240.06	1697.77
240.28	1673.19
240.50	1742.82
240.72	1628.14
240.93	1695.72
241.15	1783.78
241.37	1734.63
241.59	1783.78
241.81	1665.00
242.02	1675.24
242.24	1705.96
242.46	1738.73
242.68	1722.34
242.89	1695.72
243.11	1736.68
243.33	1742.82
243.55	1714.15
243.76	1755.11
243.98	1660.90
244.20	1693.67
244.42	1736.68
244.64	1724.39
244.85	1656.81
245.07	1650.66
245.29	1804.26
245.51	1687.53
245.72	1638.38
245.94	1765.35
246.16	1730.53
246.38	1714.15
246.59	1634.28
246.81	1677.29
247.03	1726.44
247.24	1650.66
247.46	1669.09
247.68	1652.71
247.90	1701.86
248.11	1642.47
248.33	1734.63
248.55	1673.19
248.77	1722.34
248.98	1794.02
249.20	1761.25
249.42	1765.35
249.64	1742.82
249.85	1746.92
250.07	1677.29
250.29	1691.62
250.50	1699.81
250.72	1562.60
250.94	1665.00
251.16	1822.69
251.37	1781.73
251.59	1634.28
251.81	1748.97
252.02	1808.36
252.24	1665.00
252.46	1710.05
252.68	1691.62
252.89	1693.67
253.11	1617.90
253.33	1800.16
253.54	1796.07
253.76	1626.09
253.98	1644.52
254.20	1669.09
254.41	1613.80
254.63	1710.05
254.85	1710.05
255.06	1701.86
255.28	1734.63
255.50	1671.14
255.71	1683.43
255.93	1630.18
256.15	1673.19
256.36	1677.29
256.58	1701.86
256.80	1738.73
257.02	1662.95
257.23	1675.24
257.45	1705.96
257.67	1794.02
257.88	1681.38
258.10	1742.82
258.32	1640.42
258.53	1748.97
258.75	1814.50
258.97	1675.24
259.18	1703.91
259.40	1662.95
259.62	1812.45
259.83	1728.49
260.05	1693.67
260.27	1976.29
260.48	1748.97
260.70	1574.89
260.92	1636.33
261.13	1724.39
261.35	1712.10
261.57	1734.63
261.78	1669.09
262.00	1701.86
262.22	1673.19
262.43	1677.29
262.65	1708.01
262.86	1824.74
263.08	1787.88
263.30	1648.61
263.51	1673.19
263.73	1667.05
263.95	1716.20
264.16	1626.09
264.38	1683.43
264.60	1765.35
264.81	1722.34
265.03	1687.53
265.25	1701.86
265.46	1689.57
265.68	1767.40
265.89	1796.07
266.11	1630.18
266.33	1714.15
266.54	1759.21
266.76	1783.78
266.98	1693.67
267.19	1785.83
267.41	1767.40
267.62	1675.24
267.84	1701.86
268.06	1683.43
268.27	1673.19
268.49	1732.58
268.70	1748.97
268.92	1636.33
269.14	1634.28
269.35	1615.85
269.57	1638.38
269.79	1730.53
270.00	1593.32
270.22	1751.01
270.43	1669.09
270.65	1617.90
270.87	1677.29
271.08	1699.81
271.30	1744.87
271.51	1697.77
271.73	1599.46
271.95	1767.40
272.16	1705.96
272.38	1669.09
272.59	1693.67
272.81	1679.33
273.02	1732.58
273.24	1634.28
273.46	1800.16
273.67	1689.57
273.89	1673.19
274.10	1697.77
274.32	1779.68
274.54	1667.05
274.75	1714.15
274.97	1648.61
275.18	1734.63
275.40	1744.87
275.61	1665.00
275.83	1665.00
276.05	1677.29
276.26	1677.29
276.48	1710.05
276.69	1708.01
276.91	1705.96
277.12	1720.29
277.34	1720.29
277.55	1769.44
277.77	1738.73
277.99	1779.68
278.20	1619.94
278.42	1681.38
278.63	1609.70
278.85	1619.94
279.06	1640.42
279.28	1689.57
279.49	1783.78
279.71	1728.49
279.93	1712.10
280.14	1687.53
280.36	1595.37
280.57	1679.33
280.79	1787.88
281.00	1689.57
281.22	1619.94
281.43	1779.68
281.65	1603.56
281.86	1652.71
282.08	1677.29
282.29	1796.07
282.51	1671.14
282.73	1636.33
282.94	1654.76
283.16	1806.31
283.37	1781.73
283.59	1738.73
283.80	1742.82
284.02	1681.38
284.23	1771.49
284.45	1675.24
284.66	1654.76
284.88	1607.66
285.09	1669.09
285.31	1708.01
285.52	1722.34
285.74	1619.94
285.95	1718.25
286.17	1724.39
286.38	1742.82
286.60	1652.71
286.81	1699.81
287.03	1615.85
287.24	1632.23
287.46	1693.67
287.67	1708.01
287.89	1816.55
288.10	1681.38
288.32	1728.49
288.53	1767.40
288.75	1658.85
288.96	1712.10
289.18	1716.20
289.39	1673.19
289.61	1624.04
289.82	1861.60
290.04	1783.78
290.25	1617.90
290.47	1691.62
290.68	1632.23
290.90	1759.21
291.11	1650.66
291.33	1722.34
291.54	1681.38
291.76	1681.38
291.97	1730.53
292.18	1703.91
292.40	1687.53
292.61	1636.33
292.83	1798.12
293.04	1718.25
293.26	1662.95
293.47	1710.05
293.69	1714.15
293.90	1693.67
294.12	1740.77
294.33	1687.53
294.55	1675.24
294.76	1748.97
294.97	1734.63
295.19	1847.27
295.40	1708.01
295.62	1691.62
295.83	1859.56
296.05	1662.95
296.26	1738.73
296.48	1642.47
296.69	1701.86
296.90	1675.24
297.12	1791.97
297.33	1806.31
297.55	1703.91
297.76	1744.87
297.98	1748.97
298.19	1691.62
298.41	1718.25
298.62	1671.14
298.83	1800.16
299.05	1691.62
299.26	1687.53
299.48	1650.66
299.69	1691.62
299.90	1714.15
300.12	1595.37
300.33	1740.77
300.55	1658.85
300.76	1759.21
300.98	1609.70
301.19	1654.76
301.40	1726.44
301.62	1693.67
301.83	1712.10
302.05	1681.38
302.26	1681.38
302.47	1671.14
302.69	1695.72
302.90	1720.29
303.12	1593.32
303.33	1781.73
303.54	1759.21
303.76	1632.23
303.97	1718.25
304.19	1863.65
304.40	1701.86
304.61	1699.81
304.83	1794.02
305.04	1781.73
305.26	1736.68
305.47	1597.42
305.68	1732.58
305.90	1634.28
306.11	1726.44
306.33	1673.19
306.54	1628.14
306.75	1720.29
306.97	1558.50
307.18	1638.38
307.39	1662.95
307.61	1748.97
307.82	1683.43
308.04	1714.15
308.25	1617.90
308.46	1685.48
308.68	1708.01
308.89	1734.63
309.10	1769.44
309.32	1746.92
309.53	1691.62
309.74	1722.34
309.96	1662.95
310.17	1740.77
310.39	1624.04
310.60	1673.19
310.81	1662.95
311.03	1595.37
311.24	1769.44
311.45	1679.33
311.67	1808.36
311.88	1783.78
312.09	1617.90
312.31	1644.52
312.52	1693.67
312.73	1701.86
312.95	1677.29
313.16	1730.53
313.37	1695.72
313.59	1775.59
313.80	1724.39
314.01	1789.92
314.23	1728.49
314.44	1578.98
314.65	1581.03
314.87	1642.47
315.08	1630.18
315.29	1757.16
315.51	1691.62
315.72	1646.57
315.93	1781.73
316.15	1779.68
316.36	1656.81
316.57	1697.77
316.79	1740.77
317.00	1650.66
317.21	1695.72
317.43	1724.39
317.64	1712.10
317.85	1679.33
318.07	1689.57
318.28	1701.86
318.49	1787.88
318.70	1910.75
318.92	1806.31
319.13	1771.49
319.34	1820.64
319.56	1824.74
319.77	1818.60
319.98	1820.64
320.20	1771.49
320.41	1724.39
320.62	1755.11
320.83	1628.14
321.05	1867.75
321.26	1685.48
321.47	1640.42
321.69	1724.39
321.90	1558.50
322.11	1681.38
322.32	1703.91
322.54	1789.92
322.75	1656.81
322.96	1785.83
323.18	1583.08
323.39	1585.13
323.60	1697.77
323.81	1771.49
324.03	1640.42
324.24	1660.90
324.45	1732.58
324.66	1634.28
324.88	1800.16
325.09	1781.73
325.30	1726.44
325.52	1738.73
325.73	1730.53
325.94	1681.38
326.15	1572.84
326.37	1697.77
326.58	1728.49
326.79	1734.63
327.00	1701.86
327.22	1699.81
327.43	1665.00
327.64	1724.39
327.85	1708.01
328.07	1785.83
328.28	1779.68
328.49	1648.61
328.70	1669.09
328.92	1746.92
329.13	1669.09
329.34	1708.01
329.55	1724.39
329.76	1744.87
329.98	1740.77
330.19	1751.01
330.40	1695.72
330.61	1714.15
330.83	1757.16
331.04	1685.48
331.25	1693.67
331.46	1624.04
331.68	1591.27
331.89	1787.88
332.10	1697.77
332.31	1628.14
332.52	1689.57
332.74	1742.82
332.95	1603.56
333.16	1705.96
333.37	1730.53
333.58	1673.19
333.80	1720.29
334.01	1538.02
334.22	1683.43
334.43	1656.81
334.64	1665.00
334.86	1673.19
335.07	1638.38
335.28	1810.40
335.49	1660.90
335.70	1708.01
335.92	1732.58
336.13	1839.08
336.34	1632.23
336.55	1621.99
336.76	1689.57
336.98	1597.42
337.19	1783.78
337.40	1839.08
337.61	1882.08
337.82	1617.90
338.04	1748.97
338.25	1636.33
338.46	1667.05
338.67	1665.00
338.88	1697.77
339.09	1646.57
339.31	1675.24
339.52	1648.61
339.73	1695.72
339.94	1667.05
340.15	1763.30
340.36	1642.47
340.58	1683.43
340.79	1705.96
341.00	1724.39
341.21	1581.03
341.42	1787.88
341.63	1701.86
341.85	1662.95
342.06	1742.82
342.27	1570.79
342.48	1746.92
342.69	1550.31
342.90	1748.97
343.12	1718.25
343.33	1689.57
343.54	1736.68
343.75	1740.77
343.96	1757.16
344.17	1591.27
344.38	1677.29
344.60	1687.53
344.81	1673.19
345.02	1685.48
345.23	1767.40
345.44	1755.11
345.65	1837.03
345.86	1751.01
346.07	1734.63
346.29	1685.48
346.50	1705.96
346.71	1691.62
346.92	1773.54
347.13	1736.68
347.34	1665.00
347.55	1683.43
347.76	1687.53
347.98	1646.57
348.19	1648.61
348.40	1763.30
348.61	1683.43
348.82	1787.88
349.03	1722.34
349.24	1615.85
349.45	1771.49
349.66	1591.27
349.88	1665.00
350.09	1691.62
350.30	1757.16
350.51	1675.24
350.72	1712.10
350.93	1673.19
351.14	1675.24
351.35	1785.83
351.56	1671.14
351.77	1736.68
351.99	1710.05
352.20	1783.78
352.41	1843.17
352.62	1578.98
352.83	1683.43
353.04	1665.00
353.25	1716.20
353.46	1677.29
353.67	1800.16
353.88	1652.71
354.09	1652.71
354.30	1765.35
354.52	1683.43
354.73	1697.77
354.94	1642.47
355.15	1714.15
355.36	1808.36
355.57	1675.24
355.78	1738.73
355.99	1708.01
356.20	1613.80
356.41	1757.16
356.62	1728.49
356.83	1710.05
357.04	1775.59
357.25	1669.09
357.46	1660.90
357.68	1624.04
357.89	1703.91
358.10	1708.01
358.31	1693.67
358.52	1685.48
358.73	1613.80
358.94	1712.10
359.15	1710.05
359.36	1746.92
359.57	1722.34
359.78	1648.61
359.99	1724.39
360.20	1611.75
360.41	1632.23
360.62	1691.62
360.83	1671.14
361.04	1699.81
361.25	1740.77
361.46	1806.31
361.67	1683.43
361.88	1689.57
362.09	1726.44
362.30	1693.67
362.51	1638.38
362.72	1699.81
362.93	1804.26
363.14	1712.10
363.35	1759.21
363.56	1660.90
363.78	1716.20
363.99	1736.68
364.20	1607.66
364.41	1695.72
364.62	1853.41
364.83	1710.05
365.04	1708.01
365.25	1587.18
365.46	1787.88
365.67	1619.94
365.88	1572.84
366.09	1685.48
366.30	1658.85
366.51	1710.05
366.72	1621.99
366.93	1617.90
367.14	1677.29
367.35	1775.59
367.56	1708.01
367.77	1767.40
367.98	1607.66
368.18	1736.68
368.39	1705.96
368.60	1599.46
368.81	1837.03
369.02	1685.48
369.23	1734.63
369.44	1609.70
369.65	1601.51
369.86	1718.25
370.07	1763.30
370.28	1603.56
370.49	1683.43
370.70	1738.73
370.91	1677.29
371.12	1585.13
371.33	1722.34
371.54	1724.39
371.75	1779.68
371.96	1556.46
372.17	1691.62
372.38	1654.76
372.59	1724.39
372.80	1644.52
373.01	1644.52
373.22	1681.38
373.43	1701.86
373.64	1689.57
373.85	1843.17
374.06	1785.83
374.26	1740.77
374.47	1775.59
374.68	1716.20
374.89	1732.58
375.10	1699.81
375.31	1734.63
375.52	1765.35
375.73	1716.20
375.94	1662.95
376.15	1771.49
376.36	1669.09
376.57	1589.22
376.78	1757.16
376.99	1716.20
377.20	1789.92
377.40	1636.33
377.61	1699.81
377.82	1673.19
378.03	1734.63
378.24	1716.20
378.45	1648.61
378.66	1716.20
378.87	1650.66
379.08	1632.23
379.29	1615.85
379.50	1667.05
379.71	1671.14
379.91	1701.86
380.12	1734.63
380.33	1662.95
380.54	1732.58
380.75	1660.90
380.96	1720.29
381.17	1765.35
381.38	1681.38
381.59	1771.49
381.80	1794.02
382.00	1751.01
382.21	1683.43
382.42	1832.93
382.63	1892.32
382.84	1771.49
383.05	1755.11
383.26	1789.92
383.47	1646.57
383.68	1867.75
383.88	1699.81
384.09	1683.43
384.30	1746.92
384.51	1693.67
384.72	1660.90
384.93	1673.19
385.14	1660.90
385.35	1751.01
385.55	1615.85
385.76	1771.49
385.97	1746.92
386.18	1621.99
386.39	1753.06
386.60	1671.14
386.81	1689.57
387.02	1691.62
387.22	1652.71
387.43	1724.39
387.64	1781.73
387.85	1853.41
388.06	2172.89
388.27	4427.71
388.48	6746.01
388.68	8243.07
388.89	9604.97
389.10	9893.74
389.31	8566.65
389.52	7606.16
389.73	6789.02
389.93	6426.53
390.14	5922.73
390.35	5234.61
390.56	4554.68
390.77	3786.69
390.98	2990.03
391.18	2602.97
391.39	2127.84
391.60	1822.69
391.81	1820.64
392.02	1777.64
392.23	1826.79
392.43	1765.35
392.64	1800.16
392.85	1681.38
393.06	1898.47
393.27	1679.33
393.47	1677.29
393.68	1703.91
393.89	1714.15
394.10	1775.59
394.31	1667.05
394.52	1697.77
394.72	1675.24
394.93	1818.60
395.14	1621.99
395.35	1726.44
395.56	1679.33
395.76	1740.77
395.97	1816.55
396.18	1814.50
396.39	1806.31
396.60	1931.23
396.80	1904.61
397.01	1826.79
397.22	1826.79
397.43	1845.22
397.64	1687.53
397.84	1763.30
398.05	1837.03
398.26	1746.92
398.47	1767.40
398.67	1796.07
398.88	1742.82
399.09	1806.31
399.30	1648.61
399.51	1742.82
399.71	1732.58
399.92	1742.82
400.13	1800.16
400.34	1685.48
400.54	1716.20
400.75	1730.53
400.96	1628.14
401.17	1724.39
401.37	1720.29
401.58	1644.52
401.79	1730.53
402.00	1839.08
402.21	1929.19
402.41	1986.53
402.62	2041.82
402.83	1980.39
403.04	2004.96
403.24	2082.78
403.45	1812.45
403.66	1896.42
403.87	1892.32
404.07	1906.66
404.28	1910.75
404.49	1837.03
404.70	1724.39
404.90	1779.68
405.11	1777.64
405.32	1718.25
405.52	1738.73
405.73	1740.77
405.94	1646.57
406.15	1681.38
406.35	1740.77
406.56	1710.05
406.77	1796.07
406.98	1734.63
407.18	1638.38
407.39	1738.73
407.60	1712.10
407.80	1712.10
408.01	1667.05
408.22	1742.82
408.43	1681.38
408.63	1740.77
408.84	1671.14
409.05	1722.34
409.25	1679.33
409.46	1587.18
409.67	1724.39
409.88	1624.04
410.08	1683.43
410.29	1673.19
410.50	1728.49
410.70	1783.78
410.91	1648.61
411.12	1687.53
411.32	1679.33
411.53	1628.14
411.74	1763.30
411.95	1822.69
412.15	1730.53
412.36	1826.79
412.57	1767.40
412.77	1705.96
412.98	1712.10
413.19	1736.68
413.39	1701.86
413.60	1804.26
413.81	1724.39
414.01	1601.51
414.22	1775.59
414.43	1738.73
414.63	1740.77
414.84	1730.53
415.05	1720.29
415.25	1656.81
415.46	1746.92
415.67	1593.32
415.87	1650.66
416.08	1632.23
416.29	1697.77
416.49	1714.15
416.70	1603.56
416.91	1697.77
417.11	1730.53
417.32	1753.06
417.53	1759.21
417.73	1671.14
417.94	1753.06
418.15	1730.53
418.35	1705.96
418.56	1718.25
418.77	1863.65
418.97	1673.19
419.18	1718.25
419.38	1587.18
419.59	1726.44
419.80	1789.92
420.00	1699.81
420.21	1689.57
420.42	1804.26
420.62	1738.73
420.83	1644.52
421.04	1751.01
421.24	1665.00
421.45	1722.34
421.65	1736.68
421.86	1683.43
422.07	1744.87
422.27	1767.40
422.48	1703.91
422.69	1675.24
422.89	1769.44
423.10	1777.64
423.30	1665.00
423.51	1740.77
423.72	1687.53
423.92	1646.57
424.13	1578.98
424.33	1681.38
424.54	1789.92
424.75	1794.02
424.95	1779.68
425.16	1638.38
425.36	1648.61
425.57	1697.77
425.78	1753.06
425.98	1736.68
426.19	1681.38
426.39	1683.43
426.60	1662.95
426.81	1779.68
427.01	1642.47
427.22	1712.10
427.42	1665.00
427.63	1619.94
427.83	1796.07
428.04	1734.63
428.25	1757.16
428.45	1769.44
428.66	1828.84
428.86	1787.88
429.07	1689.57
429.28	1693.67
429.48	1673.19
429.69	1697.77
429.89	1660.90
430.10	1632.23
430.30	1789.92
430.51	1757.16
430.71	1587.18
430.92	1636.33
431.13	1697.77
431.33	1726.44
431.54	1611.75
431.74	1787.88
431.95	1841.12
432.15	1701.86
432.36	1753.06
432.56	1738.73
432.77	1759.21
432.98	1796.07
433.18	1656.81
433.39	1708.01
433.59	1708.01
433.80	1796.07
434.00	1882.08
434.21	1673.19
434.41	1628.14
434.62	1929.19
434.82	1603.56
435.03	1640.42
435.23	1730.53
435.44	1652.71
435.64	1691.62
435.85	1685.48
436.06	1738.73
436.26	1740.77
436.47	1753.06
436.67	1710.05
436.88	1720.29
437.08	1759.21
437.29	1824.74
437.49	1736.68
437.70	1746.92
437.90	1689.57
438.11	1830.88
438.31	1751.01
438.52	1947.62
438.72	1869.80
438.93	1906.66
439.13	1798.12
439.34	1843.17
439.54	1693.67
439.75	1712.10
439.95	1703.91
440.16	1763.30
440.36	1699.81
440.57	1742.82
440.77	1814.50
440.98	1710.05
441.18	1804.26
441.39	1644.52
441.59	1675.24
441.80	1769.44
442.00	1748.97
442.21	1746.92
442.41	1599.46
442.62	1726.44
442.82	1703.91
443.02	1695.72
443.23	1728.49
443.43	1736.68
443.64	1804.26
443.84	1669.09
444.05	1806.31
444.25	1738.73
444.46	1621.99
444.66	1800.16
444.87	1828.84
445.07	1701.86
445.28	1687.53
445.48	1814.50
445.69	1802.21
445.89	1886.18
446.09	1703.91
446.30	2037.73
446.50	2680.79
446.71	3680.20
446.91	4335.55
447.12	4726.71
447.32	4911.03
447.53	4310.97
447.73	3803.08
447.93	3532.75
448.14	3262.41
448.34	3129.30
448.55	2832.34
448.75	2766.81
448.96	2709.46
449.16	2418.65
449.36	2285.53
449.57	2086.88
449.77	1945.57
449.98	1845.22
450.18	1800.16
450.39	1814.50
450.59	1738.73
450.79	1753.06
451.00	1640.42
451.20	1787.88
451.41	1765.35
451.61	1796.07
451.81	1771.49
452.02	1755.11
452.22	1738.73
452.43	1703.91
452.63	1685.48
