SpectraSuite Data File
++++++++++++++++++++++++++++++++++++
Date: Mon Jun 06 12:19:17 CEST 2016
User: root
Dark Spectrum Present: No
Reference Spectrum Present: No
Number of Sampled Component Spectra: 1
Spectrometers: USB4C02835
Integration Time (usec): 100000 (USB4C02835)
Spectra Averaged: 1 (USB4C02835)
Boxcar Smoothing: 0 (USB4C02835)
Correct for Electrical Dark: No (USB4C02835)
Strobe/Lamp Enabled: No (USB4C02835)
Correct for Detector Non-linearity: No (USB4C02835)
Correct for Stray Light: No (USB4C02835)
Number of Pixels in Processed Spectrum: 3648
>>>>>Begin Processed Spectral Data<<<<<
177.47	1437.67
177.69	1437.67
177.91	1437.67
178.13	1384.43
178.36	1452.01
178.58	1658.85
178.80	1634.28
179.02	1650.66
179.24	1607.66
179.46	1638.38
179.68	1746.92
179.90	1693.67
180.13	1632.23
180.35	1642.47
180.57	1734.63
180.79	1667.05
181.01	1697.77
181.23	1814.50
181.45	1814.50
181.67	1708.01
181.90	1748.97
182.12	1599.46
182.34	1605.61
182.56	1718.25
182.78	1638.38
183.00	1667.05
183.22	1703.91
183.44	1585.13
183.66	1744.87
183.89	1812.45
184.11	1757.16
184.33	1697.77
184.55	1689.57
184.77	1656.81
184.99	1748.97
185.21	1656.81
185.43	1853.41
185.65	1730.53
185.87	1669.09
186.10	1738.73
186.32	1810.40
186.54	1673.19
186.76	1746.92
186.98	1685.48
187.20	1665.00
187.42	1656.81
187.64	1736.68
187.86	1714.15
188.08	1710.05
188.30	1730.53
188.52	1705.96
188.75	1660.90
188.97	1746.92
189.19	1628.14
189.41	1710.05
189.63	1710.05
189.85	1732.58
190.07	1615.85
190.29	1697.77
190.51	1705.96
190.73	1626.09
190.95	1785.83
191.17	1656.81
191.39	1626.09
191.61	1599.46
191.84	1697.77
192.06	1683.43
192.28	1544.17
192.50	1822.69
192.72	1683.43
192.94	1640.42
193.16	1808.36
193.38	1673.19
193.60	1662.95
193.82	1671.14
194.04	1755.11
194.26	1791.97
194.48	1726.44
194.70	1699.81
194.92	1662.95
195.14	1773.54
195.36	1626.09
195.58	1658.85
195.80	1701.86
196.02	1675.24
196.24	1669.09
196.46	1771.49
196.69	1599.46
196.91	1837.03
197.13	1654.76
197.35	1652.71
197.57	1808.36
197.79	1701.86
198.01	1746.92
198.23	1710.05
198.45	1648.61
198.67	1589.22
198.89	1685.48
199.11	1673.19
199.33	1630.18
199.55	1617.90
199.77	1751.01
199.99	1697.77
200.21	1599.46
200.43	1669.09
200.65	1613.80
200.87	1640.42
201.09	1730.53
201.31	1718.25
201.53	1736.68
201.75	1755.11
201.97	1712.10
202.19	1703.91
202.41	1804.26
202.63	1771.49
202.85	1796.07
203.07	1710.05
203.29	1660.90
203.51	1609.70
203.73	1677.29
203.95	1914.85
204.17	1726.44
204.39	1759.21
204.61	1714.15
204.83	1642.47
205.05	1652.71
205.27	1656.81
205.49	1695.72
205.71	1703.91
205.93	1642.47
206.15	1607.66
206.37	1648.61
206.59	1675.24
206.81	1681.38
207.03	1667.05
207.25	1640.42
207.47	1695.72
207.69	1673.19
207.91	1853.41
208.13	1785.83
208.34	1644.52
208.56	1632.23
208.78	1714.15
209.00	1619.94
209.22	1642.47
209.44	1687.53
209.66	1648.61
209.88	1681.38
210.10	1621.99
210.32	1675.24
210.54	1775.59
210.76	1650.66
210.98	1738.73
211.20	1566.70
211.42	1667.05
211.64	1701.86
211.86	1712.10
212.08	1691.62
212.30	1687.53
212.52	1708.01
212.74	1738.73
212.96	1671.14
213.17	1738.73
213.39	1693.67
213.61	1787.88
213.83	1773.54
214.05	1570.79
214.27	1769.44
214.49	1695.72
214.71	1675.24
214.93	1740.77
215.15	1738.73
215.37	1740.77
215.59	1654.76
215.81	1695.72
216.03	1841.12
216.24	1718.25
216.46	1665.00
216.68	1693.67
216.90	1738.73
217.12	1757.16
217.34	1611.75
217.56	1714.15
217.78	1765.35
218.00	1769.44
218.22	1677.29
218.44	1716.20
218.66	1660.90
218.87	1751.01
219.09	1710.05
219.31	1699.81
219.53	1667.05
219.75	1730.53
219.97	1734.63
220.19	1665.00
220.41	1705.96
220.63	1728.49
220.85	1773.54
221.06	1685.48
221.28	1759.21
221.50	1699.81
221.72	1693.67
221.94	1640.42
222.16	1654.76
222.38	1773.54
222.60	1757.16
222.82	1665.00
223.03	1757.16
223.25	1634.28
223.47	1697.77
223.69	1773.54
223.91	1703.91
224.13	1652.71
224.35	1628.14
224.57	1742.82
224.78	1730.53
225.00	1724.39
225.22	1691.62
225.44	1744.87
225.66	1724.39
225.88	1726.44
226.10	1791.97
226.32	1777.64
226.53	1763.30
226.75	1697.77
226.97	1654.76
227.19	1656.81
227.41	1724.39
227.63	1785.83
227.85	1587.18
228.06	1652.71
228.28	1677.29
228.50	1730.53
228.72	1634.28
228.94	1665.00
229.16	1513.45
229.37	1632.23
229.59	1701.86
229.81	1804.26
230.03	1638.38
230.25	1585.13
230.47	1613.80
230.69	1669.09
230.90	1703.91
231.12	1613.80
231.34	1685.48
231.56	1781.73
231.78	1720.29
232.00	1656.81
232.21	1656.81
232.43	1703.91
232.65	1542.12
232.87	1683.43
233.09	1607.66
233.30	1667.05
233.52	1716.20
233.74	1640.42
233.96	1726.44
234.18	1658.85
234.40	1634.28
234.61	1773.54
234.83	1683.43
235.05	1589.22
235.27	1869.80
235.49	1734.63
235.70	1695.72
235.92	1765.35
236.14	1665.00
236.36	1777.64
236.58	1570.79
236.79	1753.06
237.01	1771.49
237.23	1714.15
237.45	1751.01
237.67	1691.62
237.88	1671.14
238.10	1861.60
238.32	1609.70
238.54	1691.62
238.76	1673.19
238.97	1646.57
239.19	1617.90
239.41	1763.30
239.63	1708.01
239.85	1648.61
240.06	1705.96
240.28	1681.38
240.50	1701.86
240.72	1697.77
240.93	1646.57
241.15	1800.16
241.37	1628.14
241.59	1734.63
241.81	1785.83
242.02	1773.54
242.24	1697.77
242.46	1691.62
242.68	1665.00
242.89	1718.25
243.11	1697.77
243.33	1734.63
243.55	1685.48
243.76	1703.91
243.98	1599.46
244.20	1660.90
244.42	1689.57
244.64	1748.97
244.85	1611.75
245.07	1619.94
245.29	1736.68
245.51	1716.20
245.72	1677.29
245.94	1742.82
246.16	1695.72
246.38	1710.05
246.59	1652.71
246.81	1566.70
247.03	1611.75
247.24	1642.47
247.46	1656.81
247.68	1734.63
247.90	1687.53
248.11	1671.14
248.33	1722.34
248.55	1716.20
248.77	1607.66
248.98	1773.54
249.20	1738.73
249.42	1716.20
249.64	1773.54
249.85	1587.18
250.07	1677.29
250.29	1695.72
250.50	1730.53
250.72	1613.80
250.94	1806.31
251.16	1802.21
251.37	1800.16
251.59	1718.25
251.81	1710.05
252.02	1769.44
252.24	1587.18
252.46	1771.49
252.68	1677.29
252.89	1667.05
253.11	1605.61
253.33	1773.54
253.54	1710.05
253.76	1644.52
253.98	1669.09
254.20	1732.58
254.41	1699.81
254.63	1644.52
254.85	1574.89
255.06	1669.09
255.28	1724.39
255.50	1681.38
255.71	1636.33
255.93	1701.86
256.15	1658.85
256.36	1689.57
256.58	1669.09
256.80	1738.73
257.02	1673.19
257.23	1789.92
257.45	1701.86
257.67	1732.58
257.88	1669.09
258.10	1656.81
258.32	1734.63
258.53	1673.19
258.75	1724.39
258.97	1640.42
259.18	1677.29
259.40	1648.61
259.62	1740.77
259.83	1753.06
260.05	1734.63
260.27	1966.05
260.48	1769.44
260.70	1617.90
260.92	1703.91
261.13	1720.29
261.35	1787.88
261.57	1734.63
261.78	1593.32
262.00	1628.14
262.22	1828.84
262.43	1679.33
262.65	1648.61
262.86	1667.05
263.08	1775.59
263.30	1669.09
263.51	1697.77
263.73	1634.28
263.95	1773.54
264.16	1638.38
264.38	1644.52
264.60	1736.68
264.81	1683.43
265.03	1791.97
265.25	1798.12
265.46	1773.54
265.68	1796.07
265.89	1724.39
266.11	1525.74
266.33	1734.63
266.54	1755.11
266.76	1722.34
266.98	1751.01
267.19	1781.73
267.41	1791.97
267.62	1734.63
267.84	1607.66
268.06	1761.25
268.27	1689.57
268.49	1673.19
268.70	1818.60
268.92	1757.16
269.14	1642.47
269.35	1615.85
269.57	1718.25
269.79	1714.15
270.00	1716.20
270.22	1824.74
270.43	1673.19
270.65	1562.60
270.87	1695.72
271.08	1728.49
271.30	1712.10
271.51	1720.29
271.73	1796.07
271.95	1757.16
272.16	1734.63
272.38	1720.29
272.59	1660.90
272.81	1746.92
273.02	1728.49
273.24	1718.25
273.46	1763.30
273.67	1636.33
273.89	1691.62
274.10	1705.96
274.32	1812.45
274.54	1759.21
274.75	1693.67
274.97	1626.09
275.18	1779.68
275.40	1726.44
275.61	1673.19
275.83	1740.77
276.05	1607.66
276.26	1646.57
276.48	1679.33
276.69	1611.75
276.91	1617.90
277.12	1740.77
277.34	1736.68
277.55	1699.81
277.77	1722.34
277.99	1669.09
278.20	1628.14
278.42	1583.08
278.63	1611.75
278.85	1673.19
279.06	1576.94
279.28	1738.73
279.49	1736.68
279.71	1718.25
279.93	1742.82
280.14	1697.77
280.36	1681.38
280.57	1687.53
280.79	1724.39
281.00	1673.19
281.22	1634.28
281.43	1798.12
281.65	1609.70
281.86	1601.51
282.08	1638.38
282.29	1738.73
282.51	1613.80
282.73	1636.33
282.94	1621.99
283.16	1730.53
283.37	1826.79
283.59	1751.01
283.80	1732.58
284.02	1650.66
284.23	1722.34
284.45	1669.09
284.66	1669.09
284.88	1669.09
285.09	1755.11
285.31	1708.01
285.52	1808.36
285.74	1591.27
285.95	1794.02
286.17	1724.39
286.38	1755.11
286.60	1593.32
286.81	1615.85
287.03	1665.00
287.24	1662.95
287.46	1710.05
287.67	1636.33
287.89	1818.60
288.10	1722.34
288.32	1697.77
288.53	1726.44
288.75	1660.90
288.96	1746.92
289.18	1718.25
289.39	1726.44
289.61	1759.21
289.82	1800.16
290.04	1746.92
290.25	1640.42
290.47	1621.99
290.68	1642.47
290.90	1763.30
291.11	1634.28
291.33	1652.71
291.54	1644.52
291.76	1675.24
291.97	1765.35
292.18	1667.05
292.40	1640.42
292.61	1673.19
292.83	1748.97
293.04	1650.66
293.26	1667.05
293.47	1716.20
293.69	1673.19
293.90	1716.20
294.12	1705.96
294.33	1691.62
294.55	1685.48
294.76	1781.73
294.97	1773.54
295.19	1818.60
295.40	1714.15
295.62	1679.33
295.83	1736.68
296.05	1757.16
296.26	1640.42
296.48	1734.63
296.69	1691.62
296.90	1638.38
297.12	1687.53
297.33	1681.38
297.55	1734.63
297.76	1794.02
297.98	1734.63
298.19	1687.53
298.41	1718.25
298.62	1646.57
298.83	1787.88
299.05	1689.57
299.26	1650.66
299.48	1693.67
299.69	1615.85
299.90	1705.96
300.12	1624.04
300.33	1791.97
300.55	1732.58
300.76	1695.72
300.98	1683.43
301.19	1714.15
301.40	1660.90
301.62	1636.33
301.83	1730.53
302.05	1685.48
302.26	1703.91
302.47	1689.57
302.69	1665.00
302.90	1826.79
303.12	1632.23
303.33	1767.40
303.54	1816.55
303.76	1619.94
303.97	1671.14
304.19	1761.25
304.40	1708.01
304.61	1716.20
304.83	1837.03
305.04	1779.68
305.26	1658.85
305.47	1619.94
305.68	1705.96
305.90	1644.52
306.11	1796.07
306.33	1689.57
306.54	1669.09
306.75	1648.61
306.97	1587.18
307.18	1665.00
307.39	1658.85
307.61	1734.63
307.82	1667.05
308.04	1675.24
308.25	1699.81
308.46	1677.29
308.68	1685.48
308.89	1685.48
309.10	1738.73
309.32	1734.63
309.53	1673.19
309.74	1714.15
309.96	1732.58
310.17	1742.82
310.39	1658.85
310.60	1736.68
310.81	1730.53
311.03	1673.19
311.24	1748.97
311.45	1652.71
311.67	1859.56
311.88	1744.87
312.09	1646.57
312.31	1652.71
312.52	1697.77
312.73	1695.72
312.95	1572.84
313.16	1626.09
313.37	1718.25
313.59	1726.44
313.80	1724.39
314.01	1810.40
314.23	1697.77
314.44	1728.49
314.65	1644.52
314.87	1662.95
315.08	1669.09
315.29	1710.05
315.51	1693.67
315.72	1683.43
315.93	1751.01
316.15	1673.19
316.36	1710.05
316.57	1796.07
316.79	1701.86
317.00	1681.38
317.21	1708.01
317.43	1687.53
317.64	1705.96
317.85	1636.33
318.07	1675.24
318.28	1763.30
318.49	1759.21
318.70	1877.99
318.92	1841.12
319.13	1818.60
319.34	1912.80
319.56	1746.92
319.77	1757.16
319.98	1771.49
320.20	1740.77
320.41	1767.40
320.62	1753.06
320.83	1576.94
321.05	1791.97
321.26	1697.77
321.47	1726.44
321.69	1796.07
321.90	1685.48
322.11	1681.38
322.32	1736.68
322.54	1736.68
322.75	1642.47
322.96	1748.97
323.18	1691.62
323.39	1617.90
323.60	1636.33
323.81	1779.68
324.03	1636.33
324.24	1628.14
324.45	1734.63
324.66	1697.77
324.88	1775.59
325.09	1681.38
325.30	1722.34
325.52	1714.15
325.73	1742.82
325.94	1644.52
326.15	1650.66
326.37	1685.48
326.58	1763.30
326.79	1763.30
327.00	1585.13
327.22	1708.01
327.43	1689.57
327.64	1591.27
327.85	1681.38
328.07	1673.19
328.28	1794.02
328.49	1636.33
328.70	1636.33
328.92	1705.96
329.13	1607.66
329.34	1751.01
329.55	1763.30
329.76	1761.25
329.98	1705.96
330.19	1779.68
330.40	1728.49
330.61	1613.80
330.83	1662.95
331.04	1675.24
331.25	1751.01
331.46	1648.61
331.68	1632.23
331.89	1775.59
332.10	1736.68
332.31	1603.56
332.52	1701.86
332.74	1783.78
332.95	1621.99
333.16	1744.87
333.37	1765.35
333.58	1693.67
333.80	1617.90
334.01	1535.98
334.22	1648.61
334.43	1634.28
334.64	1658.85
334.86	1540.07
335.07	1609.70
335.28	1765.35
335.49	1619.94
335.70	1685.48
335.92	1695.72
336.13	1796.07
336.34	1714.15
336.55	1714.15
336.76	1730.53
336.98	1576.94
337.19	1693.67
337.40	1816.55
337.61	1761.25
337.82	1669.09
338.04	1775.59
338.25	1599.46
338.46	1656.81
338.67	1708.01
338.88	1652.71
339.09	1619.94
339.31	1697.77
339.52	1656.81
339.73	1640.42
339.94	1742.82
340.15	1748.97
340.36	1595.37
340.58	1742.82
340.79	1638.38
341.00	1632.23
341.21	1720.29
341.42	1748.97
341.63	1654.76
341.85	1730.53
342.06	1677.29
342.27	1552.36
342.48	1769.44
342.69	1613.80
342.90	1708.01
343.12	1765.35
343.33	1578.98
343.54	1738.73
343.75	1738.73
343.96	1712.10
344.17	1665.00
344.38	1708.01
344.60	1671.14
344.81	1632.23
345.02	1658.85
345.23	1693.67
345.44	1724.39
345.65	1730.53
345.86	1705.96
346.07	1617.90
346.29	1673.19
346.50	1708.01
346.71	1755.11
346.92	1738.73
347.13	1806.31
347.34	1708.01
347.55	1724.39
347.76	1742.82
347.98	1511.40
348.19	1654.76
348.40	1744.87
348.61	1650.66
348.82	1771.49
349.03	1716.20
349.24	1650.66
349.45	1820.64
349.66	1691.62
349.88	1652.71
350.09	1687.53
350.30	1673.19
350.51	1683.43
350.72	1693.67
350.93	1806.31
351.14	1599.46
351.35	1703.91
351.56	1679.33
351.77	1644.52
351.99	1798.12
352.20	1804.26
352.41	1722.34
352.62	1552.36
352.83	1656.81
353.04	1626.09
353.25	1673.19
353.46	1681.38
353.67	1734.63
353.88	1607.66
354.09	1736.68
354.30	1755.11
354.52	1716.20
354.73	1748.97
354.94	1665.00
355.15	1656.81
355.36	1826.79
355.57	1658.85
355.78	1763.30
355.99	1705.96
356.20	1656.81
356.41	1765.35
356.62	1638.38
356.83	1718.25
357.04	1708.01
357.25	1619.94
357.46	1724.39
357.68	1632.23
357.89	1734.63
358.10	1730.53
358.31	1685.48
358.52	1634.28
358.73	1675.24
358.94	1701.86
359.15	1677.29
359.36	1685.48
359.57	1689.57
359.78	1652.71
359.99	1738.73
360.20	1593.32
360.41	1718.25
360.62	1724.39
360.83	1718.25
361.04	1619.94
361.25	1736.68
361.46	1771.49
361.67	1755.11
361.88	1748.97
362.09	1761.25
362.30	1697.77
362.51	1615.85
362.72	1673.19
362.93	1736.68
363.14	1630.18
363.35	1785.83
363.56	1652.71
363.78	1816.55
363.99	1722.34
364.20	1589.22
364.41	1734.63
364.62	1779.68
364.83	1685.48
365.04	1646.57
365.25	1701.86
365.46	1800.16
365.67	1652.71
365.88	1677.29
366.09	1748.97
366.30	1564.65
366.51	1683.43
366.72	1585.13
366.93	1722.34
367.14	1738.73
367.35	1757.16
367.56	1662.95
367.77	1800.16
367.98	1685.48
368.18	1681.38
368.39	1816.55
368.60	1642.47
368.81	1773.54
369.02	1714.15
369.23	1695.72
369.44	1591.27
369.65	1632.23
369.86	1701.86
370.07	1746.92
370.28	1697.77
370.49	1710.05
370.70	1759.21
370.91	1658.85
371.12	1718.25
371.33	1734.63
371.54	1712.10
371.75	1920.99
371.96	1613.80
372.17	1732.58
372.38	1738.73
372.59	1751.01
372.80	1615.85
373.01	1730.53
373.22	1724.39
373.43	1683.43
373.64	1646.57
373.85	1824.74
374.06	1869.80
374.26	1714.15
374.47	1673.19
374.68	1679.33
374.89	1751.01
375.10	1712.10
375.31	1742.82
375.52	1701.86
375.73	1716.20
375.94	1699.81
376.15	1724.39
376.36	1648.61
376.57	1732.58
376.78	1683.43
376.99	1730.53
377.20	1689.57
377.40	1705.96
377.61	1734.63
377.82	1632.23
378.03	1791.97
378.24	1665.00
378.45	1757.16
378.66	1740.77
378.87	1568.74
379.08	1578.98
379.29	1656.81
379.50	1753.06
379.71	1640.42
379.91	1763.30
380.12	1640.42
380.33	1755.11
380.54	1724.39
380.75	1748.97
380.96	1718.25
381.17	1738.73
381.38	1669.09
381.59	1714.15
381.80	1681.38
382.00	1802.21
382.21	1652.71
382.42	1753.06
382.63	1849.32
382.84	1689.57
383.05	1763.30
383.26	1787.88
383.47	1699.81
383.68	1755.11
383.88	1742.82
384.09	1660.90
384.30	1771.49
384.51	1697.77
384.72	1671.14
384.93	1634.28
385.14	1634.28
385.35	1746.92
385.55	1589.22
385.76	1796.07
385.97	1724.39
386.18	1525.74
386.39	1703.91
386.60	1662.95
386.81	1740.77
387.02	1601.51
387.22	1626.09
387.43	1802.21
387.64	1728.49
387.85	1820.64
388.06	2285.53
388.27	4310.97
388.48	6780.82
388.68	8171.40
388.89	9811.82
389.10	9879.40
389.31	8707.96
389.52	7673.74
389.73	6819.74
389.93	6211.49
390.14	5988.26
390.35	5187.50
390.56	4642.75
390.77	3887.04
390.98	3071.95
391.18	2500.57
391.39	2052.06
391.60	1814.50
391.81	1855.46
392.02	1675.24
392.23	1845.22
392.43	1710.05
392.64	1824.74
392.85	1779.68
393.06	1818.60
393.27	1777.64
393.47	1650.66
393.68	1724.39
393.89	1650.66
394.10	1822.69
394.31	1677.29
394.52	1667.05
394.72	1634.28
394.93	1777.64
395.14	1671.14
395.35	1683.43
395.56	1724.39
395.76	1740.77
395.97	1751.01
396.18	1769.44
396.39	1884.13
396.60	1964.00
396.80	1785.83
397.01	1810.40
397.22	1794.02
397.43	1822.69
397.64	1667.05
397.84	1771.49
398.05	1812.45
398.26	1712.10
398.47	1738.73
398.67	1726.44
398.88	1757.16
399.09	1746.92
399.30	1658.85
399.51	1669.09
399.71	1636.33
399.92	1662.95
400.13	1724.39
400.34	1783.78
400.54	1701.86
400.75	1761.25
400.96	1755.11
401.17	1820.64
401.37	1789.92
401.58	1681.38
401.79	1687.53
402.00	1892.32
402.21	1980.39
402.41	2021.35
402.62	1945.57
402.83	2013.15
403.04	1970.15
403.24	2068.45
403.45	1767.40
403.66	1929.19
403.87	1826.79
404.07	1890.28
404.28	1908.71
404.49	1834.98
404.70	1800.16
404.90	1806.31
405.11	1742.82
405.32	1816.55
405.52	1660.90
405.73	1660.90
405.94	1724.39
406.15	1714.15
406.35	1837.03
406.56	1730.53
406.77	1753.06
406.98	1677.29
407.18	1630.18
407.39	1734.63
407.60	1583.08
407.80	1734.63
408.01	1714.15
408.22	1708.01
408.43	1648.61
408.63	1691.62
408.84	1673.19
409.05	1738.73
409.25	1644.52
409.46	1683.43
409.67	1730.53
409.88	1689.57
410.08	1738.73
410.29	1603.56
410.50	1656.81
410.70	1771.49
410.91	1605.61
411.12	1748.97
411.32	1744.87
411.53	1665.00
411.74	1751.01
411.95	1826.79
412.15	1722.34
412.36	1757.16
412.57	1769.44
412.77	1781.73
412.98	1732.58
413.19	1691.62
413.39	1771.49
413.60	1822.69
413.81	1759.21
414.01	1652.71
414.22	1789.92
414.43	1767.40
414.63	1650.66
414.84	1734.63
415.05	1660.90
415.25	1626.09
415.46	1742.82
415.67	1724.39
415.87	1687.53
416.08	1662.95
416.29	1636.33
416.49	1736.68
416.70	1728.49
416.91	1648.61
417.11	1718.25
417.32	1736.68
417.53	1755.11
417.73	1693.67
417.94	1751.01
418.15	1726.44
418.35	1714.15
418.56	1673.19
418.77	1837.03
418.97	1753.06
419.18	1658.85
419.38	1490.92
419.59	1619.94
419.80	1763.30
420.00	1644.52
420.21	1697.77
420.42	1734.63
420.62	1726.44
420.83	1671.14
421.04	1673.19
421.24	1687.53
421.45	1718.25
421.65	1755.11
421.86	1669.09
422.07	1701.86
422.27	1701.86
422.48	1638.38
422.69	1679.33
422.89	1736.68
423.10	1667.05
423.30	1673.19
423.51	1726.44
423.72	1665.00
423.92	1820.64
424.13	1644.52
424.33	1761.25
424.54	1712.10
424.75	1757.16
424.95	1771.49
425.16	1787.88
425.36	1650.66
425.57	1705.96
425.78	1652.71
425.98	1773.54
426.19	1695.72
426.39	1609.70
426.60	1697.77
426.81	1759.21
427.01	1730.53
427.22	1601.51
427.42	1617.90
427.63	1597.42
427.83	1796.07
428.04	1773.54
428.25	1718.25
428.45	1759.21
428.66	1771.49
428.86	1779.68
429.07	1646.57
429.28	1701.86
429.48	1697.77
429.69	1654.76
429.89	1718.25
430.10	1644.52
430.30	1708.01
430.51	1740.77
430.71	1683.43
430.92	1650.66
431.13	1695.72
431.33	1699.81
431.54	1718.25
431.74	1738.73
431.95	1791.97
432.15	1708.01
432.36	1675.24
432.56	1738.73
432.77	1812.45
432.98	1816.55
433.18	1783.78
433.39	1669.09
433.59	1689.57
433.80	1775.59
434.00	1818.60
434.21	1642.47
434.41	1589.22
434.62	1832.93
434.82	1638.38
435.03	1624.04
435.23	1689.57
435.44	1656.81
435.64	1650.66
435.85	1701.86
436.06	1679.33
436.26	1783.78
436.47	1689.57
436.67	1697.77
436.88	1738.73
437.08	1710.05
437.29	1787.88
437.49	1656.81
437.70	1701.86
437.90	1689.57
438.11	1826.79
438.31	1693.67
438.52	1847.27
438.72	1822.69
438.93	1929.19
439.13	1753.06
439.34	1816.55
439.54	1732.58
439.75	1742.82
439.95	1818.60
440.16	1695.72
440.36	1746.92
440.57	1759.21
440.77	1802.21
440.98	1703.91
441.18	1710.05
441.39	1697.77
441.59	1675.24
441.80	1789.92
442.00	1669.09
442.21	1734.63
442.41	1630.18
442.62	1763.30
442.82	1640.42
443.02	1767.40
443.23	1705.96
443.43	1712.10
443.64	1755.11
443.84	1714.15
444.05	1808.36
444.25	1730.53
444.46	1703.91
444.66	1648.61
444.87	1845.22
445.07	1677.29
445.28	1738.73
445.48	1775.59
445.69	1781.73
445.89	1845.22
446.09	1724.39
446.30	2062.30
446.50	2545.63
446.71	3774.41
446.91	4347.84
447.12	4683.70
447.32	4911.03
447.53	4315.07
447.73	3762.12
447.93	3581.90
448.14	3381.20
448.34	3106.77
448.55	2846.68
448.75	2815.96
448.96	2643.93
449.16	2404.32
449.36	2224.09
449.57	2021.35
449.77	1857.51
449.98	1746.92
450.18	1761.25
450.39	1800.16
450.59	1683.43
450.79	1775.59
451.00	1685.48
451.20	1757.16
451.41	1685.48
451.61	1679.33
451.81	1665.00
452.02	1708.01
452.22	1669.09
452.43	1665.00
452.63	1708.01
