SpectraSuite Data File
++++++++++++++++++++++++++++++++++++
Date: Mon Jun 06 13:59:57 CEST 2016
User: root
Dark Spectrum Present: No
Reference Spectrum Present: No
Number of Sampled Component Spectra: 1
Spectrometers: USB4C02835
Integration Time (usec): 100000 (USB4C02835)
Spectra Averaged: 1 (USB4C02835)
Boxcar Smoothing: 0 (USB4C02835)
Correct for Electrical Dark: No (USB4C02835)
Strobe/Lamp Enabled: No (USB4C02835)
Correct for Detector Non-linearity: No (USB4C02835)
Correct for Stray Light: No (USB4C02835)
Number of Pixels in Processed Spectrum: 3648
>>>>>Begin Processed Spectral Data<<<<<
177.47	1470.44
177.69	1470.44
177.91	1470.44
178.13	1492.97
178.36	1501.16
178.58	1673.19
178.80	1726.44
179.02	1656.81
179.24	1607.66
179.46	1736.68
179.68	1710.05
179.90	1726.44
180.13	1732.58
180.35	1701.86
180.57	1656.81
180.79	1798.12
181.01	1642.47
181.23	1734.63
181.45	1828.84
181.67	1730.53
181.90	1787.88
182.12	1642.47
182.34	1589.22
182.56	1771.49
182.78	1726.44
183.00	1679.33
183.22	1648.61
183.44	1630.18
183.66	1830.88
183.89	1718.25
184.11	1734.63
184.33	1718.25
184.55	1771.49
184.77	1669.09
184.99	1693.67
185.21	1705.96
185.43	1855.46
185.65	1624.04
185.87	1796.07
186.10	1818.60
186.32	1904.61
186.54	1699.81
186.76	1710.05
186.98	1767.40
187.20	1718.25
187.42	1720.29
187.64	1665.00
187.86	1716.20
188.08	1796.07
188.30	1708.01
188.52	1722.34
188.75	1722.34
188.97	1738.73
189.19	1665.00
189.41	1687.53
189.63	1746.92
189.85	1691.62
190.07	1665.00
190.29	1648.61
190.51	1728.49
190.73	1603.56
190.95	1796.07
191.17	1726.44
191.39	1611.75
191.61	1744.87
191.84	1673.19
192.06	1705.96
192.28	1550.31
192.50	1880.04
192.72	1759.21
192.94	1757.16
193.16	1736.68
193.38	1732.58
193.60	1677.29
193.82	1683.43
194.04	1718.25
194.26	1703.91
194.48	1677.29
194.70	1689.57
194.92	1714.15
195.14	1691.62
195.36	1636.33
195.58	1724.39
195.80	1691.62
196.02	1630.18
196.24	1689.57
196.46	1714.15
196.69	1636.33
196.91	1853.41
197.13	1759.21
197.35	1613.80
197.57	1738.73
197.79	1773.54
198.01	1667.05
198.23	1771.49
198.45	1814.50
198.67	1624.04
198.89	1714.15
199.11	1718.25
199.33	1693.67
199.55	1574.89
199.77	1656.81
199.99	1767.40
200.21	1742.82
200.43	1710.05
200.65	1669.09
200.87	1605.61
201.09	1693.67
201.31	1658.85
201.53	1785.83
201.75	1677.29
201.97	1611.75
202.19	1779.68
202.41	1681.38
202.63	1818.60
202.85	1726.44
203.07	1693.67
203.29	1665.00
203.51	1646.57
203.73	1648.61
203.95	1888.23
204.17	1722.34
204.39	1658.85
204.61	1619.94
204.83	1722.34
205.05	1671.14
205.27	1701.86
205.49	1767.40
205.71	1658.85
205.93	1634.28
206.15	1673.19
206.37	1691.62
206.59	1714.15
206.81	1642.47
207.03	1644.52
207.25	1628.14
207.47	1697.77
207.69	1630.18
207.91	1746.92
208.13	1781.73
208.34	1669.09
208.56	1617.90
208.78	1763.30
209.00	1654.76
209.22	1685.48
209.44	1720.29
209.66	1683.43
209.88	1708.01
210.10	1736.68
210.32	1632.23
210.54	1746.92
210.76	1675.24
210.98	1753.06
211.20	1560.55
211.42	1679.33
211.64	1761.25
211.86	1755.11
212.08	1751.01
212.30	1722.34
212.52	1683.43
212.74	1716.20
212.96	1728.49
213.17	1699.81
213.39	1734.63
213.61	1783.78
213.83	1773.54
214.05	1673.19
214.27	1806.31
214.49	1658.85
214.71	1742.82
214.93	1755.11
215.15	1689.57
215.37	1716.20
215.59	1644.52
215.81	1746.92
216.03	1810.40
216.24	1685.48
216.46	1716.20
216.68	1642.47
216.90	1771.49
217.12	1734.63
217.34	1767.40
217.56	1697.77
217.78	1755.11
218.00	1810.40
218.22	1744.87
218.44	1685.48
218.66	1798.12
218.87	1839.08
219.09	1763.30
219.31	1701.86
219.53	1724.39
219.75	1687.53
219.97	1720.29
220.19	1705.96
220.41	1638.38
220.63	1775.59
220.85	1751.01
221.06	1722.34
221.28	1777.64
221.50	1742.82
221.72	1662.95
221.94	1791.97
222.16	1734.63
222.38	1755.11
222.60	1708.01
222.82	1683.43
223.03	1773.54
223.25	1605.61
223.47	1767.40
223.69	1777.64
223.91	1810.40
224.13	1714.15
224.35	1656.81
224.57	1691.62
224.78	1732.58
225.00	1734.63
225.22	1753.06
225.44	1722.34
225.66	1738.73
225.88	1730.53
226.10	1779.68
226.32	1712.10
226.53	1869.80
226.75	1699.81
226.97	1675.24
227.19	1669.09
227.41	1681.38
227.63	1652.71
227.85	1675.24
228.06	1697.77
228.28	1728.49
228.50	1742.82
228.72	1613.80
228.94	1677.29
229.16	1605.61
229.37	1685.48
229.59	1671.14
229.81	1732.58
230.03	1667.05
230.25	1619.94
230.47	1581.03
230.69	1648.61
230.90	1701.86
231.12	1673.19
231.34	1804.26
231.56	1736.68
231.78	1648.61
232.00	1746.92
232.21	1699.81
232.43	1669.09
232.65	1599.46
232.87	1757.16
233.09	1589.22
233.30	1671.14
233.52	1746.92
233.74	1656.81
233.96	1650.66
234.18	1722.34
234.40	1695.72
234.61	1853.41
234.83	1556.46
235.05	1644.52
235.27	1761.25
235.49	1761.25
235.70	1738.73
235.92	1755.11
236.14	1734.63
236.36	1886.18
236.58	1638.38
236.79	1660.90
237.01	1710.05
237.23	1726.44
237.45	1802.21
237.67	1701.86
237.88	1675.24
238.10	1824.74
238.32	1632.23
238.54	1669.09
238.76	1660.90
238.97	1683.43
239.19	1605.61
239.41	1708.01
239.63	1734.63
239.85	1626.09
240.06	1726.44
240.28	1740.77
240.50	1791.97
240.72	1697.77
240.93	1681.38
241.15	1771.49
241.37	1703.91
241.59	1767.40
241.81	1673.19
242.02	1767.40
242.24	1644.52
242.46	1765.35
242.68	1697.77
242.89	1654.76
243.11	1740.77
243.33	1708.01
243.55	1660.90
243.76	1732.58
243.98	1681.38
244.20	1697.77
244.42	1640.42
244.64	1701.86
244.85	1597.42
245.07	1603.56
245.29	1722.34
245.51	1701.86
245.72	1667.05
245.94	1818.60
246.16	1718.25
246.38	1763.30
246.59	1683.43
246.81	1722.34
247.03	1701.86
247.24	1615.85
247.46	1630.18
247.68	1716.20
247.90	1734.63
248.11	1710.05
248.33	1673.19
248.55	1667.05
248.77	1632.23
248.98	1798.12
249.20	1744.87
249.42	1718.25
249.64	1769.44
249.85	1642.47
250.07	1660.90
250.29	1718.25
250.50	1738.73
250.72	1656.81
250.94	1681.38
251.16	1867.75
251.37	1744.87
251.59	1701.86
251.81	1656.81
252.02	1726.44
252.24	1658.85
252.46	1820.64
252.68	1624.04
252.89	1603.56
253.11	1650.66
253.33	1826.79
253.54	1847.27
253.76	1695.72
253.98	1728.49
254.20	1734.63
254.41	1658.85
254.63	1705.96
254.85	1751.01
255.06	1689.57
255.28	1691.62
255.50	1695.72
255.71	1716.20
255.93	1632.23
256.15	1677.29
256.36	1724.39
256.58	1646.57
256.80	1726.44
257.02	1705.96
257.23	1667.05
257.45	1705.96
257.67	1742.82
257.88	1665.00
258.10	1693.67
258.32	1755.11
258.53	1767.40
258.75	1744.87
258.97	1656.81
259.18	1695.72
259.40	1669.09
259.62	1839.08
259.83	1777.64
260.05	1751.01
260.27	1953.76
260.48	1710.05
260.70	1613.80
260.92	1679.33
261.13	1714.15
261.35	1656.81
261.57	1685.48
261.78	1615.85
262.00	1718.25
262.22	1791.97
262.43	1628.14
262.65	1648.61
262.86	1712.10
263.08	1853.41
263.30	1697.77
263.51	1677.29
263.73	1650.66
263.95	1753.06
264.16	1662.95
264.38	1742.82
264.60	1732.58
264.81	1648.61
265.03	1757.16
265.25	1763.30
265.46	1685.48
265.68	1677.29
265.89	1742.82
266.11	1601.51
266.33	1742.82
266.54	1726.44
266.76	1738.73
266.98	1761.25
267.19	1816.55
267.41	1744.87
267.62	1683.43
267.84	1595.37
268.06	1685.48
268.27	1685.48
268.49	1658.85
268.70	1781.73
268.92	1673.19
269.14	1679.33
269.35	1671.14
269.57	1730.53
269.79	1757.16
270.00	1710.05
270.22	1791.97
270.43	1617.90
270.65	1560.55
270.87	1732.58
271.08	1765.35
271.30	1773.54
271.51	1634.28
271.73	1679.33
271.95	1740.77
272.16	1716.20
272.38	1642.47
272.59	1656.81
272.81	1746.92
273.02	1699.81
273.24	1697.77
273.46	1671.14
273.67	1638.38
273.89	1640.42
274.10	1673.19
274.32	1742.82
274.54	1685.48
274.75	1685.48
274.97	1675.24
275.18	1783.78
275.40	1689.57
275.61	1642.47
275.83	1683.43
276.05	1677.29
276.26	1804.26
276.48	1736.68
276.69	1626.09
276.91	1654.76
277.12	1798.12
277.34	1697.77
277.55	1716.20
277.77	1765.35
277.99	1714.15
278.20	1617.90
278.42	1693.67
278.63	1654.76
278.85	1587.18
279.06	1720.29
279.28	1669.09
279.49	1806.31
279.71	1677.29
279.93	1660.90
280.14	1683.43
280.36	1665.00
280.57	1751.01
280.79	1673.19
281.00	1656.81
281.22	1638.38
281.43	1716.20
281.65	1615.85
281.86	1617.90
282.08	1755.11
282.29	1787.88
282.51	1669.09
282.73	1628.14
282.94	1673.19
283.16	1667.05
283.37	1726.44
283.59	1720.29
283.80	1699.81
284.02	1619.94
284.23	1667.05
284.45	1650.66
284.66	1656.81
284.88	1669.09
285.09	1699.81
285.31	1714.15
285.52	1746.92
285.74	1675.24
285.95	1677.29
286.17	1742.82
286.38	1626.09
286.60	1619.94
286.81	1665.00
287.03	1646.57
287.24	1652.71
287.46	1759.21
287.67	1695.72
287.89	1865.70
288.10	1665.00
288.32	1703.91
288.53	1746.92
288.75	1689.57
288.96	1726.44
289.18	1681.38
289.39	1701.86
289.61	1736.68
289.82	1812.45
290.04	1800.16
290.25	1656.81
290.47	1705.96
290.68	1738.73
290.90	1748.97
291.11	1634.28
291.33	1798.12
291.54	1644.52
291.76	1675.24
291.97	1687.53
292.18	1738.73
292.40	1656.81
292.61	1658.85
292.83	1810.40
293.04	1691.62
293.26	1746.92
293.47	1712.10
293.69	1658.85
293.90	1652.71
294.12	1726.44
294.33	1685.48
294.55	1675.24
294.76	1796.07
294.97	1695.72
295.19	1834.98
295.40	1683.43
295.62	1667.05
295.83	1787.88
296.05	1724.39
296.26	1689.57
296.48	1730.53
296.69	1742.82
296.90	1712.10
297.12	1767.40
297.33	1763.30
297.55	1687.53
297.76	1773.54
297.98	1804.26
298.19	1755.11
298.41	1689.57
298.62	1648.61
298.83	1779.68
299.05	1767.40
299.26	1652.71
299.48	1603.56
299.69	1718.25
299.90	1734.63
300.12	1626.09
300.33	1763.30
300.55	1665.00
300.76	1779.68
300.98	1652.71
301.19	1685.48
301.40	1671.14
301.62	1738.73
301.83	1724.39
302.05	1658.85
302.26	1671.14
302.47	1714.15
302.69	1685.48
302.90	1746.92
303.12	1642.47
303.33	1742.82
303.54	1753.06
303.76	1736.68
303.97	1736.68
304.19	1765.35
304.40	1701.86
304.61	1705.96
304.83	1767.40
305.04	1732.58
305.26	1660.90
305.47	1566.70
305.68	1751.01
305.90	1718.25
306.11	1759.21
306.33	1683.43
306.54	1648.61
306.75	1660.90
306.97	1611.75
307.18	1656.81
307.39	1683.43
307.61	1751.01
307.82	1691.62
308.04	1701.86
308.25	1615.85
308.46	1671.14
308.68	1673.19
308.89	1689.57
309.10	1853.41
309.32	1607.66
309.53	1615.85
309.74	1763.30
309.96	1669.09
310.17	1757.16
310.39	1753.06
310.60	1728.49
310.81	1757.16
311.03	1673.19
311.24	1669.09
311.45	1665.00
311.67	1853.41
311.88	1630.18
312.09	1652.71
312.31	1701.86
312.52	1695.72
312.73	1644.52
312.95	1587.18
313.16	1759.21
313.37	1806.31
313.59	1751.01
313.80	1728.49
314.01	1769.44
314.23	1681.38
314.44	1636.33
314.65	1621.99
314.87	1624.04
315.08	1736.68
315.29	1677.29
315.51	1693.67
315.72	1724.39
315.93	1826.79
316.15	1712.10
316.36	1636.33
316.57	1742.82
316.79	1730.53
317.00	1716.20
317.21	1718.25
317.43	1658.85
317.64	1757.16
317.85	1683.43
318.07	1697.77
318.28	1755.11
318.49	1755.11
318.70	1939.43
318.92	1767.40
319.13	1783.78
319.34	1869.80
319.56	1818.60
319.77	1742.82
319.98	1781.73
320.20	1800.16
320.41	1669.09
320.62	1802.21
320.83	1646.57
321.05	1841.12
321.26	1691.62
321.47	1695.72
321.69	1759.21
321.90	1660.90
322.11	1695.72
322.32	1726.44
322.54	1824.74
322.75	1675.24
322.96	1796.07
323.18	1613.80
323.39	1574.89
323.60	1636.33
323.81	1771.49
324.03	1685.48
324.24	1703.91
324.45	1691.62
324.66	1632.23
324.88	1724.39
325.09	1785.83
325.30	1728.49
325.52	1738.73
325.73	1705.96
325.94	1671.14
326.15	1638.38
326.37	1708.01
326.58	1777.64
326.79	1746.92
327.00	1681.38
327.22	1740.77
327.43	1611.75
327.64	1562.60
327.85	1751.01
328.07	1812.45
328.28	1787.88
328.49	1628.14
328.70	1705.96
328.92	1669.09
329.13	1671.14
329.34	1730.53
329.55	1765.35
329.76	1812.45
329.98	1722.34
330.19	1755.11
330.40	1708.01
330.61	1769.44
330.83	1740.77
331.04	1724.39
331.25	1759.21
331.46	1611.75
331.68	1605.61
331.89	1759.21
332.10	1619.94
332.31	1624.04
332.52	1667.05
332.74	1845.22
332.95	1570.79
333.16	1593.32
333.37	1757.16
333.58	1685.48
333.80	1624.04
334.01	1626.09
334.22	1705.96
334.43	1683.43
334.64	1699.81
334.86	1613.80
335.07	1628.14
335.28	1775.59
335.49	1630.18
335.70	1763.30
335.92	1703.91
336.13	1804.26
336.34	1703.91
336.55	1693.67
336.76	1705.96
336.98	1640.42
337.19	1665.00
337.40	1724.39
337.61	1812.45
337.82	1783.78
338.04	1722.34
338.25	1624.04
338.46	1691.62
338.67	1726.44
338.88	1695.72
339.09	1669.09
339.31	1744.87
339.52	1634.28
339.73	1681.38
339.94	1650.66
340.15	1718.25
340.36	1630.18
340.58	1693.67
340.79	1695.72
341.00	1773.54
341.21	1681.38
341.42	1841.12
341.63	1705.96
341.85	1701.86
342.06	1802.21
342.27	1640.42
342.48	1798.12
342.69	1611.75
342.90	1746.92
343.12	1722.34
343.33	1697.77
343.54	1703.91
343.75	1816.55
343.96	1658.85
344.17	1681.38
344.38	1699.81
344.60	1691.62
344.81	1642.47
345.02	1697.77
345.23	1787.88
345.44	1808.36
345.65	1746.92
345.86	1728.49
346.07	1648.61
346.29	1718.25
346.50	1650.66
346.71	1710.05
346.92	1751.01
347.13	1828.84
347.34	1714.15
347.55	1667.05
347.76	1769.44
347.98	1648.61
348.19	1652.71
348.40	1693.67
348.61	1656.81
348.82	1814.50
349.03	1736.68
349.24	1665.00
349.45	1781.73
349.66	1656.81
349.88	1705.96
350.09	1722.34
350.30	1902.56
350.51	1718.25
350.72	1708.01
350.93	1730.53
351.14	1646.57
351.35	1740.77
351.56	1732.58
351.77	1705.96
351.99	1665.00
352.20	1869.80
352.41	1763.30
352.62	1630.18
352.83	1695.72
353.04	1685.48
353.25	1646.57
353.46	1732.58
353.67	1722.34
353.88	1681.38
354.09	1734.63
354.30	1703.91
354.52	1695.72
354.73	1773.54
354.94	1667.05
355.15	1738.73
355.36	1742.82
355.57	1556.46
355.78	1748.97
355.99	1708.01
356.20	1734.63
356.41	1830.88
356.62	1644.52
356.83	1730.53
357.04	1834.98
357.25	1648.61
357.46	1679.33
357.68	1576.94
357.89	1626.09
358.10	1705.96
358.31	1628.14
358.52	1697.77
358.73	1685.48
358.94	1624.04
359.15	1642.47
359.36	1736.68
359.57	1724.39
359.78	1720.29
359.99	1791.97
360.20	1611.75
360.41	1652.71
360.62	1705.96
360.83	1677.29
361.04	1681.38
361.25	1687.53
361.46	1882.08
361.67	1708.01
361.88	1748.97
362.09	1771.49
362.30	1679.33
362.51	1699.81
362.72	1791.97
362.93	1730.53
363.14	1673.19
363.35	1689.57
363.56	1609.70
363.78	1791.97
363.99	1679.33
364.20	1646.57
364.41	1640.42
364.62	1796.07
364.83	1746.92
365.04	1667.05
365.25	1732.58
365.46	1832.93
365.67	1644.52
365.88	1648.61
366.09	1718.25
366.30	1656.81
366.51	1814.50
366.72	1583.08
366.93	1740.77
367.14	1748.97
367.35	1843.17
367.56	1673.19
367.77	1767.40
367.98	1740.77
368.18	1705.96
368.39	1763.30
368.60	1675.24
368.81	1761.25
369.02	1755.11
369.23	1673.19
369.44	1642.47
369.65	1660.90
369.86	1734.63
370.07	1710.05
370.28	1560.55
370.49	1736.68
370.70	1675.24
370.91	1646.57
371.12	1656.81
371.33	1742.82
371.54	1652.71
371.75	1740.77
371.96	1617.90
372.17	1640.42
372.38	1726.44
372.59	1681.38
372.80	1687.53
373.01	1720.29
373.22	1662.95
373.43	1687.53
373.64	1621.99
373.85	1679.33
374.06	1753.06
374.26	1810.40
374.47	1681.38
374.68	1726.44
374.89	1724.39
375.10	1644.52
375.31	1697.77
375.52	1718.25
375.73	1701.86
375.94	1710.05
376.15	1787.88
376.36	1671.14
376.57	1611.75
376.78	1669.09
376.99	1732.58
377.20	1800.16
377.40	1673.19
377.61	1816.55
377.82	1738.73
378.03	1744.87
378.24	1687.53
378.45	1787.88
378.66	1665.00
378.87	1558.50
379.08	1591.27
379.29	1681.38
379.50	1716.20
379.71	1642.47
379.91	1771.49
380.12	1677.29
380.33	1759.21
380.54	1699.81
380.75	1714.15
380.96	1722.34
381.17	1771.49
381.38	1708.01
381.59	1820.64
381.80	1746.92
382.00	1798.12
382.21	1757.16
382.42	1812.45
382.63	1845.22
382.84	1755.11
383.05	1751.01
383.26	1720.29
383.47	1708.01
383.68	1804.26
383.88	1679.33
384.09	1804.26
384.30	1814.50
384.51	1685.48
384.72	1662.95
384.93	1626.09
385.14	1662.95
385.35	1726.44
385.55	1648.61
385.76	1767.40
385.97	1734.63
386.18	1554.41
386.39	1726.44
386.60	1734.63
386.81	1759.21
387.02	1609.70
387.22	1615.85
387.43	1798.12
387.64	1841.12
387.85	1929.19
388.06	2187.23
388.27	4313.02
388.48	6784.92
388.68	8167.30
388.89	9576.30
389.10	9854.83
389.31	8652.67
389.52	7690.12
389.73	6825.88
389.93	6152.10
390.14	5894.05
390.35	5177.26
390.56	4585.40
390.77	3688.39
390.98	3026.90
391.18	2508.76
391.39	2179.04
391.60	1832.93
391.81	1820.64
392.02	1636.33
392.23	1791.97
392.43	1767.40
392.64	1777.64
392.85	1726.44
393.06	1802.21
393.27	1724.39
393.47	1685.48
393.68	1697.77
393.89	1648.61
394.10	1757.16
394.31	1667.05
394.52	1634.28
394.72	1691.62
394.93	1738.73
395.14	1693.67
395.35	1683.43
395.56	1685.48
395.76	1716.20
395.97	1796.07
396.18	1779.68
396.39	1841.12
396.60	2050.02
396.80	1910.75
397.01	1841.12
397.22	1759.21
397.43	1837.03
397.64	1734.63
397.84	1810.40
398.05	1859.56
398.26	1687.53
398.47	1794.02
398.67	1740.77
398.88	1775.59
399.09	1765.35
399.30	1751.01
399.51	1730.53
399.71	1677.29
399.92	1677.29
400.13	1722.34
400.34	1759.21
400.54	1652.71
400.75	1771.49
400.96	1685.48
401.17	1841.12
401.37	1804.26
401.58	1640.42
401.79	1726.44
402.00	1865.70
402.21	1986.53
402.41	1986.53
402.62	2099.17
402.83	1980.39
403.04	1927.14
403.24	1927.14
403.45	1914.85
403.66	1898.47
403.87	1871.84
404.07	1902.56
404.28	1927.14
404.49	1886.18
404.70	1791.97
404.90	1832.93
405.11	1751.01
405.32	1787.88
405.52	1667.05
405.73	1665.00
405.94	1675.24
406.15	1724.39
406.35	1759.21
406.56	1714.15
406.77	1742.82
406.98	1675.24
407.18	1677.29
407.39	1777.64
407.60	1726.44
407.80	1759.21
408.01	1669.09
408.22	1830.88
408.43	1589.22
408.63	1730.53
408.84	1726.44
409.05	1755.11
409.25	1646.57
409.46	1712.10
409.67	1673.19
409.88	1695.72
410.08	1683.43
410.29	1644.52
410.50	1775.59
410.70	1697.77
410.91	1665.00
411.12	1697.77
411.32	1697.77
411.53	1626.09
411.74	1781.73
411.95	1787.88
412.15	1693.67
412.36	1845.22
412.57	1787.88
412.77	1746.92
412.98	1744.87
413.19	1681.38
413.39	1843.17
413.60	1773.54
413.81	1832.93
414.01	1656.81
414.22	1697.77
414.43	1738.73
414.63	1640.42
414.84	1708.01
415.05	1683.43
415.25	1628.14
415.46	1742.82
415.67	1660.90
415.87	1767.40
416.08	1722.34
416.29	1708.01
416.49	1763.30
416.70	1630.18
416.91	1660.90
417.11	1665.00
417.32	1757.16
417.53	1751.01
417.73	1705.96
417.94	1730.53
418.15	1720.29
418.35	1779.68
418.56	1722.34
418.77	1800.16
418.97	1759.21
419.18	1665.00
419.38	1619.94
419.59	1679.33
419.80	1701.86
420.00	1681.38
420.21	1746.92
420.42	1720.29
420.62	1683.43
420.83	1697.77
421.04	1679.33
421.24	1667.05
421.45	1753.06
421.65	1683.43
421.86	1656.81
422.07	1736.68
422.27	1710.05
422.48	1667.05
422.69	1603.56
422.89	1722.34
423.10	1738.73
423.30	1632.23
423.51	1654.76
423.72	1673.19
423.92	1732.58
424.13	1677.29
424.33	1683.43
424.54	1726.44
424.75	1726.44
424.95	1763.30
425.16	1720.29
425.36	1669.09
425.57	1755.11
425.78	1781.73
425.98	1767.40
426.19	1671.14
426.39	1669.09
426.60	1742.82
426.81	1783.78
427.01	1615.85
427.22	1640.42
427.42	1665.00
427.63	1632.23
427.83	1830.88
428.04	1714.15
428.25	1794.02
428.45	1812.45
428.66	1839.08
428.86	1685.48
429.07	1605.61
429.28	1677.29
429.48	1722.34
429.69	1703.91
429.89	1755.11
430.10	1591.27
430.30	1677.29
430.51	1800.16
430.71	1689.57
430.92	1744.87
431.13	1673.19
431.33	1673.19
431.54	1751.01
431.74	1751.01
431.95	1822.69
432.15	1677.29
432.36	1675.24
432.56	1755.11
432.77	1773.54
432.98	1853.41
433.18	1736.68
433.39	1689.57
433.59	1634.28
433.80	1738.73
434.00	1722.34
434.21	1777.64
434.41	1736.68
434.62	1834.98
434.82	1669.09
435.03	1724.39
435.23	1732.58
435.44	1581.03
435.64	1701.86
435.85	1724.39
436.06	1722.34
436.26	1767.40
436.47	1728.49
436.67	1644.52
436.88	1667.05
437.08	1638.38
437.29	1732.58
437.49	1722.34
437.70	1744.87
437.90	1589.22
438.11	1818.60
438.31	1839.08
438.52	1877.99
438.72	1832.93
438.93	1855.46
439.13	1757.16
439.34	1837.03
439.54	1802.21
439.75	1828.84
439.95	1718.25
440.16	1738.73
440.36	1730.53
440.57	1703.91
440.77	1726.44
440.98	1697.77
441.18	1665.00
441.39	1705.96
441.59	1667.05
441.80	1806.31
442.00	1691.62
442.21	1814.50
442.41	1650.66
442.62	1767.40
442.82	1705.96
443.02	1705.96
443.23	1705.96
443.43	1693.67
443.64	1806.31
443.84	1703.91
444.05	1851.36
444.25	1740.77
444.46	1751.01
444.66	1705.96
444.87	1867.75
445.07	1581.03
445.28	1685.48
445.48	1740.77
445.69	1839.08
445.89	1910.75
446.09	1724.39
446.30	2078.69
446.50	2562.01
446.71	3659.72
446.91	4276.16
447.12	4902.84
447.32	4763.58
447.53	4317.12
447.73	3764.17
447.93	3553.23
448.14	3327.95
448.34	3229.65
448.55	2947.03
448.75	2822.10
448.96	2695.13
449.16	2394.08
449.36	2316.25
449.57	2064.35
449.77	1914.85
449.98	1777.64
450.18	1818.60
450.39	1834.98
450.59	1824.74
450.79	1742.82
451.00	1705.96
451.20	1753.06
451.41	1757.16
451.61	1736.68
451.81	1703.91
452.02	1744.87
452.22	1648.61
452.43	1685.48
452.63	1720.29
