SpectraSuite Data File
++++++++++++++++++++++++++++++++++++
Date: Mon Jun 06 15:40:37 CEST 2016
User: root
Dark Spectrum Present: No
Reference Spectrum Present: No
Number of Sampled Component Spectra: 1
Spectrometers: USB4C02835
Integration Time (usec): 100000 (USB4C02835)
Spectra Averaged: 1 (USB4C02835)
Boxcar Smoothing: 0 (USB4C02835)
Correct for Electrical Dark: No (USB4C02835)
Strobe/Lamp Enabled: No (USB4C02835)
Correct for Detector Non-linearity: No (USB4C02835)
Correct for Stray Light: No (USB4C02835)
Number of Pixels in Processed Spectrum: 3648
>>>>>Begin Processed Spectral Data<<<<<
177.47	1435.63
177.69	1435.63
177.91	1435.63
178.13	1523.69
178.36	1462.25
178.58	1728.49
178.80	1748.97
179.02	1630.18
179.24	1693.67
179.46	1644.52
179.68	1730.53
179.90	1693.67
180.13	1710.05
180.35	1640.42
180.57	1708.01
180.79	1798.12
181.01	1689.57
181.23	1742.82
181.45	1771.49
181.67	1708.01
181.90	1728.49
182.12	1636.33
182.34	1656.81
182.56	1777.64
182.78	1662.95
183.00	1689.57
183.22	1687.53
183.44	1599.46
183.66	1845.22
183.89	1755.11
184.11	1665.00
184.33	1761.25
184.55	1806.31
184.77	1722.34
184.99	1761.25
185.21	1646.57
185.43	1781.73
185.65	1697.77
185.87	1667.05
186.10	1810.40
186.32	1875.94
186.54	1714.15
186.76	1777.64
186.98	1837.03
187.20	1757.16
187.42	1656.81
187.64	1724.39
187.86	1755.11
188.08	1755.11
188.30	1642.47
188.52	1781.73
188.75	1738.73
188.97	1753.06
189.19	1724.39
189.41	1662.95
189.63	1736.68
189.85	1660.90
190.07	1611.75
190.29	1581.03
190.51	1722.34
190.73	1656.81
190.95	1796.07
191.17	1662.95
191.39	1675.24
191.61	1667.05
191.84	1695.72
192.06	1734.63
192.28	1667.05
192.50	1884.13
192.72	1722.34
192.94	1742.82
193.16	1830.88
193.38	1775.59
193.60	1652.71
193.82	1693.67
194.04	1796.07
194.26	1783.78
194.48	1654.76
194.70	1687.53
194.92	1753.06
195.14	1693.67
195.36	1722.34
195.58	1705.96
195.80	1728.49
196.02	1636.33
196.24	1677.29
196.46	1693.67
196.69	1687.53
196.91	1812.45
197.13	1632.23
197.35	1699.81
197.57	1798.12
197.79	1777.64
198.01	1757.16
198.23	1724.39
198.45	1730.53
198.67	1654.76
198.89	1638.38
199.11	1734.63
199.33	1732.58
199.55	1574.89
199.77	1744.87
199.99	1699.81
200.21	1679.33
200.43	1751.01
200.65	1648.61
200.87	1667.05
201.09	1714.15
201.31	1701.86
201.53	1720.29
201.75	1830.88
201.97	1691.62
202.19	1699.81
202.41	1779.68
202.63	1910.75
202.85	1742.82
203.07	1730.53
203.29	1769.44
203.51	1675.24
203.73	1642.47
203.95	1820.64
204.17	1800.16
204.39	1675.24
204.61	1728.49
204.83	1740.77
205.05	1675.24
205.27	1751.01
205.49	1871.84
205.71	1652.71
205.93	1640.42
206.15	1710.05
206.37	1736.68
206.59	1701.86
206.81	1714.15
207.03	1646.57
207.25	1667.05
207.47	1812.45
207.69	1675.24
207.91	1791.97
208.13	1794.02
208.34	1671.14
208.56	1642.47
208.78	1744.87
209.00	1769.44
209.22	1759.21
209.44	1720.29
209.66	1652.71
209.88	1730.53
210.10	1769.44
210.32	1691.62
210.54	1798.12
210.76	1599.46
210.98	1748.97
211.20	1603.56
211.42	1691.62
211.64	1748.97
211.86	1724.39
212.08	1728.49
212.30	1779.68
212.52	1742.82
212.74	1763.30
212.96	1691.62
213.17	1722.34
213.39	1742.82
213.61	1800.16
213.83	1730.53
214.05	1654.76
214.27	1740.77
214.49	1648.61
214.71	1656.81
214.93	1785.83
215.15	1621.99
215.37	1740.77
215.59	1562.60
215.81	1697.77
216.03	1828.84
216.24	1781.73
216.46	1667.05
216.68	1767.40
216.90	1804.26
217.12	1751.01
217.34	1726.44
217.56	1716.20
217.78	1755.11
218.00	1734.63
218.22	1730.53
218.44	1677.29
218.66	1755.11
218.87	1828.84
219.09	1753.06
219.31	1722.34
219.53	1773.54
219.75	1699.81
219.97	1644.52
220.19	1708.01
220.41	1759.21
220.63	1771.49
220.85	1712.10
221.06	1697.77
221.28	1806.31
221.50	1798.12
221.72	1683.43
221.94	1640.42
222.16	1650.66
222.38	1794.02
222.60	1824.74
222.82	1730.53
223.03	1748.97
223.25	1642.47
223.47	1826.79
223.69	1818.60
223.91	1824.74
224.13	1665.00
224.35	1667.05
224.57	1742.82
224.78	1710.05
225.00	1781.73
225.22	1705.96
225.44	1685.48
225.66	1757.16
225.88	1634.28
226.10	1716.20
226.32	1693.67
226.53	1777.64
226.75	1802.21
226.97	1669.09
227.19	1767.40
227.41	1669.09
227.63	1689.57
227.85	1603.56
228.06	1691.62
228.28	1822.69
228.50	1736.68
228.72	1599.46
228.94	1619.94
229.16	1656.81
229.37	1644.52
229.59	1617.90
229.81	1773.54
230.03	1703.91
230.25	1691.62
230.47	1658.85
230.69	1667.05
230.90	1710.05
231.12	1673.19
231.34	1699.81
231.56	1787.88
231.78	1599.46
232.00	1806.31
232.21	1742.82
232.43	1695.72
232.65	1609.70
232.87	1742.82
233.09	1685.48
233.30	1691.62
233.52	1781.73
233.74	1726.44
233.96	1748.97
234.18	1689.57
234.40	1718.25
234.61	1830.88
234.83	1517.54
235.05	1587.18
235.27	1877.99
235.49	1716.20
235.70	1726.44
235.92	1791.97
236.14	1701.86
236.36	1851.36
236.58	1640.42
236.79	1671.14
237.01	1701.86
237.23	1669.09
237.45	1828.84
237.67	1669.09
237.88	1746.92
238.10	1777.64
238.32	1705.96
238.54	1714.15
238.76	1726.44
238.97	1642.47
239.19	1642.47
239.41	1812.45
239.63	1742.82
239.85	1742.82
240.06	1656.81
240.28	1634.28
240.50	1777.64
240.72	1732.58
240.93	1638.38
241.15	1705.96
241.37	1748.97
241.59	1785.83
241.81	1718.25
242.02	1712.10
242.24	1761.25
242.46	1718.25
242.68	1671.14
242.89	1734.63
243.11	1787.88
243.33	1794.02
243.55	1730.53
243.76	1683.43
243.98	1660.90
244.20	1699.81
244.42	1648.61
244.64	1658.85
244.85	1669.09
245.07	1652.71
245.29	1744.87
245.51	1695.72
245.72	1716.20
245.94	1783.78
246.16	1751.01
246.38	1736.68
246.59	1646.57
246.81	1687.53
247.03	1716.20
247.24	1626.09
247.46	1681.38
247.68	1683.43
247.90	1683.43
248.11	1675.24
248.33	1763.30
248.55	1626.09
248.77	1714.15
248.98	1748.97
249.20	1875.94
249.42	1767.40
249.64	1761.25
249.85	1662.95
250.07	1701.86
250.29	1734.63
250.50	1853.41
250.72	1644.52
250.94	1710.05
251.16	1812.45
251.37	1789.92
251.59	1742.82
251.81	1794.02
252.02	1759.21
252.24	1695.72
252.46	1734.63
252.68	1660.90
252.89	1619.94
253.11	1574.89
253.33	1804.26
253.54	1783.78
253.76	1642.47
253.98	1705.96
254.20	1691.62
254.41	1640.42
254.63	1679.33
254.85	1595.37
255.06	1765.35
255.28	1673.19
255.50	1648.61
255.71	1679.33
255.93	1619.94
256.15	1714.15
256.36	1701.86
256.58	1624.04
256.80	1699.81
257.02	1734.63
257.23	1703.91
257.45	1634.28
257.67	1777.64
257.88	1693.67
258.10	1701.86
258.32	1742.82
258.53	1630.18
258.75	1902.56
258.97	1730.53
259.18	1722.34
259.40	1681.38
259.62	1845.22
259.83	1794.02
260.05	1761.25
260.27	1957.86
260.48	1734.63
260.70	1683.43
260.92	1728.49
261.13	1724.39
261.35	1783.78
261.57	1701.86
261.78	1650.66
262.00	1685.48
262.22	1775.59
262.43	1693.67
262.65	1667.05
262.86	1751.01
263.08	1894.37
263.30	1800.16
263.51	1630.18
263.73	1677.29
263.95	1775.59
264.16	1675.24
264.38	1636.33
264.60	1748.97
264.81	1744.87
265.03	1755.11
265.25	1839.08
265.46	1724.39
265.68	1779.68
265.89	1736.68
266.11	1656.81
266.33	1740.77
266.54	1748.97
266.76	1755.11
266.98	1724.39
267.19	1890.28
267.41	1814.50
267.62	1708.01
267.84	1714.15
268.06	1783.78
268.27	1726.44
268.49	1751.01
268.70	1859.56
268.92	1660.90
269.14	1656.81
269.35	1675.24
269.57	1734.63
269.79	1744.87
270.00	1697.77
270.22	1796.07
270.43	1685.48
270.65	1673.19
270.87	1712.10
271.08	1804.26
271.30	1757.16
271.51	1679.33
271.73	1800.16
271.95	1775.59
272.16	1650.66
272.38	1777.64
272.59	1691.62
272.81	1689.57
273.02	1722.34
273.24	1675.24
273.46	1779.68
273.67	1609.70
273.89	1662.95
274.10	1712.10
274.32	1718.25
274.54	1708.01
274.75	1730.53
274.97	1746.92
275.18	1726.44
275.40	1820.64
275.61	1714.15
275.83	1675.24
276.05	1656.81
276.26	1658.85
276.48	1738.73
276.69	1683.43
276.91	1671.14
277.12	1781.73
277.34	1767.40
277.55	1798.12
277.77	1718.25
277.99	1714.15
278.20	1691.62
278.42	1687.53
278.63	1734.63
278.85	1691.62
279.06	1710.05
279.28	1701.86
279.49	1708.01
279.71	1777.64
279.93	1779.68
280.14	1751.01
280.36	1744.87
280.57	1726.44
280.79	1822.69
281.00	1746.92
281.22	1656.81
281.43	1759.21
281.65	1634.28
281.86	1667.05
282.08	1781.73
282.29	1777.64
282.51	1574.89
282.73	1685.48
282.94	1611.75
283.16	1773.54
283.37	1787.88
283.59	1712.10
283.80	1732.58
284.02	1724.39
284.23	1705.96
284.45	1679.33
284.66	1665.00
284.88	1734.63
285.09	1771.49
285.31	1779.68
285.52	1720.29
285.74	1574.89
285.95	1796.07
286.17	1718.25
286.38	1773.54
286.60	1662.95
286.81	1665.00
287.03	1695.72
287.24	1665.00
287.46	1740.77
287.67	1669.09
287.89	1804.26
288.10	1748.97
288.32	1714.15
288.53	1818.60
288.75	1746.92
288.96	1746.92
289.18	1769.44
289.39	1763.30
289.61	1755.11
289.82	1765.35
290.04	1853.41
290.25	1632.23
290.47	1675.24
290.68	1660.90
290.90	1802.21
291.11	1554.41
291.33	1837.03
291.54	1578.98
291.76	1722.34
291.97	1751.01
292.18	1777.64
292.40	1648.61
292.61	1624.04
292.83	1855.46
293.04	1740.77
293.26	1746.92
293.47	1689.57
293.69	1705.96
293.90	1769.44
294.12	1808.36
294.33	1705.96
294.55	1734.63
294.76	1824.74
294.97	1808.36
295.19	1832.93
295.40	1619.94
295.62	1726.44
295.83	1761.25
296.05	1607.66
296.26	1742.82
296.48	1714.15
296.69	1658.85
296.90	1746.92
297.12	1718.25
297.33	1791.97
297.55	1714.15
297.76	1755.11
297.98	1859.56
298.19	1800.16
298.41	1693.67
298.62	1619.94
298.83	1826.79
299.05	1791.97
299.26	1687.53
299.48	1697.77
299.69	1681.38
299.90	1673.19
300.12	1673.19
300.33	1781.73
300.55	1697.77
300.76	1740.77
300.98	1712.10
301.19	1734.63
301.40	1656.81
301.62	1751.01
301.83	1808.36
302.05	1705.96
302.26	1740.77
302.47	1716.20
302.69	1550.31
302.90	1714.15
303.12	1638.38
303.33	1734.63
303.54	1763.30
303.76	1640.42
303.97	1730.53
304.19	1783.78
304.40	1617.90
304.61	1722.34
304.83	1865.70
305.04	1679.33
305.26	1748.97
305.47	1624.04
305.68	1789.92
305.90	1703.91
306.11	1689.57
306.33	1748.97
306.54	1683.43
306.75	1714.15
306.97	1660.90
307.18	1677.29
307.39	1630.18
307.61	1712.10
307.82	1714.15
308.04	1800.16
308.25	1656.81
308.46	1734.63
308.68	1650.66
308.89	1718.25
309.10	1763.30
309.32	1767.40
309.53	1730.53
309.74	1759.21
309.96	1650.66
310.17	1755.11
310.39	1693.67
310.60	1771.49
310.81	1736.68
311.03	1607.66
311.24	1757.16
311.45	1712.10
311.67	1814.50
311.88	1728.49
312.09	1662.95
312.31	1714.15
312.52	1656.81
312.73	1708.01
312.95	1587.18
313.16	1632.23
313.37	1693.67
313.59	1718.25
313.80	1820.64
314.01	1806.31
314.23	1683.43
314.44	1669.09
314.65	1665.00
314.87	1648.61
315.08	1777.64
315.29	1673.19
315.51	1656.81
315.72	1607.66
315.93	1714.15
316.15	1832.93
316.36	1699.81
316.57	1771.49
316.79	1693.67
317.00	1667.05
317.21	1746.92
317.43	1710.05
317.64	1740.77
317.85	1695.72
318.07	1673.19
318.28	1775.59
318.49	1783.78
318.70	1935.33
318.92	1796.07
319.13	1918.95
319.34	1855.46
319.56	1800.16
319.77	1796.07
319.98	1796.07
320.20	1802.21
320.41	1673.19
320.62	1767.40
320.83	1644.52
321.05	1859.56
321.26	1738.73
321.47	1800.16
321.69	1787.88
321.90	1669.09
322.11	1681.38
322.32	1814.50
322.54	1841.12
322.75	1583.08
322.96	1794.02
323.18	1658.85
323.39	1681.38
323.60	1638.38
323.81	1671.14
324.03	1644.52
324.24	1720.29
324.45	1718.25
324.66	1681.38
324.88	1787.88
325.09	1779.68
325.30	1695.72
325.52	1755.11
325.73	1693.67
325.94	1636.33
326.15	1587.18
326.37	1591.27
326.58	1742.82
326.79	1796.07
327.00	1658.85
327.22	1734.63
327.43	1658.85
327.64	1654.76
327.85	1759.21
328.07	1775.59
328.28	1794.02
328.49	1624.04
328.70	1693.67
328.92	1693.67
329.13	1765.35
329.34	1740.77
329.55	1871.84
329.76	1804.26
329.98	1656.81
330.19	1769.44
330.40	1796.07
330.61	1740.77
330.83	1759.21
331.04	1662.95
331.25	1689.57
331.46	1687.53
331.68	1656.81
331.89	1740.77
332.10	1712.10
332.31	1568.74
332.52	1693.67
332.74	1755.11
332.95	1738.73
333.16	1730.53
333.37	1728.49
333.58	1734.63
333.80	1699.81
334.01	1652.71
334.22	1656.81
334.43	1667.05
334.64	1662.95
334.86	1677.29
335.07	1720.29
335.28	1804.26
335.49	1626.09
335.70	1712.10
335.92	1769.44
336.13	1798.12
336.34	1802.21
336.55	1781.73
336.76	1697.77
336.98	1650.66
337.19	1736.68
337.40	1847.27
337.61	1834.98
337.82	1650.66
338.04	1759.21
338.25	1632.23
338.46	1726.44
338.67	1724.39
338.88	1673.19
339.09	1679.33
339.31	1648.61
339.52	1671.14
339.73	1597.42
339.94	1673.19
340.15	1771.49
340.36	1693.67
340.58	1658.85
340.79	1648.61
341.00	1767.40
341.21	1630.18
341.42	1767.40
341.63	1699.81
341.85	1820.64
342.06	1830.88
342.27	1626.09
342.48	1800.16
342.69	1585.13
342.90	1728.49
343.12	1726.44
343.33	1624.04
343.54	1753.06
343.75	1773.54
343.96	1701.86
344.17	1656.81
344.38	1767.40
344.60	1716.20
344.81	1710.05
345.02	1751.01
345.23	1806.31
345.44	1763.30
345.65	1765.35
345.86	1773.54
346.07	1748.97
346.29	1685.48
346.50	1716.20
346.71	1746.92
346.92	1771.49
347.13	1826.79
347.34	1710.05
347.55	1693.67
347.76	1755.11
347.98	1652.71
348.19	1740.77
348.40	1789.92
348.61	1722.34
348.82	1763.30
349.03	1740.77
349.24	1687.53
349.45	1773.54
349.66	1615.85
349.88	1683.43
350.09	1724.39
350.30	1757.16
350.51	1738.73
350.72	1759.21
350.93	1710.05
351.14	1632.23
351.35	1720.29
351.56	1701.86
351.77	1697.77
351.99	1837.03
352.20	1787.88
352.41	1802.21
352.62	1669.09
352.83	1681.38
353.04	1730.53
353.25	1652.71
353.46	1722.34
353.67	1769.44
353.88	1591.27
354.09	1699.81
354.30	1697.77
354.52	1785.83
354.73	1724.39
354.94	1728.49
355.15	1734.63
355.36	1859.56
355.57	1646.57
355.78	1683.43
355.99	1626.09
356.20	1726.44
356.41	1738.73
356.62	1775.59
356.83	1712.10
357.04	1814.50
357.25	1632.23
357.46	1722.34
357.68	1667.05
357.89	1669.09
358.10	1697.77
358.31	1736.68
358.52	1763.30
358.73	1695.72
358.94	1632.23
359.15	1585.13
359.36	1656.81
359.57	1673.19
359.78	1734.63
359.99	1757.16
360.20	1667.05
360.41	1714.15
360.62	1742.82
360.83	1722.34
361.04	1804.26
361.25	1679.33
361.46	1742.82
361.67	1816.55
361.88	1730.53
362.09	1810.40
362.30	1736.68
362.51	1708.01
362.72	1748.97
362.93	1785.83
363.14	1708.01
363.35	1753.06
363.56	1705.96
363.78	1812.45
363.99	1703.91
364.20	1753.06
364.41	1595.37
364.62	1832.93
364.83	1720.29
365.04	1667.05
365.25	1652.71
365.46	1845.22
365.67	1720.29
365.88	1585.13
366.09	1648.61
366.30	1671.14
366.51	1712.10
366.72	1619.94
366.93	1746.92
367.14	1718.25
367.35	1830.88
367.56	1732.58
367.77	1828.84
367.98	1675.24
368.18	1783.78
368.39	1732.58
368.60	1570.79
368.81	1746.92
369.02	1683.43
369.23	1607.66
369.44	1673.19
369.65	1730.53
369.86	1681.38
370.07	1740.77
370.28	1695.72
370.49	1710.05
370.70	1789.92
370.91	1630.18
371.12	1648.61
371.33	1804.26
371.54	1665.00
371.75	1730.53
371.96	1701.86
372.17	1712.10
372.38	1683.43
372.59	1705.96
372.80	1658.85
373.01	1699.81
373.22	1763.30
373.43	1722.34
373.64	1644.52
373.85	1818.60
374.06	1841.12
374.26	1748.97
374.47	1753.06
374.68	1769.44
374.89	1734.63
375.10	1691.62
375.31	1779.68
375.52	1693.67
375.73	1687.53
375.94	1730.53
376.15	1791.97
376.36	1669.09
376.57	1710.05
376.78	1675.24
376.99	1689.57
377.20	1753.06
377.40	1679.33
377.61	1798.12
377.82	1732.58
378.03	1751.01
378.24	1705.96
378.45	1781.73
378.66	1767.40
378.87	1599.46
379.08	1607.66
379.29	1705.96
379.50	1740.77
379.71	1646.57
379.91	1736.68
380.12	1693.67
380.33	1695.72
380.54	1689.57
380.75	1742.82
380.96	1640.42
381.17	1781.73
381.38	1695.72
381.59	1781.73
381.80	1779.68
382.00	1839.08
382.21	1740.77
382.42	1912.80
382.63	1861.60
382.84	1728.49
383.05	1736.68
383.26	1822.69
383.47	1771.49
383.68	1830.88
383.88	1763.30
384.09	1773.54
384.30	1781.73
384.51	1787.88
384.72	1667.05
384.93	1718.25
385.14	1736.68
385.35	1730.53
385.55	1734.63
385.76	1775.59
385.97	1697.77
386.18	1669.09
386.39	1687.53
386.60	1746.92
386.81	1673.19
387.02	1683.43
387.22	1660.90
387.43	1710.05
387.64	1845.22
387.85	1863.65
388.06	2156.51
388.27	4220.86
388.48	6608.80
388.68	8105.86
388.89	9412.46
389.10	9645.93
389.31	8437.63
389.52	7407.50
389.73	6573.98
389.93	6027.17
390.14	5756.84
390.35	5187.50
390.56	4540.35
390.77	3737.54
390.98	2996.18
391.18	2592.73
391.39	2099.17
391.60	1863.65
391.81	1841.12
392.02	1730.53
392.23	1880.04
392.43	1787.88
392.64	1843.17
392.85	1734.63
393.06	1738.73
393.27	1742.82
393.47	1767.40
393.68	1808.36
393.89	1703.91
394.10	1779.68
394.31	1701.86
394.52	1603.56
394.72	1654.76
394.93	1757.16
395.14	1636.33
395.35	1732.58
395.56	1746.92
395.76	1710.05
395.97	1783.78
396.18	1865.70
396.39	1828.84
396.60	2054.11
396.80	1892.32
397.01	1789.92
397.22	1869.80
397.43	1951.71
397.64	1810.40
397.84	1828.84
398.05	1925.09
398.26	1748.97
398.47	1796.07
398.67	1773.54
398.88	1746.92
399.09	1767.40
399.30	1681.38
399.51	1763.30
399.71	1662.95
399.92	1665.00
400.13	1771.49
400.34	1769.44
400.54	1730.53
400.75	1765.35
400.96	1730.53
401.17	1787.88
401.37	1683.43
401.58	1736.68
401.79	1677.29
402.00	1791.97
402.21	2047.97
402.41	1920.99
402.62	2021.35
402.83	1996.77
403.04	1953.76
403.24	2058.21
403.45	1814.50
403.66	1894.37
403.87	1882.08
404.07	1947.62
404.28	1920.99
404.49	1912.80
404.70	1787.88
404.90	1822.69
405.11	1726.44
405.32	1765.35
405.52	1726.44
405.73	1648.61
405.94	1607.66
406.15	1728.49
406.35	1693.67
406.56	1765.35
406.77	1705.96
406.98	1728.49
407.18	1683.43
407.39	1742.82
407.60	1724.39
407.80	1769.44
408.01	1697.77
408.22	1755.11
408.43	1697.77
408.63	1695.72
408.84	1724.39
409.05	1757.16
409.25	1685.48
409.46	1732.58
409.67	1648.61
409.88	1703.91
410.08	1769.44
410.29	1724.39
410.50	1714.15
410.70	1763.30
410.91	1683.43
411.12	1740.77
411.32	1708.01
411.53	1658.85
411.74	1796.07
411.95	1765.35
412.15	1703.91
412.36	1845.22
412.57	1732.58
412.77	1771.49
412.98	1740.77
413.19	1738.73
413.39	1724.39
413.60	1791.97
413.81	1808.36
414.01	1673.19
414.22	1708.01
414.43	1697.77
414.63	1701.86
414.84	1783.78
415.05	1773.54
415.25	1738.73
415.46	1751.01
415.67	1667.05
415.87	1763.30
416.08	1744.87
416.29	1740.77
416.49	1724.39
416.70	1734.63
416.91	1658.85
417.11	1751.01
417.32	1808.36
417.53	1683.43
417.73	1714.15
417.94	1804.26
418.15	1732.58
418.35	1822.69
418.56	1722.34
418.77	1941.47
418.97	1673.19
419.18	1710.05
419.38	1638.38
419.59	1689.57
419.80	1808.36
420.00	1697.77
420.21	1730.53
420.42	1759.21
420.62	1775.59
420.83	1658.85
421.04	1642.47
421.24	1683.43
421.45	1818.60
421.65	1779.68
421.86	1677.29
422.07	1767.40
422.27	1738.73
422.48	1763.30
422.69	1632.23
422.89	1669.09
423.10	1734.63
423.30	1703.91
423.51	1687.53
423.72	1703.91
423.92	1802.21
424.13	1605.61
424.33	1683.43
424.54	1763.30
424.75	1701.86
424.95	1834.98
425.16	1820.64
425.36	1697.77
425.57	1818.60
425.78	1716.20
425.98	1751.01
426.19	1710.05
426.39	1648.61
426.60	1728.49
426.81	1798.12
427.01	1710.05
427.22	1681.38
427.42	1562.60
427.63	1732.58
427.83	1767.40
428.04	1832.93
428.25	1849.32
428.45	1791.97
428.66	1697.77
428.86	1746.92
429.07	1693.67
429.28	1720.29
429.48	1679.33
429.69	1708.01
429.89	1730.53
430.10	1740.77
430.30	1703.91
430.51	1767.40
430.71	1673.19
430.92	1777.64
431.13	1683.43
431.33	1757.16
431.54	1724.39
431.74	1824.74
431.95	1843.17
432.15	1642.47
432.36	1806.31
432.56	1738.73
432.77	1798.12
432.98	1816.55
433.18	1730.53
433.39	1744.87
433.59	1677.29
433.80	1865.70
434.00	1808.36
434.21	1787.88
434.41	1712.10
434.62	1806.31
434.82	1701.86
435.03	1648.61
435.23	1718.25
435.44	1624.04
435.64	1816.55
435.85	1789.92
436.06	1789.92
436.26	1798.12
436.47	1691.62
436.67	1658.85
436.88	1665.00
437.08	1800.16
437.29	1869.80
437.49	1726.44
437.70	1830.88
437.90	1712.10
438.11	1798.12
438.31	1806.31
438.52	1826.79
438.72	1884.13
438.93	1894.37
439.13	1841.12
439.34	1877.99
439.54	1691.62
439.75	1779.68
439.95	1855.46
440.16	1693.67
440.36	1773.54
440.57	1726.44
440.77	1828.84
440.98	1687.53
441.18	1744.87
441.39	1736.68
441.59	1718.25
441.80	1845.22
442.00	1736.68
442.21	1777.64
442.41	1697.77
442.62	1808.36
442.82	1740.77
443.02	1708.01
443.23	1759.21
443.43	1767.40
443.64	1806.31
443.84	1710.05
444.05	1820.64
444.25	1812.45
444.46	1724.39
444.66	1740.77
444.87	1859.56
445.07	1587.18
445.28	1683.43
445.48	1822.69
445.69	1722.34
445.89	1853.41
446.09	1691.62
446.30	2035.68
446.50	2637.78
446.71	3692.49
446.91	4224.96
447.12	4634.55
447.32	4759.48
447.53	4270.01
447.73	3704.78
447.93	3477.45
448.14	3325.90
448.34	3213.26
448.55	2861.01
448.75	2899.92
448.96	2727.89
449.16	2420.70
449.36	2248.67
449.57	2125.79
449.77	1916.90
449.98	1789.92
450.18	1746.92
450.39	1830.88
450.59	1796.07
450.79	1716.20
451.00	1691.62
451.20	1767.40
451.41	1734.63
451.61	1839.08
451.81	1740.77
452.02	1716.20
452.22	1779.68
452.43	1722.34
452.63	1767.40
