SpectraSuite Data File
++++++++++++++++++++++++++++++++++++
Date: Mon Jun 06 14:00:57 CEST 2016
User: root
Dark Spectrum Present: No
Reference Spectrum Present: No
Number of Sampled Component Spectra: 1
Spectrometers: USB4C02835
Integration Time (usec): 100000 (USB4C02835)
Spectra Averaged: 1 (USB4C02835)
Boxcar Smoothing: 0 (USB4C02835)
Correct for Electrical Dark: No (USB4C02835)
Strobe/Lamp Enabled: No (USB4C02835)
Correct for Detector Non-linearity: No (USB4C02835)
Correct for Stray Light: No (USB4C02835)
Number of Pixels in Processed Spectrum: 3648
>>>>>Begin Processed Spectral Data<<<<<
177.47	1474.54
177.69	1474.54
177.91	1474.54
178.13	1472.49
178.36	1441.77
178.58	1695.72
178.80	1740.77
179.02	1574.89
179.24	1642.47
179.46	1638.38
179.68	1783.78
179.90	1683.43
180.13	1660.90
180.35	1624.04
180.57	1753.06
180.79	1665.00
181.01	1695.72
181.23	1802.21
181.45	1701.86
181.67	1742.82
181.90	1751.01
182.12	1613.80
182.34	1615.85
182.56	1740.77
182.78	1753.06
183.00	1681.38
183.22	1701.86
183.44	1576.94
183.66	1832.93
183.89	1837.03
184.11	1722.34
184.33	1742.82
184.55	1746.92
184.77	1703.91
184.99	1722.34
185.21	1679.33
185.43	1791.97
185.65	1669.09
185.87	1720.29
186.10	1818.60
186.32	1873.89
186.54	1724.39
186.76	1736.68
186.98	1757.16
187.20	1640.42
187.42	1746.92
187.64	1660.90
187.86	1615.85
188.08	1744.87
188.30	1636.33
188.52	1662.95
188.75	1808.36
188.97	1753.06
189.19	1675.24
189.41	1687.53
189.63	1724.39
189.85	1681.38
190.07	1683.43
190.29	1677.29
190.51	1753.06
190.73	1640.42
190.95	1753.06
191.17	1728.49
191.39	1605.61
191.61	1701.86
191.84	1652.71
192.06	1691.62
192.28	1636.33
192.50	1841.12
192.72	1718.25
192.94	1703.91
193.16	1740.77
193.38	1624.04
193.60	1656.81
193.82	1665.00
194.04	1812.45
194.26	1662.95
194.48	1761.25
194.70	1701.86
194.92	1665.00
195.14	1744.87
195.36	1646.57
195.58	1708.01
195.80	1681.38
196.02	1624.04
196.24	1730.53
196.46	1708.01
196.69	1662.95
196.91	1822.69
197.13	1675.24
197.35	1685.48
197.57	1796.07
197.79	1748.97
198.01	1675.24
198.23	1814.50
198.45	1734.63
198.67	1703.91
198.89	1673.19
199.11	1734.63
199.33	1617.90
199.55	1546.22
199.77	1705.96
199.99	1806.31
200.21	1632.23
200.43	1773.54
200.65	1624.04
200.87	1593.32
201.09	1669.09
201.31	1693.67
201.53	1779.68
201.75	1701.86
201.97	1665.00
202.19	1708.01
202.41	1691.62
202.63	1753.06
202.85	1767.40
203.07	1775.59
203.29	1615.85
203.51	1652.71
203.73	1720.29
203.95	1847.27
204.17	1716.20
204.39	1738.73
204.61	1603.56
204.83	1701.86
205.05	1779.68
205.27	1800.16
205.49	1781.73
205.71	1638.38
205.93	1730.53
206.15	1712.10
206.37	1679.33
206.59	1697.77
206.81	1697.77
207.03	1677.29
207.25	1652.71
207.47	1697.77
207.69	1675.24
207.91	1710.05
208.13	1783.78
208.34	1599.46
208.56	1675.24
208.78	1716.20
209.00	1703.91
209.22	1658.85
209.44	1681.38
209.66	1636.33
209.88	1716.20
210.10	1640.42
210.32	1675.24
210.54	1791.97
210.76	1720.29
210.98	1777.64
211.20	1613.80
211.42	1730.53
211.64	1761.25
211.86	1619.94
212.08	1810.40
212.30	1710.05
212.52	1691.62
212.74	1755.11
212.96	1693.67
213.17	1779.68
213.39	1857.51
213.61	1796.07
213.83	1740.77
214.05	1578.98
214.27	1738.73
214.49	1609.70
214.71	1677.29
214.93	1791.97
215.15	1572.84
215.37	1710.05
215.59	1611.75
215.81	1738.73
216.03	1734.63
216.24	1705.96
216.46	1769.44
216.68	1656.81
216.90	1710.05
217.12	1738.73
217.34	1683.43
217.56	1691.62
217.78	1769.44
218.00	1740.77
218.22	1732.58
218.44	1767.40
218.66	1763.30
218.87	1898.47
219.09	1630.18
219.31	1742.82
219.53	1744.87
219.75	1734.63
219.97	1751.01
220.19	1689.57
220.41	1683.43
220.63	1818.60
220.85	1742.82
221.06	1660.90
221.28	1728.49
221.50	1712.10
221.72	1687.53
221.94	1632.23
222.16	1777.64
222.38	1720.29
222.60	1669.09
222.82	1650.66
223.03	1791.97
223.25	1640.42
223.47	1763.30
223.69	1834.98
223.91	1669.09
224.13	1738.73
224.35	1726.44
224.57	1802.21
224.78	1677.29
225.00	1628.14
225.22	1718.25
225.44	1642.47
225.66	1751.01
225.88	1652.71
226.10	1714.15
226.32	1738.73
226.53	1736.68
226.75	1726.44
226.97	1669.09
227.19	1720.29
227.41	1669.09
227.63	1624.04
227.85	1691.62
228.06	1669.09
228.28	1714.15
228.50	1765.35
228.72	1644.52
228.94	1691.62
229.16	1699.81
229.37	1689.57
229.59	1703.91
229.81	1789.92
230.03	1705.96
230.25	1636.33
230.47	1658.85
230.69	1632.23
230.90	1695.72
231.12	1646.57
231.34	1734.63
231.56	1808.36
231.78	1621.99
232.00	1695.72
232.21	1650.66
232.43	1658.85
232.65	1538.02
232.87	1689.57
233.09	1607.66
233.30	1619.94
233.52	1794.02
233.74	1716.20
233.96	1691.62
234.18	1716.20
234.40	1662.95
234.61	1767.40
234.83	1570.79
235.05	1642.47
235.27	1779.68
235.49	1726.44
235.70	1722.34
235.92	1746.92
236.14	1662.95
236.36	1839.08
236.58	1599.46
236.79	1865.70
237.01	1695.72
237.23	1681.38
237.45	1800.16
237.67	1632.23
237.88	1683.43
238.10	1841.12
238.32	1656.81
238.54	1705.96
238.76	1669.09
238.97	1609.70
239.19	1630.18
239.41	1718.25
239.63	1693.67
239.85	1636.33
240.06	1650.66
240.28	1673.19
240.50	1665.00
240.72	1669.09
240.93	1624.04
241.15	1767.40
241.37	1665.00
241.59	1740.77
241.81	1679.33
242.02	1757.16
242.24	1740.77
242.46	1681.38
242.68	1646.57
242.89	1677.29
243.11	1712.10
243.33	1740.77
243.55	1720.29
243.76	1746.92
243.98	1589.22
244.20	1619.94
244.42	1648.61
244.64	1650.66
244.85	1710.05
245.07	1593.32
245.29	1751.01
245.51	1722.34
245.72	1648.61
245.94	1726.44
246.16	1732.58
246.38	1755.11
246.59	1705.96
246.81	1667.05
247.03	1654.76
247.24	1585.13
247.46	1587.18
247.68	1681.38
247.90	1619.94
248.11	1677.29
248.33	1777.64
248.55	1601.51
248.77	1615.85
248.98	1761.25
249.20	1804.26
249.42	1714.15
249.64	1755.11
249.85	1632.23
250.07	1587.18
250.29	1765.35
250.50	1789.92
250.72	1599.46
250.94	1689.57
251.16	1796.07
251.37	1738.73
251.59	1722.34
251.81	1726.44
252.02	1734.63
252.24	1697.77
252.46	1771.49
252.68	1642.47
252.89	1665.00
253.11	1613.80
253.33	1828.84
253.54	1837.03
253.76	1562.60
253.98	1734.63
254.20	1728.49
254.41	1646.57
254.63	1722.34
254.85	1648.61
255.06	1669.09
255.28	1701.86
255.50	1705.96
255.71	1671.14
255.93	1619.94
256.15	1708.01
256.36	1703.91
256.58	1650.66
256.80	1710.05
257.02	1650.66
257.23	1716.20
257.45	1687.53
257.67	1697.77
257.88	1634.28
258.10	1728.49
258.32	1681.38
258.53	1687.53
258.75	1759.21
258.97	1673.19
259.18	1771.49
259.40	1656.81
259.62	1843.17
259.83	1742.82
260.05	1720.29
260.27	2035.68
260.48	1802.21
260.70	1638.38
260.92	1773.54
261.13	1724.39
261.35	1730.53
261.57	1740.77
261.78	1675.24
262.00	1699.81
262.22	1689.57
262.43	1652.71
262.65	1589.22
262.86	1738.73
263.08	1873.89
263.30	1736.68
263.51	1587.18
263.73	1730.53
263.95	1718.25
264.16	1665.00
264.38	1644.52
264.60	1660.90
264.81	1720.29
265.03	1642.47
265.25	1779.68
265.46	1722.34
265.68	1834.98
265.89	1785.83
266.11	1642.47
266.33	1777.64
266.54	1818.60
266.76	1730.53
266.98	1748.97
267.19	1791.97
267.41	1755.11
267.62	1708.01
267.84	1656.81
268.06	1705.96
268.27	1677.29
268.49	1826.79
268.70	1699.81
268.92	1718.25
269.14	1677.29
269.35	1632.23
269.57	1679.33
269.79	1699.81
270.00	1628.14
270.22	1705.96
270.43	1617.90
270.65	1624.04
270.87	1785.83
271.08	1845.22
271.30	1755.11
271.51	1646.57
271.73	1802.21
271.95	1839.08
272.16	1730.53
272.38	1808.36
272.59	1671.14
272.81	1720.29
273.02	1662.95
273.24	1779.68
273.46	1671.14
273.67	1662.95
273.89	1685.48
274.10	1634.28
274.32	1810.40
274.54	1662.95
274.75	1656.81
274.97	1636.33
275.18	1769.44
275.40	1757.16
275.61	1652.71
275.83	1712.10
276.05	1595.37
276.26	1693.67
276.48	1767.40
276.69	1640.42
276.91	1644.52
277.12	1703.91
277.34	1769.44
277.55	1763.30
277.77	1751.01
277.99	1697.77
278.20	1673.19
278.42	1630.18
278.63	1638.38
278.85	1710.05
279.06	1607.66
279.28	1691.62
279.49	1751.01
279.71	1742.82
279.93	1665.00
280.14	1667.05
280.36	1648.61
280.57	1677.29
280.79	1771.49
281.00	1710.05
281.22	1687.53
281.43	1687.53
281.65	1650.66
281.86	1626.09
282.08	1767.40
282.29	1886.18
282.51	1644.52
282.73	1656.81
282.94	1611.75
283.16	1689.57
283.37	1851.36
283.59	1665.00
283.80	1665.00
284.02	1673.19
284.23	1724.39
284.45	1638.38
284.66	1714.15
284.88	1671.14
285.09	1689.57
285.31	1685.48
285.52	1673.19
285.74	1624.04
285.95	1755.11
286.17	1703.91
286.38	1748.97
286.60	1724.39
286.81	1701.86
287.03	1734.63
287.24	1675.24
287.46	1767.40
287.67	1701.86
287.89	1808.36
288.10	1755.11
288.32	1701.86
288.53	1777.64
288.75	1640.42
288.96	1773.54
289.18	1695.72
289.39	1679.33
289.61	1701.86
289.82	1845.22
290.04	1818.60
290.25	1597.42
290.47	1712.10
290.68	1665.00
290.90	1693.67
291.11	1681.38
291.33	1767.40
291.54	1558.50
291.76	1636.33
291.97	1701.86
292.18	1718.25
292.40	1587.18
292.61	1638.38
292.83	1796.07
293.04	1699.81
293.26	1697.77
293.47	1675.24
293.69	1632.23
293.90	1708.01
294.12	1841.12
294.33	1722.34
294.55	1650.66
294.76	1726.44
294.97	1837.03
295.19	1839.08
295.40	1673.19
295.62	1730.53
295.83	1722.34
296.05	1705.96
296.26	1685.48
296.48	1701.86
296.69	1642.47
296.90	1734.63
297.12	1830.88
297.33	1818.60
297.55	1761.25
297.76	1746.92
297.98	1787.88
298.19	1677.29
298.41	1665.00
298.62	1650.66
298.83	1800.16
299.05	1722.34
299.26	1742.82
299.48	1714.15
299.69	1716.20
299.90	1681.38
300.12	1636.33
300.33	1708.01
300.55	1660.90
300.76	1701.86
300.98	1644.52
301.19	1705.96
301.40	1687.53
301.62	1624.04
301.83	1718.25
302.05	1722.34
302.26	1683.43
302.47	1671.14
302.69	1673.19
302.90	1648.61
303.12	1574.89
303.33	1716.20
303.54	1824.74
303.76	1572.84
303.97	1742.82
304.19	1755.11
304.40	1650.66
304.61	1697.77
304.83	1791.97
305.04	1734.63
305.26	1699.81
305.47	1685.48
305.68	1691.62
305.90	1634.28
306.11	1714.15
306.33	1689.57
306.54	1665.00
306.75	1669.09
306.97	1597.42
307.18	1640.42
307.39	1652.71
307.61	1751.01
307.82	1619.94
308.04	1689.57
308.25	1722.34
308.46	1730.53
308.68	1746.92
308.89	1669.09
309.10	1742.82
309.32	1753.06
309.53	1705.96
309.74	1810.40
309.96	1681.38
310.17	1765.35
310.39	1646.57
310.60	1665.00
310.81	1691.62
311.03	1630.18
311.24	1734.63
311.45	1685.48
311.67	1820.64
311.88	1673.19
312.09	1669.09
312.31	1662.95
312.52	1665.00
312.73	1679.33
312.95	1566.70
313.16	1673.19
313.37	1785.83
313.59	1714.15
313.80	1687.53
314.01	1796.07
314.23	1677.29
314.44	1699.81
314.65	1675.24
314.87	1615.85
315.08	1632.23
315.29	1701.86
315.51	1656.81
315.72	1632.23
315.93	1720.29
316.15	1714.15
316.36	1593.32
316.57	1667.05
316.79	1755.11
317.00	1570.79
317.21	1689.57
317.43	1665.00
317.64	1755.11
317.85	1697.77
318.07	1671.14
318.28	1751.01
318.49	1740.77
318.70	1951.71
318.92	1818.60
319.13	1855.46
319.34	1769.44
319.56	1779.68
319.77	1812.45
319.98	1804.26
320.20	1791.97
320.41	1753.06
320.62	1779.68
320.83	1689.57
321.05	1826.79
321.26	1751.01
321.47	1705.96
321.69	1701.86
321.90	1691.62
322.11	1634.28
322.32	1722.34
322.54	1751.01
322.75	1650.66
322.96	1834.98
323.18	1593.32
323.39	1597.42
323.60	1644.52
323.81	1746.92
324.03	1605.61
324.24	1677.29
324.45	1665.00
324.66	1705.96
324.88	1794.02
325.09	1845.22
325.30	1689.57
325.52	1757.16
325.73	1710.05
325.94	1652.71
326.15	1621.99
326.37	1714.15
326.58	1738.73
326.79	1834.98
327.00	1576.94
327.22	1738.73
327.43	1695.72
327.64	1621.99
327.85	1800.16
328.07	1714.15
328.28	1718.25
328.49	1648.61
328.70	1617.90
328.92	1742.82
329.13	1671.14
329.34	1693.67
329.55	1857.51
329.76	1734.63
329.98	1755.11
330.19	1746.92
330.40	1701.86
330.61	1669.09
330.83	1744.87
331.04	1656.81
331.25	1791.97
331.46	1689.57
331.68	1673.19
331.89	1730.53
332.10	1640.42
332.31	1591.27
332.52	1712.10
332.74	1810.40
332.95	1560.55
333.16	1718.25
333.37	1814.50
333.58	1736.68
333.80	1738.73
334.01	1562.60
334.22	1650.66
334.43	1630.18
334.64	1638.38
334.86	1634.28
335.07	1624.04
335.28	1761.25
335.49	1601.51
335.70	1738.73
335.92	1765.35
336.13	1839.08
336.34	1734.63
336.55	1689.57
336.76	1705.96
336.98	1597.42
337.19	1693.67
337.40	1751.01
337.61	1812.45
337.82	1769.44
338.04	1794.02
338.25	1691.62
338.46	1705.96
338.67	1685.48
338.88	1769.44
339.09	1601.51
339.31	1757.16
339.52	1685.48
339.73	1587.18
339.94	1724.39
340.15	1732.58
340.36	1667.05
340.58	1667.05
340.79	1685.48
341.00	1685.48
341.21	1568.74
341.42	1783.78
341.63	1689.57
341.85	1748.97
342.06	1755.11
342.27	1621.99
342.48	1695.72
342.69	1587.18
342.90	1673.19
343.12	1798.12
343.33	1677.29
343.54	1740.77
343.75	1746.92
343.96	1726.44
344.17	1576.94
344.38	1671.14
344.60	1632.23
344.81	1640.42
345.02	1640.42
345.23	1834.98
345.44	1789.92
345.65	1769.44
345.86	1681.38
346.07	1730.53
346.29	1685.48
346.50	1658.85
346.71	1695.72
346.92	1751.01
347.13	1828.84
347.34	1632.23
347.55	1591.27
347.76	1730.53
347.98	1621.99
348.19	1701.86
348.40	1771.49
348.61	1716.20
348.82	1742.82
349.03	1753.06
349.24	1595.37
349.45	1863.65
349.66	1591.27
349.88	1671.14
350.09	1642.47
350.30	1781.73
350.51	1794.02
350.72	1759.21
350.93	1638.38
351.14	1669.09
351.35	1683.43
351.56	1683.43
351.77	1697.77
351.99	1716.20
352.20	1794.02
352.41	1771.49
352.62	1550.31
352.83	1734.63
353.04	1710.05
353.25	1710.05
353.46	1757.16
353.67	1738.73
353.88	1679.33
354.09	1744.87
354.30	1665.00
354.52	1701.86
354.73	1599.46
354.94	1667.05
355.15	1677.29
355.36	1816.55
355.57	1660.90
355.78	1710.05
355.99	1652.71
356.20	1611.75
356.41	1738.73
356.62	1738.73
356.83	1767.40
357.04	1759.21
357.25	1648.61
357.46	1621.99
357.68	1615.85
357.89	1730.53
358.10	1689.57
358.31	1638.38
358.52	1712.10
358.73	1685.48
358.94	1738.73
359.15	1660.90
359.36	1699.81
359.57	1683.43
359.78	1718.25
359.99	1744.87
360.20	1644.52
360.41	1640.42
360.62	1738.73
360.83	1681.38
361.04	1753.06
361.25	1679.33
361.46	1738.73
361.67	1687.53
361.88	1791.97
362.09	1759.21
362.30	1738.73
362.51	1722.34
362.72	1746.92
362.93	1734.63
363.14	1658.85
363.35	1722.34
363.56	1619.94
363.78	1808.36
363.99	1685.48
364.20	1544.17
364.41	1730.53
364.62	1828.84
364.83	1697.77
365.04	1650.66
365.25	1681.38
365.46	1925.09
365.67	1671.14
365.88	1587.18
366.09	1705.96
366.30	1654.76
366.51	1630.18
366.72	1658.85
366.93	1738.73
367.14	1761.25
367.35	1820.64
367.56	1734.63
367.77	1759.21
367.98	1662.95
368.18	1710.05
368.39	1777.64
368.60	1609.70
368.81	1751.01
369.02	1730.53
369.23	1781.73
369.44	1535.98
369.65	1662.95
369.86	1687.53
370.07	1751.01
370.28	1697.77
370.49	1730.53
370.70	1660.90
370.91	1638.38
371.12	1599.46
371.33	1669.09
371.54	1656.81
371.75	1832.93
371.96	1570.79
372.17	1703.91
372.38	1693.67
372.59	1695.72
372.80	1669.09
373.01	1722.34
373.22	1718.25
373.43	1712.10
373.64	1589.22
373.85	1785.83
374.06	1906.66
374.26	1658.85
374.47	1675.24
374.68	1779.68
374.89	1662.95
375.10	1722.34
375.31	1724.39
375.52	1771.49
375.73	1697.77
375.94	1720.29
376.15	1751.01
376.36	1638.38
376.57	1630.18
376.78	1669.09
376.99	1648.61
377.20	1742.82
377.40	1611.75
377.61	1791.97
377.82	1755.11
378.03	1742.82
378.24	1759.21
378.45	1646.57
378.66	1699.81
378.87	1646.57
379.08	1611.75
379.29	1691.62
379.50	1804.26
379.71	1705.96
379.91	1703.91
380.12	1763.30
380.33	1705.96
380.54	1675.24
380.75	1595.37
380.96	1687.53
381.17	1824.74
381.38	1757.16
381.59	1648.61
381.80	1722.34
382.00	1816.55
382.21	1748.97
382.42	1783.78
382.63	1837.03
382.84	1777.64
383.05	1769.44
383.26	1759.21
383.47	1779.68
383.68	1746.92
383.88	1714.15
384.09	1779.68
384.30	1765.35
384.51	1742.82
384.72	1574.89
384.93	1644.52
385.14	1791.97
385.35	1753.06
385.55	1658.85
385.76	1787.88
385.97	1701.86
386.18	1665.00
386.39	1720.29
386.60	1710.05
386.81	1669.09
387.02	1675.24
387.22	1673.19
387.43	1820.64
387.64	1791.97
387.85	1841.12
388.06	2211.81
388.27	4265.92
388.48	6920.09
388.68	8306.56
388.89	9858.92
389.10	9922.41
389.31	8726.39
389.52	7692.17
389.73	6819.74
389.93	6373.28
390.14	6014.88
390.35	5324.72
390.56	4704.18
390.77	3737.54
390.98	3067.86
391.18	2473.95
391.39	2138.08
391.60	1884.13
391.81	1849.32
392.02	1685.48
392.23	1832.93
392.43	1718.25
392.64	1744.87
392.85	1728.49
393.06	1755.11
393.27	1673.19
393.47	1708.01
393.68	1744.87
393.89	1679.33
394.10	1732.58
394.31	1669.09
394.52	1660.90
394.72	1658.85
394.93	1789.92
395.14	1662.95
395.35	1673.19
395.56	1740.77
395.76	1703.91
395.97	1843.17
396.18	1761.25
396.39	1849.32
396.60	1953.76
396.80	1826.79
397.01	1810.40
397.22	1794.02
397.43	1828.84
397.64	1757.16
397.84	1796.07
398.05	1863.65
398.26	1746.92
398.47	1724.39
398.67	1800.16
398.88	1705.96
399.09	1703.91
399.30	1722.34
399.51	1791.97
399.71	1669.09
399.92	1697.77
400.13	1753.06
400.34	1695.72
400.54	1656.81
400.75	1740.77
400.96	1710.05
401.17	1783.78
401.37	1695.72
401.58	1636.33
401.79	1726.44
402.00	1822.69
402.21	1994.72
402.41	2009.06
402.62	1968.10
402.83	2033.63
403.04	2054.11
403.24	2082.78
403.45	1761.25
403.66	1927.14
403.87	1935.33
404.07	1877.99
404.28	1898.47
404.49	1869.80
404.70	1787.88
404.90	1722.34
405.11	1808.36
405.32	1714.15
405.52	1689.57
405.73	1716.20
405.94	1748.97
406.15	1648.61
406.35	1730.53
406.56	1701.86
406.77	1677.29
406.98	1681.38
407.18	1652.71
407.39	1787.88
407.60	1644.52
407.80	1722.34
408.01	1695.72
408.22	1740.77
408.43	1708.01
408.63	1765.35
408.84	1769.44
409.05	1718.25
409.25	1626.09
409.46	1722.34
409.67	1662.95
409.88	1720.29
410.08	1738.73
410.29	1675.24
410.50	1673.19
410.70	1701.86
410.91	1626.09
411.12	1724.39
411.32	1679.33
411.53	1683.43
411.74	1746.92
411.95	1802.21
412.15	1726.44
412.36	1732.58
412.57	1755.11
412.77	1751.01
412.98	1736.68
413.19	1701.86
413.39	1710.05
413.60	1742.82
413.81	1771.49
414.01	1673.19
414.22	1751.01
414.43	1804.26
414.63	1693.67
414.84	1740.77
415.05	1722.34
415.25	1689.57
415.46	1755.11
415.67	1722.34
415.87	1804.26
416.08	1701.86
416.29	1624.04
416.49	1722.34
416.70	1677.29
416.91	1697.77
417.11	1689.57
417.32	1804.26
417.53	1705.96
417.73	1767.40
417.94	1619.94
418.15	1693.67
418.35	1744.87
418.56	1738.73
418.77	1884.13
418.97	1718.25
419.18	1708.01
419.38	1615.85
419.59	1722.34
419.80	1794.02
420.00	1636.33
420.21	1755.11
420.42	1757.16
420.62	1699.81
420.83	1673.19
421.04	1621.99
421.24	1646.57
421.45	1816.55
421.65	1689.57
421.86	1638.38
422.07	1691.62
422.27	1722.34
422.48	1783.78
422.69	1568.74
422.89	1662.95
423.10	1701.86
423.30	1626.09
423.51	1759.21
423.72	1724.39
423.92	1812.45
424.13	1656.81
424.33	1771.49
424.54	1730.53
424.75	1708.01
424.95	1853.41
425.16	1761.25
425.36	1708.01
425.57	1751.01
425.78	1679.33
425.98	1732.58
426.19	1669.09
426.39	1648.61
426.60	1710.05
426.81	1869.80
427.01	1701.86
427.22	1619.94
427.42	1605.61
427.63	1667.05
427.83	1757.16
428.04	1802.21
428.25	1791.97
428.45	1767.40
428.66	1701.86
428.86	1716.20
429.07	1699.81
429.28	1710.05
429.48	1703.91
429.69	1708.01
429.89	1658.85
430.10	1675.24
430.30	1767.40
430.51	1822.69
430.71	1724.39
430.92	1628.14
431.13	1712.10
431.33	1708.01
431.54	1734.63
431.74	1814.50
431.95	1839.08
432.15	1710.05
432.36	1765.35
432.56	1802.21
432.77	1804.26
432.98	1828.84
433.18	1712.10
433.39	1699.81
433.59	1751.01
433.80	1738.73
434.00	1880.04
434.21	1667.05
434.41	1687.53
434.62	1759.21
434.82	1624.04
435.03	1652.71
435.23	1789.92
435.44	1597.42
435.64	1753.06
435.85	1742.82
436.06	1781.73
436.26	1748.97
436.47	1740.77
436.67	1722.34
436.88	1681.38
437.08	1830.88
437.29	1722.34
437.49	1626.09
437.70	1832.93
437.90	1673.19
438.11	1914.85
438.31	1781.73
438.52	1871.84
438.72	1834.98
438.93	1976.29
439.13	1798.12
439.34	1816.55
439.54	1736.68
439.75	1820.64
439.95	1830.88
440.16	1658.85
440.36	1734.63
440.57	1771.49
440.77	1740.77
440.98	1718.25
441.18	1718.25
441.39	1808.36
441.59	1679.33
441.80	1822.69
442.00	1695.72
442.21	1798.12
442.41	1671.14
442.62	1769.44
442.82	1693.67
443.02	1820.64
443.23	1732.58
443.43	1689.57
443.64	1794.02
443.84	1691.62
444.05	1759.21
444.25	1744.87
444.46	1699.81
444.66	1720.29
444.87	1812.45
445.07	1691.62
445.28	1714.15
445.48	1761.25
445.69	1771.49
445.89	1910.75
446.09	1667.05
446.30	1998.82
446.50	2688.98
446.71	3803.08
446.91	4331.45
447.12	4919.22
447.32	4951.99
447.53	4423.61
447.73	3936.20
447.93	3504.07
448.14	3364.81
448.34	3225.55
448.55	2846.68
448.75	2793.43
448.96	2721.75
449.16	2424.80
449.36	2263.01
449.57	2064.35
449.77	1845.22
449.98	1796.07
450.18	1804.26
450.39	1851.36
450.59	1697.77
450.79	1718.25
451.00	1675.24
451.20	1796.07
451.41	1685.48
451.61	1771.49
451.81	1765.35
452.02	1724.39
452.22	1730.53
452.43	1652.71
452.63	1691.62
