SpectraSuite Data File
++++++++++++++++++++++++++++++++++++
Date: Mon Jun 06 14:31:17 CEST 2016
User: root
Dark Spectrum Present: No
Reference Spectrum Present: No
Number of Sampled Component Spectra: 1
Spectrometers: USB4C02835
Integration Time (usec): 100000 (USB4C02835)
Spectra Averaged: 1 (USB4C02835)
Boxcar Smoothing: 0 (USB4C02835)
Correct for Electrical Dark: No (USB4C02835)
Strobe/Lamp Enabled: No (USB4C02835)
Correct for Detector Non-linearity: No (USB4C02835)
Correct for Stray Light: No (USB4C02835)
Number of Pixels in Processed Spectrum: 3648
>>>>>Begin Processed Spectral Data<<<<<
177.47	1484.78
177.69	1484.78
177.91	1484.78
178.13	1366.00
178.36	1452.01
178.58	1730.53
178.80	1742.82
179.02	1636.33
179.24	1669.09
179.46	1683.43
179.68	1779.68
179.90	1687.53
180.13	1705.96
180.35	1691.62
180.57	1705.96
180.79	1822.69
181.01	1685.48
181.23	1753.06
181.45	1701.86
181.67	1763.30
181.90	1742.82
182.12	1675.24
182.34	1730.53
182.56	1746.92
182.78	1712.10
183.00	1728.49
183.22	1714.15
183.44	1578.98
183.66	1912.80
183.89	1755.11
184.11	1681.38
184.33	1689.57
184.55	1796.07
184.77	1701.86
184.99	1679.33
185.21	1613.80
185.43	1806.31
185.65	1628.14
185.87	1673.19
186.10	1845.22
186.32	1779.68
186.54	1708.01
186.76	1679.33
186.98	1794.02
187.20	1691.62
187.42	1699.81
187.64	1736.68
187.86	1755.11
188.08	1753.06
188.30	1699.81
188.52	1660.90
188.75	1755.11
188.97	1761.25
189.19	1669.09
189.41	1681.38
189.63	1753.06
189.85	1732.58
190.07	1611.75
190.29	1607.66
190.51	1724.39
190.73	1634.28
190.95	1839.08
191.17	1744.87
191.39	1574.89
191.61	1658.85
191.84	1724.39
192.06	1771.49
192.28	1591.27
192.50	1849.32
192.72	1705.96
192.94	1832.93
193.16	1791.97
193.38	1761.25
193.60	1646.57
193.82	1644.52
194.04	1726.44
194.26	1730.53
194.48	1716.20
194.70	1693.67
194.92	1665.00
195.14	1763.30
195.36	1611.75
195.58	1685.48
195.80	1679.33
196.02	1689.57
196.24	1714.15
196.46	1691.62
196.69	1648.61
196.91	1896.42
197.13	1648.61
197.35	1652.71
197.57	1865.70
197.79	1626.09
198.01	1701.86
198.23	1759.21
198.45	1720.29
198.67	1609.70
198.89	1738.73
199.11	1693.67
199.33	1740.77
199.55	1519.59
199.77	1708.01
199.99	1791.97
200.21	1687.53
200.43	1746.92
200.65	1593.32
200.87	1621.99
201.09	1658.85
201.31	1679.33
201.53	1710.05
201.75	1798.12
201.97	1685.48
202.19	1757.16
202.41	1644.52
202.63	1785.83
202.85	1677.29
203.07	1703.91
203.29	1708.01
203.51	1583.08
203.73	1671.14
203.95	1791.97
204.17	1718.25
204.39	1753.06
204.61	1669.09
204.83	1771.49
205.05	1722.34
205.27	1751.01
205.49	1839.08
205.71	1701.86
205.93	1636.33
206.15	1652.71
206.37	1644.52
206.59	1667.05
206.81	1583.08
207.03	1652.71
207.25	1662.95
207.47	1720.29
207.69	1687.53
207.91	1744.87
208.13	1771.49
208.34	1599.46
208.56	1601.51
208.78	1722.34
209.00	1695.72
209.22	1697.77
209.44	1693.67
209.66	1662.95
209.88	1714.15
210.10	1648.61
210.32	1665.00
210.54	1808.36
210.76	1683.43
210.98	1755.11
211.20	1607.66
211.42	1728.49
211.64	1822.69
211.86	1728.49
212.08	1660.90
212.30	1740.77
212.52	1759.21
212.74	1746.92
212.96	1667.05
213.17	1810.40
213.39	1701.86
213.61	1779.68
213.83	1681.38
214.05	1714.15
214.27	1771.49
214.49	1701.86
214.71	1667.05
214.93	1714.15
215.15	1722.34
215.37	1701.86
215.59	1640.42
215.81	1773.54
216.03	1787.88
216.24	1703.91
216.46	1755.11
216.68	1673.19
216.90	1718.25
217.12	1773.54
217.34	1693.67
217.56	1726.44
217.78	1720.29
218.00	1761.25
218.22	1746.92
218.44	1656.81
218.66	1708.01
218.87	1716.20
219.09	1646.57
219.31	1703.91
219.53	1673.19
219.75	1677.29
219.97	1753.06
220.19	1671.14
220.41	1740.77
220.63	1722.34
220.85	1734.63
221.06	1681.38
221.28	1826.79
221.50	1667.05
221.72	1708.01
221.94	1679.33
222.16	1722.34
222.38	1777.64
222.60	1710.05
222.82	1652.71
223.03	1769.44
223.25	1591.27
223.47	1759.21
223.69	1834.98
223.91	1687.53
224.13	1738.73
224.35	1626.09
224.57	1681.38
224.78	1740.77
225.00	1570.79
225.22	1630.18
225.44	1740.77
225.66	1683.43
225.88	1697.77
226.10	1767.40
226.32	1615.85
226.53	1734.63
226.75	1714.15
226.97	1630.18
227.19	1705.96
227.41	1642.47
227.63	1734.63
227.85	1597.42
228.06	1716.20
228.28	1691.62
228.50	1771.49
228.72	1699.81
228.94	1603.56
229.16	1589.22
229.37	1615.85
229.59	1615.85
229.81	1763.30
230.03	1693.67
230.25	1619.94
230.47	1603.56
230.69	1656.81
230.90	1732.58
231.12	1642.47
231.34	1595.37
231.56	1705.96
231.78	1650.66
232.00	1742.82
232.21	1742.82
232.43	1689.57
232.65	1628.14
232.87	1705.96
233.09	1685.48
233.30	1738.73
233.52	1689.57
233.74	1634.28
233.96	1611.75
234.18	1796.07
234.40	1705.96
234.61	1837.03
234.83	1624.04
235.05	1595.37
235.27	1884.13
235.49	1845.22
235.70	1718.25
235.92	1812.45
236.14	1716.20
236.36	1873.89
236.58	1695.72
236.79	1738.73
237.01	1673.19
237.23	1669.09
237.45	1789.92
237.67	1648.61
237.88	1675.24
238.10	1783.78
238.32	1660.90
238.54	1779.68
238.76	1697.77
238.97	1683.43
239.19	1656.81
239.41	1761.25
239.63	1738.73
239.85	1720.29
240.06	1669.09
240.28	1642.47
240.50	1744.87
240.72	1681.38
240.93	1697.77
241.15	1751.01
241.37	1636.33
241.59	1722.34
241.81	1759.21
242.02	1624.04
242.24	1755.11
242.46	1675.24
242.68	1589.22
242.89	1742.82
243.11	1726.44
243.33	1710.05
243.55	1656.81
243.76	1789.92
243.98	1644.52
244.20	1732.58
244.42	1646.57
244.64	1716.20
244.85	1658.85
245.07	1681.38
245.29	1796.07
245.51	1730.53
245.72	1662.95
245.94	1732.58
246.16	1761.25
246.38	1779.68
246.59	1689.57
246.81	1603.56
247.03	1681.38
247.24	1658.85
247.46	1712.10
247.68	1703.91
247.90	1710.05
248.11	1656.81
248.33	1751.01
248.55	1712.10
248.77	1734.63
248.98	1767.40
249.20	1785.83
249.42	1714.15
249.64	1673.19
249.85	1724.39
250.07	1628.14
250.29	1773.54
250.50	1773.54
250.72	1675.24
250.94	1689.57
251.16	1818.60
251.37	1693.67
251.59	1714.15
251.81	1726.44
252.02	1687.53
252.24	1705.96
252.46	1789.92
252.68	1630.18
252.89	1673.19
253.11	1613.80
253.33	1759.21
253.54	1775.59
253.76	1632.23
253.98	1689.57
254.20	1587.18
254.41	1617.90
254.63	1705.96
254.85	1667.05
255.06	1695.72
255.28	1781.73
255.50	1677.29
255.71	1595.37
255.93	1630.18
256.15	1755.11
256.36	1705.96
256.58	1701.86
256.80	1763.30
257.02	1689.57
257.23	1673.19
257.45	1654.76
257.67	1734.63
257.88	1642.47
258.10	1701.86
258.32	1744.87
258.53	1759.21
258.75	1658.85
258.97	1703.91
259.18	1675.24
259.40	1665.00
259.62	1822.69
259.83	1767.40
260.05	1769.44
260.27	2002.91
260.48	1822.69
260.70	1656.81
260.92	1652.71
261.13	1693.67
261.35	1667.05
261.57	1810.40
261.78	1595.37
262.00	1691.62
262.22	1771.49
262.43	1724.39
262.65	1705.96
262.86	1695.72
263.08	1826.79
263.30	1722.34
263.51	1628.14
263.73	1615.85
263.95	1740.77
264.16	1708.01
264.38	1679.33
264.60	1722.34
264.81	1611.75
265.03	1720.29
265.25	1771.49
265.46	1681.38
265.68	1742.82
265.89	1708.01
266.11	1603.56
266.33	1806.31
266.54	1822.69
266.76	1708.01
266.98	1697.77
267.19	1851.36
267.41	1775.59
267.62	1705.96
267.84	1636.33
268.06	1703.91
268.27	1777.64
268.49	1761.25
268.70	1820.64
268.92	1669.09
269.14	1644.52
269.35	1679.33
269.57	1724.39
269.79	1697.77
270.00	1703.91
270.22	1767.40
270.43	1671.14
270.65	1656.81
270.87	1744.87
271.08	1730.53
271.30	1662.95
271.51	1705.96
271.73	1685.48
271.95	1708.01
272.16	1722.34
272.38	1744.87
272.59	1726.44
272.81	1671.14
273.02	1769.44
273.24	1789.92
273.46	1777.64
273.67	1621.99
273.89	1718.25
274.10	1607.66
274.32	1759.21
274.54	1726.44
274.75	1710.05
274.97	1667.05
275.18	1808.36
275.40	1757.16
275.61	1722.34
275.83	1671.14
276.05	1613.80
276.26	1726.44
276.48	1753.06
276.69	1607.66
276.91	1693.67
277.12	1687.53
277.34	1773.54
277.55	1765.35
277.77	1787.88
277.99	1615.85
278.20	1554.41
278.42	1640.42
278.63	1654.76
278.85	1685.48
279.06	1603.56
279.28	1718.25
279.49	1736.68
279.71	1701.86
279.93	1759.21
280.14	1644.52
280.36	1642.47
280.57	1751.01
280.79	1783.78
281.00	1679.33
281.22	1677.29
281.43	1751.01
281.65	1593.32
281.86	1628.14
282.08	1746.92
282.29	1804.26
282.51	1615.85
282.73	1654.76
282.94	1630.18
283.16	1738.73
283.37	1853.41
283.59	1634.28
283.80	1773.54
284.02	1656.81
284.23	1765.35
284.45	1607.66
284.66	1640.42
284.88	1665.00
285.09	1748.97
285.31	1712.10
285.52	1669.09
285.74	1644.52
285.95	1683.43
286.17	1705.96
286.38	1759.21
286.60	1601.51
286.81	1732.58
287.03	1703.91
287.24	1685.48
287.46	1658.85
287.67	1673.19
287.89	1849.32
288.10	1650.66
288.32	1769.44
288.53	1769.44
288.75	1708.01
288.96	1773.54
289.18	1617.90
289.39	1763.30
289.61	1755.11
289.82	1812.45
290.04	1746.92
290.25	1642.47
290.47	1724.39
290.68	1677.29
290.90	1810.40
291.11	1605.61
291.33	1738.73
291.54	1687.53
291.76	1687.53
291.97	1689.57
292.18	1796.07
292.40	1665.00
292.61	1667.05
292.83	1828.84
293.04	1705.96
293.26	1708.01
293.47	1691.62
293.69	1636.33
293.90	1691.62
294.12	1751.01
294.33	1759.21
294.55	1728.49
294.76	1742.82
294.97	1787.88
295.19	1861.60
295.40	1634.28
295.62	1769.44
295.83	1738.73
296.05	1660.90
296.26	1763.30
296.48	1642.47
296.69	1658.85
296.90	1669.09
297.12	1714.15
297.33	1710.05
297.55	1705.96
297.76	1716.20
297.98	1679.33
298.19	1665.00
298.41	1763.30
298.62	1679.33
298.83	1828.84
299.05	1734.63
299.26	1667.05
299.48	1693.67
299.69	1687.53
299.90	1742.82
300.12	1578.98
300.33	1763.30
300.55	1617.90
300.76	1693.67
300.98	1576.94
301.19	1658.85
301.40	1662.95
301.62	1675.24
301.83	1753.06
302.05	1742.82
302.26	1720.29
302.47	1710.05
302.69	1640.42
302.90	1673.19
303.12	1531.88
303.33	1679.33
303.54	1824.74
303.76	1646.57
303.97	1701.86
304.19	1783.78
304.40	1660.90
304.61	1734.63
304.83	1789.92
305.04	1722.34
305.26	1705.96
305.47	1665.00
305.68	1728.49
305.90	1755.11
306.11	1701.86
306.33	1652.71
306.54	1677.29
306.75	1697.77
306.97	1626.09
307.18	1652.71
307.39	1714.15
307.61	1693.67
307.82	1699.81
308.04	1726.44
308.25	1650.66
308.46	1697.77
308.68	1716.20
308.89	1691.62
309.10	1734.63
309.32	1718.25
309.53	1720.29
309.74	1763.30
309.96	1755.11
310.17	1820.64
310.39	1665.00
310.60	1746.92
310.81	1744.87
311.03	1656.81
311.24	1669.09
311.45	1689.57
311.67	1824.74
311.88	1669.09
312.09	1665.00
312.31	1691.62
312.52	1720.29
312.73	1714.15
312.95	1648.61
313.16	1755.11
313.37	1757.16
313.59	1703.91
313.80	1763.30
314.01	1730.53
314.23	1716.20
314.44	1636.33
314.65	1611.75
314.87	1599.46
315.08	1703.91
315.29	1738.73
315.51	1640.42
315.72	1683.43
315.93	1740.77
316.15	1712.10
316.36	1656.81
316.57	1748.97
316.79	1738.73
317.00	1685.48
317.21	1710.05
317.43	1652.71
317.64	1683.43
317.85	1628.14
318.07	1648.61
318.28	1738.73
318.49	1830.88
318.70	1873.89
318.92	1869.80
319.13	1812.45
319.34	1781.73
319.56	1791.97
319.77	1742.82
319.98	1738.73
320.20	1765.35
320.41	1746.92
320.62	1767.40
320.83	1701.86
321.05	1888.23
321.26	1738.73
321.47	1650.66
321.69	1812.45
321.90	1687.53
322.11	1669.09
322.32	1718.25
322.54	1730.53
322.75	1665.00
322.96	1828.84
323.18	1619.94
323.39	1583.08
323.60	1701.86
323.81	1753.06
324.03	1677.29
324.24	1738.73
324.45	1703.91
324.66	1634.28
324.88	1687.53
325.09	1791.97
325.30	1675.24
325.52	1714.15
325.73	1714.15
325.94	1671.14
326.15	1652.71
326.37	1640.42
326.58	1716.20
326.79	1810.40
327.00	1677.29
327.22	1738.73
327.43	1773.54
327.64	1679.33
327.85	1732.58
328.07	1718.25
328.28	1751.01
328.49	1734.63
328.70	1656.81
328.92	1691.62
329.13	1722.34
329.34	1730.53
329.55	1798.12
329.76	1718.25
329.98	1658.85
330.19	1714.15
330.40	1710.05
330.61	1740.77
330.83	1751.01
331.04	1722.34
331.25	1646.57
331.46	1693.67
331.68	1570.79
331.89	1681.38
332.10	1742.82
332.31	1654.76
332.52	1734.63
332.74	1763.30
332.95	1646.57
333.16	1656.81
333.37	1763.30
333.58	1710.05
333.80	1726.44
334.01	1595.37
334.22	1671.14
334.43	1746.92
334.64	1687.53
334.86	1613.80
335.07	1632.23
335.28	1789.92
335.49	1656.81
335.70	1730.53
335.92	1714.15
336.13	1828.84
336.34	1718.25
336.55	1759.21
336.76	1761.25
336.98	1570.79
337.19	1671.14
337.40	1761.25
337.61	1908.71
337.82	1697.77
338.04	1765.35
338.25	1660.90
338.46	1689.57
338.67	1681.38
338.88	1716.20
339.09	1615.85
339.31	1646.57
339.52	1652.71
339.73	1660.90
339.94	1699.81
340.15	1710.05
340.36	1665.00
340.58	1689.57
340.79	1517.54
341.00	1662.95
341.21	1640.42
341.42	1796.07
341.63	1705.96
341.85	1695.72
342.06	1652.71
342.27	1656.81
342.48	1759.21
342.69	1607.66
342.90	1693.67
343.12	1740.77
343.33	1732.58
343.54	1705.96
343.75	1777.64
343.96	1730.53
344.17	1658.85
344.38	1697.77
344.60	1644.52
344.81	1673.19
345.02	1671.14
345.23	1742.82
345.44	1812.45
345.65	1746.92
345.86	1695.72
346.07	1736.68
346.29	1703.91
346.50	1726.44
346.71	1632.23
346.92	1800.16
347.13	1787.88
347.34	1646.57
347.55	1726.44
347.76	1689.57
347.98	1603.56
348.19	1677.29
348.40	1814.50
348.61	1710.05
348.82	1806.31
349.03	1736.68
349.24	1642.47
349.45	1796.07
349.66	1589.22
349.88	1724.39
350.09	1568.74
350.30	1759.21
350.51	1753.06
350.72	1677.29
350.93	1816.55
351.14	1665.00
351.35	1746.92
351.56	1726.44
351.77	1718.25
351.99	1695.72
352.20	1734.63
352.41	1761.25
352.62	1613.80
352.83	1693.67
353.04	1761.25
353.25	1681.38
353.46	1763.30
353.67	1755.11
353.88	1601.51
354.09	1720.29
354.30	1691.62
354.52	1736.68
354.73	1693.67
354.94	1705.96
355.15	1746.92
355.36	1730.53
355.57	1753.06
355.78	1632.23
355.99	1652.71
356.20	1638.38
356.41	1724.39
356.62	1744.87
356.83	1744.87
357.04	1810.40
357.25	1722.34
357.46	1714.15
357.68	1595.37
357.89	1673.19
358.10	1679.33
358.31	1677.29
358.52	1701.86
358.73	1671.14
358.94	1624.04
359.15	1603.56
359.36	1738.73
359.57	1771.49
359.78	1720.29
359.99	1732.58
360.20	1632.23
360.41	1669.09
360.62	1615.85
360.83	1748.97
361.04	1724.39
361.25	1708.01
361.46	1781.73
361.67	1736.68
361.88	1732.58
362.09	1734.63
362.30	1634.28
362.51	1687.53
362.72	1693.67
362.93	1761.25
363.14	1695.72
363.35	1640.42
363.56	1703.91
363.78	1730.53
363.99	1773.54
364.20	1660.90
364.41	1675.24
364.62	1791.97
364.83	1785.83
365.04	1677.29
365.25	1693.67
365.46	1832.93
365.67	1665.00
365.88	1638.38
366.09	1724.39
366.30	1734.63
366.51	1662.95
366.72	1654.76
366.93	1718.25
367.14	1781.73
367.35	1763.30
367.56	1695.72
367.77	1718.25
367.98	1669.09
368.18	1669.09
368.39	1714.15
368.60	1656.81
368.81	1716.20
369.02	1697.77
369.23	1718.25
369.44	1656.81
369.65	1646.57
369.86	1673.19
370.07	1751.01
370.28	1619.94
370.49	1773.54
370.70	1703.91
370.91	1611.75
371.12	1591.27
371.33	1705.96
371.54	1632.23
371.75	1773.54
371.96	1558.50
372.17	1751.01
372.38	1691.62
372.59	1714.15
372.80	1656.81
373.01	1691.62
373.22	1751.01
373.43	1712.10
373.64	1613.80
373.85	1800.16
374.06	1806.31
374.26	1679.33
374.47	1677.29
374.68	1781.73
374.89	1638.38
375.10	1730.53
375.31	1718.25
375.52	1808.36
375.73	1718.25
375.94	1591.27
376.15	1742.82
376.36	1701.86
376.57	1738.73
376.78	1697.77
376.99	1738.73
377.20	1757.16
377.40	1722.34
377.61	1843.17
377.82	1677.29
378.03	1779.68
378.24	1681.38
378.45	1718.25
378.66	1640.42
378.87	1673.19
379.08	1681.38
379.29	1697.77
379.50	1781.73
379.71	1644.52
379.91	1724.39
380.12	1667.05
380.33	1665.00
380.54	1691.62
380.75	1734.63
380.96	1699.81
381.17	1736.68
381.38	1699.81
381.59	1697.77
381.80	1730.53
382.00	1877.99
382.21	1763.30
382.42	1808.36
382.63	1783.78
382.84	1710.05
383.05	1734.63
383.26	1857.51
383.47	1830.88
383.68	1667.05
383.88	1767.40
384.09	1751.01
384.30	1751.01
384.51	1794.02
384.72	1665.00
384.93	1691.62
385.14	1656.81
385.35	1726.44
385.55	1693.67
385.76	1847.27
385.97	1693.67
386.18	1626.09
386.39	1703.91
386.60	1730.53
386.81	1650.66
387.02	1730.53
387.22	1638.38
387.43	1820.64
387.64	1734.63
387.85	1865.70
388.06	2263.01
388.27	4288.45
388.48	6719.39
388.68	8177.54
388.89	9555.82
389.10	9754.48
389.31	8503.17
389.52	7534.48
389.73	6567.84
389.93	6047.65
390.14	5789.61
390.35	5126.07
390.56	4616.12
390.77	3821.51
390.98	3108.82
391.18	2512.86
391.39	2107.36
391.60	1904.61
391.81	1859.56
392.02	1691.62
392.23	1894.37
392.43	1744.87
392.64	1839.08
392.85	1794.02
393.06	1800.16
393.27	1718.25
393.47	1705.96
393.68	1722.34
393.89	1652.71
394.10	1775.59
394.31	1718.25
394.52	1654.76
394.72	1701.86
394.93	1787.88
395.14	1583.08
395.35	1689.57
395.56	1708.01
395.76	1714.15
395.97	1738.73
396.18	1814.50
396.39	1855.46
396.60	2041.82
396.80	1935.33
397.01	1861.60
397.22	1832.93
397.43	1851.36
397.64	1794.02
397.84	1769.44
398.05	1861.60
398.26	1697.77
398.47	1777.64
398.67	1855.46
398.88	1685.48
399.09	1783.78
399.30	1703.91
399.51	1781.73
399.71	1619.94
399.92	1677.29
400.13	1802.21
400.34	1693.67
400.54	1734.63
400.75	1773.54
400.96	1732.58
401.17	1796.07
401.37	1777.64
401.58	1728.49
401.79	1708.01
402.00	1820.64
402.21	2088.93
402.41	1992.67
402.62	1871.84
402.83	2041.82
403.04	1957.86
403.24	2070.50
403.45	1841.12
403.66	1867.75
403.87	1882.08
404.07	1951.71
404.28	1880.04
404.49	1916.90
404.70	1757.16
404.90	1773.54
405.11	1816.55
405.32	1781.73
405.52	1697.77
405.73	1673.19
405.94	1665.00
406.15	1773.54
406.35	1722.34
406.56	1763.30
406.77	1726.44
406.98	1746.92
407.18	1615.85
407.39	1738.73
407.60	1724.39
407.80	1701.86
408.01	1636.33
408.22	1724.39
408.43	1679.33
408.63	1744.87
408.84	1753.06
409.05	1738.73
409.25	1617.90
409.46	1656.81
409.67	1646.57
409.88	1736.68
410.08	1734.63
410.29	1652.71
410.50	1726.44
410.70	1751.01
410.91	1615.85
411.12	1746.92
411.32	1693.67
411.53	1591.27
411.74	1734.63
411.95	1757.16
412.15	1738.73
412.36	1730.53
412.57	1759.21
412.77	1751.01
412.98	1699.81
413.19	1728.49
413.39	1779.68
413.60	1720.29
413.81	1771.49
414.01	1587.18
414.22	1732.58
414.43	1724.39
414.63	1646.57
414.84	1763.30
415.05	1777.64
415.25	1609.70
415.46	1738.73
415.67	1624.04
415.87	1798.12
416.08	1812.45
416.29	1687.53
416.49	1816.55
416.70	1687.53
416.91	1660.90
417.11	1755.11
417.32	1712.10
417.53	1847.27
417.73	1730.53
417.94	1640.42
418.15	1751.01
418.35	1681.38
418.56	1757.16
418.77	1814.50
418.97	1734.63
419.18	1730.53
419.38	1591.27
419.59	1695.72
419.80	1796.07
420.00	1683.43
420.21	1710.05
420.42	1804.26
420.62	1703.91
420.83	1630.18
421.04	1650.66
421.24	1732.58
421.45	1685.48
421.65	1746.92
421.86	1675.24
422.07	1703.91
422.27	1697.77
422.48	1697.77
422.69	1742.82
422.89	1697.77
423.10	1662.95
423.30	1607.66
423.51	1755.11
423.72	1726.44
423.92	1794.02
424.13	1662.95
424.33	1712.10
424.54	1753.06
424.75	1744.87
424.95	1789.92
425.16	1757.16
425.36	1665.00
425.57	1722.34
425.78	1775.59
425.98	1718.25
426.19	1685.48
426.39	1605.61
426.60	1638.38
426.81	1816.55
427.01	1783.78
427.22	1755.11
427.42	1607.66
427.63	1632.23
427.83	1744.87
428.04	1820.64
428.25	1816.55
428.45	1849.32
428.66	1748.97
428.86	1716.20
429.07	1665.00
429.28	1662.95
429.48	1718.25
429.69	1755.11
429.89	1767.40
430.10	1566.70
430.30	1814.50
430.51	1732.58
430.71	1605.61
430.92	1753.06
431.13	1597.42
431.33	1701.86
431.54	1738.73
431.74	1751.01
431.95	1818.60
432.15	1693.67
432.36	1753.06
432.56	1742.82
432.77	1769.44
432.98	1826.79
433.18	1765.35
433.39	1630.18
433.59	1722.34
433.80	1808.36
434.00	1804.26
434.21	1691.62
434.41	1712.10
434.62	1820.64
434.82	1716.20
435.03	1662.95
435.23	1677.29
435.44	1654.76
435.64	1701.86
435.85	1740.77
436.06	1757.16
436.26	1722.34
436.47	1742.82
436.67	1624.04
436.88	1679.33
437.08	1746.92
437.29	1814.50
437.49	1701.86
437.70	1730.53
437.90	1775.59
438.11	1873.89
438.31	1773.54
438.52	1804.26
438.72	1882.08
438.93	1898.47
439.13	1818.60
439.34	1824.74
439.54	1808.36
439.75	1761.25
439.95	1761.25
440.16	1714.15
440.36	1761.25
440.57	1791.97
440.77	1814.50
440.98	1779.68
441.18	1728.49
441.39	1621.99
441.59	1626.09
441.80	1839.08
442.00	1742.82
442.21	1849.32
442.41	1677.29
442.62	1738.73
442.82	1699.81
443.02	1708.01
443.23	1724.39
443.43	1785.83
443.64	1781.73
443.84	1687.53
444.05	1761.25
444.25	1654.76
444.46	1720.29
444.66	1748.97
444.87	1716.20
445.07	1572.84
445.28	1701.86
445.48	1818.60
445.69	1726.44
445.89	1853.41
446.09	1814.50
446.30	2037.73
446.50	2666.46
446.71	3723.21
446.91	4270.01
447.12	4634.55
447.32	4843.45
447.53	4249.54
447.73	3788.74
447.93	3483.59
448.14	3258.32
448.34	3286.99
448.55	2897.88
448.75	2852.82
448.96	2686.94
449.16	2387.93
449.36	2271.20
449.57	2078.69
449.77	1845.22
449.98	1710.05
450.18	1757.16
450.39	1794.02
450.59	1812.45
450.79	1697.77
451.00	1687.53
451.20	1834.98
451.41	1722.34
451.61	1779.68
451.81	1755.11
452.02	1644.52
452.22	1742.82
452.43	1738.73
452.63	1658.85
