SpectraSuite Data File
++++++++++++++++++++++++++++++++++++
Date: Mon Jun 06 16:54:37 CEST 2016
User: root
Dark Spectrum Present: No
Reference Spectrum Present: No
Number of Sampled Component Spectra: 1
Spectrometers: USB4C02835
Integration Time (usec): 100000 (USB4C02835)
Spectra Averaged: 1 (USB4C02835)
Boxcar Smoothing: 0 (USB4C02835)
Correct for Electrical Dark: No (USB4C02835)
Strobe/Lamp Enabled: No (USB4C02835)
Correct for Detector Non-linearity: No (USB4C02835)
Correct for Stray Light: No (USB4C02835)
Number of Pixels in Processed Spectrum: 3648
>>>>>Begin Processed Spectral Data<<<<<
177.47	1462.25
177.69	1462.25
177.91	1462.25
178.13	1464.30
178.36	1406.95
178.58	1677.29
178.80	1755.11
179.02	1660.90
179.24	1685.48
179.46	1615.85
179.68	1783.78
179.90	1634.28
180.13	1753.06
180.35	1701.86
180.57	1662.95
180.79	1757.16
181.01	1777.64
181.23	1761.25
181.45	1748.97
181.67	1744.87
181.90	1701.86
182.12	1556.46
182.34	1656.81
182.56	1744.87
182.78	1675.24
183.00	1789.92
183.22	1689.57
183.44	1595.37
183.66	1800.16
183.89	1765.35
184.11	1646.57
184.33	1697.77
184.55	1710.05
184.77	1767.40
184.99	1738.73
185.21	1710.05
185.43	1861.60
185.65	1632.23
185.87	1646.57
186.10	1789.92
186.32	1802.21
186.54	1759.21
186.76	1810.40
186.98	1783.78
187.20	1695.72
187.42	1624.04
187.64	1746.92
187.86	1722.34
188.08	1710.05
188.30	1708.01
188.52	1722.34
188.75	1757.16
188.97	1882.08
189.19	1662.95
189.41	1654.76
189.63	1722.34
189.85	1738.73
190.07	1593.32
190.29	1621.99
190.51	1689.57
190.73	1665.00
190.95	1724.39
191.17	1683.43
191.39	1624.04
191.61	1658.85
191.84	1714.15
192.06	1744.87
192.28	1601.51
192.50	1830.88
192.72	1712.10
192.94	1722.34
193.16	1712.10
193.38	1650.66
193.60	1628.14
193.82	1632.23
194.04	1755.11
194.26	1769.44
194.48	1677.29
194.70	1710.05
194.92	1660.90
195.14	1734.63
195.36	1740.77
195.58	1722.34
195.80	1683.43
196.02	1624.04
196.24	1667.05
196.46	1734.63
196.69	1603.56
196.91	1804.26
197.13	1654.76
197.35	1630.18
197.57	1759.21
197.79	1669.09
198.01	1669.09
198.23	1689.57
198.45	1726.44
198.67	1626.09
198.89	1648.61
199.11	1726.44
199.33	1679.33
199.55	1552.36
199.77	1738.73
199.99	1687.53
200.21	1697.77
200.43	1751.01
200.65	1689.57
200.87	1615.85
201.09	1693.67
201.31	1605.61
201.53	1810.40
201.75	1742.82
201.97	1746.92
202.19	1667.05
202.41	1722.34
202.63	1888.23
202.85	1755.11
203.07	1718.25
203.29	1654.76
203.51	1681.38
203.73	1697.77
203.95	1830.88
204.17	1673.19
204.39	1681.38
204.61	1708.01
204.83	1662.95
205.05	1763.30
205.27	1714.15
205.49	1783.78
205.71	1685.48
205.93	1699.81
206.15	1644.52
206.37	1785.83
206.59	1601.51
206.81	1685.48
207.03	1730.53
207.25	1599.46
207.47	1757.16
207.69	1736.68
207.91	1826.79
208.13	1859.56
208.34	1656.81
208.56	1673.19
208.78	1724.39
209.00	1718.25
209.22	1574.89
209.44	1748.97
209.66	1634.28
209.88	1607.66
210.10	1640.42
210.32	1718.25
210.54	1769.44
210.76	1665.00
210.98	1746.92
211.20	1644.52
211.42	1724.39
211.64	1722.34
211.86	1753.06
212.08	1802.21
212.30	1673.19
212.52	1691.62
212.74	1675.24
212.96	1699.81
213.17	1730.53
213.39	1787.88
213.61	1763.30
213.83	1718.25
214.05	1570.79
214.27	1785.83
214.49	1703.91
214.71	1705.96
214.93	1832.93
215.15	1744.87
215.37	1665.00
215.59	1566.70
215.81	1701.86
216.03	1734.63
216.24	1730.53
216.46	1710.05
216.68	1679.33
216.90	1699.81
217.12	1751.01
217.34	1701.86
217.56	1740.77
217.78	1730.53
218.00	1728.49
218.22	1728.49
218.44	1732.58
218.66	1765.35
218.87	1830.88
219.09	1624.04
219.31	1746.92
219.53	1746.92
219.75	1701.86
219.97	1693.67
220.19	1705.96
220.41	1669.09
220.63	1755.11
220.85	1744.87
221.06	1765.35
221.28	1763.30
221.50	1677.29
221.72	1658.85
221.94	1677.29
222.16	1775.59
222.38	1714.15
222.60	1773.54
222.82	1705.96
223.03	1648.61
223.25	1669.09
223.47	1765.35
223.69	1845.22
223.91	1714.15
224.13	1720.29
224.35	1638.38
224.57	1791.97
224.78	1816.55
225.00	1658.85
225.22	1734.63
225.44	1609.70
225.66	1769.44
225.88	1693.67
226.10	1753.06
226.32	1748.97
226.53	1746.92
226.75	1751.01
226.97	1740.77
227.19	1714.15
227.41	1757.16
227.63	1683.43
227.85	1648.61
228.06	1730.53
228.28	1642.47
228.50	1757.16
228.72	1648.61
228.94	1632.23
229.16	1662.95
229.37	1617.90
229.59	1705.96
229.81	1783.78
230.03	1658.85
230.25	1638.38
230.47	1675.24
230.69	1638.38
230.90	1720.29
231.12	1681.38
231.34	1724.39
231.56	1748.97
231.78	1650.66
232.00	1662.95
232.21	1699.81
232.43	1685.48
232.65	1591.27
232.87	1697.77
233.09	1607.66
233.30	1685.48
233.52	1822.69
233.74	1599.46
233.96	1646.57
234.18	1718.25
234.40	1740.77
234.61	1771.49
234.83	1685.48
235.05	1705.96
235.27	1841.12
235.49	1703.91
235.70	1755.11
235.92	1787.88
236.14	1687.53
236.36	1873.89
236.58	1712.10
236.79	1806.31
237.01	1681.38
237.23	1714.15
237.45	1863.65
237.67	1658.85
237.88	1763.30
238.10	1828.84
238.32	1677.29
238.54	1650.66
238.76	1734.63
238.97	1675.24
239.19	1746.92
239.41	1732.58
239.63	1769.44
239.85	1691.62
240.06	1652.71
240.28	1681.38
240.50	1757.16
240.72	1710.05
240.93	1701.86
241.15	1769.44
241.37	1818.60
241.59	1806.31
241.81	1669.09
242.02	1744.87
242.24	1728.49
242.46	1685.48
242.68	1656.81
242.89	1677.29
243.11	1759.21
243.33	1738.73
243.55	1718.25
243.76	1765.35
243.98	1693.67
244.20	1705.96
244.42	1816.55
244.64	1724.39
244.85	1638.38
245.07	1693.67
245.29	1687.53
245.51	1710.05
245.72	1714.15
245.94	1722.34
246.16	1781.73
246.38	1744.87
246.59	1615.85
246.81	1603.56
247.03	1673.19
247.24	1634.28
247.46	1646.57
247.68	1740.77
247.90	1693.67
248.11	1650.66
248.33	1771.49
248.55	1624.04
248.77	1708.01
248.98	1785.83
249.20	1796.07
249.42	1718.25
249.64	1738.73
249.85	1638.38
250.07	1736.68
250.29	1822.69
250.50	1662.95
250.72	1634.28
250.94	1789.92
251.16	1841.12
251.37	1724.39
251.59	1746.92
251.81	1804.26
252.02	1755.11
252.24	1734.63
252.46	1724.39
252.68	1685.48
252.89	1599.46
253.11	1644.52
253.33	1767.40
253.54	1730.53
253.76	1572.84
253.98	1705.96
254.20	1687.53
254.41	1695.72
254.63	1671.14
254.85	1673.19
255.06	1658.85
255.28	1687.53
255.50	1665.00
255.71	1695.72
255.93	1617.90
256.15	1718.25
256.36	1824.74
256.58	1640.42
256.80	1705.96
257.02	1660.90
257.23	1669.09
257.45	1718.25
257.67	1751.01
257.88	1691.62
258.10	1742.82
258.32	1777.64
258.53	1712.10
258.75	1882.08
258.97	1705.96
259.18	1687.53
259.40	1701.86
259.62	1728.49
259.83	1877.99
260.05	1771.49
260.27	2017.25
260.48	1753.06
260.70	1652.71
260.92	1644.52
261.13	1753.06
261.35	1665.00
261.57	1775.59
261.78	1669.09
262.00	1658.85
262.22	1669.09
262.43	1701.86
262.65	1697.77
262.86	1673.19
263.08	1781.73
263.30	1775.59
263.51	1605.61
263.73	1697.77
263.95	1781.73
264.16	1642.47
264.38	1640.42
264.60	1796.07
264.81	1665.00
265.03	1773.54
265.25	1779.68
265.46	1667.05
265.68	1804.26
265.89	1763.30
266.11	1634.28
266.33	1796.07
266.54	1724.39
266.76	1712.10
266.98	1785.83
267.19	1779.68
267.41	1763.30
267.62	1697.77
267.84	1699.81
268.06	1712.10
268.27	1673.19
268.49	1755.11
268.70	1734.63
268.92	1769.44
269.14	1667.05
269.35	1675.24
269.57	1734.63
269.79	1779.68
270.00	1662.95
270.22	1843.17
270.43	1691.62
270.65	1558.50
270.87	1695.72
271.08	1775.59
271.30	1757.16
271.51	1634.28
271.73	1767.40
271.95	1767.40
272.16	1730.53
272.38	1712.10
272.59	1718.25
272.81	1687.53
273.02	1736.68
273.24	1761.25
273.46	1806.31
273.67	1665.00
273.89	1708.01
274.10	1652.71
274.32	1802.21
274.54	1744.87
274.75	1687.53
274.97	1665.00
275.18	1763.30
275.40	1757.16
275.61	1705.96
275.83	1660.90
276.05	1632.23
276.26	1656.81
276.48	1730.53
276.69	1619.94
276.91	1730.53
277.12	1783.78
277.34	1665.00
277.55	1742.82
277.77	1701.86
277.99	1724.39
278.20	1636.33
278.42	1726.44
278.63	1722.34
278.85	1675.24
279.06	1615.85
279.28	1693.67
279.49	1765.35
279.71	1808.36
279.93	1689.57
280.14	1697.77
280.36	1681.38
280.57	1701.86
280.79	1705.96
281.00	1763.30
281.22	1640.42
281.43	1771.49
281.65	1566.70
281.86	1626.09
282.08	1779.68
282.29	1802.21
282.51	1650.66
282.73	1701.86
282.94	1662.95
283.16	1667.05
283.37	1789.92
283.59	1691.62
283.80	1775.59
284.02	1722.34
284.23	1693.67
284.45	1675.24
284.66	1599.46
284.88	1687.53
285.09	1697.77
285.31	1722.34
285.52	1656.81
285.74	1665.00
285.95	1826.79
286.17	1746.92
286.38	1755.11
286.60	1599.46
286.81	1656.81
287.03	1701.86
287.24	1738.73
287.46	1763.30
287.67	1734.63
287.89	1849.32
288.10	1779.68
288.32	1732.58
288.53	1828.84
288.75	1789.92
288.96	1773.54
289.18	1665.00
289.39	1724.39
289.61	1734.63
289.82	1847.27
290.04	1787.88
290.25	1638.38
290.47	1613.80
290.68	1650.66
290.90	1740.77
291.11	1652.71
291.33	1726.44
291.54	1605.61
291.76	1640.42
291.97	1775.59
292.18	1724.39
292.40	1708.01
292.61	1691.62
292.83	1845.22
293.04	1720.29
293.26	1701.86
293.47	1710.05
293.69	1726.44
293.90	1695.72
294.12	1757.16
294.33	1658.85
294.55	1703.91
294.76	1746.92
294.97	1834.98
295.19	1761.25
295.40	1728.49
295.62	1740.77
295.83	1736.68
296.05	1638.38
296.26	1794.02
296.48	1650.66
296.69	1726.44
296.90	1714.15
297.12	1806.31
297.33	1800.16
297.55	1685.48
297.76	1685.48
297.98	1755.11
298.19	1726.44
298.41	1691.62
298.62	1695.72
298.83	1794.02
299.05	1791.97
299.26	1677.29
299.48	1648.61
299.69	1705.96
299.90	1738.73
300.12	1681.38
300.33	1796.07
300.55	1660.90
300.76	1724.39
300.98	1687.53
301.19	1769.44
301.40	1665.00
301.62	1665.00
301.83	1738.73
302.05	1746.92
302.26	1636.33
302.47	1691.62
302.69	1689.57
302.90	1699.81
303.12	1593.32
303.33	1705.96
303.54	1755.11
303.76	1738.73
303.97	1757.16
304.19	1822.69
304.40	1648.61
304.61	1673.19
304.83	1849.32
305.04	1812.45
305.26	1736.68
305.47	1568.74
305.68	1808.36
305.90	1636.33
306.11	1708.01
306.33	1667.05
306.54	1636.33
306.75	1679.33
306.97	1583.08
307.18	1642.47
307.39	1652.71
307.61	1781.73
307.82	1708.01
308.04	1753.06
308.25	1714.15
308.46	1740.77
308.68	1722.34
308.89	1656.81
309.10	1773.54
309.32	1759.21
309.53	1679.33
309.74	1679.33
309.96	1640.42
310.17	1863.65
310.39	1703.91
310.60	1701.86
310.81	1697.77
311.03	1691.62
311.24	1718.25
311.45	1685.48
311.67	1775.59
311.88	1724.39
312.09	1701.86
312.31	1722.34
312.52	1646.57
312.73	1714.15
312.95	1671.14
313.16	1650.66
313.37	1730.53
313.59	1779.68
313.80	1785.83
314.01	1722.34
314.23	1671.14
314.44	1708.01
314.65	1693.67
314.87	1648.61
315.08	1720.29
315.29	1687.53
315.51	1689.57
315.72	1656.81
315.93	1789.92
316.15	1804.26
316.36	1654.76
316.57	1619.94
316.79	1628.14
317.00	1744.87
317.21	1806.31
317.43	1675.24
317.64	1716.20
317.85	1714.15
318.07	1650.66
318.28	1759.21
318.49	1818.60
318.70	1943.52
318.92	1818.60
319.13	1822.69
319.34	1933.28
319.56	1808.36
319.77	1763.30
319.98	1869.80
320.20	1773.54
320.41	1761.25
320.62	1734.63
320.83	1648.61
321.05	1896.42
321.26	1751.01
321.47	1718.25
321.69	1771.49
321.90	1656.81
322.11	1648.61
322.32	1722.34
322.54	1845.22
322.75	1603.56
322.96	1871.84
323.18	1656.81
323.39	1603.56
323.60	1742.82
323.81	1816.55
324.03	1636.33
324.24	1693.67
324.45	1742.82
324.66	1687.53
324.88	1771.49
325.09	1730.53
325.30	1693.67
325.52	1595.37
325.73	1689.57
325.94	1615.85
326.15	1601.51
326.37	1683.43
326.58	1761.25
326.79	1779.68
327.00	1578.98
327.22	1714.15
327.43	1708.01
327.64	1652.71
327.85	1763.30
328.07	1644.52
328.28	1818.60
328.49	1679.33
328.70	1691.62
328.92	1685.48
329.13	1673.19
329.34	1716.20
329.55	1796.07
329.76	1818.60
329.98	1689.57
330.19	1765.35
330.40	1744.87
330.61	1677.29
330.83	1824.74
331.04	1660.90
331.25	1701.86
331.46	1705.96
331.68	1587.18
331.89	1748.97
332.10	1726.44
332.31	1632.23
332.52	1697.77
332.74	1789.92
332.95	1658.85
333.16	1640.42
333.37	1712.10
333.58	1650.66
333.80	1626.09
334.01	1595.37
334.22	1748.97
334.43	1576.94
334.64	1654.76
334.86	1628.14
335.07	1701.86
335.28	1675.24
335.49	1574.89
335.70	1701.86
335.92	1779.68
336.13	1865.70
336.34	1777.64
336.55	1708.01
336.76	1726.44
336.98	1636.33
337.19	1736.68
337.40	1765.35
337.61	1865.70
337.82	1705.96
338.04	1820.64
338.25	1630.18
338.46	1775.59
338.67	1691.62
338.88	1671.14
339.09	1697.77
339.31	1767.40
339.52	1566.70
339.73	1722.34
339.94	1658.85
340.15	1738.73
340.36	1658.85
340.58	1730.53
340.79	1683.43
341.00	1746.92
341.21	1742.82
341.42	1873.89
341.63	1705.96
341.85	1781.73
342.06	1761.25
342.27	1638.38
342.48	1761.25
342.69	1662.95
342.90	1705.96
343.12	1722.34
343.33	1712.10
343.54	1748.97
343.75	1732.58
343.96	1712.10
344.17	1671.14
344.38	1736.68
344.60	1714.15
344.81	1742.82
345.02	1646.57
345.23	1697.77
345.44	1796.07
345.65	1806.31
345.86	1757.16
346.07	1708.01
346.29	1740.77
346.50	1808.36
346.71	1677.29
346.92	1763.30
347.13	1828.84
347.34	1697.77
347.55	1691.62
347.76	1724.39
347.98	1662.95
348.19	1675.24
348.40	1798.12
348.61	1724.39
348.82	1796.07
349.03	1753.06
349.24	1675.24
349.45	1738.73
349.66	1546.22
349.88	1730.53
350.09	1648.61
350.30	1812.45
350.51	1738.73
350.72	1753.06
350.93	1769.44
351.14	1734.63
351.35	1742.82
351.56	1699.81
351.77	1738.73
351.99	1710.05
352.20	1796.07
352.41	1730.53
352.62	1669.09
352.83	1693.67
353.04	1724.39
353.25	1681.38
353.46	1767.40
353.67	1824.74
353.88	1619.94
354.09	1759.21
354.30	1730.53
354.52	1697.77
354.73	1685.48
354.94	1765.35
355.15	1746.92
355.36	1859.56
355.57	1691.62
355.78	1695.72
355.99	1708.01
356.20	1685.48
356.41	1791.97
356.62	1759.21
356.83	1695.72
357.04	1716.20
357.25	1662.95
357.46	1724.39
357.68	1665.00
357.89	1599.46
358.10	1667.05
358.31	1660.90
358.52	1781.73
358.73	1667.05
358.94	1708.01
359.15	1599.46
359.36	1730.53
359.57	1722.34
359.78	1710.05
359.99	1748.97
360.20	1662.95
360.41	1648.61
360.62	1767.40
360.83	1740.77
361.04	1695.72
361.25	1775.59
361.46	1849.32
361.67	1746.92
361.88	1619.94
362.09	1773.54
362.30	1683.43
362.51	1632.23
362.72	1679.33
362.93	1730.53
363.14	1673.19
363.35	1730.53
363.56	1621.99
363.78	1718.25
363.99	1746.92
364.20	1660.90
364.41	1701.86
364.62	1734.63
364.83	1636.33
365.04	1636.33
365.25	1746.92
365.46	1873.89
365.67	1658.85
365.88	1615.85
366.09	1683.43
366.30	1656.81
366.51	1722.34
366.72	1712.10
366.93	1726.44
367.14	1697.77
367.35	1757.16
367.56	1796.07
367.77	1771.49
367.98	1691.62
368.18	1734.63
368.39	1789.92
368.60	1654.76
368.81	1765.35
369.02	1677.29
369.23	1671.14
369.44	1568.74
369.65	1818.60
369.86	1665.00
370.07	1779.68
370.28	1701.86
370.49	1748.97
370.70	1773.54
370.91	1626.09
371.12	1595.37
371.33	1849.32
371.54	1730.53
371.75	1826.79
371.96	1480.68
372.17	1714.15
372.38	1644.52
372.59	1716.20
372.80	1687.53
373.01	1695.72
373.22	1773.54
373.43	1712.10
373.64	1628.14
373.85	1783.78
374.06	1718.25
374.26	1738.73
374.47	1744.87
374.68	1812.45
374.89	1681.38
375.10	1734.63
375.31	1791.97
375.52	1718.25
375.73	1769.44
375.94	1607.66
376.15	1896.42
376.36	1673.19
376.57	1662.95
376.78	1681.38
376.99	1716.20
377.20	1798.12
377.40	1667.05
377.61	1732.58
377.82	1626.09
378.03	1822.69
378.24	1691.62
378.45	1712.10
378.66	1697.77
378.87	1605.61
379.08	1642.47
379.29	1640.42
379.50	1765.35
379.71	1777.64
379.91	1714.15
380.12	1714.15
380.33	1714.15
380.54	1736.68
380.75	1712.10
380.96	1802.21
381.17	1802.21
381.38	1722.34
381.59	1667.05
381.80	1755.11
382.00	1896.42
382.21	1748.97
382.42	1742.82
382.63	1869.80
382.84	1820.64
383.05	1744.87
383.26	1751.01
383.47	1714.15
383.68	1753.06
383.88	1695.72
384.09	1757.16
384.30	1791.97
384.51	1669.09
384.72	1658.85
384.93	1609.70
385.14	1714.15
385.35	1722.34
385.55	1638.38
385.76	1820.64
385.97	1701.86
386.18	1609.70
386.39	1662.95
386.60	1689.57
386.81	1734.63
387.02	1665.00
387.22	1630.18
387.43	1851.36
387.64	1751.01
387.85	1841.12
388.06	2226.14
388.27	4333.50
388.48	6680.47
388.68	8198.02
388.89	9641.84
389.10	9946.98
389.31	8443.78
389.52	7718.79
389.73	6596.51
389.93	6320.03
390.14	5984.16
390.35	5183.41
390.56	4532.15
390.77	3823.56
390.98	2981.84
391.18	2541.53
391.39	2242.53
391.60	1888.23
391.81	1902.56
392.02	1689.57
392.23	1886.18
392.43	1742.82
392.64	1802.21
392.85	1755.11
393.06	1755.11
393.27	1658.85
393.47	1699.81
393.68	1753.06
393.89	1701.86
394.10	1822.69
394.31	1771.49
394.52	1724.39
394.72	1701.86
394.93	1796.07
395.14	1656.81
395.35	1722.34
395.56	1699.81
395.76	1783.78
395.97	1802.21
396.18	1884.13
396.39	1875.94
396.60	2041.82
396.80	1902.56
397.01	1828.84
397.22	1738.73
397.43	1771.49
397.64	1798.12
397.84	1834.98
398.05	1828.84
398.26	1753.06
398.47	1830.88
398.67	1748.97
398.88	1726.44
399.09	1746.92
399.30	1681.38
399.51	1783.78
399.71	1632.23
399.92	1650.66
400.13	1779.68
400.34	1673.19
400.54	1716.20
400.75	1845.22
400.96	1771.49
401.17	1783.78
401.37	1755.11
401.58	1673.19
401.79	1748.97
402.00	1832.93
402.21	1988.58
402.41	1890.28
402.62	1974.24
402.83	2015.20
403.04	2043.87
403.24	2031.58
403.45	1863.65
403.66	1902.56
403.87	1812.45
404.07	1824.74
404.28	1847.27
404.49	1853.41
404.70	1785.83
404.90	1787.88
405.11	1730.53
405.32	1734.63
405.52	1654.76
405.73	1658.85
405.94	1636.33
406.15	1748.97
406.35	1798.12
406.56	1746.92
406.77	1740.77
406.98	1779.68
407.18	1734.63
407.39	1722.34
407.60	1740.77
407.80	1785.83
408.01	1640.42
408.22	1710.05
408.43	1644.52
408.63	1675.24
408.84	1767.40
409.05	1757.16
409.25	1697.77
409.46	1677.29
409.67	1632.23
409.88	1714.15
410.08	1785.83
410.29	1763.30
410.50	1767.40
410.70	1650.66
410.91	1740.77
411.12	1738.73
411.32	1712.10
411.53	1685.48
411.74	1845.22
411.95	1746.92
412.15	1783.78
412.36	1820.64
412.57	1806.31
412.77	1771.49
412.98	1746.92
413.19	1771.49
413.39	1789.92
413.60	1738.73
413.81	1828.84
414.01	1665.00
414.22	1828.84
414.43	1783.78
414.63	1673.19
414.84	1748.97
415.05	1785.83
415.25	1615.85
415.46	1769.44
415.67	1705.96
415.87	1701.86
416.08	1738.73
416.29	1632.23
416.49	1789.92
416.70	1726.44
416.91	1638.38
417.11	1687.53
417.32	1718.25
417.53	1701.86
417.73	1767.40
417.94	1675.24
418.15	1767.40
418.35	1703.91
418.56	1720.29
418.77	1839.08
418.97	1642.47
419.18	1787.88
419.38	1560.55
419.59	1718.25
419.80	1853.41
420.00	1716.20
420.21	1806.31
420.42	1781.73
420.62	1755.11
420.83	1701.86
421.04	1667.05
421.24	1667.05
421.45	1765.35
421.65	1771.49
421.86	1695.72
422.07	1701.86
422.27	1746.92
422.48	1701.86
422.69	1724.39
422.89	1679.33
423.10	1658.85
423.30	1648.61
423.51	1769.44
423.72	1710.05
423.92	1722.34
424.13	1615.85
424.33	1718.25
424.54	1742.82
424.75	1732.58
424.95	1873.89
425.16	1771.49
425.36	1648.61
425.57	1724.39
425.78	1744.87
425.98	1769.44
426.19	1636.33
426.39	1644.52
426.60	1761.25
426.81	1748.97
427.01	1746.92
427.22	1691.62
427.42	1603.56
427.63	1703.91
427.83	1861.60
428.04	1777.64
428.25	1841.12
428.45	1787.88
428.66	1779.68
428.86	1726.44
429.07	1632.23
429.28	1720.29
429.48	1812.45
429.69	1697.77
429.89	1744.87
430.10	1671.14
430.30	1714.15
430.51	1781.73
430.71	1624.04
430.92	1714.15
431.13	1769.44
431.33	1736.68
431.54	1720.29
431.74	1841.12
431.95	1834.98
432.15	1607.66
432.36	1734.63
432.56	1767.40
432.77	1812.45
432.98	1851.36
433.18	1712.10
433.39	1730.53
433.59	1681.38
433.80	1785.83
434.00	1828.84
434.21	1708.01
434.41	1621.99
434.62	1886.18
434.82	1705.96
435.03	1691.62
435.23	1761.25
435.44	1667.05
435.64	1748.97
435.85	1779.68
436.06	1818.60
436.26	1783.78
436.47	1732.58
436.67	1673.19
436.88	1654.76
437.08	1767.40
437.29	1808.36
437.49	1759.21
437.70	1837.03
437.90	1730.53
438.11	1849.32
438.31	1779.68
438.52	1890.28
438.72	1849.32
438.93	1912.80
439.13	1851.36
439.34	1802.21
439.54	1738.73
439.75	1767.40
439.95	1794.02
440.16	1767.40
440.36	1763.30
440.57	1751.01
440.77	1755.11
440.98	1796.07
441.18	1785.83
441.39	1634.28
441.59	1673.19
441.80	1837.03
442.00	1832.93
442.21	1787.88
442.41	1656.81
442.62	1859.56
442.82	1640.42
443.02	1734.63
443.23	1789.92
443.43	1740.77
443.64	1806.31
443.84	1656.81
444.05	1742.82
444.25	1705.96
444.46	1691.62
444.66	1738.73
444.87	1730.53
445.07	1626.09
445.28	1796.07
445.48	1761.25
445.69	1806.31
445.89	1818.60
446.09	1785.83
446.30	1955.81
446.50	2615.26
446.71	3700.68
446.91	4282.30
447.12	4655.03
447.32	4892.60
447.53	4341.69
447.73	3876.80
447.93	3452.88
448.14	3354.57
448.34	3196.88
448.55	2910.16
448.75	2863.06
448.96	2703.32
449.16	2439.13
449.36	2320.35
449.57	2076.64
449.77	1970.15
449.98	1744.87
450.18	1841.12
450.39	1820.64
450.59	1771.49
450.79	1728.49
451.00	1699.81
451.20	1800.16
451.41	1796.07
451.61	1769.44
451.81	1769.44
452.02	1748.97
452.22	1699.81
452.43	1705.96
452.63	1789.92
