SpectraSuite Data File
++++++++++++++++++++++++++++++++++++
Date: Mon Jun 06 16:07:17 CEST 2016
User: root
Dark Spectrum Present: No
Reference Spectrum Present: No
Number of Sampled Component Spectra: 1
Spectrometers: USB4C02835
Integration Time (usec): 100000 (USB4C02835)
Spectra Averaged: 1 (USB4C02835)
Boxcar Smoothing: 0 (USB4C02835)
Correct for Electrical Dark: No (USB4C02835)
Strobe/Lamp Enabled: No (USB4C02835)
Correct for Detector Non-linearity: No (USB4C02835)
Correct for Stray Light: No (USB4C02835)
Number of Pixels in Processed Spectrum: 3648
>>>>>Begin Processed Spectral Data<<<<<
177.47	1466.35
177.69	1466.35
177.91	1466.35
178.13	1398.76
178.36	1488.87
178.58	1619.94
178.80	1730.53
179.02	1656.81
179.24	1640.42
179.46	1736.68
179.68	1828.84
179.90	1654.76
180.13	1763.30
180.35	1693.67
180.57	1658.85
180.79	1751.01
181.01	1785.83
181.23	1765.35
181.45	1806.31
181.67	1693.67
181.90	1757.16
182.12	1701.86
182.34	1587.18
182.56	1779.68
182.78	1757.16
183.00	1691.62
183.22	1718.25
183.44	1603.56
183.66	1855.46
183.89	1789.92
184.11	1798.12
184.33	1763.30
184.55	1753.06
184.77	1787.88
184.99	1708.01
185.21	1619.94
185.43	1845.22
185.65	1697.77
185.87	1710.05
186.10	1839.08
186.32	1812.45
186.54	1771.49
186.76	1705.96
186.98	1732.58
187.20	1638.38
187.42	1615.85
187.64	1718.25
187.86	1751.01
188.08	1837.03
188.30	1697.77
188.52	1703.91
188.75	1796.07
188.97	1740.77
189.19	1671.14
189.41	1634.28
189.63	1789.92
189.85	1724.39
190.07	1587.18
190.29	1603.56
190.51	1767.40
190.73	1552.36
190.95	1787.88
191.17	1689.57
191.39	1621.99
191.61	1742.82
191.84	1718.25
192.06	1767.40
192.28	1636.33
192.50	1863.65
192.72	1675.24
192.94	1732.58
193.16	1794.02
193.38	1796.07
193.60	1665.00
193.82	1665.00
194.04	1777.64
194.26	1710.05
194.48	1660.90
194.70	1648.61
194.92	1638.38
195.14	1773.54
195.36	1671.14
195.58	1726.44
195.80	1636.33
196.02	1644.52
196.24	1656.81
196.46	1740.77
196.69	1755.11
196.91	1853.41
197.13	1742.82
197.35	1669.09
197.57	1851.36
197.79	1714.15
198.01	1744.87
198.23	1718.25
198.45	1800.16
198.67	1714.15
198.89	1697.77
199.11	1673.19
199.33	1681.38
199.55	1624.04
199.77	1677.29
199.99	1767.40
200.21	1669.09
200.43	1726.44
200.65	1628.14
200.87	1624.04
201.09	1646.57
201.31	1763.30
201.53	1783.78
201.75	1701.86
201.97	1697.77
202.19	1730.53
202.41	1744.87
202.63	1812.45
202.85	1744.87
203.07	1740.77
203.29	1632.23
203.51	1642.47
203.73	1710.05
203.95	1875.94
204.17	1687.53
204.39	1765.35
204.61	1730.53
204.83	1712.10
205.05	1806.31
205.27	1699.81
205.49	1857.51
205.71	1771.49
205.93	1621.99
206.15	1683.43
206.37	1740.77
206.59	1730.53
206.81	1689.57
207.03	1640.42
207.25	1644.52
207.47	1794.02
207.69	1671.14
207.91	1732.58
208.13	1808.36
208.34	1691.62
208.56	1630.18
208.78	1691.62
209.00	1701.86
209.22	1652.71
209.44	1740.77
209.66	1683.43
209.88	1621.99
210.10	1568.74
210.32	1669.09
210.54	1814.50
210.76	1755.11
210.98	1810.40
211.20	1597.42
211.42	1695.72
211.64	1832.93
211.86	1802.21
212.08	1730.53
212.30	1685.48
212.52	1710.05
212.74	1705.96
212.96	1705.96
213.17	1730.53
213.39	1740.77
213.61	1761.25
213.83	1732.58
214.05	1720.29
214.27	1771.49
214.49	1681.38
214.71	1683.43
214.93	1773.54
215.15	1746.92
215.37	1781.73
215.59	1671.14
215.81	1724.39
216.03	1685.48
216.24	1685.48
216.46	1714.15
216.68	1744.87
216.90	1736.68
217.12	1830.88
217.34	1716.20
217.56	1775.59
217.78	1843.17
218.00	1757.16
218.22	1800.16
218.44	1705.96
218.66	1636.33
218.87	1841.12
219.09	1712.10
219.31	1697.77
219.53	1730.53
219.75	1693.67
219.97	1699.81
220.19	1740.77
220.41	1759.21
220.63	1806.31
220.85	1726.44
221.06	1656.81
221.28	1759.21
221.50	1832.93
221.72	1794.02
221.94	1730.53
222.16	1722.34
222.38	1751.01
222.60	1742.82
222.82	1685.48
223.03	1775.59
223.25	1687.53
223.47	1689.57
223.69	1880.04
223.91	1728.49
224.13	1720.29
224.35	1755.11
224.57	1765.35
224.78	1701.86
225.00	1685.48
225.22	1771.49
225.44	1779.68
225.66	1755.11
225.88	1703.91
226.10	1705.96
226.32	1689.57
226.53	1796.07
226.75	1652.71
226.97	1708.01
227.19	1748.97
227.41	1681.38
227.63	1751.01
227.85	1540.07
228.06	1730.53
228.28	1677.29
228.50	1806.31
228.72	1607.66
228.94	1652.71
229.16	1650.66
229.37	1669.09
229.59	1644.52
229.81	1834.98
230.03	1759.21
230.25	1638.38
230.47	1626.09
230.69	1675.24
230.90	1779.68
231.12	1662.95
231.34	1755.11
231.56	1847.27
231.78	1624.04
232.00	1712.10
232.21	1648.61
232.43	1695.72
232.65	1564.65
232.87	1654.76
233.09	1638.38
233.30	1687.53
233.52	1767.40
233.74	1722.34
233.96	1734.63
234.18	1722.34
234.40	1806.31
234.61	1837.03
234.83	1650.66
235.05	1689.57
235.27	1925.09
235.49	1775.59
235.70	1726.44
235.92	1847.27
236.14	1755.11
236.36	1806.31
236.58	1667.05
236.79	1759.21
237.01	1767.40
237.23	1691.62
237.45	1828.84
237.67	1710.05
237.88	1732.58
238.10	1832.93
238.32	1613.80
238.54	1665.00
238.76	1710.05
238.97	1652.71
239.19	1685.48
239.41	1763.30
239.63	1839.08
239.85	1705.96
240.06	1705.96
240.28	1693.67
240.50	1746.92
240.72	1757.16
240.93	1671.14
241.15	1765.35
241.37	1732.58
241.59	1800.16
241.81	1759.21
242.02	1724.39
242.24	1705.96
242.46	1765.35
242.68	1660.90
242.89	1757.16
243.11	1787.88
243.33	1761.25
243.55	1763.30
243.76	1853.41
243.98	1642.47
244.20	1748.97
244.42	1695.72
244.64	1720.29
244.85	1671.14
245.07	1607.66
245.29	1701.86
245.51	1683.43
245.72	1685.48
245.94	1726.44
246.16	1695.72
246.38	1738.73
246.59	1628.14
246.81	1628.14
247.03	1714.15
247.24	1525.74
247.46	1646.57
247.68	1648.61
247.90	1679.33
248.11	1697.77
248.33	1787.88
248.55	1710.05
248.77	1654.76
248.98	1794.02
249.20	1818.60
249.42	1691.62
249.64	1689.57
249.85	1826.79
250.07	1673.19
250.29	1751.01
250.50	1808.36
250.72	1607.66
250.94	1701.86
251.16	1884.13
251.37	1740.77
251.59	1783.78
251.81	1642.47
252.02	1726.44
252.24	1679.33
252.46	1812.45
252.68	1693.67
252.89	1589.22
253.11	1624.04
253.33	1853.41
253.54	1755.11
253.76	1683.43
253.98	1726.44
254.20	1703.91
254.41	1681.38
254.63	1636.33
254.85	1677.29
255.06	1699.81
255.28	1681.38
255.50	1738.73
255.71	1634.28
255.93	1646.57
256.15	1667.05
256.36	1720.29
256.58	1744.87
256.80	1648.61
257.02	1716.20
257.23	1642.47
257.45	1701.86
257.67	1751.01
257.88	1701.86
258.10	1742.82
258.32	1691.62
258.53	1724.39
258.75	1843.17
258.97	1738.73
259.18	1765.35
259.40	1746.92
259.62	1773.54
259.83	1796.07
260.05	1722.34
260.27	1996.77
260.48	1771.49
260.70	1591.27
260.92	1652.71
261.13	1732.58
261.35	1681.38
261.57	1724.39
261.78	1611.75
262.00	1624.04
262.22	1683.43
262.43	1617.90
262.65	1687.53
262.86	1740.77
263.08	1871.84
263.30	1718.25
263.51	1677.29
263.73	1703.91
263.95	1730.53
264.16	1644.52
264.38	1714.15
264.60	1705.96
264.81	1691.62
265.03	1781.73
265.25	1796.07
265.46	1728.49
265.68	1777.64
265.89	1703.91
266.11	1615.85
266.33	1804.26
266.54	1748.97
266.76	1705.96
266.98	1748.97
267.19	1845.22
267.41	1740.77
267.62	1746.92
267.84	1677.29
268.06	1751.01
268.27	1742.82
268.49	1800.16
268.70	1656.81
268.92	1705.96
269.14	1626.09
269.35	1658.85
269.57	1652.71
269.79	1757.16
270.00	1685.48
270.22	1808.36
270.43	1673.19
270.65	1611.75
270.87	1767.40
271.08	1798.12
271.30	1689.57
271.51	1738.73
271.73	1687.53
271.95	1796.07
272.16	1744.87
272.38	1765.35
272.59	1677.29
272.81	1787.88
273.02	1681.38
273.24	1755.11
273.46	1763.30
273.67	1642.47
273.89	1671.14
274.10	1650.66
274.32	1791.97
274.54	1728.49
274.75	1693.67
274.97	1679.33
275.18	1701.86
275.40	1730.53
275.61	1691.62
275.83	1744.87
276.05	1628.14
276.26	1673.19
276.48	1732.58
276.69	1705.96
276.91	1726.44
277.12	1710.05
277.34	1751.01
277.55	1759.21
277.77	1724.39
277.99	1675.24
278.20	1689.57
278.42	1701.86
278.63	1632.23
278.85	1626.09
279.06	1669.09
279.28	1691.62
279.49	1740.77
279.71	1789.92
279.93	1669.09
280.14	1681.38
280.36	1662.95
280.57	1777.64
280.79	1783.78
281.00	1742.82
281.22	1652.71
281.43	1734.63
281.65	1605.61
281.86	1705.96
282.08	1822.69
282.29	1814.50
282.51	1638.38
282.73	1648.61
282.94	1660.90
283.16	1789.92
283.37	1802.21
283.59	1738.73
283.80	1685.48
284.02	1710.05
284.23	1689.57
284.45	1677.29
284.66	1646.57
284.88	1685.48
285.09	1773.54
285.31	1701.86
285.52	1701.86
285.74	1619.94
285.95	1775.59
286.17	1660.90
286.38	1755.11
286.60	1732.58
286.81	1734.63
287.03	1683.43
287.24	1746.92
287.46	1720.29
287.67	1718.25
287.89	1837.03
288.10	1726.44
288.32	1722.34
288.53	1708.01
288.75	1738.73
288.96	1742.82
289.18	1689.57
289.39	1720.29
289.61	1761.25
289.82	1787.88
290.04	1748.97
290.25	1697.77
290.47	1667.05
290.68	1705.96
290.90	1839.08
291.11	1613.80
291.33	1804.26
291.54	1624.04
291.76	1712.10
291.97	1798.12
292.18	1773.54
292.40	1609.70
292.61	1658.85
292.83	1890.28
293.04	1765.35
293.26	1744.87
293.47	1681.38
293.69	1628.14
293.90	1722.34
294.12	1796.07
294.33	1681.38
294.55	1714.15
294.76	1763.30
294.97	1761.25
295.19	1828.84
295.40	1667.05
295.62	1726.44
295.83	1724.39
296.05	1677.29
296.26	1738.73
296.48	1722.34
296.69	1675.24
296.90	1710.05
297.12	1732.58
297.33	1839.08
297.55	1791.97
297.76	1685.48
297.98	1826.79
298.19	1724.39
298.41	1673.19
298.62	1724.39
298.83	1839.08
299.05	1771.49
299.26	1638.38
299.48	1675.24
299.69	1748.97
299.90	1740.77
300.12	1673.19
300.33	1697.77
300.55	1728.49
300.76	1697.77
300.98	1632.23
301.19	1742.82
301.40	1744.87
301.62	1687.53
301.83	1746.92
302.05	1763.30
302.26	1748.97
302.47	1708.01
302.69	1609.70
302.90	1744.87
303.12	1628.14
303.33	1693.67
303.54	1830.88
303.76	1753.06
303.97	1683.43
304.19	1845.22
304.40	1669.09
304.61	1710.05
304.83	1877.99
305.04	1783.78
305.26	1755.11
305.47	1767.40
305.68	1728.49
305.90	1572.84
306.11	1740.77
306.33	1746.92
306.54	1675.24
306.75	1640.42
306.97	1554.41
307.18	1619.94
307.39	1753.06
307.61	1794.02
307.82	1720.29
308.04	1710.05
308.25	1683.43
308.46	1740.77
308.68	1720.29
308.89	1695.72
309.10	1738.73
309.32	1736.68
309.53	1697.77
309.74	1724.39
309.96	1705.96
310.17	1703.91
310.39	1603.56
310.60	1742.82
310.81	1732.58
311.03	1681.38
311.24	1722.34
311.45	1685.48
311.67	1808.36
311.88	1736.68
312.09	1585.13
312.31	1662.95
312.52	1683.43
312.73	1681.38
312.95	1675.24
313.16	1683.43
313.37	1771.49
313.59	1757.16
313.80	1691.62
314.01	1859.56
314.23	1660.90
314.44	1644.52
314.65	1697.77
314.87	1665.00
315.08	1662.95
315.29	1755.11
315.51	1726.44
315.72	1574.89
315.93	1867.75
316.15	1822.69
316.36	1640.42
316.57	1773.54
316.79	1732.58
317.00	1697.77
317.21	1685.48
317.43	1701.86
317.64	1775.59
317.85	1687.53
318.07	1714.15
318.28	1744.87
318.49	1873.89
318.70	1972.19
318.92	1886.18
319.13	1783.78
319.34	1775.59
319.56	1816.55
319.77	1785.83
319.98	1787.88
320.20	1837.03
320.41	1769.44
320.62	1742.82
320.83	1619.94
321.05	1857.51
321.26	1789.92
321.47	1724.39
321.69	1820.64
321.90	1644.52
322.11	1751.01
322.32	1716.20
322.54	1812.45
322.75	1718.25
322.96	1757.16
323.18	1708.01
323.39	1689.57
323.60	1650.66
323.81	1771.49
324.03	1769.44
324.24	1724.39
324.45	1716.20
324.66	1712.10
324.88	1703.91
325.09	1867.75
325.30	1677.29
325.52	1708.01
325.73	1755.11
325.94	1646.57
326.15	1607.66
326.37	1679.33
326.58	1765.35
326.79	1814.50
327.00	1675.24
327.22	1712.10
327.43	1638.38
327.64	1638.38
327.85	1736.68
328.07	1767.40
328.28	1722.34
328.49	1736.68
328.70	1757.16
328.92	1669.09
329.13	1748.97
329.34	1703.91
329.55	1800.16
329.76	1753.06
329.98	1613.80
330.19	1800.16
330.40	1796.07
330.61	1751.01
330.83	1761.25
331.04	1669.09
331.25	1710.05
331.46	1656.81
331.68	1535.98
331.89	1771.49
332.10	1693.67
332.31	1626.09
332.52	1662.95
332.74	1751.01
332.95	1660.90
333.16	1658.85
333.37	1722.34
333.58	1705.96
333.80	1767.40
334.01	1644.52
334.22	1693.67
334.43	1759.21
334.64	1642.47
334.86	1677.29
335.07	1685.48
335.28	1763.30
335.49	1611.75
335.70	1796.07
335.92	1820.64
336.13	1798.12
336.34	1730.53
336.55	1710.05
336.76	1759.21
336.98	1744.87
337.19	1673.19
337.40	1818.60
337.61	1865.70
337.82	1726.44
338.04	1757.16
338.25	1658.85
338.46	1683.43
338.67	1746.92
338.88	1644.52
339.09	1601.51
339.31	1656.81
339.52	1755.11
339.73	1609.70
339.94	1722.34
340.15	1744.87
340.36	1726.44
340.58	1773.54
340.79	1662.95
341.00	1783.78
341.21	1615.85
341.42	1847.27
341.63	1742.82
341.85	1744.87
342.06	1654.76
342.27	1689.57
342.48	1726.44
342.69	1603.56
342.90	1705.96
343.12	1781.73
343.33	1675.24
343.54	1767.40
343.75	1787.88
343.96	1740.77
344.17	1693.67
344.38	1656.81
344.60	1720.29
344.81	1607.66
345.02	1710.05
345.23	1755.11
345.44	1908.71
345.65	1712.10
345.86	1746.92
346.07	1681.38
346.29	1644.52
346.50	1824.74
346.71	1775.59
346.92	1830.88
347.13	1828.84
347.34	1716.20
347.55	1730.53
347.76	1761.25
347.98	1714.15
348.19	1705.96
348.40	1765.35
348.61	1679.33
348.82	1812.45
349.03	1681.38
349.24	1658.85
349.45	1892.32
349.66	1599.46
349.88	1675.24
350.09	1730.53
350.30	1822.69
350.51	1845.22
350.72	1697.77
350.93	1759.21
351.14	1640.42
351.35	1753.06
351.56	1650.66
351.77	1734.63
351.99	1738.73
352.20	1779.68
352.41	1771.49
352.62	1540.07
352.83	1636.33
353.04	1720.29
353.25	1679.33
353.46	1699.81
353.67	1837.03
353.88	1550.31
354.09	1705.96
354.30	1714.15
354.52	1753.06
354.73	1744.87
354.94	1685.48
355.15	1710.05
355.36	1740.77
355.57	1712.10
355.78	1716.20
355.99	1632.23
356.20	1751.01
356.41	1834.98
356.62	1734.63
356.83	1753.06
357.04	1771.49
357.25	1665.00
357.46	1615.85
357.68	1615.85
357.89	1699.81
358.10	1787.88
358.31	1716.20
358.52	1744.87
358.73	1650.66
358.94	1617.90
359.15	1722.34
359.36	1703.91
359.57	1730.53
359.78	1816.55
359.99	1753.06
360.20	1724.39
360.41	1730.53
360.62	1730.53
360.83	1687.53
361.04	1687.53
361.25	1722.34
361.46	1753.06
361.67	1794.02
361.88	1720.29
362.09	1759.21
362.30	1753.06
362.51	1656.81
362.72	1681.38
362.93	1759.21
363.14	1748.97
363.35	1779.68
363.56	1671.14
363.78	1689.57
363.99	1765.35
364.20	1646.57
364.41	1742.82
364.62	1806.31
364.83	1636.33
365.04	1716.20
365.25	1644.52
365.46	1834.98
365.67	1667.05
365.88	1714.15
366.09	1673.19
366.30	1701.86
366.51	1751.01
366.72	1669.09
366.93	1660.90
367.14	1685.48
367.35	1806.31
367.56	1718.25
367.77	1767.40
367.98	1689.57
368.18	1689.57
368.39	1724.39
368.60	1652.71
368.81	1806.31
369.02	1685.48
369.23	1701.86
369.44	1746.92
369.65	1742.82
369.86	1722.34
370.07	1712.10
370.28	1681.38
370.49	1681.38
370.70	1746.92
370.91	1652.71
371.12	1679.33
371.33	1814.50
371.54	1660.90
371.75	1787.88
371.96	1599.46
372.17	1699.81
372.38	1708.01
372.59	1744.87
372.80	1746.92
373.01	1660.90
373.22	1671.14
373.43	1673.19
373.64	1640.42
373.85	1785.83
374.06	1828.84
374.26	1783.78
374.47	1791.97
374.68	1787.88
374.89	1783.78
375.10	1650.66
375.31	1699.81
375.52	1720.29
375.73	1769.44
375.94	1609.70
376.15	1822.69
376.36	1699.81
376.57	1675.24
376.78	1685.48
376.99	1744.87
377.20	1789.92
377.40	1714.15
377.61	1853.41
377.82	1632.23
378.03	1783.78
378.24	1720.29
378.45	1746.92
378.66	1730.53
378.87	1646.57
379.08	1615.85
379.29	1617.90
379.50	1812.45
379.71	1757.16
379.91	1783.78
380.12	1699.81
380.33	1695.72
380.54	1769.44
380.75	1691.62
380.96	1695.72
381.17	1718.25
381.38	1691.62
381.59	1736.68
381.80	1775.59
382.00	1894.37
382.21	1845.22
382.42	1806.31
382.63	1918.95
382.84	1763.30
383.05	1791.97
383.26	1923.04
383.47	1738.73
383.68	1742.82
383.88	1730.53
384.09	1765.35
384.30	1845.22
384.51	1693.67
384.72	1701.86
384.93	1619.94
385.14	1761.25
385.35	1791.97
385.55	1667.05
385.76	1875.94
385.97	1669.09
386.18	1619.94
386.39	1671.14
386.60	1722.34
386.81	1669.09
387.02	1599.46
387.22	1714.15
387.43	1742.82
387.64	1746.92
387.85	1886.18
388.06	2277.34
388.27	4200.38
388.48	6813.59
388.68	8103.81
388.89	9703.28
389.10	9969.51
389.31	8630.14
389.52	7557.00
389.73	6805.40
389.93	6162.34
390.14	5791.66
390.35	5207.98
390.56	4583.35
390.77	3790.79
390.98	3182.54
391.18	2480.09
391.39	2105.31
391.60	1800.16
391.81	1824.74
392.02	1757.16
392.23	1843.17
392.43	1812.45
392.64	1812.45
392.85	1855.46
393.06	1796.07
393.27	1718.25
393.47	1718.25
393.68	1697.77
393.89	1708.01
394.10	1796.07
394.31	1665.00
394.52	1675.24
394.72	1691.62
394.93	1777.64
395.14	1677.29
395.35	1767.40
395.56	1656.81
395.76	1761.25
395.97	1794.02
396.18	1820.64
396.39	1806.31
396.60	1968.10
396.80	1914.85
397.01	1796.07
397.22	1865.70
397.43	1841.12
397.64	1722.34
397.84	1859.56
398.05	1859.56
398.26	1746.92
398.47	1763.30
398.67	1812.45
398.88	1673.19
399.09	1789.92
399.30	1716.20
399.51	1779.68
399.71	1630.18
399.92	1714.15
400.13	1789.92
400.34	1697.77
400.54	1742.82
400.75	1822.69
400.96	1718.25
401.17	1820.64
401.37	1718.25
401.58	1691.62
401.79	1759.21
402.00	1855.46
402.21	1990.63
402.41	1937.38
402.62	1947.62
402.83	2041.82
403.04	1980.39
403.24	2086.88
403.45	1845.22
403.66	1890.28
403.87	1918.95
404.07	1937.38
404.28	1916.90
404.49	1943.52
404.70	1826.79
404.90	1816.55
405.11	1726.44
405.32	1714.15
405.52	1689.57
405.73	1617.90
405.94	1652.71
406.15	1820.64
406.35	1800.16
406.56	1716.20
406.77	1705.96
406.98	1714.15
407.18	1656.81
407.39	1806.31
407.60	1716.20
407.80	1736.68
408.01	1720.29
408.22	1791.97
408.43	1681.38
408.63	1824.74
408.84	1705.96
409.05	1773.54
409.25	1673.19
409.46	1730.53
409.67	1679.33
409.88	1650.66
410.08	1755.11
410.29	1693.67
410.50	1665.00
410.70	1695.72
410.91	1718.25
411.12	1767.40
411.32	1705.96
411.53	1648.61
411.74	1853.41
411.95	1775.59
412.15	1763.30
412.36	1783.78
412.57	1765.35
412.77	1847.27
412.98	1689.57
413.19	1728.49
413.39	1744.87
413.60	1746.92
413.81	1853.41
414.01	1581.03
414.22	1697.77
414.43	1767.40
414.63	1656.81
414.84	1669.09
415.05	1753.06
415.25	1697.77
415.46	1728.49
415.67	1722.34
415.87	1791.97
416.08	1701.86
416.29	1728.49
416.49	1759.21
416.70	1667.05
416.91	1681.38
417.11	1671.14
417.32	1685.48
417.53	1775.59
417.73	1804.26
417.94	1695.72
418.15	1759.21
418.35	1736.68
418.56	1681.38
418.77	1861.60
418.97	1769.44
419.18	1722.34
419.38	1658.85
419.59	1650.66
419.80	1751.01
420.00	1742.82
420.21	1802.21
420.42	1818.60
420.62	1773.54
420.83	1640.42
421.04	1644.52
421.24	1708.01
421.45	1701.86
421.65	1757.16
421.86	1740.77
422.07	1765.35
422.27	1734.63
422.48	1687.53
422.69	1638.38
422.89	1669.09
423.10	1695.72
423.30	1695.72
423.51	1775.59
423.72	1736.68
423.92	1789.92
424.13	1583.08
424.33	1730.53
424.54	1832.93
424.75	1734.63
424.95	1877.99
425.16	1822.69
425.36	1734.63
425.57	1746.92
425.78	1697.77
425.98	1748.97
426.19	1685.48
426.39	1650.66
426.60	1697.77
426.81	1822.69
427.01	1744.87
427.22	1675.24
427.42	1658.85
427.63	1630.18
427.83	1753.06
428.04	1740.77
428.25	1849.32
428.45	1769.44
428.66	1681.38
428.86	1720.29
429.07	1728.49
429.28	1751.01
429.48	1677.29
429.69	1710.05
429.89	1734.63
430.10	1654.76
430.30	1744.87
430.51	1845.22
430.71	1687.53
430.92	1685.48
431.13	1742.82
431.33	1783.78
431.54	1718.25
431.74	1816.55
431.95	1847.27
432.15	1701.86
432.36	1751.01
432.56	1767.40
432.77	1816.55
432.98	1812.45
433.18	1757.16
433.39	1734.63
433.59	1685.48
433.80	1843.17
434.00	1847.27
434.21	1681.38
434.41	1720.29
434.62	1918.95
434.82	1701.86
435.03	1665.00
435.23	1755.11
435.44	1703.91
435.64	1714.15
435.85	1726.44
436.06	1806.31
436.26	1789.92
436.47	1767.40
436.67	1724.39
436.88	1665.00
437.08	1740.77
437.29	1804.26
437.49	1738.73
437.70	1736.68
437.90	1738.73
438.11	1896.42
438.31	1849.32
438.52	1859.56
438.72	1828.84
438.93	1867.75
439.13	1779.68
439.34	1937.38
439.54	1763.30
439.75	1861.60
439.95	1861.60
440.16	1755.11
440.36	1769.44
440.57	1734.63
440.77	1773.54
440.98	1769.44
441.18	1703.91
441.39	1716.20
441.59	1685.48
441.80	1826.79
442.00	1761.25
442.21	1789.92
442.41	1763.30
442.62	1783.78
442.82	1689.57
443.02	1726.44
443.23	1773.54
443.43	1720.29
443.64	1757.16
443.84	1697.77
444.05	1849.32
444.25	1765.35
444.46	1710.05
444.66	1759.21
444.87	1834.98
445.07	1546.22
445.28	1714.15
445.48	1769.44
445.69	1818.60
445.89	1945.57
446.09	1773.54
446.30	1976.29
446.50	2611.16
446.71	3721.16
446.91	4343.74
447.12	4695.99
447.32	4825.01
447.53	4167.62
447.73	3909.57
447.93	3542.99
448.14	3340.24
448.34	3221.45
448.55	2850.77
448.75	2877.40
448.96	2639.83
449.16	2506.71
449.36	2263.01
449.57	2054.11
449.77	1886.18
449.98	1796.07
450.18	1837.03
450.39	1882.08
450.59	1806.31
450.79	1748.97
451.00	1728.49
451.20	1822.69
451.41	1769.44
451.61	1695.72
451.81	1738.73
452.02	1738.73
452.22	1732.58
452.43	1722.34
452.63	1689.57
