SpectraSuite Data File
++++++++++++++++++++++++++++++++++++
Date: Mon Jun 06 16:46:37 CEST 2016
User: root
Dark Spectrum Present: No
Reference Spectrum Present: No
Number of Sampled Component Spectra: 1
Spectrometers: USB4C02835
Integration Time (usec): 100000 (USB4C02835)
Spectra Averaged: 1 (USB4C02835)
Boxcar Smoothing: 0 (USB4C02835)
Correct for Electrical Dark: No (USB4C02835)
Strobe/Lamp Enabled: No (USB4C02835)
Correct for Detector Non-linearity: No (USB4C02835)
Correct for Stray Light: No (USB4C02835)
Number of Pixels in Processed Spectrum: 3648
>>>>>Begin Processed Spectral Data<<<<<
177.47	1490.92
177.69	1490.92
177.91	1490.92
178.13	1468.39
178.36	1476.59
178.58	1654.76
178.80	1755.11
179.02	1636.33
179.24	1669.09
179.46	1689.57
179.68	1755.11
179.90	1751.01
180.13	1685.48
180.35	1671.14
180.57	1669.09
180.79	1755.11
181.01	1736.68
181.23	1742.82
181.45	1757.16
181.67	1703.91
181.90	1734.63
182.12	1683.43
182.34	1566.70
182.56	1716.20
182.78	1765.35
183.00	1695.72
183.22	1722.34
183.44	1640.42
183.66	1890.28
183.89	1785.83
184.11	1759.21
184.33	1728.49
184.55	1753.06
184.77	1742.82
184.99	1675.24
185.21	1730.53
185.43	1834.98
185.65	1740.77
185.87	1722.34
186.10	1771.49
186.32	1804.26
186.54	1755.11
186.76	1740.77
186.98	1740.77
187.20	1730.53
187.42	1697.77
187.64	1708.01
187.86	1720.29
188.08	1648.61
188.30	1701.86
188.52	1685.48
188.75	1775.59
188.97	1798.12
189.19	1691.62
189.41	1757.16
189.63	1751.01
189.85	1722.34
190.07	1640.42
190.29	1683.43
190.51	1697.77
190.73	1630.18
190.95	1757.16
191.17	1665.00
191.39	1607.66
191.61	1683.43
191.84	1716.20
192.06	1689.57
192.28	1691.62
192.50	1886.18
192.72	1673.19
192.94	1755.11
193.16	1730.53
193.38	1779.68
193.60	1712.10
193.82	1652.71
194.04	1753.06
194.26	1753.06
194.48	1751.01
194.70	1699.81
194.92	1652.71
195.14	1777.64
195.36	1742.82
195.58	1658.85
195.80	1685.48
196.02	1681.38
196.24	1695.72
196.46	1773.54
196.69	1644.52
196.91	1855.46
197.13	1744.87
197.35	1677.29
197.57	1830.88
197.79	1710.05
198.01	1675.24
198.23	1800.16
198.45	1769.44
198.67	1671.14
198.89	1710.05
199.11	1716.20
199.33	1660.90
199.55	1572.84
199.77	1681.38
199.99	1746.92
200.21	1677.29
200.43	1718.25
200.65	1587.18
200.87	1552.36
201.09	1771.49
201.31	1705.96
201.53	1732.58
201.75	1689.57
201.97	1746.92
202.19	1691.62
202.41	1755.11
202.63	1859.56
202.85	1787.88
203.07	1722.34
203.29	1658.85
203.51	1585.13
203.73	1705.96
203.95	1859.56
204.17	1761.25
204.39	1769.44
204.61	1697.77
204.83	1691.62
205.05	1722.34
205.27	1781.73
205.49	1785.83
205.71	1644.52
205.93	1636.33
206.15	1681.38
206.37	1708.01
206.59	1742.82
206.81	1685.48
207.03	1689.57
207.25	1613.80
207.47	1787.88
207.69	1755.11
207.91	1763.30
208.13	1822.69
208.34	1638.38
208.56	1617.90
208.78	1738.73
209.00	1636.33
209.22	1681.38
209.44	1705.96
209.66	1791.97
209.88	1665.00
210.10	1619.94
210.32	1755.11
210.54	1714.15
210.76	1681.38
210.98	1812.45
211.20	1566.70
211.42	1742.82
211.64	1810.40
211.86	1724.39
212.08	1738.73
212.30	1746.92
212.52	1662.95
212.74	1769.44
212.96	1722.34
213.17	1759.21
213.39	1726.44
213.61	1798.12
213.83	1736.68
214.05	1597.42
214.27	1791.97
214.49	1624.04
214.71	1695.72
214.93	1820.64
215.15	1658.85
215.37	1812.45
215.59	1650.66
215.81	1650.66
216.03	1746.92
216.24	1652.71
216.46	1767.40
216.68	1726.44
216.90	1677.29
217.12	1843.17
217.34	1789.92
217.56	1816.55
217.78	1804.26
218.00	1699.81
218.22	1646.57
218.44	1791.97
218.66	1701.86
218.87	1791.97
219.09	1587.18
219.31	1755.11
219.53	1738.73
219.75	1671.14
219.97	1699.81
220.19	1705.96
220.41	1667.05
220.63	1812.45
220.85	1697.77
221.06	1681.38
221.28	1830.88
221.50	1703.91
221.72	1660.90
221.94	1765.35
222.16	1732.58
222.38	1714.15
222.60	1751.01
222.82	1705.96
223.03	1728.49
223.25	1632.23
223.47	1812.45
223.69	1808.36
223.91	1800.16
224.13	1714.15
224.35	1718.25
224.57	1800.16
224.78	1796.07
225.00	1662.95
225.22	1681.38
225.44	1683.43
225.66	1757.16
225.88	1697.77
226.10	1757.16
226.32	1710.05
226.53	1800.16
226.75	1697.77
226.97	1705.96
227.19	1785.83
227.41	1673.19
227.63	1693.67
227.85	1658.85
228.06	1624.04
228.28	1722.34
228.50	1712.10
228.72	1693.67
228.94	1763.30
229.16	1562.60
229.37	1619.94
229.59	1652.71
229.81	1808.36
230.03	1730.53
230.25	1701.86
230.47	1665.00
230.69	1554.41
230.90	1767.40
231.12	1732.58
231.34	1755.11
231.56	1753.06
231.78	1748.97
232.00	1658.85
232.21	1626.09
232.43	1718.25
232.65	1662.95
232.87	1746.92
233.09	1656.81
233.30	1665.00
233.52	1705.96
233.74	1748.97
233.96	1679.33
234.18	1779.68
234.40	1656.81
234.61	1853.41
234.83	1595.37
235.05	1615.85
235.27	1871.84
235.49	1789.92
235.70	1732.58
235.92	1796.07
236.14	1703.91
236.36	1849.32
236.58	1667.05
236.79	1765.35
237.01	1703.91
237.23	1718.25
237.45	1820.64
237.67	1652.71
237.88	1644.52
238.10	1755.11
238.32	1607.66
238.54	1746.92
238.76	1648.61
238.97	1669.09
239.19	1685.48
239.41	1734.63
239.63	1742.82
239.85	1712.10
240.06	1679.33
240.28	1730.53
240.50	1755.11
240.72	1824.74
240.93	1740.77
241.15	1781.73
241.37	1703.91
241.59	1834.98
241.81	1615.85
242.02	1687.53
242.24	1726.44
242.46	1781.73
242.68	1736.68
242.89	1730.53
243.11	1746.92
243.33	1626.09
243.55	1755.11
243.76	1765.35
243.98	1660.90
244.20	1693.67
244.42	1742.82
244.64	1683.43
244.85	1630.18
245.07	1626.09
245.29	1771.49
245.51	1763.30
245.72	1746.92
245.94	1796.07
246.16	1773.54
246.38	1730.53
246.59	1685.48
246.81	1642.47
247.03	1771.49
247.24	1529.83
247.46	1767.40
247.68	1718.25
247.90	1669.09
248.11	1658.85
248.33	1820.64
248.55	1695.72
248.77	1667.05
248.98	1779.68
249.20	1738.73
249.42	1675.24
249.64	1693.67
249.85	1732.58
250.07	1650.66
250.29	1710.05
250.50	1794.02
250.72	1624.04
250.94	1771.49
251.16	1818.60
251.37	1787.88
251.59	1646.57
251.81	1703.91
252.02	1800.16
252.24	1671.14
252.46	1841.12
252.68	1681.38
252.89	1658.85
253.11	1609.70
253.33	1781.73
253.54	1779.68
253.76	1619.94
253.98	1703.91
254.20	1714.15
254.41	1636.33
254.63	1687.53
254.85	1615.85
255.06	1742.82
255.28	1738.73
255.50	1705.96
255.71	1617.90
255.93	1675.24
256.15	1673.19
256.36	1701.86
256.58	1740.77
256.80	1673.19
257.02	1691.62
257.23	1656.81
257.45	1693.67
257.67	1794.02
257.88	1697.77
258.10	1781.73
258.32	1759.21
258.53	1708.01
258.75	1816.55
258.97	1732.58
259.18	1685.48
259.40	1773.54
259.62	1865.70
259.83	1818.60
260.05	1761.25
260.27	1992.67
260.48	1757.16
260.70	1576.94
260.92	1636.33
261.13	1746.92
261.35	1681.38
261.57	1775.59
261.78	1646.57
262.00	1677.29
262.22	1689.57
262.43	1671.14
262.65	1677.29
262.86	1701.86
263.08	1902.56
263.30	1718.25
263.51	1667.05
263.73	1683.43
263.95	1820.64
264.16	1671.14
264.38	1656.81
264.60	1740.77
264.81	1667.05
265.03	1716.20
265.25	1802.21
265.46	1716.20
265.68	1730.53
265.89	1691.62
266.11	1656.81
266.33	1802.21
266.54	1734.63
266.76	1695.72
266.98	1738.73
267.19	1798.12
267.41	1759.21
267.62	1724.39
267.84	1658.85
268.06	1734.63
268.27	1732.58
268.49	1822.69
268.70	1761.25
268.92	1738.73
269.14	1671.14
269.35	1718.25
269.57	1689.57
269.79	1732.58
270.00	1689.57
270.22	1712.10
270.43	1683.43
270.65	1624.04
270.87	1740.77
271.08	1751.01
271.30	1775.59
271.51	1724.39
271.73	1714.15
271.95	1828.84
272.16	1695.72
272.38	1787.88
272.59	1665.00
272.81	1757.16
273.02	1708.01
273.24	1687.53
273.46	1671.14
273.67	1675.24
273.89	1757.16
274.10	1693.67
274.32	1734.63
274.54	1640.42
274.75	1751.01
274.97	1675.24
275.18	1714.15
275.40	1755.11
275.61	1669.09
275.83	1671.14
276.05	1671.14
276.26	1656.81
276.48	1736.68
276.69	1669.09
276.91	1671.14
277.12	1785.83
277.34	1755.11
277.55	1763.30
277.77	1744.87
277.99	1681.38
278.20	1581.03
278.42	1630.18
278.63	1644.52
278.85	1652.71
279.06	1640.42
279.28	1753.06
279.49	1787.88
279.71	1787.88
279.93	1787.88
280.14	1746.92
280.36	1662.95
280.57	1783.78
280.79	1753.06
281.00	1630.18
281.22	1650.66
281.43	1789.92
281.65	1611.75
281.86	1587.18
282.08	1773.54
282.29	1851.36
282.51	1613.80
282.73	1628.14
282.94	1662.95
283.16	1757.16
283.37	1746.92
283.59	1646.57
283.80	1757.16
284.02	1755.11
284.23	1689.57
284.45	1638.38
284.66	1685.48
284.88	1687.53
285.09	1783.78
285.31	1779.68
285.52	1720.29
285.74	1640.42
285.95	1771.49
286.17	1716.20
286.38	1804.26
286.60	1665.00
286.81	1722.34
287.03	1722.34
287.24	1705.96
287.46	1730.53
287.67	1744.87
287.89	1857.51
288.10	1701.86
288.32	1708.01
288.53	1763.30
288.75	1802.21
288.96	1728.49
289.18	1671.14
289.39	1716.20
289.61	1781.73
289.82	1839.08
290.04	1834.98
290.25	1652.71
290.47	1667.05
290.68	1667.05
290.90	1796.07
291.11	1687.53
291.33	1789.92
291.54	1632.23
291.76	1740.77
291.97	1791.97
292.18	1724.39
292.40	1689.57
292.61	1705.96
292.83	1867.75
293.04	1738.73
293.26	1753.06
293.47	1740.77
293.69	1656.81
293.90	1677.29
294.12	1802.21
294.33	1683.43
294.55	1714.15
294.76	1814.50
294.97	1796.07
295.19	1824.74
295.40	1693.67
295.62	1708.01
295.83	1763.30
296.05	1712.10
296.26	1779.68
296.48	1669.09
296.69	1681.38
296.90	1740.77
297.12	1849.32
297.33	1765.35
297.55	1716.20
297.76	1738.73
297.98	1736.68
298.19	1644.52
298.41	1720.29
298.62	1667.05
298.83	1822.69
299.05	1773.54
299.26	1679.33
299.48	1693.67
299.69	1798.12
299.90	1708.01
300.12	1669.09
300.33	1781.73
300.55	1779.68
300.76	1695.72
300.98	1587.18
301.19	1722.34
301.40	1724.39
301.62	1732.58
301.83	1705.96
302.05	1769.44
302.26	1656.81
302.47	1695.72
302.69	1624.04
302.90	1726.44
303.12	1570.79
303.33	1751.01
303.54	1875.94
303.76	1621.99
303.97	1724.39
304.19	1812.45
304.40	1665.00
304.61	1763.30
304.83	1787.88
305.04	1720.29
305.26	1691.62
305.47	1691.62
305.68	1701.86
305.90	1648.61
306.11	1773.54
306.33	1726.44
306.54	1650.66
306.75	1701.86
306.97	1644.52
307.18	1630.18
307.39	1689.57
307.61	1798.12
307.82	1767.40
308.04	1724.39
308.25	1656.81
308.46	1701.86
308.68	1724.39
308.89	1705.96
309.10	1751.01
309.32	1689.57
309.53	1703.91
309.74	1703.91
309.96	1630.18
310.17	1789.92
310.39	1621.99
310.60	1712.10
310.81	1701.86
311.03	1652.71
311.24	1769.44
311.45	1724.39
311.67	1822.69
311.88	1742.82
312.09	1667.05
312.31	1665.00
312.52	1714.15
312.73	1687.53
312.95	1615.85
313.16	1650.66
313.37	1841.12
313.59	1697.77
313.80	1787.88
314.01	1841.12
314.23	1660.90
314.44	1675.24
314.65	1697.77
314.87	1681.38
315.08	1679.33
315.29	1740.77
315.51	1656.81
315.72	1677.29
315.93	1761.25
316.15	1755.11
316.36	1673.19
316.57	1697.77
316.79	1748.97
317.00	1742.82
317.21	1720.29
317.43	1617.90
317.64	1699.81
317.85	1693.67
318.07	1669.09
318.28	1732.58
318.49	1787.88
318.70	1888.23
318.92	1714.15
319.13	1853.41
319.34	1769.44
319.56	1867.75
319.77	1832.93
319.98	1812.45
320.20	1773.54
320.41	1781.73
320.62	1781.73
320.83	1578.98
321.05	1906.66
321.26	1714.15
321.47	1673.19
321.69	1746.92
321.90	1726.44
322.11	1669.09
322.32	1685.48
322.54	1779.68
322.75	1705.96
322.96	1822.69
323.18	1640.42
323.39	1550.31
323.60	1681.38
323.81	1787.88
324.03	1701.86
324.24	1742.82
324.45	1638.38
324.66	1714.15
324.88	1773.54
325.09	1787.88
325.30	1753.06
325.52	1724.39
325.73	1691.62
325.94	1628.14
326.15	1599.46
326.37	1681.38
326.58	1789.92
326.79	1845.22
327.00	1669.09
327.22	1769.44
327.43	1650.66
327.64	1662.95
327.85	1710.05
328.07	1787.88
328.28	1728.49
328.49	1742.82
328.70	1722.34
328.92	1640.42
329.13	1705.96
329.34	1730.53
329.55	1763.30
329.76	1771.49
329.98	1619.94
330.19	1726.44
330.40	1669.09
330.61	1751.01
330.83	1755.11
331.04	1617.90
331.25	1716.20
331.46	1726.44
331.68	1624.04
331.89	1818.60
332.10	1644.52
332.31	1636.33
332.52	1669.09
332.74	1794.02
332.95	1642.47
333.16	1675.24
333.37	1742.82
333.58	1712.10
333.80	1613.80
334.01	1632.23
334.22	1621.99
334.43	1667.05
334.64	1691.62
334.86	1630.18
335.07	1687.53
335.28	1796.07
335.49	1638.38
335.70	1736.68
335.92	1789.92
336.13	1839.08
336.34	1789.92
336.55	1685.48
336.76	1722.34
336.98	1576.94
337.19	1744.87
337.40	1814.50
337.61	1796.07
337.82	1732.58
338.04	1755.11
338.25	1632.23
338.46	1642.47
338.67	1757.16
338.88	1710.05
339.09	1626.09
339.31	1685.48
339.52	1605.61
339.73	1740.77
339.94	1744.87
340.15	1769.44
340.36	1742.82
340.58	1650.66
340.79	1648.61
341.00	1720.29
341.21	1718.25
341.42	1794.02
341.63	1722.34
341.85	1765.35
342.06	1759.21
342.27	1632.23
342.48	1759.21
342.69	1628.14
342.90	1748.97
343.12	1681.38
343.33	1730.53
343.54	1763.30
343.75	1810.40
343.96	1777.64
344.17	1642.47
344.38	1621.99
344.60	1619.94
344.81	1728.49
345.02	1744.87
345.23	1746.92
345.44	1798.12
345.65	1710.05
345.86	1693.67
346.07	1718.25
346.29	1662.95
346.50	1675.24
346.71	1697.77
346.92	1812.45
347.13	1871.84
347.34	1677.29
347.55	1687.53
347.76	1656.81
347.98	1732.58
348.19	1718.25
348.40	1828.84
348.61	1712.10
348.82	1781.73
349.03	1822.69
349.24	1632.23
349.45	1826.79
349.66	1681.38
349.88	1714.15
350.09	1656.81
350.30	1787.88
350.51	1763.30
350.72	1761.25
350.93	1759.21
351.14	1748.97
351.35	1794.02
351.56	1705.96
351.77	1656.81
351.99	1662.95
352.20	1812.45
352.41	1740.77
352.62	1609.70
352.83	1685.48
353.04	1703.91
353.25	1720.29
353.46	1689.57
353.67	1845.22
353.88	1601.51
354.09	1759.21
354.30	1689.57
354.52	1671.14
354.73	1718.25
354.94	1628.14
355.15	1705.96
355.36	1837.03
355.57	1724.39
355.78	1722.34
355.99	1705.96
356.20	1732.58
356.41	1800.16
356.62	1742.82
356.83	1669.09
357.04	1767.40
357.25	1660.90
357.46	1759.21
357.68	1685.48
357.89	1628.14
358.10	1630.18
358.31	1695.72
358.52	1691.62
358.73	1603.56
358.94	1679.33
359.15	1705.96
359.36	1640.42
359.57	1726.44
359.78	1669.09
359.99	1728.49
360.20	1683.43
360.41	1652.71
360.62	1753.06
360.83	1710.05
361.04	1804.26
361.25	1769.44
361.46	1742.82
361.67	1693.67
361.88	1693.67
362.09	1789.92
362.30	1724.39
362.51	1708.01
362.72	1701.86
362.93	1796.07
363.14	1708.01
363.35	1722.34
363.56	1640.42
363.78	1751.01
363.99	1779.68
364.20	1681.38
364.41	1687.53
364.62	1755.11
364.83	1867.75
365.04	1634.28
365.25	1691.62
365.46	1765.35
365.67	1673.19
365.88	1656.81
366.09	1748.97
366.30	1701.86
366.51	1763.30
366.72	1716.20
366.93	1714.15
367.14	1753.06
367.35	1718.25
367.56	1687.53
367.77	1863.65
367.98	1714.15
368.18	1755.11
368.39	1677.29
368.60	1691.62
368.81	1789.92
369.02	1757.16
369.23	1660.90
369.44	1634.28
369.65	1642.47
369.86	1644.52
370.07	1746.92
370.28	1564.65
370.49	1777.64
370.70	1771.49
370.91	1613.80
371.12	1613.80
371.33	1701.86
371.54	1701.86
371.75	1794.02
371.96	1708.01
372.17	1765.35
372.38	1763.30
372.59	1691.62
372.80	1710.05
373.01	1710.05
373.22	1761.25
373.43	1642.47
373.64	1587.18
373.85	1775.59
374.06	1832.93
374.26	1753.06
374.47	1832.93
374.68	1781.73
374.89	1730.53
375.10	1671.14
375.31	1777.64
375.52	1679.33
375.73	1730.53
375.94	1675.24
376.15	1830.88
376.36	1710.05
376.57	1624.04
376.78	1597.42
376.99	1773.54
377.20	1781.73
377.40	1740.77
377.61	1824.74
377.82	1599.46
378.03	1777.64
378.24	1732.58
378.45	1675.24
378.66	1789.92
378.87	1640.42
379.08	1710.05
379.29	1640.42
379.50	1791.97
379.71	1679.33
379.91	1763.30
380.12	1695.72
380.33	1718.25
380.54	1742.82
380.75	1677.29
380.96	1683.43
381.17	1742.82
381.38	1712.10
381.59	1728.49
381.80	1814.50
382.00	1775.59
382.21	1757.16
382.42	1761.25
382.63	1886.18
382.84	1781.73
383.05	1765.35
383.26	1873.89
383.47	1660.90
383.68	1671.14
383.88	1738.73
384.09	1767.40
384.30	1906.66
384.51	1693.67
384.72	1712.10
384.93	1697.77
385.14	1662.95
385.35	1726.44
385.55	1628.14
385.76	1718.25
385.97	1665.00
386.18	1650.66
386.39	1724.39
386.60	1722.34
386.81	1691.62
387.02	1701.86
387.22	1642.47
387.43	1775.59
387.64	1785.83
387.85	1828.84
388.06	2197.47
388.27	4327.36
388.48	6854.55
388.68	8214.40
388.89	9731.95
389.10	9824.11
389.31	8849.27
389.52	7542.67
389.73	6834.07
389.93	6123.43
390.14	5908.39
390.35	5201.84
390.56	4519.87
390.77	3827.65
390.98	3028.95
391.18	2607.06
391.39	2136.03
391.60	1847.27
391.81	1877.99
392.02	1701.86
392.23	1865.70
392.43	1746.92
392.64	1814.50
392.85	1675.24
393.06	1808.36
393.27	1705.96
393.47	1658.85
393.68	1789.92
393.89	1806.31
394.10	1822.69
394.31	1757.16
394.52	1671.14
394.72	1667.05
394.93	1769.44
395.14	1677.29
395.35	1800.16
395.56	1669.09
395.76	1765.35
395.97	1804.26
396.18	1781.73
396.39	1791.97
396.60	1998.82
396.80	1982.43
397.01	1886.18
397.22	1871.84
397.43	1826.79
397.64	1765.35
397.84	1859.56
398.05	1834.98
398.26	1748.97
398.47	1806.31
398.67	1863.65
398.88	1677.29
399.09	1755.11
399.30	1736.68
399.51	1726.44
399.71	1705.96
399.92	1744.87
400.13	1753.06
400.34	1626.09
400.54	1751.01
400.75	1818.60
400.96	1732.58
401.17	1855.46
401.37	1724.39
401.58	1710.05
401.79	1808.36
402.00	1791.97
402.21	2011.11
402.41	1976.29
402.62	1976.29
402.83	2062.30
403.04	2007.01
403.24	1996.77
403.45	1751.01
403.66	1916.90
403.87	1894.37
404.07	1947.62
404.28	1871.84
404.49	1910.75
404.70	1761.25
404.90	1718.25
405.11	1806.31
405.32	1771.49
405.52	1705.96
405.73	1667.05
405.94	1685.48
406.15	1658.85
406.35	1710.05
406.56	1746.92
406.77	1701.86
406.98	1779.68
407.18	1691.62
407.39	1804.26
407.60	1626.09
407.80	1785.83
408.01	1722.34
408.22	1757.16
408.43	1753.06
408.63	1677.29
408.84	1755.11
409.05	1658.85
409.25	1728.49
409.46	1683.43
409.67	1650.66
409.88	1673.19
410.08	1689.57
410.29	1714.15
410.50	1656.81
410.70	1716.20
410.91	1638.38
411.12	1718.25
411.32	1783.78
411.53	1660.90
411.74	1738.73
411.95	1761.25
412.15	1794.02
412.36	1818.60
412.57	1824.74
412.77	1777.64
412.98	1800.16
413.19	1687.53
413.39	1742.82
413.60	1771.49
413.81	1796.07
414.01	1716.20
414.22	1775.59
414.43	1728.49
414.63	1712.10
414.84	1822.69
415.05	1734.63
415.25	1621.99
415.46	1744.87
415.67	1736.68
415.87	1753.06
416.08	1759.21
416.29	1667.05
416.49	1746.92
416.70	1656.81
416.91	1652.71
417.11	1718.25
417.32	1779.68
417.53	1773.54
417.73	1673.19
417.94	1705.96
418.15	1716.20
418.35	1761.25
418.56	1738.73
418.77	1847.27
418.97	1810.40
419.18	1705.96
419.38	1615.85
419.59	1740.77
419.80	1826.79
420.00	1675.24
420.21	1714.15
420.42	1705.96
420.62	1806.31
420.83	1722.34
421.04	1769.44
421.24	1681.38
421.45	1703.91
421.65	1755.11
421.86	1679.33
422.07	1769.44
422.27	1755.11
422.48	1810.40
422.69	1699.81
422.89	1740.77
423.10	1652.71
423.30	1665.00
423.51	1718.25
423.72	1751.01
423.92	1730.53
424.13	1648.61
424.33	1730.53
424.54	1734.63
424.75	1710.05
424.95	1828.84
425.16	1783.78
425.36	1787.88
425.57	1695.72
425.78	1708.01
425.98	1773.54
426.19	1724.39
426.39	1613.80
426.60	1671.14
426.81	1804.26
427.01	1730.53
427.22	1673.19
427.42	1660.90
427.63	1630.18
427.83	1753.06
428.04	1791.97
428.25	1814.50
428.45	1796.07
428.66	1787.88
428.86	1669.09
429.07	1753.06
429.28	1734.63
429.48	1693.67
429.69	1703.91
429.89	1742.82
430.10	1667.05
430.30	1693.67
430.51	1787.88
430.71	1665.00
430.92	1732.58
431.13	1677.29
431.33	1744.87
431.54	1662.95
431.74	1744.87
431.95	1812.45
432.15	1601.51
432.36	1689.57
432.56	1703.91
432.77	1832.93
432.98	1814.50
433.18	1755.11
433.39	1681.38
433.59	1630.18
433.80	1810.40
434.00	1851.36
434.21	1609.70
434.41	1691.62
434.62	1894.37
434.82	1671.14
435.03	1718.25
435.23	1759.21
435.44	1591.27
435.64	1720.29
435.85	1705.96
436.06	1767.40
436.26	1818.60
436.47	1679.33
436.67	1671.14
436.88	1744.87
437.08	1863.65
437.29	1787.88
437.49	1789.92
437.70	1732.58
437.90	1732.58
438.11	1867.75
438.31	1861.60
438.52	1789.92
438.72	1873.89
438.93	1927.14
439.13	1798.12
439.34	1845.22
439.54	1738.73
439.75	1861.60
439.95	1767.40
440.16	1708.01
440.36	1783.78
440.57	1824.74
440.77	1738.73
440.98	1769.44
441.18	1720.29
441.39	1714.15
441.59	1708.01
441.80	1830.88
442.00	1732.58
442.21	1732.58
442.41	1640.42
442.62	1730.53
442.82	1732.58
443.02	1714.15
443.23	1808.36
443.43	1775.59
443.64	1773.54
443.84	1576.94
444.05	1814.50
444.25	1761.25
444.46	1708.01
444.66	1779.68
444.87	1738.73
445.07	1693.67
445.28	1710.05
445.48	1853.41
445.69	1804.26
445.89	1845.22
446.09	1744.87
446.30	2017.25
446.50	2666.46
446.71	3727.30
446.91	4300.73
447.12	4753.34
447.32	4892.60
447.53	4310.97
447.73	3913.67
447.93	3518.41
448.14	3280.85
448.34	3270.61
448.55	3008.47
448.75	2834.39
448.96	2713.56
449.16	2527.19
449.36	2353.12
449.57	2099.17
449.77	1939.43
449.98	1812.45
450.18	1822.69
450.39	1843.17
450.59	1818.60
450.79	1769.44
451.00	1705.96
451.20	1796.07
451.41	1736.68
451.61	1787.88
451.81	1687.53
452.02	1669.09
452.22	1697.77
452.43	1753.06
452.63	1722.34
