SpectraSuite Data File
++++++++++++++++++++++++++++++++++++
Date: Mon Jun 06 15:13:37 CEST 2016
User: root
Dark Spectrum Present: No
Reference Spectrum Present: No
Number of Sampled Component Spectra: 1
Spectrometers: USB4C02835
Integration Time (usec): 100000 (USB4C02835)
Spectra Averaged: 1 (USB4C02835)
Boxcar Smoothing: 0 (USB4C02835)
Correct for Electrical Dark: No (USB4C02835)
Strobe/Lamp Enabled: No (USB4C02835)
Correct for Detector Non-linearity: No (USB4C02835)
Correct for Stray Light: No (USB4C02835)
Number of Pixels in Processed Spectrum: 3648
>>>>>Begin Processed Spectral Data<<<<<
177.47	1460.20
177.69	1460.20
177.91	1460.20
178.13	1406.95
178.36	1419.24
178.58	1624.04
178.80	1654.76
179.02	1667.05
179.24	1648.61
179.46	1632.23
179.68	1746.92
179.90	1746.92
180.13	1740.77
180.35	1634.28
180.57	1689.57
180.79	1687.53
181.01	1728.49
181.23	1736.68
181.45	1738.73
181.67	1712.10
181.90	1763.30
182.12	1558.50
182.34	1656.81
182.56	1697.77
182.78	1714.15
183.00	1773.54
183.22	1726.44
183.44	1662.95
183.66	1820.64
183.89	1798.12
184.11	1751.01
184.33	1751.01
184.55	1744.87
184.77	1816.55
184.99	1677.29
185.21	1673.19
185.43	1857.51
185.65	1708.01
185.87	1699.81
186.10	1849.32
186.32	1746.92
186.54	1759.21
186.76	1773.54
186.98	1746.92
187.20	1660.90
187.42	1683.43
187.64	1732.58
187.86	1748.97
188.08	1732.58
188.30	1746.92
188.52	1681.38
188.75	1767.40
188.97	1771.49
189.19	1654.76
189.41	1695.72
189.63	1728.49
189.85	1703.91
190.07	1650.66
190.29	1671.14
190.51	1730.53
190.73	1708.01
190.95	1777.64
191.17	1693.67
191.39	1638.38
191.61	1679.33
191.84	1720.29
192.06	1767.40
192.28	1636.33
192.50	1826.79
192.72	1687.53
192.94	1722.34
193.16	1701.86
193.38	1791.97
193.60	1722.34
193.82	1763.30
194.04	1783.78
194.26	1691.62
194.48	1716.20
194.70	1683.43
194.92	1652.71
195.14	1724.39
195.36	1630.18
195.58	1734.63
195.80	1679.33
196.02	1683.43
196.24	1667.05
196.46	1738.73
196.69	1662.95
196.91	1853.41
197.13	1628.14
197.35	1691.62
197.57	1890.28
197.79	1787.88
198.01	1701.86
198.23	1755.11
198.45	1689.57
198.67	1634.28
198.89	1626.09
199.11	1710.05
199.33	1675.24
199.55	1665.00
199.77	1718.25
199.99	1767.40
200.21	1634.28
200.43	1601.51
200.65	1585.13
200.87	1632.23
201.09	1681.38
201.31	1716.20
201.53	1732.58
201.75	1740.77
201.97	1656.81
202.19	1738.73
202.41	1677.29
202.63	1808.36
202.85	1767.40
203.07	1699.81
203.29	1626.09
203.51	1701.86
203.73	1689.57
203.95	1880.04
204.17	1779.68
204.39	1689.57
204.61	1695.72
204.83	1615.85
205.05	1767.40
205.27	1732.58
205.49	1822.69
205.71	1722.34
205.93	1605.61
206.15	1705.96
206.37	1714.15
206.59	1650.66
206.81	1628.14
207.03	1667.05
207.25	1699.81
207.47	1751.01
207.69	1619.94
207.91	1705.96
208.13	1775.59
208.34	1652.71
208.56	1689.57
208.78	1693.67
209.00	1720.29
209.22	1691.62
209.44	1691.62
209.66	1708.01
209.88	1703.91
210.10	1689.57
210.32	1642.47
210.54	1722.34
210.76	1654.76
210.98	1724.39
211.20	1581.03
211.42	1697.77
211.64	1724.39
211.86	1751.01
212.08	1740.77
212.30	1779.68
212.52	1722.34
212.74	1740.77
212.96	1796.07
213.17	1693.67
213.39	1742.82
213.61	1873.89
213.83	1734.63
214.05	1701.86
214.27	1771.49
214.49	1601.51
214.71	1677.29
214.93	1794.02
215.15	1640.42
215.37	1742.82
215.59	1613.80
215.81	1683.43
216.03	1787.88
216.24	1683.43
216.46	1722.34
216.68	1718.25
216.90	1740.77
217.12	1794.02
217.34	1720.29
217.56	1734.63
217.78	1812.45
218.00	1757.16
218.22	1703.91
218.44	1732.58
218.66	1714.15
218.87	1742.82
219.09	1726.44
219.31	1746.92
219.53	1738.73
219.75	1656.81
219.97	1708.01
220.19	1746.92
220.41	1718.25
220.63	1871.84
220.85	1767.40
221.06	1695.72
221.28	1683.43
221.50	1660.90
221.72	1720.29
221.94	1746.92
222.16	1699.81
222.38	1779.68
222.60	1730.53
222.82	1646.57
223.03	1751.01
223.25	1675.24
223.47	1732.58
223.69	1875.94
223.91	1751.01
224.13	1673.19
224.35	1683.43
224.57	1724.39
224.78	1779.68
225.00	1673.19
225.22	1683.43
225.44	1705.96
225.66	1716.20
225.88	1662.95
226.10	1753.06
226.32	1708.01
226.53	1765.35
226.75	1697.77
226.97	1710.05
227.19	1701.86
227.41	1667.05
227.63	1597.42
227.85	1626.09
228.06	1740.77
228.28	1685.48
228.50	1722.34
228.72	1624.04
228.94	1691.62
229.16	1585.13
229.37	1697.77
229.59	1624.04
229.81	1779.68
230.03	1560.55
230.25	1556.46
230.47	1683.43
230.69	1607.66
230.90	1716.20
231.12	1687.53
231.34	1742.82
231.56	1757.16
231.78	1705.96
232.00	1740.77
232.21	1718.25
232.43	1662.95
232.65	1656.81
232.87	1714.15
233.09	1650.66
233.30	1689.57
233.52	1773.54
233.74	1755.11
233.96	1611.75
234.18	1789.92
234.40	1722.34
234.61	1816.55
234.83	1650.66
235.05	1628.14
235.27	1726.44
235.49	1804.26
235.70	1777.64
235.92	1718.25
236.14	1679.33
236.36	1828.84
236.58	1613.80
236.79	1722.34
237.01	1673.19
237.23	1759.21
237.45	1748.97
237.67	1681.38
237.88	1679.33
238.10	1804.26
238.32	1701.86
238.54	1703.91
238.76	1703.91
238.97	1619.94
239.19	1742.82
239.41	1837.03
239.63	1812.45
239.85	1648.61
240.06	1679.33
240.28	1665.00
240.50	1806.31
240.72	1665.00
240.93	1630.18
241.15	1796.07
241.37	1642.47
241.59	1779.68
241.81	1691.62
242.02	1675.24
242.24	1679.33
242.46	1734.63
242.68	1662.95
242.89	1787.88
243.11	1734.63
243.33	1689.57
243.55	1751.01
243.76	1714.15
243.98	1763.30
244.20	1714.15
244.42	1636.33
244.64	1718.25
244.85	1648.61
245.07	1683.43
245.29	1710.05
245.51	1683.43
245.72	1751.01
245.94	1834.98
246.16	1740.77
246.38	1689.57
246.59	1720.29
246.81	1638.38
247.03	1626.09
247.24	1624.04
247.46	1681.38
247.68	1683.43
247.90	1677.29
248.11	1703.91
248.33	1744.87
248.55	1695.72
248.77	1703.91
248.98	1714.15
249.20	1828.84
249.42	1716.20
249.64	1728.49
249.85	1771.49
250.07	1656.81
250.29	1748.97
250.50	1714.15
250.72	1665.00
250.94	1771.49
251.16	1814.50
251.37	1837.03
251.59	1705.96
251.81	1701.86
252.02	1798.12
252.24	1720.29
252.46	1783.78
252.68	1624.04
252.89	1628.14
253.11	1574.89
253.33	1812.45
253.54	1802.21
253.76	1624.04
253.98	1693.67
254.20	1789.92
254.41	1652.71
254.63	1648.61
254.85	1699.81
255.06	1671.14
255.28	1712.10
255.50	1642.47
255.71	1660.90
255.93	1583.08
256.15	1656.81
256.36	1804.26
256.58	1679.33
256.80	1740.77
257.02	1748.97
257.23	1720.29
257.45	1675.24
257.67	1759.21
257.88	1658.85
258.10	1691.62
258.32	1689.57
258.53	1705.96
258.75	1773.54
258.97	1667.05
259.18	1738.73
259.40	1693.67
259.62	1832.93
259.83	1789.92
260.05	1777.64
260.27	2058.21
260.48	1703.91
260.70	1650.66
260.92	1695.72
261.13	1671.14
261.35	1781.73
261.57	1726.44
261.78	1673.19
262.00	1687.53
262.22	1720.29
262.43	1699.81
262.65	1761.25
262.86	1658.85
263.08	1820.64
263.30	1656.81
263.51	1591.27
263.73	1640.42
263.95	1851.36
264.16	1712.10
264.38	1628.14
264.60	1779.68
264.81	1648.61
265.03	1757.16
265.25	1818.60
265.46	1701.86
265.68	1763.30
265.89	1732.58
266.11	1578.98
266.33	1746.92
266.54	1759.21
266.76	1726.44
266.98	1787.88
267.19	1767.40
267.41	1716.20
267.62	1683.43
267.84	1562.60
268.06	1681.38
268.27	1730.53
268.49	1730.53
268.70	1810.40
268.92	1667.05
269.14	1621.99
269.35	1642.47
269.57	1734.63
269.79	1755.11
270.00	1644.52
270.22	1826.79
270.43	1624.04
270.65	1615.85
270.87	1648.61
271.08	1808.36
271.30	1695.72
271.51	1681.38
271.73	1828.84
271.95	1777.64
272.16	1748.97
272.38	1681.38
272.59	1701.86
272.81	1734.63
273.02	1671.14
273.24	1722.34
273.46	1765.35
273.67	1648.61
273.89	1626.09
274.10	1685.48
274.32	1757.16
274.54	1681.38
274.75	1675.24
274.97	1656.81
275.18	1736.68
275.40	1687.53
275.61	1658.85
275.83	1648.61
276.05	1658.85
276.26	1699.81
276.48	1748.97
276.69	1636.33
276.91	1728.49
277.12	1816.55
277.34	1738.73
277.55	1755.11
277.77	1746.92
277.99	1685.48
278.20	1624.04
278.42	1665.00
278.63	1595.37
278.85	1699.81
279.06	1578.98
279.28	1787.88
279.49	1740.77
279.71	1808.36
279.93	1751.01
280.14	1718.25
280.36	1595.37
280.57	1847.27
280.79	1765.35
281.00	1673.19
281.22	1730.53
281.43	1851.36
281.65	1591.27
281.86	1718.25
282.08	1763.30
282.29	1896.42
282.51	1656.81
282.73	1667.05
282.94	1679.33
283.16	1806.31
283.37	1785.83
283.59	1626.09
283.80	1775.59
284.02	1740.77
284.23	1658.85
284.45	1693.67
284.66	1724.39
284.88	1716.20
285.09	1677.29
285.31	1697.77
285.52	1716.20
285.74	1611.75
285.95	1712.10
286.17	1726.44
286.38	1742.82
286.60	1603.56
286.81	1691.62
287.03	1710.05
287.24	1695.72
287.46	1660.90
287.67	1652.71
287.89	1853.41
288.10	1722.34
288.32	1742.82
288.53	1849.32
288.75	1771.49
288.96	1771.49
289.18	1626.09
289.39	1689.57
289.61	1767.40
289.82	1834.98
290.04	1810.40
290.25	1648.61
290.47	1712.10
290.68	1718.25
290.90	1822.69
291.11	1591.27
291.33	1771.49
291.54	1570.79
291.76	1679.33
291.97	1787.88
292.18	1736.68
292.40	1730.53
292.61	1734.63
292.83	1779.68
293.04	1658.85
293.26	1685.48
293.47	1685.48
293.69	1697.77
293.90	1665.00
294.12	1837.03
294.33	1726.44
294.55	1695.72
294.76	1697.77
294.97	1748.97
295.19	1814.50
295.40	1677.29
295.62	1789.92
295.83	1759.21
296.05	1677.29
296.26	1773.54
296.48	1621.99
296.69	1624.04
296.90	1685.48
297.12	1773.54
297.33	1720.29
297.55	1665.00
297.76	1783.78
297.98	1806.31
298.19	1738.73
298.41	1808.36
298.62	1685.48
298.83	1771.49
299.05	1724.39
299.26	1662.95
299.48	1609.70
299.69	1703.91
299.90	1734.63
300.12	1632.23
300.33	1724.39
300.55	1746.92
300.76	1861.60
300.98	1628.14
301.19	1746.92
301.40	1669.09
301.62	1683.43
301.83	1777.64
302.05	1710.05
302.26	1646.57
302.47	1744.87
302.69	1628.14
302.90	1724.39
303.12	1583.08
303.33	1771.49
303.54	1751.01
303.76	1738.73
303.97	1767.40
304.19	1816.55
304.40	1656.81
304.61	1789.92
304.83	1863.65
305.04	1820.64
305.26	1761.25
305.47	1681.38
305.68	1701.86
305.90	1652.71
306.11	1798.12
306.33	1665.00
306.54	1701.86
306.75	1621.99
306.97	1689.57
307.18	1630.18
307.39	1726.44
307.61	1718.25
307.82	1730.53
308.04	1705.96
308.25	1734.63
308.46	1722.34
308.68	1738.73
308.89	1644.52
309.10	1751.01
309.32	1722.34
309.53	1705.96
309.74	1695.72
309.96	1714.15
310.17	1849.32
310.39	1683.43
310.60	1724.39
310.81	1689.57
311.03	1679.33
311.24	1732.58
311.45	1693.67
311.67	1804.26
311.88	1683.43
312.09	1685.48
312.31	1642.47
312.52	1757.16
312.73	1685.48
312.95	1665.00
313.16	1667.05
313.37	1755.11
313.59	1671.14
313.80	1736.68
314.01	1820.64
314.23	1656.81
314.44	1746.92
314.65	1662.95
314.87	1648.61
315.08	1671.14
315.29	1660.90
315.51	1654.76
315.72	1710.05
315.93	1718.25
316.15	1796.07
316.36	1728.49
316.57	1605.61
316.79	1765.35
317.00	1679.33
317.21	1734.63
317.43	1624.04
317.64	1708.01
317.85	1740.77
318.07	1705.96
318.28	1779.68
318.49	1791.97
318.70	1877.99
318.92	1820.64
319.13	1812.45
319.34	1859.56
319.56	1755.11
319.77	1822.69
319.98	1726.44
320.20	1828.84
320.41	1771.49
320.62	1724.39
320.83	1791.97
321.05	1861.60
321.26	1730.53
321.47	1648.61
321.69	1822.69
321.90	1679.33
322.11	1667.05
322.32	1677.29
322.54	1740.77
322.75	1632.23
322.96	1853.41
323.18	1626.09
323.39	1656.81
323.60	1628.14
323.81	1814.50
324.03	1695.72
324.24	1689.57
324.45	1765.35
324.66	1701.86
324.88	1679.33
325.09	1681.38
325.30	1708.01
325.52	1705.96
325.73	1773.54
325.94	1669.09
326.15	1638.38
326.37	1679.33
326.58	1708.01
326.79	1779.68
327.00	1644.52
327.22	1720.29
327.43	1742.82
327.64	1648.61
327.85	1746.92
328.07	1714.15
328.28	1863.65
328.49	1662.95
328.70	1671.14
328.92	1671.14
329.13	1673.19
329.34	1683.43
329.55	1796.07
329.76	1812.45
329.98	1787.88
330.19	1783.78
330.40	1761.25
330.61	1677.29
330.83	1789.92
331.04	1683.43
331.25	1730.53
331.46	1646.57
331.68	1595.37
331.89	1759.21
332.10	1744.87
332.31	1619.94
332.52	1712.10
332.74	1722.34
332.95	1660.90
333.16	1687.53
333.37	1765.35
333.58	1650.66
333.80	1669.09
334.01	1675.24
334.22	1746.92
334.43	1683.43
334.64	1619.94
334.86	1693.67
335.07	1613.80
335.28	1832.93
335.49	1619.94
335.70	1734.63
335.92	1708.01
336.13	1800.16
336.34	1740.77
336.55	1730.53
336.76	1746.92
336.98	1624.04
337.19	1744.87
337.40	1841.12
337.61	1808.36
337.82	1697.77
338.04	1759.21
338.25	1609.70
338.46	1648.61
338.67	1714.15
338.88	1640.42
339.09	1669.09
339.31	1689.57
339.52	1695.72
339.73	1644.52
339.94	1716.20
340.15	1755.11
340.36	1734.63
340.58	1755.11
340.79	1626.09
341.00	1763.30
341.21	1722.34
341.42	1742.82
341.63	1763.30
341.85	1720.29
342.06	1732.58
342.27	1609.70
342.48	1718.25
342.69	1689.57
342.90	1732.58
343.12	1744.87
343.33	1697.77
343.54	1714.15
343.75	1748.97
343.96	1806.31
344.17	1632.23
344.38	1683.43
344.60	1681.38
344.81	1740.77
345.02	1714.15
345.23	1796.07
345.44	1814.50
345.65	1699.81
345.86	1812.45
346.07	1732.58
346.29	1662.95
346.50	1718.25
346.71	1753.06
346.92	1767.40
347.13	1800.16
347.34	1683.43
347.55	1699.81
347.76	1628.14
347.98	1595.37
348.19	1681.38
348.40	1781.73
348.61	1736.68
348.82	1726.44
349.03	1705.96
349.24	1607.66
349.45	1834.98
349.66	1611.75
349.88	1720.29
350.09	1716.20
350.30	1771.49
350.51	1718.25
350.72	1673.19
350.93	1705.96
351.14	1726.44
351.35	1683.43
351.56	1613.80
351.77	1708.01
351.99	1724.39
352.20	1794.02
352.41	1755.11
352.62	1665.00
352.83	1736.68
353.04	1667.05
353.25	1738.73
353.46	1763.30
353.67	1820.64
353.88	1509.35
354.09	1697.77
354.30	1722.34
354.52	1701.86
354.73	1742.82
354.94	1665.00
355.15	1710.05
355.36	1824.74
355.57	1689.57
355.78	1722.34
355.99	1685.48
356.20	1681.38
356.41	1767.40
356.62	1724.39
356.83	1665.00
357.04	1783.78
357.25	1572.84
357.46	1730.53
357.68	1669.09
357.89	1658.85
358.10	1679.33
358.31	1755.11
358.52	1617.90
358.73	1574.89
358.94	1619.94
359.15	1665.00
359.36	1757.16
359.57	1744.87
359.78	1746.92
359.99	1742.82
360.20	1660.90
360.41	1689.57
360.62	1689.57
360.83	1656.81
361.04	1708.01
361.25	1716.20
361.46	1712.10
361.67	1716.20
361.88	1757.16
362.09	1771.49
362.30	1679.33
362.51	1699.81
362.72	1730.53
362.93	1765.35
363.14	1744.87
363.35	1710.05
363.56	1581.03
363.78	1783.78
363.99	1701.86
364.20	1673.19
364.41	1738.73
364.62	1794.02
364.83	1769.44
365.04	1740.77
365.25	1705.96
365.46	1791.97
365.67	1712.10
365.88	1693.67
366.09	1654.76
366.30	1718.25
366.51	1759.21
366.72	1652.71
366.93	1689.57
367.14	1640.42
367.35	1783.78
367.56	1650.66
367.77	1789.92
367.98	1673.19
368.18	1710.05
368.39	1759.21
368.60	1644.52
368.81	1716.20
369.02	1714.15
369.23	1675.24
369.44	1656.81
369.65	1607.66
369.86	1728.49
370.07	1818.60
370.28	1710.05
370.49	1726.44
370.70	1746.92
370.91	1648.61
371.12	1638.38
371.33	1777.64
371.54	1683.43
371.75	1820.64
371.96	1593.32
372.17	1744.87
372.38	1699.81
372.59	1714.15
372.80	1779.68
373.01	1693.67
373.22	1722.34
373.43	1787.88
373.64	1648.61
373.85	1794.02
374.06	1755.11
374.26	1783.78
374.47	1724.39
374.68	1804.26
374.89	1724.39
375.10	1683.43
375.31	1742.82
375.52	1742.82
375.73	1681.38
375.94	1650.66
376.15	1703.91
376.36	1761.25
376.57	1685.48
376.78	1714.15
376.99	1755.11
377.20	1804.26
377.40	1763.30
377.61	1779.68
377.82	1646.57
378.03	1779.68
378.24	1746.92
378.45	1800.16
378.66	1726.44
378.87	1695.72
379.08	1601.51
379.29	1693.67
379.50	1859.56
379.71	1714.15
379.91	1789.92
380.12	1691.62
380.33	1689.57
380.54	1714.15
380.75	1667.05
380.96	1689.57
381.17	1740.77
381.38	1738.73
381.59	1742.82
381.80	1720.29
382.00	1875.94
382.21	1757.16
382.42	1837.03
382.63	1839.08
382.84	1761.25
383.05	1796.07
383.26	1763.30
383.47	1798.12
383.68	1736.68
383.88	1746.92
384.09	1730.53
384.30	1769.44
384.51	1718.25
384.72	1681.38
384.93	1558.50
385.14	1765.35
385.35	1740.77
385.55	1660.90
385.76	1812.45
385.97	1687.53
386.18	1646.57
386.39	1716.20
386.60	1703.91
386.81	1669.09
387.02	1656.81
387.22	1644.52
387.43	1814.50
387.64	1773.54
387.85	1816.55
388.06	2138.08
388.27	4138.94
388.48	6784.92
388.68	7958.41
388.89	9336.69
389.10	9617.26
389.31	8423.30
389.52	7618.44
389.73	6586.27
389.93	6090.66
390.14	5793.70
390.35	5013.43
390.56	4589.50
390.77	3645.38
390.98	2957.27
391.18	2422.75
391.39	2086.88
391.60	1886.18
391.81	1880.04
392.02	1732.58
392.23	1855.46
392.43	1789.92
392.64	1732.58
392.85	1763.30
393.06	1804.26
393.27	1746.92
393.47	1654.76
393.68	1757.16
393.89	1736.68
394.10	1769.44
394.31	1683.43
394.52	1691.62
394.72	1662.95
394.93	1806.31
395.14	1693.67
395.35	1726.44
395.56	1662.95
395.76	1779.68
395.97	1783.78
396.18	1789.92
396.39	1890.28
396.60	1986.53
396.80	1880.04
397.01	1800.16
397.22	1787.88
397.43	1865.70
397.64	1724.39
397.84	1736.68
398.05	1941.47
398.26	1755.11
398.47	1796.07
398.67	1822.69
398.88	1755.11
399.09	1656.81
399.30	1755.11
399.51	1763.30
399.71	1728.49
399.92	1720.29
400.13	1730.53
400.34	1679.33
400.54	1644.52
400.75	1867.75
400.96	1779.68
401.17	1773.54
401.37	1757.16
401.58	1765.35
401.79	1767.40
402.00	1796.07
402.21	2000.87
402.41	1908.71
402.62	2000.87
402.83	2050.02
403.04	1953.76
403.24	2090.98
403.45	1890.28
403.66	1896.42
403.87	1853.41
404.07	1873.89
404.28	1927.14
404.49	1857.51
404.70	1830.88
404.90	1791.97
405.11	1794.02
405.32	1697.77
405.52	1634.28
405.73	1591.27
405.94	1665.00
406.15	1751.01
406.35	1755.11
406.56	1748.97
406.77	1695.72
406.98	1767.40
407.18	1658.85
407.39	1761.25
407.60	1724.39
407.80	1687.53
408.01	1695.72
408.22	1767.40
408.43	1716.20
408.63	1685.48
408.84	1693.67
409.05	1832.93
409.25	1621.99
409.46	1613.80
409.67	1613.80
409.88	1718.25
410.08	1771.49
410.29	1648.61
410.50	1685.48
410.70	1734.63
410.91	1685.48
411.12	1710.05
411.32	1705.96
411.53	1732.58
411.74	1839.08
411.95	1732.58
412.15	1701.86
412.36	1763.30
412.57	1773.54
412.77	1843.17
412.98	1767.40
413.19	1677.29
413.39	1689.57
413.60	1738.73
413.81	1769.44
414.01	1699.81
414.22	1755.11
414.43	1726.44
414.63	1716.20
414.84	1734.63
415.05	1724.39
415.25	1679.33
415.46	1759.21
415.67	1601.51
415.87	1679.33
416.08	1669.09
416.29	1611.75
416.49	1738.73
416.70	1677.29
416.91	1695.72
417.11	1767.40
417.32	1753.06
417.53	1742.82
417.73	1734.63
417.94	1722.34
418.15	1738.73
418.35	1771.49
418.56	1775.59
418.77	1877.99
418.97	1738.73
419.18	1732.58
419.38	1587.18
419.59	1724.39
419.80	1812.45
420.00	1693.67
420.21	1724.39
420.42	1775.59
420.62	1722.34
420.83	1665.00
421.04	1667.05
421.24	1716.20
421.45	1761.25
421.65	1753.06
421.86	1693.67
422.07	1781.73
422.27	1718.25
422.48	1699.81
422.69	1708.01
422.89	1628.14
423.10	1626.09
423.30	1693.67
423.51	1677.29
423.72	1773.54
423.92	1718.25
424.13	1591.27
424.33	1736.68
424.54	1714.15
424.75	1693.67
424.95	1767.40
425.16	1675.24
425.36	1646.57
425.57	1730.53
425.78	1705.96
425.98	1720.29
426.19	1648.61
426.39	1710.05
426.60	1732.58
426.81	1820.64
427.01	1689.57
427.22	1718.25
427.42	1611.75
427.63	1667.05
427.83	1744.87
428.04	1767.40
428.25	1849.32
428.45	1791.97
428.66	1748.97
428.86	1671.14
429.07	1705.96
429.28	1738.73
429.48	1759.21
429.69	1710.05
429.89	1708.01
430.10	1654.76
430.30	1785.83
430.51	1771.49
430.71	1640.42
430.92	1722.34
431.13	1677.29
431.33	1742.82
431.54	1765.35
431.74	1814.50
431.95	1861.60
432.15	1642.47
432.36	1740.77
432.56	1708.01
432.77	1830.88
432.98	1830.88
433.18	1740.77
433.39	1705.96
433.59	1695.72
433.80	1834.98
434.00	1875.94
434.21	1652.71
434.41	1673.19
434.62	1804.26
434.82	1628.14
435.03	1730.53
435.23	1667.05
435.44	1705.96
435.64	1669.09
435.85	1730.53
436.06	1710.05
436.26	1779.68
436.47	1665.00
436.67	1697.77
436.88	1656.81
437.08	1716.20
437.29	1877.99
437.49	1718.25
437.70	1781.73
437.90	1732.58
438.11	1841.12
438.31	1822.69
438.52	1783.78
438.72	1875.94
438.93	1927.14
439.13	1757.16
439.34	1841.12
439.54	1646.57
439.75	1785.83
439.95	1708.01
440.16	1724.39
440.36	1783.78
440.57	1785.83
440.77	1716.20
440.98	1740.77
441.18	1718.25
441.39	1730.53
441.59	1648.61
441.80	1738.73
442.00	1660.90
442.21	1742.82
442.41	1703.91
442.62	1767.40
442.82	1693.67
443.02	1673.19
443.23	1740.77
443.43	1763.30
443.64	1787.88
443.84	1646.57
444.05	1847.27
444.25	1789.92
444.46	1740.77
444.66	1759.21
444.87	1824.74
445.07	1642.47
445.28	1779.68
445.48	1767.40
445.69	1808.36
445.89	1796.07
446.09	1759.21
446.30	1953.76
446.50	2611.16
446.71	3604.42
446.91	4257.73
447.12	4683.70
447.32	4712.38
447.53	4290.49
447.73	3835.85
447.93	3532.75
448.14	3186.64
448.34	3143.63
448.55	2811.86
448.75	2875.35
448.96	2637.78
449.16	2457.56
449.36	2256.86
449.57	2029.54
449.77	1953.76
449.98	1832.93
450.18	1812.45
450.39	1818.60
450.59	1787.88
450.79	1691.62
451.00	1724.39
451.20	1839.08
451.41	1654.76
451.61	1816.55
451.81	1779.68
452.02	1800.16
452.22	1746.92
452.43	1751.01
452.63	1673.19
