SpectraSuite Data File
++++++++++++++++++++++++++++++++++++
Date: Mon Jun 06 13:03:17 CEST 2016
User: root
Dark Spectrum Present: No
Reference Spectrum Present: No
Number of Sampled Component Spectra: 1
Spectrometers: USB4C02835
Integration Time (usec): 100000 (USB4C02835)
Spectra Averaged: 1 (USB4C02835)
Boxcar Smoothing: 0 (USB4C02835)
Correct for Electrical Dark: No (USB4C02835)
Strobe/Lamp Enabled: No (USB4C02835)
Correct for Detector Non-linearity: No (USB4C02835)
Correct for Stray Light: No (USB4C02835)
Number of Pixels in Processed Spectrum: 3648
>>>>>Begin Processed Spectral Data<<<<<
177.47	1492.97
177.69	1492.97
177.91	1492.97
178.13	1488.87
178.36	1447.91
178.58	1611.75
178.80	1648.61
179.02	1603.56
179.24	1697.77
179.46	1617.90
179.68	1742.82
179.90	1683.43
180.13	1724.39
180.35	1650.66
180.57	1724.39
180.79	1685.48
181.01	1751.01
181.23	1740.77
181.45	1738.73
181.67	1722.34
181.90	1701.86
182.12	1685.48
182.34	1624.04
182.56	1751.01
182.78	1734.63
183.00	1665.00
183.22	1691.62
183.44	1595.37
183.66	1839.08
183.89	1841.12
184.11	1640.42
184.33	1802.21
184.55	1744.87
184.77	1714.15
184.99	1783.78
185.21	1601.51
185.43	1843.17
185.65	1748.97
185.87	1722.34
186.10	1841.12
186.32	1812.45
186.54	1675.24
186.76	1640.42
186.98	1660.90
187.20	1681.38
187.42	1660.90
187.64	1761.25
187.86	1759.21
188.08	1755.11
188.30	1660.90
188.52	1744.87
188.75	1751.01
188.97	1771.49
189.19	1703.91
189.41	1730.53
189.63	1654.76
189.85	1632.23
190.07	1605.61
190.29	1613.80
190.51	1648.61
190.73	1669.09
190.95	1773.54
191.17	1662.95
191.39	1667.05
191.61	1683.43
191.84	1640.42
192.06	1722.34
192.28	1650.66
192.50	1857.51
192.72	1789.92
192.94	1773.54
193.16	1853.41
193.38	1697.77
193.60	1654.76
193.82	1642.47
194.04	1826.79
194.26	1662.95
194.48	1751.01
194.70	1705.96
194.92	1634.28
195.14	1734.63
195.36	1705.96
195.58	1667.05
195.80	1636.33
196.02	1693.67
196.24	1679.33
196.46	1746.92
196.69	1650.66
196.91	1839.08
197.13	1701.86
197.35	1621.99
197.57	1791.97
197.79	1714.15
198.01	1724.39
198.23	1789.92
198.45	1691.62
198.67	1607.66
198.89	1636.33
199.11	1671.14
199.33	1591.27
199.55	1607.66
199.77	1708.01
199.99	1705.96
200.21	1705.96
200.43	1730.53
200.65	1652.71
200.87	1556.46
201.09	1693.67
201.31	1683.43
201.53	1759.21
201.75	1738.73
201.97	1718.25
202.19	1675.24
202.41	1824.74
202.63	1798.12
202.85	1769.44
203.07	1783.78
203.29	1644.52
203.51	1671.14
203.73	1599.46
203.95	1851.36
204.17	1722.34
204.39	1648.61
204.61	1626.09
204.83	1640.42
205.05	1714.15
205.27	1767.40
205.49	1808.36
205.71	1648.61
205.93	1619.94
206.15	1730.53
206.37	1642.47
206.59	1724.39
206.81	1617.90
207.03	1630.18
207.25	1669.09
207.47	1734.63
207.69	1626.09
207.91	1755.11
208.13	1759.21
208.34	1632.23
208.56	1658.85
208.78	1681.38
209.00	1658.85
209.22	1658.85
209.44	1677.29
209.66	1683.43
209.88	1683.43
210.10	1720.29
210.32	1671.14
210.54	1720.29
210.76	1681.38
210.98	1742.82
211.20	1644.52
211.42	1669.09
211.64	1775.59
211.86	1705.96
212.08	1763.30
212.30	1656.81
212.52	1669.09
212.74	1734.63
212.96	1705.96
213.17	1732.58
213.39	1675.24
213.61	1808.36
213.83	1708.01
214.05	1642.47
214.27	1785.83
214.49	1662.95
214.71	1605.61
214.93	1697.77
215.15	1730.53
215.37	1699.81
215.59	1591.27
215.81	1765.35
216.03	1763.30
216.24	1665.00
216.46	1638.38
216.68	1753.06
216.90	1744.87
217.12	1748.97
217.34	1697.77
217.56	1607.66
217.78	1712.10
218.00	1728.49
218.22	1732.58
218.44	1658.85
218.66	1665.00
218.87	1847.27
219.09	1636.33
219.31	1746.92
219.53	1685.48
219.75	1560.55
219.97	1648.61
220.19	1736.68
220.41	1703.91
220.63	1740.77
220.85	1722.34
221.06	1621.99
221.28	1800.16
221.50	1740.77
221.72	1654.76
221.94	1738.73
222.16	1638.38
222.38	1697.77
222.60	1710.05
222.82	1669.09
223.03	1734.63
223.25	1642.47
223.47	1701.86
223.69	1839.08
223.91	1720.29
224.13	1755.11
224.35	1683.43
224.57	1726.44
224.78	1689.57
225.00	1701.86
225.22	1640.42
225.44	1695.72
225.66	1740.77
225.88	1697.77
226.10	1716.20
226.32	1728.49
226.53	1765.35
226.75	1646.57
226.97	1736.68
227.19	1697.77
227.41	1691.62
227.63	1644.52
227.85	1564.65
228.06	1736.68
228.28	1777.64
228.50	1748.97
228.72	1679.33
228.94	1673.19
229.16	1689.57
229.37	1656.81
229.59	1652.71
229.81	1746.92
230.03	1667.05
230.25	1648.61
230.47	1646.57
230.69	1607.66
230.90	1720.29
231.12	1658.85
231.34	1689.57
231.56	1787.88
231.78	1677.29
232.00	1724.39
232.21	1691.62
232.43	1636.33
232.65	1576.94
232.87	1724.39
233.09	1644.52
233.30	1619.94
233.52	1714.15
233.74	1726.44
233.96	1578.98
234.18	1710.05
234.40	1660.90
234.61	1777.64
234.83	1652.71
235.05	1644.52
235.27	1804.26
235.49	1796.07
235.70	1689.57
235.92	1810.40
236.14	1712.10
236.36	1849.32
236.58	1652.71
236.79	1773.54
237.01	1710.05
237.23	1679.33
237.45	1837.03
237.67	1685.48
237.88	1708.01
238.10	1812.45
238.32	1626.09
238.54	1769.44
238.76	1703.91
238.97	1632.23
239.19	1615.85
239.41	1740.77
239.63	1716.20
239.85	1679.33
240.06	1708.01
240.28	1677.29
240.50	1708.01
240.72	1697.77
240.93	1708.01
241.15	1724.39
241.37	1695.72
241.59	1777.64
241.81	1734.63
242.02	1718.25
242.24	1771.49
242.46	1763.30
242.68	1640.42
242.89	1701.86
243.11	1806.31
243.33	1703.91
243.55	1767.40
243.76	1726.44
243.98	1708.01
244.20	1687.53
244.42	1699.81
244.64	1654.76
244.85	1681.38
245.07	1660.90
245.29	1800.16
245.51	1691.62
245.72	1683.43
245.94	1751.01
246.16	1748.97
246.38	1753.06
246.59	1652.71
246.81	1611.75
247.03	1718.25
247.24	1687.53
247.46	1675.24
247.68	1716.20
247.90	1636.33
248.11	1742.82
248.33	1718.25
248.55	1746.92
248.77	1638.38
248.98	1640.42
249.20	1761.25
249.42	1665.00
249.64	1746.92
249.85	1644.52
250.07	1712.10
250.29	1755.11
250.50	1781.73
250.72	1648.61
250.94	1710.05
251.16	1816.55
251.37	1783.78
251.59	1697.77
251.81	1738.73
252.02	1681.38
252.24	1687.53
252.46	1785.83
252.68	1695.72
252.89	1595.37
253.11	1591.27
253.33	1783.78
253.54	1742.82
253.76	1611.75
253.98	1693.67
254.20	1607.66
254.41	1679.33
254.63	1667.05
254.85	1583.08
255.06	1646.57
255.28	1744.87
255.50	1691.62
255.71	1646.57
255.93	1695.72
256.15	1716.20
256.36	1761.25
256.58	1722.34
256.80	1665.00
257.02	1677.29
257.23	1765.35
257.45	1720.29
257.67	1753.06
257.88	1691.62
258.10	1699.81
258.32	1720.29
258.53	1599.46
258.75	1820.64
258.97	1650.66
259.18	1636.33
259.40	1767.40
259.62	1822.69
259.83	1716.20
260.05	1732.58
260.27	1953.76
260.48	1726.44
260.70	1619.94
260.92	1685.48
261.13	1675.24
261.35	1677.29
261.57	1644.52
261.78	1638.38
262.00	1617.90
262.22	1757.16
262.43	1601.51
262.65	1718.25
262.86	1685.48
263.08	1847.27
263.30	1667.05
263.51	1628.14
263.73	1732.58
263.95	1855.46
264.16	1636.33
264.38	1691.62
264.60	1763.30
264.81	1628.14
265.03	1765.35
265.25	1830.88
265.46	1673.19
265.68	1738.73
265.89	1714.15
266.11	1619.94
266.33	1740.77
266.54	1718.25
266.76	1798.12
266.98	1771.49
267.19	1777.64
267.41	1740.77
267.62	1695.72
267.84	1652.71
268.06	1697.77
268.27	1687.53
268.49	1728.49
268.70	1761.25
268.92	1691.62
269.14	1669.09
269.35	1609.70
269.57	1656.81
269.79	1746.92
270.00	1665.00
270.22	1769.44
270.43	1697.77
270.65	1621.99
270.87	1748.97
271.08	1804.26
271.30	1763.30
271.51	1714.15
271.73	1703.91
271.95	1740.77
272.16	1736.68
272.38	1693.67
272.59	1638.38
272.81	1728.49
273.02	1701.86
273.24	1669.09
273.46	1769.44
273.67	1660.90
273.89	1726.44
274.10	1773.54
274.32	1755.11
274.54	1849.32
274.75	1761.25
274.97	1701.86
275.18	1714.15
275.40	1753.06
275.61	1671.14
275.83	1667.05
276.05	1673.19
276.26	1679.33
276.48	1648.61
276.69	1619.94
276.91	1669.09
277.12	1863.65
277.34	1796.07
277.55	1759.21
277.77	1685.48
277.99	1585.13
278.20	1691.62
278.42	1632.23
278.63	1665.00
278.85	1658.85
279.06	1687.53
279.28	1708.01
279.49	1724.39
279.71	1722.34
279.93	1656.81
280.14	1734.63
280.36	1662.95
280.57	1748.97
280.79	1708.01
281.00	1679.33
281.22	1677.29
281.43	1740.77
281.65	1552.36
281.86	1673.19
282.08	1742.82
282.29	1798.12
282.51	1568.74
282.73	1677.29
282.94	1656.81
283.16	1800.16
283.37	1810.40
283.59	1714.15
283.80	1775.59
284.02	1697.77
284.23	1730.53
284.45	1716.20
284.66	1626.09
284.88	1705.96
285.09	1689.57
285.31	1695.72
285.52	1748.97
285.74	1578.98
285.95	1796.07
286.17	1705.96
286.38	1738.73
286.60	1669.09
286.81	1660.90
287.03	1695.72
287.24	1720.29
287.46	1697.77
287.67	1769.44
287.89	1865.70
288.10	1728.49
288.32	1732.58
288.53	1777.64
288.75	1648.61
288.96	1730.53
289.18	1658.85
289.39	1724.39
289.61	1757.16
289.82	1837.03
290.04	1851.36
290.25	1605.61
290.47	1671.14
290.68	1755.11
290.90	1718.25
291.11	1591.27
291.33	1767.40
291.54	1558.50
291.76	1685.48
291.97	1714.15
292.18	1751.01
292.40	1757.16
292.61	1634.28
292.83	1761.25
293.04	1781.73
293.26	1783.78
293.47	1693.67
293.69	1621.99
293.90	1742.82
294.12	1730.53
294.33	1714.15
294.55	1634.28
294.76	1734.63
294.97	1761.25
295.19	1882.08
295.40	1734.63
295.62	1771.49
295.83	1730.53
296.05	1632.23
296.26	1779.68
296.48	1681.38
296.69	1665.00
296.90	1742.82
297.12	1720.29
297.33	1808.36
297.55	1652.71
297.76	1755.11
297.98	1800.16
298.19	1687.53
298.41	1646.57
298.62	1615.85
298.83	1744.87
299.05	1742.82
299.26	1681.38
299.48	1697.77
299.69	1740.77
299.90	1744.87
300.12	1675.24
300.33	1705.96
300.55	1679.33
300.76	1718.25
300.98	1650.66
301.19	1740.77
301.40	1648.61
301.62	1724.39
301.83	1644.52
302.05	1689.57
302.26	1662.95
302.47	1687.53
302.69	1777.64
302.90	1669.09
303.12	1523.69
303.33	1691.62
303.54	1810.40
303.76	1675.24
303.97	1732.58
304.19	1845.22
304.40	1716.20
304.61	1716.20
304.83	1841.12
305.04	1751.01
305.26	1769.44
305.47	1742.82
305.68	1683.43
305.90	1599.46
306.11	1701.86
306.33	1677.29
306.54	1621.99
306.75	1714.15
306.97	1621.99
307.18	1679.33
307.39	1652.71
307.61	1738.73
307.82	1714.15
308.04	1746.92
308.25	1605.61
308.46	1689.57
308.68	1779.68
308.89	1728.49
309.10	1744.87
309.32	1656.81
309.53	1746.92
309.74	1740.77
309.96	1671.14
310.17	1744.87
310.39	1587.18
310.60	1751.01
310.81	1724.39
311.03	1685.48
311.24	1744.87
311.45	1755.11
311.67	1789.92
311.88	1742.82
312.09	1626.09
312.31	1644.52
312.52	1712.10
312.73	1654.76
312.95	1677.29
313.16	1662.95
313.37	1826.79
313.59	1673.19
313.80	1683.43
314.01	1849.32
314.23	1658.85
314.44	1626.09
314.65	1685.48
314.87	1685.48
315.08	1673.19
315.29	1638.38
315.51	1585.13
315.72	1632.23
315.93	1781.73
316.15	1695.72
316.36	1675.24
316.57	1683.43
316.79	1654.76
317.00	1742.82
317.21	1714.15
317.43	1658.85
317.64	1685.48
317.85	1611.75
318.07	1671.14
318.28	1640.42
318.49	1726.44
318.70	1908.71
318.92	1796.07
319.13	1832.93
319.34	1787.88
319.56	1724.39
319.77	1843.17
319.98	1800.16
320.20	1730.53
320.41	1708.01
320.62	1800.16
320.83	1648.61
321.05	1918.95
321.26	1753.06
321.47	1722.34
321.69	1763.30
321.90	1613.80
322.11	1607.66
322.32	1742.82
322.54	1828.84
322.75	1650.66
322.96	1871.84
323.18	1624.04
323.39	1626.09
323.60	1632.23
323.81	1787.88
324.03	1652.71
324.24	1689.57
324.45	1697.77
324.66	1652.71
324.88	1832.93
325.09	1751.01
325.30	1755.11
325.52	1681.38
325.73	1738.73
325.94	1685.48
326.15	1595.37
326.37	1673.19
326.58	1751.01
326.79	1796.07
327.00	1632.23
327.22	1687.53
327.43	1742.82
327.64	1738.73
327.85	1697.77
328.07	1640.42
328.28	1767.40
328.49	1718.25
328.70	1724.39
328.92	1642.47
329.13	1714.15
329.34	1675.24
329.55	1834.98
329.76	1822.69
329.98	1689.57
330.19	1736.68
330.40	1755.11
330.61	1773.54
330.83	1722.34
331.04	1671.14
331.25	1710.05
331.46	1624.04
331.68	1570.79
331.89	1824.74
332.10	1724.39
332.31	1626.09
332.52	1728.49
332.74	1777.64
332.95	1595.37
333.16	1652.71
333.37	1759.21
333.58	1662.95
333.80	1736.68
334.01	1669.09
334.22	1652.71
334.43	1615.85
334.64	1607.66
334.86	1650.66
335.07	1683.43
335.28	1775.59
335.49	1560.55
335.70	1763.30
335.92	1837.03
336.13	1771.49
336.34	1687.53
336.55	1712.10
336.76	1791.97
336.98	1585.13
337.19	1691.62
337.40	1779.68
337.61	1800.16
337.82	1681.38
338.04	1791.97
338.25	1626.09
338.46	1751.01
338.67	1683.43
338.88	1644.52
339.09	1634.28
339.31	1705.96
339.52	1644.52
339.73	1671.14
339.94	1677.29
340.15	1718.25
340.36	1679.33
340.58	1734.63
340.79	1587.18
341.00	1783.78
341.21	1583.08
341.42	1732.58
341.63	1689.57
341.85	1685.48
342.06	1673.19
342.27	1632.23
342.48	1697.77
342.69	1624.04
342.90	1701.86
343.12	1714.15
343.33	1710.05
343.54	1755.11
343.75	1773.54
343.96	1699.81
344.17	1681.38
344.38	1687.53
344.60	1599.46
344.81	1718.25
345.02	1658.85
345.23	1767.40
345.44	1779.68
345.65	1732.58
345.86	1783.78
346.07	1687.53
346.29	1662.95
346.50	1779.68
346.71	1751.01
346.92	1789.92
347.13	1742.82
347.34	1679.33
347.55	1677.29
347.76	1712.10
347.98	1613.80
348.19	1662.95
348.40	1802.21
348.61	1736.68
348.82	1771.49
349.03	1746.92
349.24	1667.05
349.45	1822.69
349.66	1595.37
349.88	1662.95
350.09	1626.09
350.30	1779.68
350.51	1708.01
350.72	1681.38
350.93	1691.62
351.14	1628.14
351.35	1710.05
351.56	1767.40
351.77	1785.83
351.99	1705.96
352.20	1775.59
352.41	1763.30
352.62	1544.17
352.83	1703.91
353.04	1628.14
353.25	1630.18
353.46	1724.39
353.67	1689.57
353.88	1486.83
354.09	1687.53
354.30	1730.53
354.52	1710.05
354.73	1714.15
354.94	1726.44
355.15	1697.77
355.36	1814.50
355.57	1703.91
355.78	1714.15
355.99	1642.47
356.20	1708.01
356.41	1763.30
356.62	1814.50
356.83	1685.48
357.04	1740.77
357.25	1642.47
357.46	1705.96
357.68	1652.71
357.89	1628.14
358.10	1769.44
358.31	1601.51
358.52	1689.57
358.73	1589.22
358.94	1691.62
359.15	1671.14
359.36	1830.88
359.57	1665.00
359.78	1755.11
359.99	1683.43
360.20	1642.47
360.41	1740.77
360.62	1777.64
360.83	1685.48
361.04	1714.15
361.25	1712.10
361.46	1787.88
361.67	1742.82
361.88	1779.68
362.09	1841.12
362.30	1712.10
362.51	1673.19
362.72	1751.01
362.93	1720.29
363.14	1791.97
363.35	1742.82
363.56	1642.47
363.78	1808.36
363.99	1722.34
364.20	1654.76
364.41	1671.14
364.62	1845.22
364.83	1734.63
365.04	1685.48
365.25	1667.05
365.46	1834.98
365.67	1673.19
365.88	1595.37
366.09	1665.00
366.30	1712.10
366.51	1763.30
366.72	1640.42
366.93	1742.82
367.14	1751.01
367.35	1804.26
367.56	1716.20
367.77	1814.50
367.98	1701.86
368.18	1693.67
368.39	1771.49
368.60	1611.75
368.81	1728.49
369.02	1712.10
369.23	1734.63
369.44	1619.94
369.65	1626.09
369.86	1791.97
370.07	1718.25
370.28	1634.28
370.49	1734.63
370.70	1785.83
370.91	1691.62
371.12	1617.90
371.33	1726.44
371.54	1630.18
371.75	1794.02
371.96	1628.14
372.17	1626.09
372.38	1662.95
372.59	1703.91
372.80	1669.09
373.01	1656.81
373.22	1767.40
373.43	1685.48
373.64	1648.61
373.85	1726.44
374.06	1718.25
374.26	1642.47
374.47	1675.24
374.68	1810.40
374.89	1771.49
375.10	1691.62
375.31	1708.01
375.52	1742.82
375.73	1759.21
375.94	1615.85
376.15	1777.64
376.36	1601.51
376.57	1701.86
376.78	1722.34
376.99	1648.61
377.20	1787.88
377.40	1675.24
377.61	1712.10
377.82	1595.37
378.03	1820.64
378.24	1734.63
378.45	1587.18
378.66	1714.15
378.87	1634.28
379.08	1667.05
379.29	1699.81
379.50	1716.20
379.71	1708.01
379.91	1746.92
380.12	1701.86
380.33	1710.05
380.54	1689.57
380.75	1730.53
380.96	1615.85
381.17	1828.84
381.38	1689.57
381.59	1705.96
381.80	1728.49
382.00	1918.95
382.21	1789.92
382.42	1804.26
382.63	1789.92
382.84	1724.39
383.05	1708.01
383.26	1812.45
383.47	1724.39
383.68	1740.77
383.88	1728.49
384.09	1763.30
384.30	1826.79
384.51	1730.53
384.72	1689.57
384.93	1636.33
385.14	1681.38
385.35	1636.33
385.55	1605.61
385.76	1761.25
385.97	1675.24
386.18	1697.77
386.39	1716.20
386.60	1665.00
386.81	1732.58
387.02	1667.05
387.22	1677.29
387.43	1732.58
387.64	1771.49
387.85	1931.23
388.06	2185.18
388.27	4157.38
388.48	6703.00
388.68	8195.97
388.89	9719.66
389.10	9756.52
389.31	8443.78
389.52	7671.69
389.73	6743.96
389.93	6205.35
390.14	5773.22
390.35	5171.12
390.56	4532.15
390.77	3860.42
390.98	3059.67
391.18	2519.00
391.39	2136.03
391.60	1888.23
391.81	1857.51
392.02	1683.43
392.23	1814.50
392.43	1710.05
392.64	1789.92
392.85	1812.45
393.06	1783.78
393.27	1736.68
393.47	1697.77
393.68	1689.57
393.89	1695.72
394.10	1767.40
394.31	1744.87
394.52	1718.25
394.72	1669.09
394.93	1806.31
395.14	1685.48
395.35	1748.97
395.56	1685.48
395.76	1748.97
395.97	1763.30
396.18	1816.55
396.39	1869.80
396.60	2031.58
396.80	1865.70
397.01	1892.32
397.22	1720.29
397.43	1871.84
397.64	1748.97
397.84	1802.21
398.05	1890.28
398.26	1662.95
398.47	1753.06
398.67	1781.73
398.88	1757.16
399.09	1722.34
399.30	1712.10
399.51	1689.57
399.71	1685.48
399.92	1708.01
400.13	1687.53
400.34	1591.27
400.54	1744.87
400.75	1828.84
400.96	1718.25
401.17	1869.80
401.37	1722.34
401.58	1708.01
401.79	1763.30
402.00	1849.32
402.21	2031.58
402.41	1910.75
402.62	1927.14
402.83	2031.58
403.04	2041.82
403.24	2004.96
403.45	1853.41
403.66	1980.39
403.87	1859.56
404.07	1867.75
404.28	1884.13
404.49	1787.88
404.70	1781.73
404.90	1734.63
405.11	1660.90
405.32	1697.77
405.52	1691.62
405.73	1656.81
405.94	1581.03
406.15	1671.14
406.35	1708.01
406.56	1740.77
406.77	1763.30
406.98	1746.92
407.18	1677.29
407.39	1834.98
407.60	1675.24
407.80	1734.63
408.01	1660.90
408.22	1728.49
408.43	1763.30
408.63	1738.73
408.84	1710.05
409.05	1804.26
409.25	1658.85
409.46	1619.94
409.67	1644.52
409.88	1636.33
410.08	1732.58
410.29	1697.77
410.50	1724.39
410.70	1746.92
410.91	1613.80
411.12	1722.34
411.32	1693.67
411.53	1675.24
411.74	1701.86
411.95	1783.78
412.15	1738.73
412.36	1785.83
412.57	1669.09
412.77	1783.78
412.98	1738.73
413.19	1695.72
413.39	1791.97
413.60	1748.97
413.81	1781.73
414.01	1691.62
414.22	1779.68
414.43	1718.25
414.63	1665.00
414.84	1742.82
415.05	1806.31
415.25	1605.61
415.46	1675.24
415.67	1621.99
415.87	1744.87
416.08	1722.34
416.29	1720.29
416.49	1734.63
416.70	1619.94
416.91	1697.77
417.11	1720.29
417.32	1800.16
417.53	1771.49
417.73	1763.30
417.94	1705.96
418.15	1722.34
418.35	1716.20
418.56	1640.42
418.77	1857.51
418.97	1693.67
419.18	1683.43
419.38	1634.28
419.59	1732.58
419.80	1847.27
420.00	1677.29
420.21	1783.78
420.42	1763.30
420.62	1746.92
420.83	1691.62
421.04	1714.15
421.24	1697.77
421.45	1757.16
421.65	1710.05
421.86	1689.57
422.07	1781.73
422.27	1736.68
422.48	1746.92
422.69	1701.86
422.89	1677.29
423.10	1724.39
423.30	1673.19
423.51	1644.52
423.72	1724.39
423.92	1759.21
424.13	1677.29
424.33	1720.29
424.54	1779.68
424.75	1691.62
424.95	1783.78
425.16	1798.12
425.36	1648.61
425.57	1812.45
425.78	1722.34
425.98	1732.58
426.19	1665.00
426.39	1691.62
426.60	1783.78
426.81	1794.02
427.01	1673.19
427.22	1642.47
427.42	1642.47
427.63	1734.63
427.83	1705.96
428.04	1751.01
428.25	1761.25
428.45	1753.06
428.66	1775.59
428.86	1724.39
429.07	1656.81
429.28	1796.07
429.48	1708.01
429.69	1746.92
429.89	1710.05
430.10	1597.42
430.30	1757.16
430.51	1789.92
430.71	1679.33
430.92	1720.29
431.13	1656.81
431.33	1736.68
431.54	1791.97
431.74	1861.60
431.95	1806.31
432.15	1667.05
432.36	1687.53
432.56	1703.91
432.77	1826.79
432.98	1839.08
433.18	1730.53
433.39	1718.25
433.59	1652.71
433.80	1832.93
434.00	1859.56
434.21	1693.67
434.41	1738.73
434.62	1822.69
434.82	1675.24
435.03	1591.27
435.23	1697.77
435.44	1685.48
435.64	1767.40
435.85	1732.58
436.06	1763.30
436.26	1693.67
436.47	1742.82
436.67	1703.91
436.88	1697.77
437.08	1730.53
437.29	1828.84
437.49	1693.67
437.70	1755.11
437.90	1634.28
438.11	1839.08
438.31	1779.68
438.52	1843.17
438.72	1763.30
438.93	1882.08
439.13	1748.97
439.34	1767.40
439.54	1761.25
439.75	1757.16
439.95	1810.40
440.16	1673.19
440.36	1697.77
440.57	1777.64
440.77	1728.49
440.98	1738.73
441.18	1705.96
441.39	1720.29
441.59	1724.39
441.80	1794.02
442.00	1740.77
442.21	1869.80
442.41	1644.52
442.62	1804.26
442.82	1703.91
443.02	1783.78
443.23	1740.77
443.43	1767.40
443.64	1730.53
443.84	1726.44
444.05	1812.45
444.25	1736.68
444.46	1720.29
444.66	1769.44
444.87	1830.88
445.07	1607.66
445.28	1708.01
445.48	1886.18
445.69	1779.68
445.89	1843.17
446.09	1757.16
446.30	2043.87
446.50	2512.86
446.71	3579.85
446.91	4302.78
447.12	4710.33
447.32	4792.25
447.53	4306.88
447.73	3909.57
447.93	3542.99
448.14	3336.14
448.34	3108.82
448.55	2891.73
448.75	2838.48
448.96	2764.76
449.16	2385.88
449.36	2228.19
449.57	2074.59
449.77	1890.28
449.98	1703.91
450.18	1771.49
450.39	1812.45
450.59	1740.77
450.79	1796.07
451.00	1667.05
451.20	1802.21
451.41	1736.68
451.61	1791.97
451.81	1804.26
452.02	1724.39
452.22	1722.34
452.43	1746.92
452.63	1648.61
