SpectraSuite Data File
++++++++++++++++++++++++++++++++++++
Date: Mon Jun 06 14:08:57 CEST 2016
User: root
Dark Spectrum Present: No
Reference Spectrum Present: No
Number of Sampled Component Spectra: 1
Spectrometers: USB4C02835
Integration Time (usec): 100000 (USB4C02835)
Spectra Averaged: 1 (USB4C02835)
Boxcar Smoothing: 0 (USB4C02835)
Correct for Electrical Dark: No (USB4C02835)
Strobe/Lamp Enabled: No (USB4C02835)
Correct for Detector Non-linearity: No (USB4C02835)
Correct for Stray Light: No (USB4C02835)
Number of Pixels in Processed Spectrum: 3648
>>>>>Begin Processed Spectral Data<<<<<
177.47	1476.59
177.69	1476.59
177.91	1476.59
178.13	1509.35
178.36	1484.78
178.58	1634.28
178.80	1691.62
179.02	1755.11
179.24	1572.84
179.46	1730.53
179.68	1759.21
179.90	1644.52
180.13	1667.05
180.35	1687.53
180.57	1714.15
180.79	1736.68
181.01	1726.44
181.23	1783.78
181.45	1718.25
181.67	1726.44
181.90	1730.53
182.12	1626.09
182.34	1621.99
182.56	1734.63
182.78	1720.29
183.00	1683.43
183.22	1808.36
183.44	1591.27
183.66	1839.08
183.89	1814.50
184.11	1679.33
184.33	1777.64
184.55	1820.64
184.77	1779.68
184.99	1748.97
185.21	1722.34
185.43	1826.79
185.65	1599.46
185.87	1714.15
186.10	1748.97
186.32	1791.97
186.54	1777.64
186.76	1789.92
186.98	1830.88
187.20	1667.05
187.42	1693.67
187.64	1691.62
187.86	1724.39
188.08	1662.95
188.30	1697.77
188.52	1693.67
188.75	1742.82
188.97	1777.64
189.19	1660.90
189.41	1662.95
189.63	1685.48
189.85	1697.77
190.07	1566.70
190.29	1726.44
190.51	1742.82
190.73	1679.33
190.95	1748.97
191.17	1691.62
191.39	1550.31
191.61	1695.72
191.84	1681.38
192.06	1714.15
192.28	1544.17
192.50	1875.94
192.72	1785.83
192.94	1701.86
193.16	1761.25
193.38	1751.01
193.60	1632.23
193.82	1648.61
194.04	1806.31
194.26	1654.76
194.48	1736.68
194.70	1732.58
194.92	1617.90
195.14	1744.87
195.36	1624.04
195.58	1648.61
195.80	1712.10
196.02	1705.96
196.24	1759.21
196.46	1771.49
196.69	1650.66
196.91	1824.74
197.13	1603.56
197.35	1697.77
197.57	1820.64
197.79	1710.05
198.01	1769.44
198.23	1746.92
198.45	1767.40
198.67	1677.29
198.89	1679.33
199.11	1736.68
199.33	1646.57
199.55	1591.27
199.77	1646.57
199.99	1740.77
200.21	1667.05
200.43	1730.53
200.65	1615.85
200.87	1503.21
201.09	1673.19
201.31	1730.53
201.53	1710.05
201.75	1734.63
201.97	1699.81
202.19	1650.66
202.41	1732.58
202.63	1785.83
202.85	1789.92
203.07	1773.54
203.29	1689.57
203.51	1683.43
203.73	1652.71
203.95	1906.66
204.17	1748.97
204.39	1697.77
204.61	1697.77
204.83	1724.39
205.05	1712.10
205.27	1761.25
205.49	1773.54
205.71	1687.53
205.93	1630.18
206.15	1615.85
206.37	1685.48
206.59	1757.16
206.81	1665.00
207.03	1703.91
207.25	1632.23
207.47	1669.09
207.69	1685.48
207.91	1726.44
208.13	1832.93
208.34	1632.23
208.56	1621.99
208.78	1718.25
209.00	1656.81
209.22	1599.46
209.44	1632.23
209.66	1705.96
209.88	1642.47
210.10	1671.14
210.32	1679.33
210.54	1800.16
210.76	1673.19
210.98	1771.49
211.20	1607.66
211.42	1708.01
211.64	1746.92
211.86	1710.05
212.08	1742.82
212.30	1677.29
212.52	1671.14
212.74	1671.14
212.96	1697.77
213.17	1685.48
213.39	1710.05
213.61	1804.26
213.83	1761.25
214.05	1712.10
214.27	1730.53
214.49	1662.95
214.71	1685.48
214.93	1828.84
215.15	1648.61
215.37	1763.30
215.59	1679.33
215.81	1697.77
216.03	1757.16
216.24	1730.53
216.46	1640.42
216.68	1681.38
216.90	1736.68
217.12	1683.43
217.34	1716.20
217.56	1742.82
217.78	1814.50
218.00	1673.19
218.22	1761.25
218.44	1738.73
218.66	1689.57
218.87	1757.16
219.09	1642.47
219.31	1697.77
219.53	1744.87
219.75	1638.38
219.97	1681.38
220.19	1763.30
220.41	1732.58
220.63	1775.59
220.85	1708.01
221.06	1640.42
221.28	1695.72
221.50	1755.11
221.72	1746.92
221.94	1699.81
222.16	1681.38
222.38	1736.68
222.60	1732.58
222.82	1695.72
223.03	1779.68
223.25	1693.67
223.47	1708.01
223.69	1767.40
223.91	1695.72
224.13	1769.44
224.35	1621.99
224.57	1783.78
224.78	1712.10
225.00	1695.72
225.22	1718.25
225.44	1742.82
225.66	1736.68
225.88	1691.62
226.10	1673.19
226.32	1730.53
226.53	1849.32
226.75	1679.33
226.97	1665.00
227.19	1708.01
227.41	1718.25
227.63	1699.81
227.85	1703.91
228.06	1648.61
228.28	1667.05
228.50	1798.12
228.72	1638.38
228.94	1699.81
229.16	1585.13
229.37	1675.24
229.59	1650.66
229.81	1746.92
230.03	1677.29
230.25	1601.51
230.47	1648.61
230.69	1675.24
230.90	1703.91
231.12	1613.80
231.34	1677.29
231.56	1701.86
231.78	1599.46
232.00	1755.11
232.21	1683.43
232.43	1712.10
232.65	1662.95
232.87	1724.39
233.09	1636.33
233.30	1746.92
233.52	1789.92
233.74	1718.25
233.96	1626.09
234.18	1738.73
234.40	1665.00
234.61	1785.83
234.83	1689.57
235.05	1640.42
235.27	1834.98
235.49	1726.44
235.70	1720.29
235.92	1765.35
236.14	1708.01
236.36	1828.84
236.58	1656.81
236.79	1742.82
237.01	1765.35
237.23	1673.19
237.45	1847.27
237.67	1654.76
237.88	1665.00
238.10	1785.83
238.32	1603.56
238.54	1636.33
238.76	1705.96
238.97	1652.71
239.19	1689.57
239.41	1710.05
239.63	1740.77
239.85	1660.90
240.06	1681.38
240.28	1697.77
240.50	1775.59
240.72	1683.43
240.93	1691.62
241.15	1763.30
241.37	1708.01
241.59	1755.11
241.81	1714.15
242.02	1656.81
242.24	1732.58
242.46	1718.25
242.68	1599.46
242.89	1744.87
243.11	1714.15
243.33	1755.11
243.55	1671.14
243.76	1742.82
243.98	1689.57
244.20	1669.09
244.42	1665.00
244.64	1738.73
244.85	1665.00
245.07	1636.33
245.29	1718.25
245.51	1722.34
245.72	1726.44
245.94	1751.01
246.16	1673.19
246.38	1740.77
246.59	1599.46
246.81	1660.90
247.03	1691.62
247.24	1583.08
247.46	1658.85
247.68	1738.73
247.90	1736.68
248.11	1736.68
248.33	1783.78
248.55	1665.00
248.77	1728.49
248.98	1769.44
249.20	1726.44
249.42	1769.44
249.64	1683.43
249.85	1720.29
250.07	1662.95
250.29	1714.15
250.50	1814.50
250.72	1652.71
250.94	1779.68
251.16	1822.69
251.37	1806.31
251.59	1654.76
251.81	1732.58
252.02	1781.73
252.24	1660.90
252.46	1843.17
252.68	1689.57
252.89	1632.23
253.11	1650.66
253.33	1810.40
253.54	1769.44
253.76	1679.33
253.98	1656.81
254.20	1777.64
254.41	1652.71
254.63	1687.53
254.85	1595.37
255.06	1689.57
255.28	1742.82
255.50	1699.81
255.71	1662.95
255.93	1601.51
256.15	1619.94
256.36	1841.12
256.58	1720.29
256.80	1822.69
257.02	1724.39
257.23	1665.00
257.45	1693.67
257.67	1748.97
257.88	1658.85
258.10	1710.05
258.32	1724.39
258.53	1685.48
258.75	1734.63
258.97	1681.38
259.18	1708.01
259.40	1726.44
259.62	1726.44
259.83	1820.64
260.05	1753.06
260.27	2000.87
260.48	1703.91
260.70	1542.12
260.92	1654.76
261.13	1736.68
261.35	1687.53
261.57	1697.77
261.78	1638.38
262.00	1689.57
262.22	1740.77
262.43	1681.38
262.65	1705.96
262.86	1685.48
263.08	1806.31
263.30	1669.09
263.51	1603.56
263.73	1658.85
263.95	1812.45
264.16	1673.19
264.38	1681.38
264.60	1804.26
264.81	1691.62
265.03	1777.64
265.25	1693.67
265.46	1638.38
265.68	1744.87
265.89	1755.11
266.11	1599.46
266.33	1736.68
266.54	1734.63
266.76	1699.81
266.98	1665.00
267.19	1722.34
267.41	1759.21
267.62	1695.72
267.84	1638.38
268.06	1681.38
268.27	1765.35
268.49	1830.88
268.70	1748.97
268.92	1703.91
269.14	1617.90
269.35	1605.61
269.57	1648.61
269.79	1757.16
270.00	1689.57
270.22	1818.60
270.43	1650.66
270.65	1570.79
270.87	1736.68
271.08	1804.26
271.30	1669.09
271.51	1695.72
271.73	1708.01
271.95	1726.44
272.16	1697.77
272.38	1677.29
272.59	1736.68
272.81	1712.10
273.02	1662.95
273.24	1751.01
273.46	1689.57
273.67	1630.18
273.89	1636.33
274.10	1673.19
274.32	1763.30
274.54	1759.21
274.75	1705.96
274.97	1652.71
275.18	1726.44
275.40	1742.82
275.61	1724.39
275.83	1712.10
276.05	1689.57
276.26	1724.39
276.48	1710.05
276.69	1701.86
276.91	1613.80
277.12	1748.97
277.34	1751.01
277.55	1685.48
277.77	1767.40
277.99	1636.33
278.20	1593.32
278.42	1679.33
278.63	1681.38
278.85	1669.09
279.06	1634.28
279.28	1687.53
279.49	1753.06
279.71	1791.97
279.93	1667.05
280.14	1718.25
280.36	1693.67
280.57	1730.53
280.79	1757.16
281.00	1705.96
281.22	1660.90
281.43	1716.20
281.65	1611.75
281.86	1648.61
282.08	1710.05
282.29	1767.40
282.51	1585.13
282.73	1710.05
282.94	1613.80
283.16	1787.88
283.37	1789.92
283.59	1691.62
283.80	1812.45
284.02	1650.66
284.23	1738.73
284.45	1683.43
284.66	1708.01
284.88	1581.03
285.09	1703.91
285.31	1695.72
285.52	1662.95
285.74	1611.75
285.95	1703.91
286.17	1718.25
286.38	1810.40
286.60	1607.66
286.81	1673.19
287.03	1648.61
287.24	1615.85
287.46	1705.96
287.67	1669.09
287.89	1761.25
288.10	1720.29
288.32	1697.77
288.53	1787.88
288.75	1708.01
288.96	1748.97
289.18	1714.15
289.39	1632.23
289.61	1687.53
289.82	1845.22
290.04	1849.32
290.25	1693.67
290.47	1693.67
290.68	1660.90
290.90	1755.11
291.11	1568.74
291.33	1777.64
291.54	1605.61
291.76	1681.38
291.97	1775.59
292.18	1722.34
292.40	1681.38
292.61	1615.85
292.83	1841.12
293.04	1708.01
293.26	1708.01
293.47	1667.05
293.69	1644.52
293.90	1710.05
294.12	1814.50
294.33	1734.63
294.55	1779.68
294.76	1783.78
294.97	1701.86
295.19	1849.32
295.40	1681.38
295.62	1736.68
295.83	1683.43
296.05	1667.05
296.26	1722.34
296.48	1652.71
296.69	1697.77
296.90	1691.62
297.12	1667.05
297.33	1783.78
297.55	1763.30
297.76	1724.39
297.98	1708.01
298.19	1716.20
298.41	1667.05
298.62	1658.85
298.83	1802.21
299.05	1640.42
299.26	1605.61
299.48	1646.57
299.69	1705.96
299.90	1695.72
300.12	1656.81
300.33	1751.01
300.55	1662.95
300.76	1720.29
300.98	1656.81
301.19	1763.30
301.40	1617.90
301.62	1726.44
301.83	1753.06
302.05	1701.86
302.26	1667.05
302.47	1779.68
302.69	1636.33
302.90	1771.49
303.12	1617.90
303.33	1691.62
303.54	1804.26
303.76	1621.99
303.97	1669.09
304.19	1800.16
304.40	1636.33
304.61	1722.34
304.83	1853.41
305.04	1761.25
305.26	1671.14
305.47	1599.46
305.68	1732.58
305.90	1632.23
306.11	1722.34
306.33	1671.14
306.54	1697.77
306.75	1640.42
306.97	1587.18
307.18	1619.94
307.39	1599.46
307.61	1777.64
307.82	1654.76
308.04	1712.10
308.25	1730.53
308.46	1695.72
308.68	1650.66
308.89	1728.49
309.10	1777.64
309.32	1689.57
309.53	1683.43
309.74	1726.44
309.96	1677.29
310.17	1652.71
310.39	1654.76
310.60	1761.25
310.81	1665.00
311.03	1671.14
311.24	1679.33
311.45	1667.05
311.67	1718.25
311.88	1759.21
312.09	1705.96
312.31	1605.61
312.52	1718.25
312.73	1689.57
312.95	1550.31
313.16	1648.61
313.37	1822.69
313.59	1757.16
313.80	1710.05
314.01	1804.26
314.23	1662.95
314.44	1705.96
314.65	1671.14
314.87	1617.90
315.08	1726.44
315.29	1640.42
315.51	1638.38
315.72	1621.99
315.93	1791.97
316.15	1751.01
316.36	1595.37
316.57	1693.67
316.79	1710.05
317.00	1681.38
317.21	1726.44
317.43	1640.42
317.64	1714.15
317.85	1656.81
318.07	1742.82
318.28	1763.30
318.49	1728.49
318.70	1865.70
318.92	1791.97
319.13	1837.03
319.34	1761.25
319.56	1816.55
319.77	1755.11
319.98	1824.74
320.20	1755.11
320.41	1785.83
320.62	1708.01
320.83	1681.38
321.05	1904.61
321.26	1730.53
321.47	1751.01
321.69	1734.63
321.90	1656.81
322.11	1714.15
322.32	1650.66
322.54	1802.21
322.75	1636.33
322.96	1802.21
323.18	1570.79
323.39	1591.27
323.60	1671.14
323.81	1773.54
324.03	1628.14
324.24	1714.15
324.45	1683.43
324.66	1685.48
324.88	1767.40
325.09	1830.88
325.30	1624.04
325.52	1720.29
325.73	1693.67
325.94	1701.86
326.15	1535.98
326.37	1644.52
326.58	1730.53
326.79	1841.12
327.00	1626.09
327.22	1736.68
327.43	1636.33
327.64	1570.79
327.85	1665.00
328.07	1751.01
328.28	1742.82
328.49	1693.67
328.70	1691.62
328.92	1755.11
329.13	1693.67
329.34	1763.30
329.55	1773.54
329.76	1796.07
329.98	1673.19
330.19	1808.36
330.40	1777.64
330.61	1724.39
330.83	1746.92
331.04	1673.19
331.25	1689.57
331.46	1705.96
331.68	1640.42
331.89	1722.34
332.10	1681.38
332.31	1648.61
332.52	1662.95
332.74	1828.84
332.95	1619.94
333.16	1703.91
333.37	1755.11
333.58	1708.01
333.80	1769.44
334.01	1628.14
334.22	1646.57
334.43	1673.19
334.64	1667.05
334.86	1689.57
335.07	1652.71
335.28	1742.82
335.49	1607.66
335.70	1751.01
335.92	1738.73
336.13	1814.50
336.34	1742.82
336.55	1732.58
336.76	1738.73
336.98	1617.90
337.19	1738.73
337.40	1720.29
337.61	1916.90
337.82	1761.25
338.04	1722.34
338.25	1609.70
338.46	1697.77
338.67	1685.48
338.88	1656.81
339.09	1628.14
339.31	1656.81
339.52	1646.57
339.73	1607.66
339.94	1695.72
340.15	1748.97
340.36	1665.00
340.58	1769.44
340.79	1660.90
341.00	1755.11
341.21	1675.24
341.42	1806.31
341.63	1617.90
341.85	1773.54
342.06	1771.49
342.27	1609.70
342.48	1708.01
342.69	1656.81
342.90	1656.81
343.12	1675.24
343.33	1632.23
343.54	1695.72
343.75	1781.73
343.96	1703.91
344.17	1667.05
344.38	1652.71
344.60	1652.71
344.81	1722.34
345.02	1685.48
345.23	1722.34
345.44	1789.92
345.65	1728.49
345.86	1738.73
346.07	1628.14
346.29	1746.92
346.50	1673.19
346.71	1701.86
346.92	1742.82
347.13	1812.45
347.34	1634.28
347.55	1722.34
347.76	1787.88
347.98	1658.85
348.19	1574.89
348.40	1720.29
348.61	1681.38
348.82	1789.92
349.03	1812.45
349.24	1718.25
349.45	1814.50
349.66	1613.80
349.88	1740.77
350.09	1667.05
350.30	1808.36
350.51	1730.53
350.72	1679.33
350.93	1695.72
351.14	1726.44
351.35	1640.42
351.56	1687.53
351.77	1660.90
351.99	1636.33
352.20	1837.03
352.41	1703.91
352.62	1613.80
352.83	1681.38
353.04	1718.25
353.25	1609.70
353.46	1777.64
353.67	1724.39
353.88	1578.98
354.09	1691.62
354.30	1679.33
354.52	1691.62
354.73	1652.71
354.94	1701.86
355.15	1705.96
355.36	1781.73
355.57	1691.62
355.78	1699.81
355.99	1642.47
356.20	1712.10
356.41	1798.12
356.62	1720.29
356.83	1689.57
357.04	1787.88
357.25	1560.55
357.46	1681.38
357.68	1646.57
357.89	1581.03
358.10	1683.43
358.31	1716.20
358.52	1708.01
358.73	1585.13
358.94	1693.67
359.15	1701.86
359.36	1746.92
359.57	1665.00
359.78	1718.25
359.99	1767.40
360.20	1640.42
360.41	1728.49
360.62	1755.11
360.83	1765.35
361.04	1685.48
361.25	1753.06
361.46	1783.78
361.67	1746.92
361.88	1806.31
362.09	1716.20
362.30	1822.69
362.51	1669.09
362.72	1675.24
362.93	1699.81
363.14	1695.72
363.35	1775.59
363.56	1640.42
363.78	1740.77
363.99	1832.93
364.20	1734.63
364.41	1626.09
364.62	1832.93
364.83	1722.34
365.04	1738.73
365.25	1671.14
365.46	1910.75
365.67	1609.70
365.88	1636.33
366.09	1726.44
366.30	1658.85
366.51	1757.16
366.72	1632.23
366.93	1726.44
367.14	1730.53
367.35	1742.82
367.56	1720.29
367.77	1789.92
367.98	1755.11
368.18	1714.15
368.39	1755.11
368.60	1660.90
368.81	1660.90
369.02	1705.96
369.23	1644.52
369.44	1691.62
369.65	1722.34
369.86	1705.96
370.07	1689.57
370.28	1562.60
370.49	1746.92
370.70	1759.21
370.91	1605.61
371.12	1660.90
371.33	1757.16
371.54	1638.38
371.75	1761.25
371.96	1634.28
372.17	1701.86
372.38	1656.81
372.59	1689.57
372.80	1671.14
373.01	1746.92
373.22	1683.43
373.43	1738.73
373.64	1601.51
373.85	1728.49
374.06	1812.45
374.26	1736.68
374.47	1708.01
374.68	1845.22
374.89	1695.72
375.10	1619.94
375.31	1732.58
375.52	1687.53
375.73	1669.09
375.94	1595.37
376.15	1755.11
376.36	1677.29
376.57	1656.81
376.78	1724.39
376.99	1794.02
377.20	1718.25
377.40	1718.25
377.61	1816.55
377.82	1601.51
378.03	1814.50
378.24	1777.64
378.45	1716.20
378.66	1699.81
378.87	1656.81
379.08	1621.99
379.29	1619.94
379.50	1714.15
379.71	1652.71
379.91	1736.68
380.12	1746.92
380.33	1724.39
380.54	1724.39
380.75	1689.57
380.96	1665.00
381.17	1716.20
381.38	1753.06
381.59	1781.73
381.80	1759.21
382.00	1900.52
382.21	1724.39
382.42	1849.32
382.63	1837.03
382.84	1808.36
383.05	1765.35
383.26	1746.92
383.47	1769.44
383.68	1744.87
383.88	1693.67
384.09	1757.16
384.30	1828.84
384.51	1732.58
384.72	1699.81
384.93	1628.14
385.14	1740.77
385.35	1755.11
385.55	1658.85
385.76	1828.84
385.97	1673.19
386.18	1730.53
386.39	1636.33
386.60	1626.09
386.81	1636.33
387.02	1650.66
387.22	1685.48
387.43	1783.78
387.64	1785.83
387.85	1886.18
388.06	2232.29
388.27	4270.01
388.48	6721.43
388.68	8255.36
388.89	9637.74
389.10	9893.74
389.31	8544.13
389.52	7595.92
389.73	6750.10
389.93	6158.24
390.14	5916.58
390.35	5160.88
390.56	4562.87
390.77	3764.17
390.98	3026.90
391.18	2527.19
391.39	2140.13
391.60	1839.08
391.81	1748.97
392.02	1695.72
392.23	1783.78
392.43	1703.91
392.64	1865.70
392.85	1847.27
393.06	1775.59
393.27	1701.86
393.47	1601.51
393.68	1677.29
393.89	1748.97
394.10	1744.87
394.31	1714.15
394.52	1691.62
394.72	1689.57
394.93	1730.53
395.14	1708.01
395.35	1716.20
395.56	1662.95
395.76	1738.73
395.97	1658.85
396.18	1742.82
396.39	1871.84
396.60	2017.25
396.80	1947.62
397.01	1908.71
397.22	1757.16
397.43	1818.60
397.64	1710.05
397.84	1738.73
398.05	1849.32
398.26	1783.78
398.47	1812.45
398.67	1767.40
398.88	1738.73
399.09	1724.39
399.30	1705.96
399.51	1759.21
399.71	1681.38
399.92	1712.10
400.13	1718.25
400.34	1716.20
400.54	1662.95
400.75	1769.44
400.96	1751.01
401.17	1814.50
401.37	1671.14
401.58	1689.57
401.79	1705.96
402.00	1812.45
402.21	2045.92
402.41	1986.53
402.62	2041.82
402.83	2050.02
403.04	1939.43
403.24	2015.20
403.45	1923.04
403.66	1884.13
403.87	1972.19
404.07	1916.90
404.28	1920.99
404.49	1871.84
404.70	1710.05
404.90	1814.50
405.11	1718.25
405.32	1712.10
405.52	1693.67
405.73	1626.09
405.94	1650.66
406.15	1669.09
406.35	1730.53
406.56	1734.63
406.77	1650.66
406.98	1755.11
407.18	1603.56
407.39	1751.01
407.60	1615.85
407.80	1796.07
408.01	1708.01
408.22	1716.20
408.43	1695.72
408.63	1695.72
408.84	1712.10
409.05	1738.73
409.25	1689.57
409.46	1726.44
409.67	1632.23
409.88	1681.38
410.08	1748.97
410.29	1675.24
410.50	1689.57
410.70	1738.73
410.91	1593.32
411.12	1722.34
411.32	1689.57
411.53	1703.91
411.74	1798.12
411.95	1726.44
412.15	1724.39
412.36	1845.22
412.57	1767.40
412.77	1869.80
412.98	1746.92
413.19	1697.77
413.39	1779.68
413.60	1757.16
413.81	1755.11
414.01	1671.14
414.22	1851.36
414.43	1761.25
414.63	1726.44
414.84	1728.49
415.05	1722.34
415.25	1603.56
415.46	1787.88
415.67	1593.32
415.87	1814.50
416.08	1724.39
416.29	1656.81
416.49	1757.16
416.70	1656.81
416.91	1642.47
417.11	1748.97
417.32	1769.44
417.53	1726.44
417.73	1689.57
417.94	1763.30
418.15	1771.49
418.35	1671.14
418.56	1691.62
418.77	1853.41
418.97	1716.20
419.18	1771.49
419.38	1658.85
419.59	1677.29
419.80	1783.78
420.00	1738.73
420.21	1712.10
420.42	1746.92
420.62	1748.97
420.83	1714.15
421.04	1689.57
421.24	1687.53
421.45	1765.35
421.65	1732.58
421.86	1699.81
422.07	1697.77
422.27	1697.77
422.48	1691.62
422.69	1642.47
422.89	1669.09
423.10	1716.20
423.30	1638.38
423.51	1671.14
423.72	1771.49
423.92	1769.44
424.13	1667.05
424.33	1761.25
424.54	1804.26
424.75	1687.53
424.95	1789.92
425.16	1660.90
425.36	1662.95
425.57	1767.40
425.78	1841.12
425.98	1759.21
426.19	1687.53
426.39	1652.71
426.60	1693.67
426.81	1779.68
427.01	1607.66
427.22	1701.86
427.42	1656.81
427.63	1626.09
427.83	1689.57
428.04	1859.56
428.25	1845.22
428.45	1800.16
428.66	1849.32
428.86	1740.77
429.07	1634.28
429.28	1789.92
429.48	1699.81
429.69	1656.81
429.89	1652.71
430.10	1671.14
430.30	1730.53
430.51	1732.58
430.71	1685.48
430.92	1738.73
431.13	1710.05
431.33	1742.82
431.54	1693.67
431.74	1718.25
431.95	1894.37
432.15	1619.94
432.36	1646.57
432.56	1759.21
432.77	1789.92
432.98	1804.26
433.18	1730.53
433.39	1722.34
433.59	1640.42
433.80	1804.26
434.00	1837.03
434.21	1660.90
434.41	1675.24
434.62	1837.03
434.82	1636.33
435.03	1730.53
435.23	1693.67
435.44	1673.19
435.64	1656.81
435.85	1644.52
436.06	1767.40
436.26	1742.82
436.47	1642.47
436.67	1708.01
436.88	1740.77
437.08	1759.21
437.29	1798.12
437.49	1734.63
437.70	1751.01
437.90	1652.71
438.11	1867.75
438.31	1757.16
438.52	1765.35
438.72	1845.22
438.93	1935.33
439.13	1763.30
439.34	1791.97
439.54	1718.25
439.75	1783.78
439.95	1781.73
440.16	1746.92
440.36	1691.62
440.57	1767.40
440.77	1742.82
440.98	1722.34
441.18	1693.67
441.39	1652.71
441.59	1746.92
441.80	1912.80
442.00	1730.53
442.21	1810.40
442.41	1636.33
442.62	1775.59
442.82	1691.62
443.02	1685.48
443.23	1728.49
443.43	1675.24
443.64	1845.22
443.84	1687.53
444.05	1773.54
444.25	1746.92
444.46	1726.44
444.66	1708.01
444.87	1744.87
445.07	1650.66
445.28	1730.53
445.48	1751.01
445.69	1820.64
445.89	1839.08
446.09	1789.92
446.30	2023.39
446.50	2705.37
446.71	3710.92
446.91	4401.08
447.12	4814.77
447.32	4767.67
447.53	4341.69
447.73	3846.09
447.93	3536.84
448.14	3280.85
448.34	3174.35
448.55	2906.07
448.75	2813.91
448.96	2680.79
449.16	2488.28
449.36	2230.24
449.57	2041.82
449.77	1916.90
449.98	1808.36
450.18	1755.11
450.39	1865.70
450.59	1728.49
450.79	1648.61
451.00	1755.11
451.20	1781.73
451.41	1736.68
451.61	1765.35
451.81	1681.38
452.02	1693.67
452.22	1726.44
452.43	1734.63
452.63	1699.81
