SpectraSuite Data File
++++++++++++++++++++++++++++++++++++
Date: Mon Jun 06 13:47:37 CEST 2016
User: root
Dark Spectrum Present: No
Reference Spectrum Present: No
Number of Sampled Component Spectra: 1
Spectrometers: USB4C02835
Integration Time (usec): 100000 (USB4C02835)
Spectra Averaged: 1 (USB4C02835)
Boxcar Smoothing: 0 (USB4C02835)
Correct for Electrical Dark: No (USB4C02835)
Strobe/Lamp Enabled: No (USB4C02835)
Correct for Detector Non-linearity: No (USB4C02835)
Correct for Stray Light: No (USB4C02835)
Number of Pixels in Processed Spectrum: 3648
>>>>>Begin Processed Spectral Data<<<<<
177.47	1411.05
177.69	1411.05
177.91	1411.05
178.13	1562.60
178.36	1462.25
178.58	1671.14
178.80	1708.01
179.02	1619.94
179.24	1675.24
179.46	1621.99
179.68	1767.40
179.90	1708.01
180.13	1693.67
180.35	1677.29
180.57	1669.09
180.79	1710.05
181.01	1685.48
181.23	1722.34
181.45	1718.25
181.67	1748.97
181.90	1734.63
182.12	1660.90
182.34	1558.50
182.56	1689.57
182.78	1710.05
183.00	1669.09
183.22	1744.87
183.44	1603.56
183.66	1845.22
183.89	1814.50
184.11	1658.85
184.33	1763.30
184.55	1736.68
184.77	1771.49
184.99	1726.44
185.21	1683.43
185.43	1845.22
185.65	1669.09
185.87	1714.15
186.10	1806.31
186.32	1839.08
186.54	1763.30
186.76	1755.11
186.98	1738.73
187.20	1716.20
187.42	1718.25
187.64	1710.05
187.86	1683.43
188.08	1751.01
188.30	1638.38
188.52	1656.81
188.75	1714.15
188.97	1791.97
189.19	1681.38
189.41	1687.53
189.63	1722.34
189.85	1765.35
190.07	1669.09
190.29	1601.51
190.51	1767.40
190.73	1634.28
190.95	1767.40
191.17	1714.15
191.39	1642.47
191.61	1628.14
191.84	1683.43
192.06	1703.91
192.28	1689.57
192.50	1871.84
192.72	1677.29
192.94	1742.82
193.16	1753.06
193.38	1763.30
193.60	1710.05
193.82	1683.43
194.04	1763.30
194.26	1738.73
194.48	1673.19
194.70	1578.98
194.92	1730.53
195.14	1642.47
195.36	1628.14
195.58	1667.05
195.80	1703.91
196.02	1751.01
196.24	1699.81
196.46	1673.19
196.69	1632.23
196.91	1853.41
197.13	1607.66
197.35	1665.00
197.57	1732.58
197.79	1708.01
198.01	1728.49
198.23	1669.09
198.45	1748.97
198.67	1648.61
198.89	1650.66
199.11	1710.05
199.33	1677.29
199.55	1601.51
199.77	1648.61
199.99	1783.78
200.21	1634.28
200.43	1716.20
200.65	1628.14
200.87	1550.31
201.09	1724.39
201.31	1675.24
201.53	1763.30
201.75	1738.73
201.97	1751.01
202.19	1656.81
202.41	1724.39
202.63	1722.34
202.85	1800.16
203.07	1806.31
203.29	1726.44
203.51	1658.85
203.73	1708.01
203.95	1877.99
204.17	1681.38
204.39	1695.72
204.61	1763.30
204.83	1689.57
205.05	1757.16
205.27	1751.01
205.49	1757.16
205.71	1644.52
205.93	1603.56
206.15	1624.04
206.37	1726.44
206.59	1695.72
206.81	1609.70
207.03	1624.04
207.25	1619.94
207.47	1808.36
207.69	1685.48
207.91	1720.29
208.13	1753.06
208.34	1683.43
208.56	1638.38
208.78	1738.73
209.00	1660.90
209.22	1705.96
209.44	1693.67
209.66	1708.01
209.88	1753.06
210.10	1695.72
210.32	1681.38
210.54	1714.15
210.76	1712.10
210.98	1740.77
211.20	1673.19
211.42	1667.05
211.64	1761.25
211.86	1687.53
212.08	1656.81
212.30	1744.87
212.52	1689.57
212.74	1740.77
212.96	1744.87
213.17	1791.97
213.39	1718.25
213.61	1791.97
213.83	1703.91
214.05	1626.09
214.27	1701.86
214.49	1691.62
214.71	1669.09
214.93	1779.68
215.15	1683.43
215.37	1740.77
215.59	1517.54
215.81	1740.77
216.03	1740.77
216.24	1708.01
216.46	1708.01
216.68	1697.77
216.90	1732.58
217.12	1718.25
217.34	1679.33
217.56	1791.97
217.78	1849.32
218.00	1767.40
218.22	1720.29
218.44	1689.57
218.66	1673.19
218.87	1748.97
219.09	1720.29
219.31	1757.16
219.53	1669.09
219.75	1703.91
219.97	1759.21
220.19	1683.43
220.41	1656.81
220.63	1763.30
220.85	1695.72
221.06	1660.90
221.28	1742.82
221.50	1675.24
221.72	1703.91
221.94	1656.81
222.16	1718.25
222.38	1710.05
222.60	1767.40
222.82	1615.85
223.03	1771.49
223.25	1632.23
223.47	1734.63
223.69	1755.11
223.91	1767.40
224.13	1681.38
224.35	1630.18
224.57	1730.53
224.78	1728.49
225.00	1665.00
225.22	1705.96
225.44	1691.62
225.66	1736.68
225.88	1712.10
226.10	1730.53
226.32	1726.44
226.53	1705.96
226.75	1746.92
226.97	1726.44
227.19	1757.16
227.41	1697.77
227.63	1710.05
227.85	1662.95
228.06	1753.06
228.28	1691.62
228.50	1738.73
228.72	1603.56
228.94	1673.19
229.16	1626.09
229.37	1685.48
229.59	1671.14
229.81	1748.97
230.03	1642.47
230.25	1699.81
230.47	1603.56
230.69	1640.42
230.90	1796.07
231.12	1662.95
231.34	1669.09
231.56	1681.38
231.78	1697.77
232.00	1765.35
232.21	1716.20
232.43	1658.85
232.65	1599.46
232.87	1839.08
233.09	1667.05
233.30	1697.77
233.52	1744.87
233.74	1718.25
233.96	1724.39
234.18	1640.42
234.40	1675.24
234.61	1820.64
234.83	1650.66
235.05	1583.08
235.27	1884.13
235.49	1800.16
235.70	1714.15
235.92	1759.21
236.14	1755.11
236.36	1834.98
236.58	1742.82
236.79	1640.42
237.01	1626.09
237.23	1714.15
237.45	1832.93
237.67	1648.61
237.88	1679.33
238.10	1845.22
238.32	1626.09
238.54	1701.86
238.76	1626.09
238.97	1656.81
239.19	1613.80
239.41	1787.88
239.63	1798.12
239.85	1705.96
240.06	1746.92
240.28	1701.86
240.50	1785.83
240.72	1742.82
240.93	1621.99
241.15	1755.11
241.37	1753.06
241.59	1865.70
241.81	1662.95
242.02	1665.00
242.24	1757.16
242.46	1699.81
242.68	1648.61
242.89	1738.73
243.11	1791.97
243.33	1658.85
243.55	1691.62
243.76	1654.76
243.98	1679.33
244.20	1654.76
244.42	1712.10
244.64	1757.16
244.85	1634.28
245.07	1601.51
245.29	1714.15
245.51	1732.58
245.72	1751.01
245.94	1861.60
246.16	1714.15
246.38	1718.25
246.59	1648.61
246.81	1634.28
247.03	1703.91
247.24	1617.90
247.46	1738.73
247.68	1634.28
247.90	1671.14
248.11	1681.38
248.33	1710.05
248.55	1767.40
248.77	1716.20
248.98	1761.25
249.20	1804.26
249.42	1705.96
249.64	1710.05
249.85	1671.14
250.07	1681.38
250.29	1746.92
250.50	1761.25
250.72	1656.81
250.94	1763.30
251.16	1798.12
251.37	1759.21
251.59	1728.49
251.81	1742.82
252.02	1728.49
252.24	1667.05
252.46	1806.31
252.68	1685.48
252.89	1734.63
253.11	1640.42
253.33	1789.92
253.54	1779.68
253.76	1640.42
253.98	1658.85
254.20	1693.67
254.41	1595.37
254.63	1685.48
254.85	1677.29
255.06	1714.15
255.28	1746.92
255.50	1714.15
255.71	1667.05
255.93	1652.71
256.15	1722.34
256.36	1765.35
256.58	1636.33
256.80	1681.38
257.02	1675.24
257.23	1708.01
257.45	1675.24
257.67	1763.30
257.88	1736.68
258.10	1714.15
258.32	1685.48
258.53	1708.01
258.75	1818.60
258.97	1615.85
259.18	1718.25
259.40	1734.63
259.62	1814.50
259.83	1796.07
260.05	1724.39
260.27	1955.81
260.48	1800.16
260.70	1566.70
260.92	1621.99
261.13	1695.72
261.35	1718.25
261.57	1732.58
261.78	1681.38
262.00	1632.23
262.22	1767.40
262.43	1695.72
262.65	1640.42
262.86	1638.38
263.08	1865.70
263.30	1705.96
263.51	1660.90
263.73	1693.67
263.95	1759.21
264.16	1671.14
264.38	1652.71
264.60	1783.78
264.81	1597.42
265.03	1785.83
265.25	1728.49
265.46	1685.48
265.68	1757.16
265.89	1777.64
266.11	1599.46
266.33	1755.11
266.54	1716.20
266.76	1753.06
266.98	1781.73
267.19	1765.35
267.41	1708.01
267.62	1665.00
267.84	1665.00
268.06	1691.62
268.27	1718.25
268.49	1742.82
268.70	1701.86
268.92	1656.81
269.14	1724.39
269.35	1650.66
269.57	1650.66
269.79	1712.10
270.00	1638.38
270.22	1869.80
270.43	1683.43
270.65	1593.32
270.87	1669.09
271.08	1677.29
271.30	1722.34
271.51	1693.67
271.73	1826.79
271.95	1748.97
272.16	1732.58
272.38	1714.15
272.59	1638.38
272.81	1718.25
273.02	1736.68
273.24	1665.00
273.46	1720.29
273.67	1621.99
273.89	1701.86
274.10	1665.00
274.32	1753.06
274.54	1742.82
274.75	1728.49
274.97	1636.33
275.18	1693.67
275.40	1710.05
275.61	1751.01
275.83	1689.57
276.05	1681.38
276.26	1710.05
276.48	1744.87
276.69	1726.44
276.91	1587.18
277.12	1759.21
277.34	1710.05
277.55	1753.06
277.77	1681.38
277.99	1671.14
278.20	1712.10
278.42	1632.23
278.63	1636.33
278.85	1673.19
279.06	1615.85
279.28	1644.52
279.49	1693.67
279.71	1732.58
279.93	1673.19
280.14	1667.05
280.36	1648.61
280.57	1806.31
280.79	1746.92
281.00	1658.85
281.22	1728.49
281.43	1794.02
281.65	1599.46
281.86	1689.57
282.08	1677.29
282.29	1808.36
282.51	1583.08
282.73	1705.96
282.94	1628.14
283.16	1742.82
283.37	1781.73
283.59	1757.16
283.80	1669.09
284.02	1658.85
284.23	1751.01
284.45	1665.00
284.66	1638.38
284.88	1718.25
285.09	1716.20
285.31	1779.68
285.52	1681.38
285.74	1574.89
285.95	1716.20
286.17	1767.40
286.38	1759.21
286.60	1683.43
286.81	1705.96
287.03	1632.23
287.24	1724.39
287.46	1765.35
287.67	1634.28
287.89	1869.80
288.10	1644.52
288.32	1648.61
288.53	1742.82
288.75	1679.33
288.96	1708.01
289.18	1665.00
289.39	1654.76
289.61	1769.44
289.82	1830.88
290.04	1775.59
290.25	1658.85
290.47	1765.35
290.68	1640.42
290.90	1785.83
291.11	1636.33
291.33	1822.69
291.54	1730.53
291.76	1632.23
291.97	1718.25
292.18	1724.39
292.40	1697.77
292.61	1714.15
292.83	1923.04
293.04	1708.01
293.26	1652.71
293.47	1759.21
293.69	1660.90
293.90	1648.61
294.12	1789.92
294.33	1703.91
294.55	1718.25
294.76	1722.34
294.97	1773.54
295.19	1834.98
295.40	1765.35
295.62	1759.21
295.83	1710.05
296.05	1691.62
296.26	1796.07
296.48	1650.66
296.69	1761.25
296.90	1669.09
297.12	1708.01
297.33	1785.83
297.55	1824.74
297.76	1740.77
297.98	1708.01
298.19	1695.72
298.41	1628.14
298.62	1636.33
298.83	1771.49
299.05	1716.20
299.26	1646.57
299.48	1669.09
299.69	1730.53
299.90	1695.72
300.12	1677.29
300.33	1724.39
300.55	1697.77
300.76	1755.11
300.98	1642.47
301.19	1775.59
301.40	1673.19
301.62	1699.81
301.83	1640.42
302.05	1800.16
302.26	1718.25
302.47	1800.16
302.69	1638.38
302.90	1753.06
303.12	1550.31
303.33	1722.34
303.54	1785.83
303.76	1675.24
303.97	1710.05
304.19	1763.30
304.40	1691.62
304.61	1708.01
304.83	1791.97
305.04	1781.73
305.26	1726.44
305.47	1716.20
305.68	1691.62
305.90	1660.90
306.11	1697.77
306.33	1671.14
306.54	1712.10
306.75	1642.47
306.97	1636.33
307.18	1621.99
307.39	1710.05
307.61	1753.06
307.82	1626.09
308.04	1685.48
308.25	1689.57
308.46	1767.40
308.68	1646.57
308.89	1675.24
309.10	1761.25
309.32	1681.38
309.53	1705.96
309.74	1697.77
309.96	1685.48
310.17	1787.88
310.39	1681.38
310.60	1697.77
310.81	1685.48
311.03	1662.95
311.24	1763.30
311.45	1691.62
311.67	1804.26
311.88	1703.91
312.09	1662.95
312.31	1691.62
312.52	1705.96
312.73	1665.00
312.95	1619.94
313.16	1703.91
313.37	1798.12
313.59	1732.58
313.80	1759.21
314.01	1769.44
314.23	1687.53
314.44	1626.09
314.65	1665.00
314.87	1648.61
315.08	1652.71
315.29	1699.81
315.51	1675.24
315.72	1632.23
315.93	1832.93
316.15	1730.53
316.36	1642.47
316.57	1689.57
316.79	1740.77
317.00	1716.20
317.21	1714.15
317.43	1566.70
317.64	1746.92
317.85	1626.09
318.07	1687.53
318.28	1689.57
318.49	1812.45
318.70	1937.38
318.92	1851.36
319.13	1794.02
319.34	1753.06
319.56	1824.74
319.77	1773.54
319.98	1855.46
320.20	1816.55
320.41	1748.97
320.62	1767.40
320.83	1765.35
321.05	1763.30
321.26	1732.58
321.47	1697.77
321.69	1765.35
321.90	1603.56
322.11	1665.00
322.32	1703.91
322.54	1708.01
322.75	1691.62
322.96	1843.17
323.18	1675.24
323.39	1574.89
323.60	1570.79
323.81	1742.82
324.03	1646.57
324.24	1693.67
324.45	1705.96
324.66	1685.48
324.88	1746.92
325.09	1765.35
325.30	1767.40
325.52	1722.34
325.73	1648.61
325.94	1585.13
326.15	1554.41
326.37	1728.49
326.58	1771.49
326.79	1753.06
327.00	1662.95
327.22	1734.63
327.43	1695.72
327.64	1691.62
327.85	1746.92
328.07	1769.44
328.28	1830.88
328.49	1730.53
328.70	1642.47
328.92	1708.01
329.13	1652.71
329.34	1691.62
329.55	1800.16
329.76	1824.74
329.98	1677.29
330.19	1705.96
330.40	1748.97
330.61	1751.01
330.83	1779.68
331.04	1619.94
331.25	1712.10
331.46	1699.81
331.68	1671.14
331.89	1791.97
332.10	1791.97
332.31	1716.20
332.52	1636.33
332.74	1771.49
332.95	1669.09
333.16	1730.53
333.37	1767.40
333.58	1644.52
333.80	1705.96
334.01	1626.09
334.22	1697.77
334.43	1681.38
334.64	1673.19
334.86	1640.42
335.07	1587.18
335.28	1847.27
335.49	1613.80
335.70	1734.63
335.92	1748.97
336.13	1773.54
336.34	1705.96
336.55	1779.68
336.76	1714.15
336.98	1632.23
337.19	1744.87
337.40	1751.01
337.61	1814.50
337.82	1697.77
338.04	1791.97
338.25	1615.85
338.46	1718.25
338.67	1734.63
338.88	1546.22
339.09	1646.57
339.31	1644.52
339.52	1632.23
339.73	1660.90
339.94	1761.25
340.15	1710.05
340.36	1658.85
340.58	1740.77
340.79	1574.89
341.00	1691.62
341.21	1681.38
341.42	1771.49
341.63	1634.28
341.85	1726.44
342.06	1689.57
342.27	1597.42
342.48	1769.44
342.69	1689.57
342.90	1671.14
343.12	1783.78
343.33	1675.24
343.54	1734.63
343.75	1746.92
343.96	1667.05
344.17	1609.70
344.38	1665.00
344.60	1699.81
344.81	1619.94
345.02	1667.05
345.23	1755.11
345.44	1818.60
345.65	1779.68
345.86	1763.30
346.07	1740.77
346.29	1611.75
346.50	1724.39
346.71	1718.25
346.92	1720.29
347.13	1755.11
347.34	1748.97
347.55	1740.77
347.76	1759.21
347.98	1572.84
348.19	1712.10
348.40	1843.17
348.61	1644.52
348.82	1771.49
349.03	1730.53
349.24	1673.19
349.45	1777.64
349.66	1538.02
349.88	1685.48
350.09	1660.90
350.30	1746.92
350.51	1759.21
350.72	1712.10
350.93	1703.91
351.14	1675.24
351.35	1742.82
351.56	1722.34
351.77	1765.35
351.99	1714.15
352.20	1771.49
352.41	1720.29
352.62	1583.08
352.83	1753.06
353.04	1671.14
353.25	1722.34
353.46	1763.30
353.67	1765.35
353.88	1685.48
354.09	1652.71
354.30	1708.01
354.52	1681.38
354.73	1665.00
354.94	1640.42
355.15	1660.90
355.36	1865.70
355.57	1742.82
355.78	1693.67
355.99	1601.51
356.20	1695.72
356.41	1767.40
356.62	1683.43
356.83	1705.96
357.04	1845.22
357.25	1621.99
357.46	1658.85
357.68	1583.08
357.89	1681.38
358.10	1699.81
358.31	1779.68
358.52	1693.67
358.73	1646.57
358.94	1681.38
359.15	1726.44
359.36	1808.36
359.57	1738.73
359.78	1708.01
359.99	1755.11
360.20	1658.85
360.41	1685.48
360.62	1708.01
360.83	1759.21
361.04	1710.05
361.25	1730.53
361.46	1773.54
361.67	1746.92
361.88	1740.77
362.09	1775.59
362.30	1710.05
362.51	1605.61
362.72	1718.25
362.93	1771.49
363.14	1802.21
363.35	1710.05
363.56	1624.04
363.78	1779.68
363.99	1705.96
364.20	1660.90
364.41	1748.97
364.62	1710.05
364.83	1691.62
365.04	1675.24
365.25	1740.77
365.46	1800.16
365.67	1611.75
365.88	1611.75
366.09	1650.66
366.30	1693.67
366.51	1617.90
366.72	1570.79
366.93	1656.81
367.14	1650.66
367.35	1755.11
367.56	1662.95
367.77	1783.78
367.98	1675.24
368.18	1683.43
368.39	1718.25
368.60	1636.33
368.81	1794.02
369.02	1632.23
369.23	1660.90
369.44	1646.57
369.65	1660.90
369.86	1705.96
370.07	1740.77
370.28	1611.75
370.49	1744.87
370.70	1724.39
370.91	1640.42
371.12	1613.80
371.33	1701.86
371.54	1667.05
371.75	1744.87
371.96	1617.90
372.17	1683.43
372.38	1763.30
372.59	1699.81
372.80	1660.90
373.01	1710.05
373.22	1779.68
373.43	1683.43
373.64	1677.29
373.85	1814.50
374.06	1736.68
374.26	1732.58
374.47	1740.77
374.68	1773.54
374.89	1697.77
375.10	1685.48
375.31	1732.58
375.52	1746.92
375.73	1660.90
375.94	1675.24
376.15	1726.44
376.36	1662.95
376.57	1646.57
376.78	1665.00
376.99	1665.00
377.20	1802.21
377.40	1656.81
377.61	1783.78
377.82	1636.33
378.03	1828.84
378.24	1732.58
378.45	1732.58
378.66	1726.44
378.87	1554.41
379.08	1597.42
379.29	1628.14
379.50	1740.77
379.71	1757.16
379.91	1708.01
380.12	1753.06
380.33	1755.11
380.54	1697.77
380.75	1626.09
380.96	1712.10
381.17	1771.49
381.38	1613.80
381.59	1652.71
381.80	1728.49
382.00	1949.67
382.21	1775.59
382.42	1869.80
382.63	1808.36
382.84	1736.68
383.05	1781.73
383.26	1771.49
383.47	1685.48
383.68	1757.16
383.88	1755.11
384.09	1732.58
384.30	1751.01
384.51	1716.20
384.72	1673.19
384.93	1662.95
385.14	1757.16
385.35	1771.49
385.55	1669.09
385.76	1804.26
385.97	1691.62
386.18	1673.19
386.39	1667.05
386.60	1658.85
386.81	1644.52
387.02	1712.10
387.22	1662.95
387.43	1841.12
387.64	1804.26
387.85	1933.28
388.06	2197.47
388.27	4288.45
388.48	6868.89
388.68	8271.75
388.89	9844.59
389.10	9949.03
389.31	8691.58
389.52	7622.54
389.73	6606.75
389.93	6303.65
390.14	5797.80
390.35	5191.60
390.56	4474.81
390.77	3817.41
390.98	3074.00
391.18	2418.65
391.39	2121.70
391.60	1816.55
391.81	1853.41
392.02	1734.63
392.23	1845.22
392.43	1703.91
392.64	1679.33
392.85	1726.44
393.06	1763.30
393.27	1669.09
393.47	1626.09
393.68	1703.91
393.89	1693.67
394.10	1746.92
394.31	1691.62
394.52	1636.33
394.72	1695.72
394.93	1787.88
395.14	1642.47
395.35	1775.59
395.56	1638.38
395.76	1705.96
395.97	1765.35
396.18	1820.64
396.39	1810.40
396.60	2054.11
396.80	1880.04
397.01	1812.45
397.22	1847.27
397.43	1880.04
397.64	1726.44
397.84	1857.51
398.05	1822.69
398.26	1714.15
398.47	1810.40
398.67	1732.58
398.88	1720.29
399.09	1763.30
399.30	1712.10
399.51	1814.50
399.71	1695.72
399.92	1742.82
400.13	1705.96
400.34	1705.96
400.54	1763.30
400.75	1751.01
400.96	1726.44
401.17	1761.25
401.37	1703.91
401.58	1746.92
401.79	1714.15
402.00	1804.26
402.21	2043.87
402.41	2045.92
402.62	1968.10
402.83	2037.73
403.04	1953.76
403.24	2111.46
403.45	1847.27
403.66	1914.85
403.87	1857.51
404.07	1900.52
404.28	1847.27
404.49	1892.32
404.70	1796.07
404.90	1779.68
405.11	1755.11
405.32	1718.25
405.52	1658.85
405.73	1605.61
405.94	1654.76
406.15	1671.14
406.35	1652.71
406.56	1751.01
406.77	1789.92
406.98	1693.67
407.18	1626.09
407.39	1810.40
407.60	1654.76
407.80	1822.69
408.01	1640.42
408.22	1705.96
408.43	1734.63
408.63	1757.16
408.84	1794.02
409.05	1722.34
409.25	1648.61
409.46	1632.23
409.67	1695.72
409.88	1693.67
410.08	1751.01
410.29	1705.96
410.50	1791.97
410.70	1714.15
410.91	1701.86
411.12	1814.50
411.32	1724.39
411.53	1732.58
411.74	1834.98
411.95	1828.84
412.15	1742.82
412.36	1781.73
412.57	1767.40
412.77	1820.64
412.98	1708.01
413.19	1685.48
413.39	1742.82
413.60	1675.24
413.81	1759.21
414.01	1656.81
414.22	1837.03
414.43	1796.07
414.63	1751.01
414.84	1802.21
415.05	1724.39
415.25	1675.24
415.46	1783.78
415.67	1662.95
415.87	1728.49
416.08	1712.10
416.29	1691.62
416.49	1710.05
416.70	1638.38
416.91	1675.24
417.11	1656.81
417.32	1724.39
417.53	1751.01
417.73	1685.48
417.94	1638.38
418.15	1787.88
418.35	1724.39
418.56	1757.16
418.77	1824.74
418.97	1726.44
419.18	1708.01
419.38	1568.74
419.59	1689.57
419.80	1753.06
420.00	1726.44
420.21	1736.68
420.42	1787.88
420.62	1699.81
420.83	1705.96
421.04	1703.91
421.24	1722.34
421.45	1744.87
421.65	1738.73
421.86	1656.81
422.07	1705.96
422.27	1783.78
422.48	1755.11
422.69	1673.19
422.89	1712.10
423.10	1656.81
423.30	1673.19
423.51	1722.34
423.72	1673.19
423.92	1671.14
424.13	1646.57
424.33	1673.19
424.54	1746.92
424.75	1671.14
424.95	1744.87
425.16	1802.21
425.36	1720.29
425.57	1718.25
425.78	1681.38
425.98	1771.49
426.19	1683.43
426.39	1665.00
426.60	1722.34
426.81	1804.26
427.01	1685.48
427.22	1654.76
427.42	1681.38
427.63	1689.57
427.83	1748.97
428.04	1865.70
428.25	1683.43
428.45	1765.35
428.66	1794.02
428.86	1755.11
429.07	1761.25
429.28	1714.15
429.48	1677.29
429.69	1656.81
429.89	1656.81
430.10	1656.81
430.30	1746.92
430.51	1767.40
430.71	1710.05
430.92	1673.19
431.13	1695.72
431.33	1726.44
431.54	1753.06
431.74	1794.02
431.95	1759.21
432.15	1669.09
432.36	1673.19
432.56	1738.73
432.77	1843.17
432.98	1798.12
433.18	1681.38
433.39	1763.30
433.59	1677.29
433.80	1804.26
434.00	1880.04
434.21	1621.99
434.41	1695.72
434.62	1869.80
434.82	1671.14
435.03	1716.20
435.23	1746.92
435.44	1605.61
435.64	1734.63
435.85	1708.01
436.06	1701.86
436.26	1763.30
436.47	1617.90
436.67	1607.66
436.88	1681.38
437.08	1785.83
437.29	1705.96
437.49	1673.19
437.70	1761.25
437.90	1675.24
438.11	1824.74
438.31	1798.12
438.52	1800.16
438.72	1884.13
438.93	1904.61
439.13	1863.65
439.34	1837.03
439.54	1802.21
439.75	1767.40
439.95	1875.94
440.16	1775.59
440.36	1722.34
440.57	1732.58
440.77	1769.44
440.98	1736.68
441.18	1728.49
441.39	1701.86
441.59	1656.81
441.80	1841.12
442.00	1714.15
442.21	1832.93
442.41	1619.94
442.62	1736.68
442.82	1697.77
443.02	1726.44
443.23	1708.01
443.43	1751.01
443.64	1718.25
443.84	1634.28
444.05	1849.32
444.25	1775.59
444.46	1697.77
444.66	1679.33
444.87	1751.01
445.07	1648.61
445.28	1773.54
445.48	1738.73
445.69	1705.96
445.89	1875.94
446.09	1785.83
446.30	1986.53
446.50	2668.50
446.71	3704.78
446.91	4372.41
447.12	4687.80
447.32	4892.60
447.53	4310.97
447.73	3874.76
447.93	3520.46
448.14	3356.62
448.34	3184.59
448.55	2955.22
448.75	2856.92
448.96	2672.60
449.16	2371.55
449.36	2232.29
449.57	2076.64
449.77	1877.99
449.98	1728.49
450.18	1773.54
450.39	1808.36
450.59	1744.87
450.79	1734.63
451.00	1687.53
451.20	1748.97
451.41	1689.57
451.61	1722.34
451.81	1662.95
452.02	1650.66
452.22	1708.01
452.43	1773.54
452.63	1742.82
