SpectraSuite Data File
++++++++++++++++++++++++++++++++++++
Date: Mon Jun 06 15:20:17 CEST 2016
User: root
Dark Spectrum Present: No
Reference Spectrum Present: No
Number of Sampled Component Spectra: 1
Spectrometers: USB4C02835
Integration Time (usec): 100000 (USB4C02835)
Spectra Averaged: 1 (USB4C02835)
Boxcar Smoothing: 0 (USB4C02835)
Correct for Electrical Dark: No (USB4C02835)
Strobe/Lamp Enabled: No (USB4C02835)
Correct for Detector Non-linearity: No (USB4C02835)
Correct for Stray Light: No (USB4C02835)
Number of Pixels in Processed Spectrum: 3648
>>>>>Begin Processed Spectral Data<<<<<
177.47	1460.20
177.69	1460.20
177.91	1460.20
178.13	1490.92
178.36	1544.17
178.58	1693.67
178.80	1773.54
179.02	1619.94
179.24	1636.33
179.46	1581.03
179.68	1818.60
179.90	1736.68
180.13	1738.73
180.35	1689.57
180.57	1683.43
180.79	1802.21
181.01	1650.66
181.23	1759.21
181.45	1761.25
181.67	1695.72
181.90	1753.06
182.12	1742.82
182.34	1642.47
182.56	1742.82
182.78	1736.68
183.00	1652.71
183.22	1714.15
183.44	1624.04
183.66	1791.97
183.89	1841.12
184.11	1769.44
184.33	1748.97
184.55	1693.67
184.77	1761.25
184.99	1699.81
185.21	1720.29
185.43	1832.93
185.65	1681.38
185.87	1748.97
186.10	1920.99
186.32	1845.22
186.54	1677.29
186.76	1720.29
186.98	1738.73
187.20	1660.90
187.42	1759.21
187.64	1722.34
187.86	1730.53
188.08	1724.39
188.30	1724.39
188.52	1775.59
188.75	1765.35
188.97	1701.86
189.19	1667.05
189.41	1638.38
189.63	1701.86
189.85	1658.85
190.07	1726.44
190.29	1644.52
190.51	1675.24
190.73	1640.42
190.95	1783.78
191.17	1697.77
191.39	1621.99
191.61	1720.29
191.84	1746.92
192.06	1703.91
192.28	1593.32
192.50	1927.14
192.72	1654.76
192.94	1703.91
193.16	1812.45
193.38	1746.92
193.60	1613.80
193.82	1699.81
194.04	1847.27
194.26	1705.96
194.48	1732.58
194.70	1734.63
194.92	1744.87
195.14	1791.97
195.36	1703.91
195.58	1689.57
195.80	1734.63
196.02	1654.76
196.24	1695.72
196.46	1673.19
196.69	1660.90
196.91	1804.26
197.13	1730.53
197.35	1716.20
197.57	1796.07
197.79	1669.09
198.01	1763.30
198.23	1714.15
198.45	1716.20
198.67	1605.61
198.89	1718.25
199.11	1794.02
199.33	1685.48
199.55	1603.56
199.77	1708.01
199.99	1734.63
200.21	1626.09
200.43	1697.77
200.65	1648.61
200.87	1583.08
201.09	1662.95
201.31	1701.86
201.53	1773.54
201.75	1738.73
201.97	1738.73
202.19	1671.14
202.41	1705.96
202.63	1898.47
202.85	1722.34
203.07	1648.61
203.29	1671.14
203.51	1681.38
203.73	1638.38
203.95	1939.43
204.17	1740.77
204.39	1722.34
204.61	1744.87
204.83	1697.77
205.05	1791.97
205.27	1771.49
205.49	1869.80
205.71	1632.23
205.93	1642.47
206.15	1648.61
206.37	1763.30
206.59	1701.86
206.81	1658.85
207.03	1691.62
207.25	1636.33
207.47	1769.44
207.69	1652.71
207.91	1816.55
208.13	1773.54
208.34	1708.01
208.56	1640.42
208.78	1742.82
209.00	1675.24
209.22	1689.57
209.44	1746.92
209.66	1638.38
209.88	1695.72
210.10	1642.47
210.32	1673.19
210.54	1834.98
210.76	1712.10
210.98	1724.39
211.20	1703.91
211.42	1675.24
211.64	1865.70
211.86	1773.54
212.08	1751.01
212.30	1794.02
212.52	1634.28
212.74	1746.92
212.96	1753.06
213.17	1806.31
213.39	1726.44
213.61	1839.08
213.83	1748.97
214.05	1662.95
214.27	1724.39
214.49	1675.24
214.71	1691.62
214.93	1771.49
215.15	1732.58
215.37	1767.40
215.59	1667.05
215.81	1728.49
216.03	1753.06
216.24	1734.63
216.46	1691.62
216.68	1667.05
216.90	1726.44
217.12	1798.12
217.34	1748.97
217.56	1724.39
217.78	1791.97
218.00	1732.58
218.22	1677.29
218.44	1714.15
218.66	1691.62
218.87	1816.55
219.09	1640.42
219.31	1714.15
219.53	1673.19
219.75	1705.96
219.97	1626.09
220.19	1742.82
220.41	1624.04
220.63	1781.73
220.85	1751.01
221.06	1763.30
221.28	1796.07
221.50	1701.86
221.72	1665.00
221.94	1740.77
222.16	1628.14
222.38	1732.58
222.60	1691.62
222.82	1720.29
223.03	1761.25
223.25	1599.46
223.47	1746.92
223.69	1794.02
223.91	1722.34
224.13	1781.73
224.35	1716.20
224.57	1820.64
224.78	1775.59
225.00	1710.05
225.22	1675.24
225.44	1673.19
225.66	1775.59
225.88	1710.05
226.10	1759.21
226.32	1722.34
226.53	1787.88
226.75	1716.20
226.97	1634.28
227.19	1638.38
227.41	1751.01
227.63	1718.25
227.85	1736.68
228.06	1742.82
228.28	1710.05
228.50	1781.73
228.72	1642.47
228.94	1703.91
229.16	1576.94
229.37	1538.02
229.59	1609.70
229.81	1814.50
230.03	1669.09
230.25	1677.29
230.47	1671.14
230.69	1675.24
230.90	1751.01
231.12	1697.77
231.34	1740.77
231.56	1740.77
231.78	1636.33
232.00	1615.85
232.21	1712.10
232.43	1712.10
232.65	1742.82
232.87	1763.30
233.09	1673.19
233.30	1650.66
233.52	1765.35
233.74	1720.29
233.96	1740.77
234.18	1746.92
234.40	1738.73
234.61	1935.33
234.83	1587.18
235.05	1656.81
235.27	1808.36
235.49	1757.16
235.70	1724.39
235.92	1791.97
236.14	1701.86
236.36	1822.69
236.58	1685.48
236.79	1710.05
237.01	1785.83
237.23	1746.92
237.45	1845.22
237.67	1658.85
237.88	1708.01
238.10	1757.16
238.32	1646.57
238.54	1746.92
238.76	1714.15
238.97	1652.71
239.19	1726.44
239.41	1734.63
239.63	1791.97
239.85	1712.10
240.06	1742.82
240.28	1683.43
240.50	1777.64
240.72	1734.63
240.93	1675.24
241.15	1794.02
241.37	1763.30
241.59	1763.30
241.81	1636.33
242.02	1642.47
242.24	1701.86
242.46	1724.39
242.68	1642.47
242.89	1746.92
243.11	1777.64
243.33	1732.58
243.55	1730.53
243.76	1677.29
243.98	1699.81
244.20	1673.19
244.42	1779.68
244.64	1697.77
244.85	1648.61
245.07	1652.71
245.29	1773.54
245.51	1726.44
245.72	1744.87
245.94	1734.63
246.16	1636.33
246.38	1716.20
246.59	1677.29
246.81	1665.00
247.03	1728.49
247.24	1609.70
247.46	1689.57
247.68	1697.77
247.90	1636.33
248.11	1648.61
248.33	1753.06
248.55	1736.68
248.77	1746.92
248.98	1726.44
249.20	1863.65
249.42	1740.77
249.64	1763.30
249.85	1734.63
250.07	1673.19
250.29	1669.09
250.50	1822.69
250.72	1611.75
250.94	1726.44
251.16	1834.98
251.37	1746.92
251.59	1685.48
251.81	1824.74
252.02	1757.16
252.24	1656.81
252.46	1740.77
252.68	1617.90
252.89	1656.81
253.11	1591.27
253.33	1753.06
253.54	1738.73
253.76	1656.81
253.98	1693.67
254.20	1816.55
254.41	1607.66
254.63	1697.77
254.85	1613.80
255.06	1677.29
255.28	1681.38
255.50	1738.73
255.71	1665.00
255.93	1595.37
256.15	1734.63
256.36	1789.92
256.58	1660.90
256.80	1751.01
257.02	1720.29
257.23	1708.01
257.45	1724.39
257.67	1791.97
257.88	1705.96
258.10	1710.05
258.32	1675.24
258.53	1769.44
258.75	1771.49
258.97	1636.33
259.18	1693.67
259.40	1753.06
259.62	1800.16
259.83	1773.54
260.05	1769.44
260.27	1990.63
260.48	1798.12
260.70	1628.14
260.92	1662.95
261.13	1759.21
261.35	1665.00
261.57	1837.03
261.78	1677.29
262.00	1701.86
262.22	1716.20
262.43	1697.77
262.65	1759.21
262.86	1703.91
263.08	1839.08
263.30	1675.24
263.51	1644.52
263.73	1677.29
263.95	1755.11
264.16	1634.28
264.38	1732.58
264.60	1681.38
264.81	1685.48
265.03	1779.68
265.25	1802.21
265.46	1748.97
265.68	1785.83
265.89	1697.77
266.11	1679.33
266.33	1839.08
266.54	1761.25
266.76	1738.73
266.98	1708.01
267.19	1806.31
267.41	1771.49
267.62	1755.11
267.84	1611.75
268.06	1730.53
268.27	1736.68
268.49	1771.49
268.70	1800.16
268.92	1779.68
269.14	1652.71
269.35	1634.28
269.57	1724.39
269.79	1755.11
270.00	1626.09
270.22	1826.79
270.43	1693.67
270.65	1583.08
270.87	1687.53
271.08	1787.88
271.30	1734.63
271.51	1771.49
271.73	1724.39
271.95	1708.01
272.16	1796.07
272.38	1742.82
272.59	1689.57
272.81	1755.11
273.02	1701.86
273.24	1771.49
273.46	1787.88
273.67	1703.91
273.89	1658.85
274.10	1660.90
274.32	1761.25
274.54	1765.35
274.75	1667.05
274.97	1656.81
275.18	1800.16
275.40	1751.01
275.61	1716.20
275.83	1722.34
276.05	1617.90
276.26	1654.76
276.48	1802.21
276.69	1695.72
276.91	1687.53
277.12	1796.07
277.34	1742.82
277.55	1757.16
277.77	1648.61
277.99	1611.75
278.20	1642.47
278.42	1646.57
278.63	1578.98
278.85	1681.38
279.06	1660.90
279.28	1603.56
279.49	1767.40
279.71	1742.82
279.93	1765.35
280.14	1695.72
280.36	1722.34
280.57	1818.60
280.79	1669.09
281.00	1599.46
281.22	1632.23
281.43	1701.86
281.65	1533.93
281.86	1742.82
282.08	1656.81
282.29	1773.54
282.51	1679.33
282.73	1613.80
282.94	1591.27
283.16	1755.11
283.37	1789.92
283.59	1722.34
283.80	1734.63
284.02	1652.71
284.23	1798.12
284.45	1638.38
284.66	1611.75
284.88	1742.82
285.09	1658.85
285.31	1693.67
285.52	1773.54
285.74	1673.19
285.95	1679.33
286.17	1751.01
286.38	1712.10
286.60	1677.29
286.81	1617.90
287.03	1632.23
287.24	1642.47
287.46	1746.92
287.67	1740.77
287.89	1841.12
288.10	1646.57
288.32	1738.73
288.53	1738.73
288.75	1783.78
288.96	1798.12
289.18	1720.29
289.39	1720.29
289.61	1730.53
289.82	1783.78
290.04	1830.88
290.25	1662.95
290.47	1679.33
290.68	1648.61
290.90	1783.78
291.11	1603.56
291.33	1789.92
291.54	1636.33
291.76	1714.15
291.97	1722.34
292.18	1669.09
292.40	1665.00
292.61	1683.43
292.83	1826.79
293.04	1791.97
293.26	1742.82
293.47	1726.44
293.69	1685.48
293.90	1689.57
294.12	1783.78
294.33	1763.30
294.55	1751.01
294.76	1804.26
294.97	1757.16
295.19	1814.50
295.40	1703.91
295.62	1685.48
295.83	1808.36
296.05	1748.97
296.26	1824.74
296.48	1658.85
296.69	1687.53
296.90	1748.97
297.12	1779.68
297.33	1714.15
297.55	1718.25
297.76	1761.25
297.98	1779.68
298.19	1699.81
298.41	1726.44
298.62	1796.07
298.83	1763.30
299.05	1681.38
299.26	1673.19
299.48	1710.05
299.69	1722.34
299.90	1658.85
300.12	1644.52
300.33	1779.68
300.55	1687.53
300.76	1759.21
300.98	1630.18
301.19	1675.24
301.40	1644.52
301.62	1673.19
301.83	1726.44
302.05	1714.15
302.26	1640.42
302.47	1681.38
302.69	1652.71
302.90	1779.68
303.12	1566.70
303.33	1720.29
303.54	1710.05
303.76	1722.34
303.97	1687.53
304.19	1767.40
304.40	1685.48
304.61	1769.44
304.83	1814.50
305.04	1806.31
305.26	1710.05
305.47	1648.61
305.68	1744.87
305.90	1685.48
306.11	1767.40
306.33	1656.81
306.54	1673.19
306.75	1683.43
306.97	1611.75
307.18	1644.52
307.39	1669.09
307.61	1826.79
307.82	1650.66
308.04	1787.88
308.25	1712.10
308.46	1726.44
308.68	1742.82
308.89	1656.81
309.10	1742.82
309.32	1697.77
309.53	1718.25
309.74	1767.40
309.96	1703.91
310.17	1771.49
310.39	1669.09
310.60	1777.64
310.81	1685.48
311.03	1624.04
311.24	1724.39
311.45	1753.06
311.67	1851.36
311.88	1667.05
312.09	1644.52
312.31	1601.51
312.52	1708.01
312.73	1687.53
312.95	1656.81
313.16	1654.76
313.37	1816.55
313.59	1732.58
313.80	1855.46
314.01	1810.40
314.23	1644.52
314.44	1716.20
314.65	1615.85
314.87	1662.95
315.08	1771.49
315.29	1687.53
315.51	1734.63
315.72	1669.09
315.93	1798.12
316.15	1796.07
316.36	1646.57
316.57	1724.39
316.79	1722.34
317.00	1720.29
317.21	1753.06
317.43	1720.29
317.64	1734.63
317.85	1646.57
318.07	1605.61
318.28	1738.73
318.49	1775.59
318.70	1994.72
318.92	1859.56
319.13	1796.07
319.34	1857.51
319.56	1775.59
319.77	1806.31
319.98	1867.75
320.20	1757.16
320.41	1730.53
320.62	1769.44
320.83	1660.90
321.05	1802.21
321.26	1716.20
321.47	1738.73
321.69	1806.31
321.90	1703.91
322.11	1748.97
322.32	1720.29
322.54	1748.97
322.75	1753.06
322.96	1796.07
323.18	1621.99
323.39	1624.04
323.60	1595.37
323.81	1777.64
324.03	1722.34
324.24	1734.63
324.45	1722.34
324.66	1701.86
324.88	1822.69
325.09	1798.12
325.30	1728.49
325.52	1773.54
325.73	1763.30
325.94	1632.23
326.15	1638.38
326.37	1648.61
326.58	1767.40
326.79	1734.63
327.00	1615.85
327.22	1693.67
327.43	1755.11
327.64	1656.81
327.85	1759.21
328.07	1734.63
328.28	1908.71
328.49	1695.72
328.70	1716.20
328.92	1693.67
329.13	1687.53
329.34	1718.25
329.55	1744.87
329.76	1824.74
329.98	1724.39
330.19	1783.78
330.40	1738.73
330.61	1761.25
330.83	1798.12
331.04	1644.52
331.25	1681.38
331.46	1636.33
331.68	1673.19
331.89	1738.73
332.10	1671.14
332.31	1642.47
332.52	1722.34
332.74	1834.98
332.95	1669.09
333.16	1648.61
333.37	1726.44
333.58	1689.57
333.80	1761.25
334.01	1589.22
334.22	1687.53
334.43	1722.34
334.64	1771.49
334.86	1681.38
335.07	1662.95
335.28	1742.82
335.49	1650.66
335.70	1699.81
335.92	1763.30
336.13	1877.99
336.34	1779.68
336.55	1673.19
336.76	1753.06
336.98	1644.52
337.19	1652.71
337.40	1787.88
337.61	1918.95
337.82	1665.00
338.04	1730.53
338.25	1642.47
338.46	1751.01
338.67	1732.58
338.88	1646.57
339.09	1605.61
339.31	1787.88
339.52	1669.09
339.73	1675.24
339.94	1734.63
340.15	1660.90
340.36	1703.91
340.58	1757.16
340.79	1708.01
341.00	1736.68
341.21	1701.86
341.42	1820.64
341.63	1642.47
341.85	1804.26
342.06	1761.25
342.27	1665.00
342.48	1753.06
342.69	1642.47
342.90	1718.25
343.12	1742.82
343.33	1681.38
343.54	1777.64
343.75	1808.36
343.96	1740.77
344.17	1650.66
344.38	1736.68
344.60	1611.75
344.81	1677.29
345.02	1716.20
345.23	1802.21
345.44	1740.77
345.65	1779.68
345.86	1691.62
346.07	1689.57
346.29	1677.29
346.50	1705.96
346.71	1669.09
346.92	1789.92
347.13	1800.16
347.34	1695.72
347.55	1714.15
347.76	1757.16
347.98	1648.61
348.19	1679.33
348.40	1724.39
348.61	1693.67
348.82	1837.03
349.03	1757.16
349.24	1697.77
349.45	1837.03
349.66	1648.61
349.88	1734.63
350.09	1632.23
350.30	1763.30
350.51	1767.40
350.72	1718.25
350.93	1746.92
351.14	1722.34
351.35	1673.19
351.56	1771.49
351.77	1685.48
351.99	1769.44
352.20	1734.63
352.41	1812.45
352.62	1675.24
352.83	1755.11
353.04	1667.05
353.25	1697.77
353.46	1783.78
353.67	1677.29
353.88	1662.95
354.09	1632.23
354.30	1705.96
354.52	1732.58
354.73	1691.62
354.94	1658.85
355.15	1738.73
355.36	1775.59
355.57	1626.09
355.78	1765.35
355.99	1689.57
356.20	1701.86
356.41	1804.26
356.62	1736.68
356.83	1667.05
357.04	1834.98
357.25	1683.43
357.46	1748.97
357.68	1673.19
357.89	1654.76
358.10	1705.96
358.31	1804.26
358.52	1730.53
358.73	1617.90
358.94	1642.47
359.15	1722.34
359.36	1771.49
359.57	1695.72
359.78	1677.29
359.99	1810.40
360.20	1671.14
360.41	1689.57
360.62	1775.59
360.83	1714.15
361.04	1685.48
361.25	1695.72
361.46	1800.16
361.67	1724.39
361.88	1773.54
362.09	1652.71
362.30	1658.85
362.51	1703.91
362.72	1722.34
362.93	1757.16
363.14	1693.67
363.35	1732.58
363.56	1687.53
363.78	1712.10
363.99	1708.01
364.20	1609.70
364.41	1755.11
364.62	1826.79
364.83	1759.21
365.04	1665.00
365.25	1701.86
365.46	1863.65
365.67	1689.57
365.88	1597.42
366.09	1724.39
366.30	1783.78
366.51	1689.57
366.72	1718.25
366.93	1712.10
367.14	1742.82
367.35	1761.25
367.56	1759.21
367.77	1763.30
367.98	1705.96
368.18	1753.06
368.39	1730.53
368.60	1714.15
368.81	1734.63
369.02	1742.82
369.23	1632.23
369.44	1609.70
369.65	1708.01
369.86	1695.72
370.07	1751.01
370.28	1685.48
370.49	1785.83
370.70	1755.11
370.91	1683.43
371.12	1619.94
371.33	1773.54
371.54	1722.34
371.75	1832.93
371.96	1607.66
372.17	1724.39
372.38	1722.34
372.59	1796.07
372.80	1671.14
373.01	1728.49
373.22	1751.01
373.43	1671.14
373.64	1605.61
373.85	1744.87
374.06	1861.60
374.26	1687.53
374.47	1765.35
374.68	1734.63
374.89	1746.92
375.10	1697.77
375.31	1765.35
375.52	1714.15
375.73	1730.53
375.94	1658.85
376.15	1822.69
376.36	1726.44
376.57	1626.09
376.78	1740.77
376.99	1703.91
377.20	1734.63
377.40	1691.62
377.61	1787.88
377.82	1632.23
378.03	1830.88
378.24	1765.35
378.45	1665.00
378.66	1771.49
378.87	1665.00
379.08	1632.23
379.29	1681.38
379.50	1789.92
379.71	1748.97
379.91	1755.11
380.12	1681.38
380.33	1701.86
380.54	1693.67
380.75	1705.96
380.96	1742.82
381.17	1697.77
381.38	1669.09
381.59	1734.63
381.80	1746.92
382.00	1843.17
382.21	1759.21
382.42	1814.50
382.63	1828.84
382.84	1779.68
383.05	1796.07
383.26	1775.59
383.47	1734.63
383.68	1775.59
383.88	1716.20
384.09	1738.73
384.30	1775.59
384.51	1796.07
384.72	1671.14
384.93	1667.05
385.14	1701.86
385.35	1828.84
385.55	1724.39
385.76	1779.68
385.97	1777.64
386.18	1693.67
386.39	1683.43
386.60	1728.49
386.81	1703.91
387.02	1722.34
387.22	1722.34
387.43	1759.21
387.64	1834.98
387.85	1849.32
388.06	2215.90
388.27	4190.14
388.48	6737.82
388.68	7876.49
388.89	9324.40
389.10	9596.78
389.31	8372.10
389.52	7364.50
389.73	6576.03
389.93	6061.99
390.14	5801.90
390.35	5113.78
390.56	4499.39
390.77	3786.69
390.98	2983.89
391.18	2445.27
391.39	2152.42
391.60	1800.16
391.81	1808.36
392.02	1771.49
392.23	1816.55
392.43	1708.01
392.64	1806.31
392.85	1665.00
393.06	1847.27
393.27	1738.73
393.47	1624.04
393.68	1689.57
393.89	1697.77
394.10	1832.93
394.31	1687.53
394.52	1652.71
394.72	1761.25
394.93	1826.79
395.14	1658.85
395.35	1667.05
395.56	1710.05
395.76	1822.69
395.97	1826.79
396.18	1857.51
396.39	1834.98
396.60	2056.16
396.80	1923.04
397.01	1888.23
397.22	1906.66
397.43	1855.46
397.64	1724.39
397.84	1796.07
398.05	1914.85
398.26	1742.82
398.47	1728.49
398.67	1857.51
398.88	1720.29
399.09	1808.36
399.30	1652.71
399.51	1724.39
399.71	1679.33
399.92	1732.58
400.13	1714.15
400.34	1650.66
400.54	1761.25
400.75	1830.88
400.96	1748.97
401.17	1816.55
401.37	1806.31
401.58	1767.40
401.79	1693.67
402.00	1865.70
402.21	1988.58
402.41	1892.32
402.62	2002.91
402.83	2009.06
403.04	1939.43
403.24	2052.06
403.45	1822.69
403.66	1918.95
403.87	1902.56
404.07	1966.05
404.28	1871.84
404.49	1890.28
404.70	1730.53
404.90	1732.58
405.11	1800.16
405.32	1697.77
405.52	1656.81
405.73	1669.09
405.94	1628.14
406.15	1667.05
406.35	1714.15
406.56	1740.77
406.77	1701.86
406.98	1765.35
407.18	1689.57
407.39	1775.59
407.60	1718.25
407.80	1685.48
408.01	1665.00
408.22	1742.82
408.43	1677.29
408.63	1753.06
408.84	1787.88
409.05	1783.78
409.25	1648.61
409.46	1665.00
409.67	1687.53
409.88	1619.94
410.08	1736.68
410.29	1658.85
410.50	1722.34
410.70	1775.59
410.91	1671.14
411.12	1775.59
411.32	1689.57
411.53	1681.38
411.74	1712.10
411.95	1804.26
412.15	1791.97
412.36	1746.92
412.57	1701.86
412.77	1861.60
412.98	1705.96
413.19	1757.16
413.39	1730.53
413.60	1781.73
413.81	1810.40
414.01	1753.06
414.22	1775.59
414.43	1742.82
414.63	1724.39
414.84	1761.25
415.05	1738.73
415.25	1593.32
415.46	1820.64
415.67	1728.49
415.87	1722.34
416.08	1769.44
416.29	1693.67
416.49	1757.16
416.70	1646.57
416.91	1746.92
417.11	1667.05
417.32	1783.78
417.53	1763.30
417.73	1642.47
417.94	1771.49
418.15	1779.68
418.35	1665.00
418.56	1767.40
418.77	1845.22
418.97	1777.64
419.18	1734.63
419.38	1638.38
419.59	1740.77
419.80	1828.84
420.00	1685.48
420.21	1728.49
420.42	1779.68
420.62	1683.43
420.83	1679.33
421.04	1691.62
421.24	1677.29
421.45	1732.58
421.65	1773.54
421.86	1716.20
422.07	1798.12
422.27	1738.73
422.48	1665.00
422.69	1673.19
422.89	1751.01
423.10	1736.68
423.30	1624.04
423.51	1605.61
423.72	1671.14
423.92	1746.92
424.13	1634.28
424.33	1746.92
424.54	1779.68
424.75	1765.35
424.95	1824.74
425.16	1730.53
425.36	1656.81
425.57	1794.02
425.78	1796.07
425.98	1810.40
426.19	1726.44
426.39	1648.61
426.60	1755.11
426.81	1722.34
427.01	1720.29
427.22	1703.91
427.42	1576.94
427.63	1691.62
427.83	1728.49
428.04	1716.20
428.25	1693.67
428.45	1820.64
428.66	1708.01
428.86	1708.01
429.07	1726.44
429.28	1689.57
429.48	1660.90
429.69	1705.96
429.89	1751.01
430.10	1609.70
430.30	1783.78
430.51	1783.78
430.71	1738.73
430.92	1646.57
431.13	1751.01
431.33	1738.73
431.54	1830.88
431.74	1800.16
431.95	1880.04
432.15	1716.20
432.36	1781.73
432.56	1767.40
432.77	1812.45
432.98	1802.21
433.18	1843.17
433.39	1673.19
433.59	1763.30
433.80	1886.18
434.00	1818.60
434.21	1665.00
434.41	1705.96
434.62	1857.51
434.82	1652.71
435.03	1632.23
435.23	1738.73
435.44	1656.81
435.64	1781.73
435.85	1777.64
436.06	1757.16
436.26	1816.55
436.47	1648.61
436.67	1679.33
436.88	1732.58
437.08	1777.64
437.29	1738.73
437.49	1757.16
437.70	1791.97
437.90	1751.01
438.11	1818.60
438.31	1781.73
438.52	1808.36
438.72	1773.54
438.93	1892.32
439.13	1757.16
439.34	1730.53
439.54	1861.60
439.75	1716.20
439.95	1877.99
440.16	1740.77
440.36	1740.77
440.57	1753.06
440.77	1759.21
440.98	1775.59
441.18	1751.01
441.39	1679.33
441.59	1765.35
441.80	1824.74
442.00	1763.30
442.21	1804.26
442.41	1634.28
442.62	1744.87
442.82	1689.57
443.02	1744.87
443.23	1734.63
443.43	1767.40
443.64	1791.97
443.84	1703.91
444.05	1851.36
444.25	1683.43
444.46	1669.09
444.66	1789.92
444.87	1826.79
445.07	1677.29
445.28	1693.67
445.48	1798.12
445.69	1861.60
445.89	1898.47
446.09	1789.92
446.30	2013.15
446.50	2537.43
446.71	3717.06
446.91	4179.90
447.12	4642.75
447.32	4638.65
447.53	4272.06
447.73	3723.21
447.93	3502.03
448.14	3248.08
448.34	3127.25
448.55	2815.96
448.75	2885.59
448.96	2635.74
449.16	2344.92
449.36	2357.21
449.57	2107.36
449.77	1853.41
449.98	1726.44
450.18	1888.23
450.39	1822.69
450.59	1794.02
450.79	1701.86
451.00	1724.39
451.20	1804.26
451.41	1800.16
451.61	1681.38
451.81	1734.63
452.02	1763.30
452.22	1742.82
452.43	1650.66
452.63	1677.29
