SpectraSuite Data File
++++++++++++++++++++++++++++++++++++
Date: Mon Jun 06 16:49:37 CEST 2016
User: root
Dark Spectrum Present: No
Reference Spectrum Present: No
Number of Sampled Component Spectra: 1
Spectrometers: USB4C02835
Integration Time (usec): 100000 (USB4C02835)
Spectra Averaged: 1 (USB4C02835)
Boxcar Smoothing: 0 (USB4C02835)
Correct for Electrical Dark: No (USB4C02835)
Strobe/Lamp Enabled: No (USB4C02835)
Correct for Detector Non-linearity: No (USB4C02835)
Correct for Stray Light: No (USB4C02835)
Number of Pixels in Processed Spectrum: 3648
>>>>>Begin Processed Spectral Data<<<<<
177.47	1445.87
177.69	1445.87
177.91	1445.87
178.13	1497.07
178.36	1460.20
178.58	1587.18
178.80	1798.12
179.02	1646.57
179.24	1632.23
179.46	1662.95
179.68	1806.31
179.90	1730.53
180.13	1746.92
180.35	1634.28
180.57	1652.71
180.79	1736.68
181.01	1697.77
181.23	1832.93
181.45	1744.87
181.67	1812.45
181.90	1789.92
182.12	1679.33
182.34	1621.99
182.56	1705.96
182.78	1675.24
183.00	1630.18
183.22	1746.92
183.44	1658.85
183.66	1867.75
183.89	1802.21
184.11	1671.14
184.33	1681.38
184.55	1744.87
184.77	1755.11
184.99	1685.48
185.21	1720.29
185.43	1808.36
185.65	1667.05
185.87	1718.25
186.10	1755.11
186.32	1849.32
186.54	1777.64
186.76	1771.49
186.98	1771.49
187.20	1726.44
187.42	1662.95
187.64	1689.57
187.86	1753.06
188.08	1732.58
188.30	1693.67
188.52	1695.72
188.75	1785.83
188.97	1714.15
189.19	1626.09
189.41	1675.24
189.63	1718.25
189.85	1689.57
190.07	1634.28
190.29	1570.79
190.51	1656.81
190.73	1665.00
190.95	1775.59
191.17	1714.15
191.39	1650.66
191.61	1671.14
191.84	1681.38
192.06	1689.57
192.28	1648.61
192.50	1832.93
192.72	1753.06
192.94	1683.43
193.16	1681.38
193.38	1746.92
193.60	1665.00
193.82	1695.72
194.04	1779.68
194.26	1734.63
194.48	1736.68
194.70	1726.44
194.92	1714.15
195.14	1787.88
195.36	1695.72
195.58	1720.29
195.80	1654.76
196.02	1724.39
196.24	1654.76
196.46	1746.92
196.69	1714.15
196.91	1925.09
197.13	1628.14
197.35	1654.76
197.57	1802.21
197.79	1718.25
198.01	1705.96
198.23	1714.15
198.45	1785.83
198.67	1701.86
198.89	1652.71
199.11	1771.49
199.33	1658.85
199.55	1632.23
199.77	1701.86
199.99	1789.92
200.21	1669.09
200.43	1705.96
200.65	1669.09
200.87	1578.98
201.09	1701.86
201.31	1720.29
201.53	1736.68
201.75	1753.06
201.97	1685.48
202.19	1667.05
202.41	1728.49
202.63	1808.36
202.85	1695.72
203.07	1751.01
203.29	1734.63
203.51	1689.57
203.73	1693.67
203.95	1939.43
204.17	1708.01
204.39	1755.11
204.61	1710.05
204.83	1710.05
205.05	1728.49
205.27	1705.96
205.49	1826.79
205.71	1714.15
205.93	1587.18
206.15	1654.76
206.37	1724.39
206.59	1667.05
206.81	1720.29
207.03	1658.85
207.25	1644.52
207.47	1726.44
207.69	1689.57
207.91	1765.35
208.13	1783.78
208.34	1667.05
208.56	1746.92
208.78	1812.45
209.00	1677.29
209.22	1689.57
209.44	1687.53
209.66	1669.09
209.88	1730.53
210.10	1675.24
210.32	1708.01
210.54	1783.78
210.76	1724.39
210.98	1656.81
211.20	1673.19
211.42	1726.44
211.64	1804.26
211.86	1730.53
212.08	1714.15
212.30	1779.68
212.52	1675.24
212.74	1652.71
212.96	1736.68
213.17	1755.11
213.39	1763.30
213.61	1851.36
213.83	1691.62
214.05	1603.56
214.27	1800.16
214.49	1734.63
214.71	1601.51
214.93	1800.16
215.15	1691.62
215.37	1708.01
215.59	1628.14
215.81	1720.29
216.03	1730.53
216.24	1652.71
216.46	1701.86
216.68	1716.20
216.90	1763.30
217.12	1785.83
217.34	1716.20
217.56	1732.58
217.78	1804.26
218.00	1738.73
218.22	1773.54
218.44	1765.35
218.66	1744.87
218.87	1785.83
219.09	1667.05
219.31	1785.83
219.53	1677.29
219.75	1703.91
219.97	1808.36
220.19	1734.63
220.41	1652.71
220.63	1826.79
220.85	1667.05
221.06	1691.62
221.28	1722.34
221.50	1746.92
221.72	1716.20
221.94	1681.38
222.16	1689.57
222.38	1830.88
222.60	1755.11
222.82	1687.53
223.03	1710.05
223.25	1640.42
223.47	1794.02
223.69	1855.46
223.91	1765.35
224.13	1654.76
224.35	1705.96
224.57	1802.21
224.78	1718.25
225.00	1716.20
225.22	1724.39
225.44	1718.25
225.66	1710.05
225.88	1648.61
226.10	1767.40
226.32	1689.57
226.53	1816.55
226.75	1691.62
226.97	1755.11
227.19	1781.73
227.41	1656.81
227.63	1587.18
227.85	1562.60
228.06	1771.49
228.28	1726.44
228.50	1736.68
228.72	1636.33
228.94	1771.49
229.16	1589.22
229.37	1716.20
229.59	1673.19
229.81	1771.49
230.03	1681.38
230.25	1624.04
230.47	1636.33
230.69	1646.57
230.90	1789.92
231.12	1658.85
231.34	1714.15
231.56	1796.07
231.78	1718.25
232.00	1681.38
232.21	1767.40
232.43	1658.85
232.65	1601.51
232.87	1759.21
233.09	1646.57
233.30	1673.19
233.52	1832.93
233.74	1724.39
233.96	1667.05
234.18	1736.68
234.40	1679.33
234.61	1785.83
234.83	1632.23
235.05	1662.95
235.27	1759.21
235.49	1779.68
235.70	1714.15
235.92	1791.97
236.14	1728.49
236.36	1865.70
236.58	1701.86
236.79	1683.43
237.01	1685.48
237.23	1662.95
237.45	1724.39
237.67	1654.76
237.88	1687.53
238.10	1839.08
238.32	1701.86
238.54	1697.77
238.76	1716.20
238.97	1705.96
239.19	1646.57
239.41	1755.11
239.63	1716.20
239.85	1667.05
240.06	1665.00
240.28	1652.71
240.50	1761.25
240.72	1677.29
240.93	1691.62
241.15	1771.49
241.37	1740.77
241.59	1736.68
241.81	1701.86
242.02	1693.67
242.24	1730.53
242.46	1751.01
242.68	1636.33
242.89	1744.87
243.11	1730.53
243.33	1701.86
243.55	1757.16
243.76	1796.07
243.98	1652.71
244.20	1697.77
244.42	1744.87
244.64	1650.66
244.85	1667.05
245.07	1636.33
245.29	1728.49
245.51	1689.57
245.72	1761.25
245.94	1765.35
246.16	1755.11
246.38	1777.64
246.59	1673.19
246.81	1683.43
247.03	1724.39
247.24	1716.20
247.46	1669.09
247.68	1751.01
247.90	1710.05
248.11	1695.72
248.33	1787.88
248.55	1689.57
248.77	1726.44
248.98	1810.40
249.20	1728.49
249.42	1765.35
249.64	1796.07
249.85	1751.01
250.07	1673.19
250.29	1714.15
250.50	1714.15
250.72	1591.27
250.94	1746.92
251.16	1841.12
251.37	1755.11
251.59	1710.05
251.81	1757.16
252.02	1740.77
252.24	1683.43
252.46	1839.08
252.68	1697.77
252.89	1648.61
253.11	1619.94
253.33	1802.21
253.54	1757.16
253.76	1714.15
253.98	1728.49
254.20	1718.25
254.41	1558.50
254.63	1722.34
254.85	1710.05
255.06	1718.25
255.28	1681.38
255.50	1693.67
255.71	1679.33
255.93	1626.09
256.15	1728.49
256.36	1763.30
256.58	1708.01
256.80	1781.73
257.02	1695.72
257.23	1656.81
257.45	1699.81
257.67	1822.69
257.88	1683.43
258.10	1767.40
258.32	1755.11
258.53	1732.58
258.75	1716.20
258.97	1724.39
259.18	1728.49
259.40	1759.21
259.62	1839.08
259.83	1751.01
260.05	1759.21
260.27	1970.15
260.48	1771.49
260.70	1642.47
260.92	1638.38
261.13	1734.63
261.35	1650.66
261.57	1710.05
261.78	1613.80
262.00	1681.38
262.22	1800.16
262.43	1697.77
262.65	1693.67
262.86	1738.73
263.08	1824.74
263.30	1697.77
263.51	1712.10
263.73	1570.79
263.95	1794.02
264.16	1662.95
264.38	1718.25
264.60	1751.01
264.81	1681.38
265.03	1648.61
265.25	1783.78
265.46	1710.05
265.68	1755.11
265.89	1763.30
266.11	1660.90
266.33	1751.01
266.54	1783.78
266.76	1710.05
266.98	1708.01
267.19	1761.25
267.41	1742.82
267.62	1748.97
267.84	1613.80
268.06	1751.01
268.27	1710.05
268.49	1777.64
268.70	1746.92
268.92	1677.29
269.14	1687.53
269.35	1613.80
269.57	1701.86
269.79	1841.12
270.00	1619.94
270.22	1837.03
270.43	1681.38
270.65	1576.94
270.87	1720.29
271.08	1722.34
271.30	1699.81
271.51	1779.68
271.73	1708.01
271.95	1714.15
272.16	1683.43
272.38	1740.77
272.59	1701.86
272.81	1796.07
273.02	1685.48
273.24	1710.05
273.46	1683.43
273.67	1671.14
273.89	1638.38
274.10	1642.47
274.32	1802.21
274.54	1751.01
274.75	1757.16
274.97	1677.29
275.18	1771.49
275.40	1732.58
275.61	1810.40
275.83	1697.77
276.05	1679.33
276.26	1699.81
276.48	1791.97
276.69	1652.71
276.91	1732.58
277.12	1837.03
277.34	1734.63
277.55	1724.39
277.77	1658.85
277.99	1630.18
278.20	1572.84
278.42	1638.38
278.63	1714.15
278.85	1609.70
279.06	1609.70
279.28	1757.16
279.49	1800.16
279.71	1730.53
279.93	1703.91
280.14	1669.09
280.36	1681.38
280.57	1761.25
280.79	1820.64
281.00	1763.30
281.22	1730.53
281.43	1781.73
281.65	1624.04
281.86	1607.66
282.08	1689.57
282.29	1783.78
282.51	1650.66
282.73	1650.66
282.94	1699.81
283.16	1638.38
283.37	1798.12
283.59	1687.53
283.80	1730.53
284.02	1736.68
284.23	1714.15
284.45	1673.19
284.66	1632.23
284.88	1642.47
285.09	1671.14
285.31	1722.34
285.52	1714.15
285.74	1687.53
285.95	1728.49
286.17	1759.21
286.38	1734.63
286.60	1673.19
286.81	1685.48
287.03	1681.38
287.24	1718.25
287.46	1783.78
287.67	1804.26
287.89	1804.26
288.10	1665.00
288.32	1755.11
288.53	1806.31
288.75	1710.05
288.96	1701.86
289.18	1665.00
289.39	1658.85
289.61	1763.30
289.82	1781.73
290.04	1806.31
290.25	1673.19
290.47	1759.21
290.68	1669.09
290.90	1791.97
291.11	1658.85
291.33	1708.01
291.54	1626.09
291.76	1665.00
291.97	1652.71
292.18	1746.92
292.40	1640.42
292.61	1675.24
292.83	1853.41
293.04	1728.49
293.26	1669.09
293.47	1638.38
293.69	1660.90
293.90	1720.29
294.12	1722.34
294.33	1744.87
294.55	1683.43
294.76	1834.98
294.97	1861.60
295.19	1830.88
295.40	1681.38
295.62	1794.02
295.83	1728.49
296.05	1660.90
296.26	1673.19
296.48	1662.95
296.69	1736.68
296.90	1691.62
297.12	1785.83
297.33	1753.06
297.55	1734.63
297.76	1761.25
297.98	1765.35
298.19	1710.05
298.41	1685.48
298.62	1705.96
298.83	1771.49
299.05	1757.16
299.26	1658.85
299.48	1755.11
299.69	1720.29
299.90	1638.38
300.12	1665.00
300.33	1769.44
300.55	1771.49
300.76	1712.10
300.98	1650.66
301.19	1736.68
301.40	1757.16
301.62	1716.20
301.83	1724.39
302.05	1669.09
302.26	1722.34
302.47	1695.72
302.69	1646.57
302.90	1693.67
303.12	1583.08
303.33	1765.35
303.54	1771.49
303.76	1681.38
303.97	1738.73
304.19	1845.22
304.40	1644.52
304.61	1773.54
304.83	1761.25
305.04	1748.97
305.26	1787.88
305.47	1667.05
305.68	1658.85
305.90	1673.19
306.11	1765.35
306.33	1669.09
306.54	1621.99
306.75	1665.00
306.97	1595.37
307.18	1642.47
307.39	1644.52
307.61	1767.40
307.82	1697.77
308.04	1800.16
308.25	1685.48
308.46	1679.33
308.68	1761.25
308.89	1736.68
309.10	1777.64
309.32	1724.39
309.53	1722.34
309.74	1736.68
309.96	1665.00
310.17	1746.92
310.39	1726.44
310.60	1748.97
310.81	1667.05
311.03	1642.47
311.24	1746.92
311.45	1683.43
311.67	1869.80
311.88	1728.49
312.09	1689.57
312.31	1755.11
312.52	1708.01
312.73	1697.77
312.95	1654.76
313.16	1669.09
313.37	1714.15
313.59	1722.34
313.80	1730.53
314.01	1798.12
314.23	1689.57
314.44	1613.80
314.65	1638.38
314.87	1699.81
315.08	1656.81
315.29	1658.85
315.51	1648.61
315.72	1638.38
315.93	1787.88
316.15	1753.06
316.36	1695.72
316.57	1671.14
316.79	1779.68
317.00	1720.29
317.21	1728.49
317.43	1656.81
317.64	1746.92
317.85	1671.14
318.07	1621.99
318.28	1695.72
318.49	1759.21
318.70	1912.80
318.92	1787.88
319.13	1810.40
319.34	1888.23
319.56	1845.22
319.77	1828.84
319.98	1742.82
320.20	1785.83
320.41	1759.21
320.62	1773.54
320.83	1648.61
321.05	1863.65
321.26	1734.63
321.47	1742.82
321.69	1746.92
321.90	1607.66
322.11	1705.96
322.32	1716.20
322.54	1748.97
322.75	1738.73
322.96	1839.08
323.18	1630.18
323.39	1587.18
323.60	1705.96
323.81	1751.01
324.03	1701.86
324.24	1648.61
324.45	1806.31
324.66	1660.90
324.88	1771.49
325.09	1902.56
325.30	1738.73
325.52	1693.67
325.73	1714.15
325.94	1617.90
326.15	1574.89
326.37	1673.19
326.58	1800.16
326.79	1826.79
327.00	1675.24
327.22	1722.34
327.43	1730.53
327.64	1656.81
327.85	1708.01
328.07	1722.34
328.28	1718.25
328.49	1648.61
328.70	1626.09
328.92	1714.15
329.13	1718.25
329.34	1753.06
329.55	1773.54
329.76	1765.35
329.98	1726.44
330.19	1828.84
330.40	1802.21
330.61	1767.40
330.83	1740.77
331.04	1716.20
331.25	1722.34
331.46	1728.49
331.68	1695.72
331.89	1755.11
332.10	1728.49
332.31	1640.42
332.52	1728.49
332.74	1822.69
332.95	1607.66
333.16	1755.11
333.37	1736.68
333.58	1683.43
333.80	1736.68
334.01	1710.05
334.22	1685.48
334.43	1630.18
334.64	1775.59
334.86	1640.42
335.07	1660.90
335.28	1689.57
335.49	1628.14
335.70	1701.86
335.92	1769.44
336.13	1810.40
336.34	1718.25
336.55	1624.04
336.76	1726.44
336.98	1578.98
337.19	1687.53
337.40	1771.49
337.61	1796.07
337.82	1720.29
338.04	1730.53
338.25	1650.66
338.46	1732.58
338.67	1673.19
338.88	1648.61
339.09	1681.38
339.31	1703.91
339.52	1648.61
339.73	1615.85
339.94	1708.01
340.15	1742.82
340.36	1648.61
340.58	1730.53
340.79	1736.68
341.00	1787.88
341.21	1640.42
341.42	1808.36
341.63	1656.81
341.85	1697.77
342.06	1679.33
342.27	1673.19
342.48	1791.97
342.69	1638.38
342.90	1732.58
343.12	1767.40
343.33	1751.01
343.54	1759.21
343.75	1773.54
343.96	1669.09
344.17	1624.04
344.38	1695.72
344.60	1662.95
344.81	1675.24
345.02	1675.24
345.23	1791.97
345.44	1822.69
345.65	1740.77
345.86	1730.53
346.07	1671.14
346.29	1665.00
346.50	1761.25
346.71	1849.32
346.92	1755.11
347.13	1802.21
347.34	1677.29
347.55	1677.29
347.76	1652.71
347.98	1673.19
348.19	1640.42
348.40	1742.82
348.61	1681.38
348.82	1763.30
349.03	1773.54
349.24	1693.67
349.45	1779.68
349.66	1595.37
349.88	1748.97
350.09	1658.85
350.30	1769.44
350.51	1791.97
350.72	1712.10
350.93	1781.73
351.14	1671.14
351.35	1693.67
351.56	1708.01
351.77	1705.96
351.99	1703.91
352.20	1863.65
352.41	1703.91
352.62	1570.79
352.83	1765.35
353.04	1779.68
353.25	1660.90
353.46	1787.88
353.67	1714.15
353.88	1574.89
354.09	1798.12
354.30	1806.31
354.52	1724.39
354.73	1716.20
354.94	1720.29
355.15	1761.25
355.36	1841.12
355.57	1673.19
355.78	1783.78
355.99	1775.59
356.20	1775.59
356.41	1773.54
356.62	1763.30
356.83	1705.96
357.04	1789.92
357.25	1570.79
357.46	1611.75
357.68	1665.00
357.89	1689.57
358.10	1712.10
358.31	1677.29
358.52	1671.14
358.73	1681.38
358.94	1703.91
359.15	1578.98
359.36	1791.97
359.57	1646.57
359.78	1648.61
359.99	1738.73
360.20	1703.91
360.41	1601.51
360.62	1742.82
360.83	1714.15
361.04	1695.72
361.25	1779.68
361.46	1849.32
361.67	1783.78
361.88	1730.53
362.09	1802.21
362.30	1697.77
362.51	1671.14
362.72	1685.48
362.93	1810.40
363.14	1695.72
363.35	1654.76
363.56	1621.99
363.78	1781.73
363.99	1791.97
364.20	1705.96
364.41	1705.96
364.62	1802.21
364.83	1665.00
365.04	1654.76
365.25	1746.92
365.46	1789.92
365.67	1665.00
365.88	1656.81
366.09	1699.81
366.30	1718.25
366.51	1658.85
366.72	1609.70
366.93	1730.53
367.14	1753.06
367.35	1714.15
367.56	1714.15
367.77	1734.63
367.98	1665.00
368.18	1708.01
368.39	1718.25
368.60	1714.15
368.81	1681.38
369.02	1734.63
369.23	1681.38
369.44	1615.85
369.65	1685.48
369.86	1753.06
370.07	1773.54
370.28	1740.77
370.49	1765.35
370.70	1861.60
370.91	1603.56
371.12	1630.18
371.33	1800.16
371.54	1656.81
371.75	1820.64
371.96	1599.46
372.17	1753.06
372.38	1708.01
372.59	1683.43
372.80	1720.29
373.01	1724.39
373.22	1751.01
373.43	1738.73
373.64	1693.67
373.85	1789.92
374.06	1777.64
374.26	1679.33
374.47	1800.16
374.68	1763.30
374.89	1736.68
375.10	1701.86
375.31	1730.53
375.52	1699.81
375.73	1679.33
375.94	1685.48
376.15	1796.07
376.36	1708.01
376.57	1621.99
376.78	1708.01
376.99	1720.29
377.20	1734.63
377.40	1628.14
377.61	1857.51
377.82	1634.28
378.03	1798.12
378.24	1789.92
378.45	1699.81
378.66	1716.20
378.87	1595.37
379.08	1697.77
379.29	1691.62
379.50	1810.40
379.71	1744.87
379.91	1736.68
380.12	1775.59
380.33	1740.77
380.54	1671.14
380.75	1748.97
380.96	1732.58
381.17	1767.40
381.38	1736.68
381.59	1640.42
381.80	1710.05
382.00	1861.60
382.21	1765.35
382.42	1828.84
382.63	1888.23
382.84	1816.55
383.05	1697.77
383.26	1845.22
383.47	1746.92
383.68	1812.45
383.88	1814.50
384.09	1832.93
384.30	1826.79
384.51	1720.29
384.72	1757.16
384.93	1576.94
385.14	1689.57
385.35	1775.59
385.55	1609.70
385.76	1701.86
385.97	1732.58
386.18	1603.56
386.39	1708.01
386.60	1665.00
386.81	1757.16
387.02	1660.90
387.22	1705.96
387.43	1822.69
387.64	1703.91
387.85	1953.76
388.06	2228.19
388.27	4157.38
388.48	6645.66
388.68	8040.33
388.89	9404.27
389.10	9641.84
389.31	8501.12
389.52	7514.00
389.73	6692.76
389.93	6141.86
390.14	5803.94
390.35	5156.79
390.56	4419.52
390.77	3841.99
390.98	2961.36
391.18	2445.27
391.39	2060.26
391.60	1871.84
391.81	1880.04
392.02	1701.86
392.23	1814.50
392.43	1757.16
392.64	1787.88
392.85	1624.04
393.06	1740.77
393.27	1751.01
393.47	1681.38
393.68	1675.24
393.89	1689.57
394.10	1820.64
394.31	1712.10
394.52	1636.33
394.72	1738.73
394.93	1798.12
395.14	1636.33
395.35	1681.38
395.56	1697.77
395.76	1689.57
395.97	1767.40
396.18	1837.03
396.39	1875.94
396.60	2017.25
396.80	1873.89
397.01	1802.21
397.22	1845.22
397.43	1853.41
397.64	1718.25
397.84	1832.93
398.05	1857.51
398.26	1808.36
398.47	1800.16
398.67	1773.54
398.88	1773.54
399.09	1761.25
399.30	1652.71
399.51	1759.21
399.71	1619.94
399.92	1701.86
400.13	1701.86
400.34	1675.24
400.54	1660.90
400.75	1796.07
400.96	1779.68
401.17	1779.68
401.37	1755.11
401.58	1746.92
401.79	1691.62
402.00	1798.12
402.21	1982.43
402.41	1873.89
402.62	2019.30
402.83	2031.58
403.04	2025.44
403.24	2047.97
403.45	1880.04
403.66	1964.00
403.87	1867.75
404.07	1882.08
404.28	1914.85
404.49	1908.71
404.70	1759.21
404.90	1734.63
405.11	1746.92
405.32	1722.34
405.52	1679.33
405.73	1724.39
405.94	1740.77
406.15	1742.82
406.35	1695.72
406.56	1796.07
406.77	1785.83
406.98	1716.20
407.18	1767.40
407.39	1769.44
407.60	1705.96
407.80	1697.77
408.01	1640.42
408.22	1730.53
408.43	1685.48
408.63	1849.32
408.84	1755.11
409.05	1757.16
409.25	1695.72
409.46	1703.91
409.67	1669.09
409.88	1724.39
410.08	1755.11
410.29	1703.91
410.50	1779.68
410.70	1738.73
410.91	1679.33
411.12	1705.96
411.32	1650.66
411.53	1624.04
411.74	1714.15
411.95	1763.30
412.15	1787.88
412.36	1748.97
412.57	1818.60
412.77	1863.65
412.98	1705.96
413.19	1744.87
413.39	1804.26
413.60	1726.44
413.81	1810.40
414.01	1683.43
414.22	1695.72
414.43	1746.92
414.63	1720.29
414.84	1757.16
415.05	1730.53
415.25	1576.94
415.46	1802.21
415.67	1628.14
415.87	1742.82
416.08	1732.58
416.29	1660.90
416.49	1798.12
416.70	1640.42
416.91	1710.05
417.11	1763.30
417.32	1798.12
417.53	1787.88
417.73	1849.32
417.94	1667.05
418.15	1761.25
418.35	1746.92
418.56	1701.86
418.77	1851.36
418.97	1724.39
419.18	1691.62
419.38	1613.80
419.59	1630.18
419.80	1763.30
420.00	1730.53
420.21	1714.15
420.42	1832.93
420.62	1796.07
420.83	1634.28
421.04	1679.33
421.24	1689.57
421.45	1755.11
421.65	1789.92
421.86	1757.16
422.07	1785.83
422.27	1718.25
422.48	1712.10
422.69	1634.28
422.89	1710.05
423.10	1740.77
423.30	1677.29
423.51	1839.08
423.72	1644.52
423.92	1740.77
424.13	1662.95
424.33	1763.30
424.54	1763.30
424.75	1736.68
424.95	1867.75
425.16	1783.78
425.36	1753.06
425.57	1728.49
425.78	1787.88
425.98	1812.45
426.19	1675.24
426.39	1652.71
426.60	1740.77
426.81	1820.64
427.01	1755.11
427.22	1681.38
427.42	1648.61
427.63	1632.23
427.83	1734.63
428.04	1734.63
428.25	1761.25
428.45	1742.82
428.66	1742.82
428.86	1736.68
429.07	1798.12
429.28	1738.73
429.48	1712.10
429.69	1728.49
429.89	1708.01
430.10	1611.75
430.30	1761.25
430.51	1820.64
430.71	1624.04
430.92	1703.91
431.13	1644.52
431.33	1705.96
431.54	1767.40
431.74	1806.31
431.95	1763.30
432.15	1699.81
432.36	1767.40
432.56	1724.39
432.77	1804.26
432.98	1812.45
433.18	1732.58
433.39	1669.09
433.59	1771.49
433.80	1794.02
434.00	1812.45
434.21	1685.48
434.41	1636.33
434.62	1810.40
434.82	1650.66
435.03	1601.51
435.23	1722.34
435.44	1658.85
435.64	1759.21
435.85	1708.01
436.06	1748.97
436.26	1761.25
436.47	1751.01
436.67	1685.48
436.88	1685.48
437.08	1914.85
437.29	1777.64
437.49	1730.53
437.70	1796.07
437.90	1765.35
438.11	1810.40
438.31	1718.25
438.52	1886.18
438.72	1845.22
438.93	1873.89
439.13	1851.36
439.34	1841.12
439.54	1863.65
439.75	1857.51
439.95	1804.26
440.16	1691.62
440.36	1759.21
440.57	1748.97
440.77	1734.63
440.98	1718.25
441.18	1732.58
441.39	1677.29
441.59	1681.38
441.80	1751.01
442.00	1755.11
442.21	1869.80
442.41	1681.38
442.62	1808.36
442.82	1652.71
443.02	1705.96
443.23	1763.30
443.43	1718.25
443.64	1773.54
443.84	1720.29
444.05	1806.31
444.25	1798.12
444.46	1763.30
444.66	1730.53
444.87	1869.80
445.07	1640.42
445.28	1726.44
445.48	1820.64
445.69	1738.73
445.89	1843.17
446.09	1685.48
446.30	2074.59
446.50	2605.02
446.71	3739.59
446.91	4294.59
447.12	4749.24
447.32	4687.80
447.53	4313.02
447.73	3821.51
447.93	3540.94
448.14	3356.62
448.34	3209.17
448.55	2893.78
448.75	2783.19
448.96	2723.80
449.16	2461.66
449.36	2312.16
449.57	2101.22
449.77	1904.61
449.98	1791.97
450.18	1775.59
450.39	1877.99
450.59	1785.83
450.79	1845.22
451.00	1728.49
451.20	1787.88
451.41	1802.21
451.61	1787.88
451.81	1837.03
452.02	1763.30
452.22	1765.35
452.43	1640.42
452.63	1738.73
