SpectraSuite Data File
++++++++++++++++++++++++++++++++++++
Date: Mon Jun 06 13:15:17 CEST 2016
User: root
Dark Spectrum Present: No
Reference Spectrum Present: No
Number of Sampled Component Spectra: 1
Spectrometers: USB4C02835
Integration Time (usec): 100000 (USB4C02835)
Spectra Averaged: 1 (USB4C02835)
Boxcar Smoothing: 0 (USB4C02835)
Correct for Electrical Dark: No (USB4C02835)
Strobe/Lamp Enabled: No (USB4C02835)
Correct for Detector Non-linearity: No (USB4C02835)
Correct for Stray Light: No (USB4C02835)
Number of Pixels in Processed Spectrum: 3648
>>>>>Begin Processed Spectral Data<<<<<
177.47	1472.49
177.69	1472.49
177.91	1472.49
178.13	1495.02
178.36	1400.81
178.58	1587.18
178.80	1675.24
179.02	1562.60
179.24	1669.09
179.46	1718.25
179.68	1742.82
179.90	1656.81
180.13	1667.05
180.35	1660.90
180.57	1675.24
180.79	1746.92
181.01	1685.48
181.23	1806.31
181.45	1779.68
181.67	1789.92
181.90	1718.25
182.12	1689.57
182.34	1628.14
182.56	1693.67
182.78	1771.49
183.00	1751.01
183.22	1652.71
183.44	1619.94
183.66	1869.80
183.89	1785.83
184.11	1724.39
184.33	1759.21
184.55	1751.01
184.77	1701.86
184.99	1771.49
185.21	1699.81
185.43	1796.07
185.65	1607.66
185.87	1738.73
186.10	1767.40
186.32	1783.78
186.54	1757.16
186.76	1761.25
186.98	1757.16
187.20	1691.62
187.42	1640.42
187.64	1710.05
187.86	1632.23
188.08	1822.69
188.30	1673.19
188.52	1677.29
188.75	1757.16
188.97	1779.68
189.19	1685.48
189.41	1669.09
189.63	1699.81
189.85	1697.77
190.07	1677.29
190.29	1656.81
190.51	1724.39
190.73	1658.85
190.95	1808.36
191.17	1675.24
191.39	1681.38
191.61	1669.09
191.84	1697.77
192.06	1753.06
192.28	1558.50
192.50	1839.08
192.72	1726.44
192.94	1695.72
193.16	1751.01
193.38	1671.14
193.60	1701.86
193.82	1650.66
194.04	1789.92
194.26	1691.62
194.48	1636.33
194.70	1654.76
194.92	1695.72
195.14	1742.82
195.36	1662.95
195.58	1638.38
195.80	1671.14
196.02	1667.05
196.24	1626.09
196.46	1724.39
196.69	1593.32
196.91	1718.25
197.13	1677.29
197.35	1644.52
197.57	1794.02
197.79	1708.01
198.01	1771.49
198.23	1683.43
198.45	1687.53
198.67	1624.04
198.89	1667.05
199.11	1757.16
199.33	1648.61
199.55	1617.90
199.77	1712.10
199.99	1746.92
200.21	1671.14
200.43	1775.59
200.65	1636.33
200.87	1578.98
201.09	1673.19
201.31	1640.42
201.53	1697.77
201.75	1730.53
201.97	1712.10
202.19	1775.59
202.41	1683.43
202.63	1816.55
202.85	1705.96
203.07	1755.11
203.29	1734.63
203.51	1607.66
203.73	1693.67
203.95	1841.12
204.17	1689.57
204.39	1697.77
204.61	1654.76
204.83	1697.77
205.05	1800.16
205.27	1730.53
205.49	1816.55
205.71	1642.47
205.93	1542.12
206.15	1646.57
206.37	1691.62
206.59	1646.57
206.81	1699.81
207.03	1681.38
207.25	1708.01
207.47	1705.96
207.69	1683.43
207.91	1746.92
208.13	1753.06
208.34	1755.11
208.56	1624.04
208.78	1751.01
209.00	1665.00
209.22	1677.29
209.44	1693.67
209.66	1605.61
209.88	1671.14
210.10	1689.57
210.32	1708.01
210.54	1738.73
210.76	1712.10
210.98	1708.01
211.20	1624.04
211.42	1656.81
211.64	1785.83
211.86	1748.97
212.08	1683.43
212.30	1671.14
212.52	1708.01
212.74	1673.19
212.96	1683.43
213.17	1738.73
213.39	1728.49
213.61	1771.49
213.83	1787.88
214.05	1615.85
214.27	1673.19
214.49	1619.94
214.71	1716.20
214.93	1746.92
215.15	1683.43
215.37	1720.29
215.59	1603.56
215.81	1738.73
216.03	1828.84
216.24	1697.77
216.46	1697.77
216.68	1689.57
216.90	1695.72
217.12	1742.82
217.34	1638.38
217.56	1773.54
217.78	1740.77
218.00	1687.53
218.22	1730.53
218.44	1736.68
218.66	1687.53
218.87	1787.88
219.09	1716.20
219.31	1757.16
219.53	1646.57
219.75	1660.90
219.97	1765.35
220.19	1675.24
220.41	1695.72
220.63	1837.03
220.85	1740.77
221.06	1619.94
221.28	1826.79
221.50	1734.63
221.72	1791.97
221.94	1699.81
222.16	1681.38
222.38	1724.39
222.60	1710.05
222.82	1695.72
223.03	1675.24
223.25	1648.61
223.47	1783.78
223.69	1763.30
223.91	1675.24
224.13	1769.44
224.35	1687.53
224.57	1767.40
224.78	1751.01
225.00	1626.09
225.22	1728.49
225.44	1689.57
225.66	1800.16
225.88	1703.91
226.10	1806.31
226.32	1718.25
226.53	1863.65
226.75	1683.43
226.97	1662.95
227.19	1714.15
227.41	1654.76
227.63	1613.80
227.85	1558.50
228.06	1699.81
228.28	1679.33
228.50	1742.82
228.72	1636.33
228.94	1576.94
229.16	1603.56
229.37	1648.61
229.59	1705.96
229.81	1742.82
230.03	1671.14
230.25	1548.26
230.47	1593.32
230.69	1644.52
230.90	1771.49
231.12	1720.29
231.34	1716.20
231.56	1787.88
231.78	1681.38
232.00	1720.29
232.21	1677.29
232.43	1705.96
232.65	1599.46
232.87	1656.81
233.09	1679.33
233.30	1681.38
233.52	1769.44
233.74	1669.09
233.96	1611.75
234.18	1718.25
234.40	1673.19
234.61	1765.35
234.83	1660.90
235.05	1681.38
235.27	1814.50
235.49	1783.78
235.70	1781.73
235.92	1732.58
236.14	1748.97
236.36	1851.36
236.58	1656.81
236.79	1761.25
237.01	1693.67
237.23	1755.11
237.45	1789.92
237.67	1716.20
237.88	1679.33
238.10	1804.26
238.32	1656.81
238.54	1726.44
238.76	1730.53
238.97	1697.77
239.19	1626.09
239.41	1763.30
239.63	1730.53
239.85	1669.09
240.06	1644.52
240.28	1638.38
240.50	1738.73
240.72	1689.57
240.93	1615.85
241.15	1777.64
241.37	1681.38
241.59	1757.16
241.81	1710.05
242.02	1681.38
242.24	1677.29
242.46	1771.49
242.68	1587.18
242.89	1773.54
243.11	1804.26
243.33	1734.63
243.55	1734.63
243.76	1775.59
243.98	1724.39
244.20	1609.70
244.42	1755.11
244.64	1667.05
244.85	1658.85
245.07	1687.53
245.29	1769.44
245.51	1753.06
245.72	1726.44
245.94	1699.81
246.16	1669.09
246.38	1753.06
246.59	1632.23
246.81	1658.85
247.03	1626.09
247.24	1609.70
247.46	1693.67
247.68	1660.90
247.90	1669.09
248.11	1687.53
248.33	1771.49
248.55	1703.91
248.77	1665.00
248.98	1767.40
249.20	1796.07
249.42	1693.67
249.64	1730.53
249.85	1718.25
250.07	1673.19
250.29	1738.73
250.50	1759.21
250.72	1660.90
250.94	1681.38
251.16	1816.55
251.37	1771.49
251.59	1765.35
251.81	1787.88
252.02	1771.49
252.24	1705.96
252.46	1832.93
252.68	1771.49
252.89	1656.81
253.11	1691.62
253.33	1746.92
253.54	1757.16
253.76	1679.33
253.98	1683.43
254.20	1722.34
254.41	1652.71
254.63	1726.44
254.85	1638.38
255.06	1681.38
255.28	1708.01
255.50	1705.96
255.71	1681.38
255.93	1701.86
256.15	1658.85
256.36	1701.86
256.58	1708.01
256.80	1798.12
257.02	1656.81
257.23	1660.90
257.45	1681.38
257.67	1783.78
257.88	1652.71
258.10	1650.66
258.32	1726.44
258.53	1705.96
258.75	1751.01
258.97	1630.18
259.18	1638.38
259.40	1671.14
259.62	1837.03
259.83	1896.42
260.05	1771.49
260.27	1900.52
260.48	1748.97
260.70	1615.85
260.92	1689.57
261.13	1730.53
261.35	1763.30
261.57	1779.68
261.78	1607.66
262.00	1624.04
262.22	1710.05
262.43	1699.81
262.65	1671.14
262.86	1738.73
263.08	1865.70
263.30	1710.05
263.51	1648.61
263.73	1630.18
263.95	1851.36
264.16	1644.52
264.38	1660.90
264.60	1726.44
264.81	1667.05
265.03	1738.73
265.25	1759.21
265.46	1675.24
265.68	1718.25
265.89	1789.92
266.11	1644.52
266.33	1742.82
266.54	1744.87
266.76	1669.09
266.98	1650.66
267.19	1810.40
267.41	1660.90
267.62	1652.71
267.84	1636.33
268.06	1785.83
268.27	1791.97
268.49	1746.92
268.70	1763.30
268.92	1753.06
269.14	1683.43
269.35	1679.33
269.57	1775.59
269.79	1757.16
270.00	1646.57
270.22	1828.84
270.43	1665.00
270.65	1642.47
270.87	1632.23
271.08	1755.11
271.30	1728.49
271.51	1675.24
271.73	1712.10
271.95	1853.41
272.16	1697.77
272.38	1722.34
272.59	1748.97
272.81	1755.11
273.02	1728.49
273.24	1703.91
273.46	1675.24
273.67	1646.57
273.89	1628.14
274.10	1724.39
274.32	1755.11
274.54	1751.01
274.75	1699.81
274.97	1740.77
275.18	1710.05
275.40	1730.53
275.61	1658.85
275.83	1685.48
276.05	1615.85
276.26	1726.44
276.48	1728.49
276.69	1675.24
276.91	1597.42
277.12	1742.82
277.34	1763.30
277.55	1724.39
277.77	1681.38
277.99	1705.96
278.20	1675.24
278.42	1730.53
278.63	1667.05
278.85	1638.38
279.06	1587.18
279.28	1699.81
279.49	1822.69
279.71	1718.25
279.93	1761.25
280.14	1683.43
280.36	1607.66
280.57	1746.92
280.79	1765.35
281.00	1648.61
281.22	1695.72
281.43	1665.00
281.65	1564.65
281.86	1662.95
282.08	1710.05
282.29	1847.27
282.51	1597.42
282.73	1564.65
282.94	1576.94
283.16	1699.81
283.37	1882.08
283.59	1683.43
283.80	1714.15
284.02	1722.34
284.23	1683.43
284.45	1693.67
284.66	1650.66
284.88	1628.14
285.09	1681.38
285.31	1720.29
285.52	1714.15
285.74	1685.48
285.95	1759.21
286.17	1691.62
286.38	1714.15
286.60	1656.81
286.81	1716.20
287.03	1695.72
287.24	1687.53
287.46	1683.43
287.67	1677.29
287.89	1798.12
288.10	1708.01
288.32	1720.29
288.53	1820.64
288.75	1691.62
288.96	1685.48
289.18	1693.67
289.39	1744.87
289.61	1699.81
289.82	1804.26
290.04	1728.49
290.25	1572.84
290.47	1703.91
290.68	1624.04
290.90	1708.01
291.11	1607.66
291.33	1771.49
291.54	1648.61
291.76	1712.10
291.97	1689.57
292.18	1701.86
292.40	1728.49
292.61	1697.77
292.83	1728.49
293.04	1710.05
293.26	1681.38
293.47	1761.25
293.69	1599.46
293.90	1658.85
294.12	1757.16
294.33	1708.01
294.55	1734.63
294.76	1873.89
294.97	1771.49
295.19	1851.36
295.40	1640.42
295.62	1716.20
295.83	1671.14
296.05	1740.77
296.26	1779.68
296.48	1673.19
296.69	1740.77
296.90	1714.15
297.12	1837.03
297.33	1763.30
297.55	1720.29
297.76	1742.82
297.98	1703.91
298.19	1687.53
298.41	1722.34
298.62	1697.77
298.83	1845.22
299.05	1720.29
299.26	1640.42
299.48	1671.14
299.69	1726.44
299.90	1736.68
300.12	1708.01
300.33	1724.39
300.55	1710.05
300.76	1773.54
300.98	1662.95
301.19	1714.15
301.40	1665.00
301.62	1701.86
301.83	1740.77
302.05	1726.44
302.26	1724.39
302.47	1710.05
302.69	1652.71
302.90	1736.68
303.12	1587.18
303.33	1681.38
303.54	1789.92
303.76	1667.05
303.97	1658.85
304.19	1773.54
304.40	1607.66
304.61	1775.59
304.83	1738.73
305.04	1808.36
305.26	1705.96
305.47	1644.52
305.68	1634.28
305.90	1597.42
306.11	1798.12
306.33	1642.47
306.54	1660.90
306.75	1695.72
306.97	1619.94
307.18	1566.70
307.39	1605.61
307.61	1753.06
307.82	1697.77
308.04	1738.73
308.25	1667.05
308.46	1714.15
308.68	1703.91
308.89	1712.10
309.10	1773.54
309.32	1714.15
309.53	1671.14
309.74	1724.39
309.96	1693.67
310.17	1726.44
310.39	1675.24
310.60	1736.68
310.81	1732.58
311.03	1628.14
311.24	1757.16
311.45	1689.57
311.67	1818.60
311.88	1660.90
312.09	1683.43
312.31	1683.43
312.52	1695.72
312.73	1742.82
312.95	1626.09
313.16	1644.52
313.37	1734.63
313.59	1781.73
313.80	1767.40
314.01	1722.34
314.23	1722.34
314.44	1710.05
314.65	1615.85
314.87	1665.00
315.08	1652.71
315.29	1550.31
315.51	1687.53
315.72	1660.90
315.93	1755.11
316.15	1783.78
316.36	1650.66
316.57	1683.43
316.79	1673.19
317.00	1677.29
317.21	1728.49
317.43	1544.17
317.64	1656.81
317.85	1621.99
318.07	1726.44
318.28	1763.30
318.49	1847.27
318.70	1892.32
318.92	1806.31
319.13	1853.41
319.34	1818.60
319.56	1722.34
319.77	1775.59
319.98	1806.31
320.20	1765.35
320.41	1740.77
320.62	1705.96
320.83	1656.81
321.05	1777.64
321.26	1681.38
321.47	1628.14
321.69	1787.88
321.90	1630.18
322.11	1638.38
322.32	1677.29
322.54	1804.26
322.75	1796.07
322.96	1884.13
323.18	1646.57
323.39	1587.18
323.60	1587.18
323.81	1783.78
324.03	1679.33
324.24	1611.75
324.45	1677.29
324.66	1724.39
324.88	1734.63
325.09	1802.21
325.30	1730.53
325.52	1771.49
325.73	1753.06
325.94	1677.29
326.15	1609.70
326.37	1705.96
326.58	1691.62
326.79	1738.73
327.00	1654.76
327.22	1673.19
327.43	1673.19
327.64	1591.27
327.85	1662.95
328.07	1712.10
328.28	1697.77
328.49	1716.20
328.70	1734.63
328.92	1701.86
329.13	1665.00
329.34	1738.73
329.55	1781.73
329.76	1732.58
329.98	1673.19
330.19	1763.30
330.40	1732.58
330.61	1748.97
330.83	1755.11
331.04	1624.04
331.25	1724.39
331.46	1665.00
331.68	1632.23
331.89	1789.92
332.10	1685.48
332.31	1681.38
332.52	1693.67
332.74	1759.21
332.95	1662.95
333.16	1763.30
333.37	1728.49
333.58	1667.05
333.80	1740.77
334.01	1521.64
334.22	1644.52
334.43	1644.52
334.64	1621.99
334.86	1681.38
335.07	1677.29
335.28	1863.65
335.49	1648.61
335.70	1716.20
335.92	1740.77
336.13	1794.02
336.34	1697.77
336.55	1662.95
336.76	1703.91
336.98	1642.47
337.19	1785.83
337.40	1771.49
337.61	1837.03
337.82	1662.95
338.04	1736.68
338.25	1693.67
338.46	1650.66
338.67	1685.48
338.88	1665.00
339.09	1619.94
339.31	1703.91
339.52	1656.81
339.73	1597.42
339.94	1730.53
340.15	1816.55
340.36	1673.19
340.58	1687.53
340.79	1548.26
341.00	1753.06
341.21	1640.42
341.42	1765.35
341.63	1687.53
341.85	1771.49
342.06	1677.29
342.27	1652.71
342.48	1712.10
342.69	1669.09
342.90	1769.44
343.12	1798.12
343.33	1640.42
343.54	1726.44
343.75	1769.44
343.96	1683.43
344.17	1693.67
344.38	1671.14
344.60	1634.28
344.81	1652.71
345.02	1722.34
345.23	1748.97
345.44	1779.68
345.65	1671.14
345.86	1740.77
346.07	1650.66
346.29	1632.23
346.50	1728.49
346.71	1730.53
346.92	1710.05
347.13	1812.45
347.34	1654.76
347.55	1681.38
347.76	1660.90
347.98	1624.04
348.19	1697.77
348.40	1787.88
348.61	1665.00
348.82	1726.44
349.03	1742.82
349.24	1662.95
349.45	1832.93
349.66	1587.18
349.88	1679.33
350.09	1710.05
350.30	1769.44
350.51	1781.73
350.72	1712.10
350.93	1648.61
351.14	1585.13
351.35	1683.43
351.56	1665.00
351.77	1656.81
351.99	1726.44
352.20	1726.44
352.41	1705.96
352.62	1605.61
352.83	1642.47
353.04	1718.25
353.25	1640.42
353.46	1732.58
353.67	1667.05
353.88	1581.03
354.09	1771.49
354.30	1679.33
354.52	1748.97
354.73	1665.00
354.94	1673.19
355.15	1697.77
355.36	1730.53
355.57	1615.85
355.78	1769.44
355.99	1673.19
356.20	1656.81
356.41	1755.11
356.62	1648.61
356.83	1746.92
357.04	1763.30
357.25	1583.08
357.46	1765.35
357.68	1636.33
357.89	1626.09
358.10	1634.28
358.31	1667.05
358.52	1697.77
358.73	1566.70
358.94	1638.38
359.15	1724.39
359.36	1779.68
359.57	1728.49
359.78	1685.48
359.99	1732.58
360.20	1681.38
360.41	1656.81
360.62	1773.54
360.83	1701.86
361.04	1658.85
361.25	1728.49
361.46	1771.49
361.67	1720.29
361.88	1748.97
362.09	1787.88
362.30	1710.05
362.51	1650.66
362.72	1681.38
362.93	1787.88
363.14	1775.59
363.35	1738.73
363.56	1646.57
363.78	1816.55
363.99	1841.12
364.20	1619.94
364.41	1708.01
364.62	1732.58
364.83	1683.43
365.04	1697.77
365.25	1712.10
365.46	1738.73
365.67	1658.85
365.88	1648.61
366.09	1689.57
366.30	1667.05
366.51	1689.57
366.72	1650.66
366.93	1722.34
367.14	1732.58
367.35	1722.34
367.56	1712.10
367.77	1761.25
367.98	1611.75
368.18	1726.44
368.39	1742.82
368.60	1638.38
368.81	1777.64
369.02	1642.47
369.23	1685.48
369.44	1605.61
369.65	1744.87
369.86	1675.24
370.07	1789.92
370.28	1665.00
370.49	1722.34
370.70	1714.15
370.91	1621.99
371.12	1558.50
371.33	1705.96
371.54	1626.09
371.75	1779.68
371.96	1591.27
372.17	1654.76
372.38	1681.38
372.59	1738.73
372.80	1656.81
373.01	1714.15
373.22	1708.01
373.43	1736.68
373.64	1615.85
373.85	1843.17
374.06	1753.06
374.26	1816.55
374.47	1787.88
374.68	1742.82
374.89	1753.06
375.10	1665.00
375.31	1783.78
375.52	1660.90
375.73	1691.62
375.94	1718.25
376.15	1791.97
376.36	1642.47
376.57	1624.04
376.78	1648.61
376.99	1748.97
377.20	1767.40
377.40	1656.81
377.61	1703.91
377.82	1656.81
378.03	1708.01
378.24	1644.52
378.45	1722.34
378.66	1697.77
378.87	1638.38
379.08	1495.02
379.29	1697.77
379.50	1761.25
379.71	1671.14
379.91	1740.77
380.12	1718.25
380.33	1681.38
380.54	1642.47
380.75	1755.11
380.96	1693.67
381.17	1796.07
381.38	1796.07
381.59	1761.25
381.80	1736.68
382.00	1830.88
382.21	1744.87
382.42	1865.70
382.63	1861.60
382.84	1775.59
383.05	1742.82
383.26	1814.50
383.47	1761.25
383.68	1800.16
383.88	1726.44
384.09	1654.76
384.30	1787.88
384.51	1765.35
384.72	1699.81
384.93	1552.36
385.14	1703.91
385.35	1771.49
385.55	1615.85
385.76	1822.69
385.97	1742.82
386.18	1650.66
386.39	1658.85
386.60	1722.34
386.81	1650.66
387.02	1619.94
387.22	1691.62
387.43	1775.59
387.64	1781.73
387.85	1884.13
388.06	2199.52
388.27	4245.44
388.48	6936.47
388.68	8173.44
388.89	9461.62
389.10	9783.15
389.31	8497.02
389.52	7620.49
389.73	6786.97
389.93	6260.64
390.14	5937.06
390.35	5242.80
390.56	4587.45
390.77	3710.92
390.98	3024.85
391.18	2379.74
391.39	2172.89
391.60	1849.32
391.81	1730.53
392.02	1748.97
392.23	1796.07
392.43	1738.73
392.64	1888.23
392.85	1796.07
393.06	1869.80
393.27	1689.57
393.47	1701.86
393.68	1656.81
393.89	1695.72
394.10	1789.92
394.31	1619.94
394.52	1642.47
394.72	1716.20
394.93	1779.68
395.14	1656.81
395.35	1755.11
395.56	1632.23
395.76	1701.86
395.97	1730.53
396.18	1849.32
396.39	1869.80
396.60	1961.95
396.80	1880.04
397.01	1875.94
397.22	1771.49
397.43	1806.31
397.64	1726.44
397.84	1755.11
398.05	1771.49
398.26	1761.25
398.47	1796.07
398.67	1753.06
398.88	1722.34
399.09	1744.87
399.30	1730.53
399.51	1812.45
399.71	1611.75
399.92	1722.34
400.13	1722.34
400.34	1669.09
400.54	1677.29
400.75	1789.92
400.96	1759.21
401.17	1837.03
401.37	1744.87
401.58	1720.29
401.79	1724.39
402.00	1925.09
402.21	2009.06
402.41	1933.28
402.62	1992.67
402.83	2041.82
403.04	1877.99
403.24	2088.93
403.45	1906.66
403.66	1863.65
403.87	1816.55
404.07	1841.12
404.28	1867.75
404.49	1888.23
404.70	1767.40
404.90	1751.01
405.11	1718.25
405.32	1716.20
405.52	1685.48
405.73	1718.25
405.94	1642.47
406.15	1617.90
406.35	1675.24
406.56	1761.25
406.77	1759.21
406.98	1734.63
407.18	1578.98
407.39	1751.01
407.60	1726.44
407.80	1716.20
408.01	1642.47
408.22	1671.14
408.43	1714.15
408.63	1742.82
408.84	1730.53
409.05	1615.85
409.25	1679.33
409.46	1675.24
409.67	1714.15
409.88	1732.58
410.08	1724.39
410.29	1691.62
410.50	1720.29
410.70	1724.39
410.91	1683.43
411.12	1781.73
411.32	1720.29
411.53	1714.15
411.74	1740.77
411.95	1767.40
412.15	1703.91
412.36	1781.73
412.57	1759.21
412.77	1832.93
412.98	1753.06
413.19	1724.39
413.39	1763.30
413.60	1697.77
413.81	1757.16
414.01	1646.57
414.22	1730.53
414.43	1796.07
414.63	1742.82
414.84	1777.64
415.05	1783.78
415.25	1613.80
415.46	1734.63
415.67	1693.67
415.87	1701.86
416.08	1691.62
416.29	1677.29
416.49	1779.68
416.70	1740.77
416.91	1667.05
417.11	1656.81
417.32	1748.97
417.53	1755.11
417.73	1775.59
417.94	1636.33
418.15	1732.58
418.35	1671.14
418.56	1796.07
418.77	1808.36
418.97	1636.33
419.18	1783.78
419.38	1607.66
419.59	1646.57
419.80	1855.46
420.00	1712.10
420.21	1687.53
420.42	1753.06
420.62	1699.81
420.83	1603.56
421.04	1677.29
421.24	1703.91
421.45	1775.59
421.65	1775.59
421.86	1722.34
422.07	1755.11
422.27	1785.83
422.48	1748.97
422.69	1644.52
422.89	1640.42
423.10	1605.61
423.30	1615.85
423.51	1757.16
423.72	1740.77
423.92	1746.92
424.13	1648.61
424.33	1650.66
424.54	1714.15
424.75	1722.34
424.95	1742.82
425.16	1777.64
425.36	1669.09
425.57	1783.78
425.78	1701.86
425.98	1761.25
426.19	1726.44
426.39	1626.09
426.60	1656.81
426.81	1759.21
427.01	1732.58
427.22	1591.27
427.42	1652.71
427.63	1677.29
427.83	1763.30
428.04	1787.88
428.25	1771.49
428.45	1857.51
428.66	1783.78
428.86	1751.01
429.07	1660.90
429.28	1705.96
429.48	1619.94
429.69	1669.09
429.89	1626.09
430.10	1673.19
430.30	1687.53
430.51	1732.58
430.71	1632.23
430.92	1667.05
431.13	1732.58
431.33	1730.53
431.54	1769.44
431.74	1845.22
431.95	1863.65
432.15	1619.94
432.36	1671.14
432.56	1804.26
432.77	1820.64
432.98	1708.01
433.18	1714.15
433.39	1712.10
433.59	1644.52
433.80	1804.26
434.00	1882.08
434.21	1705.96
434.41	1621.99
434.62	1832.93
434.82	1687.53
435.03	1689.57
435.23	1755.11
435.44	1626.09
435.64	1732.58
435.85	1736.68
436.06	1841.12
436.26	1761.25
436.47	1708.01
436.67	1675.24
436.88	1720.29
437.08	1765.35
437.29	1744.87
437.49	1726.44
437.70	1796.07
437.90	1683.43
438.11	1869.80
438.31	1777.64
438.52	1890.28
438.72	1869.80
438.93	1978.34
439.13	1820.64
439.34	1759.21
439.54	1767.40
439.75	1757.16
439.95	1748.97
440.16	1714.15
440.36	1691.62
440.57	1652.71
440.77	1708.01
440.98	1736.68
441.18	1773.54
441.39	1652.71
441.59	1669.09
441.80	1800.16
442.00	1726.44
442.21	1755.11
442.41	1665.00
442.62	1789.92
442.82	1646.57
443.02	1728.49
443.23	1800.16
443.43	1708.01
443.64	1839.08
443.84	1695.72
444.05	1783.78
444.25	1679.33
444.46	1683.43
444.66	1703.91
444.87	1781.73
445.07	1619.94
445.28	1677.29
445.48	1826.79
445.69	1734.63
445.89	1890.28
446.09	1738.73
446.30	1949.67
446.50	2656.22
446.71	3692.49
446.91	4196.29
447.12	4777.91
447.32	4825.01
447.53	4265.92
447.73	3813.32
447.93	3549.13
448.14	3278.80
448.34	3256.27
448.55	2883.54
448.75	2772.95
448.96	2746.33
449.16	2412.51
449.36	2248.67
449.57	2045.92
449.77	1857.51
449.98	1818.60
450.18	1853.41
450.39	1816.55
450.59	1769.44
450.79	1751.01
451.00	1699.81
451.20	1761.25
451.41	1714.15
451.61	1728.49
451.81	1732.58
452.02	1738.73
452.22	1638.38
452.43	1695.72
452.63	1726.44
