SpectraSuite Data File
++++++++++++++++++++++++++++++++++++
Date: Mon Jun 06 12:48:37 CEST 2016
User: root
Dark Spectrum Present: No
Reference Spectrum Present: No
Number of Sampled Component Spectra: 1
Spectrometers: USB4C02835
Integration Time (usec): 100000 (USB4C02835)
Spectra Averaged: 1 (USB4C02835)
Boxcar Smoothing: 0 (USB4C02835)
Correct for Electrical Dark: No (USB4C02835)
Strobe/Lamp Enabled: No (USB4C02835)
Correct for Detector Non-linearity: No (USB4C02835)
Correct for Stray Light: No (USB4C02835)
Number of Pixels in Processed Spectrum: 3648
>>>>>Begin Processed Spectral Data<<<<<
177.47	1452.01
177.69	1452.01
177.91	1452.01
178.13	1499.11
178.36	1560.55
178.58	1597.42
178.80	1646.57
179.02	1689.57
179.24	1640.42
179.46	1695.72
179.68	1746.92
179.90	1722.34
180.13	1701.86
180.35	1703.91
180.57	1695.72
180.79	1708.01
181.01	1662.95
181.23	1789.92
181.45	1746.92
181.67	1736.68
181.90	1691.62
182.12	1677.29
182.34	1632.23
182.56	1765.35
182.78	1724.39
183.00	1665.00
183.22	1730.53
183.44	1605.61
183.66	1808.36
183.89	1804.26
184.11	1701.86
184.33	1783.78
184.55	1714.15
184.77	1728.49
184.99	1693.67
185.21	1658.85
185.43	1798.12
185.65	1695.72
185.87	1691.62
186.10	1791.97
186.32	1822.69
186.54	1787.88
186.76	1765.35
186.98	1791.97
187.20	1779.68
187.42	1689.57
187.64	1718.25
187.86	1734.63
188.08	1740.77
188.30	1677.29
188.52	1705.96
188.75	1722.34
188.97	1701.86
189.19	1712.10
189.41	1751.01
189.63	1673.19
189.85	1724.39
190.07	1665.00
190.29	1619.94
190.51	1746.92
190.73	1628.14
190.95	1800.16
191.17	1656.81
191.39	1679.33
191.61	1720.29
191.84	1738.73
192.06	1714.15
192.28	1621.99
192.50	1892.32
192.72	1714.15
192.94	1757.16
193.16	1812.45
193.38	1759.21
193.60	1632.23
193.82	1646.57
194.04	1703.91
194.26	1697.77
194.48	1716.20
194.70	1701.86
194.92	1703.91
195.14	1755.11
195.36	1718.25
195.58	1669.09
195.80	1662.95
196.02	1767.40
196.24	1693.67
196.46	1689.57
196.69	1730.53
196.91	1722.34
197.13	1687.53
197.35	1646.57
197.57	1759.21
197.79	1673.19
198.01	1748.97
198.23	1767.40
198.45	1708.01
198.67	1683.43
198.89	1673.19
199.11	1675.24
199.33	1609.70
199.55	1642.47
199.77	1621.99
199.99	1753.06
200.21	1648.61
200.43	1714.15
200.65	1687.53
200.87	1578.98
201.09	1681.38
201.31	1718.25
201.53	1718.25
201.75	1742.82
201.97	1746.92
202.19	1738.73
202.41	1775.59
202.63	1769.44
202.85	1742.82
203.07	1673.19
203.29	1703.91
203.51	1687.53
203.73	1662.95
203.95	1918.95
204.17	1695.72
204.39	1710.05
204.61	1714.15
204.83	1687.53
205.05	1726.44
205.27	1787.88
205.49	1802.21
205.71	1794.02
205.93	1644.52
206.15	1646.57
206.37	1718.25
206.59	1671.14
206.81	1705.96
207.03	1656.81
207.25	1667.05
207.47	1691.62
207.69	1677.29
207.91	1761.25
208.13	1816.55
208.34	1691.62
208.56	1646.57
208.78	1675.24
209.00	1677.29
209.22	1712.10
209.44	1617.90
209.66	1732.58
209.88	1767.40
210.10	1669.09
210.32	1710.05
210.54	1789.92
210.76	1652.71
210.98	1806.31
211.20	1591.27
211.42	1724.39
211.64	1748.97
211.86	1814.50
212.08	1800.16
212.30	1726.44
212.52	1646.57
212.74	1656.81
212.96	1759.21
213.17	1740.77
213.39	1769.44
213.61	1785.83
213.83	1701.86
214.05	1587.18
214.27	1781.73
214.49	1607.66
214.71	1681.38
214.93	1722.34
215.15	1648.61
215.37	1742.82
215.59	1634.28
215.81	1708.01
216.03	1808.36
216.24	1724.39
216.46	1669.09
216.68	1730.53
216.90	1763.30
217.12	1726.44
217.34	1658.85
217.56	1751.01
217.78	1763.30
218.00	1712.10
218.22	1726.44
218.44	1767.40
218.66	1738.73
218.87	1763.30
219.09	1697.77
219.31	1755.11
219.53	1759.21
219.75	1677.29
219.97	1658.85
220.19	1640.42
220.41	1716.20
220.63	1730.53
220.85	1726.44
221.06	1673.19
221.28	1783.78
221.50	1724.39
221.72	1728.49
221.94	1720.29
222.16	1685.48
222.38	1824.74
222.60	1675.24
222.82	1771.49
223.03	1761.25
223.25	1695.72
223.47	1720.29
223.69	1789.92
223.91	1677.29
224.13	1685.48
224.35	1685.48
224.57	1763.30
224.78	1720.29
225.00	1654.76
225.22	1710.05
225.44	1669.09
225.66	1675.24
225.88	1624.04
226.10	1714.15
226.32	1650.66
226.53	1775.59
226.75	1667.05
226.97	1695.72
227.19	1665.00
227.41	1656.81
227.63	1677.29
227.85	1591.27
228.06	1765.35
228.28	1693.67
228.50	1757.16
228.72	1658.85
228.94	1665.00
229.16	1638.38
229.37	1685.48
229.59	1583.08
229.81	1769.44
230.03	1746.92
230.25	1581.03
230.47	1660.90
230.69	1648.61
230.90	1708.01
231.12	1601.51
231.34	1738.73
231.56	1708.01
231.78	1619.94
232.00	1736.68
232.21	1697.77
232.43	1722.34
232.65	1597.42
232.87	1693.67
233.09	1619.94
233.30	1572.84
233.52	1697.77
233.74	1730.53
233.96	1617.90
234.18	1679.33
234.40	1665.00
234.61	1785.83
234.83	1585.13
235.05	1587.18
235.27	1804.26
235.49	1705.96
235.70	1734.63
235.92	1777.64
236.14	1738.73
236.36	1884.13
236.58	1636.33
236.79	1728.49
237.01	1708.01
237.23	1701.86
237.45	1796.07
237.67	1714.15
237.88	1742.82
238.10	1822.69
238.32	1667.05
238.54	1710.05
238.76	1658.85
238.97	1697.77
239.19	1648.61
239.41	1753.06
239.63	1767.40
239.85	1693.67
240.06	1634.28
240.28	1648.61
240.50	1720.29
240.72	1708.01
240.93	1677.29
241.15	1763.30
241.37	1691.62
241.59	1761.25
241.81	1740.77
242.02	1689.57
242.24	1685.48
242.46	1757.16
242.68	1636.33
242.89	1714.15
243.11	1695.72
243.33	1646.57
243.55	1708.01
243.76	1679.33
243.98	1673.19
244.20	1648.61
244.42	1699.81
244.64	1705.96
244.85	1658.85
245.07	1681.38
245.29	1718.25
245.51	1726.44
245.72	1687.53
245.94	1703.91
246.16	1716.20
246.38	1763.30
246.59	1640.42
246.81	1703.91
247.03	1703.91
247.24	1638.38
247.46	1630.18
247.68	1693.67
247.90	1718.25
248.11	1697.77
248.33	1669.09
248.55	1718.25
248.77	1726.44
248.98	1675.24
249.20	1800.16
249.42	1689.57
249.64	1710.05
249.85	1722.34
250.07	1687.53
250.29	1724.39
250.50	1742.82
250.72	1693.67
250.94	1722.34
251.16	1830.88
251.37	1755.11
251.59	1675.24
251.81	1742.82
252.02	1685.48
252.24	1574.89
252.46	1689.57
252.68	1619.94
252.89	1705.96
253.11	1658.85
253.33	1798.12
253.54	1665.00
253.76	1624.04
253.98	1650.66
254.20	1673.19
254.41	1644.52
254.63	1617.90
254.85	1609.70
255.06	1724.39
255.28	1742.82
255.50	1665.00
255.71	1667.05
255.93	1658.85
256.15	1716.20
256.36	1787.88
256.58	1599.46
256.80	1683.43
257.02	1794.02
257.23	1626.09
257.45	1640.42
257.67	1757.16
257.88	1689.57
258.10	1648.61
258.32	1738.73
258.53	1722.34
258.75	1705.96
258.97	1720.29
259.18	1705.96
259.40	1771.49
259.62	1783.78
259.83	1814.50
260.05	1732.58
260.27	2035.68
260.48	1740.77
260.70	1667.05
260.92	1628.14
261.13	1656.81
261.35	1671.14
261.57	1695.72
261.78	1648.61
262.00	1714.15
262.22	1710.05
262.43	1611.75
262.65	1576.94
262.86	1673.19
263.08	1794.02
263.30	1691.62
263.51	1630.18
263.73	1646.57
263.95	1771.49
264.16	1691.62
264.38	1683.43
264.60	1648.61
264.81	1595.37
265.03	1718.25
265.25	1726.44
265.46	1656.81
265.68	1794.02
265.89	1738.73
266.11	1595.37
266.33	1742.82
266.54	1783.78
266.76	1785.83
266.98	1791.97
267.19	1773.54
267.41	1730.53
267.62	1705.96
267.84	1562.60
268.06	1746.92
268.27	1732.58
268.49	1806.31
268.70	1722.34
268.92	1712.10
269.14	1564.65
269.35	1640.42
269.57	1644.52
269.79	1738.73
270.00	1646.57
270.22	1722.34
270.43	1634.28
270.65	1667.05
270.87	1646.57
271.08	1673.19
271.30	1724.39
271.51	1748.97
271.73	1742.82
271.95	1789.92
272.16	1669.09
272.38	1763.30
272.59	1671.14
272.81	1701.86
273.02	1730.53
273.24	1769.44
273.46	1765.35
273.67	1665.00
273.89	1693.67
274.10	1693.67
274.32	1732.58
274.54	1671.14
274.75	1718.25
274.97	1632.23
275.18	1757.16
275.40	1761.25
275.61	1673.19
275.83	1667.05
276.05	1611.75
276.26	1656.81
276.48	1734.63
276.69	1675.24
276.91	1642.47
277.12	1740.77
277.34	1753.06
277.55	1697.77
277.77	1728.49
277.99	1673.19
278.20	1624.04
278.42	1576.94
278.63	1662.95
278.85	1587.18
279.06	1624.04
279.28	1736.68
279.49	1730.53
279.71	1708.01
279.93	1710.05
280.14	1761.25
280.36	1593.32
280.57	1726.44
280.79	1718.25
281.00	1712.10
281.22	1753.06
281.43	1710.05
281.65	1630.18
281.86	1705.96
282.08	1755.11
282.29	1839.08
282.51	1621.99
282.73	1562.60
282.94	1619.94
283.16	1767.40
283.37	1771.49
283.59	1640.42
283.80	1724.39
284.02	1746.92
284.23	1697.77
284.45	1710.05
284.66	1632.23
284.88	1617.90
285.09	1728.49
285.31	1771.49
285.52	1714.15
285.74	1652.71
285.95	1751.01
286.17	1734.63
286.38	1720.29
286.60	1667.05
286.81	1671.14
287.03	1646.57
287.24	1703.91
287.46	1755.11
287.67	1685.48
287.89	1806.31
288.10	1738.73
288.32	1763.30
288.53	1744.87
288.75	1630.18
288.96	1687.53
289.18	1654.76
289.39	1736.68
289.61	1714.15
289.82	1794.02
290.04	1730.53
290.25	1624.04
290.47	1759.21
290.68	1669.09
290.90	1705.96
291.11	1605.61
291.33	1761.25
291.54	1638.38
291.76	1667.05
291.97	1726.44
292.18	1718.25
292.40	1654.76
292.61	1703.91
292.83	1861.60
293.04	1746.92
293.26	1734.63
293.47	1652.71
293.69	1662.95
293.90	1665.00
294.12	1824.74
294.33	1755.11
294.55	1730.53
294.76	1718.25
294.97	1763.30
295.19	1828.84
295.40	1687.53
295.62	1658.85
295.83	1730.53
296.05	1634.28
296.26	1841.12
296.48	1648.61
296.69	1679.33
296.90	1728.49
297.12	1697.77
297.33	1730.53
297.55	1724.39
297.76	1710.05
297.98	1812.45
298.19	1677.29
298.41	1630.18
298.62	1681.38
298.83	1781.73
299.05	1726.44
299.26	1697.77
299.48	1658.85
299.69	1767.40
299.90	1775.59
300.12	1611.75
300.33	1716.20
300.55	1673.19
300.76	1781.73
300.98	1615.85
301.19	1703.91
301.40	1611.75
301.62	1624.04
301.83	1716.20
302.05	1665.00
302.26	1681.38
302.47	1771.49
302.69	1671.14
302.90	1679.33
303.12	1605.61
303.33	1705.96
303.54	1804.26
303.76	1697.77
303.97	1708.01
304.19	1779.68
304.40	1644.52
304.61	1759.21
304.83	1800.16
305.04	1781.73
305.26	1630.18
305.47	1632.23
305.68	1675.24
305.90	1585.13
306.11	1669.09
306.33	1695.72
306.54	1646.57
306.75	1591.27
306.97	1648.61
307.18	1644.52
307.39	1644.52
307.61	1783.78
307.82	1738.73
308.04	1730.53
308.25	1648.61
308.46	1619.94
308.68	1667.05
308.89	1722.34
309.10	1794.02
309.32	1708.01
309.53	1755.11
309.74	1734.63
309.96	1646.57
310.17	1814.50
310.39	1679.33
310.60	1685.48
310.81	1738.73
311.03	1632.23
311.24	1742.82
311.45	1716.20
311.67	1716.20
311.88	1759.21
312.09	1662.95
312.31	1660.90
312.52	1683.43
312.73	1734.63
312.95	1621.99
313.16	1699.81
313.37	1740.77
313.59	1740.77
313.80	1808.36
314.01	1800.16
314.23	1611.75
314.44	1636.33
314.65	1685.48
314.87	1656.81
315.08	1673.19
315.29	1697.77
315.51	1599.46
315.72	1624.04
315.93	1769.44
316.15	1800.16
316.36	1589.22
316.57	1787.88
316.79	1767.40
317.00	1753.06
317.21	1693.67
317.43	1640.42
317.64	1773.54
317.85	1624.04
318.07	1658.85
318.28	1753.06
318.49	1794.02
318.70	1857.51
318.92	1820.64
319.13	1781.73
319.34	1853.41
319.56	1837.03
319.77	1851.36
319.98	1761.25
320.20	1722.34
320.41	1759.21
320.62	1746.92
320.83	1650.66
321.05	1855.46
321.26	1683.43
321.47	1695.72
321.69	1751.01
321.90	1626.09
322.11	1699.81
322.32	1648.61
322.54	1761.25
322.75	1656.81
322.96	1892.32
323.18	1621.99
323.39	1574.89
323.60	1658.85
323.81	1710.05
324.03	1714.15
324.24	1642.47
324.45	1665.00
324.66	1654.76
324.88	1689.57
325.09	1683.43
325.30	1734.63
325.52	1710.05
325.73	1720.29
325.94	1638.38
326.15	1665.00
326.37	1677.29
326.58	1755.11
326.79	1771.49
327.00	1615.85
327.22	1730.53
327.43	1654.76
327.64	1665.00
327.85	1697.77
328.07	1718.25
328.28	1826.79
328.49	1753.06
328.70	1724.39
328.92	1748.97
329.13	1673.19
329.34	1755.11
329.55	1834.98
329.76	1732.58
329.98	1667.05
330.19	1742.82
330.40	1718.25
330.61	1675.24
330.83	1691.62
331.04	1632.23
331.25	1742.82
331.46	1687.53
331.68	1626.09
331.89	1761.25
332.10	1724.39
332.31	1597.42
332.52	1652.71
332.74	1767.40
332.95	1511.40
333.16	1753.06
333.37	1677.29
333.58	1673.19
333.80	1746.92
334.01	1626.09
334.22	1724.39
334.43	1697.77
334.64	1689.57
334.86	1605.61
335.07	1613.80
335.28	1802.21
335.49	1603.56
335.70	1763.30
335.92	1824.74
336.13	1730.53
336.34	1642.47
336.55	1660.90
336.76	1759.21
336.98	1658.85
337.19	1724.39
337.40	1783.78
337.61	1796.07
337.82	1634.28
338.04	1839.08
338.25	1642.47
338.46	1560.55
338.67	1652.71
338.88	1685.48
339.09	1665.00
339.31	1734.63
339.52	1632.23
339.73	1607.66
339.94	1630.18
340.15	1763.30
340.36	1658.85
340.58	1742.82
340.79	1630.18
341.00	1757.16
341.21	1638.38
341.42	1683.43
341.63	1726.44
341.85	1726.44
342.06	1658.85
342.27	1710.05
342.48	1763.30
342.69	1619.94
342.90	1689.57
343.12	1810.40
343.33	1675.24
343.54	1705.96
343.75	1794.02
343.96	1675.24
344.17	1642.47
344.38	1699.81
344.60	1654.76
344.81	1652.71
345.02	1703.91
345.23	1724.39
345.44	1736.68
345.65	1746.92
345.86	1779.68
346.07	1705.96
346.29	1673.19
346.50	1675.24
346.71	1771.49
346.92	1783.78
347.13	1800.16
347.34	1679.33
347.55	1638.38
347.76	1718.25
347.98	1597.42
348.19	1613.80
348.40	1724.39
348.61	1669.09
348.82	1771.49
349.03	1722.34
349.24	1665.00
349.45	1812.45
349.66	1550.31
349.88	1658.85
350.09	1730.53
350.30	1718.25
350.51	1736.68
350.72	1761.25
350.93	1740.77
351.14	1732.58
351.35	1726.44
351.56	1640.42
351.77	1730.53
351.99	1693.67
352.20	1873.89
352.41	1777.64
352.62	1595.37
352.83	1687.53
353.04	1665.00
353.25	1646.57
353.46	1640.42
353.67	1708.01
353.88	1562.60
354.09	1712.10
354.30	1642.47
354.52	1720.29
354.73	1722.34
354.94	1697.77
355.15	1669.09
355.36	1818.60
355.57	1705.96
355.78	1771.49
355.99	1605.61
356.20	1708.01
356.41	1697.77
356.62	1695.72
356.83	1722.34
357.04	1828.84
357.25	1574.89
357.46	1599.46
357.68	1634.28
357.89	1615.85
358.10	1685.48
358.31	1671.14
358.52	1634.28
358.73	1652.71
358.94	1669.09
359.15	1812.45
359.36	1744.87
359.57	1755.11
359.78	1718.25
359.99	1681.38
360.20	1628.14
360.41	1632.23
360.62	1712.10
360.83	1710.05
361.04	1658.85
361.25	1687.53
361.46	1771.49
361.67	1638.38
361.88	1714.15
362.09	1832.93
362.30	1665.00
362.51	1681.38
362.72	1748.97
362.93	1705.96
363.14	1769.44
363.35	1728.49
363.56	1601.51
363.78	1726.44
363.99	1736.68
364.20	1583.08
364.41	1726.44
364.62	1787.88
364.83	1775.59
365.04	1597.42
365.25	1716.20
365.46	1847.27
365.67	1738.73
365.88	1642.47
366.09	1794.02
366.30	1640.42
366.51	1650.66
366.72	1634.28
366.93	1677.29
367.14	1638.38
367.35	1753.06
367.56	1640.42
367.77	1791.97
367.98	1654.76
368.18	1796.07
368.39	1636.33
368.60	1683.43
368.81	1708.01
369.02	1769.44
369.23	1628.14
369.44	1665.00
369.65	1728.49
369.86	1705.96
370.07	1841.12
370.28	1632.23
370.49	1718.25
370.70	1689.57
370.91	1640.42
371.12	1667.05
371.33	1712.10
371.54	1685.48
371.75	1748.97
371.96	1578.98
372.17	1722.34
372.38	1665.00
372.59	1802.21
372.80	1734.63
373.01	1736.68
373.22	1689.57
373.43	1722.34
373.64	1570.79
373.85	1794.02
374.06	1773.54
374.26	1751.01
374.47	1720.29
374.68	1746.92
374.89	1763.30
375.10	1708.01
375.31	1757.16
375.52	1712.10
375.73	1662.95
375.94	1574.89
376.15	1783.78
376.36	1626.09
376.57	1619.94
376.78	1685.48
376.99	1773.54
377.20	1759.21
377.40	1695.72
377.61	1808.36
377.82	1613.80
378.03	1839.08
378.24	1705.96
378.45	1650.66
378.66	1648.61
378.87	1583.08
379.08	1677.29
379.29	1589.22
379.50	1800.16
379.71	1730.53
379.91	1759.21
380.12	1714.15
380.33	1675.24
380.54	1656.81
380.75	1673.19
380.96	1726.44
381.17	1789.92
381.38	1769.44
381.59	1695.72
381.80	1740.77
382.00	1859.56
382.21	1656.81
382.42	1816.55
382.63	1888.23
382.84	1718.25
383.05	1718.25
383.26	1845.22
383.47	1705.96
383.68	1689.57
383.88	1722.34
384.09	1722.34
384.30	1705.96
384.51	1710.05
384.72	1701.86
384.93	1632.23
385.14	1683.43
385.35	1755.11
385.55	1681.38
385.76	1769.44
385.97	1632.23
386.18	1691.62
386.39	1755.11
386.60	1714.15
386.81	1634.28
387.02	1609.70
387.22	1679.33
387.43	1783.78
387.64	1759.21
387.85	1918.95
388.06	2189.28
388.27	4339.65
388.48	6764.44
388.68	8284.03
388.89	9574.25
389.10	9799.53
389.31	8589.18
389.52	7647.12
389.73	6686.62
389.93	6311.84
390.14	5765.03
390.35	5156.79
390.56	4507.58
390.77	3729.35
390.98	3026.90
391.18	2521.05
391.39	2146.27
391.60	1830.88
391.81	1767.40
392.02	1730.53
392.23	1851.36
392.43	1755.11
392.64	1730.53
392.85	1728.49
393.06	1818.60
393.27	1705.96
393.47	1650.66
393.68	1781.73
393.89	1675.24
394.10	1722.34
394.31	1636.33
394.52	1710.05
394.72	1710.05
394.93	1763.30
395.14	1648.61
395.35	1820.64
395.56	1685.48
395.76	1699.81
395.97	1710.05
396.18	1853.41
396.39	1800.16
396.60	1929.19
396.80	2031.58
397.01	1775.59
397.22	1875.94
397.43	1808.36
397.64	1714.15
397.84	1806.31
398.05	1853.41
398.26	1769.44
398.47	1759.21
398.67	1800.16
398.88	1738.73
399.09	1755.11
399.30	1689.57
399.51	1740.77
399.71	1685.48
399.92	1718.25
400.13	1716.20
400.34	1650.66
400.54	1656.81
400.75	1873.89
400.96	1720.29
401.17	1751.01
401.37	1751.01
401.58	1753.06
401.79	1708.01
402.00	1933.28
402.21	1984.48
402.41	1847.27
402.62	1947.62
402.83	2045.92
403.04	1982.43
403.24	2031.58
403.45	1900.52
403.66	1982.43
403.87	1822.69
404.07	1920.99
404.28	1943.52
404.49	1814.50
404.70	1771.49
404.90	1746.92
405.11	1683.43
405.32	1740.77
405.52	1769.44
405.73	1675.24
405.94	1679.33
406.15	1654.76
406.35	1714.15
406.56	1839.08
406.77	1724.39
406.98	1740.77
407.18	1705.96
407.39	1783.78
407.60	1681.38
407.80	1681.38
408.01	1683.43
408.22	1705.96
408.43	1673.19
408.63	1718.25
408.84	1769.44
409.05	1656.81
409.25	1640.42
409.46	1619.94
409.67	1681.38
409.88	1673.19
410.08	1765.35
410.29	1634.28
410.50	1738.73
410.70	1683.43
410.91	1681.38
411.12	1708.01
411.32	1744.87
411.53	1724.39
411.74	1837.03
411.95	1814.50
412.15	1769.44
412.36	1779.68
412.57	1683.43
412.77	1783.78
412.98	1765.35
413.19	1775.59
413.39	1751.01
413.60	1699.81
413.81	1863.65
414.01	1644.52
414.22	1794.02
414.43	1742.82
414.63	1640.42
414.84	1761.25
415.05	1701.86
415.25	1581.03
415.46	1726.44
415.67	1732.58
415.87	1740.77
416.08	1708.01
416.29	1624.04
416.49	1757.16
416.70	1640.42
416.91	1669.09
417.11	1767.40
417.32	1763.30
417.53	1798.12
417.73	1691.62
417.94	1673.19
418.15	1716.20
418.35	1757.16
418.56	1691.62
418.77	1814.50
418.97	1691.62
419.18	1685.48
419.38	1564.65
419.59	1675.24
419.80	1865.70
420.00	1605.61
420.21	1660.90
420.42	1755.11
420.62	1705.96
420.83	1660.90
421.04	1712.10
421.24	1722.34
421.45	1732.58
421.65	1798.12
421.86	1683.43
422.07	1767.40
422.27	1751.01
422.48	1712.10
422.69	1730.53
422.89	1687.53
423.10	1650.66
423.30	1714.15
423.51	1755.11
423.72	1720.29
423.92	1693.67
424.13	1613.80
424.33	1660.90
424.54	1748.97
424.75	1705.96
424.95	1841.12
425.16	1742.82
425.36	1728.49
425.57	1714.15
425.78	1730.53
425.98	1767.40
426.19	1738.73
426.39	1683.43
426.60	1742.82
426.81	1787.88
427.01	1710.05
427.22	1675.24
427.42	1714.15
427.63	1687.53
427.83	1712.10
428.04	1783.78
428.25	1798.12
428.45	1759.21
428.66	1808.36
428.86	1714.15
429.07	1730.53
429.28	1722.34
429.48	1644.52
429.69	1665.00
429.89	1732.58
430.10	1660.90
430.30	1757.16
430.51	1806.31
430.71	1695.72
430.92	1665.00
431.13	1708.01
431.33	1753.06
431.54	1701.86
431.74	1830.88
431.95	1808.36
432.15	1613.80
432.36	1619.94
432.56	1679.33
432.77	1826.79
432.98	1779.68
433.18	1785.83
433.39	1683.43
433.59	1689.57
433.80	1824.74
434.00	1875.94
434.21	1656.81
434.41	1634.28
434.62	1871.84
434.82	1646.57
435.03	1669.09
435.23	1652.71
435.44	1581.03
435.64	1722.34
435.85	1689.57
436.06	1761.25
436.26	1853.41
436.47	1708.01
436.67	1693.67
436.88	1726.44
437.08	1730.53
437.29	1757.16
437.49	1732.58
437.70	1730.53
437.90	1683.43
438.11	1818.60
438.31	1828.84
438.52	1855.46
438.72	1789.92
438.93	1837.03
439.13	1726.44
439.34	1859.56
439.54	1697.77
439.75	1822.69
439.95	1748.97
440.16	1691.62
440.36	1791.97
440.57	1783.78
440.77	1837.03
440.98	1728.49
441.18	1744.87
441.39	1648.61
441.59	1697.77
441.80	1839.08
442.00	1683.43
442.21	1779.68
442.41	1691.62
442.62	1804.26
442.82	1677.29
443.02	1685.48
443.23	1800.16
443.43	1613.80
443.64	1808.36
443.84	1624.04
444.05	1871.84
444.25	1785.83
444.46	1746.92
444.66	1771.49
444.87	1814.50
445.07	1673.19
445.28	1712.10
445.48	1779.68
445.69	1820.64
445.89	1880.04
446.09	1789.92
446.30	2013.15
446.50	2607.06
446.71	3624.90
446.91	4274.11
447.12	4671.42
447.32	4784.06
447.53	4339.65
447.73	3823.56
447.93	3596.23
448.14	3219.41
448.34	3266.51
448.55	2889.68
448.75	2885.59
448.96	2697.17
449.16	2465.75
449.36	2164.70
449.57	2056.16
449.77	1867.75
449.98	1800.16
450.18	1800.16
450.39	1828.84
450.59	1802.21
450.79	1789.92
451.00	1667.05
451.20	1742.82
451.41	1734.63
451.61	1791.97
451.81	1708.01
452.02	1740.77
452.22	1724.39
452.43	1757.16
452.63	1736.68
