SpectraSuite Data File
++++++++++++++++++++++++++++++++++++
Date: Mon Jun 06 17:20:17 CEST 2016
User: root
Dark Spectrum Present: No
Reference Spectrum Present: No
Number of Sampled Component Spectra: 1
Spectrometers: USB4C02835
Integration Time (usec): 100000 (USB4C02835)
Spectra Averaged: 1 (USB4C02835)
Boxcar Smoothing: 0 (USB4C02835)
Correct for Electrical Dark: No (USB4C02835)
Strobe/Lamp Enabled: No (USB4C02835)
Correct for Detector Non-linearity: No (USB4C02835)
Correct for Stray Light: No (USB4C02835)
Number of Pixels in Processed Spectrum: 3648
>>>>>Begin Processed Spectral Data<<<<<
177.47	1533.93
177.69	1533.93
177.91	1533.93
178.13	1458.15
178.36	1341.42
178.58	1689.57
178.80	1748.97
179.02	1660.90
179.24	1624.04
179.46	1732.58
179.68	1746.92
179.90	1638.38
180.13	1755.11
180.35	1624.04
180.57	1693.67
180.79	1755.11
181.01	1767.40
181.23	1730.53
181.45	1703.91
181.67	1785.83
181.90	1767.40
182.12	1669.09
182.34	1650.66
182.56	1785.83
182.78	1714.15
183.00	1724.39
183.22	1675.24
183.44	1640.42
183.66	1851.36
183.89	1806.31
184.11	1726.44
184.33	1746.92
184.55	1751.01
184.77	1779.68
184.99	1781.73
185.21	1710.05
185.43	1849.32
185.65	1705.96
185.87	1689.57
186.10	1869.80
186.32	1877.99
186.54	1779.68
186.76	1691.62
186.98	1734.63
187.20	1724.39
187.42	1720.29
187.64	1671.14
187.86	1726.44
188.08	1730.53
188.30	1687.53
188.52	1652.71
188.75	1810.40
188.97	1779.68
189.19	1665.00
189.41	1726.44
189.63	1691.62
189.85	1669.09
190.07	1609.70
190.29	1687.53
190.51	1730.53
190.73	1650.66
190.95	1820.64
191.17	1658.85
191.39	1722.34
191.61	1677.29
191.84	1699.81
192.06	1714.15
192.28	1638.38
192.50	1945.57
192.72	1689.57
192.94	1695.72
193.16	1800.16
193.38	1722.34
193.60	1656.81
193.82	1656.81
194.04	1769.44
194.26	1673.19
194.48	1712.10
194.70	1677.29
194.92	1658.85
195.14	1816.55
195.36	1691.62
195.58	1669.09
195.80	1794.02
196.02	1640.42
196.24	1703.91
196.46	1794.02
196.69	1742.82
196.91	1839.08
197.13	1697.77
197.35	1697.77
197.57	1734.63
197.79	1691.62
198.01	1724.39
198.23	1761.25
198.45	1724.39
198.67	1601.51
198.89	1716.20
199.11	1748.97
199.33	1693.67
199.55	1632.23
199.77	1675.24
199.99	1757.16
200.21	1611.75
200.43	1714.15
200.65	1689.57
200.87	1576.94
201.09	1656.81
201.31	1744.87
201.53	1656.81
201.75	1708.01
201.97	1755.11
202.19	1675.24
202.41	1665.00
202.63	1853.41
202.85	1800.16
203.07	1734.63
203.29	1683.43
203.51	1642.47
203.73	1630.18
203.95	1888.23
204.17	1742.82
204.39	1779.68
204.61	1703.91
204.83	1679.33
205.05	1751.01
205.27	1757.16
205.49	1875.94
205.71	1656.81
205.93	1681.38
206.15	1669.09
206.37	1685.48
206.59	1724.39
206.81	1699.81
207.03	1640.42
207.25	1630.18
207.47	1685.48
207.69	1716.20
207.91	1781.73
208.13	1808.36
208.34	1732.58
208.56	1662.95
208.78	1751.01
209.00	1628.14
209.22	1691.62
209.44	1724.39
209.66	1683.43
209.88	1716.20
210.10	1685.48
210.32	1718.25
210.54	1800.16
210.76	1695.72
210.98	1781.73
211.20	1638.38
211.42	1755.11
211.64	1757.16
211.86	1757.16
212.08	1740.77
212.30	1767.40
212.52	1701.86
212.74	1740.77
212.96	1726.44
213.17	1755.11
213.39	1740.77
213.61	1650.66
213.83	1812.45
214.05	1650.66
214.27	1726.44
214.49	1699.81
214.71	1742.82
214.93	1802.21
215.15	1789.92
215.37	1751.01
215.59	1607.66
215.81	1785.83
216.03	1763.30
216.24	1746.92
216.46	1744.87
216.68	1728.49
216.90	1697.77
217.12	1730.53
217.34	1691.62
217.56	1771.49
217.78	1771.49
218.00	1708.01
218.22	1736.68
218.44	1824.74
218.66	1695.72
218.87	1787.88
219.09	1654.76
219.31	1665.00
219.53	1695.72
219.75	1781.73
219.97	1763.30
220.19	1716.20
220.41	1685.48
220.63	1718.25
220.85	1751.01
221.06	1634.28
221.28	1832.93
221.50	1755.11
221.72	1746.92
221.94	1660.90
222.16	1671.14
222.38	1775.59
222.60	1769.44
222.82	1646.57
223.03	1732.58
223.25	1632.23
223.47	1744.87
223.69	1830.88
223.91	1679.33
224.13	1738.73
224.35	1654.76
224.57	1785.83
224.78	1710.05
225.00	1660.90
225.22	1558.50
225.44	1744.87
225.66	1714.15
225.88	1681.38
226.10	1742.82
226.32	1667.05
226.53	1853.41
226.75	1673.19
226.97	1718.25
227.19	1660.90
227.41	1667.05
227.63	1660.90
227.85	1589.22
228.06	1693.67
228.28	1820.64
228.50	1765.35
228.72	1669.09
228.94	1712.10
229.16	1628.14
229.37	1615.85
229.59	1648.61
229.81	1732.58
230.03	1691.62
230.25	1644.52
230.47	1679.33
230.69	1572.84
230.90	1851.36
231.12	1685.48
231.34	1753.06
231.56	1767.40
231.78	1665.00
232.00	1708.01
232.21	1667.05
232.43	1693.67
232.65	1634.28
232.87	1751.01
233.09	1675.24
233.30	1673.19
233.52	1689.57
233.74	1726.44
233.96	1714.15
234.18	1714.15
234.40	1683.43
234.61	1789.92
234.83	1667.05
235.05	1646.57
235.27	1824.74
235.49	1681.38
235.70	1748.97
235.92	1767.40
236.14	1722.34
236.36	1755.11
236.58	1621.99
236.79	1779.68
237.01	1695.72
237.23	1759.21
237.45	1777.64
237.67	1679.33
237.88	1744.87
238.10	1853.41
238.32	1638.38
238.54	1689.57
238.76	1751.01
238.97	1677.29
239.19	1673.19
239.41	1703.91
239.63	1832.93
239.85	1697.77
240.06	1710.05
240.28	1679.33
240.50	1796.07
240.72	1697.77
240.93	1638.38
241.15	1820.64
241.37	1734.63
241.59	1765.35
241.81	1611.75
242.02	1738.73
242.24	1826.79
242.46	1697.77
242.68	1730.53
242.89	1771.49
243.11	1761.25
243.33	1742.82
243.55	1652.71
243.76	1751.01
243.98	1677.29
244.20	1662.95
244.42	1699.81
244.64	1689.57
244.85	1578.98
245.07	1609.70
245.29	1765.35
245.51	1673.19
245.72	1736.68
245.94	1843.17
246.16	1665.00
246.38	1757.16
246.59	1701.86
246.81	1603.56
247.03	1738.73
247.24	1585.13
247.46	1775.59
247.68	1671.14
247.90	1685.48
248.11	1718.25
248.33	1746.92
248.55	1753.06
248.77	1681.38
248.98	1781.73
249.20	1796.07
249.42	1732.58
249.64	1687.53
249.85	1640.42
250.07	1685.48
250.29	1681.38
250.50	1742.82
250.72	1642.47
250.94	1746.92
251.16	1834.98
251.37	1796.07
251.59	1757.16
251.81	1746.92
252.02	1783.78
252.24	1681.38
252.46	1812.45
252.68	1681.38
252.89	1730.53
253.11	1632.23
253.33	1877.99
253.54	1818.60
253.76	1718.25
253.98	1644.52
254.20	1757.16
254.41	1574.89
254.63	1693.67
254.85	1634.28
255.06	1728.49
255.28	1740.77
255.50	1656.81
255.71	1687.53
255.93	1742.82
256.15	1708.01
256.36	1683.43
256.58	1619.94
256.80	1695.72
257.02	1689.57
257.23	1759.21
257.45	1687.53
257.67	1746.92
257.88	1638.38
258.10	1705.96
258.32	1718.25
258.53	1677.29
258.75	1755.11
258.97	1683.43
259.18	1705.96
259.40	1710.05
259.62	1775.59
259.83	1736.68
260.05	1769.44
260.27	1920.99
260.48	1720.29
260.70	1667.05
260.92	1714.15
261.13	1683.43
261.35	1732.58
261.57	1755.11
261.78	1665.00
262.00	1591.27
262.22	1648.61
262.43	1656.81
262.65	1671.14
262.86	1697.77
263.08	1824.74
263.30	1724.39
263.51	1654.76
263.73	1681.38
263.95	1785.83
264.16	1652.71
264.38	1683.43
264.60	1767.40
264.81	1679.33
265.03	1763.30
265.25	1751.01
265.46	1669.09
265.68	1841.12
265.89	1771.49
266.11	1591.27
266.33	1775.59
266.54	1796.07
266.76	1832.93
266.98	1736.68
267.19	1783.78
267.41	1775.59
267.62	1781.73
267.84	1578.98
268.06	1689.57
268.27	1705.96
268.49	1808.36
268.70	1759.21
268.92	1636.33
269.14	1624.04
269.35	1578.98
269.57	1681.38
269.79	1751.01
270.00	1681.38
270.22	1791.97
270.43	1677.29
270.65	1593.32
270.87	1781.73
271.08	1796.07
271.30	1812.45
271.51	1699.81
271.73	1771.49
271.95	1771.49
272.16	1662.95
272.38	1755.11
272.59	1714.15
272.81	1726.44
273.02	1736.68
273.24	1697.77
273.46	1767.40
273.67	1755.11
273.89	1652.71
274.10	1648.61
274.32	1787.88
274.54	1783.78
274.75	1796.07
274.97	1705.96
275.18	1771.49
275.40	1767.40
275.61	1613.80
275.83	1710.05
276.05	1710.05
276.26	1677.29
276.48	1843.17
276.69	1638.38
276.91	1759.21
277.12	1775.59
277.34	1761.25
277.55	1800.16
277.77	1757.16
277.99	1689.57
278.20	1683.43
278.42	1687.53
278.63	1644.52
278.85	1681.38
279.06	1693.67
279.28	1730.53
279.49	1740.77
279.71	1695.72
279.93	1689.57
280.14	1697.77
280.36	1730.53
280.57	1748.97
280.79	1656.81
281.00	1644.52
281.22	1771.49
281.43	1763.30
281.65	1673.19
281.86	1603.56
282.08	1720.29
282.29	1783.78
282.51	1677.29
282.73	1730.53
282.94	1597.42
283.16	1691.62
283.37	1880.04
283.59	1718.25
283.80	1705.96
284.02	1753.06
284.23	1734.63
284.45	1701.86
284.66	1652.71
284.88	1691.62
285.09	1744.87
285.31	1773.54
285.52	1744.87
285.74	1556.46
285.95	1787.88
286.17	1779.68
286.38	1732.58
286.60	1638.38
286.81	1628.14
287.03	1658.85
287.24	1689.57
287.46	1802.21
287.67	1718.25
287.89	1818.60
288.10	1730.53
288.32	1640.42
288.53	1759.21
288.75	1687.53
288.96	1751.01
289.18	1656.81
289.39	1755.11
289.61	1767.40
289.82	1834.98
290.04	1816.55
290.25	1683.43
290.47	1705.96
290.68	1689.57
290.90	1830.88
291.11	1656.81
291.33	1800.16
291.54	1677.29
291.76	1689.57
291.97	1787.88
292.18	1718.25
292.40	1578.98
292.61	1681.38
292.83	1816.55
293.04	1791.97
293.26	1771.49
293.47	1693.67
293.69	1662.95
293.90	1675.24
294.12	1712.10
294.33	1740.77
294.55	1691.62
294.76	1791.97
294.97	1798.12
295.19	1839.08
295.40	1685.48
295.62	1714.15
295.83	1796.07
296.05	1636.33
296.26	1785.83
296.48	1716.20
296.69	1681.38
296.90	1671.14
297.12	1794.02
297.33	1769.44
297.55	1748.97
297.76	1695.72
297.98	1783.78
298.19	1705.96
298.41	1726.44
298.62	1613.80
298.83	1806.31
299.05	1738.73
299.26	1726.44
299.48	1624.04
299.69	1722.34
299.90	1679.33
300.12	1599.46
300.33	1687.53
300.55	1662.95
300.76	1763.30
300.98	1658.85
301.19	1746.92
301.40	1705.96
301.62	1714.15
301.83	1734.63
302.05	1738.73
302.26	1662.95
302.47	1722.34
302.69	1740.77
302.90	1744.87
303.12	1519.59
303.33	1689.57
303.54	1853.41
303.76	1683.43
303.97	1814.50
304.19	1859.56
304.40	1667.05
304.61	1714.15
304.83	1912.80
305.04	1789.92
305.26	1675.24
305.47	1662.95
305.68	1718.25
305.90	1605.61
306.11	1718.25
306.33	1697.77
306.54	1662.95
306.75	1665.00
306.97	1595.37
307.18	1646.57
307.39	1624.04
307.61	1755.11
307.82	1632.23
308.04	1658.85
308.25	1648.61
308.46	1751.01
308.68	1669.09
308.89	1808.36
309.10	1753.06
309.32	1701.86
309.53	1718.25
309.74	1722.34
309.96	1609.70
310.17	1824.74
310.39	1658.85
310.60	1806.31
310.81	1744.87
311.03	1679.33
311.24	1740.77
311.45	1779.68
311.67	1814.50
311.88	1679.33
312.09	1654.76
312.31	1669.09
312.52	1746.92
312.73	1685.48
312.95	1607.66
313.16	1632.23
313.37	1775.59
313.59	1763.30
313.80	1751.01
314.01	1746.92
314.23	1677.29
314.44	1693.67
314.65	1646.57
314.87	1726.44
315.08	1746.92
315.29	1654.76
315.51	1632.23
315.72	1665.00
315.93	1755.11
316.15	1751.01
316.36	1699.81
316.57	1708.01
316.79	1683.43
317.00	1734.63
317.21	1746.92
317.43	1679.33
317.64	1738.73
317.85	1705.96
318.07	1703.91
318.28	1675.24
318.49	1748.97
318.70	1906.66
318.92	1812.45
319.13	1882.08
319.34	1804.26
319.56	1787.88
319.77	1771.49
319.98	1781.73
320.20	1693.67
320.41	1773.54
320.62	1703.91
320.83	1724.39
321.05	1843.17
321.26	1755.11
321.47	1748.97
321.69	1820.64
321.90	1587.18
322.11	1742.82
322.32	1724.39
322.54	1853.41
322.75	1673.19
322.96	1871.84
323.18	1665.00
323.39	1583.08
323.60	1652.71
323.81	1738.73
324.03	1705.96
324.24	1673.19
324.45	1738.73
324.66	1667.05
324.88	1763.30
325.09	1794.02
325.30	1699.81
325.52	1746.92
325.73	1681.38
325.94	1716.20
326.15	1595.37
326.37	1718.25
326.58	1740.77
326.79	1755.11
327.00	1595.37
327.22	1746.92
327.43	1669.09
327.64	1679.33
327.85	1804.26
328.07	1742.82
328.28	1808.36
328.49	1695.72
328.70	1652.71
328.92	1689.57
329.13	1691.62
329.34	1703.91
329.55	1890.28
329.76	1689.57
329.98	1650.66
330.19	1794.02
330.40	1746.92
330.61	1734.63
330.83	1712.10
331.04	1652.71
331.25	1679.33
331.46	1650.66
331.68	1644.52
331.89	1783.78
332.10	1763.30
332.31	1695.72
332.52	1722.34
332.74	1763.30
332.95	1642.47
333.16	1667.05
333.37	1724.39
333.58	1738.73
333.80	1656.81
334.01	1570.79
334.22	1759.21
334.43	1755.11
334.64	1689.57
334.86	1648.61
335.07	1640.42
335.28	1767.40
335.49	1589.22
335.70	1671.14
335.92	1740.77
336.13	1877.99
336.34	1718.25
336.55	1746.92
336.76	1724.39
336.98	1701.86
337.19	1714.15
337.40	1779.68
337.61	1812.45
337.82	1712.10
338.04	1777.64
338.25	1671.14
338.46	1626.09
338.67	1621.99
338.88	1685.48
339.09	1658.85
339.31	1712.10
339.52	1628.14
339.73	1628.14
339.94	1730.53
340.15	1718.25
340.36	1722.34
340.58	1712.10
340.79	1624.04
341.00	1716.20
341.21	1722.34
341.42	1882.08
341.63	1640.42
341.85	1724.39
342.06	1757.16
342.27	1642.47
342.48	1748.97
342.69	1716.20
342.90	1751.01
343.12	1736.68
343.33	1699.81
343.54	1718.25
343.75	1771.49
343.96	1742.82
344.17	1642.47
344.38	1720.29
344.60	1607.66
344.81	1650.66
345.02	1693.67
345.23	1779.68
345.44	1800.16
345.65	1789.92
345.86	1714.15
346.07	1695.72
346.29	1677.29
346.50	1648.61
346.71	1697.77
346.92	1703.91
347.13	1871.84
347.34	1675.24
347.55	1757.16
347.76	1757.16
347.98	1654.76
348.19	1812.45
348.40	1765.35
348.61	1611.75
348.82	1812.45
349.03	1722.34
349.24	1632.23
349.45	1902.56
349.66	1468.39
349.88	1677.29
350.09	1570.79
350.30	1777.64
350.51	1679.33
350.72	1697.77
350.93	1683.43
351.14	1703.91
351.35	1738.73
351.56	1720.29
351.77	1763.30
351.99	1636.33
352.20	1812.45
352.41	1728.49
352.62	1607.66
352.83	1658.85
353.04	1742.82
353.25	1673.19
353.46	1771.49
353.67	1751.01
353.88	1638.38
354.09	1685.48
354.30	1808.36
354.52	1779.68
354.73	1701.86
354.94	1654.76
355.15	1667.05
355.36	1834.98
355.57	1740.77
355.78	1759.21
355.99	1665.00
356.20	1722.34
356.41	1761.25
356.62	1781.73
356.83	1734.63
357.04	1763.30
357.25	1634.28
357.46	1718.25
357.68	1613.80
357.89	1691.62
358.10	1746.92
358.31	1738.73
358.52	1765.35
358.73	1693.67
358.94	1652.71
359.15	1705.96
359.36	1755.11
359.57	1662.95
359.78	1673.19
359.99	1812.45
360.20	1753.06
360.41	1722.34
360.62	1748.97
360.83	1703.91
361.04	1751.01
361.25	1736.68
361.46	1871.84
361.67	1675.24
361.88	1769.44
362.09	1783.78
362.30	1740.77
362.51	1722.34
362.72	1701.86
362.93	1738.73
363.14	1689.57
363.35	1726.44
363.56	1742.82
363.78	1763.30
363.99	1814.50
364.20	1654.76
364.41	1722.34
364.62	1806.31
364.83	1705.96
365.04	1759.21
365.25	1677.29
365.46	1863.65
365.67	1658.85
365.88	1613.80
366.09	1681.38
366.30	1652.71
366.51	1679.33
366.72	1613.80
366.93	1656.81
367.14	1751.01
367.35	1738.73
367.56	1748.97
367.77	1867.75
367.98	1712.10
368.18	1744.87
368.39	1781.73
368.60	1673.19
368.81	1746.92
369.02	1679.33
369.23	1720.29
369.44	1566.70
369.65	1669.09
369.86	1705.96
370.07	1738.73
370.28	1716.20
370.49	1796.07
370.70	1812.45
370.91	1693.67
371.12	1640.42
371.33	1828.84
371.54	1773.54
371.75	1787.88
371.96	1626.09
372.17	1757.16
372.38	1755.11
372.59	1800.16
372.80	1669.09
373.01	1691.62
373.22	1673.19
373.43	1693.67
373.64	1691.62
373.85	1744.87
374.06	1828.84
374.26	1746.92
374.47	1685.48
374.68	1771.49
374.89	1695.72
375.10	1755.11
375.31	1738.73
375.52	1718.25
375.73	1736.68
375.94	1701.86
376.15	1841.12
376.36	1660.90
376.57	1628.14
376.78	1722.34
376.99	1751.01
377.20	1773.54
377.40	1716.20
377.61	1832.93
377.82	1613.80
378.03	1740.77
378.24	1767.40
378.45	1712.10
378.66	1656.81
378.87	1650.66
379.08	1697.77
379.29	1728.49
379.50	1812.45
379.71	1736.68
379.91	1697.77
380.12	1726.44
380.33	1755.11
380.54	1613.80
380.75	1708.01
380.96	1689.57
381.17	1746.92
381.38	1701.86
381.59	1742.82
381.80	1705.96
382.00	1861.60
382.21	1812.45
382.42	1841.12
382.63	1845.22
382.84	1830.88
383.05	1796.07
383.26	1736.68
383.47	1775.59
383.68	1804.26
383.88	1708.01
384.09	1781.73
384.30	1822.69
384.51	1619.94
384.72	1712.10
384.93	1630.18
385.14	1800.16
385.35	1781.73
385.55	1652.71
385.76	1798.12
385.97	1767.40
386.18	1609.70
386.39	1693.67
386.60	1675.24
386.81	1665.00
387.02	1640.42
387.22	1638.38
387.43	1712.10
387.64	1791.97
387.85	1806.31
388.06	2246.62
388.27	4243.39
388.48	6692.76
388.68	8066.95
388.89	9715.56
389.10	9918.31
389.31	8562.56
389.52	7489.42
389.73	6774.68
389.93	6137.76
390.14	5889.96
390.35	5128.11
390.56	4487.10
390.77	3913.67
390.98	3020.75
391.18	2543.58
391.39	2041.82
391.60	1802.21
391.81	1830.88
392.02	1759.21
392.23	1851.36
392.43	1751.01
392.64	1806.31
392.85	1714.15
393.06	1910.75
393.27	1748.97
393.47	1679.33
393.68	1765.35
393.89	1738.73
394.10	1785.83
394.31	1619.94
394.52	1619.94
394.72	1685.48
394.93	1808.36
395.14	1669.09
395.35	1787.88
395.56	1710.05
395.76	1751.01
395.97	1781.73
396.18	1830.88
396.39	1783.78
396.60	2047.97
396.80	1884.13
397.01	1845.22
397.22	1824.74
397.43	1818.60
397.64	1687.53
397.84	1839.08
398.05	1861.60
398.26	1681.38
398.47	1802.21
398.67	1791.97
398.88	1751.01
399.09	1720.29
399.30	1677.29
399.51	1744.87
399.71	1742.82
399.92	1689.57
400.13	1783.78
400.34	1710.05
400.54	1742.82
400.75	1826.79
400.96	1820.64
401.17	1812.45
401.37	1708.01
401.58	1742.82
401.79	1826.79
402.00	1941.47
402.21	2009.06
402.41	1970.15
402.62	2033.63
402.83	2045.92
403.04	2025.44
403.24	2041.82
403.45	1875.94
403.66	1972.19
403.87	1927.14
404.07	1935.33
404.28	1953.76
404.49	1929.19
404.70	1777.64
404.90	1746.92
405.11	1773.54
405.32	1699.81
405.52	1638.38
405.73	1675.24
405.94	1697.77
406.15	1742.82
406.35	1773.54
406.56	1718.25
406.77	1697.77
406.98	1726.44
407.18	1640.42
407.39	1783.78
407.60	1685.48
407.80	1746.92
408.01	1667.05
408.22	1791.97
408.43	1665.00
408.63	1771.49
408.84	1822.69
409.05	1781.73
409.25	1720.29
409.46	1693.67
409.67	1736.68
409.88	1665.00
410.08	1685.48
410.29	1632.23
410.50	1785.83
410.70	1748.97
410.91	1671.14
411.12	1722.34
411.32	1759.21
411.53	1658.85
411.74	1824.74
411.95	1716.20
412.15	1726.44
412.36	1802.21
412.57	1812.45
412.77	1781.73
412.98	1769.44
413.19	1769.44
413.39	1742.82
413.60	1693.67
413.81	1755.11
414.01	1599.46
414.22	1820.64
414.43	1710.05
414.63	1728.49
414.84	1722.34
415.05	1673.19
415.25	1693.67
415.46	1810.40
415.67	1755.11
415.87	1665.00
416.08	1710.05
416.29	1691.62
416.49	1800.16
416.70	1730.53
416.91	1683.43
417.11	1742.82
417.32	1693.67
417.53	1755.11
417.73	1701.86
417.94	1691.62
418.15	1720.29
418.35	1708.01
418.56	1703.91
418.77	1834.98
418.97	1685.48
419.18	1677.29
419.38	1632.23
419.59	1751.01
419.80	1708.01
420.00	1687.53
420.21	1769.44
420.42	1802.21
420.62	1783.78
420.83	1703.91
421.04	1724.39
421.24	1701.86
421.45	1755.11
421.65	1689.57
421.86	1652.71
422.07	1718.25
422.27	1755.11
422.48	1779.68
422.69	1632.23
422.89	1716.20
423.10	1673.19
423.30	1703.91
423.51	1662.95
423.72	1757.16
423.92	1757.16
424.13	1654.76
424.33	1693.67
424.54	1763.30
424.75	1714.15
424.95	1830.88
425.16	1683.43
425.36	1689.57
425.57	1763.30
425.78	1691.62
425.98	1837.03
426.19	1654.76
426.39	1693.67
426.60	1689.57
426.81	1783.78
427.01	1685.48
427.22	1628.14
427.42	1671.14
427.63	1673.19
427.83	1761.25
428.04	1812.45
428.25	1812.45
428.45	1818.60
428.66	1740.77
428.86	1740.77
429.07	1718.25
429.28	1744.87
429.48	1734.63
429.69	1734.63
429.89	1708.01
430.10	1673.19
430.30	1736.68
430.51	1753.06
430.71	1656.81
430.92	1742.82
431.13	1708.01
431.33	1724.39
431.54	1650.66
431.74	1847.27
431.95	1822.69
432.15	1675.24
432.36	1753.06
432.56	1697.77
432.77	1814.50
432.98	1830.88
433.18	1728.49
433.39	1734.63
433.59	1710.05
433.80	1781.73
434.00	1826.79
434.21	1689.57
434.41	1691.62
434.62	1880.04
434.82	1665.00
435.03	1728.49
435.23	1736.68
435.44	1652.71
435.64	1796.07
435.85	1771.49
436.06	1757.16
436.26	1894.37
436.47	1746.92
436.67	1634.28
436.88	1742.82
437.08	1738.73
437.29	1720.29
437.49	1759.21
437.70	1763.30
437.90	1675.24
438.11	1834.98
438.31	1742.82
438.52	1820.64
438.72	1886.18
438.93	1945.57
439.13	1783.78
439.34	1927.14
439.54	1708.01
439.75	1843.17
439.95	1783.78
440.16	1740.77
440.36	1740.77
440.57	1748.97
440.77	1794.02
440.98	1738.73
441.18	1814.50
441.39	1740.77
441.59	1652.71
441.80	1789.92
442.00	1763.30
442.21	1853.41
442.41	1656.81
442.62	1783.78
442.82	1732.58
443.02	1677.29
443.23	1767.40
443.43	1724.39
443.64	1859.56
443.84	1759.21
444.05	1736.68
444.25	1708.01
444.46	1740.77
444.66	1734.63
444.87	1814.50
445.07	1650.66
445.28	1800.16
445.48	1820.64
445.69	1853.41
445.89	1812.45
446.09	1763.30
446.30	2050.02
446.50	2656.22
446.71	3774.41
446.91	4399.04
447.12	4751.29
447.32	4786.10
447.53	4337.60
447.73	3928.00
447.93	3489.74
448.14	3327.95
448.34	3233.74
448.55	2885.59
448.75	2887.64
448.96	2691.03
449.16	2453.47
449.36	2189.28
449.57	2062.30
449.77	1884.13
449.98	1861.60
450.18	1732.58
450.39	1884.13
450.59	1783.78
450.79	1837.03
451.00	1689.57
451.20	1753.06
451.41	1763.30
451.61	1787.88
451.81	1714.15
452.02	1763.30
452.22	1720.29
452.43	1796.07
452.63	1746.92
