SpectraSuite Data File
++++++++++++++++++++++++++++++++++++
Date: Mon Jun 06 14:57:17 CEST 2016
User: root
Dark Spectrum Present: No
Reference Spectrum Present: No
Number of Sampled Component Spectra: 1
Spectrometers: USB4C02835
Integration Time (usec): 100000 (USB4C02835)
Spectra Averaged: 1 (USB4C02835)
Boxcar Smoothing: 0 (USB4C02835)
Correct for Electrical Dark: No (USB4C02835)
Strobe/Lamp Enabled: No (USB4C02835)
Correct for Detector Non-linearity: No (USB4C02835)
Correct for Stray Light: No (USB4C02835)
Number of Pixels in Processed Spectrum: 3648
>>>>>Begin Processed Spectral Data<<<<<
177.47	1560.55
177.69	1560.55
177.91	1560.55
178.13	1415.15
178.36	1484.78
178.58	1677.29
178.80	1748.97
179.02	1681.38
179.24	1673.19
179.46	1689.57
179.68	1767.40
179.90	1691.62
180.13	1705.96
180.35	1654.76
180.57	1712.10
180.79	1738.73
181.01	1626.09
181.23	1816.55
181.45	1673.19
181.67	1771.49
181.90	1669.09
182.12	1720.29
182.34	1583.08
182.56	1736.68
182.78	1667.05
183.00	1650.66
183.22	1708.01
183.44	1638.38
183.66	1849.32
183.89	1779.68
184.11	1710.05
184.33	1746.92
184.55	1796.07
184.77	1761.25
184.99	1691.62
185.21	1714.15
185.43	1867.75
185.65	1691.62
185.87	1710.05
186.10	1861.60
186.32	1791.97
186.54	1746.92
186.76	1687.53
186.98	1720.29
187.20	1652.71
187.42	1724.39
187.64	1673.19
187.86	1820.64
188.08	1748.97
188.30	1697.77
188.52	1644.52
188.75	1691.62
188.97	1763.30
189.19	1599.46
189.41	1673.19
189.63	1710.05
189.85	1697.77
190.07	1646.57
190.29	1673.19
190.51	1767.40
190.73	1656.81
190.95	1777.64
191.17	1791.97
191.39	1611.75
191.61	1634.28
191.84	1636.33
192.06	1673.19
192.28	1581.03
192.50	1929.19
192.72	1777.64
192.94	1701.86
193.16	1779.68
193.38	1665.00
193.60	1650.66
193.82	1722.34
194.04	1769.44
194.26	1699.81
194.48	1669.09
194.70	1656.81
194.92	1697.77
195.14	1617.90
195.36	1589.22
195.58	1718.25
195.80	1693.67
196.02	1675.24
196.24	1691.62
196.46	1708.01
196.69	1617.90
196.91	1843.17
197.13	1669.09
197.35	1673.19
197.57	1726.44
197.79	1693.67
198.01	1755.11
198.23	1738.73
198.45	1703.91
198.67	1685.48
198.89	1714.15
199.11	1724.39
199.33	1689.57
199.55	1634.28
199.77	1673.19
199.99	1675.24
200.21	1652.71
200.43	1705.96
200.65	1658.85
200.87	1632.23
201.09	1710.05
201.31	1673.19
201.53	1804.26
201.75	1738.73
201.97	1734.63
202.19	1681.38
202.41	1720.29
202.63	1761.25
202.85	1746.92
203.07	1701.86
203.29	1636.33
203.51	1695.72
203.73	1730.53
203.95	1810.40
204.17	1753.06
204.39	1714.15
204.61	1691.62
204.83	1757.16
205.05	1683.43
205.27	1789.92
205.49	1880.04
205.71	1746.92
205.93	1617.90
206.15	1681.38
206.37	1748.97
206.59	1658.85
206.81	1740.77
207.03	1607.66
207.25	1673.19
207.47	1753.06
207.69	1701.86
207.91	1714.15
208.13	1740.77
208.34	1677.29
208.56	1650.66
208.78	1728.49
209.00	1650.66
209.22	1689.57
209.44	1748.97
209.66	1636.33
209.88	1669.09
210.10	1744.87
210.32	1681.38
210.54	1738.73
210.76	1646.57
210.98	1683.43
211.20	1576.94
211.42	1705.96
211.64	1759.21
211.86	1710.05
212.08	1712.10
212.30	1728.49
212.52	1669.09
212.74	1722.34
212.96	1785.83
213.17	1726.44
213.39	1748.97
213.61	1789.92
213.83	1703.91
214.05	1613.80
214.27	1746.92
214.49	1613.80
214.71	1630.18
214.93	1773.54
215.15	1753.06
215.37	1755.11
215.59	1626.09
215.81	1722.34
216.03	1714.15
216.24	1665.00
216.46	1667.05
216.68	1701.86
216.90	1730.53
217.12	1730.53
217.34	1665.00
217.56	1705.96
217.78	1726.44
218.00	1746.92
218.22	1691.62
218.44	1769.44
218.66	1744.87
218.87	1810.40
219.09	1703.91
219.31	1687.53
219.53	1699.81
219.75	1689.57
219.97	1722.34
220.19	1732.58
220.41	1667.05
220.63	1775.59
220.85	1755.11
221.06	1642.47
221.28	1746.92
221.50	1699.81
221.72	1701.86
221.94	1759.21
222.16	1685.48
222.38	1796.07
222.60	1753.06
222.82	1726.44
223.03	1712.10
223.25	1640.42
223.47	1687.53
223.69	1818.60
223.91	1746.92
224.13	1812.45
224.35	1576.94
224.57	1806.31
224.78	1734.63
225.00	1615.85
225.22	1732.58
225.44	1716.20
225.66	1810.40
225.88	1693.67
226.10	1828.84
226.32	1681.38
226.53	1804.26
226.75	1681.38
226.97	1683.43
227.19	1708.01
227.41	1695.72
227.63	1619.94
227.85	1595.37
228.06	1705.96
228.28	1728.49
228.50	1759.21
228.72	1658.85
228.94	1738.73
229.16	1609.70
229.37	1591.27
229.59	1697.77
229.81	1773.54
230.03	1675.24
230.25	1626.09
230.47	1662.95
230.69	1667.05
230.90	1800.16
231.12	1693.67
231.34	1722.34
231.56	1761.25
231.78	1578.98
232.00	1630.18
232.21	1681.38
232.43	1566.70
232.65	1593.32
232.87	1728.49
233.09	1673.19
233.30	1689.57
233.52	1716.20
233.74	1646.57
233.96	1671.14
234.18	1652.71
234.40	1728.49
234.61	1806.31
234.83	1583.08
235.05	1640.42
235.27	1822.69
235.49	1718.25
235.70	1693.67
235.92	1757.16
236.14	1687.53
236.36	1783.78
236.58	1669.09
236.79	1791.97
237.01	1701.86
237.23	1755.11
237.45	1800.16
237.67	1630.18
237.88	1691.62
238.10	1757.16
238.32	1683.43
238.54	1730.53
238.76	1710.05
238.97	1681.38
239.19	1693.67
239.41	1816.55
239.63	1761.25
239.85	1621.99
240.06	1693.67
240.28	1726.44
240.50	1746.92
240.72	1673.19
240.93	1673.19
241.15	1767.40
241.37	1685.48
241.59	1652.71
241.81	1689.57
242.02	1705.96
242.24	1718.25
242.46	1681.38
242.68	1654.76
242.89	1689.57
243.11	1693.67
243.33	1703.91
243.55	1744.87
243.76	1744.87
243.98	1632.23
244.20	1665.00
244.42	1667.05
244.64	1724.39
244.85	1673.19
245.07	1669.09
245.29	1751.01
245.51	1699.81
245.72	1607.66
245.94	1794.02
246.16	1810.40
246.38	1730.53
246.59	1673.19
246.81	1740.77
247.03	1662.95
247.24	1656.81
247.46	1656.81
247.68	1734.63
247.90	1753.06
248.11	1697.77
248.33	1730.53
248.55	1710.05
248.77	1742.82
248.98	1681.38
249.20	1781.73
249.42	1691.62
249.64	1765.35
249.85	1572.84
250.07	1654.76
250.29	1665.00
250.50	1773.54
250.72	1556.46
250.94	1697.77
251.16	1847.27
251.37	1736.68
251.59	1724.39
251.81	1705.96
252.02	1798.12
252.24	1677.29
252.46	1834.98
252.68	1648.61
252.89	1621.99
253.11	1677.29
253.33	1806.31
253.54	1730.53
253.76	1585.13
253.98	1683.43
254.20	1724.39
254.41	1689.57
254.63	1710.05
254.85	1673.19
255.06	1714.15
255.28	1685.48
255.50	1687.53
255.71	1695.72
255.93	1615.85
256.15	1658.85
256.36	1689.57
256.58	1742.82
256.80	1726.44
257.02	1644.52
257.23	1681.38
257.45	1759.21
257.67	1748.97
257.88	1632.23
258.10	1716.20
258.32	1681.38
258.53	1705.96
258.75	1791.97
258.97	1746.92
259.18	1648.61
259.40	1648.61
259.62	1806.31
259.83	1832.93
260.05	1777.64
260.27	1968.10
260.48	1734.63
260.70	1673.19
260.92	1757.16
261.13	1636.33
261.35	1710.05
261.57	1638.38
261.78	1595.37
262.00	1716.20
262.22	1765.35
262.43	1652.71
262.65	1656.81
262.86	1656.81
263.08	1806.31
263.30	1742.82
263.51	1619.94
263.73	1681.38
263.95	1773.54
264.16	1703.91
264.38	1607.66
264.60	1746.92
264.81	1658.85
265.03	1761.25
265.25	1701.86
265.46	1621.99
265.68	1761.25
265.89	1763.30
266.11	1673.19
266.33	1771.49
266.54	1722.34
266.76	1755.11
266.98	1761.25
267.19	1755.11
267.41	1716.20
267.62	1652.71
267.84	1593.32
268.06	1740.77
268.27	1781.73
268.49	1779.68
268.70	1777.64
268.92	1603.56
269.14	1617.90
269.35	1640.42
269.57	1691.62
269.79	1753.06
270.00	1640.42
270.22	1800.16
270.43	1728.49
270.65	1572.84
270.87	1722.34
271.08	1699.81
271.30	1763.30
271.51	1705.96
271.73	1738.73
271.95	1734.63
272.16	1656.81
272.38	1621.99
272.59	1687.53
272.81	1675.24
273.02	1675.24
273.24	1787.88
273.46	1791.97
273.67	1636.33
273.89	1701.86
274.10	1693.67
274.32	1763.30
274.54	1734.63
274.75	1736.68
274.97	1650.66
275.18	1679.33
275.40	1742.82
275.61	1644.52
275.83	1652.71
276.05	1681.38
276.26	1730.53
276.48	1794.02
276.69	1617.90
276.91	1679.33
277.12	1775.59
277.34	1787.88
277.55	1837.03
277.77	1689.57
277.99	1601.51
278.20	1697.77
278.42	1681.38
278.63	1640.42
278.85	1687.53
279.06	1660.90
279.28	1761.25
279.49	1689.57
279.71	1677.29
279.93	1675.24
280.14	1638.38
280.36	1673.19
280.57	1765.35
280.79	1742.82
281.00	1642.47
281.22	1697.77
281.43	1669.09
281.65	1587.18
281.86	1648.61
282.08	1765.35
282.29	1742.82
282.51	1581.03
282.73	1624.04
282.94	1624.04
283.16	1740.77
283.37	1832.93
283.59	1609.70
283.80	1720.29
284.02	1710.05
284.23	1742.82
284.45	1669.09
284.66	1619.94
284.88	1650.66
285.09	1646.57
285.31	1705.96
285.52	1689.57
285.74	1697.77
285.95	1718.25
286.17	1730.53
286.38	1759.21
286.60	1673.19
286.81	1669.09
287.03	1689.57
287.24	1708.01
287.46	1669.09
287.67	1800.16
287.89	1890.28
288.10	1683.43
288.32	1720.29
288.53	1665.00
288.75	1667.05
288.96	1673.19
289.18	1621.99
289.39	1695.72
289.61	1800.16
289.82	1832.93
290.04	1884.13
290.25	1748.97
290.47	1740.77
290.68	1677.29
290.90	1705.96
291.11	1609.70
291.33	1771.49
291.54	1628.14
291.76	1656.81
291.97	1728.49
292.18	1656.81
292.40	1632.23
292.61	1650.66
292.83	1804.26
293.04	1699.81
293.26	1705.96
293.47	1689.57
293.69	1673.19
293.90	1617.90
294.12	1689.57
294.33	1738.73
294.55	1697.77
294.76	1728.49
294.97	1839.08
295.19	1861.60
295.40	1730.53
295.62	1693.67
295.83	1791.97
296.05	1656.81
296.26	1679.33
296.48	1665.00
296.69	1683.43
296.90	1718.25
297.12	1796.07
297.33	1783.78
297.55	1650.66
297.76	1755.11
297.98	1783.78
298.19	1697.77
298.41	1683.43
298.62	1681.38
298.83	1804.26
299.05	1693.67
299.26	1685.48
299.48	1685.48
299.69	1800.16
299.90	1650.66
300.12	1646.57
300.33	1730.53
300.55	1691.62
300.76	1701.86
300.98	1671.14
301.19	1761.25
301.40	1769.44
301.62	1683.43
301.83	1710.05
302.05	1724.39
302.26	1708.01
302.47	1744.87
302.69	1591.27
302.90	1685.48
303.12	1564.65
303.33	1705.96
303.54	1775.59
303.76	1695.72
303.97	1746.92
304.19	1687.53
304.40	1630.18
304.61	1642.47
304.83	1800.16
305.04	1732.58
305.26	1726.44
305.47	1601.51
305.68	1667.05
305.90	1689.57
306.11	1806.31
306.33	1785.83
306.54	1652.71
306.75	1714.15
306.97	1554.41
307.18	1619.94
307.39	1734.63
307.61	1671.14
307.82	1644.52
308.04	1689.57
308.25	1636.33
308.46	1697.77
308.68	1720.29
308.89	1724.39
309.10	1773.54
309.32	1710.05
309.53	1675.24
309.74	1740.77
309.96	1669.09
310.17	1759.21
310.39	1652.71
310.60	1687.53
310.81	1689.57
311.03	1712.10
311.24	1687.53
311.45	1779.68
311.67	1810.40
311.88	1665.00
312.09	1671.14
312.31	1650.66
312.52	1671.14
312.73	1677.29
312.95	1609.70
313.16	1628.14
313.37	1714.15
313.59	1738.73
313.80	1669.09
314.01	1826.79
314.23	1644.52
314.44	1636.33
314.65	1630.18
314.87	1619.94
315.08	1695.72
315.29	1691.62
315.51	1585.13
315.72	1540.07
315.93	1794.02
316.15	1791.97
316.36	1726.44
316.57	1697.77
316.79	1767.40
317.00	1624.04
317.21	1681.38
317.43	1724.39
317.64	1615.85
317.85	1652.71
318.07	1683.43
318.28	1665.00
318.49	1822.69
318.70	1841.12
318.92	1773.54
319.13	1837.03
319.34	1867.75
319.56	1755.11
319.77	1800.16
319.98	1824.74
320.20	1722.34
320.41	1757.16
320.62	1720.29
320.83	1716.20
321.05	1812.45
321.26	1767.40
321.47	1697.77
321.69	1685.48
321.90	1624.04
322.11	1646.57
322.32	1773.54
322.54	1718.25
322.75	1691.62
322.96	1791.97
323.18	1611.75
323.39	1648.61
323.60	1632.23
323.81	1726.44
324.03	1740.77
324.24	1730.53
324.45	1636.33
324.66	1718.25
324.88	1837.03
325.09	1789.92
325.30	1732.58
325.52	1693.67
325.73	1724.39
325.94	1626.09
326.15	1603.56
326.37	1755.11
326.58	1755.11
326.79	1746.92
327.00	1699.81
327.22	1669.09
327.43	1763.30
327.64	1548.26
327.85	1705.96
328.07	1769.44
328.28	1761.25
328.49	1593.32
328.70	1632.23
328.92	1726.44
329.13	1640.42
329.34	1683.43
329.55	1798.12
329.76	1791.97
329.98	1681.38
330.19	1802.21
330.40	1720.29
330.61	1673.19
330.83	1677.29
331.04	1570.79
331.25	1658.85
331.46	1689.57
331.68	1636.33
331.89	1724.39
332.10	1710.05
332.31	1662.95
332.52	1712.10
332.74	1816.55
332.95	1576.94
333.16	1648.61
333.37	1701.86
333.58	1712.10
333.80	1710.05
334.01	1691.62
334.22	1617.90
334.43	1681.38
334.64	1601.51
334.86	1679.33
335.07	1632.23
335.28	1771.49
335.49	1595.37
335.70	1769.44
335.92	1783.78
336.13	1781.73
336.34	1685.48
336.55	1730.53
336.76	1742.82
336.98	1613.80
337.19	1720.29
337.40	1787.88
337.61	1841.12
337.82	1769.44
338.04	1697.77
338.25	1628.14
338.46	1681.38
338.67	1712.10
338.88	1617.90
339.09	1671.14
339.31	1691.62
339.52	1587.18
339.73	1683.43
339.94	1685.48
340.15	1730.53
340.36	1691.62
340.58	1710.05
340.79	1710.05
341.00	1675.24
341.21	1660.90
341.42	1931.23
341.63	1718.25
341.85	1789.92
342.06	1685.48
342.27	1669.09
342.48	1810.40
342.69	1675.24
342.90	1722.34
343.12	1759.21
343.33	1619.94
343.54	1751.01
343.75	1718.25
343.96	1695.72
344.17	1585.13
344.38	1705.96
344.60	1591.27
344.81	1675.24
345.02	1712.10
345.23	1783.78
345.44	1728.49
345.65	1710.05
345.86	1714.15
346.07	1685.48
346.29	1611.75
346.50	1759.21
346.71	1691.62
346.92	1732.58
347.13	1818.60
347.34	1720.29
347.55	1669.09
347.76	1730.53
347.98	1650.66
348.19	1710.05
348.40	1722.34
348.61	1646.57
348.82	1773.54
349.03	1701.86
349.24	1746.92
349.45	1832.93
349.66	1527.78
349.88	1746.92
350.09	1703.91
350.30	1736.68
350.51	1769.44
350.72	1736.68
350.93	1763.30
351.14	1732.58
351.35	1669.09
351.56	1724.39
351.77	1710.05
351.99	1734.63
352.20	1769.44
352.41	1755.11
352.62	1562.60
352.83	1689.57
353.04	1714.15
353.25	1679.33
353.46	1679.33
353.67	1781.73
353.88	1634.28
354.09	1689.57
354.30	1746.92
354.52	1753.06
354.73	1691.62
354.94	1683.43
355.15	1697.77
355.36	1800.16
355.57	1697.77
355.78	1724.39
355.99	1611.75
356.20	1687.53
356.41	1880.04
356.62	1734.63
356.83	1695.72
357.04	1796.07
357.25	1572.84
357.46	1654.76
357.68	1662.95
357.89	1578.98
358.10	1642.47
358.31	1720.29
358.52	1703.91
358.73	1656.81
358.94	1673.19
359.15	1642.47
359.36	1722.34
359.57	1636.33
359.78	1710.05
359.99	1728.49
360.20	1628.14
360.41	1728.49
360.62	1683.43
360.83	1652.71
361.04	1675.24
361.25	1751.01
361.46	1820.64
361.67	1697.77
361.88	1730.53
362.09	1738.73
362.30	1728.49
362.51	1693.67
362.72	1705.96
362.93	1724.39
363.14	1703.91
363.35	1791.97
363.56	1566.70
363.78	1806.31
363.99	1724.39
364.20	1699.81
364.41	1740.77
364.62	1775.59
364.83	1759.21
365.04	1689.57
365.25	1708.01
365.46	1853.41
365.67	1632.23
365.88	1628.14
366.09	1703.91
366.30	1732.58
366.51	1783.78
366.72	1662.95
366.93	1751.01
367.14	1765.35
367.35	1755.11
367.56	1640.42
367.77	1816.55
367.98	1642.47
368.18	1755.11
368.39	1755.11
368.60	1689.57
368.81	1724.39
369.02	1656.81
369.23	1751.01
369.44	1644.52
369.65	1703.91
369.86	1701.86
370.07	1718.25
370.28	1642.47
370.49	1667.05
370.70	1687.53
370.91	1624.04
371.12	1583.08
371.33	1789.92
371.54	1675.24
371.75	1818.60
371.96	1593.32
372.17	1697.77
372.38	1699.81
372.59	1718.25
372.80	1613.80
373.01	1710.05
373.22	1621.99
373.43	1746.92
373.64	1654.76
373.85	1816.55
374.06	1767.40
374.26	1775.59
374.47	1708.01
374.68	1701.86
374.89	1767.40
375.10	1677.29
375.31	1730.53
375.52	1671.14
375.73	1681.38
375.94	1669.09
376.15	1826.79
376.36	1695.72
376.57	1626.09
376.78	1640.42
376.99	1681.38
377.20	1751.01
377.40	1652.71
377.61	1812.45
377.82	1665.00
378.03	1742.82
378.24	1746.92
378.45	1701.86
378.66	1689.57
378.87	1644.52
379.08	1601.51
379.29	1605.61
379.50	1767.40
379.71	1691.62
379.91	1794.02
380.12	1650.66
380.33	1759.21
380.54	1638.38
380.75	1646.57
380.96	1660.90
381.17	1775.59
381.38	1701.86
381.59	1718.25
381.80	1697.77
382.00	1802.21
382.21	1683.43
382.42	1781.73
382.63	1787.88
382.84	1822.69
383.05	1677.29
383.26	1736.68
383.47	1714.15
383.68	1689.57
383.88	1730.53
384.09	1777.64
384.30	1738.73
384.51	1710.05
384.72	1671.14
384.93	1656.81
385.14	1738.73
385.35	1751.01
385.55	1624.04
385.76	1742.82
385.97	1677.29
386.18	1671.14
386.39	1654.76
386.60	1669.09
386.81	1712.10
387.02	1671.14
387.22	1673.19
387.43	1773.54
387.64	1771.49
387.85	1816.55
388.06	2240.48
388.27	4290.49
388.48	6588.32
388.68	7884.68
388.89	9285.49
389.10	9676.65
389.31	8284.03
389.52	7159.70
389.73	6508.44
389.93	6148.00
390.14	5662.63
390.35	5179.31
390.56	4513.72
390.77	3827.65
390.98	3059.67
391.18	2543.58
391.39	2125.79
391.60	1847.27
391.81	1832.93
392.02	1691.62
392.23	1849.32
392.43	1673.19
392.64	1867.75
392.85	1734.63
393.06	1837.03
393.27	1718.25
393.47	1607.66
393.68	1685.48
393.89	1689.57
394.10	1820.64
394.31	1708.01
394.52	1669.09
394.72	1644.52
394.93	1869.80
395.14	1697.77
395.35	1673.19
395.56	1669.09
395.76	1742.82
395.97	1787.88
396.18	1906.66
396.39	1802.21
396.60	1968.10
396.80	1873.89
397.01	1787.88
397.22	1841.12
397.43	1769.44
397.64	1746.92
397.84	1810.40
398.05	1863.65
398.26	1675.24
398.47	1730.53
398.67	1800.16
398.88	1679.33
399.09	1693.67
399.30	1650.66
399.51	1787.88
399.71	1722.34
399.92	1757.16
400.13	1753.06
400.34	1765.35
400.54	1722.34
400.75	1806.31
400.96	1740.77
401.17	1794.02
401.37	1738.73
401.58	1658.85
401.79	1759.21
402.00	1880.04
402.21	1996.77
402.41	1957.86
402.62	1990.63
402.83	2072.54
403.04	1939.43
403.24	2052.06
403.45	1847.27
403.66	1849.32
403.87	1890.28
404.07	1873.89
404.28	1820.64
404.49	1904.61
404.70	1689.57
404.90	1722.34
405.11	1781.73
405.32	1828.84
405.52	1716.20
405.73	1632.23
405.94	1613.80
406.15	1695.72
406.35	1744.87
406.56	1724.39
406.77	1718.25
406.98	1728.49
407.18	1607.66
407.39	1755.11
407.60	1724.39
407.80	1802.21
408.01	1691.62
408.22	1642.47
408.43	1683.43
408.63	1705.96
408.84	1701.86
409.05	1701.86
409.25	1650.66
409.46	1712.10
409.67	1697.77
409.88	1685.48
410.08	1761.25
410.29	1667.05
410.50	1781.73
410.70	1765.35
410.91	1658.85
411.12	1785.83
411.32	1681.38
411.53	1665.00
411.74	1820.64
411.95	1732.58
412.15	1794.02
412.36	1755.11
412.57	1787.88
412.77	1820.64
412.98	1753.06
413.19	1724.39
413.39	1730.53
413.60	1771.49
413.81	1806.31
414.01	1673.19
414.22	1730.53
414.43	1734.63
414.63	1728.49
414.84	1724.39
415.05	1740.77
415.25	1669.09
415.46	1777.64
415.67	1734.63
415.87	1650.66
416.08	1634.28
416.29	1669.09
416.49	1716.20
416.70	1681.38
416.91	1626.09
417.11	1708.01
417.32	1789.92
417.53	1761.25
417.73	1703.91
417.94	1658.85
418.15	1708.01
418.35	1742.82
418.56	1736.68
418.77	1814.50
418.97	1769.44
419.18	1660.90
419.38	1628.14
419.59	1628.14
419.80	1757.16
420.00	1556.46
420.21	1755.11
420.42	1746.92
420.62	1714.15
420.83	1626.09
421.04	1701.86
421.24	1718.25
421.45	1802.21
421.65	1759.21
421.86	1734.63
422.07	1693.67
422.27	1771.49
422.48	1755.11
422.69	1687.53
422.89	1685.48
423.10	1722.34
423.30	1658.85
423.51	1675.24
423.72	1794.02
423.92	1728.49
424.13	1681.38
424.33	1650.66
424.54	1718.25
424.75	1738.73
424.95	1724.39
425.16	1705.96
425.36	1726.44
425.57	1712.10
425.78	1642.47
425.98	1744.87
426.19	1681.38
426.39	1675.24
426.60	1699.81
426.81	1789.92
427.01	1693.67
427.22	1556.46
427.42	1642.47
427.63	1630.18
427.83	1656.81
428.04	1789.92
428.25	1773.54
428.45	1701.86
428.66	1736.68
428.86	1716.20
429.07	1724.39
429.28	1677.29
429.48	1683.43
429.69	1619.94
429.89	1716.20
430.10	1687.53
430.30	1785.83
430.51	1687.53
430.71	1652.71
430.92	1667.05
431.13	1624.04
431.33	1771.49
431.54	1736.68
431.74	1832.93
431.95	1775.59
432.15	1665.00
432.36	1683.43
432.56	1779.68
432.77	1804.26
432.98	1839.08
433.18	1753.06
433.39	1712.10
433.59	1683.43
433.80	1777.64
434.00	1804.26
434.21	1642.47
434.41	1613.80
434.62	1798.12
434.82	1691.62
435.03	1697.77
435.23	1701.86
435.44	1640.42
435.64	1734.63
435.85	1738.73
436.06	1757.16
436.26	1705.96
436.47	1703.91
436.67	1695.72
436.88	1703.91
437.08	1769.44
437.29	1867.75
437.49	1726.44
437.70	1800.16
437.90	1677.29
438.11	1810.40
438.31	1796.07
438.52	1849.32
438.72	1863.65
438.93	1828.84
439.13	1742.82
439.34	1816.55
439.54	1714.15
439.75	1755.11
439.95	1785.83
440.16	1671.14
440.36	1736.68
440.57	1837.03
440.77	1728.49
440.98	1650.66
441.18	1757.16
441.39	1642.47
441.59	1705.96
441.80	1845.22
442.00	1740.77
442.21	1814.50
442.41	1603.56
442.62	1724.39
442.82	1716.20
443.02	1658.85
443.23	1808.36
443.43	1730.53
443.64	1800.16
443.84	1650.66
444.05	1826.79
444.25	1783.78
444.46	1626.09
444.66	1701.86
444.87	1841.12
445.07	1689.57
445.28	1675.24
445.48	1740.77
445.69	1724.39
445.89	1880.04
446.09	1665.00
446.30	2041.82
446.50	2605.02
446.71	3581.90
446.91	4245.44
447.12	4626.36
447.32	4665.27
447.53	4171.71
447.73	3758.02
447.93	3504.07
448.14	3352.52
448.34	3106.77
448.55	2901.97
448.75	2807.77
448.96	2686.94
449.16	2439.13
449.36	2267.10
449.57	1959.91
449.77	1970.15
449.98	1759.21
450.18	1853.41
450.39	1787.88
450.59	1851.36
450.79	1746.92
451.00	1669.09
451.20	1769.44
451.41	1681.38
451.61	1804.26
451.81	1683.43
452.02	1689.57
452.22	1658.85
452.43	1691.62
452.63	1677.29
