SpectraSuite Data File
++++++++++++++++++++++++++++++++++++
Date: Mon Jun 06 14:26:17 CEST 2016
User: root
Dark Spectrum Present: No
Reference Spectrum Present: No
Number of Sampled Component Spectra: 1
Spectrometers: USB4C02835
Integration Time (usec): 100000 (USB4C02835)
Spectra Averaged: 1 (USB4C02835)
Boxcar Smoothing: 0 (USB4C02835)
Correct for Electrical Dark: No (USB4C02835)
Strobe/Lamp Enabled: No (USB4C02835)
Correct for Detector Non-linearity: No (USB4C02835)
Correct for Stray Light: No (USB4C02835)
Number of Pixels in Processed Spectrum: 3648
>>>>>Begin Processed Spectral Data<<<<<
177.47	1464.30
177.69	1464.30
177.91	1464.30
178.13	1503.21
178.36	1443.82
178.58	1679.33
178.80	1779.68
179.02	1621.99
179.24	1708.01
179.46	1748.97
179.68	1798.12
179.90	1646.57
180.13	1746.92
180.35	1581.03
180.57	1671.14
180.79	1734.63
181.01	1628.14
181.23	1767.40
181.45	1744.87
181.67	1705.96
181.90	1736.68
182.12	1695.72
182.34	1595.37
182.56	1746.92
182.78	1763.30
183.00	1714.15
183.22	1677.29
183.44	1574.89
183.66	1845.22
183.89	1820.64
184.11	1701.86
184.33	1802.21
184.55	1669.09
184.77	1769.44
184.99	1697.77
185.21	1714.15
185.43	1904.61
185.65	1687.53
185.87	1722.34
186.10	1781.73
186.32	1830.88
186.54	1759.21
186.76	1767.40
186.98	1814.50
187.20	1765.35
187.42	1640.42
187.64	1703.91
187.86	1779.68
188.08	1767.40
188.30	1691.62
188.52	1658.85
188.75	1794.02
188.97	1722.34
189.19	1644.52
189.41	1689.57
189.63	1761.25
189.85	1628.14
190.07	1603.56
190.29	1540.07
190.51	1636.33
190.73	1619.94
190.95	1724.39
191.17	1683.43
191.39	1607.66
191.61	1654.76
191.84	1644.52
192.06	1701.86
192.28	1642.47
192.50	1853.41
192.72	1669.09
192.94	1716.20
193.16	1853.41
193.38	1685.48
193.60	1693.67
193.82	1648.61
194.04	1767.40
194.26	1722.34
194.48	1621.99
194.70	1710.05
194.92	1646.57
195.14	1716.20
195.36	1742.82
195.58	1626.09
195.80	1695.72
196.02	1595.37
196.24	1673.19
196.46	1765.35
196.69	1712.10
196.91	1859.56
197.13	1644.52
197.35	1675.24
197.57	1796.07
197.79	1677.29
198.01	1712.10
198.23	1751.01
198.45	1738.73
198.67	1665.00
198.89	1662.95
199.11	1671.14
199.33	1636.33
199.55	1578.98
199.77	1689.57
199.99	1703.91
200.21	1705.96
200.43	1755.11
200.65	1685.48
200.87	1593.32
201.09	1738.73
201.31	1605.61
201.53	1695.72
201.75	1636.33
201.97	1724.39
202.19	1677.29
202.41	1787.88
202.63	1886.18
202.85	1720.29
203.07	1755.11
203.29	1738.73
203.51	1628.14
203.73	1597.42
203.95	1855.46
204.17	1720.29
204.39	1763.30
204.61	1621.99
204.83	1716.20
205.05	1796.07
205.27	1740.77
205.49	1744.87
205.71	1732.58
205.93	1583.08
206.15	1712.10
206.37	1751.01
206.59	1693.67
206.81	1611.75
207.03	1609.70
207.25	1730.53
207.47	1755.11
207.69	1751.01
207.91	1765.35
208.13	1748.97
208.34	1683.43
208.56	1681.38
208.78	1683.43
209.00	1671.14
209.22	1781.73
209.44	1630.18
209.66	1708.01
209.88	1644.52
210.10	1619.94
210.32	1712.10
210.54	1810.40
210.76	1701.86
210.98	1738.73
211.20	1572.84
211.42	1714.15
211.64	1718.25
211.86	1701.86
212.08	1742.82
212.30	1732.58
212.52	1615.85
212.74	1693.67
212.96	1767.40
213.17	1714.15
213.39	1751.01
213.61	1703.91
213.83	1753.06
214.05	1673.19
214.27	1722.34
214.49	1660.90
214.71	1642.47
214.93	1785.83
215.15	1656.81
215.37	1732.58
215.59	1617.90
215.81	1794.02
216.03	1746.92
216.24	1701.86
216.46	1744.87
216.68	1718.25
216.90	1746.92
217.12	1726.44
217.34	1675.24
217.56	1693.67
217.78	1777.64
218.00	1722.34
218.22	1689.57
218.44	1746.92
218.66	1757.16
218.87	1773.54
219.09	1636.33
219.31	1787.88
219.53	1687.53
219.75	1595.37
219.97	1697.77
220.19	1748.97
220.41	1681.38
220.63	1730.53
220.85	1658.85
221.06	1679.33
221.28	1738.73
221.50	1718.25
221.72	1748.97
221.94	1677.29
222.16	1736.68
222.38	1665.00
222.60	1693.67
222.82	1722.34
223.03	1761.25
223.25	1603.56
223.47	1757.16
223.69	1787.88
223.91	1751.01
224.13	1716.20
224.35	1675.24
224.57	1781.73
224.78	1685.48
225.00	1699.81
225.22	1742.82
225.44	1697.77
225.66	1738.73
225.88	1568.74
226.10	1726.44
226.32	1748.97
226.53	1773.54
226.75	1681.38
226.97	1652.71
227.19	1656.81
227.41	1685.48
227.63	1687.53
227.85	1603.56
228.06	1691.62
228.28	1705.96
228.50	1703.91
228.72	1683.43
228.94	1785.83
229.16	1640.42
229.37	1691.62
229.59	1597.42
229.81	1748.97
230.03	1681.38
230.25	1656.81
230.47	1613.80
230.69	1619.94
230.90	1720.29
231.12	1656.81
231.34	1681.38
231.56	1728.49
231.78	1605.61
232.00	1730.53
232.21	1652.71
232.43	1677.29
232.65	1611.75
232.87	1871.84
233.09	1677.29
233.30	1626.09
233.52	1765.35
233.74	1732.58
233.96	1621.99
234.18	1755.11
234.40	1597.42
234.61	1800.16
234.83	1646.57
235.05	1554.41
235.27	1843.17
235.49	1783.78
235.70	1701.86
235.92	1667.05
236.14	1693.67
236.36	1806.31
236.58	1681.38
236.79	1787.88
237.01	1732.58
237.23	1689.57
237.45	1783.78
237.67	1669.09
237.88	1710.05
238.10	1746.92
238.32	1603.56
238.54	1650.66
238.76	1697.77
238.97	1632.23
239.19	1624.04
239.41	1724.39
239.63	1787.88
239.85	1648.61
240.06	1708.01
240.28	1642.47
240.50	1773.54
240.72	1771.49
240.93	1679.33
241.15	1771.49
241.37	1771.49
241.59	1808.36
241.81	1652.71
242.02	1699.81
242.24	1679.33
242.46	1765.35
242.68	1673.19
242.89	1742.82
243.11	1783.78
243.33	1724.39
243.55	1697.77
243.76	1687.53
243.98	1673.19
244.20	1726.44
244.42	1736.68
244.64	1697.77
244.85	1587.18
245.07	1624.04
245.29	1755.11
245.51	1677.29
245.72	1691.62
245.94	1734.63
246.16	1820.64
246.38	1710.05
246.59	1734.63
246.81	1693.67
247.03	1712.10
247.24	1613.80
247.46	1724.39
247.68	1656.81
247.90	1751.01
248.11	1695.72
248.33	1722.34
248.55	1671.14
248.77	1724.39
248.98	1718.25
249.20	1812.45
249.42	1722.34
249.64	1722.34
249.85	1769.44
250.07	1578.98
250.29	1736.68
250.50	1785.83
250.72	1603.56
250.94	1738.73
251.16	1818.60
251.37	1781.73
251.59	1787.88
251.81	1681.38
252.02	1759.21
252.24	1738.73
252.46	1738.73
252.68	1603.56
252.89	1697.77
253.11	1644.52
253.33	1765.35
253.54	1783.78
253.76	1581.03
253.98	1642.47
254.20	1693.67
254.41	1603.56
254.63	1607.66
254.85	1673.19
255.06	1691.62
255.28	1775.59
255.50	1714.15
255.71	1615.85
255.93	1619.94
256.15	1708.01
256.36	1691.62
256.58	1699.81
256.80	1746.92
257.02	1669.09
257.23	1687.53
257.45	1773.54
257.67	1775.59
257.88	1712.10
258.10	1740.77
258.32	1695.72
258.53	1738.73
258.75	1757.16
258.97	1705.96
259.18	1644.52
259.40	1767.40
259.62	1755.11
259.83	1820.64
260.05	1722.34
260.27	1900.52
260.48	1699.81
260.70	1675.24
260.92	1693.67
261.13	1679.33
261.35	1734.63
261.57	1724.39
261.78	1619.94
262.00	1673.19
262.22	1716.20
262.43	1703.91
262.65	1648.61
262.86	1732.58
263.08	1900.52
263.30	1691.62
263.51	1554.41
263.73	1693.67
263.95	1771.49
264.16	1693.67
264.38	1636.33
264.60	1746.92
264.81	1675.24
265.03	1730.53
265.25	1679.33
265.46	1771.49
265.68	1722.34
265.89	1740.77
266.11	1712.10
266.33	1728.49
266.54	1746.92
266.76	1681.38
266.98	1753.06
267.19	1828.84
267.41	1808.36
267.62	1714.15
267.84	1601.51
268.06	1693.67
268.27	1691.62
268.49	1791.97
268.70	1841.12
268.92	1626.09
269.14	1628.14
269.35	1624.04
269.57	1699.81
269.79	1673.19
270.00	1660.90
270.22	1775.59
270.43	1658.85
270.65	1583.08
270.87	1677.29
271.08	1744.87
271.30	1679.33
271.51	1763.30
271.73	1691.62
271.95	1734.63
272.16	1732.58
272.38	1628.14
272.59	1728.49
272.81	1714.15
273.02	1767.40
273.24	1724.39
273.46	1734.63
273.67	1693.67
273.89	1712.10
274.10	1722.34
274.32	1742.82
274.54	1753.06
274.75	1746.92
274.97	1695.72
275.18	1808.36
275.40	1718.25
275.61	1695.72
275.83	1769.44
276.05	1613.80
276.26	1740.77
276.48	1781.73
276.69	1742.82
276.91	1662.95
277.12	1771.49
277.34	1742.82
277.55	1781.73
277.77	1722.34
277.99	1632.23
278.20	1644.52
278.42	1593.32
278.63	1685.48
278.85	1667.05
279.06	1703.91
279.28	1695.72
279.49	1755.11
279.71	1703.91
279.93	1753.06
280.14	1732.58
280.36	1593.32
280.57	1757.16
280.79	1738.73
281.00	1669.09
281.22	1679.33
281.43	1822.69
281.65	1531.88
281.86	1660.90
282.08	1730.53
282.29	1732.58
282.51	1632.23
282.73	1685.48
282.94	1576.94
283.16	1755.11
283.37	1751.01
283.59	1669.09
283.80	1677.29
284.02	1673.19
284.23	1699.81
284.45	1679.33
284.66	1636.33
284.88	1644.52
285.09	1767.40
285.31	1673.19
285.52	1708.01
285.74	1609.70
285.95	1824.74
286.17	1775.59
286.38	1746.92
286.60	1652.71
286.81	1626.09
287.03	1673.19
287.24	1667.05
287.46	1767.40
287.67	1681.38
287.89	1775.59
288.10	1716.20
288.32	1671.14
288.53	1755.11
288.75	1734.63
288.96	1689.57
289.18	1691.62
289.39	1695.72
289.61	1726.44
289.82	1861.60
290.04	1839.08
290.25	1691.62
290.47	1693.67
290.68	1636.33
290.90	1761.25
291.11	1628.14
291.33	1718.25
291.54	1685.48
291.76	1621.99
291.97	1722.34
292.18	1673.19
292.40	1701.86
292.61	1691.62
292.83	1789.92
293.04	1763.30
293.26	1677.29
293.47	1665.00
293.69	1742.82
293.90	1642.47
294.12	1718.25
294.33	1714.15
294.55	1697.77
294.76	1763.30
294.97	1722.34
295.19	1785.83
295.40	1724.39
295.62	1730.53
295.83	1742.82
296.05	1660.90
296.26	1699.81
296.48	1650.66
296.69	1671.14
296.90	1638.38
297.12	1734.63
297.33	1763.30
297.55	1685.48
297.76	1712.10
297.98	1769.44
298.19	1712.10
298.41	1660.90
298.62	1640.42
298.83	1769.44
299.05	1716.20
299.26	1714.15
299.48	1726.44
299.69	1708.01
299.90	1732.58
300.12	1656.81
300.33	1730.53
300.55	1683.43
300.76	1744.87
300.98	1658.85
301.19	1755.11
301.40	1755.11
301.62	1701.86
301.83	1701.86
302.05	1628.14
302.26	1710.05
302.47	1671.14
302.69	1632.23
302.90	1654.76
303.12	1621.99
303.33	1703.91
303.54	1810.40
303.76	1656.81
303.97	1691.62
304.19	1755.11
304.40	1673.19
304.61	1681.38
304.83	1834.98
305.04	1888.23
305.26	1685.48
305.47	1734.63
305.68	1605.61
305.90	1640.42
306.11	1791.97
306.33	1748.97
306.54	1722.34
306.75	1603.56
306.97	1650.66
307.18	1685.48
307.39	1697.77
307.61	1701.86
307.82	1687.53
308.04	1720.29
308.25	1695.72
308.46	1685.48
308.68	1708.01
308.89	1714.15
309.10	1759.21
309.32	1777.64
309.53	1728.49
309.74	1738.73
309.96	1640.42
310.17	1816.55
310.39	1640.42
310.60	1734.63
310.81	1648.61
311.03	1634.28
311.24	1730.53
311.45	1708.01
311.67	1802.21
311.88	1712.10
312.09	1714.15
312.31	1658.85
312.52	1693.67
312.73	1656.81
312.95	1650.66
313.16	1634.28
313.37	1751.01
313.59	1726.44
313.80	1769.44
314.01	1789.92
314.23	1671.14
314.44	1650.66
314.65	1607.66
314.87	1646.57
315.08	1724.39
315.29	1640.42
315.51	1675.24
315.72	1656.81
315.93	1796.07
316.15	1724.39
316.36	1751.01
316.57	1738.73
316.79	1714.15
317.00	1621.99
317.21	1755.11
317.43	1671.14
317.64	1720.29
317.85	1677.29
318.07	1656.81
318.28	1761.25
318.49	1763.30
318.70	1857.51
318.92	1871.84
319.13	1853.41
319.34	1935.33
319.56	1757.16
319.77	1751.01
319.98	1753.06
320.20	1761.25
320.41	1705.96
320.62	1767.40
320.83	1669.09
321.05	1779.68
321.26	1693.67
321.47	1640.42
321.69	1841.12
321.90	1683.43
322.11	1609.70
322.32	1808.36
322.54	1794.02
322.75	1656.81
322.96	1834.98
323.18	1648.61
323.39	1597.42
323.60	1595.37
323.81	1759.21
324.03	1665.00
324.24	1677.29
324.45	1685.48
324.66	1660.90
324.88	1722.34
325.09	1767.40
325.30	1697.77
325.52	1693.67
325.73	1679.33
325.94	1703.91
326.15	1607.66
326.37	1710.05
326.58	1804.26
326.79	1746.92
327.00	1578.98
327.22	1755.11
327.43	1665.00
327.64	1648.61
327.85	1779.68
328.07	1705.96
328.28	1742.82
328.49	1683.43
328.70	1630.18
328.92	1726.44
329.13	1660.90
329.34	1734.63
329.55	1814.50
329.76	1771.49
329.98	1667.05
330.19	1837.03
330.40	1728.49
330.61	1718.25
330.83	1769.44
331.04	1681.38
331.25	1630.18
331.46	1660.90
331.68	1562.60
331.89	1798.12
332.10	1689.57
332.31	1671.14
332.52	1591.27
332.74	1789.92
332.95	1642.47
333.16	1716.20
333.37	1695.72
333.58	1656.81
333.80	1722.34
334.01	1566.70
334.22	1681.38
334.43	1634.28
334.64	1685.48
334.86	1615.85
335.07	1673.19
335.28	1812.45
335.49	1671.14
335.70	1705.96
335.92	1763.30
336.13	1822.69
336.34	1767.40
336.55	1726.44
336.76	1718.25
336.98	1527.78
337.19	1656.81
337.40	1779.68
337.61	1820.64
337.82	1652.71
338.04	1812.45
338.25	1662.95
338.46	1626.09
338.67	1673.19
338.88	1712.10
339.09	1638.38
339.31	1701.86
339.52	1533.93
339.73	1667.05
339.94	1697.77
340.15	1785.83
340.36	1701.86
340.58	1722.34
340.79	1650.66
341.00	1740.77
341.21	1665.00
341.42	1859.56
341.63	1681.38
341.85	1699.81
342.06	1722.34
342.27	1705.96
342.48	1710.05
342.69	1650.66
342.90	1779.68
343.12	1722.34
343.33	1689.57
343.54	1841.12
343.75	1763.30
343.96	1640.42
344.17	1675.24
344.38	1689.57
344.60	1650.66
344.81	1636.33
345.02	1722.34
345.23	1820.64
345.44	1832.93
345.65	1767.40
345.86	1740.77
346.07	1679.33
346.29	1669.09
346.50	1636.33
346.71	1755.11
346.92	1746.92
347.13	1757.16
347.34	1691.62
347.55	1681.38
347.76	1720.29
347.98	1601.51
348.19	1658.85
348.40	1808.36
348.61	1720.29
348.82	1789.92
349.03	1738.73
349.24	1693.67
349.45	1808.36
349.66	1591.27
349.88	1679.33
350.09	1603.56
350.30	1816.55
350.51	1798.12
350.72	1701.86
350.93	1660.90
351.14	1683.43
351.35	1765.35
351.56	1710.05
351.77	1685.48
351.99	1646.57
352.20	1759.21
352.41	1748.97
352.62	1576.94
352.83	1685.48
353.04	1701.86
353.25	1632.23
353.46	1685.48
353.67	1767.40
353.88	1665.00
354.09	1693.67
354.30	1693.67
354.52	1753.06
354.73	1746.92
354.94	1679.33
355.15	1730.53
355.36	1804.26
355.57	1683.43
355.78	1693.67
355.99	1685.48
356.20	1705.96
356.41	1740.77
356.62	1716.20
356.83	1675.24
357.04	1818.60
357.25	1646.57
357.46	1697.77
357.68	1624.04
357.89	1648.61
358.10	1710.05
358.31	1695.72
358.52	1675.24
358.73	1630.18
358.94	1675.24
359.15	1615.85
359.36	1642.47
359.57	1644.52
359.78	1667.05
359.99	1665.00
360.20	1644.52
360.41	1685.48
360.62	1673.19
360.83	1695.72
361.04	1656.81
361.25	1710.05
361.46	1732.58
361.67	1789.92
361.88	1708.01
362.09	1730.53
362.30	1673.19
362.51	1681.38
362.72	1738.73
362.93	1710.05
363.14	1720.29
363.35	1751.01
363.56	1665.00
363.78	1783.78
363.99	1794.02
364.20	1656.81
364.41	1673.19
364.62	1804.26
364.83	1683.43
365.04	1703.91
365.25	1685.48
365.46	1806.31
365.67	1718.25
365.88	1662.95
366.09	1615.85
366.30	1681.38
366.51	1720.29
366.72	1636.33
366.93	1718.25
367.14	1656.81
367.35	1798.12
367.56	1685.48
367.77	1806.31
367.98	1761.25
368.18	1689.57
368.39	1710.05
368.60	1628.14
368.81	1785.83
369.02	1677.29
369.23	1681.38
369.44	1615.85
369.65	1669.09
369.86	1781.73
370.07	1769.44
370.28	1624.04
370.49	1714.15
370.70	1736.68
370.91	1621.99
371.12	1708.01
371.33	1724.39
371.54	1691.62
371.75	1785.83
371.96	1595.37
372.17	1693.67
372.38	1734.63
372.59	1740.77
372.80	1677.29
373.01	1718.25
373.22	1734.63
373.43	1734.63
373.64	1658.85
373.85	1740.77
374.06	1751.01
374.26	1728.49
374.47	1681.38
374.68	1804.26
374.89	1730.53
375.10	1714.15
375.31	1755.11
375.52	1734.63
375.73	1685.48
375.94	1632.23
376.15	1746.92
376.36	1675.24
376.57	1683.43
376.78	1675.24
376.99	1714.15
377.20	1796.07
377.40	1687.53
377.61	1716.20
377.82	1640.42
378.03	1767.40
378.24	1718.25
378.45	1724.39
378.66	1689.57
378.87	1691.62
379.08	1626.09
379.29	1720.29
379.50	1806.31
379.71	1679.33
379.91	1746.92
380.12	1693.67
380.33	1738.73
380.54	1738.73
380.75	1681.38
380.96	1701.86
381.17	1771.49
381.38	1751.01
381.59	1732.58
381.80	1648.61
382.00	1834.98
382.21	1779.68
382.42	1834.98
382.63	1861.60
382.84	1726.44
383.05	1675.24
383.26	1773.54
383.47	1667.05
383.68	1685.48
383.88	1693.67
384.09	1740.77
384.30	1845.22
384.51	1724.39
384.72	1757.16
384.93	1667.05
385.14	1624.04
385.35	1802.21
385.55	1710.05
385.76	1804.26
385.97	1728.49
386.18	1658.85
386.39	1542.12
386.60	1644.52
386.81	1656.81
387.02	1687.53
387.22	1654.76
387.43	1746.92
387.64	1769.44
387.85	1871.84
388.06	2199.52
388.27	4216.77
388.48	6733.72
388.68	8081.28
388.89	9521.01
389.10	9619.31
389.31	8537.98
389.52	7552.91
389.73	6698.91
389.93	6203.30
390.14	5814.18
390.35	5017.52
390.56	4491.20
390.77	3893.19
390.98	2914.26
391.18	2488.28
391.39	2115.55
391.60	1843.17
391.81	1886.18
392.02	1732.58
392.23	1865.70
392.43	1775.59
392.64	1800.16
392.85	1722.34
393.06	1701.86
393.27	1730.53
393.47	1652.71
393.68	1746.92
393.89	1628.14
394.10	1759.21
394.31	1687.53
394.52	1632.23
394.72	1662.95
394.93	1773.54
395.14	1640.42
395.35	1724.39
395.56	1703.91
395.76	1771.49
395.97	1751.01
396.18	1847.27
396.39	1773.54
396.60	1943.52
396.80	1865.70
397.01	1791.97
397.22	1822.69
397.43	1871.84
397.64	1791.97
397.84	1869.80
398.05	1875.94
398.26	1769.44
398.47	1818.60
398.67	1722.34
398.88	1759.21
399.09	1738.73
399.30	1650.66
399.51	1720.29
399.71	1628.14
399.92	1742.82
400.13	1687.53
400.34	1685.48
400.54	1720.29
400.75	1830.88
400.96	1720.29
401.17	1779.68
401.37	1810.40
401.58	1691.62
401.79	1714.15
402.00	1824.74
402.21	1959.91
402.41	1877.99
402.62	1937.38
402.83	2021.35
403.04	2095.07
403.24	2084.83
403.45	1841.12
403.66	1824.74
403.87	1830.88
404.07	1826.79
404.28	1972.19
404.49	1875.94
404.70	1787.88
404.90	1787.88
405.11	1710.05
405.32	1734.63
405.52	1636.33
405.73	1665.00
405.94	1589.22
406.15	1638.38
406.35	1697.77
406.56	1699.81
406.77	1794.02
406.98	1755.11
407.18	1689.57
407.39	1763.30
407.60	1671.14
407.80	1761.25
408.01	1679.33
408.22	1699.81
408.43	1763.30
408.63	1767.40
408.84	1771.49
409.05	1728.49
409.25	1656.81
409.46	1656.81
409.67	1701.86
409.88	1697.77
410.08	1710.05
410.29	1734.63
410.50	1791.97
410.70	1763.30
410.91	1679.33
411.12	1746.92
411.32	1732.58
411.53	1634.28
411.74	1773.54
411.95	1722.34
412.15	1730.53
412.36	1785.83
412.57	1806.31
412.77	1775.59
412.98	1681.38
413.19	1710.05
413.39	1748.97
413.60	1722.34
413.81	1851.36
414.01	1685.48
414.22	1775.59
414.43	1730.53
414.63	1691.62
414.84	1796.07
415.05	1675.24
415.25	1642.47
415.46	1751.01
415.67	1671.14
415.87	1779.68
416.08	1759.21
416.29	1587.18
416.49	1769.44
416.70	1751.01
416.91	1728.49
417.11	1681.38
417.32	1814.50
417.53	1685.48
417.73	1753.06
417.94	1683.43
418.15	1710.05
418.35	1744.87
418.56	1728.49
418.77	1857.51
418.97	1722.34
419.18	1679.33
419.38	1624.04
419.59	1652.71
419.80	1798.12
420.00	1714.15
420.21	1658.85
420.42	1779.68
420.62	1771.49
420.83	1628.14
421.04	1679.33
421.24	1724.39
421.45	1794.02
421.65	1714.15
421.86	1712.10
422.07	1740.77
422.27	1742.82
422.48	1712.10
422.69	1689.57
422.89	1734.63
423.10	1714.15
423.30	1636.33
423.51	1689.57
423.72	1740.77
423.92	1732.58
424.13	1613.80
424.33	1722.34
424.54	1761.25
424.75	1667.05
424.95	1787.88
425.16	1689.57
425.36	1710.05
425.57	1814.50
425.78	1658.85
425.98	1769.44
426.19	1677.29
426.39	1689.57
426.60	1779.68
426.81	1753.06
427.01	1646.57
427.22	1675.24
427.42	1630.18
427.63	1705.96
427.83	1730.53
428.04	1806.31
428.25	1789.92
428.45	1763.30
428.66	1845.22
428.86	1689.57
429.07	1693.67
429.28	1738.73
429.48	1705.96
429.69	1679.33
429.89	1724.39
430.10	1644.52
430.30	1710.05
430.51	1738.73
430.71	1603.56
430.92	1697.77
431.13	1708.01
431.33	1763.30
431.54	1669.09
431.74	1687.53
431.95	1843.17
432.15	1705.96
432.36	1720.29
432.56	1751.01
432.77	1806.31
432.98	1783.78
433.18	1777.64
433.39	1646.57
433.59	1634.28
433.80	1771.49
434.00	1910.75
434.21	1714.15
434.41	1656.81
434.62	1818.60
434.82	1667.05
435.03	1673.19
435.23	1710.05
435.44	1578.98
435.64	1785.83
435.85	1730.53
436.06	1785.83
436.26	1746.92
436.47	1744.87
436.67	1636.33
436.88	1687.53
437.08	1794.02
437.29	1712.10
437.49	1720.29
437.70	1751.01
437.90	1642.47
438.11	1855.46
438.31	1822.69
438.52	1841.12
438.72	1830.88
438.93	1873.89
439.13	1751.01
439.34	1894.37
439.54	1755.11
439.75	1742.82
439.95	1755.11
440.16	1734.63
440.36	1804.26
440.57	1658.85
440.77	1724.39
440.98	1728.49
441.18	1753.06
441.39	1630.18
441.59	1619.94
441.80	1830.88
442.00	1794.02
442.21	1783.78
442.41	1638.38
442.62	1726.44
442.82	1751.01
443.02	1654.76
443.23	1728.49
443.43	1687.53
443.64	1816.55
443.84	1800.16
444.05	1767.40
444.25	1728.49
444.46	1634.28
444.66	1783.78
444.87	1781.73
445.07	1609.70
445.28	1716.20
445.48	1796.07
445.69	1828.84
445.89	1816.55
446.09	1773.54
446.30	2021.35
446.50	2609.11
446.71	3657.67
446.91	4411.32
447.12	4710.33
447.32	4786.10
447.53	4403.13
447.73	3921.86
447.93	3573.71
448.14	3289.04
448.34	3274.70
448.55	2858.96
448.75	2863.06
448.96	2717.65
449.16	2383.84
449.36	2275.29
449.57	2025.44
449.77	1871.84
449.98	1724.39
450.18	1800.16
450.39	1773.54
450.59	1765.35
450.79	1769.44
451.00	1671.14
451.20	1771.49
451.41	1710.05
451.61	1742.82
451.81	1669.09
452.02	1671.14
452.22	1671.14
452.43	1746.92
452.63	1697.77
