SpectraSuite Data File
++++++++++++++++++++++++++++++++++++
Date: Mon Jun 06 15:25:57 CEST 2016
User: root
Dark Spectrum Present: No
Reference Spectrum Present: No
Number of Sampled Component Spectra: 1
Spectrometers: USB4C02835
Integration Time (usec): 100000 (USB4C02835)
Spectra Averaged: 1 (USB4C02835)
Boxcar Smoothing: 0 (USB4C02835)
Correct for Electrical Dark: No (USB4C02835)
Strobe/Lamp Enabled: No (USB4C02835)
Correct for Detector Non-linearity: No (USB4C02835)
Correct for Stray Light: No (USB4C02835)
Number of Pixels in Processed Spectrum: 3648
>>>>>Begin Processed Spectral Data<<<<<
177.47	1501.16
177.69	1501.16
177.91	1501.16
178.13	1511.40
178.36	1470.44
178.58	1650.66
178.80	1677.29
179.02	1636.33
179.24	1738.73
179.46	1701.86
179.68	1751.01
179.90	1728.49
180.13	1656.81
180.35	1624.04
180.57	1705.96
180.79	1691.62
181.01	1738.73
181.23	1767.40
181.45	1820.64
181.67	1730.53
181.90	1742.82
182.12	1703.91
182.34	1632.23
182.56	1689.57
182.78	1761.25
183.00	1720.29
183.22	1685.48
183.44	1624.04
183.66	1828.84
183.89	1839.08
184.11	1714.15
184.33	1796.07
184.55	1757.16
184.77	1755.11
184.99	1697.77
185.21	1800.16
185.43	1837.03
185.65	1665.00
185.87	1734.63
186.10	1773.54
186.32	1832.93
186.54	1726.44
186.76	1693.67
186.98	1783.78
187.20	1675.24
187.42	1695.72
187.64	1714.15
187.86	1746.92
188.08	1832.93
188.30	1689.57
188.52	1708.01
188.75	1742.82
188.97	1791.97
189.19	1621.99
189.41	1728.49
189.63	1710.05
189.85	1712.10
190.07	1673.19
190.29	1763.30
190.51	1720.29
190.73	1550.31
190.95	1794.02
191.17	1744.87
191.39	1685.48
191.61	1683.43
191.84	1691.62
192.06	1734.63
192.28	1634.28
192.50	1902.56
192.72	1716.20
192.94	1671.14
193.16	1734.63
193.38	1728.49
193.60	1724.39
193.82	1714.15
194.04	1783.78
194.26	1662.95
194.48	1654.76
194.70	1697.77
194.92	1738.73
195.14	1744.87
195.36	1677.29
195.58	1714.15
195.80	1730.53
196.02	1675.24
196.24	1779.68
196.46	1660.90
196.69	1652.71
196.91	1834.98
197.13	1669.09
197.35	1665.00
197.57	1806.31
197.79	1787.88
198.01	1736.68
198.23	1744.87
198.45	1765.35
198.67	1632.23
198.89	1671.14
199.11	1742.82
199.33	1744.87
199.55	1636.33
199.77	1732.58
199.99	1753.06
200.21	1648.61
200.43	1798.12
200.65	1662.95
200.87	1570.79
201.09	1763.30
201.31	1673.19
201.53	1775.59
201.75	1732.58
201.97	1755.11
202.19	1740.77
202.41	1724.39
202.63	1910.75
202.85	1734.63
203.07	1703.91
203.29	1667.05
203.51	1654.76
203.73	1691.62
203.95	1927.14
204.17	1697.77
204.39	1820.64
204.61	1738.73
204.83	1705.96
205.05	1730.53
205.27	1794.02
205.49	1886.18
205.71	1703.91
205.93	1673.19
206.15	1691.62
206.37	1744.87
206.59	1730.53
206.81	1644.52
207.03	1587.18
207.25	1560.55
207.47	1746.92
207.69	1679.33
207.91	1826.79
208.13	1800.16
208.34	1710.05
208.56	1615.85
208.78	1769.44
209.00	1634.28
209.22	1691.62
209.44	1677.29
209.66	1673.19
209.88	1667.05
210.10	1648.61
210.32	1705.96
210.54	1773.54
210.76	1669.09
210.98	1669.09
211.20	1617.90
211.42	1748.97
211.64	1783.78
211.86	1714.15
212.08	1693.67
212.30	1662.95
212.52	1695.72
212.74	1712.10
212.96	1705.96
213.17	1693.67
213.39	1736.68
213.61	1761.25
213.83	1773.54
214.05	1738.73
214.27	1789.92
214.49	1654.76
214.71	1720.29
214.93	1800.16
215.15	1716.20
215.37	1783.78
215.59	1669.09
215.81	1720.29
216.03	1855.46
216.24	1734.63
216.46	1652.71
216.68	1740.77
216.90	1773.54
217.12	1851.36
217.34	1748.97
217.56	1804.26
217.78	1828.84
218.00	1775.59
218.22	1712.10
218.44	1802.21
218.66	1775.59
218.87	1777.64
219.09	1728.49
219.31	1751.01
219.53	1775.59
219.75	1667.05
219.97	1710.05
220.19	1734.63
220.41	1685.48
220.63	1777.64
220.85	1738.73
221.06	1644.52
221.28	1802.21
221.50	1755.11
221.72	1787.88
221.94	1673.19
222.16	1753.06
222.38	1697.77
222.60	1775.59
222.82	1714.15
223.03	1687.53
223.25	1619.94
223.47	1744.87
223.69	1742.82
223.91	1757.16
224.13	1777.64
224.35	1679.33
224.57	1769.44
224.78	1785.83
225.00	1685.48
225.22	1714.15
225.44	1734.63
225.66	1744.87
225.88	1771.49
226.10	1800.16
226.32	1738.73
226.53	1834.98
226.75	1652.71
226.97	1677.29
227.19	1710.05
227.41	1662.95
227.63	1660.90
227.85	1642.47
228.06	1746.92
228.28	1724.39
228.50	1763.30
228.72	1544.17
228.94	1675.24
229.16	1599.46
229.37	1630.18
229.59	1585.13
229.81	1832.93
230.03	1740.77
230.25	1626.09
230.47	1603.56
230.69	1640.42
230.90	1785.83
231.12	1642.47
231.34	1703.91
231.56	1755.11
231.78	1712.10
232.00	1705.96
232.21	1730.53
232.43	1691.62
232.65	1568.74
232.87	1712.10
233.09	1695.72
233.30	1736.68
233.52	1761.25
233.74	1681.38
233.96	1681.38
234.18	1675.24
234.40	1693.67
234.61	1796.07
234.83	1671.14
235.05	1615.85
235.27	1841.12
235.49	1763.30
235.70	1751.01
235.92	1806.31
236.14	1755.11
236.36	1814.50
236.58	1675.24
236.79	1748.97
237.01	1628.14
237.23	1667.05
237.45	1867.75
237.67	1632.23
237.88	1708.01
238.10	1828.84
238.32	1626.09
238.54	1744.87
238.76	1710.05
238.97	1679.33
239.19	1652.71
239.41	1710.05
239.63	1820.64
239.85	1626.09
240.06	1796.07
240.28	1734.63
240.50	1746.92
240.72	1730.53
240.93	1734.63
241.15	1757.16
241.37	1644.52
241.59	1822.69
241.81	1695.72
242.02	1724.39
242.24	1769.44
242.46	1685.48
242.68	1689.57
242.89	1730.53
243.11	1744.87
243.33	1736.68
243.55	1662.95
243.76	1718.25
243.98	1665.00
244.20	1726.44
244.42	1685.48
244.64	1697.77
244.85	1720.29
245.07	1660.90
245.29	1738.73
245.51	1724.39
245.72	1734.63
245.94	1718.25
246.16	1687.53
246.38	1771.49
246.59	1699.81
246.81	1652.71
247.03	1751.01
247.24	1601.51
247.46	1640.42
247.68	1708.01
247.90	1595.37
248.11	1683.43
248.33	1779.68
248.55	1658.85
248.77	1751.01
248.98	1718.25
249.20	1761.25
249.42	1728.49
249.64	1693.67
249.85	1732.58
250.07	1632.23
250.29	1740.77
250.50	1757.16
250.72	1673.19
250.94	1738.73
251.16	1798.12
251.37	1775.59
251.59	1734.63
251.81	1769.44
252.02	1802.21
252.24	1654.76
252.46	1765.35
252.68	1658.85
252.89	1638.38
253.11	1556.46
253.33	1855.46
253.54	1763.30
253.76	1703.91
253.98	1732.58
254.20	1705.96
254.41	1613.80
254.63	1828.84
254.85	1712.10
255.06	1785.83
255.28	1796.07
255.50	1767.40
255.71	1644.52
255.93	1687.53
256.15	1753.06
256.36	1753.06
256.58	1701.86
256.80	1771.49
257.02	1796.07
257.23	1673.19
257.45	1675.24
257.67	1816.55
257.88	1681.38
258.10	1742.82
258.32	1728.49
258.53	1722.34
258.75	1857.51
258.97	1695.72
259.18	1724.39
259.40	1730.53
259.62	1781.73
259.83	1748.97
260.05	1810.40
260.27	2045.92
260.48	1800.16
260.70	1726.44
260.92	1677.29
261.13	1738.73
261.35	1724.39
261.57	1761.25
261.78	1624.04
262.00	1621.99
262.22	1794.02
262.43	1662.95
262.65	1787.88
262.86	1734.63
263.08	1857.51
263.30	1681.38
263.51	1636.33
263.73	1714.15
263.95	1806.31
264.16	1697.77
264.38	1683.43
264.60	1683.43
264.81	1687.53
265.03	1660.90
265.25	1759.21
265.46	1658.85
265.68	1751.01
265.89	1771.49
266.11	1677.29
266.33	1773.54
266.54	1761.25
266.76	1714.15
266.98	1742.82
267.19	1863.65
267.41	1796.07
267.62	1779.68
267.84	1632.23
268.06	1757.16
268.27	1691.62
268.49	1779.68
268.70	1730.53
268.92	1730.53
269.14	1636.33
269.35	1660.90
269.57	1714.15
269.79	1742.82
270.00	1665.00
270.22	1783.78
270.43	1654.76
270.65	1662.95
270.87	1695.72
271.08	1744.87
271.30	1685.48
271.51	1714.15
271.73	1744.87
271.95	1808.36
272.16	1746.92
272.38	1738.73
272.59	1726.44
272.81	1767.40
273.02	1761.25
273.24	1775.59
273.46	1802.21
273.67	1669.09
273.89	1681.38
274.10	1742.82
274.32	1800.16
274.54	1746.92
274.75	1708.01
274.97	1712.10
275.18	1771.49
275.40	1722.34
275.61	1681.38
275.83	1722.34
276.05	1677.29
276.26	1685.48
276.48	1738.73
276.69	1669.09
276.91	1667.05
277.12	1761.25
277.34	1796.07
277.55	1761.25
277.77	1691.62
277.99	1615.85
278.20	1710.05
278.42	1656.81
278.63	1695.72
278.85	1652.71
279.06	1531.88
279.28	1724.39
279.49	1722.34
279.71	1683.43
279.93	1720.29
280.14	1751.01
280.36	1710.05
280.57	1757.16
280.79	1691.62
281.00	1689.57
281.22	1697.77
281.43	1789.92
281.65	1607.66
281.86	1669.09
282.08	1757.16
282.29	1785.83
282.51	1644.52
282.73	1619.94
282.94	1705.96
283.16	1742.82
283.37	1757.16
283.59	1705.96
283.80	1755.11
284.02	1697.77
284.23	1738.73
284.45	1599.46
284.66	1673.19
284.88	1740.77
285.09	1830.88
285.31	1724.39
285.52	1769.44
285.74	1621.99
285.95	1834.98
286.17	1722.34
286.38	1806.31
286.60	1701.86
286.81	1708.01
287.03	1591.27
287.24	1730.53
287.46	1748.97
287.67	1714.15
287.89	1855.46
288.10	1667.05
288.32	1705.96
288.53	1796.07
288.75	1800.16
288.96	1720.29
289.18	1734.63
289.39	1798.12
289.61	1757.16
289.82	1855.46
290.04	1865.70
290.25	1662.95
290.47	1656.81
290.68	1681.38
290.90	1771.49
291.11	1697.77
291.33	1724.39
291.54	1621.99
291.76	1781.73
291.97	1699.81
292.18	1804.26
292.40	1746.92
292.61	1628.14
292.83	1845.22
293.04	1755.11
293.26	1771.49
293.47	1632.23
293.69	1642.47
293.90	1685.48
294.12	1818.60
294.33	1693.67
294.55	1736.68
294.76	1775.59
294.97	1781.73
295.19	1834.98
295.40	1722.34
295.62	1681.38
295.83	1710.05
296.05	1650.66
296.26	1812.45
296.48	1648.61
296.69	1640.42
296.90	1648.61
297.12	1712.10
297.33	1757.16
297.55	1658.85
297.76	1777.64
297.98	1783.78
298.19	1710.05
298.41	1656.81
298.62	1701.86
298.83	1701.86
299.05	1716.20
299.26	1662.95
299.48	1662.95
299.69	1804.26
299.90	1748.97
300.12	1630.18
300.33	1675.24
300.55	1753.06
300.76	1689.57
300.98	1685.48
301.19	1771.49
301.40	1650.66
301.62	1777.64
301.83	1755.11
302.05	1691.62
302.26	1722.34
302.47	1662.95
302.69	1652.71
302.90	1798.12
303.12	1656.81
303.33	1771.49
303.54	1849.32
303.76	1697.77
303.97	1771.49
304.19	1783.78
304.40	1603.56
304.61	1814.50
304.83	1869.80
305.04	1849.32
305.26	1718.25
305.47	1726.44
305.68	1683.43
305.90	1652.71
306.11	1769.44
306.33	1648.61
306.54	1746.92
306.75	1646.57
306.97	1644.52
307.18	1605.61
307.39	1710.05
307.61	1742.82
307.82	1697.77
308.04	1720.29
308.25	1656.81
308.46	1777.64
308.68	1718.25
308.89	1703.91
309.10	1820.64
309.32	1785.83
309.53	1609.70
309.74	1761.25
309.96	1751.01
310.17	1763.30
310.39	1673.19
310.60	1722.34
310.81	1693.67
311.03	1667.05
311.24	1720.29
311.45	1687.53
311.67	1890.28
311.88	1689.57
312.09	1736.68
312.31	1742.82
312.52	1759.21
312.73	1673.19
312.95	1632.23
313.16	1595.37
313.37	1785.83
313.59	1683.43
313.80	1720.29
314.01	1791.97
314.23	1667.05
314.44	1667.05
314.65	1593.32
314.87	1767.40
315.08	1703.91
315.29	1742.82
315.51	1697.77
315.72	1705.96
315.93	1855.46
316.15	1789.92
316.36	1734.63
316.57	1722.34
316.79	1701.86
317.00	1791.97
317.21	1779.68
317.43	1755.11
317.64	1693.67
317.85	1638.38
318.07	1732.58
318.28	1685.48
318.49	1751.01
318.70	1880.04
318.92	1832.93
319.13	1849.32
319.34	1880.04
319.56	1834.98
319.77	1843.17
319.98	1777.64
320.20	1830.88
320.41	1738.73
320.62	1755.11
320.83	1642.47
321.05	1830.88
321.26	1714.15
321.47	1751.01
321.69	1773.54
321.90	1679.33
322.11	1716.20
322.32	1683.43
322.54	1775.59
322.75	1683.43
322.96	1783.78
323.18	1703.91
323.39	1646.57
323.60	1605.61
323.81	1751.01
324.03	1697.77
324.24	1751.01
324.45	1628.14
324.66	1685.48
324.88	1814.50
325.09	1738.73
325.30	1769.44
325.52	1708.01
325.73	1751.01
325.94	1685.48
326.15	1601.51
326.37	1701.86
326.58	1755.11
326.79	1785.83
327.00	1681.38
327.22	1710.05
327.43	1695.72
327.64	1652.71
327.85	1785.83
328.07	1744.87
328.28	1867.75
328.49	1673.19
328.70	1712.10
328.92	1712.10
329.13	1736.68
329.34	1738.73
329.55	1824.74
329.76	1742.82
329.98	1759.21
330.19	1849.32
330.40	1785.83
330.61	1673.19
330.83	1738.73
331.04	1714.15
331.25	1656.81
331.46	1667.05
331.68	1564.65
331.89	1755.11
332.10	1730.53
332.31	1630.18
332.52	1720.29
332.74	1865.70
332.95	1607.66
333.16	1681.38
333.37	1693.67
333.58	1720.29
333.80	1732.58
334.01	1642.47
334.22	1746.92
334.43	1689.57
334.64	1699.81
334.86	1673.19
335.07	1742.82
335.28	1812.45
335.49	1724.39
335.70	1759.21
335.92	1724.39
336.13	1853.41
336.34	1714.15
336.55	1718.25
336.76	1730.53
336.98	1619.94
337.19	1714.15
337.40	1773.54
337.61	1828.84
337.82	1701.86
338.04	1728.49
338.25	1652.71
338.46	1644.52
338.67	1691.62
338.88	1632.23
339.09	1648.61
339.31	1742.82
339.52	1712.10
339.73	1675.24
339.94	1675.24
340.15	1736.68
340.36	1677.29
340.58	1675.24
340.79	1781.73
341.00	1746.92
341.21	1675.24
341.42	1804.26
341.63	1751.01
341.85	1722.34
342.06	1730.53
342.27	1650.66
342.48	1732.58
342.69	1595.37
342.90	1740.77
343.12	1806.31
343.33	1763.30
343.54	1738.73
343.75	1771.49
343.96	1718.25
344.17	1699.81
344.38	1689.57
344.60	1650.66
344.81	1617.90
345.02	1708.01
345.23	1708.01
345.44	1861.60
345.65	1746.92
345.86	1703.91
346.07	1742.82
346.29	1683.43
346.50	1685.48
346.71	1783.78
346.92	1769.44
347.13	1863.65
347.34	1669.09
347.55	1714.15
347.76	1740.77
347.98	1609.70
348.19	1648.61
348.40	1769.44
348.61	1767.40
348.82	1773.54
349.03	1753.06
349.24	1630.18
349.45	1824.74
349.66	1609.70
349.88	1724.39
350.09	1753.06
350.30	1716.20
350.51	1892.32
350.72	1732.58
350.93	1732.58
351.14	1716.20
351.35	1742.82
351.56	1765.35
351.77	1673.19
351.99	1720.29
352.20	1738.73
352.41	1787.88
352.62	1574.89
352.83	1712.10
353.04	1652.71
353.25	1712.10
353.46	1675.24
353.67	1865.70
353.88	1607.66
354.09	1644.52
354.30	1720.29
354.52	1796.07
354.73	1687.53
354.94	1730.53
355.15	1730.53
355.36	1802.21
355.57	1722.34
355.78	1755.11
355.99	1683.43
356.20	1697.77
356.41	1662.95
356.62	1794.02
356.83	1796.07
357.04	1789.92
357.25	1718.25
357.46	1732.58
357.68	1613.80
357.89	1652.71
358.10	1738.73
358.31	1669.09
358.52	1765.35
358.73	1611.75
358.94	1703.91
359.15	1695.72
359.36	1771.49
359.57	1726.44
359.78	1730.53
359.99	1775.59
360.20	1589.22
360.41	1662.95
360.62	1701.86
360.83	1755.11
361.04	1683.43
361.25	1740.77
361.46	1828.84
361.67	1755.11
361.88	1751.01
362.09	1769.44
362.30	1753.06
362.51	1708.01
362.72	1740.77
362.93	1724.39
363.14	1787.88
363.35	1824.74
363.56	1665.00
363.78	1746.92
363.99	1837.03
364.20	1710.05
364.41	1716.20
364.62	1761.25
364.83	1789.92
365.04	1777.64
365.25	1734.63
365.46	1820.64
365.67	1722.34
365.88	1650.66
366.09	1634.28
366.30	1636.33
366.51	1736.68
366.72	1617.90
366.93	1695.72
367.14	1718.25
367.35	1853.41
367.56	1716.20
367.77	1767.40
367.98	1736.68
368.18	1783.78
368.39	1779.68
368.60	1675.24
368.81	1730.53
369.02	1763.30
369.23	1675.24
369.44	1687.53
369.65	1646.57
369.86	1810.40
370.07	1765.35
370.28	1626.09
370.49	1714.15
370.70	1769.44
370.91	1648.61
371.12	1662.95
371.33	1765.35
371.54	1742.82
371.75	1839.08
371.96	1599.46
372.17	1736.68
372.38	1726.44
372.59	1804.26
372.80	1679.33
373.01	1746.92
373.22	1638.38
373.43	1679.33
373.64	1683.43
373.85	1798.12
374.06	1810.40
374.26	1757.16
374.47	1671.14
374.68	1824.74
374.89	1718.25
375.10	1703.91
375.31	1828.84
375.52	1761.25
375.73	1683.43
375.94	1691.62
376.15	1863.65
376.36	1710.05
376.57	1656.81
376.78	1691.62
376.99	1726.44
377.20	1800.16
377.40	1628.14
377.61	1849.32
377.82	1630.18
378.03	1837.03
378.24	1763.30
378.45	1685.48
378.66	1771.49
378.87	1638.38
379.08	1685.48
379.29	1738.73
379.50	1767.40
379.71	1728.49
379.91	1746.92
380.12	1673.19
380.33	1763.30
380.54	1720.29
380.75	1673.19
380.96	1748.97
381.17	1777.64
381.38	1748.97
381.59	1789.92
381.80	1748.97
382.00	1763.30
382.21	1800.16
382.42	1763.30
382.63	1818.60
382.84	1755.11
383.05	1783.78
383.26	1841.12
383.47	1654.76
383.68	1773.54
383.88	1775.59
384.09	1685.48
384.30	1839.08
384.51	1755.11
384.72	1697.77
384.93	1665.00
385.14	1708.01
385.35	1814.50
385.55	1652.71
385.76	1849.32
385.97	1683.43
386.18	1646.57
386.39	1665.00
386.60	1689.57
386.81	1669.09
387.02	1624.04
387.22	1660.90
387.43	1796.07
387.64	1798.12
387.85	1742.82
388.06	2168.80
388.27	4218.82
388.48	6612.89
388.68	8191.88
388.89	9295.73
389.10	9631.60
389.31	8517.50
389.52	7577.48
389.73	6739.87
389.93	6360.99
390.14	5908.39
390.35	5062.58
390.56	4566.97
390.77	3751.88
390.98	3076.05
391.18	2506.71
391.39	2215.90
391.60	1894.37
391.81	1722.34
392.02	1761.25
392.23	1820.64
392.43	1697.77
392.64	1787.88
392.85	1761.25
393.06	1865.70
393.27	1710.05
393.47	1687.53
393.68	1681.38
393.89	1644.52
394.10	1830.88
394.31	1632.23
394.52	1656.81
394.72	1699.81
394.93	1722.34
395.14	1679.33
395.35	1730.53
395.56	1755.11
395.76	1650.66
395.97	1755.11
396.18	1796.07
396.39	1796.07
396.60	2029.54
396.80	1902.56
397.01	1796.07
397.22	1789.92
397.43	1777.64
397.64	1789.92
397.84	1787.88
398.05	1851.36
398.26	1755.11
398.47	1847.27
398.67	1802.21
398.88	1755.11
399.09	1775.59
399.30	1652.71
399.51	1800.16
399.71	1667.05
399.92	1738.73
400.13	1751.01
400.34	1744.87
400.54	1763.30
400.75	1865.70
400.96	1726.44
401.17	1857.51
401.37	1751.01
401.58	1732.58
401.79	1734.63
402.00	1935.33
402.21	2015.20
402.41	1916.90
402.62	2002.91
402.83	1970.15
403.04	2072.54
403.24	2056.16
403.45	1820.64
403.66	1931.23
403.87	1894.37
404.07	1890.28
404.28	1923.04
404.49	1953.76
404.70	1677.29
404.90	1798.12
405.11	1755.11
405.32	1728.49
405.52	1671.14
405.73	1724.39
405.94	1677.29
406.15	1722.34
406.35	1798.12
406.56	1794.02
406.77	1681.38
406.98	1771.49
407.18	1748.97
407.39	1828.84
407.60	1726.44
407.80	1730.53
408.01	1658.85
408.22	1738.73
408.43	1701.86
408.63	1769.44
408.84	1777.64
409.05	1781.73
409.25	1679.33
409.46	1665.00
409.67	1691.62
409.88	1751.01
410.08	1648.61
410.29	1697.77
410.50	1730.53
410.70	1787.88
410.91	1726.44
411.12	1748.97
411.32	1779.68
411.53	1681.38
411.74	1787.88
411.95	1828.84
412.15	1783.78
412.36	1781.73
412.57	1671.14
412.77	1798.12
412.98	1757.16
413.19	1755.11
413.39	1628.14
413.60	1705.96
413.81	1757.16
414.01	1650.66
414.22	1734.63
414.43	1804.26
414.63	1705.96
414.84	1697.77
415.05	1630.18
415.25	1599.46
415.46	1822.69
415.67	1796.07
415.87	1730.53
416.08	1722.34
416.29	1656.81
416.49	1779.68
416.70	1728.49
416.91	1591.27
417.11	1726.44
417.32	1730.53
417.53	1773.54
417.73	1812.45
417.94	1708.01
418.15	1783.78
418.35	1691.62
418.56	1751.01
418.77	1820.64
418.97	1724.39
419.18	1667.05
419.38	1691.62
419.59	1701.86
419.80	1771.49
420.00	1683.43
420.21	1757.16
420.42	1755.11
420.62	1775.59
420.83	1681.38
421.04	1746.92
421.24	1632.23
421.45	1777.64
421.65	1810.40
421.86	1701.86
422.07	1726.44
422.27	1748.97
422.48	1767.40
422.69	1636.33
422.89	1716.20
423.10	1710.05
423.30	1652.71
423.51	1763.30
423.72	1769.44
423.92	1691.62
424.13	1683.43
424.33	1722.34
424.54	1761.25
424.75	1726.44
424.95	1804.26
425.16	1753.06
425.36	1693.67
425.57	1777.64
425.78	1738.73
425.98	1855.46
426.19	1671.14
426.39	1654.76
426.60	1662.95
426.81	1687.53
427.01	1734.63
427.22	1673.19
427.42	1667.05
427.63	1626.09
427.83	1828.84
428.04	1869.80
428.25	1779.68
428.45	1834.98
428.66	1767.40
428.86	1716.20
429.07	1726.44
429.28	1724.39
429.48	1646.57
429.69	1669.09
429.89	1703.91
430.10	1581.03
430.30	1732.58
430.51	1759.21
430.71	1689.57
430.92	1712.10
431.13	1660.90
431.33	1787.88
431.54	1681.38
431.74	1759.21
431.95	1828.84
432.15	1673.19
432.36	1699.81
432.56	1724.39
432.77	1884.13
432.98	1781.73
433.18	1730.53
433.39	1755.11
433.59	1796.07
433.80	1865.70
434.00	1853.41
434.21	1744.87
434.41	1732.58
434.62	1877.99
434.82	1646.57
435.03	1675.24
435.23	1746.92
435.44	1654.76
435.64	1732.58
435.85	1755.11
436.06	1744.87
436.26	1767.40
436.47	1656.81
436.67	1726.44
436.88	1748.97
437.08	1716.20
437.29	1755.11
437.49	1783.78
437.70	1767.40
437.90	1722.34
438.11	1847.27
438.31	1841.12
438.52	1902.56
438.72	1816.55
438.93	1886.18
439.13	1748.97
439.34	1816.55
439.54	1710.05
439.75	1771.49
439.95	1771.49
440.16	1654.76
440.36	1828.84
440.57	1812.45
440.77	1699.81
440.98	1740.77
441.18	1724.39
441.39	1746.92
441.59	1697.77
441.80	1871.84
442.00	1761.25
442.21	1785.83
442.41	1617.90
442.62	1720.29
442.82	1660.90
443.02	1691.62
443.23	1757.16
443.43	1746.92
443.64	1834.98
443.84	1675.24
444.05	1794.02
444.25	1751.01
444.46	1722.34
444.66	1722.34
444.87	1855.46
445.07	1638.38
445.28	1769.44
445.48	1834.98
445.69	1804.26
445.89	1841.12
446.09	1648.61
446.30	2062.30
446.50	2686.94
446.71	3639.24
446.91	4276.16
447.12	4630.46
447.32	4808.63
447.53	4280.25
447.73	3905.48
447.93	3538.89
448.14	3309.52
448.34	3250.13
448.55	2904.02
448.75	2762.71
448.96	2750.42
449.16	2443.23
449.36	2299.87
449.57	1966.05
449.77	1841.12
449.98	1771.49
450.18	1810.40
450.39	1806.31
450.59	1775.59
450.79	1779.68
451.00	1736.68
451.20	1724.39
451.41	1777.64
451.61	1806.31
451.81	1763.30
452.02	1728.49
452.22	1730.53
452.43	1656.81
452.63	1675.24
