SpectraSuite Data File
++++++++++++++++++++++++++++++++++++
Date: Mon Jun 06 12:39:17 CEST 2016
User: root
Dark Spectrum Present: No
Reference Spectrum Present: No
Number of Sampled Component Spectra: 1
Spectrometers: USB4C02835
Integration Time (usec): 100000 (USB4C02835)
Spectra Averaged: 1 (USB4C02835)
Boxcar Smoothing: 0 (USB4C02835)
Correct for Electrical Dark: No (USB4C02835)
Strobe/Lamp Enabled: No (USB4C02835)
Correct for Detector Non-linearity: No (USB4C02835)
Correct for Stray Light: No (USB4C02835)
Number of Pixels in Processed Spectrum: 3648
>>>>>Begin Processed Spectral Data<<<<<
177.47	1435.63
177.69	1435.63
177.91	1435.63
178.13	1507.30
178.36	1429.48
178.58	1693.67
178.80	1703.91
179.02	1673.19
179.24	1662.95
179.46	1656.81
179.68	1757.16
179.90	1718.25
180.13	1726.44
180.35	1617.90
180.57	1716.20
180.79	1775.59
181.01	1763.30
181.23	1759.21
181.45	1736.68
181.67	1656.81
181.90	1736.68
182.12	1626.09
182.34	1603.56
182.56	1660.90
182.78	1726.44
183.00	1705.96
183.22	1654.76
183.44	1566.70
183.66	1798.12
183.89	1773.54
184.11	1667.05
184.33	1714.15
184.55	1783.78
184.77	1671.14
184.99	1703.91
185.21	1662.95
185.43	1781.73
185.65	1673.19
185.87	1761.25
186.10	1832.93
186.32	1787.88
186.54	1681.38
186.76	1765.35
186.98	1693.67
187.20	1697.77
187.42	1619.94
187.64	1701.86
187.86	1755.11
188.08	1689.57
188.30	1665.00
188.52	1716.20
188.75	1789.92
188.97	1779.68
189.19	1621.99
189.41	1789.92
189.63	1781.73
189.85	1585.13
190.07	1632.23
190.29	1652.71
190.51	1705.96
190.73	1634.28
190.95	1769.44
191.17	1667.05
191.39	1654.76
191.61	1681.38
191.84	1687.53
192.06	1705.96
192.28	1603.56
192.50	1871.84
192.72	1703.91
192.94	1677.29
193.16	1708.01
193.38	1755.11
193.60	1628.14
193.82	1621.99
194.04	1763.30
194.26	1714.15
194.48	1728.49
194.70	1642.47
194.92	1638.38
195.14	1708.01
195.36	1673.19
195.58	1685.48
195.80	1673.19
196.02	1720.29
196.24	1744.87
196.46	1783.78
196.69	1683.43
196.91	1796.07
197.13	1703.91
197.35	1603.56
197.57	1808.36
197.79	1722.34
198.01	1673.19
198.23	1763.30
198.45	1722.34
198.67	1689.57
198.89	1675.24
199.11	1697.77
199.33	1677.29
199.55	1611.75
199.77	1681.38
199.99	1718.25
200.21	1730.53
200.43	1722.34
200.65	1646.57
200.87	1581.03
201.09	1660.90
201.31	1644.52
201.53	1761.25
201.75	1718.25
201.97	1669.09
202.19	1724.39
202.41	1708.01
202.63	1867.75
202.85	1673.19
203.07	1746.92
203.29	1699.81
203.51	1730.53
203.73	1710.05
203.95	1830.88
204.17	1697.77
204.39	1718.25
204.61	1673.19
204.83	1634.28
205.05	1742.82
205.27	1757.16
205.49	1769.44
205.71	1691.62
205.93	1673.19
206.15	1685.48
206.37	1665.00
206.59	1724.39
206.81	1691.62
207.03	1591.27
207.25	1654.76
207.47	1779.68
207.69	1665.00
207.91	1814.50
208.13	1763.30
208.34	1703.91
208.56	1671.14
208.78	1679.33
209.00	1630.18
209.22	1658.85
209.44	1685.48
209.66	1685.48
209.88	1710.05
210.10	1662.95
210.32	1640.42
210.54	1798.12
210.76	1665.00
210.98	1769.44
211.20	1646.57
211.42	1703.91
211.64	1787.88
211.86	1701.86
212.08	1699.81
212.30	1748.97
212.52	1687.53
212.74	1783.78
212.96	1671.14
213.17	1769.44
213.39	1777.64
213.61	1658.85
213.83	1765.35
214.05	1665.00
214.27	1787.88
214.49	1599.46
214.71	1677.29
214.93	1781.73
215.15	1673.19
215.37	1689.57
215.59	1607.66
215.81	1751.01
216.03	1753.06
216.24	1671.14
216.46	1740.77
216.68	1767.40
216.90	1722.34
217.12	1769.44
217.34	1761.25
217.56	1638.38
217.78	1845.22
218.00	1781.73
218.22	1773.54
218.44	1685.48
218.66	1755.11
218.87	1794.02
219.09	1681.38
219.31	1710.05
219.53	1714.15
219.75	1648.61
219.97	1652.71
220.19	1742.82
220.41	1716.20
220.63	1808.36
220.85	1697.77
221.06	1722.34
221.28	1830.88
221.50	1814.50
221.72	1640.42
221.94	1703.91
222.16	1718.25
222.38	1787.88
222.60	1726.44
222.82	1636.33
223.03	1716.20
223.25	1529.83
223.47	1720.29
223.69	1847.27
223.91	1767.40
224.13	1677.29
224.35	1681.38
224.57	1718.25
224.78	1810.40
225.00	1589.22
225.22	1708.01
225.44	1624.04
225.66	1712.10
225.88	1601.51
226.10	1718.25
226.32	1669.09
226.53	1785.83
226.75	1626.09
226.97	1679.33
227.19	1703.91
227.41	1714.15
227.63	1697.77
227.85	1611.75
228.06	1660.90
228.28	1652.71
228.50	1763.30
228.72	1642.47
228.94	1705.96
229.16	1576.94
229.37	1626.09
229.59	1681.38
229.81	1779.68
230.03	1685.48
230.25	1597.42
230.47	1628.14
230.69	1595.37
230.90	1796.07
231.12	1677.29
231.34	1675.24
231.56	1748.97
231.78	1671.14
232.00	1701.86
232.21	1681.38
232.43	1710.05
232.65	1599.46
232.87	1675.24
233.09	1695.72
233.30	1710.05
233.52	1710.05
233.74	1714.15
233.96	1677.29
234.18	1773.54
234.40	1681.38
234.61	1822.69
234.83	1587.18
235.05	1634.28
235.27	1828.84
235.49	1830.88
235.70	1734.63
235.92	1791.97
236.14	1746.92
236.36	1832.93
236.58	1683.43
236.79	1689.57
237.01	1650.66
237.23	1662.95
237.45	1767.40
237.67	1644.52
237.88	1660.90
238.10	1789.92
238.32	1617.90
238.54	1705.96
238.76	1683.43
238.97	1689.57
239.19	1695.72
239.41	1718.25
239.63	1716.20
239.85	1712.10
240.06	1740.77
240.28	1681.38
240.50	1816.55
240.72	1658.85
240.93	1697.77
241.15	1748.97
241.37	1638.38
241.59	1787.88
241.81	1748.97
242.02	1658.85
242.24	1818.60
242.46	1705.96
242.68	1693.67
242.89	1734.63
243.11	1736.68
243.33	1720.29
243.55	1697.77
243.76	1730.53
243.98	1685.48
244.20	1693.67
244.42	1658.85
244.64	1767.40
244.85	1652.71
245.07	1570.79
245.29	1779.68
245.51	1673.19
245.72	1763.30
245.94	1685.48
246.16	1751.01
246.38	1710.05
246.59	1685.48
246.81	1685.48
247.03	1712.10
247.24	1609.70
247.46	1689.57
247.68	1705.96
247.90	1673.19
248.11	1654.76
248.33	1691.62
248.55	1714.15
248.77	1636.33
248.98	1652.71
249.20	1716.20
249.42	1724.39
249.64	1734.63
249.85	1667.05
250.07	1667.05
250.29	1802.21
250.50	1734.63
250.72	1626.09
250.94	1798.12
251.16	1777.64
251.37	1736.68
251.59	1740.77
251.81	1773.54
252.02	1810.40
252.24	1681.38
252.46	1773.54
252.68	1679.33
252.89	1632.23
253.11	1613.80
253.33	1722.34
253.54	1757.16
253.76	1607.66
253.98	1734.63
254.20	1681.38
254.41	1566.70
254.63	1695.72
254.85	1685.48
255.06	1697.77
255.28	1683.43
255.50	1755.11
255.71	1630.18
255.93	1601.51
256.15	1755.11
256.36	1724.39
256.58	1669.09
256.80	1685.48
257.02	1646.57
257.23	1667.05
257.45	1738.73
257.67	1798.12
257.88	1615.85
258.10	1738.73
258.32	1646.57
258.53	1724.39
258.75	1728.49
258.97	1669.09
259.18	1683.43
259.40	1720.29
259.62	1830.88
259.83	1751.01
260.05	1703.91
260.27	1953.76
260.48	1693.67
260.70	1603.56
260.92	1638.38
261.13	1703.91
261.35	1701.86
261.57	1769.44
261.78	1681.38
262.00	1615.85
262.22	1789.92
262.43	1632.23
262.65	1656.81
262.86	1732.58
263.08	1779.68
263.30	1759.21
263.51	1585.13
263.73	1689.57
263.95	1796.07
264.16	1644.52
264.38	1628.14
264.60	1722.34
264.81	1642.47
265.03	1765.35
265.25	1677.29
265.46	1703.91
265.68	1806.31
265.89	1767.40
266.11	1562.60
266.33	1736.68
266.54	1685.48
266.76	1728.49
266.98	1730.53
267.19	1773.54
267.41	1753.06
267.62	1677.29
267.84	1683.43
268.06	1740.77
268.27	1650.66
268.49	1726.44
268.70	1767.40
268.92	1718.25
269.14	1646.57
269.35	1679.33
269.57	1650.66
269.79	1763.30
270.00	1748.97
270.22	1802.21
270.43	1755.11
270.65	1583.08
270.87	1828.84
271.08	1738.73
271.30	1660.90
271.51	1656.81
271.73	1730.53
271.95	1701.86
272.16	1716.20
272.38	1736.68
272.59	1583.08
272.81	1722.34
273.02	1699.81
273.24	1746.92
273.46	1740.77
273.67	1710.05
273.89	1738.73
274.10	1689.57
274.32	1783.78
274.54	1697.77
274.75	1705.96
274.97	1648.61
275.18	1804.26
275.40	1748.97
275.61	1677.29
275.83	1701.86
276.05	1638.38
276.26	1597.42
276.48	1728.49
276.69	1640.42
276.91	1640.42
277.12	1775.59
277.34	1763.30
277.55	1751.01
277.77	1738.73
277.99	1714.15
278.20	1624.04
278.42	1621.99
278.63	1652.71
278.85	1677.29
279.06	1628.14
279.28	1730.53
279.49	1734.63
279.71	1669.09
279.93	1710.05
280.14	1710.05
280.36	1621.99
280.57	1687.53
280.79	1738.73
281.00	1667.05
281.22	1648.61
281.43	1683.43
281.65	1609.70
281.86	1701.86
282.08	1708.01
282.29	1779.68
282.51	1558.50
282.73	1607.66
282.94	1601.51
283.16	1728.49
283.37	1826.79
283.59	1757.16
283.80	1726.44
284.02	1699.81
284.23	1716.20
284.45	1665.00
284.66	1632.23
284.88	1681.38
285.09	1710.05
285.31	1619.94
285.52	1685.48
285.74	1613.80
285.95	1677.29
286.17	1701.86
286.38	1740.77
286.60	1677.29
286.81	1726.44
287.03	1699.81
287.24	1757.16
287.46	1816.55
287.67	1642.47
287.89	1898.47
288.10	1650.66
288.32	1701.86
288.53	1771.49
288.75	1748.97
288.96	1736.68
289.18	1724.39
289.39	1685.48
289.61	1789.92
289.82	1841.12
290.04	1822.69
290.25	1640.42
290.47	1705.96
290.68	1638.38
290.90	1708.01
291.11	1662.95
291.33	1742.82
291.54	1617.90
291.76	1695.72
291.97	1650.66
292.18	1757.16
292.40	1640.42
292.61	1679.33
292.83	1834.98
293.04	1748.97
293.26	1693.67
293.47	1765.35
293.69	1718.25
293.90	1710.05
294.12	1791.97
294.33	1632.23
294.55	1675.24
294.76	1779.68
294.97	1834.98
295.19	1851.36
295.40	1660.90
295.62	1820.64
295.83	1644.52
296.05	1712.10
296.26	1697.77
296.48	1671.14
296.69	1732.58
296.90	1683.43
297.12	1736.68
297.33	1763.30
297.55	1716.20
297.76	1734.63
297.98	1857.51
298.19	1708.01
298.41	1652.71
298.62	1644.52
298.83	1789.92
299.05	1634.28
299.26	1763.30
299.48	1677.29
299.69	1775.59
299.90	1667.05
300.12	1587.18
300.33	1738.73
300.55	1755.11
300.76	1755.11
300.98	1595.37
301.19	1642.47
301.40	1660.90
301.62	1660.90
301.83	1703.91
302.05	1777.64
302.26	1685.48
302.47	1726.44
302.69	1617.90
302.90	1646.57
303.12	1611.75
303.33	1724.39
303.54	1826.79
303.76	1675.24
303.97	1748.97
304.19	1810.40
304.40	1630.18
304.61	1755.11
304.83	1748.97
305.04	1753.06
305.26	1734.63
305.47	1771.49
305.68	1705.96
305.90	1705.96
306.11	1779.68
306.33	1683.43
306.54	1726.44
306.75	1732.58
306.97	1603.56
307.18	1624.04
307.39	1681.38
307.61	1730.53
307.82	1660.90
308.04	1679.33
308.25	1644.52
308.46	1767.40
308.68	1775.59
308.89	1738.73
309.10	1779.68
309.32	1705.96
309.53	1691.62
309.74	1693.67
309.96	1685.48
310.17	1767.40
310.39	1652.71
310.60	1677.29
310.81	1703.91
311.03	1626.09
311.24	1703.91
311.45	1699.81
311.67	1781.73
311.88	1710.05
312.09	1695.72
312.31	1699.81
312.52	1683.43
312.73	1667.05
312.95	1636.33
313.16	1630.18
313.37	1687.53
313.59	1683.43
313.80	1820.64
314.01	1804.26
314.23	1748.97
314.44	1626.09
314.65	1581.03
314.87	1677.29
315.08	1648.61
315.29	1644.52
315.51	1732.58
315.72	1648.61
315.93	1828.84
316.15	1759.21
316.36	1665.00
316.57	1751.01
316.79	1761.25
317.00	1771.49
317.21	1796.07
317.43	1693.67
317.64	1712.10
317.85	1638.38
318.07	1624.04
318.28	1734.63
318.49	1857.51
318.70	1810.40
318.92	1652.71
319.13	1820.64
319.34	1804.26
319.56	1748.97
319.77	1828.84
319.98	1701.86
320.20	1800.16
320.41	1732.58
320.62	1742.82
320.83	1697.77
321.05	1839.08
321.26	1689.57
321.47	1796.07
321.69	1806.31
321.90	1677.29
322.11	1736.68
322.32	1746.92
322.54	1757.16
322.75	1740.77
322.96	1771.49
323.18	1621.99
323.39	1630.18
323.60	1556.46
323.81	1771.49
324.03	1640.42
324.24	1656.81
324.45	1710.05
324.66	1673.19
324.88	1779.68
325.09	1804.26
325.30	1650.66
325.52	1701.86
325.73	1675.24
325.94	1632.23
326.15	1621.99
326.37	1607.66
326.58	1748.97
326.79	1722.34
327.00	1671.14
327.22	1785.83
327.43	1658.85
327.64	1624.04
327.85	1728.49
328.07	1679.33
328.28	1689.57
328.49	1675.24
328.70	1710.05
328.92	1681.38
329.13	1691.62
329.34	1705.96
329.55	1802.21
329.76	1705.96
329.98	1691.62
330.19	1738.73
330.40	1742.82
330.61	1751.01
330.83	1724.39
331.04	1613.80
331.25	1755.11
331.46	1658.85
331.68	1656.81
331.89	1789.92
332.10	1695.72
332.31	1628.14
332.52	1689.57
332.74	1800.16
332.95	1613.80
333.16	1730.53
333.37	1679.33
333.58	1628.14
333.80	1728.49
334.01	1593.32
334.22	1691.62
334.43	1603.56
334.64	1742.82
334.86	1535.98
335.07	1650.66
335.28	1820.64
335.49	1675.24
335.70	1748.97
335.92	1728.49
336.13	1847.27
336.34	1654.76
336.55	1744.87
336.76	1726.44
336.98	1638.38
337.19	1669.09
337.40	1771.49
337.61	1834.98
337.82	1648.61
338.04	1759.21
338.25	1650.66
338.46	1734.63
338.67	1697.77
338.88	1648.61
339.09	1624.04
339.31	1650.66
339.52	1619.94
339.73	1646.57
339.94	1751.01
340.15	1757.16
340.36	1689.57
340.58	1710.05
340.79	1730.53
341.00	1781.73
341.21	1636.33
341.42	1710.05
341.63	1714.15
341.85	1736.68
342.06	1712.10
342.27	1660.90
342.48	1785.83
342.69	1642.47
342.90	1697.77
343.12	1687.53
343.33	1691.62
343.54	1724.39
343.75	1824.74
343.96	1726.44
344.17	1632.23
344.38	1693.67
344.60	1687.53
344.81	1654.76
345.02	1699.81
345.23	1689.57
345.44	1787.88
345.65	1841.12
345.86	1820.64
346.07	1695.72
346.29	1656.81
346.50	1767.40
346.71	1751.01
346.92	1718.25
347.13	1828.84
347.34	1742.82
347.55	1705.96
347.76	1710.05
347.98	1542.12
348.19	1714.15
348.40	1753.06
348.61	1705.96
348.82	1748.97
349.03	1691.62
349.24	1646.57
349.45	1816.55
349.66	1597.42
349.88	1644.52
350.09	1648.61
350.30	1814.50
350.51	1708.01
350.72	1685.48
350.93	1757.16
351.14	1673.19
351.35	1755.11
351.56	1759.21
351.77	1636.33
351.99	1761.25
352.20	1869.80
352.41	1726.44
352.62	1646.57
352.83	1710.05
353.04	1679.33
353.25	1701.86
353.46	1775.59
353.67	1785.83
353.88	1595.37
354.09	1685.48
354.30	1679.33
354.52	1683.43
354.73	1710.05
354.94	1667.05
355.15	1658.85
355.36	1814.50
355.57	1691.62
355.78	1710.05
355.99	1744.87
356.20	1695.72
356.41	1728.49
356.62	1695.72
356.83	1673.19
357.04	1742.82
357.25	1607.66
357.46	1652.71
357.68	1591.27
357.89	1652.71
358.10	1691.62
358.31	1763.30
358.52	1742.82
358.73	1654.76
358.94	1640.42
359.15	1630.18
359.36	1746.92
359.57	1712.10
359.78	1724.39
359.99	1775.59
360.20	1652.71
360.41	1626.09
360.62	1730.53
360.83	1701.86
361.04	1712.10
361.25	1683.43
361.46	1826.79
361.67	1738.73
361.88	1703.91
362.09	1779.68
362.30	1705.96
362.51	1660.90
362.72	1652.71
362.93	1734.63
363.14	1699.81
363.35	1716.20
363.56	1689.57
363.78	1763.30
363.99	1724.39
364.20	1658.85
364.41	1720.29
364.62	1798.12
364.83	1763.30
365.04	1667.05
365.25	1718.25
365.46	1796.07
365.67	1607.66
365.88	1646.57
366.09	1705.96
366.30	1701.86
366.51	1667.05
366.72	1619.94
366.93	1677.29
367.14	1703.91
367.35	1843.17
367.56	1656.81
367.77	1783.78
367.98	1654.76
368.18	1755.11
368.39	1746.92
368.60	1701.86
368.81	1667.05
369.02	1779.68
369.23	1712.10
369.44	1593.32
369.65	1695.72
369.86	1718.25
370.07	1738.73
370.28	1642.47
370.49	1724.39
370.70	1783.78
370.91	1624.04
371.12	1599.46
371.33	1779.68
371.54	1695.72
371.75	1802.21
371.96	1585.13
372.17	1691.62
372.38	1701.86
372.59	1714.15
372.80	1626.09
373.01	1712.10
373.22	1689.57
373.43	1783.78
373.64	1636.33
373.85	1744.87
374.06	1828.84
374.26	1746.92
374.47	1765.35
374.68	1818.60
374.89	1691.62
375.10	1679.33
375.31	1777.64
375.52	1710.05
375.73	1755.11
375.94	1705.96
376.15	1767.40
376.36	1710.05
376.57	1691.62
376.78	1681.38
376.99	1699.81
377.20	1779.68
377.40	1701.86
377.61	1800.16
377.82	1613.80
378.03	1751.01
378.24	1720.29
378.45	1650.66
378.66	1695.72
378.87	1646.57
379.08	1599.46
379.29	1640.42
379.50	1822.69
379.71	1628.14
379.91	1751.01
380.12	1718.25
380.33	1724.39
380.54	1695.72
380.75	1722.34
380.96	1626.09
381.17	1738.73
381.38	1695.72
381.59	1665.00
381.80	1689.57
382.00	1759.21
382.21	1751.01
382.42	1898.47
382.63	1771.49
382.84	1714.15
383.05	1775.59
383.26	1828.84
383.47	1708.01
383.68	1781.73
383.88	1761.25
384.09	1787.88
384.30	1777.64
384.51	1673.19
384.72	1685.48
384.93	1642.47
385.14	1642.47
385.35	1769.44
385.55	1636.33
385.76	1769.44
385.97	1652.71
386.18	1652.71
386.39	1601.51
386.60	1718.25
386.81	1665.00
387.02	1603.56
387.22	1716.20
387.43	1794.02
387.64	1746.92
387.85	1789.92
388.06	2295.77
388.27	4261.82
388.48	6817.69
388.68	8234.88
388.89	9461.62
389.10	9858.92
389.31	8531.84
389.52	7436.17
389.73	6725.53
389.93	6440.86
390.14	5722.02
390.35	5181.36
390.56	4560.83
390.77	3827.65
390.98	3055.57
391.18	2502.62
391.39	2158.56
391.60	1908.71
391.81	1828.84
392.02	1757.16
392.23	1898.47
392.43	1695.72
392.64	1808.36
392.85	1753.06
393.06	1810.40
393.27	1757.16
393.47	1634.28
393.68	1712.10
393.89	1710.05
394.10	1839.08
394.31	1660.90
394.52	1685.48
394.72	1646.57
394.93	1746.92
395.14	1671.14
395.35	1660.90
395.56	1665.00
395.76	1708.01
395.97	1814.50
396.18	1763.30
396.39	1763.30
396.60	1988.58
396.80	1914.85
397.01	1804.26
397.22	1906.66
397.43	1789.92
397.64	1691.62
397.84	1773.54
398.05	1779.68
398.26	1740.77
398.47	1781.73
398.67	1777.64
398.88	1714.15
399.09	1757.16
399.30	1679.33
399.51	1701.86
399.71	1677.29
399.92	1714.15
400.13	1767.40
400.34	1726.44
400.54	1669.09
400.75	1806.31
400.96	1722.34
401.17	1773.54
401.37	1646.57
401.58	1718.25
401.79	1726.44
402.00	1744.87
402.21	2011.11
402.41	1843.17
402.62	1939.43
402.83	1982.43
403.04	1961.95
403.24	2050.02
403.45	1820.64
403.66	1925.09
403.87	1908.71
404.07	1925.09
404.28	1925.09
404.49	1820.64
404.70	1718.25
404.90	1755.11
405.11	1718.25
405.32	1769.44
405.52	1701.86
405.73	1753.06
405.94	1671.14
406.15	1683.43
406.35	1810.40
406.56	1781.73
406.77	1724.39
406.98	1687.53
407.18	1628.14
407.39	1746.92
407.60	1705.96
407.80	1796.07
408.01	1730.53
408.22	1699.81
408.43	1699.81
408.63	1771.49
408.84	1738.73
409.05	1783.78
409.25	1681.38
409.46	1642.47
409.67	1662.95
409.88	1665.00
410.08	1691.62
410.29	1640.42
410.50	1712.10
410.70	1783.78
410.91	1597.42
411.12	1726.44
411.32	1699.81
411.53	1675.24
411.74	1769.44
411.95	1771.49
412.15	1767.40
412.36	1820.64
412.57	1746.92
412.77	1800.16
412.98	1759.21
413.19	1701.86
413.39	1755.11
413.60	1738.73
413.81	1740.77
414.01	1599.46
414.22	1761.25
414.43	1683.43
414.63	1714.15
414.84	1802.21
415.05	1714.15
415.25	1683.43
415.46	1826.79
415.67	1697.77
415.87	1806.31
416.08	1740.77
416.29	1689.57
416.49	1732.58
416.70	1640.42
416.91	1716.20
417.11	1712.10
417.32	1779.68
417.53	1755.11
417.73	1734.63
417.94	1708.01
418.15	1675.24
418.35	1736.68
418.56	1656.81
418.77	1761.25
418.97	1689.57
419.18	1689.57
419.38	1611.75
419.59	1675.24
419.80	1800.16
420.00	1652.71
420.21	1699.81
420.42	1779.68
420.62	1757.16
420.83	1669.09
421.04	1753.06
421.24	1636.33
421.45	1726.44
421.65	1808.36
421.86	1662.95
422.07	1738.73
422.27	1787.88
422.48	1744.87
422.69	1615.85
422.89	1679.33
423.10	1669.09
423.30	1621.99
423.51	1765.35
423.72	1685.48
423.92	1646.57
424.13	1652.71
424.33	1611.75
424.54	1724.39
424.75	1794.02
424.95	1791.97
425.16	1722.34
425.36	1734.63
425.57	1787.88
425.78	1669.09
425.98	1779.68
426.19	1744.87
426.39	1669.09
426.60	1701.86
426.81	1832.93
427.01	1728.49
427.22	1708.01
427.42	1642.47
427.63	1609.70
427.83	1814.50
428.04	1818.60
428.25	1791.97
428.45	1800.16
428.66	1718.25
428.86	1685.48
429.07	1665.00
429.28	1718.25
429.48	1646.57
429.69	1591.27
429.89	1705.96
430.10	1611.75
430.30	1732.58
430.51	1724.39
430.71	1746.92
430.92	1675.24
431.13	1626.09
431.33	1699.81
431.54	1714.15
431.74	1812.45
431.95	1818.60
432.15	1628.14
432.36	1722.34
432.56	1761.25
432.77	1796.07
432.98	1814.50
433.18	1738.73
433.39	1662.95
433.59	1683.43
433.80	1763.30
434.00	1861.60
434.21	1720.29
434.41	1673.19
434.62	1869.80
434.82	1660.90
435.03	1669.09
435.23	1681.38
435.44	1570.79
435.64	1718.25
435.85	1677.29
436.06	1863.65
436.26	1757.16
436.47	1626.09
436.67	1705.96
436.88	1728.49
437.08	1738.73
437.29	1826.79
437.49	1679.33
437.70	1718.25
437.90	1755.11
438.11	1902.56
438.31	1783.78
438.52	1849.32
438.72	1837.03
438.93	1871.84
439.13	1744.87
439.34	1828.84
439.54	1691.62
439.75	1796.07
439.95	1800.16
440.16	1683.43
440.36	1665.00
440.57	1736.68
440.77	1863.65
440.98	1720.29
441.18	1746.92
441.39	1738.73
441.59	1665.00
441.80	1861.60
442.00	1728.49
442.21	1843.17
442.41	1634.28
442.62	1818.60
442.82	1697.77
443.02	1685.48
443.23	1822.69
443.43	1669.09
443.64	1765.35
443.84	1667.05
444.05	1845.22
444.25	1730.53
444.46	1701.86
444.66	1742.82
444.87	1882.08
445.07	1650.66
445.28	1767.40
445.48	1757.16
445.69	1773.54
445.89	1875.94
446.09	1714.15
446.30	2013.15
446.50	2578.39
446.71	3598.28
446.91	4327.36
447.12	4827.06
447.32	4876.21
447.53	4329.41
447.73	3893.19
447.93	3483.59
448.14	3264.46
448.34	3190.74
448.55	2873.30
448.75	2858.96
448.96	2609.11
449.16	2447.32
449.36	2222.05
449.57	2031.58
449.77	1859.56
449.98	1834.98
450.18	1820.64
450.39	1824.74
450.59	1728.49
450.79	1738.73
451.00	1665.00
451.20	1746.92
451.41	1794.02
451.61	1763.30
451.81	1789.92
452.02	1814.50
452.22	1738.73
452.43	1730.53
452.63	1732.58
