SpectraSuite Data File
++++++++++++++++++++++++++++++++++++
Date: Mon Jun 06 16:42:57 CEST 2016
User: root
Dark Spectrum Present: No
Reference Spectrum Present: No
Number of Sampled Component Spectra: 1
Spectrometers: USB4C02835
Integration Time (usec): 100000 (USB4C02835)
Spectra Averaged: 1 (USB4C02835)
Boxcar Smoothing: 0 (USB4C02835)
Correct for Electrical Dark: No (USB4C02835)
Strobe/Lamp Enabled: No (USB4C02835)
Correct for Detector Non-linearity: No (USB4C02835)
Correct for Stray Light: No (USB4C02835)
Number of Pixels in Processed Spectrum: 3648
>>>>>Begin Processed Spectral Data<<<<<
177.47	1476.59
177.69	1476.59
177.91	1476.59
178.13	1447.91
178.36	1468.39
178.58	1646.57
178.80	1794.02
179.02	1677.29
179.24	1650.66
179.46	1726.44
179.68	1763.30
179.90	1701.86
180.13	1753.06
180.35	1665.00
180.57	1699.81
180.79	1679.33
181.01	1681.38
181.23	1808.36
181.45	1769.44
181.67	1763.30
181.90	1732.58
182.12	1640.42
182.34	1613.80
182.56	1748.97
182.78	1701.86
183.00	1665.00
183.22	1728.49
183.44	1607.66
183.66	1839.08
183.89	1748.97
184.11	1734.63
184.33	1763.30
184.55	1777.64
184.77	1681.38
184.99	1726.44
185.21	1683.43
185.43	1929.19
185.65	1626.09
185.87	1730.53
186.10	1806.31
186.32	1841.12
186.54	1683.43
186.76	1791.97
186.98	1783.78
187.20	1644.52
187.42	1703.91
187.64	1695.72
187.86	1794.02
188.08	1796.07
188.30	1611.75
188.52	1730.53
188.75	1810.40
188.97	1765.35
189.19	1671.14
189.41	1648.61
189.63	1734.63
189.85	1703.91
190.07	1576.94
190.29	1603.56
190.51	1791.97
190.73	1646.57
190.95	1724.39
191.17	1720.29
191.39	1611.75
191.61	1673.19
191.84	1683.43
192.06	1714.15
192.28	1583.08
192.50	1873.89
192.72	1662.95
192.94	1697.77
193.16	1718.25
193.38	1785.83
193.60	1630.18
193.82	1648.61
194.04	1777.64
194.26	1757.16
194.48	1597.42
194.70	1615.85
194.92	1683.43
195.14	1806.31
195.36	1701.86
195.58	1701.86
195.80	1609.70
196.02	1648.61
196.24	1787.88
196.46	1736.68
196.69	1757.16
196.91	1931.23
197.13	1757.16
197.35	1755.11
197.57	1791.97
197.79	1734.63
198.01	1689.57
198.23	1755.11
198.45	1726.44
198.67	1648.61
198.89	1632.23
199.11	1742.82
199.33	1681.38
199.55	1576.94
199.77	1722.34
199.99	1767.40
200.21	1683.43
200.43	1763.30
200.65	1681.38
200.87	1624.04
201.09	1640.42
201.31	1656.81
201.53	1791.97
201.75	1744.87
201.97	1722.34
202.19	1759.21
202.41	1683.43
202.63	1812.45
202.85	1802.21
203.07	1738.73
203.29	1667.05
203.51	1699.81
203.73	1683.43
203.95	1925.09
204.17	1800.16
204.39	1701.86
204.61	1593.32
204.83	1638.38
205.05	1791.97
205.27	1697.77
205.49	1822.69
205.71	1644.52
205.93	1613.80
206.15	1699.81
206.37	1646.57
206.59	1611.75
206.81	1652.71
207.03	1634.28
207.25	1615.85
207.47	1665.00
207.69	1736.68
207.91	1830.88
208.13	1757.16
208.34	1697.77
208.56	1759.21
208.78	1675.24
209.00	1693.67
209.22	1681.38
209.44	1705.96
209.66	1755.11
209.88	1691.62
210.10	1652.71
210.32	1730.53
210.54	1775.59
210.76	1687.53
210.98	1701.86
211.20	1626.09
211.42	1718.25
211.64	1726.44
211.86	1736.68
212.08	1769.44
212.30	1779.68
212.52	1642.47
212.74	1730.53
212.96	1767.40
213.17	1822.69
213.39	1738.73
213.61	1791.97
213.83	1695.72
214.05	1638.38
214.27	1800.16
214.49	1636.33
214.71	1708.01
214.93	1789.92
215.15	1691.62
215.37	1687.53
215.59	1583.08
215.81	1722.34
216.03	1794.02
216.24	1724.39
216.46	1644.52
216.68	1701.86
216.90	1755.11
217.12	1761.25
217.34	1783.78
217.56	1712.10
217.78	1744.87
218.00	1710.05
218.22	1742.82
218.44	1669.09
218.66	1744.87
218.87	1830.88
219.09	1724.39
219.31	1722.34
219.53	1767.40
219.75	1728.49
219.97	1746.92
220.19	1738.73
220.41	1730.53
220.63	1759.21
220.85	1781.73
221.06	1675.24
221.28	1812.45
221.50	1783.78
221.72	1685.48
221.94	1646.57
222.16	1726.44
222.38	1787.88
222.60	1753.06
222.82	1626.09
223.03	1742.82
223.25	1644.52
223.47	1726.44
223.69	1877.99
223.91	1734.63
224.13	1673.19
224.35	1699.81
224.57	1710.05
224.78	1789.92
225.00	1683.43
225.22	1695.72
225.44	1728.49
225.66	1662.95
225.88	1673.19
226.10	1796.07
226.32	1703.91
226.53	1830.88
226.75	1681.38
226.97	1718.25
227.19	1648.61
227.41	1632.23
227.63	1699.81
227.85	1595.37
228.06	1775.59
228.28	1697.77
228.50	1806.31
228.72	1695.72
228.94	1699.81
229.16	1593.32
229.37	1677.29
229.59	1712.10
229.81	1820.64
230.03	1699.81
230.25	1591.27
230.47	1601.51
230.69	1671.14
230.90	1712.10
231.12	1710.05
231.34	1685.48
231.56	1728.49
231.78	1605.61
232.00	1751.01
232.21	1652.71
232.43	1652.71
232.65	1628.14
232.87	1779.68
233.09	1699.81
233.30	1691.62
233.52	1769.44
233.74	1677.29
233.96	1652.71
234.18	1669.09
234.40	1638.38
234.61	1820.64
234.83	1671.14
235.05	1640.42
235.27	1863.65
235.49	1822.69
235.70	1730.53
235.92	1834.98
236.14	1779.68
236.36	1834.98
236.58	1691.62
236.79	1724.39
237.01	1722.34
237.23	1644.52
237.45	1791.97
237.67	1697.77
237.88	1777.64
238.10	1781.73
238.32	1667.05
238.54	1742.82
238.76	1671.14
238.97	1732.58
239.19	1746.92
239.41	1708.01
239.63	1771.49
239.85	1681.38
240.06	1681.38
240.28	1691.62
240.50	1699.81
240.72	1642.47
240.93	1677.29
241.15	1746.92
241.37	1705.96
241.59	1808.36
241.81	1705.96
242.02	1654.76
242.24	1669.09
242.46	1724.39
242.68	1699.81
242.89	1787.88
243.11	1740.77
243.33	1667.05
243.55	1775.59
243.76	1765.35
243.98	1724.39
244.20	1650.66
244.42	1669.09
244.64	1730.53
244.85	1718.25
245.07	1695.72
245.29	1748.97
245.51	1722.34
245.72	1748.97
245.94	1798.12
246.16	1673.19
246.38	1779.68
246.59	1705.96
246.81	1693.67
247.03	1667.05
247.24	1607.66
247.46	1658.85
247.68	1759.21
247.90	1669.09
248.11	1705.96
248.33	1695.72
248.55	1787.88
248.77	1744.87
248.98	1718.25
249.20	1822.69
249.42	1751.01
249.64	1773.54
249.85	1703.91
250.07	1677.29
250.29	1712.10
250.50	1712.10
250.72	1681.38
250.94	1742.82
251.16	1857.51
251.37	1775.59
251.59	1744.87
251.81	1708.01
252.02	1794.02
252.24	1619.94
252.46	1789.92
252.68	1646.57
252.89	1703.91
253.11	1607.66
253.33	1794.02
253.54	1734.63
253.76	1626.09
253.98	1699.81
254.20	1720.29
254.41	1652.71
254.63	1740.77
254.85	1583.08
255.06	1800.16
255.28	1712.10
255.50	1671.14
255.71	1650.66
255.93	1679.33
256.15	1662.95
256.36	1673.19
256.58	1632.23
256.80	1714.15
257.02	1732.58
257.23	1740.77
257.45	1781.73
257.67	1722.34
257.88	1699.81
258.10	1683.43
258.32	1697.77
258.53	1759.21
258.75	1785.83
258.97	1658.85
259.18	1716.20
259.40	1689.57
259.62	1824.74
259.83	1857.51
260.05	1748.97
260.27	1984.48
260.48	1757.16
260.70	1611.75
260.92	1562.60
261.13	1755.11
261.35	1787.88
261.57	1687.53
261.78	1681.38
262.00	1669.09
262.22	1697.77
262.43	1648.61
262.65	1699.81
262.86	1751.01
263.08	1841.12
263.30	1685.48
263.51	1607.66
263.73	1646.57
263.95	1785.83
264.16	1603.56
264.38	1681.38
264.60	1724.39
264.81	1693.67
265.03	1779.68
265.25	1814.50
265.46	1683.43
265.68	1775.59
265.89	1708.01
266.11	1621.99
266.33	1738.73
266.54	1830.88
266.76	1665.00
266.98	1777.64
267.19	1771.49
267.41	1779.68
267.62	1681.38
267.84	1638.38
268.06	1775.59
268.27	1744.87
268.49	1787.88
268.70	1767.40
268.92	1652.71
269.14	1656.81
269.35	1595.37
269.57	1693.67
269.79	1734.63
270.00	1724.39
270.22	1742.82
270.43	1673.19
270.65	1572.84
270.87	1734.63
271.08	1673.19
271.30	1724.39
271.51	1726.44
271.73	1736.68
271.95	1796.07
272.16	1689.57
272.38	1732.58
272.59	1744.87
272.81	1738.73
273.02	1705.96
273.24	1714.15
273.46	1728.49
273.67	1679.33
273.89	1671.14
274.10	1652.71
274.32	1812.45
274.54	1699.81
274.75	1746.92
274.97	1708.01
275.18	1757.16
275.40	1769.44
275.61	1695.72
275.83	1705.96
276.05	1671.14
276.26	1691.62
276.48	1757.16
276.69	1699.81
276.91	1742.82
277.12	1794.02
277.34	1783.78
277.55	1755.11
277.77	1687.53
277.99	1669.09
278.20	1626.09
278.42	1697.77
278.63	1744.87
278.85	1611.75
279.06	1650.66
279.28	1783.78
279.49	1732.58
279.71	1697.77
279.93	1710.05
280.14	1736.68
280.36	1683.43
280.57	1771.49
280.79	1779.68
281.00	1671.14
281.22	1669.09
281.43	1853.41
281.65	1533.93
281.86	1634.28
282.08	1681.38
282.29	1808.36
282.51	1669.09
282.73	1691.62
282.94	1689.57
283.16	1746.92
283.37	1908.71
283.59	1718.25
283.80	1689.57
284.02	1619.94
284.23	1734.63
284.45	1671.14
284.66	1671.14
284.88	1636.33
285.09	1767.40
285.31	1726.44
285.52	1677.29
285.74	1740.77
285.95	1767.40
286.17	1679.33
286.38	1703.91
286.60	1642.47
286.81	1742.82
287.03	1681.38
287.24	1763.30
287.46	1699.81
287.67	1767.40
287.89	1699.81
288.10	1665.00
288.32	1738.73
288.53	1802.21
288.75	1724.39
288.96	1716.20
289.18	1535.98
289.39	1695.72
289.61	1755.11
289.82	1802.21
290.04	1826.79
290.25	1585.13
290.47	1640.42
290.68	1701.86
290.90	1777.64
291.11	1685.48
291.33	1773.54
291.54	1662.95
291.76	1648.61
291.97	1705.96
292.18	1669.09
292.40	1628.14
292.61	1742.82
292.83	1822.69
293.04	1767.40
293.26	1751.01
293.47	1681.38
293.69	1609.70
293.90	1658.85
294.12	1794.02
294.33	1685.48
294.55	1730.53
294.76	1718.25
294.97	1810.40
295.19	1841.12
295.40	1642.47
295.62	1681.38
295.83	1691.62
296.05	1636.33
296.26	1769.44
296.48	1656.81
296.69	1703.91
296.90	1726.44
297.12	1824.74
297.33	1814.50
297.55	1712.10
297.76	1714.15
297.98	1767.40
298.19	1615.85
298.41	1689.57
298.62	1638.38
298.83	1755.11
299.05	1722.34
299.26	1603.56
299.48	1660.90
299.69	1736.68
299.90	1693.67
300.12	1705.96
300.33	1740.77
300.55	1738.73
300.76	1751.01
300.98	1601.51
301.19	1712.10
301.40	1681.38
301.62	1644.52
301.83	1740.77
302.05	1730.53
302.26	1687.53
302.47	1708.01
302.69	1701.86
302.90	1667.05
303.12	1599.46
303.33	1763.30
303.54	1826.79
303.76	1732.58
303.97	1710.05
304.19	1785.83
304.40	1705.96
304.61	1732.58
304.83	1783.78
305.04	1701.86
305.26	1787.88
305.47	1626.09
305.68	1665.00
305.90	1726.44
306.11	1757.16
306.33	1673.19
306.54	1701.86
306.75	1703.91
306.97	1603.56
307.18	1648.61
307.39	1648.61
307.61	1781.73
307.82	1685.48
308.04	1736.68
308.25	1710.05
308.46	1722.34
308.68	1755.11
308.89	1705.96
309.10	1816.55
309.32	1757.16
309.53	1730.53
309.74	1734.63
309.96	1710.05
310.17	1785.83
310.39	1665.00
310.60	1660.90
310.81	1726.44
311.03	1665.00
311.24	1701.86
311.45	1662.95
311.67	1781.73
311.88	1695.72
312.09	1691.62
312.31	1699.81
312.52	1687.53
312.73	1681.38
312.95	1626.09
313.16	1601.51
313.37	1800.16
313.59	1775.59
313.80	1734.63
314.01	1761.25
314.23	1689.57
314.44	1697.77
314.65	1720.29
314.87	1751.01
315.08	1673.19
315.29	1693.67
315.51	1759.21
315.72	1679.33
315.93	1820.64
316.15	1828.84
316.36	1710.05
316.57	1755.11
316.79	1769.44
317.00	1673.19
317.21	1751.01
317.43	1636.33
317.64	1738.73
317.85	1705.96
318.07	1640.42
318.28	1744.87
318.49	1853.41
318.70	1894.37
318.92	1720.29
319.13	1837.03
319.34	1871.84
319.56	1765.35
319.77	1816.55
319.98	1761.25
320.20	1779.68
320.41	1718.25
320.62	1759.21
320.83	1722.34
321.05	1894.37
321.26	1757.16
321.47	1724.39
321.69	1830.88
321.90	1648.61
322.11	1583.08
322.32	1703.91
322.54	1722.34
322.75	1712.10
322.96	1775.59
323.18	1662.95
323.39	1603.56
323.60	1685.48
323.81	1714.15
324.03	1613.80
324.24	1681.38
324.45	1742.82
324.66	1677.29
324.88	1718.25
325.09	1877.99
325.30	1703.91
325.52	1748.97
325.73	1732.58
325.94	1595.37
326.15	1636.33
326.37	1714.15
326.58	1726.44
326.79	1812.45
327.00	1650.66
327.22	1665.00
327.43	1683.43
327.64	1564.65
327.85	1685.48
328.07	1683.43
328.28	1783.78
328.49	1673.19
328.70	1718.25
328.92	1738.73
329.13	1716.20
329.34	1734.63
329.55	1800.16
329.76	1771.49
329.98	1689.57
330.19	1808.36
330.40	1705.96
330.61	1781.73
330.83	1714.15
331.04	1656.81
331.25	1712.10
331.46	1673.19
331.68	1628.14
331.89	1656.81
332.10	1701.86
332.31	1619.94
332.52	1720.29
332.74	1777.64
332.95	1630.18
333.16	1718.25
333.37	1769.44
333.58	1599.46
333.80	1742.82
334.01	1624.04
334.22	1691.62
334.43	1714.15
334.64	1699.81
334.86	1669.09
335.07	1669.09
335.28	1791.97
335.49	1691.62
335.70	1693.67
335.92	1804.26
336.13	1865.70
336.34	1726.44
336.55	1671.14
336.76	1699.81
336.98	1587.18
337.19	1683.43
337.40	1877.99
337.61	1886.18
337.82	1679.33
338.04	1753.06
338.25	1722.34
338.46	1658.85
338.67	1759.21
338.88	1621.99
339.09	1632.23
339.31	1685.48
339.52	1656.81
339.73	1691.62
339.94	1751.01
340.15	1710.05
340.36	1734.63
340.58	1734.63
340.79	1605.61
341.00	1746.92
341.21	1714.15
341.42	1808.36
341.63	1697.77
341.85	1761.25
342.06	1810.40
342.27	1712.10
342.48	1744.87
342.69	1613.80
342.90	1701.86
343.12	1744.87
343.33	1718.25
343.54	1757.16
343.75	1800.16
343.96	1691.62
344.17	1691.62
344.38	1658.85
344.60	1632.23
344.81	1673.19
345.02	1806.31
345.23	1710.05
345.44	1818.60
345.65	1740.77
345.86	1673.19
346.07	1652.71
346.29	1746.92
346.50	1722.34
346.71	1771.49
346.92	1697.77
347.13	1837.03
347.34	1730.53
347.55	1720.29
347.76	1660.90
347.98	1632.23
348.19	1693.67
348.40	1751.01
348.61	1687.53
348.82	1746.92
349.03	1791.97
349.24	1701.86
349.45	1877.99
349.66	1636.33
349.88	1722.34
350.09	1701.86
350.30	1765.35
350.51	1763.30
350.72	1740.77
350.93	1716.20
351.14	1722.34
351.35	1796.07
351.56	1718.25
351.77	1701.86
351.99	1712.10
352.20	1892.32
352.41	1742.82
352.62	1642.47
352.83	1701.86
353.04	1693.67
353.25	1699.81
353.46	1791.97
353.67	1742.82
353.88	1658.85
354.09	1759.21
354.30	1699.81
354.52	1783.78
354.73	1763.30
354.94	1726.44
355.15	1759.21
355.36	1730.53
355.57	1705.96
355.78	1714.15
355.99	1638.38
356.20	1644.52
356.41	1814.50
356.62	1757.16
356.83	1710.05
357.04	1806.31
357.25	1718.25
357.46	1742.82
357.68	1640.42
357.89	1665.00
358.10	1724.39
358.31	1740.77
358.52	1685.48
358.73	1693.67
358.94	1650.66
359.15	1671.14
359.36	1730.53
359.57	1665.00
359.78	1695.72
359.99	1681.38
360.20	1650.66
360.41	1691.62
360.62	1789.92
360.83	1724.39
361.04	1734.63
361.25	1636.33
361.46	1791.97
361.67	1740.77
361.88	1773.54
362.09	1708.01
362.30	1732.58
362.51	1624.04
362.72	1685.48
362.93	1742.82
363.14	1748.97
363.35	1753.06
363.56	1630.18
363.78	1832.93
363.99	1814.50
364.20	1640.42
364.41	1755.11
364.62	1779.68
364.83	1689.57
365.04	1720.29
365.25	1691.62
365.46	1839.08
365.67	1689.57
365.88	1660.90
366.09	1708.01
366.30	1753.06
366.51	1726.44
366.72	1644.52
366.93	1689.57
367.14	1724.39
367.35	1787.88
367.56	1720.29
367.77	1779.68
367.98	1794.02
368.18	1691.62
368.39	1796.07
368.60	1673.19
368.81	1812.45
369.02	1738.73
369.23	1695.72
369.44	1587.18
369.65	1644.52
369.86	1777.64
370.07	1689.57
370.28	1634.28
370.49	1771.49
370.70	1746.92
370.91	1619.94
371.12	1605.61
371.33	1705.96
371.54	1687.53
371.75	1796.07
371.96	1609.70
372.17	1763.30
372.38	1724.39
372.59	1724.39
372.80	1632.23
373.01	1699.81
373.22	1796.07
373.43	1611.75
373.64	1648.61
373.85	1761.25
374.06	1914.85
374.26	1759.21
374.47	1787.88
374.68	1746.92
374.89	1677.29
375.10	1810.40
375.31	1767.40
375.52	1708.01
375.73	1640.42
375.94	1667.05
376.15	1834.98
376.36	1679.33
376.57	1734.63
376.78	1603.56
376.99	1646.57
377.20	1783.78
377.40	1710.05
377.61	1777.64
377.82	1640.42
378.03	1685.48
378.24	1691.62
378.45	1789.92
378.66	1640.42
378.87	1669.09
379.08	1650.66
379.29	1773.54
379.50	1789.92
379.71	1757.16
379.91	1773.54
380.12	1681.38
380.33	1759.21
380.54	1630.18
380.75	1632.23
380.96	1683.43
381.17	1710.05
381.38	1798.12
381.59	1718.25
381.80	1738.73
382.00	1853.41
382.21	1751.01
382.42	1861.60
382.63	1867.75
382.84	1695.72
383.05	1773.54
383.26	1794.02
383.47	1665.00
383.68	1806.31
383.88	1718.25
384.09	1708.01
384.30	1765.35
384.51	1701.86
384.72	1683.43
384.93	1634.28
385.14	1720.29
385.35	1720.29
385.55	1658.85
385.76	1853.41
385.97	1701.86
386.18	1644.52
386.39	1687.53
386.60	1769.44
386.81	1656.81
387.02	1632.23
387.22	1744.87
387.43	1677.29
387.64	1779.68
387.85	1904.61
388.06	2250.72
388.27	4210.62
388.48	6703.00
388.68	8292.23
388.89	9516.91
389.10	9873.26
389.31	8722.30
389.52	7526.29
389.73	6829.98
389.93	6094.76
390.14	6025.12
390.35	5201.84
390.56	4505.53
390.77	3796.93
390.98	3098.58
391.18	2500.57
391.39	2101.22
391.60	1816.55
391.81	1863.65
392.02	1779.68
392.23	1875.94
392.43	1775.59
392.64	1820.64
392.85	1701.86
393.06	1796.07
393.27	1667.05
393.47	1669.09
393.68	1746.92
393.89	1714.15
394.10	1789.92
394.31	1697.77
394.52	1724.39
394.72	1714.15
394.93	1822.69
395.14	1654.76
395.35	1779.68
395.56	1652.71
395.76	1683.43
395.97	1781.73
396.18	1812.45
396.39	1853.41
396.60	2002.91
396.80	1873.89
397.01	1908.71
397.22	1865.70
397.43	1863.65
397.64	1730.53
397.84	1763.30
398.05	1953.76
398.26	1732.58
398.47	1828.84
398.67	1736.68
398.88	1648.61
399.09	1697.77
399.30	1691.62
399.51	1789.92
399.71	1718.25
399.92	1751.01
400.13	1738.73
400.34	1724.39
400.54	1738.73
400.75	1751.01
400.96	1691.62
401.17	1853.41
401.37	1794.02
401.58	1683.43
401.79	1726.44
402.00	1824.74
402.21	2047.97
402.41	1988.58
402.62	2056.16
402.83	2047.97
403.04	1986.53
403.24	2086.88
403.45	1853.41
403.66	1943.52
403.87	1943.52
404.07	1855.46
404.28	1966.05
404.49	2004.96
404.70	1826.79
404.90	1744.87
405.11	1765.35
405.32	1810.40
405.52	1724.39
405.73	1671.14
405.94	1675.24
406.15	1714.15
406.35	1697.77
406.56	1808.36
406.77	1695.72
406.98	1742.82
407.18	1720.29
407.39	1771.49
407.60	1705.96
407.80	1802.21
408.01	1638.38
408.22	1712.10
408.43	1652.71
408.63	1708.01
408.84	1798.12
409.05	1771.49
409.25	1683.43
409.46	1703.91
409.67	1728.49
409.88	1710.05
410.08	1693.67
410.29	1685.48
410.50	1652.71
410.70	1701.86
410.91	1667.05
411.12	1712.10
411.32	1820.64
411.53	1701.86
411.74	1800.16
411.95	1689.57
412.15	1730.53
412.36	1853.41
412.57	1828.84
412.77	1796.07
412.98	1771.49
413.19	1724.39
413.39	1730.53
413.60	1761.25
413.81	1814.50
414.01	1744.87
414.22	1777.64
414.43	1761.25
414.63	1761.25
414.84	1791.97
415.05	1732.58
415.25	1615.85
415.46	1845.22
415.67	1671.14
415.87	1705.96
416.08	1679.33
416.29	1669.09
416.49	1783.78
416.70	1646.57
416.91	1665.00
417.11	1656.81
417.32	1783.78
417.53	1757.16
417.73	1730.53
417.94	1761.25
418.15	1626.09
418.35	1742.82
418.56	1757.16
418.77	1802.21
418.97	1675.24
419.18	1757.16
419.38	1552.36
419.59	1708.01
419.80	1822.69
420.00	1734.63
420.21	1714.15
420.42	1755.11
420.62	1722.34
420.83	1630.18
421.04	1675.24
421.24	1734.63
421.45	1800.16
421.65	1767.40
421.86	1791.97
422.07	1665.00
422.27	1728.49
422.48	1785.83
422.69	1714.15
422.89	1677.29
423.10	1730.53
423.30	1615.85
423.51	1724.39
423.72	1769.44
423.92	1779.68
424.13	1714.15
424.33	1712.10
424.54	1767.40
424.75	1732.58
424.95	1816.55
425.16	1728.49
425.36	1761.25
425.57	1720.29
425.78	1730.53
425.98	1806.31
426.19	1683.43
426.39	1615.85
426.60	1718.25
426.81	1839.08
427.01	1687.53
427.22	1683.43
427.42	1628.14
427.63	1703.91
427.83	1734.63
428.04	1775.59
428.25	1822.69
428.45	1828.84
428.66	1697.77
428.86	1730.53
429.07	1734.63
429.28	1742.82
429.48	1744.87
429.69	1660.90
429.89	1732.58
430.10	1652.71
430.30	1669.09
430.51	1757.16
430.71	1665.00
430.92	1744.87
431.13	1656.81
431.33	1720.29
431.54	1759.21
431.74	1773.54
431.95	1769.44
432.15	1660.90
432.36	1734.63
432.56	1771.49
432.77	1906.66
432.98	1849.32
433.18	1654.76
433.39	1697.77
433.59	1685.48
433.80	1824.74
434.00	1800.16
434.21	1640.42
434.41	1654.76
434.62	1884.13
434.82	1566.70
435.03	1708.01
435.23	1693.67
435.44	1613.80
435.64	1720.29
435.85	1728.49
436.06	1791.97
436.26	1679.33
436.47	1722.34
436.67	1642.47
436.88	1697.77
437.08	1822.69
437.29	1759.21
437.49	1720.29
437.70	1804.26
437.90	1800.16
438.11	1837.03
438.31	1800.16
438.52	1804.26
438.72	1845.22
438.93	1945.57
439.13	1806.31
439.34	1906.66
439.54	1693.67
439.75	1834.98
439.95	1812.45
440.16	1748.97
440.36	1861.60
440.57	1734.63
440.77	1816.55
440.98	1744.87
441.18	1740.77
441.39	1656.81
441.59	1724.39
441.80	1816.55
442.00	1658.85
442.21	1822.69
442.41	1662.95
442.62	1742.82
442.82	1699.81
443.02	1734.63
443.23	1744.87
443.43	1761.25
443.64	1843.17
443.84	1656.81
444.05	1787.88
444.25	1701.86
444.46	1730.53
444.66	1675.24
444.87	1918.95
445.07	1607.66
445.28	1796.07
445.48	1781.73
445.69	1759.21
445.89	1867.75
446.09	1736.68
446.30	1970.15
446.50	2693.08
446.71	3692.49
446.91	4413.37
447.12	4761.53
447.32	4808.63
447.53	4296.64
447.73	3837.89
447.93	3561.42
448.14	3321.81
448.34	3149.78
448.55	2848.72
448.75	2836.44
448.96	2672.60
449.16	2402.27
449.36	2322.40
449.57	2047.97
449.77	1937.38
449.98	1781.73
450.18	1810.40
450.39	1828.84
450.59	1716.20
450.79	1771.49
451.00	1781.73
451.20	1837.03
451.41	1728.49
451.61	1761.25
451.81	1789.92
452.02	1716.20
452.22	1777.64
452.43	1794.02
452.63	1652.71
