SpectraSuite Data File
++++++++++++++++++++++++++++++++++++
Date: Mon Jun 06 13:24:57 CEST 2016
User: root
Dark Spectrum Present: No
Reference Spectrum Present: No
Number of Sampled Component Spectra: 1
Spectrometers: USB4C02835
Integration Time (usec): 100000 (USB4C02835)
Spectra Averaged: 1 (USB4C02835)
Boxcar Smoothing: 0 (USB4C02835)
Correct for Electrical Dark: No (USB4C02835)
Strobe/Lamp Enabled: No (USB4C02835)
Correct for Detector Non-linearity: No (USB4C02835)
Correct for Stray Light: No (USB4C02835)
Number of Pixels in Processed Spectrum: 3648
>>>>>Begin Processed Spectral Data<<<<<
177.47	1464.30
177.69	1464.30
177.91	1464.30
178.13	1447.91
178.36	1415.15
178.58	1683.43
178.80	1716.20
179.02	1591.27
179.24	1673.19
179.46	1638.38
179.68	1779.68
179.90	1638.38
180.13	1722.34
180.35	1701.86
180.57	1695.72
180.79	1718.25
181.01	1708.01
181.23	1675.24
181.45	1726.44
181.67	1759.21
181.90	1742.82
182.12	1685.48
182.34	1615.85
182.56	1669.09
182.78	1669.09
183.00	1662.95
183.22	1726.44
183.44	1658.85
183.66	1812.45
183.89	1734.63
184.11	1710.05
184.33	1712.10
184.55	1787.88
184.77	1753.06
184.99	1710.05
185.21	1617.90
185.43	1787.88
185.65	1703.91
185.87	1742.82
186.10	1779.68
186.32	1910.75
186.54	1773.54
186.76	1677.29
186.98	1837.03
187.20	1671.14
187.42	1611.75
187.64	1712.10
187.86	1691.62
188.08	1734.63
188.30	1685.48
188.52	1728.49
188.75	1789.92
188.97	1785.83
189.19	1722.34
189.41	1656.81
189.63	1699.81
189.85	1736.68
190.07	1646.57
190.29	1648.61
190.51	1701.86
190.73	1660.90
190.95	1775.59
191.17	1777.64
191.39	1601.51
191.61	1646.57
191.84	1626.09
192.06	1716.20
192.28	1595.37
192.50	1861.60
192.72	1720.29
192.94	1695.72
193.16	1734.63
193.38	1740.77
193.60	1673.19
193.82	1712.10
194.04	1701.86
194.26	1642.47
194.48	1683.43
194.70	1634.28
194.92	1630.18
195.14	1701.86
195.36	1714.15
195.58	1695.72
195.80	1677.29
196.02	1755.11
196.24	1710.05
196.46	1732.58
196.69	1648.61
196.91	1800.16
197.13	1689.57
197.35	1624.04
197.57	1720.29
197.79	1710.05
198.01	1724.39
198.23	1771.49
198.45	1724.39
198.67	1587.18
198.89	1722.34
199.11	1765.35
199.33	1652.71
199.55	1574.89
199.77	1763.30
199.99	1828.84
200.21	1693.67
200.43	1734.63
200.65	1675.24
200.87	1552.36
201.09	1648.61
201.31	1650.66
201.53	1771.49
201.75	1644.52
201.97	1710.05
202.19	1720.29
202.41	1736.68
202.63	1818.60
202.85	1697.77
203.07	1714.15
203.29	1681.38
203.51	1654.76
203.73	1689.57
203.95	1886.18
204.17	1816.55
204.39	1787.88
204.61	1675.24
204.83	1730.53
205.05	1773.54
205.27	1703.91
205.49	1806.31
205.71	1617.90
205.93	1609.70
206.15	1683.43
206.37	1619.94
206.59	1652.71
206.81	1652.71
207.03	1648.61
207.25	1648.61
207.47	1728.49
207.69	1681.38
207.91	1746.92
208.13	1701.86
208.34	1683.43
208.56	1628.14
208.78	1744.87
209.00	1593.32
209.22	1642.47
209.44	1744.87
209.66	1609.70
209.88	1751.01
210.10	1609.70
210.32	1748.97
210.54	1798.12
210.76	1724.39
210.98	1716.20
211.20	1658.85
211.42	1685.48
211.64	1763.30
211.86	1734.63
212.08	1759.21
212.30	1660.90
212.52	1710.05
212.74	1738.73
212.96	1728.49
213.17	1773.54
213.39	1732.58
213.61	1763.30
213.83	1751.01
214.05	1685.48
214.27	1759.21
214.49	1617.90
214.71	1642.47
214.93	1751.01
215.15	1693.67
215.37	1806.31
215.59	1578.98
215.81	1742.82
216.03	1742.82
216.24	1624.04
216.46	1742.82
216.68	1763.30
216.90	1794.02
217.12	1814.50
217.34	1716.20
217.56	1728.49
217.78	1808.36
218.00	1648.61
218.22	1722.34
218.44	1748.97
218.66	1744.87
218.87	1787.88
219.09	1703.91
219.31	1703.91
219.53	1681.38
219.75	1699.81
219.97	1710.05
220.19	1765.35
220.41	1740.77
220.63	1781.73
220.85	1705.96
221.06	1679.33
221.28	1779.68
221.50	1724.39
221.72	1691.62
221.94	1621.99
222.16	1730.53
222.38	1751.01
222.60	1789.92
222.82	1685.48
223.03	1742.82
223.25	1632.23
223.47	1775.59
223.69	1773.54
223.91	1812.45
224.13	1640.42
224.35	1703.91
224.57	1701.86
224.78	1689.57
225.00	1648.61
225.22	1675.24
225.44	1716.20
225.66	1759.21
225.88	1636.33
226.10	1775.59
226.32	1677.29
226.53	1767.40
226.75	1636.33
226.97	1677.29
227.19	1724.39
227.41	1652.71
227.63	1636.33
227.85	1611.75
228.06	1677.29
228.28	1689.57
228.50	1779.68
228.72	1708.01
228.94	1634.28
229.16	1673.19
229.37	1619.94
229.59	1619.94
229.81	1763.30
230.03	1697.77
230.25	1587.18
230.47	1603.56
230.69	1660.90
230.90	1712.10
231.12	1777.64
231.34	1734.63
231.56	1681.38
231.78	1624.04
232.00	1673.19
232.21	1652.71
232.43	1667.05
232.65	1552.36
232.87	1783.78
233.09	1583.08
233.30	1714.15
233.52	1798.12
233.74	1710.05
233.96	1695.72
234.18	1640.42
234.40	1671.14
234.61	1806.31
234.83	1665.00
235.05	1615.85
235.27	1785.83
235.49	1738.73
235.70	1662.95
235.92	1806.31
236.14	1720.29
236.36	1834.98
236.58	1658.85
236.79	1677.29
237.01	1703.91
237.23	1679.33
237.45	1763.30
237.67	1705.96
237.88	1730.53
238.10	1839.08
238.32	1599.46
238.54	1740.77
238.76	1687.53
238.97	1669.09
239.19	1595.37
239.41	1746.92
239.63	1791.97
239.85	1673.19
240.06	1753.06
240.28	1710.05
240.50	1710.05
240.72	1771.49
240.93	1710.05
241.15	1775.59
241.37	1699.81
241.59	1857.51
241.81	1646.57
242.02	1722.34
242.24	1687.53
242.46	1691.62
242.68	1710.05
242.89	1826.79
243.11	1755.11
243.33	1716.20
243.55	1640.42
243.76	1746.92
243.98	1644.52
244.20	1751.01
244.42	1703.91
244.64	1740.77
244.85	1658.85
245.07	1644.52
245.29	1730.53
245.51	1630.18
245.72	1712.10
245.94	1775.59
246.16	1777.64
246.38	1605.61
246.59	1646.57
246.81	1607.66
247.03	1683.43
247.24	1617.90
247.46	1632.23
247.68	1714.15
247.90	1751.01
248.11	1671.14
248.33	1771.49
248.55	1746.92
248.77	1722.34
248.98	1806.31
249.20	1804.26
249.42	1640.42
249.64	1701.86
249.85	1712.10
250.07	1638.38
250.29	1810.40
250.50	1785.83
250.72	1597.42
250.94	1632.23
251.16	1832.93
251.37	1832.93
251.59	1763.30
251.81	1681.38
252.02	1730.53
252.24	1701.86
252.46	1796.07
252.68	1677.29
252.89	1687.53
253.11	1507.30
253.33	1861.60
253.54	1734.63
253.76	1611.75
253.98	1679.33
254.20	1689.57
254.41	1587.18
254.63	1699.81
254.85	1644.52
255.06	1755.11
255.28	1654.76
255.50	1705.96
255.71	1589.22
255.93	1597.42
256.15	1642.47
256.36	1691.62
256.58	1648.61
256.80	1693.67
257.02	1626.09
257.23	1738.73
257.45	1683.43
257.67	1806.31
257.88	1597.42
258.10	1726.44
258.32	1716.20
258.53	1656.81
258.75	1771.49
258.97	1708.01
259.18	1628.14
259.40	1720.29
259.62	1808.36
259.83	1791.97
260.05	1794.02
260.27	1976.29
260.48	1767.40
260.70	1697.77
260.92	1718.25
261.13	1699.81
261.35	1679.33
261.57	1804.26
261.78	1630.18
262.00	1648.61
262.22	1660.90
262.43	1658.85
262.65	1677.29
262.86	1640.42
263.08	1832.93
263.30	1718.25
263.51	1558.50
263.73	1605.61
263.95	1708.01
264.16	1624.04
264.38	1671.14
264.60	1744.87
264.81	1665.00
265.03	1714.15
265.25	1759.21
265.46	1722.34
265.68	1779.68
265.89	1814.50
266.11	1660.90
266.33	1757.16
266.54	1726.44
266.76	1687.53
266.98	1722.34
267.19	1777.64
267.41	1712.10
267.62	1679.33
267.84	1669.09
268.06	1751.01
268.27	1679.33
268.49	1757.16
268.70	1689.57
268.92	1677.29
269.14	1599.46
269.35	1628.14
269.57	1595.37
269.79	1708.01
270.00	1603.56
270.22	1753.06
270.43	1581.03
270.65	1554.41
270.87	1689.57
271.08	1738.73
271.30	1742.82
271.51	1689.57
271.73	1662.95
271.95	1814.50
272.16	1689.57
272.38	1697.77
272.59	1632.23
272.81	1761.25
273.02	1640.42
273.24	1783.78
273.46	1734.63
273.67	1679.33
273.89	1658.85
274.10	1654.76
274.32	1710.05
274.54	1656.81
274.75	1671.14
274.97	1656.81
275.18	1726.44
275.40	1716.20
275.61	1724.39
275.83	1695.72
276.05	1640.42
276.26	1689.57
276.48	1697.77
276.69	1685.48
276.91	1658.85
277.12	1775.59
277.34	1734.63
277.55	1759.21
277.77	1730.53
277.99	1603.56
278.20	1675.24
278.42	1677.29
278.63	1603.56
278.85	1589.22
279.06	1658.85
279.28	1681.38
279.49	1804.26
279.71	1746.92
279.93	1732.58
280.14	1685.48
280.36	1648.61
280.57	1667.05
280.79	1744.87
281.00	1681.38
281.22	1660.90
281.43	1826.79
281.65	1607.66
281.86	1689.57
282.08	1755.11
282.29	1667.05
282.51	1636.33
282.73	1624.04
282.94	1679.33
283.16	1693.67
283.37	1777.64
283.59	1718.25
283.80	1632.23
284.02	1669.09
284.23	1718.25
284.45	1615.85
284.66	1619.94
284.88	1648.61
285.09	1740.77
285.31	1730.53
285.52	1763.30
285.74	1607.66
285.95	1701.86
286.17	1677.29
286.38	1656.81
286.60	1642.47
286.81	1701.86
287.03	1699.81
287.24	1712.10
287.46	1781.73
287.67	1736.68
287.89	1845.22
288.10	1656.81
288.32	1714.15
288.53	1761.25
288.75	1724.39
288.96	1744.87
289.18	1650.66
289.39	1628.14
289.61	1665.00
289.82	1828.84
290.04	1869.80
290.25	1621.99
290.47	1716.20
290.68	1669.09
290.90	1769.44
291.11	1572.84
291.33	1734.63
291.54	1730.53
291.76	1648.61
291.97	1744.87
292.18	1791.97
292.40	1624.04
292.61	1621.99
292.83	1871.84
293.04	1753.06
293.26	1689.57
293.47	1656.81
293.69	1603.56
293.90	1710.05
294.12	1810.40
294.33	1738.73
294.55	1683.43
294.76	1753.06
294.97	1767.40
295.19	1808.36
295.40	1673.19
295.62	1681.38
295.83	1736.68
296.05	1689.57
296.26	1777.64
296.48	1593.32
296.69	1662.95
296.90	1697.77
297.12	1658.85
297.33	1765.35
297.55	1673.19
297.76	1689.57
297.98	1755.11
298.19	1726.44
298.41	1662.95
298.62	1669.09
298.83	1767.40
299.05	1648.61
299.26	1716.20
299.48	1687.53
299.69	1697.77
299.90	1689.57
300.12	1726.44
300.33	1689.57
300.55	1724.39
300.76	1755.11
300.98	1595.37
301.19	1738.73
301.40	1699.81
301.62	1748.97
301.83	1718.25
302.05	1679.33
302.26	1687.53
302.47	1685.48
302.69	1679.33
302.90	1673.19
303.12	1583.08
303.33	1697.77
303.54	1804.26
303.76	1732.58
303.97	1695.72
304.19	1753.06
304.40	1658.85
304.61	1755.11
304.83	1800.16
305.04	1740.77
305.26	1740.77
305.47	1636.33
305.68	1644.52
305.90	1646.57
306.11	1781.73
306.33	1732.58
306.54	1673.19
306.75	1609.70
306.97	1621.99
307.18	1585.13
307.39	1669.09
307.61	1755.11
307.82	1705.96
308.04	1685.48
308.25	1648.61
308.46	1689.57
308.68	1759.21
308.89	1771.49
309.10	1763.30
309.32	1736.68
309.53	1677.29
309.74	1642.47
309.96	1656.81
310.17	1777.64
310.39	1710.05
310.60	1683.43
310.81	1712.10
311.03	1683.43
311.24	1746.92
311.45	1742.82
311.67	1808.36
311.88	1644.52
312.09	1630.18
312.31	1695.72
312.52	1785.83
312.73	1585.13
312.95	1599.46
313.16	1593.32
313.37	1820.64
313.59	1675.24
313.80	1761.25
314.01	1830.88
314.23	1621.99
314.44	1777.64
314.65	1630.18
314.87	1656.81
315.08	1699.81
315.29	1683.43
315.51	1638.38
315.72	1619.94
315.93	1800.16
316.15	1695.72
316.36	1681.38
316.57	1738.73
316.79	1738.73
317.00	1662.95
317.21	1775.59
317.43	1732.58
317.64	1779.68
317.85	1732.58
318.07	1734.63
318.28	1730.53
318.49	1787.88
318.70	1837.03
318.92	1771.49
319.13	1820.64
319.34	1886.18
319.56	1796.07
319.77	1730.53
319.98	1753.06
320.20	1765.35
320.41	1714.15
320.62	1740.77
320.83	1611.75
321.05	1818.60
321.26	1714.15
321.47	1658.85
321.69	1740.77
321.90	1609.70
322.11	1677.29
322.32	1722.34
322.54	1841.12
322.75	1677.29
322.96	1773.54
323.18	1587.18
323.39	1673.19
323.60	1607.66
323.81	1748.97
324.03	1595.37
324.24	1697.77
324.45	1613.80
324.66	1695.72
324.88	1716.20
325.09	1781.73
325.30	1759.21
325.52	1738.73
325.73	1679.33
325.94	1640.42
326.15	1644.52
326.37	1685.48
326.58	1746.92
326.79	1853.41
327.00	1597.42
327.22	1771.49
327.43	1701.86
327.64	1665.00
327.85	1759.21
328.07	1689.57
328.28	1816.55
328.49	1744.87
328.70	1687.53
328.92	1619.94
329.13	1728.49
329.34	1697.77
329.55	1746.92
329.76	1660.90
329.98	1734.63
330.19	1695.72
330.40	1693.67
330.61	1804.26
330.83	1744.87
331.04	1652.71
331.25	1744.87
331.46	1714.15
331.68	1550.31
331.89	1667.05
332.10	1712.10
332.31	1587.18
332.52	1783.78
332.74	1828.84
332.95	1619.94
333.16	1677.29
333.37	1691.62
333.58	1718.25
333.80	1757.16
334.01	1632.23
334.22	1693.67
334.43	1691.62
334.64	1660.90
334.86	1650.66
335.07	1656.81
335.28	1785.83
335.49	1619.94
335.70	1712.10
335.92	1724.39
336.13	1773.54
336.34	1665.00
336.55	1617.90
336.76	1755.11
336.98	1621.99
337.19	1660.90
337.40	1753.06
337.61	1976.29
337.82	1652.71
338.04	1779.68
338.25	1619.94
338.46	1683.43
338.67	1689.57
338.88	1605.61
339.09	1642.47
339.31	1640.42
339.52	1634.28
339.73	1683.43
339.94	1722.34
340.15	1740.77
340.36	1658.85
340.58	1685.48
340.79	1646.57
341.00	1722.34
341.21	1710.05
341.42	1822.69
341.63	1658.85
341.85	1740.77
342.06	1730.53
342.27	1644.52
342.48	1718.25
342.69	1624.04
342.90	1695.72
343.12	1794.02
343.33	1640.42
343.54	1781.73
343.75	1736.68
343.96	1597.42
344.17	1662.95
344.38	1685.48
344.60	1638.38
344.81	1665.00
345.02	1669.09
345.23	1822.69
345.44	1755.11
345.65	1763.30
345.86	1722.34
346.07	1617.90
346.29	1712.10
346.50	1718.25
346.71	1718.25
346.92	1773.54
347.13	1824.74
347.34	1734.63
347.55	1665.00
347.76	1673.19
347.98	1607.66
348.19	1667.05
348.40	1755.11
348.61	1693.67
348.82	1705.96
349.03	1703.91
349.24	1687.53
349.45	1796.07
349.66	1568.74
349.88	1726.44
350.09	1742.82
350.30	1841.12
350.51	1847.27
350.72	1767.40
350.93	1714.15
351.14	1720.29
351.35	1748.97
351.56	1714.15
351.77	1712.10
351.99	1755.11
352.20	1843.17
352.41	1693.67
352.62	1644.52
352.83	1736.68
353.04	1646.57
353.25	1695.72
353.46	1783.78
353.67	1777.64
353.88	1607.66
354.09	1658.85
354.30	1699.81
354.52	1669.09
354.73	1697.77
354.94	1703.91
355.15	1665.00
355.36	1734.63
355.57	1650.66
355.78	1718.25
355.99	1722.34
356.20	1744.87
356.41	1753.06
356.62	1746.92
356.83	1650.66
357.04	1732.58
357.25	1648.61
357.46	1705.96
357.68	1681.38
357.89	1665.00
358.10	1691.62
358.31	1734.63
358.52	1693.67
358.73	1570.79
358.94	1574.89
359.15	1685.48
359.36	1765.35
359.57	1615.85
359.78	1730.53
359.99	1759.21
360.20	1708.01
360.41	1665.00
360.62	1746.92
360.83	1710.05
361.04	1665.00
361.25	1753.06
361.46	1834.98
361.67	1744.87
361.88	1779.68
362.09	1736.68
362.30	1724.39
362.51	1597.42
362.72	1689.57
362.93	1738.73
363.14	1775.59
363.35	1679.33
363.56	1634.28
363.78	1763.30
363.99	1720.29
364.20	1683.43
364.41	1617.90
364.62	1740.77
364.83	1693.67
365.04	1748.97
365.25	1691.62
365.46	1748.97
365.67	1691.62
365.88	1615.85
366.09	1673.19
366.30	1697.77
366.51	1681.38
366.72	1669.09
366.93	1726.44
367.14	1693.67
367.35	1746.92
367.56	1599.46
367.77	1837.03
367.98	1789.92
368.18	1636.33
368.39	1746.92
368.60	1603.56
368.81	1751.01
369.02	1650.66
369.23	1603.56
369.44	1615.85
369.65	1687.53
369.86	1738.73
370.07	1761.25
370.28	1634.28
370.49	1734.63
370.70	1714.15
370.91	1574.89
371.12	1558.50
371.33	1736.68
371.54	1724.39
371.75	1871.84
371.96	1621.99
372.17	1767.40
372.38	1724.39
372.59	1841.12
372.80	1691.62
373.01	1759.21
373.22	1687.53
373.43	1755.11
373.64	1673.19
373.85	1796.07
374.06	1800.16
374.26	1800.16
374.47	1679.33
374.68	1759.21
374.89	1693.67
375.10	1714.15
375.31	1710.05
375.52	1677.29
375.73	1734.63
375.94	1699.81
376.15	1761.25
376.36	1640.42
376.57	1640.42
376.78	1691.62
376.99	1650.66
377.20	1771.49
377.40	1732.58
377.61	1851.36
377.82	1738.73
378.03	1837.03
378.24	1730.53
378.45	1755.11
378.66	1693.67
378.87	1566.70
379.08	1644.52
379.29	1697.77
379.50	1791.97
379.71	1693.67
379.91	1691.62
380.12	1683.43
380.33	1691.62
380.54	1677.29
380.75	1632.23
380.96	1624.04
381.17	1757.16
381.38	1683.43
381.59	1730.53
381.80	1732.58
382.00	1798.12
382.21	1781.73
382.42	1787.88
382.63	1875.94
382.84	1763.30
383.05	1826.79
383.26	1810.40
383.47	1779.68
383.68	1755.11
383.88	1710.05
384.09	1648.61
384.30	1812.45
384.51	1687.53
384.72	1703.91
384.93	1644.52
385.14	1654.76
385.35	1732.58
385.55	1619.94
385.76	1816.55
385.97	1710.05
386.18	1710.05
386.39	1640.42
386.60	1697.77
386.81	1648.61
387.02	1693.67
387.22	1601.51
387.43	1777.64
387.64	1734.63
387.85	1824.74
388.06	2248.67
388.27	4210.62
388.48	6756.25
388.68	8195.97
388.89	9711.47
389.10	9641.84
389.31	8435.58
389.52	7534.48
389.73	6573.98
389.93	6170.53
390.14	5728.17
390.35	5289.90
390.56	4521.92
390.77	3770.31
390.98	3037.14
391.18	2463.71
391.39	2123.74
391.60	1871.84
391.81	1855.46
392.02	1708.01
392.23	1849.32
392.43	1855.46
392.64	1753.06
392.85	1697.77
393.06	1816.55
393.27	1695.72
393.47	1650.66
393.68	1708.01
393.89	1667.05
394.10	1822.69
394.31	1679.33
394.52	1638.38
394.72	1667.05
394.93	1808.36
395.14	1613.80
395.35	1767.40
395.56	1710.05
395.76	1730.53
395.97	1845.22
396.18	1822.69
396.39	1812.45
396.60	1968.10
396.80	1898.47
397.01	1810.40
397.22	1783.78
397.43	1853.41
397.64	1689.57
397.84	1830.88
398.05	1826.79
398.26	1791.97
398.47	1703.91
398.67	1802.21
398.88	1738.73
399.09	1789.92
399.30	1726.44
399.51	1740.77
399.71	1679.33
399.92	1658.85
400.13	1771.49
400.34	1714.15
400.54	1718.25
400.75	1751.01
400.96	1685.48
401.17	1779.68
401.37	1695.72
401.58	1716.20
401.79	1646.57
402.00	1884.13
402.21	2023.39
402.41	1947.62
402.62	1953.76
402.83	2060.26
403.04	2007.01
403.24	2004.96
403.45	1824.74
403.66	1931.23
403.87	1847.27
404.07	1849.32
404.28	1900.52
404.49	1884.13
404.70	1818.60
404.90	1798.12
405.11	1728.49
405.32	1699.81
405.52	1689.57
405.73	1574.89
405.94	1693.67
406.15	1771.49
406.35	1660.90
406.56	1789.92
406.77	1738.73
406.98	1767.40
407.18	1697.77
407.39	1755.11
407.60	1689.57
407.80	1665.00
408.01	1669.09
408.22	1732.58
408.43	1626.09
408.63	1746.92
408.84	1728.49
409.05	1726.44
409.25	1683.43
409.46	1624.04
409.67	1662.95
409.88	1734.63
410.08	1746.92
410.29	1665.00
410.50	1828.84
410.70	1732.58
410.91	1617.90
411.12	1775.59
411.32	1724.39
411.53	1687.53
411.74	1826.79
411.95	1787.88
412.15	1781.73
412.36	1748.97
412.57	1781.73
412.77	1775.59
412.98	1746.92
413.19	1673.19
413.39	1820.64
413.60	1691.62
413.81	1740.77
414.01	1671.14
414.22	1746.92
414.43	1710.05
414.63	1769.44
414.84	1773.54
415.05	1753.06
415.25	1581.03
415.46	1771.49
415.67	1658.85
415.87	1673.19
416.08	1656.81
416.29	1710.05
416.49	1751.01
416.70	1726.44
416.91	1593.32
417.11	1710.05
417.32	1675.24
417.53	1740.77
417.73	1753.06
417.94	1683.43
418.15	1660.90
418.35	1753.06
418.56	1767.40
418.77	1824.74
418.97	1695.72
419.18	1673.19
419.38	1628.14
419.59	1689.57
419.80	1822.69
420.00	1736.68
420.21	1697.77
420.42	1679.33
420.62	1722.34
420.83	1648.61
421.04	1634.28
421.24	1726.44
421.45	1716.20
421.65	1673.19
421.86	1744.87
422.07	1697.77
422.27	1800.16
422.48	1716.20
422.69	1681.38
422.89	1773.54
423.10	1669.09
423.30	1660.90
423.51	1708.01
423.72	1708.01
423.92	1775.59
424.13	1576.94
424.33	1679.33
424.54	1708.01
424.75	1794.02
424.95	1865.70
425.16	1728.49
425.36	1660.90
425.57	1755.11
425.78	1757.16
425.98	1748.97
426.19	1697.77
426.39	1583.08
426.60	1746.92
426.81	1769.44
427.01	1751.01
427.22	1628.14
427.42	1566.70
427.63	1624.04
427.83	1759.21
428.04	1785.83
428.25	1751.01
428.45	1837.03
428.66	1734.63
428.86	1708.01
429.07	1693.67
429.28	1689.57
429.48	1689.57
429.69	1673.19
429.89	1656.81
430.10	1646.57
430.30	1794.02
430.51	1746.92
430.71	1640.42
430.92	1767.40
431.13	1695.72
431.33	1689.57
431.54	1703.91
431.74	1789.92
431.95	1857.51
432.15	1599.46
432.36	1738.73
432.56	1656.81
432.77	1796.07
432.98	1777.64
433.18	1701.86
433.39	1738.73
433.59	1691.62
433.80	1839.08
434.00	1859.56
434.21	1716.20
434.41	1640.42
434.62	1740.77
434.82	1638.38
435.03	1626.09
435.23	1755.11
435.44	1617.90
435.64	1755.11
435.85	1654.76
436.06	1757.16
436.26	1734.63
436.47	1699.81
436.67	1675.24
436.88	1677.29
437.08	1763.30
437.29	1837.03
437.49	1775.59
437.70	1714.15
437.90	1705.96
438.11	1849.32
438.31	1771.49
438.52	1775.59
438.72	1822.69
438.93	1859.56
439.13	1763.30
439.34	1826.79
439.54	1765.35
439.75	1714.15
439.95	1804.26
440.16	1710.05
440.36	1746.92
440.57	1740.77
440.77	1759.21
440.98	1681.38
441.18	1738.73
441.39	1662.95
441.59	1648.61
441.80	1812.45
442.00	1755.11
442.21	1779.68
442.41	1720.29
442.62	1746.92
442.82	1787.88
443.02	1777.64
443.23	1769.44
443.43	1640.42
443.64	1775.59
443.84	1658.85
444.05	1773.54
444.25	1736.68
444.46	1742.82
444.66	1650.66
444.87	1818.60
445.07	1708.01
445.28	1720.29
445.48	1839.08
445.69	1767.40
445.89	1841.12
446.09	1722.34
446.30	2039.78
446.50	2658.26
446.71	3655.62
446.91	4200.38
447.12	4708.28
447.32	4663.22
447.53	4335.55
447.73	3821.51
447.93	3391.44
448.14	3231.69
448.34	3248.08
448.55	2850.77
448.75	2922.45
448.96	2645.98
449.16	2379.74
449.36	2279.39
449.57	2068.45
449.77	1804.26
449.98	1822.69
450.18	1781.73
450.39	1830.88
450.59	1775.59
450.79	1781.73
451.00	1738.73
451.20	1781.73
451.41	1705.96
451.61	1738.73
451.81	1761.25
452.02	1722.34
452.22	1648.61
452.43	1722.34
452.63	1687.53
