SpectraSuite Data File
++++++++++++++++++++++++++++++++++++
Date: Mon Jun 06 15:32:57 CEST 2016
User: root
Dark Spectrum Present: No
Reference Spectrum Present: No
Number of Sampled Component Spectra: 1
Spectrometers: USB4C02835
Integration Time (usec): 100000 (USB4C02835)
Spectra Averaged: 1 (USB4C02835)
Boxcar Smoothing: 0 (USB4C02835)
Correct for Electrical Dark: No (USB4C02835)
Strobe/Lamp Enabled: No (USB4C02835)
Correct for Detector Non-linearity: No (USB4C02835)
Correct for Stray Light: No (USB4C02835)
Number of Pixels in Processed Spectrum: 3648
>>>>>Begin Processed Spectral Data<<<<<
177.47	1505.26
177.69	1505.26
177.91	1505.26
178.13	1464.30
178.36	1445.87
178.58	1691.62
178.80	1794.02
179.02	1665.00
179.24	1632.23
179.46	1681.38
179.68	1691.62
179.90	1712.10
180.13	1677.29
180.35	1687.53
180.57	1687.53
180.79	1779.68
181.01	1705.96
181.23	1761.25
181.45	1787.88
181.67	1693.67
181.90	1791.97
182.12	1660.90
182.34	1638.38
182.56	1734.63
182.78	1746.92
183.00	1746.92
183.22	1775.59
183.44	1615.85
183.66	1863.65
183.89	1812.45
184.11	1740.77
184.33	1724.39
184.55	1808.36
184.77	1757.16
184.99	1691.62
185.21	1705.96
185.43	1861.60
185.65	1689.57
185.87	1689.57
186.10	1837.03
186.32	1898.47
186.54	1673.19
186.76	1699.81
186.98	1757.16
187.20	1710.05
187.42	1736.68
187.64	1714.15
187.86	1681.38
188.08	1841.12
188.30	1671.14
188.52	1722.34
188.75	1748.97
188.97	1812.45
189.19	1648.61
189.41	1640.42
189.63	1732.58
189.85	1730.53
190.07	1613.80
190.29	1630.18
190.51	1662.95
190.73	1658.85
190.95	1742.82
191.17	1730.53
191.39	1705.96
191.61	1619.94
191.84	1660.90
192.06	1734.63
192.28	1615.85
192.50	1914.85
192.72	1687.53
192.94	1718.25
193.16	1734.63
193.38	1783.78
193.60	1693.67
193.82	1740.77
194.04	1804.26
194.26	1703.91
194.48	1665.00
194.70	1673.19
194.92	1683.43
195.14	1724.39
195.36	1726.44
195.58	1718.25
195.80	1681.38
196.02	1683.43
196.24	1665.00
196.46	1724.39
196.69	1695.72
196.91	1853.41
197.13	1699.81
197.35	1712.10
197.57	1902.56
197.79	1798.12
198.01	1789.92
198.23	1783.78
198.45	1783.78
198.67	1673.19
198.89	1718.25
199.11	1781.73
199.33	1720.29
199.55	1605.61
199.77	1687.53
199.99	1781.73
200.21	1609.70
200.43	1669.09
200.65	1652.71
200.87	1609.70
201.09	1744.87
201.31	1734.63
201.53	1759.21
201.75	1757.16
201.97	1755.11
202.19	1722.34
202.41	1748.97
202.63	1822.69
202.85	1773.54
203.07	1730.53
203.29	1677.29
203.51	1714.15
203.73	1689.57
203.95	1968.10
204.17	1673.19
204.39	1800.16
204.61	1667.05
204.83	1691.62
205.05	1775.59
205.27	1767.40
205.49	1861.60
205.71	1714.15
205.93	1675.24
206.15	1665.00
206.37	1677.29
206.59	1675.24
206.81	1642.47
207.03	1662.95
207.25	1640.42
207.47	1810.40
207.69	1687.53
207.91	1804.26
208.13	1767.40
208.34	1763.30
208.56	1744.87
208.78	1675.24
209.00	1648.61
209.22	1718.25
209.44	1716.20
209.66	1673.19
209.88	1689.57
210.10	1724.39
210.32	1687.53
210.54	1753.06
210.76	1683.43
210.98	1759.21
211.20	1638.38
211.42	1628.14
211.64	1751.01
211.86	1691.62
212.08	1677.29
212.30	1738.73
212.52	1699.81
212.74	1652.71
212.96	1693.67
213.17	1755.11
213.39	1708.01
213.61	1818.60
213.83	1791.97
214.05	1671.14
214.27	1769.44
214.49	1671.14
214.71	1720.29
214.93	1720.29
215.15	1718.25
215.37	1812.45
215.59	1634.28
215.81	1726.44
216.03	1845.22
216.24	1765.35
216.46	1621.99
216.68	1697.77
216.90	1861.60
217.12	1773.54
217.34	1787.88
217.56	1732.58
217.78	1726.44
218.00	1820.64
218.22	1705.96
218.44	1755.11
218.66	1677.29
218.87	1777.64
219.09	1720.29
219.31	1751.01
219.53	1748.97
219.75	1699.81
219.97	1628.14
220.19	1785.83
220.41	1701.86
220.63	1820.64
220.85	1761.25
221.06	1699.81
221.28	1867.75
221.50	1732.58
221.72	1751.01
221.94	1697.77
222.16	1767.40
222.38	1763.30
222.60	1687.53
222.82	1693.67
223.03	1789.92
223.25	1722.34
223.47	1667.05
223.69	1853.41
223.91	1761.25
224.13	1648.61
224.35	1722.34
224.57	1779.68
224.78	1773.54
225.00	1654.76
225.22	1656.81
225.44	1611.75
225.66	1726.44
225.88	1628.14
226.10	1748.97
226.32	1714.15
226.53	1724.39
226.75	1677.29
226.97	1740.77
227.19	1722.34
227.41	1685.48
227.63	1724.39
227.85	1634.28
228.06	1789.92
228.28	1648.61
228.50	1779.68
228.72	1589.22
228.94	1667.05
229.16	1634.28
229.37	1597.42
229.59	1687.53
229.81	1855.46
230.03	1726.44
230.25	1656.81
230.47	1703.91
230.69	1572.84
230.90	1796.07
231.12	1667.05
231.34	1751.01
231.56	1763.30
231.78	1675.24
232.00	1685.48
232.21	1724.39
232.43	1662.95
232.65	1703.91
232.87	1748.97
233.09	1636.33
233.30	1693.67
233.52	1767.40
233.74	1724.39
233.96	1669.09
234.18	1732.58
234.40	1636.33
234.61	1873.89
234.83	1650.66
235.05	1660.90
235.27	1853.41
235.49	1757.16
235.70	1677.29
235.92	1763.30
236.14	1800.16
236.36	1849.32
236.58	1650.66
236.79	1746.92
237.01	1724.39
237.23	1667.05
237.45	1794.02
237.67	1628.14
237.88	1763.30
238.10	1826.79
238.32	1742.82
238.54	1710.05
238.76	1718.25
238.97	1673.19
239.19	1644.52
239.41	1763.30
239.63	1798.12
239.85	1687.53
240.06	1730.53
240.28	1691.62
240.50	1740.77
240.72	1732.58
240.93	1716.20
241.15	1742.82
241.37	1759.21
241.59	1802.21
241.81	1677.29
242.02	1689.57
242.24	1742.82
242.46	1710.05
242.68	1669.09
242.89	1740.77
243.11	1697.77
243.33	1701.86
243.55	1763.30
243.76	1773.54
243.98	1697.77
244.20	1781.73
244.42	1716.20
244.64	1697.77
244.85	1693.67
245.07	1636.33
245.29	1718.25
245.51	1730.53
245.72	1728.49
245.94	1697.77
246.16	1705.96
246.38	1771.49
246.59	1640.42
246.81	1626.09
247.03	1730.53
247.24	1619.94
247.46	1714.15
247.68	1718.25
247.90	1728.49
248.11	1648.61
248.33	1730.53
248.55	1767.40
248.77	1738.73
248.98	1769.44
249.20	1808.36
249.42	1705.96
249.64	1738.73
249.85	1689.57
250.07	1675.24
250.29	1763.30
250.50	1705.96
250.72	1585.13
250.94	1718.25
251.16	1824.74
251.37	1759.21
251.59	1759.21
251.81	1751.01
252.02	1773.54
252.24	1646.57
252.46	1769.44
252.68	1716.20
252.89	1705.96
253.11	1681.38
253.33	1828.84
253.54	1759.21
253.76	1624.04
253.98	1624.04
254.20	1691.62
254.41	1619.94
254.63	1644.52
254.85	1607.66
255.06	1732.58
255.28	1746.92
255.50	1665.00
255.71	1656.81
255.93	1578.98
256.15	1699.81
256.36	1765.35
256.58	1708.01
256.80	1781.73
257.02	1753.06
257.23	1751.01
257.45	1728.49
257.67	1732.58
257.88	1769.44
258.10	1712.10
258.32	1708.01
258.53	1812.45
258.75	1773.54
258.97	1738.73
259.18	1779.68
259.40	1738.73
259.62	1837.03
259.83	1814.50
260.05	1765.35
260.27	2029.54
260.48	1710.05
260.70	1650.66
260.92	1662.95
261.13	1681.38
261.35	1687.53
261.57	1656.81
261.78	1632.23
262.00	1640.42
262.22	1751.01
262.43	1667.05
262.65	1730.53
262.86	1679.33
263.08	1851.36
263.30	1648.61
263.51	1644.52
263.73	1669.09
263.95	1748.97
264.16	1705.96
264.38	1708.01
264.60	1740.77
264.81	1603.56
265.03	1804.26
265.25	1816.55
265.46	1779.68
265.68	1716.20
265.89	1753.06
266.11	1656.81
266.33	1787.88
266.54	1834.98
266.76	1744.87
266.98	1742.82
267.19	1886.18
267.41	1693.67
267.62	1701.86
267.84	1617.90
268.06	1710.05
268.27	1665.00
268.49	1763.30
268.70	1726.44
268.92	1689.57
269.14	1708.01
269.35	1609.70
269.57	1773.54
269.79	1775.59
270.00	1689.57
270.22	1765.35
270.43	1671.14
270.65	1525.74
270.87	1775.59
271.08	1771.49
271.30	1804.26
271.51	1763.30
271.73	1736.68
271.95	1804.26
272.16	1759.21
272.38	1804.26
272.59	1687.53
272.81	1728.49
273.02	1775.59
273.24	1740.77
273.46	1771.49
273.67	1669.09
273.89	1624.04
274.10	1712.10
274.32	1773.54
274.54	1705.96
274.75	1730.53
274.97	1705.96
275.18	1744.87
275.40	1652.71
275.61	1716.20
275.83	1722.34
276.05	1644.52
276.26	1718.25
276.48	1777.64
276.69	1619.94
276.91	1714.15
277.12	1775.59
277.34	1738.73
277.55	1779.68
277.77	1732.58
277.99	1712.10
278.20	1619.94
278.42	1730.53
278.63	1652.71
278.85	1632.23
279.06	1665.00
279.28	1720.29
279.49	1708.01
279.71	1712.10
279.93	1693.67
280.14	1712.10
280.36	1607.66
280.57	1789.92
280.79	1861.60
281.00	1658.85
281.22	1611.75
281.43	1816.55
281.65	1624.04
281.86	1683.43
282.08	1701.86
282.29	1783.78
282.51	1662.95
282.73	1683.43
282.94	1617.90
283.16	1761.25
283.37	1791.97
283.59	1732.58
283.80	1728.49
284.02	1695.72
284.23	1722.34
284.45	1726.44
284.66	1734.63
284.88	1695.72
285.09	1714.15
285.31	1742.82
285.52	1730.53
285.74	1619.94
285.95	1714.15
286.17	1632.23
286.38	1722.34
286.60	1681.38
286.81	1634.28
287.03	1783.78
287.24	1665.00
287.46	1718.25
287.67	1796.07
287.89	1832.93
288.10	1755.11
288.32	1771.49
288.53	1824.74
288.75	1667.05
288.96	1796.07
289.18	1724.39
289.39	1677.29
289.61	1796.07
289.82	1812.45
290.04	1845.22
290.25	1617.90
290.47	1748.97
290.68	1728.49
290.90	1687.53
291.11	1679.33
291.33	1732.58
291.54	1720.29
291.76	1662.95
291.97	1718.25
292.18	1751.01
292.40	1621.99
292.61	1689.57
292.83	1855.46
293.04	1681.38
293.26	1734.63
293.47	1714.15
293.69	1636.33
293.90	1701.86
294.12	1677.29
294.33	1720.29
294.55	1742.82
294.76	1775.59
294.97	1802.21
295.19	1834.98
295.40	1703.91
295.62	1724.39
295.83	1781.73
296.05	1703.91
296.26	1718.25
296.48	1783.78
296.69	1748.97
296.90	1703.91
297.12	1738.73
297.33	1734.63
297.55	1798.12
297.76	1753.06
297.98	1712.10
298.19	1755.11
298.41	1650.66
298.62	1759.21
298.83	1802.21
299.05	1718.25
299.26	1708.01
299.48	1732.58
299.69	1800.16
299.90	1722.34
300.12	1748.97
300.33	1822.69
300.55	1734.63
300.76	1769.44
300.98	1685.48
301.19	1769.44
301.40	1685.48
301.62	1685.48
301.83	1658.85
302.05	1726.44
302.26	1695.72
302.47	1712.10
302.69	1703.91
302.90	1738.73
303.12	1634.28
303.33	1761.25
303.54	1785.83
303.76	1722.34
303.97	1718.25
304.19	1740.77
304.40	1730.53
304.61	1740.77
304.83	1880.04
305.04	1804.26
305.26	1697.77
305.47	1648.61
305.68	1712.10
305.90	1671.14
306.11	1759.21
306.33	1734.63
306.54	1744.87
306.75	1673.19
306.97	1611.75
307.18	1671.14
307.39	1736.68
307.61	1734.63
307.82	1601.51
308.04	1802.21
308.25	1697.77
308.46	1705.96
308.68	1630.18
308.89	1787.88
309.10	1755.11
309.32	1710.05
309.53	1724.39
309.74	1701.86
309.96	1703.91
310.17	1791.97
310.39	1576.94
310.60	1755.11
310.81	1716.20
311.03	1697.77
311.24	1748.97
311.45	1736.68
311.67	1855.46
311.88	1718.25
312.09	1656.81
312.31	1732.58
312.52	1669.09
312.73	1703.91
312.95	1632.23
313.16	1640.42
313.37	1763.30
313.59	1785.83
313.80	1726.44
314.01	1847.27
314.23	1703.91
314.44	1732.58
314.65	1642.47
314.87	1708.01
315.08	1738.73
315.29	1718.25
315.51	1662.95
315.72	1710.05
315.93	1806.31
316.15	1816.55
316.36	1697.77
316.57	1646.57
316.79	1708.01
317.00	1763.30
317.21	1671.14
317.43	1685.48
317.64	1738.73
317.85	1701.86
318.07	1650.66
318.28	1787.88
318.49	1841.12
318.70	1943.52
318.92	1816.55
319.13	1802.21
319.34	1841.12
319.56	1796.07
319.77	1822.69
319.98	1814.50
320.20	1746.92
320.41	1699.81
320.62	1789.92
320.83	1718.25
321.05	1857.51
321.26	1794.02
321.47	1753.06
321.69	1828.84
321.90	1665.00
322.11	1746.92
322.32	1712.10
322.54	1796.07
322.75	1648.61
322.96	1812.45
323.18	1644.52
323.39	1632.23
323.60	1642.47
323.81	1695.72
324.03	1689.57
324.24	1714.15
324.45	1738.73
324.66	1701.86
324.88	1808.36
325.09	1806.31
325.30	1679.33
325.52	1730.53
325.73	1703.91
325.94	1724.39
326.15	1640.42
326.37	1665.00
326.58	1748.97
326.79	1804.26
327.00	1652.71
327.22	1746.92
327.43	1693.67
327.64	1650.66
327.85	1738.73
328.07	1734.63
328.28	1808.36
328.49	1667.05
328.70	1675.24
328.92	1681.38
329.13	1675.24
329.34	1789.92
329.55	1710.05
329.76	1748.97
329.98	1683.43
330.19	1841.12
330.40	1705.96
330.61	1820.64
330.83	1828.84
331.04	1681.38
331.25	1716.20
331.46	1675.24
331.68	1691.62
331.89	1771.49
332.10	1767.40
332.31	1660.90
332.52	1710.05
332.74	1830.88
332.95	1619.94
333.16	1724.39
333.37	1724.39
333.58	1693.67
333.80	1726.44
334.01	1560.55
334.22	1660.90
334.43	1695.72
334.64	1699.81
334.86	1685.48
335.07	1669.09
335.28	1839.08
335.49	1658.85
335.70	1730.53
335.92	1730.53
336.13	1865.70
336.34	1742.82
336.55	1685.48
336.76	1753.06
336.98	1644.52
337.19	1726.44
337.40	1816.55
337.61	1900.52
337.82	1693.67
338.04	1746.92
338.25	1595.37
338.46	1718.25
338.67	1732.58
338.88	1699.81
339.09	1642.47
339.31	1685.48
339.52	1679.33
339.73	1656.81
339.94	1763.30
340.15	1642.47
340.36	1652.71
340.58	1703.91
340.79	1695.72
341.00	1806.31
341.21	1681.38
341.42	1871.84
341.63	1703.91
341.85	1773.54
342.06	1671.14
342.27	1703.91
342.48	1783.78
342.69	1675.24
342.90	1681.38
343.12	1769.44
343.33	1681.38
343.54	1732.58
343.75	1808.36
343.96	1662.95
344.17	1656.81
344.38	1705.96
344.60	1624.04
344.81	1691.62
345.02	1724.39
345.23	1769.44
345.44	1824.74
345.65	1759.21
345.86	1673.19
346.07	1738.73
346.29	1648.61
346.50	1701.86
346.71	1740.77
346.92	1777.64
347.13	1871.84
347.34	1710.05
347.55	1814.50
347.76	1722.34
347.98	1701.86
348.19	1710.05
348.40	1785.83
348.61	1728.49
348.82	1787.88
349.03	1794.02
349.24	1652.71
349.45	1777.64
349.66	1540.07
349.88	1738.73
350.09	1687.53
350.30	1757.16
350.51	1816.55
350.72	1652.71
350.93	1744.87
351.14	1730.53
351.35	1744.87
351.56	1685.48
351.77	1644.52
351.99	1742.82
352.20	1841.12
352.41	1757.16
352.62	1533.93
352.83	1710.05
353.04	1669.09
353.25	1734.63
353.46	1755.11
353.67	1742.82
353.88	1613.80
354.09	1740.77
354.30	1742.82
354.52	1777.64
354.73	1679.33
354.94	1650.66
355.15	1787.88
355.36	1826.79
355.57	1660.90
355.78	1673.19
355.99	1736.68
356.20	1615.85
356.41	1851.36
356.62	1751.01
356.83	1726.44
357.04	1822.69
357.25	1636.33
357.46	1753.06
357.68	1589.22
357.89	1621.99
358.10	1687.53
358.31	1720.29
358.52	1769.44
358.73	1654.76
358.94	1722.34
359.15	1613.80
359.36	1726.44
359.57	1640.42
359.78	1642.47
359.99	1681.38
360.20	1724.39
360.41	1746.92
360.62	1830.88
360.83	1681.38
361.04	1724.39
361.25	1728.49
361.46	1789.92
361.67	1753.06
361.88	1708.01
362.09	1779.68
362.30	1697.77
362.51	1693.67
362.72	1767.40
362.93	1781.73
363.14	1785.83
363.35	1640.42
363.56	1675.24
363.78	1722.34
363.99	1740.77
364.20	1755.11
364.41	1773.54
364.62	1783.78
364.83	1757.16
365.04	1677.29
365.25	1728.49
365.46	1781.73
365.67	1662.95
365.88	1658.85
366.09	1673.19
366.30	1574.89
366.51	1681.38
366.72	1650.66
366.93	1738.73
367.14	1755.11
367.35	1787.88
367.56	1722.34
367.77	1869.80
367.98	1724.39
368.18	1716.20
368.39	1615.85
368.60	1689.57
368.81	1744.87
369.02	1804.26
369.23	1746.92
369.44	1642.47
369.65	1710.05
369.86	1738.73
370.07	1785.83
370.28	1671.14
370.49	1742.82
370.70	1746.92
370.91	1677.29
371.12	1660.90
371.33	1712.10
371.54	1728.49
371.75	1794.02
371.96	1593.32
372.17	1648.61
372.38	1738.73
372.59	1720.29
372.80	1761.25
373.01	1744.87
373.22	1722.34
373.43	1777.64
373.64	1683.43
373.85	1753.06
374.06	1808.36
374.26	1708.01
374.47	1775.59
374.68	1767.40
374.89	1724.39
375.10	1669.09
375.31	1802.21
375.52	1632.23
375.73	1640.42
375.94	1738.73
376.15	1812.45
376.36	1712.10
376.57	1648.61
376.78	1724.39
376.99	1718.25
377.20	1738.73
377.40	1701.86
377.61	1830.88
377.82	1738.73
378.03	1779.68
378.24	1779.68
378.45	1710.05
378.66	1679.33
378.87	1572.84
379.08	1626.09
379.29	1734.63
379.50	1757.16
379.71	1660.90
379.91	1769.44
380.12	1763.30
380.33	1748.97
380.54	1779.68
380.75	1671.14
380.96	1691.62
381.17	1761.25
381.38	1746.92
381.59	1757.16
381.80	1761.25
382.00	1904.61
382.21	1675.24
382.42	1941.47
382.63	1900.52
382.84	1656.81
383.05	1812.45
383.26	1806.31
383.47	1746.92
383.68	1789.92
383.88	1755.11
384.09	1796.07
384.30	1708.01
384.51	1730.53
384.72	1718.25
384.93	1667.05
385.14	1679.33
385.35	1796.07
385.55	1726.44
385.76	1771.49
385.97	1656.81
386.18	1708.01
386.39	1714.15
386.60	1644.52
386.81	1705.96
387.02	1687.53
387.22	1630.18
387.43	1843.17
387.64	1810.40
387.85	1851.36
388.06	2273.25
388.27	4263.87
388.48	6723.48
388.68	8200.07
388.89	9824.11
389.10	9801.58
389.31	8648.57
389.52	7612.30
389.73	6655.90
389.93	6406.05
390.14	5838.76
390.35	5210.03
390.56	4603.83
390.77	3657.67
390.98	2969.55
391.18	2549.72
391.39	2097.12
391.60	1828.84
391.81	1847.27
392.02	1712.10
392.23	1849.32
392.43	1703.91
392.64	1808.36
392.85	1794.02
393.06	1873.89
393.27	1710.05
393.47	1675.24
393.68	1691.62
393.89	1667.05
394.10	1789.92
394.31	1656.81
394.52	1660.90
394.72	1703.91
394.93	1714.15
395.14	1693.67
395.35	1701.86
395.56	1689.57
395.76	1748.97
395.97	1806.31
396.18	1865.70
396.39	1826.79
396.60	2023.39
396.80	1925.09
397.01	1892.32
397.22	1841.12
397.43	1841.12
397.64	1744.87
397.84	1867.75
398.05	1804.26
398.26	1744.87
398.47	1880.04
398.67	1859.56
398.88	1763.30
399.09	1791.97
399.30	1669.09
399.51	1767.40
399.71	1656.81
399.92	1765.35
400.13	1705.96
400.34	1703.91
400.54	1720.29
400.75	1798.12
400.96	1798.12
401.17	1888.23
401.37	1769.44
401.58	1753.06
401.79	1746.92
402.00	1826.79
402.21	1978.34
402.41	1998.82
402.62	1978.34
402.83	2019.30
403.04	1964.00
403.24	2117.60
403.45	1886.18
403.66	1933.28
403.87	1920.99
404.07	1953.76
404.28	1927.14
404.49	1980.39
404.70	1777.64
404.90	1757.16
405.11	1775.59
405.32	1761.25
405.52	1724.39
405.73	1646.57
405.94	1673.19
406.15	1738.73
406.35	1705.96
406.56	1869.80
406.77	1732.58
406.98	1667.05
407.18	1677.29
407.39	1708.01
407.60	1765.35
407.80	1667.05
408.01	1656.81
408.22	1669.09
408.43	1640.42
408.63	1746.92
408.84	1740.77
409.05	1806.31
409.25	1652.71
409.46	1724.39
409.67	1703.91
409.88	1650.66
410.08	1734.63
410.29	1775.59
410.50	1720.29
410.70	1701.86
410.91	1599.46
411.12	1718.25
411.32	1742.82
411.53	1626.09
411.74	1839.08
411.95	1757.16
412.15	1744.87
412.36	1798.12
412.57	1787.88
412.77	1826.79
412.98	1734.63
413.19	1726.44
413.39	1816.55
413.60	1757.16
413.81	1808.36
414.01	1626.09
414.22	1761.25
414.43	1791.97
414.63	1773.54
414.84	1767.40
415.05	1730.53
415.25	1648.61
415.46	1767.40
415.67	1767.40
415.87	1800.16
416.08	1726.44
416.29	1748.97
416.49	1767.40
416.70	1716.20
416.91	1689.57
417.11	1695.72
417.32	1775.59
417.53	1812.45
417.73	1794.02
417.94	1732.58
418.15	1787.88
418.35	1710.05
418.56	1697.77
418.77	1818.60
418.97	1677.29
419.18	1691.62
419.38	1624.04
419.59	1703.91
419.80	1820.64
420.00	1720.29
420.21	1751.01
420.42	1845.22
420.62	1722.34
420.83	1734.63
421.04	1742.82
421.24	1699.81
421.45	1755.11
421.65	1703.91
421.86	1697.77
422.07	1759.21
422.27	1660.90
422.48	1763.30
422.69	1687.53
422.89	1736.68
423.10	1697.77
423.30	1654.76
423.51	1759.21
423.72	1677.29
423.92	1785.83
424.13	1658.85
424.33	1779.68
424.54	1757.16
424.75	1746.92
424.95	1816.55
425.16	1765.35
425.36	1665.00
425.57	1718.25
425.78	1746.92
425.98	1812.45
426.19	1667.05
426.39	1689.57
426.60	1808.36
426.81	1861.60
427.01	1728.49
427.22	1689.57
427.42	1624.04
427.63	1628.14
427.83	1751.01
428.04	1828.84
428.25	1849.32
428.45	1810.40
428.66	1800.16
428.86	1712.10
429.07	1695.72
429.28	1751.01
429.48	1710.05
429.69	1689.57
429.89	1830.88
430.10	1712.10
430.30	1730.53
430.51	1802.21
430.71	1652.71
430.92	1681.38
431.13	1646.57
431.33	1746.92
431.54	1699.81
431.74	1804.26
431.95	1894.37
432.15	1701.86
432.36	1708.01
432.56	1763.30
432.77	1759.21
432.98	1882.08
433.18	1791.97
433.39	1726.44
433.59	1640.42
433.80	1806.31
434.00	1828.84
434.21	1689.57
434.41	1681.38
434.62	1812.45
434.82	1646.57
435.03	1673.19
435.23	1781.73
435.44	1597.42
435.64	1691.62
435.85	1671.14
436.06	1761.25
436.26	1849.32
436.47	1726.44
436.67	1671.14
436.88	1753.06
437.08	1789.92
437.29	1763.30
437.49	1734.63
437.70	1812.45
437.90	1732.58
438.11	1892.32
438.31	1771.49
438.52	1847.27
438.72	1853.41
438.93	1906.66
439.13	1808.36
439.34	1802.21
439.54	1787.88
439.75	1763.30
439.95	1822.69
440.16	1722.34
440.36	1730.53
440.57	1785.83
440.77	1746.92
440.98	1742.82
441.18	1755.11
441.39	1677.29
441.59	1677.29
441.80	1775.59
442.00	1724.39
442.21	1767.40
442.41	1654.76
442.62	1791.97
442.82	1673.19
443.02	1789.92
443.23	1736.68
443.43	1822.69
443.64	1751.01
443.84	1685.48
444.05	1812.45
444.25	1791.97
444.46	1755.11
444.66	1767.40
444.87	1800.16
445.07	1597.42
445.28	1730.53
445.48	1800.16
445.69	1820.64
445.89	1839.08
446.09	1724.39
446.30	2009.06
446.50	2670.55
446.71	3610.57
446.91	4265.92
447.12	4775.86
447.32	4863.93
447.53	4210.62
447.73	3823.56
447.93	3553.23
448.14	3286.99
448.34	3385.29
448.55	2932.69
448.75	2877.40
448.96	2680.79
449.16	2455.51
449.36	2267.10
449.57	1988.58
449.77	1912.80
449.98	1742.82
450.18	1732.58
450.39	1845.22
450.59	1828.84
450.79	1826.79
451.00	1751.01
451.20	1820.64
451.41	1710.05
451.61	1802.21
451.81	1759.21
452.02	1730.53
452.22	1742.82
452.43	1812.45
452.63	1726.44
