SpectraSuite Data File
++++++++++++++++++++++++++++++++++++
Date: Mon Jun 06 16:15:57 CEST 2016
User: root
Dark Spectrum Present: No
Reference Spectrum Present: No
Number of Sampled Component Spectra: 1
Spectrometers: USB4C02835
Integration Time (usec): 100000 (USB4C02835)
Spectra Averaged: 1 (USB4C02835)
Boxcar Smoothing: 0 (USB4C02835)
Correct for Electrical Dark: No (USB4C02835)
Strobe/Lamp Enabled: No (USB4C02835)
Correct for Detector Non-linearity: No (USB4C02835)
Correct for Stray Light: No (USB4C02835)
Number of Pixels in Processed Spectrum: 3648
>>>>>Begin Processed Spectral Data<<<<<
177.47	1501.16
177.69	1501.16
177.91	1501.16
178.13	1509.35
178.36	1437.67
178.58	1679.33
178.80	1738.73
179.02	1701.86
179.24	1744.87
179.46	1716.20
179.68	1787.88
179.90	1730.53
180.13	1775.59
180.35	1667.05
180.57	1779.68
180.79	1753.06
181.01	1720.29
181.23	1802.21
181.45	1800.16
181.67	1671.14
181.90	1751.01
182.12	1677.29
182.34	1624.04
182.56	1726.44
182.78	1701.86
183.00	1701.86
183.22	1644.52
183.44	1658.85
183.66	1892.32
183.89	1851.36
184.11	1708.01
184.33	1718.25
184.55	1691.62
184.77	1710.05
184.99	1697.77
185.21	1679.33
185.43	1820.64
185.65	1742.82
185.87	1677.29
186.10	1818.60
186.32	1806.31
186.54	1736.68
186.76	1779.68
186.98	1822.69
187.20	1667.05
187.42	1734.63
187.64	1646.57
187.86	1740.77
188.08	1748.97
188.30	1681.38
188.52	1779.68
188.75	1724.39
188.97	1751.01
189.19	1755.11
189.41	1697.77
189.63	1718.25
189.85	1716.20
190.07	1679.33
190.29	1681.38
190.51	1771.49
190.73	1654.76
190.95	1800.16
191.17	1683.43
191.39	1703.91
191.61	1665.00
191.84	1732.58
192.06	1763.30
192.28	1599.46
192.50	1802.21
192.72	1681.38
192.94	1738.73
193.16	1699.81
193.38	1791.97
193.60	1652.71
193.82	1671.14
194.04	1748.97
194.26	1691.62
194.48	1685.48
194.70	1726.44
194.92	1708.01
195.14	1785.83
195.36	1736.68
195.58	1640.42
195.80	1753.06
196.02	1703.91
196.24	1779.68
196.46	1728.49
196.69	1714.15
196.91	1865.70
197.13	1701.86
197.35	1673.19
197.57	1771.49
197.79	1730.53
198.01	1736.68
198.23	1761.25
198.45	1742.82
198.67	1671.14
198.89	1769.44
199.11	1753.06
199.33	1710.05
199.55	1505.26
199.77	1628.14
199.99	1816.55
200.21	1732.58
200.43	1738.73
200.65	1626.09
200.87	1535.98
201.09	1755.11
201.31	1718.25
201.53	1769.44
201.75	1695.72
201.97	1691.62
202.19	1724.39
202.41	1708.01
202.63	1834.98
202.85	1759.21
203.07	1722.34
203.29	1773.54
203.51	1662.95
203.73	1693.67
203.95	1927.14
204.17	1697.77
204.39	1785.83
204.61	1724.39
204.83	1687.53
205.05	1800.16
205.27	1804.26
205.49	1832.93
205.71	1730.53
205.93	1648.61
206.15	1751.01
206.37	1677.29
206.59	1675.24
206.81	1724.39
207.03	1720.29
207.25	1615.85
207.47	1736.68
207.69	1699.81
207.91	1806.31
208.13	1759.21
208.34	1679.33
208.56	1679.33
208.78	1837.03
209.00	1605.61
209.22	1765.35
209.44	1626.09
209.66	1689.57
209.88	1714.15
210.10	1710.05
210.32	1632.23
210.54	1867.75
210.76	1708.01
210.98	1705.96
211.20	1648.61
211.42	1722.34
211.64	1769.44
211.86	1740.77
212.08	1771.49
212.30	1732.58
212.52	1685.48
212.74	1730.53
212.96	1689.57
213.17	1777.64
213.39	1705.96
213.61	1742.82
213.83	1789.92
214.05	1710.05
214.27	1759.21
214.49	1658.85
214.71	1648.61
214.93	1736.68
215.15	1722.34
215.37	1773.54
215.59	1581.03
215.81	1699.81
216.03	1798.12
216.24	1746.92
216.46	1693.67
216.68	1644.52
216.90	1804.26
217.12	1865.70
217.34	1701.86
217.56	1728.49
217.78	1806.31
218.00	1740.77
218.22	1796.07
218.44	1751.01
218.66	1689.57
218.87	1769.44
219.09	1726.44
219.31	1683.43
219.53	1740.77
219.75	1718.25
219.97	1751.01
220.19	1755.11
220.41	1671.14
220.63	1736.68
220.85	1773.54
221.06	1730.53
221.28	1806.31
221.50	1828.84
221.72	1689.57
221.94	1648.61
222.16	1748.97
222.38	1830.88
222.60	1777.64
222.82	1626.09
223.03	1804.26
223.25	1671.14
223.47	1716.20
223.69	1820.64
223.91	1775.59
224.13	1652.71
224.35	1734.63
224.57	1796.07
224.78	1665.00
225.00	1613.80
225.22	1712.10
225.44	1687.53
225.66	1720.29
225.88	1693.67
226.10	1791.97
226.32	1705.96
226.53	1816.55
226.75	1712.10
226.97	1703.91
227.19	1710.05
227.41	1615.85
227.63	1714.15
227.85	1638.38
228.06	1714.15
228.28	1726.44
228.50	1710.05
228.72	1689.57
228.94	1753.06
229.16	1636.33
229.37	1648.61
229.59	1705.96
229.81	1783.78
230.03	1720.29
230.25	1624.04
230.47	1693.67
230.69	1603.56
230.90	1757.16
231.12	1677.29
231.34	1771.49
231.56	1722.34
231.78	1718.25
232.00	1720.29
232.21	1769.44
232.43	1708.01
232.65	1621.99
232.87	1763.30
233.09	1638.38
233.30	1662.95
233.52	1722.34
233.74	1718.25
233.96	1705.96
234.18	1751.01
234.40	1689.57
234.61	1822.69
234.83	1601.51
235.05	1619.94
235.27	1791.97
235.49	1740.77
235.70	1718.25
235.92	1865.70
236.14	1740.77
236.36	1841.12
236.58	1624.04
236.79	1720.29
237.01	1738.73
237.23	1671.14
237.45	1773.54
237.67	1681.38
237.88	1771.49
238.10	1761.25
238.32	1693.67
238.54	1746.92
238.76	1691.62
238.97	1699.81
239.19	1681.38
239.41	1816.55
239.63	1816.55
239.85	1716.20
240.06	1720.29
240.28	1697.77
240.50	1814.50
240.72	1714.15
240.93	1673.19
241.15	1757.16
241.37	1728.49
241.59	1806.31
241.81	1681.38
242.02	1689.57
242.24	1712.10
242.46	1759.21
242.68	1669.09
242.89	1681.38
243.11	1804.26
243.33	1660.90
243.55	1708.01
243.76	1746.92
243.98	1751.01
244.20	1744.87
244.42	1681.38
244.64	1773.54
244.85	1665.00
245.07	1646.57
245.29	1820.64
245.51	1722.34
245.72	1757.16
245.94	1779.68
246.16	1759.21
246.38	1738.73
246.59	1695.72
246.81	1665.00
247.03	1814.50
247.24	1628.14
247.46	1689.57
247.68	1685.48
247.90	1720.29
248.11	1609.70
248.33	1828.84
248.55	1701.86
248.77	1669.09
248.98	1787.88
249.20	1816.55
249.42	1740.77
249.64	1665.00
249.85	1671.14
250.07	1681.38
250.29	1759.21
250.50	1705.96
250.72	1566.70
250.94	1734.63
251.16	1839.08
251.37	1746.92
251.59	1705.96
251.81	1740.77
252.02	1771.49
252.24	1685.48
252.46	1740.77
252.68	1654.76
252.89	1740.77
253.11	1589.22
253.33	1779.68
253.54	1742.82
253.76	1603.56
253.98	1736.68
254.20	1683.43
254.41	1624.04
254.63	1714.15
254.85	1662.95
255.06	1687.53
255.28	1693.67
255.50	1712.10
255.71	1724.39
255.93	1681.38
256.15	1660.90
256.36	1712.10
256.58	1679.33
256.80	1751.01
257.02	1677.29
257.23	1740.77
257.45	1693.67
257.67	1755.11
257.88	1726.44
258.10	1771.49
258.32	1691.62
258.53	1722.34
258.75	1783.78
258.97	1705.96
259.18	1681.38
259.40	1759.21
259.62	1839.08
259.83	1847.27
260.05	1771.49
260.27	1980.39
260.48	1767.40
260.70	1576.94
260.92	1652.71
261.13	1693.67
261.35	1753.06
261.57	1779.68
261.78	1683.43
262.00	1615.85
262.22	1681.38
262.43	1634.28
262.65	1667.05
262.86	1765.35
263.08	1845.22
263.30	1728.49
263.51	1544.17
263.73	1660.90
263.95	1740.77
264.16	1599.46
264.38	1701.86
264.60	1718.25
264.81	1742.82
265.03	1748.97
265.25	1714.15
265.46	1742.82
265.68	1759.21
265.89	1734.63
266.11	1648.61
266.33	1691.62
266.54	1748.97
266.76	1730.53
266.98	1794.02
267.19	1787.88
267.41	1755.11
267.62	1734.63
267.84	1677.29
268.06	1701.86
268.27	1695.72
268.49	1703.91
268.70	1736.68
268.92	1716.20
269.14	1671.14
269.35	1667.05
269.57	1681.38
269.79	1763.30
270.00	1615.85
270.22	1869.80
270.43	1642.47
270.65	1597.42
270.87	1800.16
271.08	1746.92
271.30	1736.68
271.51	1730.53
271.73	1701.86
271.95	1777.64
272.16	1697.77
272.38	1716.20
272.59	1695.72
272.81	1769.44
273.02	1767.40
273.24	1787.88
273.46	1818.60
273.67	1658.85
273.89	1667.05
274.10	1683.43
274.32	1798.12
274.54	1759.21
274.75	1742.82
274.97	1640.42
275.18	1689.57
275.40	1722.34
275.61	1757.16
275.83	1695.72
276.05	1701.86
276.26	1763.30
276.48	1673.19
276.69	1699.81
276.91	1615.85
277.12	1810.40
277.34	1679.33
277.55	1759.21
277.77	1675.24
277.99	1648.61
278.20	1697.77
278.42	1685.48
278.63	1669.09
278.85	1691.62
279.06	1671.14
279.28	1744.87
279.49	1757.16
279.71	1718.25
279.93	1660.90
280.14	1681.38
280.36	1662.95
280.57	1779.68
280.79	1828.84
281.00	1714.15
281.22	1730.53
281.43	1771.49
281.65	1595.37
281.86	1607.66
282.08	1765.35
282.29	1800.16
282.51	1662.95
282.73	1656.81
282.94	1642.47
283.16	1796.07
283.37	1781.73
283.59	1734.63
283.80	1738.73
284.02	1753.06
284.23	1802.21
284.45	1677.29
284.66	1646.57
284.88	1703.91
285.09	1742.82
285.31	1763.30
285.52	1697.77
285.74	1642.47
285.95	1740.77
286.17	1755.11
286.38	1734.63
286.60	1656.81
286.81	1597.42
287.03	1611.75
287.24	1738.73
287.46	1755.11
287.67	1654.76
287.89	1818.60
288.10	1617.90
288.32	1734.63
288.53	1787.88
288.75	1683.43
288.96	1714.15
289.18	1673.19
289.39	1701.86
289.61	1759.21
289.82	1861.60
290.04	1853.41
290.25	1671.14
290.47	1736.68
290.68	1665.00
290.90	1742.82
291.11	1619.94
291.33	1804.26
291.54	1697.77
291.76	1660.90
291.97	1689.57
292.18	1740.77
292.40	1759.21
292.61	1722.34
292.83	1880.04
293.04	1724.39
293.26	1693.67
293.47	1652.71
293.69	1673.19
293.90	1732.58
294.12	1773.54
294.33	1683.43
294.55	1736.68
294.76	1796.07
294.97	1794.02
295.19	1818.60
295.40	1726.44
295.62	1771.49
295.83	1751.01
296.05	1665.00
296.26	1736.68
296.48	1667.05
296.69	1779.68
296.90	1689.57
297.12	1738.73
297.33	1771.49
297.55	1681.38
297.76	1738.73
297.98	1767.40
298.19	1703.91
298.41	1681.38
298.62	1738.73
298.83	1794.02
299.05	1767.40
299.26	1789.92
299.48	1665.00
299.69	1775.59
299.90	1757.16
300.12	1673.19
300.33	1753.06
300.55	1673.19
300.76	1722.34
300.98	1669.09
301.19	1652.71
301.40	1673.19
301.62	1710.05
301.83	1701.86
302.05	1730.53
302.26	1701.86
302.47	1742.82
302.69	1675.24
302.90	1730.53
303.12	1624.04
303.33	1591.27
303.54	1828.84
303.76	1718.25
303.97	1648.61
304.19	1812.45
304.40	1636.33
304.61	1746.92
304.83	1730.53
305.04	1757.16
305.26	1759.21
305.47	1701.86
305.68	1665.00
305.90	1624.04
306.11	1783.78
306.33	1740.77
306.54	1699.81
306.75	1712.10
306.97	1660.90
307.18	1646.57
307.39	1677.29
307.61	1753.06
307.82	1660.90
308.04	1763.30
308.25	1697.77
308.46	1748.97
308.68	1654.76
308.89	1634.28
309.10	1759.21
309.32	1718.25
309.53	1699.81
309.74	1710.05
309.96	1724.39
310.17	1820.64
310.39	1662.95
310.60	1724.39
310.81	1724.39
311.03	1652.71
311.24	1791.97
311.45	1751.01
311.67	1867.75
311.88	1738.73
312.09	1652.71
312.31	1675.24
312.52	1646.57
312.73	1697.77
312.95	1603.56
313.16	1619.94
313.37	1779.68
313.59	1708.01
313.80	1845.22
314.01	1824.74
314.23	1677.29
314.44	1740.77
314.65	1671.14
314.87	1693.67
315.08	1746.92
315.29	1673.19
315.51	1630.18
315.72	1605.61
315.93	1837.03
316.15	1828.84
316.36	1675.24
316.57	1703.91
316.79	1759.21
317.00	1695.72
317.21	1667.05
317.43	1626.09
317.64	1677.29
317.85	1703.91
318.07	1685.48
318.28	1693.67
318.49	1869.80
318.70	1918.95
318.92	1877.99
319.13	1877.99
319.34	1841.12
319.56	1763.30
319.77	1798.12
319.98	1710.05
320.20	1771.49
320.41	1812.45
320.62	1769.44
320.83	1685.48
321.05	1816.55
321.26	1751.01
321.47	1724.39
321.69	1775.59
321.90	1626.09
322.11	1687.53
322.32	1736.68
322.54	1769.44
322.75	1740.77
322.96	1886.18
323.18	1636.33
323.39	1544.17
323.60	1646.57
323.81	1736.68
324.03	1677.29
324.24	1673.19
324.45	1748.97
324.66	1691.62
324.88	1767.40
325.09	1859.56
325.30	1644.52
325.52	1708.01
325.73	1767.40
325.94	1722.34
326.15	1564.65
326.37	1710.05
326.58	1738.73
326.79	1851.36
327.00	1626.09
327.22	1691.62
327.43	1693.67
327.64	1660.90
327.85	1775.59
328.07	1740.77
328.28	1767.40
328.49	1628.14
328.70	1701.86
328.92	1751.01
329.13	1685.48
329.34	1726.44
329.55	1761.25
329.76	1703.91
329.98	1642.47
330.19	1816.55
330.40	1785.83
330.61	1714.15
330.83	1751.01
331.04	1630.18
331.25	1609.70
331.46	1683.43
331.68	1634.28
331.89	1818.60
332.10	1748.97
332.31	1624.04
332.52	1701.86
332.74	1822.69
332.95	1658.85
333.16	1720.29
333.37	1781.73
333.58	1669.09
333.80	1730.53
334.01	1599.46
334.22	1703.91
334.43	1701.86
334.64	1722.34
334.86	1626.09
335.07	1650.66
335.28	1861.60
335.49	1669.09
335.70	1701.86
335.92	1800.16
336.13	1867.75
336.34	1761.25
336.55	1761.25
336.76	1671.14
336.98	1609.70
337.19	1673.19
337.40	1812.45
337.61	1857.51
337.82	1658.85
338.04	1779.68
338.25	1626.09
338.46	1708.01
338.67	1722.34
338.88	1667.05
339.09	1658.85
339.31	1601.51
339.52	1734.63
339.73	1751.01
339.94	1765.35
340.15	1734.63
340.36	1714.15
340.58	1716.20
340.79	1650.66
341.00	1806.31
341.21	1593.32
341.42	1834.98
341.63	1691.62
341.85	1667.05
342.06	1773.54
342.27	1744.87
342.48	1755.11
342.69	1619.94
342.90	1746.92
343.12	1716.20
343.33	1712.10
343.54	1832.93
343.75	1814.50
343.96	1804.26
344.17	1605.61
344.38	1669.09
344.60	1652.71
344.81	1656.81
345.02	1658.85
345.23	1746.92
345.44	1740.77
345.65	1767.40
345.86	1708.01
346.07	1781.73
346.29	1740.77
346.50	1722.34
346.71	1714.15
346.92	1759.21
347.13	1828.84
347.34	1712.10
347.55	1708.01
347.76	1708.01
347.98	1550.31
348.19	1705.96
348.40	1765.35
348.61	1675.24
348.82	1789.92
349.03	1755.11
349.24	1687.53
349.45	1783.78
349.66	1611.75
349.88	1624.04
350.09	1656.81
350.30	1753.06
350.51	1755.11
350.72	1765.35
350.93	1742.82
351.14	1632.23
351.35	1722.34
351.56	1603.56
351.77	1689.57
351.99	1812.45
352.20	1849.32
352.41	1775.59
352.62	1648.61
352.83	1808.36
353.04	1730.53
353.25	1722.34
353.46	1767.40
353.67	1763.30
353.88	1601.51
354.09	1710.05
354.30	1730.53
354.52	1740.77
354.73	1701.86
354.94	1691.62
355.15	1748.97
355.36	1771.49
355.57	1759.21
355.78	1632.23
355.99	1730.53
356.20	1699.81
356.41	1832.93
356.62	1722.34
356.83	1710.05
357.04	1722.34
357.25	1546.22
357.46	1683.43
357.68	1640.42
357.89	1583.08
358.10	1761.25
358.31	1712.10
358.52	1683.43
358.73	1632.23
358.94	1646.57
359.15	1646.57
359.36	1716.20
359.57	1748.97
359.78	1628.14
359.99	1734.63
360.20	1710.05
360.41	1730.53
360.62	1683.43
360.83	1714.15
361.04	1718.25
361.25	1783.78
361.46	1789.92
361.67	1730.53
361.88	1775.59
362.09	1712.10
362.30	1763.30
362.51	1697.77
362.72	1771.49
362.93	1806.31
363.14	1767.40
363.35	1710.05
363.56	1689.57
363.78	1716.20
363.99	1783.78
364.20	1656.81
364.41	1683.43
364.62	1828.84
364.83	1746.92
365.04	1701.86
365.25	1716.20
365.46	1845.22
365.67	1699.81
365.88	1673.19
366.09	1748.97
366.30	1619.94
366.51	1712.10
366.72	1703.91
366.93	1656.81
367.14	1710.05
367.35	1783.78
367.56	1765.35
367.77	1787.88
367.98	1771.49
368.18	1724.39
368.39	1705.96
368.60	1654.76
368.81	1785.83
369.02	1660.90
369.23	1679.33
369.44	1630.18
369.65	1652.71
369.86	1679.33
370.07	1794.02
370.28	1595.37
370.49	1755.11
370.70	1753.06
370.91	1679.33
371.12	1619.94
371.33	1732.58
371.54	1783.78
371.75	1820.64
371.96	1531.88
372.17	1693.67
372.38	1683.43
372.59	1796.07
372.80	1701.86
373.01	1607.66
373.22	1714.15
373.43	1796.07
373.64	1621.99
373.85	1861.60
374.06	1755.11
374.26	1648.61
374.47	1697.77
374.68	1818.60
374.89	1751.01
375.10	1708.01
375.31	1779.68
375.52	1738.73
375.73	1677.29
375.94	1652.71
376.15	1804.26
376.36	1683.43
376.57	1681.38
376.78	1677.29
376.99	1761.25
377.20	1755.11
377.40	1640.42
377.61	1763.30
377.82	1703.91
378.03	1765.35
378.24	1816.55
378.45	1738.73
378.66	1697.77
378.87	1619.94
379.08	1654.76
379.29	1703.91
379.50	1763.30
379.71	1669.09
379.91	1820.64
380.12	1697.77
380.33	1730.53
380.54	1708.01
380.75	1679.33
380.96	1701.86
381.17	1806.31
381.38	1777.64
381.59	1798.12
381.80	1761.25
382.00	1869.80
382.21	1677.29
382.42	1875.94
382.63	1886.18
382.84	1779.68
383.05	1791.97
383.26	1802.21
383.47	1720.29
383.68	1779.68
383.88	1730.53
384.09	1765.35
384.30	1773.54
384.51	1785.83
384.72	1685.48
384.93	1669.09
385.14	1734.63
385.35	1742.82
385.55	1679.33
385.76	1718.25
385.97	1617.90
386.18	1632.23
386.39	1619.94
386.60	1712.10
386.81	1669.09
387.02	1689.57
387.22	1718.25
387.43	1710.05
387.64	1822.69
387.85	1908.71
388.06	2217.95
388.27	4255.68
388.48	6678.43
388.68	8161.16
388.89	9639.79
389.10	9586.54
389.31	8568.70
389.52	7630.73
389.73	6623.13
389.93	6111.14
390.14	5652.39
390.35	5171.12
390.56	4532.15
390.77	3753.93
390.98	2998.23
391.18	2445.27
391.39	2074.59
391.60	1859.56
391.81	1884.13
392.02	1755.11
392.23	1882.08
392.43	1708.01
392.64	1761.25
392.85	1714.15
393.06	1794.02
393.27	1736.68
393.47	1728.49
393.68	1777.64
393.89	1681.38
394.10	1871.84
394.31	1714.15
394.52	1671.14
394.72	1734.63
394.93	1802.21
395.14	1683.43
395.35	1740.77
395.56	1660.90
395.76	1732.58
395.97	1814.50
396.18	1888.23
396.39	1849.32
396.60	2072.54
396.80	1898.47
397.01	1796.07
397.22	1820.64
397.43	1847.27
397.64	1845.22
397.84	1769.44
398.05	1771.49
398.26	1787.88
398.47	1832.93
398.67	1816.55
398.88	1724.39
399.09	1734.63
399.30	1744.87
399.51	1763.30
399.71	1671.14
399.92	1710.05
400.13	1773.54
400.34	1705.96
400.54	1730.53
400.75	1785.83
400.96	1712.10
401.17	1914.85
401.37	1759.21
401.58	1648.61
401.79	1769.44
402.00	1824.74
402.21	2021.35
402.41	1974.24
402.62	2021.35
402.83	1992.67
403.04	1945.57
403.24	2054.11
403.45	1837.03
403.66	1910.75
403.87	1906.66
404.07	1976.29
404.28	1896.42
404.49	1886.18
404.70	1886.18
404.90	1779.68
405.11	1761.25
405.32	1734.63
405.52	1634.28
405.73	1681.38
405.94	1603.56
406.15	1718.25
406.35	1767.40
406.56	1742.82
406.77	1708.01
406.98	1714.15
407.18	1660.90
407.39	1804.26
407.60	1710.05
407.80	1767.40
408.01	1650.66
408.22	1734.63
408.43	1746.92
408.63	1728.49
408.84	1773.54
409.05	1847.27
409.25	1642.47
409.46	1693.67
409.67	1779.68
409.88	1742.82
410.08	1740.77
410.29	1699.81
410.50	1761.25
410.70	1757.16
410.91	1683.43
411.12	1796.07
411.32	1734.63
411.53	1716.20
411.74	1800.16
411.95	1806.31
412.15	1765.35
412.36	1785.83
412.57	1757.16
412.77	1791.97
412.98	1718.25
413.19	1783.78
413.39	1710.05
413.60	1794.02
413.81	1867.75
414.01	1667.05
414.22	1744.87
414.43	1781.73
414.63	1693.67
414.84	1771.49
415.05	1679.33
415.25	1654.76
415.46	1701.86
415.67	1681.38
415.87	1798.12
416.08	1757.16
416.29	1669.09
416.49	1734.63
416.70	1673.19
416.91	1720.29
417.11	1667.05
417.32	1822.69
417.53	1808.36
417.73	1769.44
417.94	1718.25
418.15	1691.62
418.35	1775.59
418.56	1763.30
418.77	1824.74
418.97	1734.63
419.18	1718.25
419.38	1611.75
419.59	1740.77
419.80	1808.36
420.00	1658.85
420.21	1767.40
420.42	1814.50
420.62	1734.63
420.83	1683.43
421.04	1738.73
421.24	1736.68
421.45	1804.26
421.65	1724.39
421.86	1587.18
422.07	1783.78
422.27	1759.21
422.48	1720.29
422.69	1601.51
422.89	1728.49
423.10	1738.73
423.30	1693.67
423.51	1714.15
423.72	1673.19
423.92	1746.92
424.13	1683.43
424.33	1722.34
424.54	1781.73
424.75	1675.24
424.95	1798.12
425.16	1714.15
425.36	1658.85
425.57	1857.51
425.78	1697.77
425.98	1771.49
426.19	1759.21
426.39	1671.14
426.60	1705.96
426.81	1781.73
427.01	1695.72
427.22	1665.00
427.42	1716.20
427.63	1705.96
427.83	1710.05
428.04	1773.54
428.25	1728.49
428.45	1777.64
428.66	1767.40
428.86	1716.20
429.07	1724.39
429.28	1773.54
429.48	1697.77
429.69	1708.01
429.89	1740.77
430.10	1669.09
430.30	1683.43
430.51	1796.07
430.71	1660.90
430.92	1810.40
431.13	1648.61
431.33	1724.39
431.54	1773.54
431.74	1877.99
431.95	1841.12
432.15	1712.10
432.36	1761.25
432.56	1753.06
432.77	1828.84
432.98	1781.73
433.18	1705.96
433.39	1691.62
433.59	1716.20
433.80	1845.22
434.00	1914.85
434.21	1697.77
434.41	1619.94
434.62	1826.79
434.82	1607.66
435.03	1673.19
435.23	1759.21
435.44	1658.85
435.64	1701.86
435.85	1775.59
436.06	1746.92
436.26	1732.58
436.47	1681.38
436.67	1712.10
436.88	1699.81
437.08	1761.25
437.29	1861.60
437.49	1626.09
437.70	1789.92
437.90	1763.30
438.11	1923.04
438.31	1673.19
438.52	1861.60
438.72	1789.92
438.93	1955.81
439.13	1783.78
439.34	1808.36
439.54	1755.11
439.75	1841.12
439.95	1832.93
440.16	1798.12
440.36	1757.16
440.57	1834.98
440.77	1794.02
440.98	1753.06
441.18	1734.63
441.39	1687.53
441.59	1705.96
441.80	1894.37
442.00	1726.44
442.21	1837.03
442.41	1667.05
442.62	1714.15
442.82	1691.62
443.02	1771.49
443.23	1691.62
443.43	1828.84
443.64	1732.58
443.84	1683.43
444.05	1779.68
444.25	1761.25
444.46	1765.35
444.66	1683.43
444.87	1863.65
445.07	1667.05
445.28	1767.40
445.48	1777.64
445.69	1757.16
445.89	1953.76
446.09	1720.29
446.30	2015.20
446.50	2588.63
446.71	3712.97
446.91	4321.21
447.12	4714.42
447.32	4859.83
447.53	4237.25
447.73	3827.65
447.93	3499.98
448.14	3213.26
448.34	3276.75
448.55	2799.57
448.75	2865.11
448.96	2680.79
449.16	2455.51
449.36	2355.16
449.57	2125.79
449.77	1957.86
449.98	1802.21
450.18	1781.73
450.39	1800.16
450.59	1787.88
450.79	1732.58
451.00	1708.01
451.20	1816.55
451.41	1736.68
451.61	1722.34
451.81	1783.78
452.02	1642.47
452.22	1751.01
452.43	1683.43
452.63	1693.67
