SpectraSuite Data File
++++++++++++++++++++++++++++++++++++
Date: Mon Jun 06 16:06:37 CEST 2016
User: root
Dark Spectrum Present: No
Reference Spectrum Present: No
Number of Sampled Component Spectra: 1
Spectrometers: USB4C02835
Integration Time (usec): 100000 (USB4C02835)
Spectra Averaged: 1 (USB4C02835)
Boxcar Smoothing: 0 (USB4C02835)
Correct for Electrical Dark: No (USB4C02835)
Strobe/Lamp Enabled: No (USB4C02835)
Correct for Detector Non-linearity: No (USB4C02835)
Correct for Stray Light: No (USB4C02835)
Number of Pixels in Processed Spectrum: 3648
>>>>>Begin Processed Spectral Data<<<<<
177.47	1578.98
177.69	1578.98
177.91	1578.98
178.13	1492.97
178.36	1480.68
178.58	1701.86
178.80	1708.01
179.02	1652.71
179.24	1640.42
179.46	1755.11
179.68	1718.25
179.90	1697.77
180.13	1708.01
180.35	1730.53
180.57	1712.10
180.79	1789.92
181.01	1630.18
181.23	1816.55
181.45	1695.72
181.67	1804.26
181.90	1689.57
182.12	1689.57
182.34	1740.77
182.56	1740.77
182.78	1730.53
183.00	1671.14
183.22	1744.87
183.44	1652.71
183.66	1779.68
183.89	1767.40
184.11	1705.96
184.33	1826.79
184.55	1734.63
184.77	1775.59
184.99	1759.21
185.21	1683.43
185.43	1828.84
185.65	1673.19
185.87	1691.62
186.10	1798.12
186.32	1861.60
186.54	1687.53
186.76	1777.64
186.98	1808.36
187.20	1775.59
187.42	1728.49
187.64	1761.25
187.86	1695.72
188.08	1744.87
188.30	1677.29
188.52	1679.33
188.75	1736.68
188.97	1794.02
189.19	1746.92
189.41	1759.21
189.63	1755.11
189.85	1716.20
190.07	1656.81
190.29	1638.38
190.51	1771.49
190.73	1607.66
190.95	1767.40
191.17	1671.14
191.39	1619.94
191.61	1789.92
191.84	1710.05
192.06	1716.20
192.28	1671.14
192.50	1869.80
192.72	1767.40
192.94	1712.10
193.16	1695.72
193.38	1734.63
193.60	1632.23
193.82	1667.05
194.04	1695.72
194.26	1716.20
194.48	1699.81
194.70	1662.95
194.92	1751.01
195.14	1703.91
195.36	1708.01
195.58	1697.77
195.80	1744.87
196.02	1652.71
196.24	1660.90
196.46	1753.06
196.69	1697.77
196.91	1839.08
197.13	1718.25
197.35	1671.14
197.57	1806.31
197.79	1730.53
198.01	1685.48
198.23	1751.01
198.45	1710.05
198.67	1662.95
198.89	1652.71
199.11	1789.92
199.33	1667.05
199.55	1632.23
199.77	1732.58
199.99	1751.01
200.21	1646.57
200.43	1759.21
200.65	1605.61
200.87	1599.46
201.09	1757.16
201.31	1699.81
201.53	1818.60
201.75	1691.62
201.97	1789.92
202.19	1730.53
202.41	1820.64
202.63	1880.04
202.85	1740.77
203.07	1748.97
203.29	1742.82
203.51	1669.09
203.73	1593.32
203.95	1808.36
204.17	1759.21
204.39	1759.21
204.61	1689.57
204.83	1671.14
205.05	1738.73
205.27	1755.11
205.49	1798.12
205.71	1724.39
205.93	1652.71
206.15	1726.44
206.37	1714.15
206.59	1826.79
206.81	1673.19
207.03	1705.96
207.25	1628.14
207.47	1771.49
207.69	1722.34
207.91	1794.02
208.13	1775.59
208.34	1708.01
208.56	1697.77
208.78	1744.87
209.00	1648.61
209.22	1665.00
209.44	1685.48
209.66	1599.46
209.88	1669.09
210.10	1734.63
210.32	1734.63
210.54	1834.98
210.76	1732.58
210.98	1828.84
211.20	1587.18
211.42	1734.63
211.64	1736.68
211.86	1708.01
212.08	1796.07
212.30	1716.20
212.52	1755.11
212.74	1720.29
212.96	1728.49
213.17	1798.12
213.39	1634.28
213.61	1687.53
213.83	1720.29
214.05	1640.42
214.27	1740.77
214.49	1681.38
214.71	1626.09
214.93	1656.81
215.15	1705.96
215.37	1796.07
215.59	1662.95
215.81	1796.07
216.03	1808.36
216.24	1679.33
216.46	1716.20
216.68	1701.86
216.90	1779.68
217.12	1783.78
217.34	1724.39
217.56	1765.35
217.78	1736.68
218.00	1748.97
218.22	1726.44
218.44	1837.03
218.66	1710.05
218.87	1839.08
219.09	1742.82
219.31	1718.25
219.53	1673.19
219.75	1703.91
219.97	1656.81
220.19	1820.64
220.41	1734.63
220.63	1736.68
220.85	1796.07
221.06	1644.52
221.28	1802.21
221.50	1722.34
221.72	1693.67
221.94	1748.97
222.16	1736.68
222.38	1728.49
222.60	1755.11
222.82	1574.89
223.03	1732.58
223.25	1613.80
223.47	1753.06
223.69	1849.32
223.91	1804.26
224.13	1769.44
224.35	1644.52
224.57	1791.97
224.78	1751.01
225.00	1605.61
225.22	1660.90
225.44	1753.06
225.66	1724.39
225.88	1669.09
226.10	1726.44
226.32	1736.68
226.53	1804.26
226.75	1689.57
226.97	1675.24
227.19	1689.57
227.41	1716.20
227.63	1679.33
227.85	1642.47
228.06	1710.05
228.28	1710.05
228.50	1712.10
228.72	1640.42
228.94	1687.53
229.16	1665.00
229.37	1720.29
229.59	1677.29
229.81	1746.92
230.03	1718.25
230.25	1607.66
230.47	1667.05
230.69	1665.00
230.90	1824.74
231.12	1656.81
231.34	1718.25
231.56	1773.54
231.78	1636.33
232.00	1718.25
232.21	1773.54
232.43	1652.71
232.65	1562.60
232.87	1755.11
233.09	1671.14
233.30	1683.43
233.52	1740.77
233.74	1689.57
233.96	1748.97
234.18	1716.20
234.40	1722.34
234.61	1847.27
234.83	1566.70
235.05	1652.71
235.27	1832.93
235.49	1718.25
235.70	1683.43
235.92	1763.30
236.14	1665.00
236.36	1816.55
236.58	1605.61
236.79	1748.97
237.01	1693.67
237.23	1710.05
237.45	1759.21
237.67	1665.00
237.88	1751.01
238.10	1787.88
238.32	1681.38
238.54	1718.25
238.76	1697.77
238.97	1675.24
239.19	1722.34
239.41	1755.11
239.63	1755.11
239.85	1716.20
240.06	1740.77
240.28	1738.73
240.50	1771.49
240.72	1669.09
240.93	1697.77
241.15	1759.21
241.37	1699.81
241.59	1837.03
241.81	1701.86
242.02	1701.86
242.24	1681.38
242.46	1810.40
242.68	1673.19
242.89	1703.91
243.11	1685.48
243.33	1730.53
243.55	1751.01
243.76	1757.16
243.98	1669.09
244.20	1720.29
244.42	1683.43
244.64	1697.77
244.85	1621.99
245.07	1675.24
245.29	1751.01
245.51	1765.35
245.72	1759.21
245.94	1798.12
246.16	1728.49
246.38	1744.87
246.59	1753.06
246.81	1708.01
247.03	1669.09
247.24	1583.08
247.46	1660.90
247.68	1781.73
247.90	1683.43
248.11	1640.42
248.33	1849.32
248.55	1583.08
248.77	1728.49
248.98	1763.30
249.20	1734.63
249.42	1744.87
249.64	1802.21
249.85	1714.15
250.07	1751.01
250.29	1716.20
250.50	1734.63
250.72	1644.52
250.94	1728.49
251.16	1857.51
251.37	1783.78
251.59	1673.19
251.81	1722.34
252.02	1767.40
252.24	1648.61
252.46	1814.50
252.68	1679.33
252.89	1732.58
253.11	1689.57
253.33	1810.40
253.54	1769.44
253.76	1675.24
253.98	1781.73
254.20	1642.47
254.41	1562.60
254.63	1718.25
254.85	1632.23
255.06	1783.78
255.28	1761.25
255.50	1734.63
255.71	1718.25
255.93	1662.95
256.15	1734.63
256.36	1746.92
256.58	1665.00
256.80	1794.02
257.02	1765.35
257.23	1753.06
257.45	1775.59
257.67	1714.15
257.88	1718.25
258.10	1736.68
258.32	1742.82
258.53	1748.97
258.75	1834.98
258.97	1714.15
259.18	1675.24
259.40	1734.63
259.62	1796.07
259.83	1755.11
260.05	1773.54
260.27	2054.11
260.48	1816.55
260.70	1683.43
260.92	1722.34
261.13	1710.05
261.35	1734.63
261.57	1714.15
261.78	1665.00
262.00	1595.37
262.22	1691.62
262.43	1648.61
262.65	1722.34
262.86	1665.00
263.08	1798.12
263.30	1736.68
263.51	1660.90
263.73	1689.57
263.95	1761.25
264.16	1617.90
264.38	1667.05
264.60	1658.85
264.81	1708.01
265.03	1763.30
265.25	1716.20
265.46	1652.71
265.68	1705.96
265.89	1841.12
266.11	1665.00
266.33	1759.21
266.54	1695.72
266.76	1710.05
266.98	1779.68
267.19	1800.16
267.41	1746.92
267.62	1710.05
267.84	1626.09
268.06	1742.82
268.27	1669.09
268.49	1806.31
268.70	1783.78
268.92	1691.62
269.14	1628.14
269.35	1691.62
269.57	1714.15
269.79	1710.05
270.00	1714.15
270.22	1783.78
270.43	1687.53
270.65	1599.46
270.87	1714.15
271.08	1728.49
271.30	1718.25
271.51	1732.58
271.73	1703.91
271.95	1783.78
272.16	1697.77
272.38	1744.87
272.59	1718.25
272.81	1703.91
273.02	1732.58
273.24	1798.12
273.46	1718.25
273.67	1632.23
273.89	1697.77
274.10	1681.38
274.32	1708.01
274.54	1757.16
274.75	1669.09
274.97	1642.47
275.18	1740.77
275.40	1812.45
275.61	1753.06
275.83	1697.77
276.05	1730.53
276.26	1738.73
276.48	1857.51
276.69	1601.51
276.91	1652.71
277.12	1791.97
277.34	1800.16
277.55	1757.16
277.77	1689.57
277.99	1683.43
278.20	1730.53
278.42	1648.61
278.63	1755.11
278.85	1734.63
279.06	1665.00
279.28	1746.92
279.49	1746.92
279.71	1810.40
279.93	1673.19
280.14	1710.05
280.36	1689.57
280.57	1742.82
280.79	1804.26
281.00	1701.86
281.22	1673.19
281.43	1779.68
281.65	1640.42
281.86	1662.95
282.08	1789.92
282.29	1824.74
282.51	1644.52
282.73	1648.61
282.94	1669.09
283.16	1800.16
283.37	1845.22
283.59	1800.16
283.80	1746.92
284.02	1755.11
284.23	1759.21
284.45	1689.57
284.66	1724.39
284.88	1665.00
285.09	1767.40
285.31	1779.68
285.52	1701.86
285.74	1673.19
285.95	1703.91
286.17	1771.49
286.38	1781.73
286.60	1644.52
286.81	1644.52
287.03	1708.01
287.24	1697.77
287.46	1742.82
287.67	1632.23
287.89	1830.88
288.10	1730.53
288.32	1703.91
288.53	1789.92
288.75	1669.09
288.96	1730.53
289.18	1771.49
289.39	1683.43
289.61	1738.73
289.82	1894.37
290.04	1796.07
290.25	1699.81
290.47	1656.81
290.68	1697.77
290.90	1832.93
291.11	1669.09
291.33	1724.39
291.54	1718.25
291.76	1705.96
291.97	1675.24
292.18	1826.79
292.40	1691.62
292.61	1724.39
292.83	1767.40
293.04	1675.24
293.26	1775.59
293.47	1800.16
293.69	1650.66
293.90	1632.23
294.12	1816.55
294.33	1751.01
294.55	1751.01
294.76	1796.07
294.97	1771.49
295.19	1849.32
295.40	1697.77
295.62	1798.12
295.83	1763.30
296.05	1708.01
296.26	1773.54
296.48	1656.81
296.69	1755.11
296.90	1705.96
297.12	1738.73
297.33	1669.09
297.55	1720.29
297.76	1775.59
297.98	1746.92
298.19	1746.92
298.41	1689.57
298.62	1703.91
298.83	1873.89
299.05	1767.40
299.26	1714.15
299.48	1697.77
299.69	1808.36
299.90	1791.97
300.12	1660.90
300.33	1789.92
300.55	1722.34
300.76	1746.92
300.98	1609.70
301.19	1716.20
301.40	1683.43
301.62	1681.38
301.83	1699.81
302.05	1753.06
302.26	1742.82
302.47	1693.67
302.69	1656.81
302.90	1681.38
303.12	1640.42
303.33	1796.07
303.54	1761.25
303.76	1640.42
303.97	1730.53
304.19	1730.53
304.40	1628.14
304.61	1769.44
304.83	1791.97
305.04	1761.25
305.26	1736.68
305.47	1708.01
305.68	1697.77
305.90	1599.46
306.11	1738.73
306.33	1677.29
306.54	1656.81
306.75	1691.62
306.97	1619.94
307.18	1644.52
307.39	1650.66
307.61	1697.77
307.82	1708.01
308.04	1730.53
308.25	1660.90
308.46	1783.78
308.68	1693.67
308.89	1673.19
309.10	1804.26
309.32	1708.01
309.53	1677.29
309.74	1822.69
309.96	1718.25
310.17	1814.50
310.39	1712.10
310.60	1734.63
310.81	1771.49
311.03	1746.92
311.24	1812.45
311.45	1716.20
311.67	1828.84
311.88	1751.01
312.09	1714.15
312.31	1665.00
312.52	1736.68
312.73	1742.82
312.95	1654.76
313.16	1679.33
313.37	1759.21
313.59	1738.73
313.80	1779.68
314.01	1771.49
314.23	1751.01
314.44	1642.47
314.65	1677.29
314.87	1742.82
315.08	1767.40
315.29	1722.34
315.51	1748.97
315.72	1662.95
315.93	1779.68
316.15	1708.01
316.36	1703.91
316.57	1746.92
316.79	1787.88
317.00	1732.58
317.21	1777.64
317.43	1603.56
317.64	1695.72
317.85	1697.77
318.07	1710.05
318.28	1757.16
318.49	1869.80
318.70	1929.19
318.92	1904.61
319.13	1826.79
319.34	1890.28
319.56	1742.82
319.77	1798.12
319.98	1787.88
320.20	1855.46
320.41	1779.68
320.62	1740.77
320.83	1611.75
321.05	1882.08
321.26	1726.44
321.47	1794.02
321.69	1855.46
321.90	1687.53
322.11	1757.16
322.32	1703.91
322.54	1763.30
322.75	1701.86
322.96	1841.12
323.18	1628.14
323.39	1658.85
323.60	1648.61
323.81	1853.41
324.03	1665.00
324.24	1701.86
324.45	1701.86
324.66	1636.33
324.88	1710.05
325.09	1787.88
325.30	1681.38
325.52	1718.25
325.73	1779.68
325.94	1685.48
326.15	1667.05
326.37	1695.72
326.58	1802.21
326.79	1761.25
327.00	1650.66
327.22	1730.53
327.43	1644.52
327.64	1646.57
327.85	1783.78
328.07	1703.91
328.28	1767.40
328.49	1699.81
328.70	1734.63
328.92	1730.53
329.13	1679.33
329.34	1761.25
329.55	1828.84
329.76	1777.64
329.98	1642.47
330.19	1898.47
330.40	1832.93
330.61	1726.44
330.83	1718.25
331.04	1751.01
331.25	1720.29
331.46	1812.45
331.68	1689.57
331.89	1765.35
332.10	1773.54
332.31	1648.61
332.52	1767.40
332.74	1722.34
332.95	1613.80
333.16	1705.96
333.37	1812.45
333.58	1679.33
333.80	1697.77
334.01	1691.62
334.22	1703.91
334.43	1705.96
334.64	1701.86
334.86	1628.14
335.07	1726.44
335.28	1808.36
335.49	1652.71
335.70	1759.21
335.92	1798.12
336.13	1800.16
336.34	1767.40
336.55	1689.57
336.76	1753.06
336.98	1626.09
337.19	1744.87
337.40	1824.74
337.61	1855.46
337.82	1708.01
338.04	1791.97
338.25	1656.81
338.46	1800.16
338.67	1746.92
338.88	1656.81
339.09	1648.61
339.31	1691.62
339.52	1658.85
339.73	1628.14
339.94	1683.43
340.15	1763.30
340.36	1687.53
340.58	1726.44
340.79	1662.95
341.00	1775.59
341.21	1697.77
341.42	1777.64
341.63	1759.21
341.85	1716.20
342.06	1693.67
342.27	1599.46
342.48	1773.54
342.69	1626.09
342.90	1791.97
343.12	1683.43
343.33	1689.57
343.54	1767.40
343.75	1865.70
343.96	1716.20
344.17	1677.29
344.38	1714.15
344.60	1638.38
344.81	1615.85
345.02	1675.24
345.23	1798.12
345.44	1812.45
345.65	1740.77
345.86	1705.96
346.07	1712.10
346.29	1669.09
346.50	1742.82
346.71	1779.68
346.92	1712.10
347.13	1759.21
347.34	1699.81
347.55	1724.39
347.76	1722.34
347.98	1613.80
348.19	1748.97
348.40	1814.50
348.61	1761.25
348.82	1837.03
349.03	1804.26
349.24	1679.33
349.45	1894.37
349.66	1630.18
349.88	1728.49
350.09	1689.57
350.30	1761.25
350.51	1761.25
350.72	1675.24
350.93	1665.00
351.14	1685.48
351.35	1763.30
351.56	1673.19
351.77	1767.40
351.99	1697.77
352.20	1787.88
352.41	1746.92
352.62	1572.84
352.83	1710.05
353.04	1769.44
353.25	1660.90
353.46	1789.92
353.67	1734.63
353.88	1609.70
354.09	1781.73
354.30	1753.06
354.52	1779.68
354.73	1628.14
354.94	1644.52
355.15	1751.01
355.36	1826.79
355.57	1642.47
355.78	1746.92
355.99	1675.24
356.20	1603.56
356.41	1720.29
356.62	1818.60
356.83	1720.29
357.04	1759.21
357.25	1652.71
357.46	1697.77
357.68	1605.61
357.89	1644.52
358.10	1660.90
358.31	1691.62
358.52	1724.39
358.73	1650.66
358.94	1652.71
359.15	1697.77
359.36	1746.92
359.57	1746.92
359.78	1769.44
359.99	1757.16
360.20	1697.77
360.41	1662.95
360.62	1802.21
360.83	1748.97
361.04	1728.49
361.25	1722.34
361.46	1812.45
361.67	1742.82
361.88	1767.40
362.09	1777.64
362.30	1640.42
362.51	1656.81
362.72	1687.53
362.93	1736.68
363.14	1775.59
363.35	1607.66
363.56	1673.19
363.78	1802.21
363.99	1785.83
364.20	1665.00
364.41	1648.61
364.62	1824.74
364.83	1730.53
365.04	1740.77
365.25	1665.00
365.46	1734.63
365.67	1695.72
365.88	1607.66
366.09	1691.62
366.30	1695.72
366.51	1695.72
366.72	1714.15
366.93	1742.82
367.14	1687.53
367.35	1800.16
367.56	1779.68
367.77	1796.07
367.98	1794.02
368.18	1689.57
368.39	1814.50
368.60	1652.71
368.81	1763.30
369.02	1783.78
369.23	1751.01
369.44	1667.05
369.65	1669.09
369.86	1683.43
370.07	1763.30
370.28	1710.05
370.49	1685.48
370.70	1685.48
370.91	1685.48
371.12	1621.99
371.33	1769.44
371.54	1734.63
371.75	1771.49
371.96	1591.27
372.17	1732.58
372.38	1673.19
372.59	1705.96
372.80	1689.57
373.01	1748.97
373.22	1716.20
373.43	1708.01
373.64	1648.61
373.85	1794.02
374.06	1787.88
374.26	1812.45
374.47	1785.83
374.68	1753.06
374.89	1722.34
375.10	1736.68
375.31	1728.49
375.52	1705.96
375.73	1710.05
375.94	1656.81
376.15	1755.11
376.36	1656.81
376.57	1697.77
376.78	1744.87
376.99	1695.72
377.20	1738.73
377.40	1769.44
377.61	1843.17
377.82	1650.66
378.03	1808.36
378.24	1759.21
378.45	1673.19
378.66	1722.34
378.87	1640.42
379.08	1628.14
379.29	1710.05
379.50	1775.59
379.71	1794.02
379.91	1738.73
380.12	1773.54
380.33	1724.39
380.54	1753.06
380.75	1683.43
380.96	1804.26
381.17	1683.43
381.38	1699.81
381.59	1708.01
381.80	1775.59
382.00	1904.61
382.21	1712.10
382.42	1794.02
382.63	1863.65
382.84	1814.50
383.05	1757.16
383.26	1853.41
383.47	1771.49
383.68	1722.34
383.88	1732.58
384.09	1736.68
384.30	1818.60
384.51	1726.44
384.72	1701.86
384.93	1624.04
385.14	1683.43
385.35	1783.78
385.55	1646.57
385.76	1759.21
385.97	1746.92
386.18	1708.01
386.39	1757.16
386.60	1730.53
386.81	1673.19
387.02	1650.66
387.22	1683.43
387.43	1787.88
387.64	1834.98
387.85	1851.36
388.06	2189.28
388.27	4341.69
388.48	6680.47
388.68	7993.22
388.89	9389.94
389.10	9791.34
389.31	8558.46
389.52	7548.81
389.73	6604.70
389.93	6170.53
390.14	5842.85
390.35	5140.40
390.56	4396.99
390.77	3753.93
390.98	3002.32
391.18	2508.76
391.39	2203.61
391.60	1837.03
391.81	1845.22
392.02	1746.92
392.23	1791.97
392.43	1742.82
392.64	1828.84
392.85	1695.72
393.06	1785.83
393.27	1761.25
393.47	1693.67
393.68	1726.44
393.89	1720.29
394.10	1800.16
394.31	1742.82
394.52	1728.49
394.72	1644.52
394.93	1845.22
395.14	1689.57
395.35	1796.07
395.56	1708.01
395.76	1757.16
395.97	1808.36
396.18	1859.56
396.39	1906.66
396.60	2066.40
396.80	1906.66
397.01	1806.31
397.22	1818.60
397.43	1906.66
397.64	1857.51
397.84	1875.94
398.05	1865.70
398.26	1732.58
398.47	1763.30
398.67	1904.61
398.88	1724.39
399.09	1734.63
399.30	1585.13
399.51	1755.11
399.71	1646.57
399.92	1769.44
400.13	1789.92
400.34	1775.59
400.54	1751.01
400.75	1875.94
400.96	1763.30
401.17	1755.11
401.37	1708.01
401.58	1705.96
401.79	1757.16
402.00	1841.12
402.21	1996.77
402.41	1902.56
402.62	2033.63
402.83	2076.64
403.04	2019.30
403.24	2047.97
403.45	1806.31
403.66	1828.84
403.87	1886.18
404.07	1843.17
404.28	1914.85
404.49	1904.61
404.70	1839.08
404.90	1714.15
405.11	1722.34
405.32	1755.11
405.52	1681.38
405.73	1757.16
405.94	1734.63
406.15	1687.53
406.35	1796.07
406.56	1718.25
406.77	1791.97
406.98	1787.88
407.18	1679.33
407.39	1755.11
407.60	1636.33
407.80	1740.77
408.01	1695.72
408.22	1751.01
408.43	1740.77
408.63	1798.12
408.84	1755.11
409.05	1830.88
409.25	1665.00
409.46	1656.81
409.67	1675.24
409.88	1732.58
410.08	1728.49
410.29	1648.61
410.50	1691.62
410.70	1738.73
410.91	1685.48
411.12	1656.81
411.32	1695.72
411.53	1673.19
411.74	1783.78
411.95	1798.12
412.15	1757.16
412.36	1732.58
412.57	1736.68
412.77	1830.88
412.98	1724.39
413.19	1720.29
413.39	1716.20
413.60	1798.12
413.81	1816.55
414.01	1746.92
414.22	1677.29
414.43	1787.88
414.63	1683.43
414.84	1705.96
415.05	1761.25
415.25	1611.75
415.46	1794.02
415.67	1642.47
415.87	1761.25
416.08	1720.29
416.29	1695.72
416.49	1759.21
416.70	1794.02
416.91	1665.00
417.11	1693.67
417.32	1843.17
417.53	1785.83
417.73	1738.73
417.94	1693.67
418.15	1724.39
418.35	1742.82
418.56	1761.25
418.77	1761.25
418.97	1740.77
419.18	1798.12
419.38	1574.89
419.59	1685.48
419.80	1765.35
420.00	1669.09
420.21	1701.86
420.42	1794.02
420.62	1699.81
420.83	1669.09
421.04	1689.57
421.24	1701.86
421.45	1834.98
421.65	1798.12
421.86	1740.77
422.07	1720.29
422.27	1697.77
422.48	1691.62
422.69	1681.38
422.89	1716.20
423.10	1683.43
423.30	1703.91
423.51	1675.24
423.72	1757.16
423.92	1730.53
424.13	1693.67
424.33	1759.21
424.54	1757.16
424.75	1730.53
424.95	1898.47
425.16	1724.39
425.36	1730.53
425.57	1714.15
425.78	1753.06
425.98	1812.45
426.19	1691.62
426.39	1732.58
426.60	1783.78
426.81	1794.02
427.01	1705.96
427.22	1677.29
427.42	1675.24
427.63	1734.63
427.83	1808.36
428.04	1810.40
428.25	1761.25
428.45	1697.77
428.66	1716.20
428.86	1708.01
429.07	1728.49
429.28	1716.20
429.48	1640.42
429.69	1640.42
429.89	1767.40
430.10	1587.18
430.30	1728.49
430.51	1759.21
430.71	1691.62
430.92	1775.59
431.13	1705.96
431.33	1742.82
431.54	1693.67
431.74	1888.23
431.95	1884.13
432.15	1716.20
432.36	1738.73
432.56	1716.20
432.77	1849.32
432.98	1779.68
433.18	1753.06
433.39	1642.47
433.59	1734.63
433.80	1853.41
434.00	1853.41
434.21	1689.57
434.41	1755.11
434.62	1867.75
434.82	1732.58
435.03	1691.62
435.23	1691.62
435.44	1630.18
435.64	1693.67
435.85	1767.40
436.06	1724.39
436.26	1806.31
436.47	1648.61
436.67	1669.09
436.88	1744.87
437.08	1728.49
437.29	1759.21
437.49	1732.58
437.70	1771.49
437.90	1751.01
438.11	1783.78
438.31	1755.11
438.52	1830.88
438.72	1861.60
438.93	1855.46
439.13	1712.10
439.34	1814.50
439.54	1751.01
439.75	1751.01
439.95	1724.39
440.16	1662.95
440.36	1736.68
440.57	1826.79
440.77	1775.59
440.98	1728.49
441.18	1796.07
441.39	1603.56
441.59	1632.23
441.80	1888.23
442.00	1726.44
442.21	1857.51
442.41	1669.09
442.62	1828.84
442.82	1722.34
443.02	1736.68
443.23	1773.54
443.43	1771.49
443.64	1873.89
443.84	1728.49
444.05	1757.16
444.25	1796.07
444.46	1740.77
444.66	1714.15
444.87	1861.60
445.07	1640.42
445.28	1746.92
445.48	1796.07
445.69	1841.12
445.89	1935.33
446.09	1765.35
446.30	1974.24
446.50	2625.50
446.71	3657.67
446.91	4329.41
447.12	4571.07
447.32	4712.38
447.53	4282.30
447.73	3880.90
447.93	3350.48
448.14	3364.81
448.34	3184.59
448.55	2992.08
448.75	2834.39
448.96	2744.28
449.16	2394.08
449.36	2301.92
449.57	2150.37
449.77	1947.62
449.98	1777.64
450.18	1845.22
450.39	1877.99
450.59	1794.02
450.79	1787.88
451.00	1712.10
451.20	1812.45
451.41	1730.53
451.61	1716.20
451.81	1732.58
452.02	1767.40
452.22	1724.39
452.43	1669.09
452.63	1722.34
