SpectraSuite Data File
++++++++++++++++++++++++++++++++++++
Date: Mon Jun 06 15:32:37 CEST 2016
User: root
Dark Spectrum Present: No
Reference Spectrum Present: No
Number of Sampled Component Spectra: 1
Spectrometers: USB4C02835
Integration Time (usec): 100000 (USB4C02835)
Spectra Averaged: 1 (USB4C02835)
Boxcar Smoothing: 0 (USB4C02835)
Correct for Electrical Dark: No (USB4C02835)
Strobe/Lamp Enabled: No (USB4C02835)
Correct for Detector Non-linearity: No (USB4C02835)
Correct for Stray Light: No (USB4C02835)
Number of Pixels in Processed Spectrum: 3648
>>>>>Begin Processed Spectral Data<<<<<
177.47	1415.15
177.69	1415.15
177.91	1415.15
178.13	1449.96
178.36	1423.34
178.58	1708.01
178.80	1787.88
179.02	1650.66
179.24	1705.96
179.46	1710.05
179.68	1736.68
179.90	1744.87
180.13	1720.29
180.35	1652.71
180.57	1673.19
180.79	1660.90
181.01	1734.63
181.23	1761.25
181.45	1748.97
181.67	1759.21
181.90	1787.88
182.12	1708.01
182.34	1615.85
182.56	1746.92
182.78	1710.05
183.00	1726.44
183.22	1779.68
183.44	1609.70
183.66	1841.12
183.89	1785.83
184.11	1763.30
184.33	1773.54
184.55	1787.88
184.77	1771.49
184.99	1744.87
185.21	1712.10
185.43	1869.80
185.65	1777.64
185.87	1751.01
186.10	1841.12
186.32	1861.60
186.54	1722.34
186.76	1714.15
186.98	1712.10
187.20	1681.38
187.42	1730.53
187.64	1724.39
187.86	1798.12
188.08	1746.92
188.30	1716.20
188.52	1691.62
188.75	1859.56
188.97	1877.99
189.19	1693.67
189.41	1734.63
189.63	1726.44
189.85	1687.53
190.07	1619.94
190.29	1640.42
190.51	1722.34
190.73	1691.62
190.95	1732.58
191.17	1751.01
191.39	1632.23
191.61	1730.53
191.84	1683.43
192.06	1685.48
192.28	1656.81
192.50	1869.80
192.72	1705.96
192.94	1693.67
193.16	1785.83
193.38	1785.83
193.60	1634.28
193.82	1724.39
194.04	1802.21
194.26	1726.44
194.48	1710.05
194.70	1640.42
194.92	1685.48
195.14	1771.49
195.36	1662.95
195.58	1781.73
195.80	1701.86
196.02	1634.28
196.24	1730.53
196.46	1697.77
196.69	1642.47
196.91	1822.69
197.13	1658.85
197.35	1665.00
197.57	1773.54
197.79	1689.57
198.01	1753.06
198.23	1734.63
198.45	1761.25
198.67	1662.95
198.89	1693.67
199.11	1621.99
199.33	1652.71
199.55	1615.85
199.77	1769.44
199.99	1746.92
200.21	1720.29
200.43	1691.62
200.65	1705.96
200.87	1560.55
201.09	1642.47
201.31	1732.58
201.53	1794.02
201.75	1718.25
201.97	1703.91
202.19	1699.81
202.41	1722.34
202.63	1929.19
202.85	1775.59
203.07	1763.30
203.29	1691.62
203.51	1638.38
203.73	1587.18
203.95	1828.84
204.17	1665.00
204.39	1755.11
204.61	1753.06
204.83	1722.34
205.05	1728.49
205.27	1777.64
205.49	1818.60
205.71	1710.05
205.93	1640.42
206.15	1650.66
206.37	1695.72
206.59	1685.48
206.81	1617.90
207.03	1656.81
207.25	1601.51
207.47	1804.26
207.69	1685.48
207.91	1822.69
208.13	1744.87
208.34	1685.48
208.56	1662.95
208.78	1755.11
209.00	1628.14
209.22	1763.30
209.44	1714.15
209.66	1693.67
209.88	1726.44
210.10	1677.29
210.32	1699.81
210.54	1767.40
210.76	1705.96
210.98	1677.29
211.20	1628.14
211.42	1734.63
211.64	1736.68
211.86	1777.64
212.08	1816.55
212.30	1697.77
212.52	1677.29
212.74	1761.25
212.96	1705.96
213.17	1773.54
213.39	1806.31
213.61	1773.54
213.83	1648.61
214.05	1671.14
214.27	1818.60
214.49	1640.42
214.71	1679.33
214.93	1828.84
215.15	1701.86
215.37	1773.54
215.59	1712.10
215.81	1714.15
216.03	1816.55
216.24	1669.09
216.46	1771.49
216.68	1732.58
216.90	1724.39
217.12	1787.88
217.34	1730.53
217.56	1728.49
217.78	1800.16
218.00	1753.06
218.22	1677.29
218.44	1841.12
218.66	1673.19
218.87	1738.73
219.09	1712.10
219.31	1730.53
219.53	1742.82
219.75	1761.25
219.97	1667.05
220.19	1691.62
220.41	1738.73
220.63	1757.16
220.85	1724.39
221.06	1751.01
221.28	1787.88
221.50	1740.77
221.72	1701.86
221.94	1660.90
222.16	1652.71
222.38	1773.54
222.60	1720.29
222.82	1724.39
223.03	1740.77
223.25	1654.76
223.47	1847.27
223.69	1871.84
223.91	1693.67
224.13	1693.67
224.35	1720.29
224.57	1808.36
224.78	1763.30
225.00	1615.85
225.22	1722.34
225.44	1654.76
225.66	1794.02
225.88	1652.71
226.10	1810.40
226.32	1765.35
226.53	1789.92
226.75	1677.29
226.97	1710.05
227.19	1701.86
227.41	1757.16
227.63	1728.49
227.85	1533.93
228.06	1773.54
228.28	1689.57
228.50	1730.53
228.72	1693.67
228.94	1679.33
229.16	1595.37
229.37	1652.71
229.59	1669.09
229.81	1816.55
230.03	1646.57
230.25	1617.90
230.47	1634.28
230.69	1665.00
230.90	1742.82
231.12	1691.62
231.34	1734.63
231.56	1759.21
231.78	1697.77
232.00	1708.01
232.21	1697.77
232.43	1691.62
232.65	1642.47
232.87	1755.11
233.09	1671.14
233.30	1757.16
233.52	1728.49
233.74	1677.29
233.96	1703.91
234.18	1722.34
234.40	1701.86
234.61	1816.55
234.83	1638.38
235.05	1689.57
235.27	1884.13
235.49	1763.30
235.70	1759.21
235.92	1771.49
236.14	1683.43
236.36	1832.93
236.58	1677.29
236.79	1767.40
237.01	1771.49
237.23	1681.38
237.45	1820.64
237.67	1685.48
237.88	1703.91
238.10	1800.16
238.32	1677.29
238.54	1714.15
238.76	1683.43
238.97	1714.15
239.19	1660.90
239.41	1738.73
239.63	1820.64
239.85	1787.88
240.06	1775.59
240.28	1652.71
240.50	1837.03
240.72	1763.30
240.93	1712.10
241.15	1718.25
241.37	1804.26
241.59	1732.58
241.81	1660.90
242.02	1652.71
242.24	1654.76
242.46	1718.25
242.68	1708.01
242.89	1740.77
243.11	1669.09
243.33	1640.42
243.55	1714.15
243.76	1839.08
243.98	1697.77
244.20	1736.68
244.42	1791.97
244.64	1693.67
244.85	1673.19
245.07	1718.25
245.29	1759.21
245.51	1685.48
245.72	1845.22
245.94	1822.69
246.16	1683.43
246.38	1771.49
246.59	1660.90
246.81	1646.57
247.03	1687.53
247.24	1656.81
247.46	1691.62
247.68	1796.07
247.90	1804.26
248.11	1693.67
248.33	1767.40
248.55	1687.53
248.77	1705.96
248.98	1753.06
249.20	1824.74
249.42	1757.16
249.64	1789.92
249.85	1621.99
250.07	1701.86
250.29	1834.98
250.50	1859.56
250.72	1644.52
250.94	1722.34
251.16	1834.98
251.37	1796.07
251.59	1730.53
251.81	1781.73
252.02	1798.12
252.24	1697.77
252.46	1796.07
252.68	1638.38
252.89	1689.57
253.11	1648.61
253.33	1798.12
253.54	1822.69
253.76	1662.95
253.98	1701.86
254.20	1730.53
254.41	1597.42
254.63	1714.15
254.85	1662.95
255.06	1718.25
255.28	1677.29
255.50	1710.05
255.71	1724.39
255.93	1673.19
256.15	1722.34
256.36	1658.85
256.58	1681.38
256.80	1806.31
257.02	1646.57
257.23	1724.39
257.45	1775.59
257.67	1738.73
257.88	1699.81
258.10	1712.10
258.32	1665.00
258.53	1697.77
258.75	1869.80
258.97	1619.94
259.18	1656.81
259.40	1665.00
259.62	1822.69
259.83	1791.97
260.05	1722.34
260.27	1990.63
260.48	1777.64
260.70	1648.61
260.92	1738.73
261.13	1730.53
261.35	1708.01
261.57	1746.92
261.78	1624.04
262.00	1601.51
262.22	1714.15
262.43	1693.67
262.65	1701.86
262.86	1716.20
263.08	1884.13
263.30	1712.10
263.51	1605.61
263.73	1648.61
263.95	1767.40
264.16	1583.08
264.38	1677.29
264.60	1775.59
264.81	1722.34
265.03	1816.55
265.25	1771.49
265.46	1671.14
265.68	1738.73
265.89	1796.07
266.11	1621.99
266.33	1804.26
266.54	1708.01
266.76	1779.68
266.98	1802.21
267.19	1714.15
267.41	1751.01
267.62	1767.40
267.84	1636.33
268.06	1781.73
268.27	1722.34
268.49	1820.64
268.70	1816.55
268.92	1669.09
269.14	1701.86
269.35	1638.38
269.57	1673.19
269.79	1765.35
270.00	1667.05
270.22	1816.55
270.43	1656.81
270.65	1648.61
270.87	1695.72
271.08	1810.40
271.30	1724.39
271.51	1734.63
271.73	1787.88
271.95	1765.35
272.16	1626.09
272.38	1738.73
272.59	1689.57
272.81	1771.49
273.02	1742.82
273.24	1710.05
273.46	1814.50
273.67	1705.96
273.89	1626.09
274.10	1640.42
274.32	1791.97
274.54	1796.07
274.75	1710.05
274.97	1757.16
275.18	1701.86
275.40	1763.30
275.61	1712.10
275.83	1685.48
276.05	1734.63
276.26	1718.25
276.48	1671.14
276.69	1638.38
276.91	1652.71
277.12	1818.60
277.34	1796.07
277.55	1775.59
277.77	1722.34
277.99	1679.33
278.20	1662.95
278.42	1675.24
278.63	1626.09
278.85	1705.96
279.06	1687.53
279.28	1791.97
279.49	1619.94
279.71	1708.01
279.93	1796.07
280.14	1630.18
280.36	1669.09
280.57	1757.16
280.79	1787.88
281.00	1611.75
281.22	1665.00
281.43	1767.40
281.65	1609.70
281.86	1673.19
282.08	1841.12
282.29	1804.26
282.51	1617.90
282.73	1695.72
282.94	1656.81
283.16	1759.21
283.37	1812.45
283.59	1748.97
283.80	1834.98
284.02	1712.10
284.23	1748.97
284.45	1685.48
284.66	1701.86
284.88	1708.01
285.09	1769.44
285.31	1791.97
285.52	1810.40
285.74	1591.27
285.95	1718.25
286.17	1763.30
286.38	1771.49
286.60	1599.46
286.81	1650.66
287.03	1716.20
287.24	1714.15
287.46	1773.54
287.67	1714.15
287.89	1841.12
288.10	1710.05
288.32	1787.88
288.53	1806.31
288.75	1701.86
288.96	1746.92
289.18	1685.48
289.39	1687.53
289.61	1732.58
289.82	1865.70
290.04	1757.16
290.25	1644.52
290.47	1675.24
290.68	1701.86
290.90	1804.26
291.11	1587.18
291.33	1738.73
291.54	1611.75
291.76	1730.53
291.97	1671.14
292.18	1751.01
292.40	1705.96
292.61	1656.81
292.83	1894.37
293.04	1775.59
293.26	1632.23
293.47	1738.73
293.69	1648.61
293.90	1689.57
294.12	1763.30
294.33	1742.82
294.55	1687.53
294.76	1769.44
294.97	1810.40
295.19	1877.99
295.40	1646.57
295.62	1730.53
295.83	1753.06
296.05	1638.38
296.26	1746.92
296.48	1660.90
296.69	1740.77
296.90	1697.77
297.12	1759.21
297.33	1746.92
297.55	1716.20
297.76	1742.82
297.98	1773.54
298.19	1667.05
298.41	1701.86
298.62	1699.81
298.83	1777.64
299.05	1716.20
299.26	1730.53
299.48	1746.92
299.69	1730.53
299.90	1705.96
300.12	1714.15
300.33	1736.68
300.55	1701.86
300.76	1730.53
300.98	1642.47
301.19	1759.21
301.40	1699.81
301.62	1619.94
301.83	1710.05
302.05	1703.91
302.26	1757.16
302.47	1716.20
302.69	1660.90
302.90	1732.58
303.12	1703.91
303.33	1763.30
303.54	1861.60
303.76	1726.44
303.97	1685.48
304.19	1845.22
304.40	1681.38
304.61	1736.68
304.83	1892.32
305.04	1804.26
305.26	1667.05
305.47	1689.57
305.68	1689.57
305.90	1628.14
306.11	1761.25
306.33	1722.34
306.54	1667.05
306.75	1794.02
306.97	1693.67
307.18	1697.77
307.39	1689.57
307.61	1763.30
307.82	1679.33
308.04	1783.78
308.25	1691.62
308.46	1701.86
308.68	1681.38
308.89	1742.82
309.10	1732.58
309.32	1722.34
309.53	1697.77
309.74	1656.81
309.96	1701.86
310.17	1789.92
310.39	1718.25
310.60	1714.15
310.81	1691.62
311.03	1621.99
311.24	1783.78
311.45	1716.20
311.67	1812.45
311.88	1685.48
312.09	1701.86
312.31	1640.42
312.52	1677.29
312.73	1638.38
312.95	1611.75
313.16	1705.96
313.37	1746.92
313.59	1732.58
313.80	1785.83
314.01	1798.12
314.23	1710.05
314.44	1658.85
314.65	1681.38
314.87	1611.75
315.08	1648.61
315.29	1650.66
315.51	1642.47
315.72	1601.51
315.93	1865.70
316.15	1722.34
316.36	1689.57
316.57	1681.38
316.79	1691.62
317.00	1695.72
317.21	1820.64
317.43	1644.52
317.64	1720.29
317.85	1634.28
318.07	1644.52
318.28	1808.36
318.49	1841.12
318.70	1927.14
318.92	1798.12
319.13	1904.61
319.34	1902.56
319.56	1818.60
319.77	1824.74
319.98	1773.54
320.20	1814.50
320.41	1757.16
320.62	1701.86
320.83	1650.66
321.05	1849.32
321.26	1761.25
321.47	1705.96
321.69	1787.88
321.90	1619.94
322.11	1632.23
322.32	1701.86
322.54	1796.07
322.75	1652.71
322.96	1849.32
323.18	1630.18
323.39	1574.89
323.60	1650.66
323.81	1775.59
324.03	1695.72
324.24	1722.34
324.45	1728.49
324.66	1673.19
324.88	1808.36
325.09	1800.16
325.30	1685.48
325.52	1708.01
325.73	1677.29
325.94	1617.90
326.15	1562.60
326.37	1718.25
326.58	1726.44
326.79	1738.73
327.00	1716.20
327.22	1724.39
327.43	1697.77
327.64	1626.09
327.85	1746.92
328.07	1783.78
328.28	1794.02
328.49	1722.34
328.70	1669.09
328.92	1703.91
329.13	1742.82
329.34	1769.44
329.55	1824.74
329.76	1759.21
329.98	1701.86
330.19	1796.07
330.40	1730.53
330.61	1705.96
330.83	1769.44
331.04	1720.29
331.25	1677.29
331.46	1603.56
331.68	1673.19
331.89	1738.73
332.10	1710.05
332.31	1621.99
332.52	1736.68
332.74	1812.45
332.95	1662.95
333.16	1744.87
333.37	1740.77
333.58	1677.29
333.80	1699.81
334.01	1611.75
334.22	1671.14
334.43	1673.19
334.64	1710.05
334.86	1644.52
335.07	1630.18
335.28	1812.45
335.49	1644.52
335.70	1765.35
335.92	1759.21
336.13	1775.59
336.34	1726.44
336.55	1773.54
336.76	1748.97
336.98	1681.38
337.19	1712.10
337.40	1738.73
337.61	1834.98
337.82	1734.63
338.04	1730.53
338.25	1644.52
338.46	1673.19
338.67	1724.39
338.88	1599.46
339.09	1679.33
339.31	1650.66
339.52	1576.94
339.73	1656.81
339.94	1734.63
340.15	1755.11
340.36	1619.94
340.58	1705.96
340.79	1718.25
341.00	1742.82
341.21	1677.29
341.42	1753.06
341.63	1710.05
341.85	1734.63
342.06	1777.64
342.27	1724.39
342.48	1812.45
342.69	1611.75
342.90	1730.53
343.12	1742.82
343.33	1769.44
343.54	1812.45
343.75	1783.78
343.96	1767.40
344.17	1640.42
344.38	1789.92
344.60	1619.94
344.81	1673.19
345.02	1783.78
345.23	1755.11
345.44	1740.77
345.65	1781.73
345.86	1789.92
346.07	1775.59
346.29	1748.97
346.50	1779.68
346.71	1779.68
346.92	1718.25
347.13	1886.18
347.34	1708.01
347.55	1708.01
347.76	1624.04
347.98	1615.85
348.19	1699.81
348.40	1806.31
348.61	1648.61
348.82	1843.17
349.03	1794.02
349.24	1628.14
349.45	1832.93
349.66	1531.88
349.88	1773.54
350.09	1746.92
350.30	1783.78
350.51	1837.03
350.72	1746.92
350.93	1746.92
351.14	1675.24
351.35	1744.87
351.56	1769.44
351.77	1669.09
351.99	1783.78
352.20	1740.77
352.41	1753.06
352.62	1595.37
352.83	1701.86
353.04	1685.48
353.25	1687.53
353.46	1796.07
353.67	1734.63
353.88	1611.75
354.09	1656.81
354.30	1773.54
354.52	1701.86
354.73	1742.82
354.94	1699.81
355.15	1734.63
355.36	1800.16
355.57	1746.92
355.78	1691.62
355.99	1654.76
356.20	1697.77
356.41	1804.26
356.62	1708.01
356.83	1794.02
357.04	1798.12
357.25	1578.98
357.46	1675.24
357.68	1640.42
357.89	1615.85
358.10	1787.88
358.31	1697.77
358.52	1726.44
358.73	1720.29
358.94	1699.81
359.15	1660.90
359.36	1781.73
359.57	1681.38
359.78	1687.53
359.99	1699.81
360.20	1640.42
360.41	1599.46
360.62	1785.83
360.83	1787.88
361.04	1673.19
361.25	1761.25
361.46	1759.21
361.67	1722.34
361.88	1746.92
362.09	1812.45
362.30	1742.82
362.51	1624.04
362.72	1769.44
362.93	1744.87
363.14	1781.73
363.35	1701.86
363.56	1583.08
363.78	1708.01
363.99	1785.83
364.20	1681.38
364.41	1761.25
364.62	1791.97
364.83	1798.12
365.04	1679.33
365.25	1699.81
365.46	1849.32
365.67	1665.00
365.88	1671.14
366.09	1669.09
366.30	1708.01
366.51	1761.25
366.72	1658.85
366.93	1681.38
367.14	1736.68
367.35	1808.36
367.56	1699.81
367.77	1765.35
367.98	1703.91
368.18	1710.05
368.39	1757.16
368.60	1689.57
368.81	1746.92
369.02	1658.85
369.23	1658.85
369.44	1669.09
369.65	1685.48
369.86	1759.21
370.07	1796.07
370.28	1656.81
370.49	1652.71
370.70	1748.97
370.91	1640.42
371.12	1665.00
371.33	1751.01
371.54	1734.63
371.75	1789.92
371.96	1585.13
372.17	1742.82
372.38	1718.25
372.59	1783.78
372.80	1693.67
373.01	1714.15
373.22	1732.58
373.43	1808.36
373.64	1624.04
373.85	1814.50
374.06	1787.88
374.26	1748.97
374.47	1767.40
374.68	1800.16
374.89	1787.88
375.10	1730.53
375.31	1740.77
375.52	1642.47
375.73	1685.48
375.94	1650.66
376.15	1794.02
376.36	1716.20
376.57	1693.67
376.78	1685.48
376.99	1722.34
377.20	1843.17
377.40	1742.82
377.61	1796.07
377.82	1685.48
378.03	1857.51
378.24	1742.82
378.45	1675.24
378.66	1781.73
378.87	1628.14
379.08	1671.14
379.29	1681.38
379.50	1828.84
379.71	1665.00
379.91	1753.06
380.12	1679.33
380.33	1783.78
380.54	1740.77
380.75	1691.62
380.96	1761.25
381.17	1791.97
381.38	1775.59
381.59	1759.21
381.80	1693.67
382.00	1783.78
382.21	1853.41
382.42	1830.88
382.63	1888.23
382.84	1736.68
383.05	1886.18
383.26	1808.36
383.47	1681.38
383.68	1755.11
383.88	1802.21
384.09	1726.44
384.30	1855.46
384.51	1732.58
384.72	1744.87
384.93	1693.67
385.14	1732.58
385.35	1775.59
385.55	1726.44
385.76	1726.44
385.97	1681.38
386.18	1714.15
386.39	1714.15
386.60	1693.67
386.81	1753.06
387.02	1689.57
387.22	1640.42
387.43	1765.35
387.64	1808.36
387.85	1855.46
388.06	2152.42
388.27	4265.92
388.48	6903.70
388.68	7980.93
388.89	9623.41
389.10	9809.77
389.31	8380.29
389.52	7675.79
389.73	6713.24
389.93	6143.91
390.14	5805.99
390.35	5115.83
390.56	4607.93
390.77	3796.93
390.98	3098.58
391.18	2594.78
391.39	2172.89
391.60	1798.12
391.81	1853.41
392.02	1673.19
392.23	1837.03
392.43	1761.25
392.64	1796.07
392.85	1779.68
393.06	1810.40
393.27	1689.57
393.47	1662.95
393.68	1724.39
393.89	1662.95
394.10	1767.40
394.31	1681.38
394.52	1693.67
394.72	1662.95
394.93	1873.89
395.14	1677.29
395.35	1714.15
395.56	1687.53
395.76	1773.54
395.97	1806.31
396.18	1806.31
396.39	1853.41
396.60	2002.91
396.80	1931.23
397.01	1894.37
397.22	1849.32
397.43	1796.07
397.64	1755.11
397.84	1736.68
398.05	1880.04
398.26	1804.26
398.47	1832.93
398.67	1857.51
398.88	1732.58
399.09	1716.20
399.30	1730.53
399.51	1708.01
399.71	1652.71
399.92	1685.48
400.13	1761.25
400.34	1671.14
400.54	1736.68
400.75	1767.40
400.96	1751.01
401.17	1765.35
401.37	1724.39
401.58	1681.38
401.79	1722.34
402.00	1945.57
402.21	1970.15
402.41	1964.00
402.62	1949.67
402.83	2002.91
403.04	2019.30
403.24	2009.06
403.45	1906.66
403.66	1939.43
403.87	1918.95
404.07	1886.18
404.28	1894.37
404.49	1918.95
404.70	1710.05
404.90	1779.68
405.11	1722.34
405.32	1744.87
405.52	1716.20
405.73	1660.90
405.94	1626.09
406.15	1767.40
406.35	1755.11
406.56	1742.82
406.77	1675.24
406.98	1773.54
407.18	1656.81
407.39	1685.48
407.60	1751.01
407.80	1740.77
408.01	1714.15
408.22	1775.59
408.43	1665.00
408.63	1734.63
408.84	1736.68
409.05	1753.06
409.25	1619.94
409.46	1644.52
409.67	1734.63
409.88	1779.68
410.08	1714.15
410.29	1724.39
410.50	1808.36
410.70	1746.92
410.91	1703.91
411.12	1787.88
411.32	1714.15
411.53	1603.56
411.74	1820.64
411.95	1757.16
412.15	1783.78
412.36	1849.32
412.57	1800.16
412.77	1796.07
412.98	1814.50
413.19	1703.91
413.39	1757.16
413.60	1791.97
413.81	1804.26
414.01	1658.85
414.22	1775.59
414.43	1716.20
414.63	1687.53
414.84	1814.50
415.05	1785.83
415.25	1630.18
415.46	1798.12
415.67	1748.97
415.87	1771.49
416.08	1695.72
416.29	1787.88
416.49	1693.67
416.70	1726.44
416.91	1681.38
417.11	1712.10
417.32	1730.53
417.53	1738.73
417.73	1740.77
417.94	1679.33
418.15	1746.92
418.35	1755.11
418.56	1746.92
418.77	1867.75
418.97	1757.16
419.18	1761.25
419.38	1607.66
419.59	1708.01
419.80	1777.64
420.00	1650.66
420.21	1748.97
420.42	1736.68
420.62	1703.91
420.83	1718.25
421.04	1755.11
421.24	1683.43
421.45	1714.15
421.65	1744.87
421.86	1712.10
422.07	1730.53
422.27	1662.95
422.48	1738.73
422.69	1697.77
422.89	1734.63
423.10	1705.96
423.30	1591.27
423.51	1734.63
423.72	1685.48
423.92	1720.29
424.13	1617.90
424.33	1796.07
424.54	1730.53
424.75	1755.11
424.95	1824.74
425.16	1755.11
425.36	1720.29
425.57	1839.08
425.78	1767.40
425.98	1722.34
426.19	1701.86
426.39	1695.72
426.60	1771.49
426.81	1802.21
427.01	1744.87
427.22	1656.81
427.42	1562.60
427.63	1609.70
427.83	1738.73
428.04	1812.45
428.25	1789.92
428.45	1781.73
428.66	1783.78
428.86	1671.14
429.07	1699.81
429.28	1671.14
429.48	1769.44
429.69	1679.33
429.89	1755.11
430.10	1613.80
430.30	1703.91
430.51	1742.82
430.71	1751.01
430.92	1712.10
431.13	1732.58
431.33	1685.48
431.54	1742.82
431.74	1802.21
431.95	1820.64
432.15	1583.08
432.36	1791.97
432.56	1775.59
432.77	1845.22
432.98	1820.64
433.18	1794.02
433.39	1728.49
433.59	1714.15
433.80	1775.59
434.00	1890.28
434.21	1714.15
434.41	1665.00
434.62	1839.08
434.82	1695.72
435.03	1601.51
435.23	1746.92
435.44	1681.38
435.64	1748.97
435.85	1722.34
436.06	1837.03
436.26	1769.44
436.47	1710.05
436.67	1673.19
436.88	1636.33
437.08	1748.97
437.29	1820.64
437.49	1699.81
437.70	1746.92
437.90	1716.20
438.11	1904.61
438.31	1818.60
438.52	1865.70
438.72	1906.66
438.93	1927.14
439.13	1787.88
439.34	1828.84
439.54	1734.63
439.75	1787.88
439.95	1798.12
440.16	1734.63
440.36	1759.21
440.57	1773.54
440.77	1689.57
440.98	1720.29
441.18	1718.25
441.39	1705.96
441.59	1724.39
441.80	1849.32
442.00	1693.67
442.21	1875.94
442.41	1714.15
442.62	1728.49
442.82	1714.15
443.02	1685.48
443.23	1689.57
443.43	1767.40
443.64	1785.83
443.84	1699.81
444.05	1763.30
444.25	1738.73
444.46	1701.86
444.66	1703.91
444.87	1861.60
445.07	1710.05
445.28	1689.57
445.48	1777.64
445.69	1757.16
445.89	1990.63
446.09	1744.87
446.30	1998.82
446.50	2621.40
446.71	3663.82
446.91	4118.47
447.12	4712.38
447.32	4812.73
447.53	4317.12
447.73	3841.99
447.93	3424.20
448.14	3330.00
448.34	3227.60
448.55	2901.97
448.75	2871.25
448.96	2715.61
449.16	2510.81
449.36	2265.05
449.57	2070.50
449.77	1837.03
449.98	1791.97
450.18	1806.31
450.39	1859.56
450.59	1814.50
450.79	1728.49
451.00	1763.30
451.20	1791.97
451.41	1738.73
451.61	1865.70
451.81	1763.30
452.02	1714.15
452.22	1769.44
452.43	1796.07
452.63	1763.30
