SpectraSuite Data File
++++++++++++++++++++++++++++++++++++
Date: Mon Jun 06 14:34:17 CEST 2016
User: root
Dark Spectrum Present: No
Reference Spectrum Present: No
Number of Sampled Component Spectra: 1
Spectrometers: USB4C02835
Integration Time (usec): 100000 (USB4C02835)
Spectra Averaged: 1 (USB4C02835)
Boxcar Smoothing: 0 (USB4C02835)
Correct for Electrical Dark: No (USB4C02835)
Strobe/Lamp Enabled: No (USB4C02835)
Correct for Detector Non-linearity: No (USB4C02835)
Correct for Stray Light: No (USB4C02835)
Number of Pixels in Processed Spectrum: 3648
>>>>>Begin Processed Spectral Data<<<<<
177.47	1404.91
177.69	1404.91
177.91	1404.91
178.13	1464.30
178.36	1447.91
178.58	1634.28
178.80	1722.34
179.02	1593.32
179.24	1689.57
179.46	1720.29
179.68	1798.12
179.90	1691.62
180.13	1730.53
180.35	1665.00
180.57	1665.00
180.79	1718.25
181.01	1738.73
181.23	1806.31
181.45	1769.44
181.67	1736.68
181.90	1787.88
182.12	1607.66
182.34	1624.04
182.56	1714.15
182.78	1611.75
183.00	1695.72
183.22	1736.68
183.44	1591.27
183.66	1857.51
183.89	1785.83
184.11	1669.09
184.33	1654.76
184.55	1812.45
184.77	1742.82
184.99	1673.19
185.21	1662.95
185.43	1796.07
185.65	1646.57
185.87	1681.38
186.10	1769.44
186.32	1886.18
186.54	1761.25
186.76	1779.68
186.98	1732.58
187.20	1746.92
187.42	1636.33
187.64	1677.29
187.86	1662.95
188.08	1744.87
188.30	1767.40
188.52	1714.15
188.75	1730.53
188.97	1761.25
189.19	1677.29
189.41	1632.23
189.63	1703.91
189.85	1720.29
190.07	1648.61
190.29	1558.50
190.51	1673.19
190.73	1601.51
190.95	1775.59
191.17	1675.24
191.39	1646.57
191.61	1742.82
191.84	1701.86
192.06	1634.28
192.28	1626.09
192.50	1871.84
192.72	1734.63
192.94	1673.19
193.16	1771.49
193.38	1724.39
193.60	1605.61
193.82	1652.71
194.04	1783.78
194.26	1718.25
194.48	1714.15
194.70	1634.28
194.92	1697.77
195.14	1785.83
195.36	1683.43
195.58	1738.73
195.80	1673.19
196.02	1738.73
196.24	1724.39
196.46	1656.81
196.69	1671.14
196.91	1873.89
197.13	1771.49
197.35	1648.61
197.57	1771.49
197.79	1779.68
198.01	1765.35
198.23	1787.88
198.45	1724.39
198.67	1568.74
198.89	1697.77
199.11	1705.96
199.33	1677.29
199.55	1581.03
199.77	1687.53
199.99	1722.34
200.21	1619.94
200.43	1734.63
200.65	1624.04
200.87	1560.55
201.09	1673.19
201.31	1708.01
201.53	1755.11
201.75	1755.11
201.97	1697.77
202.19	1669.09
202.41	1753.06
202.63	1818.60
202.85	1687.53
203.07	1712.10
203.29	1628.14
203.51	1636.33
203.73	1744.87
203.95	1812.45
204.17	1703.91
204.39	1697.77
204.61	1697.77
204.83	1693.67
205.05	1751.01
205.27	1816.55
205.49	1814.50
205.71	1722.34
205.93	1652.71
206.15	1583.08
206.37	1699.81
206.59	1703.91
206.81	1572.84
207.03	1705.96
207.25	1574.89
207.47	1761.25
207.69	1648.61
207.91	1742.82
208.13	1775.59
208.34	1665.00
208.56	1566.70
208.78	1705.96
209.00	1581.03
209.22	1638.38
209.44	1675.24
209.66	1791.97
209.88	1695.72
210.10	1703.91
210.32	1710.05
210.54	1789.92
210.76	1714.15
210.98	1748.97
211.20	1574.89
211.42	1705.96
211.64	1755.11
211.86	1751.01
212.08	1712.10
212.30	1736.68
212.52	1677.29
212.74	1699.81
212.96	1738.73
213.17	1753.06
213.39	1751.01
213.61	1839.08
213.83	1697.77
214.05	1624.04
214.27	1779.68
214.49	1660.90
214.71	1640.42
214.93	1791.97
215.15	1728.49
215.37	1773.54
215.59	1599.46
215.81	1818.60
216.03	1804.26
216.24	1732.58
216.46	1697.77
216.68	1720.29
216.90	1732.58
217.12	1806.31
217.34	1783.78
217.56	1683.43
217.78	1755.11
218.00	1798.12
218.22	1753.06
218.44	1714.15
218.66	1730.53
218.87	1898.47
219.09	1626.09
219.31	1718.25
219.53	1650.66
219.75	1673.19
219.97	1693.67
220.19	1738.73
220.41	1685.48
220.63	1746.92
220.85	1710.05
221.06	1681.38
221.28	1701.86
221.50	1767.40
221.72	1751.01
221.94	1748.97
222.16	1683.43
222.38	1736.68
222.60	1736.68
222.82	1687.53
223.03	1777.64
223.25	1697.77
223.47	1712.10
223.69	1796.07
223.91	1720.29
224.13	1665.00
224.35	1683.43
224.57	1789.92
224.78	1701.86
225.00	1722.34
225.22	1705.96
225.44	1722.34
225.66	1748.97
225.88	1607.66
226.10	1771.49
226.32	1705.96
226.53	1753.06
226.75	1609.70
226.97	1703.91
227.19	1701.86
227.41	1626.09
227.63	1671.14
227.85	1611.75
228.06	1765.35
228.28	1718.25
228.50	1751.01
228.72	1734.63
228.94	1685.48
229.16	1609.70
229.37	1599.46
229.59	1603.56
229.81	1791.97
230.03	1613.80
230.25	1624.04
230.47	1648.61
230.69	1615.85
230.90	1677.29
231.12	1726.44
231.34	1665.00
231.56	1759.21
231.78	1646.57
232.00	1738.73
232.21	1720.29
232.43	1695.72
232.65	1550.31
232.87	1697.77
233.09	1701.86
233.30	1652.71
233.52	1677.29
233.74	1652.71
233.96	1710.05
234.18	1656.81
234.40	1693.67
234.61	1767.40
234.83	1673.19
235.05	1615.85
235.27	1818.60
235.49	1806.31
235.70	1724.39
235.92	1757.16
236.14	1624.04
236.36	1812.45
236.58	1619.94
236.79	1716.20
237.01	1642.47
237.23	1677.29
237.45	1783.78
237.67	1675.24
237.88	1695.72
238.10	1761.25
238.32	1728.49
238.54	1716.20
238.76	1744.87
238.97	1714.15
239.19	1716.20
239.41	1781.73
239.63	1771.49
239.85	1710.05
240.06	1728.49
240.28	1660.90
240.50	1812.45
240.72	1705.96
240.93	1730.53
241.15	1783.78
241.37	1695.72
241.59	1806.31
241.81	1679.33
242.02	1675.24
242.24	1767.40
242.46	1744.87
242.68	1583.08
242.89	1765.35
243.11	1761.25
243.33	1681.38
243.55	1779.68
243.76	1759.21
243.98	1662.95
244.20	1665.00
244.42	1761.25
244.64	1773.54
244.85	1638.38
245.07	1654.76
245.29	1665.00
245.51	1722.34
245.72	1759.21
245.94	1783.78
246.16	1751.01
246.38	1732.58
246.59	1712.10
246.81	1644.52
247.03	1732.58
247.24	1720.29
247.46	1624.04
247.68	1646.57
247.90	1632.23
248.11	1619.94
248.33	1734.63
248.55	1726.44
248.77	1710.05
248.98	1705.96
249.20	1855.46
249.42	1732.58
249.64	1724.39
249.85	1648.61
250.07	1687.53
250.29	1699.81
250.50	1777.64
250.72	1634.28
250.94	1730.53
251.16	1808.36
251.37	1722.34
251.59	1740.77
251.81	1767.40
252.02	1789.92
252.24	1753.06
252.46	1806.31
252.68	1662.95
252.89	1699.81
253.11	1611.75
253.33	1800.16
253.54	1896.42
253.76	1669.09
253.98	1681.38
254.20	1693.67
254.41	1669.09
254.63	1632.23
254.85	1585.13
255.06	1724.39
255.28	1724.39
255.50	1703.91
255.71	1648.61
255.93	1681.38
256.15	1613.80
256.36	1722.34
256.58	1675.24
256.80	1695.72
257.02	1699.81
257.23	1581.03
257.45	1736.68
257.67	1726.44
257.88	1615.85
258.10	1685.48
258.32	1740.77
258.53	1671.14
258.75	1769.44
258.97	1689.57
259.18	1771.49
259.40	1697.77
259.62	1775.59
259.83	1769.44
260.05	1775.59
260.27	2045.92
260.48	1857.51
260.70	1624.04
260.92	1650.66
261.13	1705.96
261.35	1761.25
261.57	1710.05
261.78	1673.19
262.00	1628.14
262.22	1736.68
262.43	1642.47
262.65	1677.29
262.86	1689.57
263.08	1765.35
263.30	1685.48
263.51	1660.90
263.73	1667.05
263.95	1746.92
264.16	1665.00
264.38	1665.00
264.60	1718.25
264.81	1660.90
265.03	1781.73
265.25	1734.63
265.46	1611.75
265.68	1681.38
265.89	1691.62
266.11	1621.99
266.33	1761.25
266.54	1730.53
266.76	1796.07
266.98	1705.96
267.19	1669.09
267.41	1755.11
267.62	1701.86
267.84	1671.14
268.06	1757.16
268.27	1705.96
268.49	1746.92
268.70	1757.16
268.92	1652.71
269.14	1615.85
269.35	1714.15
269.57	1675.24
269.79	1765.35
270.00	1630.18
270.22	1736.68
270.43	1570.79
270.65	1611.75
270.87	1736.68
271.08	1718.25
271.30	1720.29
271.51	1685.48
271.73	1734.63
271.95	1763.30
272.16	1681.38
272.38	1681.38
272.59	1671.14
272.81	1632.23
273.02	1755.11
273.24	1685.48
273.46	1798.12
273.67	1697.77
273.89	1665.00
274.10	1681.38
274.32	1804.26
274.54	1773.54
274.75	1708.01
274.97	1693.67
275.18	1746.92
275.40	1791.97
275.61	1705.96
275.83	1636.33
276.05	1687.53
276.26	1687.53
276.48	1714.15
276.69	1732.58
276.91	1644.52
277.12	1751.01
277.34	1785.83
277.55	1751.01
277.77	1705.96
277.99	1708.01
278.20	1597.42
278.42	1646.57
278.63	1632.23
278.85	1705.96
279.06	1734.63
279.28	1744.87
279.49	1726.44
279.71	1783.78
279.93	1746.92
280.14	1667.05
280.36	1601.51
280.57	1687.53
280.79	1767.40
281.00	1621.99
281.22	1714.15
281.43	1751.01
281.65	1589.22
281.86	1652.71
282.08	1763.30
282.29	1796.07
282.51	1681.38
282.73	1630.18
282.94	1652.71
283.16	1724.39
283.37	1726.44
283.59	1697.77
283.80	1777.64
284.02	1759.21
284.23	1718.25
284.45	1669.09
284.66	1759.21
284.88	1597.42
285.09	1673.19
285.31	1652.71
285.52	1738.73
285.74	1597.42
285.95	1730.53
286.17	1667.05
286.38	1662.95
286.60	1681.38
286.81	1638.38
287.03	1693.67
287.24	1673.19
287.46	1779.68
287.67	1718.25
287.89	1828.84
288.10	1660.90
288.32	1708.01
288.53	1791.97
288.75	1652.71
288.96	1755.11
289.18	1654.76
289.39	1714.15
289.61	1742.82
289.82	1779.68
290.04	1779.68
290.25	1673.19
290.47	1716.20
290.68	1726.44
290.90	1814.50
291.11	1652.71
291.33	1722.34
291.54	1646.57
291.76	1683.43
291.97	1632.23
292.18	1708.01
292.40	1681.38
292.61	1701.86
292.83	1767.40
293.04	1705.96
293.26	1699.81
293.47	1654.76
293.69	1615.85
293.90	1685.48
294.12	1738.73
294.33	1787.88
294.55	1751.01
294.76	1783.78
294.97	1781.73
295.19	1740.77
295.40	1646.57
295.62	1693.67
295.83	1630.18
296.05	1675.24
296.26	1748.97
296.48	1693.67
296.69	1632.23
296.90	1744.87
297.12	1691.62
297.33	1806.31
297.55	1660.90
297.76	1730.53
297.98	1806.31
298.19	1675.24
298.41	1755.11
298.62	1654.76
298.83	1773.54
299.05	1763.30
299.26	1697.77
299.48	1634.28
299.69	1697.77
299.90	1693.67
300.12	1687.53
300.33	1673.19
300.55	1755.11
300.76	1753.06
300.98	1607.66
301.19	1724.39
301.40	1691.62
301.62	1660.90
301.83	1619.94
302.05	1644.52
302.26	1722.34
302.47	1742.82
302.69	1665.00
302.90	1693.67
303.12	1574.89
303.33	1783.78
303.54	1748.97
303.76	1669.09
303.97	1695.72
304.19	1746.92
304.40	1640.42
304.61	1730.53
304.83	1789.92
305.04	1763.30
305.26	1681.38
305.47	1675.24
305.68	1779.68
305.90	1638.38
306.11	1710.05
306.33	1671.14
306.54	1646.57
306.75	1615.85
306.97	1589.22
307.18	1665.00
307.39	1683.43
307.61	1771.49
307.82	1699.81
308.04	1630.18
308.25	1640.42
308.46	1726.44
308.68	1644.52
308.89	1685.48
309.10	1798.12
309.32	1755.11
309.53	1708.01
309.74	1728.49
309.96	1628.14
310.17	1697.77
310.39	1675.24
310.60	1677.29
310.81	1648.61
311.03	1652.71
311.24	1728.49
311.45	1675.24
311.67	1777.64
311.88	1691.62
312.09	1759.21
312.31	1624.04
312.52	1757.16
312.73	1693.67
312.95	1703.91
313.16	1658.85
313.37	1777.64
313.59	1689.57
313.80	1705.96
314.01	1810.40
314.23	1642.47
314.44	1660.90
314.65	1689.57
314.87	1640.42
315.08	1693.67
315.29	1656.81
315.51	1673.19
315.72	1613.80
315.93	1748.97
316.15	1767.40
316.36	1628.14
316.57	1699.81
316.79	1753.06
317.00	1724.39
317.21	1763.30
317.43	1656.81
317.64	1718.25
317.85	1681.38
318.07	1638.38
318.28	1691.62
318.49	1794.02
318.70	1908.71
318.92	1824.74
319.13	1826.79
319.34	1818.60
319.56	1843.17
319.77	1826.79
319.98	1726.44
320.20	1822.69
320.41	1681.38
320.62	1626.09
320.83	1650.66
321.05	1839.08
321.26	1705.96
321.47	1746.92
321.69	1808.36
321.90	1615.85
322.11	1685.48
322.32	1724.39
322.54	1703.91
322.75	1748.97
322.96	1828.84
323.18	1654.76
323.39	1621.99
323.60	1642.47
323.81	1777.64
324.03	1677.29
324.24	1648.61
324.45	1746.92
324.66	1654.76
324.88	1751.01
325.09	1771.49
325.30	1644.52
325.52	1705.96
325.73	1667.05
325.94	1667.05
326.15	1615.85
326.37	1681.38
326.58	1726.44
326.79	1701.86
327.00	1675.24
327.22	1740.77
327.43	1669.09
327.64	1576.94
327.85	1667.05
328.07	1683.43
328.28	1697.77
328.49	1607.66
328.70	1660.90
328.92	1738.73
329.13	1724.39
329.34	1665.00
329.55	1781.73
329.76	1738.73
329.98	1685.48
330.19	1763.30
330.40	1765.35
330.61	1712.10
330.83	1658.85
331.04	1656.81
331.25	1656.81
331.46	1738.73
331.68	1656.81
331.89	1691.62
332.10	1658.85
332.31	1624.04
332.52	1716.20
332.74	1767.40
332.95	1632.23
333.16	1798.12
333.37	1675.24
333.58	1714.15
333.80	1722.34
334.01	1648.61
334.22	1683.43
334.43	1669.09
334.64	1697.77
334.86	1583.08
335.07	1671.14
335.28	1849.32
335.49	1595.37
335.70	1697.77
335.92	1771.49
336.13	1789.92
336.34	1765.35
336.55	1724.39
336.76	1734.63
336.98	1519.59
337.19	1658.85
337.40	1796.07
337.61	1875.94
337.82	1716.20
338.04	1765.35
338.25	1665.00
338.46	1732.58
338.67	1744.87
338.88	1597.42
339.09	1640.42
339.31	1652.71
339.52	1638.38
339.73	1609.70
339.94	1673.19
340.15	1800.16
340.36	1619.94
340.58	1720.29
340.79	1705.96
341.00	1695.72
341.21	1683.43
341.42	1781.73
341.63	1660.90
341.85	1740.77
342.06	1751.01
342.27	1722.34
342.48	1669.09
342.69	1574.89
342.90	1714.15
343.12	1710.05
343.33	1689.57
343.54	1679.33
343.75	1751.01
343.96	1683.43
344.17	1673.19
344.38	1742.82
344.60	1671.14
344.81	1660.90
345.02	1705.96
345.23	1802.21
345.44	1828.84
345.65	1783.78
345.86	1738.73
346.07	1603.56
346.29	1691.62
346.50	1742.82
346.71	1722.34
346.92	1787.88
347.13	1794.02
347.34	1705.96
347.55	1701.86
347.76	1740.77
347.98	1593.32
348.19	1642.47
348.40	1765.35
348.61	1617.90
348.82	1794.02
349.03	1794.02
349.24	1673.19
349.45	1820.64
349.66	1619.94
349.88	1683.43
350.09	1660.90
350.30	1798.12
350.51	1812.45
350.72	1691.62
350.93	1738.73
351.14	1687.53
351.35	1742.82
351.56	1712.10
351.77	1650.66
351.99	1705.96
352.20	1740.77
352.41	1742.82
352.62	1615.85
352.83	1636.33
353.04	1755.11
353.25	1609.70
353.46	1738.73
353.67	1753.06
353.88	1585.13
354.09	1730.53
354.30	1673.19
354.52	1714.15
354.73	1681.38
354.94	1605.61
355.15	1640.42
355.36	1732.58
355.57	1736.68
355.78	1851.36
355.99	1669.09
356.20	1599.46
356.41	1763.30
356.62	1652.71
356.83	1699.81
357.04	1763.30
357.25	1595.37
357.46	1660.90
357.68	1644.52
357.89	1679.33
358.10	1718.25
358.31	1687.53
358.52	1660.90
358.73	1628.14
358.94	1640.42
359.15	1685.48
359.36	1767.40
359.57	1755.11
359.78	1685.48
359.99	1765.35
360.20	1587.18
360.41	1621.99
360.62	1742.82
360.83	1679.33
361.04	1738.73
361.25	1757.16
361.46	1767.40
361.67	1736.68
361.88	1802.21
362.09	1804.26
362.30	1794.02
362.51	1654.76
362.72	1669.09
362.93	1843.17
363.14	1705.96
363.35	1712.10
363.56	1675.24
363.78	1748.97
363.99	1746.92
364.20	1699.81
364.41	1646.57
364.62	1804.26
364.83	1744.87
365.04	1699.81
365.25	1718.25
365.46	1863.65
365.67	1636.33
365.88	1673.19
366.09	1646.57
366.30	1718.25
366.51	1716.20
366.72	1669.09
366.93	1648.61
367.14	1748.97
367.35	1748.97
367.56	1714.15
367.77	1794.02
367.98	1671.14
368.18	1705.96
368.39	1681.38
368.60	1660.90
368.81	1791.97
369.02	1708.01
369.23	1705.96
369.44	1646.57
369.65	1685.48
369.86	1738.73
370.07	1701.86
370.28	1662.95
370.49	1794.02
370.70	1687.53
370.91	1660.90
371.12	1609.70
371.33	1708.01
371.54	1667.05
371.75	1808.36
371.96	1587.18
372.17	1632.23
372.38	1619.94
372.59	1722.34
372.80	1630.18
373.01	1695.72
373.22	1748.97
373.43	1685.48
373.64	1691.62
373.85	1732.58
374.06	1757.16
374.26	1779.68
374.47	1726.44
374.68	1851.36
374.89	1593.32
375.10	1677.29
375.31	1767.40
375.52	1652.71
375.73	1675.24
375.94	1742.82
376.15	1818.60
376.36	1675.24
376.57	1638.38
376.78	1695.72
376.99	1615.85
377.20	1771.49
377.40	1708.01
377.61	1759.21
377.82	1619.94
378.03	1718.25
378.24	1736.68
378.45	1710.05
378.66	1722.34
378.87	1599.46
379.08	1646.57
379.29	1636.33
379.50	1800.16
379.71	1722.34
379.91	1748.97
380.12	1632.23
380.33	1724.39
380.54	1783.78
380.75	1613.80
380.96	1783.78
381.17	1695.72
381.38	1667.05
381.59	1771.49
381.80	1662.95
382.00	1810.40
382.21	1689.57
382.42	1822.69
382.63	1912.80
382.84	1677.29
383.05	1730.53
383.26	1728.49
383.47	1777.64
383.68	1775.59
383.88	1687.53
384.09	1789.92
384.30	1814.50
384.51	1734.63
384.72	1685.48
384.93	1656.81
385.14	1685.48
385.35	1726.44
385.55	1607.66
385.76	1652.71
385.97	1662.95
386.18	1658.85
386.39	1679.33
386.60	1665.00
386.81	1744.87
387.02	1683.43
387.22	1687.53
387.43	1714.15
387.64	1775.59
387.85	1882.08
388.06	2248.67
388.27	4173.76
388.48	6950.81
388.68	8146.82
388.89	9785.19
389.10	9944.94
389.31	8468.35
389.52	7640.97
389.73	6819.74
389.93	6143.91
390.14	5838.76
390.35	5134.26
390.56	4548.54
390.77	3829.70
390.98	3010.51
391.18	2490.33
391.39	2201.57
391.60	1884.13
391.81	1830.88
392.02	1705.96
392.23	1812.45
392.43	1697.77
392.64	1845.22
392.85	1677.29
393.06	1785.83
393.27	1689.57
393.47	1656.81
393.68	1687.53
393.89	1714.15
394.10	1740.77
394.31	1617.90
394.52	1716.20
394.72	1644.52
394.93	1808.36
395.14	1650.66
395.35	1626.09
395.56	1710.05
395.76	1712.10
395.97	1738.73
396.18	1763.30
396.39	1820.64
396.60	2019.30
396.80	1886.18
397.01	1904.61
397.22	1843.17
397.43	1814.50
397.64	1730.53
397.84	1791.97
398.05	1869.80
398.26	1736.68
398.47	1796.07
398.67	1791.97
398.88	1681.38
399.09	1746.92
399.30	1705.96
399.51	1812.45
399.71	1665.00
399.92	1685.48
400.13	1712.10
400.34	1693.67
400.54	1673.19
400.75	1804.26
400.96	1810.40
401.17	1763.30
401.37	1753.06
401.58	1728.49
401.79	1658.85
402.00	1834.98
402.21	1968.10
402.41	1923.04
402.62	2019.30
402.83	2021.35
403.04	1945.57
403.24	2097.12
403.45	1781.73
403.66	1910.75
403.87	1890.28
404.07	1970.15
404.28	1892.32
404.49	1896.42
404.70	1804.26
404.90	1730.53
405.11	1753.06
405.32	1783.78
405.52	1648.61
405.73	1724.39
405.94	1654.76
406.15	1779.68
406.35	1738.73
406.56	1697.77
406.77	1669.09
406.98	1824.74
407.18	1691.62
407.39	1775.59
407.60	1724.39
407.80	1652.71
408.01	1597.42
408.22	1691.62
408.43	1603.56
408.63	1785.83
408.84	1705.96
409.05	1720.29
409.25	1667.05
409.46	1693.67
409.67	1687.53
409.88	1673.19
410.08	1751.01
410.29	1734.63
410.50	1777.64
410.70	1681.38
410.91	1667.05
411.12	1703.91
411.32	1681.38
411.53	1648.61
411.74	1753.06
411.95	1824.74
412.15	1738.73
412.36	1763.30
412.57	1773.54
412.77	1804.26
412.98	1720.29
413.19	1724.39
413.39	1619.94
413.60	1791.97
413.81	1832.93
414.01	1578.98
414.22	1748.97
414.43	1619.94
414.63	1736.68
414.84	1755.11
415.05	1716.20
415.25	1609.70
415.46	1681.38
415.67	1669.09
415.87	1812.45
416.08	1687.53
416.29	1687.53
416.49	1757.16
416.70	1705.96
416.91	1689.57
417.11	1730.53
417.32	1777.64
417.53	1761.25
417.73	1771.49
417.94	1656.81
418.15	1699.81
418.35	1818.60
418.56	1724.39
418.77	1714.15
418.97	1728.49
419.18	1687.53
419.38	1638.38
419.59	1673.19
419.80	1828.84
420.00	1611.75
420.21	1677.29
420.42	1794.02
420.62	1738.73
420.83	1630.18
421.04	1665.00
421.24	1650.66
421.45	1789.92
421.65	1728.49
421.86	1665.00
422.07	1748.97
422.27	1724.39
422.48	1705.96
422.69	1611.75
422.89	1650.66
423.10	1669.09
423.30	1656.81
423.51	1640.42
423.72	1675.24
423.92	1798.12
424.13	1619.94
424.33	1712.10
424.54	1751.01
424.75	1724.39
424.95	1798.12
425.16	1755.11
425.36	1816.55
425.57	1759.21
425.78	1777.64
425.98	1769.44
426.19	1662.95
426.39	1689.57
426.60	1634.28
426.81	1767.40
427.01	1767.40
427.22	1593.32
427.42	1667.05
427.63	1677.29
427.83	1787.88
428.04	1820.64
428.25	1779.68
428.45	1712.10
428.66	1781.73
428.86	1730.53
429.07	1722.34
429.28	1722.34
429.48	1701.86
429.69	1656.81
429.89	1685.48
430.10	1648.61
430.30	1781.73
430.51	1775.59
430.71	1714.15
430.92	1712.10
431.13	1656.81
431.33	1769.44
431.54	1730.53
431.74	1804.26
431.95	1789.92
432.15	1656.81
432.36	1683.43
432.56	1767.40
432.77	1826.79
432.98	1843.17
433.18	1716.20
433.39	1736.68
433.59	1710.05
433.80	1783.78
434.00	1818.60
434.21	1611.75
434.41	1701.86
434.62	1822.69
434.82	1703.91
435.03	1601.51
435.23	1783.78
435.44	1576.94
435.64	1767.40
435.85	1751.01
436.06	1808.36
436.26	1746.92
436.47	1763.30
436.67	1685.48
436.88	1724.39
437.08	1726.44
437.29	1796.07
437.49	1796.07
437.70	1796.07
437.90	1728.49
438.11	1775.59
438.31	1740.77
438.52	1802.21
438.72	1904.61
438.93	1906.66
439.13	1687.53
439.34	1771.49
439.54	1763.30
439.75	1796.07
439.95	1843.17
440.16	1665.00
440.36	1800.16
440.57	1722.34
440.77	1787.88
440.98	1738.73
441.18	1738.73
441.39	1718.25
441.59	1699.81
441.80	1826.79
442.00	1794.02
442.21	1769.44
442.41	1648.61
442.62	1853.41
442.82	1699.81
443.02	1697.77
443.23	1693.67
443.43	1703.91
443.64	1834.98
443.84	1730.53
444.05	1894.37
444.25	1734.63
444.46	1669.09
444.66	1783.78
444.87	1853.41
445.07	1652.71
445.28	1718.25
445.48	1894.37
445.69	1722.34
445.89	1914.85
446.09	1722.34
446.30	2029.54
446.50	2721.75
446.71	3833.80
446.91	4358.08
447.12	4788.15
447.32	4837.30
447.53	4370.37
447.73	3981.25
447.93	3491.79
448.14	3225.55
448.34	3286.99
448.55	2867.16
448.75	2906.07
448.96	2688.98
449.16	2389.98
449.36	2254.81
449.57	2099.17
449.77	1877.99
449.98	1820.64
450.18	1787.88
450.39	1777.64
450.59	1767.40
450.79	1701.86
451.00	1656.81
451.20	1701.86
451.41	1681.38
451.61	1738.73
451.81	1675.24
452.02	1669.09
452.22	1826.79
452.43	1601.51
452.63	1681.38
