SpectraSuite Data File
++++++++++++++++++++++++++++++++++++
Date: Mon Jun 06 16:33:37 CEST 2016
User: root
Dark Spectrum Present: No
Reference Spectrum Present: No
Number of Sampled Component Spectra: 1
Spectrometers: USB4C02835
Integration Time (usec): 100000 (USB4C02835)
Spectra Averaged: 1 (USB4C02835)
Boxcar Smoothing: 0 (USB4C02835)
Correct for Electrical Dark: No (USB4C02835)
Strobe/Lamp Enabled: No (USB4C02835)
Correct for Detector Non-linearity: No (USB4C02835)
Correct for Stray Light: No (USB4C02835)
Number of Pixels in Processed Spectrum: 3648
>>>>>Begin Processed Spectral Data<<<<<
177.47	1476.59
177.69	1476.59
177.91	1476.59
178.13	1433.58
178.36	1474.54
178.58	1691.62
178.80	1730.53
179.02	1724.39
179.24	1587.18
179.46	1716.20
179.68	1820.64
179.90	1732.58
180.13	1710.05
180.35	1646.57
180.57	1681.38
180.79	1810.40
181.01	1779.68
181.23	1783.78
181.45	1697.77
181.67	1791.97
181.90	1744.87
182.12	1667.05
182.34	1646.57
182.56	1642.47
182.78	1705.96
183.00	1753.06
183.22	1665.00
183.44	1566.70
183.66	1857.51
183.89	1794.02
184.11	1697.77
184.33	1751.01
184.55	1839.08
184.77	1771.49
184.99	1734.63
185.21	1722.34
185.43	1849.32
185.65	1712.10
185.87	1701.86
186.10	1804.26
186.32	1851.36
186.54	1673.19
186.76	1705.96
186.98	1669.09
187.20	1751.01
187.42	1632.23
187.64	1681.38
187.86	1751.01
188.08	1783.78
188.30	1720.29
188.52	1705.96
188.75	1783.78
188.97	1812.45
189.19	1705.96
189.41	1652.71
189.63	1732.58
189.85	1691.62
190.07	1669.09
190.29	1609.70
190.51	1787.88
190.73	1599.46
190.95	1708.01
191.17	1718.25
191.39	1685.48
191.61	1689.57
191.84	1714.15
192.06	1683.43
192.28	1574.89
192.50	1853.41
192.72	1724.39
192.94	1746.92
193.16	1738.73
193.38	1726.44
193.60	1578.98
193.82	1648.61
194.04	1757.16
194.26	1767.40
194.48	1726.44
194.70	1720.29
194.92	1652.71
195.14	1779.68
195.36	1677.29
195.58	1769.44
195.80	1675.24
196.02	1624.04
196.24	1646.57
196.46	1771.49
196.69	1665.00
196.91	1851.36
197.13	1632.23
197.35	1675.24
197.57	1822.69
197.79	1740.77
198.01	1701.86
198.23	1738.73
198.45	1761.25
198.67	1753.06
198.89	1726.44
199.11	1724.39
199.33	1701.86
199.55	1595.37
199.77	1712.10
199.99	1763.30
200.21	1652.71
200.43	1718.25
200.65	1585.13
200.87	1572.84
201.09	1716.20
201.31	1630.18
201.53	1738.73
201.75	1794.02
201.97	1650.66
202.19	1687.53
202.41	1716.20
202.63	1769.44
202.85	1781.73
203.07	1757.16
203.29	1687.53
203.51	1665.00
203.73	1660.90
203.95	1873.89
204.17	1703.91
204.39	1716.20
204.61	1662.95
204.83	1667.05
205.05	1740.77
205.27	1806.31
205.49	1812.45
205.71	1665.00
205.93	1691.62
206.15	1699.81
206.37	1595.37
206.59	1689.57
206.81	1679.33
207.03	1667.05
207.25	1685.48
207.47	1740.77
207.69	1810.40
207.91	1808.36
208.13	1796.07
208.34	1681.38
208.56	1628.14
208.78	1763.30
209.00	1677.29
209.22	1658.85
209.44	1716.20
209.66	1642.47
209.88	1728.49
210.10	1769.44
210.32	1736.68
210.54	1783.78
210.76	1748.97
210.98	1710.05
211.20	1644.52
211.42	1705.96
211.64	1734.63
211.86	1708.01
212.08	1720.29
212.30	1748.97
212.52	1685.48
212.74	1665.00
212.96	1742.82
213.17	1812.45
213.39	1673.19
213.61	1748.97
213.83	1740.77
214.05	1619.94
214.27	1818.60
214.49	1636.33
214.71	1683.43
214.93	1820.64
215.15	1669.09
215.37	1697.77
215.59	1595.37
215.81	1746.92
216.03	1742.82
216.24	1746.92
216.46	1685.48
216.68	1730.53
216.90	1759.21
217.12	1757.16
217.34	1720.29
217.56	1744.87
217.78	1742.82
218.00	1769.44
218.22	1708.01
218.44	1755.11
218.66	1761.25
218.87	1744.87
219.09	1648.61
219.31	1794.02
219.53	1716.20
219.75	1677.29
219.97	1689.57
220.19	1738.73
220.41	1693.67
220.63	1748.97
220.85	1751.01
221.06	1699.81
221.28	1826.79
221.50	1708.01
221.72	1703.91
221.94	1773.54
222.16	1734.63
222.38	1767.40
222.60	1734.63
222.82	1730.53
223.03	1695.72
223.25	1673.19
223.47	1767.40
223.69	1806.31
223.91	1802.21
224.13	1705.96
224.35	1685.48
224.57	1775.59
224.78	1736.68
225.00	1650.66
225.22	1677.29
225.44	1681.38
225.66	1748.97
225.88	1658.85
226.10	1775.59
226.32	1632.23
226.53	1806.31
226.75	1742.82
226.97	1697.77
227.19	1783.78
227.41	1705.96
227.63	1615.85
227.85	1609.70
228.06	1619.94
228.28	1748.97
228.50	1751.01
228.72	1718.25
228.94	1675.24
229.16	1630.18
229.37	1718.25
229.59	1671.14
229.81	1755.11
230.03	1693.67
230.25	1621.99
230.47	1648.61
230.69	1697.77
230.90	1775.59
231.12	1667.05
231.34	1724.39
231.56	1742.82
231.78	1617.90
232.00	1689.57
232.21	1693.67
232.43	1705.96
232.65	1550.31
232.87	1662.95
233.09	1619.94
233.30	1662.95
233.52	1763.30
233.74	1730.53
233.96	1779.68
234.18	1703.91
234.40	1728.49
234.61	1814.50
234.83	1576.94
235.05	1542.12
235.27	1851.36
235.49	1730.53
235.70	1701.86
235.92	1744.87
236.14	1712.10
236.36	1855.46
236.58	1701.86
236.79	1804.26
237.01	1601.51
237.23	1673.19
237.45	1832.93
237.67	1671.14
237.88	1751.01
238.10	1830.88
238.32	1611.75
238.54	1673.19
238.76	1675.24
238.97	1578.98
239.19	1671.14
239.41	1742.82
239.63	1798.12
239.85	1710.05
240.06	1710.05
240.28	1728.49
240.50	1783.78
240.72	1683.43
240.93	1634.28
241.15	1771.49
241.37	1724.39
241.59	1859.56
241.81	1767.40
242.02	1726.44
242.24	1722.34
242.46	1720.29
242.68	1595.37
242.89	1730.53
243.11	1783.78
243.33	1746.92
243.55	1748.97
243.76	1705.96
243.98	1691.62
244.20	1767.40
244.42	1679.33
244.64	1693.67
244.85	1640.42
245.07	1628.14
245.29	1781.73
245.51	1673.19
245.72	1671.14
245.94	1783.78
246.16	1736.68
246.38	1728.49
246.59	1665.00
246.81	1685.48
247.03	1652.71
247.24	1615.85
247.46	1619.94
247.68	1710.05
247.90	1665.00
248.11	1642.47
248.33	1787.88
248.55	1712.10
248.77	1703.91
248.98	1800.16
249.20	1804.26
249.42	1658.85
249.64	1769.44
249.85	1673.19
250.07	1683.43
250.29	1665.00
250.50	1783.78
250.72	1701.86
250.94	1712.10
251.16	1818.60
251.37	1789.92
251.59	1759.21
251.81	1705.96
252.02	1767.40
252.24	1697.77
252.46	1779.68
252.68	1720.29
252.89	1656.81
253.11	1638.38
253.33	1740.77
253.54	1771.49
253.76	1654.76
253.98	1607.66
254.20	1701.86
254.41	1660.90
254.63	1665.00
254.85	1603.56
255.06	1724.39
255.28	1718.25
255.50	1689.57
255.71	1642.47
255.93	1667.05
256.15	1687.53
256.36	1691.62
256.58	1679.33
256.80	1687.53
257.02	1658.85
257.23	1601.51
257.45	1708.01
257.67	1765.35
257.88	1624.04
258.10	1697.77
258.32	1724.39
258.53	1615.85
258.75	1738.73
258.97	1708.01
259.18	1738.73
259.40	1724.39
259.62	1826.79
259.83	1724.39
260.05	1775.59
260.27	2021.35
260.48	1775.59
260.70	1603.56
260.92	1753.06
261.13	1685.48
261.35	1716.20
261.57	1730.53
261.78	1640.42
262.00	1632.23
262.22	1740.77
262.43	1699.81
262.65	1681.38
262.86	1640.42
263.08	1892.32
263.30	1763.30
263.51	1638.38
263.73	1667.05
263.95	1718.25
264.16	1681.38
264.38	1646.57
264.60	1800.16
264.81	1662.95
265.03	1708.01
265.25	1652.71
265.46	1656.81
265.68	1869.80
265.89	1687.53
266.11	1617.90
266.33	1759.21
266.54	1832.93
266.76	1726.44
266.98	1773.54
267.19	1826.79
267.41	1814.50
267.62	1714.15
267.84	1669.09
268.06	1738.73
268.27	1650.66
268.49	1767.40
268.70	1738.73
268.92	1675.24
269.14	1665.00
269.35	1591.27
269.57	1658.85
269.79	1701.86
270.00	1679.33
270.22	1791.97
270.43	1736.68
270.65	1648.61
270.87	1640.42
271.08	1654.76
271.30	1748.97
271.51	1732.58
271.73	1738.73
271.95	1791.97
272.16	1652.71
272.38	1658.85
272.59	1630.18
272.81	1769.44
273.02	1726.44
273.24	1728.49
273.46	1804.26
273.67	1619.94
273.89	1665.00
274.10	1765.35
274.32	1787.88
274.54	1779.68
274.75	1763.30
274.97	1642.47
275.18	1759.21
275.40	1658.85
275.61	1751.01
275.83	1716.20
276.05	1628.14
276.26	1708.01
276.48	1759.21
276.69	1724.39
276.91	1640.42
277.12	1728.49
277.34	1763.30
277.55	1767.40
277.77	1726.44
277.99	1691.62
278.20	1689.57
278.42	1675.24
278.63	1712.10
278.85	1695.72
279.06	1619.94
279.28	1828.84
279.49	1767.40
279.71	1720.29
279.93	1708.01
280.14	1742.82
280.36	1695.72
280.57	1740.77
280.79	1783.78
281.00	1763.30
281.22	1710.05
281.43	1826.79
281.65	1595.37
281.86	1720.29
282.08	1740.77
282.29	1812.45
282.51	1599.46
282.73	1665.00
282.94	1621.99
283.16	1705.96
283.37	1832.93
283.59	1640.42
283.80	1673.19
284.02	1722.34
284.23	1697.77
284.45	1644.52
284.66	1669.09
284.88	1679.33
285.09	1687.53
285.31	1712.10
285.52	1695.72
285.74	1681.38
285.95	1834.98
286.17	1650.66
286.38	1781.73
286.60	1650.66
286.81	1691.62
287.03	1728.49
287.24	1699.81
287.46	1683.43
287.67	1787.88
287.89	1849.32
288.10	1644.52
288.32	1705.96
288.53	1816.55
288.75	1748.97
288.96	1726.44
289.18	1804.26
289.39	1677.29
289.61	1726.44
289.82	1810.40
290.04	1855.46
290.25	1656.81
290.47	1626.09
290.68	1662.95
290.90	1781.73
291.11	1566.70
291.33	1712.10
291.54	1644.52
291.76	1701.86
291.97	1783.78
292.18	1738.73
292.40	1679.33
292.61	1652.71
292.83	1843.17
293.04	1751.01
293.26	1744.87
293.47	1669.09
293.69	1710.05
293.90	1705.96
294.12	1783.78
294.33	1742.82
294.55	1710.05
294.76	1753.06
294.97	1767.40
295.19	1802.21
295.40	1710.05
295.62	1732.58
295.83	1740.77
296.05	1683.43
296.26	1783.78
296.48	1685.48
296.69	1656.81
296.90	1708.01
297.12	1691.62
297.33	1730.53
297.55	1689.57
297.76	1771.49
297.98	1728.49
298.19	1716.20
298.41	1734.63
298.62	1628.14
298.83	1744.87
299.05	1697.77
299.26	1738.73
299.48	1632.23
299.69	1757.16
299.90	1724.39
300.12	1701.86
300.33	1759.21
300.55	1726.44
300.76	1658.85
300.98	1642.47
301.19	1744.87
301.40	1769.44
301.62	1652.71
301.83	1714.15
302.05	1658.85
302.26	1710.05
302.47	1773.54
302.69	1685.48
302.90	1742.82
303.12	1578.98
303.33	1726.44
303.54	1841.12
303.76	1705.96
303.97	1744.87
304.19	1814.50
304.40	1728.49
304.61	1748.97
304.83	1808.36
305.04	1708.01
305.26	1716.20
305.47	1679.33
305.68	1785.83
305.90	1665.00
306.11	1800.16
306.33	1683.43
306.54	1775.59
306.75	1738.73
306.97	1671.14
307.18	1650.66
307.39	1665.00
307.61	1691.62
307.82	1767.40
308.04	1828.84
308.25	1669.09
308.46	1658.85
308.68	1673.19
308.89	1738.73
309.10	1759.21
309.32	1742.82
309.53	1736.68
309.74	1673.19
309.96	1710.05
310.17	1755.11
310.39	1671.14
310.60	1806.31
310.81	1724.39
311.03	1613.80
311.24	1796.07
311.45	1742.82
311.67	1863.65
311.88	1669.09
312.09	1640.42
312.31	1716.20
312.52	1671.14
312.73	1730.53
312.95	1695.72
313.16	1605.61
313.37	1804.26
313.59	1779.68
313.80	1724.39
314.01	1736.68
314.23	1667.05
314.44	1671.14
314.65	1613.80
314.87	1656.81
315.08	1669.09
315.29	1685.48
315.51	1632.23
315.72	1646.57
315.93	1763.30
316.15	1775.59
316.36	1660.90
316.57	1712.10
316.79	1767.40
317.00	1673.19
317.21	1734.63
317.43	1708.01
317.64	1671.14
317.85	1669.09
318.07	1665.00
318.28	1781.73
318.49	1837.03
318.70	1869.80
318.92	1853.41
319.13	1820.64
319.34	1816.55
319.56	1841.12
319.77	1861.60
319.98	1816.55
320.20	1789.92
320.41	1724.39
320.62	1724.39
320.83	1675.24
321.05	1791.97
321.26	1671.14
321.47	1753.06
321.69	1779.68
321.90	1644.52
322.11	1705.96
322.32	1714.15
322.54	1740.77
322.75	1626.09
322.96	1851.36
323.18	1605.61
323.39	1650.66
323.60	1650.66
323.81	1814.50
324.03	1697.77
324.24	1720.29
324.45	1705.96
324.66	1714.15
324.88	1646.57
325.09	1781.73
325.30	1748.97
325.52	1769.44
325.73	1699.81
325.94	1599.46
326.15	1632.23
326.37	1667.05
326.58	1648.61
326.79	1847.27
327.00	1695.72
327.22	1685.48
327.43	1658.85
327.64	1718.25
327.85	1775.59
328.07	1746.92
328.28	1820.64
328.49	1736.68
328.70	1673.19
328.92	1701.86
329.13	1736.68
329.34	1796.07
329.55	1875.94
329.76	1699.81
329.98	1671.14
330.19	1796.07
330.40	1718.25
330.61	1697.77
330.83	1714.15
331.04	1730.53
331.25	1736.68
331.46	1677.29
331.68	1615.85
331.89	1787.88
332.10	1746.92
332.31	1619.94
332.52	1728.49
332.74	1773.54
332.95	1669.09
333.16	1662.95
333.37	1787.88
333.58	1755.11
333.80	1675.24
334.01	1636.33
334.22	1740.77
334.43	1714.15
334.64	1675.24
334.86	1581.03
335.07	1642.47
335.28	1724.39
335.49	1714.15
335.70	1748.97
335.92	1779.68
336.13	1804.26
336.34	1728.49
336.55	1748.97
336.76	1701.86
336.98	1599.46
337.19	1753.06
337.40	1779.68
337.61	1812.45
337.82	1581.03
338.04	1751.01
338.25	1560.55
338.46	1703.91
338.67	1642.47
338.88	1673.19
339.09	1722.34
339.31	1714.15
339.52	1652.71
339.73	1597.42
339.94	1687.53
340.15	1791.97
340.36	1660.90
340.58	1677.29
340.79	1601.51
341.00	1767.40
341.21	1636.33
341.42	1767.40
341.63	1644.52
341.85	1714.15
342.06	1710.05
342.27	1701.86
342.48	1818.60
342.69	1652.71
342.90	1781.73
343.12	1738.73
343.33	1660.90
343.54	1746.92
343.75	1814.50
343.96	1755.11
344.17	1638.38
344.38	1671.14
344.60	1660.90
344.81	1654.76
345.02	1658.85
345.23	1757.16
345.44	1832.93
345.65	1759.21
345.86	1708.01
346.07	1640.42
346.29	1654.76
346.50	1798.12
346.71	1746.92
346.92	1798.12
347.13	1884.13
347.34	1671.14
347.55	1671.14
347.76	1705.96
347.98	1611.75
348.19	1732.58
348.40	1753.06
348.61	1691.62
348.82	1802.21
349.03	1652.71
349.24	1611.75
349.45	1748.97
349.66	1648.61
349.88	1714.15
350.09	1652.71
350.30	1808.36
350.51	1802.21
350.72	1699.81
350.93	1714.15
351.14	1751.01
351.35	1804.26
351.56	1712.10
351.77	1734.63
351.99	1691.62
352.20	1841.12
352.41	1781.73
352.62	1599.46
352.83	1685.48
353.04	1701.86
353.25	1736.68
353.46	1791.97
353.67	1824.74
353.88	1578.98
354.09	1613.80
354.30	1691.62
354.52	1759.21
354.73	1705.96
354.94	1636.33
355.15	1695.72
355.36	1744.87
355.57	1697.77
355.78	1779.68
355.99	1644.52
356.20	1665.00
356.41	1763.30
356.62	1740.77
356.83	1748.97
357.04	1812.45
357.25	1640.42
357.46	1677.29
357.68	1660.90
357.89	1710.05
358.10	1751.01
358.31	1791.97
358.52	1730.53
358.73	1599.46
358.94	1660.90
359.15	1650.66
359.36	1791.97
359.57	1738.73
359.78	1648.61
359.99	1798.12
360.20	1687.53
360.41	1710.05
360.62	1796.07
360.83	1746.92
361.04	1771.49
361.25	1703.91
361.46	1859.56
361.67	1734.63
361.88	1783.78
362.09	1779.68
362.30	1755.11
362.51	1755.11
362.72	1693.67
362.93	1804.26
363.14	1708.01
363.35	1703.91
363.56	1742.82
363.78	1808.36
363.99	1812.45
364.20	1681.38
364.41	1763.30
364.62	1765.35
364.83	1718.25
365.04	1691.62
365.25	1742.82
365.46	1800.16
365.67	1681.38
365.88	1714.15
366.09	1681.38
366.30	1753.06
366.51	1665.00
366.72	1685.48
366.93	1677.29
367.14	1726.44
367.35	1781.73
367.56	1755.11
367.77	1757.16
367.98	1687.53
368.18	1761.25
368.39	1771.49
368.60	1593.32
368.81	1755.11
369.02	1775.59
369.23	1703.91
369.44	1632.23
369.65	1691.62
369.86	1736.68
370.07	1738.73
370.28	1626.09
370.49	1701.86
370.70	1738.73
370.91	1726.44
371.12	1662.95
371.33	1740.77
371.54	1699.81
371.75	1777.64
371.96	1609.70
372.17	1734.63
372.38	1736.68
372.59	1708.01
372.80	1679.33
373.01	1689.57
373.22	1757.16
373.43	1728.49
373.64	1624.04
373.85	1828.84
374.06	1773.54
374.26	1705.96
374.47	1712.10
374.68	1849.32
374.89	1691.62
375.10	1675.24
375.31	1734.63
375.52	1742.82
375.73	1726.44
375.94	1689.57
376.15	1789.92
376.36	1671.14
376.57	1665.00
376.78	1685.48
376.99	1748.97
377.20	1769.44
377.40	1683.43
377.61	1771.49
377.82	1701.86
378.03	1796.07
378.24	1738.73
378.45	1683.43
378.66	1730.53
378.87	1642.47
379.08	1732.58
379.29	1681.38
379.50	1773.54
379.71	1689.57
379.91	1755.11
380.12	1677.29
380.33	1718.25
380.54	1656.81
380.75	1638.38
380.96	1714.15
381.17	1789.92
381.38	1642.47
381.59	1769.44
381.80	1689.57
382.00	1849.32
382.21	1732.58
382.42	1875.94
382.63	1853.41
382.84	1740.77
383.05	1773.54
383.26	1843.17
383.47	1726.44
383.68	1767.40
383.88	1839.08
384.09	1683.43
384.30	1863.65
384.51	1734.63
384.72	1710.05
384.93	1574.89
385.14	1720.29
385.35	1828.84
385.55	1656.81
385.76	1867.75
385.97	1673.19
386.18	1675.24
386.39	1652.71
386.60	1734.63
386.81	1777.64
387.02	1650.66
387.22	1662.95
387.43	1781.73
387.64	1849.32
387.85	1908.71
388.06	2250.72
388.27	4368.32
388.48	6848.41
388.68	8324.99
388.89	9815.91
389.10	9994.09
389.31	8552.32
389.52	7595.92
389.73	6743.96
389.93	6299.55
390.14	5805.99
390.35	5177.26
390.56	4638.65
390.77	3862.47
390.98	3016.66
391.18	2469.85
391.39	2160.61
391.60	1730.53
391.81	1904.61
392.02	1697.77
392.23	1816.55
392.43	1746.92
392.64	1867.75
392.85	1665.00
393.06	1800.16
393.27	1806.31
393.47	1660.90
393.68	1740.77
393.89	1644.52
394.10	1847.27
394.31	1691.62
394.52	1681.38
394.72	1712.10
394.93	1751.01
395.14	1687.53
395.35	1712.10
395.56	1628.14
395.76	1798.12
395.97	1808.36
396.18	1806.31
396.39	1812.45
396.60	2056.16
396.80	1894.37
397.01	1746.92
397.22	1812.45
397.43	1914.85
397.64	1718.25
397.84	1830.88
398.05	1859.56
398.26	1740.77
398.47	1800.16
398.67	1837.03
398.88	1775.59
399.09	1759.21
399.30	1679.33
399.51	1722.34
399.71	1703.91
399.92	1634.28
400.13	1753.06
400.34	1703.91
400.54	1718.25
400.75	1834.98
400.96	1673.19
401.17	1861.60
401.37	1675.24
401.58	1714.15
401.79	1769.44
402.00	1867.75
402.21	2002.91
402.41	1970.15
402.62	1961.95
402.83	2066.40
403.04	2041.82
403.24	2035.68
403.45	1931.23
403.66	1953.76
403.87	1859.56
404.07	1877.99
404.28	1951.71
404.49	1912.80
404.70	1837.03
404.90	1751.01
405.11	1789.92
405.32	1736.68
405.52	1669.09
405.73	1609.70
405.94	1593.32
406.15	1699.81
406.35	1787.88
406.56	1787.88
406.77	1705.96
406.98	1755.11
407.18	1679.33
407.39	1763.30
407.60	1712.10
407.80	1708.01
408.01	1656.81
408.22	1609.70
408.43	1710.05
408.63	1736.68
408.84	1710.05
409.05	1796.07
409.25	1677.29
409.46	1677.29
409.67	1665.00
409.88	1675.24
410.08	1748.97
410.29	1660.90
410.50	1699.81
410.70	1695.72
410.91	1712.10
411.12	1740.77
411.32	1708.01
411.53	1628.14
411.74	1751.01
411.95	1808.36
412.15	1746.92
412.36	1820.64
412.57	1738.73
412.77	1765.35
412.98	1697.77
413.19	1775.59
413.39	1751.01
413.60	1701.86
413.81	1828.84
414.01	1708.01
414.22	1734.63
414.43	1812.45
414.63	1667.05
414.84	1779.68
415.05	1718.25
415.25	1656.81
415.46	1728.49
415.67	1718.25
415.87	1648.61
416.08	1689.57
416.29	1679.33
416.49	1787.88
416.70	1724.39
416.91	1705.96
417.11	1675.24
417.32	1796.07
417.53	1824.74
417.73	1742.82
417.94	1660.90
418.15	1751.01
418.35	1722.34
418.56	1716.20
418.77	1861.60
418.97	1728.49
419.18	1703.91
419.38	1495.02
419.59	1738.73
419.80	1767.40
420.00	1681.38
420.21	1695.72
420.42	1779.68
420.62	1695.72
420.83	1665.00
421.04	1773.54
421.24	1705.96
421.45	1681.38
421.65	1785.83
421.86	1689.57
422.07	1716.20
422.27	1771.49
422.48	1730.53
422.69	1689.57
422.89	1687.53
423.10	1738.73
423.30	1691.62
423.51	1681.38
423.72	1734.63
423.92	1783.78
424.13	1644.52
424.33	1703.91
424.54	1753.06
424.75	1710.05
424.95	1826.79
425.16	1765.35
425.36	1728.49
425.57	1773.54
425.78	1765.35
425.98	1740.77
426.19	1667.05
426.39	1720.29
426.60	1714.15
426.81	1826.79
427.01	1759.21
427.22	1669.09
427.42	1675.24
427.63	1691.62
427.83	1740.77
428.04	1783.78
428.25	1820.64
428.45	1783.78
428.66	1789.92
428.86	1656.81
429.07	1646.57
429.28	1652.71
429.48	1738.73
429.69	1712.10
429.89	1716.20
430.10	1673.19
430.30	1794.02
430.51	1789.92
430.71	1679.33
430.92	1679.33
431.13	1669.09
431.33	1708.01
431.54	1759.21
431.74	1820.64
431.95	1853.41
432.15	1755.11
432.36	1783.78
432.56	1755.11
432.77	1908.71
432.98	1826.79
433.18	1755.11
433.39	1699.81
433.59	1738.73
433.80	1927.14
434.00	1920.99
434.21	1763.30
434.41	1673.19
434.62	1845.22
434.82	1652.71
435.03	1689.57
435.23	1761.25
435.44	1513.45
435.64	1714.15
435.85	1781.73
436.06	1820.64
436.26	1767.40
436.47	1718.25
436.67	1689.57
436.88	1679.33
437.08	1855.46
437.29	1806.31
437.49	1722.34
437.70	1783.78
437.90	1712.10
438.11	1865.70
438.31	1765.35
438.52	1832.93
438.72	1857.51
438.93	1949.67
439.13	1820.64
439.34	1855.46
439.54	1732.58
439.75	1775.59
439.95	1736.68
440.16	1677.29
440.36	1761.25
440.57	1681.38
440.77	1746.92
440.98	1691.62
441.18	1763.30
441.39	1652.71
441.59	1699.81
441.80	1839.08
442.00	1681.38
442.21	1783.78
442.41	1671.14
442.62	1726.44
442.82	1681.38
443.02	1710.05
443.23	1728.49
443.43	1746.92
443.64	1787.88
443.84	1701.86
444.05	1867.75
444.25	1753.06
444.46	1716.20
444.66	1771.49
444.87	1789.92
445.07	1656.81
445.28	1787.88
445.48	1791.97
445.69	1783.78
445.89	1877.99
446.09	1734.63
446.30	1957.86
446.50	2684.89
446.71	3882.95
446.91	4386.75
447.12	4681.66
447.32	4773.82
447.53	4308.93
447.73	3876.80
447.93	3538.89
448.14	3438.54
448.34	3229.65
448.55	2920.40
448.75	2799.57
448.96	2688.98
449.16	2426.84
449.36	2205.66
449.57	2086.88
449.77	1906.66
449.98	1802.21
450.18	1804.26
450.39	1773.54
450.59	1841.12
450.79	1732.58
451.00	1740.77
451.20	1808.36
451.41	1710.05
451.61	1726.44
451.81	1769.44
452.02	1734.63
452.22	1687.53
452.43	1703.91
452.63	1691.62
