SpectraSuite Data File
++++++++++++++++++++++++++++++++++++
Date: Mon Jun 06 13:43:57 CEST 2016
User: root
Dark Spectrum Present: No
Reference Spectrum Present: No
Number of Sampled Component Spectra: 1
Spectrometers: USB4C02835
Integration Time (usec): 100000 (USB4C02835)
Spectra Averaged: 1 (USB4C02835)
Boxcar Smoothing: 0 (USB4C02835)
Correct for Electrical Dark: No (USB4C02835)
Strobe/Lamp Enabled: No (USB4C02835)
Correct for Detector Non-linearity: No (USB4C02835)
Correct for Stray Light: No (USB4C02835)
Number of Pixels in Processed Spectrum: 3648
>>>>>Begin Processed Spectral Data<<<<<
177.47	1505.26
177.69	1505.26
177.91	1505.26
178.13	1437.67
178.36	1423.34
178.58	1697.77
178.80	1736.68
179.02	1634.28
179.24	1597.42
179.46	1652.71
179.68	1769.44
179.90	1703.91
180.13	1689.57
180.35	1634.28
180.57	1679.33
180.79	1759.21
181.01	1705.96
181.23	1724.39
181.45	1763.30
181.67	1728.49
181.90	1732.58
182.12	1656.81
182.34	1628.14
182.56	1642.47
182.78	1763.30
183.00	1720.29
183.22	1736.68
183.44	1576.94
183.66	1814.50
183.89	1796.07
184.11	1646.57
184.33	1710.05
184.55	1779.68
184.77	1701.86
184.99	1673.19
185.21	1695.72
185.43	1873.89
185.65	1671.14
185.87	1767.40
186.10	1828.84
186.32	1804.26
186.54	1689.57
186.76	1685.48
186.98	1773.54
187.20	1646.57
187.42	1669.09
187.64	1718.25
187.86	1714.15
188.08	1751.01
188.30	1724.39
188.52	1724.39
188.75	1804.26
188.97	1773.54
189.19	1673.19
189.41	1697.77
189.63	1808.36
189.85	1677.29
190.07	1669.09
190.29	1673.19
190.51	1693.67
190.73	1554.41
190.95	1837.03
191.17	1699.81
191.39	1568.74
191.61	1730.53
191.84	1630.18
192.06	1695.72
192.28	1615.85
192.50	1863.65
192.72	1697.77
192.94	1720.29
193.16	1753.06
193.38	1816.55
193.60	1634.28
193.82	1650.66
194.04	1742.82
194.26	1687.53
194.48	1656.81
194.70	1650.66
194.92	1644.52
195.14	1744.87
195.36	1597.42
195.58	1673.19
195.80	1683.43
196.02	1669.09
196.24	1669.09
196.46	1695.72
196.69	1648.61
196.91	1806.31
197.13	1740.77
197.35	1632.23
197.57	1789.92
197.79	1662.95
198.01	1656.81
198.23	1755.11
198.45	1695.72
198.67	1689.57
198.89	1613.80
199.11	1691.62
199.33	1642.47
199.55	1548.26
199.77	1714.15
199.99	1759.21
200.21	1646.57
200.43	1699.81
200.65	1628.14
200.87	1583.08
201.09	1689.57
201.31	1720.29
201.53	1742.82
201.75	1757.16
201.97	1722.34
202.19	1685.48
202.41	1714.15
202.63	1826.79
202.85	1730.53
203.07	1714.15
203.29	1667.05
203.51	1624.04
203.73	1599.46
203.95	1855.46
204.17	1695.72
204.39	1783.78
204.61	1705.96
204.83	1636.33
205.05	1738.73
205.27	1742.82
205.49	1853.41
205.71	1697.77
205.93	1673.19
206.15	1677.29
206.37	1720.29
206.59	1732.58
206.81	1583.08
207.03	1615.85
207.25	1601.51
207.47	1679.33
207.69	1722.34
207.91	1765.35
208.13	1705.96
208.34	1658.85
208.56	1685.48
208.78	1732.58
209.00	1662.95
209.22	1617.90
209.44	1644.52
209.66	1687.53
209.88	1677.29
210.10	1644.52
210.32	1677.29
210.54	1732.58
210.76	1679.33
210.98	1759.21
211.20	1560.55
211.42	1681.38
211.64	1783.78
211.86	1632.23
212.08	1808.36
212.30	1771.49
212.52	1667.05
212.74	1691.62
212.96	1646.57
213.17	1783.78
213.39	1742.82
213.61	1773.54
213.83	1693.67
214.05	1699.81
214.27	1744.87
214.49	1607.66
214.71	1658.85
214.93	1804.26
215.15	1697.77
215.37	1681.38
215.59	1656.81
215.81	1726.44
216.03	1761.25
216.24	1691.62
216.46	1691.62
216.68	1697.77
216.90	1759.21
217.12	1714.15
217.34	1701.86
217.56	1728.49
217.78	1804.26
218.00	1755.11
218.22	1662.95
218.44	1683.43
218.66	1703.91
218.87	1796.07
219.09	1687.53
219.31	1730.53
219.53	1669.09
219.75	1658.85
219.97	1673.19
220.19	1675.24
220.41	1624.04
220.63	1681.38
220.85	1779.68
221.06	1656.81
221.28	1697.77
221.50	1759.21
221.72	1708.01
221.94	1697.77
222.16	1728.49
222.38	1705.96
222.60	1722.34
222.82	1671.14
223.03	1779.68
223.25	1665.00
223.47	1658.85
223.69	1875.94
223.91	1718.25
224.13	1675.24
224.35	1677.29
224.57	1738.73
224.78	1783.78
225.00	1693.67
225.22	1759.21
225.44	1624.04
225.66	1722.34
225.88	1630.18
226.10	1796.07
226.32	1611.75
226.53	1738.73
226.75	1671.14
226.97	1712.10
227.19	1722.34
227.41	1699.81
227.63	1693.67
227.85	1681.38
228.06	1632.23
228.28	1701.86
228.50	1681.38
228.72	1687.53
228.94	1689.57
229.16	1605.61
229.37	1581.03
229.59	1646.57
229.81	1720.29
230.03	1640.42
230.25	1654.76
230.47	1624.04
230.69	1644.52
230.90	1708.01
231.12	1642.47
231.34	1697.77
231.56	1753.06
231.78	1654.76
232.00	1615.85
232.21	1732.58
232.43	1697.77
232.65	1542.12
232.87	1734.63
233.09	1667.05
233.30	1673.19
233.52	1748.97
233.74	1734.63
233.96	1642.47
234.18	1669.09
234.40	1722.34
234.61	1804.26
234.83	1624.04
235.05	1675.24
235.27	1812.45
235.49	1785.83
235.70	1652.71
235.92	1785.83
236.14	1740.77
236.36	1828.84
236.58	1595.37
236.79	1748.97
237.01	1677.29
237.23	1677.29
237.45	1818.60
237.67	1683.43
237.88	1699.81
238.10	1738.73
238.32	1658.85
238.54	1714.15
238.76	1789.92
238.97	1632.23
239.19	1617.90
239.41	1834.98
239.63	1697.77
239.85	1648.61
240.06	1705.96
240.28	1738.73
240.50	1771.49
240.72	1591.27
240.93	1742.82
241.15	1798.12
241.37	1677.29
241.59	1796.07
241.81	1689.57
242.02	1624.04
242.24	1777.64
242.46	1767.40
242.68	1671.14
242.89	1652.71
243.11	1730.53
243.33	1730.53
243.55	1742.82
243.76	1746.92
243.98	1689.57
244.20	1671.14
244.42	1673.19
244.64	1662.95
244.85	1650.66
245.07	1613.80
245.29	1716.20
245.51	1757.16
245.72	1697.77
245.94	1734.63
246.16	1705.96
246.38	1708.01
246.59	1654.76
246.81	1705.96
247.03	1705.96
247.24	1626.09
247.46	1640.42
247.68	1685.48
247.90	1652.71
248.11	1658.85
248.33	1722.34
248.55	1648.61
248.77	1687.53
248.98	1720.29
249.20	1810.40
249.42	1601.51
249.64	1705.96
249.85	1656.81
250.07	1650.66
250.29	1783.78
250.50	1742.82
250.72	1624.04
250.94	1728.49
251.16	1812.45
251.37	1824.74
251.59	1781.73
251.81	1759.21
252.02	1810.40
252.24	1677.29
252.46	1744.87
252.68	1650.66
252.89	1652.71
253.11	1634.28
253.33	1796.07
253.54	1781.73
253.76	1640.42
253.98	1697.77
254.20	1677.29
254.41	1634.28
254.63	1675.24
254.85	1599.46
255.06	1681.38
255.28	1701.86
255.50	1646.57
255.71	1724.39
255.93	1591.27
256.15	1720.29
256.36	1708.01
256.58	1669.09
256.80	1642.47
257.02	1650.66
257.23	1685.48
257.45	1677.29
257.67	1744.87
257.88	1689.57
258.10	1677.29
258.32	1730.53
258.53	1703.91
258.75	1691.62
258.97	1669.09
259.18	1669.09
259.40	1669.09
259.62	1832.93
259.83	1796.07
260.05	1753.06
260.27	2000.87
260.48	1712.10
260.70	1630.18
260.92	1681.38
261.13	1705.96
261.35	1695.72
261.57	1650.66
261.78	1578.98
262.00	1648.61
262.22	1738.73
262.43	1658.85
262.65	1726.44
262.86	1703.91
263.08	1820.64
263.30	1632.23
263.51	1665.00
263.73	1681.38
263.95	1820.64
264.16	1568.74
264.38	1755.11
264.60	1710.05
264.81	1656.81
265.03	1681.38
265.25	1740.77
265.46	1705.96
265.68	1767.40
265.89	1748.97
266.11	1656.81
266.33	1753.06
266.54	1812.45
266.76	1718.25
266.98	1820.64
267.19	1812.45
267.41	1812.45
267.62	1734.63
267.84	1640.42
268.06	1716.20
268.27	1753.06
268.49	1785.83
268.70	1720.29
268.92	1693.67
269.14	1628.14
269.35	1581.03
269.57	1665.00
269.79	1742.82
270.00	1681.38
270.22	1763.30
270.43	1587.18
270.65	1591.27
270.87	1667.05
271.08	1708.01
271.30	1710.05
271.51	1728.49
271.73	1703.91
271.95	1759.21
272.16	1761.25
272.38	1730.53
272.59	1648.61
272.81	1656.81
273.02	1705.96
273.24	1701.86
273.46	1849.32
273.67	1765.35
273.89	1660.90
274.10	1695.72
274.32	1820.64
274.54	1738.73
274.75	1677.29
274.97	1693.67
275.18	1789.92
275.40	1714.15
275.61	1624.04
275.83	1691.62
276.05	1648.61
276.26	1691.62
276.48	1781.73
276.69	1617.90
276.91	1697.77
277.12	1826.79
277.34	1710.05
277.55	1757.16
277.77	1679.33
277.99	1685.48
278.20	1591.27
278.42	1652.71
278.63	1611.75
278.85	1642.47
279.06	1669.09
279.28	1789.92
279.49	1763.30
279.71	1800.16
279.93	1728.49
280.14	1734.63
280.36	1675.24
280.57	1755.11
280.79	1794.02
281.00	1632.23
281.22	1689.57
281.43	1726.44
281.65	1681.38
281.86	1660.90
282.08	1671.14
282.29	1787.88
282.51	1691.62
282.73	1656.81
282.94	1679.33
283.16	1757.16
283.37	1755.11
283.59	1710.05
283.80	1736.68
284.02	1658.85
284.23	1732.58
284.45	1681.38
284.66	1558.50
284.88	1685.48
285.09	1691.62
285.31	1789.92
285.52	1697.77
285.74	1605.61
285.95	1722.34
286.17	1710.05
286.38	1697.77
286.60	1667.05
286.81	1656.81
287.03	1656.81
287.24	1720.29
287.46	1771.49
287.67	1767.40
287.89	1841.12
288.10	1718.25
288.32	1699.81
288.53	1742.82
288.75	1679.33
288.96	1708.01
289.18	1667.05
289.39	1738.73
289.61	1882.08
289.82	1912.80
290.04	1781.73
290.25	1638.38
290.47	1744.87
290.68	1732.58
290.90	1798.12
291.11	1597.42
291.33	1740.77
291.54	1669.09
291.76	1697.77
291.97	1689.57
292.18	1726.44
292.40	1712.10
292.61	1675.24
292.83	1867.75
293.04	1791.97
293.26	1652.71
293.47	1691.62
293.69	1558.50
293.90	1718.25
294.12	1824.74
294.33	1697.77
294.55	1746.92
294.76	1820.64
294.97	1746.92
295.19	1814.50
295.40	1689.57
295.62	1759.21
295.83	1689.57
296.05	1654.76
296.26	1720.29
296.48	1695.72
296.69	1695.72
296.90	1728.49
297.12	1853.41
297.33	1773.54
297.55	1746.92
297.76	1746.92
297.98	1822.69
298.19	1662.95
298.41	1693.67
298.62	1624.04
298.83	1740.77
299.05	1685.48
299.26	1687.53
299.48	1681.38
299.69	1648.61
299.90	1662.95
300.12	1636.33
300.33	1738.73
300.55	1726.44
300.76	1722.34
300.98	1705.96
301.19	1740.77
301.40	1624.04
301.62	1708.01
301.83	1714.15
302.05	1656.81
302.26	1742.82
302.47	1759.21
302.69	1644.52
302.90	1656.81
303.12	1546.22
303.33	1685.48
303.54	1796.07
303.76	1722.34
303.97	1671.14
304.19	1765.35
304.40	1751.01
304.61	1699.81
304.83	1861.60
305.04	1783.78
305.26	1732.58
305.47	1646.57
305.68	1675.24
305.90	1656.81
306.11	1769.44
306.33	1728.49
306.54	1689.57
306.75	1671.14
306.97	1630.18
307.18	1617.90
307.39	1634.28
307.61	1740.77
307.82	1652.71
308.04	1800.16
308.25	1660.90
308.46	1660.90
308.68	1685.48
308.89	1716.20
309.10	1812.45
309.32	1691.62
309.53	1718.25
309.74	1767.40
309.96	1667.05
310.17	1697.77
310.39	1566.70
310.60	1769.44
310.81	1738.73
311.03	1626.09
311.24	1718.25
311.45	1757.16
311.67	1845.22
311.88	1708.01
312.09	1650.66
312.31	1687.53
312.52	1640.42
312.73	1708.01
312.95	1699.81
313.16	1689.57
313.37	1796.07
313.59	1794.02
313.80	1740.77
314.01	1703.91
314.23	1648.61
314.44	1687.53
314.65	1605.61
314.87	1667.05
315.08	1656.81
315.29	1751.01
315.51	1665.00
315.72	1624.04
315.93	1740.77
316.15	1765.35
316.36	1656.81
316.57	1691.62
316.79	1679.33
317.00	1718.25
317.21	1683.43
317.43	1660.90
317.64	1699.81
317.85	1705.96
318.07	1710.05
318.28	1738.73
318.49	1761.25
318.70	1898.47
318.92	1873.89
319.13	1826.79
319.34	1834.98
319.56	1789.92
319.77	1771.49
319.98	1722.34
320.20	1806.31
320.41	1710.05
320.62	1777.64
320.83	1673.19
321.05	1816.55
321.26	1679.33
321.47	1667.05
321.69	1798.12
321.90	1638.38
322.11	1683.43
322.32	1763.30
322.54	1748.97
322.75	1710.05
322.96	1832.93
323.18	1685.48
323.39	1648.61
323.60	1669.09
323.81	1734.63
324.03	1640.42
324.24	1701.86
324.45	1738.73
324.66	1699.81
324.88	1755.11
325.09	1763.30
325.30	1722.34
325.52	1624.04
325.73	1679.33
325.94	1703.91
326.15	1630.18
326.37	1628.14
326.58	1736.68
326.79	1746.92
327.00	1630.18
327.22	1718.25
327.43	1714.15
327.64	1566.70
327.85	1751.01
328.07	1656.81
328.28	1912.80
328.49	1695.72
328.70	1677.29
328.92	1640.42
329.13	1648.61
329.34	1753.06
329.55	1783.78
329.76	1738.73
329.98	1656.81
330.19	1785.83
330.40	1699.81
330.61	1718.25
330.83	1785.83
331.04	1669.09
331.25	1656.81
331.46	1681.38
331.68	1697.77
331.89	1800.16
332.10	1626.09
332.31	1689.57
332.52	1703.91
332.74	1783.78
332.95	1576.94
333.16	1685.48
333.37	1759.21
333.58	1677.29
333.80	1722.34
334.01	1570.79
334.22	1683.43
334.43	1673.19
334.64	1742.82
334.86	1560.55
335.07	1742.82
335.28	1712.10
335.49	1646.57
335.70	1755.11
335.92	1712.10
336.13	1884.13
336.34	1654.76
336.55	1751.01
336.76	1722.34
336.98	1564.65
337.19	1753.06
337.40	1775.59
337.61	1865.70
337.82	1685.48
338.04	1718.25
338.25	1611.75
338.46	1599.46
338.67	1710.05
338.88	1669.09
339.09	1640.42
339.31	1648.61
339.52	1578.98
339.73	1611.75
339.94	1730.53
340.15	1732.58
340.36	1693.67
340.58	1689.57
340.79	1685.48
341.00	1673.19
341.21	1642.47
341.42	1791.97
341.63	1673.19
341.85	1722.34
342.06	1648.61
342.27	1671.14
342.48	1703.91
342.69	1699.81
342.90	1667.05
343.12	1720.29
343.33	1673.19
343.54	1677.29
343.75	1769.44
343.96	1566.70
344.17	1632.23
344.38	1732.58
344.60	1636.33
344.81	1595.37
345.02	1660.90
345.23	1773.54
345.44	1820.64
345.65	1746.92
345.86	1714.15
346.07	1699.81
346.29	1705.96
346.50	1755.11
346.71	1736.68
346.92	1726.44
347.13	1787.88
347.34	1722.34
347.55	1626.09
347.76	1683.43
347.98	1628.14
348.19	1685.48
348.40	1773.54
348.61	1683.43
348.82	1789.92
349.03	1751.01
349.24	1646.57
349.45	1845.22
349.66	1515.50
349.88	1611.75
350.09	1687.53
350.30	1716.20
350.51	1767.40
350.72	1675.24
350.93	1720.29
351.14	1581.03
351.35	1669.09
351.56	1648.61
351.77	1701.86
351.99	1683.43
352.20	1810.40
352.41	1763.30
352.62	1603.56
352.83	1671.14
353.04	1716.20
353.25	1648.61
353.46	1789.92
353.67	1685.48
353.88	1611.75
354.09	1753.06
354.30	1652.71
354.52	1677.29
354.73	1705.96
354.94	1638.38
355.15	1681.38
355.36	1779.68
355.57	1697.77
355.78	1734.63
355.99	1730.53
356.20	1708.01
356.41	1748.97
356.62	1716.20
356.83	1660.90
357.04	1740.77
357.25	1587.18
357.46	1687.53
357.68	1624.04
357.89	1656.81
358.10	1724.39
358.31	1738.73
358.52	1644.52
358.73	1687.53
358.94	1587.18
359.15	1638.38
359.36	1685.48
359.57	1722.34
359.78	1624.04
359.99	1732.58
360.20	1615.85
360.41	1673.19
360.62	1667.05
360.83	1728.49
361.04	1638.38
361.25	1691.62
361.46	1847.27
361.67	1765.35
361.88	1740.77
362.09	1828.84
362.30	1742.82
362.51	1671.14
362.72	1748.97
362.93	1724.39
363.14	1652.71
363.35	1812.45
363.56	1654.76
363.78	1710.05
363.99	1837.03
364.20	1613.80
364.41	1761.25
364.62	1757.16
364.83	1654.76
365.04	1697.77
365.25	1738.73
365.46	1824.74
365.67	1603.56
365.88	1726.44
366.09	1669.09
366.30	1660.90
366.51	1701.86
366.72	1658.85
366.93	1720.29
367.14	1689.57
367.35	1796.07
367.56	1654.76
367.77	1777.64
367.98	1656.81
368.18	1742.82
368.39	1746.92
368.60	1640.42
368.81	1759.21
369.02	1720.29
369.23	1615.85
369.44	1650.66
369.65	1718.25
369.86	1716.20
370.07	1734.63
370.28	1634.28
370.49	1767.40
370.70	1716.20
370.91	1673.19
371.12	1660.90
371.33	1708.01
371.54	1595.37
371.75	1767.40
371.96	1632.23
372.17	1757.16
372.38	1640.42
372.59	1810.40
372.80	1626.09
373.01	1679.33
373.22	1714.15
373.43	1701.86
373.64	1677.29
373.85	1783.78
374.06	1794.02
374.26	1726.44
374.47	1740.77
374.68	1837.03
374.89	1708.01
375.10	1724.39
375.31	1820.64
375.52	1697.77
375.73	1699.81
375.94	1677.29
376.15	1837.03
376.36	1701.86
376.57	1763.30
376.78	1660.90
376.99	1646.57
377.20	1800.16
377.40	1687.53
377.61	1822.69
377.82	1658.85
378.03	1738.73
378.24	1716.20
378.45	1669.09
378.66	1679.33
378.87	1572.84
379.08	1673.19
379.29	1716.20
379.50	1843.17
379.71	1667.05
379.91	1755.11
380.12	1720.29
380.33	1697.77
380.54	1654.76
380.75	1763.30
380.96	1714.15
381.17	1734.63
381.38	1722.34
381.59	1751.01
381.80	1726.44
382.00	1773.54
382.21	1757.16
382.42	1888.23
382.63	1972.19
382.84	1740.77
383.05	1804.26
383.26	1783.78
383.47	1683.43
383.68	1779.68
383.88	1796.07
384.09	1802.21
384.30	1791.97
384.51	1783.78
384.72	1800.16
384.93	1665.00
385.14	1658.85
385.35	1714.15
385.55	1669.09
385.76	1724.39
385.97	1671.14
386.18	1656.81
386.39	1669.09
386.60	1648.61
386.81	1748.97
387.02	1730.53
387.22	1632.23
387.43	1751.01
387.64	1748.97
387.85	1937.38
388.06	2230.24
388.27	4290.49
388.48	6811.54
388.68	8312.71
388.89	9598.83
389.10	10020.71
389.31	8556.41
389.52	7487.37
389.73	6633.37
389.93	6162.34
390.14	6004.64
390.35	5240.75
390.56	4585.40
390.77	3790.79
390.98	3057.62
391.18	2488.28
391.39	2041.82
391.60	1804.26
391.81	1814.50
392.02	1722.34
392.23	1839.08
392.43	1812.45
392.64	1783.78
392.85	1642.47
393.06	1771.49
393.27	1673.19
393.47	1671.14
393.68	1714.15
393.89	1720.29
394.10	1787.88
394.31	1630.18
394.52	1636.33
394.72	1626.09
394.93	1773.54
395.14	1675.24
395.35	1671.14
395.56	1689.57
395.76	1746.92
395.97	1746.92
396.18	1834.98
396.39	1939.43
396.60	2062.30
396.80	1894.37
397.01	1880.04
397.22	1851.36
397.43	1900.52
397.64	1726.44
397.84	1843.17
398.05	1828.84
398.26	1777.64
398.47	1785.83
398.67	1773.54
398.88	1759.21
399.09	1763.30
399.30	1683.43
399.51	1783.78
399.71	1611.75
399.92	1710.05
400.13	1710.05
400.34	1728.49
400.54	1757.16
400.75	1837.03
400.96	1681.38
401.17	1830.88
401.37	1716.20
401.58	1681.38
401.79	1644.52
402.00	1910.75
402.21	1992.67
402.41	1931.23
402.62	1980.39
402.83	2035.68
403.04	1912.80
403.24	2060.26
403.45	1808.36
403.66	1820.64
403.87	1853.41
404.07	1914.85
404.28	1912.80
404.49	1929.19
404.70	1802.21
404.90	1742.82
405.11	1783.78
405.32	1787.88
405.52	1691.62
405.73	1734.63
405.94	1679.33
406.15	1701.86
406.35	1767.40
406.56	1777.64
406.77	1722.34
406.98	1638.38
407.18	1667.05
407.39	1697.77
407.60	1724.39
407.80	1722.34
408.01	1654.76
408.22	1738.73
408.43	1685.48
408.63	1734.63
408.84	1773.54
409.05	1738.73
409.25	1640.42
409.46	1689.57
409.67	1679.33
409.88	1630.18
410.08	1730.53
410.29	1748.97
410.50	1804.26
410.70	1718.25
410.91	1638.38
411.12	1759.21
411.32	1718.25
411.53	1720.29
411.74	1812.45
411.95	1759.21
412.15	1773.54
412.36	1783.78
412.57	1738.73
412.77	1816.55
412.98	1755.11
413.19	1712.10
413.39	1712.10
413.60	1722.34
413.81	1794.02
414.01	1683.43
414.22	1734.63
414.43	1656.81
414.63	1740.77
414.84	1777.64
415.05	1742.82
415.25	1624.04
415.46	1685.48
415.67	1683.43
415.87	1742.82
416.08	1748.97
416.29	1734.63
416.49	1732.58
416.70	1683.43
416.91	1689.57
417.11	1665.00
417.32	1775.59
417.53	1759.21
417.73	1687.53
417.94	1705.96
418.15	1673.19
418.35	1777.64
418.56	1654.76
418.77	1865.70
418.97	1665.00
419.18	1632.23
419.38	1642.47
419.59	1687.53
419.80	1806.31
420.00	1671.14
420.21	1802.21
420.42	1710.05
420.62	1718.25
420.83	1662.95
421.04	1693.67
421.24	1673.19
421.45	1730.53
421.65	1728.49
421.86	1613.80
422.07	1714.15
422.27	1708.01
422.48	1660.90
422.69	1687.53
422.89	1693.67
423.10	1699.81
423.30	1617.90
423.51	1742.82
423.72	1714.15
423.92	1787.88
424.13	1689.57
424.33	1755.11
424.54	1679.33
424.75	1703.91
424.95	1849.32
425.16	1718.25
425.36	1699.81
425.57	1685.48
425.78	1773.54
425.98	1751.01
426.19	1667.05
426.39	1660.90
426.60	1693.67
426.81	1818.60
427.01	1828.84
427.22	1660.90
427.42	1689.57
427.63	1615.85
427.83	1791.97
428.04	1738.73
428.25	1884.13
428.45	1834.98
428.66	1755.11
428.86	1712.10
429.07	1679.33
429.28	1814.50
429.48	1783.78
429.69	1671.14
429.89	1671.14
430.10	1683.43
430.30	1710.05
430.51	1777.64
430.71	1677.29
430.92	1683.43
431.13	1591.27
431.33	1742.82
431.54	1708.01
431.74	1718.25
431.95	1818.60
432.15	1687.53
432.36	1751.01
432.56	1734.63
432.77	1849.32
432.98	1845.22
433.18	1787.88
433.39	1708.01
433.59	1667.05
433.80	1751.01
434.00	1877.99
434.21	1667.05
434.41	1658.85
434.62	1755.11
434.82	1603.56
435.03	1677.29
435.23	1734.63
435.44	1597.42
435.64	1712.10
435.85	1671.14
436.06	1714.15
436.26	1853.41
436.47	1722.34
436.67	1675.24
436.88	1665.00
437.08	1755.11
437.29	1773.54
437.49	1787.88
437.70	1828.84
437.90	1720.29
438.11	1857.51
438.31	1865.70
438.52	1923.04
438.72	1751.01
438.93	1859.56
439.13	1753.06
439.34	1816.55
439.54	1738.73
439.75	1761.25
439.95	1787.88
440.16	1630.18
440.36	1746.92
440.57	1705.96
440.77	1708.01
440.98	1777.64
441.18	1681.38
441.39	1669.09
441.59	1673.19
441.80	1855.46
442.00	1648.61
442.21	1816.55
442.41	1603.56
442.62	1800.16
442.82	1617.90
443.02	1705.96
443.23	1738.73
443.43	1722.34
443.64	1812.45
443.84	1761.25
444.05	1861.60
444.25	1759.21
444.46	1701.86
444.66	1669.09
444.87	1837.03
445.07	1626.09
445.28	1765.35
445.48	1798.12
445.69	1701.86
445.89	1826.79
446.09	1722.34
446.30	1931.23
446.50	2627.54
446.71	3604.42
446.91	4313.02
447.12	4759.48
447.32	4784.06
447.53	4267.97
447.73	3913.67
447.93	3495.88
448.14	3291.09
448.34	3096.53
448.55	2949.08
448.75	2815.96
448.96	2619.35
449.16	2385.88
449.36	2271.20
449.57	2127.84
449.77	1894.37
449.98	1861.60
450.18	1837.03
450.39	1820.64
450.59	1761.25
450.79	1679.33
451.00	1730.53
451.20	1794.02
451.41	1693.67
451.61	1726.44
451.81	1748.97
452.02	1744.87
452.22	1634.28
452.43	1816.55
452.63	1705.96
