SpectraSuite Data File
++++++++++++++++++++++++++++++++++++
Date: Mon Jun 06 15:52:57 CEST 2016
User: root
Dark Spectrum Present: No
Reference Spectrum Present: No
Number of Sampled Component Spectra: 1
Spectrometers: USB4C02835
Integration Time (usec): 100000 (USB4C02835)
Spectra Averaged: 1 (USB4C02835)
Boxcar Smoothing: 0 (USB4C02835)
Correct for Electrical Dark: No (USB4C02835)
Strobe/Lamp Enabled: No (USB4C02835)
Correct for Detector Non-linearity: No (USB4C02835)
Correct for Stray Light: No (USB4C02835)
Number of Pixels in Processed Spectrum: 3648
>>>>>Begin Processed Spectral Data<<<<<
177.47	1558.50
177.69	1558.50
177.91	1558.50
178.13	1464.30
178.36	1402.86
178.58	1677.29
178.80	1787.88
179.02	1656.81
179.24	1617.90
179.46	1722.34
179.68	1794.02
179.90	1755.11
180.13	1724.39
180.35	1685.48
180.57	1669.09
180.79	1722.34
181.01	1716.20
181.23	1806.31
181.45	1828.84
181.67	1751.01
181.90	1697.77
182.12	1726.44
182.34	1662.95
182.56	1765.35
182.78	1765.35
183.00	1751.01
183.22	1619.94
183.44	1585.13
183.66	1859.56
183.89	1785.83
184.11	1742.82
184.33	1791.97
184.55	1820.64
184.77	1757.16
184.99	1804.26
185.21	1689.57
185.43	1855.46
185.65	1695.72
185.87	1656.81
186.10	1769.44
186.32	1888.23
186.54	1708.01
186.76	1779.68
186.98	1742.82
187.20	1673.19
187.42	1677.29
187.64	1699.81
187.86	1742.82
188.08	1785.83
188.30	1660.90
188.52	1710.05
188.75	1828.84
188.97	1820.64
189.19	1662.95
189.41	1689.57
189.63	1773.54
189.85	1705.96
190.07	1656.81
190.29	1767.40
190.51	1722.34
190.73	1656.81
190.95	1853.41
191.17	1730.53
191.39	1660.90
191.61	1665.00
191.84	1677.29
192.06	1738.73
192.28	1648.61
192.50	1890.28
192.72	1703.91
192.94	1712.10
193.16	1814.50
193.38	1740.77
193.60	1675.24
193.82	1769.44
194.04	1779.68
194.26	1746.92
194.48	1671.14
194.70	1638.38
194.92	1665.00
195.14	1755.11
195.36	1771.49
195.58	1732.58
195.80	1730.53
196.02	1656.81
196.24	1652.71
196.46	1714.15
196.69	1734.63
196.91	1755.11
197.13	1720.29
197.35	1703.91
197.57	1810.40
197.79	1804.26
198.01	1720.29
198.23	1730.53
198.45	1777.64
198.67	1689.57
198.89	1691.62
199.11	1734.63
199.33	1644.52
199.55	1607.66
199.77	1712.10
199.99	1779.68
200.21	1708.01
200.43	1730.53
200.65	1644.52
200.87	1597.42
201.09	1738.73
201.31	1679.33
201.53	1753.06
201.75	1665.00
201.97	1759.21
202.19	1679.33
202.41	1744.87
202.63	1863.65
202.85	1677.29
203.07	1783.78
203.29	1667.05
203.51	1599.46
203.73	1660.90
203.95	1906.66
204.17	1773.54
204.39	1828.84
204.61	1712.10
204.83	1683.43
205.05	1734.63
205.27	1667.05
205.49	1814.50
205.71	1736.68
205.93	1581.03
206.15	1701.86
206.37	1689.57
206.59	1746.92
206.81	1656.81
207.03	1605.61
207.25	1603.56
207.47	1746.92
207.69	1755.11
207.91	1767.40
208.13	1775.59
208.34	1697.77
208.56	1656.81
208.78	1773.54
209.00	1677.29
209.22	1712.10
209.44	1718.25
209.66	1669.09
209.88	1734.63
210.10	1697.77
210.32	1621.99
210.54	1767.40
210.76	1759.21
210.98	1789.92
211.20	1572.84
211.42	1689.57
211.64	1816.55
211.86	1757.16
212.08	1695.72
212.30	1730.53
212.52	1710.05
212.74	1708.01
212.96	1632.23
213.17	1675.24
213.39	1699.81
213.61	1767.40
213.83	1703.91
214.05	1665.00
214.27	1697.77
214.49	1673.19
214.71	1660.90
214.93	1789.92
215.15	1742.82
215.37	1791.97
215.59	1560.55
215.81	1738.73
216.03	1765.35
216.24	1785.83
216.46	1689.57
216.68	1703.91
216.90	1718.25
217.12	1751.01
217.34	1685.48
217.56	1732.58
217.78	1761.25
218.00	1732.58
218.22	1779.68
218.44	1722.34
218.66	1703.91
218.87	1814.50
219.09	1718.25
219.31	1763.30
219.53	1728.49
219.75	1720.29
219.97	1701.86
220.19	1652.71
220.41	1722.34
220.63	1765.35
220.85	1767.40
221.06	1691.62
221.28	1722.34
221.50	1787.88
221.72	1673.19
221.94	1708.01
222.16	1724.39
222.38	1791.97
222.60	1687.53
222.82	1765.35
223.03	1736.68
223.25	1660.90
223.47	1738.73
223.69	1839.08
223.91	1736.68
224.13	1773.54
224.35	1718.25
224.57	1714.15
224.78	1740.77
225.00	1558.50
225.22	1617.90
225.44	1621.99
225.66	1642.47
225.88	1689.57
226.10	1810.40
226.32	1808.36
226.53	1923.04
226.75	1677.29
226.97	1783.78
227.19	1738.73
227.41	1648.61
227.63	1710.05
227.85	1603.56
228.06	1751.01
228.28	1767.40
228.50	1708.01
228.72	1722.34
228.94	1726.44
229.16	1624.04
229.37	1648.61
229.59	1607.66
229.81	1871.84
230.03	1740.77
230.25	1619.94
230.47	1730.53
230.69	1564.65
230.90	1800.16
231.12	1708.01
231.34	1718.25
231.56	1755.11
231.78	1746.92
232.00	1759.21
232.21	1658.85
232.43	1658.85
232.65	1624.04
232.87	1697.77
233.09	1648.61
233.30	1679.33
233.52	1744.87
233.74	1718.25
233.96	1777.64
234.18	1757.16
234.40	1722.34
234.61	1910.75
234.83	1675.24
235.05	1630.18
235.27	1781.73
235.49	1701.86
235.70	1722.34
235.92	1759.21
236.14	1732.58
236.36	1884.13
236.58	1609.70
236.79	1730.53
237.01	1687.53
237.23	1677.29
237.45	1812.45
237.67	1759.21
237.88	1734.63
238.10	1853.41
238.32	1667.05
238.54	1644.52
238.76	1746.92
238.97	1621.99
239.19	1679.33
239.41	1714.15
239.63	1779.68
239.85	1656.81
240.06	1738.73
240.28	1765.35
240.50	1724.39
240.72	1681.38
240.93	1722.34
241.15	1851.36
241.37	1658.85
241.59	1759.21
241.81	1701.86
242.02	1687.53
242.24	1769.44
242.46	1791.97
242.68	1656.81
242.89	1722.34
243.11	1789.92
243.33	1736.68
243.55	1689.57
243.76	1761.25
243.98	1697.77
244.20	1673.19
244.42	1656.81
244.64	1722.34
244.85	1697.77
245.07	1624.04
245.29	1665.00
245.51	1693.67
245.72	1697.77
245.94	1751.01
246.16	1671.14
246.38	1773.54
246.59	1695.72
246.81	1699.81
247.03	1710.05
247.24	1675.24
247.46	1689.57
247.68	1714.15
247.90	1638.38
248.11	1679.33
248.33	1816.55
248.55	1669.09
248.77	1705.96
248.98	1701.86
249.20	1779.68
249.42	1738.73
249.64	1744.87
249.85	1693.67
250.07	1689.57
250.29	1705.96
250.50	1759.21
250.72	1632.23
250.94	1744.87
251.16	1787.88
251.37	1816.55
251.59	1658.85
251.81	1734.63
252.02	1742.82
252.24	1748.97
252.46	1763.30
252.68	1691.62
252.89	1691.62
253.11	1601.51
253.33	1785.83
253.54	1787.88
253.76	1689.57
253.98	1699.81
254.20	1736.68
254.41	1638.38
254.63	1748.97
254.85	1636.33
255.06	1697.77
255.28	1757.16
255.50	1679.33
255.71	1681.38
255.93	1658.85
256.15	1624.04
256.36	1767.40
256.58	1685.48
256.80	1720.29
257.02	1695.72
257.23	1718.25
257.45	1746.92
257.67	1787.88
257.88	1648.61
258.10	1773.54
258.32	1689.57
258.53	1695.72
258.75	1753.06
258.97	1732.58
259.18	1648.61
259.40	1691.62
259.62	1886.18
259.83	1785.83
260.05	1697.77
260.27	1937.38
260.48	1796.07
260.70	1642.47
260.92	1751.01
261.13	1650.66
261.35	1728.49
261.57	1753.06
261.78	1628.14
262.00	1697.77
262.22	1771.49
262.43	1697.77
262.65	1660.90
262.86	1783.78
263.08	1804.26
263.30	1732.58
263.51	1630.18
263.73	1699.81
263.95	1839.08
264.16	1699.81
264.38	1699.81
264.60	1722.34
264.81	1683.43
265.03	1746.92
265.25	1761.25
265.46	1648.61
265.68	1830.88
265.89	1785.83
266.11	1605.61
266.33	1773.54
266.54	1748.97
266.76	1771.49
266.98	1751.01
267.19	1775.59
267.41	1759.21
267.62	1658.85
267.84	1630.18
268.06	1779.68
268.27	1718.25
268.49	1759.21
268.70	1781.73
268.92	1783.78
269.14	1685.48
269.35	1632.23
269.57	1744.87
269.79	1757.16
270.00	1648.61
270.22	1800.16
270.43	1751.01
270.65	1626.09
270.87	1708.01
271.08	1681.38
271.30	1802.21
271.51	1730.53
271.73	1654.76
271.95	1779.68
272.16	1673.19
272.38	1730.53
272.59	1671.14
272.81	1677.29
273.02	1755.11
273.24	1730.53
273.46	1724.39
273.67	1615.85
273.89	1660.90
274.10	1644.52
274.32	1703.91
274.54	1728.49
274.75	1705.96
274.97	1724.39
275.18	1703.91
275.40	1804.26
275.61	1703.91
275.83	1724.39
276.05	1603.56
276.26	1757.16
276.48	1781.73
276.69	1751.01
276.91	1671.14
277.12	1822.69
277.34	1820.64
277.55	1787.88
277.77	1814.50
277.99	1691.62
278.20	1642.47
278.42	1656.81
278.63	1695.72
278.85	1650.66
279.06	1716.20
279.28	1779.68
279.49	1773.54
279.71	1755.11
279.93	1738.73
280.14	1716.20
280.36	1689.57
280.57	1796.07
280.79	1720.29
281.00	1724.39
281.22	1648.61
281.43	1783.78
281.65	1617.90
281.86	1683.43
282.08	1796.07
282.29	1834.98
282.51	1683.43
282.73	1640.42
282.94	1613.80
283.16	1769.44
283.37	1837.03
283.59	1753.06
283.80	1748.97
284.02	1699.81
284.23	1697.77
284.45	1740.77
284.66	1699.81
284.88	1667.05
285.09	1738.73
285.31	1851.36
285.52	1691.62
285.74	1611.75
285.95	1742.82
286.17	1753.06
286.38	1804.26
286.60	1734.63
286.81	1673.19
287.03	1716.20
287.24	1728.49
287.46	1656.81
287.67	1679.33
287.89	1775.59
288.10	1693.67
288.32	1732.58
288.53	1837.03
288.75	1769.44
288.96	1779.68
289.18	1703.91
289.39	1751.01
289.61	1722.34
289.82	1818.60
290.04	1839.08
290.25	1642.47
290.47	1642.47
290.68	1642.47
290.90	1830.88
291.11	1632.23
291.33	1798.12
291.54	1642.47
291.76	1746.92
291.97	1718.25
292.18	1689.57
292.40	1648.61
292.61	1701.86
292.83	1861.60
293.04	1742.82
293.26	1748.97
293.47	1673.19
293.69	1617.90
293.90	1677.29
294.12	1734.63
294.33	1722.34
294.55	1705.96
294.76	1714.15
294.97	1761.25
295.19	1804.26
295.40	1669.09
295.62	1787.88
295.83	1812.45
296.05	1626.09
296.26	1826.79
296.48	1697.77
296.69	1724.39
296.90	1732.58
297.12	1777.64
297.33	1849.32
297.55	1720.29
297.76	1720.29
297.98	1816.55
298.19	1697.77
298.41	1701.86
298.62	1665.00
298.83	1839.08
299.05	1685.48
299.26	1673.19
299.48	1679.33
299.69	1724.39
299.90	1771.49
300.12	1736.68
300.33	1777.64
300.55	1761.25
300.76	1730.53
300.98	1714.15
301.19	1755.11
301.40	1660.90
301.62	1681.38
301.83	1705.96
302.05	1652.71
302.26	1683.43
302.47	1767.40
302.69	1650.66
302.90	1765.35
303.12	1626.09
303.33	1730.53
303.54	1755.11
303.76	1652.71
303.97	1726.44
304.19	1806.31
304.40	1699.81
304.61	1757.16
304.83	1900.52
305.04	1757.16
305.26	1773.54
305.47	1658.85
305.68	1632.23
305.90	1687.53
306.11	1765.35
306.33	1634.28
306.54	1697.77
306.75	1648.61
306.97	1714.15
307.18	1601.51
307.39	1662.95
307.61	1689.57
307.82	1738.73
308.04	1779.68
308.25	1644.52
308.46	1773.54
308.68	1728.49
308.89	1724.39
309.10	1830.88
309.32	1667.05
309.53	1681.38
309.74	1763.30
309.96	1710.05
310.17	1734.63
310.39	1687.53
310.60	1720.29
310.81	1687.53
311.03	1591.27
311.24	1757.16
311.45	1669.09
311.67	1775.59
311.88	1746.92
312.09	1677.29
312.31	1632.23
312.52	1660.90
312.73	1759.21
312.95	1581.03
313.16	1619.94
313.37	1798.12
313.59	1755.11
313.80	1746.92
314.01	1826.79
314.23	1644.52
314.44	1701.86
314.65	1648.61
314.87	1734.63
315.08	1646.57
315.29	1705.96
315.51	1632.23
315.72	1646.57
315.93	1791.97
316.15	1884.13
316.36	1658.85
316.57	1765.35
316.79	1785.83
317.00	1677.29
317.21	1722.34
317.43	1691.62
317.64	1773.54
317.85	1656.81
318.07	1708.01
318.28	1753.06
318.49	1785.83
318.70	1851.36
318.92	1867.75
319.13	1837.03
319.34	1871.84
319.56	1775.59
319.77	1808.36
319.98	1755.11
320.20	1744.87
320.41	1751.01
320.62	1730.53
320.83	1675.24
321.05	1789.92
321.26	1761.25
321.47	1736.68
321.69	1800.16
321.90	1648.61
322.11	1748.97
322.32	1703.91
322.54	1742.82
322.75	1732.58
322.96	1834.98
323.18	1595.37
323.39	1626.09
323.60	1640.42
323.81	1751.01
324.03	1699.81
324.24	1765.35
324.45	1646.57
324.66	1798.12
324.88	1753.06
325.09	1814.50
325.30	1726.44
325.52	1722.34
325.73	1677.29
325.94	1685.48
326.15	1644.52
326.37	1673.19
326.58	1742.82
326.79	1826.79
327.00	1679.33
327.22	1728.49
327.43	1759.21
327.64	1638.38
327.85	1662.95
328.07	1710.05
328.28	1816.55
328.49	1755.11
328.70	1722.34
328.92	1734.63
329.13	1724.39
329.34	1748.97
329.55	1767.40
329.76	1763.30
329.98	1689.57
330.19	1757.16
330.40	1755.11
330.61	1738.73
330.83	1667.05
331.04	1646.57
331.25	1701.86
331.46	1595.37
331.68	1685.48
331.89	1818.60
332.10	1677.29
332.31	1662.95
332.52	1738.73
332.74	1828.84
332.95	1605.61
333.16	1697.77
333.37	1683.43
333.58	1691.62
333.80	1718.25
334.01	1673.19
334.22	1660.90
334.43	1697.77
334.64	1656.81
334.86	1632.23
335.07	1650.66
335.28	1779.68
335.49	1669.09
335.70	1779.68
335.92	1751.01
336.13	1822.69
336.34	1740.77
336.55	1689.57
336.76	1751.01
336.98	1644.52
337.19	1777.64
337.40	1859.56
337.61	1871.84
337.82	1712.10
338.04	1742.82
338.25	1642.47
338.46	1673.19
338.67	1697.77
338.88	1632.23
339.09	1697.77
339.31	1699.81
339.52	1652.71
339.73	1724.39
339.94	1691.62
340.15	1734.63
340.36	1726.44
340.58	1746.92
340.79	1626.09
341.00	1783.78
341.21	1683.43
341.42	1828.84
341.63	1708.01
341.85	1701.86
342.06	1753.06
342.27	1650.66
342.48	1738.73
342.69	1658.85
342.90	1712.10
343.12	1746.92
343.33	1669.09
343.54	1771.49
343.75	1806.31
343.96	1679.33
344.17	1742.82
344.38	1765.35
344.60	1691.62
344.81	1695.72
345.02	1652.71
345.23	1669.09
345.44	1798.12
345.65	1714.15
345.86	1667.05
346.07	1710.05
346.29	1710.05
346.50	1791.97
346.71	1710.05
346.92	1736.68
347.13	1855.46
347.34	1681.38
347.55	1705.96
347.76	1759.21
347.98	1615.85
348.19	1718.25
348.40	1785.83
348.61	1654.76
348.82	1824.74
349.03	1785.83
349.24	1648.61
349.45	1839.08
349.66	1626.09
349.88	1681.38
350.09	1667.05
350.30	1689.57
350.51	1708.01
350.72	1665.00
350.93	1681.38
351.14	1640.42
351.35	1732.58
351.56	1687.53
351.77	1621.99
351.99	1824.74
352.20	1804.26
352.41	1810.40
352.62	1597.42
352.83	1671.14
353.04	1771.49
353.25	1722.34
353.46	1703.91
353.67	1828.84
353.88	1648.61
354.09	1665.00
354.30	1708.01
354.52	1679.33
354.73	1738.73
354.94	1626.09
355.15	1693.67
355.36	1781.73
355.57	1660.90
355.78	1785.83
355.99	1671.14
356.20	1669.09
356.41	1746.92
356.62	1787.88
356.83	1736.68
357.04	1757.16
357.25	1646.57
357.46	1695.72
357.68	1603.56
357.89	1658.85
358.10	1615.85
358.31	1693.67
358.52	1710.05
358.73	1656.81
358.94	1732.58
359.15	1728.49
359.36	1763.30
359.57	1757.16
359.78	1654.76
359.99	1785.83
360.20	1640.42
360.41	1726.44
360.62	1689.57
360.83	1615.85
361.04	1728.49
361.25	1785.83
361.46	1744.87
361.67	1697.77
361.88	1691.62
362.09	1755.11
362.30	1769.44
362.51	1636.33
362.72	1812.45
362.93	1726.44
363.14	1714.15
363.35	1814.50
363.56	1640.42
363.78	1800.16
363.99	1738.73
364.20	1687.53
364.41	1710.05
364.62	1767.40
364.83	1716.20
365.04	1703.91
365.25	1740.77
365.46	1859.56
365.67	1675.24
365.88	1693.67
366.09	1658.85
366.30	1714.15
366.51	1734.63
366.72	1722.34
366.93	1677.29
367.14	1703.91
367.35	1724.39
367.56	1740.77
367.77	1765.35
367.98	1685.48
368.18	1763.30
368.39	1714.15
368.60	1658.85
368.81	1783.78
369.02	1687.53
369.23	1658.85
369.44	1636.33
369.65	1761.25
369.86	1722.34
370.07	1759.21
370.28	1652.71
370.49	1708.01
370.70	1804.26
370.91	1554.41
371.12	1667.05
371.33	1769.44
371.54	1687.53
371.75	1808.36
371.96	1619.94
372.17	1677.29
372.38	1677.29
372.59	1718.25
372.80	1718.25
373.01	1673.19
373.22	1726.44
373.43	1738.73
373.64	1650.66
373.85	1685.48
374.06	1820.64
374.26	1796.07
374.47	1730.53
374.68	1738.73
374.89	1697.77
375.10	1720.29
375.31	1802.21
375.52	1732.58
375.73	1718.25
375.94	1687.53
376.15	1820.64
376.36	1716.20
376.57	1611.75
376.78	1701.86
376.99	1714.15
377.20	1814.50
377.40	1681.38
377.61	1839.08
377.82	1689.57
378.03	1808.36
378.24	1765.35
378.45	1748.97
378.66	1738.73
378.87	1597.42
379.08	1685.48
379.29	1738.73
379.50	1738.73
379.71	1740.77
379.91	1794.02
380.12	1699.81
380.33	1685.48
380.54	1763.30
380.75	1716.20
380.96	1759.21
381.17	1724.39
381.38	1685.48
381.59	1761.25
381.80	1718.25
382.00	1814.50
382.21	1736.68
382.42	1783.78
382.63	1857.51
382.84	1802.21
383.05	1775.59
383.26	1927.14
383.47	1656.81
383.68	1742.82
383.88	1708.01
384.09	1732.58
384.30	1800.16
384.51	1744.87
384.72	1689.57
384.93	1693.67
385.14	1744.87
385.35	1796.07
385.55	1648.61
385.76	1757.16
385.97	1710.05
386.18	1679.33
386.39	1685.48
386.60	1624.04
386.81	1695.72
387.02	1771.49
387.22	1671.14
387.43	1722.34
387.64	1804.26
387.85	1902.56
388.06	2213.85
388.27	4237.25
388.48	6674.33
388.68	8093.57
388.89	9381.74
389.10	9641.84
389.31	8277.89
389.52	7450.51
389.73	6670.23
389.93	6150.05
390.14	5715.88
390.35	5105.59
390.56	4577.21
390.77	3696.58
390.98	2951.12
391.18	2516.95
391.39	2144.22
391.60	1882.08
391.81	1828.84
392.02	1787.88
392.23	1830.88
392.43	1734.63
392.64	1785.83
392.85	1771.49
393.06	1816.55
393.27	1697.77
393.47	1667.05
393.68	1787.88
393.89	1660.90
394.10	1865.70
394.31	1599.46
394.52	1650.66
394.72	1734.63
394.93	1783.78
395.14	1677.29
395.35	1701.86
395.56	1748.97
395.76	1671.14
395.97	1763.30
396.18	1861.60
396.39	1787.88
396.60	2041.82
396.80	1916.90
397.01	1832.93
397.22	1847.27
397.43	1855.46
397.64	1746.92
397.84	1865.70
398.05	1955.81
398.26	1722.34
398.47	1785.83
398.67	1757.16
398.88	1720.29
399.09	1726.44
399.30	1656.81
399.51	1746.92
399.71	1619.94
399.92	1728.49
400.13	1767.40
400.34	1755.11
400.54	1671.14
400.75	1738.73
400.96	1779.68
401.17	1820.64
401.37	1777.64
401.58	1699.81
401.79	1742.82
402.00	1869.80
402.21	2007.01
402.41	1927.14
402.62	1994.72
402.83	2031.58
403.04	2000.87
403.24	2011.11
403.45	1843.17
403.66	1935.33
403.87	1880.04
404.07	1845.22
404.28	1843.17
404.49	1867.75
404.70	1804.26
404.90	1748.97
405.11	1796.07
405.32	1740.77
405.52	1699.81
405.73	1640.42
405.94	1646.57
406.15	1669.09
406.35	1765.35
406.56	1738.73
406.77	1755.11
406.98	1787.88
407.18	1724.39
407.39	1845.22
407.60	1669.09
407.80	1822.69
408.01	1685.48
408.22	1701.86
408.43	1755.11
408.63	1775.59
408.84	1726.44
409.05	1728.49
409.25	1701.86
409.46	1742.82
409.67	1658.85
409.88	1701.86
410.08	1769.44
410.29	1742.82
410.50	1671.14
410.70	1763.30
410.91	1617.90
411.12	1675.24
411.32	1734.63
411.53	1710.05
411.74	1804.26
411.95	1734.63
412.15	1718.25
412.36	1806.31
412.57	1708.01
412.77	1828.84
412.98	1775.59
413.19	1769.44
413.39	1794.02
413.60	1783.78
413.81	1828.84
414.01	1626.09
414.22	1712.10
414.43	1761.25
414.63	1742.82
414.84	1748.97
415.05	1714.15
415.25	1673.19
415.46	1759.21
415.67	1718.25
415.87	1736.68
416.08	1681.38
416.29	1748.97
416.49	1722.34
416.70	1802.21
416.91	1685.48
417.11	1728.49
417.32	1837.03
417.53	1742.82
417.73	1779.68
417.94	1732.58
418.15	1767.40
418.35	1705.96
418.56	1787.88
418.77	1851.36
418.97	1658.85
419.18	1677.29
419.38	1591.27
419.59	1656.81
419.80	1796.07
420.00	1638.38
420.21	1673.19
420.42	1843.17
420.62	1757.16
420.83	1695.72
421.04	1689.57
421.24	1757.16
421.45	1701.86
421.65	1767.40
421.86	1697.77
422.07	1808.36
422.27	1748.97
422.48	1738.73
422.69	1681.38
422.89	1759.21
423.10	1621.99
423.30	1654.76
423.51	1744.87
423.72	1708.01
423.92	1732.58
424.13	1648.61
424.33	1734.63
424.54	1814.50
424.75	1744.87
424.95	1843.17
425.16	1703.91
425.36	1710.05
425.57	1796.07
425.78	1851.36
425.98	1755.11
426.19	1714.15
426.39	1683.43
426.60	1720.29
426.81	1810.40
427.01	1705.96
427.22	1656.81
427.42	1693.67
427.63	1595.37
427.83	1722.34
428.04	1832.93
428.25	1779.68
428.45	1703.91
428.66	1753.06
428.86	1783.78
429.07	1734.63
429.28	1736.68
429.48	1689.57
429.69	1587.18
429.89	1761.25
430.10	1546.22
430.30	1742.82
430.51	1767.40
430.71	1665.00
430.92	1687.53
431.13	1701.86
431.33	1742.82
431.54	1724.39
431.74	1767.40
431.95	1832.93
432.15	1624.04
432.36	1761.25
432.56	1757.16
432.77	1822.69
432.98	1779.68
433.18	1771.49
433.39	1660.90
433.59	1740.77
433.80	1845.22
434.00	1898.47
434.21	1712.10
434.41	1646.57
434.62	1894.37
434.82	1710.05
435.03	1708.01
435.23	1769.44
435.44	1589.22
435.64	1660.90
435.85	1710.05
436.06	1757.16
436.26	1705.96
436.47	1712.10
436.67	1722.34
436.88	1734.63
437.08	1712.10
437.29	1841.12
437.49	1734.63
437.70	1828.84
437.90	1648.61
438.11	1802.21
438.31	1765.35
438.52	1884.13
438.72	1865.70
438.93	1955.81
439.13	1759.21
439.34	1816.55
439.54	1851.36
439.75	1789.92
439.95	1808.36
440.16	1665.00
440.36	1708.01
440.57	1773.54
440.77	1748.97
440.98	1740.77
441.18	1798.12
441.39	1691.62
441.59	1654.76
441.80	1853.41
442.00	1718.25
442.21	1828.84
442.41	1722.34
442.62	1796.07
442.82	1687.53
443.02	1701.86
443.23	1705.96
443.43	1740.77
443.64	1800.16
443.84	1644.52
444.05	1867.75
444.25	1767.40
444.46	1771.49
444.66	1734.63
444.87	1771.49
445.07	1624.04
445.28	1658.85
445.48	1841.12
445.69	1783.78
445.89	1847.27
446.09	1751.01
446.30	2033.63
446.50	2514.91
446.71	3663.82
446.91	4237.25
447.12	4777.91
447.32	4659.13
447.53	4157.38
447.73	3835.85
447.93	3483.59
448.14	3297.23
448.34	3272.65
448.55	2828.24
448.75	2805.72
448.96	2750.42
449.16	2379.74
449.36	2271.20
449.57	2072.54
449.77	1908.71
449.98	1806.31
450.18	1873.89
450.39	1787.88
450.59	1767.40
450.79	1724.39
451.00	1656.81
451.20	1859.56
451.41	1761.25
451.61	1771.49
451.81	1773.54
452.02	1589.22
452.22	1726.44
452.43	1640.42
452.63	1705.96
