SpectraSuite Data File
++++++++++++++++++++++++++++++++++++
Date: Mon Jun 06 17:00:57 CEST 2016
User: root
Dark Spectrum Present: No
Reference Spectrum Present: No
Number of Sampled Component Spectra: 1
Spectrometers: USB4C02835
Integration Time (usec): 100000 (USB4C02835)
Spectra Averaged: 1 (USB4C02835)
Boxcar Smoothing: 0 (USB4C02835)
Correct for Electrical Dark: No (USB4C02835)
Strobe/Lamp Enabled: No (USB4C02835)
Correct for Detector Non-linearity: No (USB4C02835)
Correct for Stray Light: No (USB4C02835)
Number of Pixels in Processed Spectrum: 3648
>>>>>Begin Processed Spectral Data<<<<<
177.47	1497.07
177.69	1497.07
177.91	1497.07
178.13	1464.30
178.36	1529.83
178.58	1646.57
178.80	1718.25
179.02	1644.52
179.24	1656.81
179.46	1671.14
179.68	1779.68
179.90	1665.00
180.13	1681.38
180.35	1697.77
180.57	1695.72
180.79	1781.73
181.01	1689.57
181.23	1777.64
181.45	1757.16
181.67	1691.62
181.90	1771.49
182.12	1714.15
182.34	1681.38
182.56	1746.92
182.78	1667.05
183.00	1714.15
183.22	1751.01
183.44	1576.94
183.66	1939.43
183.89	1837.03
184.11	1777.64
184.33	1722.34
184.55	1734.63
184.77	1734.63
184.99	1757.16
185.21	1740.77
185.43	1796.07
185.65	1671.14
185.87	1701.86
186.10	1869.80
186.32	1843.17
186.54	1710.05
186.76	1740.77
186.98	1781.73
187.20	1648.61
187.42	1701.86
187.64	1708.01
187.86	1679.33
188.08	1763.30
188.30	1693.67
188.52	1665.00
188.75	1796.07
188.97	1796.07
189.19	1708.01
189.41	1691.62
189.63	1710.05
189.85	1685.48
190.07	1609.70
190.29	1683.43
190.51	1771.49
190.73	1644.52
190.95	1761.25
191.17	1720.29
191.39	1634.28
191.61	1658.85
191.84	1675.24
192.06	1722.34
192.28	1677.29
192.50	1888.23
192.72	1720.29
192.94	1691.62
193.16	1828.84
193.38	1716.20
193.60	1611.75
193.82	1755.11
194.04	1736.68
194.26	1705.96
194.48	1665.00
194.70	1724.39
194.92	1714.15
195.14	1738.73
195.36	1669.09
195.58	1720.29
195.80	1708.01
196.02	1673.19
196.24	1710.05
196.46	1769.44
196.69	1654.76
196.91	1886.18
197.13	1679.33
197.35	1716.20
197.57	1775.59
197.79	1771.49
198.01	1628.14
198.23	1689.57
198.45	1689.57
198.67	1648.61
198.89	1726.44
199.11	1738.73
199.33	1665.00
199.55	1615.85
199.77	1712.10
199.99	1820.64
200.21	1675.24
200.43	1642.47
200.65	1589.22
200.87	1632.23
201.09	1697.77
201.31	1716.20
201.53	1771.49
201.75	1759.21
201.97	1710.05
202.19	1689.57
202.41	1757.16
202.63	1804.26
202.85	1734.63
203.07	1767.40
203.29	1685.48
203.51	1722.34
203.73	1677.29
203.95	1920.99
204.17	1673.19
204.39	1730.53
204.61	1732.58
204.83	1689.57
205.05	1738.73
205.27	1722.34
205.49	1849.32
205.71	1652.71
205.93	1636.33
206.15	1767.40
206.37	1726.44
206.59	1732.58
206.81	1636.33
207.03	1607.66
207.25	1662.95
207.47	1804.26
207.69	1679.33
207.91	1789.92
208.13	1705.96
208.34	1581.03
208.56	1656.81
208.78	1738.73
209.00	1759.21
209.22	1617.90
209.44	1705.96
209.66	1697.77
209.88	1791.97
210.10	1626.09
210.32	1636.33
210.54	1773.54
210.76	1660.90
210.98	1724.39
211.20	1599.46
211.42	1699.81
211.64	1773.54
211.86	1789.92
212.08	1720.29
212.30	1765.35
212.52	1714.15
212.74	1720.29
212.96	1769.44
213.17	1712.10
213.39	1769.44
213.61	1777.64
213.83	1679.33
214.05	1578.98
214.27	1880.04
214.49	1642.47
214.71	1656.81
214.93	1773.54
215.15	1669.09
215.37	1755.11
215.59	1558.50
215.81	1726.44
216.03	1828.84
216.24	1716.20
216.46	1701.86
216.68	1736.68
216.90	1761.25
217.12	1771.49
217.34	1742.82
217.56	1720.29
217.78	1812.45
218.00	1667.05
218.22	1705.96
218.44	1710.05
218.66	1701.86
218.87	1781.73
219.09	1693.67
219.31	1724.39
219.53	1689.57
219.75	1697.77
219.97	1638.38
220.19	1734.63
220.41	1691.62
220.63	1812.45
220.85	1712.10
221.06	1628.14
221.28	1804.26
221.50	1734.63
221.72	1736.68
221.94	1689.57
222.16	1638.38
222.38	1787.88
222.60	1753.06
222.82	1710.05
223.03	1642.47
223.25	1652.71
223.47	1722.34
223.69	1841.12
223.91	1730.53
224.13	1689.57
224.35	1693.67
224.57	1787.88
224.78	1798.12
225.00	1626.09
225.22	1806.31
225.44	1787.88
225.66	1677.29
225.88	1691.62
226.10	1732.58
226.32	1779.68
226.53	1816.55
226.75	1640.42
226.97	1699.81
227.19	1665.00
227.41	1656.81
227.63	1697.77
227.85	1650.66
228.06	1716.20
228.28	1705.96
228.50	1746.92
228.72	1650.66
228.94	1712.10
229.16	1636.33
229.37	1665.00
229.59	1660.90
229.81	1771.49
230.03	1691.62
230.25	1679.33
230.47	1665.00
230.69	1613.80
230.90	1753.06
231.12	1687.53
231.34	1693.67
231.56	1808.36
231.78	1568.74
232.00	1660.90
232.21	1722.34
232.43	1691.62
232.65	1609.70
232.87	1748.97
233.09	1646.57
233.30	1691.62
233.52	1761.25
233.74	1656.81
233.96	1650.66
234.18	1714.15
234.40	1697.77
234.61	1783.78
234.83	1570.79
235.05	1617.90
235.27	1818.60
235.49	1832.93
235.70	1658.85
235.92	1779.68
236.14	1732.58
236.36	1843.17
236.58	1630.18
236.79	1830.88
237.01	1685.48
237.23	1681.38
237.45	1800.16
237.67	1636.33
237.88	1736.68
238.10	1769.44
238.32	1734.63
238.54	1726.44
238.76	1652.71
238.97	1660.90
239.19	1587.18
239.41	1726.44
239.63	1732.58
239.85	1722.34
240.06	1595.37
240.28	1699.81
240.50	1718.25
240.72	1671.14
240.93	1679.33
241.15	1761.25
241.37	1726.44
241.59	1787.88
241.81	1740.77
242.02	1701.86
242.24	1710.05
242.46	1763.30
242.68	1619.94
242.89	1697.77
243.11	1765.35
243.33	1673.19
243.55	1767.40
243.76	1736.68
243.98	1701.86
244.20	1681.38
244.42	1644.52
244.64	1650.66
244.85	1673.19
245.07	1648.61
245.29	1687.53
245.51	1753.06
245.72	1691.62
245.94	1753.06
246.16	1730.53
246.38	1685.48
246.59	1701.86
246.81	1705.96
247.03	1712.10
247.24	1583.08
247.46	1636.33
247.68	1794.02
247.90	1757.16
248.11	1654.76
248.33	1759.21
248.55	1689.57
248.77	1701.86
248.98	1712.10
249.20	1746.92
249.42	1697.77
249.64	1718.25
249.85	1677.29
250.07	1701.86
250.29	1759.21
250.50	1732.58
250.72	1632.23
250.94	1642.47
251.16	1869.80
251.37	1769.44
251.59	1687.53
251.81	1642.47
252.02	1871.84
252.24	1675.24
252.46	1798.12
252.68	1656.81
252.89	1673.19
253.11	1624.04
253.33	1796.07
253.54	1726.44
253.76	1693.67
253.98	1693.67
254.20	1726.44
254.41	1572.84
254.63	1677.29
254.85	1607.66
255.06	1703.91
255.28	1720.29
255.50	1697.77
255.71	1689.57
255.93	1673.19
256.15	1751.01
256.36	1722.34
256.58	1693.67
256.80	1703.91
257.02	1751.01
257.23	1689.57
257.45	1677.29
257.67	1738.73
257.88	1773.54
258.10	1691.62
258.32	1677.29
258.53	1765.35
258.75	1869.80
258.97	1595.37
259.18	1720.29
259.40	1699.81
259.62	1806.31
259.83	1734.63
260.05	1775.59
260.27	2021.35
260.48	1740.77
260.70	1671.14
260.92	1708.01
261.13	1726.44
261.35	1710.05
261.57	1736.68
261.78	1576.94
262.00	1689.57
262.22	1714.15
262.43	1683.43
262.65	1728.49
262.86	1759.21
263.08	1839.08
263.30	1742.82
263.51	1697.77
263.73	1648.61
263.95	1726.44
264.16	1667.05
264.38	1710.05
264.60	1765.35
264.81	1726.44
265.03	1738.73
265.25	1798.12
265.46	1699.81
265.68	1787.88
265.89	1720.29
266.11	1591.27
266.33	1658.85
266.54	1736.68
266.76	1746.92
266.98	1753.06
267.19	1802.21
267.41	1755.11
267.62	1740.77
267.84	1675.24
268.06	1699.81
268.27	1730.53
268.49	1783.78
268.70	1718.25
268.92	1685.48
269.14	1722.34
269.35	1617.90
269.57	1658.85
269.79	1779.68
270.00	1613.80
270.22	1843.17
270.43	1630.18
270.65	1591.27
270.87	1730.53
271.08	1748.97
271.30	1765.35
271.51	1681.38
271.73	1748.97
271.95	1693.67
272.16	1783.78
272.38	1712.10
272.59	1632.23
272.81	1726.44
273.02	1699.81
273.24	1783.78
273.46	1826.79
273.67	1761.25
273.89	1658.85
274.10	1673.19
274.32	1804.26
274.54	1742.82
274.75	1755.11
274.97	1665.00
275.18	1802.21
275.40	1714.15
275.61	1759.21
275.83	1767.40
276.05	1636.33
276.26	1681.38
276.48	1677.29
276.69	1726.44
276.91	1605.61
277.12	1744.87
277.34	1759.21
277.55	1789.92
277.77	1730.53
277.99	1644.52
278.20	1552.36
278.42	1705.96
278.63	1662.95
278.85	1634.28
279.06	1628.14
279.28	1720.29
279.49	1697.77
279.71	1703.91
279.93	1675.24
280.14	1687.53
280.36	1677.29
280.57	1765.35
280.79	1785.83
281.00	1710.05
281.22	1691.62
281.43	1816.55
281.65	1572.84
281.86	1667.05
282.08	1800.16
282.29	1810.40
282.51	1624.04
282.73	1681.38
282.94	1640.42
283.16	1759.21
283.37	1781.73
283.59	1718.25
283.80	1703.91
284.02	1697.77
284.23	1708.01
284.45	1691.62
284.66	1648.61
284.88	1703.91
285.09	1806.31
285.31	1730.53
285.52	1724.39
285.74	1601.51
285.95	1787.88
286.17	1705.96
286.38	1810.40
286.60	1665.00
286.81	1683.43
287.03	1572.84
287.24	1660.90
287.46	1738.73
287.67	1646.57
287.89	1859.56
288.10	1736.68
288.32	1757.16
288.53	1808.36
288.75	1695.72
288.96	1765.35
289.18	1697.77
289.39	1677.29
289.61	1763.30
289.82	1851.36
290.04	1779.68
290.25	1710.05
290.47	1730.53
290.68	1716.20
290.90	1810.40
291.11	1636.33
291.33	1740.77
291.54	1630.18
291.76	1693.67
291.97	1630.18
292.18	1730.53
292.40	1648.61
292.61	1667.05
292.83	1906.66
293.04	1650.66
293.26	1730.53
293.47	1648.61
293.69	1671.14
293.90	1689.57
294.12	1732.58
294.33	1673.19
294.55	1636.33
294.76	1789.92
294.97	1734.63
295.19	1781.73
295.40	1693.67
295.62	1699.81
295.83	1796.07
296.05	1640.42
296.26	1718.25
296.48	1675.24
296.69	1718.25
296.90	1775.59
297.12	1791.97
297.33	1841.12
297.55	1691.62
297.76	1773.54
297.98	1791.97
298.19	1679.33
298.41	1693.67
298.62	1656.81
298.83	1742.82
299.05	1730.53
299.26	1685.48
299.48	1624.04
299.69	1777.64
299.90	1669.09
300.12	1636.33
300.33	1771.49
300.55	1730.53
300.76	1742.82
300.98	1648.61
301.19	1673.19
301.40	1740.77
301.62	1757.16
301.83	1746.92
302.05	1685.48
302.26	1730.53
302.47	1658.85
302.69	1626.09
302.90	1640.42
303.12	1642.47
303.33	1808.36
303.54	1843.17
303.76	1681.38
303.97	1685.48
304.19	1724.39
304.40	1632.23
304.61	1771.49
304.83	1722.34
305.04	1791.97
305.26	1775.59
305.47	1617.90
305.68	1730.53
305.90	1650.66
306.11	1746.92
306.33	1714.15
306.54	1718.25
306.75	1640.42
306.97	1644.52
307.18	1646.57
307.39	1701.86
307.61	1705.96
307.82	1697.77
308.04	1781.73
308.25	1632.23
308.46	1740.77
308.68	1744.87
308.89	1689.57
309.10	1753.06
309.32	1755.11
309.53	1724.39
309.74	1726.44
309.96	1724.39
310.17	1773.54
310.39	1722.34
310.60	1748.97
310.81	1654.76
311.03	1656.81
311.24	1804.26
311.45	1605.61
311.67	1789.92
311.88	1689.57
312.09	1730.53
312.31	1751.01
312.52	1718.25
312.73	1648.61
312.95	1581.03
313.16	1679.33
313.37	1753.06
313.59	1718.25
313.80	1767.40
314.01	1748.97
314.23	1705.96
314.44	1708.01
314.65	1591.27
314.87	1710.05
315.08	1773.54
315.29	1632.23
315.51	1677.29
315.72	1591.27
315.93	1808.36
316.15	1818.60
316.36	1710.05
316.57	1689.57
316.79	1791.97
317.00	1669.09
317.21	1685.48
317.43	1671.14
317.64	1734.63
317.85	1728.49
318.07	1636.33
318.28	1705.96
318.49	1791.97
318.70	1822.69
318.92	1828.84
319.13	1763.30
319.34	1849.32
319.56	1837.03
319.77	1822.69
319.98	1761.25
320.20	1787.88
320.41	1771.49
320.62	1759.21
320.83	1675.24
321.05	1834.98
321.26	1730.53
321.47	1691.62
321.69	1828.84
321.90	1673.19
322.11	1736.68
322.32	1673.19
322.54	1841.12
322.75	1632.23
322.96	1841.12
323.18	1656.81
323.39	1646.57
323.60	1689.57
323.81	1822.69
324.03	1642.47
324.24	1722.34
324.45	1693.67
324.66	1703.91
324.88	1730.53
325.09	1777.64
325.30	1687.53
325.52	1744.87
325.73	1726.44
325.94	1648.61
326.15	1603.56
326.37	1640.42
326.58	1734.63
326.79	1812.45
327.00	1720.29
327.22	1740.77
327.43	1648.61
327.64	1658.85
327.85	1777.64
328.07	1681.38
328.28	1847.27
328.49	1648.61
328.70	1658.85
328.92	1669.09
329.13	1701.86
329.34	1691.62
329.55	1800.16
329.76	1691.62
329.98	1814.50
330.19	1693.67
330.40	1679.33
330.61	1667.05
330.83	1761.25
331.04	1628.14
331.25	1675.24
331.46	1652.71
331.68	1638.38
331.89	1751.01
332.10	1609.70
332.31	1632.23
332.52	1660.90
332.74	1798.12
332.95	1609.70
333.16	1763.30
333.37	1777.64
333.58	1624.04
333.80	1720.29
334.01	1691.62
334.22	1683.43
334.43	1617.90
334.64	1716.20
334.86	1624.04
335.07	1654.76
335.28	1736.68
335.49	1632.23
335.70	1769.44
335.92	1802.21
336.13	1867.75
336.34	1644.52
336.55	1685.48
336.76	1679.33
336.98	1570.79
337.19	1691.62
337.40	1783.78
337.61	1937.38
337.82	1673.19
338.04	1759.21
338.25	1673.19
338.46	1671.14
338.67	1679.33
338.88	1683.43
339.09	1597.42
339.31	1675.24
339.52	1615.85
339.73	1593.32
339.94	1736.68
340.15	1798.12
340.36	1675.24
340.58	1701.86
340.79	1689.57
341.00	1787.88
341.21	1693.67
341.42	1785.83
341.63	1691.62
341.85	1705.96
342.06	1712.10
342.27	1722.34
342.48	1757.16
342.69	1656.81
342.90	1748.97
343.12	1771.49
343.33	1669.09
343.54	1796.07
343.75	1722.34
343.96	1716.20
344.17	1732.58
344.38	1630.18
344.60	1585.13
344.81	1621.99
345.02	1675.24
345.23	1779.68
345.44	1757.16
345.65	1742.82
345.86	1681.38
346.07	1714.15
346.29	1708.01
346.50	1804.26
346.71	1751.01
346.92	1810.40
347.13	1871.84
347.34	1701.86
347.55	1740.77
347.76	1705.96
347.98	1675.24
348.19	1650.66
348.40	1828.84
348.61	1681.38
348.82	1816.55
349.03	1710.05
349.24	1685.48
349.45	1804.26
349.66	1609.70
349.88	1658.85
350.09	1705.96
350.30	1781.73
350.51	1775.59
350.72	1722.34
350.93	1695.72
351.14	1624.04
351.35	1695.72
351.56	1644.52
351.77	1783.78
351.99	1701.86
352.20	1789.92
352.41	1775.59
352.62	1535.98
352.83	1693.67
353.04	1736.68
353.25	1691.62
353.46	1734.63
353.67	1765.35
353.88	1605.61
354.09	1730.53
354.30	1736.68
354.52	1705.96
354.73	1675.24
354.94	1634.28
355.15	1769.44
355.36	1822.69
355.57	1644.52
355.78	1757.16
355.99	1677.29
356.20	1730.53
356.41	1748.97
356.62	1730.53
356.83	1675.24
357.04	1767.40
357.25	1642.47
357.46	1718.25
357.68	1628.14
357.89	1650.66
358.10	1673.19
358.31	1714.15
358.52	1701.86
358.73	1648.61
358.94	1683.43
359.15	1642.47
359.36	1800.16
359.57	1681.38
359.78	1703.91
359.99	1710.05
360.20	1626.09
360.41	1728.49
360.62	1763.30
360.83	1710.05
361.04	1740.77
361.25	1787.88
361.46	1816.55
361.67	1730.53
361.88	1777.64
362.09	1847.27
362.30	1751.01
362.51	1687.53
362.72	1673.19
362.93	1734.63
363.14	1722.34
363.35	1720.29
363.56	1611.75
363.78	1748.97
363.99	1744.87
364.20	1648.61
364.41	1730.53
364.62	1824.74
364.83	1800.16
365.04	1751.01
365.25	1689.57
365.46	1847.27
365.67	1667.05
365.88	1652.71
366.09	1726.44
366.30	1693.67
366.51	1718.25
366.72	1685.48
366.93	1640.42
367.14	1710.05
367.35	1763.30
367.56	1761.25
367.77	1794.02
367.98	1697.77
368.18	1748.97
368.39	1755.11
368.60	1595.37
368.81	1708.01
369.02	1804.26
369.23	1626.09
369.44	1626.09
369.65	1624.04
369.86	1718.25
370.07	1763.30
370.28	1710.05
370.49	1675.24
370.70	1730.53
370.91	1619.94
371.12	1632.23
371.33	1712.10
371.54	1724.39
371.75	1771.49
371.96	1603.56
372.17	1701.86
372.38	1685.48
372.59	1773.54
372.80	1730.53
373.01	1699.81
373.22	1726.44
373.43	1773.54
373.64	1675.24
373.85	1734.63
374.06	1810.40
374.26	1738.73
374.47	1730.53
374.68	1787.88
374.89	1701.86
375.10	1650.66
375.31	1769.44
375.52	1714.15
375.73	1726.44
375.94	1681.38
376.15	1812.45
376.36	1619.94
376.57	1679.33
376.78	1697.77
376.99	1689.57
377.20	1853.41
377.40	1665.00
377.61	1845.22
377.82	1746.92
378.03	1820.64
378.24	1779.68
378.45	1685.48
378.66	1734.63
378.87	1572.84
379.08	1691.62
379.29	1660.90
379.50	1740.77
379.71	1667.05
379.91	1734.63
380.12	1669.09
380.33	1660.90
380.54	1697.77
380.75	1701.86
380.96	1615.85
381.17	1736.68
381.38	1705.96
381.59	1769.44
381.80	1681.38
382.00	1804.26
382.21	1775.59
382.42	1794.02
382.63	1888.23
382.84	1697.77
383.05	1773.54
383.26	1767.40
383.47	1687.53
383.68	1714.15
383.88	1710.05
384.09	1779.68
384.30	1869.80
384.51	1671.14
384.72	1722.34
384.93	1675.24
385.14	1703.91
385.35	1820.64
385.55	1574.89
385.76	1773.54
385.97	1753.06
386.18	1591.27
386.39	1656.81
386.60	1689.57
386.81	1708.01
387.02	1705.96
387.22	1662.95
387.43	1753.06
387.64	1841.12
387.85	1951.71
388.06	2123.74
388.27	4110.27
388.48	6672.28
388.68	8128.39
388.89	9367.41
389.10	9805.67
389.31	8427.39
389.52	7448.46
389.73	6606.75
389.93	6143.91
390.14	5758.89
390.35	5232.56
390.56	4476.86
390.77	3862.47
390.98	2985.94
391.18	2469.85
391.39	2138.08
391.60	1812.45
391.81	1855.46
392.02	1673.19
392.23	1845.22
392.43	1779.68
392.64	1785.83
392.85	1769.44
393.06	1910.75
393.27	1740.77
393.47	1695.72
393.68	1740.77
393.89	1728.49
394.10	1708.01
394.31	1679.33
394.52	1656.81
394.72	1677.29
394.93	1798.12
395.14	1665.00
395.35	1748.97
395.56	1681.38
395.76	1710.05
395.97	1832.93
396.18	1820.64
396.39	1890.28
396.60	2033.63
396.80	1755.11
397.01	1851.36
397.22	1779.68
397.43	1751.01
397.64	1728.49
397.84	1800.16
398.05	1869.80
398.26	1742.82
398.47	1789.92
398.67	1722.34
398.88	1720.29
399.09	1751.01
399.30	1675.24
399.51	1658.85
399.71	1675.24
399.92	1712.10
400.13	1683.43
400.34	1753.06
400.54	1728.49
400.75	1820.64
400.96	1677.29
401.17	1800.16
401.37	1761.25
401.58	1748.97
401.79	1744.87
402.00	1867.75
402.21	1982.43
402.41	1933.28
402.62	2002.91
402.83	2074.59
403.04	1970.15
403.24	2017.25
403.45	1894.37
403.66	1890.28
403.87	1931.23
404.07	1923.04
404.28	1822.69
404.49	1923.04
404.70	1810.40
404.90	1820.64
405.11	1728.49
405.32	1718.25
405.52	1654.76
405.73	1628.14
405.94	1755.11
406.15	1744.87
406.35	1755.11
406.56	1683.43
406.77	1789.92
406.98	1734.63
407.18	1650.66
407.39	1796.07
407.60	1714.15
407.80	1771.49
408.01	1660.90
408.22	1800.16
408.43	1740.77
408.63	1677.29
408.84	1785.83
409.05	1755.11
409.25	1660.90
409.46	1617.90
409.67	1716.20
409.88	1642.47
410.08	1796.07
410.29	1613.80
410.50	1800.16
410.70	1763.30
410.91	1689.57
411.12	1746.92
411.32	1673.19
411.53	1619.94
411.74	1832.93
411.95	1751.01
412.15	1763.30
412.36	1789.92
412.57	1740.77
412.77	1847.27
412.98	1681.38
413.19	1677.29
413.39	1822.69
413.60	1804.26
413.81	1824.74
414.01	1697.77
414.22	1722.34
414.43	1697.77
414.63	1771.49
414.84	1783.78
415.05	1701.86
415.25	1615.85
415.46	1779.68
415.67	1673.19
415.87	1757.16
416.08	1648.61
416.29	1671.14
416.49	1742.82
416.70	1615.85
416.91	1689.57
417.11	1720.29
417.32	1728.49
417.53	1773.54
417.73	1693.67
417.94	1742.82
418.15	1687.53
418.35	1681.38
418.56	1695.72
418.77	1859.56
418.97	1742.82
419.18	1697.77
419.38	1679.33
419.59	1765.35
419.80	1822.69
420.00	1669.09
420.21	1722.34
420.42	1861.60
420.62	1701.86
420.83	1632.23
421.04	1728.49
421.24	1675.24
421.45	1775.59
421.65	1734.63
421.86	1724.39
422.07	1804.26
422.27	1705.96
422.48	1679.33
422.69	1603.56
422.89	1697.77
423.10	1681.38
423.30	1646.57
423.51	1730.53
423.72	1775.59
423.92	1773.54
424.13	1671.14
424.33	1746.92
424.54	1746.92
424.75	1712.10
424.95	1822.69
425.16	1683.43
425.36	1695.72
425.57	1724.39
425.78	1789.92
425.98	1753.06
426.19	1718.25
426.39	1671.14
426.60	1738.73
426.81	1828.84
427.01	1636.33
427.22	1730.53
427.42	1654.76
427.63	1642.47
427.83	1753.06
428.04	1822.69
428.25	1789.92
428.45	1777.64
428.66	1714.15
428.86	1677.29
429.07	1738.73
429.28	1720.29
429.48	1683.43
429.69	1638.38
429.89	1794.02
430.10	1671.14
430.30	1716.20
430.51	1779.68
430.71	1615.85
430.92	1751.01
431.13	1650.66
431.33	1748.97
431.54	1695.72
431.74	1800.16
431.95	1853.41
432.15	1669.09
432.36	1755.11
432.56	1771.49
432.77	1871.84
432.98	1802.21
433.18	1765.35
433.39	1681.38
433.59	1751.01
433.80	1863.65
434.00	1824.74
434.21	1665.00
434.41	1724.39
434.62	1824.74
434.82	1708.01
435.03	1634.28
435.23	1654.76
435.44	1675.24
435.64	1687.53
435.85	1708.01
436.06	1712.10
436.26	1808.36
436.47	1658.85
436.67	1726.44
436.88	1748.97
437.08	1822.69
437.29	1802.21
437.49	1681.38
437.70	1810.40
437.90	1728.49
438.11	1843.17
438.31	1779.68
438.52	1865.70
438.72	1798.12
438.93	1959.91
439.13	1853.41
439.34	1886.18
439.54	1771.49
439.75	1880.04
439.95	1839.08
440.16	1710.05
440.36	1804.26
440.57	1740.77
440.77	1683.43
440.98	1738.73
441.18	1818.60
441.39	1701.86
441.59	1656.81
441.80	1738.73
442.00	1699.81
442.21	1773.54
442.41	1642.47
442.62	1875.94
442.82	1650.66
443.02	1732.58
443.23	1800.16
443.43	1779.68
443.64	1837.03
443.84	1714.15
444.05	1736.68
444.25	1701.86
444.46	1710.05
444.66	1763.30
444.87	1763.30
445.07	1609.70
445.28	1685.48
445.48	1873.89
445.69	1785.83
445.89	1914.85
446.09	1751.01
446.30	1984.48
446.50	2623.45
446.71	3758.02
446.91	4220.86
447.12	4728.76
447.32	4794.29
447.53	4167.62
447.73	3846.09
447.93	3614.66
448.14	3342.28
448.34	3289.04
448.55	2928.60
448.75	2742.23
448.96	2713.56
449.16	2379.74
449.36	2326.49
449.57	2097.12
449.77	1871.84
449.98	1755.11
450.18	1820.64
450.39	1734.63
450.59	1810.40
450.79	1753.06
451.00	1677.29
451.20	1775.59
451.41	1675.24
451.61	1781.73
451.81	1781.73
452.02	1708.01
452.22	1798.12
452.43	1722.34
452.63	1705.96
