SpectraSuite Data File
++++++++++++++++++++++++++++++++++++
Date: Mon Jun 06 15:32:17 CEST 2016
User: root
Dark Spectrum Present: No
Reference Spectrum Present: No
Number of Sampled Component Spectra: 1
Spectrometers: USB4C02835
Integration Time (usec): 100000 (USB4C02835)
Spectra Averaged: 1 (USB4C02835)
Boxcar Smoothing: 0 (USB4C02835)
Correct for Electrical Dark: No (USB4C02835)
Strobe/Lamp Enabled: No (USB4C02835)
Correct for Detector Non-linearity: No (USB4C02835)
Correct for Stray Light: No (USB4C02835)
Number of Pixels in Processed Spectrum: 3648
>>>>>Begin Processed Spectral Data<<<<<
177.47	1533.93
177.69	1533.93
177.91	1533.93
178.13	1466.35
178.36	1525.74
178.58	1632.23
178.80	1710.05
179.02	1624.04
179.24	1714.15
179.46	1675.24
179.68	1816.55
179.90	1685.48
180.13	1740.77
180.35	1671.14
180.57	1728.49
180.79	1708.01
181.01	1761.25
181.23	1767.40
181.45	1773.54
181.67	1701.86
181.90	1804.26
182.12	1726.44
182.34	1667.05
182.56	1734.63
182.78	1720.29
183.00	1681.38
183.22	1804.26
183.44	1576.94
183.66	1834.98
183.89	1830.88
184.11	1765.35
184.33	1728.49
184.55	1808.36
184.77	1705.96
184.99	1771.49
185.21	1751.01
185.43	1810.40
185.65	1646.57
185.87	1705.96
186.10	1800.16
186.32	1869.80
186.54	1669.09
186.76	1730.53
186.98	1755.11
187.20	1718.25
187.42	1705.96
187.64	1720.29
187.86	1650.66
188.08	1751.01
188.30	1665.00
188.52	1791.97
188.75	1787.88
188.97	1751.01
189.19	1693.67
189.41	1660.90
189.63	1730.53
189.85	1648.61
190.07	1650.66
190.29	1648.61
190.51	1687.53
190.73	1660.90
190.95	1769.44
191.17	1738.73
191.39	1599.46
191.61	1712.10
191.84	1665.00
192.06	1757.16
192.28	1583.08
192.50	1939.43
192.72	1740.77
192.94	1675.24
193.16	1843.17
193.38	1740.77
193.60	1654.76
193.82	1695.72
194.04	1720.29
194.26	1783.78
194.48	1693.67
194.70	1716.20
194.92	1683.43
195.14	1787.88
195.36	1691.62
195.58	1714.15
195.80	1697.77
196.02	1691.62
196.24	1671.14
196.46	1701.86
196.69	1656.81
196.91	1863.65
197.13	1687.53
197.35	1665.00
197.57	1804.26
197.79	1742.82
198.01	1695.72
198.23	1796.07
198.45	1732.58
198.67	1617.90
198.89	1701.86
199.11	1748.97
199.33	1736.68
199.55	1597.42
199.77	1675.24
199.99	1734.63
200.21	1708.01
200.43	1716.20
200.65	1644.52
200.87	1589.22
201.09	1693.67
201.31	1779.68
201.53	1867.75
201.75	1736.68
201.97	1773.54
202.19	1689.57
202.41	1740.77
202.63	1800.16
202.85	1716.20
203.07	1730.53
203.29	1718.25
203.51	1685.48
203.73	1705.96
203.95	1779.68
204.17	1724.39
204.39	1716.20
204.61	1722.34
204.83	1724.39
205.05	1693.67
205.27	1767.40
205.49	1849.32
205.71	1769.44
205.93	1722.34
206.15	1665.00
206.37	1736.68
206.59	1742.82
206.81	1626.09
207.03	1679.33
207.25	1697.77
207.47	1732.58
207.69	1697.77
207.91	1820.64
208.13	1759.21
208.34	1689.57
208.56	1740.77
208.78	1798.12
209.00	1718.25
209.22	1720.29
209.44	1736.68
209.66	1634.28
209.88	1656.81
210.10	1710.05
210.32	1705.96
210.54	1722.34
210.76	1667.05
210.98	1712.10
211.20	1597.42
211.42	1714.15
211.64	1798.12
211.86	1775.59
212.08	1703.91
212.30	1771.49
212.52	1609.70
212.74	1855.46
212.96	1785.83
213.17	1787.88
213.39	1722.34
213.61	1798.12
213.83	1636.33
214.05	1662.95
214.27	1726.44
214.49	1730.53
214.71	1746.92
214.93	1798.12
215.15	1718.25
215.37	1753.06
215.59	1593.32
215.81	1812.45
216.03	1734.63
216.24	1722.34
216.46	1744.87
216.68	1755.11
216.90	1656.81
217.12	1724.39
217.34	1708.01
217.56	1755.11
217.78	1794.02
218.00	1738.73
218.22	1738.73
218.44	1736.68
218.66	1685.48
218.87	1806.31
219.09	1796.07
219.31	1667.05
219.53	1714.15
219.75	1708.01
219.97	1662.95
220.19	1746.92
220.41	1724.39
220.63	1820.64
220.85	1769.44
221.06	1689.57
221.28	1763.30
221.50	1757.16
221.72	1718.25
221.94	1693.67
222.16	1753.06
222.38	1691.62
222.60	1810.40
222.82	1734.63
223.03	1763.30
223.25	1599.46
223.47	1783.78
223.69	1828.84
223.91	1740.77
224.13	1693.67
224.35	1648.61
224.57	1699.81
224.78	1736.68
225.00	1667.05
225.22	1673.19
225.44	1691.62
225.66	1757.16
225.88	1701.86
226.10	1785.83
226.32	1712.10
226.53	1767.40
226.75	1710.05
226.97	1697.77
227.19	1656.81
227.41	1720.29
227.63	1611.75
227.85	1675.24
228.06	1775.59
228.28	1767.40
228.50	1761.25
228.72	1683.43
228.94	1705.96
229.16	1636.33
229.37	1712.10
229.59	1695.72
229.81	1808.36
230.03	1699.81
230.25	1626.09
230.47	1695.72
230.69	1646.57
230.90	1796.07
231.12	1634.28
231.34	1673.19
231.56	1705.96
231.78	1693.67
232.00	1697.77
232.21	1712.10
232.43	1656.81
232.65	1562.60
232.87	1718.25
233.09	1646.57
233.30	1640.42
233.52	1822.69
233.74	1677.29
233.96	1732.58
234.18	1720.29
234.40	1687.53
234.61	1892.32
234.83	1638.38
235.05	1624.04
235.27	1808.36
235.49	1900.52
235.70	1748.97
235.92	1812.45
236.14	1654.76
236.36	1818.60
236.58	1632.23
236.79	1714.15
237.01	1744.87
237.23	1648.61
237.45	1734.63
237.67	1742.82
237.88	1726.44
238.10	1791.97
238.32	1681.38
238.54	1730.53
238.76	1724.39
238.97	1691.62
239.19	1681.38
239.41	1783.78
239.63	1779.68
239.85	1708.01
240.06	1703.91
240.28	1755.11
240.50	1740.77
240.72	1738.73
240.93	1748.97
241.15	1810.40
241.37	1701.86
241.59	1757.16
241.81	1673.19
242.02	1742.82
242.24	1787.88
242.46	1773.54
242.68	1636.33
242.89	1837.03
243.11	1751.01
243.33	1665.00
243.55	1742.82
243.76	1650.66
243.98	1718.25
244.20	1691.62
244.42	1642.47
244.64	1691.62
244.85	1677.29
245.07	1675.24
245.29	1652.71
245.51	1695.72
245.72	1738.73
245.94	1730.53
246.16	1761.25
246.38	1800.16
246.59	1648.61
246.81	1591.27
247.03	1779.68
247.24	1630.18
247.46	1697.77
247.68	1748.97
247.90	1626.09
248.11	1671.14
248.33	1787.88
248.55	1791.97
248.77	1763.30
248.98	1673.19
249.20	1841.12
249.42	1687.53
249.64	1708.01
249.85	1748.97
250.07	1689.57
250.29	1808.36
250.50	1734.63
250.72	1615.85
250.94	1714.15
251.16	1769.44
251.37	1814.50
251.59	1755.11
251.81	1740.77
252.02	1763.30
252.24	1710.05
252.46	1775.59
252.68	1656.81
252.89	1675.24
253.11	1599.46
253.33	1798.12
253.54	1810.40
253.76	1585.13
253.98	1642.47
254.20	1720.29
254.41	1646.57
254.63	1781.73
254.85	1630.18
255.06	1685.48
255.28	1796.07
255.50	1695.72
255.71	1628.14
255.93	1665.00
256.15	1650.66
256.36	1767.40
256.58	1736.68
256.80	1718.25
257.02	1636.33
257.23	1701.86
257.45	1712.10
257.67	1755.11
257.88	1693.67
258.10	1703.91
258.32	1820.64
258.53	1691.62
258.75	1847.27
258.97	1740.77
259.18	1712.10
259.40	1673.19
259.62	1802.21
259.83	1765.35
260.05	1763.30
260.27	1957.86
260.48	1820.64
260.70	1691.62
260.92	1679.33
261.13	1779.68
261.35	1755.11
261.57	1755.11
261.78	1626.09
262.00	1660.90
262.22	1730.53
262.43	1701.86
262.65	1677.29
262.86	1675.24
263.08	1859.56
263.30	1642.47
263.51	1689.57
263.73	1724.39
263.95	1746.92
264.16	1626.09
264.38	1687.53
264.60	1722.34
264.81	1738.73
265.03	1705.96
265.25	1783.78
265.46	1658.85
265.68	1730.53
265.89	1687.53
266.11	1619.94
266.33	1753.06
266.54	1748.97
266.76	1759.21
266.98	1720.29
267.19	1765.35
267.41	1773.54
267.62	1779.68
267.84	1619.94
268.06	1730.53
268.27	1693.67
268.49	1767.40
268.70	1705.96
268.92	1701.86
269.14	1685.48
269.35	1671.14
269.57	1681.38
269.79	1787.88
270.00	1654.76
270.22	1755.11
270.43	1648.61
270.65	1642.47
270.87	1712.10
271.08	1726.44
271.30	1732.58
271.51	1697.77
271.73	1751.01
271.95	1787.88
272.16	1777.64
272.38	1728.49
272.59	1722.34
272.81	1751.01
273.02	1765.35
273.24	1683.43
273.46	1800.16
273.67	1648.61
273.89	1636.33
274.10	1658.85
274.32	1767.40
274.54	1714.15
274.75	1796.07
274.97	1662.95
275.18	1736.68
275.40	1800.16
275.61	1746.92
275.83	1708.01
276.05	1675.24
276.26	1621.99
276.48	1791.97
276.69	1652.71
276.91	1648.61
277.12	1738.73
277.34	1740.77
277.55	1730.53
277.77	1724.39
277.99	1648.61
278.20	1695.72
278.42	1685.48
278.63	1660.90
278.85	1691.62
279.06	1597.42
279.28	1722.34
279.49	1748.97
279.71	1732.58
279.93	1763.30
280.14	1728.49
280.36	1701.86
280.57	1765.35
280.79	1783.78
281.00	1634.28
281.22	1671.14
281.43	1771.49
281.65	1548.26
281.86	1634.28
282.08	1708.01
282.29	1828.84
282.51	1693.67
282.73	1730.53
282.94	1679.33
283.16	1787.88
283.37	1832.93
283.59	1701.86
283.80	1736.68
284.02	1677.29
284.23	1712.10
284.45	1822.69
284.66	1665.00
284.88	1681.38
285.09	1724.39
285.31	1728.49
285.52	1697.77
285.74	1667.05
285.95	1751.01
286.17	1734.63
286.38	1791.97
286.60	1720.29
286.81	1761.25
287.03	1644.52
287.24	1677.29
287.46	1738.73
287.67	1828.84
287.89	1785.83
288.10	1794.02
288.32	1736.68
288.53	1832.93
288.75	1705.96
288.96	1728.49
289.18	1746.92
289.39	1689.57
289.61	1775.59
289.82	1787.88
290.04	1730.53
290.25	1578.98
290.47	1755.11
290.68	1705.96
290.90	1761.25
291.11	1636.33
291.33	1712.10
291.54	1621.99
291.76	1710.05
291.97	1781.73
292.18	1740.77
292.40	1681.38
292.61	1705.96
292.83	1796.07
293.04	1726.44
293.26	1765.35
293.47	1695.72
293.69	1716.20
293.90	1716.20
294.12	1763.30
294.33	1734.63
294.55	1683.43
294.76	1828.84
294.97	1763.30
295.19	1824.74
295.40	1701.86
295.62	1728.49
295.83	1773.54
296.05	1669.09
296.26	1798.12
296.48	1605.61
296.69	1650.66
296.90	1726.44
297.12	1763.30
297.33	1759.21
297.55	1656.81
297.76	1744.87
297.98	1753.06
298.19	1738.73
298.41	1693.67
298.62	1708.01
298.83	1761.25
299.05	1765.35
299.26	1652.71
299.48	1681.38
299.69	1667.05
299.90	1695.72
300.12	1642.47
300.33	1761.25
300.55	1675.24
300.76	1787.88
300.98	1669.09
301.19	1771.49
301.40	1677.29
301.62	1724.39
301.83	1675.24
302.05	1785.83
302.26	1759.21
302.47	1677.29
302.69	1636.33
302.90	1699.81
303.12	1624.04
303.33	1738.73
303.54	1781.73
303.76	1634.28
303.97	1736.68
304.19	1820.64
304.40	1613.80
304.61	1746.92
304.83	1718.25
305.04	1761.25
305.26	1769.44
305.47	1609.70
305.68	1736.68
305.90	1693.67
306.11	1720.29
306.33	1734.63
306.54	1679.33
306.75	1660.90
306.97	1576.94
307.18	1691.62
307.39	1695.72
307.61	1695.72
307.82	1665.00
308.04	1701.86
308.25	1673.19
308.46	1708.01
308.68	1765.35
308.89	1689.57
309.10	1820.64
309.32	1826.79
309.53	1701.86
309.74	1742.82
309.96	1693.67
310.17	1787.88
310.39	1705.96
310.60	1796.07
310.81	1746.92
311.03	1648.61
311.24	1826.79
311.45	1736.68
311.67	1855.46
311.88	1794.02
312.09	1642.47
312.31	1726.44
312.52	1687.53
312.73	1724.39
312.95	1662.95
313.16	1720.29
313.37	1783.78
313.59	1753.06
313.80	1779.68
314.01	1746.92
314.23	1730.53
314.44	1736.68
314.65	1634.28
314.87	1660.90
315.08	1630.18
315.29	1652.71
315.51	1665.00
315.72	1611.75
315.93	1873.89
316.15	1755.11
316.36	1654.76
316.57	1683.43
316.79	1767.40
317.00	1617.90
317.21	1685.48
317.43	1691.62
317.64	1742.82
317.85	1650.66
318.07	1689.57
318.28	1798.12
318.49	1794.02
318.70	1951.71
318.92	1834.98
319.13	1837.03
319.34	1816.55
319.56	1789.92
319.77	1751.01
319.98	1763.30
320.20	1810.40
320.41	1751.01
320.62	1775.59
320.83	1687.53
321.05	1794.02
321.26	1826.79
321.47	1658.85
321.69	1761.25
321.90	1611.75
322.11	1712.10
322.32	1665.00
322.54	1853.41
322.75	1701.86
322.96	1800.16
323.18	1619.94
323.39	1619.94
323.60	1681.38
323.81	1775.59
324.03	1722.34
324.24	1732.58
324.45	1777.64
324.66	1697.77
324.88	1771.49
325.09	1779.68
325.30	1626.09
325.52	1708.01
325.73	1751.01
325.94	1642.47
326.15	1650.66
326.37	1710.05
326.58	1810.40
326.79	1830.88
327.00	1624.04
327.22	1662.95
327.43	1724.39
327.64	1665.00
327.85	1689.57
328.07	1794.02
328.28	1810.40
328.49	1730.53
328.70	1650.66
328.92	1710.05
329.13	1681.38
329.34	1697.77
329.55	1759.21
329.76	1845.22
329.98	1691.62
330.19	1791.97
330.40	1716.20
330.61	1632.23
330.83	1697.77
331.04	1726.44
331.25	1656.81
331.46	1683.43
331.68	1628.14
331.89	1785.83
332.10	1722.34
332.31	1609.70
332.52	1626.09
332.74	1769.44
332.95	1640.42
333.16	1677.29
333.37	1716.20
333.58	1710.05
333.80	1720.29
334.01	1632.23
334.22	1665.00
334.43	1722.34
334.64	1654.76
334.86	1617.90
335.07	1683.43
335.28	1769.44
335.49	1660.90
335.70	1769.44
335.92	1757.16
336.13	1818.60
336.34	1730.53
336.55	1689.57
336.76	1742.82
336.98	1724.39
337.19	1699.81
337.40	1763.30
337.61	1855.46
337.82	1593.32
338.04	1771.49
338.25	1626.09
338.46	1640.42
338.67	1748.97
338.88	1662.95
339.09	1665.00
339.31	1705.96
339.52	1636.33
339.73	1646.57
339.94	1656.81
340.15	1757.16
340.36	1660.90
340.58	1800.16
340.79	1679.33
341.00	1785.83
341.21	1683.43
341.42	1802.21
341.63	1665.00
341.85	1763.30
342.06	1746.92
342.27	1699.81
342.48	1753.06
342.69	1634.28
342.90	1734.63
343.12	1798.12
343.33	1693.67
343.54	1773.54
343.75	1796.07
343.96	1712.10
344.17	1669.09
344.38	1646.57
344.60	1685.48
344.81	1626.09
345.02	1656.81
345.23	1800.16
345.44	1826.79
345.65	1775.59
345.86	1759.21
346.07	1644.52
346.29	1662.95
346.50	1775.59
346.71	1722.34
346.92	1804.26
347.13	1898.47
347.34	1662.95
347.55	1744.87
347.76	1683.43
347.98	1685.48
348.19	1689.57
348.40	1796.07
348.61	1646.57
348.82	1757.16
349.03	1683.43
349.24	1675.24
349.45	1841.12
349.66	1654.76
349.88	1681.38
350.09	1673.19
350.30	1806.31
350.51	1681.38
350.72	1757.16
350.93	1720.29
351.14	1712.10
351.35	1773.54
351.56	1751.01
351.77	1748.97
351.99	1785.83
352.20	1744.87
352.41	1757.16
352.62	1681.38
352.83	1730.53
353.04	1689.57
353.25	1775.59
353.46	1781.73
353.67	1757.16
353.88	1619.94
354.09	1789.92
354.30	1679.33
354.52	1722.34
354.73	1712.10
354.94	1699.81
355.15	1710.05
355.36	1867.75
355.57	1611.75
355.78	1779.68
355.99	1609.70
356.20	1656.81
356.41	1730.53
356.62	1730.53
356.83	1712.10
357.04	1789.92
357.25	1632.23
357.46	1720.29
357.68	1632.23
357.89	1744.87
358.10	1701.86
358.31	1646.57
358.52	1640.42
358.73	1626.09
358.94	1646.57
359.15	1712.10
359.36	1738.73
359.57	1738.73
359.78	1785.83
359.99	1726.44
360.20	1656.81
360.41	1738.73
360.62	1718.25
360.83	1748.97
361.04	1779.68
361.25	1689.57
361.46	1818.60
361.67	1771.49
361.88	1771.49
362.09	1794.02
362.30	1738.73
362.51	1730.53
362.72	1779.68
362.93	1730.53
363.14	1738.73
363.35	1779.68
363.56	1662.95
363.78	1785.83
363.99	1777.64
364.20	1648.61
364.41	1753.06
364.62	1863.65
364.83	1757.16
365.04	1703.91
365.25	1738.73
365.46	1863.65
365.67	1660.90
365.88	1576.94
366.09	1675.24
366.30	1646.57
366.51	1744.87
366.72	1691.62
366.93	1656.81
367.14	1703.91
367.35	1755.11
367.56	1632.23
367.77	1783.78
367.98	1695.72
368.18	1771.49
368.39	1751.01
368.60	1650.66
368.81	1675.24
369.02	1738.73
369.23	1746.92
369.44	1617.90
369.65	1701.86
369.86	1744.87
370.07	1736.68
370.28	1626.09
370.49	1781.73
370.70	1734.63
370.91	1603.56
371.12	1607.66
371.33	1806.31
371.54	1751.01
371.75	1800.16
371.96	1576.94
372.17	1720.29
372.38	1714.15
372.59	1779.68
372.80	1669.09
373.01	1701.86
373.22	1740.77
373.43	1753.06
373.64	1658.85
373.85	1845.22
374.06	1798.12
374.26	1804.26
374.47	1734.63
374.68	1847.27
374.89	1722.34
375.10	1701.86
375.31	1773.54
375.52	1720.29
375.73	1779.68
375.94	1621.99
376.15	1791.97
376.36	1693.67
376.57	1660.90
376.78	1679.33
376.99	1728.49
377.20	1742.82
377.40	1675.24
377.61	1808.36
377.82	1712.10
378.03	1787.88
378.24	1787.88
378.45	1748.97
378.66	1726.44
378.87	1624.04
379.08	1677.29
379.29	1583.08
379.50	1787.88
379.71	1722.34
379.91	1730.53
380.12	1763.30
380.33	1681.38
380.54	1705.96
380.75	1714.15
380.96	1699.81
381.17	1804.26
381.38	1697.77
381.59	1720.29
381.80	1722.34
382.00	1849.32
382.21	1701.86
382.42	1785.83
382.63	1902.56
382.84	1720.29
383.05	1740.77
383.26	1808.36
383.47	1763.30
383.68	1765.35
383.88	1718.25
384.09	1757.16
384.30	1753.06
384.51	1746.92
384.72	1638.38
384.93	1673.19
385.14	1710.05
385.35	1746.92
385.55	1701.86
385.76	1804.26
385.97	1693.67
386.18	1615.85
386.39	1765.35
386.60	1730.53
386.81	1742.82
387.02	1630.18
387.22	1679.33
387.43	1765.35
387.64	1820.64
387.85	1882.08
388.06	2234.33
388.27	4132.80
388.48	6612.89
388.68	8142.72
388.89	9478.00
389.10	9705.32
389.31	8533.89
389.52	7376.78
389.73	6774.68
389.93	6168.48
390.14	5703.59
390.35	4978.61
390.56	4495.29
390.77	3864.52
390.98	3041.23
391.18	2490.33
391.39	2185.18
391.60	1863.65
391.81	1779.68
392.02	1675.24
392.23	1892.32
392.43	1699.81
392.64	1771.49
392.85	1757.16
393.06	1755.11
393.27	1722.34
393.47	1650.66
393.68	1742.82
393.89	1685.48
394.10	1687.53
394.31	1562.60
394.52	1595.37
394.72	1665.00
394.93	1777.64
395.14	1636.33
395.35	1791.97
395.56	1720.29
395.76	1759.21
395.97	1724.39
396.18	1839.08
396.39	1828.84
396.60	2074.59
396.80	1804.26
397.01	1779.68
397.22	1859.56
397.43	1843.17
397.64	1748.97
397.84	1806.31
398.05	1914.85
398.26	1771.49
398.47	1808.36
398.67	1820.64
398.88	1779.68
399.09	1738.73
399.30	1675.24
399.51	1748.97
399.71	1677.29
399.92	1781.73
400.13	1734.63
400.34	1779.68
400.54	1677.29
400.75	1837.03
400.96	1765.35
401.17	1798.12
401.37	1759.21
401.58	1675.24
401.79	1703.91
402.00	1902.56
402.21	1923.04
402.41	1937.38
402.62	1959.91
402.83	2017.25
403.04	2002.91
403.24	2099.17
403.45	1853.41
403.66	1923.04
403.87	1841.12
404.07	1884.13
404.28	1978.34
404.49	1931.23
404.70	1841.12
404.90	1810.40
405.11	1759.21
405.32	1736.68
405.52	1679.33
405.73	1728.49
405.94	1662.95
406.15	1730.53
406.35	1724.39
406.56	1765.35
406.77	1800.16
406.98	1724.39
407.18	1714.15
407.39	1847.27
407.60	1687.53
407.80	1744.87
408.01	1679.33
408.22	1722.34
408.43	1718.25
408.63	1699.81
408.84	1759.21
409.05	1710.05
409.25	1617.90
409.46	1716.20
409.67	1681.38
409.88	1669.09
410.08	1775.59
410.29	1708.01
410.50	1742.82
410.70	1742.82
410.91	1621.99
411.12	1658.85
411.32	1761.25
411.53	1640.42
411.74	1857.51
411.95	1769.44
412.15	1710.05
412.36	1826.79
412.57	1693.67
412.77	1802.21
412.98	1779.68
413.19	1671.14
413.39	1757.16
413.60	1785.83
413.81	1847.27
414.01	1708.01
414.22	1689.57
414.43	1726.44
414.63	1736.68
414.84	1779.68
415.05	1714.15
415.25	1665.00
415.46	1779.68
415.67	1687.53
415.87	1773.54
416.08	1708.01
416.29	1679.33
416.49	1746.92
416.70	1705.96
416.91	1697.77
417.11	1693.67
417.32	1734.63
417.53	1789.92
417.73	1751.01
417.94	1677.29
418.15	1728.49
418.35	1712.10
418.56	1734.63
418.77	1931.23
418.97	1683.43
419.18	1724.39
419.38	1712.10
419.59	1697.77
419.80	1826.79
420.00	1769.44
420.21	1658.85
420.42	1800.16
420.62	1726.44
420.83	1671.14
421.04	1634.28
421.24	1656.81
421.45	1748.97
421.65	1748.97
421.86	1714.15
422.07	1748.97
422.27	1757.16
422.48	1738.73
422.69	1619.94
422.89	1759.21
423.10	1609.70
423.30	1701.86
423.51	1705.96
423.72	1730.53
423.92	1779.68
424.13	1607.66
424.33	1816.55
424.54	1800.16
424.75	1685.48
424.95	1826.79
425.16	1757.16
425.36	1718.25
425.57	1824.74
425.78	1751.01
425.98	1834.98
426.19	1689.57
426.39	1701.86
426.60	1742.82
426.81	1759.21
427.01	1787.88
427.22	1656.81
427.42	1660.90
427.63	1730.53
427.83	1703.91
428.04	1855.46
428.25	1816.55
428.45	1724.39
428.66	1773.54
428.86	1667.05
429.07	1705.96
429.28	1763.30
429.48	1720.29
429.69	1763.30
429.89	1755.11
430.10	1687.53
430.30	1769.44
430.51	1773.54
430.71	1718.25
430.92	1708.01
431.13	1675.24
431.33	1740.77
431.54	1681.38
431.74	1865.70
431.95	1832.93
432.15	1689.57
432.36	1734.63
432.56	1791.97
432.77	1787.88
432.98	1820.64
433.18	1699.81
433.39	1640.42
433.59	1748.97
433.80	1816.55
434.00	1920.99
434.21	1724.39
434.41	1683.43
434.62	1861.60
434.82	1642.47
435.03	1656.81
435.23	1769.44
435.44	1648.61
435.64	1779.68
435.85	1777.64
436.06	1787.88
436.26	1712.10
436.47	1687.53
436.67	1718.25
436.88	1697.77
437.08	1728.49
437.29	1771.49
437.49	1759.21
437.70	1714.15
437.90	1738.73
438.11	1882.08
438.31	1787.88
438.52	1859.56
438.72	1869.80
438.93	1902.56
439.13	1791.97
439.34	1826.79
439.54	1681.38
439.75	1859.56
439.95	1798.12
440.16	1738.73
440.36	1716.20
440.57	1765.35
440.77	1730.53
440.98	1697.77
441.18	1773.54
441.39	1693.67
441.59	1654.76
441.80	1886.18
442.00	1746.92
442.21	1763.30
442.41	1710.05
442.62	1767.40
442.82	1771.49
443.02	1755.11
443.23	1726.44
443.43	1697.77
443.64	1787.88
443.84	1728.49
444.05	1791.97
444.25	1708.01
444.46	1794.02
444.66	1808.36
444.87	1781.73
445.07	1683.43
445.28	1714.15
445.48	1826.79
445.69	1771.49
445.89	1898.47
446.09	1736.68
446.30	2052.06
446.50	2594.78
446.71	3655.62
446.91	4208.58
447.12	4708.28
447.32	4763.58
447.53	4339.65
447.73	3821.51
447.93	3493.83
448.14	3313.61
448.34	3160.02
448.55	2944.98
448.75	2846.68
448.96	2686.94
449.16	2465.75
449.36	2232.29
449.57	2041.82
449.77	1992.67
449.98	1785.83
450.18	1843.17
450.39	1843.17
450.59	1751.01
450.79	1763.30
451.00	1673.19
451.20	1804.26
451.41	1675.24
451.61	1824.74
451.81	1744.87
452.02	1734.63
452.22	1669.09
452.43	1748.97
452.63	1777.64
