SpectraSuite Data File
++++++++++++++++++++++++++++++++++++
Date: Mon Jun 06 16:45:17 CEST 2016
User: root
Dark Spectrum Present: No
Reference Spectrum Present: No
Number of Sampled Component Spectra: 1
Spectrometers: USB4C02835
Integration Time (usec): 100000 (USB4C02835)
Spectra Averaged: 1 (USB4C02835)
Boxcar Smoothing: 0 (USB4C02835)
Correct for Electrical Dark: No (USB4C02835)
Strobe/Lamp Enabled: No (USB4C02835)
Correct for Detector Non-linearity: No (USB4C02835)
Correct for Stray Light: No (USB4C02835)
Number of Pixels in Processed Spectrum: 3648
>>>>>Begin Processed Spectral Data<<<<<
177.47	1439.72
177.69	1439.72
177.91	1439.72
178.13	1449.96
178.36	1513.45
178.58	1654.76
178.80	1794.02
179.02	1599.46
179.24	1665.00
179.46	1722.34
179.68	1736.68
179.90	1642.47
180.13	1712.10
180.35	1572.84
180.57	1708.01
180.79	1808.36
181.01	1730.53
181.23	1806.31
181.45	1808.36
181.67	1730.53
181.90	1771.49
182.12	1662.95
182.34	1624.04
182.56	1642.47
182.78	1796.07
183.00	1738.73
183.22	1740.77
183.44	1578.98
183.66	1806.31
183.89	1822.69
184.11	1693.67
184.33	1824.74
184.55	1769.44
184.77	1671.14
184.99	1660.90
185.21	1669.09
185.43	1771.49
185.65	1654.76
185.87	1769.44
186.10	1814.50
186.32	1865.70
186.54	1755.11
186.76	1816.55
186.98	1738.73
187.20	1626.09
187.42	1683.43
187.64	1730.53
187.86	1740.77
188.08	1841.12
188.30	1652.71
188.52	1697.77
188.75	1728.49
188.97	1816.55
189.19	1648.61
189.41	1675.24
189.63	1732.58
189.85	1652.71
190.07	1640.42
190.29	1665.00
190.51	1724.39
190.73	1640.42
190.95	1751.01
191.17	1658.85
191.39	1630.18
191.61	1630.18
191.84	1628.14
192.06	1757.16
192.28	1667.05
192.50	1814.50
192.72	1777.64
192.94	1714.15
193.16	1775.59
193.38	1759.21
193.60	1601.51
193.82	1722.34
194.04	1744.87
194.26	1714.15
194.48	1681.38
194.70	1671.14
194.92	1689.57
195.14	1830.88
195.36	1630.18
195.58	1626.09
195.80	1757.16
196.02	1660.90
196.24	1722.34
196.46	1738.73
196.69	1671.14
196.91	1816.55
197.13	1648.61
197.35	1679.33
197.57	1806.31
197.79	1712.10
198.01	1771.49
198.23	1751.01
198.45	1712.10
198.67	1603.56
198.89	1689.57
199.11	1787.88
199.33	1714.15
199.55	1644.52
199.77	1759.21
199.99	1775.59
200.21	1716.20
200.43	1660.90
200.65	1624.04
200.87	1599.46
201.09	1695.72
201.31	1685.48
201.53	1802.21
201.75	1687.53
201.97	1736.68
202.19	1734.63
202.41	1785.83
202.63	1863.65
202.85	1691.62
203.07	1728.49
203.29	1710.05
203.51	1615.85
203.73	1660.90
203.95	1890.28
204.17	1769.44
204.39	1847.27
204.61	1722.34
204.83	1632.23
205.05	1744.87
205.27	1742.82
205.49	1847.27
205.71	1667.05
205.93	1566.70
206.15	1671.14
206.37	1689.57
206.59	1648.61
206.81	1658.85
207.03	1603.56
207.25	1734.63
207.47	1779.68
207.69	1658.85
207.91	1787.88
208.13	1802.21
208.34	1746.92
208.56	1716.20
208.78	1787.88
209.00	1621.99
209.22	1677.29
209.44	1740.77
209.66	1662.95
209.88	1708.01
210.10	1689.57
210.32	1701.86
210.54	1855.46
210.76	1775.59
210.98	1669.09
211.20	1591.27
211.42	1703.91
211.64	1779.68
211.86	1730.53
212.08	1798.12
212.30	1796.07
212.52	1714.15
212.74	1693.67
212.96	1748.97
213.17	1787.88
213.39	1769.44
213.61	1738.73
213.83	1677.29
214.05	1654.76
214.27	1742.82
214.49	1662.95
214.71	1675.24
214.93	1740.77
215.15	1648.61
215.37	1738.73
215.59	1613.80
215.81	1773.54
216.03	1751.01
216.24	1638.38
216.46	1675.24
216.68	1746.92
216.90	1771.49
217.12	1677.29
217.34	1708.01
217.56	1820.64
217.78	1787.88
218.00	1681.38
218.22	1728.49
218.44	1787.88
218.66	1685.48
218.87	1769.44
219.09	1685.48
219.31	1748.97
219.53	1744.87
219.75	1656.81
219.97	1695.72
220.19	1740.77
220.41	1671.14
220.63	1822.69
220.85	1734.63
221.06	1718.25
221.28	1882.08
221.50	1748.97
221.72	1705.96
221.94	1798.12
222.16	1691.62
222.38	1775.59
222.60	1730.53
222.82	1673.19
223.03	1781.73
223.25	1654.76
223.47	1767.40
223.69	1757.16
223.91	1740.77
224.13	1697.77
224.35	1681.38
224.57	1781.73
224.78	1769.44
225.00	1714.15
225.22	1705.96
225.44	1658.85
225.66	1748.97
225.88	1658.85
226.10	1736.68
226.32	1748.97
226.53	1796.07
226.75	1740.77
226.97	1720.29
227.19	1675.24
227.41	1730.53
227.63	1675.24
227.85	1630.18
228.06	1753.06
228.28	1648.61
228.50	1656.81
228.72	1652.71
228.94	1701.86
229.16	1615.85
229.37	1599.46
229.59	1656.81
229.81	1751.01
230.03	1691.62
230.25	1644.52
230.47	1691.62
230.69	1697.77
230.90	1763.30
231.12	1675.24
231.34	1730.53
231.56	1781.73
231.78	1687.53
232.00	1656.81
232.21	1667.05
232.43	1699.81
232.65	1652.71
232.87	1744.87
233.09	1624.04
233.30	1644.52
233.52	1701.86
233.74	1648.61
233.96	1662.95
234.18	1660.90
234.40	1705.96
234.61	1810.40
234.83	1658.85
235.05	1624.04
235.27	1849.32
235.49	1767.40
235.70	1705.96
235.92	1757.16
236.14	1638.38
236.36	1791.97
236.58	1630.18
236.79	1820.64
237.01	1710.05
237.23	1767.40
237.45	1830.88
237.67	1638.38
237.88	1722.34
238.10	1832.93
238.32	1619.94
238.54	1697.77
238.76	1677.29
238.97	1699.81
239.19	1638.38
239.41	1781.73
239.63	1757.16
239.85	1675.24
240.06	1621.99
240.28	1673.19
240.50	1726.44
240.72	1689.57
240.93	1724.39
241.15	1763.30
241.37	1746.92
241.59	1748.97
241.81	1748.97
242.02	1675.24
242.24	1728.49
242.46	1796.07
242.68	1576.94
242.89	1699.81
243.11	1718.25
243.33	1705.96
243.55	1724.39
243.76	1781.73
243.98	1613.80
244.20	1691.62
244.42	1695.72
244.64	1697.77
244.85	1669.09
245.07	1665.00
245.29	1810.40
245.51	1787.88
245.72	1767.40
245.94	1834.98
246.16	1650.66
246.38	1798.12
246.59	1619.94
246.81	1642.47
247.03	1646.57
247.24	1546.22
247.46	1730.53
247.68	1708.01
247.90	1669.09
248.11	1665.00
248.33	1763.30
248.55	1697.77
248.77	1742.82
248.98	1757.16
249.20	1765.35
249.42	1751.01
249.64	1734.63
249.85	1718.25
250.07	1656.81
250.29	1837.03
250.50	1699.81
250.72	1603.56
250.94	1728.49
251.16	1828.84
251.37	1828.84
251.59	1796.07
251.81	1746.92
252.02	1820.64
252.24	1722.34
252.46	1775.59
252.68	1681.38
252.89	1662.95
253.11	1605.61
253.33	1722.34
253.54	1712.10
253.76	1601.51
253.98	1689.57
254.20	1736.68
254.41	1695.72
254.63	1703.91
254.85	1703.91
255.06	1673.19
255.28	1695.72
255.50	1699.81
255.71	1644.52
255.93	1669.09
256.15	1685.48
256.36	1689.57
256.58	1669.09
256.80	1740.77
257.02	1734.63
257.23	1689.57
257.45	1736.68
257.67	1685.48
257.88	1675.24
258.10	1693.67
258.32	1734.63
258.53	1699.81
258.75	1767.40
258.97	1675.24
259.18	1722.34
259.40	1677.29
259.62	1789.92
259.83	1808.36
260.05	1769.44
260.27	1966.05
260.48	1798.12
260.70	1675.24
260.92	1673.19
261.13	1705.96
261.35	1689.57
261.57	1755.11
261.78	1734.63
262.00	1667.05
262.22	1761.25
262.43	1630.18
262.65	1640.42
262.86	1712.10
263.08	1798.12
263.30	1677.29
263.51	1636.33
263.73	1699.81
263.95	1812.45
264.16	1617.90
264.38	1763.30
264.60	1744.87
264.81	1640.42
265.03	1705.96
265.25	1730.53
265.46	1679.33
265.68	1773.54
265.89	1728.49
266.11	1605.61
266.33	1796.07
266.54	1718.25
266.76	1738.73
266.98	1722.34
267.19	1806.31
267.41	1732.58
267.62	1730.53
267.84	1665.00
268.06	1765.35
268.27	1755.11
268.49	1751.01
268.70	1738.73
268.92	1683.43
269.14	1675.24
269.35	1538.02
269.57	1599.46
269.79	1757.16
270.00	1628.14
270.22	1855.46
270.43	1712.10
270.65	1505.26
270.87	1783.78
271.08	1677.29
271.30	1697.77
271.51	1763.30
271.73	1759.21
271.95	1785.83
272.16	1781.73
272.38	1599.46
272.59	1720.29
272.81	1769.44
273.02	1746.92
273.24	1738.73
273.46	1746.92
273.67	1683.43
273.89	1667.05
274.10	1695.72
274.32	1851.36
274.54	1796.07
274.75	1759.21
274.97	1699.81
275.18	1703.91
275.40	1693.67
275.61	1728.49
275.83	1779.68
276.05	1638.38
276.26	1761.25
276.48	1736.68
276.69	1718.25
276.91	1695.72
277.12	1794.02
277.34	1738.73
277.55	1834.98
277.77	1701.86
277.99	1748.97
278.20	1710.05
278.42	1607.66
278.63	1581.03
278.85	1650.66
279.06	1613.80
279.28	1730.53
279.49	1779.68
279.71	1751.01
279.93	1669.09
280.14	1744.87
280.36	1691.62
280.57	1755.11
280.79	1695.72
281.00	1662.95
281.22	1697.77
281.43	1732.58
281.65	1646.57
281.86	1748.97
282.08	1734.63
282.29	1818.60
282.51	1632.23
282.73	1603.56
282.94	1660.90
283.16	1720.29
283.37	1808.36
283.59	1691.62
283.80	1718.25
284.02	1679.33
284.23	1732.58
284.45	1681.38
284.66	1701.86
284.88	1570.79
285.09	1746.92
285.31	1705.96
285.52	1751.01
285.74	1697.77
285.95	1744.87
286.17	1746.92
286.38	1837.03
286.60	1757.16
286.81	1671.14
287.03	1689.57
287.24	1751.01
287.46	1746.92
287.67	1751.01
287.89	1812.45
288.10	1736.68
288.32	1679.33
288.53	1751.01
288.75	1689.57
288.96	1826.79
289.18	1695.72
289.39	1687.53
289.61	1726.44
289.82	1863.65
290.04	1808.36
290.25	1650.66
290.47	1732.58
290.68	1804.26
290.90	1828.84
291.11	1615.85
291.33	1667.05
291.54	1710.05
291.76	1644.52
291.97	1724.39
292.18	1677.29
292.40	1712.10
292.61	1675.24
292.83	1845.22
293.04	1763.30
293.26	1755.11
293.47	1619.94
293.69	1722.34
293.90	1691.62
294.12	1738.73
294.33	1716.20
294.55	1638.38
294.76	1787.88
294.97	1748.97
295.19	1814.50
295.40	1679.33
295.62	1773.54
295.83	1679.33
296.05	1691.62
296.26	1763.30
296.48	1712.10
296.69	1734.63
296.90	1630.18
297.12	1740.77
297.33	1757.16
297.55	1638.38
297.76	1755.11
297.98	1808.36
298.19	1779.68
298.41	1652.71
298.62	1726.44
298.83	1789.92
299.05	1722.34
299.26	1681.38
299.48	1665.00
299.69	1777.64
299.90	1681.38
300.12	1699.81
300.33	1757.16
300.55	1714.15
300.76	1755.11
300.98	1652.71
301.19	1771.49
301.40	1691.62
301.62	1660.90
301.83	1656.81
302.05	1744.87
302.26	1691.62
302.47	1732.58
302.69	1626.09
302.90	1714.15
303.12	1603.56
303.33	1828.84
303.54	1896.42
303.76	1679.33
303.97	1613.80
304.19	1763.30
304.40	1646.57
304.61	1757.16
304.83	1839.08
305.04	1761.25
305.26	1683.43
305.47	1644.52
305.68	1683.43
305.90	1632.23
306.11	1769.44
306.33	1761.25
306.54	1701.86
306.75	1675.24
306.97	1617.90
307.18	1640.42
307.39	1683.43
307.61	1794.02
307.82	1697.77
308.04	1734.63
308.25	1607.66
308.46	1738.73
308.68	1714.15
308.89	1724.39
309.10	1726.44
309.32	1720.29
309.53	1667.05
309.74	1708.01
309.96	1660.90
310.17	1814.50
310.39	1673.19
310.60	1875.94
310.81	1732.58
311.03	1630.18
311.24	1728.49
311.45	1718.25
311.67	1789.92
311.88	1628.14
312.09	1710.05
312.31	1730.53
312.52	1771.49
312.73	1720.29
312.95	1654.76
313.16	1693.67
313.37	1814.50
313.59	1714.15
313.80	1689.57
314.01	1748.97
314.23	1712.10
314.44	1624.04
314.65	1744.87
314.87	1624.04
315.08	1677.29
315.29	1673.19
315.51	1621.99
315.72	1669.09
315.93	1918.95
316.15	1812.45
316.36	1671.14
316.57	1746.92
316.79	1783.78
317.00	1681.38
317.21	1738.73
317.43	1662.95
317.64	1652.71
317.85	1738.73
318.07	1687.53
318.28	1677.29
318.49	1832.93
318.70	1953.76
318.92	1834.98
319.13	1787.88
319.34	1863.65
319.56	1787.88
319.77	1857.51
319.98	1728.49
320.20	1779.68
320.41	1810.40
320.62	1804.26
320.83	1689.57
321.05	1869.80
321.26	1742.82
321.47	1667.05
321.69	1853.41
321.90	1558.50
322.11	1689.57
322.32	1763.30
322.54	1796.07
322.75	1652.71
322.96	1882.08
323.18	1708.01
323.39	1665.00
323.60	1705.96
323.81	1771.49
324.03	1636.33
324.24	1626.09
324.45	1718.25
324.66	1648.61
324.88	1759.21
325.09	1783.78
325.30	1757.16
325.52	1763.30
325.73	1789.92
325.94	1662.95
326.15	1648.61
326.37	1681.38
326.58	1744.87
326.79	1818.60
327.00	1597.42
327.22	1775.59
327.43	1675.24
327.64	1591.27
327.85	1771.49
328.07	1697.77
328.28	1818.60
328.49	1705.96
328.70	1665.00
328.92	1732.58
329.13	1621.99
329.34	1730.53
329.55	1806.31
329.76	1734.63
329.98	1650.66
330.19	1761.25
330.40	1787.88
330.61	1775.59
330.83	1789.92
331.04	1685.48
331.25	1701.86
331.46	1675.24
331.68	1652.71
331.89	1769.44
332.10	1681.38
332.31	1644.52
332.52	1712.10
332.74	1843.17
332.95	1632.23
333.16	1691.62
333.37	1703.91
333.58	1691.62
333.80	1744.87
334.01	1576.94
334.22	1687.53
334.43	1601.51
334.64	1693.67
334.86	1617.90
335.07	1683.43
335.28	1769.44
335.49	1599.46
335.70	1689.57
335.92	1761.25
336.13	1849.32
336.34	1703.91
336.55	1724.39
336.76	1701.86
336.98	1583.08
337.19	1734.63
337.40	1732.58
337.61	1853.41
337.82	1687.53
338.04	1748.97
338.25	1605.61
338.46	1769.44
338.67	1693.67
338.88	1699.81
339.09	1669.09
339.31	1615.85
339.52	1599.46
339.73	1695.72
339.94	1714.15
340.15	1779.68
340.36	1705.96
340.58	1720.29
340.79	1617.90
341.00	1712.10
341.21	1628.14
341.42	1798.12
341.63	1718.25
341.85	1695.72
342.06	1685.48
342.27	1652.71
342.48	1679.33
342.69	1628.14
342.90	1697.77
343.12	1695.72
343.33	1683.43
343.54	1699.81
343.75	1751.01
343.96	1748.97
344.17	1656.81
344.38	1730.53
344.60	1654.76
344.81	1644.52
345.02	1693.67
345.23	1783.78
345.44	1828.84
345.65	1714.15
345.86	1730.53
346.07	1751.01
346.29	1652.71
346.50	1763.30
346.71	1701.86
346.92	1763.30
347.13	1839.08
347.34	1683.43
347.55	1716.20
347.76	1730.53
347.98	1605.61
348.19	1665.00
348.40	1841.12
348.61	1740.77
348.82	1806.31
349.03	1718.25
349.24	1685.48
349.45	1806.31
349.66	1595.37
349.88	1705.96
350.09	1650.66
350.30	1710.05
350.51	1804.26
350.72	1730.53
350.93	1650.66
351.14	1732.58
351.35	1738.73
351.56	1714.15
351.77	1746.92
351.99	1751.01
352.20	1771.49
352.41	1824.74
352.62	1689.57
352.83	1648.61
353.04	1710.05
353.25	1660.90
353.46	1818.60
353.67	1718.25
353.88	1650.66
354.09	1712.10
354.30	1720.29
354.52	1695.72
354.73	1701.86
354.94	1726.44
355.15	1759.21
355.36	1843.17
355.57	1646.57
355.78	1710.05
355.99	1646.57
356.20	1662.95
356.41	1775.59
356.62	1763.30
356.83	1708.01
357.04	1763.30
357.25	1558.50
357.46	1718.25
357.68	1658.85
357.89	1740.77
358.10	1771.49
358.31	1652.71
358.52	1703.91
358.73	1689.57
358.94	1695.72
359.15	1757.16
359.36	1740.77
359.57	1740.77
359.78	1712.10
359.99	1730.53
360.20	1617.90
360.41	1703.91
360.62	1691.62
360.83	1642.47
361.04	1683.43
361.25	1777.64
361.46	1837.03
361.67	1755.11
361.88	1783.78
362.09	1691.62
362.30	1624.04
362.51	1689.57
362.72	1695.72
362.93	1767.40
363.14	1773.54
363.35	1673.19
363.56	1705.96
363.78	1751.01
363.99	1798.12
364.20	1722.34
364.41	1751.01
364.62	1796.07
364.83	1701.86
365.04	1687.53
365.25	1761.25
365.46	1845.22
365.67	1656.81
365.88	1712.10
366.09	1640.42
366.30	1650.66
366.51	1640.42
366.72	1640.42
366.93	1681.38
367.14	1695.72
367.35	1834.98
367.56	1746.92
367.77	1708.01
367.98	1716.20
368.18	1787.88
368.39	1744.87
368.60	1683.43
368.81	1796.07
369.02	1708.01
369.23	1685.48
369.44	1593.32
369.65	1695.72
369.86	1701.86
370.07	1771.49
370.28	1695.72
370.49	1755.11
370.70	1746.92
370.91	1621.99
371.12	1656.81
371.33	1791.97
371.54	1640.42
371.75	1804.26
371.96	1552.36
372.17	1650.66
372.38	1681.38
372.59	1816.55
372.80	1685.48
373.01	1642.47
373.22	1701.86
373.43	1726.44
373.64	1665.00
373.85	1794.02
374.06	1859.56
374.26	1773.54
374.47	1744.87
374.68	1771.49
374.89	1689.57
375.10	1677.29
375.31	1826.79
375.52	1662.95
375.73	1734.63
375.94	1634.28
376.15	1759.21
376.36	1673.19
376.57	1660.90
376.78	1681.38
376.99	1796.07
377.20	1738.73
377.40	1724.39
377.61	1841.12
377.82	1714.15
378.03	1753.06
378.24	1798.12
378.45	1638.38
378.66	1701.86
378.87	1624.04
379.08	1669.09
379.29	1656.81
379.50	1748.97
379.71	1695.72
379.91	1718.25
380.12	1722.34
380.33	1742.82
380.54	1708.01
380.75	1736.68
380.96	1656.81
381.17	1732.58
381.38	1683.43
381.59	1796.07
381.80	1667.05
382.00	1869.80
382.21	1775.59
382.42	1855.46
382.63	1822.69
382.84	1736.68
383.05	1796.07
383.26	1740.77
383.47	1695.72
383.68	1785.83
383.88	1726.44
384.09	1730.53
384.30	1837.03
384.51	1814.50
384.72	1681.38
384.93	1607.66
385.14	1726.44
385.35	1841.12
385.55	1640.42
385.76	1734.63
385.97	1701.86
386.18	1665.00
386.39	1650.66
386.60	1810.40
386.81	1634.28
387.02	1728.49
387.22	1654.76
387.43	1748.97
387.64	1832.93
387.85	1882.08
388.06	2250.72
388.27	4278.21
388.48	6823.83
388.68	8216.45
388.89	9719.66
389.10	9873.26
389.31	8595.32
389.52	7792.52
389.73	6862.74
389.93	6231.97
390.14	5711.78
390.35	5269.42
390.56	4675.51
390.77	3721.16
390.98	2985.94
391.18	2473.95
391.39	2152.42
391.60	1800.16
391.81	1746.92
392.02	1691.62
392.23	1789.92
392.43	1775.59
392.64	1849.32
392.85	1689.57
393.06	1880.04
393.27	1728.49
393.47	1689.57
393.68	1714.15
393.89	1667.05
394.10	1759.21
394.31	1675.24
394.52	1712.10
394.72	1642.47
394.93	1869.80
395.14	1667.05
395.35	1722.34
395.56	1720.29
395.76	1746.92
395.97	1804.26
396.18	1892.32
396.39	1779.68
396.60	2035.68
396.80	1892.32
397.01	1886.18
397.22	1920.99
397.43	1867.75
397.64	1804.26
397.84	1841.12
398.05	1906.66
398.26	1746.92
398.47	1736.68
398.67	1716.20
398.88	1812.45
399.09	1746.92
399.30	1671.14
399.51	1753.06
399.71	1603.56
399.92	1763.30
400.13	1751.01
400.34	1710.05
400.54	1683.43
400.75	1837.03
400.96	1708.01
401.17	1849.32
401.37	1796.07
401.58	1746.92
401.79	1708.01
402.00	1875.94
402.21	1982.43
402.41	1925.09
402.62	1978.34
402.83	2033.63
403.04	2025.44
403.24	2129.89
403.45	1890.28
403.66	1912.80
403.87	1832.93
404.07	1839.08
404.28	2000.87
404.49	1908.71
404.70	1812.45
404.90	1791.97
405.11	1777.64
405.32	1748.97
405.52	1710.05
405.73	1644.52
405.94	1689.57
406.15	1687.53
406.35	1708.01
406.56	1779.68
406.77	1802.21
406.98	1718.25
407.18	1683.43
407.39	1765.35
407.60	1730.53
407.80	1767.40
408.01	1656.81
408.22	1796.07
408.43	1644.52
408.63	1701.86
408.84	1681.38
409.05	1789.92
409.25	1634.28
409.46	1753.06
409.67	1628.14
409.88	1656.81
410.08	1769.44
410.29	1689.57
410.50	1726.44
410.70	1667.05
410.91	1578.98
411.12	1724.39
411.32	1701.86
411.53	1705.96
411.74	1814.50
411.95	1812.45
412.15	1742.82
412.36	1789.92
412.57	1800.16
412.77	1781.73
412.98	1689.57
413.19	1785.83
413.39	1822.69
413.60	1798.12
413.81	1765.35
414.01	1673.19
414.22	1685.48
414.43	1769.44
414.63	1628.14
414.84	1806.31
415.05	1724.39
415.25	1638.38
415.46	1681.38
415.67	1730.53
415.87	1683.43
416.08	1724.39
416.29	1638.38
416.49	1748.97
416.70	1609.70
416.91	1748.97
417.11	1695.72
417.32	1642.47
417.53	1730.53
417.73	1830.88
417.94	1683.43
418.15	1751.01
418.35	1730.53
418.56	1785.83
418.77	1812.45
418.97	1708.01
419.18	1646.57
419.38	1595.37
419.59	1687.53
419.80	1757.16
420.00	1570.79
420.21	1665.00
420.42	1748.97
420.62	1763.30
420.83	1691.62
421.04	1662.95
421.24	1736.68
421.45	1834.98
421.65	1740.77
421.86	1665.00
422.07	1724.39
422.27	1662.95
422.48	1708.01
422.69	1658.85
422.89	1728.49
423.10	1687.53
423.30	1619.94
423.51	1740.77
423.72	1658.85
423.92	1814.50
424.13	1632.23
424.33	1730.53
424.54	1748.97
424.75	1634.28
424.95	1777.64
425.16	1742.82
425.36	1753.06
425.57	1720.29
425.78	1796.07
425.98	1697.77
426.19	1767.40
426.39	1595.37
426.60	1759.21
426.81	1771.49
427.01	1744.87
427.22	1697.77
427.42	1683.43
427.63	1695.72
427.83	1771.49
428.04	1828.84
428.25	1751.01
428.45	1796.07
428.66	1671.14
428.86	1669.09
429.07	1634.28
429.28	1751.01
429.48	1603.56
429.69	1689.57
429.89	1716.20
430.10	1572.84
430.30	1755.11
430.51	1837.03
430.71	1703.91
430.92	1708.01
431.13	1712.10
431.33	1689.57
431.54	1736.68
431.74	1763.30
431.95	1783.78
432.15	1681.38
432.36	1769.44
432.56	1806.31
432.77	1783.78
432.98	1789.92
433.18	1800.16
433.39	1773.54
433.59	1734.63
433.80	1810.40
434.00	1849.32
434.21	1730.53
434.41	1740.77
434.62	1851.36
434.82	1667.05
435.03	1710.05
435.23	1695.72
435.44	1646.57
435.64	1771.49
435.85	1669.09
436.06	1734.63
436.26	1804.26
436.47	1705.96
436.67	1665.00
436.88	1669.09
437.08	1798.12
437.29	1773.54
437.49	1609.70
437.70	1748.97
437.90	1722.34
438.11	1765.35
438.31	1763.30
438.52	1953.76
438.72	1859.56
438.93	1961.95
439.13	1767.40
439.34	1873.89
439.54	1828.84
439.75	1873.89
439.95	1771.49
440.16	1720.29
440.36	1781.73
440.57	1806.31
440.77	1734.63
440.98	1800.16
441.18	1757.16
441.39	1642.47
441.59	1673.19
441.80	1853.41
442.00	1654.76
442.21	1808.36
442.41	1617.90
442.62	1832.93
442.82	1703.91
443.02	1730.53
443.23	1703.91
443.43	1783.78
443.64	1740.77
443.84	1609.70
444.05	1814.50
444.25	1777.64
444.46	1779.68
444.66	1748.97
444.87	1779.68
445.07	1624.04
445.28	1738.73
445.48	1845.22
445.69	1812.45
445.89	1871.84
446.09	1697.77
446.30	1964.00
446.50	2641.88
446.71	3751.88
446.91	4353.98
447.12	4816.82
447.32	4810.68
447.53	4349.89
447.73	3958.72
447.93	3512.27
448.14	3338.19
448.34	3237.84
448.55	2932.69
448.75	2807.77
448.96	2762.71
449.16	2475.99
449.36	2287.58
449.57	1982.43
449.77	1886.18
449.98	1882.08
450.18	1755.11
450.39	1816.55
450.59	1783.78
450.79	1767.40
451.00	1787.88
451.20	1767.40
451.41	1673.19
451.61	1763.30
451.81	1820.64
452.02	1746.92
452.22	1763.30
452.43	1628.14
452.63	1716.20
