SpectraSuite Data File
++++++++++++++++++++++++++++++++++++
Date: Mon Jun 06 12:33:57 CEST 2016
User: root
Dark Spectrum Present: No
Reference Spectrum Present: No
Number of Sampled Component Spectra: 1
Spectrometers: USB4C02835
Integration Time (usec): 100000 (USB4C02835)
Spectra Averaged: 1 (USB4C02835)
Boxcar Smoothing: 0 (USB4C02835)
Correct for Electrical Dark: No (USB4C02835)
Strobe/Lamp Enabled: No (USB4C02835)
Correct for Detector Non-linearity: No (USB4C02835)
Correct for Stray Light: No (USB4C02835)
Number of Pixels in Processed Spectrum: 3648
>>>>>Begin Processed Spectral Data<<<<<
177.47	1462.25
177.69	1462.25
177.91	1462.25
178.13	1478.63
178.36	1386.47
178.58	1679.33
178.80	1697.77
179.02	1587.18
179.24	1632.23
179.46	1650.66
179.68	1652.71
179.90	1671.14
180.13	1712.10
180.35	1632.23
180.57	1632.23
180.79	1703.91
181.01	1759.21
181.23	1818.60
181.45	1695.72
181.67	1726.44
181.90	1738.73
182.12	1675.24
182.34	1601.51
182.56	1783.78
182.78	1740.77
183.00	1722.34
183.22	1681.38
183.44	1570.79
183.66	1763.30
183.89	1779.68
184.11	1728.49
184.33	1669.09
184.55	1718.25
184.77	1710.05
184.99	1726.44
185.21	1683.43
185.43	1839.08
185.65	1757.16
185.87	1705.96
186.10	1839.08
186.32	1810.40
186.54	1705.96
186.76	1753.06
186.98	1701.86
187.20	1697.77
187.42	1701.86
187.64	1695.72
187.86	1695.72
188.08	1732.58
188.30	1656.81
188.52	1701.86
188.75	1832.93
188.97	1779.68
189.19	1679.33
189.41	1628.14
189.63	1736.68
189.85	1714.15
190.07	1615.85
190.29	1677.29
190.51	1759.21
190.73	1585.13
190.95	1738.73
191.17	1701.86
191.39	1605.61
191.61	1677.29
191.84	1646.57
192.06	1787.88
192.28	1660.90
192.50	1871.84
192.72	1742.82
192.94	1687.53
193.16	1728.49
193.38	1742.82
193.60	1621.99
193.82	1695.72
194.04	1714.15
194.26	1681.38
194.48	1710.05
194.70	1675.24
194.92	1759.21
195.14	1794.02
195.36	1691.62
195.58	1648.61
195.80	1634.28
196.02	1669.09
196.24	1632.23
196.46	1718.25
196.69	1607.66
196.91	1841.12
197.13	1710.05
197.35	1648.61
197.57	1755.11
197.79	1748.97
198.01	1734.63
198.23	1705.96
198.45	1738.73
198.67	1671.14
198.89	1695.72
199.11	1742.82
199.33	1636.33
199.55	1615.85
199.77	1634.28
199.99	1771.49
200.21	1718.25
200.43	1759.21
200.65	1654.76
200.87	1599.46
201.09	1722.34
201.31	1640.42
201.53	1701.86
201.75	1781.73
201.97	1697.77
202.19	1755.11
202.41	1667.05
202.63	1804.26
202.85	1763.30
203.07	1650.66
203.29	1648.61
203.51	1628.14
203.73	1695.72
203.95	1886.18
204.17	1785.83
204.39	1693.67
204.61	1658.85
204.83	1667.05
205.05	1708.01
205.27	1824.74
205.49	1794.02
205.71	1722.34
205.93	1648.61
206.15	1662.95
206.37	1644.52
206.59	1669.09
206.81	1636.33
207.03	1677.29
207.25	1624.04
207.47	1675.24
207.69	1757.16
207.91	1830.88
208.13	1808.36
208.34	1699.81
208.56	1624.04
208.78	1761.25
209.00	1708.01
209.22	1665.00
209.44	1771.49
209.66	1699.81
209.88	1640.42
210.10	1642.47
210.32	1624.04
210.54	1824.74
210.76	1656.81
210.98	1755.11
211.20	1601.51
211.42	1640.42
211.64	1779.68
211.86	1746.92
212.08	1724.39
212.30	1689.57
212.52	1648.61
212.74	1677.29
212.96	1714.15
213.17	1677.29
213.39	1751.01
213.61	1736.68
213.83	1660.90
214.05	1665.00
214.27	1736.68
214.49	1740.77
214.71	1679.33
214.93	1632.23
215.15	1714.15
215.37	1773.54
215.59	1617.90
215.81	1775.59
216.03	1724.39
216.24	1763.30
216.46	1755.11
216.68	1716.20
216.90	1748.97
217.12	1751.01
217.34	1677.29
217.56	1695.72
217.78	1777.64
218.00	1759.21
218.22	1742.82
218.44	1685.48
218.66	1783.78
218.87	1734.63
219.09	1677.29
219.31	1677.29
219.53	1701.86
219.75	1675.24
219.97	1703.91
220.19	1697.77
220.41	1718.25
220.63	1746.92
220.85	1837.03
221.06	1650.66
221.28	1720.29
221.50	1732.58
221.72	1671.14
221.94	1710.05
222.16	1708.01
222.38	1714.15
222.60	1710.05
222.82	1632.23
223.03	1695.72
223.25	1652.71
223.47	1738.73
223.69	1802.21
223.91	1671.14
224.13	1665.00
224.35	1640.42
224.57	1740.77
224.78	1730.53
225.00	1646.57
225.22	1626.09
225.44	1716.20
225.66	1730.53
225.88	1644.52
226.10	1660.90
226.32	1716.20
226.53	1794.02
226.75	1705.96
226.97	1634.28
227.19	1697.77
227.41	1595.37
227.63	1665.00
227.85	1624.04
228.06	1710.05
228.28	1656.81
228.50	1744.87
228.72	1730.53
228.94	1693.67
229.16	1595.37
229.37	1656.81
229.59	1601.51
229.81	1767.40
230.03	1656.81
230.25	1673.19
230.47	1683.43
230.69	1658.85
230.90	1712.10
231.12	1697.77
231.34	1681.38
231.56	1746.92
231.78	1599.46
232.00	1701.86
232.21	1687.53
232.43	1697.77
232.65	1595.37
232.87	1662.95
233.09	1665.00
233.30	1677.29
233.52	1728.49
233.74	1742.82
233.96	1710.05
234.18	1714.15
234.40	1673.19
234.61	1765.35
234.83	1562.60
235.05	1667.05
235.27	1898.47
235.49	1734.63
235.70	1679.33
235.92	1781.73
236.14	1710.05
236.36	1863.65
236.58	1636.33
236.79	1773.54
237.01	1732.58
237.23	1675.24
237.45	1808.36
237.67	1673.19
237.88	1712.10
238.10	1773.54
238.32	1607.66
238.54	1660.90
238.76	1673.19
238.97	1673.19
239.19	1728.49
239.41	1710.05
239.63	1765.35
239.85	1769.44
240.06	1726.44
240.28	1619.94
240.50	1742.82
240.72	1718.25
240.93	1701.86
241.15	1853.41
241.37	1677.29
241.59	1804.26
241.81	1660.90
242.02	1716.20
242.24	1703.91
242.46	1730.53
242.68	1648.61
242.89	1767.40
243.11	1730.53
243.33	1632.23
243.55	1708.01
243.76	1669.09
243.98	1615.85
244.20	1611.75
244.42	1650.66
244.64	1697.77
244.85	1656.81
245.07	1640.42
245.29	1669.09
245.51	1738.73
245.72	1761.25
245.94	1769.44
246.16	1673.19
246.38	1796.07
246.59	1673.19
246.81	1689.57
247.03	1683.43
247.24	1574.89
247.46	1677.29
247.68	1781.73
247.90	1685.48
248.11	1634.28
248.33	1728.49
248.55	1665.00
248.77	1761.25
248.98	1730.53
249.20	1814.50
249.42	1683.43
249.64	1701.86
249.85	1621.99
250.07	1660.90
250.29	1744.87
250.50	1724.39
250.72	1648.61
250.94	1689.57
251.16	1800.16
251.37	1767.40
251.59	1746.92
251.81	1718.25
252.02	1845.22
252.24	1673.19
252.46	1697.77
252.68	1681.38
252.89	1642.47
253.11	1595.37
253.33	1751.01
253.54	1861.60
253.76	1634.28
253.98	1689.57
254.20	1640.42
254.41	1636.33
254.63	1660.90
254.85	1640.42
255.06	1701.86
255.28	1644.52
255.50	1634.28
255.71	1665.00
255.93	1632.23
256.15	1744.87
256.36	1695.72
256.58	1673.19
256.80	1716.20
257.02	1716.20
257.23	1660.90
257.45	1683.43
257.67	1816.55
257.88	1599.46
258.10	1665.00
258.32	1675.24
258.53	1710.05
258.75	1791.97
258.97	1685.48
259.18	1699.81
259.40	1677.29
259.62	1777.64
259.83	1730.53
260.05	1769.44
260.27	1943.52
260.48	1658.85
260.70	1685.48
260.92	1722.34
261.13	1685.48
261.35	1665.00
261.57	1771.49
261.78	1585.13
262.00	1730.53
262.22	1693.67
262.43	1738.73
262.65	1619.94
262.86	1759.21
263.08	1855.46
263.30	1667.05
263.51	1662.95
263.73	1689.57
263.95	1779.68
264.16	1693.67
264.38	1624.04
264.60	1738.73
264.81	1626.09
265.03	1708.01
265.25	1679.33
265.46	1773.54
265.68	1746.92
265.89	1685.48
266.11	1587.18
266.33	1761.25
266.54	1710.05
266.76	1742.82
266.98	1816.55
267.19	1757.16
267.41	1781.73
267.62	1669.09
267.84	1652.71
268.06	1677.29
268.27	1751.01
268.49	1732.58
268.70	1734.63
268.92	1769.44
269.14	1697.77
269.35	1648.61
269.57	1677.29
269.79	1763.30
270.00	1685.48
270.22	1824.74
270.43	1708.01
270.65	1570.79
270.87	1673.19
271.08	1703.91
271.30	1720.29
271.51	1708.01
271.73	1748.97
271.95	1771.49
272.16	1691.62
272.38	1691.62
272.59	1693.67
272.81	1648.61
273.02	1730.53
273.24	1728.49
273.46	1828.84
273.67	1644.52
273.89	1572.84
274.10	1591.27
274.32	1755.11
274.54	1710.05
274.75	1781.73
274.97	1701.86
275.18	1742.82
275.40	1763.30
275.61	1705.96
275.83	1763.30
276.05	1650.66
276.26	1728.49
276.48	1773.54
276.69	1642.47
276.91	1634.28
277.12	1748.97
277.34	1705.96
277.55	1736.68
277.77	1683.43
277.99	1615.85
278.20	1669.09
278.42	1689.57
278.63	1626.09
278.85	1656.81
279.06	1574.89
279.28	1832.93
279.49	1837.03
279.71	1675.24
279.93	1701.86
280.14	1671.14
280.36	1640.42
280.57	1710.05
280.79	1759.21
281.00	1720.29
281.22	1658.85
281.43	1794.02
281.65	1650.66
281.86	1648.61
282.08	1767.40
282.29	1804.26
282.51	1615.85
282.73	1599.46
282.94	1656.81
283.16	1757.16
283.37	1824.74
283.59	1626.09
283.80	1691.62
284.02	1710.05
284.23	1732.58
284.45	1665.00
284.66	1621.99
284.88	1583.08
285.09	1751.01
285.31	1568.74
285.52	1734.63
285.74	1632.23
285.95	1726.44
286.17	1665.00
286.38	1728.49
286.60	1685.48
286.81	1720.29
287.03	1562.60
287.24	1701.86
287.46	1646.57
287.67	1724.39
287.89	1777.64
288.10	1634.28
288.32	1671.14
288.53	1800.16
288.75	1660.90
288.96	1753.06
289.18	1734.63
289.39	1734.63
289.61	1728.49
289.82	1759.21
290.04	1755.11
290.25	1648.61
290.47	1640.42
290.68	1730.53
290.90	1734.63
291.11	1679.33
291.33	1781.73
291.54	1669.09
291.76	1681.38
291.97	1665.00
292.18	1650.66
292.40	1665.00
292.61	1718.25
292.83	1871.84
293.04	1716.20
293.26	1624.04
293.47	1687.53
293.69	1632.23
293.90	1722.34
294.12	1730.53
294.33	1603.56
294.55	1699.81
294.76	1697.77
294.97	1791.97
295.19	1789.92
295.40	1683.43
295.62	1763.30
295.83	1718.25
296.05	1730.53
296.26	1746.92
296.48	1677.29
296.69	1660.90
296.90	1755.11
297.12	1691.62
297.33	1773.54
297.55	1693.67
297.76	1697.77
297.98	1701.86
298.19	1673.19
298.41	1705.96
298.62	1720.29
298.83	1658.85
299.05	1681.38
299.26	1681.38
299.48	1695.72
299.69	1761.25
299.90	1732.58
300.12	1597.42
300.33	1714.15
300.55	1679.33
300.76	1632.23
300.98	1552.36
301.19	1662.95
301.40	1675.24
301.62	1693.67
301.83	1705.96
302.05	1660.90
302.26	1705.96
302.47	1716.20
302.69	1621.99
302.90	1773.54
303.12	1503.21
303.33	1744.87
303.54	1773.54
303.76	1695.72
303.97	1710.05
304.19	1855.46
304.40	1591.27
304.61	1726.44
304.83	1751.01
305.04	1726.44
305.26	1724.39
305.47	1654.76
305.68	1695.72
305.90	1619.94
306.11	1761.25
306.33	1671.14
306.54	1656.81
306.75	1554.41
306.97	1695.72
307.18	1636.33
307.39	1624.04
307.61	1820.64
307.82	1650.66
308.04	1665.00
308.25	1691.62
308.46	1710.05
308.68	1687.53
308.89	1669.09
309.10	1773.54
309.32	1720.29
309.53	1697.77
309.74	1748.97
309.96	1734.63
310.17	1767.40
310.39	1701.86
310.60	1773.54
310.81	1638.38
311.03	1621.99
311.24	1734.63
311.45	1648.61
311.67	1826.79
311.88	1734.63
312.09	1687.53
312.31	1691.62
312.52	1650.66
312.73	1718.25
312.95	1619.94
313.16	1681.38
313.37	1748.97
313.59	1724.39
313.80	1730.53
314.01	1763.30
314.23	1722.34
314.44	1644.52
314.65	1621.99
314.87	1640.42
315.08	1705.96
315.29	1730.53
315.51	1587.18
315.72	1656.81
315.93	1757.16
316.15	1800.16
316.36	1691.62
316.57	1679.33
316.79	1697.77
317.00	1621.99
317.21	1773.54
317.43	1677.29
317.64	1691.62
317.85	1650.66
318.07	1697.77
318.28	1806.31
318.49	1769.44
318.70	1814.50
318.92	1869.80
319.13	1800.16
319.34	1849.32
319.56	1857.51
319.77	1779.68
319.98	1820.64
320.20	1759.21
320.41	1789.92
320.62	1742.82
320.83	1654.76
321.05	1875.94
321.26	1748.97
321.47	1640.42
321.69	1742.82
321.90	1648.61
322.11	1689.57
322.32	1691.62
322.54	1738.73
322.75	1703.91
322.96	1853.41
323.18	1544.17
323.39	1679.33
323.60	1726.44
323.81	1701.86
324.03	1652.71
324.24	1683.43
324.45	1705.96
324.66	1683.43
324.88	1693.67
325.09	1814.50
325.30	1701.86
325.52	1648.61
325.73	1683.43
325.94	1648.61
326.15	1710.05
326.37	1652.71
326.58	1767.40
326.79	1708.01
327.00	1652.71
327.22	1720.29
327.43	1650.66
327.64	1564.65
327.85	1705.96
328.07	1730.53
328.28	1800.16
328.49	1705.96
328.70	1730.53
328.92	1673.19
329.13	1652.71
329.34	1742.82
329.55	1787.88
329.76	1779.68
329.98	1683.43
330.19	1798.12
330.40	1783.78
330.61	1632.23
330.83	1697.77
331.04	1585.13
331.25	1726.44
331.46	1681.38
331.68	1644.52
331.89	1746.92
332.10	1712.10
332.31	1673.19
332.52	1726.44
332.74	1759.21
332.95	1632.23
333.16	1662.95
333.37	1781.73
333.58	1583.08
333.80	1726.44
334.01	1648.61
334.22	1640.42
334.43	1699.81
334.64	1679.33
334.86	1644.52
335.07	1703.91
335.28	1730.53
335.49	1677.29
335.70	1763.30
335.92	1712.10
336.13	1869.80
336.34	1765.35
336.55	1722.34
336.76	1718.25
336.98	1671.14
337.19	1724.39
337.40	1730.53
337.61	1867.75
337.82	1652.71
338.04	1779.68
338.25	1626.09
338.46	1589.22
338.67	1662.95
338.88	1628.14
339.09	1683.43
339.31	1662.95
339.52	1638.38
339.73	1619.94
339.94	1705.96
340.15	1742.82
340.36	1740.77
340.58	1720.29
340.79	1601.51
341.00	1722.34
341.21	1566.70
341.42	1773.54
341.63	1665.00
341.85	1712.10
342.06	1648.61
342.27	1628.14
342.48	1761.25
342.69	1646.57
342.90	1691.62
343.12	1722.34
343.33	1644.52
343.54	1802.21
343.75	1806.31
343.96	1660.90
344.17	1685.48
344.38	1665.00
344.60	1617.90
344.81	1626.09
345.02	1732.58
345.23	1787.88
345.44	1804.26
345.65	1736.68
345.86	1738.73
346.07	1687.53
346.29	1732.58
346.50	1763.30
346.71	1665.00
346.92	1673.19
347.13	1751.01
347.34	1728.49
347.55	1667.05
347.76	1708.01
347.98	1624.04
348.19	1689.57
348.40	1732.58
348.61	1693.67
348.82	1820.64
349.03	1701.86
349.24	1609.70
349.45	1847.27
349.66	1601.51
349.88	1705.96
350.09	1656.81
350.30	1746.92
350.51	1789.92
350.72	1658.85
350.93	1699.81
351.14	1703.91
351.35	1787.88
351.56	1740.77
351.77	1640.42
351.99	1701.86
352.20	1771.49
352.41	1720.29
352.62	1632.23
352.83	1667.05
353.04	1705.96
353.25	1658.85
353.46	1730.53
353.67	1710.05
353.88	1609.70
354.09	1662.95
354.30	1687.53
354.52	1718.25
354.73	1681.38
354.94	1642.47
355.15	1734.63
355.36	1738.73
355.57	1636.33
355.78	1751.01
355.99	1601.51
356.20	1646.57
356.41	1677.29
356.62	1728.49
356.83	1679.33
357.04	1755.11
357.25	1624.04
357.46	1751.01
357.68	1617.90
357.89	1609.70
358.10	1675.24
358.31	1748.97
358.52	1652.71
358.73	1658.85
358.94	1636.33
359.15	1605.61
359.36	1808.36
359.57	1763.30
359.78	1675.24
359.99	1656.81
360.20	1607.66
360.41	1671.14
360.62	1710.05
360.83	1683.43
361.04	1732.58
361.25	1703.91
361.46	1816.55
361.67	1708.01
361.88	1753.06
362.09	1763.30
362.30	1705.96
362.51	1640.42
362.72	1685.48
362.93	1818.60
363.14	1726.44
363.35	1794.02
363.56	1619.94
363.78	1744.87
363.99	1785.83
364.20	1644.52
364.41	1771.49
364.62	1777.64
364.83	1744.87
365.04	1652.71
365.25	1683.43
365.46	1808.36
365.67	1630.18
365.88	1628.14
366.09	1656.81
366.30	1720.29
366.51	1681.38
366.72	1626.09
366.93	1685.48
367.14	1726.44
367.35	1777.64
367.56	1640.42
367.77	1816.55
367.98	1699.81
368.18	1722.34
368.39	1695.72
368.60	1589.22
368.81	1697.77
369.02	1740.77
369.23	1607.66
369.44	1585.13
369.65	1683.43
369.86	1726.44
370.07	1769.44
370.28	1644.52
370.49	1765.35
370.70	1740.77
370.91	1595.37
371.12	1599.46
371.33	1816.55
371.54	1665.00
371.75	1783.78
371.96	1658.85
372.17	1738.73
372.38	1650.66
372.59	1730.53
372.80	1773.54
373.01	1685.48
373.22	1689.57
373.43	1720.29
373.64	1599.46
373.85	1796.07
374.06	1822.69
374.26	1744.87
374.47	1748.97
374.68	1734.63
374.89	1646.57
375.10	1679.33
375.31	1820.64
375.52	1695.72
375.73	1712.10
375.94	1636.33
376.15	1779.68
376.36	1689.57
376.57	1675.24
376.78	1650.66
376.99	1699.81
377.20	1669.09
377.40	1632.23
377.61	1779.68
377.82	1650.66
378.03	1699.81
378.24	1699.81
378.45	1703.91
378.66	1722.34
378.87	1603.56
379.08	1591.27
379.29	1656.81
379.50	1705.96
379.71	1642.47
379.91	1730.53
380.12	1683.43
380.33	1658.85
380.54	1671.14
380.75	1722.34
380.96	1681.38
381.17	1787.88
381.38	1673.19
381.59	1740.77
381.80	1748.97
382.00	1894.37
382.21	1808.36
382.42	1857.51
382.63	1923.04
382.84	1751.01
383.05	1740.77
383.26	1789.92
383.47	1705.96
383.68	1748.97
383.88	1732.58
384.09	1677.29
384.30	1849.32
384.51	1773.54
384.72	1687.53
384.93	1644.52
385.14	1710.05
385.35	1767.40
385.55	1675.24
385.76	1746.92
385.97	1679.33
386.18	1624.04
386.39	1673.19
386.60	1677.29
386.81	1640.42
387.02	1677.29
387.22	1658.85
387.43	1736.68
387.64	1791.97
387.85	1814.50
388.06	2138.08
388.27	4372.41
388.48	6854.55
388.68	8275.84
388.89	9621.36
389.10	9881.45
389.31	8703.87
389.52	7612.30
389.73	6723.48
389.93	6465.44
390.14	5861.29
390.35	5187.50
390.56	4534.20
390.77	3739.59
390.98	3041.23
391.18	2482.14
391.39	2115.55
391.60	1808.36
391.81	1822.69
392.02	1699.81
392.23	1839.08
392.43	1716.20
392.64	1777.64
392.85	1712.10
393.06	1843.17
393.27	1765.35
393.47	1697.77
393.68	1742.82
393.89	1677.29
394.10	1794.02
394.31	1724.39
394.52	1654.76
394.72	1644.52
394.93	1785.83
395.14	1626.09
395.35	1759.21
395.56	1677.29
395.76	1708.01
395.97	1798.12
396.18	1861.60
396.39	1845.22
396.60	2062.30
396.80	1892.32
397.01	1875.94
397.22	1820.64
397.43	1845.22
397.64	1673.19
397.84	1849.32
398.05	1882.08
398.26	1728.49
398.47	1742.82
398.67	1722.34
398.88	1794.02
399.09	1695.72
399.30	1654.76
399.51	1691.62
399.71	1587.18
399.92	1671.14
400.13	1773.54
400.34	1785.83
400.54	1677.29
400.75	1759.21
400.96	1798.12
401.17	1851.36
401.37	1759.21
401.58	1650.66
401.79	1744.87
402.00	1888.23
402.21	1939.43
402.41	1947.62
402.62	1947.62
402.83	1984.48
403.04	2058.21
403.24	2045.92
403.45	1798.12
403.66	1910.75
403.87	1906.66
404.07	1933.28
404.28	1900.52
404.49	1845.22
404.70	1677.29
404.90	1818.60
405.11	1722.34
405.32	1726.44
405.52	1640.42
405.73	1632.23
405.94	1640.42
406.15	1679.33
406.35	1728.49
406.56	1662.95
406.77	1730.53
406.98	1720.29
407.18	1640.42
407.39	1791.97
407.60	1673.19
407.80	1683.43
408.01	1650.66
408.22	1740.77
408.43	1687.53
408.63	1769.44
408.84	1777.64
409.05	1814.50
409.25	1656.81
409.46	1662.95
409.67	1705.96
409.88	1681.38
410.08	1624.04
410.29	1650.66
410.50	1742.82
410.70	1783.78
410.91	1644.52
411.12	1677.29
411.32	1656.81
411.53	1667.05
411.74	1755.11
411.95	1763.30
412.15	1742.82
412.36	1804.26
412.57	1697.77
412.77	1808.36
412.98	1662.95
413.19	1673.19
413.39	1753.06
413.60	1660.90
413.81	1847.27
414.01	1624.04
414.22	1710.05
414.43	1697.77
414.63	1724.39
414.84	1828.84
415.05	1667.05
415.25	1665.00
415.46	1640.42
415.67	1720.29
415.87	1755.11
416.08	1701.86
416.29	1675.24
416.49	1675.24
416.70	1677.29
416.91	1699.81
417.11	1658.85
417.32	1826.79
417.53	1779.68
417.73	1624.04
417.94	1712.10
418.15	1830.88
418.35	1726.44
418.56	1697.77
418.77	1761.25
418.97	1669.09
419.18	1671.14
419.38	1587.18
419.59	1708.01
419.80	1783.78
420.00	1624.04
420.21	1662.95
420.42	1751.01
420.62	1617.90
420.83	1699.81
421.04	1617.90
421.24	1779.68
421.45	1693.67
421.65	1771.49
421.86	1675.24
422.07	1712.10
422.27	1730.53
422.48	1728.49
422.69	1673.19
422.89	1689.57
423.10	1712.10
423.30	1648.61
423.51	1693.67
423.72	1832.93
423.92	1724.39
424.13	1660.90
424.33	1677.29
424.54	1769.44
424.75	1714.15
424.95	1769.44
425.16	1685.48
425.36	1701.86
425.57	1714.15
425.78	1740.77
425.98	1718.25
426.19	1628.14
426.39	1595.37
426.60	1693.67
426.81	1812.45
427.01	1730.53
427.22	1656.81
427.42	1562.60
427.63	1636.33
427.83	1722.34
428.04	1773.54
428.25	1785.83
428.45	1816.55
428.66	1693.67
428.86	1755.11
429.07	1699.81
429.28	1746.92
429.48	1697.77
429.69	1662.95
429.89	1681.38
430.10	1591.27
430.30	1738.73
430.51	1837.03
430.71	1687.53
430.92	1693.67
431.13	1695.72
431.33	1652.71
431.54	1726.44
431.74	1789.92
431.95	1837.03
432.15	1689.57
432.36	1703.91
432.56	1744.87
432.77	1783.78
432.98	1886.18
433.18	1701.86
433.39	1697.77
433.59	1834.98
433.80	1755.11
434.00	1826.79
434.21	1724.39
434.41	1679.33
434.62	1839.08
434.82	1697.77
435.03	1634.28
435.23	1708.01
435.44	1595.37
435.64	1685.48
435.85	1730.53
436.06	1779.68
436.26	1736.68
436.47	1693.67
436.67	1681.38
436.88	1726.44
437.08	1724.39
437.29	1769.44
437.49	1671.14
437.70	1712.10
437.90	1718.25
438.11	1814.50
438.31	1830.88
438.52	1820.64
438.72	1869.80
438.93	1880.04
439.13	1748.97
439.34	1796.07
439.54	1771.49
439.75	1826.79
439.95	1746.92
440.16	1738.73
440.36	1757.16
440.57	1728.49
440.77	1763.30
440.98	1740.77
441.18	1769.44
441.39	1701.86
441.59	1615.85
441.80	1718.25
442.00	1769.44
442.21	1746.92
442.41	1693.67
442.62	1779.68
442.82	1681.38
443.02	1718.25
443.23	1703.91
443.43	1705.96
443.64	1775.59
443.84	1601.51
444.05	1757.16
444.25	1761.25
444.46	1714.15
444.66	1720.29
444.87	1849.32
445.07	1662.95
445.28	1732.58
445.48	1822.69
445.69	1742.82
445.89	1851.36
446.09	1726.44
446.30	2019.30
446.50	2760.66
446.71	3794.89
446.91	4401.08
447.12	4683.70
447.32	4917.17
447.53	4310.97
447.73	3839.94
447.93	3563.47
448.14	3250.13
448.34	3129.30
448.55	2871.25
448.75	2836.44
448.96	2678.74
449.16	2410.46
449.36	2174.94
449.57	2056.16
449.77	1849.32
449.98	1710.05
450.18	1746.92
450.39	1773.54
450.59	1828.84
450.79	1791.97
451.00	1667.05
451.20	1724.39
451.41	1773.54
451.61	1746.92
451.81	1734.63
452.02	1673.19
452.22	1695.72
452.43	1746.92
452.63	1720.29
