SpectraSuite Data File
++++++++++++++++++++++++++++++++++++
Date: Mon Jun 06 12:50:17 CEST 2016
User: root
Dark Spectrum Present: No
Reference Spectrum Present: No
Number of Sampled Component Spectra: 1
Spectrometers: USB4C02835
Integration Time (usec): 100000 (USB4C02835)
Spectra Averaged: 1 (USB4C02835)
Boxcar Smoothing: 0 (USB4C02835)
Correct for Electrical Dark: No (USB4C02835)
Strobe/Lamp Enabled: No (USB4C02835)
Correct for Detector Non-linearity: No (USB4C02835)
Correct for Stray Light: No (USB4C02835)
Number of Pixels in Processed Spectrum: 3648
>>>>>Begin Processed Spectral Data<<<<<
177.47	1472.49
177.69	1472.49
177.91	1472.49
178.13	1435.63
178.36	1456.11
178.58	1550.31
178.80	1708.01
179.02	1658.85
179.24	1648.61
179.46	1656.81
179.68	1757.16
179.90	1763.30
180.13	1726.44
180.35	1630.18
180.57	1701.86
180.79	1693.67
181.01	1679.33
181.23	1673.19
181.45	1662.95
181.67	1751.01
181.90	1822.69
182.12	1660.90
182.34	1681.38
182.56	1671.14
182.78	1785.83
183.00	1734.63
183.22	1708.01
183.44	1683.43
183.66	1865.70
183.89	1808.36
184.11	1744.87
184.33	1644.52
184.55	1767.40
184.77	1697.77
184.99	1736.68
185.21	1662.95
185.43	1820.64
185.65	1615.85
185.87	1744.87
186.10	1834.98
186.32	1853.41
186.54	1652.71
186.76	1810.40
186.98	1791.97
187.20	1640.42
187.42	1628.14
187.64	1730.53
187.86	1755.11
188.08	1714.15
188.30	1720.29
188.52	1675.24
188.75	1769.44
188.97	1740.77
189.19	1662.95
189.41	1656.81
189.63	1722.34
189.85	1630.18
190.07	1640.42
190.29	1634.28
190.51	1738.73
190.73	1587.18
190.95	1806.31
191.17	1730.53
191.39	1617.90
191.61	1681.38
191.84	1644.52
192.06	1740.77
192.28	1538.02
192.50	1837.03
192.72	1687.53
192.94	1667.05
193.16	1763.30
193.38	1699.81
193.60	1662.95
193.82	1611.75
194.04	1826.79
194.26	1763.30
194.48	1699.81
194.70	1689.57
194.92	1712.10
195.14	1736.68
195.36	1613.80
195.58	1712.10
195.80	1662.95
196.02	1697.77
196.24	1724.39
196.46	1759.21
196.69	1724.39
196.91	1861.60
197.13	1767.40
197.35	1726.44
197.57	1740.77
197.79	1658.85
198.01	1705.96
198.23	1748.97
198.45	1738.73
198.67	1650.66
198.89	1730.53
199.11	1703.91
199.33	1646.57
199.55	1609.70
199.77	1654.76
199.99	1783.78
200.21	1652.71
200.43	1673.19
200.65	1636.33
200.87	1599.46
201.09	1681.38
201.31	1693.67
201.53	1753.06
201.75	1648.61
201.97	1708.01
202.19	1722.34
202.41	1724.39
202.63	1787.88
202.85	1751.01
203.07	1720.29
203.29	1761.25
203.51	1701.86
203.73	1691.62
203.95	1880.04
204.17	1724.39
204.39	1751.01
204.61	1681.38
204.83	1607.66
205.05	1673.19
205.27	1755.11
205.49	1826.79
205.71	1660.90
205.93	1599.46
206.15	1650.66
206.37	1710.05
206.59	1669.09
206.81	1769.44
207.03	1626.09
207.25	1673.19
207.47	1697.77
207.69	1820.64
207.91	1761.25
208.13	1701.86
208.34	1679.33
208.56	1648.61
208.78	1755.11
209.00	1644.52
209.22	1689.57
209.44	1640.42
209.66	1665.00
209.88	1832.93
210.10	1648.61
210.32	1638.38
210.54	1695.72
210.76	1607.66
210.98	1740.77
211.20	1570.79
211.42	1753.06
211.64	1685.48
211.86	1738.73
212.08	1738.73
212.30	1714.15
212.52	1693.67
212.74	1691.62
212.96	1714.15
213.17	1685.48
213.39	1814.50
213.61	1759.21
213.83	1683.43
214.05	1697.77
214.27	1802.21
214.49	1583.08
214.71	1611.75
214.93	1751.01
215.15	1697.77
215.37	1769.44
215.59	1601.51
215.81	1689.57
216.03	1714.15
216.24	1654.76
216.46	1710.05
216.68	1738.73
216.90	1751.01
217.12	1712.10
217.34	1748.97
217.56	1658.85
217.78	1818.60
218.00	1779.68
218.22	1667.05
218.44	1701.86
218.66	1744.87
218.87	1822.69
219.09	1658.85
219.31	1744.87
219.53	1738.73
219.75	1703.91
219.97	1671.14
220.19	1730.53
220.41	1673.19
220.63	1789.92
220.85	1730.53
221.06	1714.15
221.28	1775.59
221.50	1714.15
221.72	1742.82
221.94	1695.72
222.16	1767.40
222.38	1695.72
222.60	1701.86
222.82	1773.54
223.03	1701.86
223.25	1626.09
223.47	1710.05
223.69	1763.30
223.91	1757.16
224.13	1667.05
224.35	1634.28
224.57	1773.54
224.78	1673.19
225.00	1605.61
225.22	1685.48
225.44	1632.23
225.66	1689.57
225.88	1609.70
226.10	1824.74
226.32	1714.15
226.53	1779.68
226.75	1677.29
226.97	1683.43
227.19	1703.91
227.41	1630.18
227.63	1576.94
227.85	1574.89
228.06	1671.14
228.28	1693.67
228.50	1794.02
228.72	1660.90
228.94	1662.95
229.16	1568.74
229.37	1632.23
229.59	1626.09
229.81	1732.58
230.03	1656.81
230.25	1578.98
230.47	1607.66
230.69	1611.75
230.90	1730.53
231.12	1665.00
231.34	1748.97
231.56	1761.25
231.78	1665.00
232.00	1658.85
232.21	1708.01
232.43	1617.90
232.65	1517.54
232.87	1685.48
233.09	1675.24
233.30	1740.77
233.52	1771.49
233.74	1667.05
233.96	1677.29
234.18	1777.64
234.40	1650.66
234.61	1771.49
234.83	1621.99
235.05	1644.52
235.27	1896.42
235.49	1771.49
235.70	1687.53
235.92	1765.35
236.14	1662.95
236.36	1849.32
236.58	1675.24
236.79	1810.40
237.01	1667.05
237.23	1617.90
237.45	1849.32
237.67	1581.03
237.88	1708.01
238.10	1810.40
238.32	1705.96
238.54	1650.66
238.76	1654.76
238.97	1701.86
239.19	1671.14
239.41	1748.97
239.63	1683.43
239.85	1650.66
240.06	1648.61
240.28	1665.00
240.50	1773.54
240.72	1716.20
240.93	1671.14
241.15	1701.86
241.37	1667.05
241.59	1726.44
241.81	1689.57
242.02	1748.97
242.24	1726.44
242.46	1748.97
242.68	1621.99
242.89	1630.18
243.11	1720.29
243.33	1585.13
243.55	1722.34
243.76	1730.53
243.98	1656.81
244.20	1644.52
244.42	1712.10
244.64	1746.92
244.85	1640.42
245.07	1646.57
245.29	1751.01
245.51	1632.23
245.72	1679.33
245.94	1828.84
246.16	1697.77
246.38	1722.34
246.59	1720.29
246.81	1669.09
247.03	1660.90
247.24	1624.04
247.46	1681.38
247.68	1744.87
247.90	1654.76
248.11	1714.15
248.33	1671.14
248.55	1701.86
248.77	1734.63
248.98	1722.34
249.20	1699.81
249.42	1673.19
249.64	1794.02
249.85	1632.23
250.07	1687.53
250.29	1665.00
250.50	1748.97
250.72	1695.72
250.94	1746.92
251.16	1898.47
251.37	1744.87
251.59	1736.68
251.81	1660.90
252.02	1826.79
252.24	1603.56
252.46	1812.45
252.68	1687.53
252.89	1703.91
253.11	1638.38
253.33	1777.64
253.54	1740.77
253.76	1675.24
253.98	1652.71
254.20	1710.05
254.41	1638.38
254.63	1712.10
254.85	1619.94
255.06	1744.87
255.28	1708.01
255.50	1740.77
255.71	1736.68
255.93	1658.85
256.15	1621.99
256.36	1738.73
256.58	1689.57
256.80	1660.90
257.02	1669.09
257.23	1775.59
257.45	1718.25
257.67	1685.48
257.88	1638.38
258.10	1744.87
258.32	1683.43
258.53	1697.77
258.75	1789.92
258.97	1611.75
259.18	1665.00
259.40	1695.72
259.62	1847.27
259.83	1714.15
260.05	1783.78
260.27	1980.39
260.48	1755.11
260.70	1609.70
260.92	1650.66
261.13	1753.06
261.35	1667.05
261.57	1722.34
261.78	1648.61
262.00	1572.84
262.22	1689.57
262.43	1660.90
262.65	1652.71
262.86	1722.34
263.08	1802.21
263.30	1628.14
263.51	1585.13
263.73	1638.38
263.95	1847.27
264.16	1554.41
264.38	1597.42
264.60	1710.05
264.81	1705.96
265.03	1804.26
265.25	1761.25
265.46	1665.00
265.68	1746.92
265.89	1748.97
266.11	1607.66
266.33	1765.35
266.54	1742.82
266.76	1699.81
266.98	1763.30
267.19	1740.77
267.41	1775.59
267.62	1755.11
267.84	1660.90
268.06	1744.87
268.27	1652.71
268.49	1748.97
268.70	1777.64
268.92	1732.58
269.14	1744.87
269.35	1603.56
269.57	1681.38
269.79	1665.00
270.00	1722.34
270.22	1759.21
270.43	1683.43
270.65	1652.71
270.87	1660.90
271.08	1722.34
271.30	1699.81
271.51	1691.62
271.73	1691.62
271.95	1767.40
272.16	1658.85
272.38	1714.15
272.59	1642.47
272.81	1763.30
273.02	1710.05
273.24	1761.25
273.46	1732.58
273.67	1583.08
273.89	1611.75
274.10	1626.09
274.32	1748.97
274.54	1671.14
274.75	1751.01
274.97	1701.86
275.18	1732.58
275.40	1685.48
275.61	1722.34
275.83	1673.19
276.05	1578.98
276.26	1699.81
276.48	1726.44
276.69	1658.85
276.91	1632.23
277.12	1785.83
277.34	1775.59
277.55	1785.83
277.77	1667.05
277.99	1708.01
278.20	1636.33
278.42	1695.72
278.63	1609.70
278.85	1660.90
279.06	1581.03
279.28	1755.11
279.49	1775.59
279.71	1720.29
279.93	1679.33
280.14	1634.28
280.36	1652.71
280.57	1699.81
280.79	1763.30
281.00	1607.66
281.22	1640.42
281.43	1816.55
281.65	1621.99
281.86	1691.62
282.08	1734.63
282.29	1847.27
282.51	1660.90
282.73	1652.71
282.94	1626.09
283.16	1751.01
283.37	1806.31
283.59	1650.66
283.80	1683.43
284.02	1648.61
284.23	1789.92
284.45	1665.00
284.66	1624.04
284.88	1652.71
285.09	1808.36
285.31	1755.11
285.52	1673.19
285.74	1587.18
285.95	1755.11
286.17	1703.91
286.38	1742.82
286.60	1642.47
286.81	1687.53
287.03	1755.11
287.24	1685.48
287.46	1767.40
287.67	1683.43
287.89	1804.26
288.10	1656.81
288.32	1708.01
288.53	1755.11
288.75	1681.38
288.96	1773.54
289.18	1716.20
289.39	1658.85
289.61	1751.01
289.82	1824.74
290.04	1740.77
290.25	1607.66
290.47	1693.67
290.68	1648.61
290.90	1759.21
291.11	1640.42
291.33	1703.91
291.54	1679.33
291.76	1648.61
291.97	1697.77
292.18	1716.20
292.40	1738.73
292.61	1681.38
292.83	1810.40
293.04	1767.40
293.26	1632.23
293.47	1611.75
293.69	1701.86
293.90	1681.38
294.12	1716.20
294.33	1710.05
294.55	1708.01
294.76	1730.53
294.97	1763.30
295.19	1841.12
295.40	1736.68
295.62	1726.44
295.83	1783.78
296.05	1581.03
296.26	1712.10
296.48	1675.24
296.69	1630.18
296.90	1724.39
297.12	1736.68
297.33	1806.31
297.55	1671.14
297.76	1665.00
297.98	1759.21
298.19	1746.92
298.41	1679.33
298.62	1669.09
298.83	1814.50
299.05	1685.48
299.26	1621.99
299.48	1759.21
299.69	1738.73
299.90	1705.96
300.12	1708.01
300.33	1730.53
300.55	1656.81
300.76	1710.05
300.98	1638.38
301.19	1732.58
301.40	1724.39
301.62	1769.44
301.83	1765.35
302.05	1730.53
302.26	1765.35
302.47	1650.66
302.69	1687.53
302.90	1685.48
303.12	1591.27
303.33	1699.81
303.54	1767.40
303.76	1671.14
303.97	1791.97
304.19	1744.87
304.40	1673.19
304.61	1746.92
304.83	1759.21
305.04	1681.38
305.26	1769.44
305.47	1648.61
305.68	1732.58
305.90	1613.80
306.11	1748.97
306.33	1634.28
306.54	1720.29
306.75	1736.68
306.97	1652.71
307.18	1599.46
307.39	1675.24
307.61	1746.92
307.82	1679.33
308.04	1689.57
308.25	1658.85
308.46	1724.39
308.68	1775.59
308.89	1695.72
309.10	1877.99
309.32	1722.34
309.53	1613.80
309.74	1665.00
309.96	1656.81
310.17	1726.44
310.39	1701.86
310.60	1734.63
310.81	1654.76
311.03	1667.05
311.24	1722.34
311.45	1755.11
311.67	1796.07
311.88	1714.15
312.09	1630.18
312.31	1624.04
312.52	1677.29
312.73	1605.61
312.95	1591.27
313.16	1693.67
313.37	1798.12
313.59	1775.59
313.80	1703.91
314.01	1808.36
314.23	1695.72
314.44	1644.52
314.65	1671.14
314.87	1714.15
315.08	1607.66
315.29	1699.81
315.51	1691.62
315.72	1589.22
315.93	1822.69
316.15	1701.86
316.36	1613.80
316.57	1658.85
316.79	1724.39
317.00	1662.95
317.21	1699.81
317.43	1785.83
317.64	1720.29
317.85	1718.25
318.07	1609.70
318.28	1691.62
318.49	1787.88
318.70	1810.40
318.92	1794.02
319.13	1845.22
319.34	1841.12
319.56	1841.12
319.77	1746.92
319.98	1796.07
320.20	1812.45
320.41	1765.35
320.62	1722.34
320.83	1656.81
321.05	1798.12
321.26	1601.51
321.47	1822.69
321.69	1759.21
321.90	1652.71
322.11	1761.25
322.32	1724.39
322.54	1796.07
322.75	1763.30
322.96	1873.89
323.18	1619.94
323.39	1644.52
323.60	1714.15
323.81	1751.01
324.03	1675.24
324.24	1746.92
324.45	1658.85
324.66	1677.29
324.88	1675.24
325.09	1763.30
325.30	1734.63
325.52	1677.29
325.73	1722.34
325.94	1585.13
326.15	1638.38
326.37	1646.57
326.58	1685.48
326.79	1830.88
327.00	1679.33
327.22	1603.56
327.43	1740.77
327.64	1652.71
327.85	1705.96
328.07	1669.09
328.28	1804.26
328.49	1660.90
328.70	1712.10
328.92	1732.58
329.13	1654.76
329.34	1648.61
329.55	1810.40
329.76	1742.82
329.98	1669.09
330.19	1738.73
330.40	1761.25
330.61	1658.85
330.83	1771.49
331.04	1660.90
331.25	1675.24
331.46	1669.09
331.68	1595.37
331.89	1761.25
332.10	1703.91
332.31	1605.61
332.52	1771.49
332.74	1789.92
332.95	1652.71
333.16	1675.24
333.37	1806.31
333.58	1642.47
333.80	1703.91
334.01	1656.81
334.22	1619.94
334.43	1755.11
334.64	1722.34
334.86	1683.43
335.07	1619.94
335.28	1812.45
335.49	1624.04
335.70	1701.86
335.92	1779.68
336.13	1869.80
336.34	1832.93
336.55	1693.67
336.76	1722.34
336.98	1699.81
337.19	1734.63
337.40	1744.87
337.61	1828.84
337.82	1691.62
338.04	1744.87
338.25	1626.09
338.46	1595.37
338.67	1730.53
338.88	1667.05
339.09	1607.66
339.31	1626.09
339.52	1587.18
339.73	1701.86
339.94	1742.82
340.15	1755.11
340.36	1583.08
340.58	1685.48
340.79	1718.25
341.00	1767.40
341.21	1593.32
341.42	1882.08
341.63	1648.61
341.85	1697.77
342.06	1753.06
342.27	1685.48
342.48	1736.68
342.69	1599.46
342.90	1800.16
343.12	1740.77
343.33	1687.53
343.54	1783.78
343.75	1804.26
343.96	1726.44
344.17	1673.19
344.38	1689.57
344.60	1708.01
344.81	1677.29
345.02	1691.62
345.23	1695.72
345.44	1806.31
345.65	1630.18
345.86	1708.01
346.07	1718.25
346.29	1650.66
346.50	1730.53
346.71	1734.63
346.92	1734.63
347.13	1808.36
347.34	1705.96
347.55	1691.62
347.76	1660.90
347.98	1634.28
348.19	1701.86
348.40	1806.31
348.61	1710.05
348.82	1751.01
349.03	1742.82
349.24	1693.67
349.45	1841.12
349.66	1550.31
349.88	1681.38
350.09	1593.32
350.30	1708.01
350.51	1804.26
350.72	1693.67
350.93	1769.44
351.14	1697.77
351.35	1736.68
351.56	1697.77
351.77	1667.05
351.99	1683.43
352.20	1746.92
352.41	1617.90
352.62	1640.42
352.83	1730.53
353.04	1767.40
353.25	1726.44
353.46	1755.11
353.67	1759.21
353.88	1607.66
354.09	1697.77
354.30	1761.25
354.52	1665.00
354.73	1697.77
354.94	1679.33
355.15	1730.53
355.36	1804.26
355.57	1701.86
355.78	1742.82
355.99	1681.38
356.20	1673.19
356.41	1742.82
356.62	1755.11
356.83	1722.34
357.04	1791.97
357.25	1632.23
357.46	1691.62
357.68	1601.51
357.89	1689.57
358.10	1730.53
358.31	1699.81
358.52	1642.47
358.73	1679.33
358.94	1605.61
359.15	1701.86
359.36	1656.81
359.57	1716.20
359.78	1689.57
359.99	1740.77
360.20	1687.53
360.41	1593.32
360.62	1769.44
360.83	1708.01
361.04	1746.92
361.25	1644.52
361.46	1769.44
361.67	1724.39
361.88	1753.06
362.09	1712.10
362.30	1699.81
362.51	1681.38
362.72	1708.01
362.93	1718.25
363.14	1841.12
363.35	1722.34
363.56	1615.85
363.78	1761.25
363.99	1744.87
364.20	1675.24
364.41	1724.39
364.62	1810.40
364.83	1687.53
365.04	1677.29
365.25	1640.42
365.46	1755.11
365.67	1689.57
365.88	1669.09
366.09	1675.24
366.30	1712.10
366.51	1638.38
366.72	1640.42
366.93	1681.38
367.14	1720.29
367.35	1800.16
367.56	1703.91
367.77	1816.55
367.98	1722.34
368.18	1746.92
368.39	1796.07
368.60	1581.03
368.81	1738.73
369.02	1662.95
369.23	1685.48
369.44	1603.56
369.65	1710.05
369.86	1710.05
370.07	1746.92
370.28	1660.90
370.49	1654.76
370.70	1746.92
370.91	1644.52
371.12	1638.38
371.33	1755.11
371.54	1689.57
371.75	1794.02
371.96	1558.50
372.17	1681.38
372.38	1726.44
372.59	1724.39
372.80	1738.73
373.01	1687.53
373.22	1677.29
373.43	1720.29
373.64	1646.57
373.85	1763.30
374.06	1857.51
374.26	1740.77
374.47	1718.25
374.68	1818.60
374.89	1732.58
375.10	1656.81
375.31	1796.07
375.52	1763.30
375.73	1722.34
375.94	1689.57
376.15	1738.73
376.36	1578.98
376.57	1761.25
376.78	1662.95
376.99	1689.57
377.20	1775.59
377.40	1656.81
377.61	1761.25
377.82	1718.25
378.03	1791.97
378.24	1732.58
378.45	1748.97
378.66	1785.83
378.87	1636.33
379.08	1615.85
379.29	1697.77
379.50	1775.59
379.71	1708.01
379.91	1837.03
380.12	1689.57
380.33	1736.68
380.54	1648.61
380.75	1726.44
380.96	1681.38
381.17	1687.53
381.38	1744.87
381.59	1742.82
381.80	1742.82
382.00	1843.17
382.21	1730.53
382.42	1873.89
382.63	1877.99
382.84	1787.88
383.05	1779.68
383.26	1683.43
383.47	1720.29
383.68	1771.49
383.88	1761.25
384.09	1681.38
384.30	1871.84
384.51	1724.39
384.72	1712.10
384.93	1677.29
385.14	1658.85
385.35	1744.87
385.55	1587.18
385.76	1751.01
385.97	1687.53
386.18	1708.01
386.39	1693.67
386.60	1751.01
386.81	1730.53
387.02	1730.53
387.22	1728.49
387.43	1785.83
387.64	1777.64
387.85	1933.28
388.06	2295.77
388.27	4188.10
388.48	6741.91
388.68	8279.94
388.89	9621.36
389.10	9922.41
389.31	8718.20
389.52	7585.68
389.73	6741.91
389.93	6307.74
390.14	5840.81
390.35	5091.25
390.56	4601.79
390.77	3700.68
390.98	3035.09
391.18	2519.00
391.39	2138.08
391.60	1812.45
391.81	1843.17
392.02	1714.15
392.23	1861.60
392.43	1720.29
392.64	1746.92
392.85	1689.57
393.06	1820.64
393.27	1591.27
393.47	1724.39
393.68	1740.77
393.89	1662.95
394.10	1779.68
394.31	1708.01
394.52	1593.32
394.72	1695.72
394.93	1732.58
395.14	1566.70
395.35	1691.62
395.56	1601.51
395.76	1755.11
395.97	1779.68
396.18	1830.88
396.39	1873.89
396.60	2025.44
396.80	1865.70
397.01	1855.46
397.22	1834.98
397.43	1785.83
397.64	1716.20
397.84	1808.36
398.05	1824.74
398.26	1804.26
398.47	1765.35
398.67	1808.36
398.88	1724.39
399.09	1697.77
399.30	1687.53
399.51	1763.30
399.71	1705.96
399.92	1671.14
400.13	1755.11
400.34	1626.09
400.54	1718.25
400.75	1789.92
400.96	1718.25
401.17	1863.65
401.37	1640.42
401.58	1705.96
401.79	1761.25
402.00	1906.66
402.21	2050.02
402.41	1884.13
402.62	1984.48
402.83	2050.02
403.04	1986.53
403.24	2078.69
403.45	1802.21
403.66	1886.18
403.87	1853.41
404.07	1947.62
404.28	1855.46
404.49	1886.18
404.70	1834.98
404.90	1705.96
405.11	1671.14
405.32	1708.01
405.52	1638.38
405.73	1603.56
405.94	1636.33
406.15	1601.51
406.35	1857.51
406.56	1777.64
406.77	1724.39
406.98	1738.73
407.18	1669.09
407.39	1769.44
407.60	1656.81
407.80	1720.29
408.01	1665.00
408.22	1779.68
408.43	1681.38
408.63	1791.97
408.84	1679.33
409.05	1771.49
409.25	1691.62
409.46	1687.53
409.67	1677.29
409.88	1693.67
410.08	1687.53
410.29	1722.34
410.50	1720.29
410.70	1738.73
410.91	1654.76
411.12	1679.33
411.32	1665.00
411.53	1687.53
411.74	1767.40
411.95	1771.49
412.15	1791.97
412.36	1828.84
412.57	1796.07
412.77	1812.45
412.98	1802.21
413.19	1691.62
413.39	1765.35
413.60	1665.00
413.81	1802.21
414.01	1736.68
414.22	1759.21
414.43	1771.49
414.63	1669.09
414.84	1832.93
415.05	1705.96
415.25	1585.13
415.46	1769.44
415.67	1701.86
415.87	1697.77
416.08	1718.25
416.29	1656.81
416.49	1759.21
416.70	1669.09
416.91	1660.90
417.11	1710.05
417.32	1765.35
417.53	1703.91
417.73	1691.62
417.94	1710.05
418.15	1730.53
418.35	1699.81
418.56	1771.49
418.77	1826.79
418.97	1732.58
419.18	1679.33
419.38	1570.79
419.59	1691.62
419.80	1785.83
420.00	1689.57
420.21	1746.92
420.42	1701.86
420.62	1673.19
420.83	1585.13
421.04	1716.20
421.24	1771.49
421.45	1718.25
421.65	1728.49
421.86	1681.38
422.07	1759.21
422.27	1632.23
422.48	1746.92
422.69	1595.37
422.89	1679.33
423.10	1753.06
423.30	1669.09
423.51	1763.30
423.72	1783.78
423.92	1767.40
424.13	1632.23
424.33	1755.11
424.54	1748.97
424.75	1712.10
424.95	1914.85
425.16	1761.25
425.36	1619.94
425.57	1820.64
425.78	1755.11
425.98	1759.21
426.19	1665.00
426.39	1697.77
426.60	1757.16
426.81	1759.21
427.01	1687.53
427.22	1708.01
427.42	1599.46
427.63	1587.18
427.83	1789.92
428.04	1773.54
428.25	1722.34
428.45	1763.30
428.66	1738.73
428.86	1673.19
429.07	1708.01
429.28	1656.81
429.48	1744.87
429.69	1591.27
429.89	1693.67
430.10	1660.90
430.30	1718.25
430.51	1796.07
430.71	1636.33
430.92	1689.57
431.13	1677.29
431.33	1771.49
431.54	1705.96
431.74	1839.08
431.95	1853.41
432.15	1636.33
432.36	1712.10
432.56	1675.24
432.77	1726.44
432.98	1783.78
433.18	1720.29
433.39	1734.63
433.59	1626.09
433.80	1773.54
434.00	1779.68
434.21	1728.49
434.41	1660.90
434.62	1826.79
434.82	1726.44
435.03	1648.61
435.23	1693.67
435.44	1609.70
435.64	1720.29
435.85	1738.73
436.06	1701.86
436.26	1755.11
436.47	1675.24
436.67	1679.33
436.88	1703.91
437.08	1761.25
437.29	1820.64
437.49	1695.72
437.70	1771.49
437.90	1796.07
438.11	1767.40
438.31	1812.45
438.52	1826.79
438.72	1900.52
438.93	1947.62
439.13	1777.64
439.34	1839.08
439.54	1781.73
439.75	1783.78
439.95	1779.68
440.16	1667.05
440.36	1736.68
440.57	1699.81
440.77	1640.42
440.98	1798.12
441.18	1738.73
441.39	1732.58
441.59	1628.14
441.80	1824.74
442.00	1681.38
442.21	1787.88
442.41	1669.09
442.62	1759.21
442.82	1675.24
443.02	1738.73
443.23	1689.57
443.43	1624.04
443.64	1757.16
443.84	1748.97
444.05	1777.64
444.25	1662.95
444.46	1775.59
444.66	1767.40
444.87	1847.27
445.07	1710.05
445.28	1771.49
445.48	1806.31
445.69	1730.53
445.89	1912.80
446.09	1804.26
446.30	1988.58
446.50	2731.99
446.71	3602.38
446.91	4306.88
447.12	4796.34
447.32	4763.58
447.53	4347.84
447.73	3934.15
447.93	3522.51
448.14	3342.28
448.34	3114.96
448.55	2942.93
448.75	2893.78
448.96	2664.41
449.16	2414.56
449.36	2254.81
449.57	2074.59
449.77	1857.51
449.98	1820.64
450.18	1746.92
450.39	1785.83
450.59	1785.83
450.79	1722.34
451.00	1636.33
451.20	1771.49
451.41	1732.58
451.61	1724.39
451.81	1691.62
452.02	1722.34
452.22	1734.63
452.43	1720.29
452.63	1738.73
