SpectraSuite Data File
++++++++++++++++++++++++++++++++++++
Date: Mon Jun 06 15:36:17 CEST 2016
User: root
Dark Spectrum Present: No
Reference Spectrum Present: No
Number of Sampled Component Spectra: 1
Spectrometers: USB4C02835
Integration Time (usec): 100000 (USB4C02835)
Spectra Averaged: 1 (USB4C02835)
Boxcar Smoothing: 0 (USB4C02835)
Correct for Electrical Dark: No (USB4C02835)
Strobe/Lamp Enabled: No (USB4C02835)
Correct for Detector Non-linearity: No (USB4C02835)
Correct for Stray Light: No (USB4C02835)
Number of Pixels in Processed Spectrum: 3648
>>>>>Begin Processed Spectral Data<<<<<
177.47	1460.20
177.69	1460.20
177.91	1460.20
178.13	1468.39
178.36	1511.40
178.58	1628.14
178.80	1771.49
179.02	1669.09
179.24	1619.94
179.46	1701.86
179.68	1832.93
179.90	1654.76
180.13	1740.77
180.35	1660.90
180.57	1724.39
180.79	1695.72
181.01	1697.77
181.23	1763.30
181.45	1697.77
181.67	1751.01
181.90	1781.73
182.12	1646.57
182.34	1673.19
182.56	1759.21
182.78	1763.30
183.00	1621.99
183.22	1765.35
183.44	1636.33
183.66	1789.92
183.89	1849.32
184.11	1722.34
184.33	1759.21
184.55	1722.34
184.77	1755.11
184.99	1683.43
185.21	1710.05
185.43	1841.12
185.65	1638.38
185.87	1693.67
186.10	1834.98
186.32	1834.98
186.54	1718.25
186.76	1757.16
186.98	1816.55
187.20	1648.61
187.42	1701.86
187.64	1804.26
187.86	1722.34
188.08	1728.49
188.30	1746.92
188.52	1708.01
188.75	1814.50
188.97	1742.82
189.19	1691.62
189.41	1703.91
189.63	1673.19
189.85	1726.44
190.07	1652.71
190.29	1609.70
190.51	1791.97
190.73	1605.61
190.95	1744.87
191.17	1757.16
191.39	1648.61
191.61	1652.71
191.84	1650.66
192.06	1701.86
192.28	1701.86
192.50	1955.81
192.72	1798.12
192.94	1789.92
193.16	1751.01
193.38	1726.44
193.60	1665.00
193.82	1613.80
194.04	1873.89
194.26	1687.53
194.48	1738.73
194.70	1646.57
194.92	1675.24
195.14	1732.58
195.36	1683.43
195.58	1734.63
195.80	1734.63
196.02	1744.87
196.24	1732.58
196.46	1701.86
196.69	1683.43
196.91	1910.75
197.13	1626.09
197.35	1609.70
197.57	1794.02
197.79	1708.01
198.01	1738.73
198.23	1740.77
198.45	1742.82
198.67	1638.38
198.89	1693.67
199.11	1761.25
199.33	1640.42
199.55	1632.23
199.77	1685.48
199.99	1767.40
200.21	1640.42
200.43	1763.30
200.65	1669.09
200.87	1589.22
201.09	1761.25
201.31	1640.42
201.53	1759.21
201.75	1718.25
201.97	1638.38
202.19	1753.06
202.41	1656.81
202.63	1855.46
202.85	1757.16
203.07	1746.92
203.29	1626.09
203.51	1662.95
203.73	1652.71
203.95	1929.19
204.17	1732.58
204.39	1730.53
204.61	1708.01
204.83	1679.33
205.05	1740.77
205.27	1781.73
205.49	1820.64
205.71	1656.81
205.93	1689.57
206.15	1722.34
206.37	1671.14
206.59	1679.33
206.81	1656.81
207.03	1673.19
207.25	1658.85
207.47	1705.96
207.69	1734.63
207.91	1839.08
208.13	1796.07
208.34	1669.09
208.56	1714.15
208.78	1701.86
209.00	1716.20
209.22	1714.15
209.44	1787.88
209.66	1648.61
209.88	1785.83
210.10	1677.29
210.32	1669.09
210.54	1796.07
210.76	1781.73
210.98	1714.15
211.20	1660.90
211.42	1660.90
211.64	1763.30
211.86	1755.11
212.08	1738.73
212.30	1699.81
212.52	1665.00
212.74	1804.26
212.96	1728.49
213.17	1708.01
213.39	1669.09
213.61	1798.12
213.83	1654.76
214.05	1609.70
214.27	1771.49
214.49	1673.19
214.71	1701.86
214.93	1753.06
215.15	1746.92
215.37	1689.57
215.59	1621.99
215.81	1738.73
216.03	1834.98
216.24	1714.15
216.46	1714.15
216.68	1673.19
216.90	1820.64
217.12	1734.63
217.34	1716.20
217.56	1755.11
217.78	1837.03
218.00	1789.92
218.22	1746.92
218.44	1755.11
218.66	1738.73
218.87	1859.56
219.09	1732.58
219.31	1757.16
219.53	1726.44
219.75	1710.05
219.97	1609.70
220.19	1665.00
220.41	1703.91
220.63	1787.88
220.85	1824.74
221.06	1652.71
221.28	1826.79
221.50	1787.88
221.72	1685.48
221.94	1740.77
222.16	1734.63
222.38	1773.54
222.60	1730.53
222.82	1665.00
223.03	1759.21
223.25	1660.90
223.47	1777.64
223.69	1767.40
223.91	1699.81
224.13	1650.66
224.35	1701.86
224.57	1695.72
224.78	1759.21
225.00	1667.05
225.22	1687.53
225.44	1779.68
225.66	1783.78
225.88	1732.58
226.10	1738.73
226.32	1675.24
226.53	1867.75
226.75	1718.25
226.97	1738.73
227.19	1718.25
227.41	1673.19
227.63	1650.66
227.85	1617.90
228.06	1724.39
228.28	1710.05
228.50	1763.30
228.72	1681.38
228.94	1667.05
229.16	1599.46
229.37	1644.52
229.59	1708.01
229.81	1818.60
230.03	1695.72
230.25	1581.03
230.47	1652.71
230.69	1642.47
230.90	1769.44
231.12	1660.90
231.34	1748.97
231.56	1716.20
231.78	1628.14
232.00	1701.86
232.21	1687.53
232.43	1650.66
232.65	1593.32
232.87	1740.77
233.09	1650.66
233.30	1634.28
233.52	1742.82
233.74	1722.34
233.96	1695.72
234.18	1763.30
234.40	1681.38
234.61	1781.73
234.83	1554.41
235.05	1673.19
235.27	1871.84
235.49	1779.68
235.70	1751.01
235.92	1849.32
236.14	1687.53
236.36	1781.73
236.58	1656.81
236.79	1726.44
237.01	1734.63
237.23	1660.90
237.45	1796.07
237.67	1675.24
237.88	1683.43
238.10	1771.49
238.32	1724.39
238.54	1640.42
238.76	1675.24
238.97	1601.51
239.19	1624.04
239.41	1834.98
239.63	1753.06
239.85	1626.09
240.06	1734.63
240.28	1716.20
240.50	1728.49
240.72	1660.90
240.93	1662.95
241.15	1732.58
241.37	1681.38
241.59	1773.54
241.81	1714.15
242.02	1718.25
242.24	1728.49
242.46	1781.73
242.68	1710.05
242.89	1751.01
243.11	1742.82
243.33	1681.38
243.55	1701.86
243.76	1759.21
243.98	1658.85
244.20	1644.52
244.42	1695.72
244.64	1734.63
244.85	1601.51
245.07	1648.61
245.29	1699.81
245.51	1677.29
245.72	1730.53
245.94	1697.77
246.16	1775.59
246.38	1705.96
246.59	1685.48
246.81	1638.38
247.03	1665.00
247.24	1558.50
247.46	1732.58
247.68	1748.97
247.90	1697.77
248.11	1730.53
248.33	1773.54
248.55	1679.33
248.77	1705.96
248.98	1714.15
249.20	1781.73
249.42	1695.72
249.64	1677.29
249.85	1777.64
250.07	1701.86
250.29	1757.16
250.50	1667.05
250.72	1626.09
250.94	1683.43
251.16	1777.64
251.37	1777.64
251.59	1699.81
251.81	1751.01
252.02	1796.07
252.24	1689.57
252.46	1757.16
252.68	1615.85
252.89	1660.90
253.11	1681.38
253.33	1773.54
253.54	1794.02
253.76	1658.85
253.98	1691.62
254.20	1734.63
254.41	1615.85
254.63	1720.29
254.85	1691.62
255.06	1669.09
255.28	1759.21
255.50	1734.63
255.71	1671.14
255.93	1626.09
256.15	1740.77
256.36	1763.30
256.58	1695.72
256.80	1724.39
257.02	1671.14
257.23	1710.05
257.45	1746.92
257.67	1775.59
257.88	1681.38
258.10	1734.63
258.32	1650.66
258.53	1726.44
258.75	1814.50
258.97	1691.62
259.18	1734.63
259.40	1726.44
259.62	1761.25
259.83	1834.98
260.05	1675.24
260.27	2056.16
260.48	1789.92
260.70	1699.81
260.92	1658.85
261.13	1718.25
261.35	1673.19
261.57	1757.16
261.78	1638.38
262.00	1605.61
262.22	1759.21
262.43	1693.67
262.65	1665.00
262.86	1699.81
263.08	1894.37
263.30	1675.24
263.51	1660.90
263.73	1656.81
263.95	1783.78
264.16	1669.09
264.38	1640.42
264.60	1671.14
264.81	1720.29
265.03	1751.01
265.25	1830.88
265.46	1712.10
265.68	1771.49
265.89	1726.44
266.11	1589.22
266.33	1736.68
266.54	1787.88
266.76	1724.39
266.98	1744.87
267.19	1716.20
267.41	1775.59
267.62	1724.39
267.84	1658.85
268.06	1703.91
268.27	1728.49
268.49	1804.26
268.70	1781.73
268.92	1669.09
269.14	1624.04
269.35	1660.90
269.57	1691.62
269.79	1775.59
270.00	1685.48
270.22	1824.74
270.43	1691.62
270.65	1585.13
270.87	1789.92
271.08	1746.92
271.30	1726.44
271.51	1771.49
271.73	1728.49
271.95	1798.12
272.16	1730.53
272.38	1779.68
272.59	1648.61
272.81	1708.01
273.02	1759.21
273.24	1812.45
273.46	1740.77
273.67	1722.34
273.89	1613.80
274.10	1695.72
274.32	1839.08
274.54	1665.00
274.75	1755.11
274.97	1697.77
275.18	1779.68
275.40	1718.25
275.61	1658.85
275.83	1699.81
276.05	1679.33
276.26	1705.96
276.48	1681.38
276.69	1703.91
276.91	1667.05
277.12	1769.44
277.34	1798.12
277.55	1816.55
277.77	1734.63
277.99	1730.53
278.20	1705.96
278.42	1712.10
278.63	1742.82
278.85	1701.86
279.06	1673.19
279.28	1789.92
279.49	1759.21
279.71	1712.10
279.93	1726.44
280.14	1689.57
280.36	1689.57
280.57	1804.26
280.79	1779.68
281.00	1658.85
281.22	1593.32
281.43	1820.64
281.65	1533.93
281.86	1650.66
282.08	1783.78
282.29	1767.40
282.51	1654.76
282.73	1648.61
282.94	1609.70
283.16	1783.78
283.37	1855.46
283.59	1695.72
283.80	1781.73
284.02	1718.25
284.23	1757.16
284.45	1736.68
284.66	1701.86
284.88	1609.70
285.09	1714.15
285.31	1773.54
285.52	1751.01
285.74	1685.48
285.95	1746.92
286.17	1714.15
286.38	1753.06
286.60	1669.09
286.81	1638.38
287.03	1697.77
287.24	1710.05
287.46	1777.64
287.67	1740.77
287.89	1843.17
288.10	1742.82
288.32	1691.62
288.53	1767.40
288.75	1665.00
288.96	1820.64
289.18	1705.96
289.39	1638.38
289.61	1718.25
289.82	1822.69
290.04	1853.41
290.25	1624.04
290.47	1701.86
290.68	1693.67
290.90	1757.16
291.11	1669.09
291.33	1794.02
291.54	1607.66
291.76	1683.43
291.97	1759.21
292.18	1658.85
292.40	1683.43
292.61	1808.36
292.83	1806.31
293.04	1675.24
293.26	1751.01
293.47	1724.39
293.69	1736.68
293.90	1714.15
294.12	1769.44
294.33	1732.58
294.55	1767.40
294.76	1691.62
294.97	1738.73
295.19	1771.49
295.40	1710.05
295.62	1777.64
295.83	1824.74
296.05	1656.81
296.26	1773.54
296.48	1650.66
296.69	1695.72
296.90	1660.90
297.12	1843.17
297.33	1832.93
297.55	1697.77
297.76	1697.77
297.98	1757.16
298.19	1810.40
298.41	1810.40
298.62	1648.61
298.83	1816.55
299.05	1732.58
299.26	1759.21
299.48	1650.66
299.69	1759.21
299.90	1652.71
300.12	1695.72
300.33	1746.92
300.55	1693.67
300.76	1697.77
300.98	1621.99
301.19	1751.01
301.40	1617.90
301.62	1648.61
301.83	1660.90
302.05	1748.97
302.26	1687.53
302.47	1751.01
302.69	1626.09
302.90	1732.58
303.12	1605.61
303.33	1759.21
303.54	1822.69
303.76	1705.96
303.97	1742.82
304.19	1781.73
304.40	1693.67
304.61	1779.68
304.83	1828.84
305.04	1820.64
305.26	1763.30
305.47	1554.41
305.68	1724.39
305.90	1675.24
306.11	1794.02
306.33	1730.53
306.54	1660.90
306.75	1658.85
306.97	1591.27
307.18	1667.05
307.39	1644.52
307.61	1658.85
307.82	1669.09
308.04	1734.63
308.25	1652.71
308.46	1701.86
308.68	1720.29
308.89	1746.92
309.10	1775.59
309.32	1728.49
309.53	1785.83
309.74	1712.10
309.96	1644.52
310.17	1818.60
310.39	1679.33
310.60	1759.21
310.81	1710.05
311.03	1687.53
311.24	1769.44
311.45	1755.11
311.67	1806.31
311.88	1671.14
312.09	1675.24
312.31	1724.39
312.52	1722.34
312.73	1597.42
312.95	1648.61
313.16	1744.87
313.37	1806.31
313.59	1744.87
313.80	1734.63
314.01	1800.16
314.23	1638.38
314.44	1658.85
314.65	1648.61
314.87	1634.28
315.08	1697.77
315.29	1751.01
315.51	1615.85
315.72	1632.23
315.93	1914.85
316.15	1730.53
316.36	1724.39
316.57	1607.66
316.79	1732.58
317.00	1673.19
317.21	1662.95
317.43	1736.68
317.64	1738.73
317.85	1710.05
318.07	1648.61
318.28	1769.44
318.49	1869.80
318.70	1906.66
318.92	1775.59
319.13	1877.99
319.34	1890.28
319.56	1802.21
319.77	1769.44
319.98	1812.45
320.20	1785.83
320.41	1787.88
320.62	1783.78
320.83	1611.75
321.05	1853.41
321.26	1730.53
321.47	1783.78
321.69	1775.59
321.90	1617.90
322.11	1720.29
322.32	1748.97
322.54	1746.92
322.75	1710.05
322.96	1855.46
323.18	1574.89
323.39	1642.47
323.60	1691.62
323.81	1699.81
324.03	1714.15
324.24	1710.05
324.45	1720.29
324.66	1705.96
324.88	1759.21
325.09	1804.26
325.30	1667.05
325.52	1669.09
325.73	1759.21
325.94	1671.14
326.15	1683.43
326.37	1689.57
326.58	1736.68
326.79	1830.88
327.00	1669.09
327.22	1742.82
327.43	1609.70
327.64	1591.27
327.85	1714.15
328.07	1718.25
328.28	1841.12
328.49	1667.05
328.70	1697.77
328.92	1765.35
329.13	1660.90
329.34	1734.63
329.55	1845.22
329.76	1703.91
329.98	1769.44
330.19	1763.30
330.40	1783.78
330.61	1765.35
330.83	1761.25
331.04	1708.01
331.25	1687.53
331.46	1730.53
331.68	1619.94
331.89	1742.82
332.10	1718.25
332.31	1650.66
332.52	1699.81
332.74	1812.45
332.95	1781.73
333.16	1732.58
333.37	1767.40
333.58	1681.38
333.80	1722.34
334.01	1689.57
334.22	1687.53
334.43	1665.00
334.64	1746.92
334.86	1673.19
335.07	1726.44
335.28	1775.59
335.49	1703.91
335.70	1697.77
335.92	1789.92
336.13	1810.40
336.34	1787.88
336.55	1744.87
336.76	1736.68
336.98	1662.95
337.19	1763.30
337.40	1765.35
337.61	1937.38
337.82	1691.62
338.04	1785.83
338.25	1595.37
338.46	1697.77
338.67	1730.53
338.88	1650.66
339.09	1742.82
339.31	1697.77
339.52	1624.04
339.73	1644.52
339.94	1720.29
340.15	1753.06
340.36	1650.66
340.58	1677.29
340.79	1671.14
341.00	1742.82
341.21	1658.85
341.42	1781.73
341.63	1724.39
341.85	1816.55
342.06	1699.81
342.27	1626.09
342.48	1753.06
342.69	1685.48
342.90	1687.53
343.12	1763.30
343.33	1705.96
343.54	1781.73
343.75	1787.88
343.96	1730.53
344.17	1705.96
344.38	1708.01
344.60	1640.42
344.81	1667.05
345.02	1638.38
345.23	1720.29
345.44	1724.39
345.65	1783.78
345.86	1722.34
346.07	1730.53
346.29	1722.34
346.50	1724.39
346.71	1722.34
346.92	1767.40
347.13	1880.04
347.34	1656.81
347.55	1599.46
347.76	1753.06
347.98	1595.37
348.19	1687.53
348.40	1730.53
348.61	1701.86
348.82	1744.87
349.03	1751.01
349.24	1613.80
349.45	1818.60
349.66	1660.90
349.88	1748.97
350.09	1652.71
350.30	1757.16
350.51	1787.88
350.72	1730.53
350.93	1789.92
351.14	1693.67
351.35	1722.34
351.56	1720.29
351.77	1675.24
351.99	1753.06
352.20	1828.84
352.41	1773.54
352.62	1562.60
352.83	1781.73
353.04	1712.10
353.25	1710.05
353.46	1726.44
353.67	1728.49
353.88	1677.29
354.09	1714.15
354.30	1718.25
354.52	1767.40
354.73	1656.81
354.94	1619.94
355.15	1740.77
355.36	1818.60
355.57	1660.90
355.78	1740.77
355.99	1697.77
356.20	1687.53
356.41	1751.01
356.62	1796.07
356.83	1652.71
357.04	1847.27
357.25	1595.37
357.46	1650.66
357.68	1691.62
357.89	1607.66
358.10	1648.61
358.31	1722.34
358.52	1708.01
358.73	1599.46
358.94	1746.92
359.15	1708.01
359.36	1779.68
359.57	1726.44
359.78	1746.92
359.99	1771.49
360.20	1669.09
360.41	1642.47
360.62	1697.77
360.83	1699.81
361.04	1642.47
361.25	1763.30
361.46	1751.01
361.67	1771.49
361.88	1708.01
362.09	1769.44
362.30	1732.58
362.51	1669.09
362.72	1695.72
362.93	1734.63
363.14	1763.30
363.35	1693.67
363.56	1667.05
363.78	1751.01
363.99	1763.30
364.20	1693.67
364.41	1671.14
364.62	1816.55
364.83	1808.36
365.04	1669.09
365.25	1701.86
365.46	1914.85
365.67	1685.48
365.88	1574.89
366.09	1658.85
366.30	1658.85
366.51	1667.05
366.72	1636.33
366.93	1691.62
367.14	1730.53
367.35	1685.48
367.56	1757.16
367.77	1812.45
367.98	1787.88
368.18	1783.78
368.39	1728.49
368.60	1685.48
368.81	1771.49
369.02	1693.67
369.23	1705.96
369.44	1595.37
369.65	1650.66
369.86	1724.39
370.07	1789.92
370.28	1660.90
370.49	1775.59
370.70	1724.39
370.91	1636.33
371.12	1634.28
371.33	1787.88
371.54	1695.72
371.75	1798.12
371.96	1621.99
372.17	1738.73
372.38	1726.44
372.59	1808.36
372.80	1730.53
373.01	1675.24
373.22	1718.25
373.43	1714.15
373.64	1695.72
373.85	1759.21
374.06	1849.32
374.26	1796.07
374.47	1701.86
374.68	1867.75
374.89	1742.82
375.10	1759.21
375.31	1882.08
375.52	1746.92
375.73	1710.05
375.94	1656.81
376.15	1767.40
376.36	1665.00
376.57	1640.42
376.78	1759.21
376.99	1681.38
377.20	1791.97
377.40	1646.57
377.61	1841.12
377.82	1660.90
378.03	1759.21
378.24	1689.57
378.45	1714.15
378.66	1845.22
378.87	1677.29
379.08	1716.20
379.29	1744.87
379.50	1787.88
379.71	1660.90
379.91	1757.16
380.12	1695.72
380.33	1716.20
380.54	1677.29
380.75	1683.43
380.96	1734.63
381.17	1775.59
381.38	1699.81
381.59	1783.78
381.80	1708.01
382.00	1966.05
382.21	1820.64
382.42	1763.30
382.63	1837.03
382.84	1763.30
383.05	1650.66
383.26	1832.93
383.47	1783.78
383.68	1771.49
383.88	1701.86
384.09	1697.77
384.30	1759.21
384.51	1763.30
384.72	1636.33
384.93	1701.86
385.14	1734.63
385.35	1787.88
385.55	1626.09
385.76	1839.08
385.97	1726.44
386.18	1626.09
386.39	1769.44
386.60	1740.77
386.81	1701.86
387.02	1751.01
387.22	1624.04
387.43	1767.40
387.64	1773.54
387.85	1898.47
388.06	2242.53
388.27	4149.18
388.48	6635.42
388.68	8075.14
388.89	9316.21
389.10	9635.69
389.31	8566.65
389.52	7260.05
389.73	6641.56
389.93	6221.73
390.14	5762.98
390.35	5040.05
390.56	4489.15
390.77	3680.20
390.98	2965.46
391.18	2531.29
391.39	1998.82
391.60	1910.75
391.81	1802.21
392.02	1732.58
392.23	1927.14
392.43	1738.73
392.64	1763.30
392.85	1757.16
393.06	1767.40
393.27	1716.20
393.47	1677.29
393.68	1767.40
393.89	1716.20
394.10	1849.32
394.31	1695.72
394.52	1630.18
394.72	1740.77
394.93	1818.60
395.14	1660.90
395.35	1763.30
395.56	1705.96
395.76	1699.81
395.97	1775.59
396.18	1896.42
396.39	1832.93
396.60	2058.21
396.80	1980.39
397.01	1910.75
397.22	1779.68
397.43	1769.44
397.64	1751.01
397.84	1798.12
398.05	1853.41
398.26	1849.32
398.47	1746.92
398.67	1777.64
398.88	1800.16
399.09	1775.59
399.30	1665.00
399.51	1722.34
399.71	1617.90
399.92	1652.71
400.13	1765.35
400.34	1705.96
400.54	1718.25
400.75	1816.55
400.96	1779.68
401.17	1884.13
401.37	1744.87
401.58	1667.05
401.79	1765.35
402.00	1859.56
402.21	1947.62
402.41	1953.76
402.62	1939.43
402.83	2013.15
403.04	2021.35
403.24	2066.40
403.45	1826.79
403.66	1914.85
403.87	1837.03
404.07	1920.99
404.28	1933.28
404.49	1837.03
404.70	1818.60
404.90	1810.40
405.11	1734.63
405.32	1830.88
405.52	1675.24
405.73	1708.01
405.94	1720.29
406.15	1722.34
406.35	1751.01
406.56	1701.86
406.77	1708.01
406.98	1697.77
407.18	1630.18
407.39	1771.49
407.60	1708.01
407.80	1685.48
408.01	1748.97
408.22	1751.01
408.43	1671.14
408.63	1679.33
408.84	1843.17
409.05	1826.79
409.25	1728.49
409.46	1730.53
409.67	1726.44
409.88	1687.53
410.08	1763.30
410.29	1701.86
410.50	1748.97
410.70	1744.87
410.91	1591.27
411.12	1816.55
411.32	1779.68
411.53	1695.72
411.74	1871.84
411.95	1810.40
412.15	1710.05
412.36	1777.64
412.57	1785.83
412.77	1738.73
412.98	1714.15
413.19	1720.29
413.39	1765.35
413.60	1724.39
413.81	1826.79
414.01	1658.85
414.22	1796.07
414.43	1716.20
414.63	1685.48
414.84	1699.81
415.05	1730.53
415.25	1583.08
415.46	1759.21
415.67	1697.77
415.87	1783.78
416.08	1705.96
416.29	1636.33
416.49	1730.53
416.70	1716.20
416.91	1708.01
417.11	1732.58
417.32	1800.16
417.53	1753.06
417.73	1746.92
417.94	1716.20
418.15	1689.57
418.35	1730.53
418.56	1742.82
418.77	1853.41
418.97	1669.09
419.18	1748.97
419.38	1607.66
419.59	1708.01
419.80	1837.03
420.00	1703.91
420.21	1732.58
420.42	1777.64
420.62	1695.72
420.83	1656.81
421.04	1728.49
421.24	1640.42
421.45	1730.53
421.65	1689.57
421.86	1701.86
422.07	1820.64
422.27	1654.76
422.48	1730.53
422.69	1726.44
422.89	1652.71
423.10	1689.57
423.30	1722.34
423.51	1755.11
423.72	1693.67
423.92	1761.25
424.13	1673.19
424.33	1759.21
424.54	1740.77
424.75	1800.16
424.95	1804.26
425.16	1667.05
425.36	1726.44
425.57	1738.73
425.78	1763.30
425.98	1742.82
426.19	1689.57
426.39	1710.05
426.60	1763.30
426.81	1755.11
427.01	1769.44
427.22	1718.25
427.42	1660.90
427.63	1673.19
427.83	1761.25
428.04	1843.17
428.25	1769.44
428.45	1783.78
428.66	1783.78
428.86	1679.33
429.07	1691.62
429.28	1761.25
429.48	1708.01
429.69	1636.33
429.89	1722.34
430.10	1617.90
430.30	1789.92
430.51	1746.92
430.71	1767.40
430.92	1685.48
431.13	1646.57
431.33	1710.05
431.54	1728.49
431.74	1775.59
431.95	1839.08
432.15	1693.67
432.36	1751.01
432.56	1740.77
432.77	1812.45
432.98	1728.49
433.18	1751.01
433.39	1689.57
433.59	1628.14
433.80	1861.60
434.00	1824.74
434.21	1744.87
434.41	1673.19
434.62	1808.36
434.82	1695.72
435.03	1595.37
435.23	1771.49
435.44	1583.08
435.64	1765.35
435.85	1759.21
436.06	1728.49
436.26	1738.73
436.47	1785.83
436.67	1712.10
436.88	1669.09
437.08	1708.01
437.29	1855.46
437.49	1736.68
437.70	1783.78
437.90	1673.19
438.11	1781.73
438.31	1718.25
438.52	1886.18
438.72	1857.51
438.93	1949.67
439.13	1802.21
439.34	1873.89
439.54	1716.20
439.75	1843.17
439.95	1796.07
440.16	1716.20
440.36	1714.15
440.57	1767.40
440.77	1734.63
440.98	1791.97
441.18	1783.78
441.39	1687.53
441.59	1675.24
441.80	1785.83
442.00	1775.59
442.21	1800.16
442.41	1646.57
442.62	1759.21
442.82	1748.97
443.02	1738.73
443.23	1726.44
443.43	1763.30
443.64	1796.07
443.84	1638.38
444.05	1845.22
444.25	1789.92
444.46	1726.44
444.66	1779.68
444.87	1798.12
445.07	1665.00
445.28	1697.77
445.48	1789.92
445.69	1783.78
445.89	1845.22
446.09	1789.92
446.30	2072.54
446.50	2627.54
446.71	3661.77
446.91	4286.40
447.12	4644.79
447.32	4743.10
447.53	4229.06
447.73	3823.56
447.93	3465.16
448.14	3250.13
448.34	3164.11
448.55	2824.15
448.75	2789.33
448.96	2709.46
449.16	2406.36
449.36	2334.68
449.57	2072.54
449.77	1886.18
449.98	1806.31
450.18	1816.55
450.39	1761.25
450.59	1734.63
450.79	1734.63
451.00	1675.24
451.20	1794.02
451.41	1755.11
451.61	1814.50
451.81	1632.23
452.02	1755.11
452.22	1716.20
452.43	1701.86
452.63	1699.81
