SpectraSuite Data File
++++++++++++++++++++++++++++++++++++
Date: Mon Jun 06 12:56:37 CEST 2016
User: root
Dark Spectrum Present: No
Reference Spectrum Present: No
Number of Sampled Component Spectra: 1
Spectrometers: USB4C02835
Integration Time (usec): 100000 (USB4C02835)
Spectra Averaged: 1 (USB4C02835)
Boxcar Smoothing: 0 (USB4C02835)
Correct for Electrical Dark: No (USB4C02835)
Strobe/Lamp Enabled: No (USB4C02835)
Correct for Detector Non-linearity: No (USB4C02835)
Correct for Stray Light: No (USB4C02835)
Number of Pixels in Processed Spectrum: 3648
>>>>>Begin Processed Spectral Data<<<<<
177.47	1523.69
177.69	1523.69
177.91	1523.69
178.13	1503.21
178.36	1517.54
178.58	1685.48
178.80	1730.53
179.02	1628.14
179.24	1640.42
179.46	1656.81
179.68	1748.97
179.90	1617.90
180.13	1675.24
180.35	1718.25
180.57	1656.81
180.79	1724.39
181.01	1650.66
181.23	1757.16
181.45	1738.73
181.67	1644.52
181.90	1710.05
182.12	1634.28
182.34	1603.56
182.56	1757.16
182.78	1687.53
183.00	1689.57
183.22	1658.85
183.44	1619.94
183.66	1804.26
183.89	1769.44
184.11	1718.25
184.33	1748.97
184.55	1783.78
184.77	1806.31
184.99	1769.44
185.21	1615.85
185.43	1800.16
185.65	1669.09
185.87	1708.01
186.10	1781.73
186.32	1837.03
186.54	1738.73
186.76	1763.30
186.98	1740.77
187.20	1724.39
187.42	1636.33
187.64	1759.21
187.86	1724.39
188.08	1732.58
188.30	1744.87
188.52	1693.67
188.75	1759.21
188.97	1806.31
189.19	1740.77
189.41	1615.85
189.63	1714.15
189.85	1617.90
190.07	1665.00
190.29	1626.09
190.51	1697.77
190.73	1560.55
190.95	1734.63
191.17	1677.29
191.39	1617.90
191.61	1638.38
191.84	1624.04
192.06	1708.01
192.28	1585.13
192.50	1882.08
192.72	1699.81
192.94	1601.51
193.16	1714.15
193.38	1712.10
193.60	1583.08
193.82	1679.33
194.04	1693.67
194.26	1710.05
194.48	1691.62
194.70	1644.52
194.92	1675.24
195.14	1689.57
195.36	1660.90
195.58	1708.01
195.80	1734.63
196.02	1683.43
196.24	1734.63
196.46	1753.06
196.69	1732.58
196.91	1855.46
197.13	1730.53
197.35	1646.57
197.57	1857.51
197.79	1683.43
198.01	1748.97
198.23	1689.57
198.45	1757.16
198.67	1673.19
198.89	1669.09
199.11	1777.64
199.33	1593.32
199.55	1540.07
199.77	1652.71
199.99	1785.83
200.21	1667.05
200.43	1648.61
200.65	1621.99
200.87	1619.94
201.09	1767.40
201.31	1652.71
201.53	1775.59
201.75	1636.33
201.97	1785.83
202.19	1742.82
202.41	1759.21
202.63	1798.12
202.85	1740.77
203.07	1714.15
203.29	1669.09
203.51	1710.05
203.73	1648.61
203.95	1812.45
204.17	1773.54
204.39	1740.77
204.61	1660.90
204.83	1619.94
205.05	1779.68
205.27	1681.38
205.49	1736.68
205.71	1744.87
205.93	1724.39
206.15	1613.80
206.37	1619.94
206.59	1710.05
206.81	1619.94
207.03	1619.94
207.25	1650.66
207.47	1738.73
207.69	1619.94
207.91	1755.11
208.13	1785.83
208.34	1720.29
208.56	1562.60
208.78	1804.26
209.00	1681.38
209.22	1628.14
209.44	1744.87
209.66	1646.57
209.88	1724.39
210.10	1716.20
210.32	1710.05
210.54	1742.82
210.76	1689.57
210.98	1722.34
211.20	1595.37
211.42	1699.81
211.64	1710.05
211.86	1744.87
212.08	1634.28
212.30	1726.44
212.52	1628.14
212.74	1755.11
212.96	1724.39
213.17	1775.59
213.39	1744.87
213.61	1775.59
213.83	1646.57
214.05	1667.05
214.27	1808.36
214.49	1640.42
214.71	1685.48
214.93	1689.57
215.15	1687.53
215.37	1714.15
215.59	1662.95
215.81	1753.06
216.03	1773.54
216.24	1734.63
216.46	1693.67
216.68	1769.44
216.90	1736.68
217.12	1804.26
217.34	1693.67
217.56	1714.15
217.78	1779.68
218.00	1730.53
218.22	1718.25
218.44	1703.91
218.66	1644.52
218.87	1828.84
219.09	1650.66
219.31	1732.58
219.53	1742.82
219.75	1638.38
219.97	1697.77
220.19	1695.72
220.41	1734.63
220.63	1832.93
220.85	1740.77
221.06	1722.34
221.28	1779.68
221.50	1789.92
221.72	1677.29
221.94	1689.57
222.16	1679.33
222.38	1656.81
222.60	1783.78
222.82	1724.39
223.03	1751.01
223.25	1601.51
223.47	1732.58
223.69	1748.97
223.91	1816.55
224.13	1630.18
224.35	1685.48
224.57	1724.39
224.78	1738.73
225.00	1589.22
225.22	1617.90
225.44	1638.38
225.66	1660.90
225.88	1769.44
226.10	1740.77
226.32	1757.16
226.53	1834.98
226.75	1683.43
226.97	1665.00
227.19	1708.01
227.41	1656.81
227.63	1560.55
227.85	1609.70
228.06	1691.62
228.28	1685.48
228.50	1806.31
228.72	1699.81
228.94	1701.86
229.16	1603.56
229.37	1636.33
229.59	1626.09
229.81	1740.77
230.03	1624.04
230.25	1611.75
230.47	1601.51
230.69	1626.09
230.90	1712.10
231.12	1603.56
231.34	1697.77
231.56	1755.11
231.78	1673.19
232.00	1718.25
232.21	1701.86
232.43	1652.71
232.65	1644.52
232.87	1648.61
233.09	1679.33
233.30	1703.91
233.52	1697.77
233.74	1757.16
233.96	1679.33
234.18	1708.01
234.40	1734.63
234.61	1802.21
234.83	1638.38
235.05	1652.71
235.27	1777.64
235.49	1679.33
235.70	1761.25
235.92	1736.68
236.14	1722.34
236.36	1816.55
236.58	1697.77
236.79	1791.97
237.01	1665.00
237.23	1732.58
237.45	1767.40
237.67	1654.76
237.88	1705.96
238.10	1853.41
238.32	1615.85
238.54	1734.63
238.76	1716.20
238.97	1628.14
239.19	1689.57
239.41	1769.44
239.63	1802.21
239.85	1714.15
240.06	1652.71
240.28	1667.05
240.50	1798.12
240.72	1744.87
240.93	1650.66
241.15	1697.77
241.37	1628.14
241.59	1775.59
241.81	1751.01
242.02	1630.18
242.24	1808.36
242.46	1787.88
242.68	1673.19
242.89	1632.23
243.11	1748.97
243.33	1673.19
243.55	1691.62
243.76	1689.57
243.98	1605.61
244.20	1673.19
244.42	1755.11
244.64	1697.77
244.85	1656.81
245.07	1665.00
245.29	1734.63
245.51	1697.77
245.72	1714.15
245.94	1769.44
246.16	1705.96
246.38	1742.82
246.59	1671.14
246.81	1673.19
247.03	1701.86
247.24	1650.66
247.46	1691.62
247.68	1746.92
247.90	1669.09
248.11	1619.94
248.33	1699.81
248.55	1701.86
248.77	1734.63
248.98	1736.68
249.20	1853.41
249.42	1712.10
249.64	1718.25
249.85	1714.15
250.07	1701.86
250.29	1845.22
250.50	1742.82
250.72	1675.24
250.94	1665.00
251.16	1785.83
251.37	1693.67
251.59	1640.42
251.81	1699.81
252.02	1785.83
252.24	1642.47
252.46	1718.25
252.68	1656.81
252.89	1683.43
253.11	1595.37
253.33	1798.12
253.54	1771.49
253.76	1587.18
253.98	1626.09
254.20	1652.71
254.41	1681.38
254.63	1599.46
254.85	1617.90
255.06	1685.48
255.28	1695.72
255.50	1722.34
255.71	1677.29
255.93	1564.65
256.15	1683.43
256.36	1714.15
256.58	1689.57
256.80	1701.86
257.02	1699.81
257.23	1722.34
257.45	1714.15
257.67	1781.73
257.88	1728.49
258.10	1697.77
258.32	1687.53
258.53	1683.43
258.75	1742.82
258.97	1660.90
259.18	1689.57
259.40	1746.92
259.62	1826.79
259.83	1824.74
260.05	1767.40
260.27	1996.77
260.48	1714.15
260.70	1636.33
260.92	1695.72
261.13	1791.97
261.35	1740.77
261.57	1787.88
261.78	1566.70
262.00	1665.00
262.22	1789.92
262.43	1646.57
262.65	1658.85
262.86	1687.53
263.08	1777.64
263.30	1718.25
263.51	1658.85
263.73	1677.29
263.95	1685.48
264.16	1693.67
264.38	1650.66
264.60	1771.49
264.81	1654.76
265.03	1800.16
265.25	1701.86
265.46	1712.10
265.68	1755.11
265.89	1812.45
266.11	1669.09
266.33	1675.24
266.54	1775.59
266.76	1744.87
266.98	1689.57
267.19	1738.73
267.41	1734.63
267.62	1693.67
267.84	1634.28
268.06	1767.40
268.27	1710.05
268.49	1740.77
268.70	1701.86
268.92	1759.21
269.14	1601.51
269.35	1583.08
269.57	1667.05
269.79	1738.73
270.00	1660.90
270.22	1802.21
270.43	1658.85
270.65	1560.55
270.87	1806.31
271.08	1740.77
271.30	1781.73
271.51	1689.57
271.73	1683.43
271.95	1794.02
272.16	1689.57
272.38	1681.38
272.59	1671.14
272.81	1748.97
273.02	1738.73
273.24	1771.49
273.46	1732.58
273.67	1656.81
273.89	1673.19
274.10	1724.39
274.32	1763.30
274.54	1679.33
274.75	1714.15
274.97	1654.76
275.18	1759.21
275.40	1718.25
275.61	1673.19
275.83	1638.38
276.05	1615.85
276.26	1671.14
276.48	1732.58
276.69	1677.29
276.91	1736.68
277.12	1759.21
277.34	1755.11
277.55	1705.96
277.77	1732.58
277.99	1689.57
278.20	1548.26
278.42	1585.13
278.63	1689.57
278.85	1628.14
279.06	1576.94
279.28	1667.05
279.49	1726.44
279.71	1701.86
279.93	1675.24
280.14	1695.72
280.36	1617.90
280.57	1736.68
280.79	1722.34
281.00	1675.24
281.22	1638.38
281.43	1820.64
281.65	1556.46
281.86	1617.90
282.08	1681.38
282.29	1810.40
282.51	1671.14
282.73	1591.27
282.94	1607.66
283.16	1658.85
283.37	1789.92
283.59	1728.49
283.80	1730.53
284.02	1669.09
284.23	1765.35
284.45	1681.38
284.66	1667.05
284.88	1695.72
285.09	1740.77
285.31	1716.20
285.52	1705.96
285.74	1548.26
285.95	1759.21
286.17	1761.25
286.38	1679.33
286.60	1685.48
286.81	1726.44
287.03	1671.14
287.24	1673.19
287.46	1730.53
287.67	1695.72
287.89	1763.30
288.10	1687.53
288.32	1734.63
288.53	1767.40
288.75	1703.91
288.96	1757.16
289.18	1630.18
289.39	1687.53
289.61	1722.34
289.82	1771.49
290.04	1791.97
290.25	1638.38
290.47	1683.43
290.68	1705.96
290.90	1757.16
291.11	1662.95
291.33	1757.16
291.54	1597.42
291.76	1722.34
291.97	1660.90
292.18	1724.39
292.40	1630.18
292.61	1642.47
292.83	1894.37
293.04	1685.48
293.26	1718.25
293.47	1677.29
293.69	1613.80
293.90	1683.43
294.12	1744.87
294.33	1771.49
294.55	1837.03
294.76	1781.73
294.97	1802.21
295.19	1877.99
295.40	1701.86
295.62	1765.35
295.83	1710.05
296.05	1630.18
296.26	1726.44
296.48	1660.90
296.69	1669.09
296.90	1742.82
297.12	1693.67
297.33	1730.53
297.55	1671.14
297.76	1759.21
297.98	1773.54
298.19	1701.86
298.41	1628.14
298.62	1708.01
298.83	1773.54
299.05	1644.52
299.26	1697.77
299.48	1697.77
299.69	1685.48
299.90	1681.38
300.12	1652.71
300.33	1734.63
300.55	1705.96
300.76	1726.44
300.98	1630.18
301.19	1732.58
301.40	1617.90
301.62	1607.66
301.83	1710.05
302.05	1634.28
302.26	1630.18
302.47	1646.57
302.69	1687.53
302.90	1712.10
303.12	1650.66
303.33	1777.64
303.54	1849.32
303.76	1658.85
303.97	1619.94
304.19	1781.73
304.40	1646.57
304.61	1724.39
304.83	1765.35
305.04	1757.16
305.26	1687.53
305.47	1644.52
305.68	1736.68
305.90	1585.13
306.11	1683.43
306.33	1691.62
306.54	1613.80
306.75	1728.49
306.97	1578.98
307.18	1654.76
307.39	1705.96
307.61	1681.38
307.82	1705.96
308.04	1705.96
308.25	1609.70
308.46	1734.63
308.68	1697.77
308.89	1767.40
309.10	1755.11
309.32	1722.34
309.53	1691.62
309.74	1728.49
309.96	1646.57
310.17	1761.25
310.39	1621.99
310.60	1679.33
310.81	1748.97
311.03	1560.55
311.24	1783.78
311.45	1683.43
311.67	1742.82
311.88	1744.87
312.09	1658.85
312.31	1632.23
312.52	1695.72
312.73	1708.01
312.95	1697.77
313.16	1697.77
313.37	1810.40
313.59	1744.87
313.80	1685.48
314.01	1804.26
314.23	1675.24
314.44	1632.23
314.65	1628.14
314.87	1705.96
315.08	1708.01
315.29	1615.85
315.51	1697.77
315.72	1624.04
315.93	1796.07
316.15	1779.68
316.36	1665.00
316.57	1767.40
316.79	1748.97
317.00	1755.11
317.21	1728.49
317.43	1578.98
317.64	1742.82
317.85	1691.62
318.07	1693.67
318.28	1753.06
318.49	1761.25
318.70	1947.62
318.92	1753.06
319.13	1837.03
319.34	1839.08
319.56	1761.25
319.77	1796.07
319.98	1810.40
320.20	1720.29
320.41	1728.49
320.62	1742.82
320.83	1624.04
321.05	1851.36
321.26	1744.87
321.47	1619.94
321.69	1722.34
321.90	1634.28
322.11	1697.77
322.32	1683.43
322.54	1767.40
322.75	1697.77
322.96	1789.92
323.18	1656.81
323.39	1640.42
323.60	1589.22
323.81	1751.01
324.03	1716.20
324.24	1769.44
324.45	1683.43
324.66	1722.34
324.88	1734.63
325.09	1789.92
325.30	1714.15
325.52	1710.05
325.73	1736.68
325.94	1654.76
326.15	1648.61
326.37	1681.38
326.58	1779.68
326.79	1687.53
327.00	1648.61
327.22	1748.97
327.43	1673.19
327.64	1669.09
327.85	1779.68
328.07	1777.64
328.28	1843.17
328.49	1660.90
328.70	1646.57
328.92	1699.81
329.13	1703.91
329.34	1746.92
329.55	1843.17
329.76	1681.38
329.98	1703.91
330.19	1734.63
330.40	1722.34
330.61	1710.05
330.83	1728.49
331.04	1722.34
331.25	1656.81
331.46	1640.42
331.68	1607.66
331.89	1769.44
332.10	1695.72
332.31	1665.00
332.52	1703.91
332.74	1761.25
332.95	1626.09
333.16	1722.34
333.37	1757.16
333.58	1662.95
333.80	1748.97
334.01	1589.22
334.22	1703.91
334.43	1726.44
334.64	1656.81
334.86	1667.05
335.07	1628.14
335.28	1736.68
335.49	1626.09
335.70	1738.73
335.92	1705.96
336.13	1896.42
336.34	1730.53
336.55	1757.16
336.76	1853.41
336.98	1574.89
337.19	1605.61
337.40	1738.73
337.61	1869.80
337.82	1683.43
338.04	1705.96
338.25	1658.85
338.46	1638.38
338.67	1685.48
338.88	1593.32
339.09	1671.14
339.31	1705.96
339.52	1689.57
339.73	1673.19
339.94	1685.48
340.15	1785.83
340.36	1665.00
340.58	1613.80
340.79	1662.95
341.00	1802.21
341.21	1576.94
341.42	1837.03
341.63	1689.57
341.85	1726.44
342.06	1687.53
342.27	1695.72
342.48	1746.92
342.69	1654.76
342.90	1720.29
343.12	1722.34
343.33	1722.34
343.54	1697.77
343.75	1865.70
343.96	1751.01
344.17	1583.08
344.38	1681.38
344.60	1593.32
344.81	1615.85
345.02	1732.58
345.23	1738.73
345.44	1751.01
345.65	1742.82
345.86	1714.15
346.07	1720.29
346.29	1708.01
346.50	1751.01
346.71	1726.44
346.92	1806.31
347.13	1869.80
347.34	1650.66
347.55	1716.20
347.76	1708.01
347.98	1550.31
348.19	1722.34
348.40	1789.92
348.61	1716.20
348.82	1775.59
349.03	1748.97
349.24	1652.71
349.45	1777.64
349.66	1570.79
349.88	1691.62
350.09	1644.52
350.30	1746.92
350.51	1701.86
350.72	1796.07
350.93	1763.30
351.14	1601.51
351.35	1708.01
351.56	1734.63
351.77	1714.15
351.99	1691.62
352.20	1824.74
352.41	1800.16
352.62	1609.70
352.83	1699.81
353.04	1757.16
353.25	1605.61
353.46	1798.12
353.67	1787.88
353.88	1613.80
354.09	1615.85
354.30	1652.71
354.52	1781.73
354.73	1763.30
354.94	1699.81
355.15	1697.77
355.36	1880.04
355.57	1675.24
355.78	1765.35
355.99	1685.48
356.20	1720.29
356.41	1736.68
356.62	1732.58
356.83	1744.87
357.04	1820.64
357.25	1628.14
357.46	1642.47
357.68	1621.99
357.89	1681.38
358.10	1683.43
358.31	1658.85
358.52	1665.00
358.73	1677.29
358.94	1665.00
359.15	1701.86
359.36	1730.53
359.57	1673.19
359.78	1697.77
359.99	1728.49
360.20	1701.86
360.41	1712.10
360.62	1714.15
360.83	1781.73
361.04	1665.00
361.25	1714.15
361.46	1828.84
361.67	1738.73
361.88	1779.68
362.09	1814.50
362.30	1703.91
362.51	1757.16
362.72	1742.82
362.93	1744.87
363.14	1714.15
363.35	1755.11
363.56	1683.43
363.78	1681.38
363.99	1757.16
364.20	1634.28
364.41	1779.68
364.62	1802.21
364.83	1679.33
365.04	1714.15
365.25	1728.49
365.46	1828.84
365.67	1693.67
365.88	1693.67
366.09	1697.77
366.30	1755.11
366.51	1746.92
366.72	1685.48
366.93	1628.14
367.14	1691.62
367.35	1765.35
367.56	1710.05
367.77	1726.44
367.98	1628.14
368.18	1708.01
368.39	1767.40
368.60	1660.90
368.81	1744.87
369.02	1728.49
369.23	1738.73
369.44	1611.75
369.65	1632.23
369.86	1656.81
370.07	1755.11
370.28	1626.09
370.49	1724.39
370.70	1660.90
370.91	1656.81
371.12	1634.28
371.33	1767.40
371.54	1699.81
371.75	1740.77
371.96	1568.74
372.17	1675.24
372.38	1744.87
372.59	1734.63
372.80	1701.86
373.01	1652.71
373.22	1689.57
373.43	1669.09
373.64	1619.94
373.85	1787.88
374.06	1800.16
374.26	1705.96
374.47	1693.67
374.68	1832.93
374.89	1644.52
375.10	1673.19
375.31	1748.97
375.52	1716.20
375.73	1685.48
375.94	1636.33
376.15	1826.79
376.36	1648.61
376.57	1701.86
376.78	1705.96
376.99	1730.53
377.20	1759.21
377.40	1611.75
377.61	1804.26
377.82	1587.18
378.03	1765.35
378.24	1662.95
378.45	1658.85
378.66	1689.57
378.87	1593.32
379.08	1607.66
379.29	1732.58
379.50	1791.97
379.71	1671.14
379.91	1763.30
380.12	1658.85
380.33	1765.35
380.54	1718.25
380.75	1705.96
380.96	1734.63
381.17	1767.40
381.38	1662.95
381.59	1820.64
381.80	1748.97
382.00	1816.55
382.21	1828.84
382.42	1830.88
382.63	1861.60
382.84	1710.05
383.05	1775.59
383.26	1832.93
383.47	1722.34
383.68	1687.53
383.88	1740.77
384.09	1658.85
384.30	1763.30
384.51	1761.25
384.72	1701.86
384.93	1601.51
385.14	1724.39
385.35	1837.03
385.55	1607.66
385.76	1742.82
385.97	1718.25
386.18	1626.09
386.39	1673.19
386.60	1669.09
386.81	1697.77
387.02	1650.66
387.22	1744.87
387.43	1789.92
387.64	1748.97
387.85	1871.84
388.06	2205.66
388.27	4362.17
388.48	6852.50
388.68	8460.16
388.89	10127.21
389.10	10010.47
389.31	8812.41
389.52	7638.92
389.73	7098.26
389.93	6467.49
390.14	5920.68
390.35	5250.99
390.56	4685.75
390.77	3844.04
390.98	3045.33
391.18	2525.15
391.39	2158.56
391.60	1816.55
391.81	1828.84
392.02	1665.00
392.23	1806.31
392.43	1716.20
392.64	1867.75
392.85	1689.57
393.06	1791.97
393.27	1665.00
393.47	1619.94
393.68	1751.01
393.89	1769.44
394.10	1701.86
394.31	1691.62
394.52	1716.20
394.72	1693.67
394.93	1794.02
395.14	1697.77
395.35	1728.49
395.56	1714.15
395.76	1816.55
395.97	1755.11
396.18	1820.64
396.39	1816.55
396.60	2002.91
396.80	1910.75
397.01	1818.60
397.22	1837.03
397.43	1765.35
397.64	1740.77
397.84	1822.69
398.05	1898.47
398.26	1761.25
398.47	1820.64
398.67	1703.91
398.88	1683.43
399.09	1691.62
399.30	1601.51
399.51	1714.15
399.71	1660.90
399.92	1691.62
400.13	1765.35
400.34	1691.62
400.54	1656.81
400.75	1777.64
400.96	1740.77
401.17	1849.32
401.37	1730.53
401.58	1675.24
401.79	1697.77
402.00	1865.70
402.21	1990.63
402.41	2050.02
402.62	2009.06
402.83	2009.06
403.04	1955.81
403.24	1937.38
403.45	1888.23
403.66	1902.56
403.87	1841.12
404.07	1855.46
404.28	1863.65
404.49	1832.93
404.70	1777.64
404.90	1804.26
405.11	1720.29
405.32	1720.29
405.52	1710.05
405.73	1716.20
405.94	1705.96
406.15	1665.00
406.35	1757.16
406.56	1771.49
406.77	1773.54
406.98	1685.48
407.18	1689.57
407.39	1800.16
407.60	1681.38
407.80	1796.07
408.01	1667.05
408.22	1761.25
408.43	1708.01
408.63	1679.33
408.84	1691.62
409.05	1771.49
409.25	1642.47
409.46	1701.86
409.67	1673.19
409.88	1636.33
410.08	1722.34
410.29	1621.99
410.50	1714.15
410.70	1714.15
410.91	1689.57
411.12	1722.34
411.32	1722.34
411.53	1624.04
411.74	1798.12
411.95	1763.30
412.15	1748.97
412.36	1751.01
412.57	1740.77
412.77	1814.50
412.98	1714.15
413.19	1718.25
413.39	1763.30
413.60	1732.58
413.81	1775.59
414.01	1658.85
414.22	1691.62
414.43	1746.92
414.63	1703.91
414.84	1726.44
415.05	1789.92
415.25	1679.33
415.46	1720.29
415.67	1658.85
415.87	1742.82
416.08	1705.96
416.29	1630.18
416.49	1728.49
416.70	1683.43
416.91	1759.21
417.11	1652.71
417.32	1695.72
417.53	1708.01
417.73	1816.55
417.94	1687.53
418.15	1748.97
418.35	1683.43
418.56	1703.91
418.77	1875.94
418.97	1703.91
419.18	1722.34
419.38	1556.46
419.59	1740.77
419.80	1785.83
420.00	1746.92
420.21	1693.67
420.42	1740.77
420.62	1787.88
420.83	1720.29
421.04	1703.91
421.24	1710.05
421.45	1767.40
421.65	1759.21
421.86	1642.47
422.07	1785.83
422.27	1724.39
422.48	1683.43
422.69	1593.32
422.89	1617.90
423.10	1609.70
423.30	1695.72
423.51	1753.06
423.72	1726.44
423.92	1763.30
424.13	1613.80
424.33	1658.85
424.54	1710.05
424.75	1693.67
424.95	1812.45
425.16	1789.92
425.36	1697.77
425.57	1771.49
425.78	1732.58
425.98	1818.60
426.19	1724.39
426.39	1646.57
426.60	1714.15
426.81	1775.59
427.01	1673.19
427.22	1669.09
427.42	1671.14
427.63	1556.46
427.83	1796.07
428.04	1779.68
428.25	1796.07
428.45	1708.01
428.66	1689.57
428.86	1681.38
429.07	1724.39
429.28	1701.86
429.48	1687.53
429.69	1652.71
429.89	1787.88
430.10	1644.52
430.30	1665.00
430.51	1771.49
430.71	1648.61
430.92	1673.19
431.13	1693.67
431.33	1757.16
431.54	1656.81
431.74	1894.37
431.95	1832.93
432.15	1576.94
432.36	1732.58
432.56	1667.05
432.77	1886.18
432.98	1867.75
433.18	1720.29
433.39	1632.23
433.59	1665.00
433.80	1800.16
434.00	1773.54
434.21	1681.38
434.41	1640.42
434.62	1820.64
434.82	1689.57
435.03	1638.38
435.23	1699.81
435.44	1591.27
435.64	1673.19
435.85	1779.68
436.06	1728.49
436.26	1697.77
436.47	1681.38
436.67	1685.48
436.88	1669.09
437.08	1748.97
437.29	1787.88
437.49	1744.87
437.70	1796.07
437.90	1736.68
438.11	1822.69
438.31	1767.40
438.52	1808.36
438.72	1873.89
438.93	1869.80
439.13	1855.46
439.34	1791.97
439.54	1744.87
439.75	1837.03
439.95	1800.16
440.16	1759.21
440.36	1820.64
440.57	1849.32
440.77	1812.45
440.98	1718.25
441.18	1812.45
441.39	1726.44
441.59	1681.38
441.80	1837.03
442.00	1697.77
442.21	1773.54
442.41	1673.19
442.62	1742.82
442.82	1609.70
443.02	1724.39
443.23	1728.49
443.43	1701.86
443.64	1812.45
443.84	1656.81
444.05	1783.78
444.25	1734.63
444.46	1703.91
444.66	1669.09
444.87	1871.84
445.07	1646.57
445.28	1757.16
445.48	1732.58
445.69	1773.54
445.89	1871.84
446.09	1738.73
446.30	2064.35
446.50	2697.17
446.71	3778.50
446.91	4411.32
447.12	4810.68
447.32	4949.94
447.53	4358.08
447.73	3983.30
447.93	3557.32
448.14	3231.69
448.34	3231.69
448.55	2983.89
448.75	2815.96
448.96	2717.65
449.16	2447.32
449.36	2404.32
449.57	2101.22
449.77	1935.33
449.98	1800.16
450.18	1820.64
450.39	1808.36
450.59	1763.30
450.79	1763.30
451.00	1677.29
451.20	1757.16
451.41	1665.00
451.61	1802.21
451.81	1693.67
452.02	1783.78
452.22	1689.57
452.43	1708.01
452.63	1646.57
