SpectraSuite Data File
++++++++++++++++++++++++++++++++++++
Date: Mon Jun 06 14:51:37 CEST 2016
User: root
Dark Spectrum Present: No
Reference Spectrum Present: No
Number of Sampled Component Spectra: 1
Spectrometers: USB4C02835
Integration Time (usec): 100000 (USB4C02835)
Spectra Averaged: 1 (USB4C02835)
Boxcar Smoothing: 0 (USB4C02835)
Correct for Electrical Dark: No (USB4C02835)
Strobe/Lamp Enabled: No (USB4C02835)
Correct for Detector Non-linearity: No (USB4C02835)
Correct for Stray Light: No (USB4C02835)
Number of Pixels in Processed Spectrum: 3648
>>>>>Begin Processed Spectral Data<<<<<
177.47	1437.67
177.69	1437.67
177.91	1437.67
178.13	1423.34
178.36	1501.16
178.58	1652.71
178.80	1730.53
179.02	1650.66
179.24	1630.18
179.46	1662.95
179.68	1701.86
179.90	1687.53
180.13	1730.53
180.35	1640.42
180.57	1691.62
180.79	1699.81
181.01	1660.90
181.23	1738.73
181.45	1775.59
181.67	1636.33
181.90	1701.86
182.12	1572.84
182.34	1591.27
182.56	1755.11
182.78	1697.77
183.00	1615.85
183.22	1722.34
183.44	1542.12
183.66	1802.21
183.89	1765.35
184.11	1683.43
184.33	1759.21
184.55	1810.40
184.77	1699.81
184.99	1689.57
185.21	1660.90
185.43	1826.79
185.65	1617.90
185.87	1740.77
186.10	1794.02
186.32	1898.47
186.54	1759.21
186.76	1695.72
186.98	1775.59
187.20	1732.58
187.42	1658.85
187.64	1775.59
187.86	1699.81
188.08	1877.99
188.30	1730.53
188.52	1644.52
188.75	1847.27
188.97	1720.29
189.19	1638.38
189.41	1693.67
189.63	1701.86
189.85	1628.14
190.07	1591.27
190.29	1656.81
190.51	1738.73
190.73	1685.48
190.95	1767.40
191.17	1751.01
191.39	1634.28
191.61	1611.75
191.84	1658.85
192.06	1761.25
192.28	1640.42
192.50	1894.37
192.72	1687.53
192.94	1693.67
193.16	1755.11
193.38	1675.24
193.60	1591.27
193.82	1732.58
194.04	1697.77
194.26	1734.63
194.48	1669.09
194.70	1722.34
194.92	1648.61
195.14	1718.25
195.36	1671.14
195.58	1675.24
195.80	1697.77
196.02	1656.81
196.24	1677.29
196.46	1765.35
196.69	1667.05
196.91	1892.32
197.13	1722.34
197.35	1650.66
197.57	1814.50
197.79	1787.88
198.01	1687.53
198.23	1662.95
198.45	1703.91
198.67	1640.42
198.89	1685.48
199.11	1759.21
199.33	1640.42
199.55	1552.36
199.77	1658.85
199.99	1812.45
200.21	1628.14
200.43	1779.68
200.65	1611.75
200.87	1613.80
201.09	1677.29
201.31	1697.77
201.53	1724.39
201.75	1751.01
201.97	1701.86
202.19	1695.72
202.41	1775.59
202.63	1759.21
202.85	1632.23
203.07	1699.81
203.29	1708.01
203.51	1634.28
203.73	1656.81
203.95	1875.94
204.17	1738.73
204.39	1708.01
204.61	1662.95
204.83	1665.00
205.05	1724.39
205.27	1771.49
205.49	1787.88
205.71	1675.24
205.93	1615.85
206.15	1673.19
206.37	1701.86
206.59	1660.90
206.81	1611.75
207.03	1675.24
207.25	1597.42
207.47	1751.01
207.69	1693.67
207.91	1818.60
208.13	1814.50
208.34	1710.05
208.56	1689.57
208.78	1763.30
209.00	1714.15
209.22	1650.66
209.44	1695.72
209.66	1652.71
209.88	1652.71
210.10	1656.81
210.32	1689.57
210.54	1746.92
210.76	1722.34
210.98	1755.11
211.20	1564.65
211.42	1642.47
211.64	1779.68
211.86	1779.68
212.08	1708.01
212.30	1693.67
212.52	1697.77
212.74	1718.25
212.96	1746.92
213.17	1722.34
213.39	1763.30
213.61	1791.97
213.83	1699.81
214.05	1632.23
214.27	1785.83
214.49	1613.80
214.71	1654.76
214.93	1761.25
215.15	1744.87
215.37	1714.15
215.59	1636.33
215.81	1814.50
216.03	1730.53
216.24	1615.85
216.46	1619.94
216.68	1667.05
216.90	1781.73
217.12	1716.20
217.34	1669.09
217.56	1681.38
217.78	1748.97
218.00	1687.53
218.22	1730.53
218.44	1720.29
218.66	1691.62
218.87	1820.64
219.09	1675.24
219.31	1691.62
219.53	1738.73
219.75	1667.05
219.97	1644.52
220.19	1691.62
220.41	1738.73
220.63	1769.44
220.85	1714.15
221.06	1644.52
221.28	1863.65
221.50	1806.31
221.72	1736.68
221.94	1777.64
222.16	1658.85
222.38	1724.39
222.60	1730.53
222.82	1736.68
223.03	1751.01
223.25	1675.24
223.47	1748.97
223.69	1783.78
223.91	1742.82
224.13	1724.39
224.35	1669.09
224.57	1796.07
224.78	1796.07
225.00	1665.00
225.22	1636.33
225.44	1640.42
225.66	1783.78
225.88	1708.01
226.10	1785.83
226.32	1638.38
226.53	1710.05
226.75	1718.25
226.97	1685.48
227.19	1693.67
227.41	1662.95
227.63	1677.29
227.85	1640.42
228.06	1697.77
228.28	1718.25
228.50	1748.97
228.72	1595.37
228.94	1613.80
229.16	1648.61
229.37	1599.46
229.59	1636.33
229.81	1738.73
230.03	1658.85
230.25	1599.46
230.47	1611.75
230.69	1656.81
230.90	1763.30
231.12	1716.20
231.34	1726.44
231.56	1748.97
231.78	1621.99
232.00	1705.96
232.21	1650.66
232.43	1665.00
232.65	1570.79
232.87	1738.73
233.09	1576.94
233.30	1658.85
233.52	1773.54
233.74	1697.77
233.96	1675.24
234.18	1699.81
234.40	1740.77
234.61	1771.49
234.83	1611.75
235.05	1640.42
235.27	1818.60
235.49	1722.34
235.70	1662.95
235.92	1755.11
236.14	1826.79
236.36	1873.89
236.58	1669.09
236.79	1746.92
237.01	1703.91
237.23	1712.10
237.45	1810.40
237.67	1638.38
237.88	1591.27
238.10	1806.31
238.32	1542.12
238.54	1761.25
238.76	1662.95
238.97	1675.24
239.19	1624.04
239.41	1703.91
239.63	1796.07
239.85	1781.73
240.06	1732.58
240.28	1685.48
240.50	1693.67
240.72	1728.49
240.93	1650.66
241.15	1732.58
241.37	1621.99
241.59	1802.21
241.81	1705.96
242.02	1734.63
242.24	1767.40
242.46	1681.38
242.68	1632.23
242.89	1789.92
243.11	1748.97
243.33	1701.86
243.55	1693.67
243.76	1665.00
243.98	1714.15
244.20	1650.66
244.42	1701.86
244.64	1718.25
244.85	1542.12
245.07	1585.13
245.29	1746.92
245.51	1742.82
245.72	1708.01
245.94	1736.68
246.16	1789.92
246.38	1834.98
246.59	1658.85
246.81	1685.48
247.03	1648.61
247.24	1650.66
247.46	1630.18
247.68	1697.77
247.90	1656.81
248.11	1640.42
248.33	1748.97
248.55	1660.90
248.77	1777.64
248.98	1720.29
249.20	1726.44
249.42	1722.34
249.64	1648.61
249.85	1720.29
250.07	1681.38
250.29	1775.59
250.50	1708.01
250.72	1597.42
250.94	1712.10
251.16	1814.50
251.37	1748.97
251.59	1714.15
251.81	1794.02
252.02	1769.44
252.24	1669.09
252.46	1759.21
252.68	1689.57
252.89	1685.48
253.11	1525.74
253.33	1834.98
253.54	1785.83
253.76	1568.74
253.98	1669.09
254.20	1708.01
254.41	1728.49
254.63	1679.33
254.85	1626.09
255.06	1746.92
255.28	1771.49
255.50	1675.24
255.71	1685.48
255.93	1617.90
256.15	1728.49
256.36	1816.55
256.58	1669.09
256.80	1714.15
257.02	1701.86
257.23	1675.24
257.45	1685.48
257.67	1726.44
257.88	1669.09
258.10	1730.53
258.32	1679.33
258.53	1648.61
258.75	1800.16
258.97	1630.18
259.18	1703.91
259.40	1726.44
259.62	1789.92
259.83	1812.45
260.05	1781.73
260.27	1880.04
260.48	1738.73
260.70	1650.66
260.92	1599.46
261.13	1722.34
261.35	1742.82
261.57	1716.20
261.78	1621.99
262.00	1585.13
262.22	1814.50
262.43	1677.29
262.65	1662.95
262.86	1669.09
263.08	1834.98
263.30	1671.14
263.51	1626.09
263.73	1703.91
263.95	1818.60
264.16	1605.61
264.38	1665.00
264.60	1656.81
264.81	1673.19
265.03	1761.25
265.25	1746.92
265.46	1691.62
265.68	1763.30
265.89	1751.01
266.11	1601.51
266.33	1771.49
266.54	1804.26
266.76	1689.57
266.98	1769.44
267.19	1812.45
267.41	1753.06
267.62	1714.15
267.84	1609.70
268.06	1699.81
268.27	1740.77
268.49	1828.84
268.70	1730.53
268.92	1669.09
269.14	1681.38
269.35	1531.88
269.57	1679.33
269.79	1800.16
270.00	1673.19
270.22	1800.16
270.43	1634.28
270.65	1617.90
270.87	1753.06
271.08	1804.26
271.30	1753.06
271.51	1718.25
271.73	1789.92
271.95	1771.49
272.16	1685.48
272.38	1765.35
272.59	1660.90
272.81	1691.62
273.02	1732.58
273.24	1683.43
273.46	1814.50
273.67	1605.61
273.89	1589.22
274.10	1648.61
274.32	1748.97
274.54	1781.73
274.75	1761.25
274.97	1685.48
275.18	1716.20
275.40	1652.71
275.61	1701.86
275.83	1695.72
276.05	1720.29
276.26	1658.85
276.48	1716.20
276.69	1683.43
276.91	1679.33
277.12	1802.21
277.34	1726.44
277.55	1738.73
277.77	1695.72
277.99	1617.90
278.20	1595.37
278.42	1615.85
278.63	1644.52
278.85	1697.77
279.06	1646.57
279.28	1714.15
279.49	1710.05
279.71	1796.07
279.93	1726.44
280.14	1665.00
280.36	1632.23
280.57	1730.53
280.79	1763.30
281.00	1712.10
281.22	1681.38
281.43	1740.77
281.65	1626.09
281.86	1736.68
282.08	1710.05
282.29	1824.74
282.51	1728.49
282.73	1634.28
282.94	1615.85
283.16	1851.36
283.37	1802.21
283.59	1691.62
283.80	1718.25
284.02	1697.77
284.23	1746.92
284.45	1677.29
284.66	1607.66
284.88	1654.76
285.09	1755.11
285.31	1779.68
285.52	1777.64
285.74	1632.23
285.95	1726.44
286.17	1789.92
286.38	1763.30
286.60	1669.09
286.81	1619.94
287.03	1716.20
287.24	1669.09
287.46	1726.44
287.67	1724.39
287.89	1830.88
288.10	1669.09
288.32	1685.48
288.53	1701.86
288.75	1693.67
288.96	1726.44
289.18	1695.72
289.39	1685.48
289.61	1755.11
289.82	1857.51
290.04	1787.88
290.25	1628.14
290.47	1712.10
290.68	1714.15
290.90	1796.07
291.11	1597.42
291.33	1755.11
291.54	1656.81
291.76	1714.15
291.97	1738.73
292.18	1646.57
292.40	1648.61
292.61	1697.77
292.83	1841.12
293.04	1705.96
293.26	1689.57
293.47	1708.01
293.69	1724.39
293.90	1634.28
294.12	1740.77
294.33	1777.64
294.55	1673.19
294.76	1730.53
294.97	1843.17
295.19	1783.78
295.40	1685.48
295.62	1757.16
295.83	1779.68
296.05	1619.94
296.26	1726.44
296.48	1681.38
296.69	1728.49
296.90	1703.91
297.12	1740.77
297.33	1705.96
297.55	1671.14
297.76	1753.06
297.98	1763.30
298.19	1689.57
298.41	1708.01
298.62	1644.52
298.83	1818.60
299.05	1671.14
299.26	1650.66
299.48	1650.66
299.69	1791.97
299.90	1712.10
300.12	1638.38
300.33	1685.48
300.55	1634.28
300.76	1806.31
300.98	1621.99
301.19	1722.34
301.40	1667.05
301.62	1685.48
301.83	1734.63
302.05	1755.11
302.26	1689.57
302.47	1701.86
302.69	1697.77
302.90	1693.67
303.12	1556.46
303.33	1736.68
303.54	1806.31
303.76	1697.77
303.97	1662.95
304.19	1785.83
304.40	1552.36
304.61	1710.05
304.83	1734.63
305.04	1775.59
305.26	1693.67
305.47	1646.57
305.68	1732.58
305.90	1611.75
306.11	1701.86
306.33	1671.14
306.54	1656.81
306.75	1671.14
306.97	1570.79
307.18	1652.71
307.39	1697.77
307.61	1732.58
307.82	1617.90
308.04	1722.34
308.25	1695.72
308.46	1796.07
308.68	1662.95
308.89	1728.49
309.10	1716.20
309.32	1685.48
309.53	1679.33
309.74	1742.82
309.96	1714.15
310.17	1769.44
310.39	1708.01
310.60	1642.47
310.81	1673.19
311.03	1652.71
311.24	1720.29
311.45	1662.95
311.67	1845.22
311.88	1751.01
312.09	1662.95
312.31	1669.09
312.52	1665.00
312.73	1705.96
312.95	1689.57
313.16	1730.53
313.37	1740.77
313.59	1722.34
313.80	1693.67
314.01	1740.77
314.23	1650.66
314.44	1730.53
314.65	1648.61
314.87	1712.10
315.08	1656.81
315.29	1675.24
315.51	1673.19
315.72	1591.27
315.93	1820.64
316.15	1828.84
316.36	1630.18
316.57	1736.68
316.79	1695.72
317.00	1679.33
317.21	1691.62
317.43	1626.09
317.64	1724.39
317.85	1716.20
318.07	1701.86
318.28	1759.21
318.49	1781.73
318.70	1898.47
318.92	1857.51
319.13	1896.42
319.34	1871.84
319.56	1867.75
319.77	1748.97
319.98	1834.98
320.20	1781.73
320.41	1683.43
320.62	1734.63
320.83	1673.19
321.05	1857.51
321.26	1697.77
321.47	1695.72
321.69	1716.20
321.90	1667.05
322.11	1730.53
322.32	1753.06
322.54	1759.21
322.75	1703.91
322.96	1820.64
323.18	1658.85
323.39	1601.51
323.60	1628.14
323.81	1787.88
324.03	1656.81
324.24	1783.78
324.45	1714.15
324.66	1697.77
324.88	1748.97
325.09	1787.88
325.30	1607.66
325.52	1775.59
325.73	1677.29
325.94	1609.70
326.15	1546.22
326.37	1658.85
326.58	1802.21
326.79	1755.11
327.00	1660.90
327.22	1730.53
327.43	1714.15
327.64	1621.99
327.85	1751.01
328.07	1779.68
328.28	1818.60
328.49	1701.86
328.70	1677.29
328.92	1755.11
329.13	1644.52
329.34	1656.81
329.55	1818.60
329.76	1746.92
329.98	1675.24
330.19	1714.15
330.40	1753.06
330.61	1652.71
330.83	1771.49
331.04	1628.14
331.25	1660.90
331.46	1660.90
331.68	1677.29
331.89	1746.92
332.10	1658.85
332.31	1656.81
332.52	1673.19
332.74	1798.12
332.95	1640.42
333.16	1656.81
333.37	1644.52
333.58	1654.76
333.80	1814.50
334.01	1638.38
334.22	1685.48
334.43	1746.92
334.64	1679.33
334.86	1685.48
335.07	1646.57
335.28	1710.05
335.49	1683.43
335.70	1716.20
335.92	1753.06
336.13	1773.54
336.34	1714.15
336.55	1746.92
336.76	1679.33
336.98	1607.66
337.19	1722.34
337.40	1820.64
337.61	1890.28
337.82	1705.96
338.04	1767.40
338.25	1714.15
338.46	1656.81
338.67	1728.49
338.88	1720.29
339.09	1652.71
339.31	1652.71
339.52	1699.81
339.73	1681.38
339.94	1697.77
340.15	1767.40
340.36	1669.09
340.58	1712.10
340.79	1656.81
341.00	1716.20
341.21	1617.90
341.42	1804.26
341.63	1695.72
341.85	1732.58
342.06	1738.73
342.27	1720.29
342.48	1753.06
342.69	1646.57
342.90	1744.87
343.12	1681.38
343.33	1640.42
343.54	1789.92
343.75	1783.78
343.96	1673.19
344.17	1644.52
344.38	1660.90
344.60	1587.18
344.81	1665.00
345.02	1685.48
345.23	1763.30
345.44	1804.26
345.65	1689.57
345.86	1763.30
346.07	1705.96
346.29	1708.01
346.50	1748.97
346.71	1669.09
346.92	1753.06
347.13	1828.84
347.34	1675.24
347.55	1710.05
347.76	1738.73
347.98	1597.42
348.19	1566.70
348.40	1773.54
348.61	1621.99
348.82	1773.54
349.03	1789.92
349.24	1630.18
349.45	1822.69
349.66	1505.26
349.88	1697.77
350.09	1683.43
350.30	1783.78
350.51	1791.97
350.72	1787.88
350.93	1681.38
351.14	1691.62
351.35	1755.11
351.56	1667.05
351.77	1667.05
351.99	1744.87
352.20	1865.70
352.41	1695.72
352.62	1619.94
352.83	1646.57
353.04	1714.15
353.25	1665.00
353.46	1789.92
353.67	1798.12
353.88	1599.46
354.09	1753.06
354.30	1724.39
354.52	1669.09
354.73	1685.48
354.94	1671.14
355.15	1740.77
355.36	1832.93
355.57	1689.57
355.78	1728.49
355.99	1638.38
356.20	1738.73
356.41	1798.12
356.62	1714.15
356.83	1642.47
357.04	1755.11
357.25	1642.47
357.46	1646.57
357.68	1683.43
357.89	1644.52
358.10	1705.96
358.31	1724.39
358.52	1665.00
358.73	1701.86
358.94	1595.37
359.15	1675.24
359.36	1720.29
359.57	1673.19
359.78	1718.25
359.99	1710.05
360.20	1642.47
360.41	1712.10
360.62	1763.30
360.83	1685.48
361.04	1689.57
361.25	1701.86
361.46	1785.83
361.67	1751.01
361.88	1705.96
362.09	1769.44
362.30	1748.97
362.51	1632.23
362.72	1757.16
362.93	1763.30
363.14	1710.05
363.35	1732.58
363.56	1667.05
363.78	1718.25
363.99	1705.96
364.20	1667.05
364.41	1677.29
364.62	1857.51
364.83	1693.67
365.04	1667.05
365.25	1697.77
365.46	1785.83
365.67	1626.09
365.88	1683.43
366.09	1619.94
366.30	1718.25
366.51	1701.86
366.72	1640.42
366.93	1699.81
367.14	1738.73
367.35	1779.68
367.56	1677.29
367.77	1781.73
367.98	1632.23
368.18	1751.01
368.39	1710.05
368.60	1587.18
368.81	1732.58
369.02	1621.99
369.23	1763.30
369.44	1615.85
369.65	1617.90
369.86	1648.61
370.07	1816.55
370.28	1642.47
370.49	1746.92
370.70	1734.63
370.91	1691.62
371.12	1665.00
371.33	1734.63
371.54	1734.63
371.75	1763.30
371.96	1595.37
372.17	1687.53
372.38	1638.38
372.59	1783.78
372.80	1658.85
373.01	1644.52
373.22	1732.58
373.43	1791.97
373.64	1642.47
373.85	1755.11
374.06	1759.21
374.26	1751.01
374.47	1742.82
374.68	1816.55
374.89	1746.92
375.10	1656.81
375.31	1810.40
375.52	1738.73
375.73	1730.53
375.94	1681.38
376.15	1794.02
376.36	1642.47
376.57	1675.24
376.78	1658.85
376.99	1705.96
377.20	1767.40
377.40	1765.35
377.61	1834.98
377.82	1603.56
378.03	1763.30
378.24	1697.77
378.45	1705.96
378.66	1740.77
378.87	1640.42
379.08	1603.56
379.29	1720.29
379.50	1742.82
379.71	1691.62
379.91	1740.77
380.12	1650.66
380.33	1716.20
380.54	1662.95
380.75	1742.82
380.96	1646.57
381.17	1783.78
381.38	1665.00
381.59	1681.38
381.80	1742.82
382.00	1808.36
382.21	1691.62
382.42	1861.60
382.63	1904.61
382.84	1857.51
383.05	1794.02
383.26	1742.82
383.47	1701.86
383.68	1761.25
383.88	1751.01
384.09	1642.47
384.30	1814.50
384.51	1718.25
384.72	1675.24
384.93	1695.72
385.14	1734.63
385.35	1728.49
385.55	1650.66
385.76	1724.39
385.97	1687.53
386.18	1585.13
386.39	1654.76
386.60	1716.20
386.81	1646.57
387.02	1714.15
387.22	1611.75
387.43	1820.64
387.64	1718.25
387.85	1918.95
388.06	2285.53
388.27	4503.48
388.48	6920.09
388.68	8355.71
388.89	9889.64
389.10	9815.91
389.31	8744.83
389.52	7751.56
389.73	6813.59
389.93	6401.95
390.14	6002.60
390.35	5273.52
390.56	4523.96
390.77	3930.05
390.98	3028.95
391.18	2557.91
391.39	2195.42
391.60	1865.70
391.81	1841.12
392.02	1703.91
392.23	1834.98
392.43	1730.53
392.64	1738.73
392.85	1681.38
393.06	1775.59
393.27	1757.16
393.47	1732.58
393.68	1742.82
393.89	1617.90
394.10	1802.21
394.31	1679.33
394.52	1689.57
394.72	1683.43
394.93	1796.07
395.14	1714.15
395.35	1689.57
395.56	1689.57
395.76	1701.86
395.97	1810.40
396.18	1800.16
396.39	1781.73
396.60	2025.44
396.80	1908.71
397.01	1812.45
397.22	1828.84
397.43	1820.64
397.64	1777.64
397.84	1822.69
398.05	1855.46
398.26	1763.30
398.47	1781.73
398.67	1796.07
398.88	1732.58
399.09	1751.01
399.30	1671.14
399.51	1734.63
399.71	1646.57
399.92	1730.53
400.13	1695.72
400.34	1728.49
400.54	1691.62
400.75	1787.88
400.96	1673.19
401.17	1783.78
401.37	1656.81
401.58	1734.63
401.79	1726.44
402.00	1845.22
402.21	1972.19
402.41	1943.52
402.62	1970.15
402.83	1925.09
403.04	2015.20
403.24	2168.80
403.45	1859.56
403.66	1890.28
403.87	1859.56
404.07	1937.38
404.28	1880.04
404.49	1845.22
404.70	1753.06
404.90	1751.01
405.11	1710.05
405.32	1751.01
405.52	1705.96
405.73	1675.24
405.94	1671.14
406.15	1613.80
406.35	1703.91
406.56	1716.20
406.77	1789.92
406.98	1771.49
407.18	1593.32
407.39	1759.21
407.60	1742.82
407.80	1779.68
408.01	1722.34
408.22	1744.87
408.43	1624.04
408.63	1748.97
408.84	1679.33
409.05	1722.34
409.25	1679.33
409.46	1605.61
409.67	1667.05
409.88	1656.81
410.08	1724.39
410.29	1673.19
410.50	1742.82
410.70	1669.09
410.91	1595.37
411.12	1783.78
411.32	1646.57
411.53	1644.52
411.74	1771.49
411.95	1798.12
412.15	1773.54
412.36	1869.80
412.57	1724.39
412.77	1828.84
412.98	1685.48
413.19	1714.15
413.39	1755.11
413.60	1728.49
413.81	1814.50
414.01	1656.81
414.22	1705.96
414.43	1728.49
414.63	1656.81
414.84	1710.05
415.05	1716.20
415.25	1697.77
415.46	1800.16
415.67	1703.91
415.87	1714.15
416.08	1681.38
416.29	1562.60
416.49	1785.83
416.70	1607.66
416.91	1697.77
417.11	1685.48
417.32	1796.07
417.53	1781.73
417.73	1675.24
417.94	1714.15
418.15	1783.78
418.35	1697.77
418.56	1718.25
418.77	1804.26
418.97	1720.29
419.18	1687.53
419.38	1566.70
419.59	1687.53
419.80	1824.74
420.00	1654.76
420.21	1697.77
420.42	1728.49
420.62	1763.30
420.83	1724.39
421.04	1634.28
421.24	1722.34
421.45	1796.07
421.65	1691.62
421.86	1624.04
422.07	1685.48
422.27	1744.87
422.48	1730.53
422.69	1669.09
422.89	1742.82
423.10	1677.29
423.30	1630.18
423.51	1689.57
423.72	1714.15
423.92	1775.59
424.13	1611.75
424.33	1748.97
424.54	1697.77
424.75	1724.39
424.95	1794.02
425.16	1781.73
425.36	1640.42
425.57	1761.25
425.78	1740.77
425.98	1781.73
426.19	1640.42
426.39	1619.94
426.60	1732.58
426.81	1822.69
427.01	1763.30
427.22	1689.57
427.42	1599.46
427.63	1654.76
427.83	1753.06
428.04	1841.12
428.25	1738.73
428.45	1812.45
428.66	1726.44
428.86	1738.73
429.07	1689.57
429.28	1675.24
429.48	1705.96
429.69	1619.94
429.89	1720.29
430.10	1732.58
430.30	1767.40
430.51	1765.35
430.71	1667.05
430.92	1761.25
431.13	1669.09
431.33	1757.16
431.54	1656.81
431.74	1783.78
431.95	1798.12
432.15	1578.98
432.36	1763.30
432.56	1712.10
432.77	1744.87
432.98	1785.83
433.18	1716.20
433.39	1703.91
433.59	1699.81
433.80	1822.69
434.00	1890.28
434.21	1734.63
434.41	1603.56
434.62	1904.61
434.82	1621.99
435.03	1689.57
435.23	1640.42
435.44	1626.09
435.64	1728.49
435.85	1699.81
436.06	1730.53
436.26	1800.16
436.47	1767.40
436.67	1699.81
436.88	1753.06
437.08	1734.63
437.29	1843.17
437.49	1714.15
437.70	1732.58
437.90	1652.71
438.11	1857.51
438.31	1675.24
438.52	1771.49
438.72	1847.27
438.93	1894.37
439.13	1802.21
439.34	1753.06
439.54	1740.77
439.75	1810.40
439.95	1781.73
440.16	1695.72
440.36	1695.72
440.57	1746.92
440.77	1748.97
440.98	1687.53
441.18	1773.54
441.39	1675.24
441.59	1705.96
441.80	1877.99
442.00	1673.19
442.21	1771.49
442.41	1675.24
442.62	1779.68
442.82	1718.25
443.02	1699.81
443.23	1667.05
443.43	1763.30
443.64	1804.26
443.84	1710.05
444.05	1742.82
444.25	1738.73
444.46	1714.15
444.66	1722.34
444.87	1787.88
445.07	1712.10
445.28	1798.12
445.48	1843.17
445.69	1751.01
445.89	1900.52
446.09	1714.15
446.30	2078.69
446.50	2639.83
446.71	3778.50
446.91	4433.85
447.12	4863.93
447.32	4892.60
447.53	4364.22
447.73	3868.61
447.93	3565.51
448.14	3401.68
448.34	3192.78
448.55	2947.03
448.75	2875.35
448.96	2734.04
449.16	2475.99
449.36	2207.71
449.57	2039.78
449.77	1886.18
449.98	1773.54
450.18	1732.58
450.39	1765.35
450.59	1814.50
450.79	1679.33
451.00	1726.44
451.20	1867.75
451.41	1763.30
451.61	1820.64
451.81	1685.48
452.02	1812.45
452.22	1673.19
452.43	1701.86
452.63	1691.62
