SpectraSuite Data File
++++++++++++++++++++++++++++++++++++
Date: Mon Jun 06 13:14:57 CEST 2016
User: root
Dark Spectrum Present: No
Reference Spectrum Present: No
Number of Sampled Component Spectra: 1
Spectrometers: USB4C02835
Integration Time (usec): 100000 (USB4C02835)
Spectra Averaged: 1 (USB4C02835)
Boxcar Smoothing: 0 (USB4C02835)
Correct for Electrical Dark: No (USB4C02835)
Strobe/Lamp Enabled: No (USB4C02835)
Correct for Detector Non-linearity: No (USB4C02835)
Correct for Stray Light: No (USB4C02835)
Number of Pixels in Processed Spectrum: 3648
>>>>>Begin Processed Spectral Data<<<<<
177.47	1429.48
177.69	1429.48
177.91	1429.48
178.13	1456.11
178.36	1535.98
178.58	1681.38
178.80	1705.96
179.02	1617.90
179.24	1644.52
179.46	1693.67
179.68	1779.68
179.90	1726.44
180.13	1722.34
180.35	1650.66
180.57	1712.10
180.79	1761.25
181.01	1724.39
181.23	1722.34
181.45	1755.11
181.67	1646.57
181.90	1781.73
182.12	1640.42
182.34	1607.66
182.56	1732.58
182.78	1765.35
183.00	1693.67
183.22	1695.72
183.44	1599.46
183.66	1832.93
183.89	1761.25
184.11	1718.25
184.33	1800.16
184.55	1724.39
184.77	1708.01
184.99	1673.19
185.21	1613.80
185.43	1869.80
185.65	1683.43
185.87	1724.39
186.10	1820.64
186.32	1857.51
186.54	1665.00
186.76	1726.44
186.98	1669.09
187.20	1658.85
187.42	1730.53
187.64	1804.26
187.86	1765.35
188.08	1673.19
188.30	1665.00
188.52	1742.82
188.75	1720.29
188.97	1818.60
189.19	1638.38
189.41	1673.19
189.63	1673.19
189.85	1640.42
190.07	1570.79
190.29	1662.95
190.51	1662.95
190.73	1656.81
190.95	1763.30
191.17	1765.35
191.39	1621.99
191.61	1638.38
191.84	1679.33
192.06	1736.68
192.28	1617.90
192.50	1808.36
192.72	1693.67
192.94	1718.25
193.16	1755.11
193.38	1746.92
193.60	1595.37
193.82	1710.05
194.04	1802.21
194.26	1695.72
194.48	1648.61
194.70	1609.70
194.92	1703.91
195.14	1693.67
195.36	1603.56
195.58	1746.92
195.80	1806.31
196.02	1624.04
196.24	1716.20
196.46	1677.29
196.69	1693.67
196.91	1867.75
197.13	1630.18
197.35	1699.81
197.57	1753.06
197.79	1695.72
198.01	1726.44
198.23	1714.15
198.45	1720.29
198.67	1673.19
198.89	1734.63
199.11	1617.90
199.33	1705.96
199.55	1546.22
199.77	1681.38
199.99	1796.07
200.21	1697.77
200.43	1687.53
200.65	1589.22
200.87	1566.70
201.09	1705.96
201.31	1683.43
201.53	1728.49
201.75	1728.49
201.97	1714.15
202.19	1804.26
202.41	1695.72
202.63	1837.03
202.85	1738.73
203.07	1730.53
203.29	1660.90
203.51	1673.19
203.73	1701.86
203.95	1865.70
204.17	1703.91
204.39	1730.53
204.61	1644.52
204.83	1714.15
205.05	1691.62
205.27	1771.49
205.49	1841.12
205.71	1685.48
205.93	1581.03
206.15	1736.68
206.37	1642.47
206.59	1683.43
206.81	1566.70
207.03	1677.29
207.25	1640.42
207.47	1755.11
207.69	1599.46
207.91	1726.44
208.13	1796.07
208.34	1607.66
208.56	1624.04
208.78	1722.34
209.00	1607.66
209.22	1609.70
209.44	1701.86
209.66	1650.66
209.88	1695.72
210.10	1691.62
210.32	1665.00
210.54	1763.30
210.76	1650.66
210.98	1742.82
211.20	1597.42
211.42	1693.67
211.64	1787.88
211.86	1687.53
212.08	1736.68
212.30	1740.77
212.52	1650.66
212.74	1712.10
212.96	1697.77
213.17	1748.97
213.39	1712.10
213.61	1800.16
213.83	1751.01
214.05	1595.37
214.27	1769.44
214.49	1613.80
214.71	1630.18
214.93	1804.26
215.15	1697.77
215.37	1769.44
215.59	1656.81
215.81	1734.63
216.03	1751.01
216.24	1677.29
216.46	1705.96
216.68	1648.61
216.90	1763.30
217.12	1689.57
217.34	1687.53
217.56	1724.39
217.78	1771.49
218.00	1642.47
218.22	1716.20
218.44	1716.20
218.66	1708.01
218.87	1689.57
219.09	1658.85
219.31	1791.97
219.53	1757.16
219.75	1607.66
219.97	1613.80
220.19	1720.29
220.41	1718.25
220.63	1767.40
220.85	1751.01
221.06	1695.72
221.28	1777.64
221.50	1822.69
221.72	1718.25
221.94	1656.81
222.16	1658.85
222.38	1759.21
222.60	1744.87
222.82	1769.44
223.03	1742.82
223.25	1648.61
223.47	1785.83
223.69	1783.78
223.91	1781.73
224.13	1673.19
224.35	1691.62
224.57	1757.16
224.78	1753.06
225.00	1658.85
225.22	1660.90
225.44	1724.39
225.66	1759.21
225.88	1646.57
226.10	1763.30
226.32	1654.76
226.53	1837.03
226.75	1714.15
226.97	1742.82
227.19	1660.90
227.41	1740.77
227.63	1624.04
227.85	1585.13
228.06	1734.63
228.28	1703.91
228.50	1724.39
228.72	1662.95
228.94	1724.39
229.16	1619.94
229.37	1667.05
229.59	1650.66
229.81	1779.68
230.03	1677.29
230.25	1615.85
230.47	1626.09
230.69	1656.81
230.90	1775.59
231.12	1654.76
231.34	1687.53
231.56	1763.30
231.78	1675.24
232.00	1732.58
232.21	1734.63
232.43	1679.33
232.65	1552.36
232.87	1665.00
233.09	1642.47
233.30	1683.43
233.52	1785.83
233.74	1722.34
233.96	1665.00
234.18	1695.72
234.40	1732.58
234.61	1853.41
234.83	1626.09
235.05	1624.04
235.27	1791.97
235.49	1783.78
235.70	1656.81
235.92	1783.78
236.14	1673.19
236.36	1798.12
236.58	1638.38
236.79	1757.16
237.01	1677.29
237.23	1771.49
237.45	1748.97
237.67	1578.98
237.88	1656.81
238.10	1722.34
238.32	1646.57
238.54	1710.05
238.76	1769.44
238.97	1681.38
239.19	1685.48
239.41	1677.29
239.63	1810.40
239.85	1689.57
240.06	1640.42
240.28	1560.55
240.50	1728.49
240.72	1714.15
240.93	1683.43
241.15	1685.48
241.37	1681.38
241.59	1765.35
241.81	1757.16
242.02	1683.43
242.24	1773.54
242.46	1718.25
242.68	1660.90
242.89	1718.25
243.11	1767.40
243.33	1660.90
243.55	1767.40
243.76	1667.05
243.98	1607.66
244.20	1714.15
244.42	1671.14
244.64	1697.77
244.85	1701.86
245.07	1718.25
245.29	1767.40
245.51	1701.86
245.72	1753.06
245.94	1755.11
246.16	1746.92
246.38	1732.58
246.59	1607.66
246.81	1632.23
247.03	1710.05
247.24	1613.80
247.46	1679.33
247.68	1732.58
247.90	1683.43
248.11	1718.25
248.33	1695.72
248.55	1650.66
248.77	1742.82
248.98	1669.09
249.20	1814.50
249.42	1697.77
249.64	1761.25
249.85	1677.29
250.07	1673.19
250.29	1732.58
250.50	1738.73
250.72	1624.04
250.94	1695.72
251.16	1781.73
251.37	1767.40
251.59	1730.53
251.81	1677.29
252.02	1712.10
252.24	1738.73
252.46	1742.82
252.68	1648.61
252.89	1665.00
253.11	1624.04
253.33	1781.73
253.54	1701.86
253.76	1615.85
253.98	1681.38
254.20	1710.05
254.41	1611.75
254.63	1648.61
254.85	1615.85
255.06	1615.85
255.28	1718.25
255.50	1646.57
255.71	1669.09
255.93	1613.80
256.15	1650.66
256.36	1724.39
256.58	1669.09
256.80	1695.72
257.02	1675.24
257.23	1595.37
257.45	1691.62
257.67	1775.59
257.88	1642.47
258.10	1681.38
258.32	1710.05
258.53	1751.01
258.75	1837.03
258.97	1656.81
259.18	1652.71
259.40	1675.24
259.62	1748.97
259.83	1751.01
260.05	1759.21
260.27	1959.91
260.48	1710.05
260.70	1665.00
260.92	1660.90
261.13	1689.57
261.35	1673.19
261.57	1726.44
261.78	1636.33
262.00	1644.52
262.22	1738.73
262.43	1689.57
262.65	1628.14
262.86	1779.68
263.08	1834.98
263.30	1683.43
263.51	1560.55
263.73	1660.90
263.95	1726.44
264.16	1677.29
264.38	1642.47
264.60	1656.81
264.81	1679.33
265.03	1658.85
265.25	1691.62
265.46	1728.49
265.68	1751.01
265.89	1753.06
266.11	1617.90
266.33	1720.29
266.54	1769.44
266.76	1730.53
266.98	1699.81
267.19	1759.21
267.41	1763.30
267.62	1697.77
267.84	1662.95
268.06	1679.33
268.27	1677.29
268.49	1724.39
268.70	1691.62
268.92	1675.24
269.14	1673.19
269.35	1587.18
269.57	1665.00
269.79	1810.40
270.00	1638.38
270.22	1849.32
270.43	1660.90
270.65	1546.22
270.87	1740.77
271.08	1767.40
271.30	1697.77
271.51	1722.34
271.73	1779.68
271.95	1755.11
272.16	1689.57
272.38	1691.62
272.59	1779.68
272.81	1701.86
273.02	1748.97
273.24	1689.57
273.46	1701.86
273.67	1632.23
273.89	1656.81
274.10	1695.72
274.32	1822.69
274.54	1732.58
274.75	1775.59
274.97	1665.00
275.18	1689.57
275.40	1734.63
275.61	1658.85
275.83	1574.89
276.05	1615.85
276.26	1642.47
276.48	1740.77
276.69	1603.56
276.91	1728.49
277.12	1812.45
277.34	1779.68
277.55	1746.92
277.77	1712.10
277.99	1667.05
278.20	1632.23
278.42	1607.66
278.63	1730.53
278.85	1681.38
279.06	1636.33
279.28	1771.49
279.49	1681.38
279.71	1763.30
279.93	1662.95
280.14	1746.92
280.36	1671.14
280.57	1697.77
280.79	1775.59
281.00	1656.81
281.22	1665.00
281.43	1748.97
281.65	1615.85
281.86	1669.09
282.08	1751.01
282.29	1841.12
282.51	1607.66
282.73	1681.38
282.94	1630.18
283.16	1697.77
283.37	1800.16
283.59	1665.00
283.80	1691.62
284.02	1642.47
284.23	1720.29
284.45	1742.82
284.66	1656.81
284.88	1632.23
285.09	1742.82
285.31	1679.33
285.52	1689.57
285.74	1642.47
285.95	1781.73
286.17	1763.30
286.38	1742.82
286.60	1652.71
286.81	1681.38
287.03	1687.53
287.24	1587.18
287.46	1761.25
287.67	1689.57
287.89	1763.30
288.10	1587.18
288.32	1740.77
288.53	1720.29
288.75	1705.96
288.96	1714.15
289.18	1650.66
289.39	1724.39
289.61	1675.24
289.82	1851.36
290.04	1925.09
290.25	1583.08
290.47	1710.05
290.68	1669.09
290.90	1851.36
291.11	1650.66
291.33	1777.64
291.54	1603.56
291.76	1701.86
291.97	1658.85
292.18	1722.34
292.40	1671.14
292.61	1662.95
292.83	1849.32
293.04	1806.31
293.26	1728.49
293.47	1683.43
293.69	1636.33
293.90	1701.86
294.12	1675.24
294.33	1716.20
294.55	1710.05
294.76	1746.92
294.97	1718.25
295.19	1796.07
295.40	1714.15
295.62	1669.09
295.83	1732.58
296.05	1646.57
296.26	1841.12
296.48	1665.00
296.69	1652.71
296.90	1665.00
297.12	1802.21
297.33	1740.77
297.55	1685.48
297.76	1748.97
297.98	1753.06
298.19	1710.05
298.41	1658.85
298.62	1669.09
298.83	1771.49
299.05	1683.43
299.26	1701.86
299.48	1665.00
299.69	1691.62
299.90	1677.29
300.12	1640.42
300.33	1748.97
300.55	1708.01
300.76	1675.24
300.98	1603.56
301.19	1730.53
301.40	1732.58
301.62	1648.61
301.83	1757.16
302.05	1705.96
302.26	1710.05
302.47	1755.11
302.69	1619.94
302.90	1755.11
303.12	1576.94
303.33	1732.58
303.54	1796.07
303.76	1722.34
303.97	1683.43
304.19	1730.53
304.40	1607.66
304.61	1732.58
304.83	1798.12
305.04	1771.49
305.26	1708.01
305.47	1628.14
305.68	1673.19
305.90	1599.46
306.11	1726.44
306.33	1689.57
306.54	1658.85
306.75	1689.57
306.97	1648.61
307.18	1644.52
307.39	1644.52
307.61	1695.72
307.82	1642.47
308.04	1705.96
308.25	1628.14
308.46	1767.40
308.68	1751.01
308.89	1642.47
309.10	1742.82
309.32	1761.25
309.53	1673.19
309.74	1740.77
309.96	1708.01
310.17	1800.16
310.39	1673.19
310.60	1753.06
310.81	1746.92
311.03	1628.14
311.24	1697.77
311.45	1701.86
311.67	1738.73
311.88	1773.54
312.09	1652.71
312.31	1691.62
312.52	1738.73
312.73	1748.97
312.95	1734.63
313.16	1619.94
313.37	1656.81
313.59	1771.49
313.80	1714.15
314.01	1753.06
314.23	1697.77
314.44	1630.18
314.65	1570.79
314.87	1648.61
315.08	1677.29
315.29	1681.38
315.51	1681.38
315.72	1599.46
315.93	1843.17
316.15	1683.43
316.36	1601.51
316.57	1718.25
316.79	1705.96
317.00	1665.00
317.21	1667.05
317.43	1701.86
317.64	1685.48
317.85	1648.61
318.07	1642.47
318.28	1681.38
318.49	1779.68
318.70	1855.46
318.92	1880.04
319.13	1806.31
319.34	1839.08
319.56	1798.12
319.77	1767.40
319.98	1767.40
320.20	1748.97
320.41	1837.03
320.62	1798.12
320.83	1705.96
321.05	1822.69
321.26	1734.63
321.47	1748.97
321.69	1765.35
321.90	1603.56
322.11	1724.39
322.32	1740.77
322.54	1832.93
322.75	1677.29
322.96	1781.73
323.18	1550.31
323.39	1611.75
323.60	1632.23
323.81	1708.01
324.03	1685.48
324.24	1675.24
324.45	1685.48
324.66	1697.77
324.88	1712.10
325.09	1701.86
325.30	1701.86
325.52	1761.25
325.73	1746.92
325.94	1628.14
326.15	1617.90
326.37	1615.85
326.58	1759.21
326.79	1771.49
327.00	1671.14
327.22	1748.97
327.43	1730.53
327.64	1572.84
327.85	1699.81
328.07	1722.34
328.28	1742.82
328.49	1689.57
328.70	1695.72
328.92	1724.39
329.13	1673.19
329.34	1683.43
329.55	1785.83
329.76	1701.86
329.98	1671.14
330.19	1763.30
330.40	1775.59
330.61	1683.43
330.83	1755.11
331.04	1685.48
331.25	1714.15
331.46	1728.49
331.68	1630.18
331.89	1808.36
332.10	1761.25
332.31	1660.90
332.52	1675.24
332.74	1755.11
332.95	1605.61
333.16	1621.99
333.37	1759.21
333.58	1648.61
333.80	1679.33
334.01	1632.23
334.22	1712.10
334.43	1669.09
334.64	1714.15
334.86	1597.42
335.07	1742.82
335.28	1757.16
335.49	1665.00
335.70	1804.26
335.92	1814.50
336.13	1863.65
336.34	1742.82
336.55	1722.34
336.76	1845.22
336.98	1574.89
337.19	1726.44
337.40	1785.83
337.61	1882.08
337.82	1665.00
338.04	1781.73
338.25	1638.38
338.46	1755.11
338.67	1697.77
338.88	1681.38
339.09	1695.72
339.31	1650.66
339.52	1701.86
339.73	1603.56
339.94	1720.29
340.15	1720.29
340.36	1656.81
340.58	1681.38
340.79	1644.52
341.00	1720.29
341.21	1624.04
341.42	1814.50
341.63	1615.85
341.85	1683.43
342.06	1593.32
342.27	1658.85
342.48	1748.97
342.69	1626.09
342.90	1746.92
343.12	1763.30
343.33	1679.33
343.54	1689.57
343.75	1857.51
343.96	1669.09
344.17	1605.61
344.38	1607.66
344.60	1691.62
344.81	1673.19
345.02	1763.30
345.23	1765.35
345.44	1789.92
345.65	1716.20
345.86	1695.72
346.07	1597.42
346.29	1624.04
346.50	1714.15
346.71	1615.85
346.92	1769.44
347.13	1871.84
347.34	1683.43
347.55	1681.38
347.76	1687.53
347.98	1601.51
348.19	1652.71
348.40	1789.92
348.61	1736.68
348.82	1748.97
349.03	1710.05
349.24	1628.14
349.45	1804.26
349.66	1585.13
349.88	1640.42
350.09	1648.61
350.30	1808.36
350.51	1812.45
350.72	1746.92
350.93	1759.21
351.14	1624.04
351.35	1742.82
351.56	1705.96
351.77	1654.76
351.99	1746.92
352.20	1730.53
352.41	1738.73
352.62	1642.47
352.83	1755.11
353.04	1740.77
353.25	1642.47
353.46	1656.81
353.67	1773.54
353.88	1595.37
354.09	1732.58
354.30	1677.29
354.52	1767.40
354.73	1681.38
354.94	1624.04
355.15	1697.77
355.36	1830.88
355.57	1685.48
355.78	1683.43
355.99	1705.96
356.20	1697.77
356.41	1820.64
356.62	1744.87
356.83	1726.44
357.04	1757.16
357.25	1562.60
357.46	1654.76
357.68	1656.81
357.89	1650.66
358.10	1777.64
358.31	1687.53
358.52	1603.56
358.73	1644.52
358.94	1609.70
359.15	1708.01
359.36	1763.30
359.57	1662.95
359.78	1593.32
359.99	1689.57
360.20	1656.81
360.41	1722.34
360.62	1794.02
360.83	1746.92
361.04	1724.39
361.25	1714.15
361.46	1685.48
361.67	1718.25
361.88	1724.39
362.09	1783.78
362.30	1822.69
362.51	1611.75
362.72	1611.75
362.93	1669.09
363.14	1646.57
363.35	1765.35
363.56	1587.18
363.78	1773.54
363.99	1785.83
364.20	1667.05
364.41	1755.11
364.62	1800.16
364.83	1650.66
365.04	1691.62
365.25	1671.14
365.46	1738.73
365.67	1650.66
365.88	1724.39
366.09	1646.57
366.30	1687.53
366.51	1683.43
366.72	1640.42
366.93	1701.86
367.14	1714.15
367.35	1695.72
367.56	1648.61
367.77	1824.74
367.98	1722.34
368.18	1654.76
368.39	1685.48
368.60	1720.29
368.81	1728.49
369.02	1712.10
369.23	1685.48
369.44	1603.56
369.65	1662.95
369.86	1667.05
370.07	1720.29
370.28	1626.09
370.49	1738.73
370.70	1654.76
370.91	1701.86
371.12	1695.72
371.33	1771.49
371.54	1640.42
371.75	1824.74
371.96	1601.51
372.17	1679.33
372.38	1732.58
372.59	1738.73
372.80	1746.92
373.01	1636.33
373.22	1572.84
373.43	1705.96
373.64	1632.23
373.85	1699.81
374.06	1775.59
374.26	1773.54
374.47	1603.56
374.68	1808.36
374.89	1718.25
375.10	1708.01
375.31	1769.44
375.52	1755.11
375.73	1656.81
375.94	1636.33
376.15	1857.51
376.36	1712.10
376.57	1630.18
376.78	1644.52
376.99	1742.82
377.20	1732.58
377.40	1714.15
377.61	1806.31
377.82	1617.90
378.03	1728.49
378.24	1734.63
378.45	1708.01
378.66	1740.77
378.87	1564.65
379.08	1607.66
379.29	1716.20
379.50	1812.45
379.71	1718.25
379.91	1740.77
380.12	1603.56
380.33	1716.20
380.54	1697.77
380.75	1693.67
380.96	1738.73
381.17	1785.83
381.38	1744.87
381.59	1722.34
381.80	1781.73
382.00	1822.69
382.21	1722.34
382.42	1837.03
382.63	1837.03
382.84	1708.01
383.05	1751.01
383.26	1834.98
383.47	1675.24
383.68	1730.53
383.88	1746.92
384.09	1755.11
384.30	1781.73
384.51	1693.67
384.72	1667.05
384.93	1722.34
385.14	1626.09
385.35	1820.64
385.55	1667.05
385.76	1775.59
385.97	1767.40
386.18	1673.19
386.39	1687.53
386.60	1679.33
386.81	1705.96
387.02	1564.65
387.22	1638.38
387.43	1861.60
387.64	1769.44
387.85	1861.60
388.06	2246.62
388.27	4329.41
388.48	6813.59
388.68	8302.47
388.89	9674.60
389.10	9949.03
389.31	8646.52
389.52	7454.61
389.73	6719.39
389.93	6270.88
390.14	5820.33
390.35	5257.14
390.56	4620.22
390.77	3770.31
390.98	2998.23
391.18	2504.67
391.39	2129.89
391.60	1857.51
391.81	1834.98
392.02	1714.15
392.23	1841.12
392.43	1785.83
392.64	1873.89
392.85	1722.34
393.06	1828.84
393.27	1736.68
393.47	1730.53
393.68	1783.78
393.89	1695.72
394.10	1787.88
394.31	1677.29
394.52	1570.79
394.72	1695.72
394.93	1851.36
395.14	1558.50
395.35	1746.92
395.56	1570.79
395.76	1777.64
395.97	1751.01
396.18	1837.03
396.39	1761.25
396.60	2027.49
396.80	1832.93
397.01	1894.37
397.22	1845.22
397.43	1826.79
397.64	1789.92
397.84	1751.01
398.05	1812.45
398.26	1699.81
398.47	1826.79
398.67	1759.21
398.88	1834.98
399.09	1722.34
399.30	1691.62
399.51	1800.16
399.71	1609.70
399.92	1716.20
400.13	1751.01
400.34	1708.01
400.54	1687.53
400.75	1826.79
400.96	1683.43
401.17	1802.21
401.37	1789.92
401.58	1703.91
401.79	1732.58
402.00	1824.74
402.21	2025.44
402.41	1990.63
402.62	2033.63
402.83	2029.54
403.04	1961.95
403.24	2000.87
403.45	1814.50
403.66	1875.94
403.87	1884.13
404.07	1873.89
404.28	1849.32
404.49	1939.43
404.70	1798.12
404.90	1863.65
405.11	1771.49
405.32	1763.30
405.52	1738.73
405.73	1566.70
405.94	1673.19
406.15	1613.80
406.35	1656.81
406.56	1748.97
406.77	1695.72
406.98	1679.33
407.18	1683.43
407.39	1751.01
407.60	1722.34
407.80	1669.09
408.01	1675.24
408.22	1687.53
408.43	1638.38
408.63	1669.09
408.84	1767.40
409.05	1830.88
409.25	1673.19
409.46	1648.61
409.67	1701.86
409.88	1652.71
410.08	1736.68
410.29	1742.82
410.50	1771.49
410.70	1693.67
410.91	1681.38
411.12	1763.30
411.32	1738.73
411.53	1714.15
411.74	1744.87
411.95	1671.14
412.15	1701.86
412.36	1742.82
412.57	1714.15
412.77	1812.45
412.98	1761.25
413.19	1697.77
413.39	1673.19
413.60	1712.10
413.81	1787.88
414.01	1638.38
414.22	1755.11
414.43	1683.43
414.63	1689.57
414.84	1757.16
415.05	1716.20
415.25	1675.24
415.46	1785.83
415.67	1705.96
415.87	1722.34
416.08	1703.91
416.29	1718.25
416.49	1800.16
416.70	1714.15
416.91	1732.58
417.11	1703.91
417.32	1859.56
417.53	1689.57
417.73	1748.97
417.94	1687.53
418.15	1675.24
418.35	1673.19
418.56	1753.06
418.77	1904.61
418.97	1683.43
419.18	1748.97
419.38	1558.50
419.59	1687.53
419.80	1757.16
420.00	1732.58
420.21	1726.44
420.42	1693.67
420.62	1656.81
420.83	1642.47
421.04	1683.43
421.24	1699.81
421.45	1724.39
421.65	1724.39
421.86	1621.99
422.07	1775.59
422.27	1740.77
422.48	1701.86
422.69	1712.10
422.89	1679.33
423.10	1689.57
423.30	1650.66
423.51	1759.21
423.72	1732.58
423.92	1742.82
424.13	1667.05
424.33	1728.49
424.54	1755.11
424.75	1751.01
424.95	1814.50
425.16	1779.68
425.36	1738.73
425.57	1726.44
425.78	1791.97
425.98	1714.15
426.19	1665.00
426.39	1646.57
426.60	1712.10
426.81	1816.55
427.01	1662.95
427.22	1701.86
427.42	1599.46
427.63	1611.75
427.83	1781.73
428.04	1828.84
428.25	1728.49
428.45	1767.40
428.66	1730.53
428.86	1746.92
429.07	1585.13
429.28	1742.82
429.48	1724.39
429.69	1685.48
429.89	1755.11
430.10	1705.96
430.30	1767.40
430.51	1779.68
430.71	1650.66
430.92	1681.38
431.13	1705.96
431.33	1718.25
431.54	1681.38
431.74	1834.98
431.95	1775.59
432.15	1632.23
432.36	1775.59
432.56	1767.40
432.77	1798.12
432.98	1730.53
433.18	1746.92
433.39	1724.39
433.59	1673.19
433.80	1820.64
434.00	1834.98
434.21	1648.61
434.41	1673.19
434.62	1796.07
434.82	1650.66
435.03	1617.90
435.23	1759.21
435.44	1703.91
435.64	1714.15
435.85	1648.61
436.06	1667.05
436.26	1802.21
436.47	1693.67
436.67	1667.05
436.88	1683.43
437.08	1746.92
437.29	1710.05
437.49	1763.30
437.70	1753.06
437.90	1693.67
438.11	1851.36
438.31	1767.40
438.52	1853.41
438.72	1853.41
438.93	1843.17
439.13	1814.50
439.34	1845.22
439.54	1742.82
439.75	1710.05
439.95	1847.27
440.16	1740.77
440.36	1720.29
440.57	1814.50
440.77	1730.53
440.98	1753.06
441.18	1769.44
441.39	1640.42
441.59	1701.86
441.80	1847.27
442.00	1701.86
442.21	1875.94
442.41	1708.01
442.62	1746.92
442.82	1740.77
443.02	1683.43
443.23	1722.34
443.43	1683.43
443.64	1820.64
443.84	1626.09
444.05	1908.71
444.25	1722.34
444.46	1740.77
444.66	1789.92
444.87	1779.68
445.07	1636.33
445.28	1714.15
445.48	1804.26
445.69	1783.78
445.89	1865.70
446.09	1734.63
446.30	1986.53
446.50	2701.27
446.71	3745.73
446.91	4194.24
447.12	4716.47
447.32	4714.42
447.53	4251.58
447.73	3837.89
447.93	3563.47
448.14	3323.85
448.34	3149.78
448.55	2891.73
448.75	2815.96
448.96	2686.94
449.16	2480.09
449.36	2322.40
449.57	2080.74
449.77	1871.84
449.98	1779.68
450.18	1853.41
450.39	1859.56
450.59	1705.96
450.79	1638.38
451.00	1656.81
451.20	1759.21
451.41	1748.97
451.61	1800.16
451.81	1755.11
452.02	1724.39
452.22	1685.48
452.43	1701.86
452.63	1689.57
