SpectraSuite Data File
++++++++++++++++++++++++++++++++++++
Date: Mon Jun 06 13:23:17 CEST 2016
User: root
Dark Spectrum Present: No
Reference Spectrum Present: No
Number of Sampled Component Spectra: 1
Spectrometers: USB4C02835
Integration Time (usec): 100000 (USB4C02835)
Spectra Averaged: 1 (USB4C02835)
Boxcar Smoothing: 0 (USB4C02835)
Correct for Electrical Dark: No (USB4C02835)
Strobe/Lamp Enabled: No (USB4C02835)
Correct for Detector Non-linearity: No (USB4C02835)
Correct for Stray Light: No (USB4C02835)
Number of Pixels in Processed Spectrum: 3648
>>>>>Begin Processed Spectral Data<<<<<
177.47	1519.59
177.69	1519.59
177.91	1519.59
178.13	1402.86
178.36	1470.44
178.58	1679.33
178.80	1714.15
179.02	1642.47
179.24	1634.28
179.46	1632.23
179.68	1787.88
179.90	1748.97
180.13	1630.18
180.35	1591.27
180.57	1701.86
180.79	1650.66
181.01	1671.14
181.23	1810.40
181.45	1755.11
181.67	1710.05
181.90	1779.68
182.12	1671.14
182.34	1619.94
182.56	1658.85
182.78	1710.05
183.00	1740.77
183.22	1726.44
183.44	1597.42
183.66	1857.51
183.89	1667.05
184.11	1695.72
184.33	1699.81
184.55	1744.87
184.77	1697.77
184.99	1710.05
185.21	1697.77
185.43	1843.17
185.65	1691.62
185.87	1744.87
186.10	1769.44
186.32	1880.04
186.54	1738.73
186.76	1761.25
186.98	1746.92
187.20	1724.39
187.42	1728.49
187.64	1757.16
187.86	1669.09
188.08	1763.30
188.30	1640.42
188.52	1701.86
188.75	1751.01
188.97	1804.26
189.19	1685.48
189.41	1675.24
189.63	1722.34
189.85	1648.61
190.07	1665.00
190.29	1644.52
190.51	1681.38
190.73	1642.47
190.95	1822.69
191.17	1628.14
191.39	1626.09
191.61	1660.90
191.84	1728.49
192.06	1615.85
192.28	1624.04
192.50	1806.31
192.72	1726.44
192.94	1671.14
193.16	1761.25
193.38	1705.96
193.60	1697.77
193.82	1685.48
194.04	1693.67
194.26	1662.95
194.48	1677.29
194.70	1660.90
194.92	1656.81
195.14	1748.97
195.36	1665.00
195.58	1744.87
195.80	1646.57
196.02	1617.90
196.24	1669.09
196.46	1720.29
196.69	1679.33
196.91	1900.52
197.13	1689.57
197.35	1595.37
197.57	1843.17
197.79	1728.49
198.01	1720.29
198.23	1738.73
198.45	1611.75
198.67	1632.23
198.89	1705.96
199.11	1740.77
199.33	1679.33
199.55	1599.46
199.77	1730.53
199.99	1841.12
200.21	1619.94
200.43	1675.24
200.65	1656.81
200.87	1525.74
201.09	1714.15
201.31	1738.73
201.53	1742.82
201.75	1718.25
201.97	1665.00
202.19	1640.42
202.41	1679.33
202.63	1738.73
202.85	1718.25
203.07	1697.77
203.29	1677.29
203.51	1624.04
203.73	1650.66
203.95	1849.32
204.17	1677.29
204.39	1667.05
204.61	1613.80
204.83	1665.00
205.05	1748.97
205.27	1800.16
205.49	1798.12
205.71	1665.00
205.93	1603.56
206.15	1624.04
206.37	1763.30
206.59	1621.99
206.81	1595.37
207.03	1632.23
207.25	1630.18
207.47	1781.73
207.69	1644.52
207.91	1763.30
208.13	1757.16
208.34	1656.81
208.56	1665.00
208.78	1705.96
209.00	1681.38
209.22	1677.29
209.44	1685.48
209.66	1669.09
209.88	1728.49
210.10	1611.75
210.32	1673.19
210.54	1783.78
210.76	1697.77
210.98	1732.58
211.20	1535.98
211.42	1798.12
211.64	1748.97
211.86	1701.86
212.08	1812.45
212.30	1726.44
212.52	1683.43
212.74	1701.86
212.96	1724.39
213.17	1751.01
213.39	1789.92
213.61	1812.45
213.83	1783.78
214.05	1646.57
214.27	1812.45
214.49	1697.77
214.71	1583.08
214.93	1783.78
215.15	1703.91
215.37	1847.27
215.59	1628.14
215.81	1787.88
216.03	1767.40
216.24	1693.67
216.46	1695.72
216.68	1683.43
216.90	1730.53
217.12	1767.40
217.34	1677.29
217.56	1705.96
217.78	1746.92
218.00	1705.96
218.22	1681.38
218.44	1705.96
218.66	1738.73
218.87	1789.92
219.09	1681.38
219.31	1783.78
219.53	1718.25
219.75	1619.94
219.97	1693.67
220.19	1699.81
220.41	1652.71
220.63	1761.25
220.85	1808.36
221.06	1619.94
221.28	1857.51
221.50	1732.58
221.72	1710.05
221.94	1681.38
222.16	1656.81
222.38	1734.63
222.60	1755.11
222.82	1665.00
223.03	1642.47
223.25	1648.61
223.47	1769.44
223.69	1820.64
223.91	1755.11
224.13	1718.25
224.35	1632.23
224.57	1808.36
224.78	1665.00
225.00	1658.85
225.22	1619.94
225.44	1779.68
225.66	1767.40
225.88	1689.57
226.10	1720.29
226.32	1710.05
226.53	1755.11
226.75	1675.24
226.97	1699.81
227.19	1753.06
227.41	1716.20
227.63	1699.81
227.85	1599.46
228.06	1730.53
228.28	1751.01
228.50	1683.43
228.72	1638.38
228.94	1681.38
229.16	1593.32
229.37	1679.33
229.59	1693.67
229.81	1724.39
230.03	1675.24
230.25	1660.90
230.47	1675.24
230.69	1681.38
230.90	1755.11
231.12	1738.73
231.34	1730.53
231.56	1787.88
231.78	1615.85
232.00	1728.49
232.21	1710.05
232.43	1675.24
232.65	1519.59
232.87	1701.86
233.09	1677.29
233.30	1652.71
233.52	1822.69
233.74	1634.28
233.96	1755.11
234.18	1718.25
234.40	1658.85
234.61	1785.83
234.83	1636.33
235.05	1617.90
235.27	1839.08
235.49	1695.72
235.70	1695.72
235.92	1748.97
236.14	1669.09
236.36	1783.78
236.58	1656.81
236.79	1689.57
237.01	1683.43
237.23	1683.43
237.45	1849.32
237.67	1691.62
237.88	1738.73
238.10	1820.64
238.32	1705.96
238.54	1595.37
238.76	1701.86
238.97	1572.84
239.19	1603.56
239.41	1712.10
239.63	1767.40
239.85	1681.38
240.06	1679.33
240.28	1656.81
240.50	1796.07
240.72	1701.86
240.93	1681.38
241.15	1761.25
241.37	1619.94
241.59	1746.92
241.81	1681.38
242.02	1703.91
242.24	1691.62
242.46	1646.57
242.68	1628.14
242.89	1708.01
243.11	1791.97
243.33	1648.61
243.55	1716.20
243.76	1779.68
243.98	1708.01
244.20	1738.73
244.42	1724.39
244.64	1724.39
244.85	1679.33
245.07	1705.96
245.29	1796.07
245.51	1724.39
245.72	1724.39
245.94	1701.86
246.16	1640.42
246.38	1689.57
246.59	1671.14
246.81	1720.29
247.03	1628.14
247.24	1562.60
247.46	1687.53
247.68	1689.57
247.90	1691.62
248.11	1724.39
248.33	1718.25
248.55	1710.05
248.77	1695.72
248.98	1789.92
249.20	1804.26
249.42	1638.38
249.64	1732.58
249.85	1632.23
250.07	1646.57
250.29	1742.82
250.50	1773.54
250.72	1691.62
250.94	1738.73
251.16	1810.40
251.37	1757.16
251.59	1765.35
251.81	1728.49
252.02	1761.25
252.24	1679.33
252.46	1775.59
252.68	1691.62
252.89	1716.20
253.11	1605.61
253.33	1781.73
253.54	1720.29
253.76	1554.41
253.98	1685.48
254.20	1669.09
254.41	1662.95
254.63	1691.62
254.85	1624.04
255.06	1677.29
255.28	1675.24
255.50	1701.86
255.71	1677.29
255.93	1710.05
256.15	1677.29
256.36	1773.54
256.58	1605.61
256.80	1775.59
257.02	1640.42
257.23	1615.85
257.45	1665.00
257.67	1734.63
257.88	1677.29
258.10	1714.15
258.32	1697.77
258.53	1638.38
258.75	1822.69
258.97	1677.29
259.18	1687.53
259.40	1753.06
259.62	1748.97
259.83	1789.92
260.05	1757.16
260.27	2039.78
260.48	1720.29
260.70	1642.47
260.92	1753.06
261.13	1699.81
261.35	1708.01
261.57	1781.73
261.78	1595.37
262.00	1624.04
262.22	1673.19
262.43	1591.27
262.65	1687.53
262.86	1648.61
263.08	1841.12
263.30	1632.23
263.51	1624.04
263.73	1658.85
263.95	1748.97
264.16	1658.85
264.38	1656.81
264.60	1740.77
264.81	1685.48
265.03	1746.92
265.25	1775.59
265.46	1669.09
265.68	1720.29
265.89	1738.73
266.11	1605.61
266.33	1824.74
266.54	1783.78
266.76	1658.85
266.98	1712.10
267.19	1767.40
267.41	1830.88
267.62	1691.62
267.84	1673.19
268.06	1718.25
268.27	1759.21
268.49	1697.77
268.70	1787.88
268.92	1785.83
269.14	1613.80
269.35	1568.74
269.57	1660.90
269.79	1710.05
270.00	1628.14
270.22	1839.08
270.43	1673.19
270.65	1611.75
270.87	1742.82
271.08	1656.81
271.30	1697.77
271.51	1640.42
271.73	1744.87
271.95	1755.11
272.16	1695.72
272.38	1732.58
272.59	1656.81
272.81	1759.21
273.02	1734.63
273.24	1763.30
273.46	1759.21
273.67	1671.14
273.89	1693.67
274.10	1652.71
274.32	1746.92
274.54	1712.10
274.75	1732.58
274.97	1751.01
275.18	1759.21
275.40	1722.34
275.61	1687.53
275.83	1693.67
276.05	1611.75
276.26	1638.38
276.48	1718.25
276.69	1779.68
276.91	1685.48
277.12	1769.44
277.34	1771.49
277.55	1785.83
277.77	1583.08
277.99	1665.00
278.20	1578.98
278.42	1648.61
278.63	1624.04
278.85	1673.19
279.06	1591.27
279.28	1701.86
279.49	1767.40
279.71	1720.29
279.93	1763.30
280.14	1656.81
280.36	1605.61
280.57	1701.86
280.79	1794.02
281.00	1677.29
281.22	1691.62
281.43	1765.35
281.65	1576.94
281.86	1679.33
282.08	1720.29
282.29	1794.02
282.51	1583.08
282.73	1630.18
282.94	1632.23
283.16	1761.25
283.37	1806.31
283.59	1722.34
283.80	1677.29
284.02	1617.90
284.23	1710.05
284.45	1695.72
284.66	1652.71
284.88	1681.38
285.09	1742.82
285.31	1726.44
285.52	1677.29
285.74	1617.90
285.95	1699.81
286.17	1634.28
286.38	1716.20
286.60	1689.57
286.81	1632.23
287.03	1681.38
287.24	1665.00
287.46	1656.81
287.67	1738.73
287.89	1812.45
288.10	1644.52
288.32	1699.81
288.53	1746.92
288.75	1652.71
288.96	1736.68
289.18	1681.38
289.39	1724.39
289.61	1714.15
289.82	1734.63
290.04	1843.17
290.25	1619.94
290.47	1689.57
290.68	1638.38
290.90	1703.91
291.11	1603.56
291.33	1767.40
291.54	1648.61
291.76	1646.57
291.97	1669.09
292.18	1757.16
292.40	1644.52
292.61	1656.81
292.83	1822.69
293.04	1783.78
293.26	1730.53
293.47	1646.57
293.69	1619.94
293.90	1621.99
294.12	1791.97
294.33	1689.57
294.55	1609.70
294.76	1787.88
294.97	1687.53
295.19	1800.16
295.40	1673.19
295.62	1724.39
295.83	1759.21
296.05	1734.63
296.26	1740.77
296.48	1613.80
296.69	1695.72
296.90	1662.95
297.12	1781.73
297.33	1771.49
297.55	1757.16
297.76	1742.82
297.98	1751.01
298.19	1679.33
298.41	1611.75
298.62	1665.00
298.83	1785.83
299.05	1687.53
299.26	1640.42
299.48	1665.00
299.69	1763.30
299.90	1675.24
300.12	1671.14
300.33	1720.29
300.55	1757.16
300.76	1720.29
300.98	1652.71
301.19	1728.49
301.40	1677.29
301.62	1701.86
301.83	1736.68
302.05	1697.77
302.26	1681.38
302.47	1779.68
302.69	1619.94
302.90	1665.00
303.12	1652.71
303.33	1699.81
303.54	1755.11
303.76	1648.61
303.97	1697.77
304.19	1804.26
304.40	1669.09
304.61	1716.20
304.83	1734.63
305.04	1730.53
305.26	1822.69
305.47	1697.77
305.68	1617.90
305.90	1615.85
306.11	1742.82
306.33	1642.47
306.54	1689.57
306.75	1669.09
306.97	1669.09
307.18	1578.98
307.39	1646.57
307.61	1787.88
307.82	1652.71
308.04	1689.57
308.25	1648.61
308.46	1701.86
308.68	1708.01
308.89	1710.05
309.10	1783.78
309.32	1681.38
309.53	1677.29
309.74	1761.25
309.96	1720.29
310.17	1728.49
310.39	1718.25
310.60	1785.83
310.81	1662.95
311.03	1601.51
311.24	1689.57
311.45	1691.62
311.67	1834.98
311.88	1691.62
312.09	1740.77
312.31	1677.29
312.52	1734.63
312.73	1708.01
312.95	1638.38
313.16	1685.48
313.37	1710.05
313.59	1773.54
313.80	1593.32
314.01	1779.68
314.23	1689.57
314.44	1697.77
314.65	1642.47
314.87	1619.94
315.08	1685.48
315.29	1695.72
315.51	1617.90
315.72	1648.61
315.93	1863.65
316.15	1759.21
316.36	1683.43
316.57	1626.09
316.79	1767.40
317.00	1697.77
317.21	1669.09
317.43	1705.96
317.64	1703.91
317.85	1673.19
318.07	1578.98
318.28	1720.29
318.49	1798.12
318.70	1857.51
318.92	1845.22
319.13	1867.75
319.34	1810.40
319.56	1779.68
319.77	1798.12
319.98	1753.06
320.20	1791.97
320.41	1652.71
320.62	1722.34
320.83	1669.09
321.05	1857.51
321.26	1710.05
321.47	1679.33
321.69	1738.73
321.90	1650.66
322.11	1632.23
322.32	1687.53
322.54	1744.87
322.75	1685.48
322.96	1865.70
323.18	1591.27
323.39	1640.42
323.60	1673.19
323.81	1724.39
324.03	1652.71
324.24	1693.67
324.45	1736.68
324.66	1699.81
324.88	1712.10
325.09	1767.40
325.30	1703.91
325.52	1685.48
325.73	1671.14
325.94	1691.62
326.15	1658.85
326.37	1652.71
326.58	1734.63
326.79	1830.88
327.00	1587.18
327.22	1720.29
327.43	1646.57
327.64	1648.61
327.85	1800.16
328.07	1738.73
328.28	1812.45
328.49	1601.51
328.70	1832.93
328.92	1683.43
329.13	1591.27
329.34	1695.72
329.55	1865.70
329.76	1761.25
329.98	1736.68
330.19	1777.64
330.40	1669.09
330.61	1703.91
330.83	1796.07
331.04	1679.33
331.25	1656.81
331.46	1697.77
331.68	1638.38
331.89	1753.06
332.10	1728.49
332.31	1624.04
332.52	1755.11
332.74	1763.30
332.95	1660.90
333.16	1777.64
333.37	1703.91
333.58	1642.47
333.80	1708.01
334.01	1574.89
334.22	1703.91
334.43	1636.33
334.64	1724.39
334.86	1615.85
335.07	1605.61
335.28	1828.84
335.49	1630.18
335.70	1669.09
335.92	1740.77
336.13	1800.16
336.34	1693.67
336.55	1671.14
336.76	1699.81
336.98	1523.69
337.19	1732.58
337.40	1830.88
337.61	1880.04
337.82	1685.48
338.04	1779.68
338.25	1632.23
338.46	1712.10
338.67	1640.42
338.88	1685.48
339.09	1658.85
339.31	1689.57
339.52	1650.66
339.73	1712.10
339.94	1642.47
340.15	1800.16
340.36	1660.90
340.58	1667.05
340.79	1681.38
341.00	1738.73
341.21	1662.95
341.42	1818.60
341.63	1599.46
341.85	1691.62
342.06	1751.01
342.27	1683.43
342.48	1738.73
342.69	1683.43
342.90	1761.25
343.12	1724.39
343.33	1630.18
343.54	1732.58
343.75	1818.60
343.96	1755.11
344.17	1636.33
344.38	1730.53
344.60	1746.92
344.81	1662.95
345.02	1685.48
345.23	1671.14
345.44	1806.31
345.65	1730.53
345.86	1759.21
346.07	1710.05
346.29	1738.73
346.50	1757.16
346.71	1720.29
346.92	1882.08
347.13	1777.64
347.34	1687.53
347.55	1648.61
347.76	1722.34
347.98	1581.03
348.19	1675.24
348.40	1798.12
348.61	1646.57
348.82	1796.07
349.03	1609.70
349.24	1650.66
349.45	1757.16
349.66	1560.55
349.88	1697.77
350.09	1726.44
350.30	1718.25
350.51	1804.26
350.72	1681.38
350.93	1665.00
351.14	1685.48
351.35	1687.53
351.56	1712.10
351.77	1703.91
351.99	1708.01
352.20	1783.78
352.41	1771.49
352.62	1529.83
352.83	1648.61
353.04	1718.25
353.25	1685.48
353.46	1736.68
353.67	1734.63
353.88	1585.13
354.09	1718.25
354.30	1714.15
354.52	1748.97
354.73	1746.92
354.94	1665.00
355.15	1728.49
355.36	1736.68
355.57	1693.67
355.78	1744.87
355.99	1673.19
356.20	1724.39
356.41	1746.92
356.62	1683.43
356.83	1632.23
357.04	1712.10
357.25	1544.17
357.46	1710.05
357.68	1714.15
357.89	1646.57
358.10	1683.43
358.31	1691.62
358.52	1685.48
358.73	1646.57
358.94	1665.00
359.15	1708.01
359.36	1734.63
359.57	1681.38
359.78	1714.15
359.99	1755.11
360.20	1675.24
360.41	1615.85
360.62	1755.11
360.83	1687.53
361.04	1660.90
361.25	1714.15
361.46	1791.97
361.67	1714.15
361.88	1689.57
362.09	1798.12
362.30	1773.54
362.51	1640.42
362.72	1687.53
362.93	1761.25
363.14	1820.64
363.35	1665.00
363.56	1617.90
363.78	1781.73
363.99	1730.53
364.20	1677.29
364.41	1708.01
364.62	1828.84
364.83	1673.19
365.04	1732.58
365.25	1718.25
365.46	1800.16
365.67	1683.43
365.88	1611.75
366.09	1693.67
366.30	1675.24
366.51	1679.33
366.72	1605.61
366.93	1691.62
367.14	1710.05
367.35	1765.35
367.56	1712.10
367.77	1740.77
367.98	1669.09
368.18	1718.25
368.39	1695.72
368.60	1648.61
368.81	1773.54
369.02	1732.58
369.23	1662.95
369.44	1617.90
369.65	1671.14
369.86	1722.34
370.07	1699.81
370.28	1671.14
370.49	1705.96
370.70	1728.49
370.91	1675.24
371.12	1566.70
371.33	1796.07
371.54	1640.42
371.75	1789.92
371.96	1587.18
372.17	1710.05
372.38	1642.47
372.59	1685.48
372.80	1662.95
373.01	1703.91
373.22	1740.77
373.43	1675.24
373.64	1673.19
373.85	1730.53
374.06	1783.78
374.26	1769.44
374.47	1652.71
374.68	1804.26
374.89	1724.39
375.10	1769.44
375.31	1738.73
375.52	1697.77
375.73	1830.88
375.94	1701.86
376.15	1806.31
376.36	1673.19
376.57	1665.00
376.78	1654.76
376.99	1759.21
377.20	1740.77
377.40	1656.81
377.61	1865.70
377.82	1648.61
378.03	1744.87
378.24	1787.88
378.45	1742.82
378.66	1662.95
378.87	1603.56
379.08	1691.62
379.29	1665.00
379.50	1722.34
379.71	1685.48
379.91	1685.48
380.12	1705.96
380.33	1701.86
380.54	1701.86
380.75	1673.19
380.96	1732.58
381.17	1722.34
381.38	1683.43
381.59	1705.96
381.80	1716.20
382.00	1882.08
382.21	1683.43
382.42	1824.74
382.63	1834.98
382.84	1726.44
383.05	1818.60
383.26	1826.79
383.47	1757.16
383.68	1785.83
383.88	1763.30
384.09	1808.36
384.30	1832.93
384.51	1791.97
384.72	1697.77
384.93	1603.56
385.14	1597.42
385.35	1746.92
385.55	1654.76
385.76	1722.34
385.97	1710.05
386.18	1677.29
386.39	1701.86
386.60	1632.23
386.81	1697.77
387.02	1654.76
387.22	1603.56
387.43	1746.92
387.64	1755.11
387.85	1853.41
388.06	2197.47
388.27	4179.90
388.48	6854.55
388.68	8091.52
388.89	9582.45
389.10	9631.60
389.31	8497.02
389.52	7554.96
389.73	6711.19
389.93	6174.63
390.14	5881.77
390.35	5250.99
390.56	4618.17
390.77	3833.80
390.98	2994.13
391.18	2492.38
391.39	2078.69
391.60	1871.84
391.81	1849.32
392.02	1705.96
392.23	1771.49
392.43	1769.44
392.64	1808.36
392.85	1695.72
393.06	1767.40
393.27	1734.63
393.47	1593.32
393.68	1724.39
393.89	1730.53
394.10	1755.11
394.31	1683.43
394.52	1658.85
394.72	1679.33
394.93	1826.79
395.14	1722.34
395.35	1695.72
395.56	1660.90
395.76	1740.77
395.97	1742.82
396.18	1798.12
396.39	1851.36
396.60	2009.06
396.80	1843.17
397.01	1796.07
397.22	1744.87
397.43	1892.32
397.64	1652.71
397.84	1794.02
398.05	1933.28
398.26	1689.57
398.47	1751.01
398.67	1791.97
398.88	1732.58
399.09	1748.97
399.30	1697.77
399.51	1763.30
399.71	1662.95
399.92	1726.44
400.13	1796.07
400.34	1775.59
400.54	1587.18
400.75	1816.55
400.96	1708.01
401.17	1804.26
401.37	1738.73
401.58	1685.48
401.79	1701.86
402.00	1789.92
402.21	1898.47
402.41	1939.43
402.62	1964.00
402.83	2058.21
403.04	1980.39
403.24	2064.35
403.45	1816.55
403.66	1855.46
403.87	1880.04
404.07	1896.42
404.28	1927.14
404.49	1841.12
404.70	1751.01
404.90	1820.64
405.11	1783.78
405.32	1761.25
405.52	1654.76
405.73	1699.81
405.94	1638.38
406.15	1673.19
406.35	1695.72
406.56	1736.68
406.77	1701.86
406.98	1767.40
407.18	1718.25
407.39	1855.46
407.60	1697.77
407.80	1746.92
408.01	1742.82
408.22	1654.76
408.43	1689.57
408.63	1730.53
408.84	1744.87
409.05	1718.25
409.25	1636.33
409.46	1683.43
409.67	1728.49
409.88	1660.90
410.08	1714.15
410.29	1720.29
410.50	1675.24
410.70	1669.09
410.91	1691.62
411.12	1738.73
411.32	1675.24
411.53	1669.09
411.74	1832.93
411.95	1771.49
412.15	1875.94
412.36	1773.54
412.57	1701.86
412.77	1738.73
412.98	1736.68
413.19	1697.77
413.39	1765.35
413.60	1748.97
413.81	1773.54
414.01	1640.42
414.22	1718.25
414.43	1695.72
414.63	1740.77
414.84	1699.81
415.05	1761.25
415.25	1679.33
415.46	1730.53
415.67	1667.05
415.87	1740.77
416.08	1693.67
416.29	1673.19
416.49	1705.96
416.70	1703.91
416.91	1630.18
417.11	1681.38
417.32	1730.53
417.53	1761.25
417.73	1699.81
417.94	1642.47
418.15	1757.16
418.35	1695.72
418.56	1677.29
418.77	1800.16
418.97	1695.72
419.18	1669.09
419.38	1611.75
419.59	1646.57
419.80	1798.12
420.00	1658.85
420.21	1626.09
420.42	1769.44
420.62	1718.25
420.83	1578.98
421.04	1652.71
421.24	1591.27
421.45	1748.97
421.65	1753.06
421.86	1681.38
422.07	1744.87
422.27	1779.68
422.48	1738.73
422.69	1648.61
422.89	1642.47
423.10	1685.48
423.30	1662.95
423.51	1718.25
423.72	1732.58
423.92	1763.30
424.13	1679.33
424.33	1730.53
424.54	1767.40
424.75	1751.01
424.95	1705.96
425.16	1828.84
425.36	1681.38
425.57	1789.92
425.78	1783.78
425.98	1781.73
426.19	1689.57
426.39	1728.49
426.60	1746.92
426.81	1816.55
427.01	1761.25
427.22	1701.86
427.42	1574.89
427.63	1605.61
427.83	1734.63
428.04	1798.12
428.25	1800.16
428.45	1699.81
428.66	1789.92
428.86	1744.87
429.07	1697.77
429.28	1765.35
429.48	1648.61
429.69	1626.09
429.89	1683.43
430.10	1671.14
430.30	1669.09
430.51	1771.49
430.71	1613.80
430.92	1763.30
431.13	1757.16
431.33	1722.34
431.54	1767.40
431.74	1849.32
431.95	1808.36
432.15	1609.70
432.36	1720.29
432.56	1820.64
432.77	1818.60
432.98	1769.44
433.18	1751.01
433.39	1650.66
433.59	1656.81
433.80	1828.84
434.00	1861.60
434.21	1658.85
434.41	1644.52
434.62	1853.41
434.82	1626.09
435.03	1599.46
435.23	1753.06
435.44	1652.71
435.64	1755.11
435.85	1697.77
436.06	1740.77
436.26	1853.41
436.47	1648.61
436.67	1658.85
436.88	1689.57
437.08	1812.45
437.29	1781.73
437.49	1685.48
437.70	1791.97
437.90	1699.81
438.11	1781.73
438.31	1763.30
438.52	1884.13
438.72	1822.69
438.93	1935.33
439.13	1722.34
439.34	1843.17
439.54	1730.53
439.75	1828.84
439.95	1755.11
440.16	1646.57
440.36	1738.73
440.57	1718.25
440.77	1671.14
440.98	1744.87
441.18	1718.25
441.39	1673.19
441.59	1599.46
441.80	1757.16
442.00	1689.57
442.21	1851.36
442.41	1734.63
442.62	1705.96
442.82	1724.39
443.02	1705.96
443.23	1767.40
443.43	1595.37
443.64	1847.27
443.84	1728.49
444.05	1769.44
444.25	1710.05
444.46	1714.15
444.66	1681.38
444.87	1755.11
445.07	1605.61
445.28	1714.15
445.48	1730.53
445.69	1779.68
445.89	1839.08
446.09	1755.11
446.30	1978.34
446.50	2557.91
446.71	3719.11
446.91	4374.46
447.12	4775.86
447.32	4765.62
447.53	4251.58
447.73	3764.17
447.93	3512.27
448.14	3385.29
448.34	3184.59
448.55	2877.40
448.75	2793.43
448.96	2719.70
449.16	2383.84
449.36	2289.63
449.57	2070.50
449.77	1873.89
449.98	1796.07
450.18	1812.45
450.39	1818.60
450.59	1732.58
450.79	1759.21
451.00	1638.38
451.20	1771.49
451.41	1697.77
451.61	1804.26
451.81	1763.30
452.02	1691.62
452.22	1746.92
452.43	1767.40
452.63	1767.40
