SpectraSuite Data File
++++++++++++++++++++++++++++++++++++
Date: Mon Jun 06 17:38:17 CEST 2016
User: root
Dark Spectrum Present: No
Reference Spectrum Present: No
Number of Sampled Component Spectra: 1
Spectrometers: USB4C02835
Integration Time (usec): 100000 (USB4C02835)
Spectra Averaged: 1 (USB4C02835)
Boxcar Smoothing: 0 (USB4C02835)
Correct for Electrical Dark: No (USB4C02835)
Strobe/Lamp Enabled: No (USB4C02835)
Correct for Detector Non-linearity: No (USB4C02835)
Correct for Stray Light: No (USB4C02835)
Number of Pixels in Processed Spectrum: 3648
>>>>>Begin Processed Spectral Data<<<<<
177.47	1492.97
177.69	1492.97
177.91	1492.97
178.13	1513.45
178.36	1513.45
178.58	1642.47
178.80	1726.44
179.02	1648.61
179.24	1710.05
179.46	1755.11
179.68	1828.84
179.90	1746.92
180.13	1718.25
180.35	1665.00
180.57	1695.72
180.79	1746.92
181.01	1753.06
181.23	1742.82
181.45	1791.97
181.67	1736.68
181.90	1798.12
182.12	1630.18
182.34	1591.27
182.56	1773.54
182.78	1800.16
183.00	1673.19
183.22	1751.01
183.44	1646.57
183.66	1806.31
183.89	1691.62
184.11	1787.88
184.33	1742.82
184.55	1812.45
184.77	1746.92
184.99	1681.38
185.21	1779.68
185.43	1849.32
185.65	1675.24
185.87	1691.62
186.10	1812.45
186.32	1880.04
186.54	1775.59
186.76	1691.62
186.98	1855.46
187.20	1642.47
187.42	1679.33
187.64	1705.96
187.86	1705.96
188.08	1806.31
188.30	1619.94
188.52	1652.71
188.75	1728.49
188.97	1765.35
189.19	1665.00
189.41	1697.77
189.63	1736.68
189.85	1693.67
190.07	1708.01
190.29	1675.24
190.51	1732.58
190.73	1646.57
190.95	1724.39
191.17	1744.87
191.39	1665.00
191.61	1724.39
191.84	1708.01
192.06	1683.43
192.28	1665.00
192.50	1880.04
192.72	1767.40
192.94	1701.86
193.16	1865.70
193.38	1734.63
193.60	1638.38
193.82	1693.67
194.04	1839.08
194.26	1748.97
194.48	1705.96
194.70	1755.11
194.92	1689.57
195.14	1738.73
195.36	1705.96
195.58	1816.55
195.80	1687.53
196.02	1726.44
196.24	1751.01
196.46	1740.77
196.69	1654.76
196.91	1888.23
197.13	1712.10
197.35	1796.07
197.57	1748.97
197.79	1761.25
198.01	1796.07
198.23	1708.01
198.45	1736.68
198.67	1667.05
198.89	1726.44
199.11	1708.01
199.33	1683.43
199.55	1597.42
199.77	1675.24
199.99	1841.12
200.21	1742.82
200.43	1673.19
200.65	1662.95
200.87	1587.18
201.09	1595.37
201.31	1732.58
201.53	1781.73
201.75	1794.02
201.97	1699.81
202.19	1724.39
202.41	1691.62
202.63	1787.88
202.85	1765.35
203.07	1744.87
203.29	1599.46
203.51	1658.85
203.73	1677.29
203.95	1863.65
204.17	1703.91
204.39	1730.53
204.61	1697.77
204.83	1761.25
205.05	1728.49
205.27	1775.59
205.49	1763.30
205.71	1757.16
205.93	1646.57
206.15	1691.62
206.37	1679.33
206.59	1738.73
206.81	1642.47
207.03	1615.85
207.25	1648.61
207.47	1832.93
207.69	1769.44
207.91	1787.88
208.13	1812.45
208.34	1732.58
208.56	1679.33
208.78	1675.24
209.00	1626.09
209.22	1689.57
209.44	1718.25
209.66	1732.58
209.88	1759.21
210.10	1746.92
210.32	1662.95
210.54	1705.96
210.76	1660.90
210.98	1781.73
211.20	1566.70
211.42	1765.35
211.64	1802.21
211.86	1736.68
212.08	1681.38
212.30	1759.21
212.52	1708.01
212.74	1705.96
212.96	1761.25
213.17	1798.12
213.39	1802.21
213.61	1814.50
213.83	1796.07
214.05	1665.00
214.27	1744.87
214.49	1718.25
214.71	1685.48
214.93	1802.21
215.15	1685.48
215.37	1705.96
215.59	1624.04
215.81	1769.44
216.03	1904.61
216.24	1753.06
216.46	1701.86
216.68	1716.20
216.90	1720.29
217.12	1769.44
217.34	1767.40
217.56	1722.34
217.78	1820.64
218.00	1644.52
218.22	1705.96
218.44	1742.82
218.66	1701.86
218.87	1888.23
219.09	1775.59
219.31	1755.11
219.53	1681.38
219.75	1738.73
219.97	1771.49
220.19	1744.87
220.41	1724.39
220.63	1826.79
220.85	1804.26
221.06	1734.63
221.28	1755.11
221.50	1744.87
221.72	1677.29
221.94	1675.24
222.16	1685.48
222.38	1777.64
222.60	1804.26
222.82	1648.61
223.03	1697.77
223.25	1679.33
223.47	1812.45
223.69	1929.19
223.91	1748.97
224.13	1771.49
224.35	1695.72
224.57	1775.59
224.78	1699.81
225.00	1673.19
225.22	1677.29
225.44	1695.72
225.66	1681.38
225.88	1714.15
226.10	1722.34
226.32	1640.42
226.53	1791.97
226.75	1714.15
226.97	1755.11
227.19	1695.72
227.41	1628.14
227.63	1683.43
227.85	1605.61
228.06	1734.63
228.28	1714.15
228.50	1736.68
228.72	1660.90
228.94	1693.67
229.16	1611.75
229.37	1732.58
229.59	1681.38
229.81	1845.22
230.03	1720.29
230.25	1595.37
230.47	1660.90
230.69	1632.23
230.90	1746.92
231.12	1673.19
231.34	1716.20
231.56	1755.11
231.78	1621.99
232.00	1812.45
232.21	1669.09
232.43	1695.72
232.65	1595.37
232.87	1695.72
233.09	1634.28
233.30	1650.66
233.52	1759.21
233.74	1665.00
233.96	1640.42
234.18	1644.52
234.40	1708.01
234.61	1832.93
234.83	1607.66
235.05	1636.33
235.27	1802.21
235.49	1841.12
235.70	1697.77
235.92	1834.98
236.14	1751.01
236.36	1869.80
236.58	1640.42
236.79	1796.07
237.01	1728.49
237.23	1667.05
237.45	1816.55
237.67	1673.19
237.88	1783.78
238.10	1839.08
238.32	1701.86
238.54	1732.58
238.76	1732.58
238.97	1552.36
239.19	1603.56
239.41	1757.16
239.63	1775.59
239.85	1705.96
240.06	1714.15
240.28	1732.58
240.50	1798.12
240.72	1714.15
240.93	1683.43
241.15	1837.03
241.37	1669.09
241.59	1832.93
241.81	1712.10
242.02	1728.49
242.24	1714.15
242.46	1796.07
242.68	1732.58
242.89	1699.81
243.11	1738.73
243.33	1744.87
243.55	1654.76
243.76	1728.49
243.98	1767.40
244.20	1636.33
244.42	1746.92
244.64	1679.33
244.85	1716.20
245.07	1693.67
245.29	1787.88
245.51	1695.72
245.72	1667.05
245.94	1789.92
246.16	1693.67
246.38	1710.05
246.59	1607.66
246.81	1673.19
247.03	1708.01
247.24	1665.00
247.46	1656.81
247.68	1779.68
247.90	1673.19
248.11	1742.82
248.33	1746.92
248.55	1665.00
248.77	1746.92
248.98	1837.03
249.20	1843.17
249.42	1699.81
249.64	1748.97
249.85	1677.29
250.07	1701.86
250.29	1775.59
250.50	1767.40
250.72	1691.62
250.94	1724.39
251.16	1806.31
251.37	1730.53
251.59	1757.16
251.81	1730.53
252.02	1837.03
252.24	1695.72
252.46	1783.78
252.68	1660.90
252.89	1642.47
253.11	1642.47
253.33	1898.47
253.54	1824.74
253.76	1656.81
253.98	1781.73
254.20	1687.53
254.41	1677.29
254.63	1720.29
254.85	1570.79
255.06	1742.82
255.28	1771.49
255.50	1712.10
255.71	1716.20
255.93	1724.39
256.15	1705.96
256.36	1871.84
256.58	1665.00
256.80	1791.97
257.02	1703.91
257.23	1736.68
257.45	1732.58
257.67	1769.44
257.88	1636.33
258.10	1689.57
258.32	1757.16
258.53	1685.48
258.75	1783.78
258.97	1738.73
259.18	1667.05
259.40	1722.34
259.62	1808.36
259.83	1839.08
260.05	1724.39
260.27	1986.53
260.48	1755.11
260.70	1675.24
260.92	1724.39
261.13	1730.53
261.35	1738.73
261.57	1683.43
261.78	1673.19
262.00	1705.96
262.22	1775.59
262.43	1652.71
262.65	1724.39
262.86	1753.06
263.08	1869.80
263.30	1734.63
263.51	1671.14
263.73	1628.14
263.95	1789.92
264.16	1746.92
264.38	1626.09
264.60	1697.77
264.81	1753.06
265.03	1808.36
265.25	1777.64
265.46	1734.63
265.68	1789.92
265.89	1853.41
266.11	1632.23
266.33	1775.59
266.54	1828.84
266.76	1658.85
266.98	1757.16
267.19	1775.59
267.41	1763.30
267.62	1677.29
267.84	1656.81
268.06	1759.21
268.27	1728.49
268.49	1757.16
268.70	1740.77
268.92	1669.09
269.14	1714.15
269.35	1693.67
269.57	1634.28
269.79	1773.54
270.00	1640.42
270.22	1712.10
270.43	1642.47
270.65	1603.56
270.87	1785.83
271.08	1847.27
271.30	1755.11
271.51	1746.92
271.73	1744.87
271.95	1828.84
272.16	1796.07
272.38	1722.34
272.59	1728.49
272.81	1783.78
273.02	1687.53
273.24	1710.05
273.46	1714.15
273.67	1708.01
273.89	1624.04
274.10	1662.95
274.32	1796.07
274.54	1687.53
274.75	1665.00
274.97	1738.73
275.18	1824.74
275.40	1751.01
275.61	1710.05
275.83	1738.73
276.05	1576.94
276.26	1683.43
276.48	1742.82
276.69	1634.28
276.91	1660.90
277.12	1822.69
277.34	1832.93
277.55	1810.40
277.77	1751.01
277.99	1722.34
278.20	1683.43
278.42	1611.75
278.63	1656.81
278.85	1673.19
279.06	1710.05
279.28	1705.96
279.49	1779.68
279.71	1802.21
279.93	1736.68
280.14	1708.01
280.36	1679.33
280.57	1748.97
280.79	1779.68
281.00	1640.42
281.22	1644.52
281.43	1718.25
281.65	1693.67
281.86	1619.94
282.08	1775.59
282.29	1804.26
282.51	1673.19
282.73	1675.24
282.94	1687.53
283.16	1748.97
283.37	1738.73
283.59	1697.77
283.80	1789.92
284.02	1763.30
284.23	1804.26
284.45	1642.47
284.66	1675.24
284.88	1761.25
285.09	1781.73
285.31	1667.05
285.52	1738.73
285.74	1656.81
285.95	1677.29
286.17	1789.92
286.38	1798.12
286.60	1703.91
286.81	1699.81
287.03	1798.12
287.24	1673.19
287.46	1703.91
287.67	1677.29
287.89	1818.60
288.10	1718.25
288.32	1757.16
288.53	1783.78
288.75	1716.20
288.96	1849.32
289.18	1673.19
289.39	1714.15
289.61	1787.88
289.82	1896.42
290.04	1871.84
290.25	1656.81
290.47	1789.92
290.68	1697.77
290.90	1796.07
291.11	1722.34
291.33	1812.45
291.54	1677.29
291.76	1642.47
291.97	1681.38
292.18	1722.34
292.40	1677.29
292.61	1677.29
292.83	1892.32
293.04	1746.92
293.26	1740.77
293.47	1685.48
293.69	1689.57
293.90	1722.34
294.12	1791.97
294.33	1753.06
294.55	1681.38
294.76	1732.58
294.97	1882.08
295.19	1826.79
295.40	1677.29
295.62	1730.53
295.83	1787.88
296.05	1648.61
296.26	1771.49
296.48	1648.61
296.69	1740.77
296.90	1675.24
297.12	1785.83
297.33	1785.83
297.55	1695.72
297.76	1736.68
297.98	1769.44
298.19	1781.73
298.41	1763.30
298.62	1689.57
298.83	1748.97
299.05	1800.16
299.26	1742.82
299.48	1710.05
299.69	1822.69
299.90	1722.34
300.12	1636.33
300.33	1753.06
300.55	1697.77
300.76	1789.92
300.98	1691.62
301.19	1779.68
301.40	1701.86
301.62	1767.40
301.83	1742.82
302.05	1677.29
302.26	1746.92
302.47	1738.73
302.69	1689.57
302.90	1658.85
303.12	1591.27
303.33	1740.77
303.54	1812.45
303.76	1763.30
303.97	1804.26
304.19	1753.06
304.40	1673.19
304.61	1673.19
304.83	1849.32
305.04	1736.68
305.26	1716.20
305.47	1652.71
305.68	1683.43
305.90	1603.56
306.11	1785.83
306.33	1738.73
306.54	1673.19
306.75	1603.56
306.97	1716.20
307.18	1679.33
307.39	1738.73
307.61	1742.82
307.82	1724.39
308.04	1732.58
308.25	1656.81
308.46	1734.63
308.68	1681.38
308.89	1714.15
309.10	1718.25
309.32	1730.53
309.53	1640.42
309.74	1769.44
309.96	1705.96
310.17	1861.60
310.39	1654.76
310.60	1689.57
310.81	1724.39
311.03	1677.29
311.24	1718.25
311.45	1708.01
311.67	1867.75
311.88	1695.72
312.09	1738.73
312.31	1701.86
312.52	1634.28
312.73	1701.86
312.95	1681.38
313.16	1699.81
313.37	1796.07
313.59	1726.44
313.80	1757.16
314.01	1785.83
314.23	1683.43
314.44	1656.81
314.65	1640.42
314.87	1681.38
315.08	1728.49
315.29	1632.23
315.51	1705.96
315.72	1695.72
315.93	1763.30
316.15	1720.29
316.36	1665.00
316.57	1607.66
316.79	1748.97
317.00	1699.81
317.21	1718.25
317.43	1714.15
317.64	1779.68
317.85	1722.34
318.07	1708.01
318.28	1748.97
318.49	1787.88
318.70	1871.84
318.92	1798.12
319.13	1808.36
319.34	1902.56
319.56	1828.84
319.77	1767.40
319.98	1769.44
320.20	1791.97
320.41	1771.49
320.62	1820.64
320.83	1662.95
321.05	1898.47
321.26	1781.73
321.47	1660.90
321.69	1779.68
321.90	1654.76
322.11	1660.90
322.32	1746.92
322.54	1863.65
322.75	1738.73
322.96	1857.51
323.18	1705.96
323.39	1667.05
323.60	1621.99
323.81	1826.79
324.03	1693.67
324.24	1675.24
324.45	1722.34
324.66	1763.30
324.88	1794.02
325.09	1804.26
325.30	1673.19
325.52	1757.16
325.73	1736.68
325.94	1665.00
326.15	1718.25
326.37	1665.00
326.58	1726.44
326.79	1789.92
327.00	1724.39
327.22	1714.15
327.43	1722.34
327.64	1667.05
327.85	1773.54
328.07	1744.87
328.28	1853.41
328.49	1644.52
328.70	1675.24
328.92	1650.66
329.13	1718.25
329.34	1695.72
329.55	1791.97
329.76	1798.12
329.98	1738.73
330.19	1783.78
330.40	1736.68
330.61	1716.20
330.83	1742.82
331.04	1624.04
331.25	1734.63
331.46	1681.38
331.68	1689.57
331.89	1789.92
332.10	1748.97
332.31	1589.22
332.52	1677.29
332.74	1800.16
332.95	1613.80
333.16	1689.57
333.37	1820.64
333.58	1734.63
333.80	1703.91
334.01	1642.47
334.22	1710.05
334.43	1695.72
334.64	1710.05
334.86	1640.42
335.07	1640.42
335.28	1875.94
335.49	1632.23
335.70	1796.07
335.92	1726.44
336.13	1777.64
336.34	1740.77
336.55	1724.39
336.76	1755.11
336.98	1599.46
337.19	1691.62
337.40	1812.45
337.61	1789.92
337.82	1640.42
338.04	1830.88
338.25	1609.70
338.46	1646.57
338.67	1613.80
338.88	1660.90
339.09	1703.91
339.31	1748.97
339.52	1691.62
339.73	1703.91
339.94	1703.91
340.15	1828.84
340.36	1621.99
340.58	1802.21
340.79	1660.90
341.00	1751.01
341.21	1640.42
341.42	1806.31
341.63	1632.23
341.85	1802.21
342.06	1669.09
342.27	1683.43
342.48	1742.82
342.69	1554.41
342.90	1796.07
343.12	1726.44
343.33	1726.44
343.54	1798.12
343.75	1828.84
343.96	1722.34
344.17	1626.09
344.38	1718.25
344.60	1640.42
344.81	1648.61
345.02	1681.38
345.23	1787.88
345.44	1742.82
345.65	1738.73
345.86	1740.77
346.07	1667.05
346.29	1740.77
346.50	1734.63
346.71	1753.06
346.92	1763.30
347.13	1884.13
347.34	1740.77
347.55	1726.44
347.76	1775.59
347.98	1591.27
348.19	1751.01
348.40	1845.22
348.61	1705.96
348.82	1771.49
349.03	1783.78
349.24	1638.38
349.45	1800.16
349.66	1593.32
349.88	1765.35
350.09	1656.81
350.30	1773.54
350.51	1794.02
350.72	1746.92
350.93	1587.18
351.14	1650.66
351.35	1738.73
351.56	1671.14
351.77	1695.72
351.99	1755.11
352.20	1859.56
352.41	1781.73
352.62	1609.70
352.83	1687.53
353.04	1751.01
353.25	1714.15
353.46	1751.01
353.67	1751.01
353.88	1613.80
354.09	1753.06
354.30	1724.39
354.52	1763.30
354.73	1753.06
354.94	1632.23
355.15	1757.16
355.36	1820.64
355.57	1601.51
355.78	1689.57
355.99	1675.24
356.20	1751.01
356.41	1753.06
356.62	1652.71
356.83	1796.07
357.04	1824.74
357.25	1648.61
357.46	1718.25
357.68	1671.14
357.89	1716.20
358.10	1755.11
358.31	1724.39
358.52	1685.48
358.73	1675.24
358.94	1662.95
359.15	1685.48
359.36	1798.12
359.57	1669.09
359.78	1744.87
359.99	1744.87
360.20	1581.03
360.41	1730.53
360.62	1779.68
360.83	1708.01
361.04	1695.72
361.25	1654.76
361.46	1826.79
361.67	1855.46
361.88	1773.54
362.09	1806.31
362.30	1701.86
362.51	1687.53
362.72	1746.92
362.93	1783.78
363.14	1746.92
363.35	1777.64
363.56	1660.90
363.78	1759.21
363.99	1796.07
364.20	1716.20
364.41	1742.82
364.62	1826.79
364.83	1730.53
365.04	1828.84
365.25	1732.58
365.46	1804.26
365.67	1714.15
365.88	1691.62
366.09	1693.67
366.30	1724.39
366.51	1703.91
366.72	1744.87
366.93	1693.67
367.14	1724.39
367.35	1787.88
367.56	1679.33
367.77	1798.12
367.98	1826.79
368.18	1765.35
368.39	1808.36
368.60	1691.62
368.81	1773.54
369.02	1751.01
369.23	1615.85
369.44	1665.00
369.65	1710.05
369.86	1757.16
370.07	1765.35
370.28	1628.14
370.49	1736.68
370.70	1740.77
370.91	1603.56
371.12	1636.33
371.33	1757.16
371.54	1730.53
371.75	1822.69
371.96	1644.52
372.17	1669.09
372.38	1652.71
372.59	1767.40
372.80	1738.73
373.01	1687.53
373.22	1714.15
373.43	1748.97
373.64	1601.51
373.85	1826.79
374.06	1804.26
374.26	1755.11
374.47	1697.77
374.68	1847.27
374.89	1757.16
375.10	1718.25
375.31	1757.16
375.52	1720.29
375.73	1744.87
375.94	1642.47
376.15	1789.92
376.36	1667.05
376.57	1697.77
376.78	1626.09
376.99	1744.87
377.20	1839.08
377.40	1716.20
377.61	1841.12
377.82	1654.76
378.03	1800.16
378.24	1724.39
378.45	1679.33
378.66	1724.39
378.87	1597.42
379.08	1613.80
379.29	1630.18
379.50	1816.55
379.71	1685.48
379.91	1708.01
380.12	1740.77
380.33	1755.11
380.54	1773.54
380.75	1656.81
380.96	1656.81
381.17	1853.41
381.38	1720.29
381.59	1765.35
381.80	1791.97
382.00	1882.08
382.21	1712.10
382.42	1789.92
382.63	1937.38
382.84	1742.82
383.05	1765.35
383.26	1773.54
383.47	1820.64
383.68	1775.59
383.88	1730.53
384.09	1804.26
384.30	1800.16
384.51	1832.93
384.72	1695.72
384.93	1689.57
385.14	1736.68
385.35	1742.82
385.55	1685.48
385.76	1722.34
385.97	1705.96
386.18	1697.77
386.39	1642.47
386.60	1730.53
386.81	1732.58
387.02	1675.24
387.22	1665.00
387.43	1736.68
387.64	1802.21
387.85	1910.75
388.06	2156.51
388.27	4097.99
388.48	6563.74
388.68	8206.21
388.89	9410.42
389.10	9715.56
389.31	8748.92
389.52	7350.16
389.73	6705.05
389.93	6109.09
390.14	5791.66
390.35	5093.30
390.56	4593.59
390.77	3737.54
390.98	2992.08
391.18	2492.38
391.39	2078.69
391.60	1800.16
391.81	1818.60
392.02	1800.16
392.23	1869.80
392.43	1751.01
392.64	1871.84
392.85	1669.09
393.06	1826.79
393.27	1738.73
393.47	1699.81
393.68	1765.35
393.89	1730.53
394.10	1736.68
394.31	1699.81
394.52	1660.90
394.72	1708.01
394.93	1837.03
395.14	1673.19
395.35	1849.32
395.56	1660.90
395.76	1732.58
395.97	1814.50
396.18	1890.28
396.39	1796.07
396.60	2011.11
396.80	1871.84
397.01	1865.70
397.22	1900.52
397.43	1816.55
397.64	1730.53
397.84	1724.39
398.05	1794.02
398.26	1796.07
398.47	1753.06
398.67	1892.32
398.88	1763.30
399.09	1738.73
399.30	1732.58
399.51	1763.30
399.71	1683.43
399.92	1705.96
400.13	1763.30
400.34	1730.53
400.54	1714.15
400.75	1812.45
400.96	1701.86
401.17	1865.70
401.37	1796.07
401.58	1746.92
401.79	1710.05
402.00	1861.60
402.21	2043.87
402.41	1939.43
402.62	1966.05
402.83	2013.15
403.04	2058.21
403.24	2111.46
403.45	1898.47
403.66	1914.85
403.87	1834.98
404.07	1929.19
404.28	1877.99
404.49	1882.08
404.70	1798.12
404.90	1824.74
405.11	1775.59
405.32	1783.78
405.52	1740.77
405.73	1619.94
405.94	1595.37
406.15	1708.01
406.35	1785.83
406.56	1759.21
406.77	1724.39
406.98	1742.82
407.18	1667.05
407.39	1882.08
407.60	1732.58
407.80	1763.30
408.01	1638.38
408.22	1673.19
408.43	1675.24
408.63	1693.67
408.84	1832.93
409.05	1775.59
409.25	1708.01
409.46	1685.48
409.67	1705.96
409.88	1714.15
410.08	1671.14
410.29	1652.71
410.50	1746.92
410.70	1789.92
410.91	1681.38
411.12	1697.77
411.32	1699.81
411.53	1753.06
411.74	1834.98
411.95	1804.26
412.15	1755.11
412.36	1865.70
412.57	1798.12
412.77	1769.44
412.98	1673.19
413.19	1660.90
413.39	1728.49
413.60	1798.12
413.81	1880.04
414.01	1710.05
414.22	1847.27
414.43	1800.16
414.63	1724.39
414.84	1779.68
415.05	1742.82
415.25	1675.24
415.46	1771.49
415.67	1732.58
415.87	1753.06
416.08	1736.68
416.29	1609.70
416.49	1744.87
416.70	1716.20
416.91	1697.77
417.11	1673.19
417.32	1701.86
417.53	1728.49
417.73	1720.29
417.94	1638.38
418.15	1738.73
418.35	1781.73
418.56	1834.98
418.77	1904.61
418.97	1744.87
419.18	1771.49
419.38	1624.04
419.59	1740.77
419.80	1771.49
420.00	1708.01
420.21	1742.82
420.42	1837.03
420.62	1773.54
420.83	1703.91
421.04	1695.72
421.24	1759.21
421.45	1730.53
421.65	1703.91
421.86	1769.44
422.07	1791.97
422.27	1716.20
422.48	1703.91
422.69	1699.81
422.89	1771.49
423.10	1705.96
423.30	1671.14
423.51	1837.03
423.72	1751.01
423.92	1757.16
424.13	1697.77
424.33	1722.34
424.54	1720.29
424.75	1687.53
424.95	1843.17
425.16	1796.07
425.36	1755.11
425.57	1744.87
425.78	1734.63
425.98	1703.91
426.19	1718.25
426.39	1615.85
426.60	1726.44
426.81	1789.92
427.01	1751.01
427.22	1642.47
427.42	1660.90
427.63	1652.71
427.83	1738.73
428.04	1904.61
428.25	1804.26
428.45	1830.88
428.66	1773.54
428.86	1658.85
429.07	1710.05
429.28	1714.15
429.48	1683.43
429.69	1683.43
429.89	1794.02
430.10	1660.90
430.30	1683.43
430.51	1738.73
430.71	1753.06
430.92	1652.71
431.13	1689.57
431.33	1751.01
431.54	1720.29
431.74	1837.03
431.95	1843.17
432.15	1638.38
432.36	1728.49
432.56	1728.49
432.77	1812.45
432.98	1796.07
433.18	1712.10
433.39	1742.82
433.59	1726.44
433.80	1812.45
434.00	1808.36
434.21	1718.25
434.41	1671.14
434.62	1888.23
434.82	1652.71
435.03	1732.58
435.23	1734.63
435.44	1603.56
435.64	1701.86
435.85	1779.68
436.06	1755.11
436.26	1767.40
436.47	1609.70
436.67	1693.67
436.88	1722.34
437.08	1738.73
437.29	1847.27
437.49	1800.16
437.70	1787.88
437.90	1779.68
438.11	1863.65
438.31	1845.22
438.52	1865.70
438.72	1867.75
438.93	1959.91
439.13	1845.22
439.34	1904.61
439.54	1787.88
439.75	1779.68
439.95	1798.12
440.16	1695.72
440.36	1787.88
440.57	1775.59
440.77	1839.08
440.98	1781.73
441.18	1787.88
441.39	1689.57
441.59	1710.05
441.80	1802.21
442.00	1787.88
442.21	1798.12
442.41	1630.18
442.62	1812.45
442.82	1673.19
443.02	1751.01
443.23	1763.30
443.43	1714.15
443.64	1697.77
443.84	1685.48
444.05	1814.50
444.25	1812.45
444.46	1720.29
444.66	1742.82
444.87	1802.21
445.07	1628.14
445.28	1697.77
445.48	1796.07
445.69	1806.31
445.89	1880.04
446.09	1806.31
446.30	1955.81
446.50	2607.06
446.71	3751.88
446.91	4245.44
447.12	4814.77
447.32	4771.77
447.53	4376.51
447.73	3790.79
447.93	3504.07
448.14	3350.48
448.34	3254.22
448.55	2877.40
448.75	2826.20
448.96	2678.74
449.16	2340.83
449.36	2205.66
449.57	1947.62
449.77	1857.51
449.98	1726.44
450.18	1818.60
450.39	1824.74
450.59	1812.45
450.79	1693.67
451.00	1724.39
451.20	1814.50
451.41	1759.21
451.61	1781.73
451.81	1742.82
452.02	1667.05
452.22	1722.34
452.43	1746.92
452.63	1697.77
