SpectraSuite Data File
++++++++++++++++++++++++++++++++++++
Date: Mon Jun 06 12:24:57 CEST 2016
User: root
Dark Spectrum Present: No
Reference Spectrum Present: No
Number of Sampled Component Spectra: 1
Spectrometers: USB4C02835
Integration Time (usec): 100000 (USB4C02835)
Spectra Averaged: 1 (USB4C02835)
Boxcar Smoothing: 0 (USB4C02835)
Correct for Electrical Dark: No (USB4C02835)
Strobe/Lamp Enabled: No (USB4C02835)
Correct for Detector Non-linearity: No (USB4C02835)
Correct for Stray Light: No (USB4C02835)
Number of Pixels in Processed Spectrum: 3648
>>>>>Begin Processed Spectral Data<<<<<
177.47	1396.71
177.69	1396.71
177.91	1396.71
178.13	1417.19
178.36	1456.11
178.58	1613.80
178.80	1746.92
179.02	1587.18
179.24	1654.76
179.46	1675.24
179.68	1738.73
179.90	1656.81
180.13	1744.87
180.35	1654.76
180.57	1722.34
180.79	1753.06
181.01	1660.90
181.23	1736.68
181.45	1783.78
181.67	1648.61
181.90	1791.97
182.12	1640.42
182.34	1583.08
182.56	1730.53
182.78	1738.73
183.00	1699.81
183.22	1687.53
183.44	1560.55
183.66	1886.18
183.89	1753.06
184.11	1705.96
184.33	1787.88
184.55	1730.53
184.77	1697.77
184.99	1642.47
185.21	1683.43
185.43	1804.26
185.65	1634.28
185.87	1683.43
186.10	1855.46
186.32	1785.83
186.54	1701.86
186.76	1736.68
186.98	1769.44
187.20	1710.05
187.42	1740.77
187.64	1718.25
187.86	1693.67
188.08	1781.73
188.30	1683.43
188.52	1677.29
188.75	1783.78
188.97	1771.49
189.19	1650.66
189.41	1724.39
189.63	1775.59
189.85	1699.81
190.07	1642.47
190.29	1628.14
190.51	1804.26
190.73	1650.66
190.95	1810.40
191.17	1648.61
191.39	1589.22
191.61	1673.19
191.84	1718.25
192.06	1748.97
192.28	1652.71
192.50	1798.12
192.72	1665.00
192.94	1753.06
193.16	1800.16
193.38	1687.53
193.60	1634.28
193.82	1669.09
194.04	1767.40
194.26	1654.76
194.48	1734.63
194.70	1691.62
194.92	1658.85
195.14	1728.49
195.36	1646.57
195.58	1730.53
195.80	1714.15
196.02	1693.67
196.24	1632.23
196.46	1732.58
196.69	1724.39
196.91	1808.36
197.13	1693.67
197.35	1626.09
197.57	1753.06
197.79	1658.85
198.01	1703.91
198.23	1689.57
198.45	1728.49
198.67	1665.00
198.89	1740.77
199.11	1722.34
199.33	1648.61
199.55	1523.69
199.77	1642.47
199.99	1759.21
200.21	1591.27
200.43	1724.39
200.65	1597.42
200.87	1519.59
201.09	1730.53
201.31	1632.23
201.53	1722.34
201.75	1730.53
201.97	1705.96
202.19	1636.33
202.41	1697.77
202.63	1828.84
202.85	1732.58
203.07	1683.43
203.29	1714.15
203.51	1636.33
203.73	1675.24
203.95	1900.52
204.17	1705.96
204.39	1697.77
204.61	1732.58
204.83	1656.81
205.05	1773.54
205.27	1773.54
205.49	1816.55
205.71	1697.77
205.93	1595.37
206.15	1650.66
206.37	1685.48
206.59	1755.11
206.81	1656.81
207.03	1615.85
207.25	1730.53
207.47	1761.25
207.69	1802.21
207.91	1697.77
208.13	1742.82
208.34	1603.56
208.56	1642.47
208.78	1759.21
209.00	1679.33
209.22	1658.85
209.44	1689.57
209.66	1732.58
209.88	1718.25
210.10	1712.10
210.32	1710.05
210.54	1728.49
210.76	1662.95
210.98	1718.25
211.20	1591.27
211.42	1716.20
211.64	1726.44
211.86	1812.45
212.08	1744.87
212.30	1652.71
212.52	1714.15
212.74	1697.77
212.96	1755.11
213.17	1730.53
213.39	1705.96
213.61	1734.63
213.83	1773.54
214.05	1648.61
214.27	1744.87
214.49	1689.57
214.71	1640.42
214.93	1775.59
215.15	1730.53
215.37	1824.74
215.59	1652.71
215.81	1726.44
216.03	1800.16
216.24	1693.67
216.46	1585.13
216.68	1732.58
216.90	1687.53
217.12	1783.78
217.34	1810.40
217.56	1699.81
217.78	1734.63
218.00	1720.29
218.22	1734.63
218.44	1755.11
218.66	1716.20
218.87	1798.12
219.09	1671.14
219.31	1724.39
219.53	1712.10
219.75	1662.95
219.97	1675.24
220.19	1685.48
220.41	1701.86
220.63	1804.26
220.85	1732.58
221.06	1599.46
221.28	1806.31
221.50	1701.86
221.72	1761.25
221.94	1683.43
222.16	1740.77
222.38	1626.09
222.60	1683.43
222.82	1708.01
223.03	1703.91
223.25	1570.79
223.47	1673.19
223.69	1884.13
223.91	1720.29
224.13	1757.16
224.35	1746.92
224.57	1757.16
224.78	1701.86
225.00	1665.00
225.22	1656.81
225.44	1708.01
225.66	1744.87
225.88	1667.05
226.10	1787.88
226.32	1761.25
226.53	1794.02
226.75	1644.52
226.97	1689.57
227.19	1640.42
227.41	1636.33
227.63	1607.66
227.85	1583.08
228.06	1708.01
228.28	1705.96
228.50	1708.01
228.72	1638.38
228.94	1714.15
229.16	1597.42
229.37	1660.90
229.59	1650.66
229.81	1789.92
230.03	1697.77
230.25	1599.46
230.47	1638.38
230.69	1634.28
230.90	1753.06
231.12	1624.04
231.34	1662.95
231.56	1746.92
231.78	1605.61
232.00	1681.38
232.21	1642.47
232.43	1685.48
232.65	1609.70
232.87	1669.09
233.09	1650.66
233.30	1566.70
233.52	1740.77
233.74	1728.49
233.96	1710.05
234.18	1736.68
234.40	1712.10
234.61	1781.73
234.83	1607.66
235.05	1644.52
235.27	1822.69
235.49	1746.92
235.70	1722.34
235.92	1755.11
236.14	1767.40
236.36	1748.97
236.58	1626.09
236.79	1802.21
237.01	1697.77
237.23	1673.19
237.45	1757.16
237.67	1638.38
237.88	1705.96
238.10	1771.49
238.32	1667.05
238.54	1753.06
238.76	1675.24
238.97	1658.85
239.19	1703.91
239.41	1691.62
239.63	1755.11
239.85	1730.53
240.06	1701.86
240.28	1650.66
240.50	1775.59
240.72	1714.15
240.93	1699.81
241.15	1759.21
241.37	1699.81
241.59	1798.12
241.81	1681.38
242.02	1783.78
242.24	1691.62
242.46	1738.73
242.68	1681.38
242.89	1654.76
243.11	1773.54
243.33	1658.85
243.55	1685.48
243.76	1697.77
243.98	1669.09
244.20	1652.71
244.42	1632.23
244.64	1640.42
244.85	1624.04
245.07	1660.90
245.29	1714.15
245.51	1697.77
245.72	1710.05
245.94	1765.35
246.16	1732.58
246.38	1718.25
246.59	1652.71
246.81	1689.57
247.03	1761.25
247.24	1572.84
247.46	1708.01
247.68	1734.63
247.90	1769.44
248.11	1734.63
248.33	1736.68
248.55	1697.77
248.77	1714.15
248.98	1697.77
249.20	1785.83
249.42	1751.01
249.64	1626.09
249.85	1714.15
250.07	1697.77
250.29	1708.01
250.50	1730.53
250.72	1568.74
250.94	1710.05
251.16	1894.37
251.37	1757.16
251.59	1740.77
251.81	1685.48
252.02	1771.49
252.24	1669.09
252.46	1796.07
252.68	1646.57
252.89	1710.05
253.11	1619.94
253.33	1804.26
253.54	1808.36
253.76	1619.94
253.98	1640.42
254.20	1710.05
254.41	1632.23
254.63	1699.81
254.85	1695.72
255.06	1714.15
255.28	1787.88
255.50	1599.46
255.71	1726.44
255.93	1624.04
256.15	1718.25
256.36	1675.24
256.58	1714.15
256.80	1732.58
257.02	1626.09
257.23	1710.05
257.45	1632.23
257.67	1730.53
257.88	1605.61
258.10	1701.86
258.32	1638.38
258.53	1781.73
258.75	1708.01
258.97	1710.05
259.18	1646.57
259.40	1722.34
259.62	1773.54
259.83	1712.10
260.05	1710.05
260.27	2017.25
260.48	1697.77
260.70	1572.84
260.92	1621.99
261.13	1746.92
261.35	1773.54
261.57	1683.43
261.78	1568.74
262.00	1621.99
262.22	1671.14
262.43	1699.81
262.65	1701.86
262.86	1675.24
263.08	1820.64
263.30	1716.20
263.51	1621.99
263.73	1585.13
263.95	1746.92
264.16	1667.05
264.38	1603.56
264.60	1636.33
264.81	1656.81
265.03	1742.82
265.25	1685.48
265.46	1716.20
265.68	1753.06
265.89	1830.88
266.11	1578.98
266.33	1767.40
266.54	1736.68
266.76	1724.39
266.98	1697.77
267.19	1722.34
267.41	1779.68
267.62	1671.14
267.84	1701.86
268.06	1683.43
268.27	1712.10
268.49	1722.34
268.70	1755.11
268.92	1673.19
269.14	1705.96
269.35	1587.18
269.57	1646.57
269.79	1697.77
270.00	1660.90
270.22	1757.16
270.43	1652.71
270.65	1540.07
270.87	1703.91
271.08	1748.97
271.30	1716.20
271.51	1740.77
271.73	1722.34
271.95	1753.06
272.16	1691.62
272.38	1689.57
272.59	1624.04
272.81	1689.57
273.02	1671.14
273.24	1722.34
273.46	1685.48
273.67	1658.85
273.89	1665.00
274.10	1587.18
274.32	1775.59
274.54	1681.38
274.75	1722.34
274.97	1617.90
275.18	1724.39
275.40	1703.91
275.61	1675.24
275.83	1619.94
276.05	1642.47
276.26	1669.09
276.48	1726.44
276.69	1710.05
276.91	1675.24
277.12	1761.25
277.34	1691.62
277.55	1708.01
277.77	1722.34
277.99	1708.01
278.20	1638.38
278.42	1753.06
278.63	1669.09
278.85	1601.51
279.06	1587.18
279.28	1683.43
279.49	1720.29
279.71	1789.92
279.93	1697.77
280.14	1701.86
280.36	1634.28
280.57	1738.73
280.79	1691.62
281.00	1626.09
281.22	1685.48
281.43	1755.11
281.65	1587.18
281.86	1665.00
282.08	1732.58
282.29	1775.59
282.51	1611.75
282.73	1630.18
282.94	1542.12
283.16	1722.34
283.37	1769.44
283.59	1634.28
283.80	1656.81
284.02	1671.14
284.23	1656.81
284.45	1636.33
284.66	1662.95
284.88	1665.00
285.09	1673.19
285.31	1824.74
285.52	1679.33
285.74	1665.00
285.95	1769.44
286.17	1644.52
286.38	1759.21
286.60	1658.85
286.81	1701.86
287.03	1673.19
287.24	1654.76
287.46	1732.58
287.67	1644.52
287.89	1757.16
288.10	1681.38
288.32	1744.87
288.53	1777.64
288.75	1673.19
288.96	1767.40
289.18	1640.42
289.39	1724.39
289.61	1724.39
289.82	1812.45
290.04	1740.77
290.25	1687.53
290.47	1716.20
290.68	1683.43
290.90	1730.53
291.11	1578.98
291.33	1785.83
291.54	1673.19
291.76	1724.39
291.97	1742.82
292.18	1681.38
292.40	1640.42
292.61	1677.29
292.83	1789.92
293.04	1773.54
293.26	1660.90
293.47	1685.48
293.69	1630.18
293.90	1734.63
294.12	1787.88
294.33	1703.91
294.55	1697.77
294.76	1755.11
294.97	1759.21
295.19	1753.06
295.40	1683.43
295.62	1691.62
295.83	1734.63
296.05	1681.38
296.26	1744.87
296.48	1724.39
296.69	1734.63
296.90	1642.47
297.12	1642.47
297.33	1716.20
297.55	1699.81
297.76	1708.01
297.98	1736.68
298.19	1708.01
298.41	1703.91
298.62	1613.80
298.83	1740.77
299.05	1794.02
299.26	1607.66
299.48	1660.90
299.69	1726.44
299.90	1671.14
300.12	1695.72
300.33	1675.24
300.55	1689.57
300.76	1701.86
300.98	1660.90
301.19	1705.96
301.40	1685.48
301.62	1677.29
301.83	1679.33
302.05	1746.92
302.26	1701.86
302.47	1730.53
302.69	1695.72
302.90	1652.71
303.12	1587.18
303.33	1714.15
303.54	1845.22
303.76	1644.52
303.97	1738.73
304.19	1720.29
304.40	1755.11
304.61	1718.25
304.83	1796.07
305.04	1671.14
305.26	1691.62
305.47	1693.67
305.68	1656.81
305.90	1638.38
306.11	1722.34
306.33	1617.90
306.54	1650.66
306.75	1669.09
306.97	1619.94
307.18	1626.09
307.39	1660.90
307.61	1812.45
307.82	1650.66
308.04	1675.24
308.25	1705.96
308.46	1693.67
308.68	1705.96
308.89	1751.01
309.10	1691.62
309.32	1689.57
309.53	1667.05
309.74	1730.53
309.96	1697.77
310.17	1746.92
310.39	1607.66
310.60	1763.30
310.81	1683.43
311.03	1691.62
311.24	1767.40
311.45	1675.24
311.67	1751.01
311.88	1718.25
312.09	1656.81
312.31	1652.71
312.52	1701.86
312.73	1619.94
312.95	1658.85
313.16	1697.77
313.37	1716.20
313.59	1705.96
313.80	1726.44
314.01	1822.69
314.23	1624.04
314.44	1609.70
314.65	1679.33
314.87	1624.04
315.08	1642.47
315.29	1626.09
315.51	1650.66
315.72	1628.14
315.93	1787.88
316.15	1728.49
316.36	1652.71
316.57	1765.35
316.79	1771.49
317.00	1619.94
317.21	1681.38
317.43	1693.67
317.64	1652.71
317.85	1619.94
318.07	1624.04
318.28	1720.29
318.49	1783.78
318.70	1918.95
318.92	1892.32
319.13	1746.92
319.34	1890.28
319.56	1783.78
319.77	1714.15
319.98	1820.64
320.20	1769.44
320.41	1705.96
320.62	1705.96
320.83	1636.33
321.05	1843.17
321.26	1748.97
321.47	1691.62
321.69	1718.25
321.90	1677.29
322.11	1650.66
322.32	1740.77
322.54	1806.31
322.75	1708.01
322.96	1806.31
323.18	1646.57
323.39	1585.13
323.60	1640.42
323.81	1740.77
324.03	1751.01
324.24	1746.92
324.45	1675.24
324.66	1630.18
324.88	1716.20
325.09	1753.06
325.30	1683.43
325.52	1665.00
325.73	1648.61
325.94	1642.47
326.15	1558.50
326.37	1656.81
326.58	1701.86
326.79	1839.08
327.00	1556.46
327.22	1740.77
327.43	1615.85
327.64	1589.22
327.85	1740.77
328.07	1679.33
328.28	1832.93
328.49	1718.25
328.70	1683.43
328.92	1591.27
329.13	1728.49
329.34	1714.15
329.55	1761.25
329.76	1621.99
329.98	1722.34
330.19	1740.77
330.40	1685.48
330.61	1691.62
330.83	1734.63
331.04	1658.85
331.25	1632.23
331.46	1634.28
331.68	1697.77
331.89	1796.07
332.10	1656.81
332.31	1679.33
332.52	1691.62
332.74	1789.92
332.95	1617.90
333.16	1634.28
333.37	1712.10
333.58	1660.90
333.80	1671.14
334.01	1615.85
334.22	1681.38
334.43	1734.63
334.64	1624.04
334.86	1591.27
335.07	1656.81
335.28	1755.11
335.49	1699.81
335.70	1765.35
335.92	1742.82
336.13	1783.78
336.34	1757.16
336.55	1628.14
336.76	1697.77
336.98	1581.03
337.19	1613.80
337.40	1744.87
337.61	1847.27
337.82	1652.71
338.04	1701.86
338.25	1624.04
338.46	1624.04
338.67	1656.81
338.88	1681.38
339.09	1574.89
339.31	1695.72
339.52	1658.85
339.73	1671.14
339.94	1701.86
340.15	1769.44
340.36	1603.56
340.58	1716.20
340.79	1652.71
341.00	1665.00
341.21	1619.94
341.42	1759.21
341.63	1720.29
341.85	1738.73
342.06	1724.39
342.27	1591.27
342.48	1771.49
342.69	1599.46
342.90	1675.24
343.12	1748.97
343.33	1673.19
343.54	1681.38
343.75	1765.35
343.96	1667.05
344.17	1665.00
344.38	1671.14
344.60	1683.43
344.81	1572.84
345.02	1617.90
345.23	1789.92
345.44	1826.79
345.65	1716.20
345.86	1714.15
346.07	1687.53
346.29	1683.43
346.50	1689.57
346.71	1757.16
346.92	1742.82
347.13	1748.97
347.34	1648.61
347.55	1667.05
347.76	1710.05
347.98	1681.38
348.19	1714.15
348.40	1783.78
348.61	1691.62
348.82	1705.96
349.03	1736.68
349.24	1634.28
349.45	1763.30
349.66	1583.08
349.88	1695.72
350.09	1650.66
350.30	1787.88
350.51	1753.06
350.72	1734.63
350.93	1679.33
351.14	1642.47
351.35	1703.91
351.56	1708.01
351.77	1703.91
351.99	1638.38
352.20	1763.30
352.41	1812.45
352.62	1566.70
352.83	1683.43
353.04	1732.58
353.25	1640.42
353.46	1787.88
353.67	1695.72
353.88	1591.27
354.09	1703.91
354.30	1685.48
354.52	1722.34
354.73	1703.91
354.94	1701.86
355.15	1650.66
355.36	1724.39
355.57	1734.63
355.78	1662.95
355.99	1701.86
356.20	1705.96
356.41	1791.97
356.62	1730.53
356.83	1644.52
357.04	1779.68
357.25	1523.69
357.46	1724.39
357.68	1566.70
357.89	1535.98
358.10	1673.19
358.31	1714.15
358.52	1796.07
358.73	1626.09
358.94	1650.66
359.15	1648.61
359.36	1710.05
359.57	1748.97
359.78	1697.77
359.99	1699.81
360.20	1689.57
360.41	1675.24
360.62	1716.20
360.83	1744.87
361.04	1656.81
361.25	1691.62
361.46	1875.94
361.67	1740.77
361.88	1710.05
362.09	1638.38
362.30	1734.63
362.51	1626.09
362.72	1746.92
362.93	1781.73
363.14	1656.81
363.35	1738.73
363.56	1636.33
363.78	1738.73
363.99	1759.21
364.20	1632.23
364.41	1787.88
364.62	1714.15
364.83	1669.09
365.04	1730.53
365.25	1644.52
365.46	1720.29
365.67	1613.80
365.88	1525.74
366.09	1685.48
366.30	1718.25
366.51	1683.43
366.72	1693.67
366.93	1605.61
367.14	1626.09
367.35	1830.88
367.56	1669.09
367.77	1796.07
367.98	1689.57
368.18	1667.05
368.39	1740.77
368.60	1683.43
368.81	1763.30
369.02	1687.53
369.23	1619.94
369.44	1626.09
369.65	1658.85
369.86	1681.38
370.07	1779.68
370.28	1701.86
370.49	1685.48
370.70	1742.82
370.91	1697.77
371.12	1574.89
371.33	1726.44
371.54	1695.72
371.75	1751.01
371.96	1599.46
372.17	1615.85
372.38	1734.63
372.59	1763.30
372.80	1669.09
373.01	1703.91
373.22	1718.25
373.43	1619.94
373.64	1599.46
373.85	1820.64
374.06	1759.21
374.26	1761.25
374.47	1753.06
374.68	1787.88
374.89	1699.81
375.10	1736.68
375.31	1691.62
375.52	1699.81
375.73	1689.57
375.94	1726.44
376.15	1763.30
376.36	1656.81
376.57	1673.19
376.78	1671.14
376.99	1767.40
377.20	1728.49
377.40	1630.18
377.61	1773.54
377.82	1683.43
378.03	1724.39
378.24	1716.20
378.45	1710.05
378.66	1677.29
378.87	1591.27
379.08	1603.56
379.29	1667.05
379.50	1751.01
379.71	1738.73
379.91	1775.59
380.12	1628.14
380.33	1716.20
380.54	1679.33
380.75	1642.47
380.96	1693.67
381.17	1693.67
381.38	1716.20
381.59	1785.83
381.80	1724.39
382.00	1806.31
382.21	1775.59
382.42	1783.78
382.63	1855.46
382.84	1697.77
383.05	1734.63
383.26	1796.07
383.47	1689.57
383.68	1744.87
383.88	1681.38
384.09	1665.00
384.30	1857.51
384.51	1736.68
384.72	1722.34
384.93	1632.23
385.14	1689.57
385.35	1720.29
385.55	1619.94
385.76	1714.15
385.97	1775.59
386.18	1607.66
386.39	1701.86
386.60	1724.39
386.81	1767.40
387.02	1644.52
387.22	1656.81
387.43	1744.87
387.64	1837.03
387.85	1925.09
388.06	2281.44
388.27	4372.41
388.48	6985.62
388.68	8353.66
388.89	9963.37
389.10	10061.67
389.31	8781.69
389.52	7653.26
389.73	6846.36
389.93	6434.72
390.14	5994.40
390.35	5287.86
390.56	4630.46
390.77	3905.48
390.98	2942.93
391.18	2627.54
391.39	2172.89
391.60	1845.22
391.81	1775.59
392.02	1710.05
392.23	1761.25
392.43	1681.38
392.64	1798.12
392.85	1820.64
393.06	1859.56
393.27	1693.67
393.47	1650.66
393.68	1787.88
393.89	1728.49
394.10	1763.30
394.31	1681.38
394.52	1634.28
394.72	1650.66
394.93	1781.73
395.14	1650.66
395.35	1693.67
395.56	1699.81
395.76	1783.78
395.97	1781.73
396.18	1824.74
396.39	1869.80
396.60	2050.02
396.80	1892.32
397.01	1841.12
397.22	1757.16
397.43	1884.13
397.64	1753.06
397.84	1834.98
398.05	1828.84
398.26	1822.69
398.47	1746.92
398.67	1738.73
398.88	1703.91
399.09	1744.87
399.30	1755.11
399.51	1738.73
399.71	1665.00
399.92	1769.44
400.13	1691.62
400.34	1656.81
400.54	1675.24
400.75	1789.92
400.96	1728.49
401.17	1828.84
401.37	1689.57
401.58	1603.56
401.79	1665.00
402.00	1824.74
402.21	2101.22
402.41	1986.53
402.62	2004.96
402.83	2041.82
403.04	1984.48
403.24	2078.69
403.45	1865.70
403.66	1920.99
403.87	1880.04
404.07	1902.56
404.28	1898.47
404.49	1863.65
404.70	1785.83
404.90	1730.53
405.11	1667.05
405.32	1724.39
405.52	1609.70
405.73	1671.14
405.94	1581.03
406.15	1767.40
406.35	1740.77
406.56	1724.39
406.77	1662.95
406.98	1697.77
407.18	1630.18
407.39	1777.64
407.60	1720.29
407.80	1726.44
408.01	1652.71
408.22	1732.58
408.43	1628.14
408.63	1783.78
408.84	1824.74
409.05	1734.63
409.25	1603.56
409.46	1640.42
409.67	1730.53
409.88	1714.15
410.08	1714.15
410.29	1718.25
410.50	1675.24
410.70	1740.77
410.91	1632.23
411.12	1716.20
411.32	1732.58
411.53	1701.86
411.74	1736.68
411.95	1773.54
412.15	1755.11
412.36	1695.72
412.57	1779.68
412.77	1755.11
412.98	1722.34
413.19	1669.09
413.39	1734.63
413.60	1744.87
413.81	1837.03
414.01	1685.48
414.22	1736.68
414.43	1785.83
414.63	1617.90
414.84	1818.60
415.05	1724.39
415.25	1640.42
415.46	1730.53
415.67	1681.38
415.87	1748.97
416.08	1705.96
416.29	1699.81
416.49	1734.63
416.70	1638.38
416.91	1662.95
417.11	1701.86
417.32	1738.73
417.53	1693.67
417.73	1734.63
417.94	1648.61
418.15	1738.73
418.35	1738.73
418.56	1755.11
418.77	1818.60
418.97	1667.05
419.18	1734.63
419.38	1589.22
419.59	1734.63
419.80	1853.41
420.00	1632.23
420.21	1628.14
420.42	1724.39
420.62	1701.86
420.83	1605.61
421.04	1662.95
421.24	1648.61
421.45	1671.14
421.65	1763.30
421.86	1671.14
422.07	1701.86
422.27	1652.71
422.48	1818.60
422.69	1656.81
422.89	1619.94
423.10	1738.73
423.30	1681.38
423.51	1691.62
423.72	1720.29
423.92	1722.34
424.13	1658.85
424.33	1714.15
424.54	1757.16
424.75	1728.49
424.95	1837.03
425.16	1763.30
425.36	1703.91
425.57	1748.97
425.78	1679.33
425.98	1716.20
426.19	1703.91
426.39	1681.38
426.60	1763.30
426.81	1785.83
427.01	1652.71
427.22	1665.00
427.42	1628.14
427.63	1656.81
427.83	1732.58
428.04	1791.97
428.25	1691.62
428.45	1730.53
428.66	1757.16
428.86	1699.81
429.07	1621.99
429.28	1746.92
429.48	1732.58
429.69	1656.81
429.89	1691.62
430.10	1681.38
430.30	1736.68
430.51	1812.45
430.71	1632.23
430.92	1722.34
431.13	1603.56
431.33	1720.29
431.54	1697.77
431.74	1714.15
431.95	1810.40
432.15	1636.33
432.36	1718.25
432.56	1746.92
432.77	1796.07
432.98	1814.50
433.18	1708.01
433.39	1677.29
433.59	1667.05
433.80	1839.08
434.00	1845.22
434.21	1646.57
434.41	1632.23
434.62	1785.83
434.82	1683.43
435.03	1624.04
435.23	1671.14
435.44	1642.47
435.64	1697.77
435.85	1783.78
436.06	1775.59
436.26	1769.44
436.47	1726.44
436.67	1669.09
436.88	1615.85
437.08	1691.62
437.29	1746.92
437.49	1767.40
437.70	1654.76
437.90	1796.07
438.11	1818.60
438.31	1753.06
438.52	1834.98
438.72	1787.88
438.93	1888.23
439.13	1812.45
439.34	1794.02
439.54	1771.49
439.75	1759.21
439.95	1804.26
440.16	1763.30
440.36	1783.78
440.57	1742.82
440.77	1716.20
440.98	1742.82
441.18	1787.88
441.39	1742.82
441.59	1697.77
441.80	1789.92
442.00	1689.57
442.21	1748.97
442.41	1691.62
442.62	1738.73
442.82	1685.48
443.02	1675.24
443.23	1710.05
443.43	1644.52
443.64	1734.63
443.84	1654.76
444.05	1822.69
444.25	1734.63
444.46	1697.77
444.66	1654.76
444.87	1798.12
445.07	1665.00
445.28	1669.09
445.48	1814.50
445.69	1714.15
445.89	1871.84
446.09	1738.73
446.30	1955.81
446.50	2611.16
446.71	3755.97
446.91	4331.45
447.12	4825.01
447.32	4925.36
447.53	4409.28
447.73	3954.63
447.93	3639.24
448.14	3336.14
448.34	3270.61
448.55	2998.23
448.75	2820.05
448.96	2686.94
449.16	2496.47
449.36	2316.25
449.57	2076.64
449.77	1867.75
449.98	1765.35
450.18	1773.54
450.39	1738.73
450.59	1765.35
450.79	1867.75
451.00	1708.01
451.20	1773.54
451.41	1685.48
451.61	1726.44
451.81	1757.16
452.02	1738.73
452.22	1710.05
452.43	1675.24
452.63	1712.10
