SpectraSuite Data File
++++++++++++++++++++++++++++++++++++
Date: Mon Jun 06 13:20:57 CEST 2016
User: root
Dark Spectrum Present: No
Reference Spectrum Present: No
Number of Sampled Component Spectra: 1
Spectrometers: USB4C02835
Integration Time (usec): 100000 (USB4C02835)
Spectra Averaged: 1 (USB4C02835)
Boxcar Smoothing: 0 (USB4C02835)
Correct for Electrical Dark: No (USB4C02835)
Strobe/Lamp Enabled: No (USB4C02835)
Correct for Detector Non-linearity: No (USB4C02835)
Correct for Stray Light: No (USB4C02835)
Number of Pixels in Processed Spectrum: 3648
>>>>>Begin Processed Spectral Data<<<<<
177.47	1390.57
177.69	1390.57
177.91	1390.57
178.13	1366.00
178.36	1478.63
178.58	1673.19
178.80	1726.44
179.02	1640.42
179.24	1675.24
179.46	1689.57
179.68	1748.97
179.90	1652.71
180.13	1757.16
180.35	1685.48
180.57	1712.10
180.79	1755.11
181.01	1748.97
181.23	1808.36
181.45	1794.02
181.67	1718.25
181.90	1728.49
182.12	1695.72
182.34	1595.37
182.56	1767.40
182.78	1783.78
183.00	1671.14
183.22	1701.86
183.44	1574.89
183.66	1832.93
183.89	1738.73
184.11	1783.78
184.33	1673.19
184.55	1718.25
184.77	1744.87
184.99	1701.86
185.21	1691.62
185.43	1849.32
185.65	1648.61
185.87	1675.24
186.10	1877.99
186.32	1830.88
186.54	1753.06
186.76	1691.62
186.98	1714.15
187.20	1677.29
187.42	1634.28
187.64	1753.06
187.86	1675.24
188.08	1720.29
188.30	1710.05
188.52	1685.48
188.75	1738.73
188.97	1816.55
189.19	1671.14
189.41	1712.10
189.63	1638.38
189.85	1621.99
190.07	1656.81
190.29	1640.42
190.51	1687.53
190.73	1634.28
190.95	1742.82
191.17	1718.25
191.39	1617.90
191.61	1708.01
191.84	1681.38
192.06	1665.00
192.28	1658.85
192.50	1853.41
192.72	1791.97
192.94	1621.99
193.16	1705.96
193.38	1693.67
193.60	1746.92
193.82	1677.29
194.04	1810.40
194.26	1744.87
194.48	1685.48
194.70	1599.46
194.92	1689.57
195.14	1767.40
195.36	1619.94
195.58	1728.49
195.80	1724.39
196.02	1656.81
196.24	1619.94
196.46	1728.49
196.69	1662.95
196.91	1796.07
197.13	1753.06
197.35	1691.62
197.57	1734.63
197.79	1697.77
198.01	1671.14
198.23	1763.30
198.45	1693.67
198.67	1689.57
198.89	1683.43
199.11	1673.19
199.33	1652.71
199.55	1587.18
199.77	1712.10
199.99	1763.30
200.21	1687.53
200.43	1652.71
200.65	1632.23
200.87	1587.18
201.09	1699.81
201.31	1673.19
201.53	1767.40
201.75	1730.53
201.97	1687.53
202.19	1718.25
202.41	1697.77
202.63	1837.03
202.85	1742.82
203.07	1697.77
203.29	1687.53
203.51	1675.24
203.73	1591.27
203.95	1804.26
204.17	1669.09
204.39	1746.92
204.61	1615.85
204.83	1644.52
205.05	1734.63
205.27	1783.78
205.49	1826.79
205.71	1681.38
205.93	1542.12
206.15	1619.94
206.37	1714.15
206.59	1718.25
206.81	1675.24
207.03	1628.14
207.25	1671.14
207.47	1710.05
207.69	1689.57
207.91	1773.54
208.13	1787.88
208.34	1736.68
208.56	1617.90
208.78	1769.44
209.00	1652.71
209.22	1662.95
209.44	1685.48
209.66	1648.61
209.88	1667.05
210.10	1677.29
210.32	1732.58
210.54	1812.45
210.76	1673.19
210.98	1746.92
211.20	1603.56
211.42	1726.44
211.64	1699.81
211.86	1732.58
212.08	1744.87
212.30	1636.33
212.52	1671.14
212.74	1800.16
212.96	1716.20
213.17	1822.69
213.39	1763.30
213.61	1716.20
213.83	1708.01
214.05	1720.29
214.27	1740.77
214.49	1712.10
214.71	1681.38
214.93	1814.50
215.15	1673.19
215.37	1744.87
215.59	1589.22
215.81	1703.91
216.03	1761.25
216.24	1695.72
216.46	1705.96
216.68	1718.25
216.90	1718.25
217.12	1796.07
217.34	1665.00
217.56	1689.57
217.78	1796.07
218.00	1703.91
218.22	1632.23
218.44	1724.39
218.66	1757.16
218.87	1767.40
219.09	1748.97
219.31	1773.54
219.53	1769.44
219.75	1730.53
219.97	1736.68
220.19	1654.76
220.41	1712.10
220.63	1726.44
220.85	1724.39
221.06	1634.28
221.28	1767.40
221.50	1738.73
221.72	1742.82
221.94	1726.44
222.16	1609.70
222.38	1746.92
222.60	1687.53
222.82	1716.20
223.03	1761.25
223.25	1673.19
223.47	1701.86
223.69	1871.84
223.91	1740.77
224.13	1673.19
224.35	1605.61
224.57	1738.73
224.78	1787.88
225.00	1597.42
225.22	1734.63
225.44	1675.24
225.66	1837.03
225.88	1656.81
226.10	1736.68
226.32	1738.73
226.53	1703.91
226.75	1724.39
226.97	1609.70
227.19	1738.73
227.41	1701.86
227.63	1699.81
227.85	1662.95
228.06	1726.44
228.28	1632.23
228.50	1767.40
228.72	1587.18
228.94	1691.62
229.16	1548.26
229.37	1665.00
229.59	1675.24
229.81	1736.68
230.03	1658.85
230.25	1607.66
230.47	1576.94
230.69	1656.81
230.90	1820.64
231.12	1609.70
231.34	1681.38
231.56	1757.16
231.78	1685.48
232.00	1703.91
232.21	1654.76
232.43	1689.57
232.65	1624.04
232.87	1665.00
233.09	1630.18
233.30	1679.33
233.52	1761.25
233.74	1689.57
233.96	1671.14
234.18	1748.97
234.40	1679.33
234.61	1828.84
234.83	1708.01
235.05	1652.71
235.27	1785.83
235.49	1830.88
235.70	1677.29
235.92	1787.88
236.14	1697.77
236.36	1884.13
236.58	1650.66
236.79	1691.62
237.01	1751.01
237.23	1673.19
237.45	1824.74
237.67	1771.49
237.88	1744.87
238.10	1820.64
238.32	1617.90
238.54	1617.90
238.76	1683.43
238.97	1656.81
239.19	1658.85
239.41	1738.73
239.63	1720.29
239.85	1636.33
240.06	1693.67
240.28	1677.29
240.50	1748.97
240.72	1708.01
240.93	1617.90
241.15	1791.97
241.37	1671.14
241.59	1755.11
241.81	1675.24
242.02	1681.38
242.24	1685.48
242.46	1708.01
242.68	1675.24
242.89	1699.81
243.11	1734.63
243.33	1714.15
243.55	1771.49
243.76	1718.25
243.98	1671.14
244.20	1710.05
244.42	1650.66
244.64	1730.53
244.85	1671.14
245.07	1632.23
245.29	1701.86
245.51	1662.95
245.72	1652.71
245.94	1732.58
246.16	1683.43
246.38	1763.30
246.59	1609.70
246.81	1730.53
247.03	1669.09
247.24	1624.04
247.46	1607.66
247.68	1734.63
247.90	1669.09
248.11	1624.04
248.33	1730.53
248.55	1718.25
248.77	1646.57
248.98	1734.63
249.20	1765.35
249.42	1691.62
249.64	1722.34
249.85	1718.25
250.07	1675.24
250.29	1767.40
250.50	1757.16
250.72	1669.09
250.94	1683.43
251.16	1812.45
251.37	1837.03
251.59	1687.53
251.81	1660.90
252.02	1783.78
252.24	1656.81
252.46	1708.01
252.68	1669.09
252.89	1681.38
253.11	1652.71
253.33	1828.84
253.54	1751.01
253.76	1621.99
253.98	1648.61
254.20	1714.15
254.41	1624.04
254.63	1732.58
254.85	1640.42
255.06	1656.81
255.28	1753.06
255.50	1748.97
255.71	1726.44
255.93	1646.57
256.15	1693.67
256.36	1789.92
256.58	1632.23
256.80	1763.30
257.02	1742.82
257.23	1714.15
257.45	1716.20
257.67	1748.97
257.88	1673.19
258.10	1720.29
258.32	1675.24
258.53	1681.38
258.75	1773.54
258.97	1757.16
259.18	1722.34
259.40	1667.05
259.62	1822.69
259.83	1769.44
260.05	1697.77
260.27	1945.57
260.48	1794.02
260.70	1642.47
260.92	1740.77
261.13	1687.53
261.35	1667.05
261.57	1716.20
261.78	1595.37
262.00	1652.71
262.22	1740.77
262.43	1656.81
262.65	1677.29
262.86	1748.97
263.08	1753.06
263.30	1703.91
263.51	1644.52
263.73	1675.24
263.95	1785.83
264.16	1566.70
264.38	1648.61
264.60	1699.81
264.81	1796.07
265.03	1720.29
265.25	1767.40
265.46	1617.90
265.68	1701.86
265.89	1660.90
266.11	1603.56
266.33	1748.97
266.54	1791.97
266.76	1748.97
266.98	1689.57
267.19	1832.93
267.41	1779.68
267.62	1708.01
267.84	1640.42
268.06	1751.01
268.27	1675.24
268.49	1738.73
268.70	1755.11
268.92	1662.95
269.14	1628.14
269.35	1710.05
269.57	1669.09
269.79	1785.83
270.00	1681.38
270.22	1816.55
270.43	1593.32
270.65	1578.98
270.87	1761.25
271.08	1779.68
271.30	1767.40
271.51	1644.52
271.73	1687.53
271.95	1732.58
272.16	1703.91
272.38	1730.53
272.59	1705.96
272.81	1767.40
273.02	1632.23
273.24	1736.68
273.46	1685.48
273.67	1636.33
273.89	1669.09
274.10	1699.81
274.32	1734.63
274.54	1656.81
274.75	1714.15
274.97	1748.97
275.18	1781.73
275.40	1748.97
275.61	1613.80
275.83	1603.56
276.05	1665.00
276.26	1669.09
276.48	1775.59
276.69	1660.90
276.91	1683.43
277.12	1746.92
277.34	1746.92
277.55	1701.86
277.77	1646.57
277.99	1687.53
278.20	1626.09
278.42	1701.86
278.63	1665.00
278.85	1587.18
279.06	1665.00
279.28	1755.11
279.49	1785.83
279.71	1763.30
279.93	1746.92
280.14	1701.86
280.36	1648.61
280.57	1669.09
280.79	1736.68
281.00	1658.85
281.22	1626.09
281.43	1697.77
281.65	1607.66
281.86	1669.09
282.08	1726.44
282.29	1802.21
282.51	1665.00
282.73	1581.03
282.94	1656.81
283.16	1665.00
283.37	1761.25
283.59	1613.80
283.80	1736.68
284.02	1658.85
284.23	1699.81
284.45	1650.66
284.66	1558.50
284.88	1722.34
285.09	1767.40
285.31	1722.34
285.52	1746.92
285.74	1601.51
285.95	1673.19
286.17	1720.29
286.38	1703.91
286.60	1701.86
286.81	1703.91
287.03	1685.48
287.24	1585.13
287.46	1773.54
287.67	1662.95
287.89	1802.21
288.10	1675.24
288.32	1714.15
288.53	1789.92
288.75	1714.15
288.96	1757.16
289.18	1671.14
289.39	1677.29
289.61	1693.67
289.82	1834.98
290.04	1820.64
290.25	1689.57
290.47	1658.85
290.68	1644.52
290.90	1691.62
291.11	1660.90
291.33	1689.57
291.54	1662.95
291.76	1648.61
291.97	1708.01
292.18	1765.35
292.40	1720.29
292.61	1595.37
292.83	1841.12
293.04	1720.29
293.26	1679.33
293.47	1689.57
293.69	1708.01
293.90	1648.61
294.12	1763.30
294.33	1732.58
294.55	1714.15
294.76	1755.11
294.97	1785.83
295.19	1806.31
295.40	1738.73
295.62	1607.66
295.83	1777.64
296.05	1589.22
296.26	1720.29
296.48	1632.23
296.69	1736.68
296.90	1628.14
297.12	1781.73
297.33	1763.30
297.55	1650.66
297.76	1695.72
297.98	1744.87
298.19	1712.10
298.41	1689.57
298.62	1607.66
298.83	1802.21
299.05	1710.05
299.26	1695.72
299.48	1673.19
299.69	1796.07
299.90	1757.16
300.12	1671.14
300.33	1705.96
300.55	1710.05
300.76	1730.53
300.98	1689.57
301.19	1746.92
301.40	1685.48
301.62	1695.72
301.83	1777.64
302.05	1738.73
302.26	1712.10
302.47	1652.71
302.69	1687.53
302.90	1671.14
303.12	1574.89
303.33	1705.96
303.54	1761.25
303.76	1742.82
303.97	1712.10
304.19	1775.59
304.40	1621.99
304.61	1693.67
304.83	1857.51
305.04	1728.49
305.26	1705.96
305.47	1650.66
305.68	1658.85
305.90	1601.51
306.11	1683.43
306.33	1699.81
306.54	1619.94
306.75	1660.90
306.97	1603.56
307.18	1689.57
307.39	1703.91
307.61	1751.01
307.82	1642.47
308.04	1763.30
308.25	1634.28
308.46	1689.57
308.68	1708.01
308.89	1712.10
309.10	1740.77
309.32	1755.11
309.53	1681.38
309.74	1728.49
309.96	1705.96
310.17	1656.81
310.39	1675.24
310.60	1808.36
310.81	1621.99
311.03	1693.67
311.24	1748.97
311.45	1667.05
311.67	1740.77
311.88	1771.49
312.09	1699.81
312.31	1587.18
312.52	1779.68
312.73	1728.49
312.95	1619.94
313.16	1605.61
313.37	1734.63
313.59	1656.81
313.80	1693.67
314.01	1808.36
314.23	1689.57
314.44	1761.25
314.65	1677.29
314.87	1583.08
315.08	1652.71
315.29	1701.86
315.51	1646.57
315.72	1626.09
315.93	1804.26
316.15	1720.29
316.36	1685.48
316.57	1650.66
316.79	1744.87
317.00	1634.28
317.21	1816.55
317.43	1665.00
317.64	1763.30
317.85	1628.14
318.07	1712.10
318.28	1697.77
318.49	1785.83
318.70	1847.27
318.92	1834.98
319.13	1884.13
319.34	1845.22
319.56	1826.79
319.77	1751.01
319.98	1824.74
320.20	1742.82
320.41	1734.63
320.62	1791.97
320.83	1562.60
321.05	1816.55
321.26	1732.58
321.47	1746.92
321.69	1728.49
321.90	1652.71
322.11	1718.25
322.32	1691.62
322.54	1794.02
322.75	1648.61
322.96	1814.50
323.18	1601.51
323.39	1634.28
323.60	1644.52
323.81	1820.64
324.03	1634.28
324.24	1703.91
324.45	1705.96
324.66	1708.01
324.88	1763.30
325.09	1828.84
325.30	1669.09
325.52	1759.21
325.73	1746.92
325.94	1632.23
326.15	1671.14
326.37	1611.75
326.58	1740.77
326.79	1789.92
327.00	1718.25
327.22	1787.88
327.43	1685.48
327.64	1634.28
327.85	1738.73
328.07	1751.01
328.28	1812.45
328.49	1703.91
328.70	1738.73
328.92	1789.92
329.13	1722.34
329.34	1701.86
329.55	1728.49
329.76	1736.68
329.98	1722.34
330.19	1837.03
330.40	1769.44
330.61	1693.67
330.83	1740.77
331.04	1656.81
331.25	1820.64
331.46	1652.71
331.68	1511.40
331.89	1755.11
332.10	1710.05
332.31	1554.41
332.52	1656.81
332.74	1765.35
332.95	1583.08
333.16	1609.70
333.37	1738.73
333.58	1716.20
333.80	1734.63
334.01	1599.46
334.22	1703.91
334.43	1599.46
334.64	1681.38
334.86	1566.70
335.07	1589.22
335.28	1773.54
335.49	1648.61
335.70	1720.29
335.92	1640.42
336.13	1863.65
336.34	1736.68
336.55	1697.77
336.76	1656.81
336.98	1609.70
337.19	1632.23
337.40	1705.96
337.61	1818.60
337.82	1654.76
338.04	1722.34
338.25	1656.81
338.46	1658.85
338.67	1728.49
338.88	1624.04
339.09	1656.81
339.31	1656.81
339.52	1693.67
339.73	1626.09
339.94	1648.61
340.15	1771.49
340.36	1691.62
340.58	1708.01
340.79	1613.80
341.00	1718.25
341.21	1681.38
341.42	1812.45
341.63	1669.09
341.85	1771.49
342.06	1685.48
342.27	1665.00
342.48	1775.59
342.69	1701.86
342.90	1769.44
343.12	1732.58
343.33	1708.01
343.54	1683.43
343.75	1771.49
343.96	1689.57
344.17	1665.00
344.38	1703.91
344.60	1691.62
344.81	1701.86
345.02	1679.33
345.23	1714.15
345.44	1789.92
345.65	1724.39
345.86	1759.21
346.07	1714.15
346.29	1714.15
346.50	1742.82
346.71	1693.67
346.92	1808.36
347.13	1810.40
347.34	1808.36
347.55	1609.70
347.76	1736.68
347.98	1615.85
348.19	1656.81
348.40	1730.53
348.61	1673.19
348.82	1720.29
349.03	1710.05
349.24	1652.71
349.45	1871.84
349.66	1624.04
349.88	1687.53
350.09	1638.38
350.30	1787.88
350.51	1734.63
350.72	1724.39
350.93	1697.77
351.14	1712.10
351.35	1691.62
351.56	1730.53
351.77	1703.91
351.99	1753.06
352.20	1775.59
352.41	1708.01
352.62	1597.42
352.83	1646.57
353.04	1777.64
353.25	1648.61
353.46	1720.29
353.67	1785.83
353.88	1578.98
354.09	1757.16
354.30	1757.16
354.52	1689.57
354.73	1701.86
354.94	1609.70
355.15	1689.57
355.36	1802.21
355.57	1628.14
355.78	1775.59
355.99	1638.38
356.20	1734.63
356.41	1714.15
356.62	1757.16
356.83	1699.81
357.04	1759.21
357.25	1624.04
357.46	1644.52
357.68	1568.74
357.89	1632.23
358.10	1671.14
358.31	1675.24
358.52	1695.72
358.73	1677.29
358.94	1611.75
359.15	1626.09
359.36	1730.53
359.57	1714.15
359.78	1701.86
359.99	1718.25
360.20	1654.76
360.41	1708.01
360.62	1689.57
360.83	1724.39
361.04	1667.05
361.25	1673.19
361.46	1849.32
361.67	1703.91
361.88	1703.91
362.09	1681.38
362.30	1652.71
362.51	1675.24
362.72	1705.96
362.93	1759.21
363.14	1695.72
363.35	1708.01
363.56	1675.24
363.78	1759.21
363.99	1837.03
364.20	1671.14
364.41	1730.53
364.62	1787.88
364.83	1646.57
365.04	1710.05
365.25	1662.95
365.46	1757.16
365.67	1675.24
365.88	1589.22
366.09	1685.48
366.30	1716.20
366.51	1683.43
366.72	1703.91
366.93	1646.57
367.14	1724.39
367.35	1804.26
367.56	1701.86
367.77	1812.45
367.98	1605.61
368.18	1722.34
368.39	1734.63
368.60	1646.57
368.81	1753.06
369.02	1716.20
369.23	1746.92
369.44	1619.94
369.65	1621.99
369.86	1732.58
370.07	1720.29
370.28	1593.32
370.49	1734.63
370.70	1787.88
370.91	1677.29
371.12	1638.38
371.33	1753.06
371.54	1699.81
371.75	1665.00
371.96	1595.37
372.17	1665.00
372.38	1671.14
372.59	1791.97
372.80	1701.86
373.01	1722.34
373.22	1732.58
373.43	1724.39
373.64	1630.18
373.85	1675.24
374.06	1757.16
374.26	1767.40
374.47	1699.81
374.68	1683.43
374.89	1710.05
375.10	1640.42
375.31	1679.33
375.52	1720.29
375.73	1675.24
375.94	1617.90
376.15	1779.68
376.36	1742.82
376.57	1638.38
376.78	1609.70
376.99	1689.57
377.20	1736.68
377.40	1699.81
377.61	1775.59
377.82	1624.04
378.03	1751.01
378.24	1714.15
378.45	1826.79
378.66	1751.01
378.87	1552.36
379.08	1630.18
379.29	1650.66
379.50	1755.11
379.71	1685.48
379.91	1808.36
380.12	1685.48
380.33	1812.45
380.54	1669.09
380.75	1732.58
380.96	1630.18
381.17	1734.63
381.38	1730.53
381.59	1769.44
381.80	1675.24
382.00	1888.23
382.21	1699.81
382.42	1773.54
382.63	1839.08
382.84	1730.53
383.05	1720.29
383.26	1818.60
383.47	1738.73
383.68	1703.91
383.88	1746.92
384.09	1726.44
384.30	1804.26
384.51	1673.19
384.72	1673.19
384.93	1658.85
385.14	1722.34
385.35	1732.58
385.55	1636.33
385.76	1773.54
385.97	1677.29
386.18	1667.05
386.39	1667.05
386.60	1689.57
386.81	1781.73
387.02	1697.77
387.22	1673.19
387.43	1820.64
387.64	1765.35
387.85	1853.41
388.06	2242.53
388.27	4132.80
388.48	6848.41
388.68	8138.63
388.89	9865.07
389.10	9795.43
389.31	8494.97
389.52	7692.17
389.73	6719.39
389.93	6098.85
390.14	5728.17
390.35	5181.36
390.56	4431.80
390.77	3741.64
390.98	2951.12
391.18	2502.62
391.39	2080.74
391.60	1777.64
391.81	1824.74
392.02	1687.53
392.23	1837.03
392.43	1734.63
392.64	1863.65
392.85	1812.45
393.06	1744.87
393.27	1695.72
393.47	1683.43
393.68	1751.01
393.89	1714.15
394.10	1685.48
394.31	1722.34
394.52	1656.81
394.72	1640.42
394.93	1796.07
395.14	1705.96
395.35	1691.62
395.56	1636.33
395.76	1718.25
395.97	1765.35
396.18	1841.12
396.39	1810.40
396.60	1986.53
396.80	1918.95
397.01	1830.88
397.22	1832.93
397.43	1927.14
397.64	1775.59
397.84	1732.58
398.05	1851.36
398.26	1671.14
398.47	1824.74
398.67	1812.45
398.88	1746.92
399.09	1787.88
399.30	1689.57
399.51	1798.12
399.71	1603.56
399.92	1720.29
400.13	1693.67
400.34	1705.96
400.54	1740.77
400.75	1832.93
400.96	1751.01
401.17	1820.64
401.37	1759.21
401.58	1716.20
401.79	1693.67
402.00	1935.33
402.21	1984.48
402.41	1941.47
402.62	2037.73
402.83	1986.53
403.04	1998.82
403.24	2045.92
403.45	1927.14
403.66	1845.22
403.87	1906.66
404.07	1873.89
404.28	1882.08
404.49	1863.65
404.70	1843.17
404.90	1769.44
405.11	1724.39
405.32	1746.92
405.52	1630.18
405.73	1626.09
405.94	1695.72
406.15	1673.19
406.35	1734.63
406.56	1734.63
406.77	1759.21
406.98	1701.86
407.18	1669.09
407.39	1771.49
407.60	1697.77
407.80	1656.81
408.01	1673.19
408.22	1738.73
408.43	1669.09
408.63	1714.15
408.84	1708.01
409.05	1736.68
409.25	1619.94
409.46	1669.09
409.67	1587.18
409.88	1669.09
410.08	1728.49
410.29	1705.96
410.50	1742.82
410.70	1634.28
410.91	1630.18
411.12	1683.43
411.32	1705.96
411.53	1644.52
411.74	1740.77
411.95	1769.44
412.15	1734.63
412.36	1779.68
412.57	1667.05
412.77	1761.25
412.98	1654.76
413.19	1714.15
413.39	1781.73
413.60	1755.11
413.81	1828.84
414.01	1617.90
414.22	1757.16
414.43	1693.67
414.63	1720.29
414.84	1738.73
415.05	1746.92
415.25	1640.42
415.46	1746.92
415.67	1718.25
415.87	1734.63
416.08	1716.20
416.29	1656.81
416.49	1640.42
416.70	1667.05
416.91	1691.62
417.11	1578.98
417.32	1777.64
417.53	1759.21
417.73	1708.01
417.94	1703.91
418.15	1732.58
418.35	1736.68
418.56	1714.15
418.77	1806.31
418.97	1708.01
419.18	1705.96
419.38	1619.94
419.59	1662.95
419.80	1800.16
420.00	1656.81
420.21	1724.39
420.42	1738.73
420.62	1716.20
420.83	1677.29
421.04	1648.61
421.24	1693.67
421.45	1761.25
421.65	1683.43
421.86	1689.57
422.07	1679.33
422.27	1798.12
422.48	1708.01
422.69	1593.32
422.89	1693.67
423.10	1617.90
423.30	1617.90
423.51	1714.15
423.72	1753.06
423.92	1740.77
424.13	1681.38
424.33	1748.97
424.54	1787.88
424.75	1681.38
424.95	1716.20
425.16	1724.39
425.36	1648.61
425.57	1789.92
425.78	1771.49
425.98	1736.68
426.19	1685.48
426.39	1675.24
426.60	1751.01
426.81	1726.44
427.01	1646.57
427.22	1742.82
427.42	1617.90
427.63	1654.76
427.83	1689.57
428.04	1787.88
428.25	1771.49
428.45	1763.30
428.66	1744.87
428.86	1734.63
429.07	1724.39
429.28	1755.11
429.48	1691.62
429.69	1673.19
429.89	1669.09
430.10	1640.42
430.30	1822.69
430.51	1708.01
430.71	1712.10
430.92	1654.76
431.13	1662.95
431.33	1697.77
431.54	1708.01
431.74	1800.16
431.95	1853.41
432.15	1671.14
432.36	1658.85
432.56	1802.21
432.77	1849.32
432.98	1794.02
433.18	1714.15
433.39	1724.39
433.59	1679.33
433.80	1839.08
434.00	1951.71
434.21	1667.05
434.41	1624.04
434.62	1806.31
434.82	1660.90
435.03	1648.61
435.23	1740.77
435.44	1615.85
435.64	1728.49
435.85	1660.90
436.06	1769.44
436.26	1794.02
436.47	1712.10
436.67	1638.38
436.88	1742.82
437.08	1802.21
437.29	1724.39
437.49	1787.88
437.70	1710.05
437.90	1757.16
438.11	1841.12
438.31	1763.30
438.52	1812.45
438.72	1906.66
438.93	1923.04
439.13	1798.12
439.34	1736.68
439.54	1714.15
439.75	1783.78
439.95	1783.78
440.16	1662.95
440.36	1769.44
440.57	1759.21
440.77	1765.35
440.98	1722.34
441.18	1798.12
441.39	1685.48
441.59	1671.14
441.80	1843.17
442.00	1679.33
442.21	1748.97
442.41	1630.18
442.62	1779.68
442.82	1718.25
443.02	1730.53
443.23	1740.77
443.43	1697.77
443.64	1787.88
443.84	1705.96
444.05	1800.16
444.25	1708.01
444.46	1712.10
444.66	1648.61
444.87	1757.16
445.07	1703.91
445.28	1759.21
445.48	1937.38
445.69	1781.73
445.89	1820.64
446.09	1783.78
446.30	1953.76
446.50	2641.88
446.71	3784.65
446.91	4341.69
447.12	4618.17
447.32	4724.66
447.53	4280.25
447.73	3944.39
447.93	3540.94
448.14	3299.28
448.34	3135.44
448.55	2977.75
448.75	2854.87
448.96	2707.41
449.16	2398.17
449.36	2240.48
449.57	2090.98
449.77	1904.61
449.98	1726.44
450.18	1841.12
450.39	1873.89
450.59	1771.49
450.79	1742.82
451.00	1671.14
451.20	1814.50
451.41	1677.29
451.61	1662.95
451.81	1685.48
452.02	1662.95
452.22	1732.58
452.43	1718.25
452.63	1677.29
