SpectraSuite Data File
++++++++++++++++++++++++++++++++++++
Date: Mon Jun 06 14:01:57 CEST 2016
User: root
Dark Spectrum Present: No
Reference Spectrum Present: No
Number of Sampled Component Spectra: 1
Spectrometers: USB4C02835
Integration Time (usec): 100000 (USB4C02835)
Spectra Averaged: 1 (USB4C02835)
Boxcar Smoothing: 0 (USB4C02835)
Correct for Electrical Dark: No (USB4C02835)
Strobe/Lamp Enabled: No (USB4C02835)
Correct for Detector Non-linearity: No (USB4C02835)
Correct for Stray Light: No (USB4C02835)
Number of Pixels in Processed Spectrum: 3648
>>>>>Begin Processed Spectral Data<<<<<
177.47	1523.69
177.69	1523.69
177.91	1523.69
178.13	1476.59
178.36	1445.87
178.58	1701.86
178.80	1730.53
179.02	1609.70
179.24	1701.86
179.46	1726.44
179.68	1699.81
179.90	1699.81
180.13	1701.86
180.35	1652.71
180.57	1648.61
180.79	1720.29
181.01	1710.05
181.23	1746.92
181.45	1785.83
181.67	1718.25
181.90	1773.54
182.12	1660.90
182.34	1675.24
182.56	1658.85
182.78	1667.05
183.00	1751.01
183.22	1724.39
183.44	1581.03
183.66	1828.84
183.89	1775.59
184.11	1748.97
184.33	1689.57
184.55	1710.05
184.77	1648.61
184.99	1722.34
185.21	1710.05
185.43	1849.32
185.65	1624.04
185.87	1701.86
186.10	1806.31
186.32	1843.17
186.54	1728.49
186.76	1765.35
186.98	1744.87
187.20	1722.34
187.42	1701.86
187.64	1724.39
187.86	1671.14
188.08	1775.59
188.30	1677.29
188.52	1642.47
188.75	1705.96
188.97	1763.30
189.19	1681.38
189.41	1722.34
189.63	1730.53
189.85	1710.05
190.07	1544.17
190.29	1714.15
190.51	1763.30
190.73	1601.51
190.95	1767.40
191.17	1736.68
191.39	1634.28
191.61	1656.81
191.84	1740.77
192.06	1691.62
192.28	1712.10
192.50	1746.92
192.72	1796.07
192.94	1681.38
193.16	1761.25
193.38	1716.20
193.60	1609.70
193.82	1685.48
194.04	1779.68
194.26	1691.62
194.48	1757.16
194.70	1689.57
194.92	1679.33
195.14	1689.57
195.36	1671.14
195.58	1681.38
195.80	1710.05
196.02	1669.09
196.24	1689.57
196.46	1736.68
196.69	1681.38
196.91	1789.92
197.13	1658.85
197.35	1628.14
197.57	1703.91
197.79	1722.34
198.01	1755.11
198.23	1665.00
198.45	1744.87
198.67	1636.33
198.89	1714.15
199.11	1712.10
199.33	1679.33
199.55	1583.08
199.77	1716.20
199.99	1783.78
200.21	1710.05
200.43	1683.43
200.65	1665.00
200.87	1675.24
201.09	1742.82
201.31	1683.43
201.53	1726.44
201.75	1726.44
201.97	1769.44
202.19	1695.72
202.41	1703.91
202.63	1855.46
202.85	1753.06
203.07	1783.78
203.29	1695.72
203.51	1634.28
203.73	1740.77
203.95	1867.75
204.17	1673.19
204.39	1732.58
204.61	1734.63
204.83	1634.28
205.05	1724.39
205.27	1785.83
205.49	1806.31
205.71	1738.73
205.93	1681.38
206.15	1681.38
206.37	1783.78
206.59	1656.81
206.81	1648.61
207.03	1665.00
207.25	1671.14
207.47	1759.21
207.69	1742.82
207.91	1771.49
208.13	1712.10
208.34	1654.76
208.56	1583.08
208.78	1804.26
209.00	1640.42
209.22	1693.67
209.44	1693.67
209.66	1742.82
209.88	1658.85
210.10	1712.10
210.32	1679.33
210.54	1767.40
210.76	1681.38
210.98	1773.54
211.20	1617.90
211.42	1703.91
211.64	1710.05
211.86	1722.34
212.08	1626.09
212.30	1712.10
212.52	1724.39
212.74	1697.77
212.96	1708.01
213.17	1732.58
213.39	1763.30
213.61	1738.73
213.83	1755.11
214.05	1593.32
214.27	1771.49
214.49	1638.38
214.71	1646.57
214.93	1794.02
215.15	1724.39
215.37	1744.87
215.59	1619.94
215.81	1638.38
216.03	1742.82
216.24	1695.72
216.46	1714.15
216.68	1742.82
216.90	1767.40
217.12	1720.29
217.34	1728.49
217.56	1730.53
217.78	1687.53
218.00	1757.16
218.22	1699.81
218.44	1708.01
218.66	1714.15
218.87	1789.92
219.09	1691.62
219.31	1865.70
219.53	1669.09
219.75	1570.79
219.97	1665.00
220.19	1759.21
220.41	1654.76
220.63	1812.45
220.85	1767.40
221.06	1734.63
221.28	1822.69
221.50	1796.07
221.72	1689.57
221.94	1695.72
222.16	1656.81
222.38	1787.88
222.60	1759.21
222.82	1638.38
223.03	1701.86
223.25	1642.47
223.47	1853.41
223.69	1837.03
223.91	1685.48
224.13	1691.62
224.35	1650.66
224.57	1726.44
224.78	1757.16
225.00	1665.00
225.22	1671.14
225.44	1691.62
225.66	1734.63
225.88	1728.49
226.10	1748.97
226.32	1744.87
226.53	1767.40
226.75	1716.20
226.97	1689.57
227.19	1685.48
227.41	1658.85
227.63	1746.92
227.85	1673.19
228.06	1665.00
228.28	1771.49
228.50	1695.72
228.72	1693.67
228.94	1701.86
229.16	1556.46
229.37	1570.79
229.59	1673.19
229.81	1722.34
230.03	1679.33
230.25	1601.51
230.47	1638.38
230.69	1667.05
230.90	1732.58
231.12	1626.09
231.34	1710.05
231.56	1751.01
231.78	1697.77
232.00	1662.95
232.21	1667.05
232.43	1667.05
232.65	1648.61
232.87	1691.62
233.09	1681.38
233.30	1626.09
233.52	1757.16
233.74	1683.43
233.96	1765.35
234.18	1662.95
234.40	1755.11
234.61	1755.11
234.83	1597.42
235.05	1613.80
235.27	1863.65
235.49	1783.78
235.70	1775.59
235.92	1783.78
236.14	1628.14
236.36	1857.51
236.58	1638.38
236.79	1757.16
237.01	1673.19
237.23	1626.09
237.45	1837.03
237.67	1644.52
237.88	1687.53
238.10	1757.16
238.32	1673.19
238.54	1787.88
238.76	1718.25
238.97	1638.38
239.19	1673.19
239.41	1802.21
239.63	1787.88
239.85	1718.25
240.06	1673.19
240.28	1687.53
240.50	1744.87
240.72	1746.92
240.93	1665.00
241.15	1767.40
241.37	1724.39
241.59	1755.11
241.81	1654.76
242.02	1734.63
242.24	1671.14
242.46	1708.01
242.68	1662.95
242.89	1755.11
243.11	1757.16
243.33	1728.49
243.55	1771.49
243.76	1722.34
243.98	1597.42
244.20	1787.88
244.42	1718.25
244.64	1689.57
244.85	1599.46
245.07	1656.81
245.29	1650.66
245.51	1660.90
245.72	1744.87
245.94	1705.96
246.16	1705.96
246.38	1732.58
246.59	1658.85
246.81	1646.57
247.03	1656.81
247.24	1566.70
247.46	1574.89
247.68	1634.28
247.90	1720.29
248.11	1656.81
248.33	1669.09
248.55	1724.39
248.77	1660.90
248.98	1763.30
249.20	1834.98
249.42	1671.14
249.64	1710.05
249.85	1681.38
250.07	1634.28
250.29	1693.67
250.50	1746.92
250.72	1605.61
250.94	1710.05
251.16	1900.52
251.37	1746.92
251.59	1679.33
251.81	1722.34
252.02	1789.92
252.24	1738.73
252.46	1771.49
252.68	1660.90
252.89	1667.05
253.11	1673.19
253.33	1767.40
253.54	1771.49
253.76	1609.70
253.98	1640.42
254.20	1634.28
254.41	1652.71
254.63	1697.77
254.85	1652.71
255.06	1646.57
255.28	1685.48
255.50	1748.97
255.71	1652.71
255.93	1589.22
256.15	1718.25
256.36	1683.43
256.58	1687.53
256.80	1720.29
257.02	1632.23
257.23	1660.90
257.45	1710.05
257.67	1765.35
257.88	1609.70
258.10	1789.92
258.32	1728.49
258.53	1703.91
258.75	1812.45
258.97	1669.09
259.18	1755.11
259.40	1742.82
259.62	1789.92
259.83	1787.88
260.05	1652.71
260.27	1898.47
260.48	1699.81
260.70	1509.35
260.92	1720.29
261.13	1699.81
261.35	1718.25
261.57	1679.33
261.78	1595.37
262.00	1587.18
262.22	1703.91
262.43	1789.92
262.65	1689.57
262.86	1730.53
263.08	1871.84
263.30	1720.29
263.51	1581.03
263.73	1701.86
263.95	1720.29
264.16	1632.23
264.38	1740.77
264.60	1748.97
264.81	1660.90
265.03	1753.06
265.25	1683.43
265.46	1695.72
265.68	1789.92
265.89	1732.58
266.11	1568.74
266.33	1705.96
266.54	1751.01
266.76	1716.20
266.98	1806.31
267.19	1787.88
267.41	1826.79
267.62	1646.57
267.84	1574.89
268.06	1728.49
268.27	1712.10
268.49	1673.19
268.70	1794.02
268.92	1728.49
269.14	1609.70
269.35	1634.28
269.57	1695.72
269.79	1781.73
270.00	1621.99
270.22	1748.97
270.43	1714.15
270.65	1628.14
270.87	1656.81
271.08	1761.25
271.30	1775.59
271.51	1640.42
271.73	1728.49
271.95	1832.93
272.16	1662.95
272.38	1738.73
272.59	1746.92
272.81	1656.81
273.02	1673.19
273.24	1746.92
273.46	1753.06
273.67	1730.53
273.89	1656.81
274.10	1708.01
274.32	1697.77
274.54	1767.40
274.75	1765.35
274.97	1697.77
275.18	1705.96
275.40	1771.49
275.61	1730.53
275.83	1714.15
276.05	1671.14
276.26	1656.81
276.48	1718.25
276.69	1669.09
276.91	1669.09
277.12	1802.21
277.34	1697.77
277.55	1742.82
277.77	1687.53
277.99	1656.81
278.20	1634.28
278.42	1593.32
278.63	1656.81
278.85	1701.86
279.06	1578.98
279.28	1845.22
279.49	1800.16
279.71	1722.34
279.93	1771.49
280.14	1671.14
280.36	1697.77
280.57	1820.64
280.79	1757.16
281.00	1693.67
281.22	1689.57
281.43	1796.07
281.65	1544.17
281.86	1640.42
282.08	1628.14
282.29	1804.26
282.51	1607.66
282.73	1665.00
282.94	1630.18
283.16	1714.15
283.37	1845.22
283.59	1763.30
283.80	1751.01
284.02	1656.81
284.23	1753.06
284.45	1734.63
284.66	1597.42
284.88	1665.00
285.09	1718.25
285.31	1773.54
285.52	1683.43
285.74	1603.56
285.95	1824.74
286.17	1708.01
286.38	1796.07
286.60	1679.33
286.81	1611.75
287.03	1662.95
287.24	1675.24
287.46	1759.21
287.67	1656.81
287.89	1834.98
288.10	1646.57
288.32	1693.67
288.53	1746.92
288.75	1771.49
288.96	1746.92
289.18	1718.25
289.39	1701.86
289.61	1789.92
289.82	1834.98
290.04	1771.49
290.25	1636.33
290.47	1697.77
290.68	1636.33
290.90	1757.16
291.11	1638.38
291.33	1722.34
291.54	1638.38
291.76	1615.85
291.97	1771.49
292.18	1748.97
292.40	1624.04
292.61	1665.00
292.83	1865.70
293.04	1765.35
293.26	1761.25
293.47	1763.30
293.69	1638.38
293.90	1701.86
294.12	1722.34
294.33	1718.25
294.55	1724.39
294.76	1808.36
294.97	1734.63
295.19	1839.08
295.40	1654.76
295.62	1730.53
295.83	1703.91
296.05	1701.86
296.26	1851.36
296.48	1632.23
296.69	1650.66
296.90	1673.19
297.12	1773.54
297.33	1748.97
297.55	1708.01
297.76	1730.53
297.98	1767.40
298.19	1679.33
298.41	1816.55
298.62	1652.71
298.83	1785.83
299.05	1724.39
299.26	1677.29
299.48	1652.71
299.69	1705.96
299.90	1806.31
300.12	1685.48
300.33	1763.30
300.55	1720.29
300.76	1710.05
300.98	1693.67
301.19	1681.38
301.40	1714.15
301.62	1646.57
301.83	1781.73
302.05	1669.09
302.26	1691.62
302.47	1671.14
302.69	1677.29
302.90	1652.71
303.12	1552.36
303.33	1798.12
303.54	1871.84
303.76	1662.95
303.97	1746.92
304.19	1845.22
304.40	1703.91
304.61	1751.01
304.83	1820.64
305.04	1697.77
305.26	1732.58
305.47	1624.04
305.68	1691.62
305.90	1673.19
306.11	1765.35
306.33	1728.49
306.54	1712.10
306.75	1679.33
306.97	1658.85
307.18	1615.85
307.39	1724.39
307.61	1683.43
307.82	1740.77
308.04	1783.78
308.25	1621.99
308.46	1708.01
308.68	1675.24
308.89	1644.52
309.10	1699.81
309.32	1748.97
309.53	1687.53
309.74	1679.33
309.96	1636.33
310.17	1818.60
310.39	1734.63
310.60	1785.83
310.81	1763.30
311.03	1685.48
311.24	1804.26
311.45	1722.34
311.67	1802.21
311.88	1755.11
312.09	1638.38
312.31	1705.96
312.52	1763.30
312.73	1705.96
312.95	1640.42
313.16	1642.47
313.37	1726.44
313.59	1673.19
313.80	1751.01
314.01	1859.56
314.23	1724.39
314.44	1626.09
314.65	1636.33
314.87	1736.68
315.08	1669.09
315.29	1669.09
315.51	1619.94
315.72	1656.81
315.93	1800.16
316.15	1687.53
316.36	1693.67
316.57	1724.39
316.79	1798.12
317.00	1687.53
317.21	1806.31
317.43	1705.96
317.64	1744.87
317.85	1642.47
318.07	1652.71
318.28	1763.30
318.49	1787.88
318.70	1867.75
318.92	1800.16
319.13	1814.50
319.34	1851.36
319.56	1779.68
319.77	1806.31
319.98	1855.46
320.20	1785.83
320.41	1791.97
320.62	1691.62
320.83	1728.49
321.05	1834.98
321.26	1718.25
321.47	1689.57
321.69	1734.63
321.90	1667.05
322.11	1669.09
322.32	1730.53
322.54	1722.34
322.75	1681.38
322.96	1896.42
323.18	1648.61
323.39	1562.60
323.60	1685.48
323.81	1783.78
324.03	1646.57
324.24	1705.96
324.45	1681.38
324.66	1683.43
324.88	1812.45
325.09	1804.26
325.30	1726.44
325.52	1720.29
325.73	1681.38
325.94	1632.23
326.15	1619.94
326.37	1710.05
326.58	1787.88
326.79	1812.45
327.00	1683.43
327.22	1761.25
327.43	1736.68
327.64	1662.95
327.85	1783.78
328.07	1689.57
328.28	1865.70
328.49	1738.73
328.70	1710.05
328.92	1638.38
329.13	1636.33
329.34	1689.57
329.55	1683.43
329.76	1755.11
329.98	1742.82
330.19	1783.78
330.40	1703.91
330.61	1669.09
330.83	1654.76
331.04	1689.57
331.25	1746.92
331.46	1722.34
331.68	1650.66
331.89	1724.39
332.10	1736.68
332.31	1673.19
332.52	1685.48
332.74	1665.00
332.95	1615.85
333.16	1701.86
333.37	1665.00
333.58	1681.38
333.80	1714.15
334.01	1640.42
334.22	1689.57
334.43	1630.18
334.64	1798.12
334.86	1656.81
335.07	1677.29
335.28	1755.11
335.49	1597.42
335.70	1734.63
335.92	1699.81
336.13	1832.93
336.34	1765.35
336.55	1755.11
336.76	1697.77
336.98	1613.80
337.19	1710.05
337.40	1722.34
337.61	1771.49
337.82	1642.47
338.04	1765.35
338.25	1648.61
338.46	1697.77
338.67	1744.87
338.88	1671.14
339.09	1662.95
339.31	1681.38
339.52	1609.70
339.73	1669.09
339.94	1720.29
340.15	1779.68
340.36	1667.05
340.58	1708.01
340.79	1697.77
341.00	1679.33
341.21	1578.98
341.42	1828.84
341.63	1712.10
341.85	1726.44
342.06	1722.34
342.27	1658.85
342.48	1718.25
342.69	1628.14
342.90	1712.10
343.12	1761.25
343.33	1675.24
343.54	1697.77
343.75	1755.11
343.96	1714.15
344.17	1617.90
344.38	1652.71
344.60	1701.86
344.81	1630.18
345.02	1648.61
345.23	1714.15
345.44	1806.31
345.65	1681.38
345.86	1708.01
346.07	1718.25
346.29	1685.48
346.50	1667.05
346.71	1746.92
346.92	1720.29
347.13	1861.60
347.34	1724.39
347.55	1615.85
347.76	1724.39
347.98	1634.28
348.19	1642.47
348.40	1802.21
348.61	1673.19
348.82	1796.07
349.03	1734.63
349.24	1615.85
349.45	1726.44
349.66	1538.02
349.88	1642.47
350.09	1648.61
350.30	1759.21
350.51	1757.16
350.72	1695.72
350.93	1773.54
351.14	1660.90
351.35	1703.91
351.56	1671.14
351.77	1712.10
351.99	1728.49
352.20	1730.53
352.41	1832.93
352.62	1634.28
352.83	1662.95
353.04	1769.44
353.25	1714.15
353.46	1763.30
353.67	1783.78
353.88	1609.70
354.09	1689.57
354.30	1714.15
354.52	1687.53
354.73	1724.39
354.94	1705.96
355.15	1630.18
355.36	1810.40
355.57	1671.14
355.78	1759.21
355.99	1644.52
356.20	1796.07
356.41	1767.40
356.62	1730.53
356.83	1701.86
357.04	1759.21
357.25	1609.70
357.46	1722.34
357.68	1675.24
357.89	1677.29
358.10	1693.67
358.31	1636.33
358.52	1701.86
358.73	1636.33
358.94	1665.00
359.15	1603.56
359.36	1787.88
359.57	1695.72
359.78	1667.05
359.99	1708.01
360.20	1683.43
360.41	1679.33
360.62	1726.44
360.83	1673.19
361.04	1660.90
361.25	1640.42
361.46	1806.31
361.67	1697.77
361.88	1763.30
362.09	1755.11
362.30	1689.57
362.51	1658.85
362.72	1697.77
362.93	1652.71
363.14	1683.43
363.35	1740.77
363.56	1650.66
363.78	1771.49
363.99	1697.77
364.20	1742.82
364.41	1800.16
364.62	1773.54
364.83	1699.81
365.04	1757.16
365.25	1599.46
365.46	1804.26
365.67	1681.38
365.88	1601.51
366.09	1691.62
366.30	1646.57
366.51	1662.95
366.72	1660.90
366.93	1712.10
367.14	1730.53
367.35	1828.84
367.56	1763.30
367.77	1753.06
367.98	1636.33
368.18	1705.96
368.39	1728.49
368.60	1716.20
368.81	1738.73
369.02	1718.25
369.23	1687.53
369.44	1589.22
369.65	1716.20
369.86	1708.01
370.07	1693.67
370.28	1669.09
370.49	1751.01
370.70	1689.57
370.91	1634.28
371.12	1705.96
371.33	1775.59
371.54	1681.38
371.75	1802.21
371.96	1583.08
372.17	1740.77
372.38	1705.96
372.59	1726.44
372.80	1718.25
373.01	1646.57
373.22	1619.94
373.43	1710.05
373.64	1683.43
373.85	1789.92
374.06	1724.39
374.26	1730.53
374.47	1658.85
374.68	1820.64
374.89	1677.29
375.10	1751.01
375.31	1800.16
375.52	1691.62
375.73	1710.05
375.94	1613.80
376.15	1740.77
376.36	1613.80
376.57	1699.81
376.78	1755.11
376.99	1693.67
377.20	1769.44
377.40	1652.71
377.61	1794.02
377.82	1654.76
378.03	1783.78
378.24	1746.92
378.45	1716.20
378.66	1699.81
378.87	1619.94
379.08	1583.08
379.29	1730.53
379.50	1810.40
379.71	1697.77
379.91	1798.12
380.12	1712.10
380.33	1669.09
380.54	1714.15
380.75	1662.95
380.96	1697.77
381.17	1724.39
381.38	1669.09
381.59	1759.21
381.80	1757.16
382.00	1789.92
382.21	1767.40
382.42	1820.64
382.63	1918.95
382.84	1718.25
383.05	1763.30
383.26	1773.54
383.47	1757.16
383.68	1787.88
383.88	1769.44
384.09	1726.44
384.30	1785.83
384.51	1691.62
384.72	1708.01
384.93	1695.72
385.14	1626.09
385.35	1736.68
385.55	1701.86
385.76	1740.77
385.97	1738.73
386.18	1593.32
386.39	1611.75
386.60	1685.48
386.81	1742.82
387.02	1626.09
387.22	1675.24
387.43	1648.61
387.64	1796.07
387.85	1822.69
388.06	2152.42
388.27	4343.74
388.48	6868.89
388.68	8451.97
388.89	9910.12
389.10	10004.33
389.31	8834.94
389.52	7708.55
389.73	6883.22
389.93	6377.37
390.14	5932.97
390.35	5226.42
390.56	4704.18
390.77	3944.39
390.98	2994.13
391.18	2516.95
391.39	2066.40
391.60	1843.17
391.81	1888.23
392.02	1738.73
392.23	1855.46
392.43	1794.02
392.64	1791.97
392.85	1722.34
393.06	1800.16
393.27	1738.73
393.47	1705.96
393.68	1695.72
393.89	1697.77
394.10	1783.78
394.31	1685.48
394.52	1642.47
394.72	1703.91
394.93	1884.13
395.14	1603.56
395.35	1787.88
395.56	1669.09
395.76	1697.77
395.97	1841.12
396.18	1892.32
396.39	1820.64
396.60	1984.48
396.80	1855.46
397.01	1849.32
397.22	1800.16
397.43	1828.84
397.64	1695.72
397.84	1771.49
398.05	1890.28
398.26	1779.68
398.47	1865.70
398.67	1800.16
398.88	1757.16
399.09	1744.87
399.30	1712.10
399.51	1746.92
399.71	1675.24
399.92	1695.72
400.13	1798.12
400.34	1722.34
400.54	1677.29
400.75	1734.63
400.96	1693.67
401.17	1765.35
401.37	1738.73
401.58	1695.72
401.79	1738.73
402.00	1855.46
402.21	1966.05
402.41	1945.57
402.62	1986.53
402.83	2021.35
403.04	1949.67
403.24	2140.13
403.45	1863.65
403.66	2017.25
403.87	1877.99
404.07	1828.84
404.28	1851.36
404.49	1871.84
404.70	1742.82
404.90	1826.79
405.11	1742.82
405.32	1744.87
405.52	1656.81
405.73	1683.43
405.94	1673.19
406.15	1654.76
406.35	1746.92
406.56	1710.05
406.77	1720.29
406.98	1710.05
407.18	1640.42
407.39	1751.01
407.60	1724.39
407.80	1748.97
408.01	1662.95
408.22	1755.11
408.43	1658.85
408.63	1763.30
408.84	1683.43
409.05	1734.63
409.25	1656.81
409.46	1646.57
409.67	1660.90
409.88	1691.62
410.08	1705.96
410.29	1648.61
410.50	1748.97
410.70	1742.82
410.91	1640.42
411.12	1781.73
411.32	1724.39
411.53	1613.80
411.74	1841.12
411.95	1820.64
412.15	1771.49
412.36	1837.03
412.57	1712.10
412.77	1837.03
412.98	1730.53
413.19	1769.44
413.39	1759.21
413.60	1742.82
413.81	1814.50
414.01	1583.08
414.22	1693.67
414.43	1736.68
414.63	1662.95
414.84	1732.58
415.05	1675.24
415.25	1699.81
415.46	1751.01
415.67	1742.82
415.87	1734.63
416.08	1693.67
416.29	1591.27
416.49	1757.16
416.70	1726.44
416.91	1779.68
417.11	1662.95
417.32	1693.67
417.53	1759.21
417.73	1646.57
417.94	1738.73
418.15	1767.40
418.35	1693.67
418.56	1718.25
418.77	1837.03
418.97	1646.57
419.18	1624.04
419.38	1535.98
419.59	1724.39
419.80	1699.81
420.00	1601.51
420.21	1742.82
420.42	1781.73
420.62	1591.27
420.83	1628.14
421.04	1644.52
421.24	1685.48
421.45	1785.83
421.65	1689.57
421.86	1677.29
422.07	1755.11
422.27	1695.72
422.48	1724.39
422.69	1691.62
422.89	1685.48
423.10	1677.29
423.30	1691.62
423.51	1806.31
423.72	1767.40
423.92	1751.01
424.13	1597.42
424.33	1689.57
424.54	1712.10
424.75	1714.15
424.95	1832.93
425.16	1781.73
425.36	1701.86
425.57	1716.20
425.78	1787.88
425.98	1675.24
426.19	1748.97
426.39	1642.47
426.60	1738.73
426.81	1845.22
427.01	1708.01
427.22	1644.52
427.42	1640.42
427.63	1718.25
427.83	1726.44
428.04	1845.22
428.25	1744.87
428.45	1759.21
428.66	1787.88
428.86	1734.63
429.07	1685.48
429.28	1693.67
429.48	1746.92
429.69	1585.13
429.89	1683.43
430.10	1640.42
430.30	1687.53
430.51	1738.73
430.71	1630.18
430.92	1691.62
431.13	1685.48
431.33	1660.90
431.54	1710.05
431.74	1759.21
431.95	1798.12
432.15	1679.33
432.36	1755.11
432.56	1714.15
432.77	1845.22
432.98	1810.40
433.18	1705.96
433.39	1765.35
433.59	1652.71
433.80	1746.92
434.00	1804.26
434.21	1699.81
434.41	1636.33
434.62	1855.46
434.82	1634.28
435.03	1665.00
435.23	1804.26
435.44	1669.09
435.64	1662.95
435.85	1679.33
436.06	1753.06
436.26	1820.64
436.47	1783.78
436.67	1654.76
436.88	1759.21
437.08	1722.34
437.29	1724.39
437.49	1724.39
437.70	1714.15
437.90	1697.77
438.11	1837.03
438.31	1775.59
438.52	1855.46
438.72	1914.85
438.93	1851.36
439.13	1804.26
439.34	1769.44
439.54	1789.92
439.75	1732.58
439.95	1765.35
440.16	1693.67
440.36	1730.53
440.57	1794.02
440.77	1800.16
440.98	1798.12
441.18	1783.78
441.39	1695.72
441.59	1748.97
441.80	1736.68
442.00	1675.24
442.21	1744.87
442.41	1644.52
442.62	1705.96
442.82	1751.01
443.02	1699.81
443.23	1732.58
443.43	1710.05
443.64	1765.35
443.84	1662.95
444.05	1800.16
444.25	1763.30
444.46	1693.67
444.66	1685.48
444.87	1804.26
445.07	1646.57
445.28	1654.76
445.48	1722.34
445.69	1818.60
445.89	1851.36
446.09	1767.40
446.30	2054.11
446.50	2684.89
446.71	3764.17
446.91	4384.70
447.12	4851.64
447.32	4935.60
447.53	4339.65
447.73	3928.00
447.93	3592.14
448.14	3401.68
448.34	3252.17
448.55	2914.26
448.75	2885.59
448.96	2723.80
449.16	2484.19
449.36	2265.05
449.57	2000.87
449.77	1914.85
449.98	1822.69
450.18	1789.92
450.39	1834.98
450.59	1763.30
450.79	1740.77
451.00	1621.99
451.20	1746.92
451.41	1656.81
451.61	1716.20
451.81	1691.62
452.02	1781.73
452.22	1656.81
452.43	1759.21
452.63	1701.86
