SpectraSuite Data File
++++++++++++++++++++++++++++++++++++
Date: Mon Jun 06 15:01:57 CEST 2016
User: root
Dark Spectrum Present: No
Reference Spectrum Present: No
Number of Sampled Component Spectra: 1
Spectrometers: USB4C02835
Integration Time (usec): 100000 (USB4C02835)
Spectra Averaged: 1 (USB4C02835)
Boxcar Smoothing: 0 (USB4C02835)
Correct for Electrical Dark: No (USB4C02835)
Strobe/Lamp Enabled: No (USB4C02835)
Correct for Detector Non-linearity: No (USB4C02835)
Correct for Stray Light: No (USB4C02835)
Number of Pixels in Processed Spectrum: 3648
>>>>>Begin Processed Spectral Data<<<<<
177.47	1484.78
177.69	1484.78
177.91	1484.78
178.13	1466.35
178.36	1527.78
178.58	1652.71
178.80	1828.84
179.02	1656.81
179.24	1644.52
179.46	1744.87
179.68	1699.81
179.90	1669.09
180.13	1660.90
180.35	1628.14
180.57	1644.52
180.79	1738.73
181.01	1687.53
181.23	1714.15
181.45	1759.21
181.67	1683.43
181.90	1699.81
182.12	1609.70
182.34	1609.70
182.56	1683.43
182.78	1710.05
183.00	1734.63
183.22	1710.05
183.44	1574.89
183.66	1783.78
183.89	1841.12
184.11	1736.68
184.33	1769.44
184.55	1787.88
184.77	1728.49
184.99	1755.11
185.21	1757.16
185.43	1834.98
185.65	1677.29
185.87	1679.33
186.10	1783.78
186.32	1886.18
186.54	1744.87
186.76	1714.15
186.98	1746.92
187.20	1665.00
187.42	1699.81
187.64	1660.90
187.86	1712.10
188.08	1771.49
188.30	1669.09
188.52	1697.77
188.75	1767.40
188.97	1761.25
189.19	1642.47
189.41	1617.90
189.63	1683.43
189.85	1730.53
190.07	1595.37
190.29	1675.24
190.51	1755.11
190.73	1652.71
190.95	1751.01
191.17	1732.58
191.39	1648.61
191.61	1648.61
191.84	1660.90
192.06	1748.97
192.28	1665.00
192.50	1855.46
192.72	1654.76
192.94	1736.68
193.16	1675.24
193.38	1794.02
193.60	1642.47
193.82	1699.81
194.04	1765.35
194.26	1708.01
194.48	1787.88
194.70	1644.52
194.92	1695.72
195.14	1746.92
195.36	1628.14
195.58	1705.96
195.80	1671.14
196.02	1587.18
196.24	1675.24
196.46	1677.29
196.69	1734.63
196.91	1845.22
197.13	1650.66
197.35	1679.33
197.57	1748.97
197.79	1681.38
198.01	1742.82
198.23	1710.05
198.45	1699.81
198.67	1587.18
198.89	1681.38
199.11	1708.01
199.33	1667.05
199.55	1644.52
199.77	1763.30
199.99	1796.07
200.21	1673.19
200.43	1738.73
200.65	1632.23
200.87	1566.70
201.09	1724.39
201.31	1732.58
201.53	1683.43
201.75	1724.39
201.97	1667.05
202.19	1677.29
202.41	1724.39
202.63	1763.30
202.85	1828.84
203.07	1677.29
203.29	1777.64
203.51	1685.48
203.73	1712.10
203.95	1785.83
204.17	1681.38
204.39	1722.34
204.61	1767.40
204.83	1705.96
205.05	1656.81
205.27	1796.07
205.49	1777.64
205.71	1667.05
205.93	1621.99
206.15	1585.13
206.37	1720.29
206.59	1648.61
206.81	1615.85
207.03	1652.71
207.25	1599.46
207.47	1787.88
207.69	1689.57
207.91	1812.45
208.13	1779.68
208.34	1671.14
208.56	1638.38
208.78	1732.58
209.00	1621.99
209.22	1617.90
209.44	1656.81
209.66	1697.77
209.88	1720.29
210.10	1675.24
210.32	1576.94
210.54	1787.88
210.76	1658.85
210.98	1779.68
211.20	1550.31
211.42	1662.95
211.64	1794.02
211.86	1771.49
212.08	1755.11
212.30	1746.92
212.52	1746.92
212.74	1783.78
212.96	1695.72
213.17	1804.26
213.39	1789.92
213.61	1732.58
213.83	1628.14
214.05	1642.47
214.27	1748.97
214.49	1642.47
214.71	1685.48
214.93	1791.97
215.15	1662.95
215.37	1705.96
215.59	1488.87
215.81	1701.86
216.03	1718.25
216.24	1757.16
216.46	1703.91
216.68	1708.01
216.90	1777.64
217.12	1798.12
217.34	1679.33
217.56	1724.39
217.78	1740.77
218.00	1728.49
218.22	1667.05
218.44	1751.01
218.66	1708.01
218.87	1847.27
219.09	1697.77
219.31	1742.82
219.53	1679.33
219.75	1671.14
219.97	1654.76
220.19	1767.40
220.41	1660.90
220.63	1755.11
220.85	1658.85
221.06	1660.90
221.28	1740.77
221.50	1798.12
221.72	1734.63
221.94	1740.77
222.16	1703.91
222.38	1671.14
222.60	1710.05
222.82	1718.25
223.03	1701.86
223.25	1675.24
223.47	1779.68
223.69	1796.07
223.91	1716.20
224.13	1679.33
224.35	1701.86
224.57	1789.92
224.78	1732.58
225.00	1648.61
225.22	1712.10
225.44	1769.44
225.66	1853.41
225.88	1646.57
226.10	1744.87
226.32	1710.05
226.53	1759.21
226.75	1697.77
226.97	1689.57
227.19	1689.57
227.41	1630.18
227.63	1644.52
227.85	1662.95
228.06	1767.40
228.28	1763.30
228.50	1742.82
228.72	1699.81
228.94	1708.01
229.16	1560.55
229.37	1683.43
229.59	1720.29
229.81	1765.35
230.03	1722.34
230.25	1644.52
230.47	1611.75
230.69	1636.33
230.90	1744.87
231.12	1650.66
231.34	1722.34
231.56	1820.64
231.78	1644.52
232.00	1714.15
232.21	1748.97
232.43	1642.47
232.65	1593.32
232.87	1652.71
233.09	1660.90
233.30	1599.46
233.52	1734.63
233.74	1732.58
233.96	1650.66
234.18	1732.58
234.40	1738.73
234.61	1789.92
234.83	1591.27
235.05	1603.56
235.27	1812.45
235.49	1726.44
235.70	1708.01
235.92	1767.40
236.14	1705.96
236.36	1910.75
236.58	1695.72
236.79	1710.05
237.01	1658.85
237.23	1660.90
237.45	1781.73
237.67	1621.99
237.88	1734.63
238.10	1845.22
238.32	1695.72
238.54	1712.10
238.76	1730.53
238.97	1624.04
239.19	1636.33
239.41	1705.96
239.63	1759.21
239.85	1722.34
240.06	1673.19
240.28	1697.77
240.50	1722.34
240.72	1671.14
240.93	1679.33
241.15	1718.25
241.37	1671.14
241.59	1730.53
241.81	1732.58
242.02	1677.29
242.24	1765.35
242.46	1746.92
242.68	1648.61
242.89	1722.34
243.11	1738.73
243.33	1691.62
243.55	1681.38
243.76	1710.05
243.98	1665.00
244.20	1632.23
244.42	1703.91
244.64	1660.90
244.85	1669.09
245.07	1687.53
245.29	1769.44
245.51	1642.47
245.72	1726.44
245.94	1732.58
246.16	1724.39
246.38	1746.92
246.59	1599.46
246.81	1718.25
247.03	1730.53
247.24	1617.90
247.46	1722.34
247.68	1718.25
247.90	1656.81
248.11	1722.34
248.33	1679.33
248.55	1732.58
248.77	1722.34
248.98	1699.81
249.20	1832.93
249.42	1701.86
249.64	1771.49
249.85	1671.14
250.07	1660.90
250.29	1783.78
250.50	1763.30
250.72	1656.81
250.94	1710.05
251.16	1796.07
251.37	1791.97
251.59	1720.29
251.81	1779.68
252.02	1738.73
252.24	1677.29
252.46	1773.54
252.68	1640.42
252.89	1677.29
253.11	1648.61
253.33	1855.46
253.54	1771.49
253.76	1605.61
253.98	1638.38
254.20	1732.58
254.41	1599.46
254.63	1650.66
254.85	1564.65
255.06	1658.85
255.28	1804.26
255.50	1732.58
255.71	1619.94
255.93	1615.85
256.15	1689.57
256.36	1769.44
256.58	1652.71
256.80	1789.92
257.02	1683.43
257.23	1652.71
257.45	1609.70
257.67	1714.15
257.88	1693.67
258.10	1669.09
258.32	1751.01
258.53	1671.14
258.75	1804.26
258.97	1689.57
259.18	1781.73
259.40	1685.48
259.62	1804.26
259.83	1828.84
260.05	1673.19
260.27	1947.62
260.48	1701.86
260.70	1730.53
260.92	1755.11
261.13	1650.66
261.35	1777.64
261.57	1744.87
261.78	1595.37
262.00	1585.13
262.22	1767.40
262.43	1669.09
262.65	1695.72
262.86	1705.96
263.08	1796.07
263.30	1705.96
263.51	1630.18
263.73	1677.29
263.95	1763.30
264.16	1691.62
264.38	1640.42
264.60	1771.49
264.81	1685.48
265.03	1779.68
265.25	1771.49
265.46	1728.49
265.68	1736.68
265.89	1769.44
266.11	1576.94
266.33	1806.31
266.54	1689.57
266.76	1712.10
266.98	1714.15
267.19	1761.25
267.41	1773.54
267.62	1691.62
267.84	1624.04
268.06	1748.97
268.27	1763.30
268.49	1757.16
268.70	1787.88
268.92	1740.77
269.14	1558.50
269.35	1626.09
269.57	1611.75
269.79	1742.82
270.00	1748.97
270.22	1806.31
270.43	1648.61
270.65	1574.89
270.87	1734.63
271.08	1652.71
271.30	1730.53
271.51	1705.96
271.73	1718.25
271.95	1755.11
272.16	1681.38
272.38	1712.10
272.59	1808.36
272.81	1779.68
273.02	1736.68
273.24	1759.21
273.46	1779.68
273.67	1648.61
273.89	1665.00
274.10	1705.96
274.32	1767.40
274.54	1693.67
274.75	1671.14
274.97	1648.61
275.18	1726.44
275.40	1742.82
275.61	1611.75
275.83	1656.81
276.05	1626.09
276.26	1757.16
276.48	1699.81
276.69	1703.91
276.91	1720.29
277.12	1763.30
277.34	1728.49
277.55	1759.21
277.77	1718.25
277.99	1720.29
278.20	1703.91
278.42	1630.18
278.63	1638.38
278.85	1705.96
279.06	1689.57
279.28	1771.49
279.49	1748.97
279.71	1701.86
279.93	1652.71
280.14	1683.43
280.36	1697.77
280.57	1730.53
280.79	1742.82
281.00	1658.85
281.22	1714.15
281.43	1798.12
281.65	1581.03
281.86	1615.85
282.08	1644.52
282.29	1837.03
282.51	1578.98
282.73	1683.43
282.94	1607.66
283.16	1755.11
283.37	1824.74
283.59	1669.09
283.80	1607.66
284.02	1703.91
284.23	1726.44
284.45	1644.52
284.66	1615.85
284.88	1640.42
285.09	1695.72
285.31	1646.57
285.52	1748.97
285.74	1640.42
285.95	1791.97
286.17	1703.91
286.38	1732.58
286.60	1626.09
286.81	1677.29
287.03	1658.85
287.24	1705.96
287.46	1712.10
287.67	1669.09
287.89	1787.88
288.10	1693.67
288.32	1628.14
288.53	1818.60
288.75	1779.68
288.96	1705.96
289.18	1677.29
289.39	1710.05
289.61	1810.40
289.82	1834.98
290.04	1789.92
290.25	1683.43
290.47	1734.63
290.68	1630.18
290.90	1712.10
291.11	1683.43
291.33	1837.03
291.54	1609.70
291.76	1591.27
291.97	1675.24
292.18	1753.06
292.40	1705.96
292.61	1662.95
292.83	1847.27
293.04	1669.09
293.26	1728.49
293.47	1697.77
293.69	1619.94
293.90	1708.01
294.12	1808.36
294.33	1734.63
294.55	1697.77
294.76	1802.21
294.97	1783.78
295.19	1808.36
295.40	1667.05
295.62	1736.68
295.83	1828.84
296.05	1687.53
296.26	1722.34
296.48	1595.37
296.69	1673.19
296.90	1658.85
297.12	1796.07
297.33	1724.39
297.55	1736.68
297.76	1789.92
297.98	1771.49
298.19	1738.73
298.41	1658.85
298.62	1697.77
298.83	1839.08
299.05	1746.92
299.26	1767.40
299.48	1636.33
299.69	1753.06
299.90	1667.05
300.12	1626.09
300.33	1755.11
300.55	1712.10
300.76	1732.58
300.98	1632.23
301.19	1726.44
301.40	1673.19
301.62	1673.19
301.83	1824.74
302.05	1710.05
302.26	1656.81
302.47	1748.97
302.69	1619.94
302.90	1652.71
303.12	1669.09
303.33	1689.57
303.54	1796.07
303.76	1697.77
303.97	1740.77
304.19	1796.07
304.40	1683.43
304.61	1730.53
304.83	1775.59
305.04	1662.95
305.26	1705.96
305.47	1667.05
305.68	1689.57
305.90	1675.24
306.11	1800.16
306.33	1669.09
306.54	1669.09
306.75	1701.86
306.97	1646.57
307.18	1609.70
307.39	1619.94
307.61	1740.77
307.82	1581.03
308.04	1767.40
308.25	1636.33
308.46	1712.10
308.68	1705.96
308.89	1679.33
309.10	1806.31
309.32	1689.57
309.53	1673.19
309.74	1685.48
309.96	1673.19
310.17	1816.55
310.39	1673.19
310.60	1839.08
310.81	1736.68
311.03	1648.61
311.24	1779.68
311.45	1626.09
311.67	1781.73
311.88	1685.48
312.09	1703.91
312.31	1726.44
312.52	1705.96
312.73	1628.14
312.95	1642.47
313.16	1685.48
313.37	1779.68
313.59	1734.63
313.80	1744.87
314.01	1802.21
314.23	1708.01
314.44	1652.71
314.65	1642.47
314.87	1669.09
315.08	1781.73
315.29	1740.77
315.51	1669.09
315.72	1626.09
315.93	1761.25
316.15	1853.41
316.36	1722.34
316.57	1722.34
316.79	1673.19
317.00	1675.24
317.21	1740.77
317.43	1738.73
317.64	1730.53
317.85	1691.62
318.07	1624.04
318.28	1703.91
318.49	1751.01
318.70	1906.66
318.92	1826.79
319.13	1761.25
319.34	1849.32
319.56	1769.44
319.77	1705.96
319.98	1767.40
320.20	1769.44
320.41	1644.52
320.62	1751.01
320.83	1662.95
321.05	1826.79
321.26	1718.25
321.47	1687.53
321.69	1720.29
321.90	1634.28
322.11	1683.43
322.32	1644.52
322.54	1759.21
322.75	1642.47
322.96	1851.36
323.18	1615.85
323.39	1601.51
323.60	1650.66
323.81	1843.17
324.03	1697.77
324.24	1705.96
324.45	1708.01
324.66	1714.15
324.88	1755.11
325.09	1824.74
325.30	1748.97
325.52	1775.59
325.73	1705.96
325.94	1695.72
326.15	1636.33
326.37	1691.62
326.58	1775.59
326.79	1777.64
327.00	1687.53
327.22	1679.33
327.43	1656.81
327.64	1665.00
327.85	1748.97
328.07	1802.21
328.28	1818.60
328.49	1619.94
328.70	1736.68
328.92	1740.77
329.13	1701.86
329.34	1759.21
329.55	1773.54
329.76	1824.74
329.98	1738.73
330.19	1773.54
330.40	1748.97
330.61	1755.11
330.83	1759.21
331.04	1652.71
331.25	1665.00
331.46	1673.19
331.68	1632.23
331.89	1781.73
332.10	1691.62
332.31	1566.70
332.52	1804.26
332.74	1726.44
332.95	1628.14
333.16	1603.56
333.37	1769.44
333.58	1677.29
333.80	1648.61
334.01	1632.23
334.22	1712.10
334.43	1658.85
334.64	1646.57
334.86	1667.05
335.07	1726.44
335.28	1806.31
335.49	1542.12
335.70	1779.68
335.92	1804.26
336.13	1855.46
336.34	1728.49
336.55	1755.11
336.76	1808.36
336.98	1599.46
337.19	1685.48
337.40	1724.39
337.61	1845.22
337.82	1718.25
338.04	1765.35
338.25	1599.46
338.46	1730.53
338.67	1626.09
338.88	1630.18
339.09	1650.66
339.31	1679.33
339.52	1656.81
339.73	1656.81
339.94	1687.53
340.15	1705.96
340.36	1660.90
340.58	1669.09
340.79	1662.95
341.00	1742.82
341.21	1638.38
341.42	1738.73
341.63	1634.28
341.85	1763.30
342.06	1738.73
342.27	1601.51
342.48	1771.49
342.69	1681.38
342.90	1753.06
343.12	1728.49
343.33	1677.29
343.54	1726.44
343.75	1740.77
343.96	1691.62
344.17	1595.37
344.38	1611.75
344.60	1636.33
344.81	1609.70
345.02	1691.62
345.23	1744.87
345.44	1787.88
345.65	1744.87
345.86	1699.81
346.07	1748.97
346.29	1689.57
346.50	1710.05
346.71	1705.96
346.92	1763.30
347.13	1912.80
347.34	1681.38
347.55	1718.25
347.76	1761.25
347.98	1591.27
348.19	1693.67
348.40	1808.36
348.61	1699.81
348.82	1791.97
349.03	1736.68
349.24	1626.09
349.45	1753.06
349.66	1597.42
349.88	1681.38
350.09	1595.37
350.30	1761.25
350.51	1804.26
350.72	1671.14
350.93	1777.64
351.14	1662.95
351.35	1742.82
351.56	1630.18
351.77	1665.00
351.99	1722.34
352.20	1785.83
352.41	1724.39
352.62	1681.38
352.83	1714.15
353.04	1638.38
353.25	1652.71
353.46	1773.54
353.67	1714.15
353.88	1642.47
354.09	1638.38
354.30	1722.34
354.52	1648.61
354.73	1648.61
354.94	1626.09
355.15	1646.57
355.36	1736.68
355.57	1689.57
355.78	1763.30
355.99	1665.00
356.20	1607.66
356.41	1773.54
356.62	1660.90
356.83	1587.18
357.04	1779.68
357.25	1619.94
357.46	1621.99
357.68	1554.41
357.89	1679.33
358.10	1677.29
358.31	1669.09
358.52	1656.81
358.73	1687.53
358.94	1611.75
359.15	1695.72
359.36	1759.21
359.57	1603.56
359.78	1638.38
359.99	1773.54
360.20	1708.01
360.41	1712.10
360.62	1714.15
360.83	1726.44
361.04	1724.39
361.25	1695.72
361.46	1775.59
361.67	1673.19
361.88	1699.81
362.09	1744.87
362.30	1783.78
362.51	1679.33
362.72	1681.38
362.93	1775.59
363.14	1716.20
363.35	1720.29
363.56	1671.14
363.78	1744.87
363.99	1781.73
364.20	1650.66
364.41	1724.39
364.62	1839.08
364.83	1726.44
365.04	1703.91
365.25	1609.70
365.46	1791.97
365.67	1660.90
365.88	1636.33
366.09	1683.43
366.30	1697.77
366.51	1656.81
366.72	1621.99
366.93	1699.81
367.14	1705.96
367.35	1728.49
367.56	1724.39
367.77	1826.79
367.98	1689.57
368.18	1742.82
368.39	1687.53
368.60	1658.85
368.81	1753.06
369.02	1724.39
369.23	1728.49
369.44	1648.61
369.65	1615.85
369.86	1695.72
370.07	1669.09
370.28	1650.66
370.49	1689.57
370.70	1724.39
370.91	1540.07
371.12	1564.65
371.33	1761.25
371.54	1658.85
371.75	1716.20
371.96	1574.89
372.17	1660.90
372.38	1689.57
372.59	1783.78
372.80	1767.40
373.01	1732.58
373.22	1675.24
373.43	1658.85
373.64	1544.17
373.85	1703.91
374.06	1837.03
374.26	1646.57
374.47	1738.73
374.68	1718.25
374.89	1726.44
375.10	1673.19
375.31	1712.10
375.52	1691.62
375.73	1781.73
375.94	1640.42
376.15	1800.16
376.36	1632.23
376.57	1632.23
376.78	1671.14
376.99	1718.25
377.20	1763.30
377.40	1656.81
377.61	1849.32
377.82	1611.75
378.03	1730.53
378.24	1779.68
378.45	1628.14
378.66	1771.49
378.87	1701.86
379.08	1609.70
379.29	1781.73
379.50	1798.12
379.71	1742.82
379.91	1736.68
380.12	1714.15
380.33	1714.15
380.54	1751.01
380.75	1712.10
380.96	1673.19
381.17	1771.49
381.38	1673.19
381.59	1755.11
381.80	1765.35
382.00	1865.70
382.21	1738.73
382.42	1830.88
382.63	1884.13
382.84	1757.16
383.05	1724.39
383.26	1796.07
383.47	1740.77
383.68	1802.21
383.88	1740.77
384.09	1789.92
384.30	1759.21
384.51	1732.58
384.72	1681.38
384.93	1669.09
385.14	1714.15
385.35	1716.20
385.55	1726.44
385.76	1812.45
385.97	1689.57
386.18	1746.92
386.39	1691.62
386.60	1648.61
386.81	1654.76
387.02	1705.96
387.22	1634.28
387.43	1714.15
387.64	1765.35
387.85	1810.40
388.06	2174.94
388.27	4261.82
388.48	6535.07
388.68	8017.80
388.89	9365.36
389.10	9457.52
389.31	8324.99
389.52	7333.78
389.73	6533.02
389.93	6119.33
390.14	5629.87
390.35	5109.68
390.56	4489.15
390.77	3680.20
390.98	2957.27
391.18	2455.51
391.39	2076.64
391.60	1796.07
391.81	1845.22
392.02	1617.90
392.23	1828.84
392.43	1728.49
392.64	1800.16
392.85	1726.44
393.06	1769.44
393.27	1710.05
393.47	1746.92
393.68	1665.00
393.89	1687.53
394.10	1761.25
394.31	1619.94
394.52	1689.57
394.72	1640.42
394.93	1847.27
395.14	1632.23
395.35	1738.73
395.56	1710.05
395.76	1755.11
395.97	1773.54
396.18	1812.45
396.39	1796.07
396.60	2078.69
396.80	1875.94
397.01	1820.64
397.22	1877.99
397.43	1851.36
397.64	1665.00
397.84	1765.35
398.05	1880.04
398.26	1722.34
398.47	1716.20
398.67	1812.45
398.88	1701.86
399.09	1671.14
399.30	1728.49
399.51	1722.34
399.71	1732.58
399.92	1712.10
400.13	1730.53
400.34	1673.19
400.54	1689.57
400.75	1859.56
400.96	1771.49
401.17	1851.36
401.37	1757.16
401.58	1603.56
401.79	1683.43
402.00	1898.47
402.21	1966.05
402.41	1898.47
402.62	1968.10
402.83	2011.11
403.04	1964.00
403.24	2066.40
403.45	1822.69
403.66	1828.84
403.87	1900.52
404.07	1906.66
404.28	1884.13
404.49	1818.60
404.70	1824.74
404.90	1779.68
405.11	1841.12
405.32	1736.68
405.52	1677.29
405.73	1775.59
405.94	1685.48
406.15	1636.33
406.35	1806.31
406.56	1791.97
406.77	1673.19
406.98	1650.66
407.18	1648.61
407.39	1791.97
407.60	1689.57
407.80	1685.48
408.01	1710.05
408.22	1677.29
408.43	1714.15
408.63	1730.53
408.84	1773.54
409.05	1755.11
409.25	1695.72
409.46	1710.05
409.67	1679.33
409.88	1624.04
410.08	1716.20
410.29	1679.33
410.50	1734.63
410.70	1681.38
410.91	1597.42
411.12	1697.77
411.32	1714.15
411.53	1675.24
411.74	1779.68
411.95	1787.88
412.15	1789.92
412.36	1783.78
412.57	1720.29
412.77	1806.31
412.98	1697.77
413.19	1699.81
413.39	1767.40
413.60	1791.97
413.81	1730.53
414.01	1611.75
414.22	1673.19
414.43	1689.57
414.63	1755.11
414.84	1791.97
415.05	1789.92
415.25	1761.25
415.46	1730.53
415.67	1677.29
415.87	1734.63
416.08	1781.73
416.29	1632.23
416.49	1773.54
416.70	1638.38
416.91	1669.09
417.11	1652.71
417.32	1716.20
417.53	1734.63
417.73	1710.05
417.94	1695.72
418.15	1738.73
418.35	1730.53
418.56	1783.78
418.77	1818.60
418.97	1734.63
419.18	1634.28
419.38	1609.70
419.59	1656.81
419.80	1798.12
420.00	1675.24
420.21	1724.39
420.42	1734.63
420.62	1746.92
420.83	1632.23
421.04	1689.57
421.24	1642.47
421.45	1759.21
421.65	1775.59
421.86	1697.77
422.07	1746.92
422.27	1783.78
422.48	1796.07
422.69	1619.94
422.89	1679.33
423.10	1597.42
423.30	1607.66
423.51	1732.58
423.72	1744.87
423.92	1757.16
424.13	1593.32
424.33	1697.77
424.54	1716.20
424.75	1740.77
424.95	1798.12
425.16	1685.48
425.36	1673.19
425.57	1742.82
425.78	1720.29
425.98	1685.48
426.19	1581.03
426.39	1656.81
426.60	1705.96
426.81	1845.22
427.01	1648.61
427.22	1624.04
427.42	1628.14
427.63	1624.04
427.83	1742.82
428.04	1789.92
428.25	1763.30
428.45	1753.06
428.66	1812.45
428.86	1726.44
429.07	1693.67
429.28	1691.62
429.48	1656.81
429.69	1677.29
429.89	1753.06
430.10	1660.90
430.30	1759.21
430.51	1742.82
430.71	1687.53
430.92	1640.42
431.13	1648.61
431.33	1804.26
431.54	1775.59
431.74	1773.54
431.95	1781.73
432.15	1654.76
432.36	1665.00
432.56	1751.01
432.77	1796.07
432.98	1832.93
433.18	1806.31
433.39	1771.49
433.59	1679.33
433.80	1865.70
434.00	1810.40
434.21	1632.23
434.41	1652.71
434.62	1865.70
434.82	1589.22
435.03	1609.70
435.23	1630.18
435.44	1535.98
435.64	1720.29
435.85	1798.12
436.06	1775.59
436.26	1796.07
436.47	1708.01
436.67	1714.15
436.88	1718.25
437.08	1779.68
437.29	1806.31
437.49	1742.82
437.70	1820.64
437.90	1650.66
438.11	1839.08
438.31	1761.25
438.52	1857.51
438.72	1748.97
438.93	1890.28
439.13	1820.64
439.34	1826.79
439.54	1796.07
439.75	1740.77
439.95	1757.16
440.16	1697.77
440.36	1755.11
440.57	1779.68
440.77	1701.86
440.98	1755.11
441.18	1730.53
441.39	1730.53
441.59	1703.91
441.80	1742.82
442.00	1746.92
442.21	1875.94
442.41	1679.33
442.62	1806.31
442.82	1724.39
443.02	1759.21
443.23	1656.81
443.43	1726.44
443.64	1839.08
443.84	1646.57
444.05	1804.26
444.25	1695.72
444.46	1736.68
444.66	1695.72
444.87	1843.17
445.07	1621.99
445.28	1724.39
445.48	1800.16
445.69	1757.16
445.89	1810.40
446.09	1787.88
446.30	1990.63
446.50	2525.15
446.71	3655.62
446.91	4216.77
447.12	4704.18
447.32	4782.01
447.53	4147.14
447.73	3803.08
447.93	3463.12
448.14	3157.97
448.34	3168.21
448.55	2901.97
448.75	2772.95
448.96	2754.52
449.16	2359.26
449.36	2201.57
449.57	2013.15
449.77	1898.47
449.98	1705.96
450.18	1804.26
450.39	1873.89
450.59	1771.49
450.79	1716.20
451.00	1738.73
451.20	1730.53
451.41	1800.16
451.61	1734.63
451.81	1755.11
452.02	1646.57
452.22	1751.01
452.43	1705.96
452.63	1691.62
