SpectraSuite Data File
++++++++++++++++++++++++++++++++++++
Date: Mon Jun 06 14:56:17 CEST 2016
User: root
Dark Spectrum Present: No
Reference Spectrum Present: No
Number of Sampled Component Spectra: 1
Spectrometers: USB4C02835
Integration Time (usec): 100000 (USB4C02835)
Spectra Averaged: 1 (USB4C02835)
Boxcar Smoothing: 0 (USB4C02835)
Correct for Electrical Dark: No (USB4C02835)
Strobe/Lamp Enabled: No (USB4C02835)
Correct for Detector Non-linearity: No (USB4C02835)
Correct for Stray Light: No (USB4C02835)
Number of Pixels in Processed Spectrum: 3648
>>>>>Begin Processed Spectral Data<<<<<
177.47	1452.01
177.69	1452.01
177.91	1452.01
178.13	1492.97
178.36	1392.62
178.58	1605.61
178.80	1656.81
179.02	1621.99
179.24	1695.72
179.46	1705.96
179.68	1712.10
179.90	1687.53
180.13	1712.10
180.35	1710.05
180.57	1689.57
180.79	1697.77
181.01	1671.14
181.23	1746.92
181.45	1761.25
181.67	1718.25
181.90	1734.63
182.12	1687.53
182.34	1640.42
182.56	1716.20
182.78	1722.34
183.00	1697.77
183.22	1671.14
183.44	1558.50
183.66	1820.64
183.89	1781.73
184.11	1689.57
184.33	1742.82
184.55	1712.10
184.77	1742.82
184.99	1675.24
185.21	1685.48
185.43	1830.88
185.65	1673.19
185.87	1720.29
186.10	1791.97
186.32	1787.88
186.54	1703.91
186.76	1746.92
186.98	1783.78
187.20	1744.87
187.42	1722.34
187.64	1640.42
187.86	1736.68
188.08	1708.01
188.30	1654.76
188.52	1753.06
188.75	1775.59
188.97	1732.58
189.19	1687.53
189.41	1757.16
189.63	1732.58
189.85	1667.05
190.07	1656.81
190.29	1693.67
190.51	1757.16
190.73	1630.18
190.95	1781.73
191.17	1681.38
191.39	1619.94
191.61	1677.29
191.84	1701.86
192.06	1748.97
192.28	1587.18
192.50	1814.50
192.72	1742.82
192.94	1765.35
193.16	1751.01
193.38	1771.49
193.60	1695.72
193.82	1693.67
194.04	1728.49
194.26	1710.05
194.48	1671.14
194.70	1652.71
194.92	1773.54
195.14	1689.57
195.36	1601.51
195.58	1665.00
195.80	1671.14
196.02	1691.62
196.24	1593.32
196.46	1771.49
196.69	1634.28
196.91	1765.35
197.13	1701.86
197.35	1675.24
197.57	1740.77
197.79	1755.11
198.01	1654.76
198.23	1732.58
198.45	1740.77
198.67	1650.66
198.89	1634.28
199.11	1773.54
199.33	1642.47
199.55	1560.55
199.77	1689.57
199.99	1767.40
200.21	1697.77
200.43	1720.29
200.65	1652.71
200.87	1517.54
201.09	1681.38
201.31	1689.57
201.53	1796.07
201.75	1693.67
201.97	1722.34
202.19	1701.86
202.41	1701.86
202.63	1791.97
202.85	1757.16
203.07	1718.25
203.29	1740.77
203.51	1585.13
203.73	1714.15
203.95	1822.69
204.17	1712.10
204.39	1685.48
204.61	1755.11
204.83	1703.91
205.05	1789.92
205.27	1767.40
205.49	1867.75
205.71	1683.43
205.93	1650.66
206.15	1751.01
206.37	1722.34
206.59	1705.96
206.81	1574.89
207.03	1556.46
207.25	1632.23
207.47	1681.38
207.69	1632.23
207.91	1783.78
208.13	1857.51
208.34	1613.80
208.56	1665.00
208.78	1751.01
209.00	1757.16
209.22	1656.81
209.44	1677.29
209.66	1667.05
209.88	1740.77
210.10	1658.85
210.32	1712.10
210.54	1798.12
210.76	1613.80
210.98	1814.50
211.20	1566.70
211.42	1638.38
211.64	1843.17
211.86	1724.39
212.08	1722.34
212.30	1687.53
212.52	1660.90
212.74	1685.48
212.96	1689.57
213.17	1730.53
213.39	1834.98
213.61	1816.55
213.83	1669.09
214.05	1673.19
214.27	1775.59
214.49	1548.26
214.71	1669.09
214.93	1781.73
215.15	1632.23
215.37	1738.73
215.59	1619.94
215.81	1710.05
216.03	1730.53
216.24	1699.81
216.46	1660.90
216.68	1726.44
216.90	1689.57
217.12	1732.58
217.34	1710.05
217.56	1751.01
217.78	1767.40
218.00	1660.90
218.22	1699.81
218.44	1705.96
218.66	1720.29
218.87	1853.41
219.09	1701.86
219.31	1738.73
219.53	1812.45
219.75	1630.18
219.97	1691.62
220.19	1753.06
220.41	1675.24
220.63	1710.05
220.85	1681.38
221.06	1699.81
221.28	1714.15
221.50	1687.53
221.72	1748.97
221.94	1705.96
222.16	1703.91
222.38	1712.10
222.60	1728.49
222.82	1650.66
223.03	1736.68
223.25	1560.55
223.47	1753.06
223.69	1751.01
223.91	1642.47
224.13	1681.38
224.35	1658.85
224.57	1798.12
224.78	1697.77
225.00	1691.62
225.22	1636.33
225.44	1701.86
225.66	1716.20
225.88	1665.00
226.10	1736.68
226.32	1722.34
226.53	1759.21
226.75	1642.47
226.97	1685.48
227.19	1705.96
227.41	1681.38
227.63	1722.34
227.85	1660.90
228.06	1724.39
228.28	1697.77
228.50	1710.05
228.72	1665.00
228.94	1679.33
229.16	1617.90
229.37	1644.52
229.59	1658.85
229.81	1757.16
230.03	1683.43
230.25	1566.70
230.47	1679.33
230.69	1585.13
230.90	1759.21
231.12	1601.51
231.34	1660.90
231.56	1763.30
231.78	1673.19
232.00	1697.77
232.21	1699.81
232.43	1658.85
232.65	1595.37
232.87	1734.63
233.09	1665.00
233.30	1660.90
233.52	1718.25
233.74	1681.38
233.96	1724.39
234.18	1748.97
234.40	1648.61
234.61	1837.03
234.83	1597.42
235.05	1665.00
235.27	1796.07
235.49	1734.63
235.70	1726.44
235.92	1837.03
236.14	1628.14
236.36	1812.45
236.58	1619.94
236.79	1705.96
237.01	1748.97
237.23	1718.25
237.45	1820.64
237.67	1615.85
237.88	1773.54
238.10	1765.35
238.32	1662.95
238.54	1681.38
238.76	1621.99
238.97	1693.67
239.19	1697.77
239.41	1820.64
239.63	1787.88
239.85	1667.05
240.06	1683.43
240.28	1722.34
240.50	1652.71
240.72	1767.40
240.93	1734.63
241.15	1798.12
241.37	1669.09
241.59	1804.26
241.81	1673.19
242.02	1730.53
242.24	1757.16
242.46	1689.57
242.68	1603.56
242.89	1822.69
243.11	1785.83
243.33	1730.53
243.55	1720.29
243.76	1708.01
243.98	1710.05
244.20	1728.49
244.42	1722.34
244.64	1714.15
244.85	1638.38
245.07	1626.09
245.29	1736.68
245.51	1677.29
245.72	1650.66
245.94	1753.06
246.16	1671.14
246.38	1761.25
246.59	1646.57
246.81	1671.14
247.03	1708.01
247.24	1570.79
247.46	1730.53
247.68	1603.56
247.90	1740.77
248.11	1771.49
248.33	1710.05
248.55	1722.34
248.77	1763.30
248.98	1728.49
249.20	1730.53
249.42	1708.01
249.64	1759.21
249.85	1722.34
250.07	1660.90
250.29	1724.39
250.50	1755.11
250.72	1628.14
250.94	1712.10
251.16	1830.88
251.37	1738.73
251.59	1810.40
251.81	1699.81
252.02	1755.11
252.24	1701.86
252.46	1769.44
252.68	1689.57
252.89	1589.22
253.11	1619.94
253.33	1730.53
253.54	1814.50
253.76	1638.38
253.98	1705.96
254.20	1634.28
254.41	1619.94
254.63	1716.20
254.85	1646.57
255.06	1693.67
255.28	1712.10
255.50	1763.30
255.71	1718.25
255.93	1685.48
256.15	1742.82
256.36	1695.72
256.58	1701.86
256.80	1722.34
257.02	1746.92
257.23	1746.92
257.45	1619.94
257.67	1818.60
257.88	1624.04
258.10	1775.59
258.32	1675.24
258.53	1734.63
258.75	1802.21
258.97	1681.38
259.18	1667.05
259.40	1728.49
259.62	1779.68
259.83	1714.15
260.05	1767.40
260.27	1953.76
260.48	1746.92
260.70	1689.57
260.92	1675.24
261.13	1722.34
261.35	1644.52
261.57	1726.44
261.78	1611.75
262.00	1611.75
262.22	1703.91
262.43	1679.33
262.65	1650.66
262.86	1681.38
263.08	1765.35
263.30	1736.68
263.51	1583.08
263.73	1654.76
263.95	1742.82
264.16	1626.09
264.38	1734.63
264.60	1740.77
264.81	1650.66
265.03	1699.81
265.25	1781.73
265.46	1728.49
265.68	1832.93
265.89	1765.35
266.11	1642.47
266.33	1748.97
266.54	1806.31
266.76	1783.78
266.98	1740.77
267.19	1787.88
267.41	1724.39
267.62	1789.92
267.84	1681.38
268.06	1740.77
268.27	1642.47
268.49	1781.73
268.70	1718.25
268.92	1710.05
269.14	1677.29
269.35	1652.71
269.57	1703.91
269.79	1816.55
270.00	1632.23
270.22	1800.16
270.43	1675.24
270.65	1615.85
270.87	1738.73
271.08	1691.62
271.30	1718.25
271.51	1685.48
271.73	1728.49
271.95	1730.53
272.16	1714.15
272.38	1740.77
272.59	1708.01
272.81	1667.05
273.02	1705.96
273.24	1730.53
273.46	1757.16
273.67	1683.43
273.89	1673.19
274.10	1695.72
274.32	1763.30
274.54	1718.25
274.75	1697.77
274.97	1644.52
275.18	1722.34
275.40	1708.01
275.61	1708.01
275.83	1644.52
276.05	1652.71
276.26	1638.38
276.48	1775.59
276.69	1693.67
276.91	1583.08
277.12	1708.01
277.34	1765.35
277.55	1779.68
277.77	1730.53
277.99	1660.90
278.20	1609.70
278.42	1574.89
278.63	1576.94
278.85	1658.85
279.06	1601.51
279.28	1785.83
279.49	1748.97
279.71	1787.88
279.93	1726.44
280.14	1660.90
280.36	1611.75
280.57	1718.25
280.79	1800.16
281.00	1718.25
281.22	1705.96
281.43	1755.11
281.65	1566.70
281.86	1601.51
282.08	1767.40
282.29	1802.21
282.51	1615.85
282.73	1681.38
282.94	1636.33
283.16	1732.58
283.37	1777.64
283.59	1652.71
283.80	1665.00
284.02	1685.48
284.23	1714.15
284.45	1624.04
284.66	1636.33
284.88	1654.76
285.09	1675.24
285.31	1765.35
285.52	1767.40
285.74	1554.41
285.95	1753.06
286.17	1705.96
286.38	1738.73
286.60	1638.38
286.81	1669.09
287.03	1693.67
287.24	1701.86
287.46	1771.49
287.67	1734.63
287.89	1820.64
288.10	1658.85
288.32	1689.57
288.53	1804.26
288.75	1714.15
288.96	1693.67
289.18	1611.75
289.39	1695.72
289.61	1828.84
289.82	1814.50
290.04	1779.68
290.25	1714.15
290.47	1667.05
290.68	1734.63
290.90	1681.38
291.11	1644.52
291.33	1783.78
291.54	1665.00
291.76	1658.85
291.97	1652.71
292.18	1783.78
292.40	1626.09
292.61	1660.90
292.83	1751.01
293.04	1675.24
293.26	1740.77
293.47	1683.43
293.69	1665.00
293.90	1732.58
294.12	1769.44
294.33	1599.46
294.55	1697.77
294.76	1796.07
294.97	1798.12
295.19	1755.11
295.40	1648.61
295.62	1773.54
295.83	1691.62
296.05	1667.05
296.26	1677.29
296.48	1675.24
296.69	1765.35
296.90	1681.38
297.12	1787.88
297.33	1757.16
297.55	1712.10
297.76	1701.86
297.98	1779.68
298.19	1665.00
298.41	1740.77
298.62	1640.42
298.83	1816.55
299.05	1781.73
299.26	1626.09
299.48	1759.21
299.69	1722.34
299.90	1697.77
300.12	1687.53
300.33	1730.53
300.55	1648.61
300.76	1738.73
300.98	1570.79
301.19	1714.15
301.40	1589.22
301.62	1724.39
301.83	1777.64
302.05	1791.97
302.26	1685.48
302.47	1759.21
302.69	1607.66
302.90	1636.33
303.12	1615.85
303.33	1779.68
303.54	1828.84
303.76	1708.01
303.97	1767.40
304.19	1757.16
304.40	1626.09
304.61	1783.78
304.83	1773.54
305.04	1748.97
305.26	1765.35
305.47	1599.46
305.68	1714.15
305.90	1609.70
306.11	1759.21
306.33	1701.86
306.54	1693.67
306.75	1701.86
306.97	1636.33
307.18	1611.75
307.39	1722.34
307.61	1675.24
307.82	1609.70
308.04	1769.44
308.25	1675.24
308.46	1732.58
308.68	1705.96
308.89	1652.71
309.10	1826.79
309.32	1736.68
309.53	1646.57
309.74	1755.11
309.96	1652.71
310.17	1771.49
310.39	1679.33
310.60	1730.53
310.81	1617.90
311.03	1654.76
311.24	1712.10
311.45	1687.53
311.67	1794.02
311.88	1728.49
312.09	1646.57
312.31	1667.05
312.52	1714.15
312.73	1718.25
312.95	1619.94
313.16	1644.52
313.37	1769.44
313.59	1759.21
313.80	1697.77
314.01	1732.58
314.23	1701.86
314.44	1671.14
314.65	1652.71
314.87	1667.05
315.08	1726.44
315.29	1693.67
315.51	1714.15
315.72	1685.48
315.93	1751.01
316.15	1738.73
316.36	1636.33
316.57	1726.44
316.79	1722.34
317.00	1720.29
317.21	1742.82
317.43	1705.96
317.64	1691.62
317.85	1644.52
318.07	1669.09
318.28	1718.25
318.49	1730.53
318.70	1859.56
318.92	1738.73
319.13	1826.79
319.34	1853.41
319.56	1796.07
319.77	1755.11
319.98	1800.16
320.20	1748.97
320.41	1785.83
320.62	1791.97
320.83	1708.01
321.05	1785.83
321.26	1712.10
321.47	1669.09
321.69	1791.97
321.90	1564.65
322.11	1705.96
322.32	1656.81
322.54	1740.77
322.75	1673.19
322.96	1800.16
323.18	1626.09
323.39	1722.34
323.60	1648.61
323.81	1746.92
324.03	1683.43
324.24	1701.86
324.45	1785.83
324.66	1665.00
324.88	1748.97
325.09	1847.27
325.30	1757.16
325.52	1710.05
325.73	1714.15
325.94	1581.03
326.15	1697.77
326.37	1662.95
326.58	1785.83
326.79	1773.54
327.00	1646.57
327.22	1693.67
327.43	1681.38
327.64	1583.08
327.85	1740.77
328.07	1734.63
328.28	1837.03
328.49	1734.63
328.70	1687.53
328.92	1691.62
329.13	1701.86
329.34	1740.77
329.55	1798.12
329.76	1753.06
329.98	1724.39
330.19	1796.07
330.40	1710.05
330.61	1767.40
330.83	1755.11
331.04	1726.44
331.25	1699.81
331.46	1656.81
331.68	1615.85
331.89	1808.36
332.10	1726.44
332.31	1675.24
332.52	1742.82
332.74	1767.40
332.95	1615.85
333.16	1617.90
333.37	1716.20
333.58	1650.66
333.80	1763.30
334.01	1578.98
334.22	1665.00
334.43	1685.48
334.64	1630.18
334.86	1695.72
335.07	1658.85
335.28	1804.26
335.49	1669.09
335.70	1728.49
335.92	1738.73
336.13	1769.44
336.34	1669.09
336.55	1701.86
336.76	1746.92
336.98	1611.75
337.19	1634.28
337.40	1800.16
337.61	1796.07
337.82	1687.53
338.04	1761.25
338.25	1576.94
338.46	1677.29
338.67	1640.42
338.88	1611.75
339.09	1703.91
339.31	1705.96
339.52	1662.95
339.73	1621.99
339.94	1744.87
340.15	1771.49
340.36	1699.81
340.58	1675.24
340.79	1624.04
341.00	1746.92
341.21	1630.18
341.42	1771.49
341.63	1701.86
341.85	1667.05
342.06	1789.92
342.27	1632.23
342.48	1787.88
342.69	1714.15
342.90	1726.44
343.12	1693.67
343.33	1656.81
343.54	1785.83
343.75	1781.73
343.96	1654.76
344.17	1705.96
344.38	1634.28
344.60	1677.29
344.81	1656.81
345.02	1730.53
345.23	1773.54
345.44	1777.64
345.65	1734.63
345.86	1738.73
346.07	1705.96
346.29	1669.09
346.50	1689.57
346.71	1730.53
346.92	1785.83
347.13	1806.31
347.34	1744.87
347.55	1636.33
347.76	1802.21
347.98	1591.27
348.19	1712.10
348.40	1791.97
348.61	1636.33
348.82	1818.60
349.03	1773.54
349.24	1687.53
349.45	1773.54
349.66	1576.94
349.88	1730.53
350.09	1673.19
350.30	1767.40
350.51	1787.88
350.72	1695.72
350.93	1712.10
351.14	1636.33
351.35	1703.91
351.56	1716.20
351.77	1755.11
351.99	1718.25
352.20	1798.12
352.41	1736.68
352.62	1607.66
352.83	1669.09
353.04	1710.05
353.25	1691.62
353.46	1755.11
353.67	1816.55
353.88	1656.81
354.09	1603.56
354.30	1662.95
354.52	1789.92
354.73	1734.63
354.94	1671.14
355.15	1771.49
355.36	1849.32
355.57	1720.29
355.78	1738.73
355.99	1556.46
356.20	1693.67
356.41	1742.82
356.62	1697.77
356.83	1759.21
357.04	1738.73
357.25	1591.27
357.46	1650.66
357.68	1591.27
357.89	1718.25
358.10	1693.67
358.31	1681.38
358.52	1615.85
358.73	1642.47
358.94	1693.67
359.15	1640.42
359.36	1753.06
359.57	1673.19
359.78	1703.91
359.99	1742.82
360.20	1673.19
360.41	1636.33
360.62	1757.16
360.83	1728.49
361.04	1675.24
361.25	1716.20
361.46	1753.06
361.67	1718.25
361.88	1738.73
362.09	1742.82
362.30	1701.86
362.51	1679.33
362.72	1740.77
362.93	1751.01
363.14	1763.30
363.35	1677.29
363.56	1650.66
363.78	1802.21
363.99	1730.53
364.20	1632.23
364.41	1677.29
364.62	1736.68
364.83	1693.67
365.04	1669.09
365.25	1740.77
365.46	1820.64
365.67	1689.57
365.88	1644.52
366.09	1642.47
366.30	1621.99
366.51	1732.58
366.72	1638.38
366.93	1738.73
367.14	1673.19
367.35	1734.63
367.56	1703.91
367.77	1818.60
367.98	1761.25
368.18	1765.35
368.39	1730.53
368.60	1642.47
368.81	1800.16
369.02	1673.19
369.23	1677.29
369.44	1562.60
369.65	1689.57
369.86	1769.44
370.07	1708.01
370.28	1644.52
370.49	1681.38
370.70	1804.26
370.91	1624.04
371.12	1601.51
371.33	1767.40
371.54	1685.48
371.75	1808.36
371.96	1587.18
372.17	1665.00
372.38	1699.81
372.59	1699.81
372.80	1683.43
373.01	1669.09
373.22	1724.39
373.43	1738.73
373.64	1630.18
373.85	1722.34
374.06	1830.88
374.26	1789.92
374.47	1683.43
374.68	1794.02
374.89	1681.38
375.10	1665.00
375.31	1843.17
375.52	1673.19
375.73	1667.05
375.94	1597.42
376.15	1769.44
376.36	1652.71
376.57	1624.04
376.78	1716.20
376.99	1712.10
377.20	1834.98
377.40	1685.48
377.61	1730.53
377.82	1603.56
378.03	1810.40
378.24	1673.19
378.45	1683.43
378.66	1685.48
378.87	1685.48
379.08	1652.71
379.29	1718.25
379.50	1834.98
379.71	1714.15
379.91	1716.20
380.12	1703.91
380.33	1656.81
380.54	1681.38
380.75	1679.33
380.96	1732.58
381.17	1730.53
381.38	1738.73
381.59	1673.19
381.80	1632.23
382.00	1882.08
382.21	1767.40
382.42	1845.22
382.63	1841.12
382.84	1726.44
383.05	1742.82
383.26	1794.02
383.47	1685.48
383.68	1726.44
383.88	1759.21
384.09	1757.16
384.30	1810.40
384.51	1689.57
384.72	1669.09
384.93	1638.38
385.14	1671.14
385.35	1775.59
385.55	1662.95
385.76	1806.31
385.97	1632.23
386.18	1656.81
386.39	1650.66
386.60	1630.18
386.81	1748.97
387.02	1679.33
387.22	1619.94
387.43	1746.92
387.64	1751.01
387.85	1869.80
388.06	2160.61
388.27	4198.34
388.48	6520.73
388.68	7907.21
388.89	9283.44
389.10	9641.84
389.31	8419.20
389.52	7415.69
389.73	6619.04
389.93	6127.52
390.14	5666.73
390.35	5087.15
390.56	4609.98
390.77	3721.16
390.98	2934.74
391.18	2486.23
391.39	2078.69
391.60	1888.23
391.81	1771.49
392.02	1785.83
392.23	1853.41
392.43	1732.58
392.64	1771.49
392.85	1675.24
393.06	1726.44
393.27	1785.83
393.47	1691.62
393.68	1787.88
393.89	1681.38
394.10	1740.77
394.31	1630.18
394.52	1638.38
394.72	1675.24
394.93	1839.08
395.14	1638.38
395.35	1746.92
395.56	1638.38
395.76	1650.66
395.97	1742.82
396.18	1882.08
396.39	1763.30
396.60	1964.00
396.80	1882.08
397.01	1814.50
397.22	1775.59
397.43	1914.85
397.64	1753.06
397.84	1789.92
398.05	1847.27
398.26	1714.15
398.47	1748.97
398.67	1775.59
398.88	1751.01
399.09	1791.97
399.30	1699.81
399.51	1697.77
399.71	1626.09
399.92	1718.25
400.13	1757.16
400.34	1703.91
400.54	1687.53
400.75	1757.16
400.96	1728.49
401.17	1863.65
401.37	1742.82
401.58	1751.01
401.79	1710.05
402.00	1839.08
402.21	2000.87
402.41	1884.13
402.62	1966.05
402.83	1986.53
403.04	2002.91
403.24	1984.48
403.45	1718.25
403.66	1941.47
403.87	1859.56
404.07	1857.51
404.28	1830.88
404.49	1851.36
404.70	1757.16
404.90	1755.11
405.11	1705.96
405.32	1763.30
405.52	1681.38
405.73	1665.00
405.94	1603.56
406.15	1644.52
406.35	1759.21
406.56	1665.00
406.77	1773.54
406.98	1624.04
407.18	1644.52
407.39	1779.68
407.60	1660.90
407.80	1759.21
408.01	1654.76
408.22	1667.05
408.43	1683.43
408.63	1718.25
408.84	1761.25
409.05	1775.59
409.25	1687.53
409.46	1626.09
409.67	1708.01
409.88	1628.14
410.08	1701.86
410.29	1695.72
410.50	1695.72
410.70	1724.39
410.91	1640.42
411.12	1720.29
411.32	1718.25
411.53	1630.18
411.74	1724.39
411.95	1701.86
412.15	1677.29
412.36	1781.73
412.57	1781.73
412.77	1851.36
412.98	1734.63
413.19	1724.39
413.39	1746.92
413.60	1789.92
413.81	1812.45
414.01	1662.95
414.22	1722.34
414.43	1769.44
414.63	1662.95
414.84	1791.97
415.05	1781.73
415.25	1642.47
415.46	1748.97
415.67	1662.95
415.87	1738.73
416.08	1603.56
416.29	1634.28
416.49	1746.92
416.70	1665.00
416.91	1632.23
417.11	1648.61
417.32	1796.07
417.53	1738.73
417.73	1757.16
417.94	1728.49
418.15	1691.62
418.35	1765.35
418.56	1689.57
418.77	1767.40
418.97	1675.24
419.18	1712.10
419.38	1605.61
419.59	1728.49
419.80	1886.18
420.00	1732.58
420.21	1689.57
420.42	1748.97
420.62	1746.92
420.83	1779.68
421.04	1718.25
421.24	1697.77
421.45	1732.58
421.65	1771.49
421.86	1697.77
422.07	1716.20
422.27	1732.58
422.48	1644.52
422.69	1746.92
422.89	1693.67
423.10	1710.05
423.30	1683.43
423.51	1746.92
423.72	1634.28
423.92	1701.86
424.13	1611.75
424.33	1708.01
424.54	1740.77
424.75	1710.05
424.95	1712.10
425.16	1771.49
425.36	1695.72
425.57	1777.64
425.78	1755.11
425.98	1746.92
426.19	1744.87
426.39	1660.90
426.60	1763.30
426.81	1732.58
427.01	1701.86
427.22	1642.47
427.42	1593.32
427.63	1673.19
427.83	1767.40
428.04	1755.11
428.25	1796.07
428.45	1800.16
428.66	1746.92
428.86	1753.06
429.07	1677.29
429.28	1771.49
429.48	1621.99
429.69	1673.19
429.89	1767.40
430.10	1624.04
430.30	1726.44
430.51	1798.12
430.71	1576.94
430.92	1691.62
431.13	1648.61
431.33	1791.97
431.54	1722.34
431.74	1853.41
431.95	1824.74
432.15	1673.19
432.36	1718.25
432.56	1800.16
432.77	1777.64
432.98	1812.45
433.18	1722.34
433.39	1724.39
433.59	1714.15
433.80	1789.92
434.00	1839.08
434.21	1701.86
434.41	1669.09
434.62	1855.46
434.82	1708.01
435.03	1665.00
435.23	1763.30
435.44	1601.51
435.64	1720.29
435.85	1744.87
436.06	1789.92
436.26	1761.25
436.47	1662.95
436.67	1697.77
436.88	1736.68
437.08	1804.26
437.29	1794.02
437.49	1708.01
437.70	1798.12
437.90	1640.42
438.11	1847.27
438.31	1816.55
438.52	1849.32
438.72	1822.69
438.93	1920.99
439.13	1755.11
439.34	1804.26
439.54	1755.11
439.75	1814.50
439.95	1761.25
440.16	1691.62
440.36	1787.88
440.57	1726.44
440.77	1757.16
440.98	1716.20
441.18	1777.64
441.39	1714.15
441.59	1624.04
441.80	1861.60
442.00	1742.82
442.21	1755.11
442.41	1615.85
442.62	1787.88
442.82	1736.68
443.02	1730.53
443.23	1736.68
443.43	1724.39
443.64	1759.21
443.84	1646.57
444.05	1753.06
444.25	1677.29
444.46	1683.43
444.66	1705.96
444.87	1832.93
445.07	1626.09
445.28	1722.34
445.48	1791.97
445.69	1791.97
445.89	1824.74
446.09	1789.92
446.30	1927.14
446.50	2650.07
446.71	3643.34
446.91	4194.24
447.12	4769.72
447.32	4804.53
447.53	4243.39
447.73	3792.84
447.93	3577.80
448.14	3180.50
448.34	3106.77
448.55	2789.33
448.75	2731.99
448.96	2695.13
449.16	2455.51
449.36	2289.63
449.57	2023.39
449.77	1898.47
449.98	1834.98
450.18	1845.22
450.39	1888.23
450.59	1818.60
450.79	1753.06
451.00	1681.38
451.20	1822.69
451.41	1693.67
451.61	1734.63
451.81	1671.14
452.02	1685.48
452.22	1662.95
452.43	1648.61
452.63	1675.24
