SpectraSuite Data File
++++++++++++++++++++++++++++++++++++
Date: Mon Jun 06 15:50:17 CEST 2016
User: root
Dark Spectrum Present: No
Reference Spectrum Present: No
Number of Sampled Component Spectra: 1
Spectrometers: USB4C02835
Integration Time (usec): 100000 (USB4C02835)
Spectra Averaged: 1 (USB4C02835)
Boxcar Smoothing: 0 (USB4C02835)
Correct for Electrical Dark: No (USB4C02835)
Strobe/Lamp Enabled: No (USB4C02835)
Correct for Detector Non-linearity: No (USB4C02835)
Correct for Stray Light: No (USB4C02835)
Number of Pixels in Processed Spectrum: 3648
>>>>>Begin Processed Spectral Data<<<<<
177.47	1445.87
177.69	1445.87
177.91	1445.87
178.13	1421.29
178.36	1386.47
178.58	1710.05
178.80	1705.96
179.02	1728.49
179.24	1634.28
179.46	1736.68
179.68	1746.92
179.90	1662.95
180.13	1708.01
180.35	1705.96
180.57	1626.09
180.79	1789.92
181.01	1705.96
181.23	1712.10
181.45	1781.73
181.67	1773.54
181.90	1777.64
182.12	1695.72
182.34	1658.85
182.56	1730.53
182.78	1734.63
183.00	1656.81
183.22	1759.21
183.44	1607.66
183.66	1818.60
183.89	1751.01
184.11	1746.92
184.33	1757.16
184.55	1849.32
184.77	1671.14
184.99	1703.91
185.21	1722.34
185.43	1843.17
185.65	1671.14
185.87	1675.24
186.10	1863.65
186.32	1900.52
186.54	1771.49
186.76	1746.92
186.98	1810.40
187.20	1734.63
187.42	1636.33
187.64	1646.57
187.86	1718.25
188.08	1738.73
188.30	1665.00
188.52	1726.44
188.75	1814.50
188.97	1843.17
189.19	1669.09
189.41	1697.77
189.63	1787.88
189.85	1683.43
190.07	1685.48
190.29	1699.81
190.51	1693.67
190.73	1697.77
190.95	1822.69
191.17	1675.24
191.39	1697.77
191.61	1701.86
191.84	1718.25
192.06	1710.05
192.28	1642.47
192.50	1865.70
192.72	1716.20
192.94	1734.63
193.16	1753.06
193.38	1812.45
193.60	1587.18
193.82	1757.16
194.04	1724.39
194.26	1765.35
194.48	1720.29
194.70	1693.67
194.92	1636.33
195.14	1730.53
195.36	1648.61
195.58	1744.87
195.80	1703.91
196.02	1705.96
196.24	1781.73
196.46	1808.36
196.69	1714.15
196.91	1937.38
197.13	1597.42
197.35	1718.25
197.57	1845.22
197.79	1734.63
198.01	1759.21
198.23	1773.54
198.45	1765.35
198.67	1714.15
198.89	1718.25
199.11	1708.01
199.33	1658.85
199.55	1599.46
199.77	1740.77
199.99	1757.16
200.21	1662.95
200.43	1763.30
200.65	1669.09
200.87	1624.04
201.09	1703.91
201.31	1730.53
201.53	1722.34
201.75	1767.40
201.97	1689.57
202.19	1689.57
202.41	1767.40
202.63	1863.65
202.85	1779.68
203.07	1755.11
203.29	1771.49
203.51	1665.00
203.73	1703.91
203.95	1916.90
204.17	1720.29
204.39	1699.81
204.61	1716.20
204.83	1753.06
205.05	1800.16
205.27	1714.15
205.49	1734.63
205.71	1832.93
205.93	1689.57
206.15	1640.42
206.37	1728.49
206.59	1726.44
206.81	1634.28
207.03	1599.46
207.25	1673.19
207.47	1708.01
207.69	1712.10
207.91	1804.26
208.13	1828.84
208.34	1619.94
208.56	1691.62
208.78	1757.16
209.00	1689.57
209.22	1691.62
209.44	1621.99
209.66	1632.23
209.88	1742.82
210.10	1689.57
210.32	1718.25
210.54	1771.49
210.76	1728.49
210.98	1724.39
211.20	1564.65
211.42	1669.09
211.64	1701.86
211.86	1751.01
212.08	1791.97
212.30	1699.81
212.52	1665.00
212.74	1757.16
212.96	1757.16
213.17	1808.36
213.39	1728.49
213.61	1755.11
213.83	1654.76
214.05	1644.52
214.27	1767.40
214.49	1669.09
214.71	1640.42
214.93	1740.77
215.15	1701.86
215.37	1775.59
215.59	1636.33
215.81	1812.45
216.03	1716.20
216.24	1699.81
216.46	1671.14
216.68	1701.86
216.90	1771.49
217.12	1773.54
217.34	1662.95
217.56	1771.49
217.78	1761.25
218.00	1734.63
218.22	1710.05
218.44	1697.77
218.66	1744.87
218.87	1814.50
219.09	1675.24
219.31	1699.81
219.53	1730.53
219.75	1658.85
219.97	1746.92
220.19	1703.91
220.41	1695.72
220.63	1791.97
220.85	1767.40
221.06	1730.53
221.28	1755.11
221.50	1771.49
221.72	1802.21
221.94	1726.44
222.16	1740.77
222.38	1779.68
222.60	1740.77
222.82	1675.24
223.03	1751.01
223.25	1708.01
223.47	1712.10
223.69	1779.68
223.91	1712.10
224.13	1738.73
224.35	1665.00
224.57	1789.92
224.78	1705.96
225.00	1642.47
225.22	1611.75
225.44	1757.16
225.66	1740.77
225.88	1665.00
226.10	1777.64
226.32	1724.39
226.53	1857.51
226.75	1755.11
226.97	1736.68
227.19	1798.12
227.41	1712.10
227.63	1748.97
227.85	1652.71
228.06	1771.49
228.28	1720.29
228.50	1810.40
228.72	1660.90
228.94	1718.25
229.16	1611.75
229.37	1667.05
229.59	1654.76
229.81	1785.83
230.03	1599.46
230.25	1658.85
230.47	1677.29
230.69	1722.34
230.90	1783.78
231.12	1667.05
231.34	1767.40
231.56	1722.34
231.78	1615.85
232.00	1691.62
232.21	1665.00
232.43	1656.81
232.65	1548.26
232.87	1695.72
233.09	1673.19
233.30	1681.38
233.52	1742.82
233.74	1714.15
233.96	1701.86
234.18	1687.53
234.40	1693.67
234.61	1841.12
234.83	1673.19
235.05	1628.14
235.27	1886.18
235.49	1847.27
235.70	1683.43
235.92	1832.93
236.14	1794.02
236.36	1886.18
236.58	1718.25
236.79	1730.53
237.01	1660.90
237.23	1673.19
237.45	1728.49
237.67	1677.29
237.88	1705.96
238.10	1841.12
238.32	1720.29
238.54	1716.20
238.76	1701.86
238.97	1720.29
239.19	1685.48
239.41	1734.63
239.63	1783.78
239.85	1667.05
240.06	1662.95
240.28	1705.96
240.50	1771.49
240.72	1748.97
240.93	1751.01
241.15	1781.73
241.37	1734.63
241.59	1832.93
241.81	1738.73
242.02	1667.05
242.24	1738.73
242.46	1697.77
242.68	1665.00
242.89	1728.49
243.11	1665.00
243.33	1716.20
243.55	1816.55
243.76	1746.92
243.98	1734.63
244.20	1730.53
244.42	1728.49
244.64	1675.24
244.85	1767.40
245.07	1648.61
245.29	1716.20
245.51	1724.39
245.72	1722.34
245.94	1742.82
246.16	1775.59
246.38	1734.63
246.59	1650.66
246.81	1677.29
247.03	1710.05
247.24	1613.80
247.46	1626.09
247.68	1763.30
247.90	1677.29
248.11	1673.19
248.33	1722.34
248.55	1708.01
248.77	1751.01
248.98	1798.12
249.20	1806.31
249.42	1730.53
249.64	1742.82
249.85	1624.04
250.07	1685.48
250.29	1736.68
250.50	1767.40
250.72	1621.99
250.94	1791.97
251.16	1839.08
251.37	1789.92
251.59	1757.16
251.81	1759.21
252.02	1812.45
252.24	1677.29
252.46	1802.21
252.68	1671.14
252.89	1619.94
253.11	1589.22
253.33	1787.88
253.54	1738.73
253.76	1607.66
253.98	1658.85
254.20	1705.96
254.41	1703.91
254.63	1695.72
254.85	1619.94
255.06	1669.09
255.28	1744.87
255.50	1708.01
255.71	1742.82
255.93	1640.42
256.15	1644.52
256.36	1769.44
256.58	1689.57
256.80	1814.50
257.02	1777.64
257.23	1748.97
257.45	1701.86
257.67	1761.25
257.88	1683.43
258.10	1701.86
258.32	1693.67
258.53	1714.15
258.75	1837.03
258.97	1701.86
259.18	1683.43
259.40	1773.54
259.62	1812.45
259.83	1726.44
260.05	1755.11
260.27	1970.15
260.48	1767.40
260.70	1656.81
260.92	1613.80
261.13	1734.63
261.35	1689.57
261.57	1771.49
261.78	1607.66
262.00	1634.28
262.22	1701.86
262.43	1697.77
262.65	1701.86
262.86	1728.49
263.08	1839.08
263.30	1705.96
263.51	1638.38
263.73	1667.05
263.95	1804.26
264.16	1693.67
264.38	1640.42
264.60	1736.68
264.81	1658.85
265.03	1771.49
265.25	1712.10
265.46	1705.96
265.68	1812.45
265.89	1796.07
266.11	1585.13
266.33	1742.82
266.54	1773.54
266.76	1789.92
266.98	1716.20
267.19	1804.26
267.41	1820.64
267.62	1755.11
267.84	1685.48
268.06	1736.68
268.27	1751.01
268.49	1722.34
268.70	1781.73
268.92	1685.48
269.14	1693.67
269.35	1583.08
269.57	1685.48
269.79	1757.16
270.00	1693.67
270.22	1785.83
270.43	1746.92
270.65	1511.40
270.87	1714.15
271.08	1794.02
271.30	1742.82
271.51	1658.85
271.73	1683.43
271.95	1763.30
272.16	1640.42
272.38	1740.77
272.59	1640.42
272.81	1675.24
273.02	1740.77
273.24	1738.73
273.46	1765.35
273.67	1599.46
273.89	1718.25
274.10	1681.38
274.32	1769.44
274.54	1767.40
274.75	1753.06
274.97	1673.19
275.18	1757.16
275.40	1718.25
275.61	1693.67
275.83	1775.59
276.05	1624.04
276.26	1724.39
276.48	1796.07
276.69	1662.95
276.91	1675.24
277.12	1845.22
277.34	1826.79
277.55	1720.29
277.77	1722.34
277.99	1685.48
278.20	1675.24
278.42	1695.72
278.63	1701.86
278.85	1716.20
279.06	1693.67
279.28	1755.11
279.49	1761.25
279.71	1691.62
279.93	1748.97
280.14	1705.96
280.36	1677.29
280.57	1730.53
280.79	1718.25
281.00	1689.57
281.22	1593.32
281.43	1722.34
281.65	1562.60
281.86	1578.98
282.08	1705.96
282.29	1818.60
282.51	1605.61
282.73	1683.43
282.94	1642.47
283.16	1679.33
283.37	1742.82
283.59	1703.91
283.80	1757.16
284.02	1667.05
284.23	1697.77
284.45	1642.47
284.66	1665.00
284.88	1671.14
285.09	1751.01
285.31	1730.53
285.52	1767.40
285.74	1626.09
285.95	1757.16
286.17	1644.52
286.38	1742.82
286.60	1628.14
286.81	1646.57
287.03	1671.14
287.24	1703.91
287.46	1794.02
287.67	1740.77
287.89	1787.88
288.10	1673.19
288.32	1662.95
288.53	1779.68
288.75	1744.87
288.96	1775.59
289.18	1693.67
289.39	1681.38
289.61	1699.81
289.82	1802.21
290.04	1777.64
290.25	1695.72
290.47	1779.68
290.68	1697.77
290.90	1828.84
291.11	1556.46
291.33	1834.98
291.54	1703.91
291.76	1697.77
291.97	1701.86
292.18	1732.58
292.40	1652.71
292.61	1771.49
292.83	1830.88
293.04	1789.92
293.26	1728.49
293.47	1779.68
293.69	1734.63
293.90	1751.01
294.12	1765.35
294.33	1632.23
294.55	1665.00
294.76	1755.11
294.97	1775.59
295.19	1877.99
295.40	1677.29
295.62	1671.14
295.83	1783.78
296.05	1681.38
296.26	1771.49
296.48	1675.24
296.69	1742.82
296.90	1722.34
297.12	1744.87
297.33	1761.25
297.55	1628.14
297.76	1753.06
297.98	1732.58
298.19	1691.62
298.41	1730.53
298.62	1681.38
298.83	1816.55
299.05	1714.15
299.26	1693.67
299.48	1689.57
299.69	1744.87
299.90	1759.21
300.12	1689.57
300.33	1740.77
300.55	1730.53
300.76	1771.49
300.98	1593.32
301.19	1732.58
301.40	1636.33
301.62	1693.67
301.83	1687.53
302.05	1775.59
302.26	1669.09
302.47	1703.91
302.69	1687.53
302.90	1679.33
303.12	1605.61
303.33	1822.69
303.54	1802.21
303.76	1630.18
303.97	1804.26
304.19	1806.31
304.40	1693.67
304.61	1755.11
304.83	1818.60
305.04	1810.40
305.26	1746.92
305.47	1609.70
305.68	1683.43
305.90	1662.95
306.11	1767.40
306.33	1724.39
306.54	1722.34
306.75	1566.70
306.97	1646.57
307.18	1576.94
307.39	1730.53
307.61	1804.26
307.82	1769.44
308.04	1837.03
308.25	1742.82
308.46	1775.59
308.68	1744.87
308.89	1669.09
309.10	1841.12
309.32	1775.59
309.53	1687.53
309.74	1718.25
309.96	1683.43
310.17	1816.55
310.39	1724.39
310.60	1771.49
310.81	1732.58
311.03	1667.05
311.24	1832.93
311.45	1640.42
311.67	1781.73
311.88	1740.77
312.09	1669.09
312.31	1681.38
312.52	1816.55
312.73	1693.67
312.95	1615.85
313.16	1693.67
313.37	1804.26
313.59	1718.25
313.80	1849.32
314.01	1728.49
314.23	1687.53
314.44	1763.30
314.65	1650.66
314.87	1687.53
315.08	1660.90
315.29	1703.91
315.51	1611.75
315.72	1656.81
315.93	1738.73
316.15	1777.64
316.36	1724.39
316.57	1806.31
316.79	1783.78
317.00	1681.38
317.21	1736.68
317.43	1656.81
317.64	1716.20
317.85	1708.01
318.07	1673.19
318.28	1714.15
318.49	1839.08
318.70	1923.04
318.92	1865.70
319.13	1816.55
319.34	1880.04
319.56	1724.39
319.77	1847.27
319.98	1791.97
320.20	1781.73
320.41	1722.34
320.62	1724.39
320.83	1650.66
321.05	1755.11
321.26	1701.86
321.47	1738.73
321.69	1724.39
321.90	1646.57
322.11	1699.81
322.32	1785.83
322.54	1818.60
322.75	1640.42
322.96	1845.22
323.18	1613.80
323.39	1595.37
323.60	1705.96
323.81	1796.07
324.03	1632.23
324.24	1714.15
324.45	1730.53
324.66	1673.19
324.88	1783.78
325.09	1687.53
325.30	1679.33
325.52	1708.01
325.73	1837.03
325.94	1656.81
326.15	1669.09
326.37	1648.61
326.58	1785.83
326.79	1775.59
327.00	1660.90
327.22	1708.01
327.43	1675.24
327.64	1593.32
327.85	1742.82
328.07	1703.91
328.28	1794.02
328.49	1728.49
328.70	1683.43
328.92	1732.58
329.13	1675.24
329.34	1738.73
329.55	1779.68
329.76	1808.36
329.98	1677.29
330.19	1787.88
330.40	1689.57
330.61	1714.15
330.83	1740.77
331.04	1695.72
331.25	1767.40
331.46	1683.43
331.68	1642.47
331.89	1800.16
332.10	1705.96
332.31	1624.04
332.52	1705.96
332.74	1701.86
332.95	1583.08
333.16	1667.05
333.37	1738.73
333.58	1728.49
333.80	1716.20
334.01	1619.94
334.22	1751.01
334.43	1708.01
334.64	1654.76
334.86	1550.31
335.07	1646.57
335.28	1740.77
335.49	1673.19
335.70	1687.53
335.92	1808.36
336.13	1845.22
336.34	1751.01
336.55	1691.62
336.76	1748.97
336.98	1611.75
337.19	1697.77
337.40	1798.12
337.61	1918.95
337.82	1673.19
338.04	1800.16
338.25	1626.09
338.46	1720.29
338.67	1742.82
338.88	1705.96
339.09	1613.80
339.31	1689.57
339.52	1650.66
339.73	1708.01
339.94	1679.33
340.15	1773.54
340.36	1656.81
340.58	1736.68
340.79	1640.42
341.00	1751.01
341.21	1683.43
341.42	1808.36
341.63	1669.09
341.85	1783.78
342.06	1771.49
342.27	1572.84
342.48	1712.10
342.69	1650.66
342.90	1730.53
343.12	1728.49
343.33	1669.09
343.54	1685.48
343.75	1812.45
343.96	1710.05
344.17	1736.68
344.38	1714.15
344.60	1730.53
344.81	1617.90
345.02	1671.14
345.23	1787.88
345.44	1738.73
345.65	1722.34
345.86	1656.81
346.07	1662.95
346.29	1624.04
346.50	1775.59
346.71	1763.30
346.92	1703.91
347.13	1898.47
347.34	1685.48
347.55	1775.59
347.76	1753.06
347.98	1634.28
348.19	1705.96
348.40	1791.97
348.61	1769.44
348.82	1837.03
349.03	1728.49
349.24	1662.95
349.45	1845.22
349.66	1634.28
349.88	1769.44
350.09	1650.66
350.30	1775.59
350.51	1847.27
350.72	1779.68
350.93	1730.53
351.14	1716.20
351.35	1685.48
351.56	1681.38
351.77	1697.77
351.99	1744.87
352.20	1738.73
352.41	1744.87
352.62	1574.89
352.83	1675.24
353.04	1734.63
353.25	1644.52
353.46	1748.97
353.67	1808.36
353.88	1574.89
354.09	1742.82
354.30	1630.18
354.52	1779.68
354.73	1714.15
354.94	1644.52
355.15	1673.19
355.36	1847.27
355.57	1660.90
355.78	1771.49
355.99	1769.44
356.20	1708.01
356.41	1785.83
356.62	1736.68
356.83	1679.33
357.04	1771.49
357.25	1665.00
357.46	1701.86
357.68	1566.70
357.89	1656.81
358.10	1628.14
358.31	1650.66
358.52	1785.83
358.73	1640.42
358.94	1650.66
359.15	1687.53
359.36	1681.38
359.57	1695.72
359.78	1652.71
359.99	1722.34
360.20	1644.52
360.41	1658.85
360.62	1802.21
360.83	1800.16
361.04	1759.21
361.25	1708.01
361.46	1828.84
361.67	1779.68
361.88	1755.11
362.09	1779.68
362.30	1765.35
362.51	1759.21
362.72	1796.07
362.93	1791.97
363.14	1783.78
363.35	1755.11
363.56	1640.42
363.78	1748.97
363.99	1771.49
364.20	1773.54
364.41	1785.83
364.62	1767.40
364.83	1662.95
365.04	1679.33
365.25	1705.96
365.46	1847.27
365.67	1710.05
365.88	1665.00
366.09	1734.63
366.30	1726.44
366.51	1650.66
366.72	1671.14
366.93	1712.10
367.14	1726.44
367.35	1738.73
367.56	1726.44
367.77	1773.54
367.98	1716.20
368.18	1722.34
368.39	1699.81
368.60	1673.19
368.81	1718.25
369.02	1695.72
369.23	1699.81
369.44	1599.46
369.65	1732.58
369.86	1748.97
370.07	1724.39
370.28	1738.73
370.49	1769.44
370.70	1771.49
370.91	1703.91
371.12	1619.94
371.33	1736.68
371.54	1705.96
371.75	1751.01
371.96	1644.52
372.17	1689.57
372.38	1714.15
372.59	1755.11
372.80	1703.91
373.01	1712.10
373.22	1738.73
373.43	1740.77
373.64	1587.18
373.85	1796.07
374.06	1855.46
374.26	1785.83
374.47	1679.33
374.68	1806.31
374.89	1785.83
375.10	1673.19
375.31	1728.49
375.52	1699.81
375.73	1771.49
375.94	1673.19
376.15	1771.49
376.36	1701.86
376.57	1611.75
376.78	1652.71
376.99	1718.25
377.20	1767.40
377.40	1742.82
377.61	1726.44
377.82	1628.14
378.03	1828.84
378.24	1769.44
378.45	1687.53
378.66	1716.20
378.87	1607.66
379.08	1648.61
379.29	1679.33
379.50	1841.12
379.71	1736.68
379.91	1708.01
380.12	1669.09
380.33	1714.15
380.54	1746.92
380.75	1771.49
380.96	1689.57
381.17	1728.49
381.38	1701.86
381.59	1722.34
381.80	1712.10
382.00	1869.80
382.21	1683.43
382.42	1886.18
382.63	1898.47
382.84	1765.35
383.05	1834.98
383.26	1857.51
383.47	1736.68
383.68	1714.15
383.88	1796.07
384.09	1712.10
384.30	1820.64
384.51	1722.34
384.72	1685.48
384.93	1662.95
385.14	1722.34
385.35	1789.92
385.55	1656.81
385.76	1720.29
385.97	1675.24
386.18	1660.90
386.39	1689.57
386.60	1722.34
386.81	1660.90
387.02	1626.09
387.22	1685.48
387.43	1744.87
387.64	1794.02
387.85	1894.37
388.06	2195.42
388.27	4089.79
388.48	6610.84
388.68	8148.87
388.89	9406.32
389.10	9621.36
389.31	8537.98
389.52	7393.17
389.73	6457.25
389.93	6117.28
390.14	5631.91
390.35	5119.92
390.56	4425.66
390.77	3753.93
390.98	3047.38
391.18	2461.66
391.39	2117.60
391.60	1894.37
391.81	1851.36
392.02	1681.38
392.23	1796.07
392.43	1742.82
392.64	1820.64
392.85	1724.39
393.06	1783.78
393.27	1689.57
393.47	1669.09
393.68	1726.44
393.89	1755.11
394.10	1845.22
394.31	1671.14
394.52	1554.41
394.72	1650.66
394.93	1814.50
395.14	1669.09
395.35	1839.08
395.56	1630.18
395.76	1800.16
395.97	1759.21
396.18	1859.56
396.39	1806.31
396.60	2074.59
396.80	1900.52
397.01	1877.99
397.22	1789.92
397.43	1853.41
397.64	1816.55
397.84	1820.64
398.05	1925.09
398.26	1779.68
398.47	1714.15
398.67	1748.97
398.88	1718.25
399.09	1691.62
399.30	1759.21
399.51	1742.82
399.71	1697.77
399.92	1718.25
400.13	1681.38
400.34	1679.33
400.54	1662.95
400.75	1783.78
400.96	1787.88
401.17	1888.23
401.37	1779.68
401.58	1677.29
401.79	1771.49
402.00	1910.75
402.21	1953.76
402.41	1996.77
402.62	1957.86
402.83	1968.10
403.04	1976.29
403.24	2097.12
403.45	1880.04
403.66	1808.36
403.87	1884.13
404.07	1935.33
404.28	1945.57
404.49	1834.98
404.70	1841.12
404.90	1732.58
405.11	1789.92
405.32	1837.03
405.52	1687.53
405.73	1746.92
405.94	1642.47
406.15	1742.82
406.35	1775.59
406.56	1763.30
406.77	1671.14
406.98	1755.11
407.18	1683.43
407.39	1675.24
407.60	1759.21
407.80	1800.16
408.01	1738.73
408.22	1710.05
408.43	1705.96
408.63	1765.35
408.84	1712.10
409.05	1773.54
409.25	1642.47
409.46	1736.68
409.67	1654.76
409.88	1679.33
410.08	1755.11
410.29	1673.19
410.50	1767.40
410.70	1732.58
410.91	1581.03
411.12	1681.38
411.32	1671.14
411.53	1736.68
411.74	1763.30
411.95	1812.45
412.15	1781.73
412.36	1742.82
412.57	1687.53
412.77	1800.16
412.98	1767.40
413.19	1691.62
413.39	1851.36
413.60	1751.01
413.81	1759.21
414.01	1689.57
414.22	1732.58
414.43	1804.26
414.63	1718.25
414.84	1738.73
415.05	1638.38
415.25	1658.85
415.46	1736.68
415.67	1667.05
415.87	1791.97
416.08	1691.62
416.29	1726.44
416.49	1726.44
416.70	1652.71
416.91	1673.19
417.11	1779.68
417.32	1732.58
417.53	1753.06
417.73	1744.87
417.94	1671.14
418.15	1728.49
418.35	1734.63
418.56	1730.53
418.77	1865.70
418.97	1779.68
419.18	1697.77
419.38	1560.55
419.59	1703.91
419.80	1806.31
420.00	1697.77
420.21	1732.58
420.42	1683.43
420.62	1755.11
420.83	1710.05
421.04	1781.73
421.24	1689.57
421.45	1734.63
421.65	1757.16
421.86	1671.14
422.07	1775.59
422.27	1802.21
422.48	1863.65
422.69	1701.86
422.89	1697.77
423.10	1736.68
423.30	1568.74
423.51	1699.81
423.72	1755.11
423.92	1748.97
424.13	1683.43
424.33	1755.11
424.54	1685.48
424.75	1814.50
424.95	1877.99
425.16	1804.26
425.36	1675.24
425.57	1794.02
425.78	1656.81
425.98	1771.49
426.19	1665.00
426.39	1624.04
426.60	1759.21
426.81	1828.84
427.01	1691.62
427.22	1681.38
427.42	1660.90
427.63	1785.83
427.83	1798.12
428.04	1796.07
428.25	1755.11
428.45	1820.64
428.66	1755.11
428.86	1718.25
429.07	1681.38
429.28	1755.11
429.48	1681.38
429.69	1724.39
429.89	1650.66
430.10	1607.66
430.30	1765.35
430.51	1769.44
430.71	1640.42
430.92	1673.19
431.13	1667.05
431.33	1783.78
431.54	1656.81
431.74	1759.21
431.95	1818.60
432.15	1673.19
432.36	1687.53
432.56	1751.01
432.77	1779.68
432.98	1771.49
433.18	1746.92
433.39	1724.39
433.59	1679.33
433.80	1771.49
434.00	1845.22
434.21	1748.97
434.41	1632.23
434.62	1812.45
434.82	1630.18
435.03	1695.72
435.23	1726.44
435.44	1683.43
435.64	1681.38
435.85	1761.25
436.06	1708.01
436.26	1742.82
436.47	1722.34
436.67	1669.09
436.88	1740.77
437.08	1681.38
437.29	1777.64
437.49	1787.88
437.70	1779.68
437.90	1697.77
438.11	1884.13
438.31	1849.32
438.52	1859.56
438.72	1857.51
438.93	1927.14
439.13	1722.34
439.34	1826.79
439.54	1732.58
439.75	1824.74
439.95	1730.53
440.16	1728.49
440.36	1837.03
440.57	1841.12
440.77	1834.98
440.98	1710.05
441.18	1748.97
441.39	1693.67
441.59	1642.47
441.80	1908.71
442.00	1753.06
442.21	1837.03
442.41	1699.81
442.62	1759.21
442.82	1714.15
443.02	1738.73
443.23	1695.72
443.43	1751.01
443.64	1800.16
443.84	1697.77
444.05	1796.07
444.25	1779.68
444.46	1837.03
444.66	1759.21
444.87	1746.92
445.07	1650.66
445.28	1779.68
445.48	1802.21
445.69	1738.73
445.89	1945.57
446.09	1689.57
446.30	2013.15
446.50	2613.21
446.71	3704.78
446.91	4263.87
447.12	4638.65
447.32	4771.77
447.53	4247.49
447.73	3944.39
447.93	3446.73
448.14	3217.36
448.34	3213.26
448.55	2879.44
448.75	2824.15
448.96	2645.98
449.16	2396.12
449.36	2316.25
449.57	2062.30
449.77	1900.52
449.98	1820.64
450.18	1818.60
450.39	1796.07
450.59	1773.54
450.79	1712.10
451.00	1769.44
451.20	1818.60
451.41	1734.63
451.61	1773.54
451.81	1763.30
452.02	1781.73
452.22	1691.62
452.43	1685.48
452.63	1669.09
