SpectraSuite Data File
++++++++++++++++++++++++++++++++++++
Date: Mon Jun 06 14:25:17 CEST 2016
User: root
Dark Spectrum Present: No
Reference Spectrum Present: No
Number of Sampled Component Spectra: 1
Spectrometers: USB4C02835
Integration Time (usec): 100000 (USB4C02835)
Spectra Averaged: 1 (USB4C02835)
Boxcar Smoothing: 0 (USB4C02835)
Correct for Electrical Dark: No (USB4C02835)
Strobe/Lamp Enabled: No (USB4C02835)
Correct for Detector Non-linearity: No (USB4C02835)
Correct for Stray Light: No (USB4C02835)
Number of Pixels in Processed Spectrum: 3648
>>>>>Begin Processed Spectral Data<<<<<
177.47	1509.35
177.69	1509.35
177.91	1509.35
178.13	1452.01
178.36	1456.11
178.58	1644.52
178.80	1738.73
179.02	1697.77
179.24	1640.42
179.46	1701.86
179.68	1746.92
179.90	1720.29
180.13	1667.05
180.35	1685.48
180.57	1628.14
180.79	1714.15
181.01	1714.15
181.23	1751.01
181.45	1816.55
181.67	1746.92
181.90	1808.36
182.12	1652.71
182.34	1578.98
182.56	1693.67
182.78	1681.38
183.00	1728.49
183.22	1720.29
183.44	1624.04
183.66	1918.95
183.89	1753.06
184.11	1726.44
184.33	1697.77
184.55	1808.36
184.77	1644.52
184.99	1720.29
185.21	1673.19
185.43	1824.74
185.65	1648.61
185.87	1648.61
186.10	1845.22
186.32	1841.12
186.54	1683.43
186.76	1732.58
186.98	1726.44
187.20	1740.77
187.42	1677.29
187.64	1693.67
187.86	1671.14
188.08	1736.68
188.30	1660.90
188.52	1755.11
188.75	1767.40
188.97	1734.63
189.19	1619.94
189.41	1669.09
189.63	1757.16
189.85	1624.04
190.07	1642.47
190.29	1568.74
190.51	1687.53
190.73	1695.72
190.95	1742.82
191.17	1701.86
191.39	1572.84
191.61	1658.85
191.84	1718.25
192.06	1765.35
192.28	1613.80
192.50	1884.13
192.72	1638.38
192.94	1732.58
193.16	1773.54
193.38	1769.44
193.60	1701.86
193.82	1617.90
194.04	1826.79
194.26	1773.54
194.48	1603.56
194.70	1691.62
194.92	1669.09
195.14	1730.53
195.36	1619.94
195.58	1675.24
195.80	1705.96
196.02	1658.85
196.24	1679.33
196.46	1724.39
196.69	1708.01
196.91	1847.27
197.13	1740.77
197.35	1644.52
197.57	1765.35
197.79	1689.57
198.01	1720.29
198.23	1763.30
198.45	1748.97
198.67	1705.96
198.89	1720.29
199.11	1722.34
199.33	1605.61
199.55	1589.22
199.77	1642.47
199.99	1740.77
200.21	1691.62
200.43	1708.01
200.65	1632.23
200.87	1515.50
201.09	1724.39
201.31	1687.53
201.53	1744.87
201.75	1742.82
201.97	1742.82
202.19	1693.67
202.41	1710.05
202.63	1822.69
202.85	1703.91
203.07	1656.81
203.29	1708.01
203.51	1607.66
203.73	1667.05
203.95	1892.32
204.17	1720.29
204.39	1779.68
204.61	1669.09
204.83	1701.86
205.05	1777.64
205.27	1763.30
205.49	1849.32
205.71	1738.73
205.93	1640.42
206.15	1708.01
206.37	1732.58
206.59	1603.56
206.81	1630.18
207.03	1667.05
207.25	1599.46
207.47	1746.92
207.69	1687.53
207.91	1767.40
208.13	1748.97
208.34	1648.61
208.56	1710.05
208.78	1751.01
209.00	1648.61
209.22	1716.20
209.44	1681.38
209.66	1652.71
209.88	1705.96
210.10	1632.23
210.32	1636.33
210.54	1794.02
210.76	1658.85
210.98	1748.97
211.20	1648.61
211.42	1734.63
211.64	1728.49
211.86	1714.15
212.08	1771.49
212.30	1689.57
212.52	1679.33
212.74	1681.38
212.96	1701.86
213.17	1738.73
213.39	1726.44
213.61	1783.78
213.83	1675.24
214.05	1609.70
214.27	1787.88
214.49	1712.10
214.71	1685.48
214.93	1744.87
215.15	1671.14
215.37	1714.15
215.59	1589.22
215.81	1667.05
216.03	1699.81
216.24	1765.35
216.46	1642.47
216.68	1638.38
216.90	1714.15
217.12	1759.21
217.34	1703.91
217.56	1738.73
217.78	1791.97
218.00	1736.68
218.22	1697.77
218.44	1755.11
218.66	1701.86
218.87	1810.40
219.09	1681.38
219.31	1695.72
219.53	1767.40
219.75	1648.61
219.97	1648.61
220.19	1724.39
220.41	1699.81
220.63	1767.40
220.85	1677.29
221.06	1630.18
221.28	1775.59
221.50	1763.30
221.72	1751.01
221.94	1751.01
222.16	1687.53
222.38	1662.95
222.60	1771.49
222.82	1681.38
223.03	1701.86
223.25	1636.33
223.47	1753.06
223.69	1837.03
223.91	1740.77
224.13	1646.57
224.35	1679.33
224.57	1789.92
224.78	1779.68
225.00	1611.75
225.22	1726.44
225.44	1724.39
225.66	1728.49
225.88	1687.53
226.10	1775.59
226.32	1685.48
226.53	1738.73
226.75	1656.81
226.97	1656.81
227.19	1634.28
227.41	1589.22
227.63	1730.53
227.85	1644.52
228.06	1771.49
228.28	1689.57
228.50	1761.25
228.72	1708.01
228.94	1665.00
229.16	1593.32
229.37	1656.81
229.59	1699.81
229.81	1834.98
230.03	1736.68
230.25	1683.43
230.47	1562.60
230.69	1679.33
230.90	1705.96
231.12	1665.00
231.34	1708.01
231.56	1689.57
231.78	1583.08
232.00	1720.29
232.21	1734.63
232.43	1660.90
232.65	1533.93
232.87	1701.86
233.09	1714.15
233.30	1648.61
233.52	1761.25
233.74	1703.91
233.96	1681.38
234.18	1628.14
234.40	1738.73
234.61	1744.87
234.83	1624.04
235.05	1665.00
235.27	1837.03
235.49	1810.40
235.70	1748.97
235.92	1843.17
236.14	1783.78
236.36	1837.03
236.58	1636.33
236.79	1742.82
237.01	1722.34
237.23	1689.57
237.45	1814.50
237.67	1693.67
237.88	1685.48
238.10	1718.25
238.32	1634.28
238.54	1755.11
238.76	1697.77
238.97	1681.38
239.19	1675.24
239.41	1781.73
239.63	1773.54
239.85	1691.62
240.06	1705.96
240.28	1673.19
240.50	1746.92
240.72	1693.67
240.93	1691.62
241.15	1806.31
241.37	1693.67
241.59	1763.30
241.81	1759.21
242.02	1675.24
242.24	1779.68
242.46	1748.97
242.68	1699.81
242.89	1662.95
243.11	1738.73
243.33	1691.62
243.55	1787.88
243.76	1771.49
243.98	1712.10
244.20	1710.05
244.42	1753.06
244.64	1669.09
244.85	1691.62
245.07	1581.03
245.29	1708.01
245.51	1763.30
245.72	1734.63
245.94	1755.11
246.16	1720.29
246.38	1746.92
246.59	1650.66
246.81	1710.05
247.03	1636.33
247.24	1673.19
247.46	1615.85
247.68	1699.81
247.90	1689.57
248.11	1640.42
248.33	1714.15
248.55	1638.38
248.77	1742.82
248.98	1724.39
249.20	1849.32
249.42	1656.81
249.64	1791.97
249.85	1724.39
250.07	1714.15
250.29	1705.96
250.50	1751.01
250.72	1634.28
250.94	1816.55
251.16	1771.49
251.37	1755.11
251.59	1722.34
251.81	1765.35
252.02	1695.72
252.24	1751.01
252.46	1728.49
252.68	1714.15
252.89	1654.76
253.11	1578.98
253.33	1767.40
253.54	1771.49
253.76	1634.28
253.98	1679.33
254.20	1695.72
254.41	1665.00
254.63	1771.49
254.85	1644.52
255.06	1603.56
255.28	1697.77
255.50	1722.34
255.71	1589.22
255.93	1636.33
256.15	1619.94
256.36	1775.59
256.58	1660.90
256.80	1703.91
257.02	1718.25
257.23	1730.53
257.45	1724.39
257.67	1720.29
257.88	1693.67
258.10	1738.73
258.32	1701.86
258.53	1650.66
258.75	1830.88
258.97	1650.66
259.18	1714.15
259.40	1773.54
259.62	1841.12
259.83	1714.15
260.05	1783.78
260.27	1935.33
260.48	1716.20
260.70	1656.81
260.92	1630.18
261.13	1685.48
261.35	1720.29
261.57	1759.21
261.78	1665.00
262.00	1599.46
262.22	1693.67
262.43	1685.48
262.65	1757.16
262.86	1701.86
263.08	1837.03
263.30	1794.02
263.51	1568.74
263.73	1691.62
263.95	1822.69
264.16	1652.71
264.38	1685.48
264.60	1712.10
264.81	1685.48
265.03	1773.54
265.25	1677.29
265.46	1619.94
265.68	1761.25
265.89	1714.15
266.11	1624.04
266.33	1771.49
266.54	1687.53
266.76	1736.68
266.98	1726.44
267.19	1771.49
267.41	1658.85
267.62	1800.16
267.84	1695.72
268.06	1685.48
268.27	1730.53
268.49	1732.58
268.70	1728.49
268.92	1652.71
269.14	1609.70
269.35	1642.47
269.57	1671.14
269.79	1804.26
270.00	1671.14
270.22	1841.12
270.43	1615.85
270.65	1556.46
270.87	1720.29
271.08	1734.63
271.30	1679.33
271.51	1748.97
271.73	1714.15
271.95	1667.05
272.16	1742.82
272.38	1783.78
272.59	1724.39
272.81	1714.15
273.02	1767.40
273.24	1703.91
273.46	1773.54
273.67	1642.47
273.89	1673.19
274.10	1681.38
274.32	1791.97
274.54	1730.53
274.75	1738.73
274.97	1665.00
275.18	1761.25
275.40	1718.25
275.61	1574.89
275.83	1728.49
276.05	1695.72
276.26	1746.92
276.48	1693.67
276.69	1722.34
276.91	1644.52
277.12	1822.69
277.34	1699.81
277.55	1742.82
277.77	1703.91
277.99	1693.67
278.20	1662.95
278.42	1652.71
278.63	1636.33
278.85	1697.77
279.06	1603.56
279.28	1763.30
279.49	1703.91
279.71	1722.34
279.93	1759.21
280.14	1726.44
280.36	1673.19
280.57	1794.02
280.79	1705.96
281.00	1718.25
281.22	1669.09
281.43	1832.93
281.65	1603.56
281.86	1583.08
282.08	1646.57
282.29	1837.03
282.51	1617.90
282.73	1648.61
282.94	1667.05
283.16	1757.16
283.37	1791.97
283.59	1720.29
283.80	1697.77
284.02	1667.05
284.23	1718.25
284.45	1677.29
284.66	1640.42
284.88	1673.19
285.09	1734.63
285.31	1652.71
285.52	1742.82
285.74	1593.32
285.95	1730.53
286.17	1751.01
286.38	1722.34
286.60	1656.81
286.81	1716.20
287.03	1619.94
287.24	1734.63
287.46	1753.06
287.67	1662.95
287.89	1828.84
288.10	1775.59
288.32	1777.64
288.53	1730.53
288.75	1681.38
288.96	1708.01
289.18	1628.14
289.39	1681.38
289.61	1742.82
289.82	1841.12
290.04	1781.73
290.25	1662.95
290.47	1681.38
290.68	1677.29
290.90	1783.78
291.11	1581.03
291.33	1783.78
291.54	1562.60
291.76	1705.96
291.97	1757.16
292.18	1734.63
292.40	1687.53
292.61	1634.28
292.83	1834.98
293.04	1808.36
293.26	1714.15
293.47	1695.72
293.69	1630.18
293.90	1652.71
294.12	1783.78
294.33	1615.85
294.55	1697.77
294.76	1701.86
294.97	1763.30
295.19	1779.68
295.40	1675.24
295.62	1732.58
295.83	1738.73
296.05	1677.29
296.26	1787.88
296.48	1669.09
296.69	1681.38
296.90	1695.72
297.12	1703.91
297.33	1728.49
297.55	1683.43
297.76	1771.49
297.98	1753.06
298.19	1718.25
298.41	1583.08
298.62	1652.71
298.83	1826.79
299.05	1787.88
299.26	1619.94
299.48	1681.38
299.69	1730.53
299.90	1769.44
300.12	1669.09
300.33	1693.67
300.55	1724.39
300.76	1791.97
300.98	1646.57
301.19	1773.54
301.40	1691.62
301.62	1701.86
301.83	1755.11
302.05	1603.56
302.26	1726.44
302.47	1689.57
302.69	1628.14
302.90	1689.57
303.12	1613.80
303.33	1716.20
303.54	1718.25
303.76	1640.42
303.97	1667.05
304.19	1851.36
304.40	1654.76
304.61	1699.81
304.83	1687.53
305.04	1787.88
305.26	1691.62
305.47	1652.71
305.68	1720.29
305.90	1708.01
306.11	1812.45
306.33	1650.66
306.54	1683.43
306.75	1679.33
306.97	1607.66
307.18	1677.29
307.39	1677.29
307.61	1708.01
307.82	1669.09
308.04	1753.06
308.25	1578.98
308.46	1779.68
308.68	1691.62
308.89	1708.01
309.10	1748.97
309.32	1691.62
309.53	1726.44
309.74	1724.39
309.96	1587.18
310.17	1773.54
310.39	1761.25
310.60	1730.53
310.81	1656.81
311.03	1566.70
311.24	1746.92
311.45	1755.11
311.67	1794.02
311.88	1619.94
312.09	1697.77
312.31	1626.09
312.52	1718.25
312.73	1720.29
312.95	1611.75
313.16	1675.24
313.37	1761.25
313.59	1802.21
313.80	1814.50
314.01	1736.68
314.23	1740.77
314.44	1662.95
314.65	1611.75
314.87	1652.71
315.08	1703.91
315.29	1652.71
315.51	1634.28
315.72	1632.23
315.93	1794.02
316.15	1777.64
316.36	1705.96
316.57	1714.15
316.79	1771.49
317.00	1683.43
317.21	1828.84
317.43	1658.85
317.64	1695.72
317.85	1683.43
318.07	1599.46
318.28	1732.58
318.49	1734.63
318.70	1927.14
318.92	1834.98
319.13	1869.80
319.34	1845.22
319.56	1816.55
319.77	1783.78
319.98	1810.40
320.20	1775.59
320.41	1718.25
320.62	1695.72
320.83	1656.81
321.05	1783.78
321.26	1695.72
321.47	1693.67
321.69	1730.53
321.90	1648.61
322.11	1699.81
322.32	1665.00
322.54	1816.55
322.75	1716.20
322.96	1775.59
323.18	1560.55
323.39	1587.18
323.60	1660.90
323.81	1769.44
324.03	1632.23
324.24	1718.25
324.45	1724.39
324.66	1671.14
324.88	1710.05
325.09	1720.29
325.30	1605.61
325.52	1665.00
325.73	1667.05
325.94	1566.70
326.15	1564.65
326.37	1648.61
326.58	1759.21
326.79	1791.97
327.00	1673.19
327.22	1720.29
327.43	1675.24
327.64	1638.38
327.85	1759.21
328.07	1705.96
328.28	1810.40
328.49	1650.66
328.70	1701.86
328.92	1697.77
329.13	1724.39
329.34	1689.57
329.55	1820.64
329.76	1761.25
329.98	1626.09
330.19	1787.88
330.40	1732.58
330.61	1685.48
330.83	1820.64
331.04	1658.85
331.25	1677.29
331.46	1689.57
331.68	1646.57
331.89	1751.01
332.10	1691.62
332.31	1665.00
332.52	1712.10
332.74	1798.12
332.95	1656.81
333.16	1642.47
333.37	1746.92
333.58	1667.05
333.80	1718.25
334.01	1626.09
334.22	1644.52
334.43	1658.85
334.64	1726.44
334.86	1646.57
335.07	1693.67
335.28	1798.12
335.49	1679.33
335.70	1693.67
335.92	1779.68
336.13	1867.75
336.34	1726.44
336.55	1714.15
336.76	1693.67
336.98	1609.70
337.19	1757.16
337.40	1861.60
337.61	1769.44
337.82	1710.05
338.04	1769.44
338.25	1611.75
338.46	1677.29
338.67	1667.05
338.88	1710.05
339.09	1597.42
339.31	1675.24
339.52	1658.85
339.73	1562.60
339.94	1720.29
340.15	1716.20
340.36	1621.99
340.58	1746.92
340.79	1675.24
341.00	1699.81
341.21	1648.61
341.42	1800.16
341.63	1744.87
341.85	1681.38
342.06	1693.67
342.27	1695.72
342.48	1703.91
342.69	1701.86
342.90	1800.16
343.12	1802.21
343.33	1673.19
343.54	1677.29
343.75	1708.01
343.96	1722.34
344.17	1662.95
344.38	1703.91
344.60	1619.94
344.81	1671.14
345.02	1665.00
345.23	1732.58
345.44	1814.50
345.65	1705.96
345.86	1765.35
346.07	1662.95
346.29	1636.33
346.50	1687.53
346.71	1773.54
346.92	1675.24
347.13	1808.36
347.34	1656.81
347.55	1705.96
347.76	1701.86
347.98	1642.47
348.19	1701.86
348.40	1804.26
348.61	1800.16
348.82	1759.21
349.03	1759.21
349.24	1669.09
349.45	1810.40
349.66	1595.37
349.88	1685.48
350.09	1652.71
350.30	1740.77
350.51	1789.92
350.72	1783.78
350.93	1718.25
351.14	1650.66
351.35	1783.78
351.56	1695.72
351.77	1720.29
351.99	1712.10
352.20	1765.35
352.41	1810.40
352.62	1613.80
352.83	1712.10
353.04	1722.34
353.25	1767.40
353.46	1820.64
353.67	1734.63
353.88	1695.72
354.09	1716.20
354.30	1675.24
354.52	1736.68
354.73	1683.43
354.94	1738.73
355.15	1755.11
355.36	1787.88
355.57	1624.04
355.78	1794.02
355.99	1746.92
356.20	1730.53
356.41	1734.63
356.62	1722.34
356.83	1693.67
357.04	1767.40
357.25	1558.50
357.46	1615.85
357.68	1720.29
357.89	1570.79
358.10	1660.90
358.31	1773.54
358.52	1755.11
358.73	1636.33
358.94	1722.34
359.15	1613.80
359.36	1726.44
359.57	1744.87
359.78	1767.40
359.99	1695.72
360.20	1685.48
360.41	1632.23
360.62	1771.49
360.83	1669.09
361.04	1689.57
361.25	1708.01
361.46	1839.08
361.67	1753.06
361.88	1675.24
362.09	1718.25
362.30	1746.92
362.51	1669.09
362.72	1712.10
362.93	1769.44
363.14	1685.48
363.35	1697.77
363.56	1665.00
363.78	1753.06
363.99	1759.21
364.20	1693.67
364.41	1812.45
364.62	1740.77
364.83	1662.95
365.04	1705.96
365.25	1728.49
365.46	1888.23
365.67	1693.67
365.88	1617.90
366.09	1628.14
366.30	1726.44
366.51	1628.14
366.72	1640.42
366.93	1626.09
367.14	1734.63
367.35	1769.44
367.56	1699.81
367.77	1806.31
367.98	1730.53
368.18	1730.53
368.39	1677.29
368.60	1656.81
368.81	1748.97
369.02	1722.34
369.23	1611.75
369.44	1638.38
369.65	1722.34
369.86	1767.40
370.07	1685.48
370.28	1681.38
370.49	1728.49
370.70	1810.40
370.91	1609.70
371.12	1681.38
371.33	1804.26
371.54	1640.42
371.75	1798.12
371.96	1669.09
372.17	1767.40
372.38	1648.61
372.59	1687.53
372.80	1744.87
373.01	1687.53
373.22	1677.29
373.43	1742.82
373.64	1712.10
373.85	1765.35
374.06	1814.50
374.26	1820.64
374.47	1722.34
374.68	1767.40
374.89	1675.24
375.10	1732.58
375.31	1800.16
375.52	1597.42
375.73	1708.01
375.94	1656.81
376.15	1814.50
376.36	1673.19
376.57	1681.38
376.78	1730.53
376.99	1675.24
377.20	1804.26
377.40	1624.04
377.61	1742.82
377.82	1609.70
378.03	1746.92
378.24	1775.59
378.45	1781.73
378.66	1732.58
378.87	1576.94
379.08	1638.38
379.29	1658.85
379.50	1832.93
379.71	1714.15
379.91	1693.67
380.12	1765.35
380.33	1730.53
380.54	1693.67
380.75	1773.54
380.96	1718.25
381.17	1769.44
381.38	1644.52
381.59	1699.81
381.80	1701.86
382.00	1746.92
382.21	1732.58
382.42	1769.44
382.63	1923.04
382.84	1765.35
383.05	1734.63
383.26	1771.49
383.47	1783.78
383.68	1710.05
383.88	1710.05
384.09	1722.34
384.30	1884.13
384.51	1712.10
384.72	1658.85
384.93	1636.33
385.14	1660.90
385.35	1771.49
385.55	1613.80
385.76	1828.84
385.97	1697.77
386.18	1570.79
386.39	1718.25
386.60	1675.24
386.81	1644.52
387.02	1621.99
387.22	1687.53
387.43	1796.07
387.64	1777.64
387.85	1837.03
388.06	2283.49
388.27	4294.59
388.48	6719.39
388.68	8241.03
388.89	9664.36
389.10	9744.24
389.31	8660.86
389.52	7524.24
389.73	6789.02
389.93	6172.58
390.14	5951.40
390.35	5119.92
390.56	4589.50
390.77	3790.79
390.98	3098.58
391.18	2549.72
391.39	2131.94
391.60	1720.29
391.81	1789.92
392.02	1771.49
392.23	1845.22
392.43	1712.10
392.64	1791.97
392.85	1669.09
393.06	1802.21
393.27	1722.34
393.47	1626.09
393.68	1648.61
393.89	1660.90
394.10	1808.36
394.31	1662.95
394.52	1705.96
394.72	1675.24
394.93	1765.35
395.14	1671.14
395.35	1714.15
395.56	1640.42
395.76	1728.49
395.97	1845.22
396.18	1810.40
396.39	1816.55
396.60	2080.74
396.80	1914.85
397.01	1824.74
397.22	1834.98
397.43	1806.31
397.64	1677.29
397.84	1794.02
398.05	1855.46
398.26	1699.81
398.47	1773.54
398.67	1769.44
398.88	1738.73
399.09	1828.84
399.30	1656.81
399.51	1708.01
399.71	1648.61
399.92	1740.77
400.13	1755.11
400.34	1716.20
400.54	1718.25
400.75	1832.93
400.96	1679.33
401.17	1808.36
401.37	1656.81
401.58	1671.14
401.79	1705.96
402.00	1859.56
402.21	1992.67
402.41	1990.63
402.62	2004.96
402.83	2119.65
403.04	1972.19
403.24	2084.83
403.45	1910.75
403.66	1955.81
403.87	1886.18
404.07	1906.66
404.28	1951.71
404.49	1886.18
404.70	1794.02
404.90	1755.11
405.11	1740.77
405.32	1765.35
405.52	1667.05
405.73	1636.33
405.94	1636.33
406.15	1744.87
406.35	1767.40
406.56	1677.29
406.77	1726.44
406.98	1734.63
407.18	1626.09
407.39	1763.30
407.60	1710.05
407.80	1714.15
408.01	1632.23
408.22	1687.53
408.43	1648.61
408.63	1693.67
408.84	1718.25
409.05	1722.34
409.25	1681.38
409.46	1636.33
409.67	1710.05
409.88	1730.53
410.08	1712.10
410.29	1736.68
410.50	1757.16
410.70	1722.34
410.91	1689.57
411.12	1757.16
411.32	1705.96
411.53	1652.71
411.74	1753.06
411.95	1765.35
412.15	1767.40
412.36	1763.30
412.57	1740.77
412.77	1851.36
412.98	1640.42
413.19	1796.07
413.39	1667.05
413.60	1791.97
413.81	1796.07
414.01	1705.96
414.22	1738.73
414.43	1742.82
414.63	1679.33
414.84	1742.82
415.05	1746.92
415.25	1589.22
415.46	1687.53
415.67	1697.77
415.87	1767.40
416.08	1697.77
416.29	1648.61
416.49	1699.81
416.70	1656.81
416.91	1718.25
417.11	1667.05
417.32	1732.58
417.53	1763.30
417.73	1742.82
417.94	1667.05
418.15	1755.11
418.35	1685.48
418.56	1732.58
418.77	1847.27
418.97	1722.34
419.18	1703.91
419.38	1552.36
419.59	1675.24
419.80	1771.49
420.00	1710.05
420.21	1701.86
420.42	1763.30
420.62	1751.01
420.83	1675.24
421.04	1724.39
421.24	1671.14
421.45	1726.44
421.65	1665.00
421.86	1677.29
422.07	1839.08
422.27	1714.15
422.48	1714.15
422.69	1648.61
422.89	1636.33
423.10	1730.53
423.30	1673.19
423.51	1685.48
423.72	1689.57
423.92	1724.39
424.13	1617.90
424.33	1697.77
424.54	1736.68
424.75	1734.63
424.95	1808.36
425.16	1763.30
425.36	1771.49
425.57	1722.34
425.78	1757.16
425.98	1775.59
426.19	1646.57
426.39	1636.33
426.60	1728.49
426.81	1781.73
427.01	1695.72
427.22	1656.81
427.42	1654.76
427.63	1593.32
427.83	1708.01
428.04	1814.50
428.25	1832.93
428.45	1816.55
428.66	1748.97
428.86	1705.96
429.07	1624.04
429.28	1763.30
429.48	1710.05
429.69	1630.18
429.89	1746.92
430.10	1650.66
430.30	1785.83
430.51	1763.30
430.71	1660.90
430.92	1746.92
431.13	1656.81
431.33	1755.11
431.54	1697.77
431.74	1732.58
431.95	1789.92
432.15	1689.57
432.36	1744.87
432.56	1800.16
432.77	1791.97
432.98	1804.26
433.18	1755.11
433.39	1660.90
433.59	1671.14
433.80	1886.18
434.00	1808.36
434.21	1689.57
434.41	1595.37
434.62	1834.98
434.82	1648.61
435.03	1697.77
435.23	1644.52
435.44	1595.37
435.64	1732.58
435.85	1779.68
436.06	1804.26
436.26	1771.49
436.47	1730.53
436.67	1687.53
436.88	1705.96
437.08	1769.44
437.29	1802.21
437.49	1789.92
437.70	1779.68
437.90	1640.42
438.11	1822.69
438.31	1753.06
438.52	1832.93
438.72	1744.87
438.93	1951.71
439.13	1798.12
439.34	1900.52
439.54	1779.68
439.75	1761.25
439.95	1730.53
440.16	1783.78
440.36	1763.30
440.57	1769.44
440.77	1779.68
440.98	1708.01
441.18	1724.39
441.39	1708.01
441.59	1624.04
441.80	1843.17
442.00	1624.04
442.21	1820.64
442.41	1652.71
442.62	1839.08
442.82	1621.99
443.02	1802.21
443.23	1794.02
443.43	1665.00
443.64	1820.64
443.84	1755.11
444.05	1855.46
444.25	1781.73
444.46	1761.25
444.66	1708.01
444.87	1859.56
445.07	1679.33
445.28	1716.20
445.48	1787.88
445.69	1820.64
445.89	1869.80
446.09	1751.01
446.30	2074.59
446.50	2598.87
446.71	3798.98
446.91	4333.50
447.12	4677.56
447.32	4769.72
447.53	4313.02
447.73	3905.48
447.93	3504.07
448.14	3272.65
448.34	3190.74
448.55	2897.88
448.75	2830.29
448.96	2652.12
449.16	2383.84
449.36	2443.23
449.57	2039.78
449.77	1925.09
449.98	1794.02
450.18	1904.61
450.39	1808.36
450.59	1742.82
450.79	1714.15
451.00	1732.58
451.20	1826.79
451.41	1687.53
451.61	1755.11
451.81	1697.77
452.02	1748.97
452.22	1703.91
452.43	1734.63
452.63	1740.77
