SpectraSuite Data File
++++++++++++++++++++++++++++++++++++
Date: Mon Jun 06 13:33:57 CEST 2016
User: root
Dark Spectrum Present: No
Reference Spectrum Present: No
Number of Sampled Component Spectra: 1
Spectrometers: USB4C02835
Integration Time (usec): 100000 (USB4C02835)
Spectra Averaged: 1 (USB4C02835)
Boxcar Smoothing: 0 (USB4C02835)
Correct for Electrical Dark: No (USB4C02835)
Strobe/Lamp Enabled: No (USB4C02835)
Correct for Detector Non-linearity: No (USB4C02835)
Correct for Stray Light: No (USB4C02835)
Number of Pixels in Processed Spectrum: 3648
>>>>>Begin Processed Spectral Data<<<<<
177.47	1390.57
177.69	1390.57
177.91	1390.57
178.13	1523.69
178.36	1480.68
178.58	1650.66
178.80	1699.81
179.02	1626.09
179.24	1640.42
179.46	1650.66
179.68	1693.67
179.90	1708.01
180.13	1689.57
180.35	1665.00
180.57	1714.15
180.79	1751.01
181.01	1667.05
181.23	1714.15
181.45	1826.79
181.67	1693.67
181.90	1742.82
182.12	1638.38
182.34	1611.75
182.56	1714.15
182.78	1697.77
183.00	1669.09
183.22	1724.39
183.44	1556.46
183.66	1849.32
183.89	1771.49
184.11	1701.86
184.33	1695.72
184.55	1814.50
184.77	1669.09
184.99	1708.01
185.21	1624.04
185.43	1800.16
185.65	1679.33
185.87	1730.53
186.10	1863.65
186.32	1775.59
186.54	1742.82
186.76	1771.49
186.98	1789.92
187.20	1751.01
187.42	1767.40
187.64	1736.68
187.86	1695.72
188.08	1742.82
188.30	1728.49
188.52	1718.25
188.75	1654.76
188.97	1769.44
189.19	1722.34
189.41	1570.79
189.63	1783.78
189.85	1714.15
190.07	1683.43
190.29	1687.53
190.51	1742.82
190.73	1605.61
190.95	1753.06
191.17	1767.40
191.39	1652.71
191.61	1679.33
191.84	1673.19
192.06	1708.01
192.28	1624.04
192.50	1861.60
192.72	1728.49
192.94	1652.71
193.16	1802.21
193.38	1699.81
193.60	1601.51
193.82	1662.95
194.04	1730.53
194.26	1705.96
194.48	1724.39
194.70	1665.00
194.92	1554.41
195.14	1765.35
195.36	1648.61
195.58	1658.85
195.80	1675.24
196.02	1644.52
196.24	1708.01
196.46	1734.63
196.69	1667.05
196.91	1796.07
197.13	1658.85
197.35	1617.90
197.57	1712.10
197.79	1806.31
198.01	1701.86
198.23	1724.39
198.45	1808.36
198.67	1574.89
198.89	1724.39
199.11	1687.53
199.33	1630.18
199.55	1665.00
199.77	1648.61
199.99	1736.68
200.21	1675.24
200.43	1767.40
200.65	1632.23
200.87	1568.74
201.09	1654.76
201.31	1689.57
201.53	1714.15
201.75	1798.12
201.97	1765.35
202.19	1656.81
202.41	1726.44
202.63	1806.31
202.85	1746.92
203.07	1734.63
203.29	1679.33
203.51	1691.62
203.73	1689.57
203.95	1920.99
204.17	1687.53
204.39	1738.73
204.61	1648.61
204.83	1621.99
205.05	1734.63
205.27	1689.57
205.49	1779.68
205.71	1691.62
205.93	1619.94
206.15	1679.33
206.37	1812.45
206.59	1710.05
206.81	1611.75
207.03	1644.52
207.25	1648.61
207.47	1742.82
207.69	1718.25
207.91	1765.35
208.13	1714.15
208.34	1744.87
208.56	1675.24
208.78	1724.39
209.00	1701.86
209.22	1712.10
209.44	1699.81
209.66	1667.05
209.88	1656.81
210.10	1728.49
210.32	1748.97
210.54	1771.49
210.76	1732.58
210.98	1744.87
211.20	1595.37
211.42	1636.33
211.64	1779.68
211.86	1718.25
212.08	1712.10
212.30	1669.09
212.52	1720.29
212.74	1726.44
212.96	1695.72
213.17	1742.82
213.39	1695.72
213.61	1732.58
213.83	1703.91
214.05	1585.13
214.27	1695.72
214.49	1642.47
214.71	1779.68
214.93	1783.78
215.15	1667.05
215.37	1714.15
215.59	1603.56
215.81	1716.20
216.03	1714.15
216.24	1617.90
216.46	1656.81
216.68	1781.73
216.90	1779.68
217.12	1724.39
217.34	1677.29
217.56	1732.58
217.78	1822.69
218.00	1771.49
218.22	1751.01
218.44	1650.66
218.66	1855.46
218.87	1867.75
219.09	1636.33
219.31	1710.05
219.53	1761.25
219.75	1761.25
219.97	1718.25
220.19	1759.21
220.41	1701.86
220.63	1769.44
220.85	1763.30
221.06	1679.33
221.28	1767.40
221.50	1746.92
221.72	1746.92
221.94	1669.09
222.16	1708.01
222.38	1740.77
222.60	1667.05
222.82	1669.09
223.03	1742.82
223.25	1617.90
223.47	1804.26
223.69	1769.44
223.91	1759.21
224.13	1621.99
224.35	1624.04
224.57	1722.34
224.78	1785.83
225.00	1685.48
225.22	1636.33
225.44	1705.96
225.66	1718.25
225.88	1722.34
226.10	1742.82
226.32	1669.09
226.53	1765.35
226.75	1656.81
226.97	1658.85
227.19	1697.77
227.41	1691.62
227.63	1685.48
227.85	1638.38
228.06	1685.48
228.28	1642.47
228.50	1751.01
228.72	1695.72
228.94	1632.23
229.16	1632.23
229.37	1628.14
229.59	1681.38
229.81	1763.30
230.03	1658.85
230.25	1667.05
230.47	1687.53
230.69	1632.23
230.90	1703.91
231.12	1648.61
231.34	1748.97
231.56	1744.87
231.78	1669.09
232.00	1730.53
232.21	1714.15
232.43	1642.47
232.65	1601.51
232.87	1687.53
233.09	1677.29
233.30	1701.86
233.52	1759.21
233.74	1673.19
233.96	1742.82
234.18	1654.76
234.40	1665.00
234.61	1796.07
234.83	1601.51
235.05	1677.29
235.27	1824.74
235.49	1789.92
235.70	1648.61
235.92	1779.68
236.14	1693.67
236.36	1775.59
236.58	1589.22
236.79	1705.96
237.01	1705.96
237.23	1640.42
237.45	1826.79
237.67	1619.94
237.88	1689.57
238.10	1804.26
238.32	1640.42
238.54	1722.34
238.76	1697.77
238.97	1738.73
239.19	1642.47
239.41	1708.01
239.63	1658.85
239.85	1656.81
240.06	1718.25
240.28	1708.01
240.50	1785.83
240.72	1732.58
240.93	1681.38
241.15	1791.97
241.37	1691.62
241.59	1746.92
241.81	1714.15
242.02	1667.05
242.24	1671.14
242.46	1738.73
242.68	1673.19
242.89	1734.63
243.11	1652.71
243.33	1667.05
243.55	1679.33
243.76	1738.73
243.98	1669.09
244.20	1720.29
244.42	1687.53
244.64	1701.86
244.85	1648.61
245.07	1640.42
245.29	1746.92
245.51	1701.86
245.72	1736.68
245.94	1726.44
246.16	1714.15
246.38	1767.40
246.59	1744.87
246.81	1617.90
247.03	1648.61
247.24	1667.05
247.46	1691.62
247.68	1740.77
247.90	1566.70
248.11	1648.61
248.33	1802.21
248.55	1656.81
248.77	1654.76
248.98	1718.25
249.20	1763.30
249.42	1718.25
249.64	1705.96
249.85	1677.29
250.07	1726.44
250.29	1732.58
250.50	1804.26
250.72	1589.22
250.94	1718.25
251.16	1791.97
251.37	1748.97
251.59	1748.97
251.81	1751.01
252.02	1773.54
252.24	1665.00
252.46	1734.63
252.68	1679.33
252.89	1677.29
253.11	1650.66
253.33	1832.93
253.54	1763.30
253.76	1675.24
253.98	1648.61
254.20	1691.62
254.41	1650.66
254.63	1650.66
254.85	1662.95
255.06	1609.70
255.28	1669.09
255.50	1632.23
255.71	1703.91
255.93	1689.57
256.15	1683.43
256.36	1763.30
256.58	1718.25
256.80	1736.68
257.02	1683.43
257.23	1628.14
257.45	1630.18
257.67	1763.30
257.88	1691.62
258.10	1744.87
258.32	1712.10
258.53	1681.38
258.75	1744.87
258.97	1658.85
259.18	1712.10
259.40	1730.53
259.62	1789.92
259.83	1767.40
260.05	1716.20
260.27	1947.62
260.48	1773.54
260.70	1660.90
260.92	1656.81
261.13	1683.43
261.35	1716.20
261.57	1632.23
261.78	1642.47
262.00	1599.46
262.22	1710.05
262.43	1634.28
262.65	1583.08
262.86	1656.81
263.08	1853.41
263.30	1675.24
263.51	1656.81
263.73	1652.71
263.95	1785.83
264.16	1669.09
264.38	1726.44
264.60	1724.39
264.81	1669.09
265.03	1837.03
265.25	1763.30
265.46	1708.01
265.68	1732.58
265.89	1730.53
266.11	1683.43
266.33	1712.10
266.54	1718.25
266.76	1720.29
266.98	1742.82
267.19	1740.77
267.41	1742.82
267.62	1722.34
267.84	1613.80
268.06	1746.92
268.27	1671.14
268.49	1730.53
268.70	1751.01
268.92	1757.16
269.14	1695.72
269.35	1621.99
269.57	1626.09
269.79	1757.16
270.00	1730.53
270.22	1806.31
270.43	1642.47
270.65	1533.93
270.87	1705.96
271.08	1712.10
271.30	1703.91
271.51	1681.38
271.73	1708.01
271.95	1761.25
272.16	1665.00
272.38	1656.81
272.59	1705.96
272.81	1695.72
273.02	1640.42
273.24	1779.68
273.46	1771.49
273.67	1683.43
273.89	1630.18
274.10	1662.95
274.32	1755.11
274.54	1708.01
274.75	1742.82
274.97	1646.57
275.18	1853.41
275.40	1785.83
275.61	1619.94
275.83	1667.05
276.05	1630.18
276.26	1769.44
276.48	1724.39
276.69	1681.38
276.91	1667.05
277.12	1730.53
277.34	1753.06
277.55	1714.15
277.77	1810.40
277.99	1675.24
278.20	1695.72
278.42	1648.61
278.63	1601.51
278.85	1662.95
279.06	1677.29
279.28	1708.01
279.49	1687.53
279.71	1791.97
279.93	1603.56
280.14	1669.09
280.36	1675.24
280.57	1671.14
280.79	1656.81
281.00	1687.53
281.22	1644.52
281.43	1761.25
281.65	1621.99
281.86	1665.00
282.08	1740.77
282.29	1796.07
282.51	1578.98
282.73	1675.24
282.94	1611.75
283.16	1767.40
283.37	1845.22
283.59	1701.86
283.80	1718.25
284.02	1761.25
284.23	1740.77
284.45	1705.96
284.66	1757.16
284.88	1687.53
285.09	1751.01
285.31	1701.86
285.52	1718.25
285.74	1585.13
285.95	1755.11
286.17	1757.16
286.38	1726.44
286.60	1673.19
286.81	1697.77
287.03	1599.46
287.24	1710.05
287.46	1794.02
287.67	1697.77
287.89	1714.15
288.10	1685.48
288.32	1777.64
288.53	1708.01
288.75	1738.73
288.96	1734.63
289.18	1669.09
289.39	1712.10
289.61	1738.73
289.82	1822.69
290.04	1791.97
290.25	1683.43
290.47	1724.39
290.68	1638.38
290.90	1771.49
291.11	1669.09
291.33	1718.25
291.54	1658.85
291.76	1640.42
291.97	1726.44
292.18	1724.39
292.40	1619.94
292.61	1640.42
292.83	1863.65
293.04	1753.06
293.26	1693.67
293.47	1751.01
293.69	1642.47
293.90	1722.34
294.12	1740.77
294.33	1705.96
294.55	1660.90
294.76	1744.87
294.97	1785.83
295.19	1806.31
295.40	1734.63
295.62	1701.86
295.83	1759.21
296.05	1656.81
296.26	1703.91
296.48	1566.70
296.69	1636.33
296.90	1736.68
297.12	1667.05
297.33	1810.40
297.55	1718.25
297.76	1763.30
297.98	1691.62
298.19	1695.72
298.41	1759.21
298.62	1660.90
298.83	1783.78
299.05	1730.53
299.26	1615.85
299.48	1630.18
299.69	1755.11
299.90	1687.53
300.12	1730.53
300.33	1718.25
300.55	1712.10
300.76	1708.01
300.98	1640.42
301.19	1734.63
301.40	1738.73
301.62	1632.23
301.83	1710.05
302.05	1732.58
302.26	1714.15
302.47	1775.59
302.69	1630.18
302.90	1691.62
303.12	1566.70
303.33	1761.25
303.54	1826.79
303.76	1667.05
303.97	1712.10
304.19	1828.84
304.40	1669.09
304.61	1708.01
304.83	1791.97
305.04	1810.40
305.26	1763.30
305.47	1697.77
305.68	1660.90
305.90	1591.27
306.11	1679.33
306.33	1648.61
306.54	1640.42
306.75	1658.85
306.97	1605.61
307.18	1628.14
307.39	1697.77
307.61	1757.16
307.82	1734.63
308.04	1757.16
308.25	1638.38
308.46	1736.68
308.68	1718.25
308.89	1648.61
309.10	1683.43
309.32	1796.07
309.53	1693.67
309.74	1669.09
309.96	1703.91
310.17	1777.64
310.39	1693.67
310.60	1751.01
310.81	1687.53
311.03	1683.43
311.24	1722.34
311.45	1656.81
311.67	1779.68
311.88	1740.77
312.09	1687.53
312.31	1734.63
312.52	1677.29
312.73	1738.73
312.95	1667.05
313.16	1642.47
313.37	1751.01
313.59	1703.91
313.80	1726.44
314.01	1732.58
314.23	1746.92
314.44	1650.66
314.65	1593.32
314.87	1693.67
315.08	1640.42
315.29	1720.29
315.51	1660.90
315.72	1634.28
315.93	1740.77
316.15	1697.77
316.36	1652.71
316.57	1726.44
316.79	1736.68
317.00	1722.34
317.21	1787.88
317.43	1646.57
317.64	1718.25
317.85	1599.46
318.07	1640.42
318.28	1730.53
318.49	1814.50
318.70	1959.91
318.92	1802.21
319.13	1779.68
319.34	1896.42
319.56	1781.73
319.77	1828.84
319.98	1769.44
320.20	1744.87
320.41	1724.39
320.62	1654.76
320.83	1722.34
321.05	1794.02
321.26	1738.73
321.47	1705.96
321.69	1615.85
321.90	1636.33
322.11	1673.19
322.32	1720.29
322.54	1845.22
322.75	1687.53
322.96	1742.82
323.18	1683.43
323.39	1617.90
323.60	1705.96
323.81	1777.64
324.03	1601.51
324.24	1701.86
324.45	1701.86
324.66	1669.09
324.88	1705.96
325.09	1839.08
325.30	1652.71
325.52	1724.39
325.73	1683.43
325.94	1642.47
326.15	1652.71
326.37	1609.70
326.58	1800.16
326.79	1773.54
327.00	1683.43
327.22	1669.09
327.43	1730.53
327.64	1593.32
327.85	1693.67
328.07	1714.15
328.28	1800.16
328.49	1636.33
328.70	1763.30
328.92	1638.38
329.13	1667.05
329.34	1785.83
329.55	1751.01
329.76	1734.63
329.98	1705.96
330.19	1822.69
330.40	1730.53
330.61	1757.16
330.83	1683.43
331.04	1677.29
331.25	1642.47
331.46	1642.47
331.68	1662.95
331.89	1804.26
332.10	1697.77
332.31	1699.81
332.52	1681.38
332.74	1736.68
332.95	1581.03
333.16	1644.52
333.37	1722.34
333.58	1624.04
333.80	1638.38
334.01	1654.76
334.22	1697.77
334.43	1683.43
334.64	1652.71
334.86	1695.72
335.07	1636.33
335.28	1763.30
335.49	1619.94
335.70	1759.21
335.92	1771.49
336.13	1849.32
336.34	1726.44
336.55	1705.96
336.76	1708.01
336.98	1581.03
337.19	1693.67
337.40	1806.31
337.61	1871.84
337.82	1683.43
338.04	1683.43
338.25	1628.14
338.46	1708.01
338.67	1597.42
338.88	1695.72
339.09	1642.47
339.31	1701.86
339.52	1632.23
339.73	1626.09
339.94	1648.61
340.15	1689.57
340.36	1611.75
340.58	1726.44
340.79	1636.33
341.00	1755.11
341.21	1611.75
341.42	1763.30
341.63	1699.81
341.85	1722.34
342.06	1675.24
342.27	1558.50
342.48	1748.97
342.69	1685.48
342.90	1771.49
343.12	1804.26
343.33	1644.52
343.54	1746.92
343.75	1718.25
343.96	1736.68
344.17	1665.00
344.38	1660.90
344.60	1640.42
344.81	1703.91
345.02	1718.25
345.23	1734.63
345.44	1701.86
345.65	1740.77
345.86	1753.06
346.07	1738.73
346.29	1634.28
346.50	1660.90
346.71	1705.96
346.92	1796.07
347.13	1744.87
347.34	1738.73
347.55	1775.59
347.76	1638.38
347.98	1636.33
348.19	1677.29
348.40	1791.97
348.61	1693.67
348.82	1834.98
349.03	1755.11
349.24	1697.77
349.45	1806.31
349.66	1550.31
349.88	1646.57
350.09	1611.75
350.30	1791.97
350.51	1789.92
350.72	1720.29
350.93	1794.02
351.14	1609.70
351.35	1794.02
351.56	1644.52
351.77	1654.76
351.99	1714.15
352.20	1798.12
352.41	1695.72
352.62	1583.08
352.83	1708.01
353.04	1708.01
353.25	1701.86
353.46	1724.39
353.67	1724.39
353.88	1591.27
354.09	1683.43
354.30	1730.53
354.52	1687.53
354.73	1640.42
354.94	1632.23
355.15	1675.24
355.36	1785.83
355.57	1687.53
355.78	1734.63
355.99	1619.94
356.20	1665.00
356.41	1791.97
356.62	1701.86
356.83	1648.61
357.04	1804.26
357.25	1658.85
357.46	1601.51
357.68	1636.33
357.89	1628.14
358.10	1656.81
358.31	1705.96
358.52	1751.01
358.73	1654.76
358.94	1632.23
359.15	1609.70
359.36	1730.53
359.57	1693.67
359.78	1681.38
359.99	1748.97
360.20	1617.90
360.41	1634.28
360.62	1689.57
360.83	1734.63
361.04	1714.15
361.25	1738.73
361.46	1746.92
361.67	1744.87
361.88	1728.49
362.09	1781.73
362.30	1701.86
362.51	1685.48
362.72	1697.77
362.93	1730.53
363.14	1703.91
363.35	1644.52
363.56	1634.28
363.78	1691.62
363.99	1779.68
364.20	1652.71
364.41	1675.24
364.62	1734.63
364.83	1763.30
365.04	1734.63
365.25	1679.33
365.46	1894.37
365.67	1638.38
365.88	1566.70
366.09	1611.75
366.30	1687.53
366.51	1691.62
366.72	1585.13
366.93	1681.38
367.14	1681.38
367.35	1767.40
367.56	1767.40
367.77	1732.58
367.98	1626.09
368.18	1689.57
368.39	1728.49
368.60	1689.57
368.81	1771.49
369.02	1742.82
369.23	1656.81
369.44	1583.08
369.65	1740.77
369.86	1708.01
370.07	1746.92
370.28	1730.53
370.49	1683.43
370.70	1687.53
370.91	1710.05
371.12	1576.94
371.33	1767.40
371.54	1671.14
371.75	1830.88
371.96	1556.46
372.17	1652.71
372.38	1667.05
372.59	1738.73
372.80	1687.53
373.01	1656.81
373.22	1712.10
373.43	1716.20
373.64	1638.38
373.85	1775.59
374.06	1824.74
374.26	1755.11
374.47	1710.05
374.68	1869.80
374.89	1710.05
375.10	1578.98
375.31	1763.30
375.52	1652.71
375.73	1677.29
375.94	1720.29
376.15	1794.02
376.36	1683.43
376.57	1656.81
376.78	1644.52
376.99	1742.82
377.20	1771.49
377.40	1720.29
377.61	1779.68
377.82	1699.81
378.03	1789.92
378.24	1755.11
378.45	1814.50
378.66	1769.44
378.87	1611.75
379.08	1716.20
379.29	1673.19
379.50	1738.73
379.71	1624.04
379.91	1708.01
380.12	1626.09
380.33	1689.57
380.54	1757.16
380.75	1740.77
380.96	1693.67
381.17	1724.39
381.38	1765.35
381.59	1716.20
381.80	1734.63
382.00	1923.04
382.21	1724.39
382.42	1796.07
382.63	1791.97
382.84	1779.68
383.05	1720.29
383.26	1791.97
383.47	1703.91
383.68	1783.78
383.88	1744.87
384.09	1724.39
384.30	1802.21
384.51	1708.01
384.72	1732.58
384.93	1601.51
385.14	1714.15
385.35	1730.53
385.55	1595.37
385.76	1740.77
385.97	1771.49
386.18	1646.57
386.39	1685.48
386.60	1712.10
386.81	1589.22
387.02	1656.81
387.22	1691.62
387.43	1742.82
387.64	1742.82
387.85	1896.42
388.06	2203.61
388.27	4239.30
388.48	6913.94
388.68	8294.27
388.89	9729.90
389.10	9938.79
389.31	8660.86
389.52	7675.79
389.73	6696.86
389.93	6338.46
390.14	5822.38
390.35	5101.49
390.56	4714.42
390.77	3829.70
390.98	3092.43
391.18	2459.61
391.39	2066.40
391.60	1849.32
391.81	1837.03
392.02	1712.10
392.23	1865.70
392.43	1771.49
392.64	1773.54
392.85	1705.96
393.06	1794.02
393.27	1769.44
393.47	1619.94
393.68	1730.53
393.89	1728.49
394.10	1775.59
394.31	1640.42
394.52	1634.28
394.72	1781.73
394.93	1787.88
395.14	1626.09
395.35	1716.20
395.56	1705.96
395.76	1751.01
395.97	1806.31
396.18	1869.80
396.39	1843.17
396.60	2037.73
396.80	1957.86
397.01	1843.17
397.22	1779.68
397.43	1851.36
397.64	1746.92
397.84	1855.46
398.05	1882.08
398.26	1701.86
398.47	1771.49
398.67	1740.77
398.88	1650.66
399.09	1734.63
399.30	1642.47
399.51	1724.39
399.71	1687.53
399.92	1693.67
400.13	1740.77
400.34	1662.95
400.54	1687.53
400.75	1730.53
400.96	1714.15
401.17	1746.92
401.37	1748.97
401.58	1671.14
401.79	1705.96
402.00	1880.04
402.21	1996.77
402.41	1906.66
402.62	1957.86
402.83	2002.91
403.04	2021.35
403.24	2025.44
403.45	1826.79
403.66	1984.48
403.87	1839.08
404.07	1863.65
404.28	1904.61
404.49	1820.64
404.70	1787.88
404.90	1748.97
405.11	1685.48
405.32	1771.49
405.52	1648.61
405.73	1593.32
405.94	1648.61
406.15	1683.43
406.35	1761.25
406.56	1726.44
406.77	1667.05
406.98	1652.71
407.18	1681.38
407.39	1746.92
407.60	1695.72
407.80	1644.52
408.01	1759.21
408.22	1681.38
408.43	1687.53
408.63	1765.35
408.84	1800.16
409.05	1730.53
409.25	1677.29
409.46	1701.86
409.67	1720.29
409.88	1705.96
410.08	1742.82
410.29	1748.97
410.50	1697.77
410.70	1714.15
410.91	1701.86
411.12	1722.34
411.32	1718.25
411.53	1724.39
411.74	1843.17
411.95	1736.68
412.15	1712.10
412.36	1810.40
412.57	1734.63
412.77	1845.22
412.98	1730.53
413.19	1689.57
413.39	1773.54
413.60	1724.39
413.81	1832.93
414.01	1701.86
414.22	1755.11
414.43	1738.73
414.63	1675.24
414.84	1738.73
415.05	1710.05
415.25	1621.99
415.46	1665.00
415.67	1703.91
415.87	1714.15
416.08	1683.43
416.29	1697.77
416.49	1722.34
416.70	1673.19
416.91	1705.96
417.11	1701.86
417.32	1757.16
417.53	1759.21
417.73	1677.29
417.94	1699.81
418.15	1697.77
418.35	1748.97
418.56	1730.53
418.77	1914.85
418.97	1699.81
419.18	1714.15
419.38	1544.17
419.59	1691.62
419.80	1810.40
420.00	1685.48
420.21	1722.34
420.42	1710.05
420.62	1650.66
420.83	1632.23
421.04	1675.24
421.24	1595.37
421.45	1697.77
421.65	1679.33
421.86	1730.53
422.07	1802.21
422.27	1681.38
422.48	1769.44
422.69	1603.56
422.89	1681.38
423.10	1681.38
423.30	1601.51
423.51	1726.44
423.72	1691.62
423.92	1671.14
424.13	1732.58
424.33	1681.38
424.54	1681.38
424.75	1636.33
424.95	1791.97
425.16	1685.48
425.36	1712.10
425.57	1757.16
425.78	1722.34
425.98	1753.06
426.19	1712.10
426.39	1646.57
426.60	1748.97
426.81	1820.64
427.01	1724.39
427.22	1652.71
427.42	1628.14
427.63	1673.19
427.83	1693.67
428.04	1808.36
428.25	1808.36
428.45	1826.79
428.66	1808.36
428.86	1724.39
429.07	1691.62
429.28	1703.91
429.48	1667.05
429.69	1613.80
429.89	1660.90
430.10	1667.05
430.30	1722.34
430.51	1796.07
430.71	1644.52
430.92	1693.67
431.13	1689.57
431.33	1818.60
431.54	1718.25
431.74	1812.45
431.95	1863.65
432.15	1632.23
432.36	1695.72
432.56	1820.64
432.77	1771.49
432.98	1732.58
433.18	1720.29
433.39	1691.62
433.59	1683.43
433.80	1738.73
434.00	1822.69
434.21	1714.15
434.41	1695.72
434.62	1859.56
434.82	1691.62
435.03	1617.90
435.23	1654.76
435.44	1591.27
435.64	1716.20
435.85	1732.58
436.06	1736.68
436.26	1761.25
436.47	1720.29
436.67	1705.96
436.88	1710.05
437.08	1753.06
437.29	1787.88
437.49	1791.97
437.70	1794.02
437.90	1675.24
438.11	1869.80
438.31	1740.77
438.52	1841.12
438.72	1896.42
438.93	1908.71
439.13	1798.12
439.34	1816.55
439.54	1755.11
439.75	1800.16
439.95	1753.06
440.16	1660.90
440.36	1767.40
440.57	1716.20
440.77	1787.88
440.98	1787.88
441.18	1746.92
441.39	1748.97
441.59	1734.63
441.80	1828.84
442.00	1730.53
442.21	1804.26
442.41	1658.85
442.62	1763.30
442.82	1669.09
443.02	1677.29
443.23	1738.73
443.43	1662.95
443.64	1830.88
443.84	1720.29
444.05	1789.92
444.25	1677.29
444.46	1701.86
444.66	1642.47
444.87	1787.88
445.07	1591.27
445.28	1738.73
445.48	1845.22
445.69	1804.26
445.89	1849.32
446.09	1720.29
446.30	1976.29
446.50	2602.97
446.71	3704.78
446.91	4462.52
447.12	4665.27
447.32	4747.19
447.53	4290.49
447.73	3854.28
447.93	3583.95
448.14	3239.89
448.34	3184.59
448.55	2912.21
448.75	2805.72
448.96	2605.02
449.16	2422.75
449.36	2209.76
449.57	2009.06
449.77	1904.61
449.98	1839.08
450.18	1845.22
450.39	1875.94
450.59	1751.01
450.79	1724.39
451.00	1716.20
451.20	1740.77
451.41	1699.81
451.61	1779.68
451.81	1845.22
452.02	1677.29
452.22	1716.20
452.43	1748.97
452.63	1697.77
