SpectraSuite Data File
++++++++++++++++++++++++++++++++++++
Date: Mon Jun 06 17:32:17 CEST 2016
User: root
Dark Spectrum Present: No
Reference Spectrum Present: No
Number of Sampled Component Spectra: 1
Spectrometers: USB4C02835
Integration Time (usec): 100000 (USB4C02835)
Spectra Averaged: 1 (USB4C02835)
Boxcar Smoothing: 0 (USB4C02835)
Correct for Electrical Dark: No (USB4C02835)
Strobe/Lamp Enabled: No (USB4C02835)
Correct for Detector Non-linearity: No (USB4C02835)
Correct for Stray Light: No (USB4C02835)
Number of Pixels in Processed Spectrum: 3648
>>>>>Begin Processed Spectral Data<<<<<
177.47	1443.82
177.69	1443.82
177.91	1443.82
178.13	1505.26
178.36	1509.35
178.58	1685.48
178.80	1656.81
179.02	1669.09
179.24	1564.65
179.46	1689.57
179.68	1732.58
179.90	1783.78
180.13	1724.39
180.35	1656.81
180.57	1658.85
180.79	1744.87
181.01	1777.64
181.23	1759.21
181.45	1810.40
181.67	1683.43
181.90	1685.48
182.12	1656.81
182.34	1656.81
182.56	1695.72
182.78	1771.49
183.00	1705.96
183.22	1732.58
183.44	1624.04
183.66	1828.84
183.89	1884.13
184.11	1708.01
184.33	1722.34
184.55	1757.16
184.77	1662.95
184.99	1710.05
185.21	1728.49
185.43	1884.13
185.65	1669.09
185.87	1767.40
186.10	1855.46
186.32	1826.79
186.54	1738.73
186.76	1759.21
186.98	1779.68
187.20	1734.63
187.42	1665.00
187.64	1796.07
187.86	1787.88
188.08	1783.78
188.30	1736.68
188.52	1685.48
188.75	1794.02
188.97	1783.78
189.19	1718.25
189.41	1687.53
189.63	1787.88
189.85	1765.35
190.07	1634.28
190.29	1693.67
190.51	1714.15
190.73	1697.77
190.95	1832.93
191.17	1648.61
191.39	1695.72
191.61	1685.48
191.84	1730.53
192.06	1695.72
192.28	1681.38
192.50	1900.52
192.72	1763.30
192.94	1761.25
193.16	1800.16
193.38	1701.86
193.60	1615.85
193.82	1728.49
194.04	1753.06
194.26	1769.44
194.48	1734.63
194.70	1613.80
194.92	1691.62
195.14	1736.68
195.36	1615.85
195.58	1726.44
195.80	1724.39
196.02	1685.48
196.24	1644.52
196.46	1662.95
196.69	1667.05
196.91	1798.12
197.13	1665.00
197.35	1689.57
197.57	1822.69
197.79	1753.06
198.01	1789.92
198.23	1761.25
198.45	1802.21
198.67	1605.61
198.89	1675.24
199.11	1751.01
199.33	1646.57
199.55	1574.89
199.77	1742.82
199.99	1800.16
200.21	1746.92
200.43	1740.77
200.65	1683.43
200.87	1595.37
201.09	1748.97
201.31	1714.15
201.53	1777.64
201.75	1734.63
201.97	1734.63
202.19	1755.11
202.41	1777.64
202.63	1861.60
202.85	1796.07
203.07	1693.67
203.29	1699.81
203.51	1701.86
203.73	1624.04
203.95	1877.99
204.17	1744.87
204.39	1677.29
204.61	1748.97
204.83	1710.05
205.05	1751.01
205.27	1798.12
205.49	1783.78
205.71	1732.58
205.93	1685.48
206.15	1734.63
206.37	1746.92
206.59	1710.05
206.81	1699.81
207.03	1624.04
207.25	1714.15
207.47	1753.06
207.69	1693.67
207.91	1746.92
208.13	1816.55
208.34	1714.15
208.56	1640.42
208.78	1732.58
209.00	1685.48
209.22	1712.10
209.44	1763.30
209.66	1708.01
209.88	1785.83
210.10	1609.70
210.32	1685.48
210.54	1800.16
210.76	1648.61
210.98	1689.57
211.20	1615.85
211.42	1757.16
211.64	1769.44
211.86	1730.53
212.08	1734.63
212.30	1796.07
212.52	1716.20
212.74	1738.73
212.96	1671.14
213.17	1802.21
213.39	1705.96
213.61	1769.44
213.83	1734.63
214.05	1595.37
214.27	1742.82
214.49	1673.19
214.71	1705.96
214.93	1796.07
215.15	1665.00
215.37	1822.69
215.59	1656.81
215.81	1732.58
216.03	1814.50
216.24	1712.10
216.46	1638.38
216.68	1822.69
216.90	1753.06
217.12	1724.39
217.34	1724.39
217.56	1757.16
217.78	1853.41
218.00	1755.11
218.22	1751.01
218.44	1701.86
218.66	1742.82
218.87	1806.31
219.09	1669.09
219.31	1755.11
219.53	1720.29
219.75	1638.38
219.97	1722.34
220.19	1710.05
220.41	1728.49
220.63	1845.22
220.85	1738.73
221.06	1677.29
221.28	1810.40
221.50	1722.34
221.72	1753.06
221.94	1714.15
222.16	1705.96
222.38	1755.11
222.60	1759.21
222.82	1710.05
223.03	1755.11
223.25	1697.77
223.47	1724.39
223.69	1865.70
223.91	1708.01
224.13	1693.67
224.35	1691.62
224.57	1804.26
224.78	1734.63
225.00	1708.01
225.22	1691.62
225.44	1708.01
225.66	1794.02
225.88	1712.10
226.10	1814.50
226.32	1736.68
226.53	1718.25
226.75	1720.29
226.97	1710.05
227.19	1742.82
227.41	1626.09
227.63	1714.15
227.85	1638.38
228.06	1730.53
228.28	1693.67
228.50	1748.97
228.72	1724.39
228.94	1714.15
229.16	1572.84
229.37	1660.90
229.59	1693.67
229.81	1767.40
230.03	1738.73
230.25	1740.77
230.47	1615.85
230.69	1599.46
230.90	1730.53
231.12	1638.38
231.34	1748.97
231.56	1822.69
231.78	1673.19
232.00	1718.25
232.21	1722.34
232.43	1685.48
232.65	1636.33
232.87	1761.25
233.09	1648.61
233.30	1685.48
233.52	1771.49
233.74	1767.40
233.96	1714.15
234.18	1728.49
234.40	1716.20
234.61	1859.56
234.83	1636.33
235.05	1683.43
235.27	1769.44
235.49	1722.34
235.70	1685.48
235.92	1808.36
236.14	1675.24
236.36	1865.70
236.58	1613.80
236.79	1722.34
237.01	1720.29
237.23	1716.20
237.45	1837.03
237.67	1726.44
237.88	1732.58
238.10	1779.68
238.32	1632.23
238.54	1605.61
238.76	1697.77
238.97	1759.21
239.19	1654.76
239.41	1771.49
239.63	1830.88
239.85	1675.24
240.06	1703.91
240.28	1677.29
240.50	1796.07
240.72	1746.92
240.93	1722.34
241.15	1812.45
241.37	1697.77
241.59	1820.64
241.81	1814.50
242.02	1638.38
242.24	1708.01
242.46	1771.49
242.68	1695.72
242.89	1757.16
243.11	1681.38
243.33	1746.92
243.55	1722.34
243.76	1777.64
243.98	1636.33
244.20	1746.92
244.42	1769.44
244.64	1746.92
244.85	1667.05
245.07	1683.43
245.29	1820.64
245.51	1705.96
245.72	1720.29
245.94	1732.58
246.16	1822.69
246.38	1767.40
246.59	1650.66
246.81	1691.62
247.03	1703.91
247.24	1642.47
247.46	1669.09
247.68	1728.49
247.90	1662.95
248.11	1578.98
248.33	1787.88
248.55	1677.29
248.77	1753.06
248.98	1789.92
249.20	1816.55
249.42	1720.29
249.64	1697.77
249.85	1716.20
250.07	1714.15
250.29	1695.72
250.50	1787.88
250.72	1689.57
250.94	1720.29
251.16	1820.64
251.37	1814.50
251.59	1779.68
251.81	1734.63
252.02	1814.50
252.24	1703.91
252.46	1730.53
252.68	1693.67
252.89	1763.30
253.11	1667.05
253.33	1808.36
253.54	1810.40
253.76	1617.90
253.98	1648.61
254.20	1759.21
254.41	1640.42
254.63	1667.05
254.85	1710.05
255.06	1646.57
255.28	1726.44
255.50	1761.25
255.71	1665.00
255.93	1660.90
256.15	1730.53
256.36	1798.12
256.58	1714.15
256.80	1783.78
257.02	1746.92
257.23	1705.96
257.45	1728.49
257.67	1755.11
257.88	1628.14
258.10	1742.82
258.32	1738.73
258.53	1765.35
258.75	1800.16
258.97	1736.68
259.18	1738.73
259.40	1763.30
259.62	1787.88
259.83	1748.97
260.05	1773.54
260.27	2015.20
260.48	1730.53
260.70	1640.42
260.92	1703.91
261.13	1699.81
261.35	1701.86
261.57	1800.16
261.78	1626.09
262.00	1679.33
262.22	1785.83
262.43	1703.91
262.65	1759.21
262.86	1785.83
263.08	1808.36
263.30	1667.05
263.51	1636.33
263.73	1722.34
263.95	1804.26
264.16	1648.61
264.38	1656.81
264.60	1761.25
264.81	1730.53
265.03	1804.26
265.25	1771.49
265.46	1753.06
265.68	1740.77
265.89	1716.20
266.11	1708.01
266.33	1757.16
266.54	1708.01
266.76	1701.86
266.98	1695.72
267.19	1773.54
267.41	1701.86
267.62	1755.11
267.84	1634.28
268.06	1691.62
268.27	1669.09
268.49	1761.25
268.70	1796.07
268.92	1777.64
269.14	1683.43
269.35	1613.80
269.57	1703.91
269.79	1732.58
270.00	1689.57
270.22	1787.88
270.43	1693.67
270.65	1589.22
270.87	1714.15
271.08	1769.44
271.30	1755.11
271.51	1652.71
271.73	1730.53
271.95	1832.93
272.16	1755.11
272.38	1759.21
272.59	1660.90
272.81	1710.05
273.02	1708.01
273.24	1732.58
273.46	1857.51
273.67	1671.14
273.89	1638.38
274.10	1660.90
274.32	1865.70
274.54	1652.71
274.75	1738.73
274.97	1640.42
275.18	1751.01
275.40	1730.53
275.61	1751.01
275.83	1722.34
276.05	1648.61
276.26	1662.95
276.48	1777.64
276.69	1681.38
276.91	1712.10
277.12	1779.68
277.34	1773.54
277.55	1712.10
277.77	1644.52
277.99	1644.52
278.20	1621.99
278.42	1677.29
278.63	1669.09
278.85	1683.43
279.06	1695.72
279.28	1810.40
279.49	1744.87
279.71	1791.97
279.93	1763.30
280.14	1685.48
280.36	1644.52
280.57	1746.92
280.79	1820.64
281.00	1669.09
281.22	1734.63
281.43	1777.64
281.65	1617.90
281.86	1693.67
282.08	1771.49
282.29	1871.84
282.51	1669.09
282.73	1701.86
282.94	1646.57
283.16	1789.92
283.37	1896.42
283.59	1691.62
283.80	1742.82
284.02	1779.68
284.23	1779.68
284.45	1691.62
284.66	1681.38
284.88	1697.77
285.09	1765.35
285.31	1789.92
285.52	1781.73
285.74	1644.52
285.95	1759.21
286.17	1771.49
286.38	1755.11
286.60	1671.14
286.81	1646.57
287.03	1685.48
287.24	1748.97
287.46	1652.71
287.67	1699.81
287.89	1849.32
288.10	1746.92
288.32	1724.39
288.53	1730.53
288.75	1796.07
288.96	1722.34
289.18	1640.42
289.39	1699.81
289.61	1800.16
289.82	1828.84
290.04	1849.32
290.25	1701.86
290.47	1693.67
290.68	1736.68
290.90	1837.03
291.11	1624.04
291.33	1744.87
291.54	1685.48
291.76	1621.99
291.97	1761.25
292.18	1646.57
292.40	1683.43
292.61	1615.85
292.83	1867.75
293.04	1736.68
293.26	1712.10
293.47	1763.30
293.69	1656.81
293.90	1681.38
294.12	1773.54
294.33	1755.11
294.55	1628.14
294.76	1822.69
294.97	1798.12
295.19	1734.63
295.40	1763.30
295.62	1669.09
295.83	1824.74
296.05	1665.00
296.26	1761.25
296.48	1669.09
296.69	1714.15
296.90	1726.44
297.12	1818.60
297.33	1757.16
297.55	1744.87
297.76	1773.54
297.98	1771.49
298.19	1712.10
298.41	1710.05
298.62	1714.15
298.83	1767.40
299.05	1697.77
299.26	1689.57
299.48	1685.48
299.69	1783.78
299.90	1699.81
300.12	1738.73
300.33	1794.02
300.55	1611.75
300.76	1751.01
300.98	1621.99
301.19	1746.92
301.40	1710.05
301.62	1697.77
301.83	1773.54
302.05	1660.90
302.26	1759.21
302.47	1722.34
302.69	1724.39
302.90	1740.77
303.12	1636.33
303.33	1757.16
303.54	1806.31
303.76	1794.02
303.97	1775.59
304.19	1779.68
304.40	1742.82
304.61	1728.49
304.83	1740.77
305.04	1826.79
305.26	1708.01
305.47	1646.57
305.68	1669.09
305.90	1638.38
306.11	1738.73
306.33	1681.38
306.54	1714.15
306.75	1640.42
306.97	1626.09
307.18	1658.85
307.39	1677.29
307.61	1732.58
307.82	1710.05
308.04	1767.40
308.25	1656.81
308.46	1759.21
308.68	1636.33
308.89	1734.63
309.10	1775.59
309.32	1767.40
309.53	1730.53
309.74	1722.34
309.96	1681.38
310.17	1787.88
310.39	1708.01
310.60	1746.92
310.81	1751.01
311.03	1581.03
311.24	1787.88
311.45	1642.47
311.67	1728.49
311.88	1736.68
312.09	1720.29
312.31	1603.56
312.52	1708.01
312.73	1656.81
312.95	1642.47
313.16	1619.94
313.37	1859.56
313.59	1798.12
313.80	1775.59
314.01	1841.12
314.23	1701.86
314.44	1689.57
314.65	1662.95
314.87	1705.96
315.08	1564.65
315.29	1669.09
315.51	1585.13
315.72	1665.00
315.93	1841.12
316.15	1767.40
316.36	1742.82
316.57	1734.63
316.79	1773.54
317.00	1722.34
317.21	1767.40
317.43	1681.38
317.64	1783.78
317.85	1677.29
318.07	1652.71
318.28	1675.24
318.49	1816.55
318.70	1877.99
318.92	1816.55
319.13	1832.93
319.34	1890.28
319.56	1814.50
319.77	1880.04
319.98	1767.40
320.20	1736.68
320.41	1818.60
320.62	1771.49
320.83	1724.39
321.05	1853.41
321.26	1720.29
321.47	1646.57
321.69	1845.22
321.90	1636.33
322.11	1710.05
322.32	1695.72
322.54	1746.92
322.75	1712.10
322.96	1843.17
323.18	1632.23
323.39	1656.81
323.60	1636.33
323.81	1814.50
324.03	1751.01
324.24	1665.00
324.45	1742.82
324.66	1730.53
324.88	1724.39
325.09	1837.03
325.30	1740.77
325.52	1691.62
325.73	1726.44
325.94	1753.06
326.15	1681.38
326.37	1689.57
326.58	1740.77
326.79	1748.97
327.00	1628.14
327.22	1693.67
327.43	1689.57
327.64	1669.09
327.85	1701.86
328.07	1718.25
328.28	1841.12
328.49	1658.85
328.70	1714.15
328.92	1675.24
329.13	1751.01
329.34	1751.01
329.55	1828.84
329.76	1744.87
329.98	1656.81
330.19	1787.88
330.40	1714.15
330.61	1781.73
330.83	1834.98
331.04	1662.95
331.25	1718.25
331.46	1681.38
331.68	1675.24
331.89	1759.21
332.10	1767.40
332.31	1675.24
332.52	1703.91
332.74	1695.72
332.95	1617.90
333.16	1769.44
333.37	1791.97
333.58	1730.53
333.80	1824.74
334.01	1652.71
334.22	1656.81
334.43	1767.40
334.64	1800.16
334.86	1628.14
335.07	1654.76
335.28	1751.01
335.49	1685.48
335.70	1714.15
335.92	1765.35
336.13	1777.64
336.34	1771.49
336.55	1714.15
336.76	1738.73
336.98	1624.04
337.19	1734.63
337.40	1841.12
337.61	1859.56
337.82	1734.63
338.04	1701.86
338.25	1626.09
338.46	1755.11
338.67	1718.25
338.88	1650.66
339.09	1693.67
339.31	1703.91
339.52	1675.24
339.73	1605.61
339.94	1648.61
340.15	1701.86
340.36	1757.16
340.58	1738.73
340.79	1667.05
341.00	1720.29
341.21	1673.19
341.42	1816.55
341.63	1712.10
341.85	1783.78
342.06	1759.21
342.27	1720.29
342.48	1759.21
342.69	1660.90
342.90	1726.44
343.12	1740.77
343.33	1681.38
343.54	1839.08
343.75	1781.73
343.96	1660.90
344.17	1742.82
344.38	1814.50
344.60	1671.14
344.81	1673.19
345.02	1693.67
345.23	1775.59
345.44	1693.67
345.65	1705.96
345.86	1759.21
346.07	1683.43
346.29	1724.39
346.50	1701.86
346.71	1718.25
346.92	1789.92
347.13	1859.56
347.34	1671.14
347.55	1656.81
347.76	1726.44
347.98	1648.61
348.19	1734.63
348.40	1748.97
348.61	1708.01
348.82	1804.26
349.03	1742.82
349.24	1724.39
349.45	1863.65
349.66	1597.42
349.88	1748.97
350.09	1675.24
350.30	1773.54
350.51	1818.60
350.72	1732.58
350.93	1693.67
351.14	1665.00
351.35	1722.34
351.56	1720.29
351.77	1677.29
351.99	1800.16
352.20	1841.12
352.41	1785.83
352.62	1576.94
352.83	1771.49
353.04	1699.81
353.25	1699.81
353.46	1769.44
353.67	1808.36
353.88	1619.94
354.09	1712.10
354.30	1722.34
354.52	1726.44
354.73	1738.73
354.94	1728.49
355.15	1671.14
355.36	1796.07
355.57	1673.19
355.78	1724.39
355.99	1693.67
356.20	1667.05
356.41	1771.49
356.62	1834.98
356.83	1626.09
357.04	1834.98
357.25	1591.27
357.46	1677.29
357.68	1640.42
357.89	1681.38
358.10	1720.29
358.31	1681.38
358.52	1740.77
358.73	1683.43
358.94	1652.71
359.15	1703.91
359.36	1789.92
359.57	1683.43
359.78	1734.63
359.99	1771.49
360.20	1626.09
360.41	1710.05
360.62	1779.68
360.83	1802.21
361.04	1681.38
361.25	1826.79
361.46	1843.17
361.67	1740.77
361.88	1697.77
362.09	1783.78
362.30	1718.25
362.51	1624.04
362.72	1685.48
362.93	1751.01
363.14	1746.92
363.35	1824.74
363.56	1701.86
363.78	1736.68
363.99	1740.77
364.20	1656.81
364.41	1681.38
364.62	1824.74
364.83	1763.30
365.04	1705.96
365.25	1722.34
365.46	1828.84
365.67	1705.96
365.88	1609.70
366.09	1613.80
366.30	1617.90
366.51	1726.44
366.72	1679.33
366.93	1705.96
367.14	1843.17
367.35	1820.64
367.56	1740.77
367.77	1771.49
367.98	1669.09
368.18	1699.81
368.39	1718.25
368.60	1712.10
368.81	1796.07
369.02	1779.68
369.23	1662.95
369.44	1652.71
369.65	1693.67
369.86	1673.19
370.07	1669.09
370.28	1675.24
370.49	1746.92
370.70	1703.91
370.91	1619.94
371.12	1705.96
371.33	1826.79
371.54	1732.58
371.75	1910.75
371.96	1593.32
372.17	1693.67
372.38	1660.90
372.59	1728.49
372.80	1650.66
373.01	1703.91
373.22	1761.25
373.43	1720.29
373.64	1669.09
373.85	1763.30
374.06	1806.31
374.26	1810.40
374.47	1755.11
374.68	1822.69
374.89	1796.07
375.10	1724.39
375.31	1783.78
375.52	1810.40
375.73	1822.69
375.94	1685.48
376.15	1738.73
376.36	1689.57
376.57	1714.15
376.78	1652.71
376.99	1669.09
377.20	1781.73
377.40	1568.74
377.61	1824.74
377.82	1701.86
378.03	1849.32
378.24	1779.68
378.45	1787.88
378.66	1742.82
378.87	1658.85
379.08	1609.70
379.29	1730.53
379.50	1794.02
379.71	1775.59
379.91	1744.87
380.12	1728.49
380.33	1716.20
380.54	1613.80
380.75	1683.43
380.96	1767.40
381.17	1722.34
381.38	1708.01
381.59	1771.49
381.80	1746.92
382.00	1959.91
382.21	1800.16
382.42	1857.51
382.63	1898.47
382.84	1773.54
383.05	1703.91
383.26	1816.55
383.47	1794.02
383.68	1816.55
383.88	1671.14
384.09	1714.15
384.30	1849.32
384.51	1738.73
384.72	1738.73
384.93	1703.91
385.14	1785.83
385.35	1767.40
385.55	1697.77
385.76	1814.50
385.97	1763.30
386.18	1695.72
386.39	1732.58
386.60	1675.24
386.81	1742.82
387.02	1730.53
387.22	1724.39
387.43	1763.30
387.64	1732.58
387.85	1810.40
388.06	2152.42
388.27	4069.31
388.48	6637.47
388.68	8081.28
388.89	9537.39
389.10	9469.81
389.31	8488.83
389.52	7405.46
389.73	6608.80
389.93	6076.32
390.14	5797.80
390.35	5085.11
390.56	4523.96
390.77	3844.04
390.98	3024.85
391.18	2490.33
391.39	2152.42
391.60	1912.80
391.81	1845.22
392.02	1757.16
392.23	1783.78
392.43	1824.74
392.64	1865.70
392.85	1699.81
393.06	1832.93
393.27	1740.77
393.47	1681.38
393.68	1834.98
393.89	1730.53
394.10	1822.69
394.31	1665.00
394.52	1667.05
394.72	1718.25
394.93	1724.39
395.14	1712.10
395.35	1710.05
395.56	1714.15
395.76	1783.78
395.97	1705.96
396.18	1796.07
396.39	1828.84
396.60	2009.06
396.80	1882.08
397.01	1898.47
397.22	1798.12
397.43	1886.18
397.64	1755.11
397.84	1802.21
398.05	1849.32
398.26	1822.69
398.47	1824.74
398.67	1853.41
398.88	1740.77
399.09	1802.21
399.30	1748.97
399.51	1712.10
399.71	1742.82
399.92	1708.01
400.13	1705.96
400.34	1736.68
400.54	1691.62
400.75	1841.12
400.96	1701.86
401.17	1806.31
401.37	1716.20
401.58	1697.77
401.79	1734.63
402.00	1943.52
402.21	1961.95
402.41	2060.26
402.62	2074.59
402.83	2082.78
403.04	1982.43
403.24	2066.40
403.45	1920.99
403.66	1918.95
403.87	1861.60
404.07	1925.09
404.28	1847.27
404.49	1853.41
404.70	1769.44
404.90	1779.68
405.11	1783.78
405.32	1787.88
405.52	1648.61
405.73	1617.90
405.94	1638.38
406.15	1751.01
406.35	1691.62
406.56	1718.25
406.77	1740.77
406.98	1736.68
407.18	1669.09
407.39	1796.07
407.60	1708.01
407.80	1742.82
408.01	1673.19
408.22	1744.87
408.43	1716.20
408.63	1742.82
408.84	1746.92
409.05	1751.01
409.25	1697.77
409.46	1697.77
409.67	1681.38
409.88	1681.38
410.08	1746.92
410.29	1722.34
410.50	1779.68
410.70	1785.83
410.91	1683.43
411.12	1759.21
411.32	1716.20
411.53	1677.29
411.74	1785.83
411.95	1742.82
412.15	1884.13
412.36	1791.97
412.57	1824.74
412.77	1796.07
412.98	1693.67
413.19	1650.66
413.39	1746.92
413.60	1787.88
413.81	1791.97
414.01	1673.19
414.22	1761.25
414.43	1828.84
414.63	1671.14
414.84	1779.68
415.05	1814.50
415.25	1671.14
415.46	1783.78
415.67	1753.06
415.87	1708.01
416.08	1763.30
416.29	1681.38
416.49	1757.16
416.70	1751.01
416.91	1679.33
417.11	1738.73
417.32	1728.49
417.53	1804.26
417.73	1755.11
417.94	1812.45
418.15	1691.62
418.35	1724.39
418.56	1701.86
418.77	1849.32
418.97	1638.38
419.18	1705.96
419.38	1626.09
419.59	1644.52
419.80	1730.53
420.00	1654.76
420.21	1730.53
420.42	1763.30
420.62	1724.39
420.83	1763.30
421.04	1644.52
421.24	1748.97
421.45	1691.62
421.65	1748.97
421.86	1753.06
422.07	1761.25
422.27	1746.92
422.48	1742.82
422.69	1626.09
422.89	1665.00
423.10	1748.97
423.30	1603.56
423.51	1716.20
423.72	1773.54
423.92	1779.68
424.13	1607.66
424.33	1685.48
424.54	1765.35
424.75	1724.39
424.95	1748.97
425.16	1736.68
425.36	1662.95
425.57	1775.59
425.78	1742.82
425.98	1703.91
426.19	1667.05
426.39	1714.15
426.60	1669.09
426.81	1834.98
427.01	1718.25
427.22	1681.38
427.42	1669.09
427.63	1605.61
427.83	1771.49
428.04	1839.08
428.25	1712.10
428.45	1816.55
428.66	1787.88
428.86	1667.05
429.07	1732.58
429.28	1693.67
429.48	1681.38
429.69	1611.75
429.89	1849.32
430.10	1738.73
430.30	1830.88
430.51	1787.88
430.71	1669.09
430.92	1738.73
431.13	1757.16
431.33	1755.11
431.54	1753.06
431.74	1849.32
431.95	1818.60
432.15	1699.81
432.36	1644.52
432.56	1714.15
432.77	1849.32
432.98	1843.17
433.18	1716.20
433.39	1681.38
433.59	1796.07
433.80	1808.36
434.00	1880.04
434.21	1757.16
434.41	1681.38
434.62	1865.70
434.82	1703.91
435.03	1628.14
435.23	1765.35
435.44	1652.71
435.64	1714.15
435.85	1718.25
436.06	1779.68
436.26	1834.98
436.47	1755.11
436.67	1667.05
436.88	1761.25
437.08	1751.01
437.29	1806.31
437.49	1726.44
437.70	1843.17
437.90	1722.34
438.11	1955.81
438.31	1757.16
438.52	1880.04
438.72	1902.56
438.93	1908.71
439.13	1787.88
439.34	1779.68
439.54	1806.31
439.75	1800.16
439.95	1812.45
440.16	1724.39
440.36	1708.01
440.57	1814.50
440.77	1755.11
440.98	1771.49
441.18	1777.64
441.39	1720.29
441.59	1724.39
441.80	1826.79
442.00	1708.01
442.21	1763.30
442.41	1677.29
442.62	1773.54
442.82	1705.96
443.02	1742.82
443.23	1740.77
443.43	1738.73
443.64	1812.45
443.84	1701.86
444.05	1798.12
444.25	1796.07
444.46	1773.54
444.66	1705.96
444.87	1832.93
445.07	1677.29
445.28	1798.12
445.48	1777.64
445.69	1826.79
445.89	1920.99
446.09	1832.93
446.30	2009.06
446.50	2598.87
446.71	3694.54
446.91	4349.89
447.12	4685.75
447.32	4831.16
447.53	4374.46
447.73	3966.92
447.93	3426.25
448.14	3368.91
448.34	3239.89
448.55	2942.93
448.75	2795.48
448.96	2709.46
449.16	2381.79
449.36	2277.34
449.57	2041.82
449.77	1884.13
449.98	1861.60
450.18	1759.21
450.39	1839.08
450.59	1763.30
450.79	1740.77
451.00	1722.34
451.20	1861.60
451.41	1742.82
451.61	1787.88
451.81	1785.83
452.02	1724.39
452.22	1734.63
452.43	1685.48
452.63	1724.39
