SpectraSuite Data File
++++++++++++++++++++++++++++++++++++
Date: Mon Jun 06 14:55:17 CEST 2016
User: root
Dark Spectrum Present: No
Reference Spectrum Present: No
Number of Sampled Component Spectra: 1
Spectrometers: USB4C02835
Integration Time (usec): 100000 (USB4C02835)
Spectra Averaged: 1 (USB4C02835)
Boxcar Smoothing: 0 (USB4C02835)
Correct for Electrical Dark: No (USB4C02835)
Strobe/Lamp Enabled: No (USB4C02835)
Correct for Detector Non-linearity: No (USB4C02835)
Correct for Stray Light: No (USB4C02835)
Number of Pixels in Processed Spectrum: 3648
>>>>>Begin Processed Spectral Data<<<<<
177.47	1462.25
177.69	1462.25
177.91	1462.25
178.13	1402.86
178.36	1468.39
178.58	1656.81
178.80	1763.30
179.02	1636.33
179.24	1669.09
179.46	1705.96
179.68	1859.56
179.90	1656.81
180.13	1693.67
180.35	1597.42
180.57	1632.23
180.79	1748.97
181.01	1744.87
181.23	1738.73
181.45	1736.68
181.67	1726.44
181.90	1724.39
182.12	1669.09
182.34	1611.75
182.56	1665.00
182.78	1757.16
183.00	1675.24
183.22	1757.16
183.44	1609.70
183.66	1867.75
183.89	1728.49
184.11	1732.58
184.33	1689.57
184.55	1791.97
184.77	1701.86
184.99	1673.19
185.21	1726.44
185.43	1849.32
185.65	1695.72
185.87	1796.07
186.10	1861.60
186.32	1804.26
186.54	1769.44
186.76	1705.96
186.98	1732.58
187.20	1683.43
187.42	1765.35
187.64	1673.19
187.86	1671.14
188.08	1767.40
188.30	1691.62
188.52	1759.21
188.75	1757.16
188.97	1806.31
189.19	1624.04
189.41	1705.96
189.63	1787.88
189.85	1701.86
190.07	1701.86
190.29	1712.10
190.51	1730.53
190.73	1578.98
190.95	1773.54
191.17	1718.25
191.39	1607.66
191.61	1640.42
191.84	1638.38
192.06	1695.72
192.28	1611.75
192.50	1902.56
192.72	1689.57
192.94	1716.20
193.16	1710.05
193.38	1699.81
193.60	1583.08
193.82	1634.28
194.04	1808.36
194.26	1673.19
194.48	1646.57
194.70	1640.42
194.92	1701.86
195.14	1691.62
195.36	1605.61
195.58	1769.44
195.80	1626.09
196.02	1714.15
196.24	1646.57
196.46	1708.01
196.69	1626.09
196.91	1841.12
197.13	1693.67
197.35	1683.43
197.57	1804.26
197.79	1746.92
198.01	1667.05
198.23	1724.39
198.45	1703.91
198.67	1660.90
198.89	1714.15
199.11	1744.87
199.33	1685.48
199.55	1581.03
199.77	1681.38
199.99	1773.54
200.21	1683.43
200.43	1718.25
200.65	1554.41
200.87	1632.23
201.09	1712.10
201.31	1656.81
201.53	1742.82
201.75	1728.49
201.97	1718.25
202.19	1708.01
202.41	1693.67
202.63	1861.60
202.85	1685.48
203.07	1675.24
203.29	1693.67
203.51	1621.99
203.73	1687.53
203.95	1867.75
204.17	1628.14
204.39	1685.48
204.61	1767.40
204.83	1712.10
205.05	1701.86
205.27	1746.92
205.49	1824.74
205.71	1697.77
205.93	1689.57
206.15	1695.72
206.37	1763.30
206.59	1705.96
206.81	1621.99
207.03	1626.09
207.25	1601.51
207.47	1714.15
207.69	1626.09
207.91	1800.16
208.13	1744.87
208.34	1605.61
208.56	1630.18
208.78	1720.29
209.00	1699.81
209.22	1681.38
209.44	1667.05
209.66	1642.47
209.88	1734.63
210.10	1689.57
210.32	1742.82
210.54	1751.01
210.76	1648.61
210.98	1738.73
211.20	1527.78
211.42	1710.05
211.64	1783.78
211.86	1732.58
212.08	1736.68
212.30	1755.11
212.52	1617.90
212.74	1699.81
212.96	1638.38
213.17	1763.30
213.39	1736.68
213.61	1798.12
213.83	1683.43
214.05	1648.61
214.27	1742.82
214.49	1710.05
214.71	1687.53
214.93	1763.30
215.15	1687.53
215.37	1751.01
215.59	1615.85
215.81	1701.86
216.03	1791.97
216.24	1667.05
216.46	1693.67
216.68	1671.14
216.90	1654.76
217.12	1740.77
217.34	1728.49
217.56	1755.11
217.78	1806.31
218.00	1730.53
218.22	1728.49
218.44	1736.68
218.66	1679.33
218.87	1837.03
219.09	1650.66
219.31	1765.35
219.53	1714.15
219.75	1689.57
219.97	1679.33
220.19	1697.77
220.41	1667.05
220.63	1679.33
220.85	1753.06
221.06	1677.29
221.28	1744.87
221.50	1738.73
221.72	1705.96
221.94	1642.47
222.16	1697.77
222.38	1708.01
222.60	1730.53
222.82	1763.30
223.03	1746.92
223.25	1691.62
223.47	1738.73
223.69	1853.41
223.91	1671.14
224.13	1734.63
224.35	1665.00
224.57	1796.07
224.78	1703.91
225.00	1589.22
225.22	1693.67
225.44	1703.91
225.66	1740.77
225.88	1695.72
226.10	1746.92
226.32	1757.16
226.53	1767.40
226.75	1681.38
226.97	1679.33
227.19	1726.44
227.41	1671.14
227.63	1619.94
227.85	1583.08
228.06	1662.95
228.28	1701.86
228.50	1712.10
228.72	1673.19
228.94	1607.66
229.16	1615.85
229.37	1656.81
229.59	1621.99
229.81	1751.01
230.03	1685.48
230.25	1568.74
230.47	1642.47
230.69	1642.47
230.90	1755.11
231.12	1636.33
231.34	1679.33
231.56	1689.57
231.78	1660.90
232.00	1728.49
232.21	1644.52
232.43	1673.19
232.65	1591.27
232.87	1748.97
233.09	1599.46
233.30	1660.90
233.52	1777.64
233.74	1683.43
233.96	1681.38
234.18	1724.39
234.40	1634.28
234.61	1843.17
234.83	1660.90
235.05	1640.42
235.27	1791.97
235.49	1699.81
235.70	1658.85
235.92	1773.54
236.14	1679.33
236.36	1800.16
236.58	1640.42
236.79	1724.39
237.01	1714.15
237.23	1718.25
237.45	1757.16
237.67	1665.00
237.88	1710.05
238.10	1781.73
238.32	1597.42
238.54	1775.59
238.76	1705.96
238.97	1681.38
239.19	1656.81
239.41	1796.07
239.63	1716.20
239.85	1665.00
240.06	1615.85
240.28	1689.57
240.50	1689.57
240.72	1695.72
240.93	1667.05
241.15	1705.96
241.37	1718.25
241.59	1806.31
241.81	1628.14
242.02	1689.57
242.24	1787.88
242.46	1748.97
242.68	1683.43
242.89	1779.68
243.11	1695.72
243.33	1693.67
243.55	1746.92
243.76	1738.73
243.98	1628.14
244.20	1632.23
244.42	1675.24
244.64	1658.85
244.85	1636.33
245.07	1652.71
245.29	1681.38
245.51	1763.30
245.72	1673.19
245.94	1699.81
246.16	1660.90
246.38	1755.11
246.59	1671.14
246.81	1658.85
247.03	1677.29
247.24	1624.04
247.46	1679.33
247.68	1703.91
247.90	1714.15
248.11	1634.28
248.33	1705.96
248.55	1777.64
248.77	1697.77
248.98	1753.06
249.20	1845.22
249.42	1730.53
249.64	1798.12
249.85	1751.01
250.07	1687.53
250.29	1683.43
250.50	1738.73
250.72	1636.33
250.94	1728.49
251.16	1769.44
251.37	1746.92
251.59	1693.67
251.81	1689.57
252.02	1791.97
252.24	1634.28
252.46	1837.03
252.68	1597.42
252.89	1628.14
253.11	1624.04
253.33	1771.49
253.54	1800.16
253.76	1626.09
253.98	1665.00
254.20	1609.70
254.41	1654.76
254.63	1693.67
254.85	1632.23
255.06	1697.77
255.28	1789.92
255.50	1742.82
255.71	1685.48
255.93	1691.62
256.15	1712.10
256.36	1673.19
256.58	1710.05
256.80	1722.34
257.02	1716.20
257.23	1722.34
257.45	1591.27
257.67	1675.24
257.88	1660.90
258.10	1759.21
258.32	1679.33
258.53	1675.24
258.75	1826.79
258.97	1648.61
259.18	1685.48
259.40	1720.29
259.62	1746.92
259.83	1746.92
260.05	1759.21
260.27	1982.43
260.48	1718.25
260.70	1644.52
260.92	1673.19
261.13	1730.53
261.35	1681.38
261.57	1822.69
261.78	1638.38
262.00	1662.95
262.22	1771.49
262.43	1652.71
262.65	1632.23
262.86	1724.39
263.08	1791.97
263.30	1665.00
263.51	1644.52
263.73	1708.01
263.95	1728.49
264.16	1730.53
264.38	1636.33
264.60	1675.24
264.81	1708.01
265.03	1804.26
265.25	1736.68
265.46	1581.03
265.68	1834.98
265.89	1734.63
266.11	1615.85
266.33	1703.91
266.54	1730.53
266.76	1689.57
266.98	1718.25
267.19	1779.68
267.41	1763.30
267.62	1710.05
267.84	1685.48
268.06	1644.52
268.27	1632.23
268.49	1775.59
268.70	1736.68
268.92	1757.16
269.14	1701.86
269.35	1681.38
269.57	1691.62
269.79	1783.78
270.00	1703.91
270.22	1779.68
270.43	1693.67
270.65	1626.09
270.87	1621.99
271.08	1773.54
271.30	1691.62
271.51	1626.09
271.73	1742.82
271.95	1796.07
272.16	1730.53
272.38	1722.34
272.59	1673.19
272.81	1753.06
273.02	1730.53
273.24	1703.91
273.46	1773.54
273.67	1665.00
273.89	1628.14
274.10	1669.09
274.32	1695.72
274.54	1662.95
274.75	1773.54
274.97	1718.25
275.18	1740.77
275.40	1716.20
275.61	1691.62
275.83	1763.30
276.05	1603.56
276.26	1671.14
276.48	1726.44
276.69	1708.01
276.91	1669.09
277.12	1773.54
277.34	1722.34
277.55	1740.77
277.77	1710.05
277.99	1654.76
278.20	1724.39
278.42	1587.18
278.63	1597.42
278.85	1685.48
279.06	1677.29
279.28	1732.58
279.49	1730.53
279.71	1732.58
279.93	1687.53
280.14	1634.28
280.36	1695.72
280.57	1746.92
280.79	1785.83
281.00	1665.00
281.22	1613.80
281.43	1787.88
281.65	1540.07
281.86	1634.28
282.08	1757.16
282.29	1806.31
282.51	1599.46
282.73	1617.90
282.94	1581.03
283.16	1720.29
283.37	1765.35
283.59	1673.19
283.80	1724.39
284.02	1667.05
284.23	1742.82
284.45	1687.53
284.66	1624.04
284.88	1605.61
285.09	1763.30
285.31	1681.38
285.52	1689.57
285.74	1581.03
285.95	1783.78
286.17	1705.96
286.38	1763.30
286.60	1689.57
286.81	1687.53
287.03	1611.75
287.24	1701.86
287.46	1738.73
287.67	1722.34
287.89	1789.92
288.10	1693.67
288.32	1751.01
288.53	1794.02
288.75	1689.57
288.96	1718.25
289.18	1677.29
289.39	1703.91
289.61	1720.29
289.82	1847.27
290.04	1740.77
290.25	1683.43
290.47	1730.53
290.68	1648.61
290.90	1779.68
291.11	1632.23
291.33	1851.36
291.54	1626.09
291.76	1603.56
291.97	1689.57
292.18	1736.68
292.40	1634.28
292.61	1753.06
292.83	1818.60
293.04	1728.49
293.26	1665.00
293.47	1689.57
293.69	1648.61
293.90	1691.62
294.12	1789.92
294.33	1644.52
294.55	1769.44
294.76	1779.68
294.97	1689.57
295.19	1875.94
295.40	1603.56
295.62	1667.05
295.83	1748.97
296.05	1679.33
296.26	1687.53
296.48	1689.57
296.69	1677.29
296.90	1699.81
297.12	1820.64
297.33	1742.82
297.55	1695.72
297.76	1718.25
297.98	1705.96
298.19	1685.48
298.41	1640.42
298.62	1595.37
298.83	1783.78
299.05	1701.86
299.26	1644.52
299.48	1693.67
299.69	1759.21
299.90	1771.49
300.12	1658.85
300.33	1665.00
300.55	1742.82
300.76	1765.35
300.98	1679.33
301.19	1736.68
301.40	1697.77
301.62	1691.62
301.83	1699.81
302.05	1724.39
302.26	1650.66
302.47	1636.33
302.69	1624.04
302.90	1736.68
303.12	1677.29
303.33	1763.30
303.54	1769.44
303.76	1685.48
303.97	1716.20
304.19	1781.73
304.40	1615.85
304.61	1714.15
304.83	1800.16
305.04	1712.10
305.26	1734.63
305.47	1656.81
305.68	1660.90
305.90	1640.42
306.11	1759.21
306.33	1771.49
306.54	1687.53
306.75	1730.53
306.97	1488.87
307.18	1683.43
307.39	1648.61
307.61	1687.53
307.82	1697.77
308.04	1808.36
308.25	1665.00
308.46	1730.53
308.68	1693.67
308.89	1691.62
309.10	1718.25
309.32	1691.62
309.53	1652.71
309.74	1708.01
309.96	1611.75
310.17	1724.39
310.39	1691.62
310.60	1716.20
310.81	1660.90
311.03	1589.22
311.24	1742.82
311.45	1714.15
311.67	1769.44
311.88	1656.81
312.09	1695.72
312.31	1718.25
312.52	1765.35
312.73	1621.99
312.95	1626.09
313.16	1611.75
313.37	1785.83
313.59	1773.54
313.80	1765.35
314.01	1773.54
314.23	1697.77
314.44	1730.53
314.65	1619.94
314.87	1734.63
315.08	1695.72
315.29	1691.62
315.51	1634.28
315.72	1562.60
315.93	1787.88
316.15	1720.29
316.36	1660.90
316.57	1789.92
316.79	1722.34
317.00	1587.18
317.21	1746.92
317.43	1605.61
317.64	1736.68
317.85	1605.61
318.07	1619.94
318.28	1757.16
318.49	1705.96
318.70	1912.80
318.92	1830.88
319.13	1765.35
319.34	1853.41
319.56	1847.27
319.77	1798.12
319.98	1787.88
320.20	1716.20
320.41	1773.54
320.62	1751.01
320.83	1648.61
321.05	1828.84
321.26	1685.48
321.47	1687.53
321.69	1761.25
321.90	1593.32
322.11	1658.85
322.32	1673.19
322.54	1775.59
322.75	1718.25
322.96	1849.32
323.18	1654.76
323.39	1636.33
323.60	1660.90
323.81	1763.30
324.03	1763.30
324.24	1665.00
324.45	1705.96
324.66	1740.77
324.88	1673.19
325.09	1802.21
325.30	1732.58
325.52	1697.77
325.73	1806.31
325.94	1599.46
326.15	1634.28
326.37	1650.66
326.58	1703.91
326.79	1859.56
327.00	1632.23
327.22	1703.91
327.43	1671.14
327.64	1599.46
327.85	1705.96
328.07	1685.48
328.28	1796.07
328.49	1683.43
328.70	1679.33
328.92	1730.53
329.13	1751.01
329.34	1673.19
329.55	1773.54
329.76	1740.77
329.98	1675.24
330.19	1746.92
330.40	1705.96
330.61	1656.81
330.83	1736.68
331.04	1531.88
331.25	1701.86
331.46	1665.00
331.68	1636.33
331.89	1748.97
332.10	1708.01
332.31	1585.13
332.52	1724.39
332.74	1798.12
332.95	1619.94
333.16	1724.39
333.37	1693.67
333.58	1703.91
333.80	1763.30
334.01	1613.80
334.22	1710.05
334.43	1601.51
334.64	1714.15
334.86	1652.71
335.07	1650.66
335.28	1767.40
335.49	1660.90
335.70	1710.05
335.92	1718.25
336.13	1843.17
336.34	1726.44
336.55	1669.09
336.76	1710.05
336.98	1615.85
337.19	1726.44
337.40	1783.78
337.61	1906.66
337.82	1665.00
338.04	1789.92
338.25	1644.52
338.46	1656.81
338.67	1626.09
338.88	1615.85
339.09	1642.47
339.31	1701.86
339.52	1646.57
339.73	1640.42
339.94	1796.07
340.15	1769.44
340.36	1685.48
340.58	1708.01
340.79	1693.67
341.00	1708.01
341.21	1669.09
341.42	1779.68
341.63	1669.09
341.85	1767.40
342.06	1779.68
342.27	1599.46
342.48	1718.25
342.69	1644.52
342.90	1685.48
343.12	1673.19
343.33	1714.15
343.54	1736.68
343.75	1789.92
343.96	1724.39
344.17	1624.04
344.38	1677.29
344.60	1660.90
344.81	1656.81
345.02	1656.81
345.23	1734.63
345.44	1751.01
345.65	1820.64
345.86	1726.44
346.07	1681.38
346.29	1654.76
346.50	1755.11
346.71	1632.23
346.92	1834.98
347.13	1751.01
347.34	1744.87
347.55	1710.05
347.76	1658.85
347.98	1673.19
348.19	1642.47
348.40	1787.88
348.61	1683.43
348.82	1810.40
349.03	1765.35
349.24	1642.47
349.45	1787.88
349.66	1572.84
349.88	1722.34
350.09	1712.10
350.30	1710.05
350.51	1773.54
350.72	1724.39
350.93	1650.66
351.14	1705.96
351.35	1781.73
351.56	1669.09
351.77	1761.25
351.99	1718.25
352.20	1781.73
352.41	1800.16
352.62	1589.22
352.83	1732.58
353.04	1619.94
353.25	1652.71
353.46	1757.16
353.67	1763.30
353.88	1632.23
354.09	1648.61
354.30	1689.57
354.52	1693.67
354.73	1634.28
354.94	1634.28
355.15	1722.34
355.36	1783.78
355.57	1673.19
355.78	1781.73
355.99	1724.39
356.20	1619.94
356.41	1718.25
356.62	1693.67
356.83	1773.54
357.04	1751.01
357.25	1615.85
357.46	1673.19
357.68	1644.52
357.89	1650.66
358.10	1652.71
358.31	1671.14
358.52	1654.76
358.73	1636.33
358.94	1697.77
359.15	1695.72
359.36	1697.77
359.57	1673.19
359.78	1646.57
359.99	1689.57
360.20	1673.19
360.41	1691.62
360.62	1738.73
360.83	1683.43
361.04	1767.40
361.25	1699.81
361.46	1816.55
361.67	1703.91
361.88	1710.05
362.09	1736.68
362.30	1689.57
362.51	1769.44
362.72	1681.38
362.93	1761.25
363.14	1716.20
363.35	1628.14
363.56	1718.25
363.78	1791.97
363.99	1718.25
364.20	1564.65
364.41	1761.25
364.62	1794.02
364.83	1767.40
365.04	1638.38
365.25	1773.54
365.46	1767.40
365.67	1658.85
365.88	1705.96
366.09	1746.92
366.30	1714.15
366.51	1683.43
366.72	1595.37
366.93	1734.63
367.14	1708.01
367.35	1802.21
367.56	1611.75
367.77	1847.27
367.98	1718.25
368.18	1746.92
368.39	1738.73
368.60	1628.14
368.81	1703.91
369.02	1773.54
369.23	1724.39
369.44	1576.94
369.65	1724.39
369.86	1675.24
370.07	1652.71
370.28	1673.19
370.49	1656.81
370.70	1703.91
370.91	1621.99
371.12	1656.81
371.33	1732.58
371.54	1712.10
371.75	1939.43
371.96	1574.89
372.17	1796.07
372.38	1658.85
372.59	1787.88
372.80	1591.27
373.01	1710.05
373.22	1705.96
373.43	1693.67
373.64	1683.43
373.85	1751.01
374.06	1849.32
374.26	1730.53
374.47	1757.16
374.68	1777.64
374.89	1710.05
375.10	1628.14
375.31	1712.10
375.52	1712.10
375.73	1673.19
375.94	1648.61
376.15	1775.59
376.36	1677.29
376.57	1646.57
376.78	1648.61
376.99	1660.90
377.20	1714.15
377.40	1665.00
377.61	1765.35
377.82	1656.81
378.03	1693.67
378.24	1769.44
378.45	1662.95
378.66	1660.90
378.87	1572.84
379.08	1654.76
379.29	1640.42
379.50	1701.86
379.71	1693.67
379.91	1732.58
380.12	1660.90
380.33	1685.48
380.54	1662.95
380.75	1685.48
380.96	1669.09
381.17	1730.53
381.38	1708.01
381.59	1710.05
381.80	1697.77
382.00	1880.04
382.21	1681.38
382.42	1804.26
382.63	1920.99
382.84	1724.39
383.05	1718.25
383.26	1800.16
383.47	1685.48
383.68	1695.72
383.88	1759.21
384.09	1734.63
384.30	1769.44
384.51	1755.11
384.72	1669.09
384.93	1681.38
385.14	1755.11
385.35	1789.92
385.55	1652.71
385.76	1693.67
385.97	1769.44
386.18	1556.46
386.39	1720.29
386.60	1693.67
386.81	1658.85
387.02	1681.38
387.22	1597.42
387.43	1785.83
387.64	1751.01
387.85	1873.89
388.06	2193.37
388.27	4116.42
388.48	6762.39
388.68	7972.74
388.89	9525.10
389.10	9291.63
389.31	8411.01
389.52	7296.91
389.73	6549.40
389.93	6100.90
390.14	5697.45
390.35	5025.72
390.56	4489.15
390.77	3690.44
390.98	2947.03
391.18	2412.51
391.39	2140.13
391.60	1794.02
391.81	1748.97
392.02	1718.25
392.23	1859.56
392.43	1751.01
392.64	1779.68
392.85	1675.24
393.06	1798.12
393.27	1769.44
393.47	1673.19
393.68	1722.34
393.89	1708.01
394.10	1806.31
394.31	1726.44
394.52	1624.04
394.72	1724.39
394.93	1824.74
395.14	1699.81
395.35	1753.06
395.56	1605.61
395.76	1718.25
395.97	1748.97
396.18	1822.69
396.39	1810.40
396.60	1992.67
396.80	1820.64
397.01	1959.91
397.22	1832.93
397.43	1849.32
397.64	1687.53
397.84	1812.45
398.05	1816.55
398.26	1701.86
398.47	1740.77
398.67	1781.73
398.88	1705.96
399.09	1730.53
399.30	1697.77
399.51	1718.25
399.71	1697.77
399.92	1695.72
400.13	1720.29
400.34	1699.81
400.54	1689.57
400.75	1789.92
400.96	1773.54
401.17	1738.73
401.37	1761.25
401.58	1757.16
401.79	1734.63
402.00	1820.64
402.21	1982.43
402.41	1912.80
402.62	1982.43
402.83	1964.00
403.04	1941.47
403.24	2062.30
403.45	1787.88
403.66	1923.04
403.87	1769.44
404.07	1822.69
404.28	1908.71
404.49	1777.64
404.70	1791.97
404.90	1744.87
405.11	1822.69
405.32	1802.21
405.52	1730.53
405.73	1650.66
405.94	1595.37
406.15	1675.24
406.35	1787.88
406.56	1816.55
406.77	1708.01
406.98	1667.05
407.18	1636.33
407.39	1796.07
407.60	1693.67
407.80	1718.25
408.01	1673.19
408.22	1783.78
408.43	1771.49
408.63	1751.01
408.84	1785.83
409.05	1697.77
409.25	1617.90
409.46	1699.81
409.67	1628.14
409.88	1673.19
410.08	1699.81
410.29	1734.63
410.50	1755.11
410.70	1781.73
410.91	1660.90
411.12	1705.96
411.32	1599.46
411.53	1734.63
411.74	1785.83
411.95	1693.67
412.15	1802.21
412.36	1828.84
412.57	1800.16
412.77	1781.73
412.98	1722.34
413.19	1734.63
413.39	1810.40
413.60	1789.92
413.81	1816.55
414.01	1691.62
414.22	1748.97
414.43	1812.45
414.63	1669.09
414.84	1681.38
415.05	1699.81
415.25	1660.90
415.46	1763.30
415.67	1644.52
415.87	1736.68
416.08	1755.11
416.29	1630.18
416.49	1802.21
416.70	1791.97
416.91	1744.87
417.11	1636.33
417.32	1757.16
417.53	1755.11
417.73	1785.83
417.94	1718.25
418.15	1726.44
418.35	1665.00
418.56	1671.14
418.77	1804.26
418.97	1720.29
419.18	1675.24
419.38	1597.42
419.59	1710.05
419.80	1783.78
420.00	1685.48
420.21	1773.54
420.42	1791.97
420.62	1673.19
420.83	1671.14
421.04	1761.25
421.24	1685.48
421.45	1615.85
421.65	1718.25
421.86	1640.42
422.07	1720.29
422.27	1738.73
422.48	1738.73
422.69	1710.05
422.89	1710.05
423.10	1746.92
423.30	1642.47
423.51	1697.77
423.72	1710.05
423.92	1744.87
424.13	1644.52
424.33	1681.38
424.54	1687.53
424.75	1679.33
424.95	1837.03
425.16	1679.33
425.36	1742.82
425.57	1787.88
425.78	1773.54
425.98	1751.01
426.19	1732.58
426.39	1626.09
426.60	1695.72
426.81	1824.74
427.01	1757.16
427.22	1656.81
427.42	1568.74
427.63	1687.53
427.83	1742.82
428.04	1781.73
428.25	1722.34
428.45	1734.63
428.66	1681.38
428.86	1669.09
429.07	1652.71
429.28	1681.38
429.48	1714.15
429.69	1646.57
429.89	1724.39
430.10	1640.42
430.30	1740.77
430.51	1665.00
430.71	1662.95
430.92	1691.62
431.13	1714.15
431.33	1730.53
431.54	1728.49
431.74	1744.87
431.95	1816.55
432.15	1695.72
432.36	1716.20
432.56	1781.73
432.77	1800.16
432.98	1873.89
433.18	1710.05
433.39	1681.38
433.59	1636.33
433.80	1820.64
434.00	1888.23
434.21	1685.48
434.41	1640.42
434.62	1763.30
434.82	1683.43
435.03	1591.27
435.23	1777.64
435.44	1578.98
435.64	1665.00
435.85	1728.49
436.06	1712.10
436.26	1744.87
436.47	1699.81
436.67	1710.05
436.88	1728.49
437.08	1746.92
437.29	1820.64
437.49	1679.33
437.70	1804.26
437.90	1691.62
438.11	1804.26
438.31	1710.05
438.52	1822.69
438.72	1804.26
438.93	1892.32
439.13	1804.26
439.34	1777.64
439.54	1742.82
439.75	1748.97
439.95	1757.16
440.16	1658.85
440.36	1738.73
440.57	1744.87
440.77	1779.68
440.98	1816.55
441.18	1761.25
441.39	1650.66
441.59	1585.13
441.80	1806.31
442.00	1765.35
442.21	1679.33
442.41	1576.94
442.62	1814.50
442.82	1730.53
443.02	1746.92
443.23	1714.15
443.43	1642.47
443.64	1857.51
443.84	1665.00
444.05	1781.73
444.25	1687.53
444.46	1722.34
444.66	1771.49
444.87	1783.78
445.07	1695.72
445.28	1695.72
445.48	1759.21
445.69	1763.30
445.89	1761.25
446.09	1794.02
446.30	1935.33
446.50	2531.29
446.71	3629.00
446.91	4122.56
447.12	4620.22
447.32	4679.61
447.53	4235.20
447.73	3801.03
447.93	3368.91
448.14	3233.74
448.34	3137.49
448.55	2867.16
448.75	2820.05
448.96	2668.50
449.16	2285.53
449.36	2240.48
449.57	2029.54
449.77	1892.32
449.98	1746.92
450.18	1746.92
450.39	1822.69
450.59	1781.73
450.79	1728.49
451.00	1746.92
451.20	1794.02
451.41	1744.87
451.61	1791.97
451.81	1720.29
452.02	1742.82
452.22	1714.15
452.43	1673.19
452.63	1675.24
