SpectraSuite Data File
++++++++++++++++++++++++++++++++++++
Date: Mon Jun 06 13:22:57 CEST 2016
User: root
Dark Spectrum Present: No
Reference Spectrum Present: No
Number of Sampled Component Spectra: 1
Spectrometers: USB4C02835
Integration Time (usec): 100000 (USB4C02835)
Spectra Averaged: 1 (USB4C02835)
Boxcar Smoothing: 0 (USB4C02835)
Correct for Electrical Dark: No (USB4C02835)
Strobe/Lamp Enabled: No (USB4C02835)
Correct for Detector Non-linearity: No (USB4C02835)
Correct for Stray Light: No (USB4C02835)
Number of Pixels in Processed Spectrum: 3648
>>>>>Begin Processed Spectral Data<<<<<
177.47	1470.44
177.69	1470.44
177.91	1470.44
178.13	1470.44
178.36	1509.35
178.58	1628.14
178.80	1685.48
179.02	1621.99
179.24	1640.42
179.46	1632.23
179.68	1767.40
179.90	1703.91
180.13	1675.24
180.35	1660.90
180.57	1710.05
180.79	1777.64
181.01	1736.68
181.23	1685.48
181.45	1771.49
181.67	1697.77
181.90	1746.92
182.12	1632.23
182.34	1613.80
182.56	1652.71
182.78	1714.15
183.00	1691.62
183.22	1683.43
183.44	1578.98
183.66	1843.17
183.89	1806.31
184.11	1685.48
184.33	1697.77
184.55	1748.97
184.77	1757.16
184.99	1628.14
185.21	1679.33
185.43	1853.41
185.65	1693.67
185.87	1679.33
186.10	1869.80
186.32	1828.84
186.54	1746.92
186.76	1646.57
186.98	1759.21
187.20	1671.14
187.42	1671.14
187.64	1681.38
187.86	1683.43
188.08	1746.92
188.30	1734.63
188.52	1671.14
188.75	1748.97
188.97	1720.29
189.19	1699.81
189.41	1748.97
189.63	1718.25
189.85	1611.75
190.07	1527.78
190.29	1630.18
190.51	1675.24
190.73	1609.70
190.95	1806.31
191.17	1699.81
191.39	1630.18
191.61	1689.57
191.84	1646.57
192.06	1740.77
192.28	1564.65
192.50	1845.22
192.72	1652.71
192.94	1650.66
193.16	1816.55
193.38	1665.00
193.60	1632.23
193.82	1705.96
194.04	1757.16
194.26	1697.77
194.48	1693.67
194.70	1703.91
194.92	1722.34
195.14	1732.58
195.36	1693.67
195.58	1648.61
195.80	1656.81
196.02	1662.95
196.24	1658.85
196.46	1705.96
196.69	1673.19
196.91	1828.84
197.13	1662.95
197.35	1675.24
197.57	1757.16
197.79	1775.59
198.01	1695.72
198.23	1683.43
198.45	1722.34
198.67	1695.72
198.89	1654.76
199.11	1796.07
199.33	1675.24
199.55	1632.23
199.77	1708.01
199.99	1765.35
200.21	1714.15
200.43	1689.57
200.65	1681.38
200.87	1587.18
201.09	1714.15
201.31	1675.24
201.53	1820.64
201.75	1738.73
201.97	1728.49
202.19	1703.91
202.41	1716.20
202.63	1828.84
202.85	1734.63
203.07	1724.39
203.29	1681.38
203.51	1636.33
203.73	1644.52
203.95	1814.50
204.17	1681.38
204.39	1734.63
204.61	1654.76
204.83	1740.77
205.05	1753.06
205.27	1738.73
205.49	1820.64
205.71	1654.76
205.93	1613.80
206.15	1724.39
206.37	1693.67
206.59	1665.00
206.81	1703.91
207.03	1675.24
207.25	1644.52
207.47	1771.49
207.69	1769.44
207.91	1699.81
208.13	1787.88
208.34	1751.01
208.56	1603.56
208.78	1734.63
209.00	1681.38
209.22	1644.52
209.44	1671.14
209.66	1617.90
209.88	1705.96
210.10	1693.67
210.32	1677.29
210.54	1804.26
210.76	1683.43
210.98	1712.10
211.20	1576.94
211.42	1681.38
211.64	1806.31
211.86	1771.49
212.08	1732.58
212.30	1722.34
212.52	1724.39
212.74	1718.25
212.96	1710.05
213.17	1726.44
213.39	1740.77
213.61	1773.54
213.83	1728.49
214.05	1583.08
214.27	1767.40
214.49	1638.38
214.71	1652.71
214.93	1751.01
215.15	1716.20
215.37	1722.34
215.59	1634.28
215.81	1738.73
216.03	1814.50
216.24	1679.33
216.46	1728.49
216.68	1689.57
216.90	1763.30
217.12	1779.68
217.34	1677.29
217.56	1619.94
217.78	1775.59
218.00	1755.11
218.22	1708.01
218.44	1714.15
218.66	1718.25
218.87	1746.92
219.09	1644.52
219.31	1697.77
219.53	1689.57
219.75	1734.63
219.97	1640.42
220.19	1732.58
220.41	1742.82
220.63	1703.91
220.85	1734.63
221.06	1671.14
221.28	1808.36
221.50	1714.15
221.72	1681.38
221.94	1712.10
222.16	1681.38
222.38	1755.11
222.60	1755.11
222.82	1740.77
223.03	1671.14
223.25	1648.61
223.47	1789.92
223.69	1826.79
223.91	1734.63
224.13	1648.61
224.35	1699.81
224.57	1806.31
224.78	1765.35
225.00	1615.85
225.22	1685.48
225.44	1738.73
225.66	1638.38
225.88	1701.86
226.10	1761.25
226.32	1730.53
226.53	1724.39
226.75	1656.81
226.97	1648.61
227.19	1656.81
227.41	1636.33
227.63	1607.66
227.85	1660.90
228.06	1724.39
228.28	1746.92
228.50	1693.67
228.72	1716.20
228.94	1626.09
229.16	1568.74
229.37	1634.28
229.59	1705.96
229.81	1804.26
230.03	1753.06
230.25	1665.00
230.47	1665.00
230.69	1662.95
230.90	1671.14
231.12	1595.37
231.34	1714.15
231.56	1742.82
231.78	1646.57
232.00	1697.77
232.21	1658.85
232.43	1722.34
232.65	1568.74
232.87	1720.29
233.09	1660.90
233.30	1665.00
233.52	1710.05
233.74	1634.28
233.96	1667.05
234.18	1671.14
234.40	1640.42
234.61	1847.27
234.83	1525.74
235.05	1675.24
235.27	1845.22
235.49	1726.44
235.70	1759.21
235.92	1806.31
236.14	1818.60
236.36	1746.92
236.58	1560.55
236.79	1724.39
237.01	1710.05
237.23	1689.57
237.45	1773.54
237.67	1669.09
237.88	1718.25
238.10	1755.11
238.32	1665.00
238.54	1667.05
238.76	1681.38
238.97	1687.53
239.19	1621.99
239.41	1722.34
239.63	1796.07
239.85	1595.37
240.06	1730.53
240.28	1665.00
240.50	1834.98
240.72	1763.30
240.93	1624.04
241.15	1796.07
241.37	1595.37
241.59	1748.97
241.81	1705.96
242.02	1718.25
242.24	1658.85
242.46	1722.34
242.68	1718.25
242.89	1753.06
243.11	1724.39
243.33	1742.82
243.55	1685.48
243.76	1773.54
243.98	1630.18
244.20	1687.53
244.42	1691.62
244.64	1660.90
244.85	1609.70
245.07	1583.08
245.29	1769.44
245.51	1693.67
245.72	1767.40
245.94	1853.41
246.16	1757.16
246.38	1708.01
246.59	1644.52
246.81	1716.20
247.03	1677.29
247.24	1619.94
247.46	1687.53
247.68	1667.05
247.90	1730.53
248.11	1617.90
248.33	1669.09
248.55	1640.42
248.77	1695.72
248.98	1728.49
249.20	1753.06
249.42	1716.20
249.64	1695.72
249.85	1714.15
250.07	1751.01
250.29	1701.86
250.50	1740.77
250.72	1562.60
250.94	1679.33
251.16	1830.88
251.37	1759.21
251.59	1775.59
251.81	1708.01
252.02	1730.53
252.24	1638.38
252.46	1740.77
252.68	1640.42
252.89	1720.29
253.11	1605.61
253.33	1800.16
253.54	1802.21
253.76	1626.09
253.98	1728.49
254.20	1673.19
254.41	1683.43
254.63	1716.20
254.85	1619.94
255.06	1681.38
255.28	1675.24
255.50	1726.44
255.71	1652.71
255.93	1652.71
256.15	1685.48
256.36	1652.71
256.58	1679.33
256.80	1771.49
257.02	1654.76
257.23	1667.05
257.45	1673.19
257.67	1751.01
257.88	1646.57
258.10	1708.01
258.32	1716.20
258.53	1732.58
258.75	1845.22
258.97	1701.86
259.18	1718.25
259.40	1632.23
259.62	1714.15
259.83	1779.68
260.05	1703.91
260.27	1986.53
260.48	1783.78
260.70	1705.96
260.92	1675.24
261.13	1703.91
261.35	1685.48
261.57	1761.25
261.78	1558.50
262.00	1691.62
262.22	1808.36
262.43	1705.96
262.65	1626.09
262.86	1724.39
263.08	1806.31
263.30	1697.77
263.51	1605.61
263.73	1708.01
263.95	1763.30
264.16	1699.81
264.38	1621.99
264.60	1701.86
264.81	1751.01
265.03	1685.48
265.25	1716.20
265.46	1677.29
265.68	1771.49
265.89	1777.64
266.11	1509.35
266.33	1789.92
266.54	1720.29
266.76	1736.68
266.98	1712.10
267.19	1783.78
267.41	1697.77
267.62	1695.72
267.84	1601.51
268.06	1734.63
268.27	1695.72
268.49	1908.71
268.70	1757.16
268.92	1697.77
269.14	1638.38
269.35	1626.09
269.57	1746.92
269.79	1667.05
270.00	1646.57
270.22	1751.01
270.43	1648.61
270.65	1544.17
270.87	1714.15
271.08	1714.15
271.30	1775.59
271.51	1681.38
271.73	1705.96
271.95	1775.59
272.16	1701.86
272.38	1765.35
272.59	1705.96
272.81	1765.35
273.02	1710.05
273.24	1705.96
273.46	1728.49
273.67	1658.85
273.89	1710.05
274.10	1691.62
274.32	1679.33
274.54	1665.00
274.75	1677.29
274.97	1687.53
275.18	1779.68
275.40	1708.01
275.61	1654.76
275.83	1642.47
276.05	1660.90
276.26	1724.39
276.48	1726.44
276.69	1667.05
276.91	1724.39
277.12	1734.63
277.34	1796.07
277.55	1708.01
277.77	1703.91
277.99	1716.20
278.20	1675.24
278.42	1656.81
278.63	1728.49
278.85	1583.08
279.06	1542.12
279.28	1689.57
279.49	1767.40
279.71	1726.44
279.93	1779.68
280.14	1669.09
280.36	1667.05
280.57	1712.10
280.79	1771.49
281.00	1599.46
281.22	1667.05
281.43	1769.44
281.65	1603.56
281.86	1636.33
282.08	1689.57
282.29	1863.65
282.51	1658.85
282.73	1654.76
282.94	1581.03
283.16	1783.78
283.37	1783.78
283.59	1726.44
283.80	1712.10
284.02	1730.53
284.23	1722.34
284.45	1689.57
284.66	1675.24
284.88	1621.99
285.09	1675.24
285.31	1755.11
285.52	1740.77
285.74	1662.95
285.95	1708.01
286.17	1689.57
286.38	1617.90
286.60	1722.34
286.81	1679.33
287.03	1773.54
287.24	1644.52
287.46	1656.81
287.67	1673.19
287.89	1839.08
288.10	1640.42
288.32	1757.16
288.53	1798.12
288.75	1689.57
288.96	1646.57
289.18	1632.23
289.39	1624.04
289.61	1755.11
289.82	1853.41
290.04	1828.84
290.25	1589.22
290.47	1665.00
290.68	1685.48
290.90	1787.88
291.11	1720.29
291.33	1679.33
291.54	1638.38
291.76	1660.90
291.97	1675.24
292.18	1732.58
292.40	1619.94
292.61	1619.94
292.83	1845.22
293.04	1718.25
293.26	1740.77
293.47	1734.63
293.69	1712.10
293.90	1748.97
294.12	1822.69
294.33	1658.85
294.55	1761.25
294.76	1791.97
294.97	1824.74
295.19	1779.68
295.40	1689.57
295.62	1732.58
295.83	1714.15
296.05	1642.47
296.26	1695.72
296.48	1697.77
296.69	1671.14
296.90	1652.71
297.12	1796.07
297.33	1693.67
297.55	1701.86
297.76	1736.68
297.98	1724.39
298.19	1648.61
298.41	1634.28
298.62	1634.28
298.83	1695.72
299.05	1771.49
299.26	1640.42
299.48	1652.71
299.69	1712.10
299.90	1656.81
300.12	1681.38
300.33	1757.16
300.55	1648.61
300.76	1734.63
300.98	1691.62
301.19	1787.88
301.40	1632.23
301.62	1665.00
301.83	1746.92
302.05	1703.91
302.26	1726.44
302.47	1693.67
302.69	1665.00
302.90	1712.10
303.12	1603.56
303.33	1736.68
303.54	1855.46
303.76	1617.90
303.97	1697.77
304.19	1851.36
304.40	1705.96
304.61	1718.25
304.83	1771.49
305.04	1822.69
305.26	1716.20
305.47	1691.62
305.68	1732.58
305.90	1624.04
306.11	1730.53
306.33	1632.23
306.54	1617.90
306.75	1591.27
306.97	1646.57
307.18	1644.52
307.39	1710.05
307.61	1740.77
307.82	1671.14
308.04	1755.11
308.25	1710.05
308.46	1679.33
308.68	1705.96
308.89	1724.39
309.10	1767.40
309.32	1685.48
309.53	1662.95
309.74	1710.05
309.96	1701.86
310.17	1740.77
310.39	1679.33
310.60	1728.49
310.81	1722.34
311.03	1673.19
311.24	1769.44
311.45	1648.61
311.67	1769.44
311.88	1703.91
312.09	1667.05
312.31	1691.62
312.52	1611.75
312.73	1738.73
312.95	1665.00
313.16	1609.70
313.37	1781.73
313.59	1746.92
313.80	1781.73
314.01	1705.96
314.23	1638.38
314.44	1710.05
314.65	1621.99
314.87	1755.11
315.08	1646.57
315.29	1621.99
315.51	1628.14
315.72	1652.71
315.93	1820.64
316.15	1691.62
316.36	1736.68
316.57	1718.25
316.79	1734.63
317.00	1736.68
317.21	1662.95
317.43	1705.96
317.64	1628.14
317.85	1720.29
318.07	1671.14
318.28	1726.44
318.49	1773.54
318.70	1976.29
318.92	1806.31
319.13	1771.49
319.34	1880.04
319.56	1736.68
319.77	1730.53
319.98	1765.35
320.20	1751.01
320.41	1794.02
320.62	1775.59
320.83	1691.62
321.05	1861.60
321.26	1679.33
321.47	1791.97
321.69	1742.82
321.90	1632.23
322.11	1681.38
322.32	1652.71
322.54	1685.48
322.75	1712.10
322.96	1857.51
323.18	1611.75
323.39	1591.27
323.60	1667.05
323.81	1777.64
324.03	1677.29
324.24	1607.66
324.45	1660.90
324.66	1703.91
324.88	1798.12
325.09	1726.44
325.30	1642.47
325.52	1710.05
325.73	1681.38
325.94	1603.56
326.15	1665.00
326.37	1712.10
326.58	1753.06
326.79	1865.70
327.00	1730.53
327.22	1675.24
327.43	1685.48
327.64	1632.23
327.85	1738.73
328.07	1689.57
328.28	1763.30
328.49	1742.82
328.70	1677.29
328.92	1689.57
329.13	1716.20
329.34	1705.96
329.55	1781.73
329.76	1775.59
329.98	1658.85
330.19	1736.68
330.40	1765.35
330.61	1679.33
330.83	1738.73
331.04	1730.53
331.25	1693.67
331.46	1746.92
331.68	1644.52
331.89	1771.49
332.10	1695.72
332.31	1621.99
332.52	1712.10
332.74	1746.92
332.95	1665.00
333.16	1722.34
333.37	1781.73
333.58	1689.57
333.80	1681.38
334.01	1630.18
334.22	1724.39
334.43	1660.90
334.64	1632.23
334.86	1609.70
335.07	1673.19
335.28	1779.68
335.49	1613.80
335.70	1648.61
335.92	1755.11
336.13	1796.07
336.34	1738.73
336.55	1648.61
336.76	1650.66
336.98	1578.98
337.19	1687.53
337.40	1791.97
337.61	1746.92
337.82	1710.05
338.04	1716.20
338.25	1669.09
338.46	1648.61
338.67	1685.48
338.88	1607.66
339.09	1656.81
339.31	1642.47
339.52	1542.12
339.73	1673.19
339.94	1718.25
340.15	1810.40
340.36	1677.29
340.58	1677.29
340.79	1695.72
341.00	1718.25
341.21	1636.33
341.42	1775.59
341.63	1699.81
341.85	1738.73
342.06	1628.14
342.27	1611.75
342.48	1808.36
342.69	1576.94
342.90	1685.48
343.12	1644.52
343.33	1730.53
343.54	1683.43
343.75	1703.91
343.96	1693.67
344.17	1685.48
344.38	1708.01
344.60	1679.33
344.81	1591.27
345.02	1644.52
345.23	1791.97
345.44	1822.69
345.65	1824.74
345.86	1796.07
346.07	1656.81
346.29	1640.42
346.50	1693.67
346.71	1740.77
346.92	1748.97
347.13	1765.35
347.34	1673.19
347.55	1673.19
347.76	1740.77
347.98	1673.19
348.19	1628.14
348.40	1789.92
348.61	1638.38
348.82	1738.73
349.03	1738.73
349.24	1712.10
349.45	1796.07
349.66	1605.61
349.88	1640.42
350.09	1705.96
350.30	1759.21
350.51	1806.31
350.72	1652.71
350.93	1714.15
351.14	1671.14
351.35	1734.63
351.56	1681.38
351.77	1728.49
351.99	1710.05
352.20	1789.92
352.41	1822.69
352.62	1585.13
352.83	1710.05
353.04	1652.71
353.25	1695.72
353.46	1705.96
353.67	1746.92
353.88	1587.18
354.09	1740.77
354.30	1648.61
354.52	1742.82
354.73	1736.68
354.94	1611.75
355.15	1652.71
355.36	1822.69
355.57	1689.57
355.78	1718.25
355.99	1683.43
356.20	1644.52
356.41	1718.25
356.62	1732.58
356.83	1769.44
357.04	1722.34
357.25	1689.57
357.46	1636.33
357.68	1646.57
357.89	1730.53
358.10	1685.48
358.31	1638.38
358.52	1714.15
358.73	1650.66
358.94	1673.19
359.15	1689.57
359.36	1730.53
359.57	1789.92
359.78	1687.53
359.99	1728.49
360.20	1644.52
360.41	1675.24
360.62	1693.67
360.83	1691.62
361.04	1650.66
361.25	1744.87
361.46	1845.22
361.67	1638.38
361.88	1732.58
362.09	1755.11
362.30	1705.96
362.51	1693.67
362.72	1640.42
362.93	1791.97
363.14	1738.73
363.35	1730.53
363.56	1648.61
363.78	1714.15
363.99	1796.07
364.20	1669.09
364.41	1746.92
364.62	1830.88
364.83	1722.34
365.04	1685.48
365.25	1640.42
365.46	1791.97
365.67	1667.05
365.88	1583.08
366.09	1654.76
366.30	1722.34
366.51	1716.20
366.72	1634.28
366.93	1705.96
367.14	1724.39
367.35	1781.73
367.56	1701.86
367.77	1755.11
367.98	1673.19
368.18	1740.77
368.39	1679.33
368.60	1654.76
368.81	1783.78
369.02	1732.58
369.23	1650.66
369.44	1613.80
369.65	1673.19
369.86	1806.31
370.07	1744.87
370.28	1689.57
370.49	1736.68
370.70	1759.21
370.91	1654.76
371.12	1683.43
371.33	1767.40
371.54	1665.00
371.75	1642.47
371.96	1619.94
372.17	1689.57
372.38	1675.24
372.59	1730.53
372.80	1566.70
373.01	1728.49
373.22	1648.61
373.43	1685.48
373.64	1654.76
373.85	1783.78
374.06	1732.58
374.26	1734.63
374.47	1675.24
374.68	1779.68
374.89	1708.01
375.10	1628.14
375.31	1718.25
375.52	1667.05
375.73	1714.15
375.94	1626.09
376.15	1763.30
376.36	1673.19
376.57	1648.61
376.78	1705.96
376.99	1677.29
377.20	1703.91
377.40	1662.95
377.61	1753.06
377.82	1611.75
378.03	1718.25
378.24	1789.92
378.45	1748.97
378.66	1751.01
378.87	1615.85
379.08	1632.23
379.29	1751.01
379.50	1771.49
379.71	1621.99
379.91	1746.92
380.12	1695.72
380.33	1703.91
380.54	1624.04
380.75	1726.44
380.96	1658.85
381.17	1857.51
381.38	1746.92
381.59	1726.44
381.80	1724.39
382.00	1865.70
382.21	1779.68
382.42	1820.64
382.63	1855.46
382.84	1730.53
383.05	1718.25
383.26	1841.12
383.47	1740.77
383.68	1771.49
383.88	1753.06
384.09	1732.58
384.30	1822.69
384.51	1753.06
384.72	1652.71
384.93	1640.42
385.14	1701.86
385.35	1746.92
385.55	1660.90
385.76	1742.82
385.97	1710.05
386.18	1636.33
386.39	1695.72
386.60	1632.23
386.81	1658.85
387.02	1646.57
387.22	1634.28
387.43	1818.60
387.64	1884.13
387.85	1863.65
388.06	2138.08
388.27	4419.52
388.48	6834.07
388.68	8226.69
388.89	9557.87
389.10	9797.48
389.31	8609.66
389.52	7546.76
389.73	6678.43
389.93	6289.31
390.14	5965.73
390.35	5214.13
390.56	4583.35
390.77	3712.97
390.98	3000.27
391.18	2508.76
391.39	2140.13
391.60	1851.36
391.81	1818.60
392.02	1697.77
392.23	1767.40
392.43	1765.35
392.64	1767.40
392.85	1779.68
393.06	1861.60
393.27	1736.68
393.47	1689.57
393.68	1658.85
393.89	1687.53
394.10	1781.73
394.31	1765.35
394.52	1609.70
394.72	1593.32
394.93	1738.73
395.14	1642.47
395.35	1773.54
395.56	1681.38
395.76	1740.77
395.97	1753.06
396.18	1914.85
396.39	1861.60
396.60	2047.97
396.80	1873.89
397.01	1828.84
397.22	1847.27
397.43	1789.92
397.64	1726.44
397.84	1767.40
398.05	1855.46
398.26	1708.01
398.47	1708.01
398.67	1738.73
398.88	1738.73
399.09	1767.40
399.30	1642.47
399.51	1701.86
399.71	1619.94
399.92	1699.81
400.13	1687.53
400.34	1697.77
400.54	1691.62
400.75	1832.93
400.96	1765.35
401.17	1816.55
401.37	1703.91
401.58	1691.62
401.79	1759.21
402.00	1830.88
402.21	2037.73
402.41	2025.44
402.62	1914.85
402.83	2029.54
403.04	1998.82
403.24	2082.78
403.45	1871.84
403.66	1937.38
403.87	1900.52
404.07	1855.46
404.28	1847.27
404.49	1968.10
404.70	1734.63
404.90	1775.59
405.11	1716.20
405.32	1773.54
405.52	1671.14
405.73	1671.14
405.94	1640.42
406.15	1779.68
406.35	1791.97
406.56	1769.44
406.77	1703.91
406.98	1724.39
407.18	1734.63
407.39	1718.25
407.60	1665.00
407.80	1761.25
408.01	1648.61
408.22	1728.49
408.43	1578.98
408.63	1701.86
408.84	1779.68
409.05	1746.92
409.25	1660.90
409.46	1648.61
409.67	1611.75
409.88	1669.09
410.08	1722.34
410.29	1728.49
410.50	1640.42
410.70	1730.53
410.91	1646.57
411.12	1683.43
411.32	1656.81
411.53	1720.29
411.74	1796.07
411.95	1775.59
412.15	1763.30
412.36	1742.82
412.57	1775.59
412.77	1771.49
412.98	1708.01
413.19	1642.47
413.39	1765.35
413.60	1773.54
413.81	1828.84
414.01	1654.76
414.22	1701.86
414.43	1722.34
414.63	1705.96
414.84	1720.29
415.05	1789.92
415.25	1656.81
415.46	1726.44
415.67	1718.25
415.87	1683.43
416.08	1714.15
416.29	1624.04
416.49	1681.38
416.70	1681.38
416.91	1681.38
417.11	1708.01
417.32	1667.05
417.53	1773.54
417.73	1732.58
417.94	1724.39
418.15	1726.44
418.35	1648.61
418.56	1652.71
418.77	1888.23
418.97	1685.48
419.18	1732.58
419.38	1615.85
419.59	1671.14
419.80	1810.40
420.00	1669.09
420.21	1675.24
420.42	1783.78
420.62	1742.82
420.83	1677.29
421.04	1624.04
421.24	1640.42
421.45	1675.24
421.65	1722.34
421.86	1667.05
422.07	1697.77
422.27	1742.82
422.48	1718.25
422.69	1665.00
422.89	1656.81
423.10	1654.76
423.30	1601.51
423.51	1726.44
423.72	1638.38
423.92	1746.92
424.13	1644.52
424.33	1779.68
424.54	1757.16
424.75	1718.25
424.95	1798.12
425.16	1632.23
425.36	1648.61
425.57	1800.16
425.78	1724.39
425.98	1759.21
426.19	1621.99
426.39	1632.23
426.60	1730.53
426.81	1853.41
427.01	1738.73
427.22	1667.05
427.42	1587.18
427.63	1652.71
427.83	1691.62
428.04	1830.88
428.25	1841.12
428.45	1726.44
428.66	1822.69
428.86	1718.25
429.07	1701.86
429.28	1665.00
429.48	1718.25
429.69	1640.42
429.89	1734.63
430.10	1619.94
430.30	1781.73
430.51	1787.88
430.71	1701.86
430.92	1712.10
431.13	1708.01
431.33	1675.24
431.54	1779.68
431.74	1726.44
431.95	1863.65
432.15	1644.52
432.36	1650.66
432.56	1789.92
432.77	1832.93
432.98	1847.27
433.18	1683.43
433.39	1669.09
433.59	1697.77
433.80	1884.13
434.00	1869.80
434.21	1683.43
434.41	1697.77
434.62	1765.35
434.82	1624.04
435.03	1675.24
435.23	1681.38
435.44	1550.31
435.64	1722.34
435.85	1691.62
436.06	1712.10
436.26	1769.44
436.47	1662.95
436.67	1667.05
436.88	1673.19
437.08	1675.24
437.29	1789.92
437.49	1667.05
437.70	1771.49
437.90	1734.63
438.11	1896.42
438.31	1847.27
438.52	1849.32
438.72	1912.80
438.93	1904.61
439.13	1757.16
439.34	1837.03
439.54	1736.68
439.75	1849.32
439.95	1771.49
440.16	1740.77
440.36	1710.05
440.57	1796.07
440.77	1705.96
440.98	1730.53
441.18	1806.31
441.39	1681.38
441.59	1705.96
441.80	1871.84
442.00	1728.49
442.21	1806.31
442.41	1646.57
442.62	1699.81
442.82	1685.48
443.02	1648.61
443.23	1716.20
443.43	1738.73
443.64	1808.36
443.84	1665.00
444.05	1796.07
444.25	1775.59
444.46	1804.26
444.66	1658.85
444.87	1806.31
445.07	1644.52
445.28	1720.29
445.48	1814.50
445.69	1751.01
445.89	1781.73
446.09	1742.82
446.30	2045.92
446.50	2598.87
446.71	3745.73
446.91	4341.69
447.12	4782.01
447.32	4892.60
447.53	4290.49
447.73	3829.70
447.93	3477.45
448.14	3373.00
448.34	3229.65
448.55	2899.92
448.75	2885.59
448.96	2717.65
449.16	2387.93
449.36	2213.85
449.57	2140.13
449.77	1859.56
449.98	1726.44
450.18	1734.63
450.39	1794.02
450.59	1722.34
450.79	1781.73
451.00	1687.53
451.20	1751.01
451.41	1730.53
451.61	1767.40
451.81	1748.97
452.02	1701.86
452.22	1714.15
452.43	1746.92
452.63	1615.85
