SpectraSuite Data File
++++++++++++++++++++++++++++++++++++
Date: Mon Jun 06 14:42:37 CEST 2016
User: root
Dark Spectrum Present: No
Reference Spectrum Present: No
Number of Sampled Component Spectra: 1
Spectrometers: USB4C02835
Integration Time (usec): 100000 (USB4C02835)
Spectra Averaged: 1 (USB4C02835)
Boxcar Smoothing: 0 (USB4C02835)
Correct for Electrical Dark: No (USB4C02835)
Strobe/Lamp Enabled: No (USB4C02835)
Correct for Detector Non-linearity: No (USB4C02835)
Correct for Stray Light: No (USB4C02835)
Number of Pixels in Processed Spectrum: 3648
>>>>>Begin Processed Spectral Data<<<<<
177.47	1452.01
177.69	1452.01
177.91	1452.01
178.13	1452.01
178.36	1413.10
178.58	1570.79
178.80	1722.34
179.02	1751.01
179.24	1685.48
179.46	1728.49
179.68	1755.11
179.90	1638.38
180.13	1800.16
180.35	1701.86
180.57	1722.34
180.79	1796.07
181.01	1656.81
181.23	1738.73
181.45	1781.73
181.67	1728.49
181.90	1744.87
182.12	1681.38
182.34	1615.85
182.56	1751.01
182.78	1636.33
183.00	1626.09
183.22	1677.29
183.44	1632.23
183.66	1800.16
183.89	1806.31
184.11	1705.96
184.33	1693.67
184.55	1755.11
184.77	1683.43
184.99	1705.96
185.21	1658.85
185.43	1841.12
185.65	1695.72
185.87	1681.38
186.10	1783.78
186.32	1802.21
186.54	1722.34
186.76	1718.25
186.98	1748.97
187.20	1681.38
187.42	1705.96
187.64	1675.24
187.86	1730.53
188.08	1724.39
188.30	1673.19
188.52	1716.20
188.75	1705.96
188.97	1708.01
189.19	1662.95
189.41	1728.49
189.63	1691.62
189.85	1710.05
190.07	1628.14
190.29	1609.70
190.51	1712.10
190.73	1708.01
190.95	1708.01
191.17	1644.52
191.39	1591.27
191.61	1681.38
191.84	1636.33
192.06	1748.97
192.28	1621.99
192.50	1914.85
192.72	1751.01
192.94	1775.59
193.16	1751.01
193.38	1714.15
193.60	1669.09
193.82	1708.01
194.04	1710.05
194.26	1759.21
194.48	1708.01
194.70	1630.18
194.92	1701.86
195.14	1763.30
195.36	1703.91
195.58	1667.05
195.80	1687.53
196.02	1632.23
196.24	1695.72
196.46	1746.92
196.69	1712.10
196.91	1816.55
197.13	1722.34
197.35	1755.11
197.57	1865.70
197.79	1708.01
198.01	1740.77
198.23	1748.97
198.45	1691.62
198.67	1521.64
198.89	1712.10
199.11	1705.96
199.33	1681.38
199.55	1560.55
199.77	1640.42
199.99	1742.82
200.21	1705.96
200.43	1701.86
200.65	1644.52
200.87	1632.23
201.09	1624.04
201.31	1648.61
201.53	1771.49
201.75	1722.34
201.97	1738.73
202.19	1771.49
202.41	1742.82
202.63	1812.45
202.85	1675.24
203.07	1730.53
203.29	1677.29
203.51	1546.22
203.73	1751.01
203.95	1859.56
204.17	1730.53
204.39	1732.58
204.61	1724.39
204.83	1673.19
205.05	1757.16
205.27	1798.12
205.49	1779.68
205.71	1748.97
205.93	1652.71
206.15	1685.48
206.37	1679.33
206.59	1701.86
206.81	1703.91
207.03	1617.90
207.25	1628.14
207.47	1761.25
207.69	1658.85
207.91	1779.68
208.13	1751.01
208.34	1640.42
208.56	1644.52
208.78	1779.68
209.00	1695.72
209.22	1699.81
209.44	1691.62
209.66	1615.85
209.88	1703.91
210.10	1636.33
210.32	1724.39
210.54	1787.88
210.76	1708.01
210.98	1710.05
211.20	1581.03
211.42	1779.68
211.64	1779.68
211.86	1691.62
212.08	1710.05
212.30	1751.01
212.52	1705.96
212.74	1722.34
212.96	1726.44
213.17	1681.38
213.39	1667.05
213.61	1779.68
213.83	1695.72
214.05	1576.94
214.27	1718.25
214.49	1656.81
214.71	1687.53
214.93	1705.96
215.15	1632.23
215.37	1796.07
215.59	1636.33
215.81	1716.20
216.03	1763.30
216.24	1656.81
216.46	1738.73
216.68	1660.90
216.90	1726.44
217.12	1740.77
217.34	1636.33
217.56	1765.35
217.78	1736.68
218.00	1714.15
218.22	1789.92
218.44	1705.96
218.66	1724.39
218.87	1804.26
219.09	1687.53
219.31	1722.34
219.53	1699.81
219.75	1658.85
219.97	1677.29
220.19	1812.45
220.41	1648.61
220.63	1716.20
220.85	1693.67
221.06	1644.52
221.28	1767.40
221.50	1738.73
221.72	1691.62
221.94	1675.24
222.16	1650.66
222.38	1771.49
222.60	1673.19
222.82	1681.38
223.03	1679.33
223.25	1638.38
223.47	1843.17
223.69	1755.11
223.91	1689.57
224.13	1675.24
224.35	1658.85
224.57	1828.84
224.78	1716.20
225.00	1689.57
225.22	1703.91
225.44	1714.15
225.66	1701.86
225.88	1712.10
226.10	1724.39
226.32	1787.88
226.53	1873.89
226.75	1679.33
226.97	1658.85
227.19	1726.44
227.41	1736.68
227.63	1665.00
227.85	1654.76
228.06	1738.73
228.28	1683.43
228.50	1757.16
228.72	1615.85
228.94	1617.90
229.16	1591.27
229.37	1714.15
229.59	1689.57
229.81	1798.12
230.03	1595.37
230.25	1720.29
230.47	1665.00
230.69	1634.28
230.90	1796.07
231.12	1619.94
231.34	1693.67
231.56	1732.58
231.78	1628.14
232.00	1652.71
232.21	1738.73
232.43	1695.72
232.65	1634.28
232.87	1697.77
233.09	1699.81
233.30	1658.85
233.52	1703.91
233.74	1660.90
233.96	1675.24
234.18	1751.01
234.40	1644.52
234.61	1802.21
234.83	1603.56
235.05	1656.81
235.27	1880.04
235.49	1794.02
235.70	1742.82
235.92	1775.59
236.14	1730.53
236.36	1820.64
236.58	1689.57
236.79	1757.16
237.01	1662.95
237.23	1640.42
237.45	1828.84
237.67	1578.98
237.88	1673.19
238.10	1785.83
238.32	1621.99
238.54	1642.47
238.76	1644.52
238.97	1699.81
239.19	1611.75
239.41	1734.63
239.63	1783.78
239.85	1691.62
240.06	1748.97
240.28	1695.72
240.50	1769.44
240.72	1681.38
240.93	1705.96
241.15	1740.77
241.37	1724.39
241.59	1832.93
241.81	1705.96
242.02	1687.53
242.24	1712.10
242.46	1751.01
242.68	1691.62
242.89	1658.85
243.11	1757.16
243.33	1695.72
243.55	1708.01
243.76	1820.64
243.98	1687.53
244.20	1759.21
244.42	1669.09
244.64	1718.25
244.85	1665.00
245.07	1624.04
245.29	1777.64
245.51	1703.91
245.72	1753.06
245.94	1771.49
246.16	1667.05
246.38	1671.14
246.59	1673.19
246.81	1710.05
247.03	1642.47
247.24	1630.18
247.46	1673.19
247.68	1708.01
247.90	1687.53
248.11	1677.29
248.33	1710.05
248.55	1640.42
248.77	1695.72
248.98	1806.31
249.20	1794.02
249.42	1740.77
249.64	1634.28
249.85	1779.68
250.07	1630.18
250.29	1765.35
250.50	1830.88
250.72	1597.42
250.94	1677.29
251.16	1765.35
251.37	1681.38
251.59	1744.87
251.81	1761.25
252.02	1761.25
252.24	1619.94
252.46	1783.78
252.68	1662.95
252.89	1679.33
253.11	1599.46
253.33	1798.12
253.54	1705.96
253.76	1634.28
253.98	1654.76
254.20	1683.43
254.41	1578.98
254.63	1652.71
254.85	1683.43
255.06	1703.91
255.28	1773.54
255.50	1660.90
255.71	1669.09
255.93	1624.04
256.15	1640.42
256.36	1685.48
256.58	1630.18
256.80	1667.05
257.02	1697.77
257.23	1705.96
257.45	1685.48
257.67	1777.64
257.88	1658.85
258.10	1787.88
258.32	1685.48
258.53	1736.68
258.75	1755.11
258.97	1642.47
259.18	1736.68
259.40	1693.67
259.62	1886.18
259.83	1787.88
260.05	1667.05
260.27	1978.34
260.48	1710.05
260.70	1599.46
260.92	1753.06
261.13	1716.20
261.35	1691.62
261.57	1769.44
261.78	1566.70
262.00	1650.66
262.22	1732.58
262.43	1724.39
262.65	1660.90
262.86	1609.70
263.08	1771.49
263.30	1667.05
263.51	1566.70
263.73	1652.71
263.95	1808.36
264.16	1685.48
264.38	1677.29
264.60	1779.68
264.81	1716.20
265.03	1744.87
265.25	1722.34
265.46	1675.24
265.68	1685.48
265.89	1761.25
266.11	1603.56
266.33	1681.38
266.54	1781.73
266.76	1761.25
266.98	1671.14
267.19	1775.59
267.41	1744.87
267.62	1642.47
267.84	1609.70
268.06	1673.19
268.27	1798.12
268.49	1718.25
268.70	1740.77
268.92	1705.96
269.14	1632.23
269.35	1660.90
269.57	1767.40
269.79	1767.40
270.00	1656.81
270.22	1755.11
270.43	1665.00
270.65	1552.36
270.87	1644.52
271.08	1701.86
271.30	1755.11
271.51	1656.81
271.73	1730.53
271.95	1746.92
272.16	1740.77
272.38	1718.25
272.59	1679.33
272.81	1660.90
273.02	1681.38
273.24	1736.68
273.46	1740.77
273.67	1701.86
273.89	1570.79
274.10	1722.34
274.32	1716.20
274.54	1732.58
274.75	1691.62
274.97	1669.09
275.18	1714.15
275.40	1761.25
275.61	1669.09
275.83	1730.53
276.05	1656.81
276.26	1742.82
276.48	1658.85
276.69	1720.29
276.91	1613.80
277.12	1773.54
277.34	1779.68
277.55	1746.92
277.77	1751.01
277.99	1673.19
278.20	1628.14
278.42	1652.71
278.63	1714.15
278.85	1652.71
279.06	1605.61
279.28	1669.09
279.49	1695.72
279.71	1755.11
279.93	1583.08
280.14	1738.73
280.36	1757.16
280.57	1712.10
280.79	1822.69
281.00	1720.29
281.22	1599.46
281.43	1732.58
281.65	1609.70
281.86	1626.09
282.08	1720.29
282.29	1841.12
282.51	1656.81
282.73	1603.56
282.94	1605.61
283.16	1773.54
283.37	1736.68
283.59	1679.33
283.80	1689.57
284.02	1771.49
284.23	1742.82
284.45	1724.39
284.66	1650.66
284.88	1615.85
285.09	1757.16
285.31	1718.25
285.52	1683.43
285.74	1619.94
285.95	1763.30
286.17	1769.44
286.38	1732.58
286.60	1675.24
286.81	1617.90
287.03	1667.05
287.24	1687.53
287.46	1742.82
287.67	1636.33
287.89	1757.16
288.10	1701.86
288.32	1753.06
288.53	1783.78
288.75	1675.24
288.96	1744.87
289.18	1662.95
289.39	1718.25
289.61	1757.16
289.82	1839.08
290.04	1812.45
290.25	1636.33
290.47	1728.49
290.68	1662.95
290.90	1746.92
291.11	1638.38
291.33	1759.21
291.54	1640.42
291.76	1605.61
291.97	1677.29
292.18	1626.09
292.40	1705.96
292.61	1667.05
292.83	1777.64
293.04	1748.97
293.26	1632.23
293.47	1656.81
293.69	1652.71
293.90	1634.28
294.12	1679.33
294.33	1687.53
294.55	1738.73
294.76	1818.60
294.97	1820.64
295.19	1826.79
295.40	1634.28
295.62	1689.57
295.83	1806.31
296.05	1669.09
296.26	1687.53
296.48	1644.52
296.69	1677.29
296.90	1708.01
297.12	1785.83
297.33	1726.44
297.55	1716.20
297.76	1708.01
297.98	1785.83
298.19	1716.20
298.41	1740.77
298.62	1671.14
298.83	1753.06
299.05	1755.11
299.26	1671.14
299.48	1673.19
299.69	1775.59
299.90	1652.71
300.12	1736.68
300.33	1732.58
300.55	1740.77
300.76	1753.06
300.98	1615.85
301.19	1720.29
301.40	1708.01
301.62	1705.96
301.83	1673.19
302.05	1626.09
302.26	1665.00
302.47	1734.63
302.69	1638.38
302.90	1648.61
303.12	1650.66
303.33	1740.77
303.54	1781.73
303.76	1705.96
303.97	1742.82
304.19	1779.68
304.40	1673.19
304.61	1656.81
304.83	1816.55
305.04	1695.72
305.26	1701.86
305.47	1667.05
305.68	1759.21
305.90	1599.46
306.11	1703.91
306.33	1667.05
306.54	1640.42
306.75	1714.15
306.97	1626.09
307.18	1601.51
307.39	1701.86
307.61	1714.15
307.82	1734.63
308.04	1732.58
308.25	1708.01
308.46	1677.29
308.68	1689.57
308.89	1714.15
309.10	1775.59
309.32	1691.62
309.53	1681.38
309.74	1697.77
309.96	1712.10
310.17	1765.35
310.39	1695.72
310.60	1812.45
310.81	1660.90
311.03	1626.09
311.24	1765.35
311.45	1685.48
311.67	1794.02
311.88	1667.05
312.09	1679.33
312.31	1673.19
312.52	1724.39
312.73	1705.96
312.95	1601.51
313.16	1617.90
313.37	1771.49
313.59	1669.09
313.80	1691.62
314.01	1775.59
314.23	1613.80
314.44	1705.96
314.65	1599.46
314.87	1619.94
315.08	1613.80
315.29	1599.46
315.51	1576.94
315.72	1701.86
315.93	1820.64
316.15	1763.30
316.36	1662.95
316.57	1708.01
316.79	1654.76
317.00	1742.82
317.21	1722.34
317.43	1650.66
317.64	1728.49
317.85	1615.85
318.07	1669.09
318.28	1728.49
318.49	1861.60
318.70	1910.75
318.92	1839.08
319.13	1820.64
319.34	1875.94
319.56	1847.27
319.77	1839.08
319.98	1804.26
320.20	1832.93
320.41	1722.34
320.62	1716.20
320.83	1658.85
321.05	1839.08
321.26	1667.05
321.47	1716.20
321.69	1763.30
321.90	1652.71
322.11	1697.77
322.32	1746.92
322.54	1783.78
322.75	1654.76
322.96	1824.74
323.18	1671.14
323.39	1675.24
323.60	1710.05
323.81	1837.03
324.03	1697.77
324.24	1701.86
324.45	1722.34
324.66	1685.48
324.88	1724.39
325.09	1771.49
325.30	1679.33
325.52	1746.92
325.73	1722.34
325.94	1640.42
326.15	1576.94
326.37	1687.53
326.58	1722.34
326.79	1759.21
327.00	1593.32
327.22	1742.82
327.43	1673.19
327.64	1595.37
327.85	1705.96
328.07	1724.39
328.28	1791.97
328.49	1632.23
328.70	1710.05
328.92	1716.20
329.13	1660.90
329.34	1716.20
329.55	1710.05
329.76	1775.59
329.98	1710.05
330.19	1744.87
330.40	1705.96
330.61	1714.15
330.83	1722.34
331.04	1642.47
331.25	1798.12
331.46	1730.53
331.68	1583.08
331.89	1710.05
332.10	1712.10
332.31	1675.24
332.52	1648.61
332.74	1779.68
332.95	1683.43
333.16	1689.57
333.37	1771.49
333.58	1710.05
333.80	1650.66
334.01	1617.90
334.22	1652.71
334.43	1671.14
334.64	1671.14
334.86	1632.23
335.07	1691.62
335.28	1783.78
335.49	1658.85
335.70	1697.77
335.92	1757.16
336.13	1785.83
336.34	1636.33
336.55	1675.24
336.76	1695.72
336.98	1626.09
337.19	1705.96
337.40	1843.17
337.61	1857.51
337.82	1730.53
338.04	1755.11
338.25	1587.18
338.46	1689.57
338.67	1628.14
338.88	1615.85
339.09	1609.70
339.31	1642.47
339.52	1654.76
339.73	1689.57
339.94	1728.49
340.15	1763.30
340.36	1632.23
340.58	1705.96
340.79	1660.90
341.00	1734.63
341.21	1677.29
341.42	1857.51
341.63	1693.67
341.85	1724.39
342.06	1744.87
342.27	1660.90
342.48	1773.54
342.69	1683.43
342.90	1701.86
343.12	1693.67
343.33	1648.61
343.54	1734.63
343.75	1810.40
343.96	1693.67
344.17	1644.52
344.38	1656.81
344.60	1632.23
344.81	1599.46
345.02	1662.95
345.23	1710.05
345.44	1757.16
345.65	1785.83
345.86	1810.40
346.07	1693.67
346.29	1746.92
346.50	1638.38
346.71	1722.34
346.92	1728.49
347.13	1779.68
347.34	1697.77
347.55	1675.24
347.76	1710.05
347.98	1576.94
348.19	1705.96
348.40	1785.83
348.61	1728.49
348.82	1755.11
349.03	1660.90
349.24	1667.05
349.45	1826.79
349.66	1585.13
349.88	1652.71
350.09	1710.05
350.30	1796.07
350.51	1746.92
350.72	1708.01
350.93	1658.85
351.14	1744.87
351.35	1791.97
351.56	1757.16
351.77	1779.68
351.99	1736.68
352.20	1757.16
352.41	1718.25
352.62	1640.42
352.83	1710.05
353.04	1767.40
353.25	1644.52
353.46	1791.97
353.67	1775.59
353.88	1527.78
354.09	1763.30
354.30	1669.09
354.52	1699.81
354.73	1673.19
354.94	1671.14
355.15	1716.20
355.36	1753.06
355.57	1748.97
355.78	1695.72
355.99	1714.15
356.20	1607.66
356.41	1761.25
356.62	1630.18
356.83	1728.49
357.04	1779.68
357.25	1574.89
357.46	1650.66
357.68	1662.95
357.89	1677.29
358.10	1712.10
358.31	1652.71
358.52	1732.58
358.73	1658.85
358.94	1593.32
359.15	1656.81
359.36	1673.19
359.57	1685.48
359.78	1701.86
359.99	1689.57
360.20	1591.27
360.41	1685.48
360.62	1759.21
360.83	1763.30
361.04	1632.23
361.25	1705.96
361.46	1791.97
361.67	1677.29
361.88	1773.54
362.09	1781.73
362.30	1687.53
362.51	1650.66
362.72	1673.19
362.93	1746.92
363.14	1740.77
363.35	1640.42
363.56	1671.14
363.78	1812.45
363.99	1820.64
364.20	1673.19
364.41	1632.23
364.62	1789.92
364.83	1732.58
365.04	1722.34
365.25	1712.10
365.46	1851.36
365.67	1587.18
365.88	1648.61
366.09	1619.94
366.30	1734.63
366.51	1691.62
366.72	1634.28
366.93	1697.77
367.14	1685.48
367.35	1820.64
367.56	1685.48
367.77	1763.30
367.98	1705.96
368.18	1765.35
368.39	1763.30
368.60	1607.66
368.81	1638.38
369.02	1687.53
369.23	1726.44
369.44	1634.28
369.65	1669.09
369.86	1775.59
370.07	1794.02
370.28	1699.81
370.49	1769.44
370.70	1658.85
370.91	1638.38
371.12	1669.09
371.33	1699.81
371.54	1705.96
371.75	1855.46
371.96	1538.02
372.17	1603.56
372.38	1705.96
372.59	1687.53
372.80	1642.47
373.01	1695.72
373.22	1767.40
373.43	1708.01
373.64	1656.81
373.85	1757.16
374.06	1806.31
374.26	1714.15
374.47	1722.34
374.68	1826.79
374.89	1724.39
375.10	1695.72
375.31	1804.26
375.52	1654.76
375.73	1677.29
375.94	1613.80
376.15	1779.68
376.36	1693.67
376.57	1669.09
376.78	1703.91
376.99	1746.92
377.20	1853.41
377.40	1648.61
377.61	1814.50
377.82	1693.67
378.03	1818.60
378.24	1693.67
378.45	1705.96
378.66	1738.73
378.87	1652.71
379.08	1650.66
379.29	1638.38
379.50	1816.55
379.71	1732.58
379.91	1791.97
380.12	1718.25
380.33	1689.57
380.54	1671.14
380.75	1636.33
380.96	1669.09
381.17	1794.02
381.38	1634.28
381.59	1761.25
381.80	1714.15
382.00	1867.75
382.21	1681.38
382.42	1771.49
382.63	1880.04
382.84	1673.19
383.05	1832.93
383.26	1791.97
383.47	1755.11
383.68	1748.97
383.88	1755.11
384.09	1742.82
384.30	1822.69
384.51	1681.38
384.72	1701.86
384.93	1646.57
385.14	1699.81
385.35	1753.06
385.55	1656.81
385.76	1740.77
385.97	1650.66
386.18	1658.85
386.39	1673.19
386.60	1665.00
386.81	1669.09
387.02	1763.30
387.22	1644.52
387.43	1714.15
387.64	1765.35
387.85	1822.69
388.06	2238.43
388.27	4315.07
388.48	6600.60
388.68	8296.32
388.89	9633.64
389.10	9893.74
389.31	8542.08
389.52	7532.43
389.73	6805.40
389.93	6252.45
390.14	5826.47
390.35	5228.46
390.56	4612.03
390.77	3811.27
390.98	3065.81
391.18	2500.57
391.39	2082.78
391.60	1849.32
391.81	1810.40
392.02	1710.05
392.23	1914.85
392.43	1736.68
392.64	1818.60
392.85	1703.91
393.06	1828.84
393.27	1665.00
393.47	1683.43
393.68	1730.53
393.89	1720.29
394.10	1767.40
394.31	1693.67
394.52	1646.57
394.72	1718.25
394.93	1791.97
395.14	1665.00
395.35	1753.06
395.56	1658.85
395.76	1734.63
395.97	1808.36
396.18	1820.64
396.39	1814.50
396.60	2031.58
396.80	1873.89
397.01	1894.37
397.22	1888.23
397.43	1826.79
397.64	1714.15
397.84	1781.73
398.05	1884.13
398.26	1736.68
398.47	1710.05
398.67	1820.64
398.88	1851.36
399.09	1771.49
399.30	1642.47
399.51	1691.62
399.71	1624.04
399.92	1726.44
400.13	1726.44
400.34	1636.33
400.54	1705.96
400.75	1859.56
400.96	1689.57
401.17	1818.60
401.37	1693.67
401.58	1718.25
401.79	1716.20
402.00	1804.26
402.21	2002.91
402.41	2004.96
402.62	1941.47
402.83	2131.94
403.04	2000.87
403.24	2041.82
403.45	1869.80
403.66	1927.14
403.87	1918.95
404.07	1884.13
404.28	1882.08
404.49	1859.56
404.70	1779.68
404.90	1789.92
405.11	1730.53
405.32	1728.49
405.52	1695.72
405.73	1681.38
405.94	1607.66
406.15	1734.63
406.35	1755.11
406.56	1738.73
406.77	1748.97
406.98	1722.34
407.18	1667.05
407.39	1826.79
407.60	1712.10
407.80	1734.63
408.01	1730.53
408.22	1738.73
408.43	1714.15
408.63	1708.01
408.84	1802.21
409.05	1753.06
409.25	1720.29
409.46	1665.00
409.67	1640.42
409.88	1681.38
410.08	1701.86
410.29	1736.68
410.50	1732.58
410.70	1708.01
410.91	1714.15
411.12	1769.44
411.32	1742.82
411.53	1609.70
411.74	1820.64
411.95	1738.73
412.15	1771.49
412.36	1728.49
412.57	1765.35
412.77	1806.31
412.98	1746.92
413.19	1767.40
413.39	1769.44
413.60	1806.31
413.81	1853.41
414.01	1685.48
414.22	1757.16
414.43	1720.29
414.63	1675.24
414.84	1695.72
415.05	1777.64
415.25	1583.08
415.46	1755.11
415.67	1656.81
415.87	1740.77
416.08	1716.20
416.29	1632.23
416.49	1728.49
416.70	1697.77
416.91	1689.57
417.11	1738.73
417.32	1781.73
417.53	1757.16
417.73	1755.11
417.94	1730.53
418.15	1587.18
418.35	1665.00
418.56	1732.58
418.77	1869.80
418.97	1751.01
419.18	1748.97
419.38	1621.99
419.59	1691.62
419.80	1791.97
420.00	1714.15
420.21	1722.34
420.42	1720.29
420.62	1695.72
420.83	1667.05
421.04	1611.75
421.24	1691.62
421.45	1742.82
421.65	1736.68
421.86	1677.29
422.07	1691.62
422.27	1742.82
422.48	1638.38
422.69	1685.48
422.89	1701.86
423.10	1683.43
423.30	1599.46
423.51	1669.09
423.72	1701.86
423.92	1740.77
424.13	1646.57
424.33	1708.01
424.54	1759.21
424.75	1687.53
424.95	1822.69
425.16	1714.15
425.36	1693.67
425.57	1822.69
425.78	1802.21
425.98	1714.15
426.19	1722.34
426.39	1642.47
426.60	1624.04
426.81	1771.49
427.01	1697.77
427.22	1712.10
427.42	1562.60
427.63	1744.87
427.83	1736.68
428.04	1767.40
428.25	1841.12
428.45	1767.40
428.66	1746.92
428.86	1644.52
429.07	1677.29
429.28	1744.87
429.48	1677.29
429.69	1632.23
429.89	1660.90
430.10	1599.46
430.30	1728.49
430.51	1785.83
430.71	1699.81
430.92	1642.47
431.13	1710.05
431.33	1753.06
431.54	1691.62
431.74	1767.40
431.95	1816.55
432.15	1699.81
432.36	1734.63
432.56	1730.53
432.77	1771.49
432.98	1775.59
433.18	1693.67
433.39	1691.62
433.59	1640.42
433.80	1824.74
434.00	1824.74
434.21	1693.67
434.41	1654.76
434.62	1886.18
434.82	1656.81
435.03	1703.91
435.23	1705.96
435.44	1630.18
435.64	1693.67
435.85	1656.81
436.06	1726.44
436.26	1767.40
436.47	1796.07
436.67	1691.62
436.88	1689.57
437.08	1769.44
437.29	1841.12
437.49	1683.43
437.70	1716.20
437.90	1708.01
438.11	1751.01
438.31	1814.50
438.52	1837.03
438.72	1783.78
438.93	1937.38
439.13	1798.12
439.34	1759.21
439.54	1781.73
439.75	1748.97
439.95	1816.55
440.16	1726.44
440.36	1689.57
440.57	1783.78
440.77	1736.68
440.98	1691.62
441.18	1740.77
441.39	1714.15
441.59	1640.42
441.80	1841.12
442.00	1732.58
442.21	1865.70
442.41	1601.51
442.62	1779.68
442.82	1636.33
443.02	1734.63
443.23	1759.21
443.43	1710.05
443.64	1746.92
443.84	1669.09
444.05	1789.92
444.25	1777.64
444.46	1667.05
444.66	1720.29
444.87	1849.32
445.07	1665.00
445.28	1720.29
445.48	1882.08
445.69	1820.64
445.89	1871.84
446.09	1751.01
446.30	1945.57
446.50	2682.84
446.71	3854.28
446.91	4413.37
447.12	4687.80
447.32	4827.06
447.53	4333.50
447.73	3870.66
447.93	3569.61
448.14	3434.44
448.34	3282.89
448.55	2926.55
448.75	2906.07
448.96	2691.03
449.16	2389.98
449.36	2279.39
449.57	2066.40
449.77	1935.33
449.98	1742.82
450.18	1814.50
450.39	1814.50
450.59	1765.35
450.79	1689.57
451.00	1724.39
451.20	1826.79
451.41	1763.30
451.61	1746.92
451.81	1718.25
452.02	1775.59
452.22	1710.05
452.43	1669.09
452.63	1701.86
