SpectraSuite Data File
++++++++++++++++++++++++++++++++++++
Date: Mon Jun 06 12:23:57 CEST 2016
User: root
Dark Spectrum Present: No
Reference Spectrum Present: No
Number of Sampled Component Spectra: 1
Spectrometers: USB4C02835
Integration Time (usec): 100000 (USB4C02835)
Spectra Averaged: 1 (USB4C02835)
Boxcar Smoothing: 0 (USB4C02835)
Correct for Electrical Dark: No (USB4C02835)
Strobe/Lamp Enabled: No (USB4C02835)
Correct for Detector Non-linearity: No (USB4C02835)
Correct for Stray Light: No (USB4C02835)
Number of Pixels in Processed Spectrum: 3648
>>>>>Begin Processed Spectral Data<<<<<
177.47	1445.87
177.69	1445.87
177.91	1445.87
178.13	1445.87
178.36	1429.48
178.58	1648.61
178.80	1652.71
179.02	1619.94
179.24	1630.18
179.46	1681.38
179.68	1746.92
179.90	1611.75
180.13	1757.16
180.35	1628.14
180.57	1662.95
180.79	1695.72
181.01	1613.80
181.23	1724.39
181.45	1726.44
181.67	1732.58
181.90	1703.91
182.12	1695.72
182.34	1656.81
182.56	1689.57
182.78	1765.35
183.00	1671.14
183.22	1703.91
183.44	1591.27
183.66	1843.17
183.89	1748.97
184.11	1777.64
184.33	1701.86
184.55	1744.87
184.77	1828.84
184.99	1734.63
185.21	1650.66
185.43	1839.08
185.65	1667.05
185.87	1724.39
186.10	1894.37
186.32	1812.45
186.54	1701.86
186.76	1669.09
186.98	1738.73
187.20	1683.43
187.42	1693.67
187.64	1687.53
187.86	1771.49
188.08	1775.59
188.30	1589.22
188.52	1691.62
188.75	1738.73
188.97	1763.30
189.19	1705.96
189.41	1578.98
189.63	1720.29
189.85	1689.57
190.07	1640.42
190.29	1609.70
190.51	1724.39
190.73	1634.28
190.95	1763.30
191.17	1689.57
191.39	1667.05
191.61	1640.42
191.84	1757.16
192.06	1697.77
192.28	1667.05
192.50	1773.54
192.72	1667.05
192.94	1687.53
193.16	1814.50
193.38	1677.29
193.60	1609.70
193.82	1701.86
194.04	1767.40
194.26	1685.48
194.48	1667.05
194.70	1607.66
194.92	1673.19
195.14	1712.10
195.36	1630.18
195.58	1640.42
195.80	1646.57
196.02	1646.57
196.24	1677.29
196.46	1703.91
196.69	1701.86
196.91	1824.74
197.13	1677.29
197.35	1660.90
197.57	1804.26
197.79	1697.77
198.01	1691.62
198.23	1691.62
198.45	1748.97
198.67	1683.43
198.89	1665.00
199.11	1744.87
199.33	1613.80
199.55	1595.37
199.77	1628.14
199.99	1742.82
200.21	1699.81
200.43	1705.96
200.65	1617.90
200.87	1656.81
201.09	1765.35
201.31	1648.61
201.53	1675.24
201.75	1746.92
201.97	1654.76
202.19	1753.06
202.41	1789.92
202.63	1800.16
202.85	1720.29
203.07	1695.72
203.29	1638.38
203.51	1673.19
203.73	1626.09
203.95	1898.47
204.17	1751.01
204.39	1630.18
204.61	1705.96
204.83	1671.14
205.05	1787.88
205.27	1765.35
205.49	1769.44
205.71	1744.87
205.93	1578.98
206.15	1781.73
206.37	1658.85
206.59	1699.81
206.81	1634.28
207.03	1576.94
207.25	1581.03
207.47	1789.92
207.69	1718.25
207.91	1736.68
208.13	1769.44
208.34	1652.71
208.56	1685.48
208.78	1724.39
209.00	1697.77
209.22	1640.42
209.44	1732.58
209.66	1724.39
209.88	1740.77
210.10	1691.62
210.32	1699.81
210.54	1818.60
210.76	1669.09
210.98	1667.05
211.20	1546.22
211.42	1697.77
211.64	1665.00
211.86	1667.05
212.08	1746.92
212.30	1746.92
212.52	1644.52
212.74	1636.33
212.96	1740.77
213.17	1724.39
213.39	1718.25
213.61	1740.77
213.83	1744.87
214.05	1701.86
214.27	1753.06
214.49	1697.77
214.71	1722.34
214.93	1740.77
215.15	1708.01
215.37	1763.30
215.59	1632.23
215.81	1742.82
216.03	1824.74
216.24	1712.10
216.46	1679.33
216.68	1728.49
216.90	1669.09
217.12	1742.82
217.34	1685.48
217.56	1742.82
217.78	1802.21
218.00	1701.86
218.22	1673.19
218.44	1720.29
218.66	1714.15
218.87	1871.84
219.09	1681.38
219.31	1697.77
219.53	1757.16
219.75	1636.33
219.97	1677.29
220.19	1705.96
220.41	1769.44
220.63	1744.87
220.85	1724.39
221.06	1658.85
221.28	1732.58
221.50	1683.43
221.72	1626.09
221.94	1638.38
222.16	1697.77
222.38	1802.21
222.60	1802.21
222.82	1671.14
223.03	1720.29
223.25	1609.70
223.47	1738.73
223.69	1740.77
223.91	1677.29
224.13	1619.94
224.35	1658.85
224.57	1751.01
224.78	1650.66
225.00	1626.09
225.22	1710.05
225.44	1771.49
225.66	1755.11
225.88	1648.61
226.10	1736.68
226.32	1705.96
226.53	1812.45
226.75	1648.61
226.97	1642.47
227.19	1640.42
227.41	1611.75
227.63	1654.76
227.85	1644.52
228.06	1724.39
228.28	1683.43
228.50	1724.39
228.72	1714.15
228.94	1693.67
229.16	1572.84
229.37	1644.52
229.59	1636.33
229.81	1730.53
230.03	1667.05
230.25	1665.00
230.47	1634.28
230.69	1638.38
230.90	1761.25
231.12	1642.47
231.34	1710.05
231.56	1710.05
231.78	1636.33
232.00	1753.06
232.21	1671.14
232.43	1615.85
232.65	1636.33
232.87	1669.09
233.09	1730.53
233.30	1648.61
233.52	1773.54
233.74	1683.43
233.96	1710.05
234.18	1650.66
234.40	1658.85
234.61	1781.73
234.83	1607.66
235.05	1673.19
235.27	1763.30
235.49	1697.77
235.70	1757.16
235.92	1695.72
236.14	1728.49
236.36	1841.12
236.58	1609.70
236.79	1667.05
237.01	1699.81
237.23	1632.23
237.45	1804.26
237.67	1722.34
237.88	1687.53
238.10	1834.98
238.32	1669.09
238.54	1615.85
238.76	1665.00
238.97	1638.38
239.19	1632.23
239.41	1695.72
239.63	1712.10
239.85	1712.10
240.06	1675.24
240.28	1673.19
240.50	1794.02
240.72	1738.73
240.93	1699.81
241.15	1736.68
241.37	1759.21
241.59	1777.64
241.81	1673.19
242.02	1642.47
242.24	1632.23
242.46	1724.39
242.68	1652.71
242.89	1621.99
243.11	1724.39
243.33	1695.72
243.55	1710.05
243.76	1673.19
243.98	1685.48
244.20	1708.01
244.42	1708.01
244.64	1636.33
244.85	1685.48
245.07	1691.62
245.29	1765.35
245.51	1697.77
245.72	1726.44
245.94	1771.49
246.16	1662.95
246.38	1708.01
246.59	1732.58
246.81	1632.23
247.03	1691.62
247.24	1660.90
247.46	1630.18
247.68	1640.42
247.90	1685.48
248.11	1658.85
248.33	1716.20
248.55	1681.38
248.77	1689.57
248.98	1714.15
249.20	1808.36
249.42	1787.88
249.64	1703.91
249.85	1724.39
250.07	1703.91
250.29	1681.38
250.50	1681.38
250.72	1611.75
250.94	1712.10
251.16	1890.28
251.37	1767.40
251.59	1679.33
251.81	1728.49
252.02	1736.68
252.24	1656.81
252.46	1779.68
252.68	1685.48
252.89	1640.42
253.11	1603.56
253.33	1726.44
253.54	1736.68
253.76	1601.51
253.98	1701.86
254.20	1697.77
254.41	1609.70
254.63	1689.57
254.85	1615.85
255.06	1722.34
255.28	1759.21
255.50	1675.24
255.71	1726.44
255.93	1595.37
256.15	1705.96
256.36	1742.82
256.58	1665.00
256.80	1732.58
257.02	1607.66
257.23	1677.29
257.45	1708.01
257.67	1714.15
257.88	1671.14
258.10	1660.90
258.32	1652.71
258.53	1697.77
258.75	1802.21
258.97	1740.77
259.18	1712.10
259.40	1677.29
259.62	1818.60
259.83	1685.48
260.05	1695.72
260.27	1972.19
260.48	1708.01
260.70	1599.46
260.92	1716.20
261.13	1789.92
261.35	1658.85
261.57	1634.28
261.78	1644.52
262.00	1599.46
262.22	1740.77
262.43	1527.78
262.65	1644.52
262.86	1720.29
263.08	1761.25
263.30	1789.92
263.51	1652.71
263.73	1679.33
263.95	1718.25
264.16	1632.23
264.38	1650.66
264.60	1746.92
264.81	1660.90
265.03	1740.77
265.25	1718.25
265.46	1652.71
265.68	1806.31
265.89	1667.05
266.11	1568.74
266.33	1845.22
266.54	1755.11
266.76	1705.96
266.98	1714.15
267.19	1722.34
267.41	1773.54
267.62	1744.87
267.84	1609.70
268.06	1759.21
268.27	1712.10
268.49	1722.34
268.70	1777.64
268.92	1730.53
269.14	1656.81
269.35	1638.38
269.57	1638.38
269.79	1730.53
270.00	1654.76
270.22	1742.82
270.43	1658.85
270.65	1585.13
270.87	1734.63
271.08	1720.29
271.30	1720.29
271.51	1730.53
271.73	1740.77
271.95	1824.74
272.16	1693.67
272.38	1722.34
272.59	1597.42
272.81	1746.92
273.02	1650.66
273.24	1755.11
273.46	1722.34
273.67	1634.28
273.89	1703.91
274.10	1624.04
274.32	1765.35
274.54	1699.81
274.75	1701.86
274.97	1726.44
275.18	1683.43
275.40	1675.24
275.61	1761.25
275.83	1665.00
276.05	1636.33
276.26	1740.77
276.48	1777.64
276.69	1691.62
276.91	1652.71
277.12	1787.88
277.34	1763.30
277.55	1695.72
277.77	1669.09
277.99	1691.62
278.20	1621.99
278.42	1689.57
278.63	1632.23
278.85	1624.04
279.06	1628.14
279.28	1742.82
279.49	1751.01
279.71	1742.82
279.93	1789.92
280.14	1673.19
280.36	1673.19
280.57	1751.01
280.79	1826.79
281.00	1701.86
281.22	1628.14
281.43	1755.11
281.65	1626.09
281.86	1665.00
282.08	1652.71
282.29	1822.69
282.51	1593.32
282.73	1681.38
282.94	1687.53
283.16	1705.96
283.37	1839.08
283.59	1669.09
283.80	1716.20
284.02	1724.39
284.23	1738.73
284.45	1673.19
284.66	1599.46
284.88	1626.09
285.09	1669.09
285.31	1724.39
285.52	1728.49
285.74	1538.02
285.95	1716.20
286.17	1761.25
286.38	1722.34
286.60	1667.05
286.81	1656.81
287.03	1665.00
287.24	1654.76
287.46	1775.59
287.67	1673.19
287.89	1806.31
288.10	1722.34
288.32	1605.61
288.53	1789.92
288.75	1632.23
288.96	1796.07
289.18	1644.52
289.39	1671.14
289.61	1734.63
289.82	1820.64
290.04	1736.68
290.25	1595.37
290.47	1748.97
290.68	1632.23
290.90	1808.36
291.11	1617.90
291.33	1738.73
291.54	1609.70
291.76	1660.90
291.97	1703.91
292.18	1689.57
292.40	1718.25
292.61	1683.43
292.83	1810.40
293.04	1714.15
293.26	1740.77
293.47	1617.90
293.69	1650.66
293.90	1701.86
294.12	1740.77
294.33	1703.91
294.55	1593.32
294.76	1699.81
294.97	1734.63
295.19	1769.44
295.40	1671.14
295.62	1734.63
295.83	1712.10
296.05	1652.71
296.26	1742.82
296.48	1689.57
296.69	1607.66
296.90	1712.10
297.12	1685.48
297.33	1732.58
297.55	1732.58
297.76	1718.25
297.98	1746.92
298.19	1675.24
298.41	1714.15
298.62	1757.16
298.83	1791.97
299.05	1603.56
299.26	1714.15
299.48	1587.18
299.69	1755.11
299.90	1681.38
300.12	1599.46
300.33	1753.06
300.55	1695.72
300.76	1730.53
300.98	1658.85
301.19	1767.40
301.40	1740.77
301.62	1611.75
301.83	1716.20
302.05	1697.77
302.26	1734.63
302.47	1691.62
302.69	1568.74
302.90	1656.81
303.12	1585.13
303.33	1705.96
303.54	1722.34
303.76	1787.88
303.97	1675.24
304.19	1771.49
304.40	1619.94
304.61	1722.34
304.83	1804.26
305.04	1740.77
305.26	1621.99
305.47	1683.43
305.68	1660.90
305.90	1593.32
306.11	1769.44
306.33	1726.44
306.54	1654.76
306.75	1617.90
306.97	1695.72
307.18	1646.57
307.39	1605.61
307.61	1767.40
307.82	1673.19
308.04	1779.68
308.25	1642.47
308.46	1701.86
308.68	1705.96
308.89	1710.05
309.10	1783.78
309.32	1740.77
309.53	1640.42
309.74	1708.01
309.96	1689.57
310.17	1714.15
310.39	1710.05
310.60	1748.97
310.81	1681.38
311.03	1568.74
311.24	1722.34
311.45	1677.29
311.67	1757.16
311.88	1732.58
312.09	1681.38
312.31	1665.00
312.52	1691.62
312.73	1724.39
312.95	1578.98
313.16	1734.63
313.37	1757.16
313.59	1689.57
313.80	1759.21
314.01	1822.69
314.23	1708.01
314.44	1667.05
314.65	1619.94
314.87	1708.01
315.08	1617.90
315.29	1689.57
315.51	1705.96
315.72	1691.62
315.93	1851.36
316.15	1742.82
316.36	1724.39
316.57	1685.48
316.79	1796.07
317.00	1751.01
317.21	1753.06
317.43	1685.48
317.64	1683.43
317.85	1650.66
318.07	1667.05
318.28	1761.25
318.49	1832.93
318.70	1869.80
318.92	1767.40
319.13	1783.78
319.34	1828.84
319.56	1751.01
319.77	1804.26
319.98	1777.64
320.20	1763.30
320.41	1699.81
320.62	1732.58
320.83	1671.14
321.05	1783.78
321.26	1701.86
321.47	1736.68
321.69	1808.36
321.90	1679.33
322.11	1677.29
322.32	1697.77
322.54	1738.73
322.75	1667.05
322.96	1873.89
323.18	1607.66
323.39	1566.70
323.60	1650.66
323.81	1734.63
324.03	1648.61
324.24	1665.00
324.45	1689.57
324.66	1691.62
324.88	1736.68
325.09	1740.77
325.30	1714.15
325.52	1691.62
325.73	1681.38
325.94	1621.99
326.15	1583.08
326.37	1638.38
326.58	1769.44
326.79	1755.11
327.00	1601.51
327.22	1708.01
327.43	1738.73
327.64	1597.42
327.85	1767.40
328.07	1669.09
328.28	1769.44
328.49	1644.52
328.70	1787.88
328.92	1662.95
329.13	1609.70
329.34	1665.00
329.55	1822.69
329.76	1759.21
329.98	1720.29
330.19	1683.43
330.40	1720.29
330.61	1746.92
330.83	1732.58
331.04	1621.99
331.25	1703.91
331.46	1708.01
331.68	1697.77
331.89	1791.97
332.10	1691.62
332.31	1611.75
332.52	1693.67
332.74	1740.77
332.95	1619.94
333.16	1593.32
333.37	1777.64
333.58	1660.90
333.80	1714.15
334.01	1576.94
334.22	1718.25
334.43	1656.81
334.64	1710.05
334.86	1648.61
335.07	1646.57
335.28	1783.78
335.49	1591.27
335.70	1724.39
335.92	1738.73
336.13	1925.09
336.34	1718.25
336.55	1734.63
336.76	1689.57
336.98	1673.19
337.19	1699.81
337.40	1796.07
337.61	1800.16
337.82	1650.66
338.04	1683.43
338.25	1574.89
338.46	1722.34
338.67	1683.43
338.88	1654.76
339.09	1595.37
339.31	1685.48
339.52	1636.33
339.73	1609.70
339.94	1693.67
340.15	1769.44
340.36	1601.51
340.58	1759.21
340.79	1667.05
341.00	1648.61
341.21	1619.94
341.42	1839.08
341.63	1714.15
341.85	1732.58
342.06	1730.53
342.27	1673.19
342.48	1718.25
342.69	1574.89
342.90	1652.71
343.12	1679.33
343.33	1679.33
343.54	1738.73
343.75	1789.92
343.96	1691.62
344.17	1636.33
344.38	1705.96
344.60	1619.94
344.81	1613.80
345.02	1615.85
345.23	1732.58
345.44	1808.36
345.65	1724.39
345.86	1724.39
346.07	1665.00
346.29	1675.24
346.50	1693.67
346.71	1732.58
346.92	1744.87
347.13	1859.56
347.34	1669.09
347.55	1718.25
347.76	1662.95
347.98	1648.61
348.19	1667.05
348.40	1691.62
348.61	1630.18
348.82	1771.49
349.03	1683.43
349.24	1685.48
349.45	1728.49
349.66	1595.37
349.88	1740.77
350.09	1685.48
350.30	1699.81
350.51	1804.26
350.72	1732.58
350.93	1705.96
351.14	1628.14
351.35	1695.72
351.56	1701.86
351.77	1681.38
351.99	1726.44
352.20	1818.60
352.41	1695.72
352.62	1570.79
352.83	1617.90
353.04	1714.15
353.25	1689.57
353.46	1757.16
353.67	1769.44
353.88	1572.84
354.09	1710.05
354.30	1615.85
354.52	1753.06
354.73	1613.80
354.94	1605.61
355.15	1695.72
355.36	1753.06
355.57	1714.15
355.78	1703.91
355.99	1654.76
356.20	1699.81
356.41	1824.74
356.62	1648.61
356.83	1724.39
357.04	1765.35
357.25	1595.37
357.46	1685.48
357.68	1613.80
357.89	1613.80
358.10	1683.43
358.31	1640.42
358.52	1689.57
358.73	1667.05
358.94	1634.28
359.15	1636.33
359.36	1646.57
359.57	1681.38
359.78	1644.52
359.99	1638.38
360.20	1693.67
360.41	1652.71
360.62	1740.77
360.83	1746.92
361.04	1673.19
361.25	1671.14
361.46	1755.11
361.67	1726.44
361.88	1730.53
362.09	1796.07
362.30	1714.15
362.51	1681.38
362.72	1683.43
362.93	1748.97
363.14	1687.53
363.35	1656.81
363.56	1687.53
363.78	1759.21
363.99	1777.64
364.20	1701.86
364.41	1726.44
364.62	1810.40
364.83	1732.58
365.04	1671.14
365.25	1640.42
365.46	1845.22
365.67	1673.19
365.88	1632.23
366.09	1607.66
366.30	1708.01
366.51	1656.81
366.72	1617.90
366.93	1650.66
367.14	1681.38
367.35	1730.53
367.56	1669.09
367.77	1802.21
367.98	1685.48
368.18	1665.00
368.39	1773.54
368.60	1705.96
368.81	1697.77
369.02	1722.34
369.23	1658.85
369.44	1644.52
369.65	1683.43
369.86	1673.19
370.07	1751.01
370.28	1634.28
370.49	1693.67
370.70	1724.39
370.91	1605.61
371.12	1630.18
371.33	1703.91
371.54	1654.76
371.75	1775.59
371.96	1628.14
372.17	1755.11
372.38	1681.38
372.59	1734.63
372.80	1708.01
373.01	1693.67
373.22	1781.73
373.43	1720.29
373.64	1636.33
373.85	1712.10
374.06	1894.37
374.26	1722.34
374.47	1748.97
374.68	1751.01
374.89	1746.92
375.10	1644.52
375.31	1710.05
375.52	1732.58
375.73	1777.64
375.94	1646.57
376.15	1740.77
376.36	1677.29
376.57	1695.72
376.78	1726.44
376.99	1697.77
377.20	1734.63
377.40	1673.19
377.61	1808.36
377.82	1656.81
378.03	1685.48
378.24	1689.57
378.45	1710.05
378.66	1705.96
378.87	1654.76
379.08	1601.51
379.29	1701.86
379.50	1746.92
379.71	1722.34
379.91	1796.07
380.12	1665.00
380.33	1705.96
380.54	1638.38
380.75	1720.29
380.96	1656.81
381.17	1814.50
381.38	1632.23
381.59	1734.63
381.80	1722.34
382.00	1902.56
382.21	1722.34
382.42	1855.46
382.63	1880.04
382.84	1755.11
383.05	1746.92
383.26	1794.02
383.47	1687.53
383.68	1777.64
383.88	1736.68
384.09	1681.38
384.30	1806.31
384.51	1804.26
384.72	1705.96
384.93	1605.61
385.14	1693.67
385.35	1728.49
385.55	1671.14
385.76	1787.88
385.97	1736.68
386.18	1615.85
386.39	1658.85
386.60	1726.44
386.81	1652.71
387.02	1648.61
387.22	1693.67
387.43	1722.34
387.64	1822.69
387.85	1830.88
388.06	2189.28
388.27	4288.45
388.48	6877.08
388.68	8439.68
388.89	9850.73
389.10	10002.28
389.31	8628.09
389.52	7643.02
389.73	6809.50
389.93	6334.37
390.14	5984.16
390.35	5328.81
390.56	4579.26
390.77	3704.78
390.98	2977.75
391.18	2557.91
391.39	2160.61
391.60	1853.41
391.81	1865.70
392.02	1722.34
392.23	1837.03
392.43	1746.92
392.64	1728.49
392.85	1726.44
393.06	1796.07
393.27	1689.57
393.47	1699.81
393.68	1812.45
393.89	1660.90
394.10	1791.97
394.31	1738.73
394.52	1632.23
394.72	1699.81
394.93	1781.73
395.14	1644.52
395.35	1810.40
395.56	1617.90
395.76	1675.24
395.97	1757.16
396.18	1796.07
396.39	1798.12
396.60	2050.02
396.80	1873.89
397.01	1828.84
397.22	1900.52
397.43	1886.18
397.64	1693.67
397.84	1689.57
398.05	1828.84
398.26	1798.12
398.47	1718.25
398.67	1755.11
398.88	1714.15
399.09	1740.77
399.30	1665.00
399.51	1718.25
399.71	1681.38
399.92	1646.57
400.13	1701.86
400.34	1685.48
400.54	1705.96
400.75	1849.32
400.96	1644.52
401.17	1820.64
401.37	1718.25
401.58	1761.25
401.79	1671.14
402.00	1845.22
402.21	2011.11
402.41	1974.24
402.62	1998.82
402.83	1945.57
403.04	2027.49
403.24	1982.43
403.45	1859.56
403.66	1871.84
403.87	1910.75
404.07	1810.40
404.28	1900.52
404.49	1812.45
404.70	1753.06
404.90	1806.31
405.11	1718.25
405.32	1726.44
405.52	1722.34
405.73	1640.42
405.94	1646.57
406.15	1650.66
406.35	1777.64
406.56	1794.02
406.77	1726.44
406.98	1710.05
407.18	1695.72
407.39	1744.87
407.60	1660.90
407.80	1763.30
408.01	1669.09
408.22	1689.57
408.43	1660.90
408.63	1763.30
408.84	1736.68
409.05	1759.21
409.25	1716.20
409.46	1697.77
409.67	1681.38
409.88	1593.32
410.08	1755.11
410.29	1683.43
410.50	1705.96
410.70	1728.49
410.91	1603.56
411.12	1697.77
411.32	1652.71
411.53	1648.61
411.74	1824.74
411.95	1791.97
412.15	1648.61
412.36	1800.16
412.57	1763.30
412.77	1859.56
412.98	1673.19
413.19	1660.90
413.39	1712.10
413.60	1673.19
413.81	1853.41
414.01	1675.24
414.22	1701.86
414.43	1730.53
414.63	1685.48
414.84	1738.73
415.05	1708.01
415.25	1705.96
415.46	1806.31
415.67	1671.14
415.87	1693.67
416.08	1695.72
416.29	1642.47
416.49	1716.20
416.70	1652.71
416.91	1693.67
417.11	1619.94
417.32	1759.21
417.53	1806.31
417.73	1722.34
417.94	1662.95
418.15	1740.77
418.35	1796.07
418.56	1708.01
418.77	1757.16
418.97	1714.15
419.18	1671.14
419.38	1589.22
419.59	1689.57
419.80	1751.01
420.00	1744.87
420.21	1642.47
420.42	1710.05
420.62	1656.81
420.83	1726.44
421.04	1693.67
421.24	1677.29
421.45	1720.29
421.65	1654.76
421.86	1742.82
422.07	1705.96
422.27	1669.09
422.48	1722.34
422.69	1712.10
422.89	1736.68
423.10	1685.48
423.30	1603.56
423.51	1685.48
423.72	1673.19
423.92	1710.05
424.13	1621.99
424.33	1667.05
424.54	1710.05
424.75	1740.77
424.95	1818.60
425.16	1677.29
425.36	1687.53
425.57	1730.53
425.78	1734.63
425.98	1771.49
426.19	1665.00
426.39	1638.38
426.60	1683.43
426.81	1767.40
427.01	1705.96
427.22	1687.53
427.42	1605.61
427.63	1652.71
427.83	1744.87
428.04	1816.55
428.25	1740.77
428.45	1736.68
428.66	1744.87
428.86	1724.39
429.07	1726.44
429.28	1683.43
429.48	1705.96
429.69	1638.38
429.89	1701.86
430.10	1585.13
430.30	1791.97
430.51	1720.29
430.71	1710.05
430.92	1689.57
431.13	1673.19
431.33	1738.73
431.54	1757.16
431.74	1785.83
431.95	1857.51
432.15	1615.85
432.36	1763.30
432.56	1728.49
432.77	1818.60
432.98	1763.30
433.18	1724.39
433.39	1658.85
433.59	1660.90
433.80	1771.49
434.00	1822.69
434.21	1693.67
434.41	1603.56
434.62	1910.75
434.82	1679.33
435.03	1619.94
435.23	1671.14
435.44	1683.43
435.64	1720.29
435.85	1667.05
436.06	1740.77
436.26	1746.92
436.47	1693.67
436.67	1667.05
436.88	1746.92
437.08	1724.39
437.29	1851.36
437.49	1701.86
437.70	1734.63
437.90	1722.34
438.11	1800.16
438.31	1738.73
438.52	1867.75
438.72	1773.54
438.93	1943.52
439.13	1787.88
439.34	1730.53
439.54	1714.15
439.75	1789.92
439.95	1761.25
440.16	1650.66
440.36	1671.14
440.57	1728.49
440.77	1740.77
440.98	1705.96
441.18	1783.78
441.39	1648.61
441.59	1673.19
441.80	1828.84
442.00	1720.29
442.21	1875.94
442.41	1562.60
442.62	1791.97
442.82	1636.33
443.02	1726.44
443.23	1677.29
443.43	1626.09
443.64	1806.31
443.84	1621.99
444.05	1769.44
444.25	1763.30
444.46	1697.77
444.66	1781.73
444.87	1843.17
445.07	1656.81
445.28	1736.68
445.48	1798.12
445.69	1701.86
445.89	1877.99
446.09	1689.57
446.30	2009.06
446.50	2676.70
446.71	3651.53
446.91	4368.32
447.12	4714.42
447.32	4851.64
447.53	4337.60
447.73	3897.28
447.93	3524.55
448.14	3387.34
448.34	3184.59
448.55	2828.24
448.75	2854.87
448.96	2639.83
449.16	2361.31
449.36	2265.05
449.57	2070.50
449.77	1884.13
449.98	1841.12
450.18	1806.31
450.39	1912.80
450.59	1730.53
450.79	1699.81
451.00	1626.09
451.20	1767.40
451.41	1687.53
451.61	1742.82
451.81	1714.15
452.02	1718.25
452.22	1681.38
452.43	1677.29
452.63	1691.62
