SpectraSuite Data File
++++++++++++++++++++++++++++++++++++
Date: Mon Jun 06 13:10:17 CEST 2016
User: root
Dark Spectrum Present: No
Reference Spectrum Present: No
Number of Sampled Component Spectra: 1
Spectrometers: USB4C02835
Integration Time (usec): 100000 (USB4C02835)
Spectra Averaged: 1 (USB4C02835)
Boxcar Smoothing: 0 (USB4C02835)
Correct for Electrical Dark: No (USB4C02835)
Strobe/Lamp Enabled: No (USB4C02835)
Correct for Detector Non-linearity: No (USB4C02835)
Correct for Stray Light: No (USB4C02835)
Number of Pixels in Processed Spectrum: 3648
>>>>>Begin Processed Spectral Data<<<<<
177.47	1517.54
177.69	1517.54
177.91	1517.54
178.13	1429.48
178.36	1419.24
178.58	1560.55
178.80	1740.77
179.02	1519.59
179.24	1683.43
179.46	1673.19
179.68	1808.36
179.90	1640.42
180.13	1695.72
180.35	1599.46
180.57	1710.05
180.79	1751.01
181.01	1724.39
181.23	1693.67
181.45	1800.16
181.67	1791.97
181.90	1710.05
182.12	1628.14
182.34	1621.99
182.56	1748.97
182.78	1746.92
183.00	1693.67
183.22	1748.97
183.44	1587.18
183.66	1824.74
183.89	1759.21
184.11	1728.49
184.33	1757.16
184.55	1808.36
184.77	1732.58
184.99	1714.15
185.21	1650.66
185.43	1759.21
185.65	1656.81
185.87	1689.57
186.10	1830.88
186.32	1822.69
186.54	1691.62
186.76	1728.49
186.98	1726.44
187.20	1783.78
187.42	1724.39
187.64	1705.96
187.86	1701.86
188.08	1712.10
188.30	1701.86
188.52	1673.19
188.75	1841.12
188.97	1765.35
189.19	1699.81
189.41	1658.85
189.63	1710.05
189.85	1587.18
190.07	1669.09
190.29	1595.37
190.51	1744.87
190.73	1679.33
190.95	1761.25
191.17	1759.21
191.39	1650.66
191.61	1695.72
191.84	1679.33
192.06	1748.97
192.28	1628.14
192.50	1814.50
192.72	1710.05
192.94	1728.49
193.16	1662.95
193.38	1718.25
193.60	1685.48
193.82	1755.11
194.04	1767.40
194.26	1628.14
194.48	1615.85
194.70	1665.00
194.92	1634.28
195.14	1753.06
195.36	1624.04
195.58	1681.38
195.80	1730.53
196.02	1675.24
196.24	1628.14
196.46	1816.55
196.69	1634.28
196.91	1933.28
197.13	1669.09
197.35	1665.00
197.57	1759.21
197.79	1640.42
198.01	1708.01
198.23	1810.40
198.45	1761.25
198.67	1689.57
198.89	1683.43
199.11	1763.30
199.33	1716.20
199.55	1550.31
199.77	1632.23
199.99	1734.63
200.21	1677.29
200.43	1808.36
200.65	1578.98
200.87	1533.93
201.09	1681.38
201.31	1652.71
201.53	1751.01
201.75	1708.01
201.97	1685.48
202.19	1720.29
202.41	1705.96
202.63	1820.64
202.85	1703.91
203.07	1658.85
203.29	1722.34
203.51	1595.37
203.73	1675.24
203.95	1863.65
204.17	1724.39
204.39	1726.44
204.61	1755.11
204.83	1671.14
205.05	1685.48
205.27	1722.34
205.49	1712.10
205.71	1740.77
205.93	1603.56
206.15	1630.18
206.37	1644.52
206.59	1583.08
206.81	1644.52
207.03	1716.20
207.25	1650.66
207.47	1691.62
207.69	1681.38
207.91	1744.87
208.13	1800.16
208.34	1646.57
208.56	1630.18
208.78	1697.77
209.00	1669.09
209.22	1681.38
209.44	1640.42
209.66	1689.57
209.88	1736.68
210.10	1646.57
210.32	1605.61
210.54	1728.49
210.76	1701.86
210.98	1781.73
211.20	1538.02
211.42	1712.10
211.64	1765.35
211.86	1800.16
212.08	1748.97
212.30	1673.19
212.52	1755.11
212.74	1673.19
212.96	1675.24
213.17	1775.59
213.39	1753.06
213.61	1779.68
213.83	1765.35
214.05	1732.58
214.27	1728.49
214.49	1597.42
214.71	1658.85
214.93	1695.72
215.15	1763.30
215.37	1755.11
215.59	1574.89
215.81	1751.01
216.03	1769.44
216.24	1656.81
216.46	1693.67
216.68	1724.39
216.90	1779.68
217.12	1738.73
217.34	1677.29
217.56	1697.77
217.78	1779.68
218.00	1679.33
218.22	1714.15
218.44	1720.29
218.66	1789.92
218.87	1810.40
219.09	1638.38
219.31	1748.97
219.53	1683.43
219.75	1665.00
219.97	1648.61
220.19	1652.71
220.41	1710.05
220.63	1816.55
220.85	1761.25
221.06	1697.77
221.28	1785.83
221.50	1650.66
221.72	1685.48
221.94	1665.00
222.16	1777.64
222.38	1677.29
222.60	1720.29
222.82	1652.71
223.03	1705.96
223.25	1589.22
223.47	1798.12
223.69	1812.45
223.91	1699.81
224.13	1773.54
224.35	1710.05
224.57	1665.00
224.78	1724.39
225.00	1591.27
225.22	1773.54
225.44	1720.29
225.66	1677.29
225.88	1671.14
226.10	1695.72
226.32	1767.40
226.53	1806.31
226.75	1638.38
226.97	1683.43
227.19	1701.86
227.41	1736.68
227.63	1683.43
227.85	1603.56
228.06	1691.62
228.28	1714.15
228.50	1757.16
228.72	1679.33
228.94	1679.33
229.16	1650.66
229.37	1611.75
229.59	1679.33
229.81	1746.92
230.03	1687.53
230.25	1640.42
230.47	1624.04
230.69	1601.51
230.90	1724.39
231.12	1585.13
231.34	1751.01
231.56	1740.77
231.78	1673.19
232.00	1779.68
232.21	1671.14
232.43	1632.23
232.65	1611.75
232.87	1763.30
233.09	1626.09
233.30	1697.77
233.52	1769.44
233.74	1712.10
233.96	1691.62
234.18	1726.44
234.40	1658.85
234.61	1816.55
234.83	1714.15
235.05	1568.74
235.27	1804.26
235.49	1746.92
235.70	1708.01
235.92	1730.53
236.14	1703.91
236.36	1853.41
236.58	1611.75
236.79	1665.00
237.01	1685.48
237.23	1708.01
237.45	1810.40
237.67	1581.03
237.88	1699.81
238.10	1806.31
238.32	1632.23
238.54	1667.05
238.76	1634.28
238.97	1632.23
239.19	1718.25
239.41	1744.87
239.63	1761.25
239.85	1722.34
240.06	1685.48
240.28	1607.66
240.50	1755.11
240.72	1734.63
240.93	1718.25
241.15	1701.86
241.37	1712.10
241.59	1812.45
241.81	1714.15
242.02	1646.57
242.24	1783.78
242.46	1744.87
242.68	1626.09
242.89	1687.53
243.11	1794.02
243.33	1683.43
243.55	1705.96
243.76	1763.30
243.98	1642.47
244.20	1769.44
244.42	1759.21
244.64	1740.77
244.85	1669.09
245.07	1699.81
245.29	1740.77
245.51	1705.96
245.72	1767.40
245.94	1806.31
246.16	1669.09
246.38	1753.06
246.59	1638.38
246.81	1665.00
247.03	1685.48
247.24	1683.43
247.46	1644.52
247.68	1650.66
247.90	1720.29
248.11	1679.33
248.33	1761.25
248.55	1699.81
248.77	1798.12
248.98	1722.34
249.20	1753.06
249.42	1742.82
249.64	1675.24
249.85	1681.38
250.07	1603.56
250.29	1714.15
250.50	1730.53
250.72	1617.90
250.94	1687.53
251.16	1822.69
251.37	1791.97
251.59	1744.87
251.81	1697.77
252.02	1757.16
252.24	1681.38
252.46	1839.08
252.68	1621.99
252.89	1601.51
253.11	1589.22
253.33	1781.73
253.54	1812.45
253.76	1722.34
253.98	1644.52
254.20	1621.99
254.41	1652.71
254.63	1724.39
254.85	1656.81
255.06	1777.64
255.28	1738.73
255.50	1695.72
255.71	1675.24
255.93	1619.94
256.15	1687.53
256.36	1777.64
256.58	1658.85
256.80	1746.92
257.02	1675.24
257.23	1726.44
257.45	1675.24
257.67	1718.25
257.88	1681.38
258.10	1640.42
258.32	1675.24
258.53	1632.23
258.75	1771.49
258.97	1740.77
259.18	1685.48
259.40	1742.82
259.62	1757.16
259.83	1751.01
260.05	1759.21
260.27	1933.28
260.48	1742.82
260.70	1628.14
260.92	1615.85
261.13	1671.14
261.35	1714.15
261.57	1671.14
261.78	1572.84
262.00	1660.90
262.22	1787.88
262.43	1611.75
262.65	1621.99
262.86	1716.20
263.08	1906.66
263.30	1748.97
263.51	1615.85
263.73	1740.77
263.95	1796.07
264.16	1566.70
264.38	1617.90
264.60	1740.77
264.81	1599.46
265.03	1705.96
265.25	1681.38
265.46	1697.77
265.68	1814.50
265.89	1710.05
266.11	1628.14
266.33	1738.73
266.54	1732.58
266.76	1787.88
266.98	1742.82
267.19	1822.69
267.41	1660.90
267.62	1730.53
267.84	1611.75
268.06	1726.44
268.27	1691.62
268.49	1800.16
268.70	1722.34
268.92	1714.15
269.14	1552.36
269.35	1632.23
269.57	1648.61
269.79	1734.63
270.00	1701.86
270.22	1773.54
270.43	1677.29
270.65	1585.13
270.87	1710.05
271.08	1726.44
271.30	1767.40
271.51	1714.15
271.73	1701.86
271.95	1746.92
272.16	1718.25
272.38	1746.92
272.59	1742.82
272.81	1681.38
273.02	1730.53
273.24	1824.74
273.46	1753.06
273.67	1613.80
273.89	1675.24
274.10	1656.81
274.32	1767.40
274.54	1744.87
274.75	1681.38
274.97	1634.28
275.18	1746.92
275.40	1681.38
275.61	1683.43
275.83	1738.73
276.05	1603.56
276.26	1646.57
276.48	1736.68
276.69	1726.44
276.91	1726.44
277.12	1794.02
277.34	1769.44
277.55	1718.25
277.77	1716.20
277.99	1673.19
278.20	1695.72
278.42	1673.19
278.63	1701.86
278.85	1681.38
279.06	1562.60
279.28	1681.38
279.49	1771.49
279.71	1761.25
279.93	1671.14
280.14	1728.49
280.36	1646.57
280.57	1699.81
280.79	1759.21
281.00	1638.38
281.22	1656.81
281.43	1804.26
281.65	1560.55
281.86	1675.24
282.08	1740.77
282.29	1845.22
282.51	1603.56
282.73	1675.24
282.94	1695.72
283.16	1814.50
283.37	1767.40
283.59	1687.53
283.80	1671.14
284.02	1697.77
284.23	1658.85
284.45	1742.82
284.66	1564.65
284.88	1591.27
285.09	1736.68
285.31	1726.44
285.52	1685.48
285.74	1609.70
285.95	1701.86
286.17	1697.77
286.38	1763.30
286.60	1585.13
286.81	1644.52
287.03	1738.73
287.24	1716.20
287.46	1730.53
287.67	1730.53
287.89	1812.45
288.10	1697.77
288.32	1757.16
288.53	1779.68
288.75	1667.05
288.96	1751.01
289.18	1636.33
289.39	1677.29
289.61	1718.25
289.82	1802.21
290.04	1826.79
290.25	1648.61
290.47	1665.00
290.68	1558.50
290.90	1705.96
291.11	1624.04
291.33	1867.75
291.54	1538.02
291.76	1644.52
291.97	1712.10
292.18	1708.01
292.40	1705.96
292.61	1681.38
292.83	1853.41
293.04	1771.49
293.26	1683.43
293.47	1658.85
293.69	1665.00
293.90	1658.85
294.12	1736.68
294.33	1800.16
294.55	1697.77
294.76	1681.38
294.97	1769.44
295.19	1771.49
295.40	1681.38
295.62	1736.68
295.83	1744.87
296.05	1705.96
296.26	1812.45
296.48	1675.24
296.69	1740.77
296.90	1732.58
297.12	1701.86
297.33	1773.54
297.55	1730.53
297.76	1677.29
297.98	1777.64
298.19	1767.40
298.41	1644.52
298.62	1562.60
298.83	1837.03
299.05	1691.62
299.26	1628.14
299.48	1656.81
299.69	1726.44
299.90	1705.96
300.12	1615.85
300.33	1699.81
300.55	1740.77
300.76	1744.87
300.98	1601.51
301.19	1796.07
301.40	1736.68
301.62	1712.10
301.83	1738.73
302.05	1710.05
302.26	1718.25
302.47	1673.19
302.69	1656.81
302.90	1740.77
303.12	1585.13
303.33	1763.30
303.54	1773.54
303.76	1658.85
303.97	1742.82
304.19	1685.48
304.40	1609.70
304.61	1720.29
304.83	1812.45
305.04	1734.63
305.26	1722.34
305.47	1638.38
305.68	1740.77
305.90	1634.28
306.11	1759.21
306.33	1650.66
306.54	1630.18
306.75	1673.19
306.97	1576.94
307.18	1665.00
307.39	1652.71
307.61	1794.02
307.82	1652.71
308.04	1732.58
308.25	1601.51
308.46	1755.11
308.68	1675.24
308.89	1695.72
309.10	1746.92
309.32	1699.81
309.53	1712.10
309.74	1667.05
309.96	1650.66
310.17	1787.88
310.39	1673.19
310.60	1761.25
310.81	1646.57
311.03	1591.27
311.24	1753.06
311.45	1714.15
311.67	1892.32
311.88	1748.97
312.09	1742.82
312.31	1726.44
312.52	1685.48
312.73	1722.34
312.95	1626.09
313.16	1683.43
313.37	1755.11
313.59	1773.54
313.80	1708.01
314.01	1853.41
314.23	1675.24
314.44	1615.85
314.65	1638.38
314.87	1669.09
315.08	1703.91
315.29	1691.62
315.51	1681.38
315.72	1689.57
315.93	1822.69
316.15	1757.16
316.36	1660.90
316.57	1744.87
316.79	1695.72
317.00	1673.19
317.21	1716.20
317.43	1687.53
317.64	1765.35
317.85	1683.43
318.07	1716.20
318.28	1761.25
318.49	1783.78
318.70	1863.65
318.92	1820.64
319.13	1828.84
319.34	1820.64
319.56	1744.87
319.77	1763.30
319.98	1814.50
320.20	1781.73
320.41	1757.16
320.62	1810.40
320.83	1648.61
321.05	1783.78
321.26	1685.48
321.47	1703.91
321.69	1755.11
321.90	1710.05
322.11	1679.33
322.32	1646.57
322.54	1724.39
322.75	1634.28
322.96	1796.07
323.18	1667.05
323.39	1611.75
323.60	1687.53
323.81	1794.02
324.03	1587.18
324.24	1671.14
324.45	1695.72
324.66	1697.77
324.88	1783.78
325.09	1794.02
325.30	1675.24
325.52	1740.77
325.73	1689.57
325.94	1712.10
326.15	1617.90
326.37	1697.77
326.58	1820.64
326.79	1769.44
327.00	1640.42
327.22	1648.61
327.43	1742.82
327.64	1730.53
327.85	1689.57
328.07	1740.77
328.28	1787.88
328.49	1691.62
328.70	1695.72
328.92	1679.33
329.13	1691.62
329.34	1650.66
329.55	1865.70
329.76	1771.49
329.98	1705.96
330.19	1775.59
330.40	1695.72
330.61	1757.16
330.83	1832.93
331.04	1671.14
331.25	1726.44
331.46	1693.67
331.68	1677.29
331.89	1742.82
332.10	1730.53
332.31	1621.99
332.52	1671.14
332.74	1802.21
332.95	1644.52
333.16	1785.83
333.37	1673.19
333.58	1689.57
333.80	1697.77
334.01	1591.27
334.22	1708.01
334.43	1751.01
334.64	1708.01
334.86	1550.31
335.07	1677.29
335.28	1761.25
335.49	1585.13
335.70	1757.16
335.92	1773.54
336.13	1947.62
336.34	1783.78
336.55	1611.75
336.76	1769.44
336.98	1665.00
337.19	1722.34
337.40	1837.03
337.61	1867.75
337.82	1705.96
338.04	1757.16
338.25	1626.09
338.46	1669.09
338.67	1708.01
338.88	1660.90
339.09	1642.47
339.31	1689.57
339.52	1595.37
339.73	1673.19
339.94	1691.62
340.15	1730.53
340.36	1642.47
340.58	1615.85
340.79	1665.00
341.00	1693.67
341.21	1669.09
341.42	1830.88
341.63	1693.67
341.85	1724.39
342.06	1751.01
342.27	1705.96
342.48	1734.63
342.69	1585.13
342.90	1705.96
343.12	1757.16
343.33	1607.66
343.54	1658.85
343.75	1730.53
343.96	1677.29
344.17	1624.04
344.38	1785.83
344.60	1644.52
344.81	1654.76
345.02	1740.77
345.23	1671.14
345.44	1880.04
345.65	1779.68
345.86	1732.58
346.07	1691.62
346.29	1685.48
346.50	1687.53
346.71	1738.73
346.92	1804.26
347.13	1830.88
347.34	1628.14
347.55	1669.09
347.76	1732.58
347.98	1634.28
348.19	1703.91
348.40	1771.49
348.61	1601.51
348.82	1828.84
349.03	1773.54
349.24	1640.42
349.45	1718.25
349.66	1630.18
349.88	1722.34
350.09	1554.41
350.30	1773.54
350.51	1804.26
350.72	1708.01
350.93	1736.68
351.14	1687.53
351.35	1730.53
351.56	1669.09
351.77	1726.44
351.99	1708.01
352.20	1796.07
352.41	1767.40
352.62	1587.18
352.83	1667.05
353.04	1691.62
353.25	1681.38
353.46	1783.78
353.67	1734.63
353.88	1599.46
354.09	1675.24
354.30	1699.81
354.52	1697.77
354.73	1705.96
354.94	1689.57
355.15	1771.49
355.36	1837.03
355.57	1611.75
355.78	1656.81
355.99	1677.29
356.20	1710.05
356.41	1740.77
356.62	1683.43
356.83	1728.49
357.04	1779.68
357.25	1593.32
357.46	1685.48
357.68	1624.04
357.89	1640.42
358.10	1617.90
358.31	1632.23
358.52	1658.85
358.73	1626.09
358.94	1626.09
359.15	1708.01
359.36	1751.01
359.57	1697.77
359.78	1734.63
359.99	1710.05
360.20	1626.09
360.41	1646.57
360.62	1746.92
360.83	1665.00
361.04	1724.39
361.25	1714.15
361.46	1777.64
361.67	1746.92
361.88	1746.92
362.09	1718.25
362.30	1685.48
362.51	1615.85
362.72	1632.23
362.93	1761.25
363.14	1716.20
363.35	1759.21
363.56	1730.53
363.78	1761.25
363.99	1738.73
364.20	1652.71
364.41	1720.29
364.62	1773.54
364.83	1826.79
365.04	1683.43
365.25	1648.61
365.46	1800.16
365.67	1687.53
365.88	1630.18
366.09	1591.27
366.30	1615.85
366.51	1685.48
366.72	1632.23
366.93	1705.96
367.14	1685.48
367.35	1712.10
367.56	1736.68
367.77	1701.86
367.98	1697.77
368.18	1726.44
368.39	1771.49
368.60	1705.96
368.81	1738.73
369.02	1691.62
369.23	1662.95
369.44	1652.71
369.65	1675.24
369.86	1714.15
370.07	1748.97
370.28	1701.86
370.49	1710.05
370.70	1828.84
370.91	1718.25
371.12	1605.61
371.33	1695.72
371.54	1681.38
371.75	1841.12
371.96	1628.14
372.17	1767.40
372.38	1724.39
372.59	1736.68
372.80	1591.27
373.01	1722.34
373.22	1624.04
373.43	1613.80
373.64	1640.42
373.85	1691.62
374.06	1849.32
374.26	1705.96
374.47	1716.20
374.68	1828.84
374.89	1740.77
375.10	1738.73
375.31	1755.11
375.52	1648.61
375.73	1656.81
375.94	1660.90
376.15	1744.87
376.36	1675.24
376.57	1660.90
376.78	1667.05
376.99	1712.10
377.20	1744.87
377.40	1665.00
377.61	1873.89
377.82	1691.62
378.03	1742.82
378.24	1720.29
378.45	1675.24
378.66	1718.25
378.87	1634.28
379.08	1605.61
379.29	1665.00
379.50	1763.30
379.71	1716.20
379.91	1718.25
380.12	1757.16
380.33	1691.62
380.54	1665.00
380.75	1712.10
380.96	1689.57
381.17	1689.57
381.38	1746.92
381.59	1785.83
381.80	1703.91
382.00	1777.64
382.21	1724.39
382.42	1882.08
382.63	1859.56
382.84	1761.25
383.05	1818.60
383.26	1800.16
383.47	1736.68
383.68	1753.06
383.88	1751.01
384.09	1771.49
384.30	1738.73
384.51	1736.68
384.72	1634.28
384.93	1689.57
385.14	1728.49
385.35	1761.25
385.55	1576.94
385.76	1804.26
385.97	1693.67
386.18	1642.47
386.39	1716.20
386.60	1689.57
386.81	1761.25
387.02	1640.42
387.22	1677.29
387.43	1738.73
387.64	1726.44
387.85	1839.08
388.06	2156.51
388.27	4261.82
388.48	6827.93
388.68	8271.75
388.89	9752.43
389.10	9766.76
389.31	8652.67
389.52	7485.33
389.73	6746.01
389.93	6385.57
390.14	6098.85
390.35	5144.50
390.56	4511.68
390.77	3708.87
390.98	3047.38
391.18	2492.38
391.39	2050.02
391.60	1916.90
391.81	1851.36
392.02	1724.39
392.23	1859.56
392.43	1746.92
392.64	1740.77
392.85	1726.44
393.06	1820.64
393.27	1783.78
393.47	1679.33
393.68	1677.29
393.89	1634.28
394.10	1779.68
394.31	1751.01
394.52	1632.23
394.72	1656.81
394.93	1724.39
395.14	1646.57
395.35	1705.96
395.56	1746.92
395.76	1718.25
395.97	1857.51
396.18	1843.17
396.39	1775.59
396.60	2000.87
396.80	1947.62
397.01	1900.52
397.22	1871.84
397.43	1802.21
397.64	1771.49
397.84	1748.97
398.05	1785.83
398.26	1722.34
398.47	1787.88
398.67	1814.50
398.88	1708.01
399.09	1732.58
399.30	1673.19
399.51	1773.54
399.71	1638.38
399.92	1720.29
400.13	1726.44
400.34	1681.38
400.54	1699.81
400.75	1814.50
400.96	1746.92
401.17	1738.73
401.37	1730.53
401.58	1732.58
401.79	1722.34
402.00	1882.08
402.21	1996.77
402.41	1941.47
402.62	2002.91
402.83	2064.35
403.04	1972.19
403.24	2013.15
403.45	1843.17
403.66	1882.08
403.87	1896.42
404.07	1998.82
404.28	1859.56
404.49	1837.03
404.70	1763.30
404.90	1701.86
405.11	1730.53
405.32	1763.30
405.52	1710.05
405.73	1685.48
405.94	1658.85
406.15	1621.99
406.35	1724.39
406.56	1755.11
406.77	1689.57
406.98	1697.77
407.18	1679.33
407.39	1751.01
407.60	1722.34
407.80	1687.53
408.01	1665.00
408.22	1796.07
408.43	1669.09
408.63	1769.44
408.84	1734.63
409.05	1685.48
409.25	1646.57
409.46	1619.94
409.67	1703.91
409.88	1675.24
410.08	1742.82
410.29	1660.90
410.50	1722.34
410.70	1769.44
410.91	1662.95
411.12	1687.53
411.32	1701.86
411.53	1621.99
411.74	1703.91
411.95	1755.11
412.15	1738.73
412.36	1755.11
412.57	1710.05
412.77	1849.32
412.98	1744.87
413.19	1697.77
413.39	1697.77
413.60	1812.45
413.81	1763.30
414.01	1710.05
414.22	1779.68
414.43	1673.19
414.63	1691.62
414.84	1808.36
415.05	1738.73
415.25	1669.09
415.46	1761.25
415.67	1730.53
415.87	1732.58
416.08	1765.35
416.29	1697.77
416.49	1742.82
416.70	1714.15
416.91	1626.09
417.11	1671.14
417.32	1800.16
417.53	1800.16
417.73	1646.57
417.94	1662.95
418.15	1650.66
418.35	1665.00
418.56	1669.09
418.77	1880.04
418.97	1705.96
419.18	1652.71
419.38	1552.36
419.59	1689.57
419.80	1800.16
420.00	1673.19
420.21	1656.81
420.42	1810.40
420.62	1712.10
420.83	1656.81
421.04	1681.38
421.24	1736.68
421.45	1814.50
421.65	1791.97
421.86	1652.71
422.07	1830.88
422.27	1722.34
422.48	1656.81
422.69	1718.25
422.89	1708.01
423.10	1705.96
423.30	1609.70
423.51	1691.62
423.72	1693.67
423.92	1708.01
424.13	1658.85
424.33	1800.16
424.54	1734.63
424.75	1701.86
424.95	1705.96
425.16	1724.39
425.36	1642.47
425.57	1730.53
425.78	1630.18
425.98	1699.81
426.19	1699.81
426.39	1609.70
426.60	1720.29
426.81	1757.16
427.01	1701.86
427.22	1624.04
427.42	1656.81
427.63	1656.81
427.83	1718.25
428.04	1791.97
428.25	1789.92
428.45	1777.64
428.66	1841.12
428.86	1703.91
429.07	1662.95
429.28	1705.96
429.48	1701.86
429.69	1753.06
429.89	1730.53
430.10	1626.09
430.30	1744.87
430.51	1755.11
430.71	1730.53
430.92	1759.21
431.13	1705.96
431.33	1773.54
431.54	1734.63
431.74	1757.16
431.95	1785.83
432.15	1669.09
432.36	1665.00
432.56	1660.90
432.77	1744.87
432.98	1714.15
433.18	1722.34
433.39	1712.10
433.59	1705.96
433.80	1783.78
434.00	1871.84
434.21	1683.43
434.41	1708.01
434.62	1863.65
434.82	1724.39
435.03	1677.29
435.23	1724.39
435.44	1665.00
435.64	1789.92
435.85	1677.29
436.06	1800.16
436.26	1726.44
436.47	1669.09
436.67	1697.77
436.88	1675.24
437.08	1722.34
437.29	1800.16
437.49	1708.01
437.70	1779.68
437.90	1693.67
438.11	1880.04
438.31	1775.59
438.52	1806.31
438.72	1818.60
438.93	1824.74
439.13	1814.50
439.34	1767.40
439.54	1738.73
439.75	1816.55
439.95	1742.82
440.16	1693.67
440.36	1714.15
440.57	1755.11
440.77	1761.25
440.98	1759.21
441.18	1728.49
441.39	1710.05
441.59	1679.33
441.80	1820.64
442.00	1767.40
442.21	1779.68
442.41	1683.43
442.62	1771.49
442.82	1712.10
443.02	1746.92
443.23	1755.11
443.43	1644.52
443.64	1896.42
443.84	1681.38
444.05	1742.82
444.25	1724.39
444.46	1755.11
444.66	1763.30
444.87	1724.39
445.07	1716.20
445.28	1718.25
445.48	1787.88
445.69	1757.16
445.89	1806.31
446.09	1796.07
446.30	2066.40
446.50	2564.06
446.71	3682.25
446.91	4315.07
447.12	4796.34
447.32	4816.82
447.53	4337.60
447.73	3864.52
447.93	3502.03
448.14	3307.47
448.34	3112.91
448.55	2926.55
448.75	2760.66
448.96	2656.22
449.16	2371.55
449.36	2277.34
449.57	2086.88
449.77	1964.00
449.98	1806.31
450.18	1798.12
450.39	1824.74
450.59	1757.16
450.79	1720.29
451.00	1771.49
451.20	1814.50
451.41	1693.67
451.61	1703.91
451.81	1679.33
452.02	1650.66
452.22	1691.62
452.43	1695.72
452.63	1714.15
