SpectraSuite Data File
++++++++++++++++++++++++++++++++++++
Date: Mon Jun 06 15:45:37 CEST 2016
User: root
Dark Spectrum Present: No
Reference Spectrum Present: No
Number of Sampled Component Spectra: 1
Spectrometers: USB4C02835
Integration Time (usec): 100000 (USB4C02835)
Spectra Averaged: 1 (USB4C02835)
Boxcar Smoothing: 0 (USB4C02835)
Correct for Electrical Dark: No (USB4C02835)
Strobe/Lamp Enabled: No (USB4C02835)
Correct for Detector Non-linearity: No (USB4C02835)
Correct for Stray Light: No (USB4C02835)
Number of Pixels in Processed Spectrum: 3648
>>>>>Begin Processed Spectral Data<<<<<
177.47	1527.78
177.69	1527.78
177.91	1527.78
178.13	1497.07
178.36	1443.82
178.58	1640.42
178.80	1796.07
179.02	1648.61
179.24	1679.33
179.46	1710.05
179.68	1769.44
179.90	1794.02
180.13	1691.62
180.35	1703.91
180.57	1734.63
180.79	1728.49
181.01	1716.20
181.23	1837.03
181.45	1751.01
181.67	1732.58
181.90	1736.68
182.12	1677.29
182.34	1665.00
182.56	1685.48
182.78	1759.21
183.00	1699.81
183.22	1708.01
183.44	1613.80
183.66	1789.92
183.89	1771.49
184.11	1677.29
184.33	1765.35
184.55	1798.12
184.77	1724.39
184.99	1724.39
185.21	1648.61
185.43	1832.93
185.65	1781.73
185.87	1789.92
186.10	1847.27
186.32	1861.60
186.54	1669.09
186.76	1685.48
186.98	1724.39
187.20	1656.81
187.42	1744.87
187.64	1705.96
187.86	1703.91
188.08	1751.01
188.30	1763.30
188.52	1697.77
188.75	1796.07
188.97	1865.70
189.19	1695.72
189.41	1726.44
189.63	1808.36
189.85	1687.53
190.07	1677.29
190.29	1640.42
190.51	1728.49
190.73	1615.85
190.95	1810.40
191.17	1716.20
191.39	1624.04
191.61	1708.01
191.84	1714.15
192.06	1679.33
192.28	1656.81
192.50	1886.18
192.72	1744.87
192.94	1714.15
193.16	1781.73
193.38	1779.68
193.60	1681.38
193.82	1708.01
194.04	1847.27
194.26	1744.87
194.48	1775.59
194.70	1679.33
194.92	1730.53
195.14	1781.73
195.36	1605.61
195.58	1667.05
195.80	1773.54
196.02	1648.61
196.24	1708.01
196.46	1746.92
196.69	1683.43
196.91	1849.32
197.13	1716.20
197.35	1603.56
197.57	1851.36
197.79	1824.74
198.01	1648.61
198.23	1691.62
198.45	1767.40
198.67	1634.28
198.89	1732.58
199.11	1738.73
199.33	1626.09
199.55	1572.84
199.77	1726.44
199.99	1771.49
200.21	1720.29
200.43	1761.25
200.65	1695.72
200.87	1658.85
201.09	1730.53
201.31	1685.48
201.53	1755.11
201.75	1820.64
201.97	1759.21
202.19	1763.30
202.41	1746.92
202.63	1853.41
202.85	1798.12
203.07	1763.30
203.29	1732.58
203.51	1691.62
203.73	1693.67
203.95	1869.80
204.17	1742.82
204.39	1796.07
204.61	1712.10
204.83	1710.05
205.05	1761.25
205.27	1824.74
205.49	1820.64
205.71	1697.77
205.93	1662.95
206.15	1726.44
206.37	1712.10
206.59	1738.73
206.81	1714.15
207.03	1656.81
207.25	1673.19
207.47	1757.16
207.69	1695.72
207.91	1761.25
208.13	1740.77
208.34	1673.19
208.56	1710.05
208.78	1789.92
209.00	1658.85
209.22	1720.29
209.44	1759.21
209.66	1730.53
209.88	1730.53
210.10	1732.58
210.32	1683.43
210.54	1804.26
210.76	1734.63
210.98	1783.78
211.20	1603.56
211.42	1685.48
211.64	1810.40
211.86	1740.77
212.08	1669.09
212.30	1757.16
212.52	1695.72
212.74	1779.68
212.96	1683.43
213.17	1765.35
213.39	1722.34
213.61	1857.51
213.83	1656.81
214.05	1578.98
214.27	1783.78
214.49	1595.37
214.71	1687.53
214.93	1763.30
215.15	1697.77
215.37	1710.05
215.59	1615.85
215.81	1783.78
216.03	1826.79
216.24	1705.96
216.46	1648.61
216.68	1689.57
216.90	1712.10
217.12	1818.60
217.34	1744.87
217.56	1699.81
217.78	1800.16
218.00	1773.54
218.22	1720.29
218.44	1751.01
218.66	1722.34
218.87	1798.12
219.09	1734.63
219.31	1771.49
219.53	1732.58
219.75	1671.14
219.97	1714.15
220.19	1726.44
220.41	1691.62
220.63	1759.21
220.85	1701.86
221.06	1705.96
221.28	1845.22
221.50	1695.72
221.72	1697.77
221.94	1734.63
222.16	1681.38
222.38	1744.87
222.60	1767.40
222.82	1638.38
223.03	1746.92
223.25	1658.85
223.47	1789.92
223.69	1802.21
223.91	1781.73
224.13	1765.35
224.35	1693.67
224.57	1773.54
224.78	1804.26
225.00	1681.38
225.22	1722.34
225.44	1701.86
225.66	1671.14
225.88	1605.61
226.10	1714.15
226.32	1720.29
226.53	1802.21
226.75	1687.53
226.97	1656.81
227.19	1681.38
227.41	1642.47
227.63	1615.85
227.85	1640.42
228.06	1718.25
228.28	1712.10
228.50	1865.70
228.72	1716.20
228.94	1697.77
229.16	1630.18
229.37	1714.15
229.59	1673.19
229.81	1798.12
230.03	1765.35
230.25	1652.71
230.47	1581.03
230.69	1605.61
230.90	1722.34
231.12	1748.97
231.34	1701.86
231.56	1720.29
231.78	1656.81
232.00	1738.73
232.21	1671.14
232.43	1724.39
232.65	1619.94
232.87	1722.34
233.09	1601.51
233.30	1701.86
233.52	1701.86
233.74	1736.68
233.96	1728.49
234.18	1781.73
234.40	1677.29
234.61	1859.56
234.83	1660.90
235.05	1644.52
235.27	1761.25
235.49	1757.16
235.70	1759.21
235.92	1734.63
236.14	1763.30
236.36	1916.90
236.58	1679.33
236.79	1701.86
237.01	1720.29
237.23	1730.53
237.45	1859.56
237.67	1603.56
237.88	1699.81
238.10	1771.49
238.32	1673.19
238.54	1710.05
238.76	1644.52
238.97	1681.38
239.19	1617.90
239.41	1789.92
239.63	1710.05
239.85	1675.24
240.06	1677.29
240.28	1665.00
240.50	1724.39
240.72	1695.72
240.93	1763.30
241.15	1763.30
241.37	1708.01
241.59	1740.77
241.81	1630.18
242.02	1773.54
242.24	1757.16
242.46	1748.97
242.68	1726.44
242.89	1724.39
243.11	1701.86
243.33	1753.06
243.55	1746.92
243.76	1757.16
243.98	1675.24
244.20	1763.30
244.42	1646.57
244.64	1744.87
244.85	1652.71
245.07	1650.66
245.29	1683.43
245.51	1751.01
245.72	1685.48
245.94	1806.31
246.16	1720.29
246.38	1773.54
246.59	1662.95
246.81	1689.57
247.03	1634.28
247.24	1609.70
247.46	1728.49
247.68	1751.01
247.90	1724.39
248.11	1632.23
248.33	1783.78
248.55	1699.81
248.77	1785.83
248.98	1738.73
249.20	1816.55
249.42	1705.96
249.64	1701.86
249.85	1732.58
250.07	1646.57
250.29	1712.10
250.50	1824.74
250.72	1695.72
250.94	1738.73
251.16	1808.36
251.37	1800.16
251.59	1689.57
251.81	1718.25
252.02	1794.02
252.24	1726.44
252.46	1834.98
252.68	1708.01
252.89	1675.24
253.11	1628.14
253.33	1880.04
253.54	1757.16
253.76	1710.05
253.98	1701.86
254.20	1705.96
254.41	1648.61
254.63	1755.11
254.85	1628.14
255.06	1665.00
255.28	1796.07
255.50	1685.48
255.71	1652.71
255.93	1642.47
256.15	1683.43
256.36	1691.62
256.58	1662.95
256.80	1748.97
257.02	1712.10
257.23	1681.38
257.45	1708.01
257.67	1724.39
257.88	1667.05
258.10	1744.87
258.32	1695.72
258.53	1730.53
258.75	1783.78
258.97	1699.81
259.18	1720.29
259.40	1751.01
259.62	1753.06
259.83	1826.79
260.05	1699.81
260.27	1918.95
260.48	1767.40
260.70	1581.03
260.92	1601.51
261.13	1705.96
261.35	1712.10
261.57	1738.73
261.78	1644.52
262.00	1708.01
262.22	1785.83
262.43	1658.85
262.65	1748.97
262.86	1652.71
263.08	1751.01
263.30	1640.42
263.51	1591.27
263.73	1722.34
263.95	1765.35
264.16	1701.86
264.38	1734.63
264.60	1757.16
264.81	1753.06
265.03	1710.05
265.25	1794.02
265.46	1732.58
265.68	1755.11
265.89	1685.48
266.11	1650.66
266.33	1771.49
266.54	1773.54
266.76	1724.39
266.98	1806.31
267.19	1779.68
267.41	1771.49
267.62	1683.43
267.84	1660.90
268.06	1722.34
268.27	1757.16
268.49	1834.98
268.70	1839.08
268.92	1677.29
269.14	1660.90
269.35	1595.37
269.57	1714.15
269.79	1796.07
270.00	1654.76
270.22	1855.46
270.43	1705.96
270.65	1654.76
270.87	1753.06
271.08	1779.68
271.30	1787.88
271.51	1753.06
271.73	1759.21
271.95	1785.83
272.16	1777.64
272.38	1740.77
272.59	1703.91
272.81	1720.29
273.02	1728.49
273.24	1767.40
273.46	1738.73
273.67	1615.85
273.89	1640.42
274.10	1722.34
274.32	1759.21
274.54	1730.53
274.75	1742.82
274.97	1679.33
275.18	1697.77
275.40	1714.15
275.61	1765.35
275.83	1748.97
276.05	1599.46
276.26	1636.33
276.48	1775.59
276.69	1820.64
276.91	1720.29
277.12	1859.56
277.34	1802.21
277.55	1675.24
277.77	1730.53
277.99	1675.24
278.20	1662.95
278.42	1677.29
278.63	1718.25
278.85	1685.48
279.06	1673.19
279.28	1669.09
279.49	1699.81
279.71	1699.81
279.93	1740.77
280.14	1689.57
280.36	1675.24
280.57	1746.92
280.79	1759.21
281.00	1689.57
281.22	1685.48
281.43	1761.25
281.65	1648.61
281.86	1621.99
282.08	1669.09
282.29	1806.31
282.51	1656.81
282.73	1652.71
282.94	1599.46
283.16	1714.15
283.37	1904.61
283.59	1738.73
283.80	1751.01
284.02	1677.29
284.23	1730.53
284.45	1669.09
284.66	1724.39
284.88	1689.57
285.09	1720.29
285.31	1679.33
285.52	1687.53
285.74	1630.18
285.95	1812.45
286.17	1705.96
286.38	1775.59
286.60	1689.57
286.81	1703.91
287.03	1695.72
287.24	1730.53
287.46	1824.74
287.67	1816.55
287.89	1777.64
288.10	1695.72
288.32	1779.68
288.53	1779.68
288.75	1705.96
288.96	1755.11
289.18	1644.52
289.39	1671.14
289.61	1794.02
289.82	1802.21
290.04	1708.01
290.25	1632.23
290.47	1710.05
290.68	1708.01
290.90	1812.45
291.11	1650.66
291.33	1724.39
291.54	1642.47
291.76	1665.00
291.97	1763.30
292.18	1701.86
292.40	1697.77
292.61	1585.13
292.83	1880.04
293.04	1705.96
293.26	1693.67
293.47	1642.47
293.69	1665.00
293.90	1714.15
294.12	1718.25
294.33	1769.44
294.55	1720.29
294.76	1755.11
294.97	1828.84
295.19	1861.60
295.40	1742.82
295.62	1724.39
295.83	1822.69
296.05	1781.73
296.26	1755.11
296.48	1687.53
296.69	1665.00
296.90	1699.81
297.12	1753.06
297.33	1832.93
297.55	1685.48
297.76	1703.91
297.98	1712.10
298.19	1701.86
298.41	1726.44
298.62	1677.29
298.83	1794.02
299.05	1761.25
299.26	1714.15
299.48	1636.33
299.69	1736.68
299.90	1738.73
300.12	1652.71
300.33	1828.84
300.55	1685.48
300.76	1658.85
300.98	1714.15
301.19	1718.25
301.40	1705.96
301.62	1665.00
301.83	1824.74
302.05	1767.40
302.26	1669.09
302.47	1751.01
302.69	1665.00
302.90	1683.43
303.12	1605.61
303.33	1720.29
303.54	1918.95
303.76	1691.62
303.97	1738.73
304.19	1742.82
304.40	1671.14
304.61	1714.15
304.83	1802.21
305.04	1775.59
305.26	1755.11
305.47	1683.43
305.68	1658.85
305.90	1556.46
306.11	1771.49
306.33	1591.27
306.54	1679.33
306.75	1718.25
306.97	1603.56
307.18	1689.57
307.39	1656.81
307.61	1744.87
307.82	1693.67
308.04	1822.69
308.25	1654.76
308.46	1771.49
308.68	1730.53
308.89	1720.29
309.10	1808.36
309.32	1681.38
309.53	1748.97
309.74	1783.78
309.96	1673.19
310.17	1773.54
310.39	1621.99
310.60	1771.49
310.81	1667.05
311.03	1708.01
311.24	1755.11
311.45	1720.29
311.67	1855.46
311.88	1697.77
312.09	1697.77
312.31	1654.76
312.52	1665.00
312.73	1714.15
312.95	1701.86
313.16	1671.14
313.37	1816.55
313.59	1730.53
313.80	1775.59
314.01	1748.97
314.23	1650.66
314.44	1691.62
314.65	1615.85
314.87	1716.20
315.08	1656.81
315.29	1677.29
315.51	1642.47
315.72	1710.05
315.93	1791.97
316.15	1814.50
316.36	1671.14
316.57	1746.92
316.79	1685.48
317.00	1722.34
317.21	1777.64
317.43	1632.23
317.64	1642.47
317.85	1636.33
318.07	1638.38
318.28	1771.49
318.49	1849.32
318.70	1918.95
318.92	1834.98
319.13	1853.41
319.34	1798.12
319.56	1810.40
319.77	1744.87
319.98	1849.32
320.20	1791.97
320.41	1765.35
320.62	1740.77
320.83	1611.75
321.05	1937.38
321.26	1710.05
321.47	1712.10
321.69	1771.49
321.90	1665.00
322.11	1656.81
322.32	1716.20
322.54	1755.11
322.75	1646.57
322.96	1886.18
323.18	1681.38
323.39	1669.09
323.60	1585.13
323.81	1730.53
324.03	1687.53
324.24	1757.16
324.45	1771.49
324.66	1716.20
324.88	1773.54
325.09	1806.31
325.30	1722.34
325.52	1716.20
325.73	1710.05
325.94	1654.76
326.15	1609.70
326.37	1628.14
326.58	1748.97
326.79	1722.34
327.00	1697.77
327.22	1712.10
327.43	1669.09
327.64	1628.14
327.85	1751.01
328.07	1656.81
328.28	1810.40
328.49	1619.94
328.70	1736.68
328.92	1718.25
329.13	1744.87
329.34	1736.68
329.55	1920.99
329.76	1681.38
329.98	1748.97
330.19	1822.69
330.40	1677.29
330.61	1685.48
330.83	1808.36
331.04	1626.09
331.25	1683.43
331.46	1681.38
331.68	1599.46
331.89	1785.83
332.10	1693.67
332.31	1691.62
332.52	1658.85
332.74	1753.06
332.95	1597.42
333.16	1669.09
333.37	1748.97
333.58	1753.06
333.80	1691.62
334.01	1667.05
334.22	1777.64
334.43	1716.20
334.64	1716.20
334.86	1640.42
335.07	1628.14
335.28	1773.54
335.49	1621.99
335.70	1804.26
335.92	1751.01
336.13	1882.08
336.34	1773.54
336.55	1730.53
336.76	1775.59
336.98	1599.46
337.19	1726.44
337.40	1824.74
337.61	1888.23
337.82	1722.34
338.04	1773.54
338.25	1650.66
338.46	1695.72
338.67	1634.28
338.88	1642.47
339.09	1681.38
339.31	1693.67
339.52	1648.61
339.73	1675.24
339.94	1720.29
340.15	1798.12
340.36	1654.76
340.58	1648.61
340.79	1730.53
341.00	1705.96
341.21	1671.14
341.42	1796.07
341.63	1640.42
341.85	1853.41
342.06	1701.86
342.27	1669.09
342.48	1720.29
342.69	1642.47
342.90	1669.09
343.12	1699.81
343.33	1712.10
343.54	1775.59
343.75	1728.49
343.96	1685.48
344.17	1648.61
344.38	1732.58
344.60	1701.86
344.81	1675.24
345.02	1720.29
345.23	1722.34
345.44	1771.49
345.65	1740.77
345.86	1830.88
346.07	1720.29
346.29	1636.33
346.50	1791.97
346.71	1681.38
346.92	1751.01
347.13	1839.08
347.34	1697.77
347.55	1724.39
347.76	1726.44
347.98	1669.09
348.19	1683.43
348.40	1638.38
348.61	1675.24
348.82	1783.78
349.03	1738.73
349.24	1726.44
349.45	1755.11
349.66	1665.00
349.88	1708.01
350.09	1669.09
350.30	1791.97
350.51	1796.07
350.72	1693.67
350.93	1720.29
351.14	1695.72
351.35	1693.67
351.56	1769.44
351.77	1662.95
351.99	1708.01
352.20	1869.80
352.41	1777.64
352.62	1607.66
352.83	1712.10
353.04	1705.96
353.25	1630.18
353.46	1798.12
353.67	1773.54
353.88	1624.04
354.09	1617.90
354.30	1689.57
354.52	1689.57
354.73	1650.66
354.94	1689.57
355.15	1679.33
355.36	1740.77
355.57	1751.01
355.78	1810.40
355.99	1730.53
356.20	1652.71
356.41	1785.83
356.62	1703.91
356.83	1740.77
357.04	1781.73
357.25	1632.23
357.46	1751.01
357.68	1650.66
357.89	1699.81
358.10	1685.48
358.31	1667.05
358.52	1755.11
358.73	1673.19
358.94	1638.38
359.15	1718.25
359.36	1693.67
359.57	1779.68
359.78	1681.38
359.99	1732.58
360.20	1687.53
360.41	1742.82
360.62	1837.03
360.83	1705.96
361.04	1705.96
361.25	1740.77
361.46	1765.35
361.67	1796.07
361.88	1783.78
362.09	1796.07
362.30	1673.19
362.51	1650.66
362.72	1746.92
362.93	1761.25
363.14	1742.82
363.35	1703.91
363.56	1773.54
363.78	1740.77
363.99	1748.97
364.20	1703.91
364.41	1748.97
364.62	1884.13
364.83	1708.01
365.04	1710.05
365.25	1697.77
365.46	1787.88
365.67	1675.24
365.88	1640.42
366.09	1728.49
366.30	1695.72
366.51	1728.49
366.72	1615.85
366.93	1665.00
367.14	1720.29
367.35	1748.97
367.56	1785.83
367.77	1861.60
367.98	1726.44
368.18	1710.05
368.39	1769.44
368.60	1632.23
368.81	1763.30
369.02	1697.77
369.23	1685.48
369.44	1583.08
369.65	1630.18
369.86	1779.68
370.07	1787.88
370.28	1701.86
370.49	1755.11
370.70	1757.16
370.91	1642.47
371.12	1701.86
371.33	1761.25
371.54	1691.62
371.75	1822.69
371.96	1593.32
372.17	1650.66
372.38	1695.72
372.59	1783.78
372.80	1720.29
373.01	1671.14
373.22	1736.68
373.43	1705.96
373.64	1669.09
373.85	1742.82
374.06	1796.07
374.26	1761.25
374.47	1740.77
374.68	1779.68
374.89	1695.72
375.10	1730.53
375.31	1740.77
375.52	1791.97
375.73	1718.25
375.94	1617.90
376.15	1849.32
376.36	1705.96
376.57	1609.70
376.78	1681.38
376.99	1740.77
377.20	1779.68
377.40	1746.92
377.61	1834.98
377.82	1671.14
378.03	1728.49
378.24	1740.77
378.45	1708.01
378.66	1722.34
378.87	1683.43
379.08	1591.27
379.29	1710.05
379.50	1697.77
379.71	1755.11
379.91	1791.97
380.12	1693.67
380.33	1671.14
380.54	1632.23
380.75	1638.38
380.96	1755.11
381.17	1732.58
381.38	1748.97
381.59	1773.54
381.80	1763.30
382.00	1861.60
382.21	1779.68
382.42	1802.21
382.63	1863.65
382.84	1794.02
383.05	1753.06
383.26	1810.40
383.47	1742.82
383.68	1759.21
383.88	1726.44
384.09	1781.73
384.30	1863.65
384.51	1775.59
384.72	1638.38
384.93	1691.62
385.14	1718.25
385.35	1816.55
385.55	1650.66
385.76	1736.68
385.97	1708.01
386.18	1667.05
386.39	1662.95
386.60	1693.67
386.81	1697.77
387.02	1732.58
387.22	1751.01
387.43	1751.01
387.64	1812.45
387.85	1886.18
388.06	2144.22
388.27	4165.57
388.48	6705.05
388.68	8136.58
388.89	9488.24
389.10	9783.15
389.31	8421.25
389.52	7534.48
389.73	6672.28
389.93	6156.19
390.14	5830.57
390.35	5072.82
390.56	4638.65
390.77	3772.36
390.98	3078.10
391.18	2545.63
391.39	2136.03
391.60	1849.32
391.81	1904.61
392.02	1722.34
392.23	1845.22
392.43	1789.92
392.64	1781.73
392.85	1742.82
393.06	1806.31
393.27	1650.66
393.47	1683.43
393.68	1722.34
393.89	1699.81
394.10	1877.99
394.31	1640.42
394.52	1671.14
394.72	1642.47
394.93	1796.07
395.14	1615.85
395.35	1730.53
395.56	1736.68
395.76	1746.92
395.97	1769.44
396.18	1886.18
396.39	1853.41
396.60	1992.67
396.80	1900.52
397.01	1886.18
397.22	1779.68
397.43	1843.17
397.64	1716.20
397.84	1789.92
398.05	1892.32
398.26	1843.17
398.47	1818.60
398.67	1875.94
398.88	1660.90
399.09	1746.92
399.30	1697.77
399.51	1806.31
399.71	1624.04
399.92	1791.97
400.13	1796.07
400.34	1677.29
400.54	1732.58
400.75	1841.12
400.96	1789.92
401.17	1787.88
401.37	1759.21
401.58	1628.14
401.79	1681.38
402.00	1845.22
402.21	1980.39
402.41	1974.24
402.62	2009.06
402.83	2002.91
403.04	2041.82
403.24	2105.31
403.45	1816.55
403.66	1855.46
403.87	1912.80
404.07	1894.37
404.28	1908.71
404.49	1771.49
404.70	1714.15
404.90	1763.30
405.11	1781.73
405.32	1855.46
405.52	1710.05
405.73	1619.94
405.94	1658.85
406.15	1728.49
406.35	1779.68
406.56	1767.40
406.77	1673.19
406.98	1751.01
407.18	1714.15
407.39	1814.50
407.60	1765.35
407.80	1751.01
408.01	1658.85
408.22	1783.78
408.43	1648.61
408.63	1748.97
408.84	1724.39
409.05	1783.78
409.25	1718.25
409.46	1755.11
409.67	1732.58
409.88	1632.23
410.08	1740.77
410.29	1708.01
410.50	1693.67
410.70	1746.92
410.91	1716.20
411.12	1722.34
411.32	1765.35
411.53	1718.25
411.74	1796.07
411.95	1794.02
412.15	1742.82
412.36	1775.59
412.57	1787.88
412.77	1798.12
412.98	1761.25
413.19	1716.20
413.39	1824.74
413.60	1773.54
413.81	1834.98
414.01	1662.95
414.22	1744.87
414.43	1771.49
414.63	1660.90
414.84	1861.60
415.05	1791.97
415.25	1626.09
415.46	1791.97
415.67	1689.57
415.87	1751.01
416.08	1779.68
416.29	1705.96
416.49	1705.96
416.70	1636.33
416.91	1742.82
417.11	1763.30
417.32	1806.31
417.53	1753.06
417.73	1746.92
417.94	1689.57
418.15	1665.00
418.35	1726.44
418.56	1763.30
418.77	1931.23
418.97	1671.14
419.18	1710.05
419.38	1544.17
419.59	1662.95
419.80	1751.01
420.00	1675.24
420.21	1759.21
420.42	1736.68
420.62	1800.16
420.83	1683.43
421.04	1681.38
421.24	1710.05
421.45	1779.68
421.65	1726.44
421.86	1759.21
422.07	1789.92
422.27	1765.35
422.48	1726.44
422.69	1738.73
422.89	1675.24
423.10	1771.49
423.30	1638.38
423.51	1615.85
423.72	1671.14
423.92	1665.00
424.13	1611.75
424.33	1765.35
424.54	1761.25
424.75	1722.34
424.95	1777.64
425.16	1734.63
425.36	1751.01
425.57	1832.93
425.78	1705.96
425.98	1806.31
426.19	1693.67
426.39	1648.61
426.60	1708.01
426.81	1742.82
427.01	1615.85
427.22	1640.42
427.42	1593.32
427.63	1738.73
427.83	1716.20
428.04	1849.32
428.25	1763.30
428.45	1837.03
428.66	1832.93
428.86	1746.92
429.07	1601.51
429.28	1691.62
429.48	1687.53
429.69	1685.48
429.89	1798.12
430.10	1642.47
430.30	1740.77
430.51	1812.45
430.71	1677.29
430.92	1695.72
431.13	1699.81
431.33	1796.07
431.54	1771.49
431.74	1794.02
431.95	1812.45
432.15	1746.92
432.36	1738.73
432.56	1697.77
432.77	1859.56
432.98	1863.65
433.18	1699.81
433.39	1742.82
433.59	1671.14
433.80	1845.22
434.00	1880.04
434.21	1658.85
434.41	1722.34
434.62	1869.80
434.82	1693.67
435.03	1665.00
435.23	1716.20
435.44	1601.51
435.64	1722.34
435.85	1736.68
436.06	1642.47
436.26	1734.63
436.47	1728.49
436.67	1699.81
436.88	1685.48
437.08	1759.21
437.29	1796.07
437.49	1724.39
437.70	1812.45
437.90	1746.92
438.11	1841.12
438.31	1779.68
438.52	1839.08
438.72	1906.66
438.93	1884.13
439.13	1718.25
439.34	1775.59
439.54	1755.11
439.75	1802.21
439.95	1820.64
440.16	1640.42
440.36	1732.58
440.57	1787.88
440.77	1679.33
440.98	1804.26
441.18	1794.02
441.39	1738.73
441.59	1677.29
441.80	1828.84
442.00	1718.25
442.21	1814.50
442.41	1624.04
442.62	1689.57
442.82	1798.12
443.02	1712.10
443.23	1765.35
443.43	1730.53
443.64	1820.64
443.84	1701.86
444.05	1824.74
444.25	1771.49
444.46	1742.82
444.66	1669.09
444.87	1877.99
445.07	1665.00
445.28	1724.39
445.48	1773.54
445.69	1761.25
445.89	1751.01
446.09	1751.01
446.30	2043.87
446.50	2588.63
446.71	3723.21
446.91	4302.78
447.12	4722.62
447.32	4800.44
447.53	4308.93
447.73	3887.04
447.93	3454.92
448.14	3360.72
448.34	3278.80
448.55	2818.00
448.75	2813.91
448.96	2758.61
449.16	2410.46
449.36	2226.14
449.57	2101.22
449.77	1945.57
449.98	1773.54
450.18	1779.68
450.39	1828.84
450.59	1806.31
450.79	1765.35
451.00	1689.57
451.20	1777.64
451.41	1685.48
451.61	1765.35
451.81	1724.39
452.02	1847.27
452.22	1656.81
452.43	1695.72
452.63	1701.86
