SpectraSuite Data File
++++++++++++++++++++++++++++++++++++
Date: Mon Jun 06 13:26:17 CEST 2016
User: root
Dark Spectrum Present: No
Reference Spectrum Present: No
Number of Sampled Component Spectra: 1
Spectrometers: USB4C02835
Integration Time (usec): 100000 (USB4C02835)
Spectra Averaged: 1 (USB4C02835)
Boxcar Smoothing: 0 (USB4C02835)
Correct for Electrical Dark: No (USB4C02835)
Strobe/Lamp Enabled: No (USB4C02835)
Correct for Detector Non-linearity: No (USB4C02835)
Correct for Stray Light: No (USB4C02835)
Number of Pixels in Processed Spectrum: 3648
>>>>>Begin Processed Spectral Data<<<<<
177.47	1400.81
177.69	1400.81
177.91	1400.81
178.13	1472.49
178.36	1466.35
178.58	1671.14
178.80	1675.24
179.02	1646.57
179.24	1660.90
179.46	1660.90
179.68	1843.17
179.90	1728.49
180.13	1685.48
180.35	1566.70
180.57	1714.15
180.79	1734.63
181.01	1705.96
181.23	1787.88
181.45	1748.97
181.67	1708.01
181.90	1783.78
182.12	1673.19
182.34	1607.66
182.56	1728.49
182.78	1681.38
183.00	1677.29
183.22	1718.25
183.44	1578.98
183.66	1855.46
183.89	1732.58
184.11	1685.48
184.33	1701.86
184.55	1703.91
184.77	1740.77
184.99	1701.86
185.21	1656.81
185.43	1796.07
185.65	1640.42
185.87	1695.72
186.10	1759.21
186.32	1820.64
186.54	1689.57
186.76	1767.40
186.98	1742.82
187.20	1708.01
187.42	1683.43
187.64	1710.05
187.86	1759.21
188.08	1705.96
188.30	1689.57
188.52	1771.49
188.75	1761.25
188.97	1828.84
189.19	1654.76
189.41	1685.48
189.63	1697.77
189.85	1624.04
190.07	1613.80
190.29	1648.61
190.51	1689.57
190.73	1603.56
190.95	1783.78
191.17	1681.38
191.39	1589.22
191.61	1714.15
191.84	1683.43
192.06	1718.25
192.28	1566.70
192.50	1847.27
192.72	1703.91
192.94	1640.42
193.16	1794.02
193.38	1689.57
193.60	1681.38
193.82	1681.38
194.04	1773.54
194.26	1716.20
194.48	1710.05
194.70	1660.90
194.92	1710.05
195.14	1767.40
195.36	1718.25
195.58	1734.63
195.80	1628.14
196.02	1705.96
196.24	1630.18
196.46	1722.34
196.69	1712.10
196.91	1789.92
197.13	1705.96
197.35	1660.90
197.57	1804.26
197.79	1720.29
198.01	1722.34
198.23	1753.06
198.45	1722.34
198.67	1669.09
198.89	1728.49
199.11	1734.63
199.33	1673.19
199.55	1546.22
199.77	1779.68
199.99	1681.38
200.21	1693.67
200.43	1789.92
200.65	1617.90
200.87	1656.81
201.09	1689.57
201.31	1654.76
201.53	1687.53
201.75	1703.91
201.97	1685.48
202.19	1718.25
202.41	1679.33
202.63	1814.50
202.85	1665.00
203.07	1761.25
203.29	1734.63
203.51	1636.33
203.73	1630.18
203.95	1925.09
204.17	1746.92
204.39	1738.73
204.61	1679.33
204.83	1722.34
205.05	1779.68
205.27	1722.34
205.49	1783.78
205.71	1656.81
205.93	1656.81
206.15	1722.34
206.37	1648.61
206.59	1693.67
206.81	1638.38
207.03	1632.23
207.25	1621.99
207.47	1765.35
207.69	1660.90
207.91	1757.16
208.13	1767.40
208.34	1634.28
208.56	1654.76
208.78	1732.58
209.00	1689.57
209.22	1697.77
209.44	1687.53
209.66	1617.90
209.88	1705.96
210.10	1660.90
210.32	1710.05
210.54	1740.77
210.76	1732.58
210.98	1765.35
211.20	1609.70
211.42	1714.15
211.64	1648.61
211.86	1728.49
212.08	1669.09
212.30	1640.42
212.52	1644.52
212.74	1726.44
212.96	1667.05
213.17	1660.90
213.39	1697.77
213.61	1761.25
213.83	1738.73
214.05	1658.85
214.27	1738.73
214.49	1578.98
214.71	1646.57
214.93	1755.11
215.15	1691.62
215.37	1740.77
215.59	1581.03
215.81	1722.34
216.03	1818.60
216.24	1640.42
216.46	1638.38
216.68	1722.34
216.90	1738.73
217.12	1730.53
217.34	1665.00
217.56	1708.01
217.78	1794.02
218.00	1742.82
218.22	1742.82
218.44	1695.72
218.66	1738.73
218.87	1824.74
219.09	1650.66
219.31	1732.58
219.53	1703.91
219.75	1654.76
219.97	1691.62
220.19	1673.19
220.41	1716.20
220.63	1783.78
220.85	1691.62
221.06	1673.19
221.28	1740.77
221.50	1730.53
221.72	1697.77
221.94	1716.20
222.16	1697.77
222.38	1728.49
222.60	1693.67
222.82	1675.24
223.03	1771.49
223.25	1654.76
223.47	1703.91
223.69	1861.60
223.91	1775.59
224.13	1615.85
224.35	1628.14
224.57	1687.53
224.78	1673.19
225.00	1624.04
225.22	1587.18
225.44	1671.14
225.66	1761.25
225.88	1701.86
226.10	1808.36
226.32	1718.25
226.53	1798.12
226.75	1708.01
226.97	1634.28
227.19	1644.52
227.41	1656.81
227.63	1689.57
227.85	1587.18
228.06	1759.21
228.28	1675.24
228.50	1794.02
228.72	1648.61
228.94	1652.71
229.16	1658.85
229.37	1617.90
229.59	1689.57
229.81	1740.77
230.03	1697.77
230.25	1689.57
230.47	1642.47
230.69	1640.42
230.90	1734.63
231.12	1701.86
231.34	1742.82
231.56	1738.73
231.78	1681.38
232.00	1746.92
232.21	1751.01
232.43	1656.81
232.65	1591.27
232.87	1703.91
233.09	1634.28
233.30	1730.53
233.52	1730.53
233.74	1619.94
233.96	1619.94
234.18	1765.35
234.40	1636.33
234.61	1812.45
234.83	1671.14
235.05	1611.75
235.27	1857.51
235.49	1740.77
235.70	1718.25
235.92	1830.88
236.14	1636.33
236.36	1859.56
236.58	1636.33
236.79	1808.36
237.01	1734.63
237.23	1701.86
237.45	1779.68
237.67	1648.61
237.88	1665.00
238.10	1796.07
238.32	1669.09
238.54	1638.38
238.76	1757.16
238.97	1667.05
239.19	1761.25
239.41	1759.21
239.63	1748.97
239.85	1669.09
240.06	1677.29
240.28	1669.09
240.50	1748.97
240.72	1701.86
240.93	1658.85
241.15	1703.91
241.37	1718.25
241.59	1798.12
241.81	1697.77
242.02	1742.82
242.24	1746.92
242.46	1687.53
242.68	1658.85
242.89	1744.87
243.11	1652.71
243.33	1722.34
243.55	1697.77
243.76	1699.81
243.98	1626.09
244.20	1714.15
244.42	1693.67
244.64	1667.05
244.85	1718.25
245.07	1615.85
245.29	1748.97
245.51	1730.53
245.72	1724.39
245.94	1746.92
246.16	1628.14
246.38	1765.35
246.59	1630.18
246.81	1642.47
247.03	1679.33
247.24	1638.38
247.46	1669.09
247.68	1759.21
247.90	1787.88
248.11	1636.33
248.33	1804.26
248.55	1687.53
248.77	1718.25
248.98	1748.97
249.20	1738.73
249.42	1685.48
249.64	1726.44
249.85	1644.52
250.07	1576.94
250.29	1763.30
250.50	1789.92
250.72	1644.52
250.94	1714.15
251.16	1763.30
251.37	1748.97
251.59	1644.52
251.81	1714.15
252.02	1787.88
252.24	1746.92
252.46	1773.54
252.68	1583.08
252.89	1665.00
253.11	1519.59
253.33	1787.88
253.54	1683.43
253.76	1636.33
253.98	1763.30
254.20	1718.25
254.41	1634.28
254.63	1722.34
254.85	1648.61
255.06	1665.00
255.28	1716.20
255.50	1656.81
255.71	1638.38
255.93	1667.05
256.15	1665.00
256.36	1642.47
256.58	1673.19
256.80	1738.73
257.02	1722.34
257.23	1638.38
257.45	1652.71
257.67	1800.16
257.88	1675.24
258.10	1673.19
258.32	1656.81
258.53	1697.77
258.75	1759.21
258.97	1626.09
259.18	1673.19
259.40	1718.25
259.62	1789.92
259.83	1779.68
260.05	1716.20
260.27	1957.86
260.48	1757.16
260.70	1693.67
260.92	1689.57
261.13	1646.57
261.35	1755.11
261.57	1736.68
261.78	1583.08
262.00	1710.05
262.22	1791.97
262.43	1660.90
262.65	1665.00
262.86	1665.00
263.08	1849.32
263.30	1714.15
263.51	1529.83
263.73	1644.52
263.95	1742.82
264.16	1673.19
264.38	1701.86
264.60	1789.92
264.81	1710.05
265.03	1724.39
265.25	1818.60
265.46	1734.63
265.68	1775.59
265.89	1740.77
266.11	1597.42
266.33	1714.15
266.54	1755.11
266.76	1738.73
266.98	1693.67
267.19	1816.55
267.41	1714.15
267.62	1648.61
267.84	1599.46
268.06	1718.25
268.27	1693.67
268.49	1742.82
268.70	1724.39
268.92	1718.25
269.14	1679.33
269.35	1611.75
269.57	1660.90
269.79	1751.01
270.00	1644.52
270.22	1787.88
270.43	1578.98
270.65	1542.12
270.87	1724.39
271.08	1765.35
271.30	1767.40
271.51	1673.19
271.73	1716.20
271.95	1744.87
272.16	1728.49
272.38	1751.01
272.59	1703.91
272.81	1689.57
273.02	1660.90
273.24	1746.92
273.46	1689.57
273.67	1621.99
273.89	1689.57
274.10	1714.15
274.32	1757.16
274.54	1728.49
274.75	1667.05
274.97	1734.63
275.18	1673.19
275.40	1705.96
275.61	1759.21
275.83	1759.21
276.05	1640.42
276.26	1722.34
276.48	1730.53
276.69	1665.00
276.91	1677.29
277.12	1783.78
277.34	1724.39
277.55	1701.86
277.77	1675.24
277.99	1665.00
278.20	1646.57
278.42	1607.66
278.63	1595.37
278.85	1705.96
279.06	1699.81
279.28	1712.10
279.49	1763.30
279.71	1683.43
279.93	1742.82
280.14	1699.81
280.36	1656.81
280.57	1802.21
280.79	1757.16
281.00	1587.18
281.22	1642.47
281.43	1744.87
281.65	1632.23
281.86	1642.47
282.08	1673.19
282.29	1841.12
282.51	1607.66
282.73	1583.08
282.94	1658.85
283.16	1689.57
283.37	1769.44
283.59	1769.44
283.80	1654.76
284.02	1701.86
284.23	1726.44
284.45	1665.00
284.66	1593.32
284.88	1679.33
285.09	1675.24
285.31	1673.19
285.52	1728.49
285.74	1644.52
285.95	1718.25
286.17	1718.25
286.38	1779.68
286.60	1626.09
286.81	1640.42
287.03	1730.53
287.24	1736.68
287.46	1755.11
287.67	1744.87
287.89	1824.74
288.10	1742.82
288.32	1685.48
288.53	1757.16
288.75	1744.87
288.96	1761.25
289.18	1636.33
289.39	1710.05
289.61	1714.15
289.82	1804.26
290.04	1730.53
290.25	1593.32
290.47	1738.73
290.68	1683.43
290.90	1748.97
291.11	1646.57
291.33	1746.92
291.54	1597.42
291.76	1601.51
291.97	1730.53
292.18	1687.53
292.40	1681.38
292.61	1632.23
292.83	1865.70
293.04	1673.19
293.26	1681.38
293.47	1632.23
293.69	1646.57
293.90	1656.81
294.12	1806.31
294.33	1724.39
294.55	1724.39
294.76	1742.82
294.97	1738.73
295.19	1820.64
295.40	1679.33
295.62	1619.94
295.83	1738.73
296.05	1675.24
296.26	1824.74
296.48	1642.47
296.69	1724.39
296.90	1798.12
297.12	1701.86
297.33	1791.97
297.55	1662.95
297.76	1646.57
297.98	1748.97
298.19	1609.70
298.41	1695.72
298.62	1654.76
298.83	1742.82
299.05	1761.25
299.26	1673.19
299.48	1654.76
299.69	1736.68
299.90	1783.78
300.12	1726.44
300.33	1695.72
300.55	1687.53
300.76	1816.55
300.98	1673.19
301.19	1773.54
301.40	1693.67
301.62	1730.53
301.83	1773.54
302.05	1726.44
302.26	1710.05
302.47	1710.05
302.69	1597.42
302.90	1658.85
303.12	1603.56
303.33	1761.25
303.54	1740.77
303.76	1716.20
303.97	1703.91
304.19	1769.44
304.40	1695.72
304.61	1789.92
304.83	1808.36
305.04	1818.60
305.26	1816.55
305.47	1636.33
305.68	1726.44
305.90	1658.85
306.11	1757.16
306.33	1677.29
306.54	1681.38
306.75	1626.09
306.97	1603.56
307.18	1611.75
307.39	1705.96
307.61	1728.49
307.82	1716.20
308.04	1802.21
308.25	1599.46
308.46	1763.30
308.68	1689.57
308.89	1691.62
309.10	1796.07
309.32	1722.34
309.53	1642.47
309.74	1693.67
309.96	1677.29
310.17	1765.35
310.39	1621.99
310.60	1718.25
310.81	1742.82
311.03	1685.48
311.24	1755.11
311.45	1675.24
311.67	1802.21
311.88	1701.86
312.09	1634.28
312.31	1652.71
312.52	1619.94
312.73	1724.39
312.95	1683.43
313.16	1662.95
313.37	1800.16
313.59	1738.73
313.80	1718.25
314.01	1763.30
314.23	1689.57
314.44	1675.24
314.65	1636.33
314.87	1658.85
315.08	1687.53
315.29	1673.19
315.51	1640.42
315.72	1583.08
315.93	1712.10
316.15	1738.73
316.36	1679.33
316.57	1783.78
316.79	1665.00
317.00	1714.15
317.21	1755.11
317.43	1560.55
317.64	1701.86
317.85	1687.53
318.07	1757.16
318.28	1722.34
318.49	1746.92
318.70	1949.67
318.92	1800.16
319.13	1806.31
319.34	1859.56
319.56	1779.68
319.77	1740.77
319.98	1822.69
320.20	1748.97
320.41	1673.19
320.62	1742.82
320.83	1615.85
321.05	1828.84
321.26	1746.92
321.47	1697.77
321.69	1798.12
321.90	1658.85
322.11	1683.43
322.32	1644.52
322.54	1748.97
322.75	1624.04
322.96	1761.25
323.18	1621.99
323.39	1632.23
323.60	1660.90
323.81	1783.78
324.03	1619.94
324.24	1634.28
324.45	1748.97
324.66	1697.77
324.88	1671.14
325.09	1748.97
325.30	1703.91
325.52	1748.97
325.73	1708.01
325.94	1654.76
326.15	1634.28
326.37	1708.01
326.58	1710.05
326.79	1771.49
327.00	1619.94
327.22	1736.68
327.43	1669.09
327.64	1671.14
327.85	1693.67
328.07	1740.77
328.28	1794.02
328.49	1634.28
328.70	1691.62
328.92	1646.57
329.13	1679.33
329.34	1679.33
329.55	1777.64
329.76	1744.87
329.98	1650.66
330.19	1837.03
330.40	1673.19
330.61	1687.53
330.83	1701.86
331.04	1697.77
331.25	1714.15
331.46	1656.81
331.68	1574.89
331.89	1724.39
332.10	1710.05
332.31	1632.23
332.52	1689.57
332.74	1804.26
332.95	1613.80
333.16	1730.53
333.37	1736.68
333.58	1665.00
333.80	1703.91
334.01	1677.29
334.22	1638.38
334.43	1660.90
334.64	1710.05
334.86	1660.90
335.07	1654.76
335.28	1810.40
335.49	1621.99
335.70	1671.14
335.92	1757.16
336.13	1886.18
336.34	1691.62
336.55	1746.92
336.76	1667.05
336.98	1589.22
337.19	1746.92
337.40	1849.32
337.61	1773.54
337.82	1595.37
338.04	1714.15
338.25	1615.85
338.46	1691.62
338.67	1755.11
338.88	1560.55
339.09	1632.23
339.31	1654.76
339.52	1613.80
339.73	1665.00
339.94	1650.66
340.15	1751.01
340.36	1648.61
340.58	1617.90
340.79	1636.33
341.00	1693.67
341.21	1642.47
341.42	1775.59
341.63	1718.25
341.85	1800.16
342.06	1748.97
342.27	1595.37
342.48	1728.49
342.69	1576.94
342.90	1806.31
343.12	1703.91
343.33	1675.24
343.54	1681.38
343.75	1748.97
343.96	1705.96
344.17	1574.89
344.38	1738.73
344.60	1624.04
344.81	1669.09
345.02	1742.82
345.23	1787.88
345.44	1847.27
345.65	1767.40
345.86	1673.19
346.07	1753.06
346.29	1671.14
346.50	1748.97
346.71	1730.53
346.92	1812.45
347.13	1849.32
347.34	1599.46
347.55	1673.19
347.76	1714.15
347.98	1667.05
348.19	1669.09
348.40	1703.91
348.61	1691.62
348.82	1781.73
349.03	1732.58
349.24	1597.42
349.45	1746.92
349.66	1626.09
349.88	1695.72
350.09	1574.89
350.30	1787.88
350.51	1828.84
350.72	1695.72
350.93	1744.87
351.14	1712.10
351.35	1656.81
351.56	1652.71
351.77	1705.96
351.99	1697.77
352.20	1761.25
352.41	1779.68
352.62	1603.56
352.83	1710.05
353.04	1681.38
353.25	1613.80
353.46	1710.05
353.67	1742.82
353.88	1599.46
354.09	1720.29
354.30	1714.15
354.52	1802.21
354.73	1626.09
354.94	1603.56
355.15	1720.29
355.36	1748.97
355.57	1669.09
355.78	1697.77
355.99	1658.85
356.20	1601.51
356.41	1816.55
356.62	1675.24
356.83	1624.04
357.04	1759.21
357.25	1593.32
357.46	1703.91
357.68	1593.32
357.89	1642.47
358.10	1685.48
358.31	1652.71
358.52	1722.34
358.73	1615.85
358.94	1677.29
359.15	1667.05
359.36	1732.58
359.57	1701.86
359.78	1710.05
359.99	1734.63
360.20	1652.71
360.41	1677.29
360.62	1757.16
360.83	1710.05
361.04	1685.48
361.25	1783.78
361.46	1820.64
361.67	1710.05
361.88	1742.82
362.09	1785.83
362.30	1673.19
362.51	1599.46
362.72	1683.43
362.93	1761.25
363.14	1679.33
363.35	1714.15
363.56	1658.85
363.78	1742.82
363.99	1787.88
364.20	1714.15
364.41	1736.68
364.62	1812.45
364.83	1744.87
365.04	1665.00
365.25	1718.25
365.46	1781.73
365.67	1648.61
365.88	1589.22
366.09	1656.81
366.30	1662.95
366.51	1746.92
366.72	1646.57
366.93	1654.76
367.14	1742.82
367.35	1759.21
367.56	1648.61
367.77	1730.53
367.98	1697.77
368.18	1658.85
368.39	1775.59
368.60	1652.71
368.81	1755.11
369.02	1687.53
369.23	1671.14
369.44	1697.77
369.65	1665.00
369.86	1724.39
370.07	1763.30
370.28	1630.18
370.49	1759.21
370.70	1771.49
370.91	1691.62
371.12	1574.89
371.33	1798.12
371.54	1673.19
371.75	1855.46
371.96	1587.18
372.17	1736.68
372.38	1667.05
372.59	1824.74
372.80	1673.19
373.01	1705.96
373.22	1658.85
373.43	1710.05
373.64	1665.00
373.85	1730.53
374.06	1771.49
374.26	1703.91
374.47	1781.73
374.68	1753.06
374.89	1738.73
375.10	1730.53
375.31	1732.58
375.52	1660.90
375.73	1693.67
375.94	1699.81
376.15	1808.36
376.36	1628.14
376.57	1683.43
376.78	1742.82
376.99	1730.53
377.20	1824.74
377.40	1724.39
377.61	1757.16
377.82	1660.90
378.03	1744.87
378.24	1705.96
378.45	1683.43
378.66	1660.90
378.87	1591.27
379.08	1705.96
379.29	1630.18
379.50	1802.21
379.71	1703.91
379.91	1779.68
380.12	1738.73
380.33	1689.57
380.54	1701.86
380.75	1656.81
380.96	1701.86
381.17	1798.12
381.38	1699.81
381.59	1746.92
381.80	1718.25
382.00	1822.69
382.21	1714.15
382.42	1910.75
382.63	1890.28
382.84	1746.92
383.05	1738.73
383.26	1738.73
383.47	1681.38
383.68	1732.58
383.88	1685.48
384.09	1705.96
384.30	1783.78
384.51	1734.63
384.72	1624.04
384.93	1630.18
385.14	1679.33
385.35	1712.10
385.55	1652.71
385.76	1777.64
385.97	1660.90
386.18	1607.66
386.39	1691.62
386.60	1685.48
386.81	1638.38
387.02	1667.05
387.22	1648.61
387.43	1755.11
387.64	1781.73
387.85	1859.56
388.06	2205.66
388.27	4261.82
388.48	6715.29
388.68	8152.96
388.89	9557.87
389.10	9795.43
389.31	8488.83
389.52	7499.66
389.73	6590.36
389.93	6113.19
390.14	5699.50
390.35	5050.29
390.56	4505.53
390.77	3772.36
390.98	2930.64
391.18	2490.33
391.39	2183.13
391.60	1789.92
391.81	1830.88
392.02	1691.62
392.23	1812.45
392.43	1722.34
392.64	1847.27
392.85	1652.71
393.06	1783.78
393.27	1779.68
393.47	1679.33
393.68	1695.72
393.89	1673.19
394.10	1773.54
394.31	1630.18
394.52	1652.71
394.72	1705.96
394.93	1877.99
395.14	1648.61
395.35	1751.01
395.56	1619.94
395.76	1730.53
395.97	1841.12
396.18	1787.88
396.39	1771.49
396.60	2041.82
396.80	1857.51
397.01	1837.03
397.22	1843.17
397.43	1804.26
397.64	1818.60
397.84	1816.55
398.05	1824.74
398.26	1705.96
398.47	1789.92
398.67	1808.36
398.88	1718.25
399.09	1746.92
399.30	1691.62
399.51	1685.48
399.71	1656.81
399.92	1673.19
400.13	1748.97
400.34	1708.01
400.54	1708.01
400.75	1703.91
400.96	1701.86
401.17	1718.25
401.37	1802.21
401.58	1708.01
401.79	1701.86
402.00	1896.42
402.21	2023.39
402.41	1912.80
402.62	1988.58
402.83	1998.82
403.04	1990.63
403.24	2131.94
403.45	1832.93
403.66	1863.65
403.87	1843.17
404.07	1916.90
404.28	1894.37
404.49	1873.89
404.70	1671.14
404.90	1802.21
405.11	1738.73
405.32	1751.01
405.52	1652.71
405.73	1697.77
405.94	1671.14
406.15	1755.11
406.35	1781.73
406.56	1753.06
406.77	1695.72
406.98	1785.83
407.18	1685.48
407.39	1681.38
407.60	1738.73
407.80	1691.62
408.01	1722.34
408.22	1734.63
408.43	1681.38
408.63	1742.82
408.84	1712.10
409.05	1705.96
409.25	1687.53
409.46	1638.38
409.67	1730.53
409.88	1628.14
410.08	1720.29
410.29	1660.90
410.50	1724.39
410.70	1699.81
410.91	1624.04
411.12	1744.87
411.32	1742.82
411.53	1730.53
411.74	1783.78
411.95	1720.29
412.15	1689.57
412.36	1746.92
412.57	1794.02
412.77	1742.82
412.98	1679.33
413.19	1646.57
413.39	1751.01
413.60	1708.01
413.81	1761.25
414.01	1685.48
414.22	1734.63
414.43	1775.59
414.63	1632.23
414.84	1767.40
415.05	1751.01
415.25	1726.44
415.46	1734.63
415.67	1712.10
415.87	1728.49
416.08	1724.39
416.29	1726.44
416.49	1841.12
416.70	1609.70
416.91	1636.33
417.11	1775.59
417.32	1667.05
417.53	1826.79
417.73	1695.72
417.94	1691.62
418.15	1667.05
418.35	1722.34
418.56	1687.53
418.77	1849.32
418.97	1642.47
419.18	1701.86
419.38	1560.55
419.59	1726.44
419.80	1740.77
420.00	1689.57
420.21	1755.11
420.42	1656.81
420.62	1691.62
420.83	1675.24
421.04	1720.29
421.24	1701.86
421.45	1746.92
421.65	1726.44
421.86	1740.77
422.07	1781.73
422.27	1781.73
422.48	1665.00
422.69	1705.96
422.89	1695.72
423.10	1738.73
423.30	1644.52
423.51	1738.73
423.72	1769.44
423.92	1732.58
424.13	1644.52
424.33	1669.09
424.54	1630.18
424.75	1693.67
424.95	1746.92
425.16	1724.39
425.36	1699.81
425.57	1757.16
425.78	1701.86
425.98	1839.08
426.19	1644.52
426.39	1636.33
426.60	1714.15
426.81	1787.88
427.01	1636.33
427.22	1642.47
427.42	1628.14
427.63	1675.24
427.83	1740.77
428.04	1841.12
428.25	1753.06
428.45	1746.92
428.66	1816.55
428.86	1617.90
429.07	1607.66
429.28	1771.49
429.48	1703.91
429.69	1716.20
429.89	1675.24
430.10	1648.61
430.30	1740.77
430.51	1761.25
430.71	1681.38
430.92	1728.49
431.13	1687.53
431.33	1699.81
431.54	1796.07
431.74	1822.69
431.95	1755.11
432.15	1665.00
432.36	1773.54
432.56	1757.16
432.77	1787.88
432.98	1796.07
433.18	1665.00
433.39	1716.20
433.59	1656.81
433.80	1812.45
434.00	1824.74
434.21	1701.86
434.41	1642.47
434.62	1832.93
434.82	1621.99
435.03	1679.33
435.23	1720.29
435.44	1628.14
435.64	1779.68
435.85	1726.44
436.06	1775.59
436.26	1818.60
436.47	1660.90
436.67	1730.53
436.88	1654.76
437.08	1728.49
437.29	1794.02
437.49	1718.25
437.70	1728.49
437.90	1701.86
438.11	1865.70
438.31	1769.44
438.52	1820.64
438.72	1869.80
438.93	1859.56
439.13	1837.03
439.34	1837.03
439.54	1695.72
439.75	1787.88
439.95	1804.26
440.16	1634.28
440.36	1701.86
440.57	1773.54
440.77	1855.46
440.98	1730.53
441.18	1705.96
441.39	1638.38
441.59	1656.81
441.80	1781.73
442.00	1726.44
442.21	1755.11
442.41	1669.09
442.62	1765.35
442.82	1601.51
443.02	1693.67
443.23	1716.20
443.43	1695.72
443.64	1794.02
443.84	1722.34
444.05	1808.36
444.25	1722.34
444.46	1757.16
444.66	1714.15
444.87	1796.07
445.07	1603.56
445.28	1699.81
445.48	1867.75
445.69	1777.64
445.89	1880.04
446.09	1757.16
446.30	1964.00
446.50	2588.63
446.71	3753.93
446.91	4310.97
447.12	4675.51
447.32	4804.53
447.53	4249.54
447.73	3835.85
447.93	3551.18
448.14	3295.18
448.34	3188.69
448.55	2901.97
448.75	2682.84
448.96	2699.22
449.16	2361.31
449.36	2295.77
449.57	2033.63
449.77	1880.04
449.98	1812.45
450.18	1798.12
450.39	1824.74
450.59	1824.74
450.79	1753.06
451.00	1708.01
451.20	1781.73
451.41	1751.01
451.61	1732.58
451.81	1722.34
452.02	1753.06
452.22	1673.19
452.43	1771.49
452.63	1718.25
