SpectraSuite Data File
++++++++++++++++++++++++++++++++++++
Date: Mon Jun 06 17:04:17 CEST 2016
User: root
Dark Spectrum Present: No
Reference Spectrum Present: No
Number of Sampled Component Spectra: 1
Spectrometers: USB4C02835
Integration Time (usec): 100000 (USB4C02835)
Spectra Averaged: 1 (USB4C02835)
Boxcar Smoothing: 0 (USB4C02835)
Correct for Electrical Dark: No (USB4C02835)
Strobe/Lamp Enabled: No (USB4C02835)
Correct for Detector Non-linearity: No (USB4C02835)
Correct for Stray Light: No (USB4C02835)
Number of Pixels in Processed Spectrum: 3648
>>>>>Begin Processed Spectral Data<<<<<
177.47	1456.11
177.69	1456.11
177.91	1456.11
178.13	1447.91
178.36	1480.68
178.58	1685.48
178.80	1722.34
179.02	1648.61
179.24	1705.96
179.46	1693.67
179.68	1740.77
179.90	1671.14
180.13	1675.24
180.35	1665.00
180.57	1716.20
180.79	1787.88
181.01	1673.19
181.23	1775.59
181.45	1771.49
181.67	1685.48
181.90	1718.25
182.12	1660.90
182.34	1587.18
182.56	1720.29
182.78	1710.05
183.00	1742.82
183.22	1703.91
183.44	1597.42
183.66	1830.88
183.89	1798.12
184.11	1701.86
184.33	1726.44
184.55	1775.59
184.77	1744.87
184.99	1738.73
185.21	1689.57
185.43	1906.66
185.65	1736.68
185.87	1701.86
186.10	1859.56
186.32	1861.60
186.54	1767.40
186.76	1662.95
186.98	1796.07
187.20	1658.85
187.42	1703.91
187.64	1646.57
187.86	1714.15
188.08	1869.80
188.30	1726.44
188.52	1722.34
188.75	1742.82
188.97	1748.97
189.19	1613.80
189.41	1757.16
189.63	1791.97
189.85	1714.15
190.07	1642.47
190.29	1640.42
190.51	1779.68
190.73	1656.81
190.95	1800.16
191.17	1662.95
191.39	1660.90
191.61	1683.43
191.84	1724.39
192.06	1849.32
192.28	1621.99
192.50	1861.60
192.72	1714.15
192.94	1712.10
193.16	1763.30
193.38	1769.44
193.60	1685.48
193.82	1755.11
194.04	1736.68
194.26	1667.05
194.48	1714.15
194.70	1642.47
194.92	1683.43
195.14	1763.30
195.36	1689.57
195.58	1691.62
195.80	1697.77
196.02	1597.42
196.24	1718.25
196.46	1740.77
196.69	1671.14
196.91	1873.89
197.13	1708.01
197.35	1699.81
197.57	1818.60
197.79	1755.11
198.01	1652.71
198.23	1699.81
198.45	1683.43
198.67	1679.33
198.89	1671.14
199.11	1718.25
199.33	1726.44
199.55	1626.09
199.77	1703.91
199.99	1765.35
200.21	1648.61
200.43	1697.77
200.65	1624.04
200.87	1576.94
201.09	1767.40
201.31	1740.77
201.53	1814.50
201.75	1765.35
201.97	1726.44
202.19	1673.19
202.41	1718.25
202.63	1851.36
202.85	1748.97
203.07	1714.15
203.29	1679.33
203.51	1718.25
203.73	1667.05
203.95	1859.56
204.17	1693.67
204.39	1667.05
204.61	1712.10
204.83	1703.91
205.05	1767.40
205.27	1796.07
205.49	1808.36
205.71	1730.53
205.93	1654.76
206.15	1646.57
206.37	1720.29
206.59	1763.30
206.81	1656.81
207.03	1632.23
207.25	1656.81
207.47	1746.92
207.69	1705.96
207.91	1773.54
208.13	1736.68
208.34	1638.38
208.56	1714.15
208.78	1800.16
209.00	1675.24
209.22	1746.92
209.44	1662.95
209.66	1712.10
209.88	1667.05
210.10	1730.53
210.32	1701.86
210.54	1781.73
210.76	1634.28
210.98	1708.01
211.20	1628.14
211.42	1701.86
211.64	1718.25
211.86	1730.53
212.08	1744.87
212.30	1746.92
212.52	1642.47
212.74	1740.77
212.96	1734.63
213.17	1814.50
213.39	1744.87
213.61	1873.89
213.83	1742.82
214.05	1669.09
214.27	1732.58
214.49	1683.43
214.71	1710.05
214.93	1757.16
215.15	1740.77
215.37	1818.60
215.59	1638.38
215.81	1734.63
216.03	1857.51
216.24	1732.58
216.46	1673.19
216.68	1677.29
216.90	1789.92
217.12	1699.81
217.34	1734.63
217.56	1708.01
217.78	1761.25
218.00	1751.01
218.22	1695.72
218.44	1740.77
218.66	1718.25
218.87	1824.74
219.09	1712.10
219.31	1757.16
219.53	1718.25
219.75	1757.16
219.97	1703.91
220.19	1695.72
220.41	1738.73
220.63	1730.53
220.85	1763.30
221.06	1671.14
221.28	1787.88
221.50	1736.68
221.72	1720.29
221.94	1705.96
222.16	1734.63
222.38	1738.73
222.60	1763.30
222.82	1673.19
223.03	1771.49
223.25	1634.28
223.47	1695.72
223.69	1775.59
223.91	1697.77
224.13	1734.63
224.35	1658.85
224.57	1740.77
224.78	1779.68
225.00	1667.05
225.22	1679.33
225.44	1691.62
225.66	1667.05
225.88	1765.35
226.10	1808.36
226.32	1701.86
226.53	1808.36
226.75	1742.82
226.97	1748.97
227.19	1699.81
227.41	1675.24
227.63	1685.48
227.85	1673.19
228.06	1757.16
228.28	1658.85
228.50	1759.21
228.72	1609.70
228.94	1716.20
229.16	1648.61
229.37	1632.23
229.59	1746.92
229.81	1779.68
230.03	1736.68
230.25	1660.90
230.47	1632.23
230.69	1660.90
230.90	1841.12
231.12	1648.61
231.34	1705.96
231.56	1808.36
231.78	1656.81
232.00	1730.53
232.21	1781.73
232.43	1621.99
232.65	1626.09
232.87	1691.62
233.09	1665.00
233.30	1685.48
233.52	1767.40
233.74	1685.48
233.96	1685.48
234.18	1767.40
234.40	1656.81
234.61	1767.40
234.83	1677.29
235.05	1644.52
235.27	1898.47
235.49	1822.69
235.70	1716.20
235.92	1771.49
236.14	1734.63
236.36	1925.09
236.58	1638.38
236.79	1691.62
237.01	1687.53
237.23	1748.97
237.45	1781.73
237.67	1632.23
237.88	1753.06
238.10	1841.12
238.32	1634.28
238.54	1615.85
238.76	1775.59
238.97	1705.96
239.19	1679.33
239.41	1781.73
239.63	1753.06
239.85	1675.24
240.06	1683.43
240.28	1693.67
240.50	1742.82
240.72	1689.57
240.93	1705.96
241.15	1755.11
241.37	1689.57
241.59	1812.45
241.81	1677.29
242.02	1658.85
242.24	1777.64
242.46	1734.63
242.68	1691.62
242.89	1726.44
243.11	1779.68
243.33	1734.63
243.55	1658.85
243.76	1732.58
243.98	1634.28
244.20	1662.95
244.42	1710.05
244.64	1652.71
244.85	1642.47
245.07	1667.05
245.29	1695.72
245.51	1744.87
245.72	1744.87
245.94	1710.05
246.16	1703.91
246.38	1810.40
246.59	1699.81
246.81	1669.09
247.03	1648.61
247.24	1648.61
247.46	1621.99
247.68	1736.68
247.90	1636.33
248.11	1705.96
248.33	1761.25
248.55	1691.62
248.77	1646.57
248.98	1714.15
249.20	1824.74
249.42	1691.62
249.64	1761.25
249.85	1697.77
250.07	1665.00
250.29	1810.40
250.50	1673.19
250.72	1611.75
250.94	1701.86
251.16	1812.45
251.37	1789.92
251.59	1677.29
251.81	1675.24
252.02	1746.92
252.24	1656.81
252.46	1787.88
252.68	1638.38
252.89	1699.81
253.11	1724.39
253.33	1849.32
253.54	1779.68
253.76	1624.04
253.98	1746.92
254.20	1746.92
254.41	1648.61
254.63	1689.57
254.85	1632.23
255.06	1642.47
255.28	1730.53
255.50	1677.29
255.71	1634.28
255.93	1708.01
256.15	1656.81
256.36	1763.30
256.58	1621.99
256.80	1751.01
257.02	1720.29
257.23	1636.33
257.45	1736.68
257.67	1785.83
257.88	1724.39
258.10	1744.87
258.32	1634.28
258.53	1738.73
258.75	1845.22
258.97	1669.09
259.18	1773.54
259.40	1718.25
259.62	1787.88
259.83	1781.73
260.05	1699.81
260.27	1978.34
260.48	1775.59
260.70	1634.28
260.92	1769.44
261.13	1746.92
261.35	1673.19
261.57	1744.87
261.78	1630.18
262.00	1578.98
262.22	1816.55
262.43	1681.38
262.65	1697.77
262.86	1714.15
263.08	1832.93
263.30	1726.44
263.51	1636.33
263.73	1658.85
263.95	1740.77
264.16	1691.62
264.38	1656.81
264.60	1738.73
264.81	1679.33
265.03	1753.06
265.25	1738.73
265.46	1679.33
265.68	1812.45
265.89	1759.21
266.11	1624.04
266.33	1740.77
266.54	1808.36
266.76	1701.86
266.98	1746.92
267.19	1767.40
267.41	1783.78
267.62	1687.53
267.84	1626.09
268.06	1687.53
268.27	1757.16
268.49	1798.12
268.70	1826.79
268.92	1767.40
269.14	1701.86
269.35	1656.81
269.57	1724.39
269.79	1779.68
270.00	1642.47
270.22	1804.26
270.43	1632.23
270.65	1619.94
270.87	1624.04
271.08	1730.53
271.30	1689.57
271.51	1703.91
271.73	1742.82
271.95	1812.45
272.16	1701.86
272.38	1734.63
272.59	1644.52
272.81	1708.01
273.02	1699.81
273.24	1673.19
273.46	1746.92
273.67	1640.42
273.89	1660.90
274.10	1732.58
274.32	1769.44
274.54	1753.06
274.75	1689.57
274.97	1728.49
275.18	1740.77
275.40	1738.73
275.61	1714.15
275.83	1738.73
276.05	1654.76
276.26	1742.82
276.48	1714.15
276.69	1660.90
276.91	1705.96
277.12	1714.15
277.34	1765.35
277.55	1818.60
277.77	1738.73
277.99	1673.19
278.20	1691.62
278.42	1656.81
278.63	1714.15
278.85	1632.23
279.06	1650.66
279.28	1710.05
279.49	1710.05
279.71	1779.68
279.93	1671.14
280.14	1736.68
280.36	1679.33
280.57	1742.82
280.79	1841.12
281.00	1583.08
281.22	1650.66
281.43	1787.88
281.65	1603.56
281.86	1615.85
282.08	1757.16
282.29	1806.31
282.51	1615.85
282.73	1665.00
282.94	1673.19
283.16	1697.77
283.37	1765.35
283.59	1644.52
283.80	1701.86
284.02	1681.38
284.23	1691.62
284.45	1587.18
284.66	1693.67
284.88	1609.70
285.09	1800.16
285.31	1693.67
285.52	1759.21
285.74	1566.70
285.95	1740.77
286.17	1667.05
286.38	1771.49
286.60	1708.01
286.81	1714.15
287.03	1683.43
287.24	1732.58
287.46	1724.39
287.67	1665.00
287.89	1794.02
288.10	1716.20
288.32	1683.43
288.53	1806.31
288.75	1740.77
288.96	1794.02
289.18	1654.76
289.39	1652.71
289.61	1767.40
289.82	1841.12
290.04	1763.30
290.25	1617.90
290.47	1767.40
290.68	1593.32
290.90	1810.40
291.11	1638.38
291.33	1705.96
291.54	1642.47
291.76	1638.38
291.97	1710.05
292.18	1775.59
292.40	1724.39
292.61	1669.09
292.83	1859.56
293.04	1783.78
293.26	1691.62
293.47	1662.95
293.69	1677.29
293.90	1658.85
294.12	1744.87
294.33	1697.77
294.55	1660.90
294.76	1769.44
294.97	1802.21
295.19	1757.16
295.40	1687.53
295.62	1730.53
295.83	1746.92
296.05	1662.95
296.26	1773.54
296.48	1662.95
296.69	1701.86
296.90	1660.90
297.12	1714.15
297.33	1751.01
297.55	1722.34
297.76	1708.01
297.98	1757.16
298.19	1789.92
298.41	1773.54
298.62	1656.81
298.83	1796.07
299.05	1783.78
299.26	1703.91
299.48	1708.01
299.69	1687.53
299.90	1740.77
300.12	1679.33
300.33	1746.92
300.55	1697.77
300.76	1724.39
300.98	1673.19
301.19	1734.63
301.40	1708.01
301.62	1720.29
301.83	1748.97
302.05	1724.39
302.26	1603.56
302.47	1630.18
302.69	1632.23
302.90	1730.53
303.12	1624.04
303.33	1802.21
303.54	1800.16
303.76	1626.09
303.97	1681.38
304.19	1789.92
304.40	1679.33
304.61	1720.29
304.83	1853.41
305.04	1775.59
305.26	1744.87
305.47	1691.62
305.68	1712.10
305.90	1689.57
306.11	1748.97
306.33	1665.00
306.54	1687.53
306.75	1738.73
306.97	1628.14
307.18	1636.33
307.39	1642.47
307.61	1697.77
307.82	1705.96
308.04	1769.44
308.25	1628.14
308.46	1718.25
308.68	1714.15
308.89	1722.34
309.10	1724.39
309.32	1740.77
309.53	1691.62
309.74	1753.06
309.96	1759.21
310.17	1808.36
310.39	1689.57
310.60	1828.84
310.81	1658.85
311.03	1630.18
311.24	1687.53
311.45	1640.42
311.67	1804.26
311.88	1742.82
312.09	1669.09
312.31	1697.77
312.52	1679.33
312.73	1798.12
312.95	1624.04
313.16	1591.27
313.37	1865.70
313.59	1665.00
313.80	1779.68
314.01	1785.83
314.23	1724.39
314.44	1675.24
314.65	1615.85
314.87	1626.09
315.08	1652.71
315.29	1611.75
315.51	1632.23
315.72	1683.43
315.93	1812.45
316.15	1779.68
316.36	1771.49
316.57	1693.67
316.79	1765.35
317.00	1722.34
317.21	1691.62
317.43	1632.23
317.64	1742.82
317.85	1669.09
318.07	1712.10
318.28	1675.24
318.49	1810.40
318.70	1861.60
318.92	1841.12
319.13	1777.64
319.34	1804.26
319.56	1857.51
319.77	1882.08
319.98	1763.30
320.20	1726.44
320.41	1820.64
320.62	1789.92
320.83	1687.53
321.05	1822.69
321.26	1683.43
321.47	1738.73
321.69	1771.49
321.90	1669.09
322.11	1652.71
322.32	1724.39
322.54	1761.25
322.75	1685.48
322.96	1824.74
323.18	1662.95
323.39	1615.85
323.60	1677.29
323.81	1669.09
324.03	1630.18
324.24	1642.47
324.45	1697.77
324.66	1636.33
324.88	1730.53
325.09	1826.79
325.30	1710.05
325.52	1718.25
325.73	1730.53
325.94	1658.85
326.15	1654.76
326.37	1660.90
326.58	1738.73
326.79	1800.16
327.00	1677.29
327.22	1726.44
327.43	1730.53
327.64	1599.46
327.85	1679.33
328.07	1656.81
328.28	1783.78
328.49	1699.81
328.70	1685.48
328.92	1693.67
329.13	1705.96
329.34	1783.78
329.55	1824.74
329.76	1716.20
329.98	1691.62
330.19	1740.77
330.40	1791.97
330.61	1705.96
330.83	1726.44
331.04	1650.66
331.25	1736.68
331.46	1683.43
331.68	1644.52
331.89	1755.11
332.10	1714.15
332.31	1591.27
332.52	1724.39
332.74	1757.16
332.95	1634.28
333.16	1710.05
333.37	1718.25
333.58	1681.38
333.80	1712.10
334.01	1535.98
334.22	1648.61
334.43	1689.57
334.64	1746.92
334.86	1656.81
335.07	1685.48
335.28	1773.54
335.49	1730.53
335.70	1691.62
335.92	1757.16
336.13	1871.84
336.34	1818.60
336.55	1765.35
336.76	1712.10
336.98	1642.47
337.19	1681.38
337.40	1796.07
337.61	1863.65
337.82	1714.15
338.04	1804.26
338.25	1599.46
338.46	1685.48
338.67	1671.14
338.88	1720.29
339.09	1671.14
339.31	1646.57
339.52	1662.95
339.73	1595.37
339.94	1648.61
340.15	1744.87
340.36	1574.89
340.58	1677.29
340.79	1701.86
341.00	1693.67
341.21	1673.19
341.42	1773.54
341.63	1738.73
341.85	1722.34
342.06	1744.87
342.27	1578.98
342.48	1753.06
342.69	1689.57
342.90	1771.49
343.12	1689.57
343.33	1644.52
343.54	1734.63
343.75	1755.11
343.96	1679.33
344.17	1665.00
344.38	1638.38
344.60	1665.00
344.81	1724.39
345.02	1759.21
345.23	1767.40
345.44	1859.56
345.65	1753.06
345.86	1710.05
346.07	1726.44
346.29	1681.38
346.50	1703.91
346.71	1781.73
346.92	1746.92
347.13	1757.16
347.34	1687.53
347.55	1751.01
347.76	1763.30
347.98	1583.08
348.19	1640.42
348.40	1753.06
348.61	1679.33
348.82	1810.40
349.03	1800.16
349.24	1701.86
349.45	1773.54
349.66	1572.84
349.88	1728.49
350.09	1681.38
350.30	1775.59
350.51	1763.30
350.72	1701.86
350.93	1701.86
351.14	1656.81
351.35	1730.53
351.56	1724.39
351.77	1665.00
351.99	1765.35
352.20	1789.92
352.41	1822.69
352.62	1652.71
352.83	1718.25
353.04	1683.43
353.25	1697.77
353.46	1791.97
353.67	1744.87
353.88	1648.61
354.09	1734.63
354.30	1703.91
354.52	1748.97
354.73	1738.73
354.94	1640.42
355.15	1771.49
355.36	1841.12
355.57	1705.96
355.78	1703.91
355.99	1691.62
356.20	1654.76
356.41	1822.69
356.62	1738.73
356.83	1708.01
357.04	1791.97
357.25	1587.18
357.46	1648.61
357.68	1652.71
357.89	1746.92
358.10	1644.52
358.31	1708.01
358.52	1730.53
358.73	1609.70
358.94	1701.86
359.15	1685.48
359.36	1726.44
359.57	1732.58
359.78	1718.25
359.99	1818.60
360.20	1630.18
360.41	1759.21
360.62	1703.91
360.83	1785.83
361.04	1769.44
361.25	1755.11
361.46	1785.83
361.67	1662.95
361.88	1777.64
362.09	1710.05
362.30	1798.12
362.51	1677.29
362.72	1728.49
362.93	1748.97
363.14	1763.30
363.35	1730.53
363.56	1667.05
363.78	1744.87
363.99	1775.59
364.20	1650.66
364.41	1697.77
364.62	1832.93
364.83	1673.19
365.04	1665.00
365.25	1701.86
365.46	1787.88
365.67	1617.90
365.88	1644.52
366.09	1724.39
366.30	1701.86
366.51	1640.42
366.72	1603.56
366.93	1718.25
367.14	1765.35
367.35	1812.45
367.56	1744.87
367.77	1781.73
367.98	1695.72
368.18	1761.25
368.39	1746.92
368.60	1632.23
368.81	1689.57
369.02	1720.29
369.23	1746.92
369.44	1576.94
369.65	1724.39
369.86	1677.29
370.07	1689.57
370.28	1705.96
370.49	1671.14
370.70	1734.63
370.91	1695.72
371.12	1650.66
371.33	1796.07
371.54	1611.75
371.75	1869.80
371.96	1648.61
372.17	1759.21
372.38	1697.77
372.59	1744.87
372.80	1669.09
373.01	1742.82
373.22	1722.34
373.43	1718.25
373.64	1615.85
373.85	1773.54
374.06	1779.68
374.26	1755.11
374.47	1763.30
374.68	1818.60
374.89	1732.58
375.10	1667.05
375.31	1716.20
375.52	1724.39
375.73	1767.40
375.94	1656.81
376.15	1767.40
376.36	1718.25
376.57	1697.77
376.78	1665.00
376.99	1796.07
377.20	1785.83
377.40	1652.71
377.61	1798.12
377.82	1695.72
378.03	1783.78
378.24	1773.54
378.45	1724.39
378.66	1638.38
378.87	1560.55
379.08	1607.66
379.29	1701.86
379.50	1822.69
379.71	1714.15
379.91	1705.96
380.12	1683.43
380.33	1812.45
380.54	1722.34
380.75	1648.61
380.96	1669.09
381.17	1781.73
381.38	1736.68
381.59	1705.96
381.80	1701.86
382.00	1802.21
382.21	1765.35
382.42	1902.56
382.63	1824.74
382.84	1693.67
383.05	1781.73
383.26	1845.22
383.47	1808.36
383.68	1687.53
383.88	1728.49
384.09	1732.58
384.30	1755.11
384.51	1718.25
384.72	1603.56
384.93	1628.14
385.14	1726.44
385.35	1691.62
385.55	1691.62
385.76	1734.63
385.97	1658.85
386.18	1705.96
386.39	1626.09
386.60	1718.25
386.81	1746.92
387.02	1726.44
387.22	1705.96
387.43	1812.45
387.64	1822.69
387.85	1882.08
388.06	2215.90
388.27	4251.58
388.48	6807.45
388.68	8308.61
388.89	9713.52
389.10	9836.39
389.31	8836.99
389.52	7575.44
389.73	6795.16
389.93	6229.92
390.14	5953.45
390.35	5183.41
390.56	4558.78
390.77	3932.10
390.98	3074.00
391.18	2527.19
391.39	2193.37
391.60	1961.95
391.81	1714.15
392.02	1691.62
392.23	1798.12
392.43	1798.12
392.64	1757.16
392.85	1806.31
393.06	1802.21
393.27	1755.11
393.47	1689.57
393.68	1785.83
393.89	1673.19
394.10	1812.45
394.31	1693.67
394.52	1642.47
394.72	1740.77
394.93	1808.36
395.14	1667.05
395.35	1748.97
395.56	1656.81
395.76	1816.55
395.97	1738.73
396.18	1873.89
396.39	1834.98
396.60	2060.26
396.80	1880.04
397.01	1855.46
397.22	1847.27
397.43	1863.65
397.64	1753.06
397.84	1814.50
398.05	1998.82
398.26	1710.05
398.47	1804.26
398.67	1787.88
398.88	1765.35
399.09	1765.35
399.30	1705.96
399.51	1716.20
399.71	1615.85
399.92	1714.15
400.13	1716.20
400.34	1732.58
400.54	1710.05
400.75	1847.27
400.96	1716.20
401.17	1828.84
401.37	1765.35
401.58	1652.71
401.79	1755.11
402.00	1845.22
402.21	2004.96
402.41	1923.04
402.62	1929.19
402.83	2086.88
403.04	2009.06
403.24	2088.93
403.45	1875.94
403.66	1898.47
403.87	1937.38
404.07	1949.67
404.28	1873.89
404.49	1847.27
404.70	1751.01
404.90	1785.83
405.11	1791.97
405.32	1802.21
405.52	1728.49
405.73	1701.86
405.94	1685.48
406.15	1724.39
406.35	1796.07
406.56	1728.49
406.77	1722.34
406.98	1779.68
407.18	1679.33
407.39	1832.93
407.60	1708.01
407.80	1705.96
408.01	1796.07
408.22	1738.73
408.43	1738.73
408.63	1746.92
408.84	1759.21
409.05	1759.21
409.25	1667.05
409.46	1787.88
409.67	1656.81
409.88	1744.87
410.08	1763.30
410.29	1621.99
410.50	1757.16
410.70	1665.00
410.91	1794.02
411.12	1714.15
411.32	1742.82
411.53	1769.44
411.74	1738.73
411.95	1789.92
412.15	1701.86
412.36	1779.68
412.57	1744.87
412.77	1728.49
412.98	1705.96
413.19	1650.66
413.39	1818.60
413.60	1703.91
413.81	1761.25
414.01	1632.23
414.22	1814.50
414.43	1775.59
414.63	1689.57
414.84	1822.69
415.05	1693.67
415.25	1685.48
415.46	1669.09
415.67	1656.81
415.87	1736.68
416.08	1701.86
416.29	1740.77
416.49	1689.57
416.70	1679.33
416.91	1744.87
417.11	1652.71
417.32	1800.16
417.53	1726.44
417.73	1751.01
417.94	1665.00
418.15	1681.38
418.35	1699.81
418.56	1751.01
418.77	1751.01
418.97	1759.21
419.18	1751.01
419.38	1585.13
419.59	1701.86
419.80	1839.08
420.00	1634.28
420.21	1705.96
420.42	1822.69
420.62	1753.06
420.83	1724.39
421.04	1699.81
421.24	1708.01
421.45	1769.44
421.65	1722.34
421.86	1722.34
422.07	1789.92
422.27	1837.03
422.48	1751.01
422.69	1673.19
422.89	1665.00
423.10	1728.49
423.30	1617.90
423.51	1802.21
423.72	1705.96
423.92	1765.35
424.13	1708.01
424.33	1767.40
424.54	1730.53
424.75	1695.72
424.95	1841.12
425.16	1810.40
425.36	1689.57
425.57	1806.31
425.78	1714.15
425.98	1828.84
426.19	1759.21
426.39	1642.47
426.60	1705.96
426.81	1769.44
427.01	1757.16
427.22	1644.52
427.42	1679.33
427.63	1730.53
427.83	1845.22
428.04	1798.12
428.25	1783.78
428.45	1804.26
428.66	1744.87
428.86	1615.85
429.07	1693.67
429.28	1673.19
429.48	1667.05
429.69	1691.62
429.89	1693.67
430.10	1611.75
430.30	1775.59
430.51	1722.34
430.71	1583.08
430.92	1738.73
431.13	1748.97
431.33	1738.73
431.54	1665.00
431.74	1804.26
431.95	1843.17
432.15	1701.86
432.36	1746.92
432.56	1746.92
432.77	1789.92
432.98	1834.98
433.18	1761.25
433.39	1677.29
433.59	1699.81
433.80	1787.88
434.00	1796.07
434.21	1734.63
434.41	1753.06
434.62	1896.42
434.82	1697.77
435.03	1624.04
435.23	1730.53
435.44	1646.57
435.64	1767.40
435.85	1665.00
436.06	1742.82
436.26	1822.69
436.47	1662.95
436.67	1599.46
436.88	1734.63
437.08	1748.97
437.29	1818.60
437.49	1744.87
437.70	1736.68
437.90	1714.15
438.11	1834.98
438.31	1869.80
438.52	1877.99
438.72	1816.55
438.93	1861.60
439.13	1744.87
439.34	1818.60
439.54	1730.53
439.75	1865.70
439.95	1763.30
440.16	1697.77
440.36	1769.44
440.57	1708.01
440.77	1728.49
440.98	1734.63
441.18	1773.54
441.39	1675.24
441.59	1687.53
441.80	1779.68
442.00	1697.77
442.21	1822.69
442.41	1667.05
442.62	1832.93
442.82	1697.77
443.02	1761.25
443.23	1765.35
443.43	1734.63
443.64	1843.17
443.84	1658.85
444.05	1800.16
444.25	1759.21
444.46	1681.38
444.66	1691.62
444.87	1816.55
445.07	1689.57
445.28	1695.72
445.48	1820.64
445.69	1712.10
445.89	1898.47
446.09	1746.92
446.30	2050.02
446.50	2703.32
446.71	3790.79
446.91	4386.75
447.12	4745.14
447.32	4888.50
447.53	4376.51
447.73	3958.72
447.93	3508.17
448.14	3383.24
448.34	3270.61
448.55	2885.59
448.75	2873.30
448.96	2754.52
449.16	2453.47
449.36	2312.16
449.57	2131.94
449.77	1914.85
449.98	1806.31
450.18	1877.99
450.39	1812.45
450.59	1796.07
450.79	1732.58
451.00	1748.97
451.20	1796.07
451.41	1714.15
451.61	1775.59
451.81	1710.05
452.02	1640.42
452.22	1781.73
452.43	1687.53
452.63	1791.97
