SpectraSuite Data File
++++++++++++++++++++++++++++++++++++
Date: Mon Jun 06 12:15:17 CEST 2016
User: root
Dark Spectrum Present: No
Reference Spectrum Present: No
Number of Sampled Component Spectra: 1
Spectrometers: USB4C02835
Integration Time (usec): 100000 (USB4C02835)
Spectra Averaged: 1 (USB4C02835)
Boxcar Smoothing: 0 (USB4C02835)
Correct for Electrical Dark: No (USB4C02835)
Strobe/Lamp Enabled: No (USB4C02835)
Correct for Detector Non-linearity: No (USB4C02835)
Correct for Stray Light: No (USB4C02835)
Number of Pixels in Processed Spectrum: 3648
>>>>>Begin Processed Spectral Data<<<<<
177.47	1462.25
177.69	1462.25
177.91	1462.25
178.13	1476.59
178.36	1435.63
178.58	1570.79
178.80	1724.39
179.02	1597.42
179.24	1677.29
179.46	1644.52
179.68	1693.67
179.90	1691.62
180.13	1691.62
180.35	1603.56
180.57	1656.81
180.79	1767.40
181.01	1679.33
181.23	1695.72
181.45	1785.83
181.67	1714.15
181.90	1761.25
182.12	1640.42
182.34	1564.65
182.56	1699.81
182.78	1669.09
183.00	1658.85
183.22	1689.57
183.44	1669.09
183.66	1798.12
183.89	1759.21
184.11	1693.67
184.33	1759.21
184.55	1734.63
184.77	1689.57
184.99	1767.40
185.21	1703.91
185.43	1890.28
185.65	1730.53
185.87	1669.09
186.10	1806.31
186.32	1853.41
186.54	1683.43
186.76	1734.63
186.98	1736.68
187.20	1757.16
187.42	1695.72
187.64	1703.91
187.86	1757.16
188.08	1732.58
188.30	1607.66
188.52	1683.43
188.75	1687.53
188.97	1705.96
189.19	1619.94
189.41	1705.96
189.63	1671.14
189.85	1679.33
190.07	1640.42
190.29	1648.61
190.51	1712.10
190.73	1617.90
190.95	1771.49
191.17	1708.01
191.39	1607.66
191.61	1652.71
191.84	1619.94
192.06	1728.49
192.28	1648.61
192.50	1849.32
192.72	1759.21
192.94	1691.62
193.16	1769.44
193.38	1734.63
193.60	1687.53
193.82	1697.77
194.04	1746.92
194.26	1681.38
194.48	1712.10
194.70	1607.66
194.92	1628.14
195.14	1722.34
195.36	1679.33
195.58	1697.77
195.80	1632.23
196.02	1693.67
196.24	1652.71
196.46	1681.38
196.69	1656.81
196.91	1834.98
197.13	1648.61
197.35	1734.63
197.57	1724.39
197.79	1652.71
198.01	1673.19
198.23	1605.61
198.45	1740.77
198.67	1636.33
198.89	1779.68
199.11	1685.48
199.33	1648.61
199.55	1570.79
199.77	1730.53
199.99	1740.77
200.21	1673.19
200.43	1658.85
200.65	1617.90
200.87	1601.51
201.09	1671.14
201.31	1642.47
201.53	1724.39
201.75	1701.86
201.97	1724.39
202.19	1648.61
202.41	1753.06
202.63	1789.92
202.85	1712.10
203.07	1710.05
203.29	1726.44
203.51	1695.72
203.73	1683.43
203.95	1871.84
204.17	1742.82
204.39	1751.01
204.61	1660.90
204.83	1738.73
205.05	1675.24
205.27	1865.70
205.49	1787.88
205.71	1708.01
205.93	1562.60
206.15	1699.81
206.37	1658.85
206.59	1656.81
206.81	1574.89
207.03	1578.98
207.25	1650.66
207.47	1804.26
207.69	1724.39
207.91	1693.67
208.13	1822.69
208.34	1669.09
208.56	1654.76
208.78	1732.58
209.00	1660.90
209.22	1640.42
209.44	1708.01
209.66	1599.46
209.88	1644.52
210.10	1624.04
210.32	1636.33
210.54	1740.77
210.76	1607.66
210.98	1671.14
211.20	1542.12
211.42	1730.53
211.64	1708.01
211.86	1691.62
212.08	1777.64
212.30	1660.90
212.52	1667.05
212.74	1673.19
212.96	1804.26
213.17	1730.53
213.39	1804.26
213.61	1767.40
213.83	1701.86
214.05	1617.90
214.27	1771.49
214.49	1628.14
214.71	1589.22
214.93	1773.54
215.15	1660.90
215.37	1783.78
215.59	1607.66
215.81	1722.34
216.03	1748.97
216.24	1667.05
216.46	1703.91
216.68	1742.82
216.90	1775.59
217.12	1699.81
217.34	1675.24
217.56	1742.82
217.78	1818.60
218.00	1689.57
218.22	1724.39
218.44	1724.39
218.66	1705.96
218.87	1820.64
219.09	1667.05
219.31	1734.63
219.53	1726.44
219.75	1599.46
219.97	1656.81
220.19	1652.71
220.41	1656.81
220.63	1759.21
220.85	1773.54
221.06	1662.95
221.28	1736.68
221.50	1695.72
221.72	1669.09
221.94	1787.88
222.16	1681.38
222.38	1708.01
222.60	1701.86
222.82	1665.00
223.03	1734.63
223.25	1638.38
223.47	1783.78
223.69	1820.64
223.91	1714.15
224.13	1722.34
224.35	1615.85
224.57	1726.44
224.78	1722.34
225.00	1615.85
225.22	1712.10
225.44	1742.82
225.66	1665.00
225.88	1656.81
226.10	1810.40
226.32	1699.81
226.53	1791.97
226.75	1685.48
226.97	1665.00
227.19	1687.53
227.41	1599.46
227.63	1603.56
227.85	1581.03
228.06	1730.53
228.28	1726.44
228.50	1730.53
228.72	1736.68
228.94	1630.18
229.16	1558.50
229.37	1617.90
229.59	1609.70
229.81	1771.49
230.03	1689.57
230.25	1574.89
230.47	1585.13
230.69	1656.81
230.90	1769.44
231.12	1648.61
231.34	1712.10
231.56	1726.44
231.78	1615.85
232.00	1763.30
232.21	1685.48
232.43	1701.86
232.65	1495.02
232.87	1720.29
233.09	1689.57
233.30	1634.28
233.52	1757.16
233.74	1681.38
233.96	1626.09
234.18	1705.96
234.40	1693.67
234.61	1884.13
234.83	1601.51
235.05	1646.57
235.27	1841.12
235.49	1861.60
235.70	1636.33
235.92	1730.53
236.14	1718.25
236.36	1855.46
236.58	1619.94
236.79	1703.91
237.01	1751.01
237.23	1765.35
237.45	1859.56
237.67	1589.22
237.88	1644.52
238.10	1890.28
238.32	1652.71
238.54	1636.33
238.76	1628.14
238.97	1650.66
239.19	1714.15
239.41	1681.38
239.63	1669.09
239.85	1648.61
240.06	1578.98
240.28	1648.61
240.50	1708.01
240.72	1644.52
240.93	1691.62
241.15	1785.83
241.37	1701.86
241.59	1751.01
241.81	1658.85
242.02	1650.66
242.24	1769.44
242.46	1691.62
242.68	1619.94
242.89	1656.81
243.11	1722.34
243.33	1767.40
243.55	1763.30
243.76	1695.72
243.98	1710.05
244.20	1671.14
244.42	1728.49
244.64	1632.23
244.85	1724.39
245.07	1722.34
245.29	1675.24
245.51	1800.16
245.72	1705.96
245.94	1781.73
246.16	1626.09
246.38	1660.90
246.59	1673.19
246.81	1685.48
247.03	1691.62
247.24	1605.61
247.46	1681.38
247.68	1685.48
247.90	1695.72
248.11	1687.53
248.33	1740.77
248.55	1728.49
248.77	1681.38
248.98	1726.44
249.20	1779.68
249.42	1669.09
249.64	1689.57
249.85	1730.53
250.07	1693.67
250.29	1673.19
250.50	1730.53
250.72	1638.38
250.94	1767.40
251.16	1763.30
251.37	1771.49
251.59	1738.73
251.81	1703.91
252.02	1841.12
252.24	1681.38
252.46	1732.58
252.68	1675.24
252.89	1656.81
253.11	1607.66
253.33	1808.36
253.54	1753.06
253.76	1570.79
253.98	1691.62
254.20	1648.61
254.41	1613.80
254.63	1673.19
254.85	1591.27
255.06	1638.38
255.28	1763.30
255.50	1667.05
255.71	1675.24
255.93	1611.75
256.15	1667.05
256.36	1648.61
256.58	1613.80
256.80	1695.72
257.02	1681.38
257.23	1644.52
257.45	1714.15
257.67	1796.07
257.88	1734.63
258.10	1722.34
258.32	1632.23
258.53	1705.96
258.75	1808.36
258.97	1703.91
259.18	1685.48
259.40	1681.38
259.62	1730.53
259.83	1742.82
260.05	1738.73
260.27	1918.95
260.48	1714.15
260.70	1581.03
260.92	1679.33
261.13	1722.34
261.35	1673.19
261.57	1732.58
261.78	1621.99
262.00	1697.77
262.22	1640.42
262.43	1636.33
262.65	1628.14
262.86	1609.70
263.08	1791.97
263.30	1675.24
263.51	1677.29
263.73	1615.85
263.95	1837.03
264.16	1703.91
264.38	1646.57
264.60	1730.53
264.81	1681.38
265.03	1716.20
265.25	1738.73
265.46	1681.38
265.68	1818.60
265.89	1724.39
266.11	1595.37
266.33	1769.44
266.54	1708.01
266.76	1724.39
266.98	1683.43
267.19	1806.31
267.41	1683.43
267.62	1703.91
267.84	1605.61
268.06	1781.73
268.27	1689.57
268.49	1701.86
268.70	1705.96
268.92	1716.20
269.14	1624.04
269.35	1609.70
269.57	1683.43
269.79	1789.92
270.00	1632.23
270.22	1695.72
270.43	1683.43
270.65	1611.75
270.87	1679.33
271.08	1710.05
271.30	1757.16
271.51	1673.19
271.73	1708.01
271.95	1800.16
272.16	1708.01
272.38	1761.25
272.59	1714.15
272.81	1685.48
273.02	1732.58
273.24	1771.49
273.46	1722.34
273.67	1642.47
273.89	1738.73
274.10	1660.90
274.32	1785.83
274.54	1736.68
274.75	1726.44
274.97	1667.05
275.18	1800.16
275.40	1732.58
275.61	1685.48
275.83	1662.95
276.05	1630.18
276.26	1667.05
276.48	1781.73
276.69	1703.91
276.91	1673.19
277.12	1779.68
277.34	1791.97
277.55	1718.25
277.77	1675.24
277.99	1621.99
278.20	1677.29
278.42	1736.68
278.63	1619.94
278.85	1660.90
279.06	1535.98
279.28	1689.57
279.49	1732.58
279.71	1734.63
279.93	1673.19
280.14	1703.91
280.36	1597.42
280.57	1718.25
280.79	1705.96
281.00	1685.48
281.22	1710.05
281.43	1789.92
281.65	1558.50
281.86	1593.32
282.08	1687.53
282.29	1904.61
282.51	1583.08
282.73	1611.75
282.94	1538.02
283.16	1732.58
283.37	1886.18
283.59	1708.01
283.80	1753.06
284.02	1757.16
284.23	1703.91
284.45	1636.33
284.66	1652.71
284.88	1591.27
285.09	1763.30
285.31	1759.21
285.52	1728.49
285.74	1624.04
285.95	1701.86
286.17	1662.95
286.38	1771.49
286.60	1683.43
286.81	1716.20
287.03	1724.39
287.24	1675.24
287.46	1712.10
287.67	1591.27
287.89	1820.64
288.10	1654.76
288.32	1738.73
288.53	1748.97
288.75	1681.38
288.96	1681.38
289.18	1673.19
289.39	1701.86
289.61	1669.09
289.82	1812.45
290.04	1730.53
290.25	1650.66
290.47	1691.62
290.68	1703.91
290.90	1708.01
291.11	1628.14
291.33	1730.53
291.54	1708.01
291.76	1640.42
291.97	1759.21
292.18	1761.25
292.40	1658.85
292.61	1613.80
292.83	1781.73
293.04	1636.33
293.26	1705.96
293.47	1716.20
293.69	1621.99
293.90	1675.24
294.12	1777.64
294.33	1681.38
294.55	1636.33
294.76	1732.58
294.97	1814.50
295.19	1816.55
295.40	1712.10
295.62	1712.10
295.83	1705.96
296.05	1626.09
296.26	1724.39
296.48	1605.61
296.69	1691.62
296.90	1628.14
297.12	1791.97
297.33	1740.77
297.55	1703.91
297.76	1675.24
297.98	1738.73
298.19	1683.43
298.41	1679.33
298.62	1619.94
298.83	1718.25
299.05	1658.85
299.26	1722.34
299.48	1632.23
299.69	1648.61
299.90	1757.16
300.12	1726.44
300.33	1693.67
300.55	1701.86
300.76	1787.88
300.98	1644.52
301.19	1755.11
301.40	1642.47
301.62	1628.14
301.83	1701.86
302.05	1626.09
302.26	1746.92
302.47	1769.44
302.69	1552.36
302.90	1683.43
303.12	1583.08
303.33	1677.29
303.54	1775.59
303.76	1636.33
303.97	1718.25
304.19	1796.07
304.40	1638.38
304.61	1697.77
304.83	1712.10
305.04	1718.25
305.26	1716.20
305.47	1587.18
305.68	1642.47
305.90	1681.38
306.11	1718.25
306.33	1624.04
306.54	1665.00
306.75	1630.18
306.97	1560.55
307.18	1669.09
307.39	1710.05
307.61	1677.29
307.82	1628.14
308.04	1812.45
308.25	1699.81
308.46	1665.00
308.68	1621.99
308.89	1681.38
309.10	1746.92
309.32	1632.23
309.53	1697.77
309.74	1730.53
309.96	1605.61
310.17	1767.40
310.39	1628.14
310.60	1691.62
310.81	1632.23
311.03	1648.61
311.24	1755.11
311.45	1689.57
311.67	1800.16
311.88	1724.39
312.09	1626.09
312.31	1619.94
312.52	1619.94
312.73	1658.85
312.95	1671.14
313.16	1628.14
313.37	1724.39
313.59	1787.88
313.80	1759.21
314.01	1779.68
314.23	1726.44
314.44	1619.94
314.65	1611.75
314.87	1671.14
315.08	1691.62
315.29	1722.34
315.51	1617.90
315.72	1646.57
315.93	1791.97
316.15	1726.44
316.36	1587.18
316.57	1730.53
316.79	1769.44
317.00	1714.15
317.21	1701.86
317.43	1705.96
317.64	1689.57
317.85	1671.14
318.07	1615.85
318.28	1705.96
318.49	1806.31
318.70	1849.32
318.92	1716.20
319.13	1880.04
319.34	1773.54
319.56	1826.79
319.77	1755.11
319.98	1812.45
320.20	1802.21
320.41	1734.63
320.62	1734.63
320.83	1628.14
321.05	1781.73
321.26	1708.01
321.47	1665.00
321.69	1748.97
321.90	1640.42
322.11	1685.48
322.32	1703.91
322.54	1744.87
322.75	1597.42
322.96	1927.14
323.18	1630.18
323.39	1578.98
323.60	1615.85
323.81	1718.25
324.03	1624.04
324.24	1687.53
324.45	1681.38
324.66	1640.42
324.88	1787.88
325.09	1769.44
325.30	1757.16
325.52	1732.58
325.73	1701.86
325.94	1619.94
326.15	1656.81
326.37	1689.57
326.58	1650.66
326.79	1755.11
327.00	1687.53
327.22	1722.34
327.43	1615.85
327.64	1613.80
327.85	1705.96
328.07	1730.53
328.28	1839.08
328.49	1685.48
328.70	1685.48
328.92	1669.09
329.13	1691.62
329.34	1763.30
329.55	1771.49
329.76	1724.39
329.98	1669.09
330.19	1759.21
330.40	1738.73
330.61	1675.24
330.83	1697.77
331.04	1697.77
331.25	1720.29
331.46	1695.72
331.68	1624.04
331.89	1755.11
332.10	1683.43
332.31	1615.85
332.52	1712.10
332.74	1777.64
332.95	1628.14
333.16	1636.33
333.37	1716.20
333.58	1685.48
333.80	1751.01
334.01	1648.61
334.22	1720.29
334.43	1654.76
334.64	1665.00
334.86	1665.00
335.07	1701.86
335.28	1789.92
335.49	1648.61
335.70	1691.62
335.92	1701.86
336.13	1781.73
336.34	1656.81
336.55	1654.76
336.76	1763.30
336.98	1591.27
337.19	1644.52
337.40	1826.79
337.61	1761.25
337.82	1681.38
338.04	1812.45
338.25	1595.37
338.46	1740.77
338.67	1656.81
338.88	1677.29
339.09	1617.90
339.31	1689.57
339.52	1619.94
339.73	1701.86
339.94	1660.90
340.15	1736.68
340.36	1650.66
340.58	1685.48
340.79	1626.09
341.00	1736.68
341.21	1624.04
341.42	1800.16
341.63	1638.38
341.85	1783.78
342.06	1687.53
342.27	1619.94
342.48	1726.44
342.69	1615.85
342.90	1720.29
343.12	1722.34
343.33	1712.10
343.54	1693.67
343.75	1828.84
343.96	1691.62
344.17	1634.28
344.38	1726.44
344.60	1665.00
344.81	1658.85
345.02	1714.15
345.23	1724.39
345.44	1826.79
345.65	1703.91
345.86	1708.01
346.07	1654.76
346.29	1607.66
346.50	1810.40
346.71	1742.82
346.92	1712.10
347.13	1785.83
347.34	1744.87
347.55	1634.28
347.76	1740.77
347.98	1615.85
348.19	1636.33
348.40	1720.29
348.61	1761.25
348.82	1765.35
349.03	1738.73
349.24	1665.00
349.45	1775.59
349.66	1591.27
349.88	1697.77
350.09	1658.85
350.30	1748.97
350.51	1710.05
350.72	1773.54
350.93	1759.21
351.14	1714.15
351.35	1681.38
351.56	1685.48
351.77	1662.95
351.99	1638.38
352.20	1800.16
352.41	1667.05
352.62	1624.04
352.83	1716.20
353.04	1669.09
353.25	1667.05
353.46	1753.06
353.67	1777.64
353.88	1574.89
354.09	1683.43
354.30	1669.09
354.52	1757.16
354.73	1689.57
354.94	1603.56
355.15	1728.49
355.36	1808.36
355.57	1658.85
355.78	1804.26
355.99	1677.29
356.20	1705.96
356.41	1691.62
356.62	1644.52
356.83	1687.53
357.04	1726.44
357.25	1568.74
357.46	1665.00
357.68	1587.18
357.89	1710.05
358.10	1732.58
358.31	1734.63
358.52	1720.29
358.73	1593.32
358.94	1662.95
359.15	1669.09
359.36	1687.53
359.57	1736.68
359.78	1591.27
359.99	1683.43
360.20	1640.42
360.41	1675.24
360.62	1654.76
360.83	1660.90
361.04	1658.85
361.25	1695.72
361.46	1716.20
361.67	1656.81
361.88	1679.33
362.09	1648.61
362.30	1675.24
362.51	1607.66
362.72	1697.77
362.93	1781.73
363.14	1662.95
363.35	1775.59
363.56	1640.42
363.78	1734.63
363.99	1708.01
364.20	1665.00
364.41	1691.62
364.62	1783.78
364.83	1724.39
365.04	1675.24
365.25	1646.57
365.46	1765.35
365.67	1630.18
365.88	1611.75
366.09	1648.61
366.30	1669.09
366.51	1679.33
366.72	1611.75
366.93	1644.52
367.14	1683.43
367.35	1701.86
367.56	1691.62
367.77	1765.35
367.98	1671.14
368.18	1755.11
368.39	1691.62
368.60	1654.76
368.81	1748.97
369.02	1748.97
369.23	1640.42
369.44	1628.14
369.65	1712.10
369.86	1683.43
370.07	1740.77
370.28	1632.23
370.49	1724.39
370.70	1691.62
370.91	1642.47
371.12	1634.28
371.33	1751.01
371.54	1724.39
371.75	1834.98
371.96	1595.37
372.17	1730.53
372.38	1693.67
372.59	1755.11
372.80	1665.00
373.01	1728.49
373.22	1675.24
373.43	1720.29
373.64	1605.61
373.85	1767.40
374.06	1771.49
374.26	1714.15
374.47	1724.39
374.68	1796.07
374.89	1656.81
375.10	1767.40
375.31	1732.58
375.52	1718.25
375.73	1740.77
375.94	1535.98
376.15	1779.68
376.36	1603.56
376.57	1693.67
376.78	1665.00
376.99	1640.42
377.20	1732.58
377.40	1703.91
377.61	1748.97
377.82	1621.99
378.03	1763.30
378.24	1708.01
378.45	1642.47
378.66	1689.57
378.87	1560.55
379.08	1658.85
379.29	1638.38
379.50	1705.96
379.71	1675.24
379.91	1740.77
380.12	1636.33
380.33	1701.86
380.54	1705.96
380.75	1648.61
380.96	1644.52
381.17	1748.97
381.38	1720.29
381.59	1681.38
381.80	1710.05
382.00	1730.53
382.21	1703.91
382.42	1837.03
382.63	1832.93
382.84	1718.25
383.05	1787.88
383.26	1771.49
383.47	1714.15
383.68	1699.81
383.88	1699.81
384.09	1716.20
384.30	1785.83
384.51	1705.96
384.72	1730.53
384.93	1683.43
385.14	1755.11
385.35	1785.83
385.55	1552.36
385.76	1820.64
385.97	1728.49
386.18	1621.99
386.39	1718.25
386.60	1658.85
386.81	1665.00
387.02	1667.05
387.22	1683.43
387.43	1761.25
387.64	1863.65
387.85	1857.51
388.06	2234.33
388.27	4208.58
388.48	6899.61
388.68	8341.38
388.89	9908.07
389.10	10024.81
389.31	8828.79
389.52	7722.89
389.73	6733.72
389.93	6377.37
390.14	6000.55
390.35	5226.42
390.56	4599.74
390.77	3788.74
390.98	3098.58
391.18	2490.33
391.39	2189.28
391.60	1853.41
391.81	1832.93
392.02	1722.34
392.23	1804.26
392.43	1603.56
392.64	1779.68
392.85	1730.53
393.06	1796.07
393.27	1701.86
393.47	1603.56
393.68	1757.16
393.89	1636.33
394.10	1773.54
394.31	1703.91
394.52	1624.04
394.72	1710.05
394.93	1804.26
395.14	1656.81
395.35	1742.82
395.56	1685.48
395.76	1822.69
395.97	1828.84
396.18	1877.99
396.39	1830.88
396.60	2013.15
396.80	1853.41
397.01	1781.73
397.22	1837.03
397.43	1843.17
397.64	1746.92
397.84	1791.97
398.05	1857.51
398.26	1779.68
398.47	1724.39
398.67	1775.59
398.88	1726.44
399.09	1718.25
399.30	1667.05
399.51	1740.77
399.71	1640.42
399.92	1685.48
400.13	1710.05
400.34	1718.25
400.54	1669.09
400.75	1796.07
400.96	1746.92
401.17	1771.49
401.37	1693.67
401.58	1679.33
401.79	1744.87
402.00	1808.36
402.21	2021.35
402.41	2002.91
402.62	1943.52
402.83	2033.63
403.04	2017.25
403.24	2076.64
403.45	1880.04
403.66	1908.71
403.87	1869.80
404.07	1906.66
404.28	1865.70
404.49	1820.64
404.70	1812.45
404.90	1740.77
405.11	1716.20
405.32	1675.24
405.52	1710.05
405.73	1644.52
405.94	1636.33
406.15	1652.71
406.35	1701.86
406.56	1742.82
406.77	1761.25
406.98	1689.57
407.18	1665.00
407.39	1808.36
407.60	1646.57
407.80	1699.81
408.01	1642.47
408.22	1822.69
408.43	1771.49
408.63	1683.43
408.84	1738.73
409.05	1839.08
409.25	1611.75
409.46	1648.61
409.67	1693.67
409.88	1650.66
410.08	1718.25
410.29	1638.38
410.50	1675.24
410.70	1632.23
410.91	1662.95
411.12	1734.63
411.32	1665.00
411.53	1626.09
411.74	1779.68
411.95	1814.50
412.15	1763.30
412.36	1736.68
412.57	1734.63
412.77	1882.08
412.98	1665.00
413.19	1650.66
413.39	1710.05
413.60	1685.48
413.81	1751.01
414.01	1658.85
414.22	1755.11
414.43	1734.63
414.63	1708.01
414.84	1843.17
415.05	1734.63
415.25	1607.66
415.46	1724.39
415.67	1658.85
415.87	1665.00
416.08	1669.09
416.29	1595.37
416.49	1722.34
416.70	1626.09
416.91	1685.48
417.11	1718.25
417.32	1701.86
417.53	1757.16
417.73	1628.14
417.94	1734.63
418.15	1683.43
418.35	1693.67
418.56	1738.73
418.77	1841.12
418.97	1689.57
419.18	1677.29
419.38	1677.29
419.59	1710.05
419.80	1753.06
420.00	1667.05
420.21	1636.33
420.42	1765.35
420.62	1714.15
420.83	1640.42
421.04	1722.34
421.24	1665.00
421.45	1718.25
421.65	1712.10
421.86	1652.71
422.07	1736.68
422.27	1648.61
422.48	1712.10
422.69	1574.89
422.89	1673.19
423.10	1765.35
423.30	1628.14
423.51	1642.47
423.72	1783.78
423.92	1699.81
424.13	1632.23
424.33	1708.01
424.54	1705.96
424.75	1619.94
424.95	1789.92
425.16	1730.53
425.36	1617.90
425.57	1693.67
425.78	1728.49
425.98	1683.43
426.19	1646.57
426.39	1673.19
426.60	1769.44
426.81	1791.97
427.01	1714.15
427.22	1689.57
427.42	1640.42
427.63	1607.66
427.83	1703.91
428.04	1775.59
428.25	1828.84
428.45	1755.11
428.66	1714.15
428.86	1693.67
429.07	1656.81
429.28	1642.47
429.48	1632.23
429.69	1642.47
429.89	1689.57
430.10	1644.52
430.30	1785.83
430.51	1818.60
430.71	1675.24
430.92	1628.14
431.13	1628.14
431.33	1697.77
431.54	1767.40
431.74	1834.98
431.95	1802.21
432.15	1591.27
432.36	1673.19
432.56	1710.05
432.77	1736.68
432.98	1816.55
433.18	1660.90
433.39	1720.29
433.59	1761.25
433.80	1900.52
434.00	1849.32
434.21	1693.67
434.41	1628.14
434.62	1814.50
434.82	1671.14
435.03	1632.23
435.23	1767.40
435.44	1587.18
435.64	1726.44
435.85	1796.07
436.06	1705.96
436.26	1775.59
436.47	1656.81
436.67	1654.76
436.88	1703.91
437.08	1699.81
437.29	1857.51
437.49	1740.77
437.70	1796.07
437.90	1677.29
438.11	1804.26
438.31	1783.78
438.52	1961.95
438.72	1851.36
438.93	1890.28
439.13	1785.83
439.34	1841.12
439.54	1734.63
439.75	1787.88
439.95	1779.68
440.16	1681.38
440.36	1767.40
440.57	1742.82
440.77	1732.58
440.98	1726.44
441.18	1757.16
441.39	1710.05
441.59	1724.39
441.80	1771.49
442.00	1732.58
442.21	1748.97
442.41	1574.89
442.62	1781.73
442.82	1646.57
443.02	1787.88
443.23	1746.92
443.43	1626.09
443.64	1769.44
443.84	1714.15
444.05	1767.40
444.25	1609.70
444.46	1650.66
444.66	1701.86
444.87	1791.97
445.07	1628.14
445.28	1695.72
445.48	1755.11
445.69	1734.63
445.89	1845.22
446.09	1783.78
446.30	2025.44
446.50	2703.32
446.71	3758.02
446.91	4276.16
447.12	4843.45
447.32	4796.34
447.53	4337.60
447.73	3940.29
447.93	3577.80
448.14	3413.96
448.34	3266.51
448.55	2899.92
448.75	2815.96
448.96	2713.56
449.16	2412.51
449.36	2250.72
449.57	2082.78
449.77	1970.15
449.98	1832.93
450.18	1810.40
450.39	1888.23
450.59	1742.82
450.79	1755.11
451.00	1705.96
451.20	1753.06
451.41	1748.97
451.61	1687.53
451.81	1710.05
452.02	1781.73
452.22	1710.05
452.43	1714.15
452.63	1681.38
