SpectraSuite Data File
++++++++++++++++++++++++++++++++++++
Date: Mon Jun 06 16:49:17 CEST 2016
User: root
Dark Spectrum Present: No
Reference Spectrum Present: No
Number of Sampled Component Spectra: 1
Spectrometers: USB4C02835
Integration Time (usec): 100000 (USB4C02835)
Spectra Averaged: 1 (USB4C02835)
Boxcar Smoothing: 0 (USB4C02835)
Correct for Electrical Dark: No (USB4C02835)
Strobe/Lamp Enabled: No (USB4C02835)
Correct for Detector Non-linearity: No (USB4C02835)
Correct for Stray Light: No (USB4C02835)
Number of Pixels in Processed Spectrum: 3648
>>>>>Begin Processed Spectral Data<<<<<
177.47	1503.21
177.69	1503.21
177.91	1503.21
178.13	1462.25
178.36	1472.49
178.58	1685.48
178.80	1740.77
179.02	1626.09
179.24	1634.28
179.46	1683.43
179.68	1773.54
179.90	1689.57
180.13	1705.96
180.35	1736.68
180.57	1632.23
180.79	1804.26
181.01	1724.39
181.23	1763.30
181.45	1791.97
181.67	1683.43
181.90	1808.36
182.12	1656.81
182.34	1634.28
182.56	1736.68
182.78	1761.25
183.00	1677.29
183.22	1712.10
183.44	1552.36
183.66	1861.60
183.89	1837.03
184.11	1701.86
184.33	1705.96
184.55	1761.25
184.77	1693.67
184.99	1771.49
185.21	1712.10
185.43	1871.84
185.65	1644.52
185.87	1806.31
186.10	1851.36
186.32	1806.31
186.54	1736.68
186.76	1689.57
186.98	1726.44
187.20	1728.49
187.42	1730.53
187.64	1701.86
187.86	1697.77
188.08	1722.34
188.30	1677.29
188.52	1697.77
188.75	1820.64
188.97	1730.53
189.19	1685.48
189.41	1693.67
189.63	1761.25
189.85	1658.85
190.07	1695.72
190.29	1591.27
190.51	1794.02
190.73	1669.09
190.95	1718.25
191.17	1687.53
191.39	1640.42
191.61	1646.57
191.84	1705.96
192.06	1736.68
192.28	1593.32
192.50	1873.89
192.72	1718.25
192.94	1759.21
193.16	1791.97
193.38	1724.39
193.60	1681.38
193.82	1705.96
194.04	1816.55
194.26	1728.49
194.48	1763.30
194.70	1681.38
194.92	1685.48
195.14	1710.05
195.36	1654.76
195.58	1673.19
195.80	1669.09
196.02	1632.23
196.24	1699.81
196.46	1667.05
196.69	1716.20
196.91	1841.12
197.13	1689.57
197.35	1681.38
197.57	1828.84
197.79	1744.87
198.01	1761.25
198.23	1714.15
198.45	1781.73
198.67	1615.85
198.89	1658.85
199.11	1705.96
199.33	1632.23
199.55	1634.28
199.77	1693.67
199.99	1734.63
200.21	1685.48
200.43	1660.90
200.65	1640.42
200.87	1630.18
201.09	1765.35
201.31	1710.05
201.53	1796.07
201.75	1744.87
201.97	1742.82
202.19	1736.68
202.41	1765.35
202.63	1806.31
202.85	1691.62
203.07	1656.81
203.29	1703.91
203.51	1642.47
203.73	1720.29
203.95	1794.02
204.17	1710.05
204.39	1761.25
204.61	1679.33
204.83	1636.33
205.05	1714.15
205.27	1771.49
205.49	1773.54
205.71	1662.95
205.93	1558.50
206.15	1650.66
206.37	1671.14
206.59	1693.67
206.81	1640.42
207.03	1624.04
207.25	1642.47
207.47	1783.78
207.69	1589.22
207.91	1830.88
208.13	1802.21
208.34	1755.11
208.56	1712.10
208.78	1718.25
209.00	1699.81
209.22	1673.19
209.44	1705.96
209.66	1656.81
209.88	1671.14
210.10	1726.44
210.32	1675.24
210.54	1818.60
210.76	1701.86
210.98	1753.06
211.20	1646.57
211.42	1697.77
211.64	1744.87
211.86	1712.10
212.08	1681.38
212.30	1751.01
212.52	1701.86
212.74	1759.21
212.96	1734.63
213.17	1775.59
213.39	1767.40
213.61	1888.23
213.83	1724.39
214.05	1636.33
214.27	1689.57
214.49	1650.66
214.71	1730.53
214.93	1816.55
215.15	1650.66
215.37	1767.40
215.59	1701.86
215.81	1740.77
216.03	1736.68
216.24	1716.20
216.46	1730.53
216.68	1761.25
216.90	1744.87
217.12	1744.87
217.34	1773.54
217.56	1722.34
217.78	1773.54
218.00	1689.57
218.22	1665.00
218.44	1763.30
218.66	1746.92
218.87	1853.41
219.09	1624.04
219.31	1769.44
219.53	1687.53
219.75	1636.33
219.97	1734.63
220.19	1755.11
220.41	1720.29
220.63	1785.83
220.85	1765.35
221.06	1665.00
221.28	1728.49
221.50	1755.11
221.72	1705.96
221.94	1658.85
222.16	1695.72
222.38	1818.60
222.60	1742.82
222.82	1736.68
223.03	1695.72
223.25	1644.52
223.47	1662.95
223.69	1822.69
223.91	1763.30
224.13	1742.82
224.35	1648.61
224.57	1824.74
224.78	1724.39
225.00	1703.91
225.22	1708.01
225.44	1656.81
225.66	1777.64
225.88	1671.14
226.10	1726.44
226.32	1791.97
226.53	1794.02
226.75	1728.49
226.97	1773.54
227.19	1708.01
227.41	1722.34
227.63	1695.72
227.85	1656.81
228.06	1734.63
228.28	1724.39
228.50	1783.78
228.72	1658.85
228.94	1691.62
229.16	1665.00
229.37	1656.81
229.59	1681.38
229.81	1781.73
230.03	1695.72
230.25	1671.14
230.47	1703.91
230.69	1667.05
230.90	1677.29
231.12	1689.57
231.34	1742.82
231.56	1796.07
231.78	1689.57
232.00	1777.64
232.21	1716.20
232.43	1775.59
232.65	1564.65
232.87	1738.73
233.09	1648.61
233.30	1716.20
233.52	1730.53
233.74	1726.44
233.96	1699.81
234.18	1726.44
234.40	1724.39
234.61	1798.12
234.83	1640.42
235.05	1626.09
235.27	1800.16
235.49	1798.12
235.70	1665.00
235.92	1806.31
236.14	1695.72
236.36	1888.23
236.58	1687.53
236.79	1734.63
237.01	1757.16
237.23	1619.94
237.45	1802.21
237.67	1728.49
237.88	1822.69
238.10	1830.88
238.32	1681.38
238.54	1755.11
238.76	1650.66
238.97	1634.28
239.19	1675.24
239.41	1710.05
239.63	1783.78
239.85	1744.87
240.06	1703.91
240.28	1734.63
240.50	1798.12
240.72	1687.53
240.93	1691.62
241.15	1730.53
241.37	1777.64
241.59	1820.64
241.81	1714.15
242.02	1705.96
242.24	1755.11
242.46	1800.16
242.68	1658.85
242.89	1716.20
243.11	1714.15
243.33	1669.09
243.55	1673.19
243.76	1751.01
243.98	1742.82
244.20	1732.58
244.42	1697.77
244.64	1673.19
244.85	1591.27
245.07	1679.33
245.29	1681.38
245.51	1742.82
245.72	1683.43
245.94	1783.78
246.16	1699.81
246.38	1744.87
246.59	1746.92
246.81	1673.19
247.03	1644.52
247.24	1615.85
247.46	1644.52
247.68	1675.24
247.90	1730.53
248.11	1718.25
248.33	1791.97
248.55	1753.06
248.77	1705.96
248.98	1703.91
249.20	1761.25
249.42	1685.48
249.64	1718.25
249.85	1746.92
250.07	1681.38
250.29	1738.73
250.50	1765.35
250.72	1621.99
250.94	1685.48
251.16	1824.74
251.37	1853.41
251.59	1632.23
251.81	1753.06
252.02	1763.30
252.24	1599.46
252.46	1871.84
252.68	1619.94
252.89	1710.05
253.11	1650.66
253.33	1773.54
253.54	1767.40
253.76	1681.38
253.98	1621.99
254.20	1716.20
254.41	1695.72
254.63	1714.15
254.85	1650.66
255.06	1708.01
255.28	1701.86
255.50	1701.86
255.71	1658.85
255.93	1671.14
256.15	1685.48
256.36	1734.63
256.58	1685.48
256.80	1755.11
257.02	1691.62
257.23	1724.39
257.45	1601.51
257.67	1673.19
257.88	1681.38
258.10	1673.19
258.32	1744.87
258.53	1726.44
258.75	1843.17
258.97	1630.18
259.18	1701.86
259.40	1746.92
259.62	1828.84
259.83	1814.50
260.05	1751.01
260.27	1900.52
260.48	1726.44
260.70	1665.00
260.92	1662.95
261.13	1769.44
261.35	1771.49
261.57	1738.73
261.78	1640.42
262.00	1689.57
262.22	1705.96
262.43	1689.57
262.65	1669.09
262.86	1665.00
263.08	1820.64
263.30	1701.86
263.51	1650.66
263.73	1605.61
263.95	1828.84
264.16	1726.44
264.38	1671.14
264.60	1648.61
264.81	1677.29
265.03	1755.11
265.25	1718.25
265.46	1673.19
265.68	1775.59
265.89	1755.11
266.11	1599.46
266.33	1728.49
266.54	1824.74
266.76	1660.90
266.98	1669.09
267.19	1804.26
267.41	1802.21
267.62	1654.76
267.84	1705.96
268.06	1697.77
268.27	1734.63
268.49	1761.25
268.70	1808.36
268.92	1697.77
269.14	1572.84
269.35	1533.93
269.57	1693.67
269.79	1722.34
270.00	1726.44
270.22	1806.31
270.43	1665.00
270.65	1603.56
270.87	1744.87
271.08	1753.06
271.30	1818.60
271.51	1665.00
271.73	1802.21
271.95	1796.07
272.16	1658.85
272.38	1714.15
272.59	1746.92
272.81	1767.40
273.02	1710.05
273.24	1736.68
273.46	1728.49
273.67	1667.05
273.89	1675.24
274.10	1710.05
274.32	1783.78
274.54	1720.29
274.75	1810.40
274.97	1644.52
275.18	1755.11
275.40	1681.38
275.61	1708.01
275.83	1656.81
276.05	1650.66
276.26	1742.82
276.48	1757.16
276.69	1673.19
276.91	1646.57
277.12	1738.73
277.34	1720.29
277.55	1755.11
277.77	1810.40
277.99	1632.23
278.20	1665.00
278.42	1665.00
278.63	1689.57
278.85	1607.66
279.06	1650.66
279.28	1757.16
279.49	1812.45
279.71	1779.68
279.93	1787.88
280.14	1730.53
280.36	1667.05
280.57	1779.68
280.79	1791.97
281.00	1658.85
281.22	1665.00
281.43	1716.20
281.65	1609.70
281.86	1705.96
282.08	1787.88
282.29	1789.92
282.51	1619.94
282.73	1665.00
282.94	1667.05
283.16	1714.15
283.37	1777.64
283.59	1712.10
283.80	1695.72
284.02	1722.34
284.23	1660.90
284.45	1677.29
284.66	1613.80
284.88	1626.09
285.09	1736.68
285.31	1736.68
285.52	1791.97
285.74	1650.66
285.95	1746.92
286.17	1822.69
286.38	1843.17
286.60	1720.29
286.81	1671.14
287.03	1697.77
287.24	1624.04
287.46	1716.20
287.67	1738.73
287.89	1877.99
288.10	1755.11
288.32	1705.96
288.53	1722.34
288.75	1751.01
288.96	1753.06
289.18	1742.82
289.39	1683.43
289.61	1855.46
289.82	1849.32
290.04	1759.21
290.25	1599.46
290.47	1730.53
290.68	1656.81
290.90	1757.16
291.11	1632.23
291.33	1759.21
291.54	1708.01
291.76	1665.00
291.97	1751.01
292.18	1632.23
292.40	1669.09
292.61	1738.73
292.83	1837.03
293.04	1724.39
293.26	1714.15
293.47	1699.81
293.69	1603.56
293.90	1685.48
294.12	1785.83
294.33	1679.33
294.55	1730.53
294.76	1734.63
294.97	1751.01
295.19	1822.69
295.40	1714.15
295.62	1724.39
295.83	1722.34
296.05	1673.19
296.26	1761.25
296.48	1650.66
296.69	1730.53
296.90	1744.87
297.12	1783.78
297.33	1765.35
297.55	1650.66
297.76	1744.87
297.98	1708.01
298.19	1697.77
298.41	1714.15
298.62	1646.57
298.83	1761.25
299.05	1757.16
299.26	1636.33
299.48	1718.25
299.69	1804.26
299.90	1742.82
300.12	1693.67
300.33	1681.38
300.55	1701.86
300.76	1714.15
300.98	1599.46
301.19	1730.53
301.40	1583.08
301.62	1734.63
301.83	1806.31
302.05	1753.06
302.26	1662.95
302.47	1716.20
302.69	1675.24
302.90	1787.88
303.12	1546.22
303.33	1703.91
303.54	1855.46
303.76	1665.00
303.97	1777.64
304.19	1763.30
304.40	1646.57
304.61	1734.63
304.83	1912.80
305.04	1791.97
305.26	1722.34
305.47	1683.43
305.68	1761.25
305.90	1648.61
306.11	1769.44
306.33	1689.57
306.54	1681.38
306.75	1656.81
306.97	1613.80
307.18	1611.75
307.39	1683.43
307.61	1779.68
307.82	1677.29
308.04	1738.73
308.25	1683.43
308.46	1753.06
308.68	1638.38
308.89	1722.34
309.10	1818.60
309.32	1695.72
309.53	1810.40
309.74	1759.21
309.96	1708.01
310.17	1751.01
310.39	1685.48
310.60	1730.53
310.81	1683.43
311.03	1636.33
311.24	1753.06
311.45	1714.15
311.67	1800.16
311.88	1722.34
312.09	1656.81
312.31	1662.95
312.52	1683.43
312.73	1708.01
312.95	1624.04
313.16	1607.66
313.37	1865.70
313.59	1720.29
313.80	1724.39
314.01	1800.16
314.23	1636.33
314.44	1665.00
314.65	1601.51
314.87	1701.86
315.08	1632.23
315.29	1736.68
315.51	1665.00
315.72	1636.33
315.93	1839.08
316.15	1728.49
316.36	1703.91
316.57	1607.66
316.79	1710.05
317.00	1705.96
317.21	1746.92
317.43	1691.62
317.64	1783.78
317.85	1699.81
318.07	1714.15
318.28	1763.30
318.49	1773.54
318.70	1943.52
318.92	1763.30
319.13	1837.03
319.34	1867.75
319.56	1877.99
319.77	1791.97
319.98	1785.83
320.20	1757.16
320.41	1746.92
320.62	1755.11
320.83	1714.15
321.05	1814.50
321.26	1746.92
321.47	1693.67
321.69	1785.83
321.90	1665.00
322.11	1683.43
322.32	1730.53
322.54	1791.97
322.75	1570.79
322.96	1832.93
323.18	1615.85
323.39	1611.75
323.60	1636.33
323.81	1742.82
324.03	1724.39
324.24	1697.77
324.45	1716.20
324.66	1689.57
324.88	1808.36
325.09	1714.15
325.30	1714.15
325.52	1755.11
325.73	1781.73
325.94	1699.81
326.15	1621.99
326.37	1665.00
326.58	1705.96
326.79	1845.22
327.00	1665.00
327.22	1722.34
327.43	1636.33
327.64	1581.03
327.85	1724.39
328.07	1714.15
328.28	1755.11
328.49	1662.95
328.70	1687.53
328.92	1720.29
329.13	1681.38
329.34	1650.66
329.55	1845.22
329.76	1779.68
329.98	1669.09
330.19	1796.07
330.40	1669.09
330.61	1730.53
330.83	1701.86
331.04	1667.05
331.25	1667.05
331.46	1603.56
331.68	1632.23
331.89	1773.54
332.10	1767.40
332.31	1636.33
332.52	1679.33
332.74	1785.83
332.95	1593.32
333.16	1665.00
333.37	1742.82
333.58	1718.25
333.80	1720.29
334.01	1630.18
334.22	1708.01
334.43	1613.80
334.64	1665.00
334.86	1665.00
335.07	1638.38
335.28	1820.64
335.49	1611.75
335.70	1718.25
335.92	1849.32
336.13	1812.45
336.34	1738.73
336.55	1738.73
336.76	1660.90
336.98	1570.79
337.19	1697.77
337.40	1783.78
337.61	1849.32
337.82	1681.38
338.04	1759.21
338.25	1669.09
338.46	1705.96
338.67	1761.25
338.88	1724.39
339.09	1642.47
339.31	1757.16
339.52	1671.14
339.73	1570.79
339.94	1683.43
340.15	1728.49
340.36	1679.33
340.58	1697.77
340.79	1697.77
341.00	1714.15
341.21	1673.19
341.42	1796.07
341.63	1730.53
341.85	1779.68
342.06	1787.88
342.27	1687.53
342.48	1791.97
342.69	1644.52
342.90	1699.81
343.12	1730.53
343.33	1665.00
343.54	1710.05
343.75	1810.40
343.96	1728.49
344.17	1652.71
344.38	1718.25
344.60	1683.43
344.81	1705.96
345.02	1699.81
345.23	1732.58
345.44	1816.55
345.65	1777.64
345.86	1730.53
346.07	1738.73
346.29	1708.01
346.50	1753.06
346.71	1699.81
346.92	1726.44
347.13	1877.99
347.34	1701.86
347.55	1675.24
347.76	1716.20
347.98	1611.75
348.19	1683.43
348.40	1802.21
348.61	1613.80
348.82	1763.30
349.03	1785.83
349.24	1671.14
349.45	1736.68
349.66	1617.90
349.88	1640.42
350.09	1710.05
350.30	1814.50
350.51	1773.54
350.72	1726.44
350.93	1689.57
351.14	1703.91
351.35	1673.19
351.56	1736.68
351.77	1685.48
351.99	1720.29
352.20	1755.11
352.41	1712.10
352.62	1550.31
352.83	1734.63
353.04	1693.67
353.25	1646.57
353.46	1748.97
353.67	1708.01
353.88	1617.90
354.09	1693.67
354.30	1681.38
354.52	1730.53
354.73	1648.61
354.94	1691.62
355.15	1722.34
355.36	1841.12
355.57	1722.34
355.78	1742.82
355.99	1654.76
356.20	1695.72
356.41	1783.78
356.62	1740.77
356.83	1730.53
357.04	1804.26
357.25	1642.47
357.46	1714.15
357.68	1652.71
357.89	1621.99
358.10	1708.01
358.31	1654.76
358.52	1613.80
358.73	1621.99
358.94	1701.86
359.15	1699.81
359.36	1753.06
359.57	1665.00
359.78	1615.85
359.99	1755.11
360.20	1660.90
360.41	1726.44
360.62	1816.55
360.83	1802.21
361.04	1800.16
361.25	1763.30
361.46	1769.44
361.67	1814.50
361.88	1748.97
362.09	1789.92
362.30	1761.25
362.51	1796.07
362.72	1798.12
362.93	1744.87
363.14	1732.58
363.35	1695.72
363.56	1644.52
363.78	1822.69
363.99	1771.49
364.20	1669.09
364.41	1724.39
364.62	1796.07
364.83	1656.81
365.04	1726.44
365.25	1671.14
365.46	1834.98
365.67	1720.29
365.88	1675.24
366.09	1601.51
366.30	1632.23
366.51	1720.29
366.72	1605.61
366.93	1687.53
367.14	1751.01
367.35	1812.45
367.56	1652.71
367.77	1751.01
367.98	1734.63
368.18	1712.10
368.39	1703.91
368.60	1689.57
368.81	1654.76
369.02	1712.10
369.23	1734.63
369.44	1662.95
369.65	1687.53
369.86	1701.86
370.07	1773.54
370.28	1689.57
370.49	1814.50
370.70	1742.82
370.91	1708.01
371.12	1630.18
371.33	1742.82
371.54	1712.10
371.75	1779.68
371.96	1646.57
372.17	1658.85
372.38	1689.57
372.59	1646.57
372.80	1787.88
373.01	1669.09
373.22	1734.63
373.43	1677.29
373.64	1677.29
373.85	1720.29
374.06	1888.23
374.26	1796.07
374.47	1683.43
374.68	1763.30
374.89	1759.21
375.10	1703.91
375.31	1802.21
375.52	1701.86
375.73	1691.62
375.94	1652.71
376.15	1822.69
376.36	1638.38
376.57	1685.48
376.78	1751.01
376.99	1669.09
377.20	1808.36
377.40	1701.86
377.61	1859.56
377.82	1685.48
378.03	1839.08
378.24	1710.05
378.45	1771.49
378.66	1775.59
378.87	1593.32
379.08	1654.76
379.29	1773.54
379.50	1814.50
379.71	1683.43
379.91	1765.35
380.12	1746.92
380.33	1710.05
380.54	1675.24
380.75	1724.39
380.96	1650.66
381.17	1818.60
381.38	1761.25
381.59	1751.01
381.80	1765.35
382.00	1910.75
382.21	1763.30
382.42	1837.03
382.63	1867.75
382.84	1724.39
383.05	1800.16
383.26	1808.36
383.47	1859.56
383.68	1759.21
383.88	1800.16
384.09	1724.39
384.30	1685.48
384.51	1812.45
384.72	1605.61
384.93	1601.51
385.14	1701.86
385.35	1703.91
385.55	1701.86
385.76	1806.31
385.97	1669.09
386.18	1681.38
386.39	1722.34
386.60	1701.86
386.81	1757.16
387.02	1697.77
387.22	1628.14
387.43	1724.39
387.64	1802.21
387.85	1927.14
388.06	2234.33
388.27	4313.02
388.48	6719.39
388.68	8259.46
388.89	9475.95
389.10	9820.01
389.31	8556.41
389.52	7522.19
389.73	6743.96
389.93	6174.63
390.14	5908.39
390.35	5203.89
390.56	4540.35
390.77	3835.85
390.98	3094.48
391.18	2521.05
391.39	2086.88
391.60	1806.31
391.81	1751.01
392.02	1722.34
392.23	1941.47
392.43	1718.25
392.64	1816.55
392.85	1720.29
393.06	1804.26
393.27	1714.15
393.47	1685.48
393.68	1773.54
393.89	1683.43
394.10	1753.06
394.31	1732.58
394.52	1669.09
394.72	1693.67
394.93	1857.51
395.14	1654.76
395.35	1845.22
395.56	1628.14
395.76	1730.53
395.97	1814.50
396.18	1816.55
396.39	1832.93
396.60	2041.82
396.80	1820.64
397.01	1777.64
397.22	1888.23
397.43	1853.41
397.64	1738.73
397.84	1757.16
398.05	1871.84
398.26	1746.92
398.47	1726.44
398.67	1806.31
398.88	1662.95
399.09	1740.77
399.30	1712.10
399.51	1730.53
399.71	1726.44
399.92	1691.62
400.13	1708.01
400.34	1624.04
400.54	1697.77
400.75	1824.74
400.96	1705.96
401.17	1853.41
401.37	1728.49
401.58	1765.35
401.79	1732.58
402.00	1933.28
402.21	1964.00
402.41	1912.80
402.62	1961.95
402.83	2002.91
403.04	1968.10
403.24	2097.12
403.45	1845.22
403.66	1957.86
403.87	1894.37
404.07	1863.65
404.28	1894.37
404.49	1847.27
404.70	1720.29
404.90	1738.73
405.11	1800.16
405.32	1742.82
405.52	1705.96
405.73	1818.60
405.94	1708.01
406.15	1728.49
406.35	1820.64
406.56	1777.64
406.77	1765.35
406.98	1693.67
407.18	1705.96
407.39	1763.30
407.60	1701.86
407.80	1755.11
408.01	1671.14
408.22	1765.35
408.43	1689.57
408.63	1773.54
408.84	1726.44
409.05	1759.21
409.25	1615.85
409.46	1673.19
409.67	1669.09
409.88	1673.19
410.08	1660.90
410.29	1689.57
410.50	1798.12
410.70	1746.92
410.91	1701.86
411.12	1820.64
411.32	1681.38
411.53	1734.63
411.74	1757.16
411.95	1841.12
412.15	1785.83
412.36	1742.82
412.57	1714.15
412.77	1785.83
412.98	1701.86
413.19	1730.53
413.39	1787.88
413.60	1736.68
413.81	1773.54
414.01	1642.47
414.22	1759.21
414.43	1751.01
414.63	1755.11
414.84	1667.05
415.05	1691.62
415.25	1619.94
415.46	1763.30
415.67	1718.25
415.87	1757.16
416.08	1736.68
416.29	1636.33
416.49	1763.30
416.70	1710.05
416.91	1751.01
417.11	1740.77
417.32	1757.16
417.53	1798.12
417.73	1763.30
417.94	1800.16
418.15	1697.77
418.35	1738.73
418.56	1732.58
418.77	1796.07
418.97	1681.38
419.18	1722.34
419.38	1677.29
419.59	1720.29
419.80	1892.32
420.00	1710.05
420.21	1779.68
420.42	1748.97
420.62	1761.25
420.83	1667.05
421.04	1681.38
421.24	1644.52
421.45	1736.68
421.65	1779.68
421.86	1763.30
422.07	1763.30
422.27	1714.15
422.48	1722.34
422.69	1648.61
422.89	1716.20
423.10	1708.01
423.30	1714.15
423.51	1714.15
423.72	1742.82
423.92	1738.73
424.13	1648.61
424.33	1748.97
424.54	1785.83
424.75	1742.82
424.95	1798.12
425.16	1744.87
425.36	1681.38
425.57	1724.39
425.78	1708.01
425.98	1705.96
426.19	1701.86
426.39	1638.38
426.60	1718.25
426.81	1839.08
427.01	1675.24
427.22	1646.57
427.42	1675.24
427.63	1607.66
427.83	1673.19
428.04	1826.79
428.25	1830.88
428.45	1806.31
428.66	1730.53
428.86	1716.20
429.07	1658.85
429.28	1726.44
429.48	1742.82
429.69	1658.85
429.89	1705.96
430.10	1738.73
430.30	1742.82
430.51	1746.92
430.71	1671.14
430.92	1603.56
431.13	1658.85
431.33	1767.40
431.54	1718.25
431.74	1837.03
431.95	1787.88
432.15	1642.47
432.36	1755.11
432.56	1812.45
432.77	1796.07
432.98	1751.01
433.18	1646.57
433.39	1724.39
433.59	1746.92
433.80	1826.79
434.00	1808.36
434.21	1763.30
434.41	1673.19
434.62	1904.61
434.82	1619.94
435.03	1628.14
435.23	1751.01
435.44	1624.04
435.64	1697.77
435.85	1734.63
436.06	1783.78
436.26	1759.21
436.47	1708.01
436.67	1656.81
436.88	1683.43
437.08	1738.73
437.29	1773.54
437.49	1759.21
437.70	1779.68
437.90	1753.06
438.11	1845.22
438.31	1808.36
438.52	1853.41
438.72	1894.37
438.93	1929.19
439.13	1814.50
439.34	1818.60
439.54	1748.97
439.75	1806.31
439.95	1781.73
440.16	1740.77
440.36	1714.15
440.57	1765.35
440.77	1767.40
440.98	1757.16
441.18	1814.50
441.39	1714.15
441.59	1662.95
441.80	1837.03
442.00	1671.14
442.21	1834.98
442.41	1660.90
442.62	1789.92
442.82	1630.18
443.02	1767.40
443.23	1783.78
443.43	1708.01
443.64	1843.17
443.84	1724.39
444.05	1890.28
444.25	1796.07
444.46	1667.05
444.66	1740.77
444.87	1773.54
445.07	1689.57
445.28	1765.35
445.48	1804.26
445.69	1808.36
445.89	1859.56
446.09	1748.97
446.30	2002.91
446.50	2772.95
446.71	3747.78
446.91	4386.75
447.12	4673.46
447.32	4868.02
447.53	4384.70
447.73	3905.48
447.93	3708.87
448.14	3397.58
448.34	3155.92
448.55	2940.88
448.75	2922.45
448.96	2723.80
449.16	2451.42
449.36	2306.01
449.57	1976.29
449.77	1935.33
449.98	1824.74
450.18	1800.16
450.39	1757.16
450.59	1812.45
450.79	1724.39
451.00	1701.86
451.20	1769.44
451.41	1705.96
451.61	1710.05
451.81	1761.25
452.02	1742.82
452.22	1685.48
452.43	1748.97
452.63	1708.01
