SpectraSuite Data File
++++++++++++++++++++++++++++++++++++
Date: Mon Jun 06 16:37:57 CEST 2016
User: root
Dark Spectrum Present: No
Reference Spectrum Present: No
Number of Sampled Component Spectra: 1
Spectrometers: USB4C02835
Integration Time (usec): 100000 (USB4C02835)
Spectra Averaged: 1 (USB4C02835)
Boxcar Smoothing: 0 (USB4C02835)
Correct for Electrical Dark: No (USB4C02835)
Strobe/Lamp Enabled: No (USB4C02835)
Correct for Detector Non-linearity: No (USB4C02835)
Correct for Stray Light: No (USB4C02835)
Number of Pixels in Processed Spectrum: 3648
>>>>>Begin Processed Spectral Data<<<<<
177.47	1486.83
177.69	1486.83
177.91	1486.83
178.13	1452.01
178.36	1462.25
178.58	1728.49
178.80	1695.72
179.02	1556.46
179.24	1681.38
179.46	1675.24
179.68	1802.21
179.90	1738.73
180.13	1642.47
180.35	1658.85
180.57	1675.24
180.79	1832.93
181.01	1724.39
181.23	1738.73
181.45	1787.88
181.67	1742.82
181.90	1783.78
182.12	1693.67
182.34	1679.33
182.56	1763.30
182.78	1759.21
183.00	1695.72
183.22	1755.11
183.44	1632.23
183.66	1839.08
183.89	1738.73
184.11	1630.18
184.33	1837.03
184.55	1818.60
184.77	1699.81
184.99	1687.53
185.21	1652.71
185.43	1849.32
185.65	1701.86
185.87	1732.58
186.10	1789.92
186.32	1763.30
186.54	1742.82
186.76	1742.82
186.98	1724.39
187.20	1804.26
187.42	1679.33
187.64	1714.15
187.86	1744.87
188.08	1773.54
188.30	1738.73
188.52	1619.94
188.75	1701.86
188.97	1779.68
189.19	1689.57
189.41	1718.25
189.63	1751.01
189.85	1660.90
190.07	1632.23
190.29	1624.04
190.51	1685.48
190.73	1609.70
190.95	1808.36
191.17	1710.05
191.39	1660.90
191.61	1675.24
191.84	1654.76
192.06	1761.25
192.28	1644.52
192.50	1810.40
192.72	1730.53
192.94	1751.01
193.16	1730.53
193.38	1708.01
193.60	1624.04
193.82	1710.05
194.04	1783.78
194.26	1667.05
194.48	1738.73
194.70	1662.95
194.92	1648.61
195.14	1802.21
195.36	1650.66
195.58	1705.96
195.80	1624.04
196.02	1712.10
196.24	1705.96
196.46	1787.88
196.69	1607.66
196.91	1845.22
197.13	1767.40
197.35	1701.86
197.57	1851.36
197.79	1794.02
198.01	1832.93
198.23	1685.48
198.45	1722.34
198.67	1560.55
198.89	1687.53
199.11	1710.05
199.33	1619.94
199.55	1591.27
199.77	1712.10
199.99	1751.01
200.21	1619.94
200.43	1722.34
200.65	1624.04
200.87	1583.08
201.09	1759.21
201.31	1642.47
201.53	1751.01
201.75	1718.25
201.97	1705.96
202.19	1708.01
202.41	1738.73
202.63	1771.49
202.85	1787.88
203.07	1789.92
203.29	1613.80
203.51	1632.23
203.73	1683.43
203.95	1859.56
204.17	1734.63
204.39	1779.68
204.61	1748.97
204.83	1734.63
205.05	1693.67
205.27	1755.11
205.49	1832.93
205.71	1671.14
205.93	1605.61
206.15	1599.46
206.37	1677.29
206.59	1726.44
206.81	1656.81
207.03	1683.43
207.25	1593.32
207.47	1773.54
207.69	1683.43
207.91	1867.75
208.13	1867.75
208.34	1652.71
208.56	1591.27
208.78	1800.16
209.00	1705.96
209.22	1781.73
209.44	1675.24
209.66	1628.14
209.88	1705.96
210.10	1683.43
210.32	1789.92
210.54	1789.92
210.76	1703.91
210.98	1773.54
211.20	1583.08
211.42	1703.91
211.64	1742.82
211.86	1765.35
212.08	1703.91
212.30	1710.05
212.52	1689.57
212.74	1740.77
212.96	1710.05
213.17	1708.01
213.39	1724.39
213.61	1808.36
213.83	1701.86
214.05	1636.33
214.27	1757.16
214.49	1665.00
214.71	1638.38
214.93	1837.03
215.15	1695.72
215.37	1705.96
215.59	1619.94
215.81	1771.49
216.03	1787.88
216.24	1691.62
216.46	1755.11
216.68	1665.00
216.90	1775.59
217.12	1826.79
217.34	1656.81
217.56	1802.21
217.78	1785.83
218.00	1714.15
218.22	1650.66
218.44	1667.05
218.66	1767.40
218.87	1761.25
219.09	1718.25
219.31	1808.36
219.53	1748.97
219.75	1665.00
219.97	1703.91
220.19	1626.09
220.41	1685.48
220.63	1722.34
220.85	1755.11
221.06	1691.62
221.28	1787.88
221.50	1787.88
221.72	1654.76
221.94	1679.33
222.16	1712.10
222.38	1658.85
222.60	1767.40
222.82	1669.09
223.03	1773.54
223.25	1679.33
223.47	1773.54
223.69	1742.82
223.91	1767.40
224.13	1689.57
224.35	1669.09
224.57	1804.26
224.78	1804.26
225.00	1617.90
225.22	1660.90
225.44	1736.68
225.66	1753.06
225.88	1714.15
226.10	1787.88
226.32	1771.49
226.53	1808.36
226.75	1673.19
226.97	1722.34
227.19	1669.09
227.41	1638.38
227.63	1724.39
227.85	1613.80
228.06	1722.34
228.28	1691.62
228.50	1748.97
228.72	1624.04
228.94	1693.67
229.16	1630.18
229.37	1656.81
229.59	1708.01
229.81	1865.70
230.03	1665.00
230.25	1628.14
230.47	1603.56
230.69	1607.66
230.90	1816.55
231.12	1738.73
231.34	1779.68
231.56	1767.40
231.78	1619.94
232.00	1751.01
232.21	1785.83
232.43	1767.40
232.65	1593.32
232.87	1783.78
233.09	1601.51
233.30	1679.33
233.52	1779.68
233.74	1691.62
233.96	1738.73
234.18	1751.01
234.40	1669.09
234.61	1875.94
234.83	1597.42
235.05	1613.80
235.27	1841.12
235.49	1769.44
235.70	1705.96
235.92	1783.78
236.14	1660.90
236.36	1859.56
236.58	1611.75
236.79	1771.49
237.01	1746.92
237.23	1710.05
237.45	1791.97
237.67	1652.71
237.88	1667.05
238.10	1849.32
238.32	1697.77
238.54	1669.09
238.76	1665.00
238.97	1689.57
239.19	1640.42
239.41	1742.82
239.63	1738.73
239.85	1691.62
240.06	1636.33
240.28	1724.39
240.50	1763.30
240.72	1769.44
240.93	1716.20
241.15	1806.31
241.37	1646.57
241.59	1796.07
241.81	1681.38
242.02	1656.81
242.24	1701.86
242.46	1771.49
242.68	1710.05
242.89	1714.15
243.11	1722.34
243.33	1687.53
243.55	1736.68
243.76	1738.73
243.98	1695.72
244.20	1710.05
244.42	1705.96
244.64	1722.34
244.85	1613.80
245.07	1705.96
245.29	1755.11
245.51	1744.87
245.72	1787.88
245.94	1730.53
246.16	1812.45
246.38	1783.78
246.59	1654.76
246.81	1642.47
247.03	1658.85
247.24	1634.28
247.46	1597.42
247.68	1755.11
247.90	1669.09
248.11	1734.63
248.33	1783.78
248.55	1677.29
248.77	1712.10
248.98	1783.78
249.20	1865.70
249.42	1708.01
249.64	1705.96
249.85	1722.34
250.07	1636.33
250.29	1705.96
250.50	1759.21
250.72	1615.85
250.94	1748.97
251.16	1863.65
251.37	1763.30
251.59	1705.96
251.81	1755.11
252.02	1767.40
252.24	1646.57
252.46	1781.73
252.68	1654.76
252.89	1628.14
253.11	1714.15
253.33	1824.74
253.54	1769.44
253.76	1611.75
253.98	1705.96
254.20	1740.77
254.41	1636.33
254.63	1742.82
254.85	1652.71
255.06	1701.86
255.28	1738.73
255.50	1611.75
255.71	1740.77
255.93	1624.04
256.15	1656.81
256.36	1697.77
256.58	1640.42
256.80	1728.49
257.02	1714.15
257.23	1673.19
257.45	1744.87
257.67	1685.48
257.88	1667.05
258.10	1748.97
258.32	1718.25
258.53	1679.33
258.75	1740.77
258.97	1703.91
259.18	1720.29
259.40	1722.34
259.62	1781.73
259.83	1802.21
260.05	1791.97
260.27	2045.92
260.48	1726.44
260.70	1757.16
260.92	1642.47
261.13	1705.96
261.35	1746.92
261.57	1724.39
261.78	1701.86
262.00	1665.00
262.22	1724.39
262.43	1685.48
262.65	1726.44
262.86	1769.44
263.08	1834.98
263.30	1714.15
263.51	1628.14
263.73	1693.67
263.95	1832.93
264.16	1679.33
264.38	1705.96
264.60	1699.81
264.81	1767.40
265.03	1759.21
265.25	1742.82
265.46	1705.96
265.68	1816.55
265.89	1689.57
266.11	1662.95
266.33	1771.49
266.54	1783.78
266.76	1779.68
266.98	1742.82
267.19	1767.40
267.41	1789.92
267.62	1675.24
267.84	1597.42
268.06	1781.73
268.27	1660.90
268.49	1781.73
268.70	1716.20
268.92	1714.15
269.14	1652.71
269.35	1626.09
269.57	1722.34
269.79	1759.21
270.00	1714.15
270.22	1873.89
270.43	1714.15
270.65	1605.61
270.87	1767.40
271.08	1708.01
271.30	1775.59
271.51	1746.92
271.73	1753.06
271.95	1777.64
272.16	1685.48
272.38	1699.81
272.59	1734.63
272.81	1742.82
273.02	1712.10
273.24	1722.34
273.46	1689.57
273.67	1693.67
273.89	1626.09
274.10	1705.96
274.32	1738.73
274.54	1759.21
274.75	1775.59
274.97	1722.34
275.18	1816.55
275.40	1730.53
275.61	1683.43
275.83	1734.63
276.05	1708.01
276.26	1718.25
276.48	1734.63
276.69	1671.14
276.91	1712.10
277.12	1761.25
277.34	1761.25
277.55	1839.08
277.77	1650.66
277.99	1669.09
278.20	1701.86
278.42	1728.49
278.63	1644.52
278.85	1675.24
279.06	1615.85
279.28	1740.77
279.49	1759.21
279.71	1736.68
279.93	1697.77
280.14	1753.06
280.36	1644.52
280.57	1845.22
280.79	1773.54
281.00	1669.09
281.22	1730.53
281.43	1787.88
281.65	1648.61
281.86	1621.99
282.08	1753.06
282.29	1755.11
282.51	1691.62
282.73	1695.72
282.94	1656.81
283.16	1785.83
283.37	1791.97
283.59	1783.78
283.80	1738.73
284.02	1728.49
284.23	1667.05
284.45	1654.76
284.66	1736.68
284.88	1699.81
285.09	1734.63
285.31	1763.30
285.52	1740.77
285.74	1656.81
285.95	1791.97
286.17	1697.77
286.38	1718.25
286.60	1660.90
286.81	1720.29
287.03	1746.92
287.24	1595.37
287.46	1759.21
287.67	1714.15
287.89	1869.80
288.10	1794.02
288.32	1736.68
288.53	1767.40
288.75	1708.01
288.96	1806.31
289.18	1697.77
289.39	1650.66
289.61	1767.40
289.82	1748.97
290.04	1761.25
290.25	1599.46
290.47	1681.38
290.68	1683.43
290.90	1746.92
291.11	1564.65
291.33	1812.45
291.54	1652.71
291.76	1685.48
291.97	1667.05
292.18	1734.63
292.40	1699.81
292.61	1675.24
292.83	1804.26
293.04	1732.58
293.26	1755.11
293.47	1699.81
293.69	1671.14
293.90	1728.49
294.12	1789.92
294.33	1771.49
294.55	1730.53
294.76	1806.31
294.97	1781.73
295.19	1748.97
295.40	1675.24
295.62	1705.96
295.83	1748.97
296.05	1644.52
296.26	1820.64
296.48	1671.14
296.69	1769.44
296.90	1693.67
297.12	1734.63
297.33	1806.31
297.55	1658.85
297.76	1648.61
297.98	1753.06
298.19	1765.35
298.41	1759.21
298.62	1576.94
298.83	1806.31
299.05	1708.01
299.26	1677.29
299.48	1787.88
299.69	1748.97
299.90	1697.77
300.12	1695.72
300.33	1744.87
300.55	1705.96
300.76	1763.30
300.98	1611.75
301.19	1755.11
301.40	1740.77
301.62	1699.81
301.83	1779.68
302.05	1740.77
302.26	1689.57
302.47	1677.29
302.69	1646.57
302.90	1650.66
303.12	1515.50
303.33	1611.75
303.54	1830.88
303.76	1658.85
303.97	1742.82
304.19	1763.30
304.40	1679.33
304.61	1736.68
304.83	1789.92
305.04	1738.73
305.26	1726.44
305.47	1646.57
305.68	1730.53
305.90	1673.19
306.11	1730.53
306.33	1648.61
306.54	1662.95
306.75	1646.57
306.97	1652.71
307.18	1671.14
307.39	1732.58
307.61	1757.16
307.82	1685.48
308.04	1804.26
308.25	1710.05
308.46	1718.25
308.68	1736.68
308.89	1757.16
309.10	1791.97
309.32	1695.72
309.53	1726.44
309.74	1699.81
309.96	1710.05
310.17	1800.16
310.39	1720.29
310.60	1783.78
310.81	1689.57
311.03	1742.82
311.24	1763.30
311.45	1726.44
311.67	1787.88
311.88	1779.68
312.09	1603.56
312.31	1714.15
312.52	1673.19
312.73	1736.68
312.95	1738.73
313.16	1691.62
313.37	1832.93
313.59	1677.29
313.80	1730.53
314.01	1777.64
314.23	1677.29
314.44	1710.05
314.65	1685.48
314.87	1646.57
315.08	1640.42
315.29	1652.71
315.51	1611.75
315.72	1650.66
315.93	1798.12
316.15	1779.68
316.36	1701.86
316.57	1701.86
316.79	1699.81
317.00	1693.67
317.21	1771.49
317.43	1654.76
317.64	1730.53
317.85	1728.49
318.07	1742.82
318.28	1683.43
318.49	1808.36
318.70	1853.41
318.92	1886.18
319.13	1779.68
319.34	1906.66
319.56	1804.26
319.77	1816.55
319.98	1800.16
320.20	1714.15
320.41	1800.16
320.62	1787.88
320.83	1679.33
321.05	1839.08
321.26	1757.16
321.47	1728.49
321.69	1742.82
321.90	1652.71
322.11	1685.48
322.32	1722.34
322.54	1773.54
322.75	1687.53
322.96	1783.78
323.18	1626.09
323.39	1695.72
323.60	1669.09
323.81	1701.86
324.03	1652.71
324.24	1656.81
324.45	1718.25
324.66	1708.01
324.88	1791.97
325.09	1832.93
325.30	1667.05
325.52	1755.11
325.73	1699.81
325.94	1675.24
326.15	1628.14
326.37	1650.66
326.58	1732.58
326.79	1830.88
327.00	1679.33
327.22	1665.00
327.43	1662.95
327.64	1609.70
327.85	1683.43
328.07	1757.16
328.28	1779.68
328.49	1720.29
328.70	1675.24
328.92	1738.73
329.13	1669.09
329.34	1726.44
329.55	1746.92
329.76	1820.64
329.98	1730.53
330.19	1820.64
330.40	1830.88
330.61	1671.14
330.83	1751.01
331.04	1603.56
331.25	1804.26
331.46	1691.62
331.68	1628.14
331.89	1771.49
332.10	1794.02
332.31	1675.24
332.52	1693.67
332.74	1763.30
332.95	1665.00
333.16	1703.91
333.37	1794.02
333.58	1673.19
333.80	1767.40
334.01	1644.52
334.22	1759.21
334.43	1656.81
334.64	1685.48
334.86	1621.99
335.07	1718.25
335.28	1787.88
335.49	1621.99
335.70	1757.16
335.92	1791.97
336.13	1849.32
336.34	1759.21
336.55	1648.61
336.76	1757.16
336.98	1638.38
337.19	1726.44
337.40	1759.21
337.61	1843.17
337.82	1687.53
338.04	1703.91
338.25	1619.94
338.46	1677.29
338.67	1697.77
338.88	1755.11
339.09	1644.52
339.31	1677.29
339.52	1546.22
339.73	1652.71
339.94	1665.00
340.15	1779.68
340.36	1658.85
340.58	1714.15
340.79	1699.81
341.00	1740.77
341.21	1656.81
341.42	1853.41
341.63	1685.48
341.85	1705.96
342.06	1667.05
342.27	1677.29
342.48	1837.03
342.69	1603.56
342.90	1708.01
343.12	1785.83
343.33	1650.66
343.54	1763.30
343.75	1728.49
343.96	1683.43
344.17	1714.15
344.38	1705.96
344.60	1671.14
344.81	1675.24
345.02	1720.29
345.23	1744.87
345.44	1794.02
345.65	1681.38
345.86	1695.72
346.07	1777.64
346.29	1771.49
346.50	1740.77
346.71	1771.49
346.92	1787.88
347.13	1855.46
347.34	1673.19
347.55	1689.57
347.76	1777.64
347.98	1535.98
348.19	1695.72
348.40	1794.02
348.61	1640.42
348.82	1820.64
349.03	1783.78
349.24	1648.61
349.45	1841.12
349.66	1644.52
349.88	1722.34
350.09	1769.44
350.30	1822.69
350.51	1753.06
350.72	1744.87
350.93	1740.77
351.14	1683.43
351.35	1761.25
351.56	1701.86
351.77	1710.05
351.99	1705.96
352.20	1820.64
352.41	1789.92
352.62	1673.19
352.83	1689.57
353.04	1759.21
353.25	1681.38
353.46	1761.25
353.67	1740.77
353.88	1634.28
354.09	1644.52
354.30	1773.54
354.52	1722.34
354.73	1779.68
354.94	1677.29
355.15	1642.47
355.36	1814.50
355.57	1730.53
355.78	1767.40
355.99	1683.43
356.20	1732.58
356.41	1755.11
356.62	1703.91
356.83	1658.85
357.04	1779.68
357.25	1681.38
357.46	1660.90
357.68	1689.57
357.89	1728.49
358.10	1689.57
358.31	1599.46
358.52	1738.73
358.73	1646.57
358.94	1669.09
359.15	1605.61
359.36	1730.53
359.57	1748.97
359.78	1677.29
359.99	1759.21
360.20	1662.95
360.41	1644.52
360.62	1769.44
360.83	1681.38
361.04	1671.14
361.25	1773.54
361.46	1865.70
361.67	1669.09
361.88	1724.39
362.09	1777.64
362.30	1738.73
362.51	1695.72
362.72	1732.58
362.93	1798.12
363.14	1734.63
363.35	1712.10
363.56	1689.57
363.78	1746.92
363.99	1802.21
364.20	1720.29
364.41	1730.53
364.62	1810.40
364.83	1726.44
365.04	1710.05
365.25	1691.62
365.46	1767.40
365.67	1660.90
365.88	1624.04
366.09	1689.57
366.30	1724.39
366.51	1742.82
366.72	1607.66
366.93	1587.18
367.14	1671.14
367.35	1794.02
367.56	1683.43
367.77	1789.92
367.98	1728.49
368.18	1658.85
368.39	1742.82
368.60	1605.61
368.81	1779.68
369.02	1789.92
369.23	1746.92
369.44	1581.03
369.65	1685.48
369.86	1665.00
370.07	1765.35
370.28	1691.62
370.49	1718.25
370.70	1724.39
370.91	1658.85
371.12	1626.09
371.33	1763.30
371.54	1656.81
371.75	1798.12
371.96	1595.37
372.17	1834.98
372.38	1695.72
372.59	1751.01
372.80	1753.06
373.01	1724.39
373.22	1724.39
373.43	1746.92
373.64	1646.57
373.85	1761.25
374.06	1796.07
374.26	1767.40
374.47	1679.33
374.68	1789.92
374.89	1738.73
375.10	1742.82
375.31	1714.15
375.52	1744.87
375.73	1718.25
375.94	1710.05
376.15	1783.78
376.36	1660.90
376.57	1665.00
376.78	1687.53
376.99	1796.07
377.20	1759.21
377.40	1734.63
377.61	1794.02
377.82	1630.18
378.03	1798.12
378.24	1785.83
378.45	1677.29
378.66	1787.88
378.87	1632.23
379.08	1636.33
379.29	1673.19
379.50	1818.60
379.71	1810.40
379.91	1726.44
380.12	1658.85
380.33	1710.05
380.54	1736.68
380.75	1732.58
380.96	1712.10
381.17	1796.07
381.38	1665.00
381.59	1624.04
381.80	1691.62
382.00	1871.84
382.21	1759.21
382.42	1861.60
382.63	1918.95
382.84	1763.30
383.05	1843.17
383.26	1806.31
383.47	1667.05
383.68	1714.15
383.88	1773.54
384.09	1687.53
384.30	1871.84
384.51	1724.39
384.72	1685.48
384.93	1660.90
385.14	1740.77
385.35	1734.63
385.55	1607.66
385.76	1798.12
385.97	1738.73
386.18	1681.38
386.39	1581.03
386.60	1656.81
386.81	1665.00
387.02	1617.90
387.22	1642.47
387.43	1816.55
387.64	1640.42
387.85	1871.84
388.06	2222.05
388.27	4368.32
388.48	6721.43
388.68	8171.40
388.89	9592.69
389.10	9754.48
389.31	8535.93
389.52	7550.86
389.73	6731.67
389.93	6326.18
390.14	5875.62
390.35	5277.62
390.56	4609.98
390.77	3827.65
390.98	3043.28
391.18	2574.30
391.39	2054.11
391.60	1859.56
391.81	1873.89
392.02	1712.10
392.23	1796.07
392.43	1796.07
392.64	1865.70
392.85	1812.45
393.06	1777.64
393.27	1693.67
393.47	1708.01
393.68	1751.01
393.89	1714.15
394.10	1779.68
394.31	1716.20
394.52	1669.09
394.72	1767.40
394.93	1845.22
395.14	1699.81
395.35	1748.97
395.56	1699.81
395.76	1734.63
395.97	1863.65
396.18	1880.04
396.39	1863.65
396.60	2050.02
396.80	1923.04
397.01	1814.50
397.22	1877.99
397.43	1867.75
397.64	1687.53
397.84	1814.50
398.05	1828.84
398.26	1658.85
398.47	1789.92
398.67	1877.99
398.88	1738.73
399.09	1712.10
399.30	1708.01
399.51	1681.38
399.71	1665.00
399.92	1710.05
400.13	1703.91
400.34	1763.30
400.54	1720.29
400.75	1779.68
400.96	1746.92
401.17	1859.56
401.37	1693.67
401.58	1724.39
401.79	1718.25
402.00	1906.66
402.21	2007.01
402.41	2027.49
402.62	2000.87
402.83	1976.29
403.04	2052.06
403.24	2090.98
403.45	1828.84
403.66	1920.99
403.87	1904.61
404.07	1964.00
404.28	2002.91
404.49	1884.13
404.70	1732.58
404.90	1808.36
405.11	1693.67
405.32	1740.77
405.52	1648.61
405.73	1656.81
405.94	1660.90
406.15	1708.01
406.35	1744.87
406.56	1726.44
406.77	1675.24
406.98	1767.40
407.18	1648.61
407.39	1751.01
407.60	1716.20
407.80	1746.92
408.01	1638.38
408.22	1712.10
408.43	1730.53
408.63	1775.59
408.84	1806.31
409.05	1828.84
409.25	1695.72
409.46	1650.66
409.67	1716.20
409.88	1701.86
410.08	1810.40
410.29	1701.86
410.50	1658.85
410.70	1687.53
410.91	1669.09
411.12	1744.87
411.32	1671.14
411.53	1683.43
411.74	1828.84
411.95	1839.08
412.15	1804.26
412.36	1804.26
412.57	1753.06
412.77	1816.55
412.98	1611.75
413.19	1746.92
413.39	1738.73
413.60	1828.84
413.81	1775.59
414.01	1689.57
414.22	1751.01
414.43	1800.16
414.63	1654.76
414.84	1771.49
415.05	1718.25
415.25	1640.42
415.46	1751.01
415.67	1675.24
415.87	1791.97
416.08	1755.11
416.29	1687.53
416.49	1757.16
416.70	1662.95
416.91	1634.28
417.11	1689.57
417.32	1837.03
417.53	1787.88
417.73	1683.43
417.94	1679.33
418.15	1742.82
418.35	1802.21
418.56	1732.58
418.77	1880.04
418.97	1718.25
419.18	1679.33
419.38	1673.19
419.59	1679.33
419.80	1867.75
420.00	1665.00
420.21	1705.96
420.42	1746.92
420.62	1701.86
420.83	1689.57
421.04	1746.92
421.24	1705.96
421.45	1736.68
421.65	1744.87
421.86	1703.91
422.07	1677.29
422.27	1710.05
422.48	1740.77
422.69	1748.97
422.89	1667.05
423.10	1697.77
423.30	1621.99
423.51	1785.83
423.72	1773.54
423.92	1699.81
424.13	1640.42
424.33	1683.43
424.54	1703.91
424.75	1796.07
424.95	1824.74
425.16	1720.29
425.36	1699.81
425.57	1751.01
425.78	1648.61
425.98	1759.21
426.19	1701.86
426.39	1691.62
426.60	1662.95
426.81	1791.97
427.01	1767.40
427.22	1681.38
427.42	1695.72
427.63	1746.92
427.83	1755.11
428.04	1800.16
428.25	1781.73
428.45	1828.84
428.66	1755.11
428.86	1765.35
429.07	1755.11
429.28	1669.09
429.48	1722.34
429.69	1656.81
429.89	1722.34
430.10	1677.29
430.30	1708.01
430.51	1697.77
430.71	1701.86
430.92	1673.19
431.13	1654.76
431.33	1724.39
431.54	1714.15
431.74	1771.49
431.95	1791.97
432.15	1673.19
432.36	1683.43
432.56	1697.77
432.77	1779.68
432.98	1857.51
433.18	1742.82
433.39	1806.31
433.59	1732.58
433.80	1824.74
434.00	1847.27
434.21	1746.92
434.41	1714.15
434.62	1888.23
434.82	1665.00
435.03	1738.73
435.23	1720.29
435.44	1656.81
435.64	1769.44
435.85	1658.85
436.06	1783.78
436.26	1753.06
436.47	1726.44
436.67	1738.73
436.88	1656.81
437.08	1685.48
437.29	1865.70
437.49	1746.92
437.70	1775.59
437.90	1742.82
438.11	1925.09
438.31	1761.25
438.52	1906.66
438.72	1812.45
438.93	1894.37
439.13	1763.30
439.34	1824.74
439.54	1808.36
439.75	1798.12
439.95	1738.73
440.16	1634.28
440.36	1685.48
440.57	1818.60
440.77	1734.63
440.98	1697.77
441.18	1683.43
441.39	1742.82
441.59	1697.77
441.80	1900.52
442.00	1740.77
442.21	1902.56
442.41	1669.09
442.62	1789.92
442.82	1718.25
443.02	1742.82
443.23	1732.58
443.43	1648.61
443.64	1748.97
443.84	1693.67
444.05	1789.92
444.25	1724.39
444.46	1753.06
444.66	1824.74
444.87	1775.59
445.07	1716.20
445.28	1771.49
445.48	1738.73
445.69	1787.88
445.89	1863.65
446.09	1796.07
446.30	2019.30
446.50	2617.30
446.71	3753.93
446.91	4413.37
447.12	4794.29
447.32	4859.83
447.53	4253.63
447.73	3829.70
447.93	3741.64
448.14	3375.05
448.34	3209.17
448.55	2836.44
448.75	2779.09
448.96	2699.22
449.16	2363.36
449.36	2232.29
449.57	2068.45
449.77	1925.09
449.98	1789.92
450.18	1837.03
450.39	1847.27
450.59	1820.64
450.79	1753.06
451.00	1738.73
451.20	1759.21
451.41	1722.34
451.61	1794.02
451.81	1722.34
452.02	1763.30
452.22	1634.28
452.43	1712.10
452.63	1697.77
