SpectraSuite Data File
++++++++++++++++++++++++++++++++++++
Date: Mon Jun 06 16:15:37 CEST 2016
User: root
Dark Spectrum Present: No
Reference Spectrum Present: No
Number of Sampled Component Spectra: 1
Spectrometers: USB4C02835
Integration Time (usec): 100000 (USB4C02835)
Spectra Averaged: 1 (USB4C02835)
Boxcar Smoothing: 0 (USB4C02835)
Correct for Electrical Dark: No (USB4C02835)
Strobe/Lamp Enabled: No (USB4C02835)
Correct for Detector Non-linearity: No (USB4C02835)
Correct for Stray Light: No (USB4C02835)
Number of Pixels in Processed Spectrum: 3648
>>>>>Begin Processed Spectral Data<<<<<
177.47	1452.01
177.69	1452.01
177.91	1452.01
178.13	1429.48
178.36	1460.20
178.58	1699.81
178.80	1820.64
179.02	1648.61
179.24	1691.62
179.46	1742.82
179.68	1736.68
179.90	1693.67
180.13	1789.92
180.35	1732.58
180.57	1708.01
180.79	1761.25
181.01	1691.62
181.23	1751.01
181.45	1810.40
181.67	1683.43
181.90	1779.68
182.12	1693.67
182.34	1689.57
182.56	1701.86
182.78	1740.77
183.00	1716.20
183.22	1759.21
183.44	1734.63
183.66	1812.45
183.89	1824.74
184.11	1656.81
184.33	1710.05
184.55	1738.73
184.77	1781.73
184.99	1775.59
185.21	1667.05
185.43	1779.68
185.65	1736.68
185.87	1648.61
186.10	1804.26
186.32	1748.97
186.54	1751.01
186.76	1757.16
186.98	1779.68
187.20	1744.87
187.42	1814.50
187.64	1775.59
187.86	1763.30
188.08	1828.84
188.30	1658.85
188.52	1726.44
188.75	1669.09
188.97	1882.08
189.19	1644.52
189.41	1751.01
189.63	1716.20
189.85	1697.77
190.07	1685.48
190.29	1640.42
190.51	1775.59
190.73	1662.95
190.95	1701.86
191.17	1671.14
191.39	1660.90
191.61	1685.48
191.84	1644.52
192.06	1773.54
192.28	1609.70
192.50	1902.56
192.72	1791.97
192.94	1656.81
193.16	1761.25
193.38	1775.59
193.60	1685.48
193.82	1771.49
194.04	1814.50
194.26	1738.73
194.48	1677.29
194.70	1708.01
194.92	1697.77
195.14	1775.59
195.36	1714.15
195.58	1779.68
195.80	1744.87
196.02	1634.28
196.24	1701.86
196.46	1730.53
196.69	1685.48
196.91	1892.32
197.13	1654.76
197.35	1656.81
197.57	1812.45
197.79	1777.64
198.01	1818.60
198.23	1714.15
198.45	1783.78
198.67	1601.51
198.89	1726.44
199.11	1773.54
199.33	1746.92
199.55	1576.94
199.77	1669.09
199.99	1851.36
200.21	1683.43
200.43	1708.01
200.65	1607.66
200.87	1591.27
201.09	1701.86
201.31	1687.53
201.53	1710.05
201.75	1722.34
201.97	1697.77
202.19	1701.86
202.41	1796.07
202.63	1791.97
202.85	1767.40
203.07	1785.83
203.29	1734.63
203.51	1677.29
203.73	1724.39
203.95	1839.08
204.17	1699.81
204.39	1730.53
204.61	1701.86
204.83	1689.57
205.05	1789.92
205.27	1779.68
205.49	1849.32
205.71	1665.00
205.93	1601.51
206.15	1755.11
206.37	1736.68
206.59	1652.71
206.81	1685.48
207.03	1574.89
207.25	1619.94
207.47	1771.49
207.69	1740.77
207.91	1771.49
208.13	1740.77
208.34	1669.09
208.56	1699.81
208.78	1716.20
209.00	1683.43
209.22	1705.96
209.44	1611.75
209.66	1705.96
209.88	1628.14
210.10	1619.94
210.32	1710.05
210.54	1818.60
210.76	1675.24
210.98	1759.21
211.20	1613.80
211.42	1705.96
211.64	1742.82
211.86	1802.21
212.08	1800.16
212.30	1720.29
212.52	1755.11
212.74	1722.34
212.96	1759.21
213.17	1751.01
213.39	1740.77
213.61	1822.69
213.83	1693.67
214.05	1628.14
214.27	1806.31
214.49	1695.72
214.71	1650.66
214.93	1738.73
215.15	1710.05
215.37	1724.39
215.59	1574.89
215.81	1751.01
216.03	1794.02
216.24	1681.38
216.46	1658.85
216.68	1722.34
216.90	1761.25
217.12	1746.92
217.34	1736.68
217.56	1800.16
217.78	1800.16
218.00	1705.96
218.22	1804.26
218.44	1812.45
218.66	1683.43
218.87	1740.77
219.09	1722.34
219.31	1742.82
219.53	1800.16
219.75	1652.71
219.97	1734.63
220.19	1685.48
220.41	1662.95
220.63	1757.16
220.85	1732.58
221.06	1732.58
221.28	1787.88
221.50	1824.74
221.72	1779.68
221.94	1730.53
222.16	1687.53
222.38	1853.41
222.60	1828.84
222.82	1730.53
223.03	1812.45
223.25	1744.87
223.47	1751.01
223.69	1812.45
223.91	1796.07
224.13	1681.38
224.35	1687.53
224.57	1714.15
224.78	1687.53
225.00	1718.25
225.22	1773.54
225.44	1765.35
225.66	1716.20
225.88	1634.28
226.10	1699.81
226.32	1771.49
226.53	1783.78
226.75	1769.44
226.97	1724.39
227.19	1665.00
227.41	1677.29
227.63	1691.62
227.85	1593.32
228.06	1708.01
228.28	1675.24
228.50	1783.78
228.72	1669.09
228.94	1714.15
229.16	1640.42
229.37	1665.00
229.59	1683.43
229.81	1765.35
230.03	1751.01
230.25	1583.08
230.47	1652.71
230.69	1634.28
230.90	1677.29
231.12	1675.24
231.34	1753.06
231.56	1736.68
231.78	1669.09
232.00	1658.85
232.21	1738.73
232.43	1677.29
232.65	1640.42
232.87	1718.25
233.09	1650.66
233.30	1695.72
233.52	1746.92
233.74	1630.18
233.96	1730.53
234.18	1763.30
234.40	1736.68
234.61	1847.27
234.83	1662.95
235.05	1671.14
235.27	1869.80
235.49	1744.87
235.70	1755.11
235.92	1796.07
236.14	1679.33
236.36	1800.16
236.58	1640.42
236.79	1689.57
237.01	1716.20
237.23	1693.67
237.45	1820.64
237.67	1677.29
237.88	1759.21
238.10	1800.16
238.32	1607.66
238.54	1703.91
238.76	1701.86
238.97	1673.19
239.19	1609.70
239.41	1816.55
239.63	1769.44
239.85	1722.34
240.06	1746.92
240.28	1703.91
240.50	1738.73
240.72	1701.86
240.93	1740.77
241.15	1701.86
241.37	1728.49
241.59	1808.36
241.81	1701.86
242.02	1595.37
242.24	1769.44
242.46	1796.07
242.68	1591.27
242.89	1783.78
243.11	1794.02
243.33	1703.91
243.55	1695.72
243.76	1714.15
243.98	1675.24
244.20	1763.30
244.42	1687.53
244.64	1716.20
244.85	1640.42
245.07	1632.23
245.29	1751.01
245.51	1626.09
245.72	1732.58
245.94	1753.06
246.16	1699.81
246.38	1771.49
246.59	1648.61
246.81	1703.91
247.03	1675.24
247.24	1634.28
247.46	1667.05
247.68	1785.83
247.90	1714.15
248.11	1718.25
248.33	1714.15
248.55	1724.39
248.77	1701.86
248.98	1779.68
249.20	1816.55
249.42	1697.77
249.64	1757.16
249.85	1681.38
250.07	1652.71
250.29	1722.34
250.50	1777.64
250.72	1656.81
250.94	1753.06
251.16	1796.07
251.37	1712.10
251.59	1699.81
251.81	1730.53
252.02	1800.16
252.24	1722.34
252.46	1837.03
252.68	1665.00
252.89	1683.43
253.11	1634.28
253.33	1931.23
253.54	1755.11
253.76	1716.20
253.98	1726.44
254.20	1722.34
254.41	1634.28
254.63	1665.00
254.85	1650.66
255.06	1685.48
255.28	1759.21
255.50	1722.34
255.71	1726.44
255.93	1669.09
256.15	1693.67
256.36	1695.72
256.58	1693.67
256.80	1667.05
257.02	1738.73
257.23	1714.15
257.45	1699.81
257.67	1751.01
257.88	1716.20
258.10	1757.16
258.32	1675.24
258.53	1775.59
258.75	1779.68
258.97	1708.01
259.18	1650.66
259.40	1669.09
259.62	1812.45
259.83	1773.54
260.05	1755.11
260.27	1970.15
260.48	1767.40
260.70	1662.95
260.92	1675.24
261.13	1691.62
261.35	1794.02
261.57	1716.20
261.78	1691.62
262.00	1624.04
262.22	1679.33
262.43	1683.43
262.65	1671.14
262.86	1703.91
263.08	1806.31
263.30	1716.20
263.51	1671.14
263.73	1724.39
263.95	1773.54
264.16	1703.91
264.38	1736.68
264.60	1677.29
264.81	1730.53
265.03	1751.01
265.25	1722.34
265.46	1710.05
265.68	1798.12
265.89	1736.68
266.11	1665.00
266.33	1800.16
266.54	1867.75
266.76	1705.96
266.98	1689.57
267.19	1771.49
267.41	1775.59
267.62	1726.44
267.84	1630.18
268.06	1757.16
268.27	1687.53
268.49	1734.63
268.70	1748.97
268.92	1691.62
269.14	1671.14
269.35	1632.23
269.57	1708.01
269.79	1738.73
270.00	1732.58
270.22	1826.79
270.43	1632.23
270.65	1646.57
270.87	1726.44
271.08	1763.30
271.30	1701.86
271.51	1710.05
271.73	1748.97
271.95	1798.12
272.16	1724.39
272.38	1667.05
272.59	1722.34
272.81	1816.55
273.02	1695.72
273.24	1781.73
273.46	1771.49
273.67	1652.71
273.89	1638.38
274.10	1669.09
274.32	1751.01
274.54	1730.53
274.75	1736.68
274.97	1665.00
275.18	1763.30
275.40	1796.07
275.61	1716.20
275.83	1771.49
276.05	1648.61
276.26	1634.28
276.48	1728.49
276.69	1765.35
276.91	1716.20
277.12	1738.73
277.34	1769.44
277.55	1757.16
277.77	1708.01
277.99	1714.15
278.20	1656.81
278.42	1675.24
278.63	1681.38
278.85	1611.75
279.06	1617.90
279.28	1716.20
279.49	1724.39
279.71	1796.07
279.93	1695.72
280.14	1650.66
280.36	1697.77
280.57	1763.30
280.79	1779.68
281.00	1708.01
281.22	1714.15
281.43	1791.97
281.65	1669.09
281.86	1699.81
282.08	1734.63
282.29	1791.97
282.51	1615.85
282.73	1667.05
282.94	1615.85
283.16	1796.07
283.37	1767.40
283.59	1652.71
283.80	1824.74
284.02	1757.16
284.23	1767.40
284.45	1667.05
284.66	1710.05
284.88	1652.71
285.09	1703.91
285.31	1665.00
285.52	1728.49
285.74	1609.70
285.95	1761.25
286.17	1724.39
286.38	1699.81
286.60	1679.33
286.81	1724.39
287.03	1673.19
287.24	1685.48
287.46	1744.87
287.67	1728.49
287.89	1812.45
288.10	1718.25
288.32	1726.44
288.53	1855.46
288.75	1722.34
288.96	1732.58
289.18	1710.05
289.39	1732.58
289.61	1808.36
289.82	1814.50
290.04	1783.78
290.25	1669.09
290.47	1712.10
290.68	1710.05
290.90	1796.07
291.11	1583.08
291.33	1710.05
291.54	1673.19
291.76	1740.77
291.97	1767.40
292.18	1740.77
292.40	1628.14
292.61	1681.38
292.83	1861.60
293.04	1660.90
293.26	1714.15
293.47	1736.68
293.69	1656.81
293.90	1689.57
294.12	1769.44
294.33	1734.63
294.55	1701.86
294.76	1789.92
294.97	1820.64
295.19	1859.56
295.40	1732.58
295.62	1720.29
295.83	1816.55
296.05	1673.19
296.26	1771.49
296.48	1669.09
296.69	1699.81
296.90	1693.67
297.12	1796.07
297.33	1818.60
297.55	1734.63
297.76	1740.77
297.98	1877.99
298.19	1648.61
298.41	1656.81
298.62	1613.80
298.83	1798.12
299.05	1685.48
299.26	1648.61
299.48	1728.49
299.69	1728.49
299.90	1722.34
300.12	1722.34
300.33	1701.86
300.55	1724.39
300.76	1787.88
300.98	1724.39
301.19	1716.20
301.40	1740.77
301.62	1708.01
301.83	1763.30
302.05	1697.77
302.26	1714.15
302.47	1738.73
302.69	1597.42
302.90	1695.72
303.12	1597.42
303.33	1730.53
303.54	1804.26
303.76	1732.58
303.97	1761.25
304.19	1832.93
304.40	1658.85
304.61	1763.30
304.83	1839.08
305.04	1787.88
305.26	1814.50
305.47	1632.23
305.68	1724.39
305.90	1585.13
306.11	1744.87
306.33	1697.77
306.54	1703.91
306.75	1662.95
306.97	1658.85
307.18	1691.62
307.39	1716.20
307.61	1757.16
307.82	1632.23
308.04	1787.88
308.25	1708.01
308.46	1712.10
308.68	1708.01
308.89	1705.96
309.10	1757.16
309.32	1718.25
309.53	1730.53
309.74	1773.54
309.96	1693.67
310.17	1767.40
310.39	1691.62
310.60	1779.68
310.81	1671.14
311.03	1640.42
311.24	1695.72
311.45	1646.57
311.67	1834.98
311.88	1689.57
312.09	1667.05
312.31	1660.90
312.52	1730.53
312.73	1669.09
312.95	1665.00
313.16	1599.46
313.37	1783.78
313.59	1675.24
313.80	1734.63
314.01	1810.40
314.23	1644.52
314.44	1673.19
314.65	1693.67
314.87	1689.57
315.08	1708.01
315.29	1673.19
315.51	1665.00
315.72	1634.28
315.93	1820.64
316.15	1781.73
316.36	1615.85
316.57	1701.86
316.79	1767.40
317.00	1718.25
317.21	1781.73
317.43	1605.61
317.64	1705.96
317.85	1652.71
318.07	1660.90
318.28	1726.44
318.49	1779.68
318.70	1869.80
318.92	1867.75
319.13	1902.56
319.34	1873.89
319.56	1828.84
319.77	1816.55
319.98	1763.30
320.20	1810.40
320.41	1773.54
320.62	1787.88
320.83	1640.42
321.05	1837.03
321.26	1802.21
321.47	1703.91
321.69	1808.36
321.90	1673.19
322.11	1689.57
322.32	1671.14
322.54	1804.26
322.75	1675.24
322.96	1812.45
323.18	1613.80
323.39	1648.61
323.60	1619.94
323.81	1720.29
324.03	1683.43
324.24	1712.10
324.45	1732.58
324.66	1714.15
324.88	1775.59
325.09	1808.36
325.30	1728.49
325.52	1716.20
325.73	1699.81
325.94	1644.52
326.15	1642.47
326.37	1687.53
326.58	1765.35
326.79	1757.16
327.00	1720.29
327.22	1765.35
327.43	1732.58
327.64	1624.04
327.85	1685.48
328.07	1765.35
328.28	1787.88
328.49	1656.81
328.70	1699.81
328.92	1744.87
329.13	1675.24
329.34	1734.63
329.55	1865.70
329.76	1787.88
329.98	1699.81
330.19	1843.17
330.40	1703.91
330.61	1710.05
330.83	1730.53
331.04	1677.29
331.25	1673.19
331.46	1703.91
331.68	1617.90
331.89	1771.49
332.10	1738.73
332.31	1638.38
332.52	1751.01
332.74	1748.97
332.95	1597.42
333.16	1693.67
333.37	1771.49
333.58	1673.19
333.80	1683.43
334.01	1652.71
334.22	1730.53
334.43	1634.28
334.64	1718.25
334.86	1675.24
335.07	1662.95
335.28	1802.21
335.49	1669.09
335.70	1685.48
335.92	1779.68
336.13	1783.78
336.34	1757.16
336.55	1703.91
336.76	1699.81
336.98	1558.50
337.19	1660.90
337.40	1765.35
337.61	1816.55
337.82	1726.44
338.04	1726.44
338.25	1667.05
338.46	1695.72
338.67	1638.38
338.88	1708.01
339.09	1673.19
339.31	1675.24
339.52	1628.14
339.73	1607.66
339.94	1724.39
340.15	1712.10
340.36	1718.25
340.58	1730.53
340.79	1671.14
341.00	1740.77
341.21	1626.09
341.42	1828.84
341.63	1701.86
341.85	1714.15
342.06	1699.81
342.27	1648.61
342.48	1701.86
342.69	1634.28
342.90	1701.86
343.12	1701.86
343.33	1656.81
343.54	1763.30
343.75	1869.80
343.96	1660.90
344.17	1695.72
344.38	1722.34
344.60	1642.47
344.81	1681.38
345.02	1617.90
345.23	1771.49
345.44	1763.30
345.65	1746.92
345.86	1791.97
346.07	1767.40
346.29	1673.19
346.50	1802.21
346.71	1767.40
346.92	1724.39
347.13	1869.80
347.34	1781.73
347.55	1724.39
347.76	1671.14
347.98	1619.94
348.19	1677.29
348.40	1779.68
348.61	1665.00
348.82	1761.25
349.03	1683.43
349.24	1685.48
349.45	1857.51
349.66	1613.80
349.88	1701.86
350.09	1722.34
350.30	1755.11
350.51	1888.23
350.72	1722.34
350.93	1691.62
351.14	1658.85
351.35	1724.39
351.56	1714.15
351.77	1599.46
351.99	1691.62
352.20	1837.03
352.41	1716.20
352.62	1626.09
352.83	1714.15
353.04	1726.44
353.25	1681.38
353.46	1845.22
353.67	1857.51
353.88	1613.80
354.09	1761.25
354.30	1724.39
354.52	1796.07
354.73	1650.66
354.94	1710.05
355.15	1736.68
355.36	1783.78
355.57	1652.71
355.78	1718.25
355.99	1720.29
356.20	1765.35
356.41	1839.08
356.62	1740.77
356.83	1755.11
357.04	1730.53
357.25	1589.22
357.46	1695.72
357.68	1656.81
357.89	1691.62
358.10	1714.15
358.31	1687.53
358.52	1714.15
358.73	1677.29
358.94	1697.77
359.15	1710.05
359.36	1742.82
359.57	1681.38
359.78	1732.58
359.99	1787.88
360.20	1658.85
360.41	1712.10
360.62	1771.49
360.83	1619.94
361.04	1765.35
361.25	1798.12
361.46	1753.06
361.67	1730.53
361.88	1818.60
362.09	1736.68
362.30	1765.35
362.51	1660.90
362.72	1716.20
362.93	1761.25
363.14	1744.87
363.35	1652.71
363.56	1658.85
363.78	1828.84
363.99	1712.10
364.20	1679.33
364.41	1740.77
364.62	1812.45
364.83	1771.49
365.04	1697.77
365.25	1669.09
365.46	1791.97
365.67	1671.14
365.88	1646.57
366.09	1658.85
366.30	1722.34
366.51	1705.96
366.72	1560.55
366.93	1742.82
367.14	1726.44
367.35	1837.03
367.56	1654.76
367.77	1746.92
367.98	1789.92
368.18	1710.05
368.39	1726.44
368.60	1667.05
368.81	1800.16
369.02	1718.25
369.23	1779.68
369.44	1658.85
369.65	1744.87
369.86	1673.19
370.07	1783.78
370.28	1638.38
370.49	1771.49
370.70	1703.91
370.91	1591.27
371.12	1648.61
371.33	1783.78
371.54	1624.04
371.75	1785.83
371.96	1585.13
372.17	1714.15
372.38	1771.49
372.59	1734.63
372.80	1667.05
373.01	1744.87
373.22	1710.05
373.43	1781.73
373.64	1636.33
373.85	1763.30
374.06	1814.50
374.26	1742.82
374.47	1746.92
374.68	1834.98
374.89	1808.36
375.10	1689.57
375.31	1748.97
375.52	1732.58
375.73	1746.92
375.94	1617.90
376.15	1773.54
376.36	1669.09
376.57	1708.01
376.78	1658.85
376.99	1728.49
377.20	1912.80
377.40	1712.10
377.61	1826.79
377.82	1632.23
378.03	1812.45
378.24	1767.40
378.45	1660.90
378.66	1769.44
378.87	1679.33
379.08	1654.76
379.29	1722.34
379.50	1765.35
379.71	1675.24
379.91	1804.26
380.12	1722.34
380.33	1673.19
380.54	1712.10
380.75	1755.11
380.96	1658.85
381.17	1789.92
381.38	1728.49
381.59	1738.73
381.80	1746.92
382.00	1787.88
382.21	1687.53
382.42	1816.55
382.63	1849.32
382.84	1746.92
383.05	1824.74
383.26	1830.88
383.47	1740.77
383.68	1763.30
383.88	1736.68
384.09	1685.48
384.30	1837.03
384.51	1742.82
384.72	1685.48
384.93	1718.25
385.14	1820.64
385.35	1787.88
385.55	1656.81
385.76	1763.30
385.97	1705.96
386.18	1667.05
386.39	1667.05
386.60	1695.72
386.81	1691.62
387.02	1595.37
387.22	1697.77
387.43	1849.32
387.64	1779.68
387.85	1847.27
388.06	2222.05
388.27	4155.33
388.48	6670.23
388.68	8185.73
388.89	9471.86
389.10	9688.94
389.31	8730.49
389.52	7425.93
389.73	6637.47
389.93	6111.14
390.14	5877.67
390.35	5060.53
390.56	4593.59
390.77	3733.45
390.98	3061.71
391.18	2576.34
391.39	2133.98
391.60	1837.03
391.81	1796.07
392.02	1816.55
392.23	1857.51
392.43	1755.11
392.64	1781.73
392.85	1816.55
393.06	1943.52
393.27	1734.63
393.47	1693.67
393.68	1734.63
393.89	1708.01
394.10	1861.60
394.31	1724.39
394.52	1693.67
394.72	1660.90
394.93	1771.49
395.14	1611.75
395.35	1740.77
395.56	1720.29
395.76	1671.14
395.97	1783.78
396.18	1857.51
396.39	1814.50
396.60	2084.83
396.80	1855.46
397.01	1849.32
397.22	1826.79
397.43	1943.52
397.64	1755.11
397.84	1736.68
398.05	1869.80
398.26	1699.81
398.47	1783.78
398.67	1843.17
398.88	1734.63
399.09	1771.49
399.30	1665.00
399.51	1746.92
399.71	1695.72
399.92	1798.12
400.13	1728.49
400.34	1740.77
400.54	1724.39
400.75	1857.51
400.96	1796.07
401.17	1869.80
401.37	1699.81
401.58	1697.77
401.79	1742.82
402.00	1877.99
402.21	1982.43
402.41	2015.20
402.62	1912.80
402.83	2068.45
403.04	2007.01
403.24	2054.11
403.45	1875.94
403.66	1843.17
403.87	1871.84
404.07	1968.10
404.28	1900.52
404.49	1908.71
404.70	1824.74
404.90	1730.53
405.11	1652.71
405.32	1738.73
405.52	1677.29
405.73	1708.01
405.94	1685.48
406.15	1710.05
406.35	1796.07
406.56	1775.59
406.77	1714.15
406.98	1699.81
407.18	1689.57
407.39	1882.08
407.60	1724.39
407.80	1757.16
408.01	1656.81
408.22	1781.73
408.43	1726.44
408.63	1783.78
408.84	1773.54
409.05	1767.40
409.25	1669.09
409.46	1609.70
409.67	1728.49
409.88	1632.23
410.08	1736.68
410.29	1691.62
410.50	1689.57
410.70	1761.25
410.91	1656.81
411.12	1722.34
411.32	1730.53
411.53	1695.72
411.74	1789.92
411.95	1785.83
412.15	1716.20
412.36	1820.64
412.57	1728.49
412.77	1806.31
412.98	1763.30
413.19	1775.59
413.39	1744.87
413.60	1763.30
413.81	1832.93
414.01	1716.20
414.22	1761.25
414.43	1734.63
414.63	1677.29
414.84	1808.36
415.05	1699.81
415.25	1626.09
415.46	1734.63
415.67	1732.58
415.87	1652.71
416.08	1781.73
416.29	1716.20
416.49	1796.07
416.70	1710.05
416.91	1775.59
417.11	1771.49
417.32	1818.60
417.53	1767.40
417.73	1726.44
417.94	1732.58
418.15	1765.35
418.35	1732.58
418.56	1751.01
418.77	1886.18
418.97	1724.39
419.18	1777.64
419.38	1632.23
419.59	1644.52
419.80	1763.30
420.00	1675.24
420.21	1718.25
420.42	1738.73
420.62	1863.65
420.83	1781.73
421.04	1730.53
421.24	1718.25
421.45	1802.21
421.65	1701.86
421.86	1724.39
422.07	1779.68
422.27	1726.44
422.48	1728.49
422.69	1656.81
422.89	1708.01
423.10	1617.90
423.30	1681.38
423.51	1804.26
423.72	1773.54
423.92	1757.16
424.13	1667.05
424.33	1753.06
424.54	1742.82
424.75	1800.16
424.95	1791.97
425.16	1787.88
425.36	1722.34
425.57	1671.14
425.78	1806.31
425.98	1798.12
426.19	1669.09
426.39	1701.86
426.60	1718.25
426.81	1789.92
427.01	1726.44
427.22	1736.68
427.42	1595.37
427.63	1718.25
427.83	1771.49
428.04	1710.05
428.25	1849.32
428.45	1763.30
428.66	1779.68
428.86	1697.77
429.07	1695.72
429.28	1705.96
429.48	1734.63
429.69	1677.29
429.89	1703.91
430.10	1697.77
430.30	1785.83
430.51	1734.63
430.71	1669.09
430.92	1755.11
431.13	1650.66
431.33	1832.93
431.54	1769.44
431.74	1812.45
431.95	1746.92
432.15	1685.48
432.36	1705.96
432.56	1761.25
432.77	1834.98
432.98	1828.84
433.18	1761.25
433.39	1675.24
433.59	1751.01
433.80	1773.54
434.00	1880.04
434.21	1613.80
434.41	1630.18
434.62	1847.27
434.82	1734.63
435.03	1671.14
435.23	1751.01
435.44	1636.33
435.64	1742.82
435.85	1697.77
436.06	1789.92
436.26	1789.92
436.47	1689.57
436.67	1681.38
436.88	1703.91
437.08	1740.77
437.29	1886.18
437.49	1691.62
437.70	1830.88
437.90	1751.01
438.11	1804.26
438.31	1791.97
438.52	1863.65
438.72	1859.56
438.93	1951.71
439.13	1837.03
439.34	1884.13
439.54	1769.44
439.75	1767.40
439.95	1808.36
440.16	1771.49
440.36	1740.77
440.57	1765.35
440.77	1781.73
440.98	1716.20
441.18	1783.78
441.39	1701.86
441.59	1665.00
441.80	1886.18
442.00	1699.81
442.21	1816.55
442.41	1585.13
442.62	1736.68
442.82	1662.95
443.02	1761.25
443.23	1732.58
443.43	1761.25
443.64	1849.32
443.84	1671.14
444.05	1765.35
444.25	1744.87
444.46	1718.25
444.66	1710.05
444.87	1832.93
445.07	1675.24
445.28	1726.44
445.48	1857.51
445.69	1816.55
445.89	1865.70
446.09	1742.82
446.30	1959.91
446.50	2701.27
446.71	3561.42
446.91	4317.12
447.12	4681.66
447.32	4810.68
447.53	4501.44
447.73	3796.93
447.93	3575.75
448.14	3270.61
448.34	3235.79
448.55	2840.53
448.75	2893.78
448.96	2772.95
449.16	2455.51
449.36	2248.67
449.57	2027.49
449.77	1933.28
449.98	1796.07
450.18	1800.16
450.39	1779.68
450.59	1789.92
450.79	1806.31
451.00	1742.82
451.20	1757.16
451.41	1718.25
451.61	1806.31
451.81	1654.76
452.02	1726.44
452.22	1718.25
452.43	1671.14
452.63	1734.63
