SpectraSuite Data File
++++++++++++++++++++++++++++++++++++
Date: Mon Jun 06 16:09:17 CEST 2016
User: root
Dark Spectrum Present: No
Reference Spectrum Present: No
Number of Sampled Component Spectra: 1
Spectrometers: USB4C02835
Integration Time (usec): 100000 (USB4C02835)
Spectra Averaged: 1 (USB4C02835)
Boxcar Smoothing: 0 (USB4C02835)
Correct for Electrical Dark: No (USB4C02835)
Strobe/Lamp Enabled: No (USB4C02835)
Correct for Detector Non-linearity: No (USB4C02835)
Correct for Stray Light: No (USB4C02835)
Number of Pixels in Processed Spectrum: 3648
>>>>>Begin Processed Spectral Data<<<<<
177.47	1497.07
177.69	1497.07
177.91	1497.07
178.13	1468.39
178.36	1501.16
178.58	1632.23
178.80	1755.11
179.02	1619.94
179.24	1679.33
179.46	1665.00
179.68	1816.55
179.90	1728.49
180.13	1636.33
180.35	1771.49
180.57	1744.87
180.79	1736.68
181.01	1667.05
181.23	1783.78
181.45	1753.06
181.67	1779.68
181.90	1841.12
182.12	1681.38
182.34	1671.14
182.56	1734.63
182.78	1718.25
183.00	1728.49
183.22	1724.39
183.44	1701.86
183.66	1834.98
183.89	1834.98
184.11	1693.67
184.33	1806.31
184.55	1781.73
184.77	1681.38
184.99	1757.16
185.21	1716.20
185.43	1789.92
185.65	1662.95
185.87	1722.34
186.10	1849.32
186.32	1869.80
186.54	1716.20
186.76	1771.49
186.98	1759.21
187.20	1744.87
187.42	1755.11
187.64	1728.49
187.86	1701.86
188.08	1765.35
188.30	1677.29
188.52	1769.44
188.75	1796.07
188.97	1855.46
189.19	1767.40
189.41	1722.34
189.63	1748.97
189.85	1665.00
190.07	1624.04
190.29	1634.28
190.51	1798.12
190.73	1636.33
190.95	1751.01
191.17	1722.34
191.39	1603.56
191.61	1636.33
191.84	1738.73
192.06	1705.96
192.28	1638.38
192.50	1968.10
192.72	1724.39
192.94	1677.29
193.16	1732.58
193.38	1718.25
193.60	1646.57
193.82	1683.43
194.04	1757.16
194.26	1767.40
194.48	1726.44
194.70	1708.01
194.92	1724.39
195.14	1691.62
195.36	1683.43
195.58	1767.40
195.80	1716.20
196.02	1730.53
196.24	1665.00
196.46	1669.09
196.69	1677.29
196.91	1857.51
197.13	1708.01
197.35	1724.39
197.57	1814.50
197.79	1746.92
198.01	1716.20
198.23	1763.30
198.45	1767.40
198.67	1611.75
198.89	1710.05
199.11	1720.29
199.33	1646.57
199.55	1587.18
199.77	1697.77
199.99	1828.84
200.21	1693.67
200.43	1746.92
200.65	1714.15
200.87	1558.50
201.09	1730.53
201.31	1712.10
201.53	1791.97
201.75	1761.25
201.97	1722.34
202.19	1732.58
202.41	1724.39
202.63	1757.16
202.85	1697.77
203.07	1681.38
203.29	1671.14
203.51	1699.81
203.73	1619.94
203.95	1869.80
204.17	1761.25
204.39	1757.16
204.61	1744.87
204.83	1662.95
205.05	1773.54
205.27	1787.88
205.49	1828.84
205.71	1806.31
205.93	1615.85
206.15	1626.09
206.37	1701.86
206.59	1689.57
206.81	1671.14
207.03	1576.94
207.25	1636.33
207.47	1740.77
207.69	1701.86
207.91	1837.03
208.13	1718.25
208.34	1720.29
208.56	1681.38
208.78	1759.21
209.00	1726.44
209.22	1697.77
209.44	1701.86
209.66	1705.96
209.88	1646.57
210.10	1693.67
210.32	1722.34
210.54	1783.78
210.76	1740.77
210.98	1814.50
211.20	1578.98
211.42	1732.58
211.64	1759.21
211.86	1742.82
212.08	1771.49
212.30	1703.91
212.52	1718.25
212.74	1699.81
212.96	1751.01
213.17	1751.01
213.39	1720.29
213.61	1863.65
213.83	1748.97
214.05	1658.85
214.27	1814.50
214.49	1652.71
214.71	1611.75
214.93	1722.34
215.15	1746.92
215.37	1785.83
215.59	1652.71
215.81	1755.11
216.03	1716.20
216.24	1697.77
216.46	1646.57
216.68	1763.30
216.90	1847.27
217.12	1796.07
217.34	1728.49
217.56	1759.21
217.78	1775.59
218.00	1802.21
218.22	1667.05
218.44	1705.96
218.66	1708.01
218.87	1765.35
219.09	1689.57
219.31	1748.97
219.53	1740.77
219.75	1746.92
219.97	1722.34
220.19	1677.29
220.41	1726.44
220.63	1783.78
220.85	1800.16
221.06	1712.10
221.28	1810.40
221.50	1736.68
221.72	1687.53
221.94	1746.92
222.16	1710.05
222.38	1740.77
222.60	1734.63
222.82	1710.05
223.03	1755.11
223.25	1669.09
223.47	1757.16
223.69	1820.64
223.91	1748.97
224.13	1804.26
224.35	1708.01
224.57	1736.68
224.78	1808.36
225.00	1601.51
225.22	1669.09
225.44	1773.54
225.66	1720.29
225.88	1685.48
226.10	1746.92
226.32	1755.11
226.53	1824.74
226.75	1736.68
226.97	1671.14
227.19	1734.63
227.41	1695.72
227.63	1761.25
227.85	1566.70
228.06	1724.39
228.28	1695.72
228.50	1783.78
228.72	1685.48
228.94	1693.67
229.16	1656.81
229.37	1667.05
229.59	1669.09
229.81	1751.01
230.03	1697.77
230.25	1652.71
230.47	1673.19
230.69	1658.85
230.90	1710.05
231.12	1677.29
231.34	1755.11
231.56	1751.01
231.78	1740.77
232.00	1726.44
232.21	1716.20
232.43	1726.44
232.65	1624.04
232.87	1759.21
233.09	1685.48
233.30	1683.43
233.52	1751.01
233.74	1714.15
233.96	1771.49
234.18	1691.62
234.40	1691.62
234.61	1816.55
234.83	1726.44
235.05	1566.70
235.27	1796.07
235.49	1834.98
235.70	1736.68
235.92	1814.50
236.14	1693.67
236.36	1845.22
236.58	1650.66
236.79	1714.15
237.01	1665.00
237.23	1646.57
237.45	1859.56
237.67	1658.85
237.88	1705.96
238.10	1748.97
238.32	1693.67
238.54	1728.49
238.76	1771.49
238.97	1697.77
239.19	1693.67
239.41	1683.43
239.63	1736.68
239.85	1671.14
240.06	1751.01
240.28	1716.20
240.50	1773.54
240.72	1714.15
240.93	1691.62
241.15	1736.68
241.37	1679.33
241.59	1839.08
241.81	1648.61
242.02	1714.15
242.24	1730.53
242.46	1775.59
242.68	1691.62
242.89	1697.77
243.11	1697.77
243.33	1744.87
243.55	1816.55
243.76	1751.01
243.98	1599.46
244.20	1714.15
244.42	1738.73
244.64	1724.39
244.85	1720.29
245.07	1689.57
245.29	1765.35
245.51	1722.34
245.72	1740.77
245.94	1808.36
246.16	1773.54
246.38	1679.33
246.59	1665.00
246.81	1644.52
247.03	1746.92
247.24	1683.43
247.46	1759.21
247.68	1697.77
247.90	1773.54
248.11	1705.96
248.33	1763.30
248.55	1730.53
248.77	1705.96
248.98	1746.92
249.20	1785.83
249.42	1679.33
249.64	1744.87
249.85	1683.43
250.07	1646.57
250.29	1777.64
250.50	1662.95
250.72	1726.44
250.94	1765.35
251.16	1865.70
251.37	1777.64
251.59	1775.59
251.81	1753.06
252.02	1773.54
252.24	1656.81
252.46	1767.40
252.68	1628.14
252.89	1683.43
253.11	1605.61
253.33	1816.55
253.54	1824.74
253.76	1611.75
253.98	1718.25
254.20	1761.25
254.41	1654.76
254.63	1683.43
254.85	1665.00
255.06	1705.96
255.28	1736.68
255.50	1693.67
255.71	1634.28
255.93	1644.52
256.15	1675.24
256.36	1767.40
256.58	1724.39
256.80	1757.16
257.02	1732.58
257.23	1632.23
257.45	1695.72
257.67	1724.39
257.88	1675.24
258.10	1736.68
258.32	1728.49
258.53	1730.53
258.75	1763.30
258.97	1724.39
259.18	1720.29
259.40	1728.49
259.62	1791.97
259.83	1812.45
260.05	1834.98
260.27	1957.86
260.48	1781.73
260.70	1693.67
260.92	1665.00
261.13	1738.73
261.35	1753.06
261.57	1734.63
261.78	1605.61
262.00	1642.47
262.22	1738.73
262.43	1671.14
262.65	1687.53
262.86	1755.11
263.08	1841.12
263.30	1730.53
263.51	1542.12
263.73	1613.80
263.95	1855.46
264.16	1634.28
264.38	1611.75
264.60	1710.05
264.81	1722.34
265.03	1695.72
265.25	1781.73
265.46	1689.57
265.68	1748.97
265.89	1673.19
266.11	1585.13
266.33	1744.87
266.54	1738.73
266.76	1738.73
266.98	1808.36
267.19	1824.74
267.41	1771.49
267.62	1703.91
267.84	1603.56
268.06	1798.12
268.27	1740.77
268.49	1744.87
268.70	1753.06
268.92	1759.21
269.14	1615.85
269.35	1632.23
269.57	1722.34
269.79	1798.12
270.00	1703.91
270.22	1834.98
270.43	1642.47
270.65	1585.13
270.87	1675.24
271.08	1767.40
271.30	1783.78
271.51	1759.21
271.73	1687.53
271.95	1775.59
272.16	1777.64
272.38	1767.40
272.59	1642.47
272.81	1775.59
273.02	1656.81
273.24	1665.00
273.46	1816.55
273.67	1744.87
273.89	1687.53
274.10	1742.82
274.32	1773.54
274.54	1722.34
274.75	1732.58
274.97	1714.15
275.18	1714.15
275.40	1738.73
275.61	1763.30
275.83	1730.53
276.05	1708.01
276.26	1738.73
276.48	1632.23
276.69	1677.29
276.91	1687.53
277.12	1863.65
277.34	1718.25
277.55	1755.11
277.77	1744.87
277.99	1726.44
278.20	1640.42
278.42	1621.99
278.63	1755.11
278.85	1650.66
279.06	1624.04
279.28	1689.57
279.49	1671.14
279.71	1853.41
279.93	1677.29
280.14	1712.10
280.36	1673.19
280.57	1783.78
280.79	1763.30
281.00	1671.14
281.22	1626.09
281.43	1791.97
281.65	1583.08
281.86	1669.09
282.08	1787.88
282.29	1810.40
282.51	1681.38
282.73	1712.10
282.94	1619.94
283.16	1763.30
283.37	1796.07
283.59	1722.34
283.80	1693.67
284.02	1691.62
284.23	1726.44
284.45	1656.81
284.66	1699.81
284.88	1763.30
285.09	1683.43
285.31	1648.61
285.52	1673.19
285.74	1646.57
285.95	1708.01
286.17	1800.16
286.38	1769.44
286.60	1650.66
286.81	1740.77
287.03	1767.40
287.24	1736.68
287.46	1822.69
287.67	1755.11
287.89	1847.27
288.10	1687.53
288.32	1773.54
288.53	1789.92
288.75	1748.97
288.96	1693.67
289.18	1665.00
289.39	1705.96
289.61	1751.01
289.82	1791.97
290.04	1861.60
290.25	1626.09
290.47	1753.06
290.68	1650.66
290.90	1730.53
291.11	1593.32
291.33	1701.86
291.54	1726.44
291.76	1736.68
291.97	1687.53
292.18	1738.73
292.40	1675.24
292.61	1695.72
292.83	1869.80
293.04	1765.35
293.26	1728.49
293.47	1730.53
293.69	1650.66
293.90	1671.14
294.12	1791.97
294.33	1771.49
294.55	1714.15
294.76	1693.67
294.97	1791.97
295.19	1873.89
295.40	1689.57
295.62	1738.73
295.83	1783.78
296.05	1722.34
296.26	1789.92
296.48	1722.34
296.69	1755.11
296.90	1656.81
297.12	1722.34
297.33	1837.03
297.55	1683.43
297.76	1728.49
297.98	1761.25
298.19	1757.16
298.41	1710.05
298.62	1628.14
298.83	1771.49
299.05	1722.34
299.26	1699.81
299.48	1683.43
299.69	1769.44
299.90	1802.21
300.12	1677.29
300.33	1748.97
300.55	1687.53
300.76	1791.97
300.98	1718.25
301.19	1781.73
301.40	1761.25
301.62	1785.83
301.83	1701.86
302.05	1744.87
302.26	1701.86
302.47	1722.34
302.69	1656.81
302.90	1699.81
303.12	1712.10
303.33	1703.91
303.54	1787.88
303.76	1744.87
303.97	1730.53
304.19	1855.46
304.40	1736.68
304.61	1736.68
304.83	1802.21
305.04	1740.77
305.26	1757.16
305.47	1624.04
305.68	1691.62
305.90	1634.28
306.11	1751.01
306.33	1685.48
306.54	1708.01
306.75	1677.29
306.97	1626.09
307.18	1654.76
307.39	1648.61
307.61	1796.07
307.82	1697.77
308.04	1777.64
308.25	1636.33
308.46	1671.14
308.68	1685.48
308.89	1693.67
309.10	1800.16
309.32	1761.25
309.53	1669.09
309.74	1726.44
309.96	1742.82
310.17	1800.16
310.39	1740.77
310.60	1755.11
310.81	1810.40
311.03	1607.66
311.24	1759.21
311.45	1755.11
311.67	1757.16
311.88	1804.26
312.09	1726.44
312.31	1675.24
312.52	1679.33
312.73	1679.33
312.95	1638.38
313.16	1599.46
313.37	1828.84
313.59	1763.30
313.80	1736.68
314.01	1746.92
314.23	1738.73
314.44	1701.86
314.65	1630.18
314.87	1681.38
315.08	1640.42
315.29	1685.48
315.51	1656.81
315.72	1601.51
315.93	1820.64
316.15	1824.74
316.36	1724.39
316.57	1812.45
316.79	1748.97
317.00	1708.01
317.21	1697.77
317.43	1591.27
317.64	1785.83
317.85	1736.68
318.07	1648.61
318.28	1714.15
318.49	1794.02
318.70	2007.01
318.92	1841.12
319.13	1812.45
319.34	1929.19
319.56	1830.88
319.77	1794.02
319.98	1714.15
320.20	1763.30
320.41	1724.39
320.62	1794.02
320.83	1644.52
321.05	1775.59
321.26	1765.35
321.47	1742.82
321.69	1746.92
321.90	1630.18
322.11	1683.43
322.32	1691.62
322.54	1773.54
322.75	1669.09
322.96	1818.60
323.18	1599.46
323.39	1550.31
323.60	1638.38
323.81	1744.87
324.03	1654.76
324.24	1734.63
324.45	1740.77
324.66	1669.09
324.88	1796.07
325.09	1726.44
325.30	1656.81
325.52	1734.63
325.73	1767.40
325.94	1630.18
326.15	1624.04
326.37	1722.34
326.58	1804.26
326.79	1892.32
327.00	1685.48
327.22	1716.20
327.43	1716.20
327.64	1585.13
327.85	1794.02
328.07	1753.06
328.28	1826.79
328.49	1675.24
328.70	1671.14
328.92	1673.19
329.13	1726.44
329.34	1665.00
329.55	1802.21
329.76	1722.34
329.98	1697.77
330.19	1816.55
330.40	1800.16
330.61	1699.81
330.83	1761.25
331.04	1644.52
331.25	1837.03
331.46	1660.90
331.68	1621.99
331.89	1810.40
332.10	1675.24
332.31	1652.71
332.52	1773.54
332.74	1800.16
332.95	1619.94
333.16	1714.15
333.37	1775.59
333.58	1724.39
333.80	1726.44
334.01	1638.38
334.22	1626.09
334.43	1667.05
334.64	1648.61
334.86	1644.52
335.07	1712.10
335.28	1771.49
335.49	1681.38
335.70	1761.25
335.92	1785.83
336.13	1822.69
336.34	1763.30
336.55	1755.11
336.76	1742.82
336.98	1685.48
337.19	1677.29
337.40	1781.73
337.61	1853.41
337.82	1683.43
338.04	1767.40
338.25	1693.67
338.46	1656.81
338.67	1658.85
338.88	1624.04
339.09	1724.39
339.31	1695.72
339.52	1572.84
339.73	1630.18
339.94	1675.24
340.15	1775.59
340.36	1665.00
340.58	1771.49
340.79	1660.90
341.00	1753.06
341.21	1671.14
341.42	1845.22
341.63	1667.05
341.85	1755.11
342.06	1738.73
342.27	1755.11
342.48	1771.49
342.69	1652.71
342.90	1822.69
343.12	1763.30
343.33	1642.47
343.54	1746.92
343.75	1869.80
343.96	1691.62
344.17	1669.09
344.38	1691.62
344.60	1697.77
344.81	1689.57
345.02	1722.34
345.23	1742.82
345.44	1830.88
345.65	1798.12
345.86	1701.86
346.07	1759.21
346.29	1724.39
346.50	1675.24
346.71	1705.96
346.92	1800.16
347.13	1812.45
347.34	1714.15
347.55	1742.82
347.76	1732.58
347.98	1632.23
348.19	1681.38
348.40	1875.94
348.61	1640.42
348.82	1812.45
349.03	1767.40
349.24	1662.95
349.45	1828.84
349.66	1705.96
349.88	1736.68
350.09	1644.52
350.30	1798.12
350.51	1820.64
350.72	1660.90
350.93	1775.59
351.14	1763.30
351.35	1708.01
351.56	1650.66
351.77	1712.10
351.99	1763.30
352.20	1837.03
352.41	1830.88
352.62	1601.51
352.83	1652.71
353.04	1732.58
353.25	1697.77
353.46	1757.16
353.67	1740.77
353.88	1583.08
354.09	1740.77
354.30	1726.44
354.52	1662.95
354.73	1720.29
354.94	1705.96
355.15	1740.77
355.36	1724.39
355.57	1730.53
355.78	1689.57
355.99	1679.33
356.20	1736.68
356.41	1753.06
356.62	1718.25
356.83	1714.15
357.04	1734.63
357.25	1705.96
357.46	1699.81
357.68	1675.24
357.89	1660.90
358.10	1720.29
358.31	1722.34
358.52	1685.48
358.73	1601.51
358.94	1675.24
359.15	1675.24
359.36	1687.53
359.57	1673.19
359.78	1652.71
359.99	1755.11
360.20	1746.92
360.41	1716.20
360.62	1716.20
360.83	1716.20
361.04	1783.78
361.25	1732.58
361.46	1820.64
361.67	1710.05
361.88	1839.08
362.09	1761.25
362.30	1771.49
362.51	1644.52
362.72	1734.63
362.93	1769.44
363.14	1740.77
363.35	1699.81
363.56	1744.87
363.78	1796.07
363.99	1679.33
364.20	1740.77
364.41	1734.63
364.62	1759.21
364.83	1787.88
365.04	1681.38
365.25	1734.63
365.46	1822.69
365.67	1609.70
365.88	1572.84
366.09	1705.96
366.30	1730.53
366.51	1808.36
366.72	1628.14
366.93	1720.29
367.14	1703.91
367.35	1820.64
367.56	1681.38
367.77	1920.99
367.98	1732.58
368.18	1785.83
368.39	1738.73
368.60	1740.77
368.81	1751.01
369.02	1822.69
369.23	1718.25
369.44	1689.57
369.65	1720.29
369.86	1744.87
370.07	1806.31
370.28	1705.96
370.49	1742.82
370.70	1783.78
370.91	1683.43
371.12	1667.05
371.33	1738.73
371.54	1681.38
371.75	1834.98
371.96	1665.00
372.17	1755.11
372.38	1714.15
372.59	1728.49
372.80	1677.29
373.01	1683.43
373.22	1720.29
373.43	1748.97
373.64	1705.96
373.85	1781.73
374.06	1779.68
374.26	1816.55
374.47	1744.87
374.68	1798.12
374.89	1693.67
375.10	1734.63
375.31	1705.96
375.52	1728.49
375.73	1736.68
375.94	1738.73
376.15	1771.49
376.36	1626.09
376.57	1695.72
376.78	1687.53
376.99	1697.77
377.20	1843.17
377.40	1716.20
377.61	1826.79
377.82	1656.81
378.03	1779.68
378.24	1800.16
378.45	1740.77
378.66	1720.29
378.87	1675.24
379.08	1667.05
379.29	1738.73
379.50	1806.31
379.71	1646.57
379.91	1761.25
380.12	1677.29
380.33	1738.73
380.54	1660.90
380.75	1703.91
380.96	1753.06
381.17	1728.49
381.38	1710.05
381.59	1738.73
381.80	1714.15
382.00	1884.13
382.21	1800.16
382.42	1847.27
382.63	1875.94
382.84	1785.83
383.05	1730.53
383.26	1818.60
383.47	1683.43
383.68	1726.44
383.88	1732.58
384.09	1740.77
384.30	1771.49
384.51	1722.34
384.72	1748.97
384.93	1662.95
385.14	1744.87
385.35	1775.59
385.55	1636.33
385.76	1753.06
385.97	1753.06
386.18	1609.70
386.39	1730.53
386.60	1742.82
386.81	1753.06
387.02	1628.14
387.22	1619.94
387.43	1765.35
387.64	1708.01
387.85	1927.14
388.06	2133.98
388.27	4235.20
388.48	6539.16
388.68	8191.88
388.89	9469.81
389.10	9680.75
389.31	8525.69
389.52	7360.40
389.73	6705.05
389.93	6170.53
390.14	5722.02
390.35	5007.28
390.56	4554.68
390.77	3733.45
390.98	3043.28
391.18	2435.03
391.39	2172.89
391.60	1875.94
391.81	1857.51
392.02	1687.53
392.23	1826.79
392.43	1722.34
392.64	1769.44
392.85	1687.53
393.06	1892.32
393.27	1734.63
393.47	1757.16
393.68	1759.21
393.89	1695.72
394.10	1824.74
394.31	1697.77
394.52	1740.77
394.72	1667.05
394.93	1806.31
395.14	1763.30
395.35	1712.10
395.56	1679.33
395.76	1755.11
395.97	1767.40
396.18	1865.70
396.39	1845.22
396.60	1986.53
396.80	1890.28
397.01	1837.03
397.22	1775.59
397.43	1818.60
397.64	1810.40
397.84	1751.01
398.05	1869.80
398.26	1763.30
398.47	1824.74
398.67	1810.40
398.88	1767.40
399.09	1677.29
399.30	1697.77
399.51	1800.16
399.71	1646.57
399.92	1724.39
400.13	1681.38
400.34	1703.91
400.54	1701.86
400.75	1853.41
400.96	1763.30
401.17	1845.22
401.37	1791.97
401.58	1714.15
401.79	1701.86
402.00	1947.62
402.21	1957.86
402.41	1910.75
402.62	2015.20
402.83	2033.63
403.04	1996.77
403.24	2047.97
403.45	1880.04
403.66	1927.14
403.87	1894.37
404.07	1964.00
404.28	1904.61
404.49	1873.89
404.70	1837.03
404.90	1789.92
405.11	1726.44
405.32	1759.21
405.52	1691.62
405.73	1691.62
405.94	1636.33
406.15	1730.53
406.35	1808.36
406.56	1722.34
406.77	1771.49
406.98	1746.92
407.18	1689.57
407.39	1841.12
407.60	1722.34
407.80	1746.92
408.01	1701.86
408.22	1714.15
408.43	1675.24
408.63	1767.40
408.84	1783.78
409.05	1789.92
409.25	1603.56
409.46	1740.77
409.67	1689.57
409.88	1652.71
410.08	1753.06
410.29	1681.38
410.50	1744.87
410.70	1748.97
410.91	1648.61
411.12	1816.55
411.32	1734.63
411.53	1689.57
411.74	1826.79
411.95	1845.22
412.15	1806.31
412.36	1796.07
412.57	1814.50
412.77	1773.54
412.98	1769.44
413.19	1724.39
413.39	1650.66
413.60	1757.16
413.81	1726.44
414.01	1736.68
414.22	1783.78
414.43	1857.51
414.63	1660.90
414.84	1761.25
415.05	1703.91
415.25	1679.33
415.46	1736.68
415.67	1701.86
415.87	1726.44
416.08	1748.97
416.29	1753.06
416.49	1759.21
416.70	1751.01
416.91	1617.90
417.11	1771.49
417.32	1738.73
417.53	1816.55
417.73	1783.78
417.94	1705.96
418.15	1800.16
418.35	1624.04
418.56	1685.48
418.77	1837.03
418.97	1681.38
419.18	1703.91
419.38	1542.12
419.59	1740.77
419.80	1787.88
420.00	1726.44
420.21	1720.29
420.42	1834.98
420.62	1667.05
420.83	1671.14
421.04	1705.96
421.24	1687.53
421.45	1751.01
421.65	1738.73
421.86	1708.01
422.07	1755.11
422.27	1759.21
422.48	1708.01
422.69	1671.14
422.89	1712.10
423.10	1685.48
423.30	1648.61
423.51	1724.39
423.72	1767.40
423.92	1738.73
424.13	1626.09
424.33	1718.25
424.54	1726.44
424.75	1695.72
424.95	1824.74
425.16	1775.59
425.36	1726.44
425.57	1853.41
425.78	1753.06
425.98	1800.16
426.19	1736.68
426.39	1656.81
426.60	1679.33
426.81	1871.84
427.01	1710.05
427.22	1687.53
427.42	1691.62
427.63	1681.38
427.83	1789.92
428.04	1789.92
428.25	1695.72
428.45	1767.40
428.66	1822.69
428.86	1691.62
429.07	1667.05
429.28	1728.49
429.48	1771.49
429.69	1617.90
429.89	1699.81
430.10	1746.92
430.30	1779.68
430.51	1785.83
430.71	1632.23
430.92	1716.20
431.13	1695.72
431.33	1777.64
431.54	1755.11
431.74	1781.73
431.95	1931.23
432.15	1724.39
432.36	1730.53
432.56	1777.64
432.77	1853.41
432.98	1765.35
433.18	1703.91
433.39	1708.01
433.59	1734.63
433.80	1839.08
434.00	1837.03
434.21	1722.34
434.41	1679.33
434.62	1845.22
434.82	1658.85
435.03	1685.48
435.23	1773.54
435.44	1617.90
435.64	1708.01
435.85	1689.57
436.06	1730.53
436.26	1769.44
436.47	1744.87
436.67	1798.12
436.88	1703.91
437.08	1779.68
437.29	1816.55
437.49	1748.97
437.70	1757.16
437.90	1689.57
438.11	1865.70
438.31	1843.17
438.52	1855.46
438.72	1943.52
438.93	1886.18
439.13	1720.29
439.34	1800.16
439.54	1781.73
439.75	1804.26
439.95	1781.73
440.16	1738.73
440.36	1781.73
440.57	1744.87
440.77	1806.31
440.98	1714.15
441.18	1802.21
441.39	1716.20
441.59	1738.73
441.80	1875.94
442.00	1859.56
442.21	1759.21
442.41	1695.72
442.62	1800.16
442.82	1642.47
443.02	1656.81
443.23	1787.88
443.43	1701.86
443.64	1857.51
443.84	1656.81
444.05	1812.45
444.25	1783.78
444.46	1697.77
444.66	1763.30
444.87	1847.27
445.07	1730.53
445.28	1757.16
445.48	1902.56
445.69	1687.53
445.89	1877.99
446.09	1687.53
446.30	1986.53
446.50	2682.84
446.71	3688.39
446.91	4290.49
447.12	4818.87
447.32	4984.76
447.53	4239.30
447.73	3819.46
447.93	3487.69
448.14	3338.19
448.34	3227.60
448.55	2879.44
448.75	2885.59
448.96	2693.08
449.16	2402.27
449.36	2336.73
449.57	2058.21
449.77	1882.08
449.98	1800.16
450.18	1812.45
450.39	1800.16
450.59	1789.92
450.79	1773.54
451.00	1746.92
451.20	1767.40
451.41	1773.54
451.61	1765.35
451.81	1769.44
452.02	1794.02
452.22	1777.64
452.43	1730.53
452.63	1691.62
