SpectraSuite Data File
++++++++++++++++++++++++++++++++++++
Date: Mon Jun 06 13:27:17 CEST 2016
User: root
Dark Spectrum Present: No
Reference Spectrum Present: No
Number of Sampled Component Spectra: 1
Spectrometers: USB4C02835
Integration Time (usec): 100000 (USB4C02835)
Spectra Averaged: 1 (USB4C02835)
Boxcar Smoothing: 0 (USB4C02835)
Correct for Electrical Dark: No (USB4C02835)
Strobe/Lamp Enabled: No (USB4C02835)
Correct for Detector Non-linearity: No (USB4C02835)
Correct for Stray Light: No (USB4C02835)
Number of Pixels in Processed Spectrum: 3648
>>>>>Begin Processed Spectral Data<<<<<
177.47	1499.11
177.69	1499.11
177.91	1499.11
178.13	1435.63
178.36	1546.22
178.58	1677.29
178.80	1673.19
179.02	1656.81
179.24	1632.23
179.46	1685.48
179.68	1763.30
179.90	1714.15
180.13	1691.62
180.35	1687.53
180.57	1732.58
180.79	1785.83
181.01	1724.39
181.23	1787.88
181.45	1826.79
181.67	1710.05
181.90	1673.19
182.12	1642.47
182.34	1640.42
182.56	1714.15
182.78	1656.81
183.00	1710.05
183.22	1736.68
183.44	1703.91
183.66	1812.45
183.89	1759.21
184.11	1712.10
184.33	1753.06
184.55	1689.57
184.77	1738.73
184.99	1755.11
185.21	1722.34
185.43	1777.64
185.65	1654.76
185.87	1671.14
186.10	1771.49
186.32	1744.87
186.54	1798.12
186.76	1679.33
186.98	1746.92
187.20	1703.91
187.42	1636.33
187.64	1730.53
187.86	1734.63
188.08	1777.64
188.30	1656.81
188.52	1679.33
188.75	1822.69
188.97	1722.34
189.19	1642.47
189.41	1714.15
189.63	1738.73
189.85	1697.77
190.07	1675.24
190.29	1593.32
190.51	1716.20
190.73	1675.24
190.95	1746.92
191.17	1708.01
191.39	1572.84
191.61	1689.57
191.84	1705.96
192.06	1665.00
192.28	1650.66
192.50	1945.57
192.72	1748.97
192.94	1730.53
193.16	1734.63
193.38	1660.90
193.60	1634.28
193.82	1720.29
194.04	1781.73
194.26	1740.77
194.48	1656.81
194.70	1615.85
194.92	1636.33
195.14	1710.05
195.36	1699.81
195.58	1695.72
195.80	1669.09
196.02	1669.09
196.24	1712.10
196.46	1677.29
196.69	1689.57
196.91	1843.17
197.13	1755.11
197.35	1742.82
197.57	1728.49
197.79	1677.29
198.01	1644.52
198.23	1705.96
198.45	1617.90
198.67	1648.61
198.89	1697.77
199.11	1726.44
199.33	1648.61
199.55	1583.08
199.77	1689.57
199.99	1714.15
200.21	1685.48
200.43	1671.14
200.65	1667.05
200.87	1603.56
201.09	1687.53
201.31	1667.05
201.53	1708.01
201.75	1724.39
201.97	1640.42
202.19	1697.77
202.41	1714.15
202.63	1789.92
202.85	1638.38
203.07	1681.38
203.29	1691.62
203.51	1624.04
203.73	1695.72
203.95	1804.26
204.17	1722.34
204.39	1740.77
204.61	1683.43
204.83	1658.85
205.05	1712.10
205.27	1730.53
205.49	1867.75
205.71	1730.53
205.93	1656.81
206.15	1593.32
206.37	1708.01
206.59	1634.28
206.81	1640.42
207.03	1640.42
207.25	1650.66
207.47	1777.64
207.69	1705.96
207.91	1722.34
208.13	1755.11
208.34	1644.52
208.56	1593.32
208.78	1757.16
209.00	1720.29
209.22	1667.05
209.44	1740.77
209.66	1691.62
209.88	1652.71
210.10	1681.38
210.32	1656.81
210.54	1755.11
210.76	1595.37
210.98	1773.54
211.20	1609.70
211.42	1703.91
211.64	1779.68
211.86	1742.82
212.08	1787.88
212.30	1695.72
212.52	1652.71
212.74	1679.33
212.96	1636.33
213.17	1712.10
213.39	1677.29
213.61	1746.92
213.83	1673.19
214.05	1662.95
214.27	1716.20
214.49	1652.71
214.71	1751.01
214.93	1751.01
215.15	1740.77
215.37	1699.81
215.59	1638.38
215.81	1748.97
216.03	1783.78
216.24	1703.91
216.46	1624.04
216.68	1718.25
216.90	1648.61
217.12	1732.58
217.34	1671.14
217.56	1740.77
217.78	1826.79
218.00	1617.90
218.22	1658.85
218.44	1667.05
218.66	1693.67
218.87	1796.07
219.09	1576.94
219.31	1736.68
219.53	1720.29
219.75	1609.70
219.97	1701.86
220.19	1744.87
220.41	1691.62
220.63	1710.05
220.85	1767.40
221.06	1640.42
221.28	1761.25
221.50	1691.62
221.72	1628.14
221.94	1744.87
222.16	1697.77
222.38	1718.25
222.60	1705.96
222.82	1734.63
223.03	1716.20
223.25	1681.38
223.47	1736.68
223.69	1855.46
223.91	1800.16
224.13	1675.24
224.35	1671.14
224.57	1708.01
224.78	1738.73
225.00	1667.05
225.22	1671.14
225.44	1691.62
225.66	1683.43
225.88	1628.14
226.10	1667.05
226.32	1726.44
226.53	1710.05
226.75	1695.72
226.97	1673.19
227.19	1718.25
227.41	1642.47
227.63	1691.62
227.85	1568.74
228.06	1683.43
228.28	1689.57
228.50	1746.92
228.72	1626.09
228.94	1679.33
229.16	1544.17
229.37	1689.57
229.59	1550.31
229.81	1712.10
230.03	1675.24
230.25	1667.05
230.47	1662.95
230.69	1628.14
230.90	1734.63
231.12	1714.15
231.34	1722.34
231.56	1746.92
231.78	1665.00
232.00	1693.67
232.21	1681.38
232.43	1656.81
232.65	1576.94
232.87	1689.57
233.09	1708.01
233.30	1595.37
233.52	1710.05
233.74	1705.96
233.96	1570.79
234.18	1687.53
234.40	1697.77
234.61	1871.84
234.83	1603.56
235.05	1576.94
235.27	1814.50
235.49	1814.50
235.70	1705.96
235.92	1814.50
236.14	1679.33
236.36	1863.65
236.58	1636.33
236.79	1730.53
237.01	1697.77
237.23	1710.05
237.45	1757.16
237.67	1705.96
237.88	1677.29
238.10	1904.61
238.32	1566.70
238.54	1718.25
238.76	1624.04
238.97	1640.42
239.19	1669.09
239.41	1728.49
239.63	1748.97
239.85	1601.51
240.06	1783.78
240.28	1734.63
240.50	1726.44
240.72	1677.29
240.93	1783.78
241.15	1771.49
241.37	1695.72
241.59	1744.87
241.81	1660.90
242.02	1701.86
242.24	1718.25
242.46	1734.63
242.68	1689.57
242.89	1691.62
243.11	1773.54
243.33	1673.19
243.55	1740.77
243.76	1736.68
243.98	1636.33
244.20	1689.57
244.42	1714.15
244.64	1703.91
244.85	1605.61
245.07	1638.38
245.29	1724.39
245.51	1726.44
245.72	1726.44
245.94	1755.11
246.16	1677.29
246.38	1787.88
246.59	1611.75
246.81	1687.53
247.03	1615.85
247.24	1566.70
247.46	1681.38
247.68	1665.00
247.90	1746.92
248.11	1681.38
248.33	1732.58
248.55	1685.48
248.77	1669.09
248.98	1812.45
249.20	1769.44
249.42	1724.39
249.64	1722.34
249.85	1716.20
250.07	1671.14
250.29	1810.40
250.50	1695.72
250.72	1638.38
250.94	1720.29
251.16	1787.88
251.37	1789.92
251.59	1710.05
251.81	1673.19
252.02	1816.55
252.24	1634.28
252.46	1714.15
252.68	1671.14
252.89	1636.33
253.11	1605.61
253.33	1916.90
253.54	1753.06
253.76	1728.49
253.98	1785.83
254.20	1656.81
254.41	1630.18
254.63	1726.44
254.85	1695.72
255.06	1673.19
255.28	1691.62
255.50	1710.05
255.71	1689.57
255.93	1669.09
256.15	1740.77
256.36	1703.91
256.58	1728.49
256.80	1728.49
257.02	1738.73
257.23	1718.25
257.45	1699.81
257.67	1716.20
257.88	1673.19
258.10	1740.77
258.32	1763.30
258.53	1720.29
258.75	1798.12
258.97	1742.82
259.18	1710.05
259.40	1740.77
259.62	1763.30
259.83	1783.78
260.05	1718.25
260.27	2025.44
260.48	1757.16
260.70	1652.71
260.92	1689.57
261.13	1714.15
261.35	1751.01
261.57	1806.31
261.78	1656.81
262.00	1617.90
262.22	1730.53
262.43	1660.90
262.65	1644.52
262.86	1683.43
263.08	1814.50
263.30	1689.57
263.51	1619.94
263.73	1581.03
263.95	1744.87
264.16	1599.46
264.38	1667.05
264.60	1728.49
264.81	1755.11
265.03	1697.77
265.25	1691.62
265.46	1656.81
265.68	1802.21
265.89	1744.87
266.11	1562.60
266.33	1683.43
266.54	1712.10
266.76	1767.40
266.98	1701.86
267.19	1718.25
267.41	1722.34
267.62	1632.23
267.84	1607.66
268.06	1671.14
268.27	1685.48
268.49	1730.53
268.70	1761.25
268.92	1665.00
269.14	1658.85
269.35	1605.61
269.57	1615.85
269.79	1771.49
270.00	1617.90
270.22	1755.11
270.43	1646.57
270.65	1624.04
270.87	1679.33
271.08	1730.53
271.30	1703.91
271.51	1677.29
271.73	1710.05
271.95	1804.26
272.16	1695.72
272.38	1746.92
272.59	1685.48
272.81	1652.71
273.02	1654.76
273.24	1759.21
273.46	1812.45
273.67	1636.33
273.89	1593.32
274.10	1697.77
274.32	1789.92
274.54	1755.11
274.75	1683.43
274.97	1675.24
275.18	1757.16
275.40	1665.00
275.61	1662.95
275.83	1669.09
276.05	1589.22
276.26	1693.67
276.48	1757.16
276.69	1656.81
276.91	1615.85
277.12	1720.29
277.34	1716.20
277.55	1710.05
277.77	1724.39
277.99	1710.05
278.20	1718.25
278.42	1648.61
278.63	1632.23
278.85	1609.70
279.06	1658.85
279.28	1779.68
279.49	1705.96
279.71	1728.49
279.93	1689.57
280.14	1603.56
280.36	1624.04
280.57	1763.30
280.79	1843.17
281.00	1746.92
281.22	1628.14
281.43	1718.25
281.65	1597.42
281.86	1587.18
282.08	1697.77
282.29	1841.12
282.51	1638.38
282.73	1669.09
282.94	1576.94
283.16	1812.45
283.37	1865.70
283.59	1796.07
283.80	1779.68
284.02	1699.81
284.23	1787.88
284.45	1648.61
284.66	1619.94
284.88	1621.99
285.09	1740.77
285.31	1761.25
285.52	1716.20
285.74	1675.24
285.95	1761.25
286.17	1830.88
286.38	1681.38
286.60	1742.82
286.81	1617.90
287.03	1630.18
287.24	1679.33
287.46	1712.10
287.67	1746.92
287.89	1777.64
288.10	1724.39
288.32	1757.16
288.53	1746.92
288.75	1738.73
288.96	1738.73
289.18	1738.73
289.39	1687.53
289.61	1769.44
289.82	1837.03
290.04	1841.12
290.25	1642.47
290.47	1634.28
290.68	1703.91
290.90	1728.49
291.11	1581.03
291.33	1691.62
291.54	1632.23
291.76	1593.32
291.97	1693.67
292.18	1736.68
292.40	1624.04
292.61	1626.09
292.83	1873.89
293.04	1748.97
293.26	1660.90
293.47	1710.05
293.69	1632.23
293.90	1630.18
294.12	1730.53
294.33	1693.67
294.55	1767.40
294.76	1781.73
294.97	1722.34
295.19	1886.18
295.40	1652.71
295.62	1673.19
295.83	1769.44
296.05	1724.39
296.26	1665.00
296.48	1599.46
296.69	1630.18
296.90	1751.01
297.12	1753.06
297.33	1697.77
297.55	1691.62
297.76	1697.77
297.98	1767.40
298.19	1710.05
298.41	1740.77
298.62	1656.81
298.83	1859.56
299.05	1730.53
299.26	1654.76
299.48	1576.94
299.69	1695.72
299.90	1681.38
300.12	1624.04
300.33	1771.49
300.55	1705.96
300.76	1783.78
300.98	1650.66
301.19	1708.01
301.40	1646.57
301.62	1628.14
301.83	1734.63
302.05	1677.29
302.26	1726.44
302.47	1726.44
302.69	1624.04
302.90	1744.87
303.12	1574.89
303.33	1710.05
303.54	1884.13
303.76	1615.85
303.97	1714.15
304.19	1796.07
304.40	1701.86
304.61	1728.49
304.83	1753.06
305.04	1730.53
305.26	1742.82
305.47	1632.23
305.68	1746.92
305.90	1626.09
306.11	1767.40
306.33	1697.77
306.54	1681.38
306.75	1712.10
306.97	1628.14
307.18	1665.00
307.39	1605.61
307.61	1814.50
307.82	1675.24
308.04	1660.90
308.25	1640.42
308.46	1753.06
308.68	1695.72
308.89	1675.24
309.10	1740.77
309.32	1726.44
309.53	1642.47
309.74	1652.71
309.96	1640.42
310.17	1738.73
310.39	1634.28
310.60	1718.25
310.81	1683.43
311.03	1615.85
311.24	1761.25
311.45	1708.01
311.67	1863.65
311.88	1646.57
312.09	1642.47
312.31	1628.14
312.52	1671.14
312.73	1693.67
312.95	1617.90
313.16	1660.90
313.37	1781.73
313.59	1677.29
313.80	1773.54
314.01	1787.88
314.23	1703.91
314.44	1726.44
314.65	1669.09
314.87	1681.38
315.08	1685.48
315.29	1695.72
315.51	1671.14
315.72	1634.28
315.93	1794.02
316.15	1761.25
316.36	1695.72
316.57	1691.62
316.79	1710.05
317.00	1667.05
317.21	1746.92
317.43	1634.28
317.64	1726.44
317.85	1652.71
318.07	1683.43
318.28	1751.01
318.49	1775.59
318.70	1880.04
318.92	1839.08
319.13	1748.97
319.34	1832.93
319.56	1757.16
319.77	1757.16
319.98	1746.92
320.20	1751.01
320.41	1722.34
320.62	1781.73
320.83	1658.85
321.05	1748.97
321.26	1738.73
321.47	1681.38
321.69	1732.58
321.90	1644.52
322.11	1677.29
322.32	1710.05
322.54	1882.08
322.75	1667.05
322.96	1826.79
323.18	1576.94
323.39	1617.90
323.60	1658.85
323.81	1781.73
324.03	1656.81
324.24	1671.14
324.45	1734.63
324.66	1681.38
324.88	1761.25
325.09	1771.49
325.30	1624.04
325.52	1714.15
325.73	1742.82
325.94	1687.53
326.15	1662.95
326.37	1665.00
326.58	1710.05
326.79	1804.26
327.00	1689.57
327.22	1701.86
327.43	1677.29
327.64	1593.32
327.85	1767.40
328.07	1722.34
328.28	1796.07
328.49	1646.57
328.70	1660.90
328.92	1718.25
329.13	1724.39
329.34	1736.68
329.55	1814.50
329.76	1773.54
329.98	1689.57
330.19	1773.54
330.40	1716.20
330.61	1718.25
330.83	1646.57
331.04	1619.94
331.25	1685.48
331.46	1730.53
331.68	1644.52
331.89	1759.21
332.10	1630.18
332.31	1632.23
332.52	1722.34
332.74	1759.21
332.95	1615.85
333.16	1660.90
333.37	1718.25
333.58	1679.33
333.80	1619.94
334.01	1662.95
334.22	1570.79
334.43	1656.81
334.64	1669.09
334.86	1722.34
335.07	1621.99
335.28	1783.78
335.49	1679.33
335.70	1730.53
335.92	1783.78
336.13	1820.64
336.34	1669.09
336.55	1611.75
336.76	1693.67
336.98	1583.08
337.19	1732.58
337.40	1730.53
337.61	1837.03
337.82	1665.00
338.04	1695.72
338.25	1599.46
338.46	1644.52
338.67	1607.66
338.88	1640.42
339.09	1675.24
339.31	1656.81
339.52	1667.05
339.73	1640.42
339.94	1673.19
340.15	1705.96
340.36	1679.33
340.58	1710.05
340.79	1619.94
341.00	1689.57
341.21	1679.33
341.42	1812.45
341.63	1732.58
341.85	1753.06
342.06	1705.96
342.27	1724.39
342.48	1697.77
342.69	1589.22
342.90	1755.11
343.12	1746.92
343.33	1675.24
343.54	1718.25
343.75	1796.07
343.96	1677.29
344.17	1652.71
344.38	1693.67
344.60	1638.38
344.81	1597.42
345.02	1658.85
345.23	1761.25
345.44	1787.88
345.65	1699.81
345.86	1726.44
346.07	1685.48
346.29	1595.37
346.50	1718.25
346.71	1742.82
346.92	1767.40
347.13	1753.06
347.34	1669.09
347.55	1701.86
347.76	1765.35
347.98	1617.90
348.19	1689.57
348.40	1830.88
348.61	1617.90
348.82	1798.12
349.03	1726.44
349.24	1634.28
349.45	1837.03
349.66	1605.61
349.88	1773.54
350.09	1744.87
350.30	1746.92
350.51	1746.92
350.72	1724.39
350.93	1701.86
351.14	1710.05
351.35	1742.82
351.56	1734.63
351.77	1665.00
351.99	1619.94
352.20	1726.44
352.41	1802.21
352.62	1642.47
352.83	1677.29
353.04	1703.91
353.25	1660.90
353.46	1773.54
353.67	1826.79
353.88	1566.70
354.09	1699.81
354.30	1722.34
354.52	1759.21
354.73	1673.19
354.94	1687.53
355.15	1722.34
355.36	1787.88
355.57	1673.19
355.78	1757.16
355.99	1638.38
356.20	1730.53
356.41	1744.87
356.62	1740.77
356.83	1722.34
357.04	1757.16
357.25	1603.56
357.46	1660.90
357.68	1611.75
357.89	1665.00
358.10	1673.19
358.31	1722.34
358.52	1576.94
358.73	1675.24
358.94	1583.08
359.15	1726.44
359.36	1730.53
359.57	1705.96
359.78	1656.81
359.99	1738.73
360.20	1650.66
360.41	1638.38
360.62	1710.05
360.83	1732.58
361.04	1730.53
361.25	1746.92
361.46	1808.36
361.67	1718.25
361.88	1759.21
362.09	1656.81
362.30	1646.57
362.51	1710.05
362.72	1703.91
362.93	1753.06
363.14	1714.15
363.35	1771.49
363.56	1638.38
363.78	1701.86
363.99	1716.20
364.20	1660.90
364.41	1746.92
364.62	1804.26
364.83	1722.34
365.04	1613.80
365.25	1689.57
365.46	1787.88
365.67	1652.71
365.88	1636.33
366.09	1642.47
366.30	1660.90
366.51	1673.19
366.72	1644.52
366.93	1652.71
367.14	1691.62
367.35	1712.10
367.56	1677.29
367.77	1724.39
367.98	1669.09
368.18	1787.88
368.39	1722.34
368.60	1697.77
368.81	1699.81
369.02	1634.28
369.23	1671.14
369.44	1652.71
369.65	1597.42
369.86	1732.58
370.07	1656.81
370.28	1656.81
370.49	1699.81
370.70	1751.01
370.91	1720.29
371.12	1705.96
371.33	1748.97
371.54	1628.14
371.75	1845.22
371.96	1619.94
372.17	1744.87
372.38	1689.57
372.59	1757.16
372.80	1691.62
373.01	1683.43
373.22	1796.07
373.43	1652.71
373.64	1607.66
373.85	1726.44
374.06	1779.68
374.26	1736.68
374.47	1726.44
374.68	1798.12
374.89	1691.62
375.10	1607.66
375.31	1820.64
375.52	1753.06
375.73	1673.19
375.94	1665.00
376.15	1779.68
376.36	1712.10
376.57	1691.62
376.78	1710.05
376.99	1732.58
377.20	1763.30
377.40	1640.42
377.61	1791.97
377.82	1673.19
378.03	1847.27
378.24	1771.49
378.45	1654.76
378.66	1718.25
378.87	1587.18
379.08	1642.47
379.29	1703.91
379.50	1757.16
379.71	1669.09
379.91	1804.26
380.12	1642.47
380.33	1673.19
380.54	1771.49
380.75	1642.47
380.96	1740.77
381.17	1730.53
381.38	1683.43
381.59	1689.57
381.80	1693.67
382.00	1798.12
382.21	1716.20
382.42	1884.13
382.63	1875.94
382.84	1746.92
383.05	1720.29
383.26	1812.45
383.47	1748.97
383.68	1679.33
383.88	1691.62
384.09	1693.67
384.30	1791.97
384.51	1681.38
384.72	1626.09
384.93	1673.19
385.14	1593.32
385.35	1794.02
385.55	1683.43
385.76	1806.31
385.97	1767.40
386.18	1636.33
386.39	1716.20
386.60	1685.48
386.81	1695.72
387.02	1626.09
387.22	1591.27
387.43	1685.48
387.64	1802.21
387.85	1800.16
388.06	2199.52
388.27	4302.78
388.48	6789.02
388.68	8136.58
388.89	9518.96
389.10	9645.93
389.31	8605.56
389.52	7552.91
389.73	6723.48
389.93	6385.57
390.14	5750.70
390.35	5347.25
390.56	4659.13
390.77	3751.88
390.98	3037.14
391.18	2635.74
391.39	2064.35
391.60	1791.97
391.81	1830.88
392.02	1679.33
392.23	1849.32
392.43	1708.01
392.64	1796.07
392.85	1753.06
393.06	1757.16
393.27	1738.73
393.47	1603.56
393.68	1746.92
393.89	1734.63
394.10	1757.16
394.31	1710.05
394.52	1650.66
394.72	1748.97
394.93	1765.35
395.14	1665.00
395.35	1728.49
395.56	1632.23
395.76	1734.63
395.97	1708.01
396.18	1837.03
396.39	1865.70
396.60	2084.83
396.80	1900.52
397.01	1804.26
397.22	1714.15
397.43	1830.88
397.64	1697.77
397.84	1839.08
398.05	1873.89
398.26	1791.97
398.47	1832.93
398.67	1761.25
398.88	1740.77
399.09	1734.63
399.30	1732.58
399.51	1699.81
399.71	1673.19
399.92	1708.01
400.13	1783.78
400.34	1685.48
400.54	1673.19
400.75	1812.45
400.96	1705.96
401.17	1777.64
401.37	1748.97
401.58	1714.15
401.79	1675.24
402.00	1828.84
402.21	2033.63
402.41	1931.23
402.62	1972.19
402.83	1972.19
403.04	1943.52
403.24	2060.26
403.45	1816.55
403.66	1914.85
403.87	1914.85
404.07	1920.99
404.28	1886.18
404.49	1902.56
404.70	1791.97
404.90	1777.64
405.11	1783.78
405.32	1699.81
405.52	1673.19
405.73	1697.77
405.94	1632.23
406.15	1703.91
406.35	1845.22
406.56	1755.11
406.77	1697.77
406.98	1714.15
407.18	1703.91
407.39	1771.49
407.60	1630.18
407.80	1773.54
408.01	1693.67
408.22	1718.25
408.43	1646.57
408.63	1718.25
408.84	1687.53
409.05	1748.97
409.25	1650.66
409.46	1626.09
409.67	1710.05
409.88	1703.91
410.08	1671.14
410.29	1730.53
410.50	1751.01
410.70	1748.97
410.91	1665.00
411.12	1710.05
411.32	1656.81
411.53	1652.71
411.74	1828.84
411.95	1837.03
412.15	1701.86
412.36	1781.73
412.57	1830.88
412.77	1796.07
412.98	1736.68
413.19	1701.86
413.39	1734.63
413.60	1767.40
413.81	1759.21
414.01	1767.40
414.22	1771.49
414.43	1755.11
414.63	1677.29
414.84	1775.59
415.05	1724.39
415.25	1615.85
415.46	1734.63
415.67	1683.43
415.87	1724.39
416.08	1732.58
416.29	1677.29
416.49	1689.57
416.70	1734.63
416.91	1697.77
417.11	1671.14
417.32	1759.21
417.53	1687.53
417.73	1755.11
417.94	1644.52
418.15	1722.34
418.35	1818.60
418.56	1771.49
418.77	1900.52
418.97	1746.92
419.18	1671.14
419.38	1599.46
419.59	1656.81
419.80	1712.10
420.00	1695.72
420.21	1685.48
420.42	1822.69
420.62	1626.09
420.83	1656.81
421.04	1679.33
421.24	1689.57
421.45	1791.97
421.65	1699.81
421.86	1626.09
422.07	1832.93
422.27	1787.88
422.48	1693.67
422.69	1716.20
422.89	1738.73
423.10	1691.62
423.30	1599.46
423.51	1740.77
423.72	1689.57
423.92	1736.68
424.13	1630.18
424.33	1765.35
424.54	1804.26
424.75	1689.57
424.95	1794.02
425.16	1753.06
425.36	1699.81
425.57	1787.88
425.78	1767.40
425.98	1791.97
426.19	1712.10
426.39	1611.75
426.60	1632.23
426.81	1812.45
427.01	1699.81
427.22	1730.53
427.42	1578.98
427.63	1587.18
427.83	1736.68
428.04	1748.97
428.25	1798.12
428.45	1701.86
428.66	1718.25
428.86	1769.44
429.07	1671.14
429.28	1673.19
429.48	1654.76
429.69	1591.27
429.89	1701.86
430.10	1628.14
430.30	1693.67
430.51	1802.21
430.71	1695.72
430.92	1681.38
431.13	1630.18
431.33	1722.34
431.54	1673.19
431.74	1841.12
431.95	1806.31
432.15	1597.42
432.36	1816.55
432.56	1742.82
432.77	1812.45
432.98	1720.29
433.18	1742.82
433.39	1740.77
433.59	1697.77
433.80	1851.36
434.00	1841.12
434.21	1632.23
434.41	1722.34
434.62	1873.89
434.82	1628.14
435.03	1630.18
435.23	1746.92
435.44	1624.04
435.64	1767.40
435.85	1722.34
436.06	1789.92
436.26	1789.92
436.47	1662.95
436.67	1646.57
436.88	1712.10
437.08	1771.49
437.29	1837.03
437.49	1718.25
437.70	1753.06
437.90	1675.24
438.11	1877.99
438.31	1736.68
438.52	1818.60
438.72	1849.32
438.93	1914.85
439.13	1755.11
439.34	1832.93
439.54	1783.78
439.75	1771.49
439.95	1771.49
440.16	1656.81
440.36	1708.01
440.57	1718.25
440.77	1763.30
440.98	1753.06
441.18	1732.58
441.39	1626.09
441.59	1695.72
441.80	1812.45
442.00	1755.11
442.21	1808.36
442.41	1642.47
442.62	1779.68
442.82	1677.29
443.02	1740.77
443.23	1759.21
443.43	1751.01
443.64	1779.68
443.84	1626.09
444.05	1775.59
444.25	1671.14
444.46	1705.96
444.66	1736.68
444.87	1816.55
445.07	1607.66
445.28	1775.59
445.48	1755.11
445.69	1765.35
445.89	1920.99
446.09	1658.85
446.30	2029.54
446.50	2629.59
446.71	3659.72
446.91	4345.79
447.12	4704.18
447.32	4773.82
447.53	4337.60
447.73	3913.67
447.93	3497.93
448.14	3262.41
448.34	3157.97
448.55	2926.55
448.75	2805.72
448.96	2674.65
449.16	2369.50
449.36	2318.30
449.57	2093.02
449.77	1869.80
449.98	1820.64
450.18	1875.94
450.39	1769.44
450.59	1820.64
450.79	1726.44
451.00	1701.86
451.20	1744.87
451.41	1681.38
451.61	1714.15
451.81	1761.25
452.02	1732.58
452.22	1681.38
452.43	1683.43
452.63	1679.33
