SpectraSuite Data File
++++++++++++++++++++++++++++++++++++
Date: Mon Jun 06 15:44:17 CEST 2016
User: root
Dark Spectrum Present: No
Reference Spectrum Present: No
Number of Sampled Component Spectra: 1
Spectrometers: USB4C02835
Integration Time (usec): 100000 (USB4C02835)
Spectra Averaged: 1 (USB4C02835)
Boxcar Smoothing: 0 (USB4C02835)
Correct for Electrical Dark: No (USB4C02835)
Strobe/Lamp Enabled: No (USB4C02835)
Correct for Detector Non-linearity: No (USB4C02835)
Correct for Stray Light: No (USB4C02835)
Number of Pixels in Processed Spectrum: 3648
>>>>>Begin Processed Spectral Data<<<<<
177.47	1456.11
177.69	1456.11
177.91	1456.11
178.13	1521.64
178.36	1435.63
178.58	1630.18
178.80	1724.39
179.02	1591.27
179.24	1687.53
179.46	1669.09
179.68	1773.54
179.90	1763.30
180.13	1744.87
180.35	1652.71
180.57	1681.38
180.79	1708.01
181.01	1693.67
181.23	1761.25
181.45	1898.47
181.67	1708.01
181.90	1802.21
182.12	1697.77
182.34	1658.85
182.56	1755.11
182.78	1662.95
183.00	1769.44
183.22	1742.82
183.44	1638.38
183.66	1732.58
183.89	1783.78
184.11	1761.25
184.33	1732.58
184.55	1787.88
184.77	1722.34
184.99	1777.64
185.21	1716.20
185.43	1865.70
185.65	1673.19
185.87	1673.19
186.10	1894.37
186.32	1834.98
186.54	1720.29
186.76	1697.77
186.98	1710.05
187.20	1681.38
187.42	1683.43
187.64	1636.33
187.86	1730.53
188.08	1767.40
188.30	1794.02
188.52	1701.86
188.75	1738.73
188.97	1783.78
189.19	1744.87
189.41	1652.71
189.63	1798.12
189.85	1632.23
190.07	1759.21
190.29	1613.80
190.51	1685.48
190.73	1605.61
190.95	1800.16
191.17	1679.33
191.39	1675.24
191.61	1720.29
191.84	1734.63
192.06	1710.05
192.28	1617.90
192.50	1929.19
192.72	1751.01
192.94	1675.24
193.16	1730.53
193.38	1753.06
193.60	1595.37
193.82	1722.34
194.04	1683.43
194.26	1746.92
194.48	1689.57
194.70	1662.95
194.92	1714.15
195.14	1769.44
195.36	1712.10
195.58	1738.73
195.80	1646.57
196.02	1689.57
196.24	1705.96
196.46	1687.53
196.69	1720.29
196.91	1820.64
197.13	1654.76
197.35	1632.23
197.57	1777.64
197.79	1744.87
198.01	1726.44
198.23	1722.34
198.45	1681.38
198.67	1677.29
198.89	1660.90
199.11	1736.68
199.33	1689.57
199.55	1574.89
199.77	1712.10
199.99	1763.30
200.21	1648.61
200.43	1656.81
200.65	1615.85
200.87	1615.85
201.09	1720.29
201.31	1763.30
201.53	1759.21
201.75	1716.20
201.97	1718.25
202.19	1677.29
202.41	1703.91
202.63	1845.22
202.85	1716.20
203.07	1734.63
203.29	1712.10
203.51	1621.99
203.73	1650.66
203.95	1853.41
204.17	1705.96
204.39	1748.97
204.61	1724.39
204.83	1689.57
205.05	1746.92
205.27	1720.29
205.49	1855.46
205.71	1773.54
205.93	1546.22
206.15	1669.09
206.37	1714.15
206.59	1693.67
206.81	1624.04
207.03	1718.25
207.25	1628.14
207.47	1722.34
207.69	1638.38
207.91	1849.32
208.13	1787.88
208.34	1691.62
208.56	1738.73
208.78	1798.12
209.00	1734.63
209.22	1591.27
209.44	1755.11
209.66	1677.29
209.88	1693.67
210.10	1697.77
210.32	1693.67
210.54	1808.36
210.76	1728.49
210.98	1808.36
211.20	1583.08
211.42	1718.25
211.64	1834.98
211.86	1746.92
212.08	1734.63
212.30	1763.30
212.52	1689.57
212.74	1796.07
212.96	1734.63
213.17	1804.26
213.39	1775.59
213.61	1771.49
213.83	1667.05
214.05	1710.05
214.27	1712.10
214.49	1683.43
214.71	1660.90
214.93	1746.92
215.15	1648.61
215.37	1773.54
215.59	1626.09
215.81	1771.49
216.03	1824.74
216.24	1755.11
216.46	1753.06
216.68	1751.01
216.90	1771.49
217.12	1771.49
217.34	1802.21
217.56	1732.58
217.78	1740.77
218.00	1732.58
218.22	1728.49
218.44	1742.82
218.66	1740.77
218.87	1824.74
219.09	1607.66
219.31	1798.12
219.53	1748.97
219.75	1658.85
219.97	1771.49
220.19	1724.39
220.41	1656.81
220.63	1837.03
220.85	1726.44
221.06	1748.97
221.28	1718.25
221.50	1724.39
221.72	1687.53
221.94	1667.05
222.16	1746.92
222.38	1806.31
222.60	1732.58
222.82	1705.96
223.03	1675.24
223.25	1642.47
223.47	1703.91
223.69	1828.84
223.91	1703.91
224.13	1632.23
224.35	1710.05
224.57	1732.58
224.78	1757.16
225.00	1662.95
225.22	1720.29
225.44	1681.38
225.66	1732.58
225.88	1708.01
226.10	1697.77
226.32	1712.10
226.53	1781.73
226.75	1755.11
226.97	1675.24
227.19	1714.15
227.41	1730.53
227.63	1705.96
227.85	1617.90
228.06	1701.86
228.28	1687.53
228.50	1742.82
228.72	1654.76
228.94	1648.61
229.16	1626.09
229.37	1699.81
229.59	1685.48
229.81	1757.16
230.03	1701.86
230.25	1621.99
230.47	1617.90
230.69	1599.46
230.90	1734.63
231.12	1589.22
231.34	1748.97
231.56	1800.16
231.78	1605.61
232.00	1646.57
232.21	1732.58
232.43	1650.66
232.65	1587.18
232.87	1748.97
233.09	1687.53
233.30	1714.15
233.52	1845.22
233.74	1691.62
233.96	1701.86
234.18	1763.30
234.40	1669.09
234.61	1920.99
234.83	1662.95
235.05	1628.14
235.27	1830.88
235.49	1791.97
235.70	1654.76
235.92	1816.55
236.14	1751.01
236.36	1914.85
236.58	1650.66
236.79	1763.30
237.01	1796.07
237.23	1660.90
237.45	1806.31
237.67	1648.61
237.88	1767.40
238.10	1779.68
238.32	1578.98
238.54	1763.30
238.76	1714.15
238.97	1656.81
239.19	1642.47
239.41	1791.97
239.63	1732.58
239.85	1652.71
240.06	1693.67
240.28	1705.96
240.50	1730.53
240.72	1742.82
240.93	1726.44
241.15	1861.60
241.37	1728.49
241.59	1746.92
241.81	1632.23
242.02	1718.25
242.24	1710.05
242.46	1753.06
242.68	1724.39
242.89	1755.11
243.11	1748.97
243.33	1726.44
243.55	1740.77
243.76	1730.53
243.98	1658.85
244.20	1722.34
244.42	1738.73
244.64	1669.09
244.85	1615.85
245.07	1712.10
245.29	1841.12
245.51	1753.06
245.72	1818.60
245.94	1779.68
246.16	1703.91
246.38	1755.11
246.59	1691.62
246.81	1724.39
247.03	1656.81
247.24	1611.75
247.46	1701.86
247.68	1757.16
247.90	1646.57
248.11	1566.70
248.33	1755.11
248.55	1744.87
248.77	1740.77
248.98	1761.25
249.20	1877.99
249.42	1632.23
249.64	1699.81
249.85	1708.01
250.07	1667.05
250.29	1763.30
250.50	1697.77
250.72	1607.66
250.94	1775.59
251.16	1771.49
251.37	1705.96
251.59	1751.01
251.81	1652.71
252.02	1839.08
252.24	1693.67
252.46	1830.88
252.68	1714.15
252.89	1669.09
253.11	1583.08
253.33	1804.26
253.54	1796.07
253.76	1710.05
253.98	1644.52
254.20	1669.09
254.41	1607.66
254.63	1708.01
254.85	1671.14
255.06	1701.86
255.28	1734.63
255.50	1757.16
255.71	1656.81
255.93	1685.48
256.15	1703.91
256.36	1789.92
256.58	1660.90
256.80	1763.30
257.02	1687.53
257.23	1669.09
257.45	1779.68
257.67	1796.07
257.88	1603.56
258.10	1730.53
258.32	1732.58
258.53	1675.24
258.75	1810.40
258.97	1636.33
259.18	1710.05
259.40	1693.67
259.62	1755.11
259.83	1748.97
260.05	1816.55
260.27	2041.82
260.48	1718.25
260.70	1648.61
260.92	1722.34
261.13	1742.82
261.35	1695.72
261.57	1695.72
261.78	1640.42
262.00	1658.85
262.22	1738.73
262.43	1640.42
262.65	1722.34
262.86	1640.42
263.08	1925.09
263.30	1787.88
263.51	1542.12
263.73	1607.66
263.95	1843.17
264.16	1671.14
264.38	1605.61
264.60	1794.02
264.81	1718.25
265.03	1755.11
265.25	1781.73
265.46	1705.96
265.68	1753.06
265.89	1755.11
266.11	1681.38
266.33	1748.97
266.54	1771.49
266.76	1730.53
266.98	1753.06
267.19	1763.30
267.41	1769.44
267.62	1673.19
267.84	1656.81
268.06	1726.44
268.27	1728.49
268.49	1779.68
268.70	1783.78
268.92	1738.73
269.14	1640.42
269.35	1677.29
269.57	1630.18
269.79	1753.06
270.00	1726.44
270.22	1824.74
270.43	1621.99
270.65	1656.81
270.87	1732.58
271.08	1720.29
271.30	1771.49
271.51	1691.62
271.73	1765.35
271.95	1822.69
272.16	1728.49
272.38	1775.59
272.59	1718.25
272.81	1771.49
273.02	1630.18
273.24	1705.96
273.46	1738.73
273.67	1728.49
273.89	1677.29
274.10	1699.81
274.32	1806.31
274.54	1771.49
274.75	1759.21
274.97	1689.57
275.18	1757.16
275.40	1769.44
275.61	1701.86
275.83	1753.06
276.05	1624.04
276.26	1687.53
276.48	1728.49
276.69	1722.34
276.91	1701.86
277.12	1826.79
277.34	1726.44
277.55	1724.39
277.77	1732.58
277.99	1708.01
278.20	1638.38
278.42	1642.47
278.63	1710.05
278.85	1681.38
279.06	1609.70
279.28	1626.09
279.49	1822.69
279.71	1689.57
279.93	1699.81
280.14	1681.38
280.36	1742.82
280.57	1853.41
280.79	1695.72
281.00	1644.52
281.22	1689.57
281.43	1722.34
281.65	1624.04
281.86	1658.85
282.08	1705.96
282.29	1808.36
282.51	1665.00
282.73	1681.38
282.94	1615.85
283.16	1759.21
283.37	1753.06
283.59	1773.54
283.80	1816.55
284.02	1669.09
284.23	1673.19
284.45	1685.48
284.66	1687.53
284.88	1728.49
285.09	1757.16
285.31	1765.35
285.52	1691.62
285.74	1665.00
285.95	1701.86
286.17	1734.63
286.38	1814.50
286.60	1685.48
286.81	1751.01
287.03	1638.38
287.24	1683.43
287.46	1716.20
287.67	1728.49
287.89	1789.92
288.10	1695.72
288.32	1708.01
288.53	1794.02
288.75	1722.34
288.96	1791.97
289.18	1724.39
289.39	1638.38
289.61	1791.97
289.82	1771.49
290.04	1804.26
290.25	1656.81
290.47	1603.56
290.68	1660.90
290.90	1779.68
291.11	1638.38
291.33	1773.54
291.54	1667.05
291.76	1730.53
291.97	1740.77
292.18	1787.88
292.40	1677.29
292.61	1726.44
292.83	1800.16
293.04	1691.62
293.26	1726.44
293.47	1718.25
293.69	1697.77
293.90	1755.11
294.12	1726.44
294.33	1734.63
294.55	1800.16
294.76	1746.92
294.97	1720.29
295.19	1828.84
295.40	1636.33
295.62	1724.39
295.83	1753.06
296.05	1630.18
296.26	1837.03
296.48	1718.25
296.69	1710.05
296.90	1716.20
297.12	1775.59
297.33	1812.45
297.55	1691.62
297.76	1695.72
297.98	1802.21
298.19	1767.40
298.41	1708.01
298.62	1609.70
298.83	1767.40
299.05	1705.96
299.26	1742.82
299.48	1740.77
299.69	1738.73
299.90	1787.88
300.12	1687.53
300.33	1732.58
300.55	1748.97
300.76	1794.02
300.98	1646.57
301.19	1789.92
301.40	1697.77
301.62	1669.09
301.83	1687.53
302.05	1736.68
302.26	1722.34
302.47	1695.72
302.69	1619.94
302.90	1705.96
303.12	1576.94
303.33	1738.73
303.54	1800.16
303.76	1673.19
303.97	1701.86
304.19	1875.94
304.40	1601.51
304.61	1759.21
304.83	1947.62
305.04	1755.11
305.26	1751.01
305.47	1722.34
305.68	1728.49
305.90	1634.28
306.11	1808.36
306.33	1710.05
306.54	1652.71
306.75	1720.29
306.97	1695.72
307.18	1691.62
307.39	1703.91
307.61	1769.44
307.82	1771.49
308.04	1716.20
308.25	1679.33
308.46	1744.87
308.68	1757.16
308.89	1705.96
309.10	1794.02
309.32	1734.63
309.53	1763.30
309.74	1757.16
309.96	1669.09
310.17	1763.30
310.39	1708.01
310.60	1714.15
310.81	1740.77
311.03	1576.94
311.24	1761.25
311.45	1742.82
311.67	1820.64
311.88	1726.44
312.09	1773.54
312.31	1710.05
312.52	1658.85
312.73	1726.44
312.95	1599.46
313.16	1759.21
313.37	1771.49
313.59	1738.73
313.80	1662.95
314.01	1773.54
314.23	1759.21
314.44	1720.29
314.65	1634.28
314.87	1667.05
315.08	1675.24
315.29	1769.44
315.51	1652.71
315.72	1613.80
315.93	1791.97
316.15	1763.30
316.36	1667.05
316.57	1679.33
316.79	1763.30
317.00	1697.77
317.21	1785.83
317.43	1683.43
317.64	1644.52
317.85	1638.38
318.07	1652.71
318.28	1710.05
318.49	1785.83
318.70	1988.58
318.92	1859.56
319.13	1830.88
319.34	1908.71
319.56	1802.21
319.77	1740.77
319.98	1828.84
320.20	1904.61
320.41	1726.44
320.62	1714.15
320.83	1712.10
321.05	1847.27
321.26	1710.05
321.47	1685.48
321.69	1757.16
321.90	1595.37
322.11	1636.33
322.32	1724.39
322.54	1812.45
322.75	1658.85
322.96	1763.30
323.18	1632.23
323.39	1619.94
323.60	1613.80
323.81	1773.54
324.03	1726.44
324.24	1673.19
324.45	1734.63
324.66	1642.47
324.88	1734.63
325.09	1826.79
325.30	1755.11
325.52	1689.57
325.73	1794.02
325.94	1654.76
326.15	1650.66
326.37	1691.62
326.58	1769.44
326.79	1832.93
327.00	1662.95
327.22	1769.44
327.43	1732.58
327.64	1705.96
327.85	1726.44
328.07	1722.34
328.28	1789.92
328.49	1660.90
328.70	1755.11
328.92	1740.77
329.13	1697.77
329.34	1728.49
329.55	1800.16
329.76	1783.78
329.98	1671.14
330.19	1796.07
330.40	1720.29
330.61	1691.62
330.83	1779.68
331.04	1597.42
331.25	1746.92
331.46	1630.18
331.68	1640.42
331.89	1775.59
332.10	1677.29
332.31	1656.81
332.52	1658.85
332.74	1761.25
332.95	1624.04
333.16	1683.43
333.37	1712.10
333.58	1691.62
333.80	1716.20
334.01	1652.71
334.22	1761.25
334.43	1703.91
334.64	1626.09
334.86	1718.25
335.07	1730.53
335.28	1839.08
335.49	1578.98
335.70	1812.45
335.92	1730.53
336.13	1896.42
336.34	1720.29
336.55	1716.20
336.76	1701.86
336.98	1654.76
337.19	1742.82
337.40	1783.78
337.61	1867.75
337.82	1714.15
338.04	1703.91
338.25	1687.53
338.46	1650.66
338.67	1673.19
338.88	1675.24
339.09	1646.57
339.31	1695.72
339.52	1568.74
339.73	1708.01
339.94	1662.95
340.15	1814.50
340.36	1710.05
340.58	1665.00
340.79	1638.38
341.00	1814.50
341.21	1564.65
341.42	1816.55
341.63	1738.73
341.85	1783.78
342.06	1732.58
342.27	1671.14
342.48	1791.97
342.69	1578.98
342.90	1812.45
343.12	1800.16
343.33	1716.20
343.54	1726.44
343.75	1726.44
343.96	1722.34
344.17	1689.57
344.38	1734.63
344.60	1714.15
344.81	1640.42
345.02	1648.61
345.23	1726.44
345.44	1843.17
345.65	1726.44
345.86	1808.36
346.07	1699.81
346.29	1732.58
346.50	1726.44
346.71	1654.76
346.92	1816.55
347.13	1806.31
347.34	1669.09
347.55	1648.61
347.76	1757.16
347.98	1642.47
348.19	1675.24
348.40	1757.16
348.61	1738.73
348.82	1779.68
349.03	1746.92
349.24	1642.47
349.45	1740.77
349.66	1665.00
349.88	1787.88
350.09	1673.19
350.30	1851.36
350.51	1755.11
350.72	1808.36
350.93	1722.34
351.14	1691.62
351.35	1771.49
351.56	1652.71
351.77	1724.39
351.99	1648.61
352.20	1796.07
352.41	1748.97
352.62	1560.55
352.83	1673.19
353.04	1660.90
353.25	1626.09
353.46	1697.77
353.67	1816.55
353.88	1630.18
354.09	1740.77
354.30	1708.01
354.52	1794.02
354.73	1728.49
354.94	1675.24
355.15	1708.01
355.36	1798.12
355.57	1669.09
355.78	1804.26
355.99	1640.42
356.20	1648.61
356.41	1808.36
356.62	1765.35
356.83	1714.15
357.04	1748.97
357.25	1617.90
357.46	1697.77
357.68	1636.33
357.89	1710.05
358.10	1697.77
358.31	1718.25
358.52	1693.67
358.73	1611.75
358.94	1619.94
359.15	1644.52
359.36	1746.92
359.57	1687.53
359.78	1681.38
359.99	1705.96
360.20	1667.05
360.41	1714.15
360.62	1812.45
360.83	1818.60
361.04	1748.97
361.25	1718.25
361.46	1732.58
361.67	1738.73
361.88	1701.86
362.09	1740.77
362.30	1783.78
362.51	1677.29
362.72	1718.25
362.93	1722.34
363.14	1767.40
363.35	1628.14
363.56	1675.24
363.78	1767.40
363.99	1736.68
364.20	1683.43
364.41	1767.40
364.62	1789.92
364.83	1697.77
365.04	1687.53
365.25	1783.78
365.46	1888.23
365.67	1632.23
365.88	1646.57
366.09	1716.20
366.30	1679.33
366.51	1783.78
366.72	1617.90
366.93	1669.09
367.14	1699.81
367.35	1789.92
367.56	1689.57
367.77	1789.92
367.98	1822.69
368.18	1703.91
368.39	1759.21
368.60	1695.72
368.81	1767.40
369.02	1705.96
369.23	1710.05
369.44	1599.46
369.65	1650.66
369.86	1699.81
370.07	1771.49
370.28	1603.56
370.49	1693.67
370.70	1722.34
370.91	1656.81
371.12	1673.19
371.33	1757.16
371.54	1669.09
371.75	1787.88
371.96	1587.18
372.17	1697.77
372.38	1732.58
372.59	1769.44
372.80	1697.77
373.01	1697.77
373.22	1728.49
373.43	1732.58
373.64	1738.73
373.85	1822.69
374.06	1787.88
374.26	1826.79
374.47	1724.39
374.68	1775.59
374.89	1705.96
375.10	1693.67
375.31	1785.83
375.52	1767.40
375.73	1675.24
375.94	1689.57
376.15	1808.36
376.36	1695.72
376.57	1658.85
376.78	1632.23
376.99	1824.74
377.20	1873.89
377.40	1619.94
377.61	1769.44
377.82	1673.19
378.03	1720.29
378.24	1744.87
378.45	1705.96
378.66	1708.01
378.87	1578.98
379.08	1581.03
379.29	1673.19
379.50	1818.60
379.71	1757.16
379.91	1746.92
380.12	1675.24
380.33	1675.24
380.54	1755.11
380.75	1693.67
380.96	1732.58
381.17	1789.92
381.38	1710.05
381.59	1724.39
381.80	1701.86
382.00	1886.18
382.21	1763.30
382.42	1812.45
382.63	1927.14
382.84	1755.11
383.05	1779.68
383.26	1796.07
383.47	1726.44
383.68	1746.92
383.88	1751.01
384.09	1789.92
384.30	1857.51
384.51	1794.02
384.72	1732.58
384.93	1710.05
385.14	1763.30
385.35	1746.92
385.55	1697.77
385.76	1812.45
385.97	1802.21
386.18	1599.46
386.39	1691.62
386.60	1730.53
386.81	1693.67
387.02	1652.71
387.22	1705.96
387.43	1740.77
387.64	1763.30
387.85	1890.28
388.06	2263.01
388.27	4267.97
388.48	6786.97
388.68	8218.50
388.89	9310.07
389.10	9805.67
389.31	8365.95
389.52	7423.89
389.73	6756.25
389.93	6068.13
390.14	5814.18
390.35	5128.11
390.56	4495.29
390.77	3729.35
390.98	2904.02
391.18	2519.00
391.39	2074.59
391.60	1830.88
391.81	1857.51
392.02	1767.40
392.23	1869.80
392.43	1753.06
392.64	1861.60
392.85	1726.44
393.06	1787.88
393.27	1775.59
393.47	1667.05
393.68	1683.43
393.89	1679.33
394.10	1763.30
394.31	1693.67
394.52	1677.29
394.72	1624.04
394.93	1746.92
395.14	1626.09
395.35	1808.36
395.56	1665.00
395.76	1732.58
395.97	1800.16
396.18	1873.89
396.39	1837.03
396.60	2066.40
396.80	1851.36
397.01	1828.84
397.22	1918.95
397.43	1888.23
397.64	1759.21
397.84	1822.69
398.05	1810.40
398.26	1763.30
398.47	1738.73
398.67	1812.45
398.88	1748.97
399.09	1796.07
399.30	1693.67
399.51	1781.73
399.71	1681.38
399.92	1728.49
400.13	1699.81
400.34	1742.82
400.54	1726.44
400.75	1798.12
400.96	1736.68
401.17	1841.12
401.37	1751.01
401.58	1785.83
401.79	1736.68
402.00	1953.76
402.21	1933.28
402.41	1955.81
402.62	1937.38
402.83	2050.02
403.04	1970.15
403.24	2058.21
403.45	1863.65
403.66	1877.99
403.87	1875.94
404.07	1914.85
404.28	1873.89
404.49	1865.70
404.70	1787.88
404.90	1751.01
405.11	1767.40
405.32	1746.92
405.52	1607.66
405.73	1720.29
405.94	1658.85
406.15	1705.96
406.35	1775.59
406.56	1794.02
406.77	1800.16
406.98	1783.78
407.18	1681.38
407.39	1841.12
407.60	1744.87
407.80	1800.16
408.01	1669.09
408.22	1769.44
408.43	1667.05
408.63	1710.05
408.84	1763.30
409.05	1796.07
409.25	1667.05
409.46	1669.09
409.67	1685.48
409.88	1716.20
410.08	1769.44
410.29	1775.59
410.50	1683.43
410.70	1769.44
410.91	1660.90
411.12	1705.96
411.32	1738.73
411.53	1681.38
411.74	1810.40
411.95	1779.68
412.15	1736.68
412.36	1720.29
412.57	1816.55
412.77	1761.25
412.98	1701.86
413.19	1728.49
413.39	1748.97
413.60	1751.01
413.81	1751.01
414.01	1726.44
414.22	1773.54
414.43	1730.53
414.63	1732.58
414.84	1806.31
415.05	1722.34
415.25	1599.46
415.46	1734.63
415.67	1695.72
415.87	1746.92
416.08	1673.19
416.29	1595.37
416.49	1761.25
416.70	1679.33
416.91	1697.77
417.11	1701.86
417.32	1734.63
417.53	1755.11
417.73	1738.73
417.94	1712.10
418.15	1757.16
418.35	1751.01
418.56	1687.53
418.77	1802.21
418.97	1697.77
419.18	1675.24
419.38	1519.59
419.59	1695.72
419.80	1816.55
420.00	1669.09
420.21	1718.25
420.42	1742.82
420.62	1685.48
420.83	1726.44
421.04	1710.05
421.24	1732.58
421.45	1740.77
421.65	1708.01
421.86	1710.05
422.07	1691.62
422.27	1712.10
422.48	1773.54
422.69	1642.47
422.89	1652.71
423.10	1656.81
423.30	1675.24
423.51	1748.97
423.72	1742.82
423.92	1765.35
424.13	1665.00
424.33	1779.68
424.54	1734.63
424.75	1757.16
424.95	1722.34
425.16	1796.07
425.36	1771.49
425.57	1841.12
425.78	1808.36
425.98	1769.44
426.19	1691.62
426.39	1673.19
426.60	1732.58
426.81	1812.45
427.01	1732.58
427.22	1687.53
427.42	1656.81
427.63	1671.14
427.83	1814.50
428.04	1839.08
428.25	1775.59
428.45	1847.27
428.66	1787.88
428.86	1751.01
429.07	1746.92
429.28	1800.16
429.48	1732.58
429.69	1642.47
429.89	1767.40
430.10	1669.09
430.30	1710.05
430.51	1724.39
430.71	1677.29
430.92	1675.24
431.13	1705.96
431.33	1736.68
431.54	1746.92
431.74	1818.60
431.95	1808.36
432.15	1626.09
432.36	1738.73
432.56	1763.30
432.77	1867.75
432.98	1851.36
433.18	1691.62
433.39	1665.00
433.59	1675.24
433.80	1859.56
434.00	1767.40
434.21	1658.85
434.41	1611.75
434.62	1853.41
434.82	1654.76
435.03	1609.70
435.23	1769.44
435.44	1599.46
435.64	1816.55
435.85	1662.95
436.06	1689.57
436.26	1669.09
436.47	1705.96
436.67	1665.00
436.88	1693.67
437.08	1701.86
437.29	1847.27
437.49	1701.86
437.70	1841.12
437.90	1746.92
438.11	1837.03
438.31	1767.40
438.52	1820.64
438.72	1789.92
438.93	1937.38
439.13	1843.17
439.34	1841.12
439.54	1759.21
439.75	1806.31
439.95	1755.11
440.16	1640.42
440.36	1724.39
440.57	1736.68
440.77	1710.05
440.98	1734.63
441.18	1705.96
441.39	1751.01
441.59	1734.63
441.80	1855.46
442.00	1669.09
442.21	1818.60
442.41	1648.61
442.62	1710.05
442.82	1724.39
443.02	1800.16
443.23	1689.57
443.43	1732.58
443.64	1771.49
443.84	1732.58
444.05	1841.12
444.25	1740.77
444.46	1777.64
444.66	1724.39
444.87	1810.40
445.07	1681.38
445.28	1740.77
445.48	1818.60
445.69	1794.02
445.89	1857.51
446.09	1796.07
446.30	2000.87
446.50	2670.55
446.71	3639.24
446.91	4212.67
447.12	4812.73
447.32	4849.59
447.53	4171.71
447.73	3827.65
447.93	3483.59
448.14	3250.13
448.34	3123.15
448.55	2918.36
448.75	2856.92
448.96	2727.89
449.16	2451.42
449.36	2328.54
449.57	2019.30
449.77	1984.48
449.98	1820.64
450.18	1757.16
450.39	1822.69
450.59	1828.84
450.79	1755.11
451.00	1718.25
451.20	1701.86
451.41	1658.85
451.61	1716.20
451.81	1746.92
452.02	1691.62
452.22	1685.48
452.43	1740.77
452.63	1794.02
