SpectraSuite Data File
++++++++++++++++++++++++++++++++++++
Date: Mon Jun 06 12:09:57 CEST 2016
User: root
Dark Spectrum Present: No
Reference Spectrum Present: No
Number of Sampled Component Spectra: 1
Spectrometers: USB4C02835
Integration Time (usec): 100000 (USB4C02835)
Spectra Averaged: 1 (USB4C02835)
Boxcar Smoothing: 0 (USB4C02835)
Correct for Electrical Dark: No (USB4C02835)
Strobe/Lamp Enabled: No (USB4C02835)
Correct for Detector Non-linearity: No (USB4C02835)
Correct for Stray Light: No (USB4C02835)
Number of Pixels in Processed Spectrum: 3648
>>>>>Begin Processed Spectral Data<<<<<
177.47	1492.97
177.69	1492.97
177.91	1492.97
178.13	1462.25
178.36	1417.19
178.58	1626.09
178.80	1730.53
179.02	1658.85
179.24	1601.51
179.46	1658.85
179.68	1714.15
179.90	1624.04
180.13	1710.05
180.35	1662.95
180.57	1697.77
180.79	1765.35
181.01	1642.47
181.23	1759.21
181.45	1789.92
181.67	1611.75
181.90	1742.82
182.12	1617.90
182.34	1630.18
182.56	1703.91
182.78	1728.49
183.00	1714.15
183.22	1724.39
183.44	1642.47
183.66	1810.40
183.89	1740.77
184.11	1767.40
184.33	1697.77
184.55	1720.29
184.77	1693.67
184.99	1785.83
185.21	1679.33
185.43	1789.92
185.65	1673.19
185.87	1689.57
186.10	1753.06
186.32	1851.36
186.54	1740.77
186.76	1697.77
186.98	1714.15
187.20	1722.34
187.42	1660.90
187.64	1705.96
187.86	1730.53
188.08	1783.78
188.30	1654.76
188.52	1714.15
188.75	1761.25
188.97	1740.77
189.19	1658.85
189.41	1642.47
189.63	1765.35
189.85	1583.08
190.07	1669.09
190.29	1605.61
190.51	1789.92
190.73	1632.23
190.95	1802.21
191.17	1695.72
191.39	1607.66
191.61	1656.81
191.84	1662.95
192.06	1730.53
192.28	1644.52
192.50	1886.18
192.72	1697.77
192.94	1624.04
193.16	1665.00
193.38	1736.68
193.60	1587.18
193.82	1626.09
194.04	1726.44
194.26	1669.09
194.48	1695.72
194.70	1671.14
194.92	1753.06
195.14	1718.25
195.36	1599.46
195.58	1685.48
195.80	1669.09
196.02	1660.90
196.24	1677.29
196.46	1714.15
196.69	1642.47
196.91	1789.92
197.13	1675.24
197.35	1650.66
197.57	1757.16
197.79	1804.26
198.01	1757.16
198.23	1705.96
198.45	1701.86
198.67	1570.79
198.89	1720.29
199.11	1683.43
199.33	1693.67
199.55	1585.13
199.77	1615.85
199.99	1689.57
200.21	1687.53
200.43	1769.44
200.65	1689.57
200.87	1562.60
201.09	1636.33
201.31	1650.66
201.53	1652.71
201.75	1683.43
201.97	1681.38
202.19	1708.01
202.41	1689.57
202.63	1826.79
202.85	1730.53
203.07	1726.44
203.29	1705.96
203.51	1607.66
203.73	1650.66
203.95	1863.65
204.17	1644.52
204.39	1726.44
204.61	1746.92
204.83	1607.66
205.05	1734.63
205.27	1738.73
205.49	1769.44
205.71	1613.80
205.93	1671.14
206.15	1650.66
206.37	1636.33
206.59	1662.95
206.81	1617.90
207.03	1644.52
207.25	1644.52
207.47	1677.29
207.69	1761.25
207.91	1798.12
208.13	1740.77
208.34	1656.81
208.56	1679.33
208.78	1732.58
209.00	1630.18
209.22	1683.43
209.44	1640.42
209.66	1689.57
209.88	1740.77
210.10	1759.21
210.32	1685.48
210.54	1755.11
210.76	1660.90
210.98	1730.53
211.20	1613.80
211.42	1630.18
211.64	1789.92
211.86	1720.29
212.08	1785.83
212.30	1781.73
212.52	1689.57
212.74	1691.62
212.96	1710.05
213.17	1714.15
213.39	1705.96
213.61	1812.45
213.83	1693.67
214.05	1587.18
214.27	1724.39
214.49	1609.70
214.71	1626.09
214.93	1710.05
215.15	1654.76
215.37	1787.88
215.59	1583.08
215.81	1718.25
216.03	1769.44
216.24	1697.77
216.46	1720.29
216.68	1755.11
216.90	1761.25
217.12	1742.82
217.34	1685.48
217.56	1724.39
217.78	1720.29
218.00	1689.57
218.22	1683.43
218.44	1742.82
218.66	1761.25
218.87	1845.22
219.09	1581.03
219.31	1724.39
219.53	1751.01
219.75	1673.19
219.97	1665.00
220.19	1728.49
220.41	1691.62
220.63	1740.77
220.85	1703.91
221.06	1619.94
221.28	1730.53
221.50	1789.92
221.72	1714.15
221.94	1681.38
222.16	1617.90
222.38	1738.73
222.60	1736.68
222.82	1585.13
223.03	1759.21
223.25	1701.86
223.47	1742.82
223.69	1775.59
223.91	1683.43
224.13	1673.19
224.35	1638.38
224.57	1761.25
224.78	1650.66
225.00	1609.70
225.22	1634.28
225.44	1705.96
225.66	1763.30
225.88	1636.33
226.10	1734.63
226.32	1791.97
226.53	1742.82
226.75	1609.70
226.97	1630.18
227.19	1640.42
227.41	1691.62
227.63	1734.63
227.85	1595.37
228.06	1677.29
228.28	1705.96
228.50	1771.49
228.72	1644.52
228.94	1650.66
229.16	1591.27
229.37	1662.95
229.59	1650.66
229.81	1806.31
230.03	1683.43
230.25	1660.90
230.47	1601.51
230.69	1619.94
230.90	1824.74
231.12	1583.08
231.34	1695.72
231.56	1802.21
231.78	1697.77
232.00	1751.01
232.21	1624.04
232.43	1703.91
232.65	1540.07
232.87	1738.73
233.09	1652.71
233.30	1628.14
233.52	1685.48
233.74	1712.10
233.96	1613.80
234.18	1703.91
234.40	1681.38
234.61	1689.57
234.83	1613.80
235.05	1624.04
235.27	1779.68
235.49	1685.48
235.70	1705.96
235.92	1783.78
236.14	1677.29
236.36	1851.36
236.58	1644.52
236.79	1701.86
237.01	1697.77
237.23	1681.38
237.45	1701.86
237.67	1613.80
237.88	1708.01
238.10	1779.68
238.32	1605.61
238.54	1740.77
238.76	1738.73
238.97	1611.75
239.19	1605.61
239.41	1695.72
239.63	1683.43
239.85	1650.66
240.06	1761.25
240.28	1708.01
240.50	1814.50
240.72	1724.39
240.93	1607.66
241.15	1755.11
241.37	1673.19
241.59	1773.54
241.81	1726.44
242.02	1648.61
242.24	1730.53
242.46	1753.06
242.68	1685.48
242.89	1689.57
243.11	1751.01
243.33	1789.92
243.55	1726.44
243.76	1748.97
243.98	1595.37
244.20	1730.53
244.42	1648.61
244.64	1683.43
244.85	1665.00
245.07	1624.04
245.29	1677.29
245.51	1748.97
245.72	1728.49
245.94	1701.86
246.16	1701.86
246.38	1736.68
246.59	1644.52
246.81	1708.01
247.03	1611.75
247.24	1591.27
247.46	1671.14
247.68	1662.95
247.90	1689.57
248.11	1673.19
248.33	1800.16
248.55	1687.53
248.77	1708.01
248.98	1787.88
249.20	1773.54
249.42	1779.68
249.64	1744.87
249.85	1683.43
250.07	1693.67
250.29	1734.63
250.50	1779.68
250.72	1642.47
250.94	1652.71
251.16	1796.07
251.37	1748.97
251.59	1673.19
251.81	1703.91
252.02	1738.73
252.24	1644.52
252.46	1730.53
252.68	1617.90
252.89	1665.00
253.11	1566.70
253.33	1822.69
253.54	1779.68
253.76	1574.89
253.98	1681.38
254.20	1669.09
254.41	1656.81
254.63	1615.85
254.85	1708.01
255.06	1648.61
255.28	1685.48
255.50	1665.00
255.71	1722.34
255.93	1613.80
256.15	1656.81
256.36	1701.86
256.58	1632.23
256.80	1746.92
257.02	1716.20
257.23	1712.10
257.45	1683.43
257.67	1677.29
257.88	1701.86
258.10	1720.29
258.32	1701.86
258.53	1755.11
258.75	1734.63
258.97	1564.65
259.18	1718.25
259.40	1740.77
259.62	1767.40
259.83	1683.43
260.05	1775.59
260.27	1945.57
260.48	1755.11
260.70	1689.57
260.92	1691.62
261.13	1669.09
261.35	1671.14
261.57	1691.62
261.78	1570.79
262.00	1630.18
262.22	1701.86
262.43	1607.66
262.65	1679.33
262.86	1671.14
263.08	1847.27
263.30	1697.77
263.51	1609.70
263.73	1693.67
263.95	1785.83
264.16	1712.10
264.38	1693.67
264.60	1738.73
264.81	1650.66
265.03	1669.09
265.25	1726.44
265.46	1689.57
265.68	1763.30
265.89	1675.24
266.11	1632.23
266.33	1730.53
266.54	1677.29
266.76	1720.29
266.98	1595.37
267.19	1808.36
267.41	1736.68
267.62	1703.91
267.84	1646.57
268.06	1734.63
268.27	1730.53
268.49	1736.68
268.70	1824.74
268.92	1708.01
269.14	1585.13
269.35	1638.38
269.57	1660.90
269.79	1746.92
270.00	1691.62
270.22	1765.35
270.43	1615.85
270.65	1624.04
270.87	1615.85
271.08	1689.57
271.30	1757.16
271.51	1710.05
271.73	1732.58
271.95	1708.01
272.16	1728.49
272.38	1712.10
272.59	1718.25
272.81	1716.20
273.02	1771.49
273.24	1658.85
273.46	1738.73
273.67	1652.71
273.89	1660.90
274.10	1583.08
274.32	1677.29
274.54	1763.30
274.75	1681.38
274.97	1685.48
275.18	1726.44
275.40	1748.97
275.61	1697.77
275.83	1714.15
276.05	1675.24
276.26	1693.67
276.48	1673.19
276.69	1652.71
276.91	1632.23
277.12	1767.40
277.34	1751.01
277.55	1722.34
277.77	1716.20
277.99	1658.85
278.20	1615.85
278.42	1615.85
278.63	1611.75
278.85	1646.57
279.06	1574.89
279.28	1656.81
279.49	1771.49
279.71	1705.96
279.93	1710.05
280.14	1667.05
280.36	1656.81
280.57	1769.44
280.79	1771.49
281.00	1675.24
281.22	1611.75
281.43	1736.68
281.65	1652.71
281.86	1644.52
282.08	1714.15
282.29	1789.92
282.51	1634.28
282.73	1587.18
282.94	1619.94
283.16	1763.30
283.37	1785.83
283.59	1751.01
283.80	1777.64
284.02	1742.82
284.23	1693.67
284.45	1794.02
284.66	1693.67
284.88	1665.00
285.09	1710.05
285.31	1687.53
285.52	1662.95
285.74	1665.00
285.95	1769.44
286.17	1679.33
286.38	1765.35
286.60	1691.62
286.81	1714.15
287.03	1603.56
287.24	1650.66
287.46	1701.86
287.67	1726.44
287.89	1722.34
288.10	1644.52
288.32	1673.19
288.53	1722.34
288.75	1656.81
288.96	1771.49
289.18	1685.48
289.39	1728.49
289.61	1705.96
289.82	1785.83
290.04	1820.64
290.25	1654.76
290.47	1605.61
290.68	1679.33
290.90	1771.49
291.11	1634.28
291.33	1712.10
291.54	1572.84
291.76	1640.42
291.97	1724.39
292.18	1667.05
292.40	1679.33
292.61	1628.14
292.83	1820.64
293.04	1746.92
293.26	1701.86
293.47	1654.76
293.69	1695.72
293.90	1662.95
294.12	1796.07
294.33	1755.11
294.55	1681.38
294.76	1701.86
294.97	1722.34
295.19	1812.45
295.40	1665.00
295.62	1693.67
295.83	1685.48
296.05	1634.28
296.26	1757.16
296.48	1617.90
296.69	1650.66
296.90	1667.05
297.12	1724.39
297.33	1689.57
297.55	1603.56
297.76	1687.53
297.98	1806.31
298.19	1732.58
298.41	1697.77
298.62	1673.19
298.83	1767.40
299.05	1691.62
299.26	1615.85
299.48	1619.94
299.69	1736.68
299.90	1718.25
300.12	1669.09
300.33	1705.96
300.55	1705.96
300.76	1724.39
300.98	1650.66
301.19	1740.77
301.40	1650.66
301.62	1605.61
301.83	1726.44
302.05	1697.77
302.26	1693.67
302.47	1744.87
302.69	1691.62
302.90	1718.25
303.12	1658.85
303.33	1683.43
303.54	1875.94
303.76	1675.24
303.97	1679.33
304.19	1837.03
304.40	1636.33
304.61	1738.73
304.83	1748.97
305.04	1746.92
305.26	1675.24
305.47	1654.76
305.68	1681.38
305.90	1652.71
306.11	1701.86
306.33	1681.38
306.54	1656.81
306.75	1615.85
306.97	1658.85
307.18	1689.57
307.39	1654.76
307.61	1728.49
307.82	1689.57
308.04	1691.62
308.25	1632.23
308.46	1763.30
308.68	1683.43
308.89	1716.20
309.10	1818.60
309.32	1708.01
309.53	1656.81
309.74	1724.39
309.96	1742.82
310.17	1744.87
310.39	1677.29
310.60	1675.24
310.81	1732.58
311.03	1611.75
311.24	1746.92
311.45	1669.09
311.67	1814.50
311.88	1660.90
312.09	1687.53
312.31	1558.50
312.52	1695.72
312.73	1656.81
312.95	1636.33
313.16	1591.27
313.37	1744.87
313.59	1708.01
313.80	1693.67
314.01	1757.16
314.23	1675.24
314.44	1708.01
314.65	1648.61
314.87	1628.14
315.08	1609.70
315.29	1656.81
315.51	1665.00
315.72	1624.04
315.93	1730.53
316.15	1697.77
316.36	1642.47
316.57	1681.38
316.79	1748.97
317.00	1718.25
317.21	1740.77
317.43	1597.42
317.64	1638.38
317.85	1714.15
318.07	1630.18
318.28	1652.71
318.49	1765.35
318.70	1912.80
318.92	1767.40
319.13	1832.93
319.34	1855.46
319.56	1769.44
319.77	1783.78
319.98	1738.73
320.20	1783.78
320.41	1744.87
320.62	1714.15
320.83	1673.19
321.05	1832.93
321.26	1726.44
321.47	1705.96
321.69	1730.53
321.90	1648.61
322.11	1650.66
322.32	1697.77
322.54	1714.15
322.75	1687.53
322.96	1861.60
323.18	1665.00
323.39	1578.98
323.60	1597.42
323.81	1720.29
324.03	1695.72
324.24	1708.01
324.45	1708.01
324.66	1636.33
324.88	1734.63
325.09	1738.73
325.30	1718.25
325.52	1738.73
325.73	1669.09
325.94	1595.37
326.15	1630.18
326.37	1714.15
326.58	1677.29
326.79	1726.44
327.00	1613.80
327.22	1701.86
327.43	1687.53
327.64	1669.09
327.85	1765.35
328.07	1689.57
328.28	1798.12
328.49	1644.52
328.70	1662.95
328.92	1699.81
329.13	1683.43
329.34	1697.77
329.55	1761.25
329.76	1705.96
329.98	1716.20
330.19	1783.78
330.40	1681.38
330.61	1693.67
330.83	1742.82
331.04	1648.61
331.25	1640.42
331.46	1748.97
331.68	1564.65
331.89	1751.01
332.10	1656.81
332.31	1660.90
332.52	1679.33
332.74	1720.29
332.95	1634.28
333.16	1730.53
333.37	1718.25
333.58	1599.46
333.80	1687.53
334.01	1628.14
334.22	1607.66
334.43	1673.19
334.64	1650.66
334.86	1566.70
335.07	1615.85
335.28	1777.64
335.49	1615.85
335.70	1722.34
335.92	1677.29
336.13	1757.16
336.34	1695.72
336.55	1689.57
336.76	1769.44
336.98	1621.99
337.19	1708.01
337.40	1787.88
337.61	1740.77
337.82	1677.29
338.04	1763.30
338.25	1578.98
338.46	1640.42
338.67	1775.59
338.88	1687.53
339.09	1665.00
339.31	1644.52
339.52	1693.67
339.73	1626.09
339.94	1740.77
340.15	1777.64
340.36	1552.36
340.58	1718.25
340.79	1708.01
341.00	1691.62
341.21	1665.00
341.42	1730.53
341.63	1708.01
341.85	1796.07
342.06	1654.76
342.27	1665.00
342.48	1759.21
342.69	1656.81
342.90	1712.10
343.12	1656.81
343.33	1591.27
343.54	1726.44
343.75	1722.34
343.96	1636.33
344.17	1648.61
344.38	1681.38
344.60	1644.52
344.81	1576.94
345.02	1724.39
345.23	1783.78
345.44	1837.03
345.65	1720.29
345.86	1705.96
346.07	1665.00
346.29	1669.09
346.50	1767.40
346.71	1685.48
346.92	1689.57
347.13	1812.45
347.34	1708.01
347.55	1646.57
347.76	1640.42
347.98	1644.52
348.19	1675.24
348.40	1708.01
348.61	1671.14
348.82	1726.44
349.03	1771.49
349.24	1685.48
349.45	1785.83
349.66	1624.04
349.88	1695.72
350.09	1665.00
350.30	1714.15
350.51	1771.49
350.72	1689.57
350.93	1730.53
351.14	1646.57
351.35	1755.11
351.56	1658.85
351.77	1683.43
351.99	1695.72
352.20	1785.83
352.41	1740.77
352.62	1533.93
352.83	1619.94
353.04	1601.51
353.25	1703.91
353.46	1771.49
353.67	1708.01
353.88	1538.02
354.09	1781.73
354.30	1708.01
354.52	1751.01
354.73	1705.96
354.94	1607.66
355.15	1619.94
355.36	1755.11
355.57	1589.22
355.78	1705.96
355.99	1640.42
356.20	1675.24
356.41	1787.88
356.62	1742.82
356.83	1665.00
357.04	1677.29
357.25	1609.70
357.46	1632.23
357.68	1685.48
357.89	1695.72
358.10	1695.72
358.31	1644.52
358.52	1691.62
358.73	1558.50
358.94	1654.76
359.15	1632.23
359.36	1697.77
359.57	1740.77
359.78	1673.19
359.99	1689.57
360.20	1599.46
360.41	1619.94
360.62	1673.19
360.83	1660.90
361.04	1740.77
361.25	1613.80
361.46	1667.05
361.67	1693.67
361.88	1716.20
362.09	1714.15
362.30	1689.57
362.51	1681.38
362.72	1685.48
362.93	1687.53
363.14	1812.45
363.35	1716.20
363.56	1626.09
363.78	1744.87
363.99	1691.62
364.20	1652.71
364.41	1751.01
364.62	1748.97
364.83	1710.05
365.04	1722.34
365.25	1687.53
365.46	1781.73
365.67	1730.53
365.88	1587.18
366.09	1662.95
366.30	1652.71
366.51	1628.14
366.72	1697.77
366.93	1597.42
367.14	1728.49
367.35	1695.72
367.56	1675.24
367.77	1810.40
367.98	1640.42
368.18	1773.54
368.39	1730.53
368.60	1583.08
368.81	1701.86
369.02	1689.57
369.23	1671.14
369.44	1599.46
369.65	1642.47
369.86	1730.53
370.07	1748.97
370.28	1646.57
370.49	1779.68
370.70	1761.25
370.91	1605.61
371.12	1613.80
371.33	1751.01
371.54	1720.29
371.75	1730.53
371.96	1603.56
372.17	1746.92
372.38	1642.47
372.59	1705.96
372.80	1665.00
373.01	1658.85
373.22	1705.96
373.43	1632.23
373.64	1683.43
373.85	1746.92
374.06	1855.46
374.26	1695.72
374.47	1675.24
374.68	1771.49
374.89	1695.72
375.10	1650.66
375.31	1730.53
375.52	1669.09
375.73	1736.68
375.94	1589.22
376.15	1751.01
376.36	1656.81
376.57	1677.29
376.78	1689.57
376.99	1746.92
377.20	1755.11
377.40	1703.91
377.61	1871.84
377.82	1642.47
378.03	1679.33
378.24	1683.43
378.45	1722.34
378.66	1667.05
378.87	1642.47
379.08	1632.23
379.29	1587.18
379.50	1853.41
379.71	1677.29
379.91	1757.16
380.12	1677.29
380.33	1697.77
380.54	1677.29
380.75	1691.62
380.96	1722.34
381.17	1753.06
381.38	1742.82
381.59	1718.25
381.80	1742.82
382.00	1890.28
382.21	1789.92
382.42	1830.88
382.63	1859.56
382.84	1703.91
383.05	1732.58
383.26	1775.59
383.47	1677.29
383.68	1744.87
383.88	1656.81
384.09	1757.16
384.30	1832.93
384.51	1705.96
384.72	1734.63
384.93	1601.51
385.14	1638.38
385.35	1728.49
385.55	1585.13
385.76	1800.16
385.97	1640.42
386.18	1599.46
386.39	1652.71
386.60	1611.75
386.81	1689.57
387.02	1681.38
387.22	1683.43
387.43	1794.02
387.64	1785.83
387.85	1880.04
388.06	2230.24
388.27	4360.13
388.48	6756.25
388.68	8230.79
388.89	9703.28
389.10	9918.31
389.31	8701.82
389.52	7567.24
389.73	6789.02
389.93	6123.43
390.14	5883.81
390.35	5179.31
390.56	4562.87
390.77	3782.60
390.98	3063.76
391.18	2559.96
391.39	2146.27
391.60	1787.88
391.81	1822.69
392.02	1730.53
392.23	1843.17
392.43	1710.05
392.64	1812.45
392.85	1681.38
393.06	1777.64
393.27	1724.39
393.47	1730.53
393.68	1708.01
393.89	1697.77
394.10	1742.82
394.31	1681.38
394.52	1642.47
394.72	1648.61
394.93	1697.77
395.14	1660.90
395.35	1726.44
395.56	1675.24
395.76	1761.25
395.97	1783.78
396.18	1738.73
396.39	1873.89
396.60	2039.78
396.80	1882.08
397.01	1783.78
397.22	1859.56
397.43	1855.46
397.64	1800.16
397.84	1832.93
398.05	1853.41
398.26	1740.77
398.47	1818.60
398.67	1775.59
398.88	1705.96
399.09	1716.20
399.30	1648.61
399.51	1759.21
399.71	1652.71
399.92	1671.14
400.13	1630.18
400.34	1689.57
400.54	1656.81
400.75	1806.31
400.96	1767.40
401.17	1751.01
401.37	1648.61
401.58	1648.61
401.79	1730.53
402.00	1877.99
402.21	1927.14
402.41	1990.63
402.62	1978.34
402.83	1920.99
403.04	1984.48
403.24	2033.63
403.45	1826.79
403.66	1910.75
403.87	1826.79
404.07	1910.75
404.28	1867.75
404.49	1892.32
404.70	1787.88
404.90	1779.68
405.11	1648.61
405.32	1675.24
405.52	1705.96
405.73	1718.25
405.94	1665.00
406.15	1658.85
406.35	1734.63
406.56	1720.29
406.77	1722.34
406.98	1714.15
407.18	1599.46
407.39	1710.05
407.60	1609.70
407.80	1685.48
408.01	1638.38
408.22	1660.90
408.43	1642.47
408.63	1773.54
408.84	1701.86
409.05	1781.73
409.25	1669.09
409.46	1624.04
409.67	1615.85
409.88	1615.85
410.08	1685.48
410.29	1597.42
410.50	1757.16
410.70	1708.01
410.91	1675.24
411.12	1759.21
411.32	1673.19
411.53	1652.71
411.74	1783.78
411.95	1791.97
412.15	1759.21
412.36	1753.06
412.57	1767.40
412.77	1755.11
412.98	1705.96
413.19	1712.10
413.39	1716.20
413.60	1714.15
413.81	1796.07
414.01	1546.22
414.22	1808.36
414.43	1701.86
414.63	1658.85
414.84	1755.11
415.05	1720.29
415.25	1599.46
415.46	1730.53
415.67	1628.14
415.87	1810.40
416.08	1658.85
416.29	1660.90
416.49	1699.81
416.70	1603.56
416.91	1689.57
417.11	1656.81
417.32	1734.63
417.53	1759.21
417.73	1732.58
417.94	1650.66
418.15	1722.34
418.35	1695.72
418.56	1642.47
418.77	1816.55
418.97	1742.82
419.18	1667.05
419.38	1587.18
419.59	1714.15
419.80	1726.44
420.00	1652.71
420.21	1669.09
420.42	1791.97
420.62	1681.38
420.83	1648.61
421.04	1714.15
421.24	1671.14
421.45	1695.72
421.65	1705.96
421.86	1689.57
422.07	1804.26
422.27	1665.00
422.48	1656.81
422.69	1665.00
422.89	1679.33
423.10	1632.23
423.30	1621.99
423.51	1642.47
423.72	1640.42
423.92	1687.53
424.13	1585.13
424.33	1656.81
424.54	1800.16
424.75	1665.00
424.95	1662.95
425.16	1691.62
425.36	1685.48
425.57	1714.15
425.78	1710.05
425.98	1693.67
426.19	1708.01
426.39	1609.70
426.60	1789.92
426.81	1732.58
427.01	1757.16
427.22	1695.72
427.42	1656.81
427.63	1611.75
427.83	1708.01
428.04	1812.45
428.25	1814.50
428.45	1742.82
428.66	1726.44
428.86	1665.00
429.07	1628.14
429.28	1697.77
429.48	1687.53
429.69	1691.62
429.89	1738.73
430.10	1648.61
430.30	1691.62
430.51	1701.86
430.71	1648.61
430.92	1722.34
431.13	1630.18
431.33	1685.48
431.54	1722.34
431.74	1820.64
431.95	1841.12
432.15	1710.05
432.36	1683.43
432.56	1728.49
432.77	1804.26
432.98	1787.88
433.18	1708.01
433.39	1699.81
433.59	1658.85
433.80	1783.78
434.00	1806.31
434.21	1783.78
434.41	1681.38
434.62	1834.98
434.82	1665.00
435.03	1621.99
435.23	1755.11
435.44	1697.77
435.64	1703.91
435.85	1675.24
436.06	1736.68
436.26	1767.40
436.47	1736.68
436.67	1710.05
436.88	1669.09
437.08	1798.12
437.29	1765.35
437.49	1701.86
437.70	1708.01
437.90	1673.19
438.11	1796.07
438.31	1794.02
438.52	1935.33
438.72	1845.22
438.93	1828.84
439.13	1761.25
439.34	1757.16
439.54	1777.64
439.75	1814.50
439.95	1755.11
440.16	1718.25
440.36	1658.85
440.57	1839.08
440.77	1773.54
440.98	1689.57
441.18	1671.14
441.39	1671.14
441.59	1673.19
441.80	1791.97
442.00	1763.30
442.21	1845.22
442.41	1632.23
442.62	1800.16
442.82	1646.57
443.02	1705.96
443.23	1710.05
443.43	1652.71
443.64	1757.16
443.84	1603.56
444.05	1767.40
444.25	1695.72
444.46	1755.11
444.66	1761.25
444.87	1820.64
445.07	1619.94
445.28	1798.12
445.48	1789.92
445.69	1710.05
445.89	1853.41
446.09	1763.30
446.30	2062.30
446.50	2594.78
446.71	3725.26
446.91	4331.45
447.12	4716.47
447.32	4882.36
447.53	4341.69
447.73	3790.79
447.93	3536.84
448.14	3303.37
448.34	3106.77
448.55	2836.44
448.75	2738.13
448.96	2631.64
449.16	2389.98
449.36	2289.63
449.57	2119.65
449.77	1929.19
449.98	1757.16
450.18	1828.84
450.39	1810.40
450.59	1714.15
450.79	1654.76
451.00	1675.24
451.20	1791.97
451.41	1710.05
451.61	1763.30
451.81	1665.00
452.02	1714.15
452.22	1712.10
452.43	1681.38
452.63	1648.61
