SpectraSuite Data File
++++++++++++++++++++++++++++++++++++
Date: Mon Jun 06 14:10:37 CEST 2016
User: root
Dark Spectrum Present: No
Reference Spectrum Present: No
Number of Sampled Component Spectra: 1
Spectrometers: USB4C02835
Integration Time (usec): 100000 (USB4C02835)
Spectra Averaged: 1 (USB4C02835)
Boxcar Smoothing: 0 (USB4C02835)
Correct for Electrical Dark: No (USB4C02835)
Strobe/Lamp Enabled: No (USB4C02835)
Correct for Detector Non-linearity: No (USB4C02835)
Correct for Stray Light: No (USB4C02835)
Number of Pixels in Processed Spectrum: 3648
>>>>>Begin Processed Spectral Data<<<<<
177.47	1482.73
177.69	1482.73
177.91	1482.73
178.13	1495.02
178.36	1556.46
178.58	1624.04
178.80	1785.83
179.02	1654.76
179.24	1652.71
179.46	1644.52
179.68	1740.77
179.90	1771.49
180.13	1734.63
180.35	1697.77
180.57	1636.33
180.79	1744.87
181.01	1738.73
181.23	1816.55
181.45	1810.40
181.67	1695.72
181.90	1685.48
182.12	1660.90
182.34	1632.23
182.56	1716.20
182.78	1740.77
183.00	1730.53
183.22	1701.86
183.44	1624.04
183.66	1853.41
183.89	1843.17
184.11	1683.43
184.33	1787.88
184.55	1748.97
184.77	1748.97
184.99	1675.24
185.21	1685.48
185.43	1902.56
185.65	1626.09
185.87	1681.38
186.10	1814.50
186.32	1787.88
186.54	1755.11
186.76	1845.22
186.98	1656.81
187.20	1673.19
187.42	1718.25
187.64	1718.25
187.86	1699.81
188.08	1685.48
188.30	1699.81
188.52	1740.77
188.75	1787.88
188.97	1802.21
189.19	1613.80
189.41	1675.24
189.63	1751.01
189.85	1658.85
190.07	1560.55
190.29	1607.66
190.51	1671.14
190.73	1609.70
190.95	1853.41
191.17	1769.44
191.39	1568.74
191.61	1609.70
191.84	1730.53
192.06	1742.82
192.28	1607.66
192.50	1855.46
192.72	1705.96
192.94	1677.29
193.16	1806.31
193.38	1742.82
193.60	1578.98
193.82	1695.72
194.04	1771.49
194.26	1722.34
194.48	1685.48
194.70	1685.48
194.92	1624.04
195.14	1617.90
195.36	1677.29
195.58	1785.83
195.80	1677.29
196.02	1558.50
196.24	1685.48
196.46	1714.15
196.69	1660.90
196.91	1820.64
197.13	1691.62
197.35	1621.99
197.57	1730.53
197.79	1718.25
198.01	1773.54
198.23	1695.72
198.45	1675.24
198.67	1656.81
198.89	1722.34
199.11	1730.53
199.33	1679.33
199.55	1568.74
199.77	1693.67
199.99	1800.16
200.21	1665.00
200.43	1695.72
200.65	1656.81
200.87	1632.23
201.09	1759.21
201.31	1697.77
201.53	1728.49
201.75	1656.81
201.97	1675.24
202.19	1685.48
202.41	1689.57
202.63	1785.83
202.85	1714.15
203.07	1662.95
203.29	1660.90
203.51	1619.94
203.73	1677.29
203.95	1918.95
204.17	1701.86
204.39	1695.72
204.61	1681.38
204.83	1779.68
205.05	1714.15
205.27	1769.44
205.49	1826.79
205.71	1712.10
205.93	1681.38
206.15	1595.37
206.37	1683.43
206.59	1597.42
206.81	1642.47
207.03	1710.05
207.25	1726.44
207.47	1775.59
207.69	1656.81
207.91	1783.78
208.13	1761.25
208.34	1630.18
208.56	1658.85
208.78	1736.68
209.00	1628.14
209.22	1689.57
209.44	1681.38
209.66	1734.63
209.88	1718.25
210.10	1660.90
210.32	1689.57
210.54	1820.64
210.76	1630.18
210.98	1732.58
211.20	1515.50
211.42	1732.58
211.64	1722.34
211.86	1789.92
212.08	1759.21
212.30	1705.96
212.52	1705.96
212.74	1757.16
212.96	1726.44
213.17	1759.21
213.39	1765.35
213.61	1748.97
213.83	1718.25
214.05	1697.77
214.27	1748.97
214.49	1693.67
214.71	1624.04
214.93	1785.83
215.15	1660.90
215.37	1738.73
215.59	1658.85
215.81	1669.09
216.03	1736.68
216.24	1691.62
216.46	1714.15
216.68	1714.15
216.90	1755.11
217.12	1722.34
217.34	1675.24
217.56	1751.01
217.78	1789.92
218.00	1738.73
218.22	1746.92
218.44	1746.92
218.66	1658.85
218.87	1849.32
219.09	1640.42
219.31	1714.15
219.53	1751.01
219.75	1609.70
219.97	1665.00
220.19	1697.77
220.41	1667.05
220.63	1767.40
220.85	1736.68
221.06	1689.57
221.28	1783.78
221.50	1697.77
221.72	1683.43
221.94	1705.96
222.16	1660.90
222.38	1748.97
222.60	1742.82
222.82	1755.11
223.03	1751.01
223.25	1628.14
223.47	1736.68
223.69	1843.17
223.91	1720.29
224.13	1681.38
224.35	1652.71
224.57	1751.01
224.78	1718.25
225.00	1658.85
225.22	1732.58
225.44	1615.85
225.66	1695.72
225.88	1654.76
226.10	1814.50
226.32	1724.39
226.53	1806.31
226.75	1689.57
226.97	1681.38
227.19	1757.16
227.41	1650.66
227.63	1648.61
227.85	1697.77
228.06	1689.57
228.28	1658.85
228.50	1701.86
228.72	1626.09
228.94	1652.71
229.16	1636.33
229.37	1656.81
229.59	1671.14
229.81	1789.92
230.03	1755.11
230.25	1619.94
230.47	1673.19
230.69	1658.85
230.90	1767.40
231.12	1671.14
231.34	1720.29
231.56	1773.54
231.78	1667.05
232.00	1736.68
232.21	1726.44
232.43	1667.05
232.65	1603.56
232.87	1689.57
233.09	1665.00
233.30	1640.42
233.52	1738.73
233.74	1722.34
233.96	1701.86
234.18	1665.00
234.40	1755.11
234.61	1877.99
234.83	1607.66
235.05	1585.13
235.27	1867.75
235.49	1832.93
235.70	1718.25
235.92	1775.59
236.14	1726.44
236.36	1773.54
236.58	1665.00
236.79	1691.62
237.01	1603.56
237.23	1656.81
237.45	1865.70
237.67	1658.85
237.88	1701.86
238.10	1716.20
238.32	1652.71
238.54	1632.23
238.76	1683.43
238.97	1601.51
239.19	1689.57
239.41	1691.62
239.63	1804.26
239.85	1619.94
240.06	1710.05
240.28	1695.72
240.50	1728.49
240.72	1683.43
240.93	1638.38
241.15	1843.17
241.37	1636.33
241.59	1779.68
241.81	1652.71
242.02	1638.38
242.24	1732.58
242.46	1746.92
242.68	1538.02
242.89	1708.01
243.11	1773.54
243.33	1685.48
243.55	1722.34
243.76	1744.87
243.98	1630.18
244.20	1656.81
244.42	1660.90
244.64	1769.44
244.85	1658.85
245.07	1644.52
245.29	1820.64
245.51	1646.57
245.72	1677.29
245.94	1738.73
246.16	1722.34
246.38	1767.40
246.59	1658.85
246.81	1646.57
247.03	1740.77
247.24	1642.47
247.46	1621.99
247.68	1681.38
247.90	1691.62
248.11	1716.20
248.33	1767.40
248.55	1710.05
248.77	1697.77
248.98	1751.01
249.20	1781.73
249.42	1689.57
249.64	1769.44
249.85	1675.24
250.07	1705.96
250.29	1685.48
250.50	1673.19
250.72	1574.89
250.94	1759.21
251.16	1847.27
251.37	1701.86
251.59	1736.68
251.81	1736.68
252.02	1720.29
252.24	1695.72
252.46	1730.53
252.68	1658.85
252.89	1673.19
253.11	1644.52
253.33	1800.16
253.54	1773.54
253.76	1642.47
253.98	1748.97
254.20	1689.57
254.41	1609.70
254.63	1689.57
254.85	1599.46
255.06	1681.38
255.28	1761.25
255.50	1689.57
255.71	1624.04
255.93	1689.57
256.15	1687.53
256.36	1619.94
256.58	1710.05
256.80	1746.92
257.02	1689.57
257.23	1703.91
257.45	1703.91
257.67	1724.39
257.88	1742.82
258.10	1820.64
258.32	1730.53
258.53	1734.63
258.75	1814.50
258.97	1665.00
259.18	1718.25
259.40	1660.90
259.62	1859.56
259.83	1781.73
260.05	1759.21
260.27	1976.29
260.48	1761.25
260.70	1681.38
260.92	1615.85
261.13	1611.75
261.35	1714.15
261.57	1660.90
261.78	1609.70
262.00	1599.46
262.22	1738.73
262.43	1703.91
262.65	1703.91
262.86	1746.92
263.08	1857.51
263.30	1691.62
263.51	1595.37
263.73	1652.71
263.95	1755.11
264.16	1675.24
264.38	1669.09
264.60	1716.20
264.81	1656.81
265.03	1751.01
265.25	1759.21
265.46	1705.96
265.68	1726.44
265.89	1673.19
266.11	1660.90
266.33	1787.88
266.54	1726.44
266.76	1755.11
266.98	1738.73
267.19	1814.50
267.41	1751.01
267.62	1746.92
267.84	1626.09
268.06	1681.38
268.27	1689.57
268.49	1730.53
268.70	1720.29
268.92	1675.24
269.14	1662.95
269.35	1621.99
269.57	1751.01
269.79	1755.11
270.00	1609.70
270.22	1767.40
270.43	1689.57
270.65	1556.46
270.87	1767.40
271.08	1771.49
271.30	1701.86
271.51	1710.05
271.73	1757.16
271.95	1751.01
272.16	1730.53
272.38	1720.29
272.59	1695.72
272.81	1703.91
273.02	1697.77
273.24	1738.73
273.46	1779.68
273.67	1607.66
273.89	1652.71
274.10	1644.52
274.32	1814.50
274.54	1775.59
274.75	1724.39
274.97	1689.57
275.18	1681.38
275.40	1765.35
275.61	1638.38
275.83	1685.48
276.05	1648.61
276.26	1767.40
276.48	1806.31
276.69	1677.29
276.91	1644.52
277.12	1742.82
277.34	1773.54
277.55	1742.82
277.77	1736.68
277.99	1671.14
278.20	1734.63
278.42	1673.19
278.63	1656.81
278.85	1636.33
279.06	1652.71
279.28	1699.81
279.49	1806.31
279.71	1675.24
279.93	1710.05
280.14	1695.72
280.36	1656.81
280.57	1765.35
280.79	1740.77
281.00	1724.39
281.22	1671.14
281.43	1783.78
281.65	1617.90
281.86	1583.08
282.08	1726.44
282.29	1796.07
282.51	1621.99
282.73	1652.71
282.94	1578.98
283.16	1738.73
283.37	1783.78
283.59	1675.24
283.80	1716.20
284.02	1628.14
284.23	1771.49
284.45	1634.28
284.66	1652.71
284.88	1634.28
285.09	1687.53
285.31	1714.15
285.52	1742.82
285.74	1611.75
285.95	1734.63
286.17	1667.05
286.38	1822.69
286.60	1656.81
286.81	1628.14
287.03	1689.57
287.24	1732.58
287.46	1693.67
287.67	1800.16
287.89	1814.50
288.10	1665.00
288.32	1697.77
288.53	1769.44
288.75	1665.00
288.96	1693.67
289.18	1626.09
289.39	1726.44
289.61	1767.40
289.82	1826.79
290.04	1849.32
290.25	1599.46
290.47	1687.53
290.68	1683.43
290.90	1693.67
291.11	1630.18
291.33	1730.53
291.54	1572.84
291.76	1677.29
291.97	1738.73
292.18	1763.30
292.40	1689.57
292.61	1613.80
292.83	1824.74
293.04	1767.40
293.26	1683.43
293.47	1705.96
293.69	1656.81
293.90	1617.90
294.12	1800.16
294.33	1673.19
294.55	1689.57
294.76	1757.16
294.97	1822.69
295.19	1800.16
295.40	1648.61
295.62	1779.68
295.83	1742.82
296.05	1671.14
296.26	1773.54
296.48	1587.18
296.69	1648.61
296.90	1689.57
297.12	1757.16
297.33	1787.88
297.55	1720.29
297.76	1761.25
297.98	1742.82
298.19	1675.24
298.41	1722.34
298.62	1656.81
298.83	1785.83
299.05	1716.20
299.26	1662.95
299.48	1685.48
299.69	1744.87
299.90	1763.30
300.12	1662.95
300.33	1814.50
300.55	1755.11
300.76	1800.16
300.98	1695.72
301.19	1753.06
301.40	1712.10
301.62	1626.09
301.83	1675.24
302.05	1705.96
302.26	1714.15
302.47	1650.66
302.69	1701.86
302.90	1720.29
303.12	1665.00
303.33	1724.39
303.54	1812.45
303.76	1648.61
303.97	1701.86
304.19	1783.78
304.40	1673.19
304.61	1759.21
304.83	1877.99
305.04	1722.34
305.26	1681.38
305.47	1703.91
305.68	1730.53
305.90	1605.61
306.11	1742.82
306.33	1722.34
306.54	1673.19
306.75	1658.85
306.97	1640.42
307.18	1665.00
307.39	1669.09
307.61	1738.73
307.82	1705.96
308.04	1787.88
308.25	1705.96
308.46	1677.29
308.68	1677.29
308.89	1675.24
309.10	1806.31
309.32	1712.10
309.53	1677.29
309.74	1755.11
309.96	1794.02
310.17	1796.07
310.39	1572.84
310.60	1806.31
310.81	1746.92
311.03	1683.43
311.24	1669.09
311.45	1689.57
311.67	1791.97
311.88	1718.25
312.09	1691.62
312.31	1718.25
312.52	1599.46
312.73	1701.86
312.95	1634.28
313.16	1640.42
313.37	1845.22
313.59	1785.83
313.80	1705.96
314.01	1734.63
314.23	1685.48
314.44	1646.57
314.65	1591.27
314.87	1714.15
315.08	1642.47
315.29	1646.57
315.51	1708.01
315.72	1652.71
315.93	1810.40
316.15	1753.06
316.36	1607.66
316.57	1728.49
316.79	1703.91
317.00	1689.57
317.21	1781.73
317.43	1644.52
317.64	1712.10
317.85	1714.15
318.07	1691.62
318.28	1806.31
318.49	1806.31
318.70	1900.52
318.92	1806.31
319.13	1804.26
319.34	1871.84
319.56	1816.55
319.77	1820.64
319.98	1751.01
320.20	1773.54
320.41	1734.63
320.62	1716.20
320.83	1699.81
321.05	1830.88
321.26	1724.39
321.47	1675.24
321.69	1771.49
321.90	1679.33
322.11	1667.05
322.32	1728.49
322.54	1773.54
322.75	1675.24
322.96	1822.69
323.18	1642.47
323.39	1546.22
323.60	1730.53
323.81	1773.54
324.03	1648.61
324.24	1738.73
324.45	1632.23
324.66	1603.56
324.88	1775.59
325.09	1787.88
325.30	1730.53
325.52	1671.14
325.73	1771.49
325.94	1605.61
326.15	1634.28
326.37	1621.99
326.58	1734.63
326.79	1802.21
327.00	1691.62
327.22	1642.47
327.43	1720.29
327.64	1605.61
327.85	1746.92
328.07	1695.72
328.28	1744.87
328.49	1640.42
328.70	1642.47
328.92	1642.47
329.13	1728.49
329.34	1699.81
329.55	1877.99
329.76	1781.73
329.98	1720.29
330.19	1755.11
330.40	1714.15
330.61	1724.39
330.83	1728.49
331.04	1681.38
331.25	1677.29
331.46	1695.72
331.68	1683.43
331.89	1759.21
332.10	1710.05
332.31	1683.43
332.52	1685.48
332.74	1746.92
332.95	1570.79
333.16	1691.62
333.37	1746.92
333.58	1644.52
333.80	1732.58
334.01	1603.56
334.22	1683.43
334.43	1624.04
334.64	1662.95
334.86	1648.61
335.07	1603.56
335.28	1767.40
335.49	1619.94
335.70	1751.01
335.92	1796.07
336.13	1847.27
336.34	1705.96
336.55	1787.88
336.76	1679.33
336.98	1519.59
337.19	1634.28
337.40	1761.25
337.61	1818.60
337.82	1689.57
338.04	1822.69
338.25	1624.04
338.46	1658.85
338.67	1644.52
338.88	1669.09
339.09	1683.43
339.31	1738.73
339.52	1677.29
339.73	1615.85
339.94	1687.53
340.15	1691.62
340.36	1708.01
340.58	1769.44
340.79	1644.52
341.00	1738.73
341.21	1632.23
341.42	1787.88
341.63	1763.30
341.85	1757.16
342.06	1757.16
342.27	1656.81
342.48	1716.20
342.69	1634.28
342.90	1665.00
343.12	1736.68
343.33	1708.01
343.54	1744.87
343.75	1736.68
343.96	1708.01
344.17	1695.72
344.38	1669.09
344.60	1644.52
344.81	1677.29
345.02	1746.92
345.23	1728.49
345.44	1814.50
345.65	1753.06
345.86	1746.92
346.07	1710.05
346.29	1701.86
346.50	1691.62
346.71	1669.09
346.92	1845.22
347.13	1834.98
347.34	1630.18
347.55	1726.44
347.76	1722.34
347.98	1615.85
348.19	1658.85
348.40	1718.25
348.61	1722.34
348.82	1748.97
349.03	1697.77
349.24	1705.96
349.45	1718.25
349.66	1652.71
349.88	1642.47
350.09	1673.19
350.30	1781.73
350.51	1740.77
350.72	1716.20
350.93	1742.82
351.14	1671.14
351.35	1687.53
351.56	1724.39
351.77	1689.57
351.99	1701.86
352.20	1816.55
352.41	1710.05
352.62	1595.37
352.83	1695.72
353.04	1662.95
353.25	1705.96
353.46	1757.16
353.67	1794.02
353.88	1574.89
354.09	1681.38
354.30	1681.38
354.52	1699.81
354.73	1675.24
354.94	1587.18
355.15	1730.53
355.36	1830.88
355.57	1636.33
355.78	1710.05
355.99	1656.81
356.20	1632.23
356.41	1753.06
356.62	1773.54
356.83	1699.81
357.04	1757.16
357.25	1650.66
357.46	1712.10
357.68	1656.81
357.89	1662.95
358.10	1652.71
358.31	1730.53
358.52	1785.83
358.73	1685.48
358.94	1656.81
359.15	1652.71
359.36	1763.30
359.57	1630.18
359.78	1656.81
359.99	1794.02
360.20	1570.79
360.41	1712.10
360.62	1828.84
360.83	1714.15
361.04	1675.24
361.25	1685.48
361.46	1748.97
361.67	1736.68
361.88	1783.78
362.09	1671.14
362.30	1718.25
362.51	1687.53
362.72	1695.72
362.93	1714.15
363.14	1734.63
363.35	1691.62
363.56	1675.24
363.78	1755.11
363.99	1773.54
364.20	1681.38
364.41	1685.48
364.62	1789.92
364.83	1685.48
365.04	1687.53
365.25	1748.97
365.46	1761.25
365.67	1609.70
365.88	1660.90
366.09	1667.05
366.30	1681.38
366.51	1785.83
366.72	1691.62
366.93	1714.15
367.14	1650.66
367.35	1722.34
367.56	1734.63
367.77	1814.50
367.98	1699.81
368.18	1744.87
368.39	1699.81
368.60	1691.62
368.81	1708.01
369.02	1722.34
369.23	1769.44
369.44	1658.85
369.65	1634.28
369.86	1701.86
370.07	1753.06
370.28	1679.33
370.49	1742.82
370.70	1710.05
370.91	1556.46
371.12	1630.18
371.33	1834.98
371.54	1638.38
371.75	1785.83
371.96	1656.81
372.17	1593.32
372.38	1611.75
372.59	1738.73
372.80	1693.67
373.01	1705.96
373.22	1701.86
373.43	1617.90
373.64	1662.95
373.85	1681.38
374.06	1779.68
374.26	1667.05
374.47	1763.30
374.68	1771.49
374.89	1732.58
375.10	1665.00
375.31	1769.44
375.52	1695.72
375.73	1753.06
375.94	1669.09
376.15	1771.49
376.36	1669.09
376.57	1730.53
376.78	1658.85
376.99	1642.47
377.20	1773.54
377.40	1619.94
377.61	1839.08
377.82	1662.95
378.03	1748.97
378.24	1736.68
378.45	1777.64
378.66	1710.05
378.87	1599.46
379.08	1576.94
379.29	1648.61
379.50	1794.02
379.71	1681.38
379.91	1779.68
380.12	1738.73
380.33	1736.68
380.54	1724.39
380.75	1669.09
380.96	1669.09
381.17	1746.92
381.38	1703.91
381.59	1708.01
381.80	1658.85
382.00	1867.75
382.21	1757.16
382.42	1888.23
382.63	1834.98
382.84	1753.06
383.05	1744.87
383.26	1781.73
383.47	1775.59
383.68	1683.43
383.88	1818.60
384.09	1802.21
384.30	1814.50
384.51	1708.01
384.72	1679.33
384.93	1658.85
385.14	1771.49
385.35	1767.40
385.55	1587.18
385.76	1832.93
385.97	1724.39
386.18	1554.41
386.39	1703.91
386.60	1769.44
386.81	1658.85
387.02	1636.33
387.22	1679.33
387.43	1841.12
387.64	1789.92
387.85	1935.33
388.06	2166.75
388.27	4188.10
388.48	6834.07
388.68	8193.92
388.89	9695.08
389.10	9848.68
389.31	8763.26
389.52	7731.08
389.73	6807.45
389.93	6076.32
390.14	5867.43
390.35	5283.76
390.56	4573.11
390.77	3792.84
390.98	3061.71
391.18	2508.76
391.39	2093.02
391.60	1906.66
391.81	1791.97
392.02	1722.34
392.23	1849.32
392.43	1753.06
392.64	1828.84
392.85	1691.62
393.06	1806.31
393.27	1705.96
393.47	1703.91
393.68	1699.81
393.89	1718.25
394.10	1685.48
394.31	1695.72
394.52	1669.09
394.72	1652.71
394.93	1695.72
395.14	1669.09
395.35	1734.63
395.56	1708.01
395.76	1726.44
395.97	1738.73
396.18	1904.61
396.39	1847.27
396.60	2050.02
396.80	1923.04
397.01	1802.21
397.22	1728.49
397.43	1830.88
397.64	1710.05
397.84	1734.63
398.05	1798.12
398.26	1722.34
398.47	1804.26
398.67	1847.27
398.88	1689.57
399.09	1701.86
399.30	1644.52
399.51	1710.05
399.71	1656.81
399.92	1701.86
400.13	1718.25
400.34	1726.44
400.54	1728.49
400.75	1708.01
400.96	1810.40
401.17	1849.32
401.37	1785.83
401.58	1662.95
401.79	1724.39
402.00	1867.75
402.21	1937.38
402.41	1920.99
402.62	1964.00
402.83	1959.91
403.04	1998.82
403.24	2082.78
403.45	1906.66
403.66	1914.85
403.87	1910.75
404.07	1865.70
404.28	1920.99
404.49	1857.51
404.70	1712.10
404.90	1773.54
405.11	1673.19
405.32	1783.78
405.52	1701.86
405.73	1591.27
405.94	1644.52
406.15	1710.05
406.35	1708.01
406.56	1769.44
406.77	1693.67
406.98	1683.43
407.18	1652.71
407.39	1812.45
407.60	1683.43
407.80	1656.81
408.01	1652.71
408.22	1716.20
408.43	1708.01
408.63	1689.57
408.84	1755.11
409.05	1720.29
409.25	1652.71
409.46	1705.96
409.67	1689.57
409.88	1642.47
410.08	1734.63
410.29	1656.81
410.50	1736.68
410.70	1708.01
410.91	1619.94
411.12	1730.53
411.32	1669.09
411.53	1658.85
411.74	1773.54
411.95	1705.96
412.15	1708.01
412.36	1753.06
412.57	1740.77
412.77	1843.17
412.98	1714.15
413.19	1656.81
413.39	1767.40
413.60	1730.53
413.81	1816.55
414.01	1654.76
414.22	1742.82
414.43	1767.40
414.63	1710.05
414.84	1798.12
415.05	1779.68
415.25	1615.85
415.46	1814.50
415.67	1708.01
415.87	1759.21
416.08	1734.63
416.29	1673.19
416.49	1710.05
416.70	1748.97
416.91	1650.66
417.11	1710.05
417.32	1705.96
417.53	1679.33
417.73	1767.40
417.94	1722.34
418.15	1730.53
418.35	1677.29
418.56	1685.48
418.77	1837.03
418.97	1665.00
419.18	1742.82
419.38	1560.55
419.59	1689.57
419.80	1791.97
420.00	1656.81
420.21	1673.19
420.42	1712.10
420.62	1689.57
420.83	1642.47
421.04	1693.67
421.24	1732.58
421.45	1779.68
421.65	1679.33
421.86	1687.53
422.07	1697.77
422.27	1740.77
422.48	1724.39
422.69	1607.66
422.89	1699.81
423.10	1673.19
423.30	1626.09
423.51	1708.01
423.72	1765.35
423.92	1710.05
424.13	1677.29
424.33	1703.91
424.54	1740.77
424.75	1759.21
424.95	1722.34
425.16	1744.87
425.36	1697.77
425.57	1787.88
425.78	1742.82
425.98	1708.01
426.19	1695.72
426.39	1654.76
426.60	1693.67
426.81	1837.03
427.01	1642.47
427.22	1705.96
427.42	1671.14
427.63	1708.01
427.83	1748.97
428.04	1746.92
428.25	1837.03
428.45	1806.31
428.66	1804.26
428.86	1660.90
429.07	1669.09
429.28	1632.23
429.48	1667.05
429.69	1705.96
429.89	1722.34
430.10	1667.05
430.30	1738.73
430.51	1763.30
430.71	1648.61
430.92	1595.37
431.13	1695.72
431.33	1765.35
431.54	1710.05
431.74	1808.36
431.95	1830.88
432.15	1667.05
432.36	1697.77
432.56	1746.92
432.77	1796.07
432.98	1802.21
433.18	1716.20
433.39	1693.67
433.59	1656.81
433.80	1818.60
434.00	1859.56
434.21	1714.15
434.41	1656.81
434.62	1855.46
434.82	1628.14
435.03	1683.43
435.23	1734.63
435.44	1632.23
435.64	1738.73
435.85	1716.20
436.06	1755.11
436.26	1757.16
436.47	1681.38
436.67	1613.80
436.88	1708.01
437.08	1722.34
437.29	1828.84
437.49	1712.10
437.70	1798.12
437.90	1742.82
438.11	1828.84
438.31	1716.20
438.52	1794.02
438.72	1755.11
438.93	1900.52
439.13	1695.72
439.34	1873.89
439.54	1746.92
439.75	1871.84
439.95	1738.73
440.16	1746.92
440.36	1726.44
440.57	1742.82
440.77	1779.68
440.98	1767.40
441.18	1755.11
441.39	1652.71
441.59	1640.42
441.80	1826.79
442.00	1607.66
442.21	1910.75
442.41	1699.81
442.62	1791.97
442.82	1673.19
443.02	1673.19
443.23	1722.34
443.43	1703.91
443.64	1816.55
443.84	1646.57
444.05	1875.94
444.25	1683.43
444.46	1667.05
444.66	1732.58
444.87	1814.50
445.07	1607.66
445.28	1746.92
445.48	1808.36
445.69	1714.15
445.89	1859.56
446.09	1724.39
446.30	2029.54
446.50	2680.79
446.71	3796.93
446.91	4433.85
447.12	4767.67
447.32	4741.05
447.53	4296.64
447.73	3868.61
447.93	3520.46
448.14	3330.00
448.34	3205.07
448.55	2901.97
448.75	2877.40
448.96	2686.94
449.16	2430.94
449.36	2224.09
449.57	2131.94
449.77	1869.80
449.98	1775.59
450.18	1841.12
450.39	1779.68
450.59	1779.68
450.79	1787.88
451.00	1634.28
451.20	1705.96
451.41	1699.81
451.61	1810.40
451.81	1841.12
452.02	1677.29
452.22	1716.20
452.43	1687.53
452.63	1730.53
