SpectraSuite Data File
++++++++++++++++++++++++++++++++++++
Date: Mon Jun 06 13:02:37 CEST 2016
User: root
Dark Spectrum Present: No
Reference Spectrum Present: No
Number of Sampled Component Spectra: 1
Spectrometers: USB4C02835
Integration Time (usec): 100000 (USB4C02835)
Spectra Averaged: 1 (USB4C02835)
Boxcar Smoothing: 0 (USB4C02835)
Correct for Electrical Dark: No (USB4C02835)
Strobe/Lamp Enabled: No (USB4C02835)
Correct for Detector Non-linearity: No (USB4C02835)
Correct for Stray Light: No (USB4C02835)
Number of Pixels in Processed Spectrum: 3648
>>>>>Begin Processed Spectral Data<<<<<
177.47	1492.97
177.69	1492.97
177.91	1492.97
178.13	1480.68
178.36	1470.44
178.58	1681.38
178.80	1732.58
179.02	1552.36
179.24	1736.68
179.46	1687.53
179.68	1775.59
179.90	1667.05
180.13	1697.77
180.35	1703.91
180.57	1730.53
180.79	1722.34
181.01	1703.91
181.23	1810.40
181.45	1724.39
181.67	1748.97
181.90	1771.49
182.12	1634.28
182.34	1697.77
182.56	1732.58
182.78	1693.67
183.00	1716.20
183.22	1667.05
183.44	1677.29
183.66	1771.49
183.89	1789.92
184.11	1681.38
184.33	1736.68
184.55	1755.11
184.77	1767.40
184.99	1681.38
185.21	1693.67
185.43	1843.17
185.65	1710.05
185.87	1742.82
186.10	1794.02
186.32	1869.80
186.54	1689.57
186.76	1738.73
186.98	1693.67
187.20	1748.97
187.42	1687.53
187.64	1746.92
187.86	1722.34
188.08	1712.10
188.30	1701.86
188.52	1673.19
188.75	1746.92
188.97	1812.45
189.19	1724.39
189.41	1662.95
189.63	1720.29
189.85	1673.19
190.07	1648.61
190.29	1646.57
190.51	1691.62
190.73	1640.42
190.95	1822.69
191.17	1648.61
191.39	1636.33
191.61	1701.86
191.84	1656.81
192.06	1673.19
192.28	1578.98
192.50	1863.65
192.72	1699.81
192.94	1716.20
193.16	1708.01
193.38	1710.05
193.60	1671.14
193.82	1646.57
194.04	1771.49
194.26	1701.86
194.48	1722.34
194.70	1691.62
194.92	1658.85
195.14	1757.16
195.36	1726.44
195.58	1716.20
195.80	1677.29
196.02	1630.18
196.24	1685.48
196.46	1685.48
196.69	1607.66
196.91	1806.31
197.13	1751.01
197.35	1695.72
197.57	1789.92
197.79	1689.57
198.01	1724.39
198.23	1675.24
198.45	1705.96
198.67	1636.33
198.89	1697.77
199.11	1718.25
199.33	1675.24
199.55	1550.31
199.77	1689.57
199.99	1703.91
200.21	1626.09
200.43	1744.87
200.65	1552.36
200.87	1632.23
201.09	1759.21
201.31	1648.61
201.53	1736.68
201.75	1679.33
201.97	1662.95
202.19	1738.73
202.41	1716.20
202.63	1787.88
202.85	1697.77
203.07	1789.92
203.29	1705.96
203.51	1656.81
203.73	1634.28
203.95	1898.47
204.17	1658.85
204.39	1781.73
204.61	1705.96
204.83	1615.85
205.05	1746.92
205.27	1796.07
205.49	1849.32
205.71	1732.58
205.93	1630.18
206.15	1634.28
206.37	1697.77
206.59	1751.01
206.81	1630.18
207.03	1662.95
207.25	1630.18
207.47	1789.92
207.69	1695.72
207.91	1769.44
208.13	1767.40
208.34	1746.92
208.56	1574.89
208.78	1763.30
209.00	1662.95
209.22	1732.58
209.44	1691.62
209.66	1660.90
209.88	1708.01
210.10	1720.29
210.32	1669.09
210.54	1765.35
210.76	1660.90
210.98	1662.95
211.20	1619.94
211.42	1742.82
211.64	1781.73
211.86	1724.39
212.08	1748.97
212.30	1769.44
212.52	1628.14
212.74	1683.43
212.96	1714.15
213.17	1781.73
213.39	1691.62
213.61	1738.73
213.83	1705.96
214.05	1632.23
214.27	1710.05
214.49	1632.23
214.71	1662.95
214.93	1812.45
215.15	1652.71
215.37	1798.12
215.59	1628.14
215.81	1771.49
216.03	1716.20
216.24	1665.00
216.46	1730.53
216.68	1773.54
216.90	1748.97
217.12	1771.49
217.34	1650.66
217.56	1679.33
217.78	1824.74
218.00	1740.77
218.22	1740.77
218.44	1636.33
218.66	1744.87
218.87	1800.16
219.09	1744.87
219.31	1746.92
219.53	1697.77
219.75	1603.56
219.97	1722.34
220.19	1720.29
220.41	1646.57
220.63	1736.68
220.85	1679.33
221.06	1675.24
221.28	1781.73
221.50	1771.49
221.72	1665.00
221.94	1697.77
222.16	1759.21
222.38	1732.58
222.60	1748.97
222.82	1703.91
223.03	1794.02
223.25	1583.08
223.47	1789.92
223.69	1845.22
223.91	1730.53
224.13	1738.73
224.35	1691.62
224.57	1783.78
224.78	1705.96
225.00	1697.77
225.22	1699.81
225.44	1712.10
225.66	1744.87
225.88	1695.72
226.10	1705.96
226.32	1714.15
226.53	1689.57
226.75	1708.01
226.97	1640.42
227.19	1710.05
227.41	1679.33
227.63	1636.33
227.85	1630.18
228.06	1675.24
228.28	1720.29
228.50	1730.53
228.72	1607.66
228.94	1714.15
229.16	1624.04
229.37	1628.14
229.59	1642.47
229.81	1755.11
230.03	1656.81
230.25	1578.98
230.47	1595.37
230.69	1638.38
230.90	1703.91
231.12	1640.42
231.34	1693.67
231.56	1687.53
231.78	1636.33
232.00	1740.77
232.21	1691.62
232.43	1714.15
232.65	1644.52
232.87	1699.81
233.09	1654.76
233.30	1675.24
233.52	1773.54
233.74	1732.58
233.96	1761.25
234.18	1677.29
234.40	1691.62
234.61	1804.26
234.83	1601.51
235.05	1640.42
235.27	1839.08
235.49	1849.32
235.70	1662.95
235.92	1791.97
236.14	1796.07
236.36	1800.16
236.58	1701.86
236.79	1726.44
237.01	1720.29
237.23	1669.09
237.45	1796.07
237.67	1665.00
237.88	1742.82
238.10	1843.17
238.32	1656.81
238.54	1660.90
238.76	1695.72
238.97	1667.05
239.19	1636.33
239.41	1726.44
239.63	1728.49
239.85	1640.42
240.06	1693.67
240.28	1642.47
240.50	1751.01
240.72	1685.48
240.93	1730.53
241.15	1761.25
241.37	1679.33
241.59	1826.79
241.81	1658.85
242.02	1714.15
242.24	1587.18
242.46	1740.77
242.68	1648.61
242.89	1730.53
243.11	1744.87
243.33	1685.48
243.55	1679.33
243.76	1689.57
243.98	1660.90
244.20	1716.20
244.42	1710.05
244.64	1734.63
244.85	1665.00
245.07	1722.34
245.29	1691.62
245.51	1646.57
245.72	1605.61
245.94	1693.67
246.16	1638.38
246.38	1742.82
246.59	1667.05
246.81	1689.57
247.03	1712.10
247.24	1593.32
247.46	1685.48
247.68	1757.16
247.90	1683.43
248.11	1699.81
248.33	1738.73
248.55	1734.63
248.77	1728.49
248.98	1738.73
249.20	1726.44
249.42	1759.21
249.64	1722.34
249.85	1662.95
250.07	1714.15
250.29	1679.33
250.50	1675.24
250.72	1640.42
250.94	1695.72
251.16	1810.40
251.37	1794.02
251.59	1708.01
251.81	1765.35
252.02	1722.34
252.24	1710.05
252.46	1787.88
252.68	1628.14
252.89	1677.29
253.11	1626.09
253.33	1837.03
253.54	1751.01
253.76	1679.33
253.98	1808.36
254.20	1665.00
254.41	1654.76
254.63	1695.72
254.85	1611.75
255.06	1665.00
255.28	1683.43
255.50	1697.77
255.71	1714.15
255.93	1632.23
256.15	1656.81
256.36	1691.62
256.58	1730.53
256.80	1722.34
257.02	1722.34
257.23	1660.90
257.45	1746.92
257.67	1732.58
257.88	1638.38
258.10	1732.58
258.32	1665.00
258.53	1765.35
258.75	1783.78
258.97	1615.85
259.18	1697.77
259.40	1722.34
259.62	1769.44
259.83	1773.54
260.05	1777.64
260.27	1980.39
260.48	1679.33
260.70	1679.33
260.92	1710.05
261.13	1724.39
261.35	1744.87
261.57	1714.15
261.78	1650.66
262.00	1617.90
262.22	1732.58
262.43	1677.29
262.65	1646.57
262.86	1699.81
263.08	1869.80
263.30	1712.10
263.51	1591.27
263.73	1697.77
263.95	1769.44
264.16	1646.57
264.38	1630.18
264.60	1748.97
264.81	1669.09
265.03	1738.73
265.25	1648.61
265.46	1730.53
265.68	1720.29
265.89	1763.30
266.11	1667.05
266.33	1755.11
266.54	1732.58
266.76	1687.53
266.98	1685.48
267.19	1849.32
267.41	1748.97
267.62	1746.92
267.84	1593.32
268.06	1724.39
268.27	1683.43
268.49	1796.07
268.70	1796.07
268.92	1705.96
269.14	1617.90
269.35	1611.75
269.57	1763.30
269.79	1652.71
270.00	1701.86
270.22	1896.42
270.43	1671.14
270.65	1581.03
270.87	1751.01
271.08	1730.53
271.30	1712.10
271.51	1671.14
271.73	1689.57
271.95	1763.30
272.16	1746.92
272.38	1632.23
272.59	1742.82
272.81	1662.95
273.02	1720.29
273.24	1724.39
273.46	1738.73
273.67	1683.43
273.89	1611.75
274.10	1685.48
274.32	1761.25
274.54	1648.61
274.75	1771.49
274.97	1660.90
275.18	1736.68
275.40	1783.78
275.61	1736.68
275.83	1759.21
276.05	1660.90
276.26	1669.09
276.48	1665.00
276.69	1667.05
276.91	1650.66
277.12	1824.74
277.34	1734.63
277.55	1822.69
277.77	1687.53
277.99	1718.25
278.20	1673.19
278.42	1593.32
278.63	1660.90
278.85	1621.99
279.06	1650.66
279.28	1753.06
279.49	1720.29
279.71	1714.15
279.93	1759.21
280.14	1701.86
280.36	1607.66
280.57	1804.26
280.79	1712.10
281.00	1660.90
281.22	1605.61
281.43	1716.20
281.65	1538.02
281.86	1689.57
282.08	1759.21
282.29	1769.44
282.51	1619.94
282.73	1708.01
282.94	1665.00
283.16	1796.07
283.37	1830.88
283.59	1703.91
283.80	1755.11
284.02	1789.92
284.23	1734.63
284.45	1736.68
284.66	1566.70
284.88	1632.23
285.09	1695.72
285.31	1669.09
285.52	1671.14
285.74	1636.33
285.95	1681.38
286.17	1779.68
286.38	1734.63
286.60	1689.57
286.81	1673.19
287.03	1650.66
287.24	1652.71
287.46	1734.63
287.67	1777.64
287.89	1791.97
288.10	1632.23
288.32	1724.39
288.53	1832.93
288.75	1703.91
288.96	1701.86
289.18	1624.04
289.39	1730.53
289.61	1755.11
289.82	1828.84
290.04	1759.21
290.25	1710.05
290.47	1781.73
290.68	1636.33
290.90	1703.91
291.11	1656.81
291.33	1755.11
291.54	1611.75
291.76	1673.19
291.97	1697.77
292.18	1746.92
292.40	1685.48
292.61	1656.81
292.83	1822.69
293.04	1683.43
293.26	1714.15
293.47	1652.71
293.69	1613.80
293.90	1687.53
294.12	1818.60
294.33	1708.01
294.55	1726.44
294.76	1673.19
294.97	1781.73
295.19	1810.40
295.40	1734.63
295.62	1757.16
295.83	1740.77
296.05	1658.85
296.26	1781.73
296.48	1671.14
296.69	1660.90
296.90	1724.39
297.12	1679.33
297.33	1714.15
297.55	1712.10
297.76	1769.44
297.98	1710.05
298.19	1697.77
298.41	1660.90
298.62	1615.85
298.83	1798.12
299.05	1632.23
299.26	1636.33
299.48	1648.61
299.69	1748.97
299.90	1757.16
300.12	1632.23
300.33	1673.19
300.55	1744.87
300.76	1732.58
300.98	1644.52
301.19	1798.12
301.40	1683.43
301.62	1755.11
301.83	1722.34
302.05	1738.73
302.26	1615.85
302.47	1734.63
302.69	1648.61
302.90	1673.19
303.12	1613.80
303.33	1693.67
303.54	1724.39
303.76	1722.34
303.97	1662.95
304.19	1761.25
304.40	1658.85
304.61	1759.21
304.83	1771.49
305.04	1746.92
305.26	1726.44
305.47	1564.65
305.68	1736.68
305.90	1621.99
306.11	1787.88
306.33	1599.46
306.54	1693.67
306.75	1669.09
306.97	1615.85
307.18	1630.18
307.39	1724.39
307.61	1681.38
307.82	1710.05
308.04	1730.53
308.25	1630.18
308.46	1738.73
308.68	1730.53
308.89	1701.86
309.10	1800.16
309.32	1806.31
309.53	1683.43
309.74	1722.34
309.96	1708.01
310.17	1738.73
310.39	1640.42
310.60	1685.48
310.81	1736.68
311.03	1716.20
311.24	1728.49
311.45	1751.01
311.67	1761.25
311.88	1765.35
312.09	1665.00
312.31	1718.25
312.52	1708.01
312.73	1724.39
312.95	1652.71
313.16	1644.52
313.37	1757.16
313.59	1714.15
313.80	1759.21
314.01	1738.73
314.23	1726.44
314.44	1683.43
314.65	1632.23
314.87	1646.57
315.08	1703.91
315.29	1685.48
315.51	1665.00
315.72	1558.50
315.93	1748.97
316.15	1751.01
316.36	1738.73
316.57	1748.97
316.79	1671.14
317.00	1662.95
317.21	1757.16
317.43	1648.61
317.64	1767.40
317.85	1601.51
318.07	1732.58
318.28	1658.85
318.49	1824.74
318.70	1904.61
318.92	1759.21
319.13	1732.58
319.34	1855.46
319.56	1822.69
319.77	1787.88
319.98	1740.77
320.20	1771.49
320.41	1722.34
320.62	1761.25
320.83	1701.86
321.05	1875.94
321.26	1791.97
321.47	1691.62
321.69	1865.70
321.90	1613.80
322.11	1697.77
322.32	1677.29
322.54	1738.73
322.75	1712.10
322.96	1796.07
323.18	1595.37
323.39	1656.81
323.60	1669.09
323.81	1779.68
324.03	1611.75
324.24	1673.19
324.45	1720.29
324.66	1656.81
324.88	1761.25
325.09	1726.44
325.30	1695.72
325.52	1722.34
325.73	1730.53
325.94	1603.56
326.15	1673.19
326.37	1687.53
326.58	1748.97
326.79	1791.97
327.00	1689.57
327.22	1714.15
327.43	1667.05
327.64	1554.41
327.85	1757.16
328.07	1695.72
328.28	1763.30
328.49	1648.61
328.70	1720.29
328.92	1652.71
329.13	1667.05
329.34	1705.96
329.55	1783.78
329.76	1648.61
329.98	1710.05
330.19	1771.49
330.40	1791.97
330.61	1658.85
330.83	1742.82
331.04	1603.56
331.25	1734.63
331.46	1658.85
331.68	1595.37
331.89	1755.11
332.10	1701.86
332.31	1617.90
332.52	1699.81
332.74	1824.74
332.95	1644.52
333.16	1671.14
333.37	1751.01
333.58	1722.34
333.80	1726.44
334.01	1648.61
334.22	1708.01
334.43	1673.19
334.64	1705.96
334.86	1675.24
335.07	1650.66
335.28	1720.29
335.49	1677.29
335.70	1660.90
335.92	1710.05
336.13	1849.32
336.34	1757.16
336.55	1681.38
336.76	1679.33
336.98	1595.37
337.19	1630.18
337.40	1781.73
337.61	1820.64
337.82	1716.20
338.04	1773.54
338.25	1609.70
338.46	1638.38
338.67	1591.27
338.88	1701.86
339.09	1654.76
339.31	1615.85
339.52	1669.09
339.73	1611.75
339.94	1720.29
340.15	1726.44
340.36	1683.43
340.58	1734.63
340.79	1628.14
341.00	1726.44
341.21	1652.71
341.42	1882.08
341.63	1660.90
341.85	1800.16
342.06	1736.68
342.27	1615.85
342.48	1699.81
342.69	1609.70
342.90	1728.49
343.12	1732.58
343.33	1640.42
343.54	1652.71
343.75	1802.21
343.96	1636.33
344.17	1648.61
344.38	1716.20
344.60	1679.33
344.81	1705.96
345.02	1679.33
345.23	1834.98
345.44	1789.92
345.65	1759.21
345.86	1703.91
346.07	1681.38
346.29	1605.61
346.50	1687.53
346.71	1742.82
346.92	1742.82
347.13	1816.55
347.34	1755.11
347.55	1689.57
347.76	1781.73
347.98	1648.61
348.19	1699.81
348.40	1816.55
348.61	1660.90
348.82	1871.84
349.03	1761.25
349.24	1640.42
349.45	1804.26
349.66	1556.46
349.88	1714.15
350.09	1708.01
350.30	1765.35
350.51	1748.97
350.72	1675.24
350.93	1763.30
351.14	1669.09
351.35	1705.96
351.56	1648.61
351.77	1644.52
351.99	1740.77
352.20	1791.97
352.41	1751.01
352.62	1646.57
352.83	1652.71
353.04	1689.57
353.25	1728.49
353.46	1781.73
353.67	1730.53
353.88	1613.80
354.09	1714.15
354.30	1718.25
354.52	1748.97
354.73	1669.09
354.94	1634.28
355.15	1650.66
355.36	1769.44
355.57	1701.86
355.78	1710.05
355.99	1689.57
356.20	1722.34
356.41	1849.32
356.62	1751.01
356.83	1699.81
357.04	1734.63
357.25	1581.03
357.46	1675.24
357.68	1566.70
357.89	1656.81
358.10	1697.77
358.31	1669.09
358.52	1722.34
358.73	1587.18
358.94	1642.47
359.15	1662.95
359.36	1746.92
359.57	1789.92
359.78	1617.90
359.99	1751.01
360.20	1738.73
360.41	1683.43
360.62	1744.87
360.83	1734.63
361.04	1734.63
361.25	1687.53
361.46	1765.35
361.67	1847.27
361.88	1773.54
362.09	1781.73
362.30	1724.39
362.51	1734.63
362.72	1675.24
362.93	1728.49
363.14	1773.54
363.35	1656.81
363.56	1705.96
363.78	1789.92
363.99	1810.40
364.20	1691.62
364.41	1712.10
364.62	1796.07
364.83	1748.97
365.04	1646.57
365.25	1703.91
365.46	1787.88
365.67	1640.42
365.88	1609.70
366.09	1746.92
366.30	1714.15
366.51	1681.38
366.72	1667.05
366.93	1740.77
367.14	1691.62
367.35	1738.73
367.56	1675.24
367.77	1738.73
367.98	1740.77
368.18	1726.44
368.39	1722.34
368.60	1675.24
368.81	1800.16
369.02	1751.01
369.23	1714.15
369.44	1624.04
369.65	1671.14
369.86	1783.78
370.07	1724.39
370.28	1681.38
370.49	1771.49
370.70	1701.86
370.91	1593.32
371.12	1662.95
371.33	1806.31
371.54	1632.23
371.75	1804.26
371.96	1542.12
372.17	1693.67
372.38	1701.86
372.59	1763.30
372.80	1705.96
373.01	1734.63
373.22	1708.01
373.43	1755.11
373.64	1611.75
373.85	1800.16
374.06	1822.69
374.26	1742.82
374.47	1777.64
374.68	1773.54
374.89	1681.38
375.10	1660.90
375.31	1738.73
375.52	1701.86
375.73	1804.26
375.94	1695.72
376.15	1746.92
376.36	1712.10
376.57	1673.19
376.78	1691.62
376.99	1789.92
377.20	1746.92
377.40	1681.38
377.61	1816.55
377.82	1656.81
378.03	1824.74
378.24	1722.34
378.45	1720.29
378.66	1826.79
378.87	1558.50
379.08	1638.38
379.29	1656.81
379.50	1771.49
379.71	1640.42
379.91	1759.21
380.12	1636.33
380.33	1660.90
380.54	1665.00
380.75	1609.70
380.96	1734.63
381.17	1783.78
381.38	1777.64
381.59	1820.64
381.80	1746.92
382.00	1863.65
382.21	1800.16
382.42	1773.54
382.63	1800.16
382.84	1683.43
383.05	1691.62
383.26	1775.59
383.47	1636.33
383.68	1863.65
383.88	1730.53
384.09	1665.00
384.30	1857.51
384.51	1732.58
384.72	1691.62
384.93	1699.81
385.14	1683.43
385.35	1669.09
385.55	1632.23
385.76	1746.92
385.97	1703.91
386.18	1632.23
386.39	1705.96
386.60	1689.57
386.81	1652.71
387.02	1656.81
387.22	1677.29
387.43	1810.40
387.64	1810.40
387.85	1869.80
388.06	2138.08
388.27	4321.21
388.48	6846.36
388.68	8277.89
388.89	9684.84
389.10	9946.98
389.31	8632.19
389.52	7698.31
389.73	6719.39
389.93	6295.46
390.14	5916.58
390.35	5261.23
390.56	4521.92
390.77	3708.87
390.98	3127.25
391.18	2457.56
391.39	2039.78
391.60	1802.21
391.81	1851.36
392.02	1736.68
392.23	1787.88
392.43	1726.44
392.64	1779.68
392.85	1769.44
393.06	1851.36
393.27	1679.33
393.47	1640.42
393.68	1755.11
393.89	1660.90
394.10	1849.32
394.31	1667.05
394.52	1662.95
394.72	1726.44
394.93	1757.16
395.14	1665.00
395.35	1724.39
395.56	1679.33
395.76	1656.81
395.97	1824.74
396.18	1822.69
396.39	1816.55
396.60	2058.21
396.80	1951.71
397.01	1781.73
397.22	1769.44
397.43	1822.69
397.64	1771.49
397.84	1802.21
398.05	1826.79
398.26	1720.29
398.47	1755.11
398.67	1742.82
398.88	1701.86
399.09	1798.12
399.30	1667.05
399.51	1693.67
399.71	1697.77
399.92	1681.38
400.13	1746.92
400.34	1703.91
400.54	1728.49
400.75	1785.83
400.96	1751.01
401.17	1837.03
401.37	1685.48
401.58	1695.72
401.79	1789.92
402.00	1861.60
402.21	1984.48
402.41	1943.52
402.62	1984.48
402.83	2033.63
403.04	1943.52
403.24	2097.12
403.45	1855.46
403.66	1984.48
403.87	1849.32
404.07	1888.23
404.28	1914.85
404.49	1855.46
404.70	1806.31
404.90	1755.11
405.11	1736.68
405.32	1726.44
405.52	1652.71
405.73	1658.85
405.94	1644.52
406.15	1753.06
406.35	1703.91
406.56	1693.67
406.77	1738.73
406.98	1800.16
407.18	1685.48
407.39	1789.92
407.60	1716.20
407.80	1769.44
408.01	1648.61
408.22	1751.01
408.43	1677.29
408.63	1736.68
408.84	1751.01
409.05	1673.19
409.25	1650.66
409.46	1755.11
409.67	1660.90
409.88	1665.00
410.08	1834.98
410.29	1705.96
410.50	1730.53
410.70	1816.55
410.91	1642.47
411.12	1697.77
411.32	1714.15
411.53	1607.66
411.74	1800.16
411.95	1697.77
412.15	1748.97
412.36	1812.45
412.57	1730.53
412.77	1853.41
412.98	1746.92
413.19	1728.49
413.39	1753.06
413.60	1755.11
413.81	1773.54
414.01	1652.71
414.22	1783.78
414.43	1802.21
414.63	1720.29
414.84	1728.49
415.05	1724.39
415.25	1585.13
415.46	1701.86
415.67	1695.72
415.87	1769.44
416.08	1634.28
416.29	1697.77
416.49	1753.06
416.70	1728.49
416.91	1662.95
417.11	1705.96
417.32	1734.63
417.53	1820.64
417.73	1789.92
417.94	1652.71
418.15	1728.49
418.35	1703.91
418.56	1730.53
418.77	1802.21
418.97	1681.38
419.18	1708.01
419.38	1546.22
419.59	1654.76
419.80	1796.07
420.00	1763.30
420.21	1697.77
420.42	1769.44
420.62	1710.05
420.83	1660.90
421.04	1675.24
421.24	1665.00
421.45	1755.11
421.65	1767.40
421.86	1695.72
422.07	1755.11
422.27	1712.10
422.48	1732.58
422.69	1642.47
422.89	1736.68
423.10	1632.23
423.30	1619.94
423.51	1718.25
423.72	1691.62
423.92	1753.06
424.13	1693.67
424.33	1738.73
424.54	1769.44
424.75	1716.20
424.95	1771.49
425.16	1697.77
425.36	1720.29
425.57	1769.44
425.78	1710.05
425.98	1728.49
426.19	1652.71
426.39	1691.62
426.60	1697.77
426.81	1796.07
427.01	1677.29
427.22	1632.23
427.42	1587.18
427.63	1658.85
427.83	1804.26
428.04	1732.58
428.25	1763.30
428.45	1726.44
428.66	1697.77
428.86	1740.77
429.07	1687.53
429.28	1681.38
429.48	1679.33
429.69	1714.15
429.89	1732.58
430.10	1703.91
430.30	1763.30
430.51	1673.19
430.71	1613.80
430.92	1746.92
431.13	1607.66
431.33	1724.39
431.54	1695.72
431.74	1783.78
431.95	1808.36
432.15	1683.43
432.36	1701.86
432.56	1751.01
432.77	1763.30
432.98	1849.32
433.18	1763.30
433.39	1763.30
433.59	1652.71
433.80	1777.64
434.00	1779.68
434.21	1681.38
434.41	1720.29
434.62	1904.61
434.82	1599.46
435.03	1714.15
435.23	1708.01
435.44	1626.09
435.64	1677.29
435.85	1746.92
436.06	1804.26
436.26	1759.21
436.47	1761.25
436.67	1679.33
436.88	1685.48
437.08	1757.16
437.29	1826.79
437.49	1710.05
437.70	1746.92
437.90	1781.73
438.11	1888.23
438.31	1822.69
438.52	1871.84
438.72	1843.17
438.93	1855.46
439.13	1718.25
439.34	1880.04
439.54	1722.34
439.75	1818.60
439.95	1806.31
440.16	1693.67
440.36	1791.97
440.57	1736.68
440.77	1773.54
440.98	1746.92
441.18	1783.78
441.39	1681.38
441.59	1693.67
441.80	1759.21
442.00	1691.62
442.21	1814.50
442.41	1693.67
442.62	1816.55
442.82	1665.00
443.02	1642.47
443.23	1787.88
443.43	1695.72
443.64	1691.62
443.84	1722.34
444.05	1791.97
444.25	1697.77
444.46	1693.67
444.66	1697.77
444.87	1804.26
445.07	1624.04
445.28	1691.62
445.48	1824.74
445.69	1773.54
445.89	1925.09
446.09	1720.29
446.30	2035.68
446.50	2639.83
446.71	3688.39
446.91	4411.32
447.12	4818.87
447.32	4970.42
447.53	4339.65
447.73	3866.56
447.93	3545.03
448.14	3301.33
448.34	3270.61
448.55	2967.51
448.75	2901.97
448.96	2787.29
449.16	2416.60
449.36	2318.30
449.57	1980.39
449.77	1966.05
449.98	1712.10
450.18	1830.88
450.39	1730.53
450.59	1794.02
450.79	1640.42
451.00	1742.82
451.20	1787.88
451.41	1644.52
451.61	1839.08
451.81	1740.77
452.02	1683.43
452.22	1673.19
452.43	1740.77
452.63	1652.71
