SpectraSuite Data File
++++++++++++++++++++++++++++++++++++
Date: Mon Jun 06 17:20:37 CEST 2016
User: root
Dark Spectrum Present: No
Reference Spectrum Present: No
Number of Sampled Component Spectra: 1
Spectrometers: USB4C02835
Integration Time (usec): 100000 (USB4C02835)
Spectra Averaged: 1 (USB4C02835)
Boxcar Smoothing: 0 (USB4C02835)
Correct for Electrical Dark: No (USB4C02835)
Strobe/Lamp Enabled: No (USB4C02835)
Correct for Detector Non-linearity: No (USB4C02835)
Correct for Stray Light: No (USB4C02835)
Number of Pixels in Processed Spectrum: 3648
>>>>>Begin Processed Spectral Data<<<<<
177.47	1460.20
177.69	1460.20
177.91	1460.20
178.13	1445.87
178.36	1488.87
178.58	1626.09
178.80	1742.82
179.02	1665.00
179.24	1595.37
179.46	1665.00
179.68	1804.26
179.90	1658.85
180.13	1710.05
180.35	1650.66
180.57	1705.96
180.79	1761.25
181.01	1716.20
181.23	1710.05
181.45	1697.77
181.67	1742.82
181.90	1759.21
182.12	1669.09
182.34	1667.05
182.56	1742.82
182.78	1736.68
183.00	1701.86
183.22	1648.61
183.44	1615.85
183.66	1863.65
183.89	1740.77
184.11	1820.64
184.33	1742.82
184.55	1796.07
184.77	1671.14
184.99	1738.73
185.21	1673.19
185.43	1800.16
185.65	1642.47
185.87	1671.14
186.10	1884.13
186.32	1914.85
186.54	1677.29
186.76	1738.73
186.98	1738.73
187.20	1660.90
187.42	1681.38
187.64	1656.81
187.86	1722.34
188.08	1730.53
188.30	1699.81
188.52	1742.82
188.75	1742.82
188.97	1785.83
189.19	1628.14
189.41	1632.23
189.63	1761.25
189.85	1720.29
190.07	1673.19
190.29	1656.81
190.51	1742.82
190.73	1632.23
190.95	1744.87
191.17	1705.96
191.39	1636.33
191.61	1738.73
191.84	1722.34
192.06	1742.82
192.28	1658.85
192.50	1814.50
192.72	1798.12
192.94	1689.57
193.16	1818.60
193.38	1722.34
193.60	1693.67
193.82	1736.68
194.04	1812.45
194.26	1736.68
194.48	1742.82
194.70	1728.49
194.92	1671.14
195.14	1767.40
195.36	1695.72
195.58	1681.38
195.80	1683.43
196.02	1669.09
196.24	1665.00
196.46	1746.92
196.69	1656.81
196.91	1802.21
197.13	1744.87
197.35	1599.46
197.57	1761.25
197.79	1716.20
198.01	1677.29
198.23	1742.82
198.45	1740.77
198.67	1609.70
198.89	1718.25
199.11	1689.57
199.33	1671.14
199.55	1626.09
199.77	1654.76
199.99	1769.44
200.21	1687.53
200.43	1773.54
200.65	1716.20
200.87	1632.23
201.09	1720.29
201.31	1730.53
201.53	1789.92
201.75	1773.54
201.97	1703.91
202.19	1773.54
202.41	1765.35
202.63	1798.12
202.85	1730.53
203.07	1767.40
203.29	1689.57
203.51	1722.34
203.73	1642.47
203.95	1875.94
204.17	1705.96
204.39	1722.34
204.61	1781.73
204.83	1685.48
205.05	1837.03
205.27	1699.81
205.49	1863.65
205.71	1779.68
205.93	1699.81
206.15	1656.81
206.37	1667.05
206.59	1738.73
206.81	1654.76
207.03	1697.77
207.25	1660.90
207.47	1806.31
207.69	1675.24
207.91	1742.82
208.13	1791.97
208.34	1689.57
208.56	1605.61
208.78	1730.53
209.00	1673.19
209.22	1718.25
209.44	1693.67
209.66	1738.73
209.88	1693.67
210.10	1665.00
210.32	1691.62
210.54	1777.64
210.76	1712.10
210.98	1779.68
211.20	1564.65
211.42	1675.24
211.64	1832.93
211.86	1718.25
212.08	1763.30
212.30	1814.50
212.52	1708.01
212.74	1773.54
212.96	1742.82
213.17	1763.30
213.39	1740.77
213.61	1822.69
213.83	1728.49
214.05	1638.38
214.27	1712.10
214.49	1578.98
214.71	1667.05
214.93	1777.64
215.15	1644.52
215.37	1753.06
215.59	1624.04
215.81	1708.01
216.03	1751.01
216.24	1710.05
216.46	1695.72
216.68	1716.20
216.90	1736.68
217.12	1765.35
217.34	1722.34
217.56	1791.97
217.78	1779.68
218.00	1751.01
218.22	1748.97
218.44	1714.15
218.66	1746.92
218.87	1751.01
219.09	1685.48
219.31	1677.29
219.53	1748.97
219.75	1654.76
219.97	1685.48
220.19	1718.25
220.41	1703.91
220.63	1853.41
220.85	1728.49
221.06	1699.81
221.28	1699.81
221.50	1697.77
221.72	1697.77
221.94	1632.23
222.16	1705.96
222.38	1738.73
222.60	1755.11
222.82	1746.92
223.03	1726.44
223.25	1634.28
223.47	1808.36
223.69	1849.32
223.91	1773.54
224.13	1710.05
224.35	1701.86
224.57	1718.25
224.78	1742.82
225.00	1665.00
225.22	1787.88
225.44	1726.44
225.66	1746.92
225.88	1650.66
226.10	1843.17
226.32	1732.58
226.53	1740.77
226.75	1736.68
226.97	1742.82
227.19	1714.15
227.41	1646.57
227.63	1685.48
227.85	1626.09
228.06	1791.97
228.28	1662.95
228.50	1714.15
228.72	1689.57
228.94	1640.42
229.16	1597.42
229.37	1658.85
229.59	1675.24
229.81	1763.30
230.03	1738.73
230.25	1568.74
230.47	1644.52
230.69	1617.90
230.90	1761.25
231.12	1652.71
231.34	1767.40
231.56	1748.97
231.78	1669.09
232.00	1726.44
232.21	1685.48
232.43	1656.81
232.65	1599.46
232.87	1708.01
233.09	1701.86
233.30	1644.52
233.52	1710.05
233.74	1734.63
233.96	1689.57
234.18	1720.29
234.40	1646.57
234.61	1806.31
234.83	1640.42
235.05	1632.23
235.27	1834.98
235.49	1748.97
235.70	1681.38
235.92	1845.22
236.14	1783.78
236.36	1830.88
236.58	1632.23
236.79	1734.63
237.01	1755.11
237.23	1667.05
237.45	1734.63
237.67	1654.76
237.88	1624.04
238.10	1800.16
238.32	1705.96
238.54	1656.81
238.76	1646.57
238.97	1673.19
239.19	1656.81
239.41	1757.16
239.63	1814.50
239.85	1671.14
240.06	1671.14
240.28	1722.34
240.50	1732.58
240.72	1744.87
240.93	1718.25
241.15	1746.92
241.37	1732.58
241.59	1765.35
241.81	1763.30
242.02	1640.42
242.24	1730.53
242.46	1699.81
242.68	1683.43
242.89	1746.92
243.11	1744.87
243.33	1656.81
243.55	1646.57
243.76	1740.77
243.98	1636.33
244.20	1767.40
244.42	1763.30
244.64	1646.57
244.85	1650.66
245.07	1599.46
245.29	1800.16
245.51	1671.14
245.72	1755.11
245.94	1730.53
246.16	1716.20
246.38	1675.24
246.59	1624.04
246.81	1732.58
247.03	1757.16
247.24	1654.76
247.46	1669.09
247.68	1652.71
247.90	1740.77
248.11	1656.81
248.33	1728.49
248.55	1724.39
248.77	1789.92
248.98	1726.44
249.20	1828.84
249.42	1775.59
249.64	1785.83
249.85	1671.14
250.07	1669.09
250.29	1683.43
250.50	1724.39
250.72	1640.42
250.94	1728.49
251.16	1855.46
251.37	1791.97
251.59	1716.20
251.81	1718.25
252.02	1787.88
252.24	1703.91
252.46	1839.08
252.68	1722.34
252.89	1644.52
253.11	1552.36
253.33	1834.98
253.54	1822.69
253.76	1656.81
253.98	1814.50
254.20	1695.72
254.41	1578.98
254.63	1667.05
254.85	1601.51
255.06	1722.34
255.28	1726.44
255.50	1738.73
255.71	1632.23
255.93	1673.19
256.15	1650.66
256.36	1705.96
256.58	1630.18
256.80	1732.58
257.02	1705.96
257.23	1658.85
257.45	1681.38
257.67	1665.00
257.88	1675.24
258.10	1771.49
258.32	1697.77
258.53	1679.33
258.75	1824.74
258.97	1658.85
259.18	1742.82
259.40	1724.39
259.62	1863.65
259.83	1791.97
260.05	1759.21
260.27	2011.11
260.48	1765.35
260.70	1669.09
260.92	1730.53
261.13	1708.01
261.35	1730.53
261.57	1751.01
261.78	1611.75
262.00	1595.37
262.22	1720.29
262.43	1646.57
262.65	1605.61
262.86	1738.73
263.08	1826.79
263.30	1652.71
263.51	1685.48
263.73	1703.91
263.95	1783.78
264.16	1626.09
264.38	1654.76
264.60	1796.07
264.81	1722.34
265.03	1738.73
265.25	1857.51
265.46	1695.72
265.68	1783.78
265.89	1724.39
266.11	1644.52
266.33	1785.83
266.54	1730.53
266.76	1732.58
266.98	1742.82
267.19	1773.54
267.41	1775.59
267.62	1673.19
267.84	1621.99
268.06	1742.82
268.27	1779.68
268.49	1818.60
268.70	1775.59
268.92	1681.38
269.14	1685.48
269.35	1652.71
269.57	1687.53
269.79	1714.15
270.00	1673.19
270.22	1853.41
270.43	1714.15
270.65	1619.94
270.87	1689.57
271.08	1757.16
271.30	1728.49
271.51	1669.09
271.73	1779.68
271.95	1746.92
272.16	1841.12
272.38	1796.07
272.59	1697.77
272.81	1771.49
273.02	1640.42
273.24	1781.73
273.46	1746.92
273.67	1642.47
273.89	1652.71
274.10	1718.25
274.32	1791.97
274.54	1708.01
274.75	1751.01
274.97	1642.47
275.18	1775.59
275.40	1742.82
275.61	1775.59
275.83	1720.29
276.05	1644.52
276.26	1732.58
276.48	1746.92
276.69	1740.77
276.91	1718.25
277.12	1718.25
277.34	1783.78
277.55	1675.24
277.77	1742.82
277.99	1656.81
278.20	1587.18
278.42	1660.90
278.63	1689.57
278.85	1683.43
279.06	1736.68
279.28	1738.73
279.49	1769.44
279.71	1761.25
279.93	1757.16
280.14	1753.06
280.36	1677.29
280.57	1728.49
280.79	1755.11
281.00	1675.24
281.22	1638.38
281.43	1789.92
281.65	1599.46
281.86	1681.38
282.08	1695.72
282.29	1859.56
282.51	1701.86
282.73	1583.08
282.94	1677.29
283.16	1677.29
283.37	1812.45
283.59	1708.01
283.80	1767.40
284.02	1714.15
284.23	1800.16
284.45	1646.57
284.66	1679.33
284.88	1673.19
285.09	1732.58
285.31	1736.68
285.52	1681.38
285.74	1642.47
285.95	1779.68
286.17	1697.77
286.38	1791.97
286.60	1695.72
286.81	1740.77
287.03	1679.33
287.24	1769.44
287.46	1781.73
287.67	1748.97
287.89	1796.07
288.10	1667.05
288.32	1724.39
288.53	1714.15
288.75	1675.24
288.96	1812.45
289.18	1626.09
289.39	1714.15
289.61	1791.97
289.82	1834.98
290.04	1863.65
290.25	1630.18
290.47	1683.43
290.68	1660.90
290.90	1777.64
291.11	1630.18
291.33	1755.11
291.54	1609.70
291.76	1679.33
291.97	1671.14
292.18	1734.63
292.40	1683.43
292.61	1669.09
292.83	1802.21
293.04	1714.15
293.26	1789.92
293.47	1644.52
293.69	1673.19
293.90	1703.91
294.12	1761.25
294.33	1697.77
294.55	1716.20
294.76	1755.11
294.97	1785.83
295.19	1820.64
295.40	1701.86
295.62	1701.86
295.83	1740.77
296.05	1675.24
296.26	1781.73
296.48	1662.95
296.69	1701.86
296.90	1652.71
297.12	1710.05
297.33	1765.35
297.55	1716.20
297.76	1685.48
297.98	1775.59
298.19	1689.57
298.41	1710.05
298.62	1695.72
298.83	1791.97
299.05	1748.97
299.26	1722.34
299.48	1767.40
299.69	1767.40
299.90	1769.44
300.12	1689.57
300.33	1765.35
300.55	1726.44
300.76	1740.77
300.98	1746.92
301.19	1732.58
301.40	1652.71
301.62	1675.24
301.83	1683.43
302.05	1734.63
302.26	1710.05
302.47	1763.30
302.69	1615.85
302.90	1738.73
303.12	1624.04
303.33	1724.39
303.54	1775.59
303.76	1591.27
303.97	1665.00
304.19	1798.12
304.40	1681.38
304.61	1693.67
304.83	1867.75
305.04	1722.34
305.26	1718.25
305.47	1601.51
305.68	1716.20
305.90	1710.05
306.11	1812.45
306.33	1640.42
306.54	1734.63
306.75	1675.24
306.97	1609.70
307.18	1689.57
307.39	1669.09
307.61	1769.44
307.82	1779.68
308.04	1697.77
308.25	1708.01
308.46	1720.29
308.68	1789.92
308.89	1740.77
309.10	1837.03
309.32	1714.15
309.53	1626.09
309.74	1734.63
309.96	1718.25
310.17	1837.03
310.39	1613.80
310.60	1755.11
310.81	1710.05
311.03	1626.09
311.24	1718.25
311.45	1734.63
311.67	1802.21
311.88	1718.25
312.09	1677.29
312.31	1652.71
312.52	1802.21
312.73	1699.81
312.95	1562.60
313.16	1673.19
313.37	1820.64
313.59	1759.21
313.80	1753.06
314.01	1765.35
314.23	1691.62
314.44	1669.09
314.65	1609.70
314.87	1689.57
315.08	1632.23
315.29	1658.85
315.51	1617.90
315.72	1607.66
315.93	1896.42
316.15	1779.68
316.36	1634.28
316.57	1687.53
316.79	1769.44
317.00	1748.97
317.21	1673.19
317.43	1689.57
317.64	1718.25
317.85	1646.57
318.07	1665.00
318.28	1705.96
318.49	1783.78
318.70	1986.53
318.92	1830.88
319.13	1802.21
319.34	1804.26
319.56	1802.21
319.77	1722.34
319.98	1855.46
320.20	1771.49
320.41	1755.11
320.62	1779.68
320.83	1689.57
321.05	1830.88
321.26	1740.77
321.47	1759.21
321.69	1824.74
321.90	1611.75
322.11	1642.47
322.32	1636.33
322.54	1771.49
322.75	1628.14
322.96	1877.99
323.18	1705.96
323.39	1628.14
323.60	1669.09
323.81	1755.11
324.03	1783.78
324.24	1621.99
324.45	1714.15
324.66	1691.62
324.88	1783.78
325.09	1808.36
325.30	1689.57
325.52	1769.44
325.73	1767.40
325.94	1699.81
326.15	1679.33
326.37	1685.48
326.58	1783.78
326.79	1771.49
327.00	1636.33
327.22	1681.38
327.43	1658.85
327.64	1703.91
327.85	1722.34
328.07	1669.09
328.28	1802.21
328.49	1615.85
328.70	1679.33
328.92	1681.38
329.13	1705.96
329.34	1791.97
329.55	1875.94
329.76	1708.01
329.98	1681.38
330.19	1859.56
330.40	1714.15
330.61	1742.82
330.83	1675.24
331.04	1626.09
331.25	1624.04
331.46	1728.49
331.68	1560.55
331.89	1695.72
332.10	1642.47
332.31	1660.90
332.52	1703.91
332.74	1894.37
332.95	1669.09
333.16	1771.49
333.37	1746.92
333.58	1769.44
333.80	1654.76
334.01	1732.58
334.22	1738.73
334.43	1652.71
334.64	1734.63
334.86	1503.21
335.07	1662.95
335.28	1761.25
335.49	1632.23
335.70	1748.97
335.92	1789.92
336.13	1894.37
336.34	1779.68
336.55	1665.00
336.76	1642.47
336.98	1613.80
337.19	1660.90
337.40	1769.44
337.61	1865.70
337.82	1751.01
338.04	1767.40
338.25	1718.25
338.46	1701.86
338.67	1695.72
338.88	1681.38
339.09	1753.06
339.31	1681.38
339.52	1669.09
339.73	1656.81
339.94	1652.71
340.15	1769.44
340.36	1595.37
340.58	1720.29
340.79	1650.66
341.00	1726.44
341.21	1644.52
341.42	1808.36
341.63	1703.91
341.85	1761.25
342.06	1767.40
342.27	1705.96
342.48	1665.00
342.69	1650.66
342.90	1679.33
343.12	1710.05
343.33	1693.67
343.54	1769.44
343.75	1767.40
343.96	1710.05
344.17	1640.42
344.38	1646.57
344.60	1636.33
344.81	1708.01
345.02	1677.29
345.23	1818.60
345.44	1806.31
345.65	1748.97
345.86	1710.05
346.07	1652.71
346.29	1710.05
346.50	1783.78
346.71	1734.63
346.92	1787.88
347.13	1808.36
347.34	1646.57
347.55	1746.92
347.76	1736.68
347.98	1593.32
348.19	1685.48
348.40	1849.32
348.61	1724.39
348.82	1855.46
349.03	1796.07
349.24	1656.81
349.45	1837.03
349.66	1650.66
349.88	1714.15
350.09	1613.80
350.30	1757.16
350.51	1832.93
350.72	1693.67
350.93	1800.16
351.14	1701.86
351.35	1724.39
351.56	1648.61
351.77	1638.38
351.99	1816.55
352.20	1757.16
352.41	1824.74
352.62	1609.70
352.83	1796.07
353.04	1736.68
353.25	1759.21
353.46	1849.32
353.67	1740.77
353.88	1628.14
354.09	1722.34
354.30	1708.01
354.52	1810.40
354.73	1720.29
354.94	1689.57
355.15	1755.11
355.36	1783.78
355.57	1744.87
355.78	1728.49
355.99	1677.29
356.20	1710.05
356.41	1761.25
356.62	1701.86
356.83	1708.01
357.04	1839.08
357.25	1615.85
357.46	1667.05
357.68	1673.19
357.89	1644.52
358.10	1703.91
358.31	1701.86
358.52	1720.29
358.73	1646.57
358.94	1693.67
359.15	1732.58
359.36	1822.69
359.57	1636.33
359.78	1687.53
359.99	1771.49
360.20	1683.43
360.41	1740.77
360.62	1773.54
360.83	1742.82
361.04	1746.92
361.25	1791.97
361.46	1884.13
361.67	1781.73
361.88	1687.53
362.09	1751.01
362.30	1685.48
362.51	1712.10
362.72	1744.87
362.93	1775.59
363.14	1722.34
363.35	1746.92
363.56	1691.62
363.78	1763.30
363.99	1755.11
364.20	1662.95
364.41	1683.43
364.62	1853.41
364.83	1744.87
365.04	1718.25
365.25	1724.39
365.46	1791.97
365.67	1628.14
365.88	1722.34
366.09	1656.81
366.30	1648.61
366.51	1763.30
366.72	1619.94
366.93	1624.04
367.14	1767.40
367.35	1837.03
367.56	1773.54
367.77	1828.84
367.98	1669.09
368.18	1759.21
368.39	1744.87
368.60	1630.18
368.81	1751.01
369.02	1755.11
369.23	1697.77
369.44	1691.62
369.65	1634.28
369.86	1705.96
370.07	1810.40
370.28	1708.01
370.49	1779.68
370.70	1757.16
370.91	1619.94
371.12	1710.05
371.33	1785.83
371.54	1687.53
371.75	1781.73
371.96	1595.37
372.17	1724.39
372.38	1708.01
372.59	1718.25
372.80	1669.09
373.01	1679.33
373.22	1769.44
373.43	1753.06
373.64	1601.51
373.85	1736.68
374.06	1781.73
374.26	1781.73
374.47	1740.77
374.68	1812.45
374.89	1718.25
375.10	1669.09
375.31	1716.20
375.52	1769.44
375.73	1697.77
375.94	1650.66
376.15	1800.16
376.36	1689.57
376.57	1648.61
376.78	1748.97
376.99	1671.14
377.20	1769.44
377.40	1642.47
377.61	1855.46
377.82	1673.19
378.03	1703.91
378.24	1787.88
378.45	1753.06
378.66	1619.94
378.87	1568.74
379.08	1660.90
379.29	1724.39
379.50	1791.97
379.71	1658.85
379.91	1767.40
380.12	1732.58
380.33	1705.96
380.54	1710.05
380.75	1697.77
380.96	1705.96
381.17	1697.77
381.38	1701.86
381.59	1740.77
381.80	1763.30
382.00	1847.27
382.21	1810.40
382.42	1855.46
382.63	1877.99
382.84	1785.83
383.05	1775.59
383.26	1740.77
383.47	1755.11
383.68	1734.63
383.88	1703.91
384.09	1740.77
384.30	1892.32
384.51	1714.15
384.72	1638.38
384.93	1669.09
385.14	1742.82
385.35	1703.91
385.55	1626.09
385.76	1785.83
385.97	1759.21
386.18	1673.19
386.39	1703.91
386.60	1671.14
386.81	1744.87
387.02	1685.48
387.22	1693.67
387.43	1816.55
387.64	1751.01
387.85	1812.45
388.06	2203.61
388.27	4237.25
388.48	6682.52
388.68	8171.40
388.89	9607.02
389.10	9893.74
389.31	8710.01
389.52	7647.12
389.73	6633.37
389.93	6291.36
390.14	5879.72
390.35	5072.82
390.56	4597.69
390.77	3790.79
390.98	3055.57
391.18	2486.23
391.39	2039.78
391.60	1896.42
391.81	1808.36
392.02	1751.01
392.23	1882.08
392.43	1701.86
392.64	1800.16
392.85	1667.05
393.06	1865.70
393.27	1718.25
393.47	1757.16
393.68	1730.53
393.89	1718.25
394.10	1882.08
394.31	1767.40
394.52	1658.85
394.72	1662.95
394.93	1845.22
395.14	1695.72
395.35	1822.69
395.56	1677.29
395.76	1708.01
395.97	1767.40
396.18	1783.78
396.39	1869.80
396.60	1986.53
396.80	1935.33
397.01	1773.54
397.22	1834.98
397.43	1918.95
397.64	1660.90
397.84	1798.12
398.05	1875.94
398.26	1779.68
398.47	1837.03
398.67	1751.01
398.88	1714.15
399.09	1732.58
399.30	1697.77
399.51	1791.97
399.71	1679.33
399.92	1710.05
400.13	1712.10
400.34	1673.19
400.54	1662.95
400.75	1773.54
400.96	1738.73
401.17	1791.97
401.37	1726.44
401.58	1677.29
401.79	1794.02
402.00	1886.18
402.21	2033.63
402.41	1986.53
402.62	2033.63
402.83	2060.26
403.04	2054.11
403.24	2097.12
403.45	1863.65
403.66	1918.95
403.87	1826.79
404.07	1777.64
404.28	1941.47
404.49	1877.99
404.70	1716.20
404.90	1902.56
405.11	1753.06
405.32	1773.54
405.52	1652.71
405.73	1658.85
405.94	1681.38
406.15	1759.21
406.35	1830.88
406.56	1826.79
406.77	1820.64
406.98	1695.72
407.18	1673.19
407.39	1783.78
407.60	1740.77
407.80	1718.25
408.01	1685.48
408.22	1730.53
408.43	1718.25
408.63	1787.88
408.84	1798.12
409.05	1732.58
409.25	1744.87
409.46	1689.57
409.67	1652.71
409.88	1611.75
410.08	1718.25
410.29	1710.05
410.50	1646.57
410.70	1767.40
410.91	1681.38
411.12	1753.06
411.32	1732.58
411.53	1691.62
411.74	1787.88
411.95	1796.07
412.15	1777.64
412.36	1751.01
412.57	1759.21
412.77	1849.32
412.98	1732.58
413.19	1777.64
413.39	1689.57
413.60	1755.11
413.81	1832.93
414.01	1673.19
414.22	1742.82
414.43	1791.97
414.63	1808.36
414.84	1730.53
415.05	1738.73
415.25	1726.44
415.46	1744.87
415.67	1669.09
415.87	1746.92
416.08	1705.96
416.29	1738.73
416.49	1751.01
416.70	1687.53
416.91	1697.77
417.11	1636.33
417.32	1710.05
417.53	1763.30
417.73	1705.96
417.94	1667.05
418.15	1693.67
418.35	1681.38
418.56	1699.81
418.77	1820.64
418.97	1732.58
419.18	1740.77
419.38	1548.26
419.59	1675.24
419.80	1851.36
420.00	1697.77
420.21	1699.81
420.42	1843.17
420.62	1697.77
420.83	1685.48
421.04	1726.44
421.24	1660.90
421.45	1781.73
421.65	1742.82
421.86	1708.01
422.07	1789.92
422.27	1734.63
422.48	1753.06
422.69	1628.14
422.89	1656.81
423.10	1746.92
423.30	1644.52
423.51	1685.48
423.72	1724.39
423.92	1763.30
424.13	1681.38
424.33	1689.57
424.54	1769.44
424.75	1712.10
424.95	1777.64
425.16	1765.35
425.36	1732.58
425.57	1800.16
425.78	1697.77
425.98	1767.40
426.19	1665.00
426.39	1665.00
426.60	1738.73
426.81	1853.41
427.01	1787.88
427.22	1671.14
427.42	1597.42
427.63	1624.04
427.83	1773.54
428.04	1796.07
428.25	1832.93
428.45	1796.07
428.66	1753.06
428.86	1632.23
429.07	1724.39
429.28	1718.25
429.48	1746.92
429.69	1671.14
429.89	1703.91
430.10	1683.43
430.30	1802.21
430.51	1843.17
430.71	1650.66
430.92	1716.20
431.13	1691.62
431.33	1757.16
431.54	1816.55
431.74	1798.12
431.95	1781.73
432.15	1679.33
432.36	1710.05
432.56	1763.30
432.77	1775.59
432.98	1763.30
433.18	1728.49
433.39	1722.34
433.59	1714.15
433.80	1861.60
434.00	1824.74
434.21	1681.38
434.41	1726.44
434.62	1832.93
434.82	1681.38
435.03	1701.86
435.23	1755.11
435.44	1589.22
435.64	1738.73
435.85	1710.05
436.06	1826.79
436.26	1779.68
436.47	1714.15
436.67	1685.48
436.88	1689.57
437.08	1771.49
437.29	1787.88
437.49	1744.87
437.70	1820.64
437.90	1759.21
438.11	1804.26
438.31	1816.55
438.52	1802.21
438.72	1904.61
438.93	1880.04
439.13	1738.73
439.34	1857.51
439.54	1697.77
439.75	1828.84
439.95	1849.32
440.16	1675.24
440.36	1714.15
440.57	1794.02
440.77	1783.78
440.98	1789.92
441.18	1748.97
441.39	1753.06
441.59	1759.21
441.80	1853.41
442.00	1736.68
442.21	1785.83
442.41	1683.43
442.62	1798.12
442.82	1722.34
443.02	1730.53
443.23	1798.12
443.43	1681.38
443.64	1824.74
443.84	1710.05
444.05	1869.80
444.25	1773.54
444.46	1675.24
444.66	1763.30
444.87	1781.73
445.07	1640.42
445.28	1683.43
445.48	1794.02
445.69	1804.26
445.89	1886.18
446.09	1763.30
446.30	1941.47
446.50	2580.44
446.71	3758.02
446.91	4458.43
447.12	4687.80
447.32	4958.13
447.53	4368.32
447.73	3966.92
447.93	3493.83
448.14	3332.05
448.34	3203.02
448.55	3004.37
448.75	2867.16
448.96	2742.23
449.16	2502.62
449.36	2349.02
449.57	2004.96
449.77	1888.23
449.98	1806.31
450.18	1785.83
450.39	1828.84
450.59	1755.11
450.79	1822.69
451.00	1693.67
451.20	1767.40
451.41	1806.31
451.61	1621.99
451.81	1738.73
452.02	1732.58
452.22	1697.77
452.43	1624.04
452.63	1689.57
