SpectraSuite Data File
++++++++++++++++++++++++++++++++++++
Date: Mon Jun 06 13:42:57 CEST 2016
User: root
Dark Spectrum Present: No
Reference Spectrum Present: No
Number of Sampled Component Spectra: 1
Spectrometers: USB4C02835
Integration Time (usec): 100000 (USB4C02835)
Spectra Averaged: 1 (USB4C02835)
Boxcar Smoothing: 0 (USB4C02835)
Correct for Electrical Dark: No (USB4C02835)
Strobe/Lamp Enabled: No (USB4C02835)
Correct for Detector Non-linearity: No (USB4C02835)
Correct for Stray Light: No (USB4C02835)
Number of Pixels in Processed Spectrum: 3648
>>>>>Begin Processed Spectral Data<<<<<
177.47	1390.57
177.69	1390.57
177.91	1390.57
178.13	1454.06
178.36	1507.30
178.58	1605.61
178.80	1722.34
179.02	1634.28
179.24	1617.90
179.46	1683.43
179.68	1734.63
179.90	1679.33
180.13	1746.92
180.35	1644.52
180.57	1636.33
180.79	1728.49
181.01	1759.21
181.23	1755.11
181.45	1757.16
181.67	1730.53
181.90	1781.73
182.12	1722.34
182.34	1632.23
182.56	1777.64
182.78	1771.49
183.00	1677.29
183.22	1710.05
183.44	1609.70
183.66	1771.49
183.89	1732.58
184.11	1667.05
184.33	1757.16
184.55	1771.49
184.77	1726.44
184.99	1785.83
185.21	1613.80
185.43	1781.73
185.65	1605.61
185.87	1679.33
186.10	1841.12
186.32	1869.80
186.54	1714.15
186.76	1720.29
186.98	1800.16
187.20	1685.48
187.42	1685.48
187.64	1640.42
187.86	1724.39
188.08	1751.01
188.30	1665.00
188.52	1693.67
188.75	1730.53
188.97	1832.93
189.19	1687.53
189.41	1765.35
189.63	1665.00
189.85	1589.22
190.07	1701.86
190.29	1636.33
190.51	1740.77
190.73	1658.85
190.95	1834.98
191.17	1644.52
191.39	1615.85
191.61	1660.90
191.84	1642.47
192.06	1746.92
192.28	1679.33
192.50	1910.75
192.72	1779.68
192.94	1675.24
193.16	1796.07
193.38	1732.58
193.60	1710.05
193.82	1638.38
194.04	1759.21
194.26	1703.91
194.48	1718.25
194.70	1626.09
194.92	1628.14
195.14	1675.24
195.36	1626.09
195.58	1693.67
195.80	1673.19
196.02	1724.39
196.24	1630.18
196.46	1710.05
196.69	1720.29
196.91	1804.26
197.13	1714.15
197.35	1665.00
197.57	1775.59
197.79	1738.73
198.01	1671.14
198.23	1740.77
198.45	1697.77
198.67	1632.23
198.89	1763.30
199.11	1658.85
199.33	1656.81
199.55	1634.28
199.77	1660.90
199.99	1742.82
200.21	1724.39
200.43	1689.57
200.65	1581.03
200.87	1562.60
201.09	1738.73
201.31	1693.67
201.53	1757.16
201.75	1746.92
201.97	1703.91
202.19	1716.20
202.41	1734.63
202.63	1804.26
202.85	1732.58
203.07	1667.05
203.29	1675.24
203.51	1681.38
203.73	1662.95
203.95	1845.22
204.17	1746.92
204.39	1722.34
204.61	1681.38
204.83	1665.00
205.05	1675.24
205.27	1673.19
205.49	1847.27
205.71	1673.19
205.93	1605.61
206.15	1658.85
206.37	1734.63
206.59	1734.63
206.81	1626.09
207.03	1615.85
207.25	1712.10
207.47	1757.16
207.69	1761.25
207.91	1701.86
208.13	1779.68
208.34	1716.20
208.56	1613.80
208.78	1765.35
209.00	1710.05
209.22	1648.61
209.44	1640.42
209.66	1619.94
209.88	1691.62
210.10	1652.71
210.32	1685.48
210.54	1847.27
210.76	1689.57
210.98	1751.01
211.20	1624.04
211.42	1773.54
211.64	1804.26
211.86	1691.62
212.08	1779.68
212.30	1677.29
212.52	1632.23
212.74	1783.78
212.96	1638.38
213.17	1765.35
213.39	1695.72
213.61	1806.31
213.83	1738.73
214.05	1632.23
214.27	1779.68
214.49	1646.57
214.71	1703.91
214.93	1765.35
215.15	1722.34
215.37	1701.86
215.59	1636.33
215.81	1783.78
216.03	1767.40
216.24	1691.62
216.46	1671.14
216.68	1691.62
216.90	1757.16
217.12	1751.01
217.34	1705.96
217.56	1683.43
217.78	1777.64
218.00	1724.39
218.22	1675.24
218.44	1646.57
218.66	1718.25
218.87	1851.36
219.09	1681.38
219.31	1710.05
219.53	1697.77
219.75	1656.81
219.97	1738.73
220.19	1662.95
220.41	1687.53
220.63	1849.32
220.85	1693.67
221.06	1652.71
221.28	1771.49
221.50	1683.43
221.72	1697.77
221.94	1755.11
222.16	1716.20
222.38	1722.34
222.60	1671.14
222.82	1720.29
223.03	1814.50
223.25	1650.66
223.47	1744.87
223.69	1843.17
223.91	1742.82
224.13	1689.57
224.35	1722.34
224.57	1757.16
224.78	1720.29
225.00	1632.23
225.22	1714.15
225.44	1710.05
225.66	1761.25
225.88	1685.48
226.10	1824.74
226.32	1755.11
226.53	1773.54
226.75	1673.19
226.97	1722.34
227.19	1630.18
227.41	1773.54
227.63	1722.34
227.85	1578.98
228.06	1669.09
228.28	1724.39
228.50	1626.09
228.72	1722.34
228.94	1718.25
229.16	1675.24
229.37	1654.76
229.59	1660.90
229.81	1761.25
230.03	1617.90
230.25	1658.85
230.47	1687.53
230.69	1710.05
230.90	1773.54
231.12	1630.18
231.34	1751.01
231.56	1736.68
231.78	1665.00
232.00	1695.72
232.21	1736.68
232.43	1685.48
232.65	1607.66
232.87	1695.72
233.09	1603.56
233.30	1626.09
233.52	1732.58
233.74	1681.38
233.96	1763.30
234.18	1665.00
234.40	1675.24
234.61	1789.92
234.83	1574.89
235.05	1603.56
235.27	1877.99
235.49	1839.08
235.70	1724.39
235.92	1744.87
236.14	1687.53
236.36	1865.70
236.58	1665.00
236.79	1744.87
237.01	1626.09
237.23	1675.24
237.45	1851.36
237.67	1746.92
237.88	1673.19
238.10	1841.12
238.32	1605.61
238.54	1714.15
238.76	1644.52
238.97	1687.53
239.19	1654.76
239.41	1785.83
239.63	1697.77
239.85	1669.09
240.06	1677.29
240.28	1701.86
240.50	1677.29
240.72	1662.95
240.93	1800.16
241.15	1791.97
241.37	1644.52
241.59	1748.97
241.81	1691.62
242.02	1626.09
242.24	1814.50
242.46	1681.38
242.68	1648.61
242.89	1677.29
243.11	1787.88
243.33	1703.91
243.55	1748.97
243.76	1691.62
243.98	1654.76
244.20	1755.11
244.42	1685.48
244.64	1726.44
244.85	1617.90
245.07	1585.13
245.29	1714.15
245.51	1740.77
245.72	1691.62
245.94	1714.15
246.16	1695.72
246.38	1783.78
246.59	1640.42
246.81	1697.77
247.03	1656.81
247.24	1691.62
247.46	1605.61
247.68	1773.54
247.90	1703.91
248.11	1652.71
248.33	1771.49
248.55	1714.15
248.77	1724.39
248.98	1761.25
249.20	1789.92
249.42	1703.91
249.64	1732.58
249.85	1634.28
250.07	1640.42
250.29	1738.73
250.50	1695.72
250.72	1570.79
250.94	1718.25
251.16	1824.74
251.37	1830.88
251.59	1742.82
251.81	1714.15
252.02	1753.06
252.24	1714.15
252.46	1767.40
252.68	1642.47
252.89	1669.09
253.11	1611.75
253.33	1789.92
253.54	1744.87
253.76	1646.57
253.98	1705.96
254.20	1708.01
254.41	1679.33
254.63	1673.19
254.85	1566.70
255.06	1681.38
255.28	1744.87
255.50	1652.71
255.71	1697.77
255.93	1615.85
256.15	1679.33
256.36	1683.43
256.58	1693.67
256.80	1708.01
257.02	1638.38
257.23	1695.72
257.45	1751.01
257.67	1695.72
257.88	1634.28
258.10	1765.35
258.32	1695.72
258.53	1718.25
258.75	1773.54
258.97	1650.66
259.18	1718.25
259.40	1665.00
259.62	1818.60
259.83	1773.54
260.05	1638.38
260.27	1972.19
260.48	1701.86
260.70	1589.22
260.92	1665.00
261.13	1714.15
261.35	1689.57
261.57	1746.92
261.78	1634.28
262.00	1603.56
262.22	1726.44
262.43	1613.80
262.65	1656.81
262.86	1693.67
263.08	1832.93
263.30	1740.77
263.51	1632.23
263.73	1636.33
263.95	1796.07
264.16	1587.18
264.38	1742.82
264.60	1728.49
264.81	1605.61
265.03	1767.40
265.25	1722.34
265.46	1746.92
265.68	1761.25
265.89	1720.29
266.11	1654.76
266.33	1722.34
266.54	1751.01
266.76	1726.44
266.98	1789.92
267.19	1769.44
267.41	1789.92
267.62	1660.90
267.84	1644.52
268.06	1665.00
268.27	1695.72
268.49	1789.92
268.70	1761.25
268.92	1687.53
269.14	1710.05
269.35	1681.38
269.57	1646.57
269.79	1703.91
270.00	1693.67
270.22	1791.97
270.43	1685.48
270.65	1546.22
270.87	1705.96
271.08	1787.88
271.30	1816.55
271.51	1775.59
271.73	1775.59
271.95	1734.63
272.16	1716.20
272.38	1775.59
272.59	1708.01
272.81	1753.06
273.02	1724.39
273.24	1783.78
273.46	1804.26
273.67	1640.42
273.89	1640.42
274.10	1691.62
274.32	1746.92
274.54	1730.53
274.75	1738.73
274.97	1642.47
275.18	1810.40
275.40	1761.25
275.61	1720.29
275.83	1720.29
276.05	1660.90
276.26	1728.49
276.48	1769.44
276.69	1648.61
276.91	1671.14
277.12	1759.21
277.34	1812.45
277.55	1730.53
277.77	1675.24
277.99	1658.85
278.20	1656.81
278.42	1656.81
278.63	1685.48
278.85	1603.56
279.06	1568.74
279.28	1728.49
279.49	1720.29
279.71	1755.11
279.93	1685.48
280.14	1689.57
280.36	1613.80
280.57	1689.57
280.79	1730.53
281.00	1648.61
281.22	1658.85
281.43	1728.49
281.65	1587.18
281.86	1644.52
282.08	1734.63
282.29	1814.50
282.51	1619.94
282.73	1716.20
282.94	1583.08
283.16	1701.86
283.37	1783.78
283.59	1730.53
283.80	1757.16
284.02	1708.01
284.23	1773.54
284.45	1640.42
284.66	1628.14
284.88	1642.47
285.09	1779.68
285.31	1703.91
285.52	1734.63
285.74	1605.61
285.95	1644.52
286.17	1748.97
286.38	1771.49
286.60	1691.62
286.81	1669.09
287.03	1671.14
287.24	1724.39
287.46	1736.68
287.67	1695.72
287.89	1849.32
288.10	1669.09
288.32	1703.91
288.53	1765.35
288.75	1763.30
288.96	1646.57
289.18	1652.71
289.39	1716.20
289.61	1695.72
289.82	1796.07
290.04	1849.32
290.25	1585.13
290.47	1705.96
290.68	1673.19
290.90	1779.68
291.11	1583.08
291.33	1734.63
291.54	1601.51
291.76	1656.81
291.97	1689.57
292.18	1753.06
292.40	1611.75
292.61	1683.43
292.83	1820.64
293.04	1714.15
293.26	1814.50
293.47	1683.43
293.69	1669.09
293.90	1681.38
294.12	1796.07
294.33	1624.04
294.55	1718.25
294.76	1763.30
294.97	1800.16
295.19	1773.54
295.40	1609.70
295.62	1787.88
295.83	1753.06
296.05	1648.61
296.26	1751.01
296.48	1726.44
296.69	1671.14
296.90	1683.43
297.12	1777.64
297.33	1757.16
297.55	1693.67
297.76	1732.58
297.98	1714.15
298.19	1648.61
298.41	1699.81
298.62	1650.66
298.83	1738.73
299.05	1720.29
299.26	1683.43
299.48	1667.05
299.69	1703.91
299.90	1742.82
300.12	1671.14
300.33	1755.11
300.55	1665.00
300.76	1791.97
300.98	1697.77
301.19	1777.64
301.40	1624.04
301.62	1708.01
301.83	1746.92
302.05	1732.58
302.26	1689.57
302.47	1816.55
302.69	1685.48
302.90	1722.34
303.12	1583.08
303.33	1759.21
303.54	1789.92
303.76	1656.81
303.97	1675.24
304.19	1855.46
304.40	1621.99
304.61	1755.11
304.83	1826.79
305.04	1791.97
305.26	1712.10
305.47	1705.96
305.68	1710.05
305.90	1554.41
306.11	1691.62
306.33	1734.63
306.54	1660.90
306.75	1587.18
306.97	1617.90
307.18	1665.00
307.39	1662.95
307.61	1748.97
307.82	1646.57
308.04	1642.47
308.25	1648.61
308.46	1710.05
308.68	1624.04
308.89	1687.53
309.10	1720.29
309.32	1703.91
309.53	1732.58
309.74	1734.63
309.96	1734.63
310.17	1806.31
310.39	1609.70
310.60	1685.48
310.81	1654.76
311.03	1599.46
311.24	1658.85
311.45	1648.61
311.67	1787.88
311.88	1734.63
312.09	1660.90
312.31	1634.28
312.52	1689.57
312.73	1716.20
312.95	1697.77
313.16	1660.90
313.37	1669.09
313.59	1691.62
313.80	1779.68
314.01	1779.68
314.23	1652.71
314.44	1667.05
314.65	1564.65
314.87	1755.11
315.08	1671.14
315.29	1671.14
315.51	1587.18
315.72	1648.61
315.93	1775.59
316.15	1728.49
316.36	1673.19
316.57	1705.96
316.79	1744.87
317.00	1673.19
317.21	1701.86
317.43	1677.29
317.64	1716.20
317.85	1611.75
318.07	1675.24
318.28	1744.87
318.49	1849.32
318.70	1943.52
318.92	1791.97
319.13	1785.83
319.34	1810.40
319.56	1857.51
319.77	1814.50
319.98	1708.01
320.20	1748.97
320.41	1763.30
320.62	1722.34
320.83	1619.94
321.05	1841.12
321.26	1757.16
321.47	1728.49
321.69	1701.86
321.90	1693.67
322.11	1687.53
322.32	1759.21
322.54	1675.24
322.75	1673.19
322.96	1839.08
323.18	1644.52
323.39	1576.94
323.60	1591.27
323.81	1761.25
324.03	1718.25
324.24	1667.05
324.45	1703.91
324.66	1695.72
324.88	1687.53
325.09	1738.73
325.30	1763.30
325.52	1804.26
325.73	1705.96
325.94	1642.47
326.15	1628.14
326.37	1691.62
326.58	1687.53
326.79	1789.92
327.00	1628.14
327.22	1730.53
327.43	1714.15
327.64	1652.71
327.85	1671.14
328.07	1681.38
328.28	1820.64
328.49	1701.86
328.70	1681.38
328.92	1662.95
329.13	1679.33
329.34	1740.77
329.55	1767.40
329.76	1771.49
329.98	1656.81
330.19	1763.30
330.40	1693.67
330.61	1716.20
330.83	1685.48
331.04	1658.85
331.25	1710.05
331.46	1767.40
331.68	1585.13
331.89	1716.20
332.10	1621.99
332.31	1660.90
332.52	1640.42
332.74	1789.92
332.95	1660.90
333.16	1667.05
333.37	1685.48
333.58	1699.81
333.80	1683.43
334.01	1716.20
334.22	1662.95
334.43	1611.75
334.64	1728.49
334.86	1673.19
335.07	1632.23
335.28	1828.84
335.49	1636.33
335.70	1757.16
335.92	1751.01
336.13	1841.12
336.34	1763.30
336.55	1738.73
336.76	1689.57
336.98	1558.50
337.19	1755.11
337.40	1814.50
337.61	1908.71
337.82	1687.53
338.04	1800.16
338.25	1665.00
338.46	1681.38
338.67	1652.71
338.88	1660.90
339.09	1628.14
339.31	1703.91
339.52	1697.77
339.73	1685.48
339.94	1681.38
340.15	1644.52
340.36	1601.51
340.58	1697.77
340.79	1689.57
341.00	1761.25
341.21	1665.00
341.42	1808.36
341.63	1708.01
341.85	1763.30
342.06	1675.24
342.27	1556.46
342.48	1712.10
342.69	1677.29
342.90	1763.30
343.12	1720.29
343.33	1724.39
343.54	1791.97
343.75	1900.52
343.96	1626.09
344.17	1660.90
344.38	1734.63
344.60	1714.15
344.81	1685.48
345.02	1685.48
345.23	1773.54
345.44	1841.12
345.65	1697.77
345.86	1773.54
346.07	1744.87
346.29	1687.53
346.50	1714.15
346.71	1705.96
346.92	1818.60
347.13	1777.64
347.34	1681.38
347.55	1691.62
347.76	1794.02
347.98	1640.42
348.19	1654.76
348.40	1783.78
348.61	1652.71
348.82	1738.73
349.03	1726.44
349.24	1599.46
349.45	1705.96
349.66	1591.27
349.88	1671.14
350.09	1673.19
350.30	1822.69
350.51	1785.83
350.72	1785.83
350.93	1748.97
351.14	1669.09
351.35	1708.01
351.56	1738.73
351.77	1738.73
351.99	1716.20
352.20	1816.55
352.41	1812.45
352.62	1564.65
352.83	1695.72
353.04	1714.15
353.25	1697.77
353.46	1697.77
353.67	1806.31
353.88	1578.98
354.09	1734.63
354.30	1867.75
354.52	1738.73
354.73	1603.56
354.94	1660.90
355.15	1656.81
355.36	1724.39
355.57	1714.15
355.78	1683.43
355.99	1671.14
356.20	1736.68
356.41	1779.68
356.62	1779.68
356.83	1675.24
357.04	1769.44
357.25	1619.94
357.46	1583.08
357.68	1632.23
357.89	1671.14
358.10	1744.87
358.31	1683.43
358.52	1730.53
358.73	1607.66
358.94	1724.39
359.15	1722.34
359.36	1746.92
359.57	1652.71
359.78	1599.46
359.99	1689.57
360.20	1595.37
360.41	1685.48
360.62	1847.27
360.83	1660.90
361.04	1781.73
361.25	1726.44
361.46	1806.31
361.67	1728.49
361.88	1708.01
362.09	1683.43
362.30	1748.97
362.51	1650.66
362.72	1748.97
362.93	1730.53
363.14	1730.53
363.35	1722.34
363.56	1640.42
363.78	1730.53
363.99	1808.36
364.20	1716.20
364.41	1736.68
364.62	1781.73
364.83	1740.77
365.04	1726.44
365.25	1777.64
365.46	1871.84
365.67	1662.95
365.88	1638.38
366.09	1755.11
366.30	1626.09
366.51	1640.42
366.72	1605.61
366.93	1675.24
367.14	1656.81
367.35	1791.97
367.56	1693.67
367.77	1769.44
367.98	1665.00
368.18	1712.10
368.39	1695.72
368.60	1624.04
368.81	1736.68
369.02	1701.86
369.23	1761.25
369.44	1568.74
369.65	1714.15
369.86	1822.69
370.07	1720.29
370.28	1785.83
370.49	1699.81
370.70	1738.73
370.91	1656.81
371.12	1697.77
371.33	1794.02
371.54	1699.81
371.75	1839.08
371.96	1558.50
372.17	1726.44
372.38	1667.05
372.59	1748.97
372.80	1714.15
373.01	1697.77
373.22	1740.77
373.43	1734.63
373.64	1581.03
373.85	1726.44
374.06	1800.16
374.26	1697.77
374.47	1691.62
374.68	1771.49
374.89	1746.92
375.10	1656.81
375.31	1740.77
375.52	1705.96
375.73	1667.05
375.94	1619.94
376.15	1841.12
376.36	1603.56
376.57	1677.29
376.78	1710.05
376.99	1720.29
377.20	1861.60
377.40	1669.09
377.61	1771.49
377.82	1658.85
378.03	1771.49
378.24	1691.62
378.45	1718.25
378.66	1697.77
378.87	1638.38
379.08	1617.90
379.29	1665.00
379.50	1687.53
379.71	1689.57
379.91	1802.21
380.12	1607.66
380.33	1710.05
380.54	1761.25
380.75	1699.81
380.96	1685.48
381.17	1724.39
381.38	1722.34
381.59	1771.49
381.80	1716.20
382.00	1841.12
382.21	1722.34
382.42	1853.41
382.63	1869.80
382.84	1822.69
383.05	1796.07
383.26	1769.44
383.47	1665.00
383.68	1751.01
383.88	1693.67
384.09	1679.33
384.30	1830.88
384.51	1753.06
384.72	1716.20
384.93	1626.09
385.14	1671.14
385.35	1669.09
385.55	1644.52
385.76	1716.20
385.97	1724.39
386.18	1718.25
386.39	1681.38
386.60	1689.57
386.81	1751.01
387.02	1683.43
387.22	1693.67
387.43	1787.88
387.64	1798.12
387.85	1867.75
388.06	2291.68
388.27	4157.38
388.48	6637.47
388.68	8365.95
388.89	9682.80
389.10	9674.60
389.31	8542.08
389.52	7688.07
389.73	6731.67
389.93	6328.22
390.14	5904.29
390.35	5181.36
390.56	4571.07
390.77	3813.32
390.98	3059.67
391.18	2600.92
391.39	2125.79
391.60	1796.07
391.81	1888.23
392.02	1724.39
392.23	1796.07
392.43	1718.25
392.64	1757.16
392.85	1712.10
393.06	1755.11
393.27	1660.90
393.47	1703.91
393.68	1708.01
393.89	1658.85
394.10	1765.35
394.31	1693.67
394.52	1640.42
394.72	1675.24
394.93	1804.26
395.14	1689.57
395.35	1742.82
395.56	1720.29
395.76	1720.29
395.97	1740.77
396.18	1837.03
396.39	1816.55
396.60	2047.97
396.80	1935.33
397.01	1806.31
397.22	1775.59
397.43	1820.64
397.64	1669.09
397.84	1834.98
398.05	1869.80
398.26	1740.77
398.47	1785.83
398.67	1783.78
398.88	1740.77
399.09	1640.42
399.30	1708.01
399.51	1742.82
399.71	1638.38
399.92	1736.68
400.13	1753.06
400.34	1699.81
400.54	1740.77
400.75	1861.60
400.96	1806.31
401.17	1798.12
401.37	1839.08
401.58	1648.61
401.79	1697.77
402.00	1818.60
402.21	1996.77
402.41	1982.43
402.62	2052.06
402.83	2062.30
403.04	2017.25
403.24	2072.54
403.45	1820.64
403.66	1943.52
403.87	1824.74
404.07	1923.04
404.28	1933.28
404.49	1894.37
404.70	1767.40
404.90	1763.30
405.11	1755.11
405.32	1802.21
405.52	1708.01
405.73	1669.09
405.94	1650.66
406.15	1712.10
406.35	1640.42
406.56	1662.95
406.77	1763.30
406.98	1691.62
407.18	1683.43
407.39	1714.15
407.60	1736.68
407.80	1757.16
408.01	1736.68
408.22	1724.39
408.43	1697.77
408.63	1767.40
408.84	1705.96
409.05	1804.26
409.25	1691.62
409.46	1722.34
409.67	1652.71
409.88	1691.62
410.08	1724.39
410.29	1722.34
410.50	1761.25
410.70	1712.10
410.91	1591.27
411.12	1671.14
411.32	1714.15
411.53	1693.67
411.74	1826.79
411.95	1738.73
412.15	1738.73
412.36	1843.17
412.57	1791.97
412.77	1806.31
412.98	1732.58
413.19	1675.24
413.39	1763.30
413.60	1687.53
413.81	1800.16
414.01	1699.81
414.22	1744.87
414.43	1718.25
414.63	1751.01
414.84	1789.92
415.05	1691.62
415.25	1660.90
415.46	1693.67
415.67	1736.68
415.87	1720.29
416.08	1683.43
416.29	1718.25
416.49	1740.77
416.70	1726.44
416.91	1728.49
417.11	1675.24
417.32	1697.77
417.53	1767.40
417.73	1800.16
417.94	1685.48
418.15	1755.11
418.35	1763.30
418.56	1681.38
418.77	1837.03
418.97	1658.85
419.18	1615.85
419.38	1652.71
419.59	1665.00
419.80	1775.59
420.00	1689.57
420.21	1679.33
420.42	1796.07
420.62	1736.68
420.83	1689.57
421.04	1816.55
421.24	1767.40
421.45	1751.01
421.65	1730.53
421.86	1658.85
422.07	1779.68
422.27	1708.01
422.48	1710.05
422.69	1656.81
422.89	1681.38
423.10	1691.62
423.30	1652.71
423.51	1730.53
423.72	1726.44
423.92	1814.50
424.13	1619.94
424.33	1660.90
424.54	1738.73
424.75	1759.21
424.95	1794.02
425.16	1730.53
425.36	1673.19
425.57	1832.93
425.78	1753.06
425.98	1769.44
426.19	1695.72
426.39	1662.95
426.60	1716.20
426.81	1816.55
427.01	1675.24
427.22	1691.62
427.42	1632.23
427.63	1595.37
427.83	1798.12
428.04	1808.36
428.25	1800.16
428.45	1744.87
428.66	1734.63
428.86	1695.72
429.07	1697.77
429.28	1773.54
429.48	1673.19
429.69	1687.53
429.89	1742.82
430.10	1628.14
430.30	1736.68
430.51	1701.86
430.71	1671.14
430.92	1673.19
431.13	1665.00
431.33	1759.21
431.54	1818.60
431.74	1787.88
431.95	1855.46
432.15	1699.81
432.36	1693.67
432.56	1781.73
432.77	1763.30
432.98	1845.22
433.18	1714.15
433.39	1636.33
433.59	1695.72
433.80	1861.60
434.00	1841.12
434.21	1665.00
434.41	1710.05
434.62	1873.89
434.82	1576.94
435.03	1607.66
435.23	1730.53
435.44	1630.18
435.64	1705.96
435.85	1773.54
436.06	1701.86
436.26	1728.49
436.47	1665.00
436.67	1722.34
436.88	1767.40
437.08	1720.29
437.29	1820.64
437.49	1691.62
437.70	1828.84
437.90	1751.01
438.11	1845.22
438.31	1812.45
438.52	1867.75
438.72	1818.60
438.93	1888.23
439.13	1808.36
439.34	1834.98
439.54	1722.34
439.75	1738.73
439.95	1804.26
440.16	1736.68
440.36	1781.73
440.57	1779.68
440.77	1699.81
440.98	1710.05
441.18	1689.57
441.39	1697.77
441.59	1677.29
441.80	1742.82
442.00	1683.43
442.21	1873.89
442.41	1603.56
442.62	1734.63
442.82	1724.39
443.02	1726.44
443.23	1740.77
443.43	1789.92
443.64	1814.50
443.84	1724.39
444.05	1759.21
444.25	1716.20
444.46	1738.73
444.66	1812.45
444.87	1787.88
445.07	1603.56
445.28	1712.10
445.48	1695.72
445.69	1785.83
445.89	1920.99
446.09	1759.21
446.30	1992.67
446.50	2709.46
446.71	3729.35
446.91	4372.41
447.12	4841.40
447.32	4812.73
447.53	4351.93
447.73	3887.04
447.93	3557.32
448.14	3209.17
448.34	3162.06
448.55	2926.55
448.75	2848.72
448.96	2717.65
449.16	2424.80
449.36	2248.67
449.57	2062.30
449.77	1947.62
449.98	1798.12
450.18	1830.88
450.39	1755.11
450.59	1808.36
450.79	1763.30
451.00	1701.86
451.20	1818.60
451.41	1701.86
451.61	1718.25
451.81	1708.01
452.02	1779.68
452.22	1775.59
452.43	1675.24
452.63	1742.82
