SpectraSuite Data File
++++++++++++++++++++++++++++++++++++
Date: Mon Jun 06 16:41:17 CEST 2016
User: root
Dark Spectrum Present: No
Reference Spectrum Present: No
Number of Sampled Component Spectra: 1
Spectrometers: USB4C02835
Integration Time (usec): 100000 (USB4C02835)
Spectra Averaged: 1 (USB4C02835)
Boxcar Smoothing: 0 (USB4C02835)
Correct for Electrical Dark: No (USB4C02835)
Strobe/Lamp Enabled: No (USB4C02835)
Correct for Detector Non-linearity: No (USB4C02835)
Correct for Stray Light: No (USB4C02835)
Number of Pixels in Processed Spectrum: 3648
>>>>>Begin Processed Spectral Data<<<<<
177.47	1464.30
177.69	1464.30
177.91	1464.30
178.13	1515.50
178.36	1468.39
178.58	1703.91
178.80	1683.43
179.02	1712.10
179.24	1615.85
179.46	1724.39
179.68	1705.96
179.90	1681.38
180.13	1710.05
180.35	1683.43
180.57	1667.05
180.79	1722.34
181.01	1755.11
181.23	1804.26
181.45	1722.34
181.67	1761.25
181.90	1781.73
182.12	1638.38
182.34	1638.38
182.56	1738.73
182.78	1755.11
183.00	1671.14
183.22	1765.35
183.44	1624.04
183.66	1853.41
183.89	1738.73
184.11	1728.49
184.33	1757.16
184.55	1701.86
184.77	1693.67
184.99	1751.01
185.21	1734.63
185.43	1839.08
185.65	1701.86
185.87	1677.29
186.10	1800.16
186.32	1896.42
186.54	1730.53
186.76	1718.25
186.98	1710.05
187.20	1673.19
187.42	1665.00
187.64	1695.72
187.86	1742.82
188.08	1841.12
188.30	1677.29
188.52	1697.77
188.75	1779.68
188.97	1697.77
189.19	1718.25
189.41	1724.39
189.63	1767.40
189.85	1619.94
190.07	1703.91
190.29	1640.42
190.51	1773.54
190.73	1652.71
190.95	1740.77
191.17	1714.15
191.39	1632.23
191.61	1630.18
191.84	1730.53
192.06	1665.00
192.28	1660.90
192.50	1945.57
192.72	1681.38
192.94	1648.61
193.16	1755.11
193.38	1751.01
193.60	1619.94
193.82	1656.81
194.04	1705.96
194.26	1787.88
194.48	1716.20
194.70	1656.81
194.92	1617.90
195.14	1824.74
195.36	1710.05
195.58	1624.04
195.80	1705.96
196.02	1695.72
196.24	1734.63
196.46	1671.14
196.69	1642.47
196.91	1877.99
197.13	1732.58
197.35	1771.49
197.57	1869.80
197.79	1730.53
198.01	1755.11
198.23	1730.53
198.45	1660.90
198.67	1644.52
198.89	1630.18
199.11	1771.49
199.33	1669.09
199.55	1583.08
199.77	1726.44
199.99	1757.16
200.21	1703.91
200.43	1751.01
200.65	1640.42
200.87	1583.08
201.09	1720.29
201.31	1683.43
201.53	1787.88
201.75	1783.78
201.97	1697.77
202.19	1775.59
202.41	1710.05
202.63	1845.22
202.85	1730.53
203.07	1708.01
203.29	1658.85
203.51	1685.48
203.73	1677.29
203.95	1851.36
204.17	1685.48
204.39	1697.77
204.61	1728.49
204.83	1712.10
205.05	1705.96
205.27	1744.87
205.49	1849.32
205.71	1755.11
205.93	1667.05
206.15	1724.39
206.37	1763.30
206.59	1740.77
206.81	1603.56
207.03	1724.39
207.25	1636.33
207.47	1767.40
207.69	1693.67
207.91	1814.50
208.13	1755.11
208.34	1681.38
208.56	1630.18
208.78	1787.88
209.00	1652.71
209.22	1669.09
209.44	1705.96
209.66	1689.57
209.88	1736.68
210.10	1673.19
210.32	1804.26
210.54	1787.88
210.76	1683.43
210.98	1794.02
211.20	1587.18
211.42	1583.08
211.64	1806.31
211.86	1732.58
212.08	1701.86
212.30	1667.05
212.52	1671.14
212.74	1679.33
212.96	1718.25
213.17	1773.54
213.39	1816.55
213.61	1728.49
213.83	1687.53
214.05	1638.38
214.27	1761.25
214.49	1624.04
214.71	1716.20
214.93	1787.88
215.15	1748.97
215.37	1738.73
215.59	1648.61
215.81	1720.29
216.03	1748.97
216.24	1722.34
216.46	1716.20
216.68	1697.77
216.90	1759.21
217.12	1751.01
217.34	1800.16
217.56	1695.72
217.78	1708.01
218.00	1656.81
218.22	1667.05
218.44	1798.12
218.66	1681.38
218.87	1816.55
219.09	1697.77
219.31	1718.25
219.53	1697.77
219.75	1665.00
219.97	1734.63
220.19	1755.11
220.41	1679.33
220.63	1738.73
220.85	1726.44
221.06	1644.52
221.28	1763.30
221.50	1744.87
221.72	1673.19
221.94	1697.77
222.16	1796.07
222.38	1685.48
222.60	1814.50
222.82	1673.19
223.03	1740.77
223.25	1716.20
223.47	1781.73
223.69	1779.68
223.91	1740.77
224.13	1665.00
224.35	1658.85
224.57	1820.64
224.78	1804.26
225.00	1634.28
225.22	1710.05
225.44	1748.97
225.66	1705.96
225.88	1636.33
226.10	1820.64
226.32	1761.25
226.53	1742.82
226.75	1699.81
226.97	1708.01
227.19	1644.52
227.41	1630.18
227.63	1681.38
227.85	1669.09
228.06	1677.29
228.28	1701.86
228.50	1798.12
228.72	1648.61
228.94	1681.38
229.16	1531.88
229.37	1650.66
229.59	1652.71
229.81	1791.97
230.03	1691.62
230.25	1605.61
230.47	1642.47
230.69	1578.98
230.90	1724.39
231.12	1638.38
231.34	1738.73
231.56	1767.40
231.78	1654.76
232.00	1746.92
232.21	1669.09
232.43	1660.90
232.65	1671.14
232.87	1685.48
233.09	1697.77
233.30	1710.05
233.52	1742.82
233.74	1734.63
233.96	1693.67
234.18	1708.01
234.40	1638.38
234.61	1798.12
234.83	1630.18
235.05	1714.15
235.27	1830.88
235.49	1769.44
235.70	1740.77
235.92	1779.68
236.14	1718.25
236.36	1871.84
236.58	1630.18
236.79	1763.30
237.01	1665.00
237.23	1691.62
237.45	1875.94
237.67	1642.47
237.88	1669.09
238.10	1871.84
238.32	1714.15
238.54	1646.57
238.76	1726.44
238.97	1609.70
239.19	1712.10
239.41	1806.31
239.63	1775.59
239.85	1730.53
240.06	1679.33
240.28	1742.82
240.50	1767.40
240.72	1724.39
240.93	1738.73
241.15	1771.49
241.37	1691.62
241.59	1710.05
241.81	1773.54
242.02	1742.82
242.24	1648.61
242.46	1714.15
242.68	1691.62
242.89	1724.39
243.11	1726.44
243.33	1722.34
243.55	1646.57
243.76	1763.30
243.98	1701.86
244.20	1681.38
244.42	1810.40
244.64	1701.86
244.85	1656.81
245.07	1621.99
245.29	1798.12
245.51	1681.38
245.72	1695.72
245.94	1763.30
246.16	1722.34
246.38	1751.01
246.59	1656.81
246.81	1673.19
247.03	1697.77
247.24	1591.27
247.46	1578.98
247.68	1636.33
247.90	1660.90
248.11	1665.00
248.33	1708.01
248.55	1720.29
248.77	1701.86
248.98	1748.97
249.20	1798.12
249.42	1714.15
249.64	1796.07
249.85	1652.71
250.07	1617.90
250.29	1716.20
250.50	1832.93
250.72	1632.23
250.94	1708.01
251.16	1859.56
251.37	1767.40
251.59	1767.40
251.81	1759.21
252.02	1748.97
252.24	1648.61
252.46	1714.15
252.68	1708.01
252.89	1628.14
253.11	1656.81
253.33	1789.92
253.54	1781.73
253.76	1599.46
253.98	1699.81
254.20	1675.24
254.41	1585.13
254.63	1703.91
254.85	1644.52
255.06	1738.73
255.28	1716.20
255.50	1724.39
255.71	1751.01
255.93	1648.61
256.15	1656.81
256.36	1724.39
256.58	1652.71
256.80	1779.68
257.02	1685.48
257.23	1710.05
257.45	1783.78
257.67	1773.54
257.88	1632.23
258.10	1806.31
258.32	1818.60
258.53	1718.25
258.75	1789.92
258.97	1640.42
259.18	1697.77
259.40	1718.25
259.62	1812.45
259.83	1800.16
260.05	1755.11
260.27	1953.76
260.48	1738.73
260.70	1617.90
260.92	1693.67
261.13	1728.49
261.35	1742.82
261.57	1689.57
261.78	1601.51
262.00	1660.90
262.22	1703.91
262.43	1656.81
262.65	1738.73
262.86	1691.62
263.08	1851.36
263.30	1714.15
263.51	1705.96
263.73	1613.80
263.95	1761.25
264.16	1632.23
264.38	1626.09
264.60	1675.24
264.81	1648.61
265.03	1777.64
265.25	1800.16
265.46	1736.68
265.68	1736.68
265.89	1689.57
266.11	1642.47
266.33	1751.01
266.54	1765.35
266.76	1710.05
266.98	1777.64
267.19	1837.03
267.41	1828.84
267.62	1710.05
267.84	1658.85
268.06	1787.88
268.27	1800.16
268.49	1800.16
268.70	1714.15
268.92	1648.61
269.14	1697.77
269.35	1660.90
269.57	1722.34
269.79	1787.88
270.00	1654.76
270.22	1746.92
270.43	1714.15
270.65	1628.14
270.87	1703.91
271.08	1685.48
271.30	1687.53
271.51	1796.07
271.73	1789.92
271.95	1828.84
272.16	1716.20
272.38	1742.82
272.59	1779.68
272.81	1716.20
273.02	1755.11
273.24	1751.01
273.46	1648.61
273.67	1697.77
273.89	1621.99
274.10	1652.71
274.32	1775.59
274.54	1658.85
274.75	1673.19
274.97	1656.81
275.18	1794.02
275.40	1705.96
275.61	1785.83
275.83	1716.20
276.05	1660.90
276.26	1732.58
276.48	1691.62
276.69	1740.77
276.91	1708.01
277.12	1697.77
277.34	1726.44
277.55	1816.55
277.77	1736.68
277.99	1660.90
278.20	1652.71
278.42	1685.48
278.63	1710.05
278.85	1667.05
279.06	1630.18
279.28	1738.73
279.49	1769.44
279.71	1665.00
279.93	1705.96
280.14	1746.92
280.36	1650.66
280.57	1748.97
280.79	1841.12
281.00	1673.19
281.22	1724.39
281.43	1744.87
281.65	1603.56
281.86	1591.27
282.08	1738.73
282.29	1796.07
282.51	1654.76
282.73	1669.09
282.94	1681.38
283.16	1736.68
283.37	1796.07
283.59	1701.86
283.80	1837.03
284.02	1708.01
284.23	1777.64
284.45	1693.67
284.66	1665.00
284.88	1683.43
285.09	1673.19
285.31	1685.48
285.52	1781.73
285.74	1613.80
285.95	1753.06
286.17	1728.49
286.38	1775.59
286.60	1669.09
286.81	1654.76
287.03	1652.71
287.24	1689.57
287.46	1789.92
287.67	1716.20
287.89	1798.12
288.10	1658.85
288.32	1779.68
288.53	1755.11
288.75	1718.25
288.96	1734.63
289.18	1755.11
289.39	1658.85
289.61	1710.05
289.82	1806.31
290.04	1828.84
290.25	1648.61
290.47	1652.71
290.68	1699.81
290.90	1697.77
291.11	1607.66
291.33	1742.82
291.54	1609.70
291.76	1648.61
291.97	1703.91
292.18	1695.72
292.40	1642.47
292.61	1773.54
292.83	1720.29
293.04	1712.10
293.26	1763.30
293.47	1796.07
293.69	1648.61
293.90	1744.87
294.12	1779.68
294.33	1679.33
294.55	1736.68
294.76	1726.44
294.97	1804.26
295.19	1822.69
295.40	1681.38
295.62	1656.81
295.83	1794.02
296.05	1677.29
296.26	1689.57
296.48	1728.49
296.69	1757.16
296.90	1673.19
297.12	1787.88
297.33	1736.68
297.55	1665.00
297.76	1763.30
297.98	1777.64
298.19	1667.05
298.41	1761.25
298.62	1748.97
298.83	1757.16
299.05	1648.61
299.26	1609.70
299.48	1771.49
299.69	1798.12
299.90	1710.05
300.12	1656.81
300.33	1757.16
300.55	1701.86
300.76	1730.53
300.98	1687.53
301.19	1755.11
301.40	1689.57
301.62	1660.90
301.83	1751.01
302.05	1693.67
302.26	1740.77
302.47	1714.15
302.69	1621.99
302.90	1714.15
303.12	1638.38
303.33	1771.49
303.54	1849.32
303.76	1656.81
303.97	1705.96
304.19	1796.07
304.40	1751.01
304.61	1798.12
304.83	1798.12
305.04	1773.54
305.26	1736.68
305.47	1564.65
305.68	1714.15
305.90	1624.04
306.11	1767.40
306.33	1738.73
306.54	1648.61
306.75	1681.38
306.97	1656.81
307.18	1703.91
307.39	1638.38
307.61	1724.39
307.82	1810.40
308.04	1728.49
308.25	1613.80
308.46	1652.71
308.68	1624.04
308.89	1656.81
309.10	1804.26
309.32	1769.44
309.53	1785.83
309.74	1720.29
309.96	1660.90
310.17	1730.53
310.39	1726.44
310.60	1808.36
310.81	1724.39
311.03	1681.38
311.24	1736.68
311.45	1720.29
311.67	1814.50
311.88	1679.33
312.09	1759.21
312.31	1708.01
312.52	1746.92
312.73	1730.53
312.95	1617.90
313.16	1660.90
313.37	1722.34
313.59	1804.26
313.80	1738.73
314.01	1845.22
314.23	1656.81
314.44	1654.76
314.65	1701.86
314.87	1607.66
315.08	1718.25
315.29	1650.66
315.51	1673.19
315.72	1591.27
315.93	1812.45
316.15	1730.53
316.36	1689.57
316.57	1681.38
316.79	1687.53
317.00	1681.38
317.21	1759.21
317.43	1714.15
317.64	1718.25
317.85	1665.00
318.07	1736.68
318.28	1757.16
318.49	1849.32
318.70	1869.80
318.92	1781.73
319.13	1810.40
319.34	1910.75
319.56	1777.64
319.77	1763.30
319.98	1871.84
320.20	1716.20
320.41	1794.02
320.62	1742.82
320.83	1640.42
321.05	1873.89
321.26	1779.68
321.47	1667.05
321.69	1810.40
321.90	1742.82
322.11	1691.62
322.32	1763.30
322.54	1810.40
322.75	1632.23
322.96	1818.60
323.18	1564.65
323.39	1640.42
323.60	1742.82
323.81	1677.29
324.03	1753.06
324.24	1730.53
324.45	1652.71
324.66	1703.91
324.88	1691.62
325.09	1849.32
325.30	1753.06
325.52	1724.39
325.73	1738.73
325.94	1652.71
326.15	1658.85
326.37	1611.75
326.58	1722.34
326.79	1828.84
327.00	1656.81
327.22	1718.25
327.43	1689.57
327.64	1708.01
327.85	1703.91
328.07	1789.92
328.28	1726.44
328.49	1746.92
328.70	1613.80
328.92	1705.96
329.13	1755.11
329.34	1624.04
329.55	1839.08
329.76	1722.34
329.98	1738.73
330.19	1751.01
330.40	1701.86
330.61	1730.53
330.83	1771.49
331.04	1658.85
331.25	1751.01
331.46	1667.05
331.68	1656.81
331.89	1826.79
332.10	1751.01
332.31	1656.81
332.52	1679.33
332.74	1734.63
332.95	1708.01
333.16	1662.95
333.37	1759.21
333.58	1685.48
333.80	1722.34
334.01	1673.19
334.22	1695.72
334.43	1695.72
334.64	1714.15
334.86	1603.56
335.07	1757.16
335.28	1755.11
335.49	1634.28
335.70	1722.34
335.92	1822.69
336.13	1863.65
336.34	1744.87
336.55	1683.43
336.76	1722.34
336.98	1550.31
337.19	1710.05
337.40	1779.68
337.61	1847.27
337.82	1665.00
338.04	1767.40
338.25	1650.66
338.46	1761.25
338.67	1652.71
338.88	1619.94
339.09	1703.91
339.31	1751.01
339.52	1705.96
339.73	1564.65
339.94	1722.34
340.15	1771.49
340.36	1652.71
340.58	1724.39
340.79	1619.94
341.00	1677.29
341.21	1677.29
341.42	1839.08
341.63	1751.01
341.85	1806.31
342.06	1765.35
342.27	1640.42
342.48	1812.45
342.69	1599.46
342.90	1757.16
343.12	1751.01
343.33	1728.49
343.54	1781.73
343.75	1734.63
343.96	1691.62
344.17	1681.38
344.38	1746.92
344.60	1652.71
344.81	1603.56
345.02	1673.19
345.23	1781.73
345.44	1761.25
345.65	1755.11
345.86	1710.05
346.07	1746.92
346.29	1673.19
346.50	1734.63
346.71	1783.78
346.92	1789.92
347.13	1806.31
347.34	1673.19
347.55	1730.53
347.76	1787.88
347.98	1667.05
348.19	1730.53
348.40	1777.64
348.61	1656.81
348.82	1757.16
349.03	1763.30
349.24	1617.90
349.45	1769.44
349.66	1591.27
349.88	1685.48
350.09	1652.71
350.30	1873.89
350.51	1775.59
350.72	1720.29
350.93	1734.63
351.14	1667.05
351.35	1802.21
351.56	1751.01
351.77	1771.49
351.99	1693.67
352.20	1855.46
352.41	1785.83
352.62	1646.57
352.83	1658.85
353.04	1714.15
353.25	1714.15
353.46	1814.50
353.67	1736.68
353.88	1601.51
354.09	1738.73
354.30	1662.95
354.52	1791.97
354.73	1681.38
354.94	1767.40
355.15	1726.44
355.36	1888.23
355.57	1726.44
355.78	1677.29
355.99	1665.00
356.20	1576.94
356.41	1710.05
356.62	1607.66
356.83	1763.30
357.04	1804.26
357.25	1632.23
357.46	1687.53
357.68	1529.83
357.89	1703.91
358.10	1722.34
358.31	1779.68
358.52	1693.67
358.73	1626.09
358.94	1703.91
359.15	1656.81
359.36	1761.25
359.57	1716.20
359.78	1675.24
359.99	1748.97
360.20	1621.99
360.41	1656.81
360.62	1740.77
360.83	1767.40
361.04	1722.34
361.25	1683.43
361.46	1896.42
361.67	1748.97
361.88	1681.38
362.09	1759.21
362.30	1755.11
362.51	1636.33
362.72	1675.24
362.93	1742.82
363.14	1763.30
363.35	1701.86
363.56	1654.76
363.78	1849.32
363.99	1728.49
364.20	1660.90
364.41	1740.77
364.62	1800.16
364.83	1665.00
365.04	1759.21
365.25	1746.92
365.46	1806.31
365.67	1726.44
365.88	1535.98
366.09	1683.43
366.30	1662.95
366.51	1732.58
366.72	1595.37
366.93	1734.63
367.14	1718.25
367.35	1806.31
367.56	1691.62
367.77	1837.03
367.98	1722.34
368.18	1705.96
368.39	1769.44
368.60	1703.91
368.81	1761.25
369.02	1714.15
369.23	1722.34
369.44	1624.04
369.65	1746.92
369.86	1757.16
370.07	1765.35
370.28	1748.97
370.49	1787.88
370.70	1810.40
370.91	1611.75
371.12	1640.42
371.33	1755.11
371.54	1681.38
371.75	1748.97
371.96	1538.02
372.17	1771.49
372.38	1763.30
372.59	1802.21
372.80	1753.06
373.01	1763.30
373.22	1714.15
373.43	1765.35
373.64	1621.99
373.85	1865.70
374.06	1824.74
374.26	1718.25
374.47	1714.15
374.68	1796.07
374.89	1630.18
375.10	1718.25
375.31	1703.91
375.52	1644.52
375.73	1658.85
375.94	1656.81
376.15	1804.26
376.36	1658.85
376.57	1742.82
376.78	1761.25
376.99	1779.68
377.20	1787.88
377.40	1710.05
377.61	1800.16
377.82	1705.96
378.03	1773.54
378.24	1748.97
378.45	1685.48
378.66	1671.14
378.87	1632.23
379.08	1603.56
379.29	1656.81
379.50	1798.12
379.71	1734.63
379.91	1734.63
380.12	1738.73
380.33	1722.34
380.54	1714.15
380.75	1691.62
380.96	1718.25
381.17	1791.97
381.38	1736.68
381.59	1796.07
381.80	1712.10
382.00	1783.78
382.21	1771.49
382.42	1839.08
382.63	1912.80
382.84	1769.44
383.05	1740.77
383.26	1800.16
383.47	1724.39
383.68	1779.68
383.88	1773.54
384.09	1759.21
384.30	1767.40
384.51	1705.96
384.72	1724.39
384.93	1626.09
385.14	1691.62
385.35	1759.21
385.55	1691.62
385.76	1746.92
385.97	1744.87
386.18	1617.90
386.39	1693.67
386.60	1699.81
386.81	1658.85
387.02	1699.81
387.22	1726.44
387.43	1822.69
387.64	1839.08
387.85	1916.90
388.06	2154.46
388.27	4106.18
388.48	6827.93
388.68	8245.12
388.89	9662.32
389.10	9893.74
389.31	8802.17
389.52	7563.15
389.73	6766.49
389.93	6287.26
390.14	5994.40
390.35	5210.03
390.56	4593.59
390.77	3837.89
390.98	3026.90
391.18	2549.72
391.39	2164.70
391.60	1814.50
391.81	1920.99
392.02	1689.57
392.23	1785.83
392.43	1740.77
392.64	1763.30
392.85	1757.16
393.06	1775.59
393.27	1710.05
393.47	1632.23
393.68	1722.34
393.89	1703.91
394.10	1744.87
394.31	1621.99
394.52	1718.25
394.72	1718.25
394.93	1845.22
395.14	1636.33
395.35	1777.64
395.56	1699.81
395.76	1785.83
395.97	1740.77
396.18	1841.12
396.39	1845.22
396.60	2027.49
396.80	1931.23
397.01	1877.99
397.22	1818.60
397.43	1820.64
397.64	1724.39
397.84	1820.64
398.05	1916.90
398.26	1781.73
398.47	1771.49
398.67	1798.12
398.88	1732.58
399.09	1730.53
399.30	1652.71
399.51	1748.97
399.71	1712.10
399.92	1720.29
400.13	1716.20
400.34	1724.39
400.54	1753.06
400.75	1802.21
400.96	1703.91
401.17	1757.16
401.37	1785.83
401.58	1687.53
401.79	1742.82
402.00	1804.26
402.21	1980.39
402.41	1990.63
402.62	1996.77
402.83	2086.88
403.04	2072.54
403.24	2111.46
403.45	1867.75
403.66	1943.52
403.87	1855.46
404.07	1888.23
404.28	1931.23
404.49	1896.42
404.70	1748.97
404.90	1822.69
405.11	1822.69
405.32	1701.86
405.52	1703.91
405.73	1630.18
405.94	1757.16
406.15	1777.64
406.35	1757.16
406.56	1791.97
406.77	1728.49
406.98	1785.83
407.18	1724.39
407.39	1882.08
407.60	1730.53
407.80	1718.25
408.01	1632.23
408.22	1714.15
408.43	1730.53
408.63	1708.01
408.84	1763.30
409.05	1730.53
409.25	1636.33
409.46	1601.51
409.67	1652.71
409.88	1689.57
410.08	1738.73
410.29	1710.05
410.50	1736.68
410.70	1673.19
410.91	1697.77
411.12	1738.73
411.32	1660.90
411.53	1687.53
411.74	1783.78
411.95	1789.92
412.15	1720.29
412.36	1689.57
412.57	1746.92
412.77	1738.73
412.98	1753.06
413.19	1638.38
413.39	1701.86
413.60	1728.49
413.81	1775.59
414.01	1677.29
414.22	1738.73
414.43	1691.62
414.63	1677.29
414.84	1748.97
415.05	1705.96
415.25	1660.90
415.46	1744.87
415.67	1689.57
415.87	1757.16
416.08	1720.29
416.29	1701.86
416.49	1800.16
416.70	1755.11
416.91	1769.44
417.11	1822.69
417.32	1693.67
417.53	1834.98
417.73	1738.73
417.94	1599.46
418.15	1628.14
418.35	1746.92
418.56	1716.20
418.77	1808.36
418.97	1703.91
419.18	1654.76
419.38	1595.37
419.59	1640.42
419.80	1851.36
420.00	1669.09
420.21	1746.92
420.42	1748.97
420.62	1701.86
420.83	1652.71
421.04	1691.62
421.24	1701.86
421.45	1748.97
421.65	1687.53
421.86	1734.63
422.07	1732.58
422.27	1777.64
422.48	1705.96
422.69	1679.33
422.89	1734.63
423.10	1736.68
423.30	1677.29
423.51	1714.15
423.72	1630.18
423.92	1767.40
424.13	1617.90
424.33	1701.86
424.54	1818.60
424.75	1710.05
424.95	1794.02
425.16	1732.58
425.36	1718.25
425.57	1777.64
425.78	1787.88
425.98	1732.58
426.19	1638.38
426.39	1685.48
426.60	1693.67
426.81	1767.40
427.01	1699.81
427.22	1626.09
427.42	1681.38
427.63	1642.47
427.83	1755.11
428.04	1847.27
428.25	1839.08
428.45	1726.44
428.66	1712.10
428.86	1656.81
429.07	1718.25
429.28	1693.67
429.48	1714.15
429.69	1703.91
429.89	1724.39
430.10	1673.19
430.30	1753.06
430.51	1753.06
430.71	1640.42
430.92	1695.72
431.13	1705.96
431.33	1767.40
431.54	1701.86
431.74	1732.58
431.95	1832.93
432.15	1669.09
432.36	1724.39
432.56	1751.01
432.77	1869.80
432.98	1834.98
433.18	1744.87
433.39	1738.73
433.59	1691.62
433.80	1794.02
434.00	1882.08
434.21	1726.44
434.41	1751.01
434.62	1830.88
434.82	1693.67
435.03	1621.99
435.23	1734.63
435.44	1609.70
435.64	1710.05
435.85	1806.31
436.06	1744.87
436.26	1757.16
436.47	1718.25
436.67	1669.09
436.88	1689.57
437.08	1744.87
437.29	1732.58
437.49	1714.15
437.70	1820.64
437.90	1691.62
438.11	1875.94
438.31	1849.32
438.52	1845.22
438.72	1861.60
438.93	1927.14
439.13	1847.27
439.34	1808.36
439.54	1779.68
439.75	1894.37
439.95	1837.03
440.16	1685.48
440.36	1689.57
440.57	1808.36
440.77	1789.92
440.98	1759.21
441.18	1742.82
441.39	1665.00
441.59	1720.29
441.80	1806.31
442.00	1718.25
442.21	1812.45
442.41	1642.47
442.62	1804.26
442.82	1656.81
443.02	1705.96
443.23	1748.97
443.43	1671.14
443.64	1794.02
443.84	1771.49
444.05	1773.54
444.25	1718.25
444.46	1722.34
444.66	1705.96
444.87	1843.17
445.07	1667.05
445.28	1722.34
445.48	1794.02
445.69	1769.44
445.89	1916.90
446.09	1746.92
446.30	2015.20
446.50	2686.94
446.71	3827.65
446.91	4384.70
447.12	4820.92
447.32	4890.55
447.53	4370.37
447.73	3815.37
447.93	3536.84
448.14	3330.00
448.34	3155.92
448.55	2842.58
448.75	2807.77
448.96	2738.13
449.16	2365.40
449.36	2330.59
449.57	2068.45
449.77	2004.96
449.98	1804.26
450.18	1830.88
450.39	1851.36
450.59	1832.93
450.79	1734.63
451.00	1751.01
451.20	1773.54
451.41	1746.92
451.61	1769.44
451.81	1773.54
452.02	1708.01
452.22	1732.58
452.43	1773.54
452.63	1689.57
