SpectraSuite Data File
++++++++++++++++++++++++++++++++++++
Date: Mon Jun 06 13:46:17 CEST 2016
User: root
Dark Spectrum Present: No
Reference Spectrum Present: No
Number of Sampled Component Spectra: 1
Spectrometers: USB4C02835
Integration Time (usec): 100000 (USB4C02835)
Spectra Averaged: 1 (USB4C02835)
Boxcar Smoothing: 0 (USB4C02835)
Correct for Electrical Dark: No (USB4C02835)
Strobe/Lamp Enabled: No (USB4C02835)
Correct for Detector Non-linearity: No (USB4C02835)
Correct for Stray Light: No (USB4C02835)
Number of Pixels in Processed Spectrum: 3648
>>>>>Begin Processed Spectral Data<<<<<
177.47	1411.05
177.69	1411.05
177.91	1411.05
178.13	1470.44
178.36	1390.57
178.58	1650.66
178.80	1783.78
179.02	1613.80
179.24	1714.15
179.46	1634.28
179.68	1720.29
179.90	1710.05
180.13	1716.20
180.35	1648.61
180.57	1777.64
180.79	1755.11
181.01	1689.57
181.23	1683.43
181.45	1767.40
181.67	1720.29
181.90	1808.36
182.12	1597.42
182.34	1609.70
182.56	1705.96
182.78	1796.07
183.00	1699.81
183.22	1699.81
183.44	1650.66
183.66	1822.69
183.89	1718.25
184.11	1783.78
184.33	1783.78
184.55	1763.30
184.77	1685.48
184.99	1712.10
185.21	1607.66
185.43	1759.21
185.65	1628.14
185.87	1677.29
186.10	1773.54
186.32	1857.51
186.54	1751.01
186.76	1703.91
186.98	1710.05
187.20	1746.92
187.42	1701.86
187.64	1677.29
187.86	1708.01
188.08	1796.07
188.30	1628.14
188.52	1677.29
188.75	1703.91
188.97	1751.01
189.19	1720.29
189.41	1609.70
189.63	1714.15
189.85	1626.09
190.07	1662.95
190.29	1630.18
190.51	1705.96
190.73	1607.66
190.95	1779.68
191.17	1615.85
191.39	1648.61
191.61	1654.76
191.84	1744.87
192.06	1730.53
192.28	1548.26
192.50	1845.22
192.72	1714.15
192.94	1642.47
193.16	1691.62
193.38	1740.77
193.60	1611.75
193.82	1587.18
194.04	1751.01
194.26	1738.73
194.48	1785.83
194.70	1681.38
194.92	1712.10
195.14	1722.34
195.36	1757.16
195.58	1787.88
195.80	1677.29
196.02	1652.71
196.24	1726.44
196.46	1716.20
196.69	1632.23
196.91	1834.98
197.13	1757.16
197.35	1603.56
197.57	1783.78
197.79	1718.25
198.01	1742.82
198.23	1722.34
198.45	1751.01
198.67	1630.18
198.89	1730.53
199.11	1732.58
199.33	1638.38
199.55	1556.46
199.77	1695.72
199.99	1796.07
200.21	1718.25
200.43	1763.30
200.65	1656.81
200.87	1560.55
201.09	1708.01
201.31	1628.14
201.53	1759.21
201.75	1718.25
201.97	1703.91
202.19	1705.96
202.41	1734.63
202.63	1816.55
202.85	1798.12
203.07	1785.83
203.29	1665.00
203.51	1613.80
203.73	1642.47
203.95	1849.32
204.17	1695.72
204.39	1724.39
204.61	1585.13
204.83	1720.29
205.05	1779.68
205.27	1710.05
205.49	1867.75
205.71	1642.47
205.93	1632.23
206.15	1658.85
206.37	1705.96
206.59	1693.67
206.81	1644.52
207.03	1646.57
207.25	1654.76
207.47	1748.97
207.69	1726.44
207.91	1689.57
208.13	1771.49
208.34	1587.18
208.56	1679.33
208.78	1703.91
209.00	1746.92
209.22	1646.57
209.44	1642.47
209.66	1771.49
209.88	1671.14
210.10	1714.15
210.32	1677.29
210.54	1775.59
210.76	1578.98
210.98	1724.39
211.20	1531.88
211.42	1626.09
211.64	1816.55
211.86	1732.58
212.08	1740.77
212.30	1777.64
212.52	1681.38
212.74	1693.67
212.96	1746.92
213.17	1673.19
213.39	1652.71
213.61	1757.16
213.83	1683.43
214.05	1669.09
214.27	1724.39
214.49	1607.66
214.71	1677.29
214.93	1767.40
215.15	1720.29
215.37	1796.07
215.59	1519.59
215.81	1710.05
216.03	1783.78
216.24	1697.77
216.46	1763.30
216.68	1687.53
216.90	1708.01
217.12	1701.86
217.34	1669.09
217.56	1701.86
217.78	1798.12
218.00	1697.77
218.22	1652.71
218.44	1734.63
218.66	1742.82
218.87	1761.25
219.09	1677.29
219.31	1738.73
219.53	1691.62
219.75	1722.34
219.97	1697.77
220.19	1722.34
220.41	1685.48
220.63	1818.60
220.85	1703.91
221.06	1705.96
221.28	1789.92
221.50	1701.86
221.72	1722.34
221.94	1724.39
222.16	1718.25
222.38	1726.44
222.60	1769.44
222.82	1662.95
223.03	1710.05
223.25	1626.09
223.47	1726.44
223.69	1773.54
223.91	1751.01
224.13	1701.86
224.35	1695.72
224.57	1677.29
224.78	1722.34
225.00	1683.43
225.22	1689.57
225.44	1773.54
225.66	1748.97
225.88	1665.00
226.10	1738.73
226.32	1705.96
226.53	1796.07
226.75	1634.28
226.97	1650.66
227.19	1662.95
227.41	1621.99
227.63	1628.14
227.85	1671.14
228.06	1683.43
228.28	1705.96
228.50	1708.01
228.72	1599.46
228.94	1667.05
229.16	1660.90
229.37	1652.71
229.59	1673.19
229.81	1800.16
230.03	1757.16
230.25	1691.62
230.47	1677.29
230.69	1648.61
230.90	1771.49
231.12	1597.42
231.34	1748.97
231.56	1697.77
231.78	1654.76
232.00	1763.30
232.21	1732.58
232.43	1624.04
232.65	1605.61
232.87	1662.95
233.09	1669.09
233.30	1652.71
233.52	1699.81
233.74	1650.66
233.96	1742.82
234.18	1705.96
234.40	1681.38
234.61	1800.16
234.83	1642.47
235.05	1669.09
235.27	1826.79
235.49	1783.78
235.70	1650.66
235.92	1773.54
236.14	1724.39
236.36	1779.68
236.58	1636.33
236.79	1755.11
237.01	1658.85
237.23	1693.67
237.45	1796.07
237.67	1640.42
237.88	1652.71
238.10	1798.12
238.32	1648.61
238.54	1634.28
238.76	1730.53
238.97	1650.66
239.19	1671.14
239.41	1796.07
239.63	1742.82
239.85	1636.33
240.06	1767.40
240.28	1658.85
240.50	1746.92
240.72	1718.25
240.93	1660.90
241.15	1730.53
241.37	1683.43
241.59	1773.54
241.81	1658.85
242.02	1687.53
242.24	1748.97
242.46	1701.86
242.68	1714.15
242.89	1695.72
243.11	1681.38
243.33	1695.72
243.55	1683.43
243.76	1726.44
243.98	1671.14
244.20	1673.19
244.42	1624.04
244.64	1714.15
244.85	1621.99
245.07	1640.42
245.29	1755.11
245.51	1648.61
245.72	1783.78
245.94	1800.16
246.16	1724.39
246.38	1683.43
246.59	1658.85
246.81	1632.23
247.03	1689.57
247.24	1597.42
247.46	1662.95
247.68	1617.90
247.90	1695.72
248.11	1718.25
248.33	1742.82
248.55	1722.34
248.77	1673.19
248.98	1732.58
249.20	1765.35
249.42	1652.71
249.64	1757.16
249.85	1693.67
250.07	1652.71
250.29	1710.05
250.50	1681.38
250.72	1613.80
250.94	1738.73
251.16	1798.12
251.37	1763.30
251.59	1748.97
251.81	1712.10
252.02	1783.78
252.24	1617.90
252.46	1804.26
252.68	1671.14
252.89	1656.81
253.11	1648.61
253.33	1791.97
253.54	1800.16
253.76	1644.52
253.98	1736.68
254.20	1679.33
254.41	1671.14
254.63	1673.19
254.85	1665.00
255.06	1689.57
255.28	1679.33
255.50	1662.95
255.71	1689.57
255.93	1705.96
256.15	1626.09
256.36	1679.33
256.58	1611.75
256.80	1671.14
257.02	1724.39
257.23	1695.72
257.45	1763.30
257.67	1806.31
257.88	1697.77
258.10	1660.90
258.32	1667.05
258.53	1669.09
258.75	1769.44
258.97	1667.05
259.18	1759.21
259.40	1662.95
259.62	1789.92
259.83	1783.78
260.05	1722.34
260.27	1953.76
260.48	1773.54
260.70	1636.33
260.92	1724.39
261.13	1746.92
261.35	1697.77
261.57	1736.68
261.78	1626.09
262.00	1705.96
262.22	1740.77
262.43	1624.04
262.65	1685.48
262.86	1667.05
263.08	1753.06
263.30	1712.10
263.51	1611.75
263.73	1652.71
263.95	1820.64
264.16	1689.57
264.38	1679.33
264.60	1648.61
264.81	1650.66
265.03	1796.07
265.25	1779.68
265.46	1708.01
265.68	1802.21
265.89	1763.30
266.11	1638.38
266.33	1722.34
266.54	1783.78
266.76	1732.58
266.98	1669.09
267.19	1802.21
267.41	1708.01
267.62	1662.95
267.84	1636.33
268.06	1714.15
268.27	1755.11
268.49	1767.40
268.70	1689.57
268.92	1769.44
269.14	1644.52
269.35	1705.96
269.57	1697.77
269.79	1765.35
270.00	1740.77
270.22	1724.39
270.43	1665.00
270.65	1615.85
270.87	1710.05
271.08	1728.49
271.30	1789.92
271.51	1708.01
271.73	1718.25
271.95	1791.97
272.16	1724.39
272.38	1753.06
272.59	1648.61
272.81	1777.64
273.02	1677.29
273.24	1675.24
273.46	1759.21
273.67	1603.56
273.89	1656.81
274.10	1691.62
274.32	1834.98
274.54	1773.54
274.75	1699.81
274.97	1638.38
275.18	1769.44
275.40	1779.68
275.61	1693.67
275.83	1718.25
276.05	1589.22
276.26	1697.77
276.48	1746.92
276.69	1718.25
276.91	1587.18
277.12	1740.77
277.34	1802.21
277.55	1783.78
277.77	1691.62
277.99	1753.06
278.20	1658.85
278.42	1640.42
278.63	1595.37
278.85	1630.18
279.06	1636.33
279.28	1703.91
279.49	1714.15
279.71	1740.77
279.93	1673.19
280.14	1695.72
280.36	1638.38
280.57	1804.26
280.79	1718.25
281.00	1615.85
281.22	1693.67
281.43	1724.39
281.65	1656.81
281.86	1636.33
282.08	1683.43
282.29	1730.53
282.51	1632.23
282.73	1591.27
282.94	1644.52
283.16	1677.29
283.37	1791.97
283.59	1660.90
283.80	1730.53
284.02	1671.14
284.23	1818.60
284.45	1730.53
284.66	1640.42
284.88	1599.46
285.09	1742.82
285.31	1738.73
285.52	1746.92
285.74	1595.37
285.95	1777.64
286.17	1759.21
286.38	1746.92
286.60	1628.14
286.81	1726.44
287.03	1640.42
287.24	1636.33
287.46	1687.53
287.67	1710.05
287.89	1804.26
288.10	1705.96
288.32	1785.83
288.53	1755.11
288.75	1714.15
288.96	1726.44
289.18	1720.29
289.39	1724.39
289.61	1685.48
289.82	1814.50
290.04	1767.40
290.25	1687.53
290.47	1716.20
290.68	1712.10
290.90	1753.06
291.11	1597.42
291.33	1763.30
291.54	1595.37
291.76	1605.61
291.97	1662.95
292.18	1710.05
292.40	1718.25
292.61	1714.15
292.83	1847.27
293.04	1673.19
293.26	1691.62
293.47	1714.15
293.69	1644.52
293.90	1683.43
294.12	1726.44
294.33	1730.53
294.55	1724.39
294.76	1759.21
294.97	1808.36
295.19	1871.84
295.40	1601.51
295.62	1701.86
295.83	1701.86
296.05	1705.96
296.26	1710.05
296.48	1675.24
296.69	1677.29
296.90	1648.61
297.12	1794.02
297.33	1783.78
297.55	1656.81
297.76	1757.16
297.98	1695.72
298.19	1677.29
298.41	1652.71
298.62	1589.22
298.83	1791.97
299.05	1728.49
299.26	1638.38
299.48	1734.63
299.69	1734.63
299.90	1646.57
300.12	1599.46
300.33	1708.01
300.55	1761.25
300.76	1738.73
300.98	1617.90
301.19	1677.29
301.40	1665.00
301.62	1636.33
301.83	1746.92
302.05	1728.49
302.26	1781.73
302.47	1767.40
302.69	1724.39
302.90	1744.87
303.12	1558.50
303.33	1714.15
303.54	1791.97
303.76	1728.49
303.97	1757.16
304.19	1828.84
304.40	1701.86
304.61	1720.29
304.83	1800.16
305.04	1765.35
305.26	1744.87
305.47	1624.04
305.68	1611.75
305.90	1650.66
306.11	1746.92
306.33	1654.76
306.54	1665.00
306.75	1652.71
306.97	1630.18
307.18	1621.99
307.39	1611.75
307.61	1763.30
307.82	1615.85
308.04	1781.73
308.25	1671.14
308.46	1724.39
308.68	1798.12
308.89	1687.53
309.10	1759.21
309.32	1619.94
309.53	1662.95
309.74	1757.16
309.96	1724.39
310.17	1777.64
310.39	1669.09
310.60	1722.34
310.81	1722.34
311.03	1638.38
311.24	1777.64
311.45	1673.19
311.67	1714.15
311.88	1693.67
312.09	1642.47
312.31	1640.42
312.52	1708.01
312.73	1658.85
312.95	1667.05
313.16	1619.94
313.37	1654.76
313.59	1822.69
313.80	1777.64
314.01	1767.40
314.23	1642.47
314.44	1708.01
314.65	1640.42
314.87	1607.66
315.08	1697.77
315.29	1646.57
315.51	1636.33
315.72	1681.38
315.93	1783.78
316.15	1703.91
316.36	1658.85
316.57	1695.72
316.79	1691.62
317.00	1654.76
317.21	1757.16
317.43	1691.62
317.64	1701.86
317.85	1640.42
318.07	1615.85
318.28	1738.73
318.49	1724.39
318.70	1961.95
318.92	1806.31
319.13	1855.46
319.34	1820.64
319.56	1740.77
319.77	1800.16
319.98	1720.29
320.20	1681.38
320.41	1714.15
320.62	1757.16
320.83	1683.43
321.05	1818.60
321.26	1705.96
321.47	1724.39
321.69	1783.78
321.90	1609.70
322.11	1675.24
322.32	1740.77
322.54	1748.97
322.75	1714.15
322.96	1804.26
323.18	1554.41
323.39	1699.81
323.60	1667.05
323.81	1791.97
324.03	1648.61
324.24	1718.25
324.45	1667.05
324.66	1705.96
324.88	1714.15
325.09	1806.31
325.30	1671.14
325.52	1730.53
325.73	1656.81
325.94	1599.46
326.15	1615.85
326.37	1708.01
326.58	1757.16
326.79	1712.10
327.00	1658.85
327.22	1708.01
327.43	1669.09
327.64	1636.33
327.85	1720.29
328.07	1675.24
328.28	1789.92
328.49	1648.61
328.70	1695.72
328.92	1712.10
329.13	1714.15
329.34	1669.09
329.55	1794.02
329.76	1689.57
329.98	1607.66
330.19	1783.78
330.40	1757.16
330.61	1724.39
330.83	1722.34
331.04	1679.33
331.25	1671.14
331.46	1667.05
331.68	1617.90
331.89	1701.86
332.10	1628.14
332.31	1689.57
332.52	1759.21
332.74	1800.16
332.95	1687.53
333.16	1732.58
333.37	1732.58
333.58	1714.15
333.80	1726.44
334.01	1648.61
334.22	1671.14
334.43	1619.94
334.64	1710.05
334.86	1630.18
335.07	1607.66
335.28	1806.31
335.49	1652.71
335.70	1751.01
335.92	1771.49
336.13	1800.16
336.34	1650.66
336.55	1763.30
336.76	1685.48
336.98	1566.70
337.19	1738.73
337.40	1794.02
337.61	1877.99
337.82	1695.72
338.04	1820.64
338.25	1617.90
338.46	1730.53
338.67	1675.24
338.88	1621.99
339.09	1624.04
339.31	1673.19
339.52	1656.81
339.73	1658.85
339.94	1716.20
340.15	1673.19
340.36	1621.99
340.58	1681.38
340.79	1646.57
341.00	1744.87
341.21	1679.33
341.42	1839.08
341.63	1755.11
341.85	1755.11
342.06	1624.04
342.27	1636.33
342.48	1685.48
342.69	1673.19
342.90	1716.20
343.12	1730.53
343.33	1667.05
343.54	1757.16
343.75	1771.49
343.96	1695.72
344.17	1677.29
344.38	1701.86
344.60	1607.66
344.81	1716.20
345.02	1714.15
345.23	1783.78
345.44	1732.58
345.65	1724.39
345.86	1742.82
346.07	1665.00
346.29	1738.73
346.50	1761.25
346.71	1705.96
346.92	1818.60
347.13	1810.40
347.34	1783.78
347.55	1665.00
347.76	1763.30
347.98	1679.33
348.19	1685.48
348.40	1718.25
348.61	1712.10
348.82	1808.36
349.03	1726.44
349.24	1634.28
349.45	1791.97
349.66	1617.90
349.88	1757.16
350.09	1624.04
350.30	1757.16
350.51	1761.25
350.72	1720.29
350.93	1718.25
351.14	1705.96
351.35	1771.49
351.56	1693.67
351.77	1705.96
351.99	1789.92
352.20	1783.78
352.41	1636.33
352.62	1646.57
352.83	1744.87
353.04	1804.26
353.25	1619.94
353.46	1763.30
353.67	1757.16
353.88	1544.17
354.09	1693.67
354.30	1728.49
354.52	1765.35
354.73	1722.34
354.94	1746.92
355.15	1667.05
355.36	1763.30
355.57	1630.18
355.78	1767.40
355.99	1675.24
356.20	1634.28
356.41	1791.97
356.62	1759.21
356.83	1673.19
357.04	1708.01
357.25	1599.46
357.46	1650.66
357.68	1648.61
357.89	1640.42
358.10	1714.15
358.31	1726.44
358.52	1751.01
358.73	1710.05
358.94	1683.43
359.15	1695.72
359.36	1796.07
359.57	1624.04
359.78	1695.72
359.99	1675.24
360.20	1695.72
360.41	1611.75
360.62	1640.42
360.83	1693.67
361.04	1660.90
361.25	1677.29
361.46	1755.11
361.67	1665.00
361.88	1802.21
362.09	1701.86
362.30	1675.24
362.51	1656.81
362.72	1667.05
362.93	1671.14
363.14	1732.58
363.35	1765.35
363.56	1630.18
363.78	1810.40
363.99	1693.67
364.20	1697.77
364.41	1726.44
364.62	1740.77
364.83	1636.33
365.04	1769.44
365.25	1660.90
365.46	1857.51
365.67	1642.47
365.88	1611.75
366.09	1681.38
366.30	1734.63
366.51	1693.67
366.72	1662.95
366.93	1699.81
367.14	1689.57
367.35	1800.16
367.56	1726.44
367.77	1781.73
367.98	1734.63
368.18	1753.06
368.39	1677.29
368.60	1624.04
368.81	1687.53
369.02	1671.14
369.23	1708.01
369.44	1636.33
369.65	1648.61
369.86	1699.81
370.07	1777.64
370.28	1718.25
370.49	1660.90
370.70	1712.10
370.91	1648.61
371.12	1677.29
371.33	1718.25
371.54	1613.80
371.75	1746.92
371.96	1583.08
372.17	1689.57
372.38	1656.81
372.59	1746.92
372.80	1691.62
373.01	1693.67
373.22	1710.05
373.43	1640.42
373.64	1730.53
373.85	1740.77
374.06	1685.48
374.26	1732.58
374.47	1767.40
374.68	1806.31
374.89	1753.06
375.10	1621.99
375.31	1798.12
375.52	1808.36
375.73	1665.00
375.94	1640.42
376.15	1734.63
376.36	1685.48
376.57	1697.77
376.78	1667.05
376.99	1716.20
377.20	1832.93
377.40	1689.57
377.61	1724.39
377.82	1624.04
378.03	1732.58
378.24	1742.82
378.45	1640.42
378.66	1677.29
378.87	1595.37
379.08	1597.42
379.29	1673.19
379.50	1769.44
379.71	1687.53
379.91	1740.77
380.12	1738.73
380.33	1708.01
380.54	1718.25
380.75	1693.67
380.96	1691.62
381.17	1665.00
381.38	1724.39
381.59	1705.96
381.80	1751.01
382.00	1808.36
382.21	1691.62
382.42	1794.02
382.63	1869.80
382.84	1695.72
383.05	1710.05
383.26	1830.88
383.47	1716.20
383.68	1757.16
383.88	1722.34
384.09	1687.53
384.30	1779.68
384.51	1755.11
384.72	1665.00
384.93	1646.57
385.14	1669.09
385.35	1681.38
385.55	1589.22
385.76	1769.44
385.97	1675.24
386.18	1624.04
386.39	1681.38
386.60	1675.24
386.81	1710.05
387.02	1636.33
387.22	1638.38
387.43	1738.73
387.64	1785.83
387.85	1796.07
388.06	2254.81
388.27	4349.89
388.48	6924.18
388.68	8361.86
388.89	9707.37
389.10	9815.91
389.31	8726.39
389.52	7708.55
389.73	6698.91
389.93	6260.64
390.14	6096.80
390.35	5240.75
390.56	4599.74
390.77	3903.43
390.98	3045.33
391.18	2451.42
391.39	2105.31
391.60	1847.27
391.81	1832.93
392.02	1740.77
392.23	1843.17
392.43	1730.53
392.64	1863.65
392.85	1718.25
393.06	1744.87
393.27	1732.58
393.47	1652.71
393.68	1640.42
393.89	1669.09
394.10	1728.49
394.31	1732.58
394.52	1718.25
394.72	1699.81
394.93	1824.74
395.14	1613.80
395.35	1746.92
395.56	1724.39
395.76	1712.10
395.97	1763.30
396.18	1841.12
396.39	1740.77
396.60	2007.01
396.80	1927.14
397.01	1812.45
397.22	1828.84
397.43	1884.13
397.64	1710.05
397.84	1738.73
398.05	1890.28
398.26	1708.01
398.47	1804.26
398.67	1746.92
398.88	1628.14
399.09	1714.15
399.30	1691.62
399.51	1703.91
399.71	1699.81
399.92	1632.23
400.13	1714.15
400.34	1660.90
400.54	1703.91
400.75	1787.88
400.96	1779.68
401.17	1787.88
401.37	1791.97
401.58	1767.40
401.79	1697.77
402.00	1920.99
402.21	2050.02
402.41	1925.09
402.62	1925.09
402.83	2013.15
403.04	2007.01
403.24	2064.35
403.45	1806.31
403.66	1820.64
403.87	1855.46
404.07	1918.95
404.28	1931.23
404.49	1867.75
404.70	1761.25
404.90	1714.15
405.11	1796.07
405.32	1767.40
405.52	1650.66
405.73	1683.43
405.94	1728.49
406.15	1738.73
406.35	1726.44
406.56	1673.19
406.77	1789.92
406.98	1689.57
407.18	1624.04
407.39	1853.41
407.60	1656.81
407.80	1656.81
408.01	1687.53
408.22	1742.82
408.43	1632.23
408.63	1681.38
408.84	1759.21
409.05	1687.53
409.25	1638.38
409.46	1683.43
409.67	1685.48
409.88	1708.01
410.08	1683.43
410.29	1644.52
410.50	1689.57
410.70	1775.59
410.91	1677.29
411.12	1714.15
411.32	1654.76
411.53	1697.77
411.74	1918.95
411.95	1800.16
412.15	1710.05
412.36	1759.21
412.57	1708.01
412.77	1748.97
412.98	1767.40
413.19	1746.92
413.39	1742.82
413.60	1687.53
413.81	1791.97
414.01	1619.94
414.22	1677.29
414.43	1681.38
414.63	1767.40
414.84	1787.88
415.05	1667.05
415.25	1669.09
415.46	1806.31
415.67	1660.90
415.87	1691.62
416.08	1687.53
416.29	1624.04
416.49	1753.06
416.70	1734.63
416.91	1724.39
417.11	1656.81
417.32	1720.29
417.53	1673.19
417.73	1732.58
417.94	1697.77
418.15	1740.77
418.35	1656.81
418.56	1773.54
418.77	1861.60
418.97	1665.00
419.18	1742.82
419.38	1603.56
419.59	1677.29
419.80	1804.26
420.00	1658.85
420.21	1650.66
420.42	1755.11
420.62	1783.78
420.83	1624.04
421.04	1710.05
421.24	1677.29
421.45	1742.82
421.65	1712.10
421.86	1644.52
422.07	1744.87
422.27	1689.57
422.48	1730.53
422.69	1683.43
422.89	1662.95
423.10	1667.05
423.30	1624.04
423.51	1685.48
423.72	1726.44
423.92	1765.35
424.13	1632.23
424.33	1689.57
424.54	1753.06
424.75	1691.62
424.95	1779.68
425.16	1812.45
425.36	1720.29
425.57	1759.21
425.78	1689.57
425.98	1865.70
426.19	1669.09
426.39	1673.19
426.60	1683.43
426.81	1757.16
427.01	1714.15
427.22	1701.86
427.42	1621.99
427.63	1595.37
427.83	1681.38
428.04	1796.07
428.25	1832.93
428.45	1796.07
428.66	1712.10
428.86	1667.05
429.07	1656.81
429.28	1740.77
429.48	1652.71
429.69	1648.61
429.89	1720.29
430.10	1669.09
430.30	1734.63
430.51	1783.78
430.71	1716.20
430.92	1691.62
431.13	1697.77
431.33	1681.38
431.54	1779.68
431.74	1853.41
431.95	1857.51
432.15	1658.85
432.36	1650.66
432.56	1763.30
432.77	1814.50
432.98	1839.08
433.18	1722.34
433.39	1636.33
433.59	1611.75
433.80	1816.55
434.00	1808.36
434.21	1724.39
434.41	1710.05
434.62	1818.60
434.82	1689.57
435.03	1640.42
435.23	1759.21
435.44	1556.46
435.64	1710.05
435.85	1724.39
436.06	1714.15
436.26	1708.01
436.47	1665.00
436.67	1718.25
436.88	1656.81
437.08	1710.05
437.29	1820.64
437.49	1746.92
437.70	1775.59
437.90	1753.06
438.11	1826.79
438.31	1841.12
438.52	1851.36
438.72	1845.22
438.93	1888.23
439.13	1787.88
439.34	1802.21
439.54	1753.06
439.75	1734.63
439.95	1781.73
440.16	1742.82
440.36	1816.55
440.57	1755.11
440.77	1628.14
440.98	1703.91
441.18	1779.68
441.39	1665.00
441.59	1658.85
441.80	1767.40
442.00	1800.16
442.21	1785.83
442.41	1673.19
442.62	1841.12
442.82	1683.43
443.02	1724.39
443.23	1755.11
443.43	1697.77
443.64	1869.80
443.84	1751.01
444.05	1814.50
444.25	1746.92
444.46	1748.97
444.66	1669.09
444.87	1798.12
445.07	1562.60
445.28	1802.21
445.48	1779.68
445.69	1812.45
445.89	1884.13
446.09	1740.77
446.30	1986.53
446.50	2611.16
446.71	3788.74
446.91	4288.45
447.12	4863.93
447.32	4827.06
447.53	4294.59
447.73	3938.24
447.93	3516.36
448.14	3395.53
448.34	3266.51
448.55	2967.51
448.75	2815.96
448.96	2738.13
449.16	2443.23
449.36	2295.77
449.57	2074.59
449.77	1867.75
449.98	1837.03
450.18	1759.21
450.39	1771.49
450.59	1779.68
450.79	1751.01
451.00	1714.15
451.20	1810.40
451.41	1740.77
451.61	1687.53
451.81	1724.39
452.02	1648.61
452.22	1660.90
452.43	1763.30
452.63	1667.05
