SpectraSuite Data File
++++++++++++++++++++++++++++++++++++
Date: Mon Jun 06 12:38:37 CEST 2016
User: root
Dark Spectrum Present: No
Reference Spectrum Present: No
Number of Sampled Component Spectra: 1
Spectrometers: USB4C02835
Integration Time (usec): 100000 (USB4C02835)
Spectra Averaged: 1 (USB4C02835)
Boxcar Smoothing: 0 (USB4C02835)
Correct for Electrical Dark: No (USB4C02835)
Strobe/Lamp Enabled: No (USB4C02835)
Correct for Detector Non-linearity: No (USB4C02835)
Correct for Stray Light: No (USB4C02835)
Number of Pixels in Processed Spectrum: 3648
>>>>>Begin Processed Spectral Data<<<<<
177.47	1492.97
177.69	1492.97
177.91	1492.97
178.13	1452.01
178.36	1439.72
178.58	1679.33
178.80	1654.76
179.02	1683.43
179.24	1550.31
179.46	1710.05
179.68	1767.40
179.90	1724.39
180.13	1742.82
180.35	1640.42
180.57	1638.38
180.79	1777.64
181.01	1710.05
181.23	1814.50
181.45	1804.26
181.67	1730.53
181.90	1755.11
182.12	1658.85
182.34	1691.62
182.56	1673.19
182.78	1755.11
183.00	1726.44
183.22	1763.30
183.44	1572.84
183.66	1804.26
183.89	1757.16
184.11	1712.10
184.33	1802.21
184.55	1814.50
184.77	1742.82
184.99	1779.68
185.21	1689.57
185.43	1832.93
185.65	1681.38
185.87	1740.77
186.10	1892.32
186.32	1847.27
186.54	1689.57
186.76	1755.11
186.98	1746.92
187.20	1695.72
187.42	1689.57
187.64	1665.00
187.86	1728.49
188.08	1765.35
188.30	1687.53
188.52	1701.86
188.75	1781.73
188.97	1767.40
189.19	1646.57
189.41	1675.24
189.63	1673.19
189.85	1726.44
190.07	1646.57
190.29	1562.60
190.51	1669.09
190.73	1605.61
190.95	1728.49
191.17	1697.77
191.39	1605.61
191.61	1703.91
191.84	1708.01
192.06	1667.05
192.28	1540.07
192.50	1820.64
192.72	1685.48
192.94	1726.44
193.16	1697.77
193.38	1710.05
193.60	1619.94
193.82	1740.77
194.04	1783.78
194.26	1710.05
194.48	1650.66
194.70	1681.38
194.92	1673.19
195.14	1755.11
195.36	1560.55
195.58	1681.38
195.80	1640.42
196.02	1605.61
196.24	1642.47
196.46	1710.05
196.69	1650.66
196.91	1853.41
197.13	1658.85
197.35	1697.77
197.57	1726.44
197.79	1755.11
198.01	1701.86
198.23	1665.00
198.45	1722.34
198.67	1632.23
198.89	1705.96
199.11	1744.87
199.33	1662.95
199.55	1562.60
199.77	1765.35
199.99	1804.26
200.21	1675.24
200.43	1701.86
200.65	1624.04
200.87	1605.61
201.09	1708.01
201.31	1718.25
201.53	1742.82
201.75	1716.20
201.97	1734.63
202.19	1701.86
202.41	1697.77
202.63	1796.07
202.85	1687.53
203.07	1710.05
203.29	1597.42
203.51	1624.04
203.73	1665.00
203.95	1806.31
204.17	1701.86
204.39	1771.49
204.61	1769.44
204.83	1675.24
205.05	1777.64
205.27	1826.79
205.49	1810.40
205.71	1679.33
205.93	1591.27
206.15	1708.01
206.37	1687.53
206.59	1669.09
206.81	1632.23
207.03	1591.27
207.25	1710.05
207.47	1798.12
207.69	1656.81
207.91	1861.60
208.13	1755.11
208.34	1677.29
208.56	1656.81
208.78	1718.25
209.00	1597.42
209.22	1687.53
209.44	1675.24
209.66	1599.46
209.88	1687.53
210.10	1755.11
210.32	1708.01
210.54	1761.25
210.76	1740.77
210.98	1705.96
211.20	1511.40
211.42	1714.15
211.64	1763.30
211.86	1695.72
212.08	1667.05
212.30	1630.18
212.52	1708.01
212.74	1736.68
212.96	1640.42
213.17	1763.30
213.39	1699.81
213.61	1779.68
213.83	1779.68
214.05	1705.96
214.27	1767.40
214.49	1681.38
214.71	1683.43
214.93	1722.34
215.15	1744.87
215.37	1701.86
215.59	1581.03
215.81	1724.39
216.03	1773.54
216.24	1738.73
216.46	1679.33
216.68	1689.57
216.90	1710.05
217.12	1761.25
217.34	1701.86
217.56	1812.45
217.78	1763.30
218.00	1667.05
218.22	1677.29
218.44	1724.39
218.66	1724.39
218.87	1873.89
219.09	1697.77
219.31	1812.45
219.53	1730.53
219.75	1730.53
219.97	1718.25
220.19	1689.57
220.41	1742.82
220.63	1751.01
220.85	1769.44
221.06	1611.75
221.28	1834.98
221.50	1736.68
221.72	1708.01
221.94	1665.00
222.16	1701.86
222.38	1757.16
222.60	1804.26
222.82	1566.70
223.03	1693.67
223.25	1679.33
223.47	1800.16
223.69	1880.04
223.91	1753.06
224.13	1714.15
224.35	1630.18
224.57	1751.01
224.78	1798.12
225.00	1675.24
225.22	1710.05
225.44	1662.95
225.66	1742.82
225.88	1701.86
226.10	1697.77
226.32	1669.09
226.53	1804.26
226.75	1615.85
226.97	1562.60
227.19	1636.33
227.41	1675.24
227.63	1765.35
227.85	1642.47
228.06	1617.90
228.28	1667.05
228.50	1757.16
228.72	1591.27
228.94	1640.42
229.16	1640.42
229.37	1665.00
229.59	1673.19
229.81	1832.93
230.03	1652.71
230.25	1748.97
230.47	1650.66
230.69	1630.18
230.90	1798.12
231.12	1617.90
231.34	1691.62
231.56	1824.74
231.78	1701.86
232.00	1726.44
232.21	1728.49
232.43	1613.80
232.65	1615.85
232.87	1683.43
233.09	1671.14
233.30	1675.24
233.52	1736.68
233.74	1648.61
233.96	1726.44
234.18	1644.52
234.40	1720.29
234.61	1886.18
234.83	1634.28
235.05	1591.27
235.27	1804.26
235.49	1773.54
235.70	1701.86
235.92	1757.16
236.14	1746.92
236.36	1806.31
236.58	1583.08
236.79	1685.48
237.01	1740.77
237.23	1658.85
237.45	1779.68
237.67	1685.48
237.88	1708.01
238.10	1783.78
238.32	1736.68
238.54	1662.95
238.76	1671.14
238.97	1677.29
239.19	1626.09
239.41	1732.58
239.63	1763.30
239.85	1714.15
240.06	1724.39
240.28	1718.25
240.50	1763.30
240.72	1634.28
240.93	1658.85
241.15	1767.40
241.37	1710.05
241.59	1767.40
241.81	1697.77
242.02	1726.44
242.24	1689.57
242.46	1654.76
242.68	1587.18
242.89	1701.86
243.11	1722.34
243.33	1732.58
243.55	1775.59
243.76	1665.00
243.98	1675.24
244.20	1632.23
244.42	1708.01
244.64	1701.86
244.85	1679.33
245.07	1650.66
245.29	1722.34
245.51	1734.63
245.72	1615.85
245.94	1798.12
246.16	1738.73
246.38	1685.48
246.59	1669.09
246.81	1726.44
247.03	1691.62
247.24	1605.61
247.46	1665.00
247.68	1675.24
247.90	1667.05
248.11	1628.14
248.33	1693.67
248.55	1630.18
248.77	1701.86
248.98	1755.11
249.20	1751.01
249.42	1689.57
249.64	1734.63
249.85	1697.77
250.07	1673.19
250.29	1716.20
250.50	1767.40
250.72	1591.27
250.94	1693.67
251.16	1888.23
251.37	1746.92
251.59	1732.58
251.81	1794.02
252.02	1738.73
252.24	1665.00
252.46	1773.54
252.68	1621.99
252.89	1628.14
253.11	1613.80
253.33	1818.60
253.54	1771.49
253.76	1640.42
253.98	1714.15
254.20	1705.96
254.41	1636.33
254.63	1624.04
254.85	1697.77
255.06	1714.15
255.28	1714.15
255.50	1677.29
255.71	1632.23
255.93	1621.99
256.15	1738.73
256.36	1730.53
256.58	1708.01
256.80	1714.15
257.02	1665.00
257.23	1777.64
257.45	1640.42
257.67	1669.09
257.88	1710.05
258.10	1757.16
258.32	1753.06
258.53	1710.05
258.75	1744.87
258.97	1689.57
259.18	1654.76
259.40	1718.25
259.62	1802.21
259.83	1757.16
260.05	1812.45
260.27	2002.91
260.48	1734.63
260.70	1632.23
260.92	1667.05
261.13	1800.16
261.35	1671.14
261.57	1751.01
261.78	1587.18
262.00	1615.85
262.22	1669.09
262.43	1609.70
262.65	1701.86
262.86	1697.77
263.08	1837.03
263.30	1669.09
263.51	1574.89
263.73	1634.28
263.95	1701.86
264.16	1681.38
264.38	1665.00
264.60	1701.86
264.81	1730.53
265.03	1716.20
265.25	1675.24
265.46	1673.19
265.68	1800.16
265.89	1732.58
266.11	1607.66
266.33	1757.16
266.54	1826.79
266.76	1742.82
266.98	1722.34
267.19	1777.64
267.41	1720.29
267.62	1734.63
267.84	1626.09
268.06	1742.82
268.27	1701.86
268.49	1736.68
268.70	1703.91
268.92	1738.73
269.14	1671.14
269.35	1671.14
269.57	1693.67
269.79	1716.20
270.00	1689.57
270.22	1806.31
270.43	1624.04
270.65	1540.07
270.87	1630.18
271.08	1669.09
271.30	1736.68
271.51	1708.01
271.73	1775.59
271.95	1802.21
272.16	1691.62
272.38	1720.29
272.59	1689.57
272.81	1681.38
273.02	1724.39
273.24	1689.57
273.46	1761.25
273.67	1644.52
273.89	1611.75
274.10	1673.19
274.32	1691.62
274.54	1783.78
274.75	1687.53
274.97	1642.47
275.18	1798.12
275.40	1671.14
275.61	1654.76
275.83	1705.96
276.05	1615.85
276.26	1613.80
276.48	1775.59
276.69	1652.71
276.91	1609.70
277.12	1734.63
277.34	1761.25
277.55	1736.68
277.77	1701.86
277.99	1734.63
278.20	1566.70
278.42	1572.84
278.63	1628.14
278.85	1656.81
279.06	1599.46
279.28	1595.37
279.49	1781.73
279.71	1683.43
279.93	1798.12
280.14	1703.91
280.36	1738.73
280.57	1800.16
280.79	1787.88
281.00	1658.85
281.22	1654.76
281.43	1742.82
281.65	1615.85
281.86	1652.71
282.08	1746.92
282.29	1736.68
282.51	1609.70
282.73	1601.51
282.94	1654.76
283.16	1699.81
283.37	1869.80
283.59	1726.44
283.80	1736.68
284.02	1667.05
284.23	1695.72
284.45	1734.63
284.66	1660.90
284.88	1677.29
285.09	1746.92
285.31	1728.49
285.52	1757.16
285.74	1624.04
285.95	1712.10
286.17	1710.05
286.38	1693.67
286.60	1605.61
286.81	1683.43
287.03	1687.53
287.24	1744.87
287.46	1712.10
287.67	1656.81
287.89	1771.49
288.10	1669.09
288.32	1662.95
288.53	1714.15
288.75	1662.95
288.96	1759.21
289.18	1673.19
289.39	1656.81
289.61	1789.92
289.82	1767.40
290.04	1746.92
290.25	1605.61
290.47	1714.15
290.68	1732.58
290.90	1730.53
291.11	1652.71
291.33	1738.73
291.54	1638.38
291.76	1648.61
291.97	1726.44
292.18	1761.25
292.40	1708.01
292.61	1714.15
292.83	1783.78
293.04	1724.39
293.26	1761.25
293.47	1726.44
293.69	1613.80
293.90	1679.33
294.12	1712.10
294.33	1691.62
294.55	1658.85
294.76	1724.39
294.97	1755.11
295.19	1857.51
295.40	1656.81
295.62	1691.62
295.83	1785.83
296.05	1656.81
296.26	1824.74
296.48	1695.72
296.69	1728.49
296.90	1732.58
297.12	1761.25
297.33	1779.68
297.55	1726.44
297.76	1681.38
297.98	1728.49
298.19	1738.73
298.41	1746.92
298.62	1617.90
298.83	1718.25
299.05	1718.25
299.26	1695.72
299.48	1695.72
299.69	1697.77
299.90	1687.53
300.12	1636.33
300.33	1703.91
300.55	1734.63
300.76	1689.57
300.98	1677.29
301.19	1722.34
301.40	1798.12
301.62	1662.95
301.83	1689.57
302.05	1744.87
302.26	1662.95
302.47	1701.86
302.69	1652.71
302.90	1656.81
303.12	1673.19
303.33	1675.24
303.54	1812.45
303.76	1689.57
303.97	1732.58
304.19	1804.26
304.40	1613.80
304.61	1667.05
304.83	1738.73
305.04	1814.50
305.26	1705.96
305.47	1751.01
305.68	1710.05
305.90	1617.90
306.11	1789.92
306.33	1677.29
306.54	1724.39
306.75	1652.71
306.97	1601.51
307.18	1681.38
307.39	1644.52
307.61	1746.92
307.82	1708.01
308.04	1742.82
308.25	1628.14
308.46	1748.97
308.68	1755.11
308.89	1726.44
309.10	1705.96
309.32	1759.21
309.53	1703.91
309.74	1660.90
309.96	1607.66
310.17	1658.85
310.39	1619.94
310.60	1718.25
310.81	1671.14
311.03	1632.23
311.24	1632.23
311.45	1705.96
311.67	1834.98
311.88	1660.90
312.09	1746.92
312.31	1662.95
312.52	1630.18
312.73	1708.01
312.95	1691.62
313.16	1548.26
313.37	1794.02
313.59	1742.82
313.80	1740.77
314.01	1796.07
314.23	1650.66
314.44	1628.14
314.65	1589.22
314.87	1681.38
315.08	1638.38
315.29	1757.16
315.51	1718.25
315.72	1583.08
315.93	1804.26
316.15	1742.82
316.36	1658.85
316.57	1761.25
316.79	1755.11
317.00	1671.14
317.21	1773.54
317.43	1685.48
317.64	1701.86
317.85	1679.33
318.07	1609.70
318.28	1734.63
318.49	1828.84
318.70	1964.00
318.92	1845.22
319.13	1822.69
319.34	1847.27
319.56	1736.68
319.77	1839.08
319.98	1830.88
320.20	1742.82
320.41	1767.40
320.62	1761.25
320.83	1640.42
321.05	1775.59
321.26	1624.04
321.47	1714.15
321.69	1796.07
321.90	1642.47
322.11	1708.01
322.32	1732.58
322.54	1726.44
322.75	1693.67
322.96	1746.92
323.18	1665.00
323.39	1570.79
323.60	1675.24
323.81	1689.57
324.03	1656.81
324.24	1689.57
324.45	1757.16
324.66	1669.09
324.88	1724.39
325.09	1757.16
325.30	1738.73
325.52	1755.11
325.73	1730.53
325.94	1714.15
326.15	1681.38
326.37	1650.66
326.58	1701.86
326.79	1757.16
327.00	1595.37
327.22	1691.62
327.43	1689.57
327.64	1630.18
327.85	1697.77
328.07	1689.57
328.28	1755.11
328.49	1656.81
328.70	1724.39
328.92	1681.38
329.13	1681.38
329.34	1771.49
329.55	1837.03
329.76	1765.35
329.98	1730.53
330.19	1802.21
330.40	1607.66
330.61	1601.51
330.83	1789.92
331.04	1619.94
331.25	1693.67
331.46	1675.24
331.68	1601.51
331.89	1777.64
332.10	1667.05
332.31	1593.32
332.52	1685.48
332.74	1753.06
332.95	1636.33
333.16	1695.72
333.37	1718.25
333.58	1818.60
333.80	1697.77
334.01	1574.89
334.22	1675.24
334.43	1619.94
334.64	1705.96
334.86	1597.42
335.07	1642.47
335.28	1718.25
335.49	1621.99
335.70	1673.19
335.92	1779.68
336.13	1824.74
336.34	1789.92
336.55	1775.59
336.76	1699.81
336.98	1527.78
337.19	1699.81
337.40	1849.32
337.61	1880.04
337.82	1656.81
338.04	1771.49
338.25	1646.57
338.46	1718.25
338.67	1779.68
338.88	1722.34
339.09	1640.42
339.31	1617.90
339.52	1730.53
339.73	1556.46
339.94	1685.48
340.15	1718.25
340.36	1714.15
340.58	1705.96
340.79	1648.61
341.00	1697.77
341.21	1648.61
341.42	1841.12
341.63	1685.48
341.85	1712.10
342.06	1728.49
342.27	1675.24
342.48	1753.06
342.69	1611.75
342.90	1714.15
343.12	1716.20
343.33	1628.14
343.54	1652.71
343.75	1757.16
343.96	1632.23
344.17	1609.70
344.38	1667.05
344.60	1679.33
344.81	1720.29
345.02	1642.47
345.23	1767.40
345.44	1734.63
345.65	1767.40
345.86	1753.06
346.07	1697.77
346.29	1699.81
346.50	1738.73
346.71	1705.96
346.92	1748.97
347.13	1830.88
347.34	1681.38
347.55	1681.38
347.76	1691.62
347.98	1576.94
348.19	1644.52
348.40	1824.74
348.61	1673.19
348.82	1730.53
349.03	1671.14
349.24	1689.57
349.45	1867.75
349.66	1597.42
349.88	1755.11
350.09	1665.00
350.30	1751.01
350.51	1816.55
350.72	1714.15
350.93	1732.58
351.14	1769.44
351.35	1730.53
351.56	1736.68
351.77	1681.38
351.99	1683.43
352.20	1781.73
352.41	1775.59
352.62	1652.71
352.83	1683.43
353.04	1662.95
353.25	1744.87
353.46	1802.21
353.67	1746.92
353.88	1570.79
354.09	1720.29
354.30	1642.47
354.52	1665.00
354.73	1699.81
354.94	1646.57
355.15	1769.44
355.36	1773.54
355.57	1619.94
355.78	1736.68
355.99	1648.61
356.20	1669.09
356.41	1699.81
356.62	1759.21
356.83	1804.26
357.04	1810.40
357.25	1593.32
357.46	1632.23
357.68	1572.84
357.89	1730.53
358.10	1644.52
358.31	1722.34
358.52	1644.52
358.73	1611.75
358.94	1660.90
359.15	1619.94
359.36	1732.58
359.57	1685.48
359.78	1667.05
359.99	1738.73
360.20	1701.86
360.41	1710.05
360.62	1714.15
360.83	1730.53
361.04	1677.29
361.25	1724.39
361.46	1783.78
361.67	1695.72
361.88	1708.01
362.09	1726.44
362.30	1726.44
362.51	1607.66
362.72	1744.87
362.93	1724.39
363.14	1746.92
363.35	1759.21
363.56	1675.24
363.78	1722.34
363.99	1777.64
364.20	1658.85
364.41	1771.49
364.62	1832.93
364.83	1722.34
365.04	1703.91
365.25	1693.67
365.46	1843.17
365.67	1531.88
365.88	1640.42
366.09	1708.01
366.30	1703.91
366.51	1755.11
366.72	1636.33
366.93	1714.15
367.14	1701.86
367.35	1789.92
367.56	1726.44
367.77	1742.82
367.98	1681.38
368.18	1697.77
368.39	1746.92
368.60	1669.09
368.81	1681.38
369.02	1710.05
369.23	1775.59
369.44	1603.56
369.65	1646.57
369.86	1738.73
370.07	1806.31
370.28	1640.42
370.49	1746.92
370.70	1751.01
370.91	1695.72
371.12	1624.04
371.33	1736.68
371.54	1638.38
371.75	1802.21
371.96	1611.75
372.17	1681.38
372.38	1699.81
372.59	1757.16
372.80	1703.91
373.01	1718.25
373.22	1695.72
373.43	1767.40
373.64	1640.42
373.85	1757.16
374.06	1783.78
374.26	1681.38
374.47	1628.14
374.68	1783.78
374.89	1761.25
375.10	1660.90
375.31	1759.21
375.52	1685.48
375.73	1671.14
375.94	1619.94
376.15	1689.57
376.36	1673.19
376.57	1679.33
376.78	1677.29
376.99	1773.54
377.20	1800.16
377.40	1669.09
377.61	1748.97
377.82	1667.05
378.03	1806.31
378.24	1744.87
378.45	1679.33
378.66	1718.25
378.87	1603.56
379.08	1611.75
379.29	1685.48
379.50	1710.05
379.71	1701.86
379.91	1763.30
380.12	1722.34
380.33	1759.21
380.54	1685.48
380.75	1652.71
380.96	1667.05
381.17	1669.09
381.38	1693.67
381.59	1681.38
381.80	1714.15
382.00	1751.01
382.21	1789.92
382.42	1828.84
382.63	2009.06
382.84	1699.81
383.05	1771.49
383.26	1777.64
383.47	1734.63
383.68	1744.87
383.88	1689.57
384.09	1681.38
384.30	1877.99
384.51	1834.98
384.72	1718.25
384.93	1589.22
385.14	1681.38
385.35	1761.25
385.55	1658.85
385.76	1816.55
385.97	1732.58
386.18	1644.52
386.39	1650.66
386.60	1703.91
386.81	1679.33
387.02	1685.48
387.22	1665.00
387.43	1744.87
387.64	1755.11
387.85	1896.42
388.06	2170.85
388.27	4181.95
388.48	6836.12
388.68	8251.27
388.89	9729.90
389.10	9873.26
389.31	8535.93
389.52	7716.75
389.73	6975.38
389.93	6274.98
390.14	5922.73
390.35	5261.23
390.56	4659.13
390.77	3758.02
390.98	3022.80
391.18	2443.23
391.39	2082.78
391.60	1822.69
391.81	1748.97
392.02	1732.58
392.23	1839.08
392.43	1775.59
392.64	1730.53
392.85	1677.29
393.06	1861.60
393.27	1685.48
393.47	1646.57
393.68	1798.12
393.89	1652.71
394.10	1798.12
394.31	1611.75
394.52	1687.53
394.72	1701.86
394.93	1869.80
395.14	1624.04
395.35	1753.06
395.56	1634.28
395.76	1791.97
395.97	1828.84
396.18	1757.16
396.39	1822.69
396.60	1918.95
396.80	1857.51
397.01	1814.50
397.22	1828.84
397.43	1800.16
397.64	1728.49
397.84	1853.41
398.05	1869.80
398.26	1722.34
398.47	1767.40
398.67	1802.21
398.88	1730.53
399.09	1806.31
399.30	1683.43
399.51	1691.62
399.71	1628.14
399.92	1720.29
400.13	1673.19
400.34	1716.20
400.54	1705.96
400.75	1773.54
400.96	1775.59
401.17	1847.27
401.37	1712.10
401.58	1648.61
401.79	1697.77
402.00	1841.12
402.21	1992.67
402.41	1947.62
402.62	1914.85
402.83	2035.68
403.04	2013.15
403.24	2070.50
403.45	1816.55
403.66	1943.52
403.87	1855.46
404.07	1951.71
404.28	1904.61
404.49	1861.60
404.70	1734.63
404.90	1771.49
405.11	1771.49
405.32	1732.58
405.52	1736.68
405.73	1615.85
405.94	1642.47
406.15	1619.94
406.35	1736.68
406.56	1718.25
406.77	1765.35
406.98	1697.77
407.18	1654.76
407.39	1789.92
407.60	1699.81
407.80	1703.91
408.01	1730.53
408.22	1742.82
408.43	1695.72
408.63	1738.73
408.84	1710.05
409.05	1708.01
409.25	1578.98
409.46	1652.71
409.67	1628.14
409.88	1691.62
410.08	1669.09
410.29	1683.43
410.50	1689.57
410.70	1742.82
410.91	1603.56
411.12	1667.05
411.32	1630.18
411.53	1705.96
411.74	1759.21
411.95	1787.88
412.15	1683.43
412.36	1808.36
412.57	1773.54
412.77	1804.26
412.98	1755.11
413.19	1726.44
413.39	1722.34
413.60	1748.97
413.81	1853.41
414.01	1720.29
414.22	1716.20
414.43	1697.77
414.63	1730.53
414.84	1744.87
415.05	1665.00
415.25	1601.51
415.46	1753.06
415.67	1687.53
415.87	1656.81
416.08	1759.21
416.29	1650.66
416.49	1789.92
416.70	1685.48
416.91	1660.90
417.11	1744.87
417.32	1705.96
417.53	1796.07
417.73	1701.86
417.94	1701.86
418.15	1742.82
418.35	1652.71
418.56	1718.25
418.77	1816.55
418.97	1665.00
419.18	1671.14
419.38	1574.89
419.59	1665.00
419.80	1822.69
420.00	1687.53
420.21	1701.86
420.42	1796.07
420.62	1679.33
420.83	1595.37
421.04	1755.11
421.24	1605.61
421.45	1732.58
421.65	1748.97
421.86	1628.14
422.07	1759.21
422.27	1710.05
422.48	1669.09
422.69	1683.43
422.89	1742.82
423.10	1626.09
423.30	1675.24
423.51	1755.11
423.72	1714.15
423.92	1820.64
424.13	1656.81
424.33	1654.76
424.54	1691.62
424.75	1726.44
424.95	1740.77
425.16	1726.44
425.36	1742.82
425.57	1837.03
425.78	1787.88
425.98	1734.63
426.19	1705.96
426.39	1624.04
426.60	1734.63
426.81	1841.12
427.01	1681.38
427.22	1681.38
427.42	1595.37
427.63	1609.70
427.83	1789.92
428.04	1822.69
428.25	1726.44
428.45	1757.16
428.66	1783.78
428.86	1708.01
429.07	1677.29
429.28	1775.59
429.48	1624.04
429.69	1619.94
429.89	1832.93
430.10	1740.77
430.30	1781.73
430.51	1730.53
430.71	1601.51
430.92	1703.91
431.13	1640.42
431.33	1691.62
431.54	1800.16
431.74	1777.64
431.95	1843.17
432.15	1689.57
432.36	1703.91
432.56	1679.33
432.77	1804.26
432.98	1859.56
433.18	1693.67
433.39	1683.43
433.59	1734.63
433.80	1808.36
434.00	1769.44
434.21	1669.09
434.41	1632.23
434.62	1884.13
434.82	1644.52
435.03	1671.14
435.23	1681.38
435.44	1509.35
435.64	1783.78
435.85	1689.57
436.06	1787.88
436.26	1738.73
436.47	1720.29
436.67	1714.15
436.88	1695.72
437.08	1703.91
437.29	1871.84
437.49	1761.25
437.70	1810.40
437.90	1710.05
438.11	1886.18
438.31	1744.87
438.52	1861.60
438.72	1871.84
438.93	1892.32
439.13	1699.81
439.34	1798.12
439.54	1753.06
439.75	1794.02
439.95	1691.62
440.16	1744.87
440.36	1710.05
440.57	1679.33
440.77	1708.01
440.98	1767.40
441.18	1689.57
441.39	1644.52
441.59	1751.01
441.80	1808.36
442.00	1683.43
442.21	1744.87
442.41	1701.86
442.62	1832.93
442.82	1728.49
443.02	1777.64
443.23	1677.29
443.43	1675.24
443.64	1740.77
443.84	1677.29
444.05	1808.36
444.25	1767.40
444.46	1732.58
444.66	1693.67
444.87	1832.93
445.07	1667.05
445.28	1724.39
445.48	1863.65
445.69	1789.92
445.89	1875.94
446.09	1746.92
446.30	2004.96
446.50	2621.40
446.71	3751.88
446.91	4362.17
447.12	4757.43
447.32	4679.61
447.53	4370.37
447.73	3792.84
447.93	3547.08
448.14	3358.67
448.34	3196.88
448.55	2924.50
448.75	2729.94
448.96	2678.74
449.16	2336.73
449.36	2267.10
449.57	2052.06
449.77	1927.14
449.98	1738.73
450.18	1804.26
450.39	1839.08
450.59	1808.36
450.79	1660.90
451.00	1740.77
451.20	1804.26
451.41	1763.30
451.61	1753.06
451.81	1746.92
452.02	1638.38
452.22	1699.81
452.43	1757.16
452.63	1675.24
