SpectraSuite Data File
++++++++++++++++++++++++++++++++++++
Date: Mon Jun 06 16:52:37 CEST 2016
User: root
Dark Spectrum Present: No
Reference Spectrum Present: No
Number of Sampled Component Spectra: 1
Spectrometers: USB4C02835
Integration Time (usec): 100000 (USB4C02835)
Spectra Averaged: 1 (USB4C02835)
Boxcar Smoothing: 0 (USB4C02835)
Correct for Electrical Dark: No (USB4C02835)
Strobe/Lamp Enabled: No (USB4C02835)
Correct for Detector Non-linearity: No (USB4C02835)
Correct for Stray Light: No (USB4C02835)
Number of Pixels in Processed Spectrum: 3648
>>>>>Begin Processed Spectral Data<<<<<
177.47	1456.11
177.69	1456.11
177.91	1456.11
178.13	1445.87
178.36	1476.59
178.58	1675.24
178.80	1732.58
179.02	1665.00
179.24	1660.90
179.46	1703.91
179.68	1787.88
179.90	1689.57
180.13	1691.62
180.35	1720.29
180.57	1632.23
180.79	1714.15
181.01	1730.53
181.23	1787.88
181.45	1765.35
181.67	1740.77
181.90	1667.05
182.12	1628.14
182.34	1603.56
182.56	1777.64
182.78	1738.73
183.00	1710.05
183.22	1773.54
183.44	1646.57
183.66	1894.37
183.89	1771.49
184.11	1734.63
184.33	1740.77
184.55	1714.15
184.77	1708.01
184.99	1699.81
185.21	1677.29
185.43	1882.08
185.65	1638.38
185.87	1787.88
186.10	1746.92
186.32	1896.42
186.54	1767.40
186.76	1705.96
186.98	1683.43
187.20	1714.15
187.42	1605.61
187.64	1744.87
187.86	1726.44
188.08	1740.77
188.30	1673.19
188.52	1814.50
188.75	1744.87
188.97	1791.97
189.19	1621.99
189.41	1687.53
189.63	1703.91
189.85	1738.73
190.07	1626.09
190.29	1689.57
190.51	1712.10
190.73	1673.19
190.95	1783.78
191.17	1628.14
191.39	1646.57
191.61	1699.81
191.84	1755.11
192.06	1765.35
192.28	1581.03
192.50	1886.18
192.72	1746.92
192.94	1699.81
193.16	1753.06
193.38	1718.25
193.60	1636.33
193.82	1705.96
194.04	1800.16
194.26	1714.15
194.48	1775.59
194.70	1669.09
194.92	1640.42
195.14	1671.14
195.36	1718.25
195.58	1734.63
195.80	1714.15
196.02	1609.70
196.24	1714.15
196.46	1695.72
196.69	1708.01
196.91	1904.61
197.13	1648.61
197.35	1681.38
197.57	1871.84
197.79	1691.62
198.01	1722.34
198.23	1853.41
198.45	1705.96
198.67	1630.18
198.89	1773.54
199.11	1789.92
199.33	1710.05
199.55	1636.33
199.77	1568.74
199.99	1806.31
200.21	1710.05
200.43	1767.40
200.65	1646.57
200.87	1626.09
201.09	1667.05
201.31	1753.06
201.53	1681.38
201.75	1728.49
201.97	1767.40
202.19	1699.81
202.41	1783.78
202.63	1804.26
202.85	1724.39
203.07	1728.49
203.29	1685.48
203.51	1638.38
203.73	1665.00
203.95	1837.03
204.17	1734.63
204.39	1816.55
204.61	1695.72
204.83	1705.96
205.05	1728.49
205.27	1697.77
205.49	1841.12
205.71	1724.39
205.93	1683.43
206.15	1654.76
206.37	1785.83
206.59	1730.53
206.81	1642.47
207.03	1624.04
207.25	1658.85
207.47	1796.07
207.69	1714.15
207.91	1769.44
208.13	1789.92
208.34	1701.86
208.56	1638.38
208.78	1708.01
209.00	1693.67
209.22	1703.91
209.44	1751.01
209.66	1685.48
209.88	1712.10
210.10	1673.19
210.32	1718.25
210.54	1845.22
210.76	1726.44
210.98	1718.25
211.20	1550.31
211.42	1689.57
211.64	1722.34
211.86	1763.30
212.08	1697.77
212.30	1728.49
212.52	1742.82
212.74	1701.86
212.96	1730.53
213.17	1722.34
213.39	1746.92
213.61	1738.73
213.83	1724.39
214.05	1701.86
214.27	1787.88
214.49	1728.49
214.71	1699.81
214.93	1765.35
215.15	1687.53
215.37	1783.78
215.59	1714.15
215.81	1775.59
216.03	1765.35
216.24	1648.61
216.46	1701.86
216.68	1734.63
216.90	1726.44
217.12	1705.96
217.34	1773.54
217.56	1675.24
217.78	1771.49
218.00	1753.06
218.22	1718.25
218.44	1662.95
218.66	1693.67
218.87	1789.92
219.09	1722.34
219.31	1841.12
219.53	1757.16
219.75	1716.20
219.97	1683.43
220.19	1705.96
220.41	1724.39
220.63	1808.36
220.85	1722.34
221.06	1697.77
221.28	1828.84
221.50	1789.92
221.72	1644.52
221.94	1736.68
222.16	1693.67
222.38	1818.60
222.60	1812.45
222.82	1718.25
223.03	1746.92
223.25	1605.61
223.47	1753.06
223.69	1787.88
223.91	1767.40
224.13	1669.09
224.35	1699.81
224.57	1791.97
224.78	1732.58
225.00	1726.44
225.22	1710.05
225.44	1730.53
225.66	1697.77
225.88	1746.92
226.10	1632.23
226.32	1765.35
226.53	1771.49
226.75	1714.15
226.97	1779.68
227.19	1718.25
227.41	1695.72
227.63	1671.14
227.85	1546.22
228.06	1703.91
228.28	1712.10
228.50	1777.64
228.72	1681.38
228.94	1640.42
229.16	1542.12
229.37	1720.29
229.59	1730.53
229.81	1794.02
230.03	1685.48
230.25	1652.71
230.47	1611.75
230.69	1652.71
230.90	1705.96
231.12	1679.33
231.34	1691.62
231.56	1775.59
231.78	1617.90
232.00	1722.34
232.21	1708.01
232.43	1730.53
232.65	1601.51
232.87	1683.43
233.09	1660.90
233.30	1689.57
233.52	1748.97
233.74	1722.34
233.96	1722.34
234.18	1714.15
234.40	1710.05
234.61	1890.28
234.83	1566.70
235.05	1679.33
235.27	1802.21
235.49	1796.07
235.70	1691.62
235.92	1843.17
236.14	1740.77
236.36	1828.84
236.58	1693.67
236.79	1802.21
237.01	1720.29
237.23	1705.96
237.45	1828.84
237.67	1607.66
237.88	1740.77
238.10	1806.31
238.32	1638.38
238.54	1632.23
238.76	1703.91
238.97	1626.09
239.19	1693.67
239.41	1722.34
239.63	1816.55
239.85	1705.96
240.06	1691.62
240.28	1779.68
240.50	1701.86
240.72	1705.96
240.93	1734.63
241.15	1783.78
241.37	1648.61
241.59	1814.50
241.81	1767.40
242.02	1654.76
242.24	1734.63
242.46	1755.11
242.68	1632.23
242.89	1683.43
243.11	1763.30
243.33	1742.82
243.55	1791.97
243.76	1761.25
243.98	1677.29
244.20	1783.78
244.42	1740.77
244.64	1761.25
244.85	1660.90
245.07	1665.00
245.29	1734.63
245.51	1675.24
245.72	1810.40
245.94	1777.64
246.16	1845.22
246.38	1689.57
246.59	1708.01
246.81	1634.28
247.03	1710.05
247.24	1703.91
247.46	1683.43
247.68	1695.72
247.90	1648.61
248.11	1669.09
248.33	1744.87
248.55	1691.62
248.77	1665.00
248.98	1757.16
249.20	1779.68
249.42	1660.90
249.64	1732.58
249.85	1708.01
250.07	1609.70
250.29	1714.15
250.50	1699.81
250.72	1591.27
250.94	1744.87
251.16	1826.79
251.37	1843.17
251.59	1787.88
251.81	1763.30
252.02	1742.82
252.24	1660.90
252.46	1755.11
252.68	1662.95
252.89	1744.87
253.11	1609.70
253.33	1796.07
253.54	1701.86
253.76	1650.66
253.98	1656.81
254.20	1675.24
254.41	1656.81
254.63	1722.34
254.85	1630.18
255.06	1673.19
255.28	1683.43
255.50	1740.77
255.71	1724.39
255.93	1673.19
256.15	1615.85
256.36	1843.17
256.58	1673.19
256.80	1755.11
257.02	1701.86
257.23	1683.43
257.45	1736.68
257.67	1746.92
257.88	1599.46
258.10	1787.88
258.32	1701.86
258.53	1691.62
258.75	1720.29
258.97	1638.38
259.18	1744.87
259.40	1718.25
259.62	1855.46
259.83	1802.21
260.05	1798.12
260.27	2027.49
260.48	1828.84
260.70	1591.27
260.92	1701.86
261.13	1718.25
261.35	1736.68
261.57	1744.87
261.78	1581.03
262.00	1667.05
262.22	1644.52
262.43	1619.94
262.65	1714.15
262.86	1695.72
263.08	1826.79
263.30	1654.76
263.51	1654.76
263.73	1685.48
263.95	1832.93
264.16	1617.90
264.38	1708.01
264.60	1703.91
264.81	1646.57
265.03	1746.92
265.25	1701.86
265.46	1665.00
265.68	1740.77
265.89	1771.49
266.11	1617.90
266.33	1753.06
266.54	1847.27
266.76	1796.07
266.98	1775.59
267.19	1787.88
267.41	1791.97
267.62	1693.67
267.84	1683.43
268.06	1710.05
268.27	1658.85
268.49	1746.92
268.70	1740.77
268.92	1673.19
269.14	1601.51
269.35	1650.66
269.57	1726.44
269.79	1779.68
270.00	1740.77
270.22	1753.06
270.43	1673.19
270.65	1607.66
270.87	1662.95
271.08	1794.02
271.30	1681.38
271.51	1695.72
271.73	1730.53
271.95	1683.43
272.16	1767.40
272.38	1720.29
272.59	1730.53
272.81	1699.81
273.02	1734.63
273.24	1767.40
273.46	1763.30
273.67	1609.70
273.89	1644.52
274.10	1656.81
274.32	1789.92
274.54	1703.91
274.75	1802.21
274.97	1716.20
275.18	1777.64
275.40	1779.68
275.61	1656.81
275.83	1738.73
276.05	1642.47
276.26	1679.33
276.48	1744.87
276.69	1691.62
276.91	1691.62
277.12	1761.25
277.34	1771.49
277.55	1773.54
277.77	1759.21
277.99	1701.86
278.20	1597.42
278.42	1646.57
278.63	1617.90
278.85	1679.33
279.06	1675.24
279.28	1755.11
279.49	1773.54
279.71	1691.62
279.93	1685.48
280.14	1699.81
280.36	1611.75
280.57	1746.92
280.79	1755.11
281.00	1701.86
281.22	1697.77
281.43	1763.30
281.65	1538.02
281.86	1601.51
282.08	1712.10
282.29	1820.64
282.51	1710.05
282.73	1726.44
282.94	1656.81
283.16	1695.72
283.37	1683.43
283.59	1730.53
283.80	1714.15
284.02	1746.92
284.23	1669.09
284.45	1755.11
284.66	1634.28
284.88	1660.90
285.09	1687.53
285.31	1738.73
285.52	1710.05
285.74	1605.61
285.95	1714.15
286.17	1798.12
286.38	1712.10
286.60	1669.09
286.81	1675.24
287.03	1675.24
287.24	1701.86
287.46	1724.39
287.67	1701.86
287.89	1863.65
288.10	1720.29
288.32	1755.11
288.53	1746.92
288.75	1738.73
288.96	1683.43
289.18	1683.43
289.39	1650.66
289.61	1726.44
289.82	1796.07
290.04	1765.35
290.25	1660.90
290.47	1734.63
290.68	1665.00
290.90	1802.21
291.11	1540.07
291.33	1734.63
291.54	1632.23
291.76	1650.66
291.97	1673.19
292.18	1806.31
292.40	1722.34
292.61	1667.05
292.83	1884.13
293.04	1712.10
293.26	1718.25
293.47	1712.10
293.69	1695.72
293.90	1693.67
294.12	1742.82
294.33	1742.82
294.55	1705.96
294.76	1714.15
294.97	1789.92
295.19	1798.12
295.40	1740.77
295.62	1691.62
295.83	1851.36
296.05	1656.81
296.26	1791.97
296.48	1658.85
296.69	1699.81
296.90	1718.25
297.12	1703.91
297.33	1742.82
297.55	1634.28
297.76	1730.53
297.98	1740.77
298.19	1751.01
298.41	1720.29
298.62	1658.85
298.83	1794.02
299.05	1718.25
299.26	1638.38
299.48	1693.67
299.69	1714.15
299.90	1714.15
300.12	1669.09
300.33	1779.68
300.55	1687.53
300.76	1716.20
300.98	1746.92
301.19	1734.63
301.40	1802.21
301.62	1675.24
301.83	1728.49
302.05	1734.63
302.26	1767.40
302.47	1742.82
302.69	1691.62
302.90	1751.01
303.12	1652.71
303.33	1779.68
303.54	1882.08
303.76	1693.67
303.97	1662.95
304.19	1822.69
304.40	1591.27
304.61	1701.86
304.83	1837.03
305.04	1746.92
305.26	1832.93
305.47	1652.71
305.68	1708.01
305.90	1628.14
306.11	1748.97
306.33	1703.91
306.54	1693.67
306.75	1671.14
306.97	1599.46
307.18	1708.01
307.39	1675.24
307.61	1728.49
307.82	1665.00
308.04	1716.20
308.25	1705.96
308.46	1685.48
308.68	1757.16
308.89	1728.49
309.10	1710.05
309.32	1781.73
309.53	1742.82
309.74	1765.35
309.96	1714.15
310.17	1740.77
310.39	1685.48
310.60	1804.26
310.81	1728.49
311.03	1665.00
311.24	1685.48
311.45	1781.73
311.67	1800.16
311.88	1789.92
312.09	1634.28
312.31	1703.91
312.52	1681.38
312.73	1675.24
312.95	1652.71
313.16	1613.80
313.37	1800.16
313.59	1726.44
313.80	1781.73
314.01	1820.64
314.23	1665.00
314.44	1697.77
314.65	1642.47
314.87	1619.94
315.08	1605.61
315.29	1705.96
315.51	1603.56
315.72	1673.19
315.93	1810.40
316.15	1812.45
316.36	1607.66
316.57	1697.77
316.79	1779.68
317.00	1660.90
317.21	1722.34
317.43	1654.76
317.64	1757.16
317.85	1656.81
318.07	1712.10
318.28	1763.30
318.49	1742.82
318.70	1906.66
318.92	1804.26
319.13	1783.78
319.34	1804.26
319.56	1787.88
319.77	1802.21
319.98	1785.83
320.20	1765.35
320.41	1751.01
320.62	1837.03
320.83	1621.99
321.05	1837.03
321.26	1771.49
321.47	1601.51
321.69	1732.58
321.90	1683.43
322.11	1689.57
322.32	1658.85
322.54	1769.44
322.75	1695.72
322.96	1904.61
323.18	1701.86
323.39	1595.37
323.60	1671.14
323.81	1755.11
324.03	1652.71
324.24	1689.57
324.45	1722.34
324.66	1646.57
324.88	1845.22
325.09	1804.26
325.30	1730.53
325.52	1693.67
325.73	1683.43
325.94	1681.38
326.15	1603.56
326.37	1687.53
326.58	1726.44
326.79	1779.68
327.00	1710.05
327.22	1695.72
327.43	1714.15
327.64	1671.14
327.85	1771.49
328.07	1728.49
328.28	1834.98
328.49	1705.96
328.70	1705.96
328.92	1720.29
329.13	1728.49
329.34	1753.06
329.55	1777.64
329.76	1710.05
329.98	1671.14
330.19	1734.63
330.40	1673.19
330.61	1789.92
330.83	1755.11
331.04	1697.77
331.25	1755.11
331.46	1683.43
331.68	1662.95
331.89	1722.34
332.10	1660.90
332.31	1615.85
332.52	1675.24
332.74	1751.01
332.95	1617.90
333.16	1730.53
333.37	1738.73
333.58	1677.29
333.80	1705.96
334.01	1640.42
334.22	1673.19
334.43	1675.24
334.64	1662.95
334.86	1650.66
335.07	1746.92
335.28	1753.06
335.49	1593.32
335.70	1808.36
335.92	1755.11
336.13	1820.64
336.34	1748.97
336.55	1738.73
336.76	1734.63
336.98	1603.56
337.19	1730.53
337.40	1830.88
337.61	1765.35
337.82	1685.48
338.04	1800.16
338.25	1585.13
338.46	1777.64
338.67	1619.94
338.88	1628.14
339.09	1662.95
339.31	1630.18
339.52	1591.27
339.73	1677.29
339.94	1595.37
340.15	1806.31
340.36	1720.29
340.58	1658.85
340.79	1605.61
341.00	1671.14
341.21	1660.90
341.42	1746.92
341.63	1677.29
341.85	1814.50
342.06	1818.60
342.27	1695.72
342.48	1759.21
342.69	1628.14
342.90	1669.09
343.12	1783.78
343.33	1642.47
343.54	1771.49
343.75	1810.40
343.96	1742.82
344.17	1617.90
344.38	1720.29
344.60	1691.62
344.81	1636.33
345.02	1724.39
345.23	1705.96
345.44	1771.49
345.65	1794.02
345.86	1773.54
346.07	1703.91
346.29	1712.10
346.50	1808.36
346.71	1759.21
346.92	1783.78
347.13	1857.51
347.34	1705.96
347.55	1689.57
347.76	1755.11
347.98	1652.71
348.19	1662.95
348.40	1839.08
348.61	1685.48
348.82	1767.40
349.03	1691.62
349.24	1683.43
349.45	1855.46
349.66	1585.13
349.88	1718.25
350.09	1730.53
350.30	1794.02
350.51	1806.31
350.72	1685.48
350.93	1830.88
351.14	1718.25
351.35	1736.68
351.56	1722.34
351.77	1650.66
351.99	1683.43
352.20	1849.32
352.41	1822.69
352.62	1552.36
352.83	1712.10
353.04	1738.73
353.25	1675.24
353.46	1751.01
353.67	1744.87
353.88	1605.61
354.09	1689.57
354.30	1736.68
354.52	1720.29
354.73	1675.24
354.94	1648.61
355.15	1718.25
355.36	1777.64
355.57	1714.15
355.78	1755.11
355.99	1693.67
356.20	1716.20
356.41	1742.82
356.62	1677.29
356.83	1722.34
357.04	1746.92
357.25	1650.66
357.46	1660.90
357.68	1605.61
357.89	1640.42
358.10	1728.49
358.31	1677.29
358.52	1728.49
358.73	1621.99
358.94	1660.90
359.15	1619.94
359.36	1710.05
359.57	1716.20
359.78	1744.87
359.99	1718.25
360.20	1671.14
360.41	1781.73
360.62	1759.21
360.83	1742.82
361.04	1759.21
361.25	1779.68
361.46	1785.83
361.67	1697.77
361.88	1720.29
362.09	1771.49
362.30	1724.39
362.51	1687.53
362.72	1722.34
362.93	1722.34
363.14	1701.86
363.35	1787.88
363.56	1634.28
363.78	1742.82
363.99	1806.31
364.20	1681.38
364.41	1683.43
364.62	1794.02
364.83	1726.44
365.04	1751.01
365.25	1685.48
365.46	1865.70
365.67	1632.23
365.88	1576.94
366.09	1697.77
366.30	1671.14
366.51	1748.97
366.72	1644.52
366.93	1746.92
367.14	1685.48
367.35	1765.35
367.56	1673.19
367.77	1843.17
367.98	1722.34
368.18	1769.44
368.39	1753.06
368.60	1685.48
368.81	1714.15
369.02	1761.25
369.23	1632.23
369.44	1611.75
369.65	1732.58
369.86	1675.24
370.07	1673.19
370.28	1644.52
370.49	1728.49
370.70	1812.45
370.91	1705.96
371.12	1660.90
371.33	1761.25
371.54	1630.18
371.75	1748.97
371.96	1636.33
372.17	1695.72
372.38	1642.47
372.59	1722.34
372.80	1708.01
373.01	1650.66
373.22	1753.06
373.43	1763.30
373.64	1763.30
373.85	1806.31
374.06	1814.50
374.26	1708.01
374.47	1757.16
374.68	1746.92
374.89	1671.14
375.10	1648.61
375.31	1769.44
375.52	1724.39
375.73	1675.24
375.94	1574.89
376.15	1867.75
376.36	1773.54
376.57	1656.81
376.78	1646.57
376.99	1751.01
377.20	1810.40
377.40	1783.78
377.61	1785.83
377.82	1640.42
378.03	1771.49
378.24	1665.00
378.45	1724.39
378.66	1695.72
378.87	1640.42
379.08	1628.14
379.29	1675.24
379.50	1779.68
379.71	1644.52
379.91	1779.68
380.12	1677.29
380.33	1671.14
380.54	1732.58
380.75	1714.15
380.96	1660.90
381.17	1701.86
381.38	1660.90
381.59	1712.10
381.80	1767.40
382.00	1869.80
382.21	1736.68
382.42	1832.93
382.63	1865.70
382.84	1779.68
383.05	1818.60
383.26	1896.42
383.47	1787.88
383.68	1806.31
383.88	1658.85
384.09	1740.77
384.30	1896.42
384.51	1718.25
384.72	1732.58
384.93	1701.86
385.14	1708.01
385.35	1761.25
385.55	1632.23
385.76	1798.12
385.97	1658.85
386.18	1673.19
386.39	1589.22
386.60	1779.68
386.81	1720.29
387.02	1712.10
387.22	1636.33
387.43	1800.16
387.64	1800.16
387.85	1855.46
388.06	2281.44
388.27	4329.41
388.48	6707.10
388.68	8103.81
388.89	9623.41
389.10	9838.44
389.31	8554.37
389.52	7610.25
389.73	6729.63
389.93	6309.79
390.14	5930.92
390.35	5275.57
390.56	4552.63
390.77	3846.09
390.98	3092.43
391.18	2492.38
391.39	2107.36
391.60	1834.98
391.81	1851.36
392.02	1667.05
392.23	1867.75
392.43	1724.39
392.64	1834.98
392.85	1665.00
393.06	1800.16
393.27	1710.05
393.47	1624.04
393.68	1757.16
393.89	1667.05
394.10	1814.50
394.31	1687.53
394.52	1654.76
394.72	1736.68
394.93	1855.46
395.14	1673.19
395.35	1748.97
395.56	1701.86
395.76	1751.01
395.97	1853.41
396.18	1771.49
396.39	1826.79
396.60	2050.02
396.80	1900.52
397.01	1859.56
397.22	1877.99
397.43	1822.69
397.64	1761.25
397.84	1796.07
398.05	1818.60
398.26	1742.82
398.47	1769.44
398.67	1759.21
398.88	1730.53
399.09	1718.25
399.30	1697.77
399.51	1724.39
399.71	1683.43
399.92	1732.58
400.13	1722.34
400.34	1683.43
400.54	1757.16
400.75	1753.06
400.96	1679.33
401.17	1759.21
401.37	1755.11
401.58	1675.24
401.79	1755.11
402.00	1837.03
402.21	2097.12
402.41	1964.00
402.62	2019.30
402.83	2035.68
403.04	1998.82
403.24	2072.54
403.45	1804.26
403.66	1947.62
403.87	1812.45
404.07	1957.86
404.28	1910.75
404.49	1875.94
404.70	1757.16
404.90	1765.35
405.11	1736.68
405.32	1791.97
405.52	1705.96
405.73	1767.40
405.94	1681.38
406.15	1746.92
406.35	1804.26
406.56	1753.06
406.77	1701.86
406.98	1656.81
407.18	1628.14
407.39	1845.22
407.60	1683.43
407.80	1671.14
408.01	1708.01
408.22	1771.49
408.43	1691.62
408.63	1730.53
408.84	1794.02
409.05	1759.21
409.25	1591.27
409.46	1691.62
409.67	1574.89
409.88	1665.00
410.08	1748.97
410.29	1656.81
410.50	1718.25
410.70	1791.97
410.91	1708.01
411.12	1667.05
411.32	1726.44
411.53	1687.53
411.74	1867.75
411.95	1789.92
412.15	1687.53
412.36	1716.20
412.57	1886.18
412.77	1798.12
412.98	1742.82
413.19	1738.73
413.39	1816.55
413.60	1767.40
413.81	1775.59
414.01	1656.81
414.22	1800.16
414.43	1806.31
414.63	1742.82
414.84	1814.50
415.05	1689.57
415.25	1599.46
415.46	1751.01
415.67	1652.71
415.87	1705.96
416.08	1730.53
416.29	1642.47
416.49	1796.07
416.70	1679.33
416.91	1759.21
417.11	1656.81
417.32	1847.27
417.53	1791.97
417.73	1716.20
417.94	1714.15
418.15	1804.26
418.35	1771.49
418.56	1732.58
418.77	1759.21
418.97	1652.71
419.18	1736.68
419.38	1546.22
419.59	1669.09
419.80	1804.26
420.00	1646.57
420.21	1634.28
420.42	1728.49
420.62	1638.38
420.83	1660.90
421.04	1671.14
421.24	1656.81
421.45	1810.40
421.65	1734.63
421.86	1697.77
422.07	1841.12
422.27	1757.16
422.48	1746.92
422.69	1652.71
422.89	1673.19
423.10	1767.40
423.30	1650.66
423.51	1718.25
423.72	1714.15
423.92	1798.12
424.13	1656.81
424.33	1673.19
424.54	1759.21
424.75	1701.86
424.95	1808.36
425.16	1812.45
425.36	1726.44
425.57	1714.15
425.78	1726.44
425.98	1720.29
426.19	1712.10
426.39	1650.66
426.60	1769.44
426.81	1757.16
427.01	1726.44
427.22	1677.29
427.42	1624.04
427.63	1656.81
427.83	1861.60
428.04	1806.31
428.25	1822.69
428.45	1832.93
428.66	1771.49
428.86	1761.25
429.07	1703.91
429.28	1734.63
429.48	1683.43
429.69	1646.57
429.89	1665.00
430.10	1685.48
430.30	1705.96
430.51	1714.15
430.71	1773.54
430.92	1675.24
431.13	1662.95
431.33	1718.25
431.54	1759.21
431.74	1822.69
431.95	1845.22
432.15	1695.72
432.36	1701.86
432.56	1732.58
432.77	1820.64
432.98	1787.88
433.18	1718.25
433.39	1697.77
433.59	1755.11
433.80	1841.12
434.00	1861.60
434.21	1689.57
434.41	1648.61
434.62	1849.32
434.82	1679.33
435.03	1695.72
435.23	1755.11
435.44	1689.57
435.64	1746.92
435.85	1710.05
436.06	1742.82
436.26	1828.84
436.47	1748.97
436.67	1826.79
436.88	1714.15
437.08	1730.53
437.29	1841.12
437.49	1757.16
437.70	1873.89
437.90	1714.15
438.11	1826.79
438.31	1787.88
438.52	1873.89
438.72	1882.08
438.93	1828.84
439.13	1806.31
439.34	1832.93
439.54	1697.77
439.75	1779.68
439.95	1794.02
440.16	1820.64
440.36	1736.68
440.57	1761.25
440.77	1798.12
440.98	1738.73
441.18	1767.40
441.39	1683.43
441.59	1665.00
441.80	1839.08
442.00	1697.77
442.21	1753.06
442.41	1673.19
442.62	1777.64
442.82	1646.57
443.02	1740.77
443.23	1834.98
443.43	1720.29
443.64	1882.08
443.84	1695.72
444.05	1863.65
444.25	1763.30
444.46	1695.72
444.66	1726.44
444.87	1789.92
445.07	1681.38
445.28	1765.35
445.48	1791.97
445.69	1761.25
445.89	1865.70
446.09	1679.33
446.30	1998.82
446.50	2703.32
446.71	3723.21
446.91	4399.04
447.12	4736.95
447.32	4837.30
447.53	4292.54
447.73	4069.31
447.93	3555.27
448.14	3350.48
448.34	3209.17
448.55	2893.78
448.75	2805.72
448.96	2598.87
449.16	2410.46
449.36	2318.30
449.57	2041.82
449.77	1818.60
449.98	1828.84
450.18	1804.26
450.39	1818.60
450.59	1783.78
450.79	1753.06
451.00	1636.33
451.20	1703.91
451.41	1722.34
451.61	1748.97
451.81	1691.62
452.02	1712.10
452.22	1691.62
452.43	1736.68
452.63	1746.92
