SpectraSuite Data File
++++++++++++++++++++++++++++++++++++
Date: Mon Jun 06 14:15:17 CEST 2016
User: root
Dark Spectrum Present: No
Reference Spectrum Present: No
Number of Sampled Component Spectra: 1
Spectrometers: USB4C02835
Integration Time (usec): 100000 (USB4C02835)
Spectra Averaged: 1 (USB4C02835)
Boxcar Smoothing: 0 (USB4C02835)
Correct for Electrical Dark: No (USB4C02835)
Strobe/Lamp Enabled: No (USB4C02835)
Correct for Detector Non-linearity: No (USB4C02835)
Correct for Stray Light: No (USB4C02835)
Number of Pixels in Processed Spectrum: 3648
>>>>>Begin Processed Spectral Data<<<<<
177.47	1462.25
177.69	1462.25
177.91	1462.25
178.13	1431.53
178.36	1464.30
178.58	1609.70
178.80	1820.64
179.02	1605.61
179.24	1634.28
179.46	1726.44
179.68	1787.88
179.90	1691.62
180.13	1726.44
180.35	1669.09
180.57	1650.66
180.79	1677.29
181.01	1665.00
181.23	1746.92
181.45	1726.44
181.67	1714.15
181.90	1740.77
182.12	1699.81
182.34	1601.51
182.56	1734.63
182.78	1646.57
183.00	1648.61
183.22	1726.44
183.44	1572.84
183.66	1744.87
183.89	1812.45
184.11	1683.43
184.33	1775.59
184.55	1800.16
184.77	1656.81
184.99	1716.20
185.21	1638.38
185.43	1849.32
185.65	1667.05
185.87	1683.43
186.10	1783.78
186.32	1861.60
186.54	1746.92
186.76	1673.19
186.98	1691.62
187.20	1675.24
187.42	1669.09
187.64	1789.92
187.86	1685.48
188.08	1777.64
188.30	1638.38
188.52	1814.50
188.75	1738.73
188.97	1761.25
189.19	1722.34
189.41	1587.18
189.63	1705.96
189.85	1687.53
190.07	1607.66
190.29	1574.89
190.51	1757.16
190.73	1656.81
190.95	1751.01
191.17	1646.57
191.39	1638.38
191.61	1630.18
191.84	1685.48
192.06	1748.97
192.28	1679.33
192.50	1826.79
192.72	1777.64
192.94	1644.52
193.16	1800.16
193.38	1699.81
193.60	1671.14
193.82	1673.19
194.04	1705.96
194.26	1667.05
194.48	1701.86
194.70	1669.09
194.92	1679.33
195.14	1740.77
195.36	1689.57
195.58	1658.85
195.80	1691.62
196.02	1665.00
196.24	1677.29
196.46	1736.68
196.69	1656.81
196.91	1730.53
197.13	1660.90
197.35	1634.28
197.57	1787.88
197.79	1763.30
198.01	1689.57
198.23	1675.24
198.45	1773.54
198.67	1591.27
198.89	1742.82
199.11	1716.20
199.33	1734.63
199.55	1644.52
199.77	1591.27
199.99	1755.11
200.21	1660.90
200.43	1748.97
200.65	1556.46
200.87	1564.65
201.09	1669.09
201.31	1656.81
201.53	1742.82
201.75	1736.68
201.97	1785.83
202.19	1685.48
202.41	1738.73
202.63	1796.07
202.85	1720.29
203.07	1734.63
203.29	1667.05
203.51	1632.23
203.73	1630.18
203.95	1812.45
204.17	1652.71
204.39	1671.14
204.61	1712.10
204.83	1738.73
205.05	1712.10
205.27	1763.30
205.49	1746.92
205.71	1734.63
205.93	1611.75
206.15	1583.08
206.37	1757.16
206.59	1658.85
206.81	1646.57
207.03	1652.71
207.25	1673.19
207.47	1759.21
207.69	1705.96
207.91	1814.50
208.13	1726.44
208.34	1591.27
208.56	1642.47
208.78	1740.77
209.00	1705.96
209.22	1726.44
209.44	1693.67
209.66	1714.15
209.88	1712.10
210.10	1687.53
210.32	1730.53
210.54	1804.26
210.76	1716.20
210.98	1689.57
211.20	1599.46
211.42	1667.05
211.64	1714.15
211.86	1781.73
212.08	1730.53
212.30	1679.33
212.52	1636.33
212.74	1718.25
212.96	1705.96
213.17	1751.01
213.39	1714.15
213.61	1804.26
213.83	1718.25
214.05	1665.00
214.27	1746.92
214.49	1646.57
214.71	1634.28
214.93	1791.97
215.15	1714.15
215.37	1789.92
215.59	1626.09
215.81	1671.14
216.03	1765.35
216.24	1744.87
216.46	1683.43
216.68	1667.05
216.90	1701.86
217.12	1728.49
217.34	1740.77
217.56	1771.49
217.78	1759.21
218.00	1720.29
218.22	1648.61
218.44	1703.91
218.66	1722.34
218.87	1828.84
219.09	1730.53
219.31	1681.38
219.53	1615.85
219.75	1681.38
219.97	1650.66
220.19	1746.92
220.41	1724.39
220.63	1732.58
220.85	1757.16
221.06	1646.57
221.28	1761.25
221.50	1726.44
221.72	1640.42
221.94	1677.29
222.16	1662.95
222.38	1802.21
222.60	1753.06
222.82	1716.20
223.03	1726.44
223.25	1673.19
223.47	1738.73
223.69	1845.22
223.91	1697.77
224.13	1720.29
224.35	1697.77
224.57	1738.73
224.78	1771.49
225.00	1679.33
225.22	1687.53
225.44	1720.29
225.66	1783.78
225.88	1736.68
226.10	1736.68
226.32	1679.33
226.53	1728.49
226.75	1648.61
226.97	1677.29
227.19	1679.33
227.41	1619.94
227.63	1589.22
227.85	1652.71
228.06	1667.05
228.28	1738.73
228.50	1681.38
228.72	1656.81
228.94	1634.28
229.16	1585.13
229.37	1642.47
229.59	1624.04
229.81	1757.16
230.03	1728.49
230.25	1607.66
230.47	1642.47
230.69	1679.33
230.90	1705.96
231.12	1650.66
231.34	1738.73
231.56	1822.69
231.78	1617.90
232.00	1740.77
232.21	1703.91
232.43	1632.23
232.65	1576.94
232.87	1638.38
233.09	1574.89
233.30	1615.85
233.52	1757.16
233.74	1646.57
233.96	1689.57
234.18	1746.92
234.40	1658.85
234.61	1785.83
234.83	1562.60
235.05	1578.98
235.27	1873.89
235.49	1761.25
235.70	1736.68
235.92	1763.30
236.14	1751.01
236.36	1832.93
236.58	1613.80
236.79	1718.25
237.01	1726.44
237.23	1681.38
237.45	1761.25
237.67	1533.93
237.88	1642.47
238.10	1820.64
238.32	1609.70
238.54	1748.97
238.76	1640.42
238.97	1689.57
239.19	1726.44
239.41	1677.29
239.63	1662.95
239.85	1708.01
240.06	1695.72
240.28	1642.47
240.50	1763.30
240.72	1677.29
240.93	1751.01
241.15	1775.59
241.37	1759.21
241.59	1775.59
241.81	1685.48
242.02	1632.23
242.24	1671.14
242.46	1697.77
242.68	1632.23
242.89	1734.63
243.11	1738.73
243.33	1691.62
243.55	1734.63
243.76	1773.54
243.98	1740.77
244.20	1708.01
244.42	1775.59
244.64	1652.71
244.85	1591.27
245.07	1644.52
245.29	1808.36
245.51	1673.19
245.72	1679.33
245.94	1724.39
246.16	1712.10
246.38	1785.83
246.59	1619.94
246.81	1683.43
247.03	1712.10
247.24	1615.85
247.46	1652.71
247.68	1738.73
247.90	1708.01
248.11	1605.61
248.33	1728.49
248.55	1687.53
248.77	1734.63
248.98	1767.40
249.20	1818.60
249.42	1748.97
249.64	1734.63
249.85	1675.24
250.07	1685.48
250.29	1759.21
250.50	1744.87
250.72	1632.23
250.94	1751.01
251.16	1802.21
251.37	1751.01
251.59	1742.82
251.81	1699.81
252.02	1728.49
252.24	1673.19
252.46	1798.12
252.68	1691.62
252.89	1669.09
253.11	1689.57
253.33	1820.64
253.54	1783.78
253.76	1640.42
253.98	1644.52
254.20	1804.26
254.41	1675.24
254.63	1705.96
254.85	1665.00
255.06	1665.00
255.28	1701.86
255.50	1660.90
255.71	1558.50
255.93	1656.81
256.15	1687.53
256.36	1753.06
256.58	1697.77
256.80	1714.15
257.02	1685.48
257.23	1632.23
257.45	1695.72
257.67	1787.88
257.88	1603.56
258.10	1728.49
258.32	1705.96
258.53	1734.63
258.75	1785.83
258.97	1658.85
259.18	1740.77
259.40	1751.01
259.62	1734.63
259.83	1818.60
260.05	1771.49
260.27	1918.95
260.48	1726.44
260.70	1679.33
260.92	1724.39
261.13	1701.86
261.35	1697.77
261.57	1742.82
261.78	1597.42
262.00	1630.18
262.22	1599.46
262.43	1638.38
262.65	1677.29
262.86	1732.58
263.08	1865.70
263.30	1681.38
263.51	1601.51
263.73	1681.38
263.95	1767.40
264.16	1626.09
264.38	1656.81
264.60	1771.49
264.81	1673.19
265.03	1742.82
265.25	1732.58
265.46	1636.33
265.68	1826.79
265.89	1738.73
266.11	1673.19
266.33	1734.63
266.54	1738.73
266.76	1693.67
266.98	1687.53
267.19	1775.59
267.41	1744.87
267.62	1710.05
267.84	1564.65
268.06	1691.62
268.27	1785.83
268.49	1712.10
268.70	1802.21
268.92	1744.87
269.14	1644.52
269.35	1636.33
269.57	1710.05
269.79	1773.54
270.00	1611.75
270.22	1732.58
270.43	1705.96
270.65	1535.98
270.87	1730.53
271.08	1767.40
271.30	1751.01
271.51	1771.49
271.73	1722.34
271.95	1771.49
272.16	1767.40
272.38	1699.81
272.59	1685.48
272.81	1730.53
273.02	1710.05
273.24	1716.20
273.46	1796.07
273.67	1658.85
273.89	1738.73
274.10	1685.48
274.32	1763.30
274.54	1685.48
274.75	1794.02
274.97	1712.10
275.18	1722.34
275.40	1742.82
275.61	1669.09
275.83	1767.40
276.05	1673.19
276.26	1667.05
276.48	1701.86
276.69	1705.96
276.91	1724.39
277.12	1783.78
277.34	1718.25
277.55	1718.25
277.77	1705.96
277.99	1746.92
278.20	1681.38
278.42	1601.51
278.63	1677.29
278.85	1585.13
279.06	1599.46
279.28	1665.00
279.49	1675.24
279.71	1693.67
279.93	1716.20
280.14	1675.24
280.36	1679.33
280.57	1708.01
280.79	1753.06
281.00	1554.41
281.22	1701.86
281.43	1751.01
281.65	1669.09
281.86	1619.94
282.08	1689.57
282.29	1808.36
282.51	1652.71
282.73	1642.47
282.94	1667.05
283.16	1748.97
283.37	1742.82
283.59	1722.34
283.80	1722.34
284.02	1693.67
284.23	1710.05
284.45	1697.77
284.66	1646.57
284.88	1646.57
285.09	1757.16
285.31	1687.53
285.52	1703.91
285.74	1599.46
285.95	1712.10
286.17	1767.40
286.38	1783.78
286.60	1671.14
286.81	1624.04
287.03	1667.05
287.24	1685.48
287.46	1783.78
287.67	1669.09
287.89	1812.45
288.10	1685.48
288.32	1755.11
288.53	1753.06
288.75	1648.61
288.96	1726.44
289.18	1646.57
289.39	1695.72
289.61	1746.92
289.82	1808.36
290.04	1828.84
290.25	1671.14
290.47	1724.39
290.68	1642.47
290.90	1748.97
291.11	1568.74
291.33	1732.58
291.54	1656.81
291.76	1697.77
291.97	1730.53
292.18	1738.73
292.40	1634.28
292.61	1699.81
292.83	1820.64
293.04	1648.61
293.26	1662.95
293.47	1718.25
293.69	1646.57
293.90	1763.30
294.12	1755.11
294.33	1718.25
294.55	1697.77
294.76	1757.16
294.97	1757.16
295.19	1798.12
295.40	1712.10
295.62	1759.21
295.83	1748.97
296.05	1634.28
296.26	1740.77
296.48	1722.34
296.69	1644.52
296.90	1710.05
297.12	1767.40
297.33	1691.62
297.55	1665.00
297.76	1697.77
297.98	1736.68
298.19	1695.72
298.41	1785.83
298.62	1662.95
298.83	1787.88
299.05	1714.15
299.26	1679.33
299.48	1624.04
299.69	1716.20
299.90	1763.30
300.12	1646.57
300.33	1734.63
300.55	1728.49
300.76	1720.29
300.98	1650.66
301.19	1783.78
301.40	1654.76
301.62	1753.06
301.83	1712.10
302.05	1781.73
302.26	1726.44
302.47	1759.21
302.69	1662.95
302.90	1755.11
303.12	1624.04
303.33	1699.81
303.54	1847.27
303.76	1607.66
303.97	1720.29
304.19	1802.21
304.40	1656.81
304.61	1714.15
304.83	1789.92
305.04	1798.12
305.26	1724.39
305.47	1626.09
305.68	1609.70
305.90	1634.28
306.11	1755.11
306.33	1665.00
306.54	1642.47
306.75	1652.71
306.97	1617.90
307.18	1601.51
307.39	1648.61
307.61	1765.35
307.82	1617.90
308.04	1726.44
308.25	1742.82
308.46	1708.01
308.68	1693.67
308.89	1724.39
309.10	1730.53
309.32	1761.25
309.53	1638.38
309.74	1779.68
309.96	1634.28
310.17	1742.82
310.39	1648.61
310.60	1685.48
310.81	1636.33
311.03	1554.41
311.24	1761.25
311.45	1652.71
311.67	1779.68
311.88	1710.05
312.09	1660.90
312.31	1701.86
312.52	1675.24
312.73	1615.85
312.95	1564.65
313.16	1705.96
313.37	1789.92
313.59	1732.58
313.80	1685.48
314.01	1748.97
314.23	1609.70
314.44	1677.29
314.65	1677.29
314.87	1642.47
315.08	1671.14
315.29	1734.63
315.51	1628.14
315.72	1652.71
315.93	1769.44
316.15	1771.49
316.36	1697.77
316.57	1640.42
316.79	1710.05
317.00	1652.71
317.21	1759.21
317.43	1615.85
317.64	1679.33
317.85	1658.85
318.07	1722.34
318.28	1685.48
318.49	1873.89
318.70	1933.28
318.92	1828.84
319.13	1832.93
319.34	1828.84
319.56	1798.12
319.77	1761.25
319.98	1802.21
320.20	1785.83
320.41	1777.64
320.62	1732.58
320.83	1611.75
321.05	1877.99
321.26	1624.04
321.47	1689.57
321.69	1757.16
321.90	1652.71
322.11	1677.29
322.32	1683.43
322.54	1826.79
322.75	1644.52
322.96	1816.55
323.18	1660.90
323.39	1644.52
323.60	1570.79
323.81	1701.86
324.03	1685.48
324.24	1697.77
324.45	1677.29
324.66	1650.66
324.88	1796.07
325.09	1808.36
325.30	1691.62
325.52	1746.92
325.73	1726.44
325.94	1665.00
326.15	1597.42
326.37	1652.71
326.58	1794.02
326.79	1791.97
327.00	1673.19
327.22	1679.33
327.43	1708.01
327.64	1660.90
327.85	1808.36
328.07	1642.47
328.28	1718.25
328.49	1665.00
328.70	1714.15
328.92	1699.81
329.13	1621.99
329.34	1779.68
329.55	1812.45
329.76	1730.53
329.98	1744.87
330.19	1802.21
330.40	1605.61
330.61	1748.97
330.83	1740.77
331.04	1619.94
331.25	1636.33
331.46	1624.04
331.68	1656.81
331.89	1765.35
332.10	1691.62
332.31	1724.39
332.52	1767.40
332.74	1716.20
332.95	1572.84
333.16	1722.34
333.37	1730.53
333.58	1703.91
333.80	1736.68
334.01	1656.81
334.22	1642.47
334.43	1736.68
334.64	1708.01
334.86	1652.71
335.07	1554.41
335.28	1789.92
335.49	1675.24
335.70	1757.16
335.92	1796.07
336.13	1865.70
336.34	1693.67
336.55	1701.86
336.76	1746.92
336.98	1552.36
337.19	1742.82
337.40	1751.01
337.61	1845.22
337.82	1718.25
338.04	1798.12
338.25	1603.56
338.46	1595.37
338.67	1677.29
338.88	1673.19
339.09	1658.85
339.31	1722.34
339.52	1695.72
339.73	1615.85
339.94	1671.14
340.15	1689.57
340.36	1697.77
340.58	1689.57
340.79	1677.29
341.00	1804.26
341.21	1632.23
341.42	1832.93
341.63	1681.38
341.85	1742.82
342.06	1740.77
342.27	1697.77
342.48	1720.29
342.69	1615.85
342.90	1730.53
343.12	1697.77
343.33	1710.05
343.54	1755.11
343.75	1888.23
343.96	1669.09
344.17	1708.01
344.38	1730.53
344.60	1589.22
344.81	1740.77
345.02	1650.66
345.23	1734.63
345.44	1761.25
345.65	1820.64
345.86	1751.01
346.07	1671.14
346.29	1648.61
346.50	1730.53
346.71	1804.26
346.92	1759.21
347.13	1765.35
347.34	1689.57
347.55	1705.96
347.76	1755.11
347.98	1669.09
348.19	1630.18
348.40	1720.29
348.61	1705.96
348.82	1757.16
349.03	1730.53
349.24	1656.81
349.45	1826.79
349.66	1476.59
349.88	1642.47
350.09	1615.85
350.30	1738.73
350.51	1763.30
350.72	1695.72
350.93	1726.44
351.14	1697.77
351.35	1705.96
351.56	1728.49
351.77	1689.57
351.99	1708.01
352.20	1873.89
352.41	1771.49
352.62	1638.38
352.83	1712.10
353.04	1660.90
353.25	1662.95
353.46	1787.88
353.67	1800.16
353.88	1523.69
354.09	1708.01
354.30	1718.25
354.52	1644.52
354.73	1685.48
354.94	1708.01
355.15	1691.62
355.36	1748.97
355.57	1757.16
355.78	1691.62
355.99	1630.18
356.20	1730.53
356.41	1769.44
356.62	1771.49
356.83	1740.77
357.04	1806.31
357.25	1617.90
357.46	1726.44
357.68	1626.09
357.89	1607.66
358.10	1699.81
358.31	1691.62
358.52	1630.18
358.73	1712.10
358.94	1642.47
359.15	1728.49
359.36	1812.45
359.57	1748.97
359.78	1714.15
359.99	1751.01
360.20	1671.14
360.41	1619.94
360.62	1763.30
360.83	1658.85
361.04	1656.81
361.25	1650.66
361.46	1791.97
361.67	1724.39
361.88	1730.53
362.09	1697.77
362.30	1681.38
362.51	1628.14
362.72	1705.96
362.93	1685.48
363.14	1732.58
363.35	1726.44
363.56	1705.96
363.78	1753.06
363.99	1677.29
364.20	1667.05
364.41	1738.73
364.62	1808.36
364.83	1730.53
365.04	1677.29
365.25	1671.14
365.46	1699.81
365.67	1703.91
365.88	1607.66
366.09	1640.42
366.30	1652.71
366.51	1695.72
366.72	1626.09
366.93	1769.44
367.14	1681.38
367.35	1675.24
367.56	1708.01
367.77	1759.21
367.98	1642.47
368.18	1724.39
368.39	1669.09
368.60	1644.52
368.81	1777.64
369.02	1722.34
369.23	1665.00
369.44	1562.60
369.65	1599.46
369.86	1656.81
370.07	1761.25
370.28	1677.29
370.49	1730.53
370.70	1744.87
370.91	1662.95
371.12	1599.46
371.33	1781.73
371.54	1677.29
371.75	1800.16
371.96	1654.76
372.17	1697.77
372.38	1642.47
372.59	1740.77
372.80	1699.81
373.01	1724.39
373.22	1716.20
373.43	1722.34
373.64	1589.22
373.85	1757.16
374.06	1705.96
374.26	1677.29
374.47	1814.50
374.68	1777.64
374.89	1744.87
375.10	1650.66
375.31	1722.34
375.52	1775.59
375.73	1734.63
375.94	1703.91
376.15	1804.26
376.36	1648.61
376.57	1632.23
376.78	1710.05
376.99	1734.63
377.20	1791.97
377.40	1650.66
377.61	1812.45
377.82	1634.28
378.03	1763.30
378.24	1693.67
378.45	1689.57
378.66	1744.87
378.87	1626.09
379.08	1640.42
379.29	1646.57
379.50	1683.43
379.71	1644.52
379.91	1804.26
380.12	1640.42
380.33	1714.15
380.54	1693.67
380.75	1585.13
380.96	1683.43
381.17	1689.57
381.38	1796.07
381.59	1681.38
381.80	1796.07
382.00	1902.56
382.21	1810.40
382.42	1820.64
382.63	1855.46
382.84	1796.07
383.05	1718.25
383.26	1814.50
383.47	1783.78
383.68	1714.15
383.88	1732.58
384.09	1730.53
384.30	1841.12
384.51	1708.01
384.72	1632.23
384.93	1638.38
385.14	1648.61
385.35	1738.73
385.55	1632.23
385.76	1761.25
385.97	1671.14
386.18	1740.77
386.39	1603.56
386.60	1697.77
386.81	1734.63
387.02	1597.42
387.22	1605.61
387.43	1781.73
387.64	1628.14
387.85	1947.62
388.06	2201.57
388.27	4263.87
388.48	6719.39
388.68	8275.84
388.89	9637.74
389.10	9953.13
389.31	8492.93
389.52	7706.51
389.73	6627.23
389.93	6219.68
390.14	5844.90
390.35	5142.45
390.56	4652.98
390.77	3825.61
390.98	3094.48
391.18	2502.62
391.39	2082.78
391.60	1961.95
391.81	1773.54
392.02	1746.92
392.23	1781.73
392.43	1703.91
392.64	1871.84
392.85	1757.16
393.06	1855.46
393.27	1722.34
393.47	1646.57
393.68	1681.38
393.89	1685.48
394.10	1714.15
394.31	1671.14
394.52	1671.14
394.72	1740.77
394.93	1728.49
395.14	1656.81
395.35	1777.64
395.56	1681.38
395.76	1791.97
395.97	1738.73
396.18	1789.92
396.39	1869.80
396.60	2002.91
396.80	1877.99
397.01	1916.90
397.22	1857.51
397.43	1804.26
397.64	1683.43
397.84	1738.73
398.05	1900.52
398.26	1787.88
398.47	1789.92
398.67	1722.34
398.88	1693.67
399.09	1812.45
399.30	1722.34
399.51	1755.11
399.71	1732.58
399.92	1699.81
400.13	1777.64
400.34	1650.66
400.54	1722.34
400.75	1830.88
400.96	1716.20
401.17	1804.26
401.37	1697.77
401.58	1671.14
401.79	1681.38
402.00	1781.73
402.21	2019.30
402.41	1877.99
402.62	1859.56
402.83	2021.35
403.04	1951.71
403.24	2119.65
403.45	1810.40
403.66	1912.80
403.87	1890.28
404.07	1937.38
404.28	1986.53
404.49	1845.22
404.70	1806.31
404.90	1695.72
405.11	1732.58
405.32	1779.68
405.52	1703.91
405.73	1763.30
405.94	1650.66
406.15	1769.44
406.35	1804.26
406.56	1818.60
406.77	1722.34
406.98	1740.77
407.18	1667.05
407.39	1820.64
407.60	1701.86
407.80	1824.74
408.01	1624.04
408.22	1767.40
408.43	1705.96
408.63	1722.34
408.84	1738.73
409.05	1736.68
409.25	1644.52
409.46	1648.61
409.67	1699.81
409.88	1671.14
410.08	1677.29
410.29	1667.05
410.50	1722.34
410.70	1742.82
410.91	1699.81
411.12	1763.30
411.32	1730.53
411.53	1724.39
411.74	1810.40
411.95	1816.55
412.15	1738.73
412.36	1755.11
412.57	1710.05
412.77	1810.40
412.98	1665.00
413.19	1675.24
413.39	1718.25
413.60	1632.23
413.81	1722.34
414.01	1634.28
414.22	1742.82
414.43	1718.25
414.63	1695.72
414.84	1757.16
415.05	1716.20
415.25	1660.90
415.46	1714.15
415.67	1619.94
415.87	1710.05
416.08	1722.34
416.29	1607.66
416.49	1798.12
416.70	1648.61
416.91	1683.43
417.11	1662.95
417.32	1673.19
417.53	1718.25
417.73	1773.54
417.94	1730.53
418.15	1654.76
418.35	1751.01
418.56	1771.49
418.77	1804.26
418.97	1693.67
419.18	1683.43
419.38	1581.03
419.59	1738.73
419.80	1771.49
420.00	1626.09
420.21	1714.15
420.42	1816.55
420.62	1675.24
420.83	1640.42
421.04	1630.18
421.24	1621.99
421.45	1839.08
421.65	1753.06
421.86	1689.57
422.07	1765.35
422.27	1767.40
422.48	1642.47
422.69	1634.28
422.89	1665.00
423.10	1691.62
423.30	1626.09
423.51	1679.33
423.72	1611.75
423.92	1705.96
424.13	1593.32
424.33	1742.82
424.54	1734.63
424.75	1642.47
424.95	1742.82
425.16	1738.73
425.36	1697.77
425.57	1675.24
425.78	1714.15
425.98	1763.30
426.19	1656.81
426.39	1646.57
426.60	1658.85
426.81	1753.06
427.01	1726.44
427.22	1681.38
427.42	1603.56
427.63	1677.29
427.83	1771.49
428.04	1697.77
428.25	1787.88
428.45	1822.69
428.66	1771.49
428.86	1742.82
429.07	1660.90
429.28	1677.29
429.48	1654.76
429.69	1640.42
429.89	1716.20
430.10	1644.52
430.30	1738.73
430.51	1718.25
430.71	1652.71
430.92	1691.62
431.13	1685.48
431.33	1773.54
431.54	1771.49
431.74	1718.25
431.95	1779.68
432.15	1628.14
432.36	1724.39
432.56	1746.92
432.77	1865.70
432.98	1808.36
433.18	1722.34
433.39	1646.57
433.59	1632.23
433.80	1738.73
434.00	1849.32
434.21	1763.30
434.41	1681.38
434.62	1855.46
434.82	1583.08
435.03	1677.29
435.23	1718.25
435.44	1591.27
435.64	1685.48
435.85	1740.77
436.06	1734.63
436.26	1710.05
436.47	1710.05
436.67	1677.29
436.88	1730.53
437.08	1806.31
437.29	1763.30
437.49	1718.25
437.70	1665.00
437.90	1753.06
438.11	1875.94
438.31	1734.63
438.52	1796.07
438.72	1880.04
438.93	1884.13
439.13	1751.01
439.34	1818.60
439.54	1757.16
439.75	1759.21
439.95	1742.82
440.16	1767.40
440.36	1742.82
440.57	1787.88
440.77	1855.46
440.98	1785.83
441.18	1714.15
441.39	1595.37
441.59	1621.99
441.80	1900.52
442.00	1693.67
442.21	1761.25
442.41	1673.19
442.62	1779.68
442.82	1646.57
443.02	1705.96
443.23	1701.86
443.43	1759.21
443.64	1859.56
443.84	1640.42
444.05	1834.98
444.25	1751.01
444.46	1617.90
444.66	1761.25
444.87	1845.22
445.07	1650.66
445.28	1701.86
445.48	1804.26
445.69	1740.77
445.89	1832.93
446.09	1738.73
446.30	1968.10
446.50	2809.81
446.71	3653.58
446.91	4394.94
447.12	4675.51
447.32	4845.49
447.53	4284.35
447.73	4005.83
447.93	3653.58
448.14	3356.62
448.34	3213.26
448.55	2885.59
448.75	2861.01
448.96	2727.89
449.16	2404.32
449.36	2271.20
449.57	2074.59
449.77	1867.75
449.98	1777.64
450.18	1873.89
450.39	1853.41
450.59	1796.07
450.79	1773.54
451.00	1677.29
451.20	1812.45
451.41	1685.48
451.61	1734.63
451.81	1773.54
452.02	1689.57
452.22	1656.81
452.43	1662.95
452.63	1658.85
