SpectraSuite Data File
++++++++++++++++++++++++++++++++++++
Date: Mon Jun 06 12:27:57 CEST 2016
User: root
Dark Spectrum Present: No
Reference Spectrum Present: No
Number of Sampled Component Spectra: 1
Spectrometers: USB4C02835
Integration Time (usec): 100000 (USB4C02835)
Spectra Averaged: 1 (USB4C02835)
Boxcar Smoothing: 0 (USB4C02835)
Correct for Electrical Dark: No (USB4C02835)
Strobe/Lamp Enabled: No (USB4C02835)
Correct for Detector Non-linearity: No (USB4C02835)
Correct for Stray Light: No (USB4C02835)
Number of Pixels in Processed Spectrum: 3648
>>>>>Begin Processed Spectral Data<<<<<
177.47	1523.69
177.69	1523.69
177.91	1523.69
178.13	1542.12
178.36	1464.30
178.58	1558.50
178.80	1683.43
179.02	1691.62
179.24	1681.38
179.46	1691.62
179.68	1681.38
179.90	1640.42
180.13	1722.34
180.35	1665.00
180.57	1611.75
180.79	1794.02
181.01	1708.01
181.23	1703.91
181.45	1695.72
181.67	1763.30
181.90	1705.96
182.12	1632.23
182.34	1581.03
182.56	1726.44
182.78	1705.96
183.00	1634.28
183.22	1675.24
183.44	1585.13
183.66	1755.11
183.89	1796.07
184.11	1740.77
184.33	1718.25
184.55	1794.02
184.77	1722.34
184.99	1695.72
185.21	1701.86
185.43	1820.64
185.65	1695.72
185.87	1665.00
186.10	1757.16
186.32	1802.21
186.54	1673.19
186.76	1730.53
186.98	1701.86
187.20	1669.09
187.42	1712.10
187.64	1703.91
187.86	1656.81
188.08	1751.01
188.30	1697.77
188.52	1671.14
188.75	1791.97
188.97	1759.21
189.19	1667.05
189.41	1714.15
189.63	1828.84
189.85	1759.21
190.07	1554.41
190.29	1644.52
190.51	1744.87
190.73	1619.94
190.95	1726.44
191.17	1732.58
191.39	1617.90
191.61	1658.85
191.84	1656.81
192.06	1656.81
192.28	1595.37
192.50	1855.46
192.72	1705.96
192.94	1738.73
193.16	1730.53
193.38	1734.63
193.60	1632.23
193.82	1710.05
194.04	1779.68
194.26	1734.63
194.48	1662.95
194.70	1574.89
194.92	1714.15
195.14	1761.25
195.36	1701.86
195.58	1703.91
195.80	1665.00
196.02	1589.22
196.24	1675.24
196.46	1681.38
196.69	1697.77
196.91	1828.84
197.13	1638.38
197.35	1726.44
197.57	1730.53
197.79	1763.30
198.01	1673.19
198.23	1615.85
198.45	1691.62
198.67	1640.42
198.89	1742.82
199.11	1710.05
199.33	1654.76
199.55	1593.32
199.77	1697.77
199.99	1728.49
200.21	1644.52
200.43	1665.00
200.65	1669.09
200.87	1673.19
201.09	1773.54
201.31	1607.66
201.53	1716.20
201.75	1742.82
201.97	1800.16
202.19	1615.85
202.41	1720.29
202.63	1791.97
202.85	1689.57
203.07	1708.01
203.29	1669.09
203.51	1671.14
203.73	1599.46
203.95	1855.46
204.17	1695.72
204.39	1703.91
204.61	1705.96
204.83	1681.38
205.05	1720.29
205.27	1779.68
205.49	1806.31
205.71	1689.57
205.93	1603.56
206.15	1658.85
206.37	1714.15
206.59	1636.33
206.81	1658.85
207.03	1587.18
207.25	1583.08
207.47	1828.84
207.69	1681.38
207.91	1773.54
208.13	1767.40
208.34	1712.10
208.56	1667.05
208.78	1671.14
209.00	1601.51
209.22	1646.57
209.44	1689.57
209.66	1722.34
209.88	1687.53
210.10	1695.72
210.32	1617.90
210.54	1775.59
210.76	1681.38
210.98	1771.49
211.20	1578.98
211.42	1605.61
211.64	1773.54
211.86	1669.09
212.08	1720.29
212.30	1701.86
212.52	1636.33
212.74	1726.44
212.96	1687.53
213.17	1775.59
213.39	1662.95
213.61	1751.01
213.83	1812.45
214.05	1638.38
214.27	1847.27
214.49	1624.04
214.71	1615.85
214.93	1775.59
215.15	1681.38
215.37	1691.62
215.59	1652.71
215.81	1755.11
216.03	1753.06
216.24	1708.01
216.46	1722.34
216.68	1714.15
216.90	1787.88
217.12	1708.01
217.34	1660.90
217.56	1800.16
217.78	1718.25
218.00	1726.44
218.22	1640.42
218.44	1718.25
218.66	1728.49
218.87	1839.08
219.09	1607.66
219.31	1689.57
219.53	1703.91
219.75	1742.82
219.97	1679.33
220.19	1652.71
220.41	1671.14
220.63	1740.77
220.85	1677.29
221.06	1665.00
221.28	1828.84
221.50	1722.34
221.72	1716.20
221.94	1695.72
222.16	1710.05
222.38	1830.88
222.60	1714.15
222.82	1619.94
223.03	1658.85
223.25	1662.95
223.47	1783.78
223.69	1763.30
223.91	1718.25
224.13	1656.81
224.35	1665.00
224.57	1714.15
224.78	1716.20
225.00	1712.10
225.22	1714.15
225.44	1646.57
225.66	1726.44
225.88	1640.42
226.10	1783.78
226.32	1720.29
226.53	1732.58
226.75	1732.58
226.97	1665.00
227.19	1687.53
227.41	1710.05
227.63	1671.14
227.85	1630.18
228.06	1751.01
228.28	1714.15
228.50	1734.63
228.72	1601.51
228.94	1619.94
229.16	1593.32
229.37	1654.76
229.59	1601.51
229.81	1769.44
230.03	1615.85
230.25	1624.04
230.47	1585.13
230.69	1650.66
230.90	1783.78
231.12	1722.34
231.34	1689.57
231.56	1742.82
231.78	1679.33
232.00	1708.01
232.21	1665.00
232.43	1695.72
232.65	1581.03
232.87	1746.92
233.09	1636.33
233.30	1621.99
233.52	1798.12
233.74	1771.49
233.96	1689.57
234.18	1699.81
234.40	1677.29
234.61	1769.44
234.83	1644.52
235.05	1667.05
235.27	1849.32
235.49	1689.57
235.70	1742.82
235.92	1724.39
236.14	1695.72
236.36	1796.07
236.58	1544.17
236.79	1714.15
237.01	1683.43
237.23	1605.61
237.45	1761.25
237.67	1611.75
237.88	1611.75
238.10	1851.36
238.32	1669.09
238.54	1640.42
238.76	1648.61
238.97	1640.42
239.19	1689.57
239.41	1746.92
239.63	1697.77
239.85	1716.20
240.06	1683.43
240.28	1701.86
240.50	1736.68
240.72	1714.15
240.93	1705.96
241.15	1757.16
241.37	1675.24
241.59	1798.12
241.81	1695.72
242.02	1619.94
242.24	1662.95
242.46	1699.81
242.68	1710.05
242.89	1611.75
243.11	1777.64
243.33	1665.00
243.55	1630.18
243.76	1796.07
243.98	1748.97
244.20	1650.66
244.42	1726.44
244.64	1722.34
244.85	1621.99
245.07	1626.09
245.29	1695.72
245.51	1744.87
245.72	1648.61
245.94	1789.92
246.16	1669.09
246.38	1722.34
246.59	1732.58
246.81	1611.75
247.03	1718.25
247.24	1556.46
247.46	1687.53
247.68	1685.48
247.90	1714.15
248.11	1748.97
248.33	1644.52
248.55	1685.48
248.77	1794.02
248.98	1685.48
249.20	1783.78
249.42	1736.68
249.64	1730.53
249.85	1708.01
250.07	1683.43
250.29	1609.70
250.50	1755.11
250.72	1648.61
250.94	1771.49
251.16	1871.84
251.37	1767.40
251.59	1751.01
251.81	1779.68
252.02	1753.06
252.24	1628.14
252.46	1785.83
252.68	1724.39
252.89	1669.09
253.11	1529.83
253.33	1757.16
253.54	1724.39
253.76	1595.37
253.98	1646.57
254.20	1642.47
254.41	1638.38
254.63	1652.71
254.85	1662.95
255.06	1624.04
255.28	1832.93
255.50	1634.28
255.71	1605.61
255.93	1634.28
256.15	1675.24
256.36	1722.34
256.58	1656.81
256.80	1755.11
257.02	1712.10
257.23	1658.85
257.45	1693.67
257.67	1761.25
257.88	1632.23
258.10	1693.67
258.32	1689.57
258.53	1759.21
258.75	1718.25
258.97	1615.85
259.18	1658.85
259.40	1751.01
259.62	1824.74
259.83	1710.05
260.05	1705.96
260.27	1912.80
260.48	1710.05
260.70	1716.20
260.92	1714.15
261.13	1648.61
261.35	1685.48
261.57	1640.42
261.78	1646.57
262.00	1650.66
262.22	1697.77
262.43	1695.72
262.65	1644.52
262.86	1695.72
263.08	1875.94
263.30	1699.81
263.51	1660.90
263.73	1640.42
263.95	1720.29
264.16	1583.08
264.38	1599.46
264.60	1734.63
264.81	1691.62
265.03	1751.01
265.25	1712.10
265.46	1658.85
265.68	1783.78
265.89	1777.64
266.11	1626.09
266.33	1720.29
266.54	1738.73
266.76	1693.67
266.98	1732.58
267.19	1828.84
267.41	1662.95
267.62	1730.53
267.84	1628.14
268.06	1630.18
268.27	1726.44
268.49	1759.21
268.70	1730.53
268.92	1646.57
269.14	1605.61
269.35	1597.42
269.57	1724.39
269.79	1740.77
270.00	1632.23
270.22	1738.73
270.43	1671.14
270.65	1626.09
270.87	1660.90
271.08	1665.00
271.30	1669.09
271.51	1660.90
271.73	1720.29
271.95	1755.11
272.16	1675.24
272.38	1722.34
272.59	1697.77
272.81	1714.15
273.02	1695.72
273.24	1732.58
273.46	1740.77
273.67	1714.15
273.89	1665.00
274.10	1714.15
274.32	1638.38
274.54	1681.38
274.75	1695.72
274.97	1634.28
275.18	1656.81
275.40	1777.64
275.61	1673.19
275.83	1603.56
276.05	1716.20
276.26	1744.87
276.48	1734.63
276.69	1689.57
276.91	1576.94
277.12	1804.26
277.34	1730.53
277.55	1708.01
277.77	1679.33
277.99	1699.81
278.20	1636.33
278.42	1630.18
278.63	1660.90
278.85	1693.67
279.06	1636.33
279.28	1726.44
279.49	1689.57
279.71	1728.49
279.93	1693.67
280.14	1667.05
280.36	1656.81
280.57	1697.77
280.79	1832.93
281.00	1693.67
281.22	1578.98
281.43	1744.87
281.65	1560.55
281.86	1677.29
282.08	1751.01
282.29	1671.14
282.51	1617.90
282.73	1566.70
282.94	1595.37
283.16	1736.68
283.37	1705.96
283.59	1779.68
283.80	1695.72
284.02	1593.32
284.23	1751.01
284.45	1703.91
284.66	1587.18
284.88	1730.53
285.09	1699.81
285.31	1722.34
285.52	1734.63
285.74	1636.33
285.95	1777.64
286.17	1695.72
286.38	1810.40
286.60	1621.99
286.81	1673.19
287.03	1697.77
287.24	1695.72
287.46	1687.53
287.67	1728.49
287.89	1773.54
288.10	1714.15
288.32	1714.15
288.53	1787.88
288.75	1708.01
288.96	1716.20
289.18	1638.38
289.39	1673.19
289.61	1714.15
289.82	1849.32
290.04	1744.87
290.25	1648.61
290.47	1658.85
290.68	1699.81
290.90	1730.53
291.11	1607.66
291.33	1787.88
291.54	1634.28
291.76	1624.04
291.97	1791.97
292.18	1732.58
292.40	1603.56
292.61	1650.66
292.83	1779.68
293.04	1656.81
293.26	1665.00
293.47	1589.22
293.69	1630.18
293.90	1636.33
294.12	1689.57
294.33	1701.86
294.55	1718.25
294.76	1736.68
294.97	1806.31
295.19	1830.88
295.40	1683.43
295.62	1742.82
295.83	1656.81
296.05	1656.81
296.26	1787.88
296.48	1662.95
296.69	1656.81
296.90	1591.27
297.12	1763.30
297.33	1724.39
297.55	1689.57
297.76	1665.00
297.98	1738.73
298.19	1708.01
298.41	1746.92
298.62	1621.99
298.83	1812.45
299.05	1701.86
299.26	1624.04
299.48	1720.29
299.69	1714.15
299.90	1595.37
300.12	1581.03
300.33	1732.58
300.55	1734.63
300.76	1798.12
300.98	1632.23
301.19	1714.15
301.40	1615.85
301.62	1685.48
301.83	1658.85
302.05	1693.67
302.26	1634.28
302.47	1650.66
302.69	1624.04
302.90	1628.14
303.12	1599.46
303.33	1742.82
303.54	1787.88
303.76	1665.00
303.97	1642.47
304.19	1832.93
304.40	1693.67
304.61	1787.88
304.83	1824.74
305.04	1705.96
305.26	1703.91
305.47	1650.66
305.68	1746.92
305.90	1662.95
306.11	1716.20
306.33	1656.81
306.54	1667.05
306.75	1609.70
306.97	1566.70
307.18	1662.95
307.39	1654.76
307.61	1705.96
307.82	1665.00
308.04	1722.34
308.25	1728.49
308.46	1699.81
308.68	1644.52
308.89	1681.38
309.10	1685.48
309.32	1779.68
309.53	1689.57
309.74	1744.87
309.96	1589.22
310.17	1677.29
310.39	1691.62
310.60	1693.67
310.81	1722.34
311.03	1621.99
311.24	1753.06
311.45	1732.58
311.67	1855.46
311.88	1710.05
312.09	1683.43
312.31	1650.66
312.52	1669.09
312.73	1665.00
312.95	1652.71
313.16	1685.48
313.37	1779.68
313.59	1699.81
313.80	1726.44
314.01	1757.16
314.23	1665.00
314.44	1708.01
314.65	1628.14
314.87	1597.42
315.08	1708.01
315.29	1603.56
315.51	1656.81
315.72	1601.51
315.93	1847.27
316.15	1742.82
316.36	1660.90
316.57	1695.72
316.79	1765.35
317.00	1654.76
317.21	1773.54
317.43	1759.21
317.64	1759.21
317.85	1648.61
318.07	1603.56
318.28	1759.21
318.49	1753.06
318.70	1830.88
318.92	1824.74
319.13	1843.17
319.34	1777.64
319.56	1761.25
319.77	1748.97
319.98	1738.73
320.20	1738.73
320.41	1785.83
320.62	1710.05
320.83	1589.22
321.05	1839.08
321.26	1667.05
321.47	1681.38
321.69	1804.26
321.90	1640.42
322.11	1667.05
322.32	1757.16
322.54	1769.44
322.75	1726.44
322.96	1843.17
323.18	1626.09
323.39	1566.70
323.60	1646.57
323.81	1714.15
324.03	1658.85
324.24	1720.29
324.45	1710.05
324.66	1665.00
324.88	1767.40
325.09	1757.16
325.30	1646.57
325.52	1724.39
325.73	1724.39
325.94	1591.27
326.15	1605.61
326.37	1601.51
326.58	1691.62
326.79	1738.73
327.00	1583.08
327.22	1679.33
327.43	1630.18
327.64	1632.23
327.85	1695.72
328.07	1720.29
328.28	1834.98
328.49	1691.62
328.70	1675.24
328.92	1705.96
329.13	1669.09
329.34	1701.86
329.55	1804.26
329.76	1708.01
329.98	1640.42
330.19	1847.27
330.40	1665.00
330.61	1726.44
330.83	1658.85
331.04	1636.33
331.25	1738.73
331.46	1730.53
331.68	1671.14
331.89	1734.63
332.10	1687.53
332.31	1624.04
332.52	1683.43
332.74	1863.65
332.95	1642.47
333.16	1710.05
333.37	1708.01
333.58	1679.33
333.80	1798.12
334.01	1552.36
334.22	1708.01
334.43	1679.33
334.64	1656.81
334.86	1640.42
335.07	1701.86
335.28	1798.12
335.49	1570.79
335.70	1753.06
335.92	1736.68
336.13	1748.97
336.34	1667.05
336.55	1634.28
336.76	1691.62
336.98	1599.46
337.19	1714.15
337.40	1841.12
337.61	1877.99
337.82	1640.42
338.04	1765.35
338.25	1630.18
338.46	1638.38
338.67	1679.33
338.88	1646.57
339.09	1671.14
339.31	1638.38
339.52	1695.72
339.73	1656.81
339.94	1681.38
340.15	1740.77
340.36	1681.38
340.58	1781.73
340.79	1640.42
341.00	1744.87
341.21	1574.89
341.42	1775.59
341.63	1689.57
341.85	1773.54
342.06	1728.49
342.27	1650.66
342.48	1710.05
342.69	1533.93
342.90	1755.11
343.12	1712.10
343.33	1669.09
343.54	1746.92
343.75	1738.73
343.96	1673.19
344.17	1624.04
344.38	1667.05
344.60	1669.09
344.81	1683.43
345.02	1701.86
345.23	1812.45
345.44	1730.53
345.65	1703.91
345.86	1697.77
346.07	1671.14
346.29	1638.38
346.50	1724.39
346.71	1763.30
346.92	1732.58
347.13	1847.27
347.34	1728.49
347.55	1759.21
347.76	1703.91
347.98	1605.61
348.19	1695.72
348.40	1748.97
348.61	1722.34
348.82	1759.21
349.03	1712.10
349.24	1640.42
349.45	1824.74
349.66	1593.32
349.88	1712.10
350.09	1701.86
350.30	1730.53
350.51	1830.88
350.72	1660.90
350.93	1726.44
351.14	1705.96
351.35	1734.63
351.56	1683.43
351.77	1689.57
351.99	1687.53
352.20	1738.73
352.41	1712.10
352.62	1568.74
352.83	1673.19
353.04	1746.92
353.25	1587.18
353.46	1806.31
353.67	1734.63
353.88	1617.90
354.09	1714.15
354.30	1705.96
354.52	1728.49
354.73	1691.62
354.94	1644.52
355.15	1738.73
355.36	1759.21
355.57	1718.25
355.78	1679.33
355.99	1634.28
356.20	1593.32
356.41	1751.01
356.62	1722.34
356.83	1662.95
357.04	1818.60
357.25	1591.27
357.46	1658.85
357.68	1601.51
357.89	1607.66
358.10	1699.81
358.31	1691.62
358.52	1685.48
358.73	1589.22
358.94	1628.14
359.15	1671.14
359.36	1724.39
359.57	1689.57
359.78	1650.66
359.99	1693.67
360.20	1658.85
360.41	1697.77
360.62	1765.35
360.83	1755.11
361.04	1708.01
361.25	1683.43
361.46	1724.39
361.67	1730.53
361.88	1685.48
362.09	1726.44
362.30	1712.10
362.51	1662.95
362.72	1683.43
362.93	1744.87
363.14	1746.92
363.35	1699.81
363.56	1615.85
363.78	1783.78
363.99	1699.81
364.20	1755.11
364.41	1763.30
364.62	1673.19
364.83	1685.48
365.04	1753.06
365.25	1695.72
365.46	1775.59
365.67	1701.86
365.88	1617.90
366.09	1648.61
366.30	1683.43
366.51	1683.43
366.72	1613.80
366.93	1728.49
367.14	1757.16
367.35	1810.40
367.56	1708.01
367.77	1734.63
367.98	1738.73
368.18	1730.53
368.39	1710.05
368.60	1609.70
368.81	1724.39
369.02	1705.96
369.23	1656.81
369.44	1634.28
369.65	1703.91
369.86	1722.34
370.07	1734.63
370.28	1621.99
370.49	1714.15
370.70	1740.77
370.91	1642.47
371.12	1619.94
371.33	1697.77
371.54	1665.00
371.75	1769.44
371.96	1652.71
372.17	1746.92
372.38	1658.85
372.59	1779.68
372.80	1634.28
373.01	1742.82
373.22	1675.24
373.43	1644.52
373.64	1605.61
373.85	1728.49
374.06	1726.44
374.26	1744.87
374.47	1736.68
374.68	1794.02
374.89	1630.18
375.10	1654.76
375.31	1755.11
375.52	1716.20
375.73	1691.62
375.94	1683.43
376.15	1720.29
376.36	1638.38
376.57	1609.70
376.78	1613.80
376.99	1746.92
377.20	1779.68
377.40	1634.28
377.61	1738.73
377.82	1687.53
378.03	1714.15
378.24	1689.57
378.45	1642.47
378.66	1697.77
378.87	1636.33
379.08	1665.00
379.29	1630.18
379.50	1697.77
379.71	1658.85
379.91	1697.77
380.12	1726.44
380.33	1742.82
380.54	1701.86
380.75	1693.67
380.96	1730.53
381.17	1753.06
381.38	1667.05
381.59	1730.53
381.80	1773.54
382.00	1857.51
382.21	1740.77
382.42	1765.35
382.63	1779.68
382.84	1771.49
383.05	1804.26
383.26	1863.65
383.47	1728.49
383.68	1751.01
383.88	1787.88
384.09	1640.42
384.30	1775.59
384.51	1695.72
384.72	1710.05
384.93	1722.34
385.14	1734.63
385.35	1714.15
385.55	1681.38
385.76	1720.29
385.97	1656.81
386.18	1626.09
386.39	1603.56
386.60	1683.43
386.81	1642.47
387.02	1687.53
387.22	1634.28
387.43	1771.49
387.64	1697.77
387.85	1871.84
388.06	2279.39
388.27	4261.82
388.48	6907.80
388.68	8462.21
388.89	10051.43
389.10	9992.04
389.31	8775.55
389.52	7767.95
389.73	7004.05
389.93	6459.29
390.14	5853.09
390.35	5330.86
390.56	4591.55
390.77	3876.80
390.98	3182.54
391.18	2582.49
391.39	2080.74
391.60	1804.26
391.81	1757.16
392.02	1730.53
392.23	1791.97
392.43	1683.43
392.64	1759.21
392.85	1634.28
393.06	1791.97
393.27	1710.05
393.47	1710.05
393.68	1740.77
393.89	1673.19
394.10	1775.59
394.31	1681.38
394.52	1642.47
394.72	1734.63
394.93	1830.88
395.14	1656.81
395.35	1783.78
395.56	1626.09
395.76	1699.81
395.97	1759.21
396.18	1927.14
396.39	1865.70
396.60	1988.58
396.80	1853.41
397.01	1800.16
397.22	1857.51
397.43	1808.36
397.64	1714.15
397.84	1787.88
398.05	1830.88
398.26	1763.30
398.47	1791.97
398.67	1757.16
398.88	1757.16
399.09	1789.92
399.30	1576.94
399.51	1787.88
399.71	1720.29
399.92	1714.15
400.13	1742.82
400.34	1679.33
400.54	1642.47
400.75	1816.55
400.96	1800.16
401.17	1789.92
401.37	1724.39
401.58	1660.90
401.79	1628.14
402.00	1767.40
402.21	2013.15
402.41	1925.09
402.62	1990.63
402.83	2045.92
403.04	1974.24
403.24	2101.22
403.45	1789.92
403.66	1982.43
403.87	1880.04
404.07	1837.03
404.28	1927.14
404.49	1869.80
404.70	1771.49
404.90	1789.92
405.11	1705.96
405.32	1779.68
405.52	1699.81
405.73	1669.09
405.94	1734.63
406.15	1722.34
406.35	1744.87
406.56	1714.15
406.77	1736.68
406.98	1761.25
407.18	1632.23
407.39	1767.40
407.60	1632.23
407.80	1718.25
408.01	1650.66
408.22	1683.43
408.43	1615.85
408.63	1814.50
408.84	1658.85
409.05	1767.40
409.25	1746.92
409.46	1693.67
409.67	1630.18
409.88	1654.76
410.08	1755.11
410.29	1714.15
410.50	1808.36
410.70	1796.07
410.91	1656.81
411.12	1746.92
411.32	1675.24
411.53	1714.15
411.74	1865.70
411.95	1791.97
412.15	1761.25
412.36	1757.16
412.57	1777.64
412.77	1798.12
412.98	1701.86
413.19	1761.25
413.39	1738.73
413.60	1759.21
413.81	1771.49
414.01	1564.65
414.22	1708.01
414.43	1773.54
414.63	1693.67
414.84	1773.54
415.05	1662.95
415.25	1632.23
415.46	1695.72
415.67	1681.38
415.87	1714.15
416.08	1720.29
416.29	1640.42
416.49	1783.78
416.70	1697.77
416.91	1656.81
417.11	1710.05
417.32	1726.44
417.53	1771.49
417.73	1703.91
417.94	1632.23
418.15	1746.92
418.35	1667.05
418.56	1746.92
418.77	1791.97
418.97	1708.01
419.18	1742.82
419.38	1581.03
419.59	1687.53
419.80	1697.77
420.00	1662.95
420.21	1746.92
420.42	1759.21
420.62	1740.77
420.83	1726.44
421.04	1669.09
421.24	1669.09
421.45	1699.81
421.65	1656.81
421.86	1667.05
422.07	1818.60
422.27	1591.27
422.48	1628.14
422.69	1644.52
422.89	1689.57
423.10	1685.48
423.30	1626.09
423.51	1724.39
423.72	1753.06
423.92	1732.58
424.13	1628.14
424.33	1699.81
424.54	1779.68
424.75	1665.00
424.95	1806.31
425.16	1665.00
425.36	1751.01
425.57	1732.58
425.78	1701.86
425.98	1759.21
426.19	1671.14
426.39	1746.92
426.60	1703.91
426.81	1816.55
427.01	1691.62
427.22	1673.19
427.42	1601.51
427.63	1716.20
427.83	1732.58
428.04	1806.31
428.25	1732.58
428.45	1673.19
428.66	1753.06
428.86	1763.30
429.07	1660.90
429.28	1699.81
429.48	1703.91
429.69	1650.66
429.89	1656.81
430.10	1640.42
430.30	1767.40
430.51	1699.81
430.71	1615.85
430.92	1767.40
431.13	1648.61
431.33	1763.30
431.54	1712.10
431.74	1789.92
431.95	1755.11
432.15	1656.81
432.36	1648.61
432.56	1665.00
432.77	1867.75
432.98	1900.52
433.18	1775.59
433.39	1734.63
433.59	1705.96
433.80	1867.75
434.00	1912.80
434.21	1691.62
434.41	1703.91
434.62	1875.94
434.82	1615.85
435.03	1675.24
435.23	1722.34
435.44	1693.67
435.64	1673.19
435.85	1624.04
436.06	1714.15
436.26	1748.97
436.47	1675.24
436.67	1781.73
436.88	1648.61
437.08	1742.82
437.29	1812.45
437.49	1708.01
437.70	1714.15
437.90	1683.43
438.11	1808.36
438.31	1814.50
438.52	1806.31
438.72	1843.17
438.93	1849.32
439.13	1787.88
439.34	1806.31
439.54	1714.15
439.75	1820.64
439.95	1826.79
440.16	1689.57
440.36	1744.87
440.57	1705.96
440.77	1652.71
440.98	1740.77
441.18	1751.01
441.39	1714.15
441.59	1726.44
441.80	1853.41
442.00	1718.25
442.21	1755.11
442.41	1648.61
442.62	1726.44
442.82	1652.71
443.02	1726.44
443.23	1689.57
443.43	1720.29
443.64	1740.77
443.84	1632.23
444.05	1818.60
444.25	1673.19
444.46	1691.62
444.66	1755.11
444.87	1837.03
445.07	1687.53
445.28	1785.83
445.48	1853.41
445.69	1660.90
445.89	1877.99
446.09	1765.35
446.30	1968.10
446.50	2680.79
446.71	3702.73
446.91	4444.09
447.12	4931.51
447.32	4925.36
447.53	4321.21
447.73	3919.81
447.93	3555.27
448.14	3377.10
448.34	3147.73
448.55	2969.55
448.75	2969.55
448.96	2650.07
449.16	2404.32
449.36	2265.05
449.57	2019.30
449.77	1935.33
449.98	1791.97
450.18	1796.07
450.39	1705.96
450.59	1767.40
450.79	1736.68
451.00	1660.90
451.20	1791.97
451.41	1624.04
451.61	1787.88
451.81	1691.62
452.02	1689.57
452.22	1642.47
452.43	1628.14
452.63	1716.20
