SpectraSuite Data File
++++++++++++++++++++++++++++++++++++
Date: Mon Jun 06 16:03:17 CEST 2016
User: root
Dark Spectrum Present: No
Reference Spectrum Present: No
Number of Sampled Component Spectra: 1
Spectrometers: USB4C02835
Integration Time (usec): 100000 (USB4C02835)
Spectra Averaged: 1 (USB4C02835)
Boxcar Smoothing: 0 (USB4C02835)
Correct for Electrical Dark: No (USB4C02835)
Strobe/Lamp Enabled: No (USB4C02835)
Correct for Detector Non-linearity: No (USB4C02835)
Correct for Stray Light: No (USB4C02835)
Number of Pixels in Processed Spectrum: 3648
>>>>>Begin Processed Spectral Data<<<<<
177.47	1523.69
177.69	1523.69
177.91	1523.69
178.13	1460.20
178.36	1490.92
178.58	1697.77
178.80	1705.96
179.02	1755.11
179.24	1658.85
179.46	1689.57
179.68	1794.02
179.90	1685.48
180.13	1738.73
180.35	1669.09
180.57	1691.62
180.79	1697.77
181.01	1740.77
181.23	1693.67
181.45	1791.97
181.67	1720.29
181.90	1734.63
182.12	1638.38
182.34	1632.23
182.56	1765.35
182.78	1712.10
183.00	1787.88
183.22	1769.44
183.44	1556.46
183.66	1834.98
183.89	1832.93
184.11	1699.81
184.33	1695.72
184.55	1779.68
184.77	1685.48
184.99	1720.29
185.21	1691.62
185.43	1839.08
185.65	1730.53
185.87	1685.48
186.10	1851.36
186.32	1810.40
186.54	1800.16
186.76	1775.59
186.98	1689.57
187.20	1699.81
187.42	1640.42
187.64	1783.78
187.86	1785.83
188.08	1740.77
188.30	1695.72
188.52	1787.88
188.75	1796.07
188.97	1787.88
189.19	1697.77
189.41	1746.92
189.63	1675.24
189.85	1757.16
190.07	1603.56
190.29	1697.77
190.51	1683.43
190.73	1585.13
190.95	1742.82
191.17	1730.53
191.39	1628.14
191.61	1697.77
191.84	1716.20
192.06	1751.01
192.28	1605.61
192.50	1863.65
192.72	1677.29
192.94	1681.38
193.16	1761.25
193.38	1693.67
193.60	1660.90
193.82	1677.29
194.04	1822.69
194.26	1691.62
194.48	1755.11
194.70	1658.85
194.92	1736.68
195.14	1738.73
195.36	1710.05
195.58	1761.25
195.80	1730.53
196.02	1691.62
196.24	1660.90
196.46	1722.34
196.69	1677.29
196.91	1773.54
197.13	1726.44
197.35	1771.49
197.57	1714.15
197.79	1724.39
198.01	1712.10
198.23	1705.96
198.45	1767.40
198.67	1621.99
198.89	1683.43
199.11	1675.24
199.33	1722.34
199.55	1677.29
199.77	1679.33
199.99	1837.03
200.21	1662.95
200.43	1753.06
200.65	1689.57
200.87	1525.74
201.09	1712.10
201.31	1712.10
201.53	1722.34
201.75	1736.68
201.97	1740.77
202.19	1714.15
202.41	1665.00
202.63	1849.32
202.85	1763.30
203.07	1658.85
203.29	1701.86
203.51	1601.51
203.73	1652.71
203.95	1886.18
204.17	1740.77
204.39	1710.05
204.61	1753.06
204.83	1654.76
205.05	1791.97
205.27	1820.64
205.49	1826.79
205.71	1740.77
205.93	1671.14
206.15	1677.29
206.37	1746.92
206.59	1710.05
206.81	1642.47
207.03	1681.38
207.25	1658.85
207.47	1746.92
207.69	1671.14
207.91	1777.64
208.13	1847.27
208.34	1658.85
208.56	1626.09
208.78	1722.34
209.00	1642.47
209.22	1689.57
209.44	1660.90
209.66	1601.51
209.88	1660.90
210.10	1615.85
210.32	1665.00
210.54	1804.26
210.76	1654.76
210.98	1705.96
211.20	1525.74
211.42	1677.29
211.64	1824.74
211.86	1753.06
212.08	1794.02
212.30	1734.63
212.52	1746.92
212.74	1744.87
212.96	1673.19
213.17	1665.00
213.39	1761.25
213.61	1886.18
213.83	1806.31
214.05	1675.24
214.27	1714.15
214.49	1619.94
214.71	1652.71
214.93	1812.45
215.15	1738.73
215.37	1773.54
215.59	1697.77
215.81	1738.73
216.03	1753.06
216.24	1751.01
216.46	1718.25
216.68	1699.81
216.90	1726.44
217.12	1791.97
217.34	1697.77
217.56	1724.39
217.78	1763.30
218.00	1714.15
218.22	1730.53
218.44	1724.39
218.66	1705.96
218.87	1804.26
219.09	1697.77
219.31	1695.72
219.53	1710.05
219.75	1746.92
219.97	1632.23
220.19	1665.00
220.41	1671.14
220.63	1767.40
220.85	1773.54
221.06	1697.77
221.28	1724.39
221.50	1753.06
221.72	1669.09
221.94	1718.25
222.16	1697.77
222.38	1781.73
222.60	1791.97
222.82	1708.01
223.03	1783.78
223.25	1685.48
223.47	1804.26
223.69	1791.97
223.91	1767.40
224.13	1712.10
224.35	1677.29
224.57	1783.78
224.78	1726.44
225.00	1656.81
225.22	1669.09
225.44	1726.44
225.66	1714.15
225.88	1716.20
226.10	1685.48
226.32	1726.44
226.53	1814.50
226.75	1671.14
226.97	1753.06
227.19	1734.63
227.41	1654.76
227.63	1603.56
227.85	1652.71
228.06	1746.92
228.28	1732.58
228.50	1820.64
228.72	1601.51
228.94	1722.34
229.16	1654.76
229.37	1751.01
229.59	1662.95
229.81	1785.83
230.03	1689.57
230.25	1640.42
230.47	1634.28
230.69	1632.23
230.90	1785.83
231.12	1693.67
231.34	1769.44
231.56	1697.77
231.78	1742.82
232.00	1761.25
232.21	1722.34
232.43	1685.48
232.65	1662.95
232.87	1751.01
233.09	1695.72
233.30	1689.57
233.52	1834.98
233.74	1687.53
233.96	1642.47
234.18	1714.15
234.40	1720.29
234.61	1798.12
234.83	1669.09
235.05	1611.75
235.27	1902.56
235.49	1767.40
235.70	1667.05
235.92	1710.05
236.14	1806.31
236.36	1939.43
236.58	1615.85
236.79	1783.78
237.01	1771.49
237.23	1716.20
237.45	1783.78
237.67	1652.71
237.88	1695.72
238.10	1814.50
238.32	1638.38
238.54	1736.68
238.76	1732.58
238.97	1673.19
239.19	1665.00
239.41	1736.68
239.63	1716.20
239.85	1720.29
240.06	1720.29
240.28	1646.57
240.50	1783.78
240.72	1744.87
240.93	1673.19
241.15	1757.16
241.37	1724.39
241.59	1779.68
241.81	1669.09
242.02	1685.48
242.24	1724.39
242.46	1724.39
242.68	1601.51
242.89	1730.53
243.11	1722.34
243.33	1644.52
243.55	1746.92
243.76	1742.82
243.98	1656.81
244.20	1718.25
244.42	1720.29
244.64	1636.33
244.85	1603.56
245.07	1599.46
245.29	1771.49
245.51	1757.16
245.72	1810.40
245.94	1730.53
246.16	1755.11
246.38	1771.49
246.59	1652.71
246.81	1589.22
247.03	1714.15
247.24	1675.24
247.46	1650.66
247.68	1757.16
247.90	1681.38
248.11	1656.81
248.33	1730.53
248.55	1730.53
248.77	1730.53
248.98	1728.49
249.20	1808.36
249.42	1685.48
249.64	1777.64
249.85	1673.19
250.07	1724.39
250.29	1812.45
250.50	1806.31
250.72	1722.34
250.94	1751.01
251.16	1861.60
251.37	1779.68
251.59	1748.97
251.81	1718.25
252.02	1847.27
252.24	1699.81
252.46	1779.68
252.68	1648.61
252.89	1669.09
253.11	1642.47
253.33	1877.99
253.54	1705.96
253.76	1597.42
253.98	1685.48
254.20	1771.49
254.41	1632.23
254.63	1705.96
254.85	1660.90
255.06	1669.09
255.28	1742.82
255.50	1755.11
255.71	1591.27
255.93	1648.61
256.15	1779.68
256.36	1794.02
256.58	1658.85
256.80	1785.83
257.02	1652.71
257.23	1656.81
257.45	1699.81
257.67	1773.54
257.88	1636.33
258.10	1724.39
258.32	1767.40
258.53	1705.96
258.75	1781.73
258.97	1648.61
259.18	1714.15
259.40	1730.53
259.62	1832.93
259.83	1841.12
260.05	1789.92
260.27	2047.97
260.48	1810.40
260.70	1619.94
260.92	1693.67
261.13	1775.59
261.35	1742.82
261.57	1802.21
261.78	1624.04
262.00	1656.81
262.22	1746.92
262.43	1730.53
262.65	1718.25
262.86	1757.16
263.08	1882.08
263.30	1742.82
263.51	1708.01
263.73	1683.43
263.95	1814.50
264.16	1652.71
264.38	1675.24
264.60	1804.26
264.81	1712.10
265.03	1748.97
265.25	1769.44
265.46	1716.20
265.68	1830.88
265.89	1722.34
266.11	1691.62
266.33	1794.02
266.54	1699.81
266.76	1744.87
266.98	1773.54
267.19	1804.26
267.41	1816.55
267.62	1726.44
267.84	1593.32
268.06	1761.25
268.27	1693.67
268.49	1818.60
268.70	1683.43
268.92	1730.53
269.14	1605.61
269.35	1673.19
269.57	1753.06
269.79	1787.88
270.00	1681.38
270.22	1839.08
270.43	1751.01
270.65	1538.02
270.87	1679.33
271.08	1734.63
271.30	1814.50
271.51	1708.01
271.73	1701.86
271.95	1738.73
272.16	1716.20
272.38	1730.53
272.59	1787.88
272.81	1718.25
273.02	1695.72
273.24	1708.01
273.46	1761.25
273.67	1675.24
273.89	1642.47
274.10	1660.90
274.32	1761.25
274.54	1744.87
274.75	1802.21
274.97	1734.63
275.18	1701.86
275.40	1791.97
275.61	1705.96
275.83	1718.25
276.05	1626.09
276.26	1681.38
276.48	1726.44
276.69	1634.28
276.91	1746.92
277.12	1753.06
277.34	1730.53
277.55	1755.11
277.77	1751.01
277.99	1679.33
278.20	1619.94
278.42	1703.91
278.63	1628.14
278.85	1654.76
279.06	1656.81
279.28	1740.77
279.49	1802.21
279.71	1738.73
279.93	1705.96
280.14	1695.72
280.36	1683.43
280.57	1744.87
280.79	1785.83
281.00	1757.16
281.22	1662.95
281.43	1751.01
281.65	1624.04
281.86	1718.25
282.08	1712.10
282.29	1796.07
282.51	1638.38
282.73	1695.72
282.94	1665.00
283.16	1740.77
283.37	1810.40
283.59	1783.78
283.80	1726.44
284.02	1699.81
284.23	1705.96
284.45	1652.71
284.66	1658.85
284.88	1677.29
285.09	1673.19
285.31	1681.38
285.52	1736.68
285.74	1677.29
285.95	1736.68
286.17	1689.57
286.38	1722.34
286.60	1656.81
286.81	1617.90
287.03	1714.15
287.24	1708.01
287.46	1732.58
287.67	1775.59
287.89	1812.45
288.10	1708.01
288.32	1722.34
288.53	1734.63
288.75	1708.01
288.96	1734.63
289.18	1693.67
289.39	1695.72
289.61	1708.01
289.82	1824.74
290.04	1757.16
290.25	1621.99
290.47	1691.62
290.68	1644.52
290.90	1771.49
291.11	1677.29
291.33	1779.68
291.54	1654.76
291.76	1658.85
291.97	1769.44
292.18	1699.81
292.40	1691.62
292.61	1763.30
292.83	1814.50
293.04	1771.49
293.26	1720.29
293.47	1746.92
293.69	1660.90
293.90	1716.20
294.12	1761.25
294.33	1730.53
294.55	1718.25
294.76	1796.07
294.97	1820.64
295.19	1834.98
295.40	1615.85
295.62	1683.43
295.83	1671.14
296.05	1681.38
296.26	1771.49
296.48	1624.04
296.69	1708.01
296.90	1671.14
297.12	1796.07
297.33	1744.87
297.55	1679.33
297.76	1806.31
297.98	1734.63
298.19	1720.29
298.41	1662.95
298.62	1751.01
298.83	1837.03
299.05	1679.33
299.26	1660.90
299.48	1724.39
299.69	1722.34
299.90	1718.25
300.12	1691.62
300.33	1796.07
300.55	1654.76
300.76	1796.07
300.98	1617.90
301.19	1705.96
301.40	1753.06
301.62	1685.48
301.83	1738.73
302.05	1787.88
302.26	1734.63
302.47	1685.48
302.69	1687.53
302.90	1730.53
303.12	1611.75
303.33	1812.45
303.54	1832.93
303.76	1689.57
303.97	1755.11
304.19	1763.30
304.40	1673.19
304.61	1697.77
304.83	1857.51
305.04	1722.34
305.26	1736.68
305.47	1675.24
305.68	1662.95
305.90	1669.09
306.11	1783.78
306.33	1736.68
306.54	1679.33
306.75	1646.57
306.97	1609.70
307.18	1615.85
307.39	1738.73
307.61	1779.68
307.82	1708.01
308.04	1789.92
308.25	1677.29
308.46	1705.96
308.68	1847.27
308.89	1720.29
309.10	1791.97
309.32	1761.25
309.53	1710.05
309.74	1724.39
309.96	1705.96
310.17	1732.58
310.39	1597.42
310.60	1777.64
310.81	1693.67
311.03	1687.53
311.24	1708.01
311.45	1781.73
311.67	1800.16
311.88	1716.20
312.09	1738.73
312.31	1648.61
312.52	1742.82
312.73	1740.77
312.95	1630.18
313.16	1673.19
313.37	1816.55
313.59	1714.15
313.80	1789.92
314.01	1802.21
314.23	1683.43
314.44	1656.81
314.65	1638.38
314.87	1738.73
315.08	1662.95
315.29	1640.42
315.51	1589.22
315.72	1566.70
315.93	1732.58
316.15	1800.16
316.36	1624.04
316.57	1656.81
316.79	1738.73
317.00	1746.92
317.21	1728.49
317.43	1658.85
317.64	1669.09
317.85	1644.52
318.07	1603.56
318.28	1703.91
318.49	1806.31
318.70	1968.10
318.92	1857.51
319.13	1837.03
319.34	1845.22
319.56	1773.54
319.77	1847.27
319.98	1806.31
320.20	1783.78
320.41	1773.54
320.62	1714.15
320.83	1701.86
321.05	1822.69
321.26	1714.15
321.47	1767.40
321.69	1771.49
321.90	1624.04
322.11	1693.67
322.32	1708.01
322.54	1808.36
322.75	1724.39
322.96	1845.22
323.18	1648.61
323.39	1548.26
323.60	1705.96
323.81	1742.82
324.03	1679.33
324.24	1660.90
324.45	1714.15
324.66	1583.08
324.88	1751.01
325.09	1820.64
325.30	1744.87
325.52	1736.68
325.73	1763.30
325.94	1638.38
326.15	1607.66
326.37	1689.57
326.58	1738.73
326.79	1865.70
327.00	1695.72
327.22	1839.08
327.43	1685.48
327.64	1617.90
327.85	1683.43
328.07	1681.38
328.28	1783.78
328.49	1738.73
328.70	1679.33
328.92	1753.06
329.13	1740.77
329.34	1789.92
329.55	1894.37
329.76	1681.38
329.98	1726.44
330.19	1718.25
330.40	1701.86
330.61	1710.05
330.83	1740.77
331.04	1701.86
331.25	1753.06
331.46	1642.47
331.68	1607.66
331.89	1777.64
332.10	1738.73
332.31	1789.92
332.52	1761.25
332.74	1775.59
332.95	1595.37
333.16	1744.87
333.37	1697.77
333.58	1748.97
333.80	1728.49
334.01	1671.14
334.22	1669.09
334.43	1640.42
334.64	1687.53
334.86	1656.81
335.07	1687.53
335.28	1843.17
335.49	1619.94
335.70	1761.25
335.92	1763.30
336.13	1859.56
336.34	1726.44
336.55	1728.49
336.76	1779.68
336.98	1611.75
337.19	1697.77
337.40	1816.55
337.61	1849.32
337.82	1683.43
338.04	1642.47
338.25	1617.90
338.46	1726.44
338.67	1691.62
338.88	1636.33
339.09	1726.44
339.31	1767.40
339.52	1640.42
339.73	1660.90
339.94	1705.96
340.15	1769.44
340.36	1646.57
340.58	1736.68
340.79	1705.96
341.00	1742.82
341.21	1673.19
341.42	1757.16
341.63	1656.81
341.85	1810.40
342.06	1765.35
342.27	1705.96
342.48	1800.16
342.69	1615.85
342.90	1771.49
343.12	1779.68
343.33	1705.96
343.54	1798.12
343.75	1763.30
343.96	1642.47
344.17	1632.23
344.38	1726.44
344.60	1626.09
344.81	1630.18
345.02	1656.81
345.23	1789.92
345.44	1736.68
345.65	1716.20
345.86	1705.96
346.07	1648.61
346.29	1732.58
346.50	1699.81
346.71	1785.83
346.92	1806.31
347.13	1826.79
347.34	1685.48
347.55	1689.57
347.76	1716.20
347.98	1601.51
348.19	1626.09
348.40	1808.36
348.61	1701.86
348.82	1763.30
349.03	1753.06
349.24	1685.48
349.45	1828.84
349.66	1550.31
349.88	1679.33
350.09	1683.43
350.30	1851.36
350.51	1777.64
350.72	1794.02
350.93	1751.01
351.14	1662.95
351.35	1699.81
351.56	1671.14
351.77	1644.52
351.99	1748.97
352.20	1730.53
352.41	1726.44
352.62	1665.00
352.83	1742.82
353.04	1732.58
353.25	1736.68
353.46	1841.12
353.67	1693.67
353.88	1628.14
354.09	1681.38
354.30	1658.85
354.52	1777.64
354.73	1685.48
354.94	1621.99
355.15	1720.29
355.36	1791.97
355.57	1650.66
355.78	1736.68
355.99	1636.33
356.20	1652.71
356.41	1791.97
356.62	1732.58
356.83	1714.15
357.04	1781.73
357.25	1609.70
357.46	1757.16
357.68	1667.05
357.89	1638.38
358.10	1691.62
358.31	1722.34
358.52	1708.01
358.73	1695.72
358.94	1630.18
359.15	1701.86
359.36	1738.73
359.57	1718.25
359.78	1810.40
359.99	1701.86
360.20	1628.14
360.41	1667.05
360.62	1718.25
360.83	1796.07
361.04	1761.25
361.25	1757.16
361.46	1753.06
361.67	1767.40
361.88	1820.64
362.09	1794.02
362.30	1751.01
362.51	1665.00
362.72	1740.77
362.93	1796.07
363.14	1708.01
363.35	1685.48
363.56	1701.86
363.78	1732.58
363.99	1779.68
364.20	1642.47
364.41	1812.45
364.62	1796.07
364.83	1857.51
365.04	1687.53
365.25	1718.25
365.46	1822.69
365.67	1660.90
365.88	1626.09
366.09	1693.67
366.30	1685.48
366.51	1748.97
366.72	1644.52
366.93	1687.53
367.14	1677.29
367.35	1808.36
367.56	1673.19
367.77	1826.79
367.98	1720.29
368.18	1695.72
368.39	1726.44
368.60	1624.04
368.81	1705.96
369.02	1705.96
369.23	1671.14
369.44	1642.47
369.65	1716.20
369.86	1773.54
370.07	1869.80
370.28	1667.05
370.49	1753.06
370.70	1755.11
370.91	1613.80
371.12	1611.75
371.33	1798.12
371.54	1689.57
371.75	1841.12
371.96	1591.27
372.17	1759.21
372.38	1615.85
372.59	1796.07
372.80	1646.57
373.01	1724.39
373.22	1714.15
373.43	1724.39
373.64	1697.77
373.85	1753.06
374.06	1855.46
374.26	1757.16
374.47	1736.68
374.68	1859.56
374.89	1681.38
375.10	1714.15
375.31	1808.36
375.52	1748.97
375.73	1724.39
375.94	1691.62
376.15	1783.78
376.36	1687.53
376.57	1716.20
376.78	1673.19
376.99	1689.57
377.20	1734.63
377.40	1685.48
377.61	1877.99
377.82	1652.71
378.03	1781.73
378.24	1746.92
378.45	1701.86
378.66	1722.34
378.87	1634.28
379.08	1617.90
379.29	1677.29
379.50	1783.78
379.71	1726.44
379.91	1767.40
380.12	1624.04
380.33	1714.15
380.54	1748.97
380.75	1699.81
380.96	1720.29
381.17	1755.11
381.38	1775.59
381.59	1791.97
381.80	1636.33
382.00	1898.47
382.21	1781.73
382.42	1681.38
382.63	1873.89
382.84	1697.77
383.05	1798.12
383.26	1855.46
383.47	1779.68
383.68	1814.50
383.88	1773.54
384.09	1837.03
384.30	1787.88
384.51	1681.38
384.72	1724.39
384.93	1568.74
385.14	1755.11
385.35	1677.29
385.55	1685.48
385.76	1802.21
385.97	1738.73
386.18	1677.29
386.39	1703.91
386.60	1677.29
386.81	1695.72
387.02	1607.66
387.22	1656.81
387.43	1769.44
387.64	1751.01
387.85	1886.18
388.06	2263.01
388.27	4372.41
388.48	6703.00
388.68	8134.53
388.89	9516.91
389.10	9682.80
389.31	8478.59
389.52	7442.32
389.73	6606.75
389.93	6188.96
390.14	5853.09
390.35	5138.35
390.56	4521.92
390.77	3635.14
390.98	2979.79
391.18	2545.63
391.39	2090.98
391.60	1914.85
391.81	1808.36
392.02	1724.39
392.23	1806.31
392.43	1710.05
392.64	1785.83
392.85	1746.92
393.06	1796.07
393.27	1701.86
393.47	1689.57
393.68	1765.35
393.89	1720.29
394.10	1812.45
394.31	1736.68
394.52	1628.14
394.72	1638.38
394.93	1855.46
395.14	1652.71
395.35	1689.57
395.56	1728.49
395.76	1771.49
395.97	1779.68
396.18	1787.88
396.39	1775.59
396.60	2078.69
396.80	1816.55
397.01	1853.41
397.22	1810.40
397.43	1822.69
397.64	1757.16
397.84	1785.83
398.05	1802.21
398.26	1730.53
398.47	1865.70
398.67	1814.50
398.88	1843.17
399.09	1763.30
399.30	1716.20
399.51	1724.39
399.71	1685.48
399.92	1734.63
400.13	1763.30
400.34	1716.20
400.54	1730.53
400.75	1761.25
400.96	1712.10
401.17	1873.89
401.37	1771.49
401.58	1691.62
401.79	1826.79
402.00	1820.64
402.21	2041.82
402.41	1974.24
402.62	2000.87
402.83	2150.37
403.04	1953.76
403.24	2058.21
403.45	1783.78
403.66	1955.81
403.87	1947.62
404.07	1933.28
404.28	1949.67
404.49	1875.94
404.70	1794.02
404.90	1808.36
405.11	1757.16
405.32	1697.77
405.52	1683.43
405.73	1652.71
405.94	1658.85
406.15	1798.12
406.35	1777.64
406.56	1658.85
406.77	1714.15
406.98	1742.82
407.18	1650.66
407.39	1765.35
407.60	1669.09
407.80	1736.68
408.01	1599.46
408.22	1738.73
408.43	1718.25
408.63	1742.82
408.84	1728.49
409.05	1789.92
409.25	1650.66
409.46	1636.33
409.67	1683.43
409.88	1665.00
410.08	1695.72
410.29	1751.01
410.50	1701.86
410.70	1738.73
410.91	1675.24
411.12	1789.92
411.32	1728.49
411.53	1761.25
411.74	1816.55
411.95	1861.60
412.15	1714.15
412.36	1796.07
412.57	1814.50
412.77	1859.56
412.98	1728.49
413.19	1701.86
413.39	1730.53
413.60	1775.59
413.81	1830.88
414.01	1650.66
414.22	1732.58
414.43	1804.26
414.63	1689.57
414.84	1806.31
415.05	1767.40
415.25	1626.09
415.46	1798.12
415.67	1671.14
415.87	1824.74
416.08	1634.28
416.29	1681.38
416.49	1718.25
416.70	1697.77
416.91	1730.53
417.11	1714.15
417.32	1746.92
417.53	1769.44
417.73	1708.01
417.94	1759.21
418.15	1759.21
418.35	1740.77
418.56	1753.06
418.77	1832.93
418.97	1734.63
419.18	1703.91
419.38	1648.61
419.59	1724.39
419.80	1841.12
420.00	1732.58
420.21	1812.45
420.42	1761.25
420.62	1761.25
420.83	1609.70
421.04	1642.47
421.24	1718.25
421.45	1650.66
421.65	1787.88
421.86	1628.14
422.07	1744.87
422.27	1757.16
422.48	1742.82
422.69	1654.76
422.89	1726.44
423.10	1720.29
423.30	1679.33
423.51	1736.68
423.72	1677.29
423.92	1765.35
424.13	1714.15
424.33	1744.87
424.54	1753.06
424.75	1710.05
424.95	1830.88
425.16	1767.40
425.36	1679.33
425.57	1783.78
425.78	1751.01
425.98	1822.69
426.19	1740.77
426.39	1671.14
426.60	1724.39
426.81	1783.78
427.01	1712.10
427.22	1660.90
427.42	1648.61
427.63	1751.01
427.83	1783.78
428.04	1816.55
428.25	1720.29
428.45	1812.45
428.66	1816.55
428.86	1693.67
429.07	1718.25
429.28	1751.01
429.48	1703.91
429.69	1691.62
429.89	1703.91
430.10	1679.33
430.30	1777.64
430.51	1763.30
430.71	1693.67
430.92	1691.62
431.13	1705.96
431.33	1765.35
431.54	1779.68
431.74	1820.64
431.95	1875.94
432.15	1689.57
432.36	1683.43
432.56	1730.53
432.77	1832.93
432.98	1800.16
433.18	1726.44
433.39	1728.49
433.59	1703.91
433.80	1800.16
434.00	1955.81
434.21	1728.49
434.41	1710.05
434.62	1865.70
434.82	1695.72
435.03	1683.43
435.23	1708.01
435.44	1650.66
435.64	1734.63
435.85	1705.96
436.06	1751.01
436.26	1859.56
436.47	1677.29
436.67	1773.54
436.88	1705.96
437.08	1851.36
437.29	1812.45
437.49	1746.92
437.70	1812.45
437.90	1779.68
438.11	1808.36
438.31	1757.16
438.52	1916.90
438.72	1839.08
438.93	1955.81
439.13	1775.59
439.34	1880.04
439.54	1722.34
439.75	1781.73
439.95	1812.45
440.16	1761.25
440.36	1771.49
440.57	1755.11
440.77	1769.44
440.98	1771.49
441.18	1773.54
441.39	1714.15
441.59	1705.96
441.80	1832.93
442.00	1808.36
442.21	1886.18
442.41	1738.73
442.62	1775.59
442.82	1662.95
443.02	1722.34
443.23	1798.12
443.43	1763.30
443.64	1814.50
443.84	1642.47
444.05	1796.07
444.25	1734.63
444.46	1708.01
444.66	1705.96
444.87	1808.36
445.07	1681.38
445.28	1781.73
445.48	1841.12
445.69	1867.75
445.89	1861.60
446.09	1777.64
446.30	2025.44
446.50	2680.79
446.71	3684.30
446.91	4272.06
447.12	4726.71
447.32	4675.51
447.53	4272.06
447.73	3864.52
447.93	3512.27
448.14	3252.17
448.34	3262.41
448.55	2926.55
448.75	2922.45
448.96	2693.08
449.16	2420.70
449.36	2275.29
449.57	2047.97
449.77	1904.61
449.98	1744.87
450.18	1763.30
450.39	1769.44
450.59	1755.11
450.79	1720.29
451.00	1687.53
451.20	1794.02
451.41	1763.30
451.61	1798.12
451.81	1714.15
452.02	1777.64
452.22	1753.06
452.43	1679.33
452.63	1689.57
