SpectraSuite Data File
++++++++++++++++++++++++++++++++++++
Date: Mon Jun 06 15:57:57 CEST 2016
User: root
Dark Spectrum Present: No
Reference Spectrum Present: No
Number of Sampled Component Spectra: 1
Spectrometers: USB4C02835
Integration Time (usec): 100000 (USB4C02835)
Spectra Averaged: 1 (USB4C02835)
Boxcar Smoothing: 0 (USB4C02835)
Correct for Electrical Dark: No (USB4C02835)
Strobe/Lamp Enabled: No (USB4C02835)
Correct for Detector Non-linearity: No (USB4C02835)
Correct for Stray Light: No (USB4C02835)
Number of Pixels in Processed Spectrum: 3648
>>>>>Begin Processed Spectral Data<<<<<
177.47	1452.01
177.69	1452.01
177.91	1452.01
178.13	1435.63
178.36	1488.87
178.58	1605.61
178.80	1734.63
179.02	1644.52
179.24	1697.77
179.46	1687.53
179.68	1742.82
179.90	1677.29
180.13	1710.05
180.35	1697.77
180.57	1714.15
180.79	1656.81
181.01	1734.63
181.23	1822.69
181.45	1712.10
181.67	1824.74
181.90	1699.81
182.12	1665.00
182.34	1617.90
182.56	1763.30
182.78	1693.67
183.00	1699.81
183.22	1662.95
183.44	1630.18
183.66	1787.88
183.89	1767.40
184.11	1724.39
184.33	1746.92
184.55	1742.82
184.77	1726.44
184.99	1771.49
185.21	1728.49
185.43	1810.40
185.65	1669.09
185.87	1732.58
186.10	1804.26
186.32	1875.94
186.54	1748.97
186.76	1718.25
186.98	1800.16
187.20	1724.39
187.42	1691.62
187.64	1675.24
187.86	1742.82
188.08	1814.50
188.30	1742.82
188.52	1673.19
188.75	1832.93
188.97	1794.02
189.19	1738.73
189.41	1693.67
189.63	1753.06
189.85	1656.81
190.07	1665.00
190.29	1701.86
190.51	1665.00
190.73	1681.38
190.95	1724.39
191.17	1691.62
191.39	1636.33
191.61	1691.62
191.84	1718.25
192.06	1791.97
192.28	1611.75
192.50	1834.98
192.72	1628.14
192.94	1714.15
193.16	1701.86
193.38	1724.39
193.60	1632.23
193.82	1691.62
194.04	1851.36
194.26	1689.57
194.48	1734.63
194.70	1759.21
194.92	1701.86
195.14	1714.15
195.36	1679.33
195.58	1728.49
195.80	1759.21
196.02	1591.27
196.24	1740.77
196.46	1761.25
196.69	1705.96
196.91	1861.60
197.13	1703.91
197.35	1687.53
197.57	1738.73
197.79	1757.16
198.01	1820.64
198.23	1775.59
198.45	1755.11
198.67	1656.81
198.89	1724.39
199.11	1730.53
199.33	1685.48
199.55	1595.37
199.77	1636.33
199.99	1728.49
200.21	1716.20
200.43	1714.15
200.65	1603.56
200.87	1665.00
201.09	1724.39
201.31	1746.92
201.53	1726.44
201.75	1732.58
201.97	1753.06
202.19	1748.97
202.41	1703.91
202.63	1832.93
202.85	1787.88
203.07	1699.81
203.29	1656.81
203.51	1583.08
203.73	1691.62
203.95	1875.94
204.17	1798.12
204.39	1804.26
204.61	1728.49
204.83	1644.52
205.05	1705.96
205.27	1759.21
205.49	1787.88
205.71	1718.25
205.93	1636.33
206.15	1595.37
206.37	1687.53
206.59	1675.24
206.81	1650.66
207.03	1722.34
207.25	1662.95
207.47	1791.97
207.69	1710.05
207.91	1851.36
208.13	1796.07
208.34	1714.15
208.56	1624.04
208.78	1734.63
209.00	1685.48
209.22	1675.24
209.44	1714.15
209.66	1665.00
209.88	1683.43
210.10	1640.42
210.32	1746.92
210.54	1843.17
210.76	1718.25
210.98	1730.53
211.20	1613.80
211.42	1746.92
211.64	1738.73
211.86	1697.77
212.08	1816.55
212.30	1763.30
212.52	1687.53
212.74	1746.92
212.96	1730.53
213.17	1789.92
213.39	1728.49
213.61	1802.21
213.83	1726.44
214.05	1660.90
214.27	1781.73
214.49	1583.08
214.71	1624.04
214.93	1781.73
215.15	1781.73
215.37	1787.88
215.59	1548.26
215.81	1789.92
216.03	1753.06
216.24	1779.68
216.46	1740.77
216.68	1695.72
216.90	1722.34
217.12	1751.01
217.34	1728.49
217.56	1767.40
217.78	1777.64
218.00	1740.77
218.22	1742.82
218.44	1767.40
218.66	1732.58
218.87	1794.02
219.09	1654.76
219.31	1705.96
219.53	1683.43
219.75	1712.10
219.97	1695.72
220.19	1679.33
220.41	1742.82
220.63	1804.26
220.85	1734.63
221.06	1699.81
221.28	1785.83
221.50	1781.73
221.72	1630.18
221.94	1656.81
222.16	1734.63
222.38	1794.02
222.60	1742.82
222.82	1671.14
223.03	1728.49
223.25	1724.39
223.47	1744.87
223.69	1847.27
223.91	1689.57
224.13	1769.44
224.35	1611.75
224.57	1748.97
224.78	1779.68
225.00	1617.90
225.22	1665.00
225.44	1779.68
225.66	1757.16
225.88	1656.81
226.10	1787.88
226.32	1759.21
226.53	1769.44
226.75	1689.57
226.97	1728.49
227.19	1736.68
227.41	1720.29
227.63	1689.57
227.85	1712.10
228.06	1722.34
228.28	1687.53
228.50	1722.34
228.72	1667.05
228.94	1615.85
229.16	1611.75
229.37	1607.66
229.59	1630.18
229.81	1724.39
230.03	1679.33
230.25	1589.22
230.47	1656.81
230.69	1667.05
230.90	1757.16
231.12	1722.34
231.34	1753.06
231.56	1800.16
231.78	1693.67
232.00	1785.83
232.21	1742.82
232.43	1722.34
232.65	1548.26
232.87	1695.72
233.09	1648.61
233.30	1652.71
233.52	1732.58
233.74	1640.42
233.96	1716.20
234.18	1746.92
234.40	1693.67
234.61	1808.36
234.83	1660.90
235.05	1673.19
235.27	1820.64
235.49	1806.31
235.70	1578.98
235.92	1650.66
236.14	1656.81
236.36	1822.69
236.58	1540.07
236.79	1748.97
237.01	1681.38
237.23	1685.48
237.45	1828.84
237.67	1675.24
237.88	1720.29
238.10	1845.22
238.32	1689.57
238.54	1720.29
238.76	1619.94
238.97	1632.23
239.19	1636.33
239.41	1796.07
239.63	1740.77
239.85	1732.58
240.06	1746.92
240.28	1708.01
240.50	1763.30
240.72	1818.60
240.93	1730.53
241.15	1810.40
241.37	1755.11
241.59	1761.25
241.81	1714.15
242.02	1734.63
242.24	1742.82
242.46	1789.92
242.68	1626.09
242.89	1734.63
243.11	1687.53
243.33	1685.48
243.55	1720.29
243.76	1716.20
243.98	1615.85
244.20	1779.68
244.42	1738.73
244.64	1734.63
244.85	1714.15
245.07	1695.72
245.29	1705.96
245.51	1697.77
245.72	1748.97
245.94	1853.41
246.16	1742.82
246.38	1810.40
246.59	1648.61
246.81	1648.61
247.03	1708.01
247.24	1607.66
247.46	1685.48
247.68	1656.81
247.90	1593.32
248.11	1669.09
248.33	1751.01
248.55	1658.85
248.77	1658.85
248.98	1796.07
249.20	1837.03
249.42	1789.92
249.64	1705.96
249.85	1683.43
250.07	1654.76
250.29	1728.49
250.50	1826.79
250.72	1574.89
250.94	1794.02
251.16	1832.93
251.37	1812.45
251.59	1667.05
251.81	1705.96
252.02	1777.64
252.24	1654.76
252.46	1757.16
252.68	1621.99
252.89	1730.53
253.11	1679.33
253.33	1800.16
253.54	1804.26
253.76	1613.80
253.98	1701.86
254.20	1628.14
254.41	1619.94
254.63	1662.95
254.85	1654.76
255.06	1695.72
255.28	1724.39
255.50	1710.05
255.71	1619.94
255.93	1691.62
256.15	1728.49
256.36	1800.16
256.58	1646.57
256.80	1728.49
257.02	1697.77
257.23	1665.00
257.45	1703.91
257.67	1714.15
257.88	1660.90
258.10	1757.16
258.32	1806.31
258.53	1681.38
258.75	1828.84
258.97	1646.57
259.18	1751.01
259.40	1740.77
259.62	1798.12
259.83	1744.87
260.05	1708.01
260.27	1888.23
260.48	1740.77
260.70	1662.95
260.92	1794.02
261.13	1763.30
261.35	1669.09
261.57	1685.48
261.78	1705.96
262.00	1687.53
262.22	1695.72
262.43	1599.46
262.65	1728.49
262.86	1724.39
263.08	1789.92
263.30	1728.49
263.51	1658.85
263.73	1646.57
263.95	1716.20
264.16	1689.57
264.38	1630.18
264.60	1769.44
264.81	1677.29
265.03	1828.84
265.25	1734.63
265.46	1658.85
265.68	1787.88
265.89	1703.91
266.11	1658.85
266.33	1730.53
266.54	1779.68
266.76	1769.44
266.98	1732.58
267.19	1822.69
267.41	1679.33
267.62	1691.62
267.84	1621.99
268.06	1626.09
268.27	1728.49
268.49	1787.88
268.70	1824.74
268.92	1705.96
269.14	1689.57
269.35	1626.09
269.57	1718.25
269.79	1734.63
270.00	1662.95
270.22	1843.17
270.43	1587.18
270.65	1648.61
270.87	1677.29
271.08	1783.78
271.30	1757.16
271.51	1662.95
271.73	1763.30
271.95	1720.29
272.16	1740.77
272.38	1689.57
272.59	1742.82
272.81	1724.39
273.02	1751.01
273.24	1724.39
273.46	1789.92
273.67	1662.95
273.89	1595.37
274.10	1681.38
274.32	1830.88
274.54	1798.12
274.75	1771.49
274.97	1646.57
275.18	1732.58
275.40	1667.05
275.61	1751.01
275.83	1742.82
276.05	1574.89
276.26	1667.05
276.48	1761.25
276.69	1687.53
276.91	1736.68
277.12	1751.01
277.34	1763.30
277.55	1726.44
277.77	1761.25
277.99	1662.95
278.20	1683.43
278.42	1665.00
278.63	1644.52
278.85	1679.33
279.06	1628.14
279.28	1765.35
279.49	1771.49
279.71	1658.85
279.93	1734.63
280.14	1681.38
280.36	1644.52
280.57	1712.10
280.79	1769.44
281.00	1656.81
281.22	1740.77
281.43	1744.87
281.65	1550.31
281.86	1624.04
282.08	1675.24
282.29	1794.02
282.51	1626.09
282.73	1728.49
282.94	1589.22
283.16	1722.34
283.37	1757.16
283.59	1755.11
283.80	1734.63
284.02	1736.68
284.23	1732.58
284.45	1714.15
284.66	1628.14
284.88	1658.85
285.09	1722.34
285.31	1765.35
285.52	1769.44
285.74	1619.94
285.95	1787.88
286.17	1710.05
286.38	1642.47
286.60	1636.33
286.81	1714.15
287.03	1662.95
287.24	1730.53
287.46	1732.58
287.67	1722.34
287.89	1841.12
288.10	1744.87
288.32	1820.64
288.53	1810.40
288.75	1765.35
288.96	1773.54
289.18	1609.70
289.39	1693.67
289.61	1789.92
289.82	1800.16
290.04	1789.92
290.25	1746.92
290.47	1751.01
290.68	1703.91
290.90	1779.68
291.11	1650.66
291.33	1742.82
291.54	1712.10
291.76	1683.43
291.97	1773.54
292.18	1722.34
292.40	1624.04
292.61	1650.66
292.83	1851.36
293.04	1697.77
293.26	1728.49
293.47	1736.68
293.69	1699.81
293.90	1675.24
294.12	1808.36
294.33	1613.80
294.55	1716.20
294.76	1748.97
294.97	1679.33
295.19	1763.30
295.40	1662.95
295.62	1734.63
295.83	1775.59
296.05	1701.86
296.26	1804.26
296.48	1665.00
296.69	1652.71
296.90	1730.53
297.12	1712.10
297.33	1796.07
297.55	1689.57
297.76	1837.03
297.98	1863.65
298.19	1712.10
298.41	1726.44
298.62	1714.15
298.83	1767.40
299.05	1718.25
299.26	1689.57
299.48	1638.38
299.69	1794.02
299.90	1710.05
300.12	1652.71
300.33	1791.97
300.55	1718.25
300.76	1802.21
300.98	1669.09
301.19	1695.72
301.40	1724.39
301.62	1691.62
301.83	1681.38
302.05	1644.52
302.26	1726.44
302.47	1728.49
302.69	1621.99
302.90	1730.53
303.12	1640.42
303.33	1826.79
303.54	1767.40
303.76	1642.47
303.97	1779.68
304.19	1759.21
304.40	1673.19
304.61	1818.60
304.83	1822.69
305.04	1771.49
305.26	1755.11
305.47	1619.94
305.68	1677.29
305.90	1677.29
306.11	1728.49
306.33	1736.68
306.54	1685.48
306.75	1601.51
306.97	1699.81
307.18	1691.62
307.39	1669.09
307.61	1820.64
307.82	1671.14
308.04	1636.33
308.25	1757.16
308.46	1712.10
308.68	1699.81
308.89	1628.14
309.10	1755.11
309.32	1654.76
309.53	1740.77
309.74	1722.34
309.96	1703.91
310.17	1748.97
310.39	1656.81
310.60	1802.21
310.81	1658.85
311.03	1611.75
311.24	1753.06
311.45	1775.59
311.67	1796.07
311.88	1705.96
312.09	1660.90
312.31	1650.66
312.52	1781.73
312.73	1755.11
312.95	1609.70
313.16	1634.28
313.37	1796.07
313.59	1753.06
313.80	1722.34
314.01	1794.02
314.23	1710.05
314.44	1689.57
314.65	1695.72
314.87	1650.66
315.08	1693.67
315.29	1685.48
315.51	1638.38
315.72	1648.61
315.93	1865.70
316.15	1742.82
316.36	1671.14
316.57	1771.49
316.79	1716.20
317.00	1679.33
317.21	1775.59
317.43	1660.90
317.64	1728.49
317.85	1619.94
318.07	1705.96
318.28	1730.53
318.49	1834.98
318.70	1869.80
318.92	1763.30
319.13	1865.70
319.34	1834.98
319.56	1771.49
319.77	1785.83
319.98	1751.01
320.20	1857.51
320.41	1673.19
320.62	1722.34
320.83	1673.19
321.05	1820.64
321.26	1714.15
321.47	1818.60
321.69	1851.36
321.90	1640.42
322.11	1681.38
322.32	1748.97
322.54	1818.60
322.75	1675.24
322.96	1882.08
323.18	1589.22
323.39	1581.03
323.60	1742.82
323.81	1783.78
324.03	1644.52
324.24	1705.96
324.45	1683.43
324.66	1681.38
324.88	1765.35
325.09	1798.12
325.30	1767.40
325.52	1783.78
325.73	1761.25
325.94	1658.85
326.15	1677.29
326.37	1738.73
326.58	1804.26
326.79	1859.56
327.00	1662.95
327.22	1759.21
327.43	1681.38
327.64	1562.60
327.85	1759.21
328.07	1681.38
328.28	1779.68
328.49	1683.43
328.70	1722.34
328.92	1796.07
329.13	1714.15
329.34	1738.73
329.55	1814.50
329.76	1834.98
329.98	1697.77
330.19	1761.25
330.40	1683.43
330.61	1691.62
330.83	1703.91
331.04	1689.57
331.25	1722.34
331.46	1697.77
331.68	1677.29
331.89	1734.63
332.10	1673.19
332.31	1658.85
332.52	1646.57
332.74	1763.30
332.95	1617.90
333.16	1665.00
333.37	1728.49
333.58	1708.01
333.80	1689.57
334.01	1638.38
334.22	1601.51
334.43	1677.29
334.64	1652.71
334.86	1640.42
335.07	1722.34
335.28	1828.84
335.49	1601.51
335.70	1708.01
335.92	1843.17
336.13	1937.38
336.34	1693.67
336.55	1726.44
336.76	1777.64
336.98	1615.85
337.19	1669.09
337.40	1822.69
337.61	1904.61
337.82	1662.95
338.04	1781.73
338.25	1658.85
338.46	1626.09
338.67	1671.14
338.88	1654.76
339.09	1687.53
339.31	1685.48
339.52	1624.04
339.73	1703.91
339.94	1714.15
340.15	1730.53
340.36	1634.28
340.58	1697.77
340.79	1759.21
341.00	1648.61
341.21	1615.85
341.42	1820.64
341.63	1765.35
341.85	1695.72
342.06	1753.06
342.27	1695.72
342.48	1796.07
342.69	1648.61
342.90	1753.06
343.12	1736.68
343.33	1763.30
343.54	1787.88
343.75	1710.05
343.96	1710.05
344.17	1619.94
344.38	1689.57
344.60	1642.47
344.81	1708.01
345.02	1740.77
345.23	1886.18
345.44	1818.60
345.65	1787.88
345.86	1775.59
346.07	1644.52
346.29	1634.28
346.50	1724.39
346.71	1732.58
346.92	1886.18
347.13	1798.12
347.34	1714.15
347.55	1740.77
347.76	1726.44
347.98	1566.70
348.19	1728.49
348.40	1830.88
348.61	1683.43
348.82	1726.44
349.03	1791.97
349.24	1636.33
349.45	1824.74
349.66	1597.42
349.88	1687.53
350.09	1685.48
350.30	1781.73
350.51	1751.01
350.72	1689.57
350.93	1755.11
351.14	1738.73
351.35	1757.16
351.56	1734.63
351.77	1748.97
351.99	1746.92
352.20	1814.50
352.41	1755.11
352.62	1595.37
352.83	1683.43
353.04	1734.63
353.25	1755.11
353.46	1822.69
353.67	1722.34
353.88	1581.03
354.09	1660.90
354.30	1746.92
354.52	1800.16
354.73	1779.68
354.94	1646.57
355.15	1755.11
355.36	1824.74
355.57	1619.94
355.78	1734.63
355.99	1710.05
356.20	1673.19
356.41	1757.16
356.62	1738.73
356.83	1677.29
357.04	1783.78
357.25	1642.47
357.46	1726.44
357.68	1652.71
357.89	1652.71
358.10	1708.01
358.31	1699.81
358.52	1658.85
358.73	1675.24
358.94	1718.25
359.15	1716.20
359.36	1679.33
359.57	1701.86
359.78	1677.29
359.99	1781.73
360.20	1697.77
360.41	1634.28
360.62	1705.96
360.83	1703.91
361.04	1685.48
361.25	1726.44
361.46	1789.92
361.67	1806.31
361.88	1890.28
362.09	1693.67
362.30	1714.15
362.51	1693.67
362.72	1736.68
362.93	1816.55
363.14	1710.05
363.35	1728.49
363.56	1675.24
363.78	1787.88
363.99	1703.91
364.20	1767.40
364.41	1789.92
364.62	1822.69
364.83	1769.44
365.04	1697.77
365.25	1697.77
365.46	1886.18
365.67	1611.75
365.88	1697.77
366.09	1669.09
366.30	1689.57
366.51	1699.81
366.72	1728.49
366.93	1771.49
367.14	1798.12
367.35	1724.39
367.56	1740.77
367.77	1804.26
367.98	1779.68
368.18	1640.42
368.39	1761.25
368.60	1656.81
368.81	1761.25
369.02	1744.87
369.23	1689.57
369.44	1601.51
369.65	1722.34
369.86	1759.21
370.07	1781.73
370.28	1673.19
370.49	1757.16
370.70	1740.77
370.91	1689.57
371.12	1677.29
371.33	1722.34
371.54	1722.34
371.75	1859.56
371.96	1548.26
372.17	1722.34
372.38	1722.34
372.59	1705.96
372.80	1687.53
373.01	1730.53
373.22	1693.67
373.43	1765.35
373.64	1753.06
373.85	1787.88
374.06	1783.78
374.26	1857.51
374.47	1791.97
374.68	1820.64
374.89	1814.50
375.10	1677.29
375.31	1757.16
375.52	1691.62
375.73	1656.81
375.94	1611.75
376.15	1759.21
376.36	1679.33
376.57	1703.91
376.78	1751.01
376.99	1660.90
377.20	1785.83
377.40	1667.05
377.61	1798.12
377.82	1634.28
378.03	1818.60
378.24	1755.11
378.45	1726.44
378.66	1773.54
378.87	1708.01
379.08	1597.42
379.29	1687.53
379.50	1796.07
379.71	1710.05
379.91	1730.53
380.12	1658.85
380.33	1738.73
380.54	1767.40
380.75	1701.86
380.96	1701.86
381.17	1808.36
381.38	1736.68
381.59	1781.73
381.80	1683.43
382.00	1820.64
382.21	1779.68
382.42	1816.55
382.63	1898.47
382.84	1738.73
383.05	1875.94
383.26	1861.60
383.47	1703.91
383.68	1765.35
383.88	1757.16
384.09	1740.77
384.30	1775.59
384.51	1724.39
384.72	1714.15
384.93	1654.76
385.14	1775.59
385.35	1734.63
385.55	1689.57
385.76	1757.16
385.97	1763.30
386.18	1683.43
386.39	1652.71
386.60	1658.85
386.81	1742.82
387.02	1687.53
387.22	1611.75
387.43	1673.19
387.64	1763.30
387.85	1873.89
388.06	2289.63
388.27	4194.24
388.48	6707.10
388.68	8152.96
388.89	9461.62
389.10	9574.25
389.31	8523.65
389.52	7509.90
389.73	6655.90
389.93	5990.31
390.14	5746.60
390.35	5072.82
390.56	4544.44
390.77	3743.69
390.98	2959.31
391.18	2471.90
391.39	2074.59
391.60	1828.84
391.81	1804.26
392.02	1669.09
392.23	1857.51
392.43	1722.34
392.64	1808.36
392.85	1708.01
393.06	1931.23
393.27	1755.11
393.47	1632.23
393.68	1753.06
393.89	1697.77
394.10	1771.49
394.31	1624.04
394.52	1728.49
394.72	1689.57
394.93	1822.69
395.14	1675.24
395.35	1726.44
395.56	1642.47
395.76	1783.78
395.97	1818.60
396.18	1865.70
396.39	1804.26
396.60	1966.05
396.80	1832.93
397.01	1906.66
397.22	1789.92
397.43	1880.04
397.64	1740.77
397.84	1812.45
398.05	1925.09
398.26	1708.01
398.47	1820.64
398.67	1740.77
398.88	1789.92
399.09	1804.26
399.30	1712.10
399.51	1751.01
399.71	1613.80
399.92	1787.88
400.13	1800.16
400.34	1640.42
400.54	1705.96
400.75	1771.49
400.96	1789.92
401.17	1837.03
401.37	1773.54
401.58	1791.97
401.79	1742.82
402.00	1826.79
402.21	1996.77
402.41	2007.01
402.62	2025.44
402.83	2093.02
403.04	2007.01
403.24	2088.93
403.45	1892.32
403.66	1949.67
403.87	1892.32
404.07	1839.08
404.28	1923.04
404.49	1914.85
404.70	1763.30
404.90	1771.49
405.11	1775.59
405.32	1779.68
405.52	1712.10
405.73	1701.86
405.94	1708.01
406.15	1714.15
406.35	1800.16
406.56	1730.53
406.77	1755.11
406.98	1783.78
407.18	1716.20
407.39	1828.84
407.60	1699.81
407.80	1710.05
408.01	1742.82
408.22	1751.01
408.43	1636.33
408.63	1705.96
408.84	1826.79
409.05	1779.68
409.25	1665.00
409.46	1671.14
409.67	1638.38
409.88	1619.94
410.08	1691.62
410.29	1683.43
410.50	1671.14
410.70	1796.07
410.91	1718.25
411.12	1751.01
411.32	1732.58
411.53	1652.71
411.74	1806.31
411.95	1759.21
412.15	1748.97
412.36	1783.78
412.57	1720.29
412.77	1710.05
412.98	1730.53
413.19	1675.24
413.39	1720.29
413.60	1785.83
413.81	1767.40
414.01	1679.33
414.22	1718.25
414.43	1791.97
414.63	1701.86
414.84	1808.36
415.05	1751.01
415.25	1626.09
415.46	1808.36
415.67	1710.05
415.87	1757.16
416.08	1757.16
416.29	1697.77
416.49	1804.26
416.70	1718.25
416.91	1697.77
417.11	1722.34
417.32	1820.64
417.53	1796.07
417.73	1857.51
417.94	1714.15
418.15	1763.30
418.35	1810.40
418.56	1703.91
418.77	1820.64
418.97	1701.86
419.18	1685.48
419.38	1550.31
419.59	1738.73
419.80	1767.40
420.00	1734.63
420.21	1611.75
420.42	1779.68
420.62	1775.59
420.83	1689.57
421.04	1665.00
421.24	1695.72
421.45	1794.02
421.65	1775.59
421.86	1683.43
422.07	1759.21
422.27	1660.90
422.48	1693.67
422.69	1720.29
422.89	1705.96
423.10	1619.94
423.30	1603.56
423.51	1669.09
423.72	1779.68
423.92	1710.05
424.13	1683.43
424.33	1730.53
424.54	1783.78
424.75	1660.90
424.95	1814.50
425.16	1759.21
425.36	1665.00
425.57	1767.40
425.78	1730.53
425.98	1744.87
426.19	1761.25
426.39	1619.94
426.60	1710.05
426.81	1828.84
427.01	1687.53
427.22	1724.39
427.42	1652.71
427.63	1652.71
427.83	1824.74
428.04	1800.16
428.25	1730.53
428.45	1800.16
428.66	1724.39
428.86	1695.72
429.07	1726.44
429.28	1722.34
429.48	1630.18
429.69	1646.57
429.89	1695.72
430.10	1738.73
430.30	1701.86
430.51	1771.49
430.71	1710.05
430.92	1710.05
431.13	1654.76
431.33	1746.92
431.54	1806.31
431.74	1769.44
431.95	1873.89
432.15	1738.73
432.36	1837.03
432.56	1789.92
432.77	1890.28
432.98	1812.45
433.18	1757.16
433.39	1677.29
433.59	1740.77
433.80	1873.89
434.00	1884.13
434.21	1669.09
434.41	1699.81
434.62	1880.04
434.82	1660.90
435.03	1667.05
435.23	1751.01
435.44	1652.71
435.64	1734.63
435.85	1734.63
436.06	1755.11
436.26	1865.70
436.47	1708.01
436.67	1681.38
436.88	1724.39
437.08	1722.34
437.29	1800.16
437.49	1724.39
437.70	1726.44
437.90	1720.29
438.11	1882.08
438.31	1794.02
438.52	1886.18
438.72	1787.88
438.93	1912.80
439.13	1820.64
439.34	1841.12
439.54	1814.50
439.75	1781.73
439.95	1826.79
440.16	1757.16
440.36	1753.06
440.57	1710.05
440.77	1765.35
440.98	1722.34
441.18	1740.77
441.39	1695.72
441.59	1636.33
441.80	1892.32
442.00	1746.92
442.21	1832.93
442.41	1724.39
442.62	1767.40
442.82	1658.85
443.02	1777.64
443.23	1794.02
443.43	1730.53
443.64	1810.40
443.84	1632.23
444.05	1869.80
444.25	1679.33
444.46	1695.72
444.66	1767.40
444.87	1828.84
445.07	1621.99
445.28	1718.25
445.48	1787.88
445.69	1726.44
445.89	1916.90
446.09	1722.34
446.30	1980.39
446.50	2652.12
446.71	3571.66
446.91	4374.46
447.12	4749.24
447.32	4722.62
447.53	4272.06
447.73	3823.56
447.93	3538.89
448.14	3387.34
448.34	3160.02
448.55	2854.87
448.75	2731.99
448.96	2729.94
449.16	2492.38
449.36	2232.29
449.57	2088.93
449.77	1916.90
449.98	1841.12
450.18	1779.68
450.39	1767.40
450.59	1830.88
450.79	1738.73
451.00	1753.06
451.20	1857.51
451.41	1757.16
451.61	1806.31
451.81	1708.01
452.02	1748.97
452.22	1751.01
452.43	1675.24
452.63	1734.63
