SpectraSuite Data File
++++++++++++++++++++++++++++++++++++
Date: Mon Jun 06 12:33:17 CEST 2016
User: root
Dark Spectrum Present: No
Reference Spectrum Present: No
Number of Sampled Component Spectra: 1
Spectrometers: USB4C02835
Integration Time (usec): 100000 (USB4C02835)
Spectra Averaged: 1 (USB4C02835)
Boxcar Smoothing: 0 (USB4C02835)
Correct for Electrical Dark: No (USB4C02835)
Strobe/Lamp Enabled: No (USB4C02835)
Correct for Detector Non-linearity: No (USB4C02835)
Correct for Stray Light: No (USB4C02835)
Number of Pixels in Processed Spectrum: 3648
>>>>>Begin Processed Spectral Data<<<<<
177.47	1390.57
177.69	1390.57
177.91	1390.57
178.13	1425.39
178.36	1449.96
178.58	1617.90
178.80	1710.05
179.02	1638.38
179.24	1611.75
179.46	1710.05
179.68	1732.58
179.90	1720.29
180.13	1720.29
180.35	1685.48
180.57	1673.19
180.79	1818.60
181.01	1644.52
181.23	1767.40
181.45	1748.97
181.67	1718.25
181.90	1675.24
182.12	1677.29
182.34	1681.38
182.56	1755.11
182.78	1726.44
183.00	1636.33
183.22	1701.86
183.44	1570.79
183.66	1902.56
183.89	1753.06
184.11	1689.57
184.33	1765.35
184.55	1708.01
184.77	1710.05
184.99	1687.53
185.21	1673.19
185.43	1828.84
185.65	1636.33
185.87	1683.43
186.10	1773.54
186.32	1789.92
186.54	1724.39
186.76	1755.11
186.98	1779.68
187.20	1605.61
187.42	1662.95
187.64	1714.15
187.86	1652.71
188.08	1679.33
188.30	1667.05
188.52	1642.47
188.75	1781.73
188.97	1775.59
189.19	1646.57
189.41	1681.38
189.63	1699.81
189.85	1701.86
190.07	1611.75
190.29	1556.46
190.51	1722.34
190.73	1701.86
190.95	1791.97
191.17	1656.81
191.39	1628.14
191.61	1648.61
191.84	1701.86
192.06	1726.44
192.28	1681.38
192.50	1798.12
192.72	1701.86
192.94	1746.92
193.16	1777.64
193.38	1683.43
193.60	1685.48
193.82	1705.96
194.04	1679.33
194.26	1746.92
194.48	1671.14
194.70	1640.42
194.92	1660.90
195.14	1716.20
195.36	1662.95
195.58	1644.52
195.80	1644.52
196.02	1710.05
196.24	1671.14
196.46	1755.11
196.69	1566.70
196.91	1877.99
197.13	1673.19
197.35	1640.42
197.57	1820.64
197.79	1689.57
198.01	1699.81
198.23	1794.02
198.45	1710.05
198.67	1652.71
198.89	1656.81
199.11	1761.25
199.33	1644.52
199.55	1501.16
199.77	1705.96
199.99	1726.44
200.21	1667.05
200.43	1701.86
200.65	1578.98
200.87	1603.56
201.09	1734.63
201.31	1679.33
201.53	1683.43
201.75	1677.29
201.97	1646.57
202.19	1638.38
202.41	1693.67
202.63	1814.50
202.85	1697.77
203.07	1724.39
203.29	1671.14
203.51	1591.27
203.73	1650.66
203.95	1877.99
204.17	1703.91
204.39	1689.57
204.61	1669.09
204.83	1751.01
205.05	1687.53
205.27	1720.29
205.49	1871.84
205.71	1617.90
205.93	1632.23
206.15	1665.00
206.37	1716.20
206.59	1656.81
206.81	1626.09
207.03	1681.38
207.25	1642.47
207.47	1769.44
207.69	1636.33
207.91	1693.67
208.13	1751.01
208.34	1677.29
208.56	1685.48
208.78	1726.44
209.00	1746.92
209.22	1626.09
209.44	1660.90
209.66	1671.14
209.88	1683.43
210.10	1708.01
210.32	1662.95
210.54	1730.53
210.76	1685.48
210.98	1744.87
211.20	1665.00
211.42	1740.77
211.64	1748.97
211.86	1763.30
212.08	1775.59
212.30	1656.81
212.52	1732.58
212.74	1740.77
212.96	1712.10
213.17	1757.16
213.39	1775.59
213.61	1791.97
213.83	1755.11
214.05	1603.56
214.27	1748.97
214.49	1646.57
214.71	1640.42
214.93	1806.31
215.15	1689.57
215.37	1671.14
215.59	1609.70
215.81	1720.29
216.03	1753.06
216.24	1751.01
216.46	1695.72
216.68	1689.57
216.90	1757.16
217.12	1722.34
217.34	1701.86
217.56	1718.25
217.78	1775.59
218.00	1742.82
218.22	1642.47
218.44	1748.97
218.66	1746.92
218.87	1771.49
219.09	1669.09
219.31	1716.20
219.53	1718.25
219.75	1640.42
219.97	1626.09
220.19	1720.29
220.41	1708.01
220.63	1804.26
220.85	1716.20
221.06	1673.19
221.28	1796.07
221.50	1730.53
221.72	1658.85
221.94	1695.72
222.16	1712.10
222.38	1718.25
222.60	1691.62
222.82	1656.81
223.03	1775.59
223.25	1634.28
223.47	1734.63
223.69	1798.12
223.91	1728.49
224.13	1810.40
224.35	1658.85
224.57	1755.11
224.78	1669.09
225.00	1650.66
225.22	1574.89
225.44	1714.15
225.66	1787.88
225.88	1675.24
226.10	1824.74
226.32	1724.39
226.53	1771.49
226.75	1607.66
226.97	1648.61
227.19	1746.92
227.41	1687.53
227.63	1673.19
227.85	1593.32
228.06	1763.30
228.28	1726.44
228.50	1755.11
228.72	1611.75
228.94	1691.62
229.16	1572.84
229.37	1578.98
229.59	1621.99
229.81	1769.44
230.03	1636.33
230.25	1581.03
230.47	1718.25
230.69	1669.09
230.90	1724.39
231.12	1660.90
231.34	1736.68
231.56	1718.25
231.78	1562.60
232.00	1746.92
232.21	1714.15
232.43	1650.66
232.65	1595.37
232.87	1789.92
233.09	1662.95
233.30	1718.25
233.52	1769.44
233.74	1724.39
233.96	1736.68
234.18	1708.01
234.40	1644.52
234.61	1814.50
234.83	1611.75
235.05	1566.70
235.27	1861.60
235.49	1714.15
235.70	1724.39
235.92	1761.25
236.14	1658.85
236.36	1849.32
236.58	1671.14
236.79	1730.53
237.01	1595.37
237.23	1669.09
237.45	1705.96
237.67	1644.52
237.88	1738.73
238.10	1791.97
238.32	1638.38
238.54	1671.14
238.76	1726.44
238.97	1648.61
239.19	1556.46
239.41	1763.30
239.63	1761.25
239.85	1654.76
240.06	1753.06
240.28	1695.72
240.50	1736.68
240.72	1697.77
240.93	1718.25
241.15	1802.21
241.37	1701.86
241.59	1800.16
241.81	1697.77
242.02	1767.40
242.24	1677.29
242.46	1652.71
242.68	1712.10
242.89	1714.15
243.11	1822.69
243.33	1710.05
243.55	1703.91
243.76	1732.58
243.98	1722.34
244.20	1765.35
244.42	1705.96
244.64	1683.43
244.85	1658.85
245.07	1687.53
245.29	1777.64
245.51	1667.05
245.72	1751.01
245.94	1638.38
246.16	1660.90
246.38	1753.06
246.59	1660.90
246.81	1611.75
247.03	1638.38
247.24	1591.27
247.46	1656.81
247.68	1617.90
247.90	1660.90
248.11	1650.66
248.33	1720.29
248.55	1697.77
248.77	1740.77
248.98	1775.59
249.20	1775.59
249.42	1646.57
249.64	1740.77
249.85	1677.29
250.07	1705.96
250.29	1679.33
250.50	1703.91
250.72	1632.23
250.94	1683.43
251.16	1824.74
251.37	1763.30
251.59	1662.95
251.81	1701.86
252.02	1775.59
252.24	1660.90
252.46	1761.25
252.68	1613.80
252.89	1671.14
253.11	1597.42
253.33	1787.88
253.54	1796.07
253.76	1607.66
253.98	1683.43
254.20	1746.92
254.41	1585.13
254.63	1667.05
254.85	1634.28
255.06	1665.00
255.28	1738.73
255.50	1708.01
255.71	1691.62
255.93	1568.74
256.15	1720.29
256.36	1689.57
256.58	1722.34
256.80	1789.92
257.02	1693.67
257.23	1730.53
257.45	1687.53
257.67	1675.24
257.88	1632.23
258.10	1640.42
258.32	1677.29
258.53	1751.01
258.75	1771.49
258.97	1609.70
259.18	1683.43
259.40	1765.35
259.62	1759.21
259.83	1822.69
260.05	1806.31
260.27	1900.52
260.48	1763.30
260.70	1632.23
260.92	1689.57
261.13	1705.96
261.35	1705.96
261.57	1675.24
261.78	1630.18
262.00	1673.19
262.22	1726.44
262.43	1646.57
262.65	1685.48
262.86	1652.71
263.08	1886.18
263.30	1687.53
263.51	1630.18
263.73	1652.71
263.95	1728.49
264.16	1576.94
264.38	1626.09
264.60	1810.40
264.81	1708.01
265.03	1779.68
265.25	1742.82
265.46	1695.72
265.68	1746.92
265.89	1685.48
266.11	1609.70
266.33	1689.57
266.54	1716.20
266.76	1716.20
266.98	1761.25
267.19	1763.30
267.41	1804.26
267.62	1744.87
267.84	1587.18
268.06	1695.72
268.27	1744.87
268.49	1722.34
268.70	1789.92
268.92	1691.62
269.14	1648.61
269.35	1583.08
269.57	1650.66
269.79	1734.63
270.00	1724.39
270.22	1757.16
270.43	1624.04
270.65	1624.04
270.87	1720.29
271.08	1732.58
271.30	1751.01
271.51	1748.97
271.73	1728.49
271.95	1798.12
272.16	1662.95
272.38	1669.09
272.59	1638.38
272.81	1810.40
273.02	1650.66
273.24	1673.19
273.46	1744.87
273.67	1626.09
273.89	1613.80
274.10	1669.09
274.32	1689.57
274.54	1687.53
274.75	1630.18
274.97	1742.82
275.18	1748.97
275.40	1708.01
275.61	1613.80
275.83	1681.38
276.05	1619.94
276.26	1691.62
276.48	1769.44
276.69	1710.05
276.91	1636.33
277.12	1779.68
277.34	1781.73
277.55	1681.38
277.77	1720.29
277.99	1656.81
278.20	1609.70
278.42	1648.61
278.63	1603.56
278.85	1650.66
279.06	1621.99
279.28	1748.97
279.49	1759.21
279.71	1794.02
279.93	1689.57
280.14	1701.86
280.36	1669.09
280.57	1648.61
280.79	1730.53
281.00	1722.34
281.22	1628.14
281.43	1755.11
281.65	1593.32
281.86	1669.09
282.08	1677.29
282.29	1888.23
282.51	1595.37
282.73	1681.38
282.94	1656.81
283.16	1781.73
283.37	1744.87
283.59	1675.24
283.80	1775.59
284.02	1675.24
284.23	1738.73
284.45	1665.00
284.66	1718.25
284.88	1662.95
285.09	1648.61
285.31	1718.25
285.52	1695.72
285.74	1585.13
285.95	1701.86
286.17	1642.47
286.38	1755.11
286.60	1665.00
286.81	1595.37
287.03	1705.96
287.24	1652.71
287.46	1734.63
287.67	1699.81
287.89	1812.45
288.10	1644.52
288.32	1679.33
288.53	1755.11
288.75	1693.67
288.96	1718.25
289.18	1705.96
289.39	1722.34
289.61	1718.25
289.82	1828.84
290.04	1771.49
290.25	1611.75
290.47	1712.10
290.68	1656.81
290.90	1722.34
291.11	1636.33
291.33	1744.87
291.54	1650.66
291.76	1681.38
291.97	1583.08
292.18	1656.81
292.40	1730.53
292.61	1726.44
292.83	1871.84
293.04	1701.86
293.26	1701.86
293.47	1669.09
293.69	1630.18
293.90	1675.24
294.12	1779.68
294.33	1667.05
294.55	1624.04
294.76	1767.40
294.97	1705.96
295.19	1851.36
295.40	1652.71
295.62	1701.86
295.83	1761.25
296.05	1632.23
296.26	1730.53
296.48	1628.14
296.69	1638.38
296.90	1681.38
297.12	1775.59
297.33	1742.82
297.55	1671.14
297.76	1816.55
297.98	1730.53
298.19	1689.57
298.41	1695.72
298.62	1660.90
298.83	1783.78
299.05	1679.33
299.26	1701.86
299.48	1691.62
299.69	1712.10
299.90	1683.43
300.12	1636.33
300.33	1708.01
300.55	1796.07
300.76	1687.53
300.98	1665.00
301.19	1779.68
301.40	1675.24
301.62	1679.33
301.83	1648.61
302.05	1607.66
302.26	1763.30
302.47	1673.19
302.69	1605.61
302.90	1742.82
303.12	1562.60
303.33	1624.04
303.54	1798.12
303.76	1646.57
303.97	1716.20
304.19	1734.63
304.40	1658.85
304.61	1652.71
304.83	1820.64
305.04	1880.04
305.26	1789.92
305.47	1634.28
305.68	1736.68
305.90	1558.50
306.11	1738.73
306.33	1736.68
306.54	1658.85
306.75	1720.29
306.97	1605.61
307.18	1595.37
307.39	1619.94
307.61	1781.73
307.82	1734.63
308.04	1640.42
308.25	1667.05
308.46	1693.67
308.68	1658.85
308.89	1753.06
309.10	1767.40
309.32	1638.38
309.53	1691.62
309.74	1751.01
309.96	1658.85
310.17	1712.10
310.39	1681.38
310.60	1726.44
310.81	1685.48
311.03	1636.33
311.24	1648.61
311.45	1683.43
311.67	1783.78
311.88	1722.34
312.09	1689.57
312.31	1716.20
312.52	1701.86
312.73	1607.66
312.95	1605.61
313.16	1705.96
313.37	1771.49
313.59	1716.20
313.80	1683.43
314.01	1703.91
314.23	1693.67
314.44	1617.90
314.65	1683.43
314.87	1636.33
315.08	1660.90
315.29	1734.63
315.51	1722.34
315.72	1665.00
315.93	1763.30
316.15	1714.15
316.36	1570.79
316.57	1736.68
316.79	1785.83
317.00	1656.81
317.21	1818.60
317.43	1667.05
317.64	1708.01
317.85	1673.19
318.07	1712.10
318.28	1810.40
318.49	1777.64
318.70	1859.56
318.92	1794.02
319.13	1765.35
319.34	1853.41
319.56	1794.02
319.77	1769.44
319.98	1726.44
320.20	1765.35
320.41	1744.87
320.62	1675.24
320.83	1720.29
321.05	1812.45
321.26	1699.81
321.47	1796.07
321.69	1689.57
321.90	1669.09
322.11	1720.29
322.32	1673.19
322.54	1773.54
322.75	1626.09
322.96	1837.03
323.18	1613.80
323.39	1544.17
323.60	1619.94
323.81	1724.39
324.03	1669.09
324.24	1640.42
324.45	1732.58
324.66	1673.19
324.88	1701.86
325.09	1722.34
325.30	1722.34
325.52	1691.62
325.73	1679.33
325.94	1652.71
326.15	1691.62
326.37	1636.33
326.58	1705.96
326.79	1708.01
327.00	1607.66
327.22	1701.86
327.43	1697.77
327.64	1630.18
327.85	1720.29
328.07	1742.82
328.28	1779.68
328.49	1654.76
328.70	1640.42
328.92	1687.53
329.13	1673.19
329.34	1699.81
329.55	1701.86
329.76	1787.88
329.98	1607.66
330.19	1849.32
330.40	1667.05
330.61	1710.05
330.83	1730.53
331.04	1644.52
331.25	1734.63
331.46	1695.72
331.68	1675.24
331.89	1742.82
332.10	1748.97
332.31	1615.85
332.52	1708.01
332.74	1761.25
332.95	1624.04
333.16	1730.53
333.37	1671.14
333.58	1658.85
333.80	1710.05
334.01	1730.53
334.22	1634.28
334.43	1726.44
334.64	1656.81
334.86	1613.80
335.07	1630.18
335.28	1812.45
335.49	1576.94
335.70	1708.01
335.92	1783.78
336.13	1871.84
336.34	1783.78
336.55	1628.14
336.76	1738.73
336.98	1628.14
337.19	1687.53
337.40	1779.68
337.61	1898.47
337.82	1665.00
338.04	1794.02
338.25	1525.74
338.46	1665.00
338.67	1648.61
338.88	1665.00
339.09	1624.04
339.31	1665.00
339.52	1593.32
339.73	1662.95
339.94	1632.23
340.15	1720.29
340.36	1658.85
340.58	1705.96
340.79	1589.22
341.00	1720.29
341.21	1705.96
341.42	1830.88
341.63	1705.96
341.85	1712.10
342.06	1650.66
342.27	1681.38
342.48	1755.11
342.69	1654.76
342.90	1732.58
343.12	1699.81
343.33	1705.96
343.54	1814.50
343.75	1724.39
343.96	1673.19
344.17	1626.09
344.38	1710.05
344.60	1681.38
344.81	1640.42
345.02	1716.20
345.23	1742.82
345.44	1736.68
345.65	1779.68
345.86	1742.82
346.07	1683.43
346.29	1683.43
346.50	1712.10
346.71	1681.38
346.92	1689.57
347.13	1908.71
347.34	1665.00
347.55	1695.72
347.76	1726.44
347.98	1636.33
348.19	1667.05
348.40	1777.64
348.61	1673.19
348.82	1755.11
349.03	1718.25
349.24	1673.19
349.45	1863.65
349.66	1613.80
349.88	1712.10
350.09	1662.95
350.30	1691.62
350.51	1703.91
350.72	1681.38
350.93	1687.53
351.14	1724.39
351.35	1779.68
351.56	1636.33
351.77	1628.14
351.99	1751.01
352.20	1705.96
352.41	1748.97
352.62	1593.32
352.83	1785.83
353.04	1701.86
353.25	1556.46
353.46	1740.77
353.67	1771.49
353.88	1583.08
354.09	1675.24
354.30	1669.09
354.52	1650.66
354.73	1669.09
354.94	1716.20
355.15	1714.15
355.36	1804.26
355.57	1669.09
355.78	1724.39
355.99	1667.05
356.20	1621.99
356.41	1724.39
356.62	1669.09
356.83	1740.77
357.04	1781.73
357.25	1593.32
357.46	1605.61
357.68	1642.47
357.89	1683.43
358.10	1644.52
358.31	1599.46
358.52	1640.42
358.73	1691.62
358.94	1626.09
359.15	1732.58
359.36	1675.24
359.57	1644.52
359.78	1636.33
359.99	1746.92
360.20	1652.71
360.41	1644.52
360.62	1701.86
360.83	1744.87
361.04	1599.46
361.25	1708.01
361.46	1791.97
361.67	1769.44
361.88	1714.15
362.09	1703.91
362.30	1662.95
362.51	1652.71
362.72	1705.96
362.93	1804.26
363.14	1669.09
363.35	1732.58
363.56	1562.60
363.78	1701.86
363.99	1746.92
364.20	1681.38
364.41	1753.06
364.62	1796.07
364.83	1685.48
365.04	1665.00
365.25	1718.25
365.46	1763.30
365.67	1640.42
365.88	1607.66
366.09	1679.33
366.30	1665.00
366.51	1732.58
366.72	1708.01
366.93	1738.73
367.14	1767.40
367.35	1691.62
367.56	1689.57
367.77	1763.30
367.98	1677.29
368.18	1751.01
368.39	1787.88
368.60	1626.09
368.81	1732.58
369.02	1681.38
369.23	1656.81
369.44	1675.24
369.65	1677.29
369.86	1765.35
370.07	1712.10
370.28	1617.90
370.49	1740.77
370.70	1781.73
370.91	1630.18
371.12	1615.85
371.33	1773.54
371.54	1697.77
371.75	1824.74
371.96	1638.38
372.17	1806.31
372.38	1751.01
372.59	1705.96
372.80	1726.44
373.01	1689.57
373.22	1693.67
373.43	1763.30
373.64	1613.80
373.85	1783.78
374.06	1718.25
374.26	1705.96
374.47	1716.20
374.68	1781.73
374.89	1660.90
375.10	1695.72
375.31	1812.45
375.52	1732.58
375.73	1648.61
375.94	1708.01
376.15	1736.68
376.36	1675.24
376.57	1705.96
376.78	1626.09
376.99	1738.73
377.20	1732.58
377.40	1693.67
377.61	1824.74
377.82	1697.77
378.03	1771.49
378.24	1775.59
378.45	1695.72
378.66	1689.57
378.87	1630.18
379.08	1597.42
379.29	1720.29
379.50	1837.03
379.71	1730.53
379.91	1726.44
380.12	1693.67
380.33	1701.86
380.54	1677.29
380.75	1693.67
380.96	1722.34
381.17	1779.68
381.38	1701.86
381.59	1742.82
381.80	1601.51
382.00	1841.12
382.21	1681.38
382.42	1798.12
382.63	1830.88
382.84	1757.16
383.05	1748.97
383.26	1853.41
383.47	1658.85
383.68	1736.68
383.88	1798.12
384.09	1646.57
384.30	1828.84
384.51	1732.58
384.72	1640.42
384.93	1677.29
385.14	1683.43
385.35	1693.67
385.55	1609.70
385.76	1806.31
385.97	1751.01
386.18	1636.33
386.39	1728.49
386.60	1732.58
386.81	1628.14
387.02	1603.56
387.22	1646.57
387.43	1644.52
387.64	1744.87
387.85	1884.13
388.06	2209.76
388.27	4216.77
388.48	6746.01
388.68	8181.64
388.89	9633.64
389.10	9633.64
389.31	8505.21
389.52	7557.00
389.73	6477.73
389.93	6293.41
390.14	5984.16
390.35	5130.16
390.56	4695.99
390.77	3858.37
390.98	3127.25
391.18	2564.06
391.39	2105.31
391.60	1828.84
391.81	1791.97
392.02	1773.54
392.23	1861.60
392.43	1734.63
392.64	1699.81
392.85	1722.34
393.06	1755.11
393.27	1642.47
393.47	1656.81
393.68	1720.29
393.89	1660.90
394.10	1826.79
394.31	1638.38
394.52	1638.38
394.72	1740.77
394.93	1814.50
395.14	1665.00
395.35	1705.96
395.56	1669.09
395.76	1708.01
395.97	1722.34
396.18	1886.18
396.39	1834.98
396.60	2062.30
396.80	1937.38
397.01	1822.69
397.22	1847.27
397.43	1791.97
397.64	1693.67
397.84	1761.25
398.05	1869.80
398.26	1757.16
398.47	1718.25
398.67	1726.44
398.88	1732.58
399.09	1761.25
399.30	1667.05
399.51	1726.44
399.71	1654.76
399.92	1662.95
400.13	1736.68
400.34	1710.05
400.54	1656.81
400.75	1783.78
400.96	1710.05
401.17	1789.92
401.37	1667.05
401.58	1783.78
401.79	1697.77
402.00	1951.71
402.21	1968.10
402.41	2029.54
402.62	1953.76
402.83	1996.77
403.04	1986.53
403.24	2035.68
403.45	1877.99
403.66	1943.52
403.87	1845.22
404.07	1884.13
404.28	1900.52
404.49	1918.95
404.70	1726.44
404.90	1796.07
405.11	1742.82
405.32	1763.30
405.52	1703.91
405.73	1648.61
405.94	1685.48
406.15	1685.48
406.35	1738.73
406.56	1691.62
406.77	1759.21
406.98	1724.39
407.18	1648.61
407.39	1812.45
407.60	1757.16
407.80	1812.45
408.01	1656.81
408.22	1722.34
408.43	1695.72
408.63	1720.29
408.84	1671.14
409.05	1781.73
409.25	1656.81
409.46	1662.95
409.67	1734.63
409.88	1679.33
410.08	1685.48
410.29	1658.85
410.50	1718.25
410.70	1759.21
410.91	1738.73
411.12	1724.39
411.32	1648.61
411.53	1665.00
411.74	1828.84
411.95	1773.54
412.15	1773.54
412.36	1730.53
412.57	1687.53
412.77	1763.30
412.98	1771.49
413.19	1671.14
413.39	1716.20
413.60	1730.53
413.81	1791.97
414.01	1644.52
414.22	1800.16
414.43	1806.31
414.63	1621.99
414.84	1794.02
415.05	1677.29
415.25	1677.29
415.46	1841.12
415.67	1669.09
415.87	1748.97
416.08	1640.42
416.29	1742.82
416.49	1730.53
416.70	1703.91
416.91	1667.05
417.11	1703.91
417.32	1814.50
417.53	1689.57
417.73	1687.53
417.94	1710.05
418.15	1726.44
418.35	1748.97
418.56	1773.54
418.77	1812.45
418.97	1679.33
419.18	1703.91
419.38	1642.47
419.59	1730.53
419.80	1824.74
420.00	1665.00
420.21	1730.53
420.42	1730.53
420.62	1679.33
420.83	1644.52
421.04	1699.81
421.24	1662.95
421.45	1708.01
421.65	1742.82
421.86	1699.81
422.07	1785.83
422.27	1740.77
422.48	1796.07
422.69	1736.68
422.89	1746.92
423.10	1644.52
423.30	1675.24
423.51	1738.73
423.72	1683.43
423.92	1746.92
424.13	1621.99
424.33	1703.91
424.54	1716.20
424.75	1687.53
424.95	1775.59
425.16	1746.92
425.36	1675.24
425.57	1728.49
425.78	1771.49
425.98	1755.11
426.19	1640.42
426.39	1685.48
426.60	1652.71
426.81	1808.36
427.01	1701.86
427.22	1667.05
427.42	1656.81
427.63	1593.32
427.83	1806.31
428.04	1822.69
428.25	1800.16
428.45	1781.73
428.66	1787.88
428.86	1683.43
429.07	1738.73
429.28	1714.15
429.48	1654.76
429.69	1648.61
429.89	1767.40
430.10	1617.90
430.30	1812.45
430.51	1724.39
430.71	1615.85
430.92	1726.44
431.13	1673.19
431.33	1710.05
431.54	1755.11
431.74	1781.73
431.95	1880.04
432.15	1593.32
432.36	1714.15
432.56	1822.69
432.77	1814.50
432.98	1902.56
433.18	1710.05
433.39	1691.62
433.59	1685.48
433.80	1742.82
434.00	1822.69
434.21	1712.10
434.41	1636.33
434.62	1837.03
434.82	1658.85
435.03	1646.57
435.23	1771.49
435.44	1546.22
435.64	1656.81
435.85	1689.57
436.06	1751.01
436.26	1767.40
436.47	1685.48
436.67	1646.57
436.88	1697.77
437.08	1746.92
437.29	1761.25
437.49	1740.77
437.70	1796.07
437.90	1753.06
438.11	1908.71
438.31	1837.03
438.52	1869.80
438.72	1820.64
438.93	1888.23
439.13	1820.64
439.34	1798.12
439.54	1679.33
439.75	1779.68
439.95	1781.73
440.16	1638.38
440.36	1738.73
440.57	1740.77
440.77	1730.53
440.98	1662.95
441.18	1765.35
441.39	1665.00
441.59	1648.61
441.80	1791.97
442.00	1730.53
442.21	1730.53
442.41	1693.67
442.62	1783.78
442.82	1662.95
443.02	1665.00
443.23	1689.57
443.43	1697.77
443.64	1794.02
443.84	1708.01
444.05	1714.15
444.25	1773.54
444.46	1671.14
444.66	1710.05
444.87	1816.55
445.07	1634.28
445.28	1732.58
445.48	1783.78
445.69	1738.73
445.89	1908.71
446.09	1720.29
446.30	2007.01
446.50	2615.26
446.71	3649.48
446.91	4259.78
447.12	4755.38
447.32	4917.17
447.53	4231.10
447.73	3971.01
447.93	3508.17
448.14	3305.42
448.34	3162.06
448.55	2951.12
448.75	2887.64
448.96	2727.89
449.16	2451.42
449.36	2217.95
449.57	2084.83
449.77	1894.37
449.98	1771.49
450.18	1843.17
450.39	1753.06
450.59	1746.92
450.79	1683.43
451.00	1675.24
451.20	1824.74
451.41	1671.14
451.61	1789.92
451.81	1742.82
452.02	1728.49
452.22	1763.30
452.43	1679.33
452.63	1738.73
