SpectraSuite Data File
++++++++++++++++++++++++++++++++++++
Date: Mon Jun 06 13:09:37 CEST 2016
User: root
Dark Spectrum Present: No
Reference Spectrum Present: No
Number of Sampled Component Spectra: 1
Spectrometers: USB4C02835
Integration Time (usec): 100000 (USB4C02835)
Spectra Averaged: 1 (USB4C02835)
Boxcar Smoothing: 0 (USB4C02835)
Correct for Electrical Dark: No (USB4C02835)
Strobe/Lamp Enabled: No (USB4C02835)
Correct for Detector Non-linearity: No (USB4C02835)
Correct for Stray Light: No (USB4C02835)
Number of Pixels in Processed Spectrum: 3648
>>>>>Begin Processed Spectral Data<<<<<
177.47	1445.87
177.69	1445.87
177.91	1445.87
178.13	1402.86
178.36	1566.70
178.58	1642.47
178.80	1740.77
179.02	1669.09
179.24	1624.04
179.46	1675.24
179.68	1736.68
179.90	1624.04
180.13	1705.96
180.35	1669.09
180.57	1652.71
180.79	1751.01
181.01	1718.25
181.23	1710.05
181.45	1728.49
181.67	1681.38
181.90	1814.50
182.12	1701.86
182.34	1624.04
182.56	1683.43
182.78	1689.57
183.00	1626.09
183.22	1689.57
183.44	1646.57
183.66	1787.88
183.89	1841.12
184.11	1691.62
184.33	1742.82
184.55	1732.58
184.77	1703.91
184.99	1708.01
185.21	1705.96
185.43	1863.65
185.65	1708.01
185.87	1675.24
186.10	1808.36
186.32	1834.98
186.54	1724.39
186.76	1730.53
186.98	1732.58
187.20	1761.25
187.42	1667.05
187.64	1705.96
187.86	1718.25
188.08	1806.31
188.30	1710.05
188.52	1689.57
188.75	1789.92
188.97	1683.43
189.19	1665.00
189.41	1640.42
189.63	1730.53
189.85	1730.53
190.07	1630.18
190.29	1671.14
190.51	1712.10
190.73	1533.93
190.95	1767.40
191.17	1816.55
191.39	1675.24
191.61	1677.29
191.84	1636.33
192.06	1689.57
192.28	1675.24
192.50	1859.56
192.72	1755.11
192.94	1658.85
193.16	1705.96
193.38	1746.92
193.60	1576.94
193.82	1621.99
194.04	1753.06
194.26	1701.86
194.48	1736.68
194.70	1710.05
194.92	1652.71
195.14	1812.45
195.36	1650.66
195.58	1722.34
195.80	1728.49
196.02	1710.05
196.24	1714.15
196.46	1619.94
196.69	1658.85
196.91	1834.98
197.13	1697.77
197.35	1675.24
197.57	1673.19
197.79	1804.26
198.01	1701.86
198.23	1777.64
198.45	1742.82
198.67	1621.99
198.89	1662.95
199.11	1724.39
199.33	1679.33
199.55	1650.66
199.77	1708.01
199.99	1808.36
200.21	1736.68
200.43	1687.53
200.65	1609.70
200.87	1570.79
201.09	1693.67
201.31	1665.00
201.53	1734.63
201.75	1671.14
201.97	1767.40
202.19	1667.05
202.41	1751.01
202.63	1802.21
202.85	1705.96
203.07	1701.86
203.29	1648.61
203.51	1624.04
203.73	1609.70
203.95	1880.04
204.17	1732.58
204.39	1695.72
204.61	1714.15
204.83	1601.51
205.05	1746.92
205.27	1806.31
205.49	1783.78
205.71	1685.48
205.93	1607.66
206.15	1675.24
206.37	1703.91
206.59	1738.73
206.81	1607.66
207.03	1538.02
207.25	1624.04
207.47	1732.58
207.69	1681.38
207.91	1757.16
208.13	1755.11
208.34	1654.76
208.56	1583.08
208.78	1710.05
209.00	1646.57
209.22	1714.15
209.44	1759.21
209.66	1687.53
209.88	1712.10
210.10	1675.24
210.32	1738.73
210.54	1716.20
210.76	1581.03
210.98	1767.40
211.20	1581.03
211.42	1849.32
211.64	1783.78
211.86	1753.06
212.08	1767.40
212.30	1708.01
212.52	1779.68
212.74	1652.71
212.96	1751.01
213.17	1771.49
213.39	1718.25
213.61	1814.50
213.83	1779.68
214.05	1656.81
214.27	1755.11
214.49	1699.81
214.71	1665.00
214.93	1656.81
215.15	1740.77
215.37	1730.53
215.59	1634.28
215.81	1691.62
216.03	1787.88
216.24	1732.58
216.46	1671.14
216.68	1693.67
216.90	1687.53
217.12	1744.87
217.34	1697.77
217.56	1734.63
217.78	1751.01
218.00	1695.72
218.22	1671.14
218.44	1652.71
218.66	1746.92
218.87	1837.03
219.09	1673.19
219.31	1710.05
219.53	1789.92
219.75	1646.57
219.97	1710.05
220.19	1779.68
220.41	1662.95
220.63	1716.20
220.85	1720.29
221.06	1607.66
221.28	1800.16
221.50	1734.63
221.72	1732.58
221.94	1613.80
222.16	1701.86
222.38	1759.21
222.60	1734.63
222.82	1716.20
223.03	1703.91
223.25	1705.96
223.47	1767.40
223.69	1859.56
223.91	1777.64
224.13	1677.29
224.35	1652.71
224.57	1816.55
224.78	1689.57
225.00	1574.89
225.22	1683.43
225.44	1730.53
225.66	1683.43
225.88	1693.67
226.10	1712.10
226.32	1667.05
226.53	1720.29
226.75	1640.42
226.97	1644.52
227.19	1695.72
227.41	1673.19
227.63	1619.94
227.85	1548.26
228.06	1714.15
228.28	1703.91
228.50	1730.53
228.72	1601.51
228.94	1691.62
229.16	1679.33
229.37	1601.51
229.59	1679.33
229.81	1705.96
230.03	1624.04
230.25	1626.09
230.47	1638.38
230.69	1679.33
230.90	1738.73
231.12	1681.38
231.34	1757.16
231.56	1730.53
231.78	1734.63
232.00	1734.63
232.21	1667.05
232.43	1691.62
232.65	1587.18
232.87	1755.11
233.09	1634.28
233.30	1640.42
233.52	1794.02
233.74	1658.85
233.96	1679.33
234.18	1669.09
234.40	1675.24
234.61	1783.78
234.83	1646.57
235.05	1646.57
235.27	1814.50
235.49	1832.93
235.70	1746.92
235.92	1708.01
236.14	1718.25
236.36	1914.85
236.58	1701.86
236.79	1730.53
237.01	1726.44
237.23	1673.19
237.45	1724.39
237.67	1681.38
237.88	1763.30
238.10	1816.55
238.32	1687.53
238.54	1642.47
238.76	1660.90
238.97	1619.94
239.19	1626.09
239.41	1730.53
239.63	1742.82
239.85	1636.33
240.06	1665.00
240.28	1665.00
240.50	1742.82
240.72	1703.91
240.93	1658.85
241.15	1767.40
241.37	1646.57
241.59	1800.16
241.81	1673.19
242.02	1708.01
242.24	1796.07
242.46	1808.36
242.68	1630.18
242.89	1687.53
243.11	1710.05
243.33	1601.51
243.55	1701.86
243.76	1755.11
243.98	1691.62
244.20	1714.15
244.42	1691.62
244.64	1759.21
244.85	1660.90
245.07	1644.52
245.29	1771.49
245.51	1718.25
245.72	1705.96
245.94	1789.92
246.16	1740.77
246.38	1787.88
246.59	1677.29
246.81	1658.85
247.03	1705.96
247.24	1587.18
247.46	1677.29
247.68	1683.43
247.90	1693.67
248.11	1667.05
248.33	1783.78
248.55	1636.33
248.77	1708.01
248.98	1757.16
249.20	1779.68
249.42	1652.71
249.64	1710.05
249.85	1701.86
250.07	1615.85
250.29	1720.29
250.50	1746.92
250.72	1550.31
250.94	1675.24
251.16	1810.40
251.37	1755.11
251.59	1697.77
251.81	1716.20
252.02	1714.15
252.24	1583.08
252.46	1736.68
252.68	1667.05
252.89	1671.14
253.11	1576.94
253.33	1746.92
253.54	1789.92
253.76	1630.18
253.98	1660.90
254.20	1673.19
254.41	1607.66
254.63	1669.09
254.85	1619.94
255.06	1662.95
255.28	1734.63
255.50	1687.53
255.71	1656.81
255.93	1630.18
256.15	1669.09
256.36	1789.92
256.58	1609.70
256.80	1667.05
257.02	1722.34
257.23	1658.85
257.45	1642.47
257.67	1728.49
257.88	1658.85
258.10	1671.14
258.32	1734.63
258.53	1746.92
258.75	1744.87
258.97	1652.71
259.18	1646.57
259.40	1746.92
259.62	1804.26
259.83	1744.87
260.05	1722.34
260.27	1984.48
260.48	1785.83
260.70	1658.85
260.92	1742.82
261.13	1650.66
261.35	1759.21
261.57	1683.43
261.78	1640.42
262.00	1624.04
262.22	1701.86
262.43	1603.56
262.65	1673.19
262.86	1712.10
263.08	1781.73
263.30	1656.81
263.51	1562.60
263.73	1634.28
263.95	1767.40
264.16	1574.89
264.38	1650.66
264.60	1708.01
264.81	1671.14
265.03	1828.84
265.25	1751.01
265.46	1615.85
265.68	1751.01
265.89	1744.87
266.11	1658.85
266.33	1685.48
266.54	1763.30
266.76	1738.73
266.98	1708.01
267.19	1783.78
267.41	1675.24
267.62	1669.09
267.84	1597.42
268.06	1708.01
268.27	1728.49
268.49	1751.01
268.70	1763.30
268.92	1671.14
269.14	1634.28
269.35	1626.09
269.57	1665.00
269.79	1673.19
270.00	1605.61
270.22	1763.30
270.43	1689.57
270.65	1540.07
270.87	1744.87
271.08	1701.86
271.30	1677.29
271.51	1691.62
271.73	1697.77
271.95	1757.16
272.16	1703.91
272.38	1740.77
272.59	1669.09
272.81	1785.83
273.02	1726.44
273.24	1755.11
273.46	1730.53
273.67	1626.09
273.89	1681.38
274.10	1660.90
274.32	1734.63
274.54	1730.53
274.75	1769.44
274.97	1699.81
275.18	1826.79
275.40	1697.77
275.61	1681.38
275.83	1722.34
276.05	1689.57
276.26	1624.04
276.48	1722.34
276.69	1677.29
276.91	1634.28
277.12	1732.58
277.34	1736.68
277.55	1751.01
277.77	1701.86
277.99	1720.29
278.20	1574.89
278.42	1677.29
278.63	1624.04
278.85	1712.10
279.06	1591.27
279.28	1742.82
279.49	1791.97
279.71	1777.64
279.93	1759.21
280.14	1705.96
280.36	1687.53
280.57	1785.83
280.79	1761.25
281.00	1535.98
281.22	1656.81
281.43	1746.92
281.65	1562.60
281.86	1646.57
282.08	1695.72
282.29	1779.68
282.51	1644.52
282.73	1640.42
282.94	1658.85
283.16	1714.15
283.37	1785.83
283.59	1677.29
283.80	1734.63
284.02	1683.43
284.23	1812.45
284.45	1667.05
284.66	1669.09
284.88	1656.81
285.09	1703.91
285.31	1771.49
285.52	1685.48
285.74	1617.90
285.95	1765.35
286.17	1720.29
286.38	1712.10
286.60	1703.91
286.81	1652.71
287.03	1730.53
287.24	1656.81
287.46	1697.77
287.67	1691.62
287.89	1791.97
288.10	1667.05
288.32	1763.30
288.53	1841.12
288.75	1658.85
288.96	1769.44
289.18	1658.85
289.39	1724.39
289.61	1779.68
289.82	1761.25
290.04	1791.97
290.25	1671.14
290.47	1611.75
290.68	1701.86
290.90	1751.01
291.11	1712.10
291.33	1705.96
291.54	1669.09
291.76	1656.81
291.97	1687.53
292.18	1757.16
292.40	1703.91
292.61	1667.05
292.83	1810.40
293.04	1796.07
293.26	1648.61
293.47	1677.29
293.69	1712.10
293.90	1648.61
294.12	1841.12
294.33	1759.21
294.55	1693.67
294.76	1763.30
294.97	1777.64
295.19	1849.32
295.40	1730.53
295.62	1673.19
295.83	1763.30
296.05	1703.91
296.26	1763.30
296.48	1685.48
296.69	1699.81
296.90	1667.05
297.12	1703.91
297.33	1783.78
297.55	1701.86
297.76	1691.62
297.98	1718.25
298.19	1669.09
298.41	1742.82
298.62	1685.48
298.83	1687.53
299.05	1708.01
299.26	1736.68
299.48	1656.81
299.69	1718.25
299.90	1671.14
300.12	1671.14
300.33	1798.12
300.55	1673.19
300.76	1689.57
300.98	1599.46
301.19	1742.82
301.40	1683.43
301.62	1644.52
301.83	1718.25
302.05	1632.23
302.26	1640.42
302.47	1720.29
302.69	1613.80
302.90	1714.15
303.12	1560.55
303.33	1710.05
303.54	1724.39
303.76	1687.53
303.97	1800.16
304.19	1718.25
304.40	1730.53
304.61	1662.95
304.83	1789.92
305.04	1787.88
305.26	1742.82
305.47	1699.81
305.68	1753.06
305.90	1595.37
306.11	1759.21
306.33	1693.67
306.54	1644.52
306.75	1671.14
306.97	1621.99
307.18	1632.23
307.39	1685.48
307.61	1740.77
307.82	1681.38
308.04	1771.49
308.25	1640.42
308.46	1705.96
308.68	1673.19
308.89	1771.49
309.10	1834.98
309.32	1677.29
309.53	1615.85
309.74	1687.53
309.96	1630.18
310.17	1689.57
310.39	1624.04
310.60	1710.05
310.81	1761.25
311.03	1636.33
311.24	1765.35
311.45	1742.82
311.67	1830.88
311.88	1701.86
312.09	1755.11
312.31	1660.90
312.52	1693.67
312.73	1660.90
312.95	1607.66
313.16	1708.01
313.37	1785.83
313.59	1771.49
313.80	1755.11
314.01	1804.26
314.23	1669.09
314.44	1656.81
314.65	1640.42
314.87	1578.98
315.08	1658.85
315.29	1634.28
315.51	1656.81
315.72	1593.32
315.93	1775.59
316.15	1748.97
316.36	1626.09
316.57	1693.67
316.79	1724.39
317.00	1658.85
317.21	1685.48
317.43	1757.16
317.64	1724.39
317.85	1665.00
318.07	1648.61
318.28	1710.05
318.49	1771.49
318.70	1865.70
318.92	1765.35
319.13	1812.45
319.34	1843.17
319.56	1777.64
319.77	1763.30
319.98	1734.63
320.20	1812.45
320.41	1773.54
320.62	1746.92
320.83	1662.95
321.05	1830.88
321.26	1714.15
321.47	1703.91
321.69	1816.55
321.90	1632.23
322.11	1589.22
322.32	1669.09
322.54	1767.40
322.75	1650.66
322.96	1822.69
323.18	1574.89
323.39	1609.70
323.60	1626.09
323.81	1810.40
324.03	1687.53
324.24	1736.68
324.45	1677.29
324.66	1691.62
324.88	1812.45
325.09	1769.44
325.30	1716.20
325.52	1650.66
325.73	1720.29
325.94	1624.04
326.15	1611.75
326.37	1697.77
326.58	1724.39
326.79	1871.84
327.00	1624.04
327.22	1730.53
327.43	1724.39
327.64	1619.94
327.85	1660.90
328.07	1722.34
328.28	1820.64
328.49	1677.29
328.70	1685.48
328.92	1724.39
329.13	1691.62
329.34	1673.19
329.55	1798.12
329.76	1822.69
329.98	1658.85
330.19	1773.54
330.40	1724.39
330.61	1712.10
330.83	1763.30
331.04	1740.77
331.25	1687.53
331.46	1652.71
331.68	1621.99
331.89	1736.68
332.10	1767.40
332.31	1615.85
332.52	1720.29
332.74	1765.35
332.95	1640.42
333.16	1761.25
333.37	1767.40
333.58	1705.96
333.80	1662.95
334.01	1656.81
334.22	1722.34
334.43	1712.10
334.64	1675.24
334.86	1677.29
335.07	1677.29
335.28	1748.97
335.49	1662.95
335.70	1812.45
335.92	1695.72
336.13	1841.12
336.34	1710.05
336.55	1699.81
336.76	1757.16
336.98	1626.09
337.19	1652.71
337.40	1761.25
337.61	1830.88
337.82	1708.01
338.04	1740.77
338.25	1648.61
338.46	1734.63
338.67	1705.96
338.88	1648.61
339.09	1613.80
339.31	1640.42
339.52	1632.23
339.73	1669.09
339.94	1755.11
340.15	1708.01
340.36	1617.90
340.58	1630.18
340.79	1628.14
341.00	1742.82
341.21	1585.13
341.42	1812.45
341.63	1587.18
341.85	1689.57
342.06	1728.49
342.27	1634.28
342.48	1791.97
342.69	1720.29
342.90	1724.39
343.12	1759.21
343.33	1744.87
343.54	1705.96
343.75	1849.32
343.96	1658.85
344.17	1638.38
344.38	1730.53
344.60	1646.57
344.81	1695.72
345.02	1734.63
345.23	1687.53
345.44	1771.49
345.65	1705.96
345.86	1683.43
346.07	1685.48
346.29	1699.81
346.50	1724.39
346.71	1673.19
346.92	1767.40
347.13	1845.22
347.34	1673.19
347.55	1714.15
347.76	1742.82
347.98	1677.29
348.19	1638.38
348.40	1714.15
348.61	1722.34
348.82	1871.84
349.03	1677.29
349.24	1642.47
349.45	1826.79
349.66	1673.19
349.88	1675.24
350.09	1701.86
350.30	1722.34
350.51	1656.81
350.72	1632.23
350.93	1695.72
351.14	1689.57
351.35	1808.36
351.56	1695.72
351.77	1736.68
351.99	1720.29
352.20	1765.35
352.41	1808.36
352.62	1615.85
352.83	1708.01
353.04	1701.86
353.25	1662.95
353.46	1751.01
353.67	1734.63
353.88	1589.22
354.09	1675.24
354.30	1626.09
354.52	1742.82
354.73	1724.39
354.94	1636.33
355.15	1675.24
355.36	1814.50
355.57	1628.14
355.78	1738.73
355.99	1697.77
356.20	1728.49
356.41	1755.11
356.62	1781.73
356.83	1656.81
357.04	1789.92
357.25	1667.05
357.46	1689.57
357.68	1626.09
357.89	1640.42
358.10	1656.81
358.31	1699.81
358.52	1708.01
358.73	1683.43
358.94	1654.76
359.15	1570.79
359.36	1714.15
359.57	1771.49
359.78	1761.25
359.99	1689.57
360.20	1617.90
360.41	1695.72
360.62	1722.34
360.83	1714.15
361.04	1703.91
361.25	1720.29
361.46	1841.12
361.67	1746.92
361.88	1718.25
362.09	1763.30
362.30	1689.57
362.51	1636.33
362.72	1705.96
362.93	1730.53
363.14	1716.20
363.35	1669.09
363.56	1705.96
363.78	1775.59
363.99	1718.25
364.20	1677.29
364.41	1742.82
364.62	1787.88
364.83	1685.48
365.04	1722.34
365.25	1708.01
365.46	1802.21
365.67	1630.18
365.88	1617.90
366.09	1748.97
366.30	1667.05
366.51	1765.35
366.72	1687.53
366.93	1769.44
367.14	1734.63
367.35	1777.64
367.56	1732.58
367.77	1783.78
367.98	1658.85
368.18	1746.92
368.39	1771.49
368.60	1691.62
368.81	1767.40
369.02	1753.06
369.23	1722.34
369.44	1630.18
369.65	1701.86
369.86	1652.71
370.07	1652.71
370.28	1683.43
370.49	1689.57
370.70	1673.19
370.91	1601.51
371.12	1589.22
371.33	1761.25
371.54	1703.91
371.75	1748.97
371.96	1607.66
372.17	1677.29
372.38	1671.14
372.59	1779.68
372.80	1689.57
373.01	1665.00
373.22	1712.10
373.43	1730.53
373.64	1646.57
373.85	1716.20
374.06	1794.02
374.26	1757.16
374.47	1693.67
374.68	1802.21
374.89	1675.24
375.10	1634.28
375.31	1761.25
375.52	1654.76
375.73	1691.62
375.94	1607.66
376.15	1773.54
376.36	1705.96
376.57	1695.72
376.78	1718.25
376.99	1699.81
377.20	1757.16
377.40	1708.01
377.61	1886.18
377.82	1716.20
378.03	1705.96
378.24	1691.62
378.45	1695.72
378.66	1675.24
378.87	1644.52
379.08	1683.43
379.29	1736.68
379.50	1783.78
379.71	1646.57
379.91	1798.12
380.12	1697.77
380.33	1734.63
380.54	1748.97
380.75	1726.44
380.96	1738.73
381.17	1730.53
381.38	1640.42
381.59	1714.15
381.80	1660.90
382.00	1847.27
382.21	1751.01
382.42	1841.12
382.63	1873.89
382.84	1781.73
383.05	1789.92
383.26	1845.22
383.47	1710.05
383.68	1759.21
383.88	1761.25
384.09	1726.44
384.30	1800.16
384.51	1736.68
384.72	1681.38
384.93	1609.70
385.14	1740.77
385.35	1761.25
385.55	1640.42
385.76	1794.02
385.97	1677.29
386.18	1593.32
386.39	1685.48
386.60	1636.33
386.81	1804.26
387.02	1587.18
387.22	1654.76
387.43	1806.31
387.64	1802.21
387.85	1804.26
388.06	2234.33
388.27	4249.54
388.48	6662.04
388.68	8316.80
388.89	9559.92
389.10	9852.78
389.31	8525.69
389.52	7718.79
389.73	6719.39
389.93	6266.78
390.14	5769.13
390.35	5222.32
390.56	4673.46
390.77	3809.22
390.98	3094.48
391.18	2389.98
391.39	2168.80
391.60	1945.57
391.81	1830.88
392.02	1699.81
392.23	1867.75
392.43	1714.15
392.64	1767.40
392.85	1683.43
393.06	1832.93
393.27	1767.40
393.47	1662.95
393.68	1687.53
393.89	1665.00
394.10	1697.77
394.31	1617.90
394.52	1589.22
394.72	1695.72
394.93	1775.59
395.14	1589.22
395.35	1714.15
395.56	1650.66
395.76	1656.81
395.97	1841.12
396.18	1861.60
396.39	1871.84
396.60	2037.73
396.80	1839.08
397.01	1853.41
397.22	1781.73
397.43	1843.17
397.64	1671.14
397.84	1751.01
398.05	1810.40
398.26	1734.63
398.47	1828.84
398.67	1765.35
398.88	1722.34
399.09	1800.16
399.30	1693.67
399.51	1697.77
399.71	1611.75
399.92	1724.39
400.13	1687.53
400.34	1681.38
400.54	1699.81
400.75	1824.74
400.96	1794.02
401.17	1796.07
401.37	1767.40
401.58	1687.53
401.79	1746.92
402.00	1951.71
402.21	2074.59
402.41	1986.53
402.62	1957.86
402.83	2025.44
403.04	2011.11
403.24	2074.59
403.45	1802.21
403.66	1884.13
403.87	1937.38
404.07	1880.04
404.28	1910.75
404.49	1904.61
404.70	1791.97
404.90	1783.78
405.11	1669.09
405.32	1837.03
405.52	1730.53
405.73	1708.01
405.94	1634.28
406.15	1667.05
406.35	1693.67
406.56	1736.68
406.77	1779.68
406.98	1695.72
407.18	1730.53
407.39	1806.31
407.60	1662.95
407.80	1699.81
408.01	1681.38
408.22	1720.29
408.43	1642.47
408.63	1738.73
408.84	1757.16
409.05	1730.53
409.25	1701.86
409.46	1648.61
409.67	1730.53
409.88	1708.01
410.08	1718.25
410.29	1718.25
410.50	1826.79
410.70	1697.77
410.91	1605.61
411.12	1685.48
411.32	1628.14
411.53	1722.34
411.74	1763.30
411.95	1771.49
412.15	1742.82
412.36	1871.84
412.57	1701.86
412.77	1865.70
412.98	1718.25
413.19	1634.28
413.39	1685.48
413.60	1748.97
413.81	1810.40
414.01	1665.00
414.22	1789.92
414.43	1761.25
414.63	1687.53
414.84	1708.01
415.05	1660.90
415.25	1640.42
415.46	1738.73
415.67	1722.34
415.87	1710.05
416.08	1767.40
416.29	1566.70
416.49	1751.01
416.70	1710.05
416.91	1607.66
417.11	1681.38
417.32	1734.63
417.53	1789.92
417.73	1759.21
417.94	1656.81
418.15	1667.05
418.35	1708.01
418.56	1761.25
418.77	1857.51
418.97	1734.63
419.18	1697.77
419.38	1566.70
419.59	1726.44
419.80	1849.32
420.00	1673.19
420.21	1732.58
420.42	1726.44
420.62	1677.29
420.83	1712.10
421.04	1679.33
421.24	1652.71
421.45	1746.92
421.65	1716.20
421.86	1665.00
422.07	1775.59
422.27	1708.01
422.48	1744.87
422.69	1632.23
422.89	1642.47
423.10	1665.00
423.30	1619.94
423.51	1722.34
423.72	1761.25
423.92	1736.68
424.13	1660.90
424.33	1671.14
424.54	1748.97
424.75	1701.86
424.95	1843.17
425.16	1708.01
425.36	1646.57
425.57	1746.92
425.78	1746.92
425.98	1753.06
426.19	1603.56
426.39	1667.05
426.60	1726.44
426.81	1861.60
427.01	1652.71
427.22	1665.00
427.42	1585.13
427.63	1640.42
427.83	1718.25
428.04	1781.73
428.25	1759.21
428.45	1820.64
428.66	1769.44
428.86	1665.00
429.07	1734.63
429.28	1806.31
429.48	1685.48
429.69	1609.70
429.89	1695.72
430.10	1720.29
430.30	1773.54
430.51	1689.57
430.71	1636.33
430.92	1726.44
431.13	1716.20
431.33	1748.97
431.54	1763.30
431.74	1755.11
431.95	1746.92
432.15	1613.80
432.36	1736.68
432.56	1730.53
432.77	1826.79
432.98	1826.79
433.18	1798.12
433.39	1781.73
433.59	1685.48
433.80	1804.26
434.00	1841.12
434.21	1771.49
434.41	1665.00
434.62	1806.31
434.82	1683.43
435.03	1642.47
435.23	1708.01
435.44	1562.60
435.64	1669.09
435.85	1720.29
436.06	1763.30
436.26	1734.63
436.47	1730.53
436.67	1722.34
436.88	1779.68
437.08	1800.16
437.29	1757.16
437.49	1748.97
437.70	1783.78
437.90	1708.01
438.11	1869.80
438.31	1771.49
438.52	1806.31
438.72	1888.23
438.93	1824.74
439.13	1755.11
439.34	1796.07
439.54	1732.58
439.75	1759.21
439.95	1783.78
440.16	1804.26
440.36	1724.39
440.57	1746.92
440.77	1710.05
440.98	1789.92
441.18	1757.16
441.39	1662.95
441.59	1708.01
441.80	1787.88
442.00	1759.21
442.21	1787.88
442.41	1650.66
442.62	1791.97
442.82	1656.81
443.02	1744.87
443.23	1769.44
443.43	1734.63
443.64	1751.01
443.84	1628.14
444.05	1845.22
444.25	1726.44
444.46	1724.39
444.66	1757.16
444.87	1789.92
445.07	1632.23
445.28	1802.21
445.48	1861.60
445.69	1746.92
445.89	1873.89
446.09	1814.50
446.30	2033.63
446.50	2633.69
446.71	3772.36
446.91	4351.93
447.12	4743.10
447.32	4919.22
447.53	4294.59
447.73	3801.03
447.93	3530.70
448.14	3452.88
448.34	3100.62
448.55	2930.64
448.75	2893.78
448.96	2535.39
449.16	2396.12
449.36	2299.87
449.57	2054.11
449.77	1933.28
449.98	1718.25
450.18	1804.26
450.39	1808.36
450.59	1818.60
450.79	1744.87
451.00	1755.11
451.20	1779.68
451.41	1751.01
451.61	1718.25
451.81	1708.01
452.02	1769.44
452.22	1761.25
452.43	1665.00
452.63	1667.05
