SpectraSuite Data File
++++++++++++++++++++++++++++++++++++
Date: Mon Jun 06 14:21:37 CEST 2016
User: root
Dark Spectrum Present: No
Reference Spectrum Present: No
Number of Sampled Component Spectra: 1
Spectrometers: USB4C02835
Integration Time (usec): 100000 (USB4C02835)
Spectra Averaged: 1 (USB4C02835)
Boxcar Smoothing: 0 (USB4C02835)
Correct for Electrical Dark: No (USB4C02835)
Strobe/Lamp Enabled: No (USB4C02835)
Correct for Detector Non-linearity: No (USB4C02835)
Correct for Stray Light: No (USB4C02835)
Number of Pixels in Processed Spectrum: 3648
>>>>>Begin Processed Spectral Data<<<<<
177.47	1472.49
177.69	1472.49
177.91	1472.49
178.13	1470.44
178.36	1462.25
178.58	1662.95
178.80	1724.39
179.02	1638.38
179.24	1691.62
179.46	1671.14
179.68	1779.68
179.90	1646.57
180.13	1662.95
180.35	1650.66
180.57	1669.09
180.79	1705.96
181.01	1705.96
181.23	1710.05
181.45	1777.64
181.67	1714.15
181.90	1759.21
182.12	1609.70
182.34	1644.52
182.56	1746.92
182.78	1759.21
183.00	1660.90
183.22	1705.96
183.44	1646.57
183.66	1882.08
183.89	1810.40
184.11	1665.00
184.33	1738.73
184.55	1746.92
184.77	1656.81
184.99	1691.62
185.21	1687.53
185.43	1855.46
185.65	1613.80
185.87	1705.96
186.10	1818.60
186.32	1777.64
186.54	1736.68
186.76	1656.81
186.98	1716.20
187.20	1718.25
187.42	1693.67
187.64	1691.62
187.86	1771.49
188.08	1716.20
188.30	1740.77
188.52	1736.68
188.75	1722.34
188.97	1699.81
189.19	1716.20
189.41	1714.15
189.63	1724.39
189.85	1611.75
190.07	1609.70
190.29	1621.99
190.51	1755.11
190.73	1615.85
190.95	1753.06
191.17	1644.52
191.39	1615.85
191.61	1665.00
191.84	1703.91
192.06	1697.77
192.28	1644.52
192.50	1925.09
192.72	1685.48
192.94	1615.85
193.16	1761.25
193.38	1726.44
193.60	1609.70
193.82	1687.53
194.04	1783.78
194.26	1732.58
194.48	1748.97
194.70	1599.46
194.92	1714.15
195.14	1744.87
195.36	1605.61
195.58	1722.34
195.80	1726.44
196.02	1685.48
196.24	1718.25
196.46	1712.10
196.69	1665.00
196.91	1873.89
197.13	1718.25
197.35	1646.57
197.57	1761.25
197.79	1773.54
198.01	1718.25
198.23	1712.10
198.45	1671.14
198.67	1673.19
198.89	1748.97
199.11	1761.25
199.33	1595.37
199.55	1574.89
199.77	1669.09
199.99	1736.68
200.21	1601.51
200.43	1812.45
200.65	1671.14
200.87	1548.26
201.09	1675.24
201.31	1687.53
201.53	1712.10
201.75	1660.90
201.97	1718.25
202.19	1755.11
202.41	1779.68
202.63	1800.16
202.85	1798.12
203.07	1738.73
203.29	1695.72
203.51	1665.00
203.73	1691.62
203.95	1877.99
204.17	1687.53
204.39	1658.85
204.61	1667.05
204.83	1722.34
205.05	1718.25
205.27	1728.49
205.49	1705.96
205.71	1708.01
205.93	1609.70
206.15	1728.49
206.37	1679.33
206.59	1656.81
206.81	1648.61
207.03	1640.42
207.25	1648.61
207.47	1738.73
207.69	1572.84
207.91	1708.01
208.13	1789.92
208.34	1683.43
208.56	1646.57
208.78	1765.35
209.00	1667.05
209.22	1683.43
209.44	1736.68
209.66	1656.81
209.88	1718.25
210.10	1636.33
210.32	1650.66
210.54	1777.64
210.76	1712.10
210.98	1812.45
211.20	1603.56
211.42	1712.10
211.64	1796.07
211.86	1708.01
212.08	1697.77
212.30	1763.30
212.52	1671.14
212.74	1687.53
212.96	1763.30
213.17	1669.09
213.39	1789.92
213.61	1877.99
213.83	1681.38
214.05	1660.90
214.27	1802.21
214.49	1624.04
214.71	1654.76
214.93	1732.58
215.15	1738.73
215.37	1669.09
215.59	1624.04
215.81	1634.28
216.03	1763.30
216.24	1640.42
216.46	1710.05
216.68	1683.43
216.90	1779.68
217.12	1746.92
217.34	1652.71
217.56	1742.82
217.78	1732.58
218.00	1744.87
218.22	1720.29
218.44	1669.09
218.66	1722.34
218.87	1714.15
219.09	1595.37
219.31	1732.58
219.53	1701.86
219.75	1683.43
219.97	1660.90
220.19	1687.53
220.41	1722.34
220.63	1779.68
220.85	1751.01
221.06	1665.00
221.28	1716.20
221.50	1761.25
221.72	1703.91
221.94	1714.15
222.16	1695.72
222.38	1736.68
222.60	1744.87
222.82	1628.14
223.03	1767.40
223.25	1617.90
223.47	1763.30
223.69	1847.27
223.91	1751.01
224.13	1722.34
224.35	1626.09
224.57	1736.68
224.78	1718.25
225.00	1630.18
225.22	1740.77
225.44	1769.44
225.66	1748.97
225.88	1611.75
226.10	1771.49
226.32	1632.23
226.53	1787.88
226.75	1685.48
226.97	1730.53
227.19	1724.39
227.41	1732.58
227.63	1693.67
227.85	1617.90
228.06	1708.01
228.28	1759.21
228.50	1765.35
228.72	1630.18
228.94	1689.57
229.16	1564.65
229.37	1689.57
229.59	1746.92
229.81	1699.81
230.03	1667.05
230.25	1578.98
230.47	1611.75
230.69	1595.37
230.90	1779.68
231.12	1658.85
231.34	1656.81
231.56	1771.49
231.78	1705.96
232.00	1755.11
232.21	1685.48
232.43	1689.57
232.65	1570.79
232.87	1689.57
233.09	1599.46
233.30	1644.52
233.52	1671.14
233.74	1697.77
233.96	1695.72
234.18	1714.15
234.40	1732.58
234.61	1859.56
234.83	1630.18
235.05	1605.61
235.27	1800.16
235.49	1775.59
235.70	1769.44
235.92	1730.53
236.14	1771.49
236.36	1857.51
236.58	1662.95
236.79	1757.16
237.01	1728.49
237.23	1628.14
237.45	1834.98
237.67	1691.62
237.88	1720.29
238.10	1804.26
238.32	1683.43
238.54	1669.09
238.76	1693.67
238.97	1656.81
239.19	1695.72
239.41	1720.29
239.63	1798.12
239.85	1703.91
240.06	1796.07
240.28	1691.62
240.50	1734.63
240.72	1742.82
240.93	1640.42
241.15	1767.40
241.37	1708.01
241.59	1726.44
241.81	1728.49
242.02	1681.38
242.24	1675.24
242.46	1677.29
242.68	1652.71
242.89	1697.77
243.11	1767.40
243.33	1665.00
243.55	1722.34
243.76	1779.68
243.98	1673.19
244.20	1740.77
244.42	1630.18
244.64	1665.00
244.85	1650.66
245.07	1624.04
245.29	1800.16
245.51	1765.35
245.72	1763.30
245.94	1759.21
246.16	1703.91
246.38	1763.30
246.59	1693.67
246.81	1701.86
247.03	1630.18
247.24	1650.66
247.46	1652.71
247.68	1691.62
247.90	1658.85
248.11	1685.48
248.33	1740.77
248.55	1708.01
248.77	1724.39
248.98	1740.77
249.20	1791.97
249.42	1757.16
249.64	1708.01
249.85	1681.38
250.07	1716.20
250.29	1753.06
250.50	1740.77
250.72	1650.66
250.94	1742.82
251.16	1859.56
251.37	1730.53
251.59	1751.01
251.81	1796.07
252.02	1828.84
252.24	1665.00
252.46	1845.22
252.68	1667.05
252.89	1693.67
253.11	1617.90
253.33	1798.12
253.54	1773.54
253.76	1624.04
253.98	1665.00
254.20	1658.85
254.41	1589.22
254.63	1728.49
254.85	1591.27
255.06	1708.01
255.28	1675.24
255.50	1701.86
255.71	1652.71
255.93	1642.47
256.15	1693.67
256.36	1738.73
256.58	1673.19
256.80	1744.87
257.02	1742.82
257.23	1673.19
257.45	1665.00
257.67	1796.07
257.88	1689.57
258.10	1775.59
258.32	1703.91
258.53	1695.72
258.75	1808.36
258.97	1705.96
259.18	1603.56
259.40	1691.62
259.62	1816.55
259.83	1871.84
260.05	1740.77
260.27	1972.19
260.48	1763.30
260.70	1636.33
260.92	1662.95
261.13	1746.92
261.35	1736.68
261.57	1812.45
261.78	1619.94
262.00	1675.24
262.22	1716.20
262.43	1662.95
262.65	1712.10
262.86	1787.88
263.08	1806.31
263.30	1748.97
263.51	1654.76
263.73	1619.94
263.95	1859.56
264.16	1691.62
264.38	1677.29
264.60	1748.97
264.81	1611.75
265.03	1804.26
265.25	1785.83
265.46	1687.53
265.68	1781.73
265.89	1722.34
266.11	1613.80
266.33	1705.96
266.54	1695.72
266.76	1716.20
266.98	1656.81
267.19	1802.21
267.41	1738.73
267.62	1732.58
267.84	1642.47
268.06	1703.91
268.27	1710.05
268.49	1755.11
268.70	1824.74
268.92	1652.71
269.14	1695.72
269.35	1597.42
269.57	1662.95
269.79	1693.67
270.00	1650.66
270.22	1722.34
270.43	1673.19
270.65	1597.42
270.87	1695.72
271.08	1705.96
271.30	1695.72
271.51	1705.96
271.73	1712.10
271.95	1773.54
272.16	1730.53
272.38	1654.76
272.59	1703.91
272.81	1722.34
273.02	1701.86
273.24	1652.71
273.46	1777.64
273.67	1636.33
273.89	1650.66
274.10	1720.29
274.32	1734.63
274.54	1710.05
274.75	1681.38
274.97	1687.53
275.18	1769.44
275.40	1740.77
275.61	1740.77
275.83	1697.77
276.05	1662.95
276.26	1720.29
276.48	1755.11
276.69	1644.52
276.91	1656.81
277.12	1802.21
277.34	1708.01
277.55	1720.29
277.77	1695.72
277.99	1665.00
278.20	1640.42
278.42	1609.70
278.63	1669.09
278.85	1691.62
279.06	1689.57
279.28	1685.48
279.49	1724.39
279.71	1751.01
279.93	1734.63
280.14	1650.66
280.36	1697.77
280.57	1744.87
280.79	1712.10
281.00	1722.34
281.22	1714.15
281.43	1837.03
281.65	1570.79
281.86	1615.85
282.08	1759.21
282.29	1789.92
282.51	1658.85
282.73	1730.53
282.94	1642.47
283.16	1755.11
283.37	1755.11
283.59	1611.75
283.80	1746.92
284.02	1701.86
284.23	1738.73
284.45	1658.85
284.66	1675.24
284.88	1652.71
285.09	1791.97
285.31	1699.81
285.52	1693.67
285.74	1624.04
285.95	1765.35
286.17	1691.62
286.38	1755.11
286.60	1665.00
286.81	1656.81
287.03	1673.19
287.24	1693.67
287.46	1746.92
287.67	1609.70
287.89	1791.97
288.10	1742.82
288.32	1714.15
288.53	1771.49
288.75	1656.81
288.96	1728.49
289.18	1669.09
289.39	1771.49
289.61	1693.67
289.82	1806.31
290.04	1863.65
290.25	1630.18
290.47	1687.53
290.68	1779.68
290.90	1789.92
291.11	1621.99
291.33	1779.68
291.54	1671.14
291.76	1634.28
291.97	1648.61
292.18	1779.68
292.40	1787.88
292.61	1652.71
292.83	1843.17
293.04	1675.24
293.26	1755.11
293.47	1640.42
293.69	1671.14
293.90	1724.39
294.12	1851.36
294.33	1701.86
294.55	1675.24
294.76	1796.07
294.97	1771.49
295.19	1812.45
295.40	1708.01
295.62	1751.01
295.83	1626.09
296.05	1652.71
296.26	1810.40
296.48	1701.86
296.69	1714.15
296.90	1638.38
297.12	1810.40
297.33	1738.73
297.55	1691.62
297.76	1740.77
297.98	1832.93
298.19	1611.75
298.41	1654.76
298.62	1728.49
298.83	1773.54
299.05	1757.16
299.26	1673.19
299.48	1632.23
299.69	1761.25
299.90	1722.34
300.12	1652.71
300.33	1724.39
300.55	1683.43
300.76	1781.73
300.98	1626.09
301.19	1771.49
301.40	1660.90
301.62	1710.05
301.83	1714.15
302.05	1691.62
302.26	1796.07
302.47	1757.16
302.69	1683.43
302.90	1648.61
303.12	1615.85
303.33	1751.01
303.54	1769.44
303.76	1687.53
303.97	1775.59
304.19	1757.16
304.40	1628.14
304.61	1695.72
304.83	1822.69
305.04	1779.68
305.26	1755.11
305.47	1667.05
305.68	1662.95
305.90	1648.61
306.11	1746.92
306.33	1677.29
306.54	1689.57
306.75	1699.81
306.97	1632.23
307.18	1667.05
307.39	1626.09
307.61	1767.40
307.82	1671.14
308.04	1689.57
308.25	1685.48
308.46	1755.11
308.68	1669.09
308.89	1714.15
309.10	1755.11
309.32	1718.25
309.53	1603.56
309.74	1714.15
309.96	1673.19
310.17	1757.16
310.39	1658.85
310.60	1722.34
310.81	1710.05
311.03	1603.56
311.24	1763.30
311.45	1753.06
311.67	1742.82
311.88	1642.47
312.09	1697.77
312.31	1669.09
312.52	1613.80
312.73	1656.81
312.95	1665.00
313.16	1626.09
313.37	1753.06
313.59	1683.43
313.80	1791.97
314.01	1849.32
314.23	1691.62
314.44	1658.85
314.65	1705.96
314.87	1636.33
315.08	1681.38
315.29	1722.34
315.51	1679.33
315.72	1589.22
315.93	1751.01
316.15	1710.05
316.36	1673.19
316.57	1679.33
316.79	1751.01
317.00	1673.19
317.21	1699.81
317.43	1652.71
317.64	1712.10
317.85	1734.63
318.07	1679.33
318.28	1726.44
318.49	1769.44
318.70	1859.56
318.92	1816.55
319.13	1824.74
319.34	1900.52
319.56	1839.08
319.77	1834.98
319.98	1820.64
320.20	1679.33
320.41	1665.00
320.62	1779.68
320.83	1624.04
321.05	1810.40
321.26	1763.30
321.47	1644.52
321.69	1826.79
321.90	1669.09
322.11	1708.01
322.32	1785.83
322.54	1724.39
322.75	1673.19
322.96	1798.12
323.18	1689.57
323.39	1630.18
323.60	1667.05
323.81	1748.97
324.03	1658.85
324.24	1701.86
324.45	1701.86
324.66	1693.67
324.88	1746.92
325.09	1851.36
325.30	1687.53
325.52	1753.06
325.73	1705.96
325.94	1699.81
326.15	1640.42
326.37	1685.48
326.58	1734.63
326.79	1857.51
327.00	1660.90
327.22	1708.01
327.43	1654.76
327.64	1607.66
327.85	1665.00
328.07	1722.34
328.28	1796.07
328.49	1632.23
328.70	1687.53
328.92	1800.16
329.13	1710.05
329.34	1726.44
329.55	1796.07
329.76	1732.58
329.98	1677.29
330.19	1689.57
330.40	1755.11
330.61	1746.92
330.83	1753.06
331.04	1656.81
331.25	1695.72
331.46	1685.48
331.68	1638.38
331.89	1701.86
332.10	1673.19
332.31	1632.23
332.52	1665.00
332.74	1748.97
332.95	1697.77
333.16	1669.09
333.37	1742.82
333.58	1736.68
333.80	1769.44
334.01	1578.98
334.22	1652.71
334.43	1667.05
334.64	1665.00
334.86	1648.61
335.07	1677.29
335.28	1761.25
335.49	1691.62
335.70	1781.73
335.92	1673.19
336.13	1820.64
336.34	1687.53
336.55	1763.30
336.76	1839.08
336.98	1560.55
337.19	1681.38
337.40	1740.77
337.61	1771.49
337.82	1753.06
338.04	1740.77
338.25	1562.60
338.46	1697.77
338.67	1665.00
338.88	1693.67
339.09	1611.75
339.31	1638.38
339.52	1662.95
339.73	1630.18
339.94	1757.16
340.15	1730.53
340.36	1626.09
340.58	1656.81
340.79	1695.72
341.00	1728.49
341.21	1638.38
341.42	1822.69
341.63	1693.67
341.85	1712.10
342.06	1724.39
342.27	1710.05
342.48	1718.25
342.69	1656.81
342.90	1763.30
343.12	1740.77
343.33	1634.28
343.54	1796.07
343.75	1791.97
343.96	1699.81
344.17	1628.14
344.38	1677.29
344.60	1648.61
344.81	1644.52
345.02	1705.96
345.23	1769.44
345.44	1796.07
345.65	1667.05
345.86	1705.96
346.07	1708.01
346.29	1685.48
346.50	1757.16
346.71	1767.40
346.92	1839.08
347.13	1777.64
347.34	1675.24
347.55	1679.33
347.76	1693.67
347.98	1658.85
348.19	1687.53
348.40	1753.06
348.61	1724.39
348.82	1824.74
349.03	1828.84
349.24	1617.90
349.45	1845.22
349.66	1542.12
349.88	1642.47
350.09	1660.90
350.30	1814.50
350.51	1701.86
350.72	1642.47
350.93	1751.01
351.14	1701.86
351.35	1746.92
351.56	1736.68
351.77	1632.23
351.99	1740.77
352.20	1736.68
352.41	1777.64
352.62	1626.09
352.83	1683.43
353.04	1671.14
353.25	1658.85
353.46	1810.40
353.67	1712.10
353.88	1576.94
354.09	1669.09
354.30	1718.25
354.52	1714.15
354.73	1734.63
354.94	1648.61
355.15	1658.85
355.36	1791.97
355.57	1685.48
355.78	1697.77
355.99	1755.11
356.20	1728.49
356.41	1755.11
356.62	1742.82
356.83	1726.44
357.04	1783.78
357.25	1646.57
357.46	1617.90
357.68	1589.22
357.89	1679.33
358.10	1710.05
358.31	1751.01
358.52	1699.81
358.73	1685.48
358.94	1630.18
359.15	1685.48
359.36	1716.20
359.57	1697.77
359.78	1738.73
359.99	1722.34
360.20	1665.00
360.41	1638.38
360.62	1699.81
360.83	1714.15
361.04	1730.53
361.25	1693.67
361.46	1755.11
361.67	1783.78
361.88	1667.05
362.09	1751.01
362.30	1708.01
362.51	1730.53
362.72	1734.63
362.93	1732.58
363.14	1773.54
363.35	1695.72
363.56	1632.23
363.78	1753.06
363.99	1824.74
364.20	1660.90
364.41	1748.97
364.62	1820.64
364.83	1701.86
365.04	1679.33
365.25	1724.39
365.46	1886.18
365.67	1703.91
365.88	1652.71
366.09	1701.86
366.30	1699.81
366.51	1665.00
366.72	1765.35
366.93	1705.96
367.14	1685.48
367.35	1734.63
367.56	1718.25
367.77	1787.88
367.98	1751.01
368.18	1701.86
368.39	1755.11
368.60	1652.71
368.81	1708.01
369.02	1718.25
369.23	1769.44
369.44	1574.89
369.65	1660.90
369.86	1724.39
370.07	1748.97
370.28	1697.77
370.49	1751.01
370.70	1789.92
370.91	1583.08
371.12	1675.24
371.33	1761.25
371.54	1634.28
371.75	1812.45
371.96	1626.09
372.17	1679.33
372.38	1714.15
372.59	1671.14
372.80	1732.58
373.01	1658.85
373.22	1673.19
373.43	1730.53
373.64	1640.42
373.85	1728.49
374.06	1810.40
374.26	1667.05
374.47	1708.01
374.68	1683.43
374.89	1773.54
375.10	1640.42
375.31	1789.92
375.52	1695.72
375.73	1720.29
375.94	1654.76
376.15	1722.34
376.36	1660.90
376.57	1746.92
376.78	1675.24
376.99	1716.20
377.20	1767.40
377.40	1574.89
377.61	1720.29
377.82	1699.81
378.03	1789.92
378.24	1677.29
378.45	1740.77
378.66	1710.05
378.87	1638.38
379.08	1566.70
379.29	1652.71
379.50	1734.63
379.71	1648.61
379.91	1695.72
380.12	1718.25
380.33	1656.81
380.54	1771.49
380.75	1658.85
380.96	1751.01
381.17	1779.68
381.38	1718.25
381.59	1779.68
381.80	1720.29
382.00	1751.01
382.21	1757.16
382.42	1880.04
382.63	1804.26
382.84	1736.68
383.05	1701.86
383.26	1816.55
383.47	1724.39
383.68	1783.78
383.88	1738.73
384.09	1724.39
384.30	1859.56
384.51	1705.96
384.72	1689.57
384.93	1576.94
385.14	1654.76
385.35	1771.49
385.55	1673.19
385.76	1726.44
385.97	1675.24
386.18	1642.47
386.39	1685.48
386.60	1648.61
386.81	1728.49
387.02	1740.77
387.22	1628.14
387.43	1681.38
387.64	1779.68
387.85	1865.70
388.06	2250.72
388.27	4331.45
388.48	6791.06
388.68	8169.35
388.89	9658.22
389.10	9875.31
389.31	8580.99
389.52	7638.92
389.73	6836.12
389.93	6422.43
390.14	5842.85
390.35	5130.16
390.56	4544.44
390.77	3774.41
390.98	3053.52
391.18	2521.05
391.39	2146.27
391.60	1871.84
391.81	1855.46
392.02	1609.70
392.23	1871.84
392.43	1740.77
392.64	1775.59
392.85	1718.25
393.06	1761.25
393.27	1667.05
393.47	1679.33
393.68	1716.20
393.89	1734.63
394.10	1736.68
394.31	1726.44
394.52	1687.53
394.72	1751.01
394.93	1781.73
395.14	1646.57
395.35	1732.58
395.56	1677.29
395.76	1689.57
395.97	1796.07
396.18	1714.15
396.39	1843.17
396.60	1929.19
396.80	1968.10
397.01	1877.99
397.22	1814.50
397.43	1834.98
397.64	1728.49
397.84	1816.55
398.05	1873.89
398.26	1771.49
398.47	1794.02
398.67	1869.80
398.88	1714.15
399.09	1755.11
399.30	1693.67
399.51	1650.66
399.71	1646.57
399.92	1644.52
400.13	1712.10
400.34	1632.23
400.54	1658.85
400.75	1828.84
400.96	1751.01
401.17	1834.98
401.37	1673.19
401.58	1712.10
401.79	1740.77
402.00	1923.04
402.21	2019.30
402.41	1947.62
402.62	2023.39
402.83	1970.15
403.04	1972.19
403.24	2058.21
403.45	1781.73
403.66	1886.18
403.87	1920.99
404.07	1920.99
404.28	1939.43
404.49	1828.84
404.70	1746.92
404.90	1843.17
405.11	1736.68
405.32	1767.40
405.52	1632.23
405.73	1632.23
405.94	1691.62
406.15	1619.94
406.35	1751.01
406.56	1710.05
406.77	1660.90
406.98	1812.45
407.18	1673.19
407.39	1802.21
407.60	1705.96
407.80	1789.92
408.01	1687.53
408.22	1742.82
408.43	1621.99
408.63	1812.45
408.84	1691.62
409.05	1701.86
409.25	1683.43
409.46	1609.70
409.67	1650.66
409.88	1656.81
410.08	1740.77
410.29	1654.76
410.50	1748.97
410.70	1753.06
410.91	1665.00
411.12	1687.53
411.32	1708.01
411.53	1652.71
411.74	1732.58
411.95	1804.26
412.15	1839.08
412.36	1826.79
412.57	1789.92
412.77	1767.40
412.98	1712.10
413.19	1730.53
413.39	1730.53
413.60	1769.44
413.81	1732.58
414.01	1644.52
414.22	1746.92
414.43	1701.86
414.63	1624.04
414.84	1771.49
415.05	1796.07
415.25	1587.18
415.46	1767.40
415.67	1671.14
415.87	1744.87
416.08	1740.77
416.29	1619.94
416.49	1738.73
416.70	1685.48
416.91	1724.39
417.11	1722.34
417.32	1759.21
417.53	1757.16
417.73	1730.53
417.94	1730.53
418.15	1767.40
418.35	1775.59
418.56	1712.10
418.77	1841.12
418.97	1673.19
419.18	1654.76
419.38	1601.51
419.59	1675.24
419.80	1777.64
420.00	1681.38
420.21	1759.21
420.42	1789.92
420.62	1654.76
420.83	1611.75
421.04	1652.71
421.24	1732.58
421.45	1732.58
421.65	1753.06
421.86	1761.25
422.07	1728.49
422.27	1726.44
422.48	1716.20
422.69	1595.37
422.89	1691.62
423.10	1667.05
423.30	1640.42
423.51	1667.05
423.72	1689.57
423.92	1761.25
424.13	1703.91
424.33	1757.16
424.54	1753.06
424.75	1728.49
424.95	1759.21
425.16	1730.53
425.36	1665.00
425.57	1705.96
425.78	1779.68
425.98	1712.10
426.19	1648.61
426.39	1634.28
426.60	1753.06
426.81	1726.44
427.01	1652.71
427.22	1667.05
427.42	1626.09
427.63	1679.33
427.83	1775.59
428.04	1777.64
428.25	1791.97
428.45	1712.10
428.66	1736.68
428.86	1648.61
429.07	1687.53
429.28	1708.01
429.48	1789.92
429.69	1648.61
429.89	1675.24
430.10	1695.72
430.30	1787.88
430.51	1761.25
430.71	1701.86
430.92	1636.33
431.13	1757.16
431.33	1777.64
431.54	1751.01
431.74	1779.68
431.95	1781.73
432.15	1693.67
432.36	1738.73
432.56	1732.58
432.77	1785.83
432.98	1757.16
433.18	1757.16
433.39	1642.47
433.59	1691.62
433.80	1894.37
434.00	1880.04
434.21	1662.95
434.41	1656.81
434.62	1834.98
434.82	1621.99
435.03	1740.77
435.23	1746.92
435.44	1650.66
435.64	1730.53
435.85	1699.81
436.06	1769.44
436.26	1802.21
436.47	1730.53
436.67	1681.38
436.88	1689.57
437.08	1806.31
437.29	1796.07
437.49	1705.96
437.70	1744.87
437.90	1726.44
438.11	1853.41
438.31	1767.40
438.52	1861.60
438.72	1869.80
438.93	1937.38
439.13	1742.82
439.34	1798.12
439.54	1697.77
439.75	1871.84
439.95	1769.44
440.16	1697.77
440.36	1744.87
440.57	1695.72
440.77	1705.96
440.98	1724.39
441.18	1751.01
441.39	1630.18
441.59	1730.53
441.80	1832.93
442.00	1781.73
442.21	1757.16
442.41	1734.63
442.62	1769.44
442.82	1710.05
443.02	1730.53
443.23	1736.68
443.43	1744.87
443.64	1802.21
443.84	1722.34
444.05	1765.35
444.25	1730.53
444.46	1746.92
444.66	1785.83
444.87	1877.99
445.07	1552.36
445.28	1751.01
445.48	1773.54
445.69	1722.34
445.89	1875.94
446.09	1781.73
446.30	2031.58
446.50	2680.79
446.71	3788.74
446.91	4356.03
447.12	4753.34
447.32	4786.10
447.53	4276.16
447.73	3868.61
447.93	3567.56
448.14	3352.52
448.34	3241.93
448.55	2873.30
448.75	2844.63
448.96	2781.14
449.16	2410.46
449.36	2336.73
449.57	2037.73
449.77	1925.09
449.98	1798.12
450.18	1859.56
450.39	1837.03
450.59	1742.82
450.79	1648.61
451.00	1697.77
451.20	1740.77
451.41	1677.29
451.61	1726.44
451.81	1732.58
452.02	1726.44
452.22	1751.01
452.43	1681.38
452.63	1609.70
