SpectraSuite Data File
++++++++++++++++++++++++++++++++++++
Date: Mon Jun 06 14:42:17 CEST 2016
User: root
Dark Spectrum Present: No
Reference Spectrum Present: No
Number of Sampled Component Spectra: 1
Spectrometers: USB4C02835
Integration Time (usec): 100000 (USB4C02835)
Spectra Averaged: 1 (USB4C02835)
Boxcar Smoothing: 0 (USB4C02835)
Correct for Electrical Dark: No (USB4C02835)
Strobe/Lamp Enabled: No (USB4C02835)
Correct for Detector Non-linearity: No (USB4C02835)
Correct for Stray Light: No (USB4C02835)
Number of Pixels in Processed Spectrum: 3648
>>>>>Begin Processed Spectral Data<<<<<
177.47	1462.25
177.69	1462.25
177.91	1462.25
178.13	1447.91
178.36	1439.72
178.58	1673.19
178.80	1675.24
179.02	1652.71
179.24	1697.77
179.46	1636.33
179.68	1644.52
179.90	1734.63
180.13	1642.47
180.35	1638.38
180.57	1681.38
180.79	1732.58
181.01	1681.38
181.23	1769.44
181.45	1755.11
181.67	1730.53
181.90	1734.63
182.12	1689.57
182.34	1685.48
182.56	1716.20
182.78	1640.42
183.00	1730.53
183.22	1675.24
183.44	1679.33
183.66	1830.88
183.89	1802.21
184.11	1734.63
184.33	1728.49
184.55	1808.36
184.77	1697.77
184.99	1722.34
185.21	1722.34
185.43	1816.55
185.65	1652.71
185.87	1697.77
186.10	1861.60
186.32	1845.22
186.54	1695.72
186.76	1773.54
186.98	1740.77
187.20	1689.57
187.42	1748.97
187.64	1683.43
187.86	1697.77
188.08	1722.34
188.30	1650.66
188.52	1660.90
188.75	1734.63
188.97	1794.02
189.19	1714.15
189.41	1679.33
189.63	1705.96
189.85	1693.67
190.07	1583.08
190.29	1652.71
190.51	1755.11
190.73	1662.95
190.95	1724.39
191.17	1671.14
191.39	1654.76
191.61	1658.85
191.84	1615.85
192.06	1669.09
192.28	1597.42
192.50	1918.95
192.72	1730.53
192.94	1665.00
193.16	1771.49
193.38	1742.82
193.60	1640.42
193.82	1712.10
194.04	1736.68
194.26	1669.09
194.48	1763.30
194.70	1581.03
194.92	1683.43
195.14	1800.16
195.36	1697.77
195.58	1681.38
195.80	1701.86
196.02	1644.52
196.24	1644.52
196.46	1665.00
196.69	1601.51
196.91	1794.02
197.13	1701.86
197.35	1667.05
197.57	1761.25
197.79	1716.20
198.01	1652.71
198.23	1656.81
198.45	1757.16
198.67	1642.47
198.89	1699.81
199.11	1716.20
199.33	1677.29
199.55	1519.59
199.77	1722.34
199.99	1781.73
200.21	1593.32
200.43	1789.92
200.65	1667.05
200.87	1581.03
201.09	1730.53
201.31	1675.24
201.53	1705.96
201.75	1685.48
201.97	1705.96
202.19	1701.86
202.41	1783.78
202.63	1837.03
202.85	1695.72
203.07	1634.28
203.29	1634.28
203.51	1662.95
203.73	1658.85
203.95	1818.60
204.17	1685.48
204.39	1728.49
204.61	1767.40
204.83	1634.28
205.05	1708.01
205.27	1718.25
205.49	1767.40
205.71	1712.10
205.93	1642.47
206.15	1716.20
206.37	1636.33
206.59	1695.72
206.81	1624.04
207.03	1617.90
207.25	1613.80
207.47	1730.53
207.69	1699.81
207.91	1742.82
208.13	1777.64
208.34	1722.34
208.56	1697.77
208.78	1722.34
209.00	1636.33
209.22	1638.38
209.44	1714.15
209.66	1630.18
209.88	1617.90
210.10	1675.24
210.32	1667.05
210.54	1814.50
210.76	1712.10
210.98	1669.09
211.20	1617.90
211.42	1667.05
211.64	1794.02
211.86	1697.77
212.08	1734.63
212.30	1691.62
212.52	1695.72
212.74	1701.86
212.96	1638.38
213.17	1761.25
213.39	1718.25
213.61	1765.35
213.83	1748.97
214.05	1710.05
214.27	1740.77
214.49	1611.75
214.71	1611.75
214.93	1818.60
215.15	1726.44
215.37	1710.05
215.59	1591.27
215.81	1781.73
216.03	1769.44
216.24	1728.49
216.46	1636.33
216.68	1693.67
216.90	1699.81
217.12	1681.38
217.34	1673.19
217.56	1732.58
217.78	1783.78
218.00	1746.92
218.22	1726.44
218.44	1705.96
218.66	1685.48
218.87	1814.50
219.09	1714.15
219.31	1726.44
219.53	1712.10
219.75	1695.72
219.97	1732.58
220.19	1728.49
220.41	1683.43
220.63	1785.83
220.85	1753.06
221.06	1656.81
221.28	1794.02
221.50	1748.97
221.72	1708.01
221.94	1697.77
222.16	1652.71
222.38	1722.34
222.60	1691.62
222.82	1683.43
223.03	1720.29
223.25	1609.70
223.47	1771.49
223.69	1806.31
223.91	1648.61
224.13	1662.95
224.35	1689.57
224.57	1806.31
224.78	1695.72
225.00	1617.90
225.22	1689.57
225.44	1710.05
225.66	1757.16
225.88	1691.62
226.10	1753.06
226.32	1726.44
226.53	1791.97
226.75	1705.96
226.97	1753.06
227.19	1630.18
227.41	1652.71
227.63	1603.56
227.85	1646.57
228.06	1675.24
228.28	1685.48
228.50	1755.11
228.72	1718.25
228.94	1660.90
229.16	1576.94
229.37	1658.85
229.59	1636.33
229.81	1804.26
230.03	1765.35
230.25	1621.99
230.47	1677.29
230.69	1632.23
230.90	1722.34
231.12	1681.38
231.34	1638.38
231.56	1748.97
231.78	1654.76
232.00	1802.21
232.21	1656.81
232.43	1640.42
232.65	1597.42
232.87	1736.68
233.09	1619.94
233.30	1652.71
233.52	1665.00
233.74	1714.15
233.96	1648.61
234.18	1765.35
234.40	1656.81
234.61	1818.60
234.83	1708.01
235.05	1632.23
235.27	1814.50
235.49	1796.07
235.70	1701.86
235.92	1765.35
236.14	1712.10
236.36	1798.12
236.58	1587.18
236.79	1746.92
237.01	1730.53
237.23	1685.48
237.45	1837.03
237.67	1654.76
237.88	1667.05
238.10	1761.25
238.32	1632.23
238.54	1626.09
238.76	1695.72
238.97	1628.14
239.19	1685.48
239.41	1693.67
239.63	1755.11
239.85	1662.95
240.06	1681.38
240.28	1673.19
240.50	1804.26
240.72	1740.77
240.93	1751.01
241.15	1761.25
241.37	1789.92
241.59	1779.68
241.81	1703.91
242.02	1673.19
242.24	1660.90
242.46	1751.01
242.68	1621.99
242.89	1701.86
243.11	1775.59
243.33	1730.53
243.55	1671.14
243.76	1693.67
243.98	1652.71
244.20	1740.77
244.42	1630.18
244.64	1630.18
244.85	1632.23
245.07	1705.96
245.29	1722.34
245.51	1693.67
245.72	1757.16
245.94	1787.88
246.16	1718.25
246.38	1726.44
246.59	1681.38
246.81	1619.94
247.03	1632.23
247.24	1671.14
247.46	1636.33
247.68	1669.09
247.90	1640.42
248.11	1624.04
248.33	1791.97
248.55	1681.38
248.77	1703.91
248.98	1818.60
249.20	1830.88
249.42	1699.81
249.64	1787.88
249.85	1679.33
250.07	1662.95
250.29	1732.58
250.50	1765.35
250.72	1603.56
250.94	1718.25
251.16	1755.11
251.37	1724.39
251.59	1650.66
251.81	1759.21
252.02	1761.25
252.24	1675.24
252.46	1732.58
252.68	1626.09
252.89	1681.38
253.11	1634.28
253.33	1812.45
253.54	1820.64
253.76	1648.61
253.98	1693.67
254.20	1773.54
254.41	1652.71
254.63	1673.19
254.85	1665.00
255.06	1691.62
255.28	1714.15
255.50	1675.24
255.71	1669.09
255.93	1701.86
256.15	1697.77
256.36	1755.11
256.58	1650.66
256.80	1763.30
257.02	1677.29
257.23	1724.39
257.45	1658.85
257.67	1718.25
257.88	1658.85
258.10	1681.38
258.32	1740.77
258.53	1601.51
258.75	1843.17
258.97	1626.09
259.18	1701.86
259.40	1712.10
259.62	1779.68
259.83	1773.54
260.05	1728.49
260.27	2011.11
260.48	1744.87
260.70	1660.90
260.92	1740.77
261.13	1677.29
261.35	1685.48
261.57	1701.86
261.78	1607.66
262.00	1632.23
262.22	1755.11
262.43	1693.67
262.65	1712.10
262.86	1744.87
263.08	1847.27
263.30	1765.35
263.51	1583.08
263.73	1718.25
263.95	1746.92
264.16	1607.66
264.38	1652.71
264.60	1634.28
264.81	1681.38
265.03	1718.25
265.25	1753.06
265.46	1677.29
265.68	1691.62
265.89	1761.25
266.11	1613.80
266.33	1714.15
266.54	1763.30
266.76	1710.05
266.98	1798.12
267.19	1802.21
267.41	1701.86
267.62	1722.34
267.84	1667.05
268.06	1671.14
268.27	1660.90
268.49	1771.49
268.70	1724.39
268.92	1611.75
269.14	1646.57
269.35	1660.90
269.57	1705.96
269.79	1648.61
270.00	1673.19
270.22	1816.55
270.43	1640.42
270.65	1634.28
270.87	1667.05
271.08	1783.78
271.30	1705.96
271.51	1710.05
271.73	1710.05
271.95	1738.73
272.16	1673.19
272.38	1681.38
272.59	1753.06
272.81	1685.48
273.02	1695.72
273.24	1763.30
273.46	1759.21
273.67	1669.09
273.89	1701.86
274.10	1646.57
274.32	1722.34
274.54	1757.16
274.75	1757.16
274.97	1630.18
275.18	1691.62
275.40	1689.57
275.61	1685.48
275.83	1681.38
276.05	1677.29
276.26	1712.10
276.48	1744.87
276.69	1646.57
276.91	1656.81
277.12	1773.54
277.34	1691.62
277.55	1761.25
277.77	1691.62
277.99	1697.77
278.20	1634.28
278.42	1605.61
278.63	1603.56
278.85	1689.57
279.06	1656.81
279.28	1769.44
279.49	1748.97
279.71	1740.77
279.93	1638.38
280.14	1701.86
280.36	1697.77
280.57	1730.53
280.79	1781.73
281.00	1574.89
281.22	1658.85
281.43	1742.82
281.65	1529.83
281.86	1683.43
282.08	1728.49
282.29	1724.39
282.51	1669.09
282.73	1619.94
282.94	1615.85
283.16	1738.73
283.37	1796.07
283.59	1718.25
283.80	1748.97
284.02	1705.96
284.23	1740.77
284.45	1644.52
284.66	1628.14
284.88	1593.32
285.09	1681.38
285.31	1697.77
285.52	1648.61
285.74	1591.27
285.95	1794.02
286.17	1675.24
286.38	1789.92
286.60	1665.00
286.81	1562.60
287.03	1681.38
287.24	1675.24
287.46	1720.29
287.67	1691.62
287.89	1769.44
288.10	1693.67
288.32	1751.01
288.53	1746.92
288.75	1728.49
288.96	1720.29
289.18	1662.95
289.39	1714.15
289.61	1730.53
289.82	1871.84
290.04	1865.70
290.25	1609.70
290.47	1710.05
290.68	1597.42
290.90	1708.01
291.11	1574.89
291.33	1773.54
291.54	1630.18
291.76	1640.42
291.97	1759.21
292.18	1746.92
292.40	1746.92
292.61	1636.33
292.83	1859.56
293.04	1732.58
293.26	1742.82
293.47	1691.62
293.69	1587.18
293.90	1710.05
294.12	1796.07
294.33	1724.39
294.55	1648.61
294.76	1775.59
294.97	1820.64
295.19	1812.45
295.40	1714.15
295.62	1730.53
295.83	1761.25
296.05	1679.33
296.26	1699.81
296.48	1683.43
296.69	1699.81
296.90	1691.62
297.12	1732.58
297.33	1841.12
297.55	1619.94
297.76	1730.53
297.98	1765.35
298.19	1685.48
298.41	1708.01
298.62	1570.79
298.83	1859.56
299.05	1732.58
299.26	1693.67
299.48	1660.90
299.69	1708.01
299.90	1646.57
300.12	1607.66
300.33	1740.77
300.55	1644.52
300.76	1671.14
300.98	1669.09
301.19	1691.62
301.40	1724.39
301.62	1708.01
301.83	1687.53
302.05	1667.05
302.26	1730.53
302.47	1738.73
302.69	1665.00
302.90	1687.53
303.12	1576.94
303.33	1730.53
303.54	1800.16
303.76	1691.62
303.97	1751.01
304.19	1826.79
304.40	1691.62
304.61	1697.77
304.83	1720.29
305.04	1765.35
305.26	1726.44
305.47	1599.46
305.68	1644.52
305.90	1683.43
306.11	1695.72
306.33	1701.86
306.54	1740.77
306.75	1730.53
306.97	1693.67
307.18	1665.00
307.39	1732.58
307.61	1726.44
307.82	1744.87
308.04	1718.25
308.25	1624.04
308.46	1576.94
308.68	1693.67
308.89	1730.53
309.10	1777.64
309.32	1710.05
309.53	1693.67
309.74	1767.40
309.96	1712.10
310.17	1765.35
310.39	1636.33
310.60	1796.07
310.81	1689.57
311.03	1595.37
311.24	1693.67
311.45	1691.62
311.67	1796.07
311.88	1681.38
312.09	1599.46
312.31	1705.96
312.52	1638.38
312.73	1671.14
312.95	1632.23
313.16	1652.71
313.37	1685.48
313.59	1746.92
313.80	1732.58
314.01	1806.31
314.23	1665.00
314.44	1681.38
314.65	1673.19
314.87	1746.92
315.08	1740.77
315.29	1708.01
315.51	1671.14
315.72	1603.56
315.93	1814.50
316.15	1718.25
316.36	1660.90
316.57	1638.38
316.79	1771.49
317.00	1751.01
317.21	1775.59
317.43	1619.94
317.64	1763.30
317.85	1642.47
318.07	1630.18
318.28	1726.44
318.49	1839.08
318.70	1902.56
318.92	1791.97
319.13	1771.49
319.34	1820.64
319.56	1751.01
319.77	1765.35
319.98	1738.73
320.20	1789.92
320.41	1732.58
320.62	1660.90
320.83	1576.94
321.05	1812.45
321.26	1665.00
321.47	1738.73
321.69	1814.50
321.90	1650.66
322.11	1589.22
322.32	1710.05
322.54	1818.60
322.75	1638.38
322.96	1796.07
323.18	1603.56
323.39	1593.32
323.60	1630.18
323.81	1699.81
324.03	1628.14
324.24	1726.44
324.45	1738.73
324.66	1673.19
324.88	1716.20
325.09	1734.63
325.30	1705.96
325.52	1722.34
325.73	1683.43
325.94	1740.77
326.15	1587.18
326.37	1615.85
326.58	1740.77
326.79	1746.92
327.00	1742.82
327.22	1683.43
327.43	1697.77
327.64	1665.00
327.85	1740.77
328.07	1718.25
328.28	1806.31
328.49	1685.48
328.70	1767.40
328.92	1667.05
329.13	1701.86
329.34	1701.86
329.55	1761.25
329.76	1685.48
329.98	1689.57
330.19	1804.26
330.40	1658.85
330.61	1789.92
330.83	1742.82
331.04	1646.57
331.25	1822.69
331.46	1658.85
331.68	1607.66
331.89	1763.30
332.10	1718.25
332.31	1626.09
332.52	1773.54
332.74	1673.19
332.95	1615.85
333.16	1691.62
333.37	1710.05
333.58	1703.91
333.80	1720.29
334.01	1683.43
334.22	1630.18
334.43	1626.09
334.64	1669.09
334.86	1638.38
335.07	1724.39
335.28	1738.73
335.49	1615.85
335.70	1755.11
335.92	1763.30
336.13	1808.36
336.34	1712.10
336.55	1695.72
336.76	1761.25
336.98	1640.42
337.19	1693.67
337.40	1789.92
337.61	1857.51
337.82	1644.52
338.04	1781.73
338.25	1677.29
338.46	1802.21
338.67	1734.63
338.88	1619.94
339.09	1681.38
339.31	1728.49
339.52	1609.70
339.73	1669.09
339.94	1759.21
340.15	1775.59
340.36	1705.96
340.58	1697.77
340.79	1619.94
341.00	1755.11
341.21	1615.85
341.42	1767.40
341.63	1642.47
341.85	1751.01
342.06	1646.57
342.27	1679.33
342.48	1779.68
342.69	1624.04
342.90	1742.82
343.12	1652.71
343.33	1714.15
343.54	1699.81
343.75	1710.05
343.96	1675.24
344.17	1646.57
344.38	1701.86
344.60	1671.14
344.81	1544.17
345.02	1724.39
345.23	1820.64
345.44	1787.88
345.65	1703.91
345.86	1783.78
346.07	1630.18
346.29	1624.04
346.50	1730.53
346.71	1738.73
346.92	1843.17
347.13	1767.40
347.34	1730.53
347.55	1665.00
347.76	1742.82
347.98	1687.53
348.19	1746.92
348.40	1816.55
348.61	1632.23
348.82	1789.92
349.03	1767.40
349.24	1652.71
349.45	1822.69
349.66	1576.94
349.88	1660.90
350.09	1669.09
350.30	1736.68
350.51	1769.44
350.72	1710.05
350.93	1656.81
351.14	1660.90
351.35	1779.68
351.56	1705.96
351.77	1669.09
351.99	1751.01
352.20	1828.84
352.41	1724.39
352.62	1595.37
352.83	1681.38
353.04	1740.77
353.25	1632.23
353.46	1830.88
353.67	1783.78
353.88	1593.32
354.09	1697.77
354.30	1730.53
354.52	1726.44
354.73	1701.86
354.94	1638.38
355.15	1728.49
355.36	1732.58
355.57	1691.62
355.78	1712.10
355.99	1624.04
356.20	1714.15
356.41	1691.62
356.62	1783.78
356.83	1689.57
357.04	1783.78
357.25	1705.96
357.46	1687.53
357.68	1603.56
357.89	1679.33
358.10	1685.48
358.31	1685.48
358.52	1675.24
358.73	1630.18
358.94	1642.47
359.15	1693.67
359.36	1732.58
359.57	1652.71
359.78	1648.61
359.99	1685.48
360.20	1675.24
360.41	1648.61
360.62	1722.34
360.83	1677.29
361.04	1646.57
361.25	1748.97
361.46	1755.11
361.67	1773.54
361.88	1648.61
362.09	1744.87
362.30	1773.54
362.51	1714.15
362.72	1636.33
362.93	1791.97
363.14	1791.97
363.35	1685.48
363.56	1679.33
363.78	1785.83
363.99	1730.53
364.20	1689.57
364.41	1828.84
364.62	1816.55
364.83	1720.29
365.04	1679.33
365.25	1685.48
365.46	1794.02
365.67	1650.66
365.88	1626.09
366.09	1712.10
366.30	1658.85
366.51	1763.30
366.72	1619.94
366.93	1656.81
367.14	1789.92
367.35	1738.73
367.56	1720.29
367.77	1767.40
367.98	1701.86
368.18	1695.72
368.39	1748.97
368.60	1662.95
368.81	1744.87
369.02	1740.77
369.23	1742.82
369.44	1658.85
369.65	1697.77
369.86	1712.10
370.07	1683.43
370.28	1683.43
370.49	1757.16
370.70	1771.49
370.91	1665.00
371.12	1695.72
371.33	1736.68
371.54	1656.81
371.75	1771.49
371.96	1624.04
372.17	1748.97
372.38	1656.81
372.59	1730.53
372.80	1587.18
373.01	1746.92
373.22	1761.25
373.43	1705.96
373.64	1679.33
373.85	1777.64
374.06	1773.54
374.26	1716.20
374.47	1763.30
374.68	1755.11
374.89	1742.82
375.10	1656.81
375.31	1746.92
375.52	1765.35
375.73	1691.62
375.94	1599.46
376.15	1830.88
376.36	1595.37
376.57	1681.38
376.78	1687.53
376.99	1755.11
377.20	1740.77
377.40	1656.81
377.61	1779.68
377.82	1640.42
378.03	1775.59
378.24	1712.10
378.45	1679.33
378.66	1755.11
378.87	1624.04
379.08	1658.85
379.29	1689.57
379.50	1720.29
379.71	1624.04
379.91	1716.20
380.12	1716.20
380.33	1783.78
380.54	1724.39
380.75	1732.58
380.96	1636.33
381.17	1824.74
381.38	1695.72
381.59	1746.92
381.80	1695.72
382.00	1884.13
382.21	1775.59
382.42	1834.98
382.63	1908.71
382.84	1763.30
383.05	1783.78
383.26	1847.27
383.47	1736.68
383.68	1677.29
383.88	1730.53
384.09	1744.87
384.30	1771.49
384.51	1722.34
384.72	1656.81
384.93	1583.08
385.14	1708.01
385.35	1714.15
385.55	1564.65
385.76	1714.15
385.97	1673.19
386.18	1669.09
386.39	1640.42
386.60	1748.97
386.81	1710.05
387.02	1667.05
387.22	1681.38
387.43	1806.31
387.64	1787.88
387.85	1857.51
388.06	2230.24
388.27	4317.12
388.48	6850.46
388.68	8406.91
388.89	9676.65
389.10	9926.50
389.31	8716.16
389.52	7792.52
389.73	6959.00
389.93	6324.13
390.14	5949.35
390.35	5232.56
390.56	4683.70
390.77	3837.89
390.98	3110.86
391.18	2523.10
391.39	2074.59
391.60	1851.36
391.81	1855.46
392.02	1705.96
392.23	1869.80
392.43	1728.49
392.64	1785.83
392.85	1697.77
393.06	1755.11
393.27	1773.54
393.47	1712.10
393.68	1742.82
393.89	1679.33
394.10	1830.88
394.31	1685.48
394.52	1652.71
394.72	1669.09
394.93	1841.12
395.14	1656.81
395.35	1845.22
395.56	1701.86
395.76	1730.53
395.97	1791.97
396.18	1830.88
396.39	1816.55
396.60	2017.25
396.80	1873.89
397.01	1740.77
397.22	1763.30
397.43	1865.70
397.64	1738.73
397.84	1783.78
398.05	1830.88
398.26	1736.68
398.47	1843.17
398.67	1798.12
398.88	1644.52
399.09	1720.29
399.30	1650.66
399.51	1716.20
399.71	1662.95
399.92	1720.29
400.13	1755.11
400.34	1689.57
400.54	1722.34
400.75	1748.97
400.96	1726.44
401.17	1935.33
401.37	1800.16
401.58	1673.19
401.79	1718.25
402.00	1814.50
402.21	2058.21
402.41	1961.95
402.62	2002.91
402.83	2078.69
403.04	1947.62
403.24	2066.40
403.45	1884.13
403.66	1916.90
403.87	1912.80
404.07	1904.61
404.28	1845.22
404.49	1863.65
404.70	1718.25
404.90	1722.34
405.11	1718.25
405.32	1771.49
405.52	1716.20
405.73	1738.73
405.94	1669.09
406.15	1724.39
406.35	1791.97
406.56	1687.53
406.77	1679.33
406.98	1771.49
407.18	1669.09
407.39	1742.82
407.60	1742.82
407.80	1771.49
408.01	1701.86
408.22	1634.28
408.43	1654.76
408.63	1716.20
408.84	1785.83
409.05	1791.97
409.25	1681.38
409.46	1646.57
409.67	1710.05
409.88	1656.81
410.08	1654.76
410.29	1689.57
410.50	1703.91
410.70	1679.33
410.91	1646.57
411.12	1726.44
411.32	1671.14
411.53	1652.71
411.74	1769.44
411.95	1771.49
412.15	1734.63
412.36	1789.92
412.57	1798.12
412.77	1873.89
412.98	1767.40
413.19	1742.82
413.39	1724.39
413.60	1759.21
413.81	1761.25
414.01	1669.09
414.22	1751.01
414.43	1779.68
414.63	1718.25
414.84	1804.26
415.05	1703.91
415.25	1656.81
415.46	1746.92
415.67	1691.62
415.87	1667.05
416.08	1734.63
416.29	1726.44
416.49	1759.21
416.70	1650.66
416.91	1660.90
417.11	1701.86
417.32	1716.20
417.53	1834.98
417.73	1701.86
417.94	1705.96
418.15	1697.77
418.35	1759.21
418.56	1691.62
418.77	1824.74
418.97	1687.53
419.18	1658.85
419.38	1535.98
419.59	1736.68
419.80	1771.49
420.00	1673.19
420.21	1761.25
420.42	1798.12
420.62	1748.97
420.83	1642.47
421.04	1687.53
421.24	1697.77
421.45	1742.82
421.65	1748.97
421.86	1697.77
422.07	1724.39
422.27	1705.96
422.48	1787.88
422.69	1632.23
422.89	1630.18
423.10	1746.92
423.30	1665.00
423.51	1703.91
423.72	1673.19
423.92	1728.49
424.13	1632.23
424.33	1691.62
424.54	1714.15
424.75	1697.77
424.95	1832.93
425.16	1683.43
425.36	1742.82
425.57	1791.97
425.78	1820.64
425.98	1785.83
426.19	1740.77
426.39	1654.76
426.60	1714.15
426.81	1730.53
427.01	1746.92
427.22	1642.47
427.42	1626.09
427.63	1703.91
427.83	1679.33
428.04	1765.35
428.25	1753.06
428.45	1798.12
428.66	1773.54
428.86	1773.54
429.07	1697.77
429.28	1724.39
429.48	1699.81
429.69	1640.42
429.89	1705.96
430.10	1632.23
430.30	1683.43
430.51	1789.92
430.71	1714.15
430.92	1720.29
431.13	1714.15
431.33	1732.58
431.54	1738.73
431.74	1816.55
431.95	1783.78
432.15	1665.00
432.36	1689.57
432.56	1761.25
432.77	1753.06
432.98	1818.60
433.18	1691.62
433.39	1718.25
433.59	1689.57
433.80	1816.55
434.00	1820.64
434.21	1669.09
434.41	1652.71
434.62	1906.66
434.82	1652.71
435.03	1626.09
435.23	1685.48
435.44	1648.61
435.64	1744.87
435.85	1685.48
436.06	1771.49
436.26	1710.05
436.47	1689.57
436.67	1648.61
436.88	1759.21
437.08	1742.82
437.29	1849.32
437.49	1726.44
437.70	1845.22
437.90	1738.73
438.11	1800.16
438.31	1771.49
438.52	1890.28
438.72	1824.74
438.93	1896.42
439.13	1779.68
439.34	1869.80
439.54	1753.06
439.75	1779.68
439.95	1755.11
440.16	1654.76
440.36	1740.77
440.57	1796.07
440.77	1708.01
440.98	1769.44
441.18	1789.92
441.39	1667.05
441.59	1632.23
441.80	1808.36
442.00	1751.01
442.21	1828.84
442.41	1642.47
442.62	1746.92
442.82	1605.61
443.02	1738.73
443.23	1681.38
443.43	1681.38
443.64	1720.29
443.84	1755.11
444.05	1810.40
444.25	1748.97
444.46	1624.04
444.66	1673.19
444.87	1820.64
445.07	1550.31
445.28	1718.25
445.48	1818.60
445.69	1751.01
445.89	1798.12
446.09	1816.55
446.30	2050.02
446.50	2703.32
446.71	3819.46
446.91	4401.08
447.12	4763.58
447.32	4904.89
447.53	4325.31
447.73	3925.96
447.93	3540.94
448.14	3338.19
448.34	3198.93
448.55	2893.78
448.75	2818.00
448.96	2762.71
449.16	2414.56
449.36	2283.49
449.57	2084.83
449.77	1892.32
449.98	1789.92
450.18	1820.64
450.39	1798.12
450.59	1730.53
450.79	1697.77
451.00	1615.85
451.20	1742.82
451.41	1734.63
451.61	1757.16
451.81	1730.53
452.02	1728.49
452.22	1679.33
452.43	1693.67
452.63	1722.34
