SpectraSuite Data File
++++++++++++++++++++++++++++++++++++
Date: Mon Jun 06 12:31:57 CEST 2016
User: root
Dark Spectrum Present: No
Reference Spectrum Present: No
Number of Sampled Component Spectra: 1
Spectrometers: USB4C02835
Integration Time (usec): 100000 (USB4C02835)
Spectra Averaged: 1 (USB4C02835)
Boxcar Smoothing: 0 (USB4C02835)
Correct for Electrical Dark: No (USB4C02835)
Strobe/Lamp Enabled: No (USB4C02835)
Correct for Detector Non-linearity: No (USB4C02835)
Correct for Stray Light: No (USB4C02835)
Number of Pixels in Processed Spectrum: 3648
>>>>>Begin Processed Spectral Data<<<<<
177.47	1511.40
177.69	1511.40
177.91	1511.40
178.13	1462.25
178.36	1460.20
178.58	1632.23
178.80	1708.01
179.02	1652.71
179.24	1671.14
179.46	1624.04
179.68	1738.73
179.90	1642.47
180.13	1691.62
180.35	1693.67
180.57	1669.09
180.79	1665.00
181.01	1695.72
181.23	1775.59
181.45	1787.88
181.67	1665.00
181.90	1734.63
182.12	1673.19
182.34	1652.71
182.56	1800.16
182.78	1720.29
183.00	1712.10
183.22	1689.57
183.44	1621.99
183.66	1877.99
183.89	1761.25
184.11	1638.38
184.33	1677.29
184.55	1726.44
184.77	1656.81
184.99	1744.87
185.21	1648.61
185.43	1839.08
185.65	1683.43
185.87	1726.44
186.10	1789.92
186.32	1882.08
186.54	1710.05
186.76	1675.24
186.98	1753.06
187.20	1689.57
187.42	1636.33
187.64	1642.47
187.86	1683.43
188.08	1671.14
188.30	1654.76
188.52	1638.38
188.75	1718.25
188.97	1767.40
189.19	1681.38
189.41	1662.95
189.63	1767.40
189.85	1720.29
190.07	1611.75
190.29	1558.50
190.51	1703.91
190.73	1710.05
190.95	1693.67
191.17	1689.57
191.39	1636.33
191.61	1660.90
191.84	1718.25
192.06	1804.26
192.28	1626.09
192.50	1865.70
192.72	1673.19
192.94	1730.53
193.16	1761.25
193.38	1673.19
193.60	1619.94
193.82	1621.99
194.04	1826.79
194.26	1658.85
194.48	1679.33
194.70	1572.84
194.92	1636.33
195.14	1693.67
195.36	1720.29
195.58	1771.49
195.80	1712.10
196.02	1519.59
196.24	1742.82
196.46	1665.00
196.69	1697.77
196.91	1800.16
197.13	1638.38
197.35	1599.46
197.57	1763.30
197.79	1789.92
198.01	1679.33
198.23	1746.92
198.45	1812.45
198.67	1624.04
198.89	1615.85
199.11	1699.81
199.33	1734.63
199.55	1591.27
199.77	1611.75
199.99	1724.39
200.21	1710.05
200.43	1777.64
200.65	1589.22
200.87	1591.27
201.09	1654.76
201.31	1638.38
201.53	1714.15
201.75	1736.68
201.97	1662.95
202.19	1746.92
202.41	1693.67
202.63	1845.22
202.85	1808.36
203.07	1685.48
203.29	1742.82
203.51	1644.52
203.73	1675.24
203.95	1863.65
204.17	1710.05
204.39	1785.83
204.61	1720.29
204.83	1697.77
205.05	1787.88
205.27	1791.97
205.49	1853.41
205.71	1714.15
205.93	1611.75
206.15	1624.04
206.37	1703.91
206.59	1613.80
206.81	1628.14
207.03	1648.61
207.25	1615.85
207.47	1808.36
207.69	1646.57
207.91	1708.01
208.13	1812.45
208.34	1693.67
208.56	1646.57
208.78	1751.01
209.00	1746.92
209.22	1603.56
209.44	1751.01
209.66	1615.85
209.88	1687.53
210.10	1619.94
210.32	1734.63
210.54	1796.07
210.76	1683.43
210.98	1697.77
211.20	1515.50
211.42	1667.05
211.64	1763.30
211.86	1675.24
212.08	1665.00
212.30	1671.14
212.52	1675.24
212.74	1724.39
212.96	1687.53
213.17	1740.77
213.39	1734.63
213.61	1796.07
213.83	1687.53
214.05	1669.09
214.27	1798.12
214.49	1578.98
214.71	1646.57
214.93	1763.30
215.15	1771.49
215.37	1748.97
215.59	1677.29
215.81	1746.92
216.03	1697.77
216.24	1685.48
216.46	1724.39
216.68	1730.53
216.90	1757.16
217.12	1748.97
217.34	1621.99
217.56	1718.25
217.78	1789.92
218.00	1693.67
218.22	1697.77
218.44	1722.34
218.66	1646.57
218.87	1871.84
219.09	1689.57
219.31	1714.15
219.53	1736.68
219.75	1619.94
219.97	1687.53
220.19	1736.68
220.41	1640.42
220.63	1779.68
220.85	1736.68
221.06	1736.68
221.28	1740.77
221.50	1685.48
221.72	1722.34
221.94	1695.72
222.16	1640.42
222.38	1699.81
222.60	1802.21
222.82	1718.25
223.03	1730.53
223.25	1615.85
223.47	1771.49
223.69	1808.36
223.91	1771.49
224.13	1681.38
224.35	1591.27
224.57	1765.35
224.78	1794.02
225.00	1628.14
225.22	1742.82
225.44	1697.77
225.66	1740.77
225.88	1697.77
226.10	1718.25
226.32	1705.96
226.53	1812.45
226.75	1665.00
226.97	1665.00
227.19	1738.73
227.41	1652.71
227.63	1677.29
227.85	1619.94
228.06	1732.58
228.28	1703.91
228.50	1691.62
228.72	1654.76
228.94	1728.49
229.16	1550.31
229.37	1669.09
229.59	1705.96
229.81	1744.87
230.03	1611.75
230.25	1619.94
230.47	1617.90
230.69	1599.46
230.90	1714.15
231.12	1679.33
231.34	1726.44
231.56	1718.25
231.78	1605.61
232.00	1699.81
232.21	1705.96
232.43	1722.34
232.65	1617.90
232.87	1689.57
233.09	1601.51
233.30	1677.29
233.52	1777.64
233.74	1708.01
233.96	1613.80
234.18	1695.72
234.40	1695.72
234.61	1808.36
234.83	1624.04
235.05	1581.03
235.27	1824.74
235.49	1720.29
235.70	1677.29
235.92	1751.01
236.14	1677.29
236.36	1832.93
236.58	1597.42
236.79	1787.88
237.01	1708.01
237.23	1689.57
237.45	1810.40
237.67	1621.99
237.88	1671.14
238.10	1804.26
238.32	1626.09
238.54	1669.09
238.76	1689.57
238.97	1611.75
239.19	1656.81
239.41	1746.92
239.63	1802.21
239.85	1652.71
240.06	1689.57
240.28	1644.52
240.50	1751.01
240.72	1736.68
240.93	1775.59
241.15	1757.16
241.37	1667.05
241.59	1769.44
241.81	1689.57
242.02	1636.33
242.24	1728.49
242.46	1744.87
242.68	1681.38
242.89	1679.33
243.11	1716.20
243.33	1730.53
243.55	1689.57
243.76	1697.77
243.98	1650.66
244.20	1697.77
244.42	1708.01
244.64	1748.97
244.85	1578.98
245.07	1621.99
245.29	1783.78
245.51	1640.42
245.72	1779.68
245.94	1785.83
246.16	1742.82
246.38	1714.15
246.59	1699.81
246.81	1601.51
247.03	1699.81
247.24	1652.71
247.46	1738.73
247.68	1710.05
247.90	1687.53
248.11	1642.47
248.33	1847.27
248.55	1728.49
248.77	1744.87
248.98	1757.16
249.20	1773.54
249.42	1695.72
249.64	1794.02
249.85	1609.70
250.07	1677.29
250.29	1798.12
250.50	1677.29
250.72	1587.18
250.94	1636.33
251.16	1853.41
251.37	1783.78
251.59	1730.53
251.81	1746.92
252.02	1738.73
252.24	1646.57
252.46	1867.75
252.68	1644.52
252.89	1677.29
253.11	1591.27
253.33	1775.59
253.54	1765.35
253.76	1587.18
253.98	1701.86
254.20	1714.15
254.41	1564.65
254.63	1740.77
254.85	1667.05
255.06	1748.97
255.28	1732.58
255.50	1701.86
255.71	1705.96
255.93	1656.81
256.15	1679.33
256.36	1718.25
256.58	1658.85
256.80	1781.73
257.02	1685.48
257.23	1667.05
257.45	1669.09
257.67	1705.96
257.88	1662.95
258.10	1714.15
258.32	1691.62
258.53	1736.68
258.75	1783.78
258.97	1660.90
259.18	1765.35
259.40	1746.92
259.62	1759.21
259.83	1742.82
260.05	1705.96
260.27	1931.23
260.48	1777.64
260.70	1652.71
260.92	1722.34
261.13	1640.42
261.35	1730.53
261.57	1748.97
261.78	1632.23
262.00	1609.70
262.22	1736.68
262.43	1609.70
262.65	1705.96
262.86	1615.85
263.08	1757.16
263.30	1578.98
263.51	1562.60
263.73	1642.47
263.95	1757.16
264.16	1681.38
264.38	1642.47
264.60	1732.58
264.81	1710.05
265.03	1675.24
265.25	1744.87
265.46	1638.38
265.68	1755.11
265.89	1806.31
266.11	1538.02
266.33	1740.77
266.54	1802.21
266.76	1748.97
266.98	1800.16
267.19	1779.68
267.41	1775.59
267.62	1669.09
267.84	1665.00
268.06	1779.68
268.27	1744.87
268.49	1765.35
268.70	1722.34
268.92	1753.06
269.14	1654.76
269.35	1636.33
269.57	1662.95
269.79	1744.87
270.00	1648.61
270.22	1730.53
270.43	1654.76
270.65	1585.13
270.87	1814.50
271.08	1693.67
271.30	1710.05
271.51	1738.73
271.73	1675.24
271.95	1806.31
272.16	1646.57
272.38	1716.20
272.59	1648.61
272.81	1701.86
273.02	1660.90
273.24	1658.85
273.46	1677.29
273.67	1691.62
273.89	1695.72
274.10	1591.27
274.32	1761.25
274.54	1800.16
274.75	1742.82
274.97	1624.04
275.18	1728.49
275.40	1751.01
275.61	1515.50
275.83	1761.25
276.05	1556.46
276.26	1648.61
276.48	1689.57
276.69	1689.57
276.91	1624.04
277.12	1734.63
277.34	1744.87
277.55	1679.33
277.77	1701.86
277.99	1710.05
278.20	1685.48
278.42	1585.13
278.63	1689.57
278.85	1632.23
279.06	1642.47
279.28	1753.06
279.49	1746.92
279.71	1751.01
279.93	1701.86
280.14	1710.05
280.36	1658.85
280.57	1703.91
280.79	1701.86
281.00	1650.66
281.22	1683.43
281.43	1794.02
281.65	1652.71
281.86	1650.66
282.08	1740.77
282.29	1724.39
282.51	1619.94
282.73	1648.61
282.94	1660.90
283.16	1699.81
283.37	1716.20
283.59	1644.52
283.80	1705.96
284.02	1695.72
284.23	1720.29
284.45	1728.49
284.66	1685.48
284.88	1693.67
285.09	1761.25
285.31	1755.11
285.52	1685.48
285.74	1665.00
285.95	1671.14
286.17	1824.74
286.38	1753.06
286.60	1722.34
286.81	1652.71
287.03	1742.82
287.24	1679.33
287.46	1681.38
287.67	1693.67
287.89	1761.25
288.10	1726.44
288.32	1665.00
288.53	1791.97
288.75	1669.09
288.96	1783.78
289.18	1628.14
289.39	1650.66
289.61	1794.02
289.82	1800.16
290.04	1830.88
290.25	1636.33
290.47	1705.96
290.68	1644.52
290.90	1705.96
291.11	1605.61
291.33	1744.87
291.54	1640.42
291.76	1656.81
291.97	1779.68
292.18	1679.33
292.40	1705.96
292.61	1746.92
292.83	1738.73
293.04	1755.11
293.26	1693.67
293.47	1617.90
293.69	1624.04
293.90	1808.36
294.12	1771.49
294.33	1689.57
294.55	1683.43
294.76	1759.21
294.97	1714.15
295.19	1703.91
295.40	1726.44
295.62	1695.72
295.83	1757.16
296.05	1755.11
296.26	1734.63
296.48	1613.80
296.69	1705.96
296.90	1671.14
297.12	1751.01
297.33	1718.25
297.55	1638.38
297.76	1716.20
297.98	1705.96
298.19	1751.01
298.41	1708.01
298.62	1681.38
298.83	1728.49
299.05	1656.81
299.26	1662.95
299.48	1667.05
299.69	1687.53
299.90	1771.49
300.12	1646.57
300.33	1837.03
300.55	1779.68
300.76	1699.81
300.98	1619.94
301.19	1693.67
301.40	1701.86
301.62	1724.39
301.83	1736.68
302.05	1671.14
302.26	1636.33
302.47	1800.16
302.69	1613.80
302.90	1720.29
303.12	1566.70
303.33	1679.33
303.54	1808.36
303.76	1624.04
303.97	1742.82
304.19	1837.03
304.40	1628.14
304.61	1675.24
304.83	1781.73
305.04	1660.90
305.26	1742.82
305.47	1712.10
305.68	1679.33
305.90	1599.46
306.11	1787.88
306.33	1681.38
306.54	1667.05
306.75	1662.95
306.97	1599.46
307.18	1693.67
307.39	1687.53
307.61	1683.43
307.82	1718.25
308.04	1714.15
308.25	1632.23
308.46	1652.71
308.68	1808.36
308.89	1789.92
309.10	1691.62
309.32	1755.11
309.53	1611.75
309.74	1705.96
309.96	1693.67
310.17	1722.34
310.39	1693.67
310.60	1740.77
310.81	1753.06
311.03	1615.85
311.24	1710.05
311.45	1685.48
311.67	1789.92
311.88	1609.70
312.09	1679.33
312.31	1671.14
312.52	1675.24
312.73	1693.67
312.95	1595.37
313.16	1718.25
313.37	1798.12
313.59	1693.67
313.80	1720.29
314.01	1746.92
314.23	1673.19
314.44	1681.38
314.65	1712.10
314.87	1632.23
315.08	1703.91
315.29	1591.27
315.51	1654.76
315.72	1662.95
315.93	1785.83
316.15	1722.34
316.36	1701.86
316.57	1712.10
316.79	1814.50
317.00	1681.38
317.21	1712.10
317.43	1687.53
317.64	1683.43
317.85	1667.05
318.07	1662.95
318.28	1626.09
318.49	1789.92
318.70	1920.99
318.92	1759.21
319.13	1755.11
319.34	1828.84
319.56	1787.88
319.77	1783.78
319.98	1771.49
320.20	1818.60
320.41	1693.67
320.62	1632.23
320.83	1648.61
321.05	1837.03
321.26	1781.73
321.47	1646.57
321.69	1765.35
321.90	1648.61
322.11	1763.30
322.32	1656.81
322.54	1791.97
322.75	1714.15
322.96	1832.93
323.18	1642.47
323.39	1597.42
323.60	1683.43
323.81	1755.11
324.03	1619.94
324.24	1742.82
324.45	1693.67
324.66	1701.86
324.88	1708.01
325.09	1716.20
325.30	1654.76
325.52	1730.53
325.73	1724.39
325.94	1712.10
326.15	1630.18
326.37	1720.29
326.58	1712.10
326.79	1767.40
327.00	1673.19
327.22	1679.33
327.43	1671.14
327.64	1595.37
327.85	1742.82
328.07	1746.92
328.28	1781.73
328.49	1667.05
328.70	1701.86
328.92	1740.77
329.13	1662.95
329.34	1667.05
329.55	1761.25
329.76	1708.01
329.98	1591.27
330.19	1775.59
330.40	1757.16
330.61	1669.09
330.83	1718.25
331.04	1716.20
331.25	1763.30
331.46	1683.43
331.68	1646.57
331.89	1781.73
332.10	1724.39
332.31	1677.29
332.52	1744.87
332.74	1685.48
332.95	1648.61
333.16	1710.05
333.37	1726.44
333.58	1658.85
333.80	1732.58
334.01	1574.89
334.22	1648.61
334.43	1624.04
334.64	1679.33
334.86	1574.89
335.07	1675.24
335.28	1794.02
335.49	1632.23
335.70	1755.11
335.92	1716.20
336.13	1822.69
336.34	1804.26
336.55	1720.29
336.76	1701.86
336.98	1669.09
337.19	1626.09
337.40	1724.39
337.61	1789.92
337.82	1673.19
338.04	1765.35
338.25	1607.66
338.46	1669.09
338.67	1640.42
338.88	1681.38
339.09	1718.25
339.31	1630.18
339.52	1658.85
339.73	1611.75
339.94	1751.01
340.15	1789.92
340.36	1689.57
340.58	1677.29
340.79	1624.04
341.00	1697.77
341.21	1556.46
341.42	1751.01
341.63	1660.90
341.85	1722.34
342.06	1679.33
342.27	1658.85
342.48	1697.77
342.69	1665.00
342.90	1746.92
343.12	1722.34
343.33	1632.23
343.54	1724.39
343.75	1734.63
343.96	1697.77
344.17	1665.00
344.38	1626.09
344.60	1632.23
344.81	1597.42
345.02	1687.53
345.23	1787.88
345.44	1777.64
345.65	1742.82
345.86	1744.87
346.07	1640.42
346.29	1595.37
346.50	1689.57
346.71	1730.53
346.92	1765.35
347.13	1763.30
347.34	1757.16
347.55	1716.20
347.76	1705.96
347.98	1646.57
348.19	1636.33
348.40	1773.54
348.61	1576.94
348.82	1771.49
349.03	1669.09
349.24	1640.42
349.45	1783.78
349.66	1544.17
349.88	1628.14
350.09	1619.94
350.30	1714.15
350.51	1763.30
350.72	1660.90
350.93	1693.67
351.14	1683.43
351.35	1748.97
351.56	1667.05
351.77	1746.92
351.99	1720.29
352.20	1812.45
352.41	1744.87
352.62	1558.50
352.83	1751.01
353.04	1652.71
353.25	1722.34
353.46	1757.16
353.67	1738.73
353.88	1611.75
354.09	1669.09
354.30	1685.48
354.52	1730.53
354.73	1714.15
354.94	1626.09
355.15	1736.68
355.36	1890.28
355.57	1624.04
355.78	1705.96
355.99	1656.81
356.20	1630.18
356.41	1742.82
356.62	1701.86
356.83	1650.66
357.04	1689.57
357.25	1583.08
357.46	1716.20
357.68	1634.28
357.89	1740.77
358.10	1638.38
358.31	1736.68
358.52	1675.24
358.73	1677.29
358.94	1687.53
359.15	1673.19
359.36	1751.01
359.57	1693.67
359.78	1724.39
359.99	1736.68
360.20	1646.57
360.41	1648.61
360.62	1775.59
360.83	1695.72
361.04	1685.48
361.25	1693.67
361.46	1781.73
361.67	1716.20
361.88	1775.59
362.09	1697.77
362.30	1712.10
362.51	1636.33
362.72	1658.85
362.93	1708.01
363.14	1718.25
363.35	1691.62
363.56	1658.85
363.78	1712.10
363.99	1751.01
364.20	1583.08
364.41	1665.00
364.62	1742.82
364.83	1644.52
365.04	1697.77
365.25	1705.96
365.46	1812.45
365.67	1617.90
365.88	1665.00
366.09	1646.57
366.30	1683.43
366.51	1742.82
366.72	1603.56
366.93	1617.90
367.14	1689.57
367.35	1798.12
367.56	1753.06
367.77	1724.39
367.98	1724.39
368.18	1736.68
368.39	1748.97
368.60	1687.53
368.81	1701.86
369.02	1751.01
369.23	1650.66
369.44	1669.09
369.65	1632.23
369.86	1787.88
370.07	1708.01
370.28	1703.91
370.49	1740.77
370.70	1759.21
370.91	1589.22
371.12	1626.09
371.33	1785.83
371.54	1660.90
371.75	1861.60
371.96	1621.99
372.17	1695.72
372.38	1669.09
372.59	1701.86
372.80	1599.46
373.01	1681.38
373.22	1701.86
373.43	1667.05
373.64	1593.32
373.85	1753.06
374.06	1687.53
374.26	1687.53
374.47	1699.81
374.68	1816.55
374.89	1757.16
375.10	1669.09
375.31	1689.57
375.52	1705.96
375.73	1642.47
375.94	1581.03
376.15	1800.16
376.36	1632.23
376.57	1615.85
376.78	1656.81
376.99	1646.57
377.20	1767.40
377.40	1701.86
377.61	1763.30
377.82	1701.86
378.03	1730.53
378.24	1689.57
378.45	1740.77
378.66	1781.73
378.87	1646.57
379.08	1697.77
379.29	1730.53
379.50	1732.58
379.71	1667.05
379.91	1787.88
380.12	1644.52
380.33	1669.09
380.54	1621.99
380.75	1591.27
380.96	1722.34
381.17	1789.92
381.38	1681.38
381.59	1791.97
381.80	1708.01
382.00	1824.74
382.21	1644.52
382.42	1845.22
382.63	1865.70
382.84	1783.78
383.05	1785.83
383.26	1816.55
383.47	1759.21
383.68	1742.82
383.88	1667.05
384.09	1685.48
384.30	1791.97
384.51	1777.64
384.72	1679.33
384.93	1605.61
385.14	1728.49
385.35	1730.53
385.55	1546.22
385.76	1771.49
385.97	1689.57
386.18	1607.66
386.39	1726.44
386.60	1660.90
386.81	1628.14
387.02	1695.72
387.22	1665.00
387.43	1804.26
387.64	1732.58
387.85	1828.84
388.06	2238.43
388.27	4345.79
388.48	6954.90
388.68	8357.76
388.89	9977.70
389.10	10350.43
389.31	8783.74
389.52	7663.50
389.73	6877.08
389.93	6268.83
390.14	5898.15
390.35	5257.14
390.56	4712.38
390.77	3768.26
390.98	3053.52
391.18	2459.61
391.39	2152.42
391.60	1900.52
391.81	1794.02
392.02	1652.71
392.23	1826.79
392.43	1791.97
392.64	1824.74
392.85	1705.96
393.06	1847.27
393.27	1705.96
393.47	1712.10
393.68	1722.34
393.89	1728.49
394.10	1763.30
394.31	1681.38
394.52	1636.33
394.72	1583.08
394.93	1834.98
395.14	1681.38
395.35	1714.15
395.56	1718.25
395.76	1800.16
395.97	1730.53
396.18	1826.79
396.39	1886.18
396.60	2058.21
396.80	1902.56
397.01	1832.93
397.22	1771.49
397.43	1777.64
397.64	1738.73
397.84	1777.64
398.05	1869.80
398.26	1757.16
398.47	1712.10
398.67	1794.02
398.88	1718.25
399.09	1718.25
399.30	1738.73
399.51	1765.35
399.71	1675.24
399.92	1753.06
400.13	1765.35
400.34	1675.24
400.54	1671.14
400.75	1822.69
400.96	1693.67
401.17	1853.41
401.37	1726.44
401.58	1689.57
401.79	1740.77
402.00	1910.75
402.21	1935.33
402.41	1892.32
402.62	1970.15
402.83	1943.52
403.04	1957.86
403.24	2146.27
403.45	1812.45
403.66	1916.90
403.87	1904.61
404.07	1918.95
404.28	1886.18
404.49	1830.88
404.70	1796.07
404.90	1730.53
405.11	1675.24
405.32	1800.16
405.52	1671.14
405.73	1691.62
405.94	1652.71
406.15	1665.00
406.35	1699.81
406.56	1675.24
406.77	1703.91
406.98	1681.38
407.18	1695.72
407.39	1742.82
407.60	1648.61
407.80	1699.81
408.01	1699.81
408.22	1695.72
408.43	1650.66
408.63	1724.39
408.84	1689.57
409.05	1740.77
409.25	1628.14
409.46	1742.82
409.67	1724.39
409.88	1662.95
410.08	1714.15
410.29	1705.96
410.50	1712.10
410.70	1734.63
410.91	1671.14
411.12	1708.01
411.32	1660.90
411.53	1654.76
411.74	1798.12
411.95	1759.21
412.15	1740.77
412.36	1757.16
412.57	1755.11
412.77	1757.16
412.98	1732.58
413.19	1642.47
413.39	1771.49
413.60	1771.49
413.81	1796.07
414.01	1599.46
414.22	1720.29
414.43	1789.92
414.63	1617.90
414.84	1740.77
415.05	1734.63
415.25	1675.24
415.46	1765.35
415.67	1607.66
415.87	1638.38
416.08	1808.36
416.29	1615.85
416.49	1746.92
416.70	1687.53
416.91	1699.81
417.11	1697.77
417.32	1730.53
417.53	1667.05
417.73	1648.61
417.94	1701.86
418.15	1701.86
418.35	1728.49
418.56	1671.14
418.77	1867.75
418.97	1662.95
419.18	1660.90
419.38	1615.85
419.59	1697.77
419.80	1781.73
420.00	1689.57
420.21	1681.38
420.42	1771.49
420.62	1724.39
420.83	1677.29
421.04	1703.91
421.24	1621.99
421.45	1669.09
421.65	1675.24
421.86	1734.63
422.07	1683.43
422.27	1689.57
422.48	1650.66
422.69	1638.38
422.89	1642.47
423.10	1662.95
423.30	1665.00
423.51	1689.57
423.72	1677.29
423.92	1740.77
424.13	1671.14
424.33	1640.42
424.54	1812.45
424.75	1681.38
424.95	1830.88
425.16	1828.84
425.36	1628.14
425.57	1714.15
425.78	1761.25
425.98	1662.95
426.19	1730.53
426.39	1632.23
426.60	1662.95
426.81	1785.83
427.01	1734.63
427.22	1603.56
427.42	1632.23
427.63	1595.37
427.83	1724.39
428.04	1818.60
428.25	1771.49
428.45	1746.92
428.66	1718.25
428.86	1673.19
429.07	1652.71
429.28	1705.96
429.48	1701.86
429.69	1738.73
429.89	1683.43
430.10	1621.99
430.30	1685.48
430.51	1665.00
430.71	1658.85
430.92	1744.87
431.13	1662.95
431.33	1753.06
431.54	1705.96
431.74	1734.63
431.95	1859.56
432.15	1634.28
432.36	1650.66
432.56	1730.53
432.77	1771.49
432.98	1818.60
433.18	1652.71
433.39	1671.14
433.59	1662.95
433.80	1767.40
434.00	1826.79
434.21	1660.90
434.41	1691.62
434.62	1865.70
434.82	1630.18
435.03	1671.14
435.23	1689.57
435.44	1601.51
435.64	1656.81
435.85	1724.39
436.06	1796.07
436.26	1783.78
436.47	1669.09
436.67	1642.47
436.88	1710.05
437.08	1767.40
437.29	1796.07
437.49	1693.67
437.70	1757.16
437.90	1687.53
438.11	1798.12
438.31	1783.78
438.52	1837.03
438.72	1837.03
438.93	1818.60
439.13	1773.54
439.34	1863.65
439.54	1748.97
439.75	1834.98
439.95	1765.35
440.16	1769.44
440.36	1693.67
440.57	1783.78
440.77	1712.10
440.98	1720.29
441.18	1755.11
441.39	1681.38
441.59	1667.05
441.80	1843.17
442.00	1665.00
442.21	1828.84
442.41	1746.92
442.62	1746.92
442.82	1626.09
443.02	1783.78
443.23	1679.33
443.43	1742.82
443.64	1771.49
443.84	1730.53
444.05	1761.25
444.25	1732.58
444.46	1701.86
444.66	1744.87
444.87	1839.08
445.07	1656.81
445.28	1714.15
445.48	1810.40
445.69	1744.87
445.89	1865.70
446.09	1732.58
446.30	2033.63
446.50	2701.27
446.71	3678.15
446.91	4399.04
447.12	4845.49
447.32	4935.60
447.53	4460.48
447.73	4018.11
447.93	3581.90
448.14	3301.33
448.34	3194.83
448.55	2883.54
448.75	2846.68
448.96	2697.17
449.16	2373.60
449.36	2303.96
449.57	1984.48
449.77	1927.14
449.98	1818.60
450.18	1746.92
450.39	1818.60
450.59	1732.58
450.79	1646.57
451.00	1748.97
451.20	1761.25
451.41	1677.29
451.61	1722.34
451.81	1712.10
452.02	1759.21
452.22	1667.05
452.43	1761.25
452.63	1677.29
