SpectraSuite Data File
++++++++++++++++++++++++++++++++++++
Date: Mon Jun 06 15:35:17 CEST 2016
User: root
Dark Spectrum Present: No
Reference Spectrum Present: No
Number of Sampled Component Spectra: 1
Spectrometers: USB4C02835
Integration Time (usec): 100000 (USB4C02835)
Spectra Averaged: 1 (USB4C02835)
Boxcar Smoothing: 0 (USB4C02835)
Correct for Electrical Dark: No (USB4C02835)
Strobe/Lamp Enabled: No (USB4C02835)
Correct for Detector Non-linearity: No (USB4C02835)
Correct for Stray Light: No (USB4C02835)
Number of Pixels in Processed Spectrum: 3648
>>>>>Begin Processed Spectral Data<<<<<
177.47	1363.95
177.69	1363.95
177.91	1363.95
178.13	1452.01
178.36	1519.59
178.58	1724.39
178.80	1675.24
179.02	1617.90
179.24	1705.96
179.46	1705.96
179.68	1767.40
179.90	1732.58
180.13	1724.39
180.35	1669.09
180.57	1654.76
180.79	1783.78
181.01	1755.11
181.23	1775.59
181.45	1740.77
181.67	1714.15
181.90	1730.53
182.12	1662.95
182.34	1675.24
182.56	1724.39
182.78	1773.54
183.00	1705.96
183.22	1660.90
183.44	1574.89
183.66	1812.45
183.89	1775.59
184.11	1812.45
184.33	1757.16
184.55	1722.34
184.77	1708.01
184.99	1771.49
185.21	1669.09
185.43	1834.98
185.65	1710.05
185.87	1714.15
186.10	1869.80
186.32	1781.73
186.54	1708.01
186.76	1734.63
186.98	1751.01
187.20	1751.01
187.42	1730.53
187.64	1740.77
187.86	1779.68
188.08	1767.40
188.30	1757.16
188.52	1650.66
188.75	1810.40
188.97	1824.74
189.19	1656.81
189.41	1742.82
189.63	1695.72
189.85	1789.92
190.07	1683.43
190.29	1673.19
190.51	1734.63
190.73	1679.33
190.95	1767.40
191.17	1708.01
191.39	1652.71
191.61	1636.33
191.84	1658.85
192.06	1757.16
192.28	1601.51
192.50	1828.84
192.72	1716.20
192.94	1730.53
193.16	1730.53
193.38	1789.92
193.60	1595.37
193.82	1669.09
194.04	1742.82
194.26	1693.67
194.48	1650.66
194.70	1689.57
194.92	1716.20
195.14	1794.02
195.36	1718.25
195.58	1824.74
195.80	1681.38
196.02	1695.72
196.24	1701.86
196.46	1757.16
196.69	1763.30
196.91	1871.84
197.13	1638.38
197.35	1665.00
197.57	1804.26
197.79	1734.63
198.01	1746.92
198.23	1738.73
198.45	1794.02
198.67	1773.54
198.89	1693.67
199.11	1734.63
199.33	1673.19
199.55	1595.37
199.77	1656.81
199.99	1755.11
200.21	1697.77
200.43	1718.25
200.65	1660.90
200.87	1585.13
201.09	1730.53
201.31	1753.06
201.53	1720.29
201.75	1736.68
201.97	1683.43
202.19	1820.64
202.41	1687.53
202.63	1765.35
202.85	1767.40
203.07	1708.01
203.29	1714.15
203.51	1658.85
203.73	1753.06
203.95	1861.60
204.17	1753.06
204.39	1728.49
204.61	1726.44
204.83	1701.86
205.05	1785.83
205.27	1748.97
205.49	1857.51
205.71	1640.42
205.93	1597.42
206.15	1652.71
206.37	1761.25
206.59	1712.10
206.81	1689.57
207.03	1644.52
207.25	1634.28
207.47	1716.20
207.69	1724.39
207.91	1824.74
208.13	1753.06
208.34	1662.95
208.56	1728.49
208.78	1712.10
209.00	1683.43
209.22	1716.20
209.44	1732.58
209.66	1708.01
209.88	1763.30
210.10	1720.29
210.32	1683.43
210.54	1800.16
210.76	1716.20
210.98	1910.75
211.20	1615.85
211.42	1667.05
211.64	1781.73
211.86	1669.09
212.08	1708.01
212.30	1763.30
212.52	1705.96
212.74	1716.20
212.96	1689.57
213.17	1744.87
213.39	1742.82
213.61	1789.92
213.83	1742.82
214.05	1658.85
214.27	1783.78
214.49	1656.81
214.71	1638.38
214.93	1742.82
215.15	1781.73
215.37	1746.92
215.59	1636.33
215.81	1785.83
216.03	1832.93
216.24	1718.25
216.46	1648.61
216.68	1654.76
216.90	1701.86
217.12	1775.59
217.34	1718.25
217.56	1759.21
217.78	1738.73
218.00	1798.12
218.22	1738.73
218.44	1687.53
218.66	1738.73
218.87	1871.84
219.09	1673.19
219.31	1708.01
219.53	1779.68
219.75	1648.61
219.97	1716.20
220.19	1810.40
220.41	1689.57
220.63	1708.01
220.85	1679.33
221.06	1769.44
221.28	1759.21
221.50	1746.92
221.72	1660.90
221.94	1683.43
222.16	1656.81
222.38	1738.73
222.60	1660.90
222.82	1652.71
223.03	1742.82
223.25	1671.14
223.47	1763.30
223.69	1781.73
223.91	1824.74
224.13	1714.15
224.35	1658.85
224.57	1771.49
224.78	1751.01
225.00	1560.55
225.22	1708.01
225.44	1718.25
225.66	1794.02
225.88	1646.57
226.10	1746.92
226.32	1789.92
226.53	1773.54
226.75	1734.63
226.97	1730.53
227.19	1736.68
227.41	1701.86
227.63	1675.24
227.85	1658.85
228.06	1675.24
228.28	1736.68
228.50	1705.96
228.72	1652.71
228.94	1771.49
229.16	1587.18
229.37	1687.53
229.59	1636.33
229.81	1751.01
230.03	1687.53
230.25	1681.38
230.47	1667.05
230.69	1708.01
230.90	1759.21
231.12	1685.48
231.34	1781.73
231.56	1771.49
231.78	1722.34
232.00	1718.25
232.21	1652.71
232.43	1632.23
232.65	1574.89
232.87	1761.25
233.09	1689.57
233.30	1771.49
233.52	1820.64
233.74	1697.77
233.96	1576.94
234.18	1652.71
234.40	1726.44
234.61	1847.27
234.83	1630.18
235.05	1685.48
235.27	1894.37
235.49	1730.53
235.70	1761.25
235.92	1765.35
236.14	1724.39
236.36	1796.07
236.58	1675.24
236.79	1759.21
237.01	1658.85
237.23	1673.19
237.45	1834.98
237.67	1705.96
237.88	1730.53
238.10	1773.54
238.32	1601.51
238.54	1757.16
238.76	1736.68
238.97	1621.99
239.19	1689.57
239.41	1769.44
239.63	1744.87
239.85	1712.10
240.06	1662.95
240.28	1624.04
240.50	1771.49
240.72	1724.39
240.93	1660.90
241.15	1757.16
241.37	1718.25
241.59	1753.06
241.81	1732.58
242.02	1746.92
242.24	1820.64
242.46	1726.44
242.68	1671.14
242.89	1673.19
243.11	1767.40
243.33	1730.53
243.55	1718.25
243.76	1812.45
243.98	1679.33
244.20	1710.05
244.42	1718.25
244.64	1718.25
244.85	1667.05
245.07	1705.96
245.29	1759.21
245.51	1738.73
245.72	1705.96
245.94	1804.26
246.16	1744.87
246.38	1818.60
246.59	1628.14
246.81	1621.99
247.03	1673.19
247.24	1603.56
247.46	1693.67
247.68	1701.86
247.90	1636.33
248.11	1744.87
248.33	1767.40
248.55	1675.24
248.77	1656.81
248.98	1736.68
249.20	1787.88
249.42	1763.30
249.64	1720.29
249.85	1726.44
250.07	1646.57
250.29	1767.40
250.50	1812.45
250.72	1693.67
250.94	1695.72
251.16	1810.40
251.37	1757.16
251.59	1689.57
251.81	1753.06
252.02	1705.96
252.24	1699.81
252.46	1794.02
252.68	1730.53
252.89	1724.39
253.11	1660.90
253.33	1880.04
253.54	1869.80
253.76	1556.46
253.98	1734.63
254.20	1724.39
254.41	1595.37
254.63	1677.29
254.85	1656.81
255.06	1640.42
255.28	1726.44
255.50	1697.77
255.71	1658.85
255.93	1632.23
256.15	1669.09
256.36	1742.82
256.58	1703.91
256.80	1751.01
257.02	1746.92
257.23	1712.10
257.45	1665.00
257.67	1773.54
257.88	1712.10
258.10	1730.53
258.32	1673.19
258.53	1757.16
258.75	1796.07
258.97	1669.09
259.18	1658.85
259.40	1705.96
259.62	1865.70
259.83	1796.07
260.05	1781.73
260.27	1957.86
260.48	1742.82
260.70	1671.14
260.92	1726.44
261.13	1757.16
261.35	1738.73
261.57	1742.82
261.78	1601.51
262.00	1644.52
262.22	1708.01
262.43	1675.24
262.65	1708.01
262.86	1656.81
263.08	1857.51
263.30	1738.73
263.51	1605.61
263.73	1652.71
263.95	1820.64
264.16	1634.28
264.38	1619.94
264.60	1748.97
264.81	1751.01
265.03	1751.01
265.25	1763.30
265.46	1677.29
265.68	1837.03
265.89	1632.23
266.11	1619.94
266.33	1738.73
266.54	1744.87
266.76	1789.92
266.98	1691.62
267.19	1800.16
267.41	1714.15
267.62	1607.66
267.84	1671.14
268.06	1763.30
268.27	1804.26
268.49	1726.44
268.70	1755.11
268.92	1798.12
269.14	1640.42
269.35	1634.28
269.57	1718.25
269.79	1769.44
270.00	1703.91
270.22	1791.97
270.43	1677.29
270.65	1642.47
270.87	1730.53
271.08	1789.92
271.30	1746.92
271.51	1691.62
271.73	1708.01
271.95	1796.07
272.16	1726.44
272.38	1744.87
272.59	1701.86
272.81	1746.92
273.02	1740.77
273.24	1773.54
273.46	1687.53
273.67	1683.43
273.89	1665.00
274.10	1660.90
274.32	1753.06
274.54	1669.09
274.75	1710.05
274.97	1632.23
275.18	1767.40
275.40	1779.68
275.61	1660.90
275.83	1642.47
276.05	1656.81
276.26	1748.97
276.48	1787.88
276.69	1677.29
276.91	1626.09
277.12	1771.49
277.34	1804.26
277.55	1705.96
277.77	1691.62
277.99	1695.72
278.20	1669.09
278.42	1626.09
278.63	1712.10
278.85	1634.28
279.06	1673.19
279.28	1724.39
279.49	1787.88
279.71	1810.40
279.93	1714.15
280.14	1773.54
280.36	1671.14
280.57	1736.68
280.79	1767.40
281.00	1640.42
281.22	1708.01
281.43	1781.73
281.65	1630.18
281.86	1665.00
282.08	1675.24
282.29	1773.54
282.51	1665.00
282.73	1650.66
282.94	1611.75
283.16	1710.05
283.37	1771.49
283.59	1720.29
283.80	1826.79
284.02	1626.09
284.23	1753.06
284.45	1705.96
284.66	1669.09
284.88	1693.67
285.09	1775.59
285.31	1742.82
285.52	1753.06
285.74	1574.89
285.95	1812.45
286.17	1613.80
286.38	1791.97
286.60	1722.34
286.81	1656.81
287.03	1654.76
287.24	1748.97
287.46	1794.02
287.67	1744.87
287.89	1865.70
288.10	1716.20
288.32	1802.21
288.53	1808.36
288.75	1742.82
288.96	1712.10
289.18	1673.19
289.39	1626.09
289.61	1812.45
289.82	1855.46
290.04	1867.75
290.25	1730.53
290.47	1687.53
290.68	1693.67
290.90	1673.19
291.11	1630.18
291.33	1724.39
291.54	1689.57
291.76	1656.81
291.97	1710.05
292.18	1738.73
292.40	1636.33
292.61	1685.48
292.83	1828.84
293.04	1738.73
293.26	1681.38
293.47	1714.15
293.69	1673.19
293.90	1691.62
294.12	1785.83
294.33	1691.62
294.55	1843.17
294.76	1767.40
294.97	1783.78
295.19	1826.79
295.40	1671.14
295.62	1687.53
295.83	1767.40
296.05	1691.62
296.26	1810.40
296.48	1695.72
296.69	1677.29
296.90	1683.43
297.12	1728.49
297.33	1775.59
297.55	1732.58
297.76	1732.58
297.98	1812.45
298.19	1695.72
298.41	1785.83
298.62	1724.39
298.83	1843.17
299.05	1751.01
299.26	1605.61
299.48	1691.62
299.69	1714.15
299.90	1740.77
300.12	1746.92
300.33	1722.34
300.55	1724.39
300.76	1800.16
300.98	1634.28
301.19	1665.00
301.40	1628.14
301.62	1611.75
301.83	1746.92
302.05	1710.05
302.26	1751.01
302.47	1779.68
302.69	1632.23
302.90	1714.15
303.12	1589.22
303.33	1710.05
303.54	1771.49
303.76	1652.71
303.97	1740.77
304.19	1761.25
304.40	1626.09
304.61	1767.40
304.83	1798.12
305.04	1746.92
305.26	1761.25
305.47	1720.29
305.68	1734.63
305.90	1673.19
306.11	1763.30
306.33	1716.20
306.54	1673.19
306.75	1630.18
306.97	1601.51
307.18	1671.14
307.39	1632.23
307.61	1681.38
307.82	1726.44
308.04	1740.77
308.25	1701.86
308.46	1699.81
308.68	1722.34
308.89	1722.34
309.10	1779.68
309.32	1738.73
309.53	1814.50
309.74	1726.44
309.96	1740.77
310.17	1789.92
310.39	1675.24
310.60	1740.77
310.81	1755.11
311.03	1646.57
311.24	1759.21
311.45	1734.63
311.67	1791.97
311.88	1830.88
312.09	1716.20
312.31	1693.67
312.52	1718.25
312.73	1636.33
312.95	1665.00
313.16	1630.18
313.37	1796.07
313.59	1765.35
313.80	1773.54
314.01	1798.12
314.23	1683.43
314.44	1722.34
314.65	1636.33
314.87	1681.38
315.08	1697.77
315.29	1619.94
315.51	1667.05
315.72	1634.28
315.93	1763.30
316.15	1818.60
316.36	1662.95
316.57	1714.15
316.79	1800.16
317.00	1779.68
317.21	1785.83
317.43	1681.38
317.64	1740.77
317.85	1705.96
318.07	1736.68
318.28	1738.73
318.49	1832.93
318.70	1906.66
318.92	1912.80
319.13	1800.16
319.34	1906.66
319.56	1757.16
319.77	1845.22
319.98	1802.21
320.20	1806.31
320.41	1748.97
320.62	1644.52
320.83	1624.04
321.05	1898.47
321.26	1708.01
321.47	1751.01
321.69	1710.05
321.90	1585.13
322.11	1736.68
322.32	1812.45
322.54	1746.92
322.75	1640.42
322.96	1880.04
323.18	1624.04
323.39	1589.22
323.60	1640.42
323.81	1802.21
324.03	1718.25
324.24	1675.24
324.45	1718.25
324.66	1718.25
324.88	1757.16
325.09	1804.26
325.30	1742.82
325.52	1732.58
325.73	1816.55
325.94	1665.00
326.15	1562.60
326.37	1650.66
326.58	1804.26
326.79	1820.64
327.00	1638.38
327.22	1710.05
327.43	1765.35
327.64	1675.24
327.85	1751.01
328.07	1748.97
328.28	1845.22
328.49	1726.44
328.70	1738.73
328.92	1748.97
329.13	1650.66
329.34	1724.39
329.55	1787.88
329.76	1830.88
329.98	1714.15
330.19	1705.96
330.40	1703.91
330.61	1798.12
330.83	1742.82
331.04	1648.61
331.25	1732.58
331.46	1660.90
331.68	1611.75
331.89	1751.01
332.10	1730.53
332.31	1665.00
332.52	1693.67
332.74	1757.16
332.95	1621.99
333.16	1787.88
333.37	1673.19
333.58	1665.00
333.80	1732.58
334.01	1644.52
334.22	1689.57
334.43	1619.94
334.64	1689.57
334.86	1656.81
335.07	1650.66
335.28	1763.30
335.49	1695.72
335.70	1755.11
335.92	1726.44
336.13	1777.64
336.34	1705.96
336.55	1755.11
336.76	1710.05
336.98	1599.46
337.19	1718.25
337.40	1837.03
337.61	1863.65
337.82	1665.00
338.04	1849.32
338.25	1662.95
338.46	1689.57
338.67	1755.11
338.88	1740.77
339.09	1675.24
339.31	1632.23
339.52	1611.75
339.73	1671.14
339.94	1701.86
340.15	1794.02
340.36	1665.00
340.58	1646.57
340.79	1650.66
341.00	1701.86
341.21	1652.71
341.42	1757.16
341.63	1660.90
341.85	1732.58
342.06	1720.29
342.27	1681.38
342.48	1777.64
342.69	1615.85
342.90	1734.63
343.12	1785.83
343.33	1738.73
343.54	1755.11
343.75	1820.64
343.96	1732.58
344.17	1685.48
344.38	1705.96
344.60	1687.53
344.81	1662.95
345.02	1779.68
345.23	1828.84
345.44	1802.21
345.65	1800.16
345.86	1710.05
346.07	1660.90
346.29	1697.77
346.50	1726.44
346.71	1781.73
346.92	1775.59
347.13	1828.84
347.34	1728.49
347.55	1789.92
347.76	1693.67
347.98	1662.95
348.19	1677.29
348.40	1738.73
348.61	1726.44
348.82	1865.70
349.03	1656.81
349.24	1701.86
349.45	1877.99
349.66	1591.27
349.88	1759.21
350.09	1740.77
350.30	1744.87
350.51	1718.25
350.72	1755.11
350.93	1767.40
351.14	1656.81
351.35	1765.35
351.56	1722.34
351.77	1701.86
351.99	1726.44
352.20	1773.54
352.41	1761.25
352.62	1599.46
352.83	1710.05
353.04	1673.19
353.25	1689.57
353.46	1734.63
353.67	1763.30
353.88	1652.71
354.09	1650.66
354.30	1724.39
354.52	1687.53
354.73	1751.01
354.94	1687.53
355.15	1658.85
355.36	1886.18
355.57	1679.33
355.78	1724.39
355.99	1687.53
356.20	1712.10
356.41	1763.30
356.62	1746.92
356.83	1662.95
357.04	1791.97
357.25	1679.33
357.46	1677.29
357.68	1617.90
357.89	1687.53
358.10	1669.09
358.31	1681.38
358.52	1693.67
358.73	1701.86
358.94	1722.34
359.15	1589.22
359.36	1771.49
359.57	1730.53
359.78	1722.34
359.99	1730.53
360.20	1609.70
360.41	1775.59
360.62	1730.53
360.83	1740.77
361.04	1701.86
361.25	1732.58
361.46	1796.07
361.67	1751.01
361.88	1773.54
362.09	1794.02
362.30	1726.44
362.51	1636.33
362.72	1701.86
362.93	1718.25
363.14	1742.82
363.35	1720.29
363.56	1658.85
363.78	1726.44
363.99	1787.88
364.20	1714.15
364.41	1800.16
364.62	1808.36
364.83	1683.43
365.04	1751.01
365.25	1687.53
365.46	1789.92
365.67	1675.24
365.88	1658.85
366.09	1722.34
366.30	1648.61
366.51	1665.00
366.72	1669.09
366.93	1718.25
367.14	1699.81
367.35	1806.31
367.56	1665.00
367.77	1740.77
367.98	1699.81
368.18	1740.77
368.39	1732.58
368.60	1658.85
368.81	1751.01
369.02	1767.40
369.23	1662.95
369.44	1640.42
369.65	1648.61
369.86	1740.77
370.07	1787.88
370.28	1720.29
370.49	1751.01
370.70	1722.34
370.91	1585.13
371.12	1599.46
371.33	1746.92
371.54	1673.19
371.75	1820.64
371.96	1593.32
372.17	1734.63
372.38	1665.00
372.59	1794.02
372.80	1636.33
373.01	1722.34
373.22	1734.63
373.43	1710.05
373.64	1658.85
373.85	1796.07
374.06	1816.55
374.26	1705.96
374.47	1701.86
374.68	1818.60
374.89	1708.01
375.10	1714.15
375.31	1759.21
375.52	1708.01
375.73	1740.77
375.94	1693.67
376.15	1794.02
376.36	1767.40
376.57	1654.76
376.78	1714.15
376.99	1824.74
377.20	1853.41
377.40	1687.53
377.61	1769.44
377.82	1705.96
378.03	1767.40
378.24	1759.21
378.45	1697.77
378.66	1740.77
378.87	1574.89
379.08	1609.70
379.29	1773.54
379.50	1730.53
379.71	1679.33
379.91	1742.82
380.12	1726.44
380.33	1724.39
380.54	1699.81
380.75	1720.29
380.96	1734.63
381.17	1732.58
381.38	1695.72
381.59	1720.29
381.80	1755.11
382.00	1824.74
382.21	1751.01
382.42	1849.32
382.63	1867.75
382.84	1806.31
383.05	1849.32
383.26	1806.31
383.47	1734.63
383.68	1806.31
383.88	1785.83
384.09	1730.53
384.30	1843.17
384.51	1665.00
384.72	1632.23
384.93	1669.09
385.14	1781.73
385.35	1769.44
385.55	1626.09
385.76	1703.91
385.97	1679.33
386.18	1642.47
386.39	1675.24
386.60	1648.61
386.81	1734.63
387.02	1753.06
387.22	1667.05
387.43	1771.49
387.64	1781.73
387.85	1927.14
388.06	2209.76
388.27	4218.82
388.48	6520.73
388.68	8146.82
388.89	9322.35
389.10	9654.12
389.31	8406.91
389.52	7536.52
389.73	6719.39
389.93	6195.11
390.14	5865.38
390.35	5232.56
390.56	4485.05
390.77	3684.30
390.98	3016.66
391.18	2586.58
391.39	2150.37
391.60	1857.51
391.81	1828.84
392.02	1748.97
392.23	1812.45
392.43	1748.97
392.64	1775.59
392.85	1669.09
393.06	1851.36
393.27	1716.20
393.47	1742.82
393.68	1775.59
393.89	1755.11
394.10	1763.30
394.31	1705.96
394.52	1640.42
394.72	1673.19
394.93	1794.02
395.14	1654.76
395.35	1791.97
395.56	1679.33
395.76	1759.21
395.97	1773.54
396.18	1898.47
396.39	1773.54
396.60	1992.67
396.80	1923.04
397.01	1783.78
397.22	1804.26
397.43	1814.50
397.64	1736.68
397.84	1779.68
398.05	1818.60
398.26	1746.92
398.47	1826.79
398.67	1775.59
398.88	1714.15
399.09	1697.77
399.30	1685.48
399.51	1822.69
399.71	1656.81
399.92	1730.53
400.13	1730.53
400.34	1687.53
400.54	1677.29
400.75	1855.46
400.96	1736.68
401.17	1865.70
401.37	1757.16
401.58	1691.62
401.79	1763.30
402.00	1843.17
402.21	1976.29
402.41	1978.34
402.62	2045.92
402.83	2025.44
403.04	2099.17
403.24	2115.55
403.45	1818.60
403.66	1902.56
403.87	1859.56
404.07	1890.28
404.28	1904.61
404.49	1898.47
404.70	1718.25
404.90	1791.97
405.11	1738.73
405.32	1791.97
405.52	1685.48
405.73	1701.86
405.94	1632.23
406.15	1779.68
406.35	1673.19
406.56	1718.25
406.77	1794.02
406.98	1714.15
407.18	1658.85
407.39	1837.03
407.60	1746.92
407.80	1699.81
408.01	1660.90
408.22	1701.86
408.43	1693.67
408.63	1767.40
408.84	1738.73
409.05	1738.73
409.25	1699.81
409.46	1732.58
409.67	1730.53
409.88	1712.10
410.08	1748.97
410.29	1693.67
410.50	1677.29
410.70	1740.77
410.91	1703.91
411.12	1689.57
411.32	1658.85
411.53	1701.86
411.74	1834.98
411.95	1798.12
412.15	1789.92
412.36	1771.49
412.57	1816.55
412.77	1812.45
412.98	1675.24
413.19	1628.14
413.39	1773.54
413.60	1705.96
413.81	1783.78
414.01	1705.96
414.22	1740.77
414.43	1781.73
414.63	1671.14
414.84	1820.64
415.05	1677.29
415.25	1642.47
415.46	1753.06
415.67	1665.00
415.87	1691.62
416.08	1767.40
416.29	1724.39
416.49	1710.05
416.70	1722.34
416.91	1718.25
417.11	1708.01
417.32	1785.83
417.53	1798.12
417.73	1808.36
417.94	1726.44
418.15	1720.29
418.35	1796.07
418.56	1740.77
418.77	1880.04
418.97	1697.77
419.18	1744.87
419.38	1613.80
419.59	1638.38
419.80	1757.16
420.00	1751.01
420.21	1763.30
420.42	1837.03
420.62	1716.20
420.83	1595.37
421.04	1736.68
421.24	1669.09
421.45	1757.16
421.65	1736.68
421.86	1755.11
422.07	1753.06
422.27	1734.63
422.48	1697.77
422.69	1599.46
422.89	1695.72
423.10	1701.86
423.30	1712.10
423.51	1763.30
423.72	1748.97
423.92	1798.12
424.13	1671.14
424.33	1769.44
424.54	1787.88
424.75	1724.39
424.95	1849.32
425.16	1724.39
425.36	1705.96
425.57	1681.38
425.78	1781.73
425.98	1724.39
426.19	1732.58
426.39	1671.14
426.60	1671.14
426.81	1859.56
427.01	1736.68
427.22	1681.38
427.42	1593.32
427.63	1691.62
427.83	1755.11
428.04	1822.69
428.25	1845.22
428.45	1798.12
428.66	1783.78
428.86	1724.39
429.07	1703.91
429.28	1728.49
429.48	1665.00
429.69	1689.57
429.89	1734.63
430.10	1775.59
430.30	1695.72
430.51	1765.35
430.71	1640.42
430.92	1701.86
431.13	1697.77
431.33	1753.06
431.54	1818.60
431.74	1857.51
431.95	1806.31
432.15	1650.66
432.36	1767.40
432.56	1769.44
432.77	1882.08
432.98	1767.40
433.18	1757.16
433.39	1662.95
433.59	1669.09
433.80	1843.17
434.00	1910.75
434.21	1673.19
434.41	1621.99
434.62	1847.27
434.82	1742.82
435.03	1626.09
435.23	1724.39
435.44	1599.46
435.64	1751.01
435.85	1798.12
436.06	1718.25
436.26	1740.77
436.47	1703.91
436.67	1699.81
436.88	1673.19
437.08	1771.49
437.29	1810.40
437.49	1777.64
437.70	1763.30
437.90	1816.55
438.11	1871.84
438.31	1765.35
438.52	1906.66
438.72	1849.32
438.93	1832.93
439.13	1814.50
439.34	1867.75
439.54	1710.05
439.75	1787.88
439.95	1812.45
440.16	1728.49
440.36	1800.16
440.57	1763.30
440.77	1763.30
440.98	1794.02
441.18	1781.73
441.39	1773.54
441.59	1744.87
441.80	1847.27
442.00	1720.29
442.21	1853.41
442.41	1673.19
442.62	1742.82
442.82	1658.85
443.02	1705.96
443.23	1718.25
443.43	1742.82
443.64	1814.50
443.84	1640.42
444.05	1822.69
444.25	1654.76
444.46	1669.09
444.66	1757.16
444.87	1888.23
445.07	1757.16
445.28	1746.92
445.48	1724.39
445.69	1837.03
445.89	1873.89
446.09	1798.12
446.30	1957.86
446.50	2713.56
446.71	3692.49
446.91	4319.17
447.12	4757.43
447.32	4839.35
447.53	4290.49
447.73	3928.00
447.93	3465.16
448.14	3278.80
448.34	3205.07
448.55	2975.70
448.75	2838.48
448.96	2639.83
449.16	2484.19
449.36	2238.43
449.57	2115.55
449.77	1877.99
449.98	1818.60
450.18	1869.80
450.39	1800.16
450.59	1765.35
450.79	1769.44
451.00	1701.86
451.20	1802.21
451.41	1703.91
451.61	1794.02
451.81	1781.73
452.02	1746.92
452.22	1691.62
452.43	1673.19
452.63	1738.73
