SpectraSuite Data File
++++++++++++++++++++++++++++++++++++
Date: Mon Jun 06 17:25:57 CEST 2016
User: root
Dark Spectrum Present: No
Reference Spectrum Present: No
Number of Sampled Component Spectra: 1
Spectrometers: USB4C02835
Integration Time (usec): 100000 (USB4C02835)
Spectra Averaged: 1 (USB4C02835)
Boxcar Smoothing: 0 (USB4C02835)
Correct for Electrical Dark: No (USB4C02835)
Strobe/Lamp Enabled: No (USB4C02835)
Correct for Detector Non-linearity: No (USB4C02835)
Correct for Stray Light: No (USB4C02835)
Number of Pixels in Processed Spectrum: 3648
>>>>>Begin Processed Spectral Data<<<<<
177.47	1490.92
177.69	1490.92
177.91	1490.92
178.13	1454.06
178.36	1452.01
178.58	1693.67
178.80	1703.91
179.02	1673.19
179.24	1640.42
179.46	1673.19
179.68	1763.30
179.90	1771.49
180.13	1652.71
180.35	1716.20
180.57	1669.09
180.79	1718.25
181.01	1613.80
181.23	1722.34
181.45	1726.44
181.67	1757.16
181.90	1716.20
182.12	1730.53
182.34	1568.74
182.56	1757.16
182.78	1769.44
183.00	1703.91
183.22	1773.54
183.44	1601.51
183.66	1849.32
183.89	1791.97
184.11	1746.92
184.33	1779.68
184.55	1806.31
184.77	1734.63
184.99	1718.25
185.21	1679.33
185.43	1875.94
185.65	1746.92
185.87	1685.48
186.10	1783.78
186.32	1869.80
186.54	1701.86
186.76	1710.05
186.98	1720.29
187.20	1671.14
187.42	1695.72
187.64	1650.66
187.86	1716.20
188.08	1818.60
188.30	1691.62
188.52	1675.24
188.75	1763.30
188.97	1746.92
189.19	1695.72
189.41	1640.42
189.63	1751.01
189.85	1671.14
190.07	1687.53
190.29	1689.57
190.51	1808.36
190.73	1675.24
190.95	1789.92
191.17	1722.34
191.39	1679.33
191.61	1734.63
191.84	1695.72
192.06	1736.68
192.28	1607.66
192.50	1882.08
192.72	1755.11
192.94	1665.00
193.16	1845.22
193.38	1763.30
193.60	1722.34
193.82	1714.15
194.04	1796.07
194.26	1755.11
194.48	1746.92
194.70	1601.51
194.92	1638.38
195.14	1785.83
195.36	1660.90
195.58	1746.92
195.80	1669.09
196.02	1683.43
196.24	1767.40
196.46	1785.83
196.69	1697.77
196.91	1808.36
197.13	1701.86
197.35	1669.09
197.57	1775.59
197.79	1740.77
198.01	1773.54
198.23	1783.78
198.45	1675.24
198.67	1581.03
198.89	1683.43
199.11	1671.14
199.33	1650.66
199.55	1550.31
199.77	1671.14
199.99	1722.34
200.21	1699.81
200.43	1718.25
200.65	1624.04
200.87	1648.61
201.09	1683.43
201.31	1738.73
201.53	1777.64
201.75	1808.36
201.97	1732.58
202.19	1718.25
202.41	1732.58
202.63	1834.98
202.85	1730.53
203.07	1779.68
203.29	1671.14
203.51	1726.44
203.73	1624.04
203.95	1927.14
204.17	1681.38
204.39	1677.29
204.61	1744.87
204.83	1734.63
205.05	1779.68
205.27	1804.26
205.49	1808.36
205.71	1687.53
205.93	1621.99
206.15	1642.47
206.37	1724.39
206.59	1753.06
206.81	1673.19
207.03	1701.86
207.25	1710.05
207.47	1787.88
207.69	1796.07
207.91	1771.49
208.13	1763.30
208.34	1763.30
208.56	1638.38
208.78	1734.63
209.00	1757.16
209.22	1665.00
209.44	1722.34
209.66	1681.38
209.88	1765.35
210.10	1728.49
210.32	1617.90
210.54	1757.16
210.76	1675.24
210.98	1769.44
211.20	1560.55
211.42	1710.05
211.64	1794.02
211.86	1751.01
212.08	1857.51
212.30	1658.85
212.52	1658.85
212.74	1726.44
212.96	1724.39
213.17	1806.31
213.39	1724.39
213.61	1765.35
213.83	1693.67
214.05	1730.53
214.27	1671.14
214.49	1632.23
214.71	1703.91
214.93	1775.59
215.15	1619.94
215.37	1748.97
215.59	1642.47
215.81	1800.16
216.03	1806.31
216.24	1796.07
216.46	1667.05
216.68	1658.85
216.90	1777.64
217.12	1779.68
217.34	1689.57
217.56	1824.74
217.78	1753.06
218.00	1705.96
218.22	1783.78
218.44	1710.05
218.66	1724.39
218.87	1824.74
219.09	1695.72
219.31	1822.69
219.53	1791.97
219.75	1753.06
219.97	1695.72
220.19	1816.55
220.41	1728.49
220.63	1736.68
220.85	1748.97
221.06	1603.56
221.28	1828.84
221.50	1724.39
221.72	1767.40
221.94	1744.87
222.16	1753.06
222.38	1843.17
222.60	1806.31
222.82	1695.72
223.03	1751.01
223.25	1642.47
223.47	1783.78
223.69	1814.50
223.91	1753.06
224.13	1701.86
224.35	1712.10
224.57	1789.92
224.78	1746.92
225.00	1611.75
225.22	1689.57
225.44	1738.73
225.66	1753.06
225.88	1746.92
226.10	1798.12
226.32	1724.39
226.53	1812.45
226.75	1642.47
226.97	1808.36
227.19	1724.39
227.41	1720.29
227.63	1683.43
227.85	1603.56
228.06	1712.10
228.28	1734.63
228.50	1775.59
228.72	1712.10
228.94	1669.09
229.16	1591.27
229.37	1624.04
229.59	1695.72
229.81	1783.78
230.03	1693.67
230.25	1677.29
230.47	1599.46
230.69	1652.71
230.90	1775.59
231.12	1630.18
231.34	1767.40
231.56	1771.49
231.78	1617.90
232.00	1738.73
232.21	1716.20
232.43	1673.19
232.65	1517.54
232.87	1789.92
233.09	1710.05
233.30	1597.42
233.52	1794.02
233.74	1722.34
233.96	1736.68
234.18	1763.30
234.40	1701.86
234.61	1828.84
234.83	1640.42
235.05	1660.90
235.27	1869.80
235.49	1832.93
235.70	1728.49
235.92	1796.07
236.14	1697.77
236.36	1818.60
236.58	1689.57
236.79	1738.73
237.01	1644.52
237.23	1742.82
237.45	1796.07
237.67	1714.15
237.88	1843.17
238.10	1849.32
238.32	1660.90
238.54	1689.57
238.76	1677.29
238.97	1646.57
239.19	1587.18
239.41	1734.63
239.63	1812.45
239.85	1804.26
240.06	1732.58
240.28	1701.86
240.50	1777.64
240.72	1736.68
240.93	1738.73
241.15	1820.64
241.37	1787.88
241.59	1791.97
241.81	1712.10
242.02	1667.05
242.24	1767.40
242.46	1697.77
242.68	1699.81
242.89	1736.68
243.11	1744.87
243.33	1738.73
243.55	1701.86
243.76	1685.48
243.98	1712.10
244.20	1685.48
244.42	1695.72
244.64	1716.20
244.85	1673.19
245.07	1650.66
245.29	1765.35
245.51	1687.53
245.72	1742.82
245.94	1746.92
246.16	1738.73
246.38	1728.49
246.59	1710.05
246.81	1701.86
247.03	1765.35
247.24	1599.46
247.46	1677.29
247.68	1679.33
247.90	1724.39
248.11	1687.53
248.33	1804.26
248.55	1751.01
248.77	1730.53
248.98	1802.21
249.20	1775.59
249.42	1705.96
249.64	1777.64
249.85	1720.29
250.07	1626.09
250.29	1773.54
250.50	1765.35
250.72	1615.85
250.94	1697.77
251.16	1798.12
251.37	1812.45
251.59	1869.80
251.81	1683.43
252.02	1732.58
252.24	1665.00
252.46	1800.16
252.68	1628.14
252.89	1730.53
253.11	1617.90
253.33	1812.45
253.54	1779.68
253.76	1689.57
253.98	1728.49
254.20	1708.01
254.41	1734.63
254.63	1689.57
254.85	1679.33
255.06	1728.49
255.28	1722.34
255.50	1689.57
255.71	1652.71
255.93	1624.04
256.15	1599.46
256.36	1732.58
256.58	1624.04
256.80	1722.34
257.02	1697.77
257.23	1765.35
257.45	1689.57
257.67	1820.64
257.88	1640.42
258.10	1681.38
258.32	1699.81
258.53	1759.21
258.75	1783.78
258.97	1648.61
259.18	1791.97
259.40	1734.63
259.62	1857.51
259.83	1730.53
260.05	1695.72
260.27	1961.95
260.48	1732.58
260.70	1642.47
260.92	1681.38
261.13	1738.73
261.35	1693.67
261.57	1787.88
261.78	1665.00
262.00	1636.33
262.22	1800.16
262.43	1632.23
262.65	1738.73
262.86	1744.87
263.08	1742.82
263.30	1763.30
263.51	1662.95
263.73	1689.57
263.95	1828.84
264.16	1587.18
264.38	1660.90
264.60	1681.38
264.81	1691.62
265.03	1722.34
265.25	1738.73
265.46	1714.15
265.68	1753.06
265.89	1742.82
266.11	1720.29
266.33	1726.44
266.54	1769.44
266.76	1767.40
266.98	1701.86
267.19	1837.03
267.41	1763.30
267.62	1726.44
267.84	1560.55
268.06	1742.82
268.27	1687.53
268.49	1869.80
268.70	1796.07
268.92	1642.47
269.14	1644.52
269.35	1658.85
269.57	1751.01
269.79	1781.73
270.00	1687.53
270.22	1822.69
270.43	1697.77
270.65	1595.37
270.87	1759.21
271.08	1775.59
271.30	1736.68
271.51	1746.92
271.73	1710.05
271.95	1812.45
272.16	1751.01
272.38	1724.39
272.59	1712.10
272.81	1812.45
273.02	1662.95
273.24	1695.72
273.46	1708.01
273.67	1652.71
273.89	1638.38
274.10	1724.39
274.32	1802.21
274.54	1726.44
274.75	1794.02
274.97	1699.81
275.18	1701.86
275.40	1736.68
275.61	1748.97
275.83	1693.67
276.05	1708.01
276.26	1705.96
276.48	1722.34
276.69	1701.86
276.91	1628.14
277.12	1767.40
277.34	1765.35
277.55	1814.50
277.77	1806.31
277.99	1656.81
278.20	1730.53
278.42	1667.05
278.63	1601.51
278.85	1736.68
279.06	1632.23
279.28	1679.33
279.49	1769.44
279.71	1796.07
279.93	1714.15
280.14	1642.47
280.36	1660.90
280.57	1771.49
280.79	1718.25
281.00	1730.53
281.22	1665.00
281.43	1726.44
281.65	1552.36
281.86	1636.33
282.08	1728.49
282.29	1847.27
282.51	1628.14
282.73	1626.09
282.94	1640.42
283.16	1714.15
283.37	1751.01
283.59	1665.00
283.80	1763.30
284.02	1673.19
284.23	1791.97
284.45	1708.01
284.66	1634.28
284.88	1646.57
285.09	1720.29
285.31	1757.16
285.52	1757.16
285.74	1566.70
285.95	1736.68
286.17	1775.59
286.38	1787.88
286.60	1722.34
286.81	1722.34
287.03	1730.53
287.24	1705.96
287.46	1734.63
287.67	1757.16
287.89	1796.07
288.10	1716.20
288.32	1718.25
288.53	1810.40
288.75	1738.73
288.96	1736.68
289.18	1667.05
289.39	1683.43
289.61	1791.97
289.82	1755.11
290.04	1845.22
290.25	1624.04
290.47	1712.10
290.68	1650.66
290.90	1834.98
291.11	1597.42
291.33	1812.45
291.54	1652.71
291.76	1712.10
291.97	1777.64
292.18	1726.44
292.40	1728.49
292.61	1708.01
292.83	1886.18
293.04	1738.73
293.26	1755.11
293.47	1693.67
293.69	1716.20
293.90	1714.15
294.12	1787.88
294.33	1687.53
294.55	1695.72
294.76	1759.21
294.97	1839.08
295.19	1871.84
295.40	1691.62
295.62	1714.15
295.83	1716.20
296.05	1652.71
296.26	1767.40
296.48	1656.81
296.69	1751.01
296.90	1724.39
297.12	1744.87
297.33	1683.43
297.55	1687.53
297.76	1730.53
297.98	1773.54
298.19	1738.73
298.41	1730.53
298.62	1693.67
298.83	1798.12
299.05	1697.77
299.26	1695.72
299.48	1714.15
299.69	1755.11
299.90	1689.57
300.12	1699.81
300.33	1730.53
300.55	1703.91
300.76	1775.59
300.98	1638.38
301.19	1722.34
301.40	1656.81
301.62	1628.14
301.83	1726.44
302.05	1697.77
302.26	1742.82
302.47	1673.19
302.69	1613.80
302.90	1705.96
303.12	1589.22
303.33	1732.58
303.54	1728.49
303.76	1650.66
303.97	1693.67
304.19	1794.02
304.40	1742.82
304.61	1697.77
304.83	1804.26
305.04	1740.77
305.26	1697.77
305.47	1632.23
305.68	1757.16
305.90	1650.66
306.11	1728.49
306.33	1746.92
306.54	1705.96
306.75	1667.05
306.97	1634.28
307.18	1626.09
307.39	1761.25
307.61	1744.87
307.82	1712.10
308.04	1771.49
308.25	1718.25
308.46	1677.29
308.68	1738.73
308.89	1714.15
309.10	1746.92
309.32	1816.55
309.53	1669.09
309.74	1738.73
309.96	1621.99
310.17	1767.40
310.39	1714.15
310.60	1757.16
310.81	1669.09
311.03	1660.90
311.24	1800.16
311.45	1728.49
311.67	1826.79
311.88	1693.67
312.09	1679.33
312.31	1718.25
312.52	1693.67
312.73	1679.33
312.95	1656.81
313.16	1705.96
313.37	1851.36
313.59	1662.95
313.80	1746.92
314.01	1796.07
314.23	1660.90
314.44	1685.48
314.65	1701.86
314.87	1642.47
315.08	1675.24
315.29	1699.81
315.51	1703.91
315.72	1677.29
315.93	1886.18
316.15	1765.35
316.36	1691.62
316.57	1775.59
316.79	1732.58
317.00	1722.34
317.21	1755.11
317.43	1699.81
317.64	1744.87
317.85	1757.16
318.07	1681.38
318.28	1796.07
318.49	1814.50
318.70	1898.47
318.92	1861.60
319.13	1890.28
319.34	1867.75
319.56	1763.30
319.77	1781.73
319.98	1796.07
320.20	1785.83
320.41	1722.34
320.62	1757.16
320.83	1769.44
321.05	1812.45
321.26	1845.22
321.47	1753.06
321.69	1769.44
321.90	1648.61
322.11	1683.43
322.32	1703.91
322.54	1765.35
322.75	1738.73
322.96	1853.41
323.18	1665.00
323.39	1595.37
323.60	1701.86
323.81	1701.86
324.03	1679.33
324.24	1685.48
324.45	1726.44
324.66	1677.29
324.88	1740.77
325.09	1724.39
325.30	1693.67
325.52	1718.25
325.73	1650.66
325.94	1607.66
326.15	1632.23
326.37	1691.62
326.58	1794.02
326.79	1830.88
327.00	1744.87
327.22	1710.05
327.43	1667.05
327.64	1632.23
327.85	1730.53
328.07	1759.21
328.28	1789.92
328.49	1658.85
328.70	1699.81
328.92	1626.09
329.13	1699.81
329.34	1716.20
329.55	1779.68
329.76	1773.54
329.98	1683.43
330.19	1724.39
330.40	1775.59
330.61	1712.10
330.83	1783.78
331.04	1697.77
331.25	1767.40
331.46	1685.48
331.68	1728.49
331.89	1775.59
332.10	1746.92
332.31	1693.67
332.52	1660.90
332.74	1849.32
332.95	1652.71
333.16	1667.05
333.37	1730.53
333.58	1654.76
333.80	1738.73
334.01	1658.85
334.22	1724.39
334.43	1652.71
334.64	1695.72
334.86	1607.66
335.07	1658.85
335.28	1785.83
335.49	1648.61
335.70	1703.91
335.92	1695.72
336.13	1802.21
336.34	1812.45
336.55	1806.31
336.76	1714.15
336.98	1599.46
337.19	1648.61
337.40	1824.74
337.61	1855.46
337.82	1640.42
338.04	1699.81
338.25	1601.51
338.46	1703.91
338.67	1714.15
338.88	1640.42
339.09	1662.95
339.31	1679.33
339.52	1673.19
339.73	1705.96
339.94	1714.15
340.15	1800.16
340.36	1634.28
340.58	1767.40
340.79	1699.81
341.00	1746.92
341.21	1599.46
341.42	1783.78
341.63	1779.68
341.85	1783.78
342.06	1660.90
342.27	1671.14
342.48	1773.54
342.69	1601.51
342.90	1734.63
343.12	1757.16
343.33	1697.77
343.54	1714.15
343.75	1800.16
343.96	1701.86
344.17	1683.43
344.38	1685.48
344.60	1753.06
344.81	1638.38
345.02	1720.29
345.23	1796.07
345.44	1796.07
345.65	1759.21
345.86	1701.86
346.07	1673.19
346.29	1759.21
346.50	1705.96
346.71	1808.36
346.92	1814.50
347.13	1830.88
347.34	1746.92
347.55	1714.15
347.76	1771.49
347.98	1658.85
348.19	1662.95
348.40	1722.34
348.61	1677.29
348.82	1763.30
349.03	1677.29
349.24	1728.49
349.45	1865.70
349.66	1609.70
349.88	1742.82
350.09	1746.92
350.30	1832.93
350.51	1771.49
350.72	1742.82
350.93	1697.77
351.14	1714.15
351.35	1718.25
351.56	1744.87
351.77	1689.57
351.99	1646.57
352.20	1812.45
352.41	1748.97
352.62	1650.66
352.83	1765.35
353.04	1648.61
353.25	1687.53
353.46	1775.59
353.67	1837.03
353.88	1695.72
354.09	1732.58
354.30	1675.24
354.52	1843.17
354.73	1705.96
354.94	1673.19
355.15	1617.90
355.36	1837.03
355.57	1634.28
355.78	1734.63
355.99	1705.96
356.20	1712.10
356.41	1785.83
356.62	1648.61
356.83	1771.49
357.04	1816.55
357.25	1677.29
357.46	1695.72
357.68	1597.42
357.89	1681.38
358.10	1722.34
358.31	1662.95
358.52	1671.14
358.73	1673.19
358.94	1687.53
359.15	1755.11
359.36	1753.06
359.57	1675.24
359.78	1683.43
359.99	1748.97
360.20	1638.38
360.41	1728.49
360.62	1763.30
360.83	1681.38
361.04	1693.67
361.25	1773.54
361.46	1851.36
361.67	1712.10
361.88	1722.34
362.09	1736.68
362.30	1812.45
362.51	1654.76
362.72	1740.77
362.93	1705.96
363.14	1845.22
363.35	1726.44
363.56	1714.15
363.78	1787.88
363.99	1789.92
364.20	1726.44
364.41	1722.34
364.62	1781.73
364.83	1665.00
365.04	1697.77
365.25	1734.63
365.46	1834.98
365.67	1730.53
365.88	1609.70
366.09	1644.52
366.30	1777.64
366.51	1714.15
366.72	1699.81
366.93	1708.01
367.14	1746.92
367.35	1863.65
367.56	1753.06
367.77	1828.84
367.98	1763.30
368.18	1712.10
368.39	1691.62
368.60	1593.32
368.81	1730.53
369.02	1804.26
369.23	1671.14
369.44	1591.27
369.65	1681.38
369.86	1712.10
370.07	1796.07
370.28	1722.34
370.49	1734.63
370.70	1734.63
370.91	1566.70
371.12	1685.48
371.33	1775.59
371.54	1638.38
371.75	1814.50
371.96	1621.99
372.17	1783.78
372.38	1724.39
372.59	1667.05
372.80	1699.81
373.01	1753.06
373.22	1667.05
373.43	1716.20
373.64	1705.96
373.85	1800.16
374.06	1757.16
374.26	1734.63
374.47	1806.31
374.68	1712.10
374.89	1665.00
375.10	1742.82
375.31	1820.64
375.52	1755.11
375.73	1732.58
375.94	1662.95
376.15	1802.21
376.36	1691.62
376.57	1679.33
376.78	1644.52
376.99	1726.44
377.20	1744.87
377.40	1708.01
377.61	1824.74
377.82	1681.38
378.03	1802.21
378.24	1691.62
378.45	1724.39
378.66	1765.35
378.87	1648.61
379.08	1624.04
379.29	1734.63
379.50	1816.55
379.71	1722.34
379.91	1830.88
380.12	1634.28
380.33	1693.67
380.54	1695.72
380.75	1648.61
380.96	1644.52
381.17	1769.44
381.38	1703.91
381.59	1730.53
381.80	1757.16
382.00	1832.93
382.21	1789.92
382.42	1843.17
382.63	1814.50
382.84	1697.77
383.05	1814.50
383.26	1812.45
383.47	1732.58
383.68	1675.24
383.88	1724.39
384.09	1697.77
384.30	1820.64
384.51	1716.20
384.72	1656.81
384.93	1718.25
385.14	1701.86
385.35	1751.01
385.55	1609.70
385.76	1746.92
385.97	1734.63
386.18	1613.80
386.39	1705.96
386.60	1697.77
386.81	1765.35
387.02	1681.38
387.22	1695.72
387.43	1740.77
387.64	1785.83
387.85	1814.50
388.06	2191.33
388.27	4163.52
388.48	6735.77
388.68	8198.02
388.89	9668.46
389.10	9858.92
389.31	8609.66
389.52	7499.66
389.73	6729.63
389.93	6205.35
390.14	5779.37
390.35	5054.39
390.56	4491.20
390.77	3749.83
390.98	3008.47
391.18	2500.57
391.39	2088.93
391.60	1816.55
391.81	1822.69
392.02	1720.29
392.23	1937.38
392.43	1716.20
392.64	1798.12
392.85	1773.54
393.06	1812.45
393.27	1734.63
393.47	1665.00
393.68	1771.49
393.89	1753.06
394.10	1771.49
394.31	1656.81
394.52	1720.29
394.72	1726.44
394.93	1783.78
395.14	1626.09
395.35	1705.96
395.56	1730.53
395.76	1736.68
395.97	1794.02
396.18	1830.88
396.39	1843.17
396.60	2002.91
396.80	1875.94
397.01	1859.56
397.22	1781.73
397.43	1828.84
397.64	1810.40
397.84	1800.16
398.05	1853.41
398.26	1767.40
398.47	1763.30
398.67	1849.32
398.88	1722.34
399.09	1804.26
399.30	1601.51
399.51	1734.63
399.71	1648.61
399.92	1789.92
400.13	1718.25
400.34	1728.49
400.54	1681.38
400.75	1738.73
400.96	1759.21
401.17	1839.08
401.37	1765.35
401.58	1755.11
401.79	1691.62
402.00	1890.28
402.21	2000.87
402.41	1951.71
402.62	1941.47
402.83	2015.20
403.04	1998.82
403.24	2029.54
403.45	1951.71
403.66	1923.04
403.87	1869.80
404.07	1918.95
404.28	1898.47
404.49	1839.08
404.70	1718.25
404.90	1808.36
405.11	1673.19
405.32	1763.30
405.52	1699.81
405.73	1699.81
405.94	1658.85
406.15	1718.25
406.35	1734.63
406.56	1746.92
406.77	1753.06
406.98	1767.40
407.18	1722.34
407.39	1771.49
407.60	1746.92
407.80	1751.01
408.01	1656.81
408.22	1708.01
408.43	1677.29
408.63	1757.16
408.84	1740.77
409.05	1734.63
409.25	1718.25
409.46	1701.86
409.67	1691.62
409.88	1656.81
410.08	1843.17
410.29	1734.63
410.50	1705.96
410.70	1720.29
410.91	1722.34
411.12	1658.85
411.32	1753.06
411.53	1705.96
411.74	1837.03
411.95	1765.35
412.15	1718.25
412.36	1724.39
412.57	1724.39
412.77	1730.53
412.98	1710.05
413.19	1726.44
413.39	1753.06
413.60	1730.53
413.81	1783.78
414.01	1730.53
414.22	1722.34
414.43	1781.73
414.63	1667.05
414.84	1804.26
415.05	1714.15
415.25	1726.44
415.46	1726.44
415.67	1748.97
415.87	1812.45
416.08	1740.77
416.29	1634.28
416.49	1822.69
416.70	1636.33
416.91	1667.05
417.11	1687.53
417.32	1736.68
417.53	1820.64
417.73	1812.45
417.94	1677.29
418.15	1746.92
418.35	1701.86
418.56	1763.30
418.77	1794.02
418.97	1699.81
419.18	1654.76
419.38	1628.14
419.59	1675.24
419.80	1853.41
420.00	1693.67
420.21	1751.01
420.42	1796.07
420.62	1748.97
420.83	1720.29
421.04	1681.38
421.24	1603.56
421.45	1761.25
421.65	1726.44
421.86	1652.71
422.07	1796.07
422.27	1699.81
422.48	1726.44
422.69	1607.66
422.89	1738.73
423.10	1708.01
423.30	1656.81
423.51	1765.35
423.72	1648.61
423.92	1781.73
424.13	1701.86
424.33	1755.11
424.54	1705.96
424.75	1775.59
424.95	1806.31
425.16	1771.49
425.36	1685.48
425.57	1796.07
425.78	1763.30
425.98	1753.06
426.19	1734.63
426.39	1683.43
426.60	1703.91
426.81	1742.82
427.01	1705.96
427.22	1683.43
427.42	1595.37
427.63	1562.60
427.83	1689.57
428.04	1800.16
428.25	1820.64
428.45	1800.16
428.66	1740.77
428.86	1804.26
429.07	1730.53
429.28	1691.62
429.48	1710.05
429.69	1601.51
429.89	1769.44
430.10	1679.33
430.30	1710.05
430.51	1808.36
430.71	1716.20
430.92	1769.44
431.13	1640.42
431.33	1751.01
431.54	1740.77
431.74	1820.64
431.95	1845.22
432.15	1720.29
432.36	1789.92
432.56	1791.97
432.77	1787.88
432.98	1806.31
433.18	1695.72
433.39	1705.96
433.59	1626.09
433.80	1822.69
434.00	1855.46
434.21	1652.71
434.41	1728.49
434.62	1800.16
434.82	1648.61
435.03	1697.77
435.23	1708.01
435.44	1628.14
435.64	1658.85
435.85	1785.83
436.06	1708.01
436.26	1896.42
436.47	1669.09
436.67	1669.09
436.88	1757.16
437.08	1818.60
437.29	1853.41
437.49	1662.95
437.70	1779.68
437.90	1787.88
438.11	1882.08
438.31	1765.35
438.52	1830.88
438.72	1898.47
438.93	1892.32
439.13	1777.64
439.34	1742.82
439.54	1699.81
439.75	1828.84
439.95	1834.98
440.16	1751.01
440.36	1732.58
440.57	1742.82
440.77	1744.87
440.98	1712.10
441.18	1847.27
441.39	1660.90
441.59	1656.81
441.80	1814.50
442.00	1802.21
442.21	1834.98
442.41	1613.80
442.62	1779.68
442.82	1712.10
443.02	1740.77
443.23	1736.68
443.43	1689.57
443.64	1863.65
443.84	1714.15
444.05	1845.22
444.25	1703.91
444.46	1775.59
444.66	1701.86
444.87	1796.07
445.07	1648.61
445.28	1730.53
445.48	1824.74
445.69	1779.68
445.89	1941.47
446.09	1787.88
446.30	2029.54
446.50	2672.60
446.71	3737.54
446.91	4390.84
447.12	4886.45
447.32	4812.73
447.53	4319.17
447.73	3835.85
447.93	3585.99
448.14	3409.87
448.34	3211.22
448.55	2942.93
448.75	2772.95
448.96	2607.06
449.16	2451.42
449.36	2306.01
449.57	1986.53
449.77	1920.99
449.98	1796.07
450.18	1847.27
450.39	1828.84
450.59	1775.59
450.79	1818.60
451.00	1751.01
451.20	1845.22
451.41	1644.52
451.61	1787.88
451.81	1736.68
452.02	1728.49
452.22	1724.39
452.43	1722.34
452.63	1746.92
