SpectraSuite Data File
++++++++++++++++++++++++++++++++++++
Date: Mon Jun 06 16:49:57 CEST 2016
User: root
Dark Spectrum Present: No
Reference Spectrum Present: No
Number of Sampled Component Spectra: 1
Spectrometers: USB4C02835
Integration Time (usec): 100000 (USB4C02835)
Spectra Averaged: 1 (USB4C02835)
Boxcar Smoothing: 0 (USB4C02835)
Correct for Electrical Dark: No (USB4C02835)
Strobe/Lamp Enabled: No (USB4C02835)
Correct for Detector Non-linearity: No (USB4C02835)
Correct for Stray Light: No (USB4C02835)
Number of Pixels in Processed Spectrum: 3648
>>>>>Begin Processed Spectral Data<<<<<
177.47	1525.74
177.69	1525.74
177.91	1525.74
178.13	1495.02
178.36	1452.01
178.58	1683.43
178.80	1734.63
179.02	1578.98
179.24	1601.51
179.46	1591.27
179.68	1720.29
179.90	1726.44
180.13	1765.35
180.35	1716.20
180.57	1652.71
180.79	1648.61
181.01	1736.68
181.23	1863.65
181.45	1779.68
181.67	1734.63
181.90	1755.11
182.12	1691.62
182.34	1619.94
182.56	1726.44
182.78	1796.07
183.00	1718.25
183.22	1728.49
183.44	1531.88
183.66	1886.18
183.89	1826.79
184.11	1636.33
184.33	1699.81
184.55	1812.45
184.77	1716.20
184.99	1710.05
185.21	1724.39
185.43	1861.60
185.65	1607.66
185.87	1718.25
186.10	1787.88
186.32	1832.93
186.54	1779.68
186.76	1716.20
186.98	1759.21
187.20	1691.62
187.42	1705.96
187.64	1699.81
187.86	1738.73
188.08	1818.60
188.30	1701.86
188.52	1763.30
188.75	1726.44
188.97	1796.07
189.19	1648.61
189.41	1683.43
189.63	1839.08
189.85	1683.43
190.07	1736.68
190.29	1689.57
190.51	1712.10
190.73	1638.38
190.95	1800.16
191.17	1689.57
191.39	1611.75
191.61	1638.38
191.84	1695.72
192.06	1746.92
192.28	1640.42
192.50	1929.19
192.72	1695.72
192.94	1798.12
193.16	1671.14
193.38	1673.19
193.60	1681.38
193.82	1746.92
194.04	1726.44
194.26	1802.21
194.48	1728.49
194.70	1654.76
194.92	1665.00
195.14	1701.86
195.36	1697.77
195.58	1755.11
195.80	1689.57
196.02	1689.57
196.24	1730.53
196.46	1738.73
196.69	1689.57
196.91	1871.84
197.13	1648.61
197.35	1708.01
197.57	1779.68
197.79	1763.30
198.01	1662.95
198.23	1734.63
198.45	1742.82
198.67	1693.67
198.89	1617.90
199.11	1730.53
199.33	1605.61
199.55	1609.70
199.77	1742.82
199.99	1714.15
200.21	1636.33
200.43	1736.68
200.65	1691.62
200.87	1578.98
201.09	1779.68
201.31	1640.42
201.53	1716.20
201.75	1740.77
201.97	1781.73
202.19	1724.39
202.41	1806.31
202.63	1810.40
202.85	1742.82
203.07	1714.15
203.29	1732.58
203.51	1642.47
203.73	1671.14
203.95	1937.38
204.17	1708.01
204.39	1753.06
204.61	1757.16
204.83	1626.09
205.05	1748.97
205.27	1763.30
205.49	1767.40
205.71	1650.66
205.93	1673.19
206.15	1679.33
206.37	1665.00
206.59	1701.86
206.81	1630.18
207.03	1656.81
207.25	1716.20
207.47	1705.96
207.69	1699.81
207.91	1853.41
208.13	1722.34
208.34	1736.68
208.56	1669.09
208.78	1640.42
209.00	1708.01
209.22	1705.96
209.44	1718.25
209.66	1683.43
209.88	1767.40
210.10	1669.09
210.32	1753.06
210.54	1775.59
210.76	1783.78
210.98	1716.20
211.20	1605.61
211.42	1716.20
211.64	1734.63
211.86	1751.01
212.08	1746.92
212.30	1615.85
212.52	1656.81
212.74	1787.88
212.96	1720.29
213.17	1746.92
213.39	1712.10
213.61	1732.58
213.83	1705.96
214.05	1675.24
214.27	1730.53
214.49	1654.76
214.71	1689.57
214.93	1791.97
215.15	1671.14
215.37	1730.53
215.59	1628.14
215.81	1712.10
216.03	1748.97
216.24	1697.77
216.46	1656.81
216.68	1742.82
216.90	1710.05
217.12	1763.30
217.34	1718.25
217.56	1744.87
217.78	1738.73
218.00	1740.77
218.22	1771.49
218.44	1779.68
218.66	1736.68
218.87	1830.88
219.09	1597.42
219.31	1751.01
219.53	1759.21
219.75	1673.19
219.97	1714.15
220.19	1759.21
220.41	1720.29
220.63	1751.01
220.85	1769.44
221.06	1652.71
221.28	1808.36
221.50	1789.92
221.72	1755.11
221.94	1652.71
222.16	1714.15
222.38	1812.45
222.60	1726.44
222.82	1755.11
223.03	1783.78
223.25	1611.75
223.47	1791.97
223.69	1824.74
223.91	1708.01
224.13	1681.38
224.35	1767.40
224.57	1820.64
224.78	1738.73
225.00	1675.24
225.22	1699.81
225.44	1705.96
225.66	1710.05
225.88	1685.48
226.10	1753.06
226.32	1740.77
226.53	1857.51
226.75	1732.58
226.97	1726.44
227.19	1716.20
227.41	1642.47
227.63	1701.86
227.85	1660.90
228.06	1701.86
228.28	1761.25
228.50	1746.92
228.72	1613.80
228.94	1691.62
229.16	1572.84
229.37	1685.48
229.59	1710.05
229.81	1705.96
230.03	1675.24
230.25	1605.61
230.47	1621.99
230.69	1673.19
230.90	1753.06
231.12	1675.24
231.34	1703.91
231.56	1785.83
231.78	1671.14
232.00	1716.20
232.21	1681.38
232.43	1656.81
232.65	1615.85
232.87	1769.44
233.09	1679.33
233.30	1662.95
233.52	1767.40
233.74	1724.39
233.96	1742.82
234.18	1693.67
234.40	1748.97
234.61	1851.36
234.83	1613.80
235.05	1685.48
235.27	1832.93
235.49	1800.16
235.70	1693.67
235.92	1794.02
236.14	1726.44
236.36	1902.56
236.58	1642.47
236.79	1722.34
237.01	1683.43
237.23	1683.43
237.45	1820.64
237.67	1665.00
237.88	1738.73
238.10	1755.11
238.32	1675.24
238.54	1699.81
238.76	1746.92
238.97	1710.05
239.19	1705.96
239.41	1814.50
239.63	1691.62
239.85	1665.00
240.06	1669.09
240.28	1656.81
240.50	1785.83
240.72	1720.29
240.93	1675.24
241.15	1828.84
241.37	1732.58
241.59	1722.34
241.81	1650.66
242.02	1673.19
242.24	1738.73
242.46	1722.34
242.68	1685.48
242.89	1757.16
243.11	1755.11
243.33	1736.68
243.55	1705.96
243.76	1755.11
243.98	1671.14
244.20	1601.51
244.42	1679.33
244.64	1724.39
244.85	1611.75
245.07	1699.81
245.29	1669.09
245.51	1746.92
245.72	1744.87
245.94	1781.73
246.16	1693.67
246.38	1763.30
246.59	1683.43
246.81	1689.57
247.03	1701.86
247.24	1611.75
247.46	1685.48
247.68	1736.68
247.90	1705.96
248.11	1722.34
248.33	1730.53
248.55	1726.44
248.77	1685.48
248.98	1767.40
249.20	1791.97
249.42	1677.29
249.64	1744.87
249.85	1689.57
250.07	1730.53
250.29	1742.82
250.50	1673.19
250.72	1673.19
250.94	1681.38
251.16	1886.18
251.37	1683.43
251.59	1716.20
251.81	1800.16
252.02	1736.68
252.24	1785.83
252.46	1796.07
252.68	1662.95
252.89	1642.47
253.11	1662.95
253.33	1886.18
253.54	1751.01
253.76	1517.54
253.98	1718.25
254.20	1714.15
254.41	1640.42
254.63	1654.76
254.85	1603.56
255.06	1669.09
255.28	1781.73
255.50	1693.67
255.71	1665.00
255.93	1595.37
256.15	1689.57
256.36	1751.01
256.58	1656.81
256.80	1742.82
257.02	1583.08
257.23	1722.34
257.45	1767.40
257.67	1677.29
257.88	1708.01
258.10	1753.06
258.32	1718.25
258.53	1751.01
258.75	1849.32
258.97	1708.01
259.18	1757.16
259.40	1699.81
259.62	1845.22
259.83	1828.84
260.05	1751.01
260.27	1994.72
260.48	1759.21
260.70	1687.53
260.92	1724.39
261.13	1742.82
261.35	1681.38
261.57	1771.49
261.78	1646.57
262.00	1775.59
262.22	1728.49
262.43	1669.09
262.65	1701.86
262.86	1708.01
263.08	1810.40
263.30	1779.68
263.51	1609.70
263.73	1732.58
263.95	1800.16
264.16	1626.09
264.38	1603.56
264.60	1705.96
264.81	1703.91
265.03	1767.40
265.25	1650.66
265.46	1681.38
265.68	1845.22
265.89	1757.16
266.11	1658.85
266.33	1781.73
266.54	1783.78
266.76	1732.58
266.98	1652.71
267.19	1798.12
267.41	1740.77
267.62	1697.77
267.84	1615.85
268.06	1755.11
268.27	1751.01
268.49	1708.01
268.70	1748.97
268.92	1759.21
269.14	1662.95
269.35	1636.33
269.57	1705.96
269.79	1617.90
270.00	1638.38
270.22	1804.26
270.43	1736.68
270.65	1591.27
270.87	1669.09
271.08	1724.39
271.30	1755.11
271.51	1708.01
271.73	1662.95
271.95	1863.65
272.16	1710.05
272.38	1650.66
272.59	1701.86
272.81	1716.20
273.02	1656.81
273.24	1759.21
273.46	1714.15
273.67	1697.77
273.89	1691.62
274.10	1716.20
274.32	1828.84
274.54	1724.39
274.75	1722.34
274.97	1621.99
275.18	1755.11
275.40	1781.73
275.61	1761.25
275.83	1765.35
276.05	1632.23
276.26	1675.24
276.48	1753.06
276.69	1617.90
276.91	1697.77
277.12	1806.31
277.34	1806.31
277.55	1796.07
277.77	1703.91
277.99	1667.05
278.20	1644.52
278.42	1679.33
278.63	1605.61
278.85	1681.38
279.06	1611.75
279.28	1751.01
279.49	1812.45
279.71	1755.11
279.93	1722.34
280.14	1632.23
280.36	1675.24
280.57	1679.33
280.79	1771.49
281.00	1677.29
281.22	1693.67
281.43	1699.81
281.65	1554.41
281.86	1638.38
282.08	1705.96
282.29	1828.84
282.51	1624.04
282.73	1656.81
282.94	1632.23
283.16	1736.68
283.37	1800.16
283.59	1751.01
283.80	1687.53
284.02	1728.49
284.23	1732.58
284.45	1685.48
284.66	1615.85
284.88	1689.57
285.09	1806.31
285.31	1808.36
285.52	1787.88
285.74	1621.99
285.95	1675.24
286.17	1781.73
286.38	1781.73
286.60	1699.81
286.81	1673.19
287.03	1685.48
287.24	1693.67
287.46	1800.16
287.67	1722.34
287.89	1832.93
288.10	1712.10
288.32	1744.87
288.53	1808.36
288.75	1759.21
288.96	1724.39
289.18	1675.24
289.39	1685.48
289.61	1779.68
289.82	1830.88
290.04	1822.69
290.25	1714.15
290.47	1732.58
290.68	1755.11
290.90	1677.29
291.11	1681.38
291.33	1652.71
291.54	1703.91
291.76	1726.44
291.97	1703.91
292.18	1755.11
292.40	1621.99
292.61	1634.28
292.83	1877.99
293.04	1779.68
293.26	1722.34
293.47	1767.40
293.69	1607.66
293.90	1642.47
294.12	1748.97
294.33	1689.57
294.55	1689.57
294.76	1730.53
294.97	1767.40
295.19	1820.64
295.40	1697.77
295.62	1693.67
295.83	1718.25
296.05	1654.76
296.26	1794.02
296.48	1714.15
296.69	1619.94
296.90	1720.29
297.12	1796.07
297.33	1802.21
297.55	1712.10
297.76	1669.09
297.98	1755.11
298.19	1716.20
298.41	1628.14
298.62	1679.33
298.83	1742.82
299.05	1710.05
299.26	1734.63
299.48	1642.47
299.69	1755.11
299.90	1689.57
300.12	1646.57
300.33	1748.97
300.55	1730.53
300.76	1716.20
300.98	1656.81
301.19	1779.68
301.40	1636.33
301.62	1689.57
301.83	1841.12
302.05	1695.72
302.26	1767.40
302.47	1814.50
302.69	1685.48
302.90	1650.66
303.12	1628.14
303.33	1791.97
303.54	1839.08
303.76	1593.32
303.97	1693.67
304.19	1828.84
304.40	1720.29
304.61	1740.77
304.83	1798.12
305.04	1746.92
305.26	1671.14
305.47	1665.00
305.68	1697.77
305.90	1656.81
306.11	1783.78
306.33	1732.58
306.54	1691.62
306.75	1689.57
306.97	1581.03
307.18	1691.62
307.39	1681.38
307.61	1779.68
307.82	1638.38
308.04	1654.76
308.25	1689.57
308.46	1632.23
308.68	1705.96
308.89	1677.29
309.10	1796.07
309.32	1665.00
309.53	1697.77
309.74	1703.91
309.96	1677.29
310.17	1724.39
310.39	1736.68
310.60	1796.07
310.81	1724.39
311.03	1712.10
311.24	1681.38
311.45	1708.01
311.67	1789.92
311.88	1656.81
312.09	1683.43
312.31	1667.05
312.52	1646.57
312.73	1648.61
312.95	1650.66
313.16	1755.11
313.37	1722.34
313.59	1742.82
313.80	1783.78
314.01	1779.68
314.23	1675.24
314.44	1640.42
314.65	1617.90
314.87	1697.77
315.08	1656.81
315.29	1677.29
315.51	1632.23
315.72	1667.05
315.93	1843.17
316.15	1732.58
316.36	1621.99
316.57	1722.34
316.79	1779.68
317.00	1654.76
317.21	1814.50
317.43	1660.90
317.64	1771.49
317.85	1652.71
318.07	1628.14
318.28	1720.29
318.49	1847.27
318.70	1918.95
318.92	1767.40
319.13	1720.29
319.34	1904.61
319.56	1804.26
319.77	1789.92
319.98	1830.88
320.20	1751.01
320.41	1794.02
320.62	1744.87
320.83	1716.20
321.05	1822.69
321.26	1751.01
321.47	1746.92
321.69	1822.69
321.90	1642.47
322.11	1689.57
322.32	1714.15
322.54	1837.03
322.75	1703.91
322.96	1726.44
323.18	1669.09
323.39	1581.03
323.60	1687.53
323.81	1724.39
324.03	1703.91
324.24	1730.53
324.45	1626.09
324.66	1751.01
324.88	1757.16
325.09	1738.73
325.30	1769.44
325.52	1740.77
325.73	1779.68
325.94	1658.85
326.15	1673.19
326.37	1705.96
326.58	1722.34
326.79	1746.92
327.00	1769.44
327.22	1755.11
327.43	1615.85
327.64	1562.60
327.85	1808.36
328.07	1744.87
328.28	1857.51
328.49	1679.33
328.70	1734.63
328.92	1753.06
329.13	1734.63
329.34	1746.92
329.55	1839.08
329.76	1730.53
329.98	1691.62
330.19	1800.16
330.40	1730.53
330.61	1574.89
330.83	1726.44
331.04	1591.27
331.25	1699.81
331.46	1738.73
331.68	1691.62
331.89	1787.88
332.10	1753.06
332.31	1568.74
332.52	1722.34
332.74	1763.30
332.95	1607.66
333.16	1779.68
333.37	1779.68
333.58	1693.67
333.80	1748.97
334.01	1667.05
334.22	1689.57
334.43	1648.61
334.64	1671.14
334.86	1636.33
335.07	1621.99
335.28	1757.16
335.49	1660.90
335.70	1703.91
335.92	1691.62
336.13	1796.07
336.34	1759.21
336.55	1738.73
336.76	1710.05
336.98	1558.50
337.19	1665.00
337.40	1728.49
337.61	1814.50
337.82	1681.38
338.04	1808.36
338.25	1558.50
338.46	1646.57
338.67	1607.66
338.88	1665.00
339.09	1683.43
339.31	1687.53
339.52	1636.33
339.73	1646.57
339.94	1742.82
340.15	1660.90
340.36	1691.62
340.58	1697.77
340.79	1697.77
341.00	1693.67
341.21	1710.05
341.42	1802.21
341.63	1714.15
341.85	1820.64
342.06	1740.77
342.27	1669.09
342.48	1730.53
342.69	1767.40
342.90	1761.25
343.12	1701.86
343.33	1714.15
343.54	1771.49
343.75	1785.83
343.96	1773.54
344.17	1667.05
344.38	1683.43
344.60	1712.10
344.81	1726.44
345.02	1716.20
345.23	1751.01
345.44	1769.44
345.65	1699.81
345.86	1677.29
346.07	1724.39
346.29	1648.61
346.50	1681.38
346.71	1691.62
346.92	1742.82
347.13	1908.71
347.34	1634.28
347.55	1710.05
347.76	1732.58
347.98	1648.61
348.19	1732.58
348.40	1746.92
348.61	1662.95
348.82	1802.21
349.03	1808.36
349.24	1662.95
349.45	1839.08
349.66	1624.04
349.88	1681.38
350.09	1673.19
350.30	1808.36
350.51	1757.16
350.72	1777.64
350.93	1779.68
351.14	1669.09
351.35	1787.88
351.56	1728.49
351.77	1654.76
351.99	1611.75
352.20	1818.60
352.41	1716.20
352.62	1626.09
352.83	1699.81
353.04	1726.44
353.25	1634.28
353.46	1777.64
353.67	1775.59
353.88	1576.94
354.09	1636.33
354.30	1746.92
354.52	1716.20
354.73	1722.34
354.94	1703.91
355.15	1697.77
355.36	1759.21
355.57	1683.43
355.78	1771.49
355.99	1667.05
356.20	1726.44
356.41	1804.26
356.62	1658.85
356.83	1695.72
357.04	1722.34
357.25	1677.29
357.46	1726.44
357.68	1656.81
357.89	1677.29
358.10	1724.39
358.31	1730.53
358.52	1742.82
358.73	1665.00
358.94	1658.85
359.15	1681.38
359.36	1742.82
359.57	1628.14
359.78	1691.62
359.99	1755.11
360.20	1652.71
360.41	1724.39
360.62	1720.29
360.83	1785.83
361.04	1679.33
361.25	1669.09
361.46	1804.26
361.67	1734.63
361.88	1714.15
362.09	1742.82
362.30	1806.31
362.51	1667.05
362.72	1652.71
362.93	1740.77
363.14	1689.57
363.35	1773.54
363.56	1626.09
363.78	1783.78
363.99	1785.83
364.20	1634.28
364.41	1781.73
364.62	1822.69
364.83	1708.01
365.04	1730.53
365.25	1695.72
365.46	1857.51
365.67	1691.62
365.88	1656.81
366.09	1695.72
366.30	1669.09
366.51	1665.00
366.72	1615.85
366.93	1671.14
367.14	1800.16
367.35	1740.77
367.56	1716.20
367.77	1748.97
367.98	1779.68
368.18	1710.05
368.39	1765.35
368.60	1632.23
368.81	1800.16
369.02	1746.92
369.23	1650.66
369.44	1667.05
369.65	1644.52
369.86	1691.62
370.07	1746.92
370.28	1660.90
370.49	1755.11
370.70	1701.86
370.91	1660.90
371.12	1578.98
371.33	1734.63
371.54	1621.99
371.75	1796.07
371.96	1554.41
372.17	1757.16
372.38	1658.85
372.59	1773.54
372.80	1648.61
373.01	1695.72
373.22	1787.88
373.43	1671.14
373.64	1748.97
373.85	1781.73
374.06	1769.44
374.26	1695.72
374.47	1808.36
374.68	1751.01
374.89	1722.34
375.10	1685.48
375.31	1765.35
375.52	1761.25
375.73	1675.24
375.94	1757.16
376.15	1822.69
376.36	1673.19
376.57	1728.49
376.78	1734.63
376.99	1658.85
377.20	1787.88
377.40	1763.30
377.61	1755.11
377.82	1648.61
378.03	1712.10
378.24	1697.77
378.45	1671.14
378.66	1703.91
378.87	1681.38
379.08	1615.85
379.29	1742.82
379.50	1822.69
379.71	1751.01
379.91	1718.25
380.12	1751.01
380.33	1615.85
380.54	1695.72
380.75	1703.91
380.96	1736.68
381.17	1800.16
381.38	1701.86
381.59	1779.68
381.80	1753.06
382.00	1851.36
382.21	1816.55
382.42	1849.32
382.63	1937.38
382.84	1703.91
383.05	1732.58
383.26	1763.30
383.47	1742.82
383.68	1689.57
383.88	1851.36
384.09	1701.86
384.30	1828.84
384.51	1701.86
384.72	1671.14
384.93	1693.67
385.14	1732.58
385.35	1888.23
385.55	1687.53
385.76	1783.78
385.97	1632.23
386.18	1656.81
386.39	1675.24
386.60	1660.90
386.81	1669.09
387.02	1652.71
387.22	1652.71
387.43	1814.50
387.64	1779.68
387.85	1902.56
388.06	2195.42
388.27	4229.06
388.48	6631.32
388.68	8249.22
388.89	9777.00
389.10	9774.95
389.31	8501.12
389.52	7554.96
389.73	6700.95
389.93	6244.26
390.14	5787.56
390.35	5117.87
390.56	4601.79
390.77	3917.76
390.98	2987.99
391.18	2566.10
391.39	2076.64
391.60	1798.12
391.81	1877.99
392.02	1714.15
392.23	1855.46
392.43	1759.21
392.64	1869.80
392.85	1650.66
393.06	1865.70
393.27	1714.15
393.47	1703.91
393.68	1714.15
393.89	1685.48
394.10	1757.16
394.31	1691.62
394.52	1673.19
394.72	1662.95
394.93	1828.84
395.14	1630.18
395.35	1703.91
395.56	1640.42
395.76	1738.73
395.97	1769.44
396.18	1830.88
396.39	1832.93
396.60	2017.25
396.80	1865.70
397.01	1820.64
397.22	1767.40
397.43	1845.22
397.64	1787.88
397.84	1816.55
398.05	1871.84
398.26	1669.09
398.47	1816.55
398.67	1810.40
398.88	1777.64
399.09	1730.53
399.30	1730.53
399.51	1791.97
399.71	1640.42
399.92	1650.66
400.13	1759.21
400.34	1753.06
400.54	1660.90
400.75	1886.18
400.96	1759.21
401.17	1828.84
401.37	1769.44
401.58	1730.53
401.79	1681.38
402.00	1888.23
402.21	2062.30
402.41	1947.62
402.62	1912.80
402.83	2035.68
403.04	1984.48
403.24	2017.25
403.45	1880.04
403.66	1896.42
403.87	1918.95
404.07	1908.71
404.28	1955.81
404.49	1941.47
404.70	1824.74
404.90	1826.79
405.11	1763.30
405.32	1742.82
405.52	1710.05
405.73	1650.66
405.94	1673.19
406.15	1710.05
406.35	1759.21
406.56	1740.77
406.77	1759.21
406.98	1755.11
407.18	1644.52
407.39	1763.30
407.60	1726.44
407.80	1777.64
408.01	1714.15
408.22	1720.29
408.43	1720.29
408.63	1701.86
408.84	1722.34
409.05	1751.01
409.25	1675.24
409.46	1691.62
409.67	1710.05
409.88	1705.96
410.08	1642.47
410.29	1763.30
410.50	1728.49
410.70	1732.58
410.91	1681.38
411.12	1765.35
411.32	1742.82
411.53	1689.57
411.74	1806.31
411.95	1802.21
412.15	1730.53
412.36	1837.03
412.57	1708.01
412.77	1742.82
412.98	1683.43
413.19	1695.72
413.39	1781.73
413.60	1771.49
413.81	1847.27
414.01	1732.58
414.22	1751.01
414.43	1775.59
414.63	1791.97
414.84	1736.68
415.05	1753.06
415.25	1665.00
415.46	1779.68
415.67	1619.94
415.87	1720.29
416.08	1708.01
416.29	1761.25
416.49	1773.54
416.70	1644.52
416.91	1656.81
417.11	1810.40
417.32	1771.49
417.53	1791.97
417.73	1751.01
417.94	1744.87
418.15	1755.11
418.35	1767.40
418.56	1769.44
418.77	1847.27
418.97	1683.43
419.18	1677.29
419.38	1583.08
419.59	1757.16
419.80	1832.93
420.00	1669.09
420.21	1658.85
420.42	1830.88
420.62	1701.86
420.83	1705.96
421.04	1699.81
421.24	1679.33
421.45	1712.10
421.65	1689.57
421.86	1697.77
422.07	1751.01
422.27	1744.87
422.48	1806.31
422.69	1648.61
422.89	1687.53
423.10	1681.38
423.30	1654.76
423.51	1699.81
423.72	1769.44
423.92	1660.90
424.13	1630.18
424.33	1705.96
424.54	1755.11
424.75	1718.25
424.95	1832.93
425.16	1810.40
425.36	1679.33
425.57	1783.78
425.78	1796.07
425.98	1685.48
426.19	1654.76
426.39	1642.47
426.60	1734.63
426.81	1779.68
427.01	1779.68
427.22	1685.48
427.42	1683.43
427.63	1738.73
427.83	1800.16
428.04	1783.78
428.25	1755.11
428.45	1769.44
428.66	1720.29
428.86	1730.53
429.07	1730.53
429.28	1712.10
429.48	1714.15
429.69	1644.52
429.89	1718.25
430.10	1693.67
430.30	1718.25
430.51	1781.73
430.71	1673.19
430.92	1738.73
431.13	1714.15
431.33	1759.21
431.54	1759.21
431.74	1808.36
431.95	1802.21
432.15	1701.86
432.36	1726.44
432.56	1710.05
432.77	1841.12
432.98	1802.21
433.18	1767.40
433.39	1634.28
433.59	1667.05
433.80	1824.74
434.00	1781.73
434.21	1665.00
434.41	1634.28
434.62	1884.13
434.82	1675.24
435.03	1697.77
435.23	1708.01
435.44	1642.47
435.64	1734.63
435.85	1720.29
436.06	1763.30
436.26	1783.78
436.47	1671.14
436.67	1689.57
436.88	1644.52
437.08	1714.15
437.29	1857.51
437.49	1746.92
437.70	1763.30
437.90	1744.87
438.11	1880.04
438.31	1806.31
438.52	1900.52
438.72	1867.75
438.93	1933.28
439.13	1755.11
439.34	1808.36
439.54	1689.57
439.75	1769.44
439.95	1789.92
440.16	1757.16
440.36	1726.44
440.57	1734.63
440.77	1730.53
440.98	1736.68
441.18	1695.72
441.39	1742.82
441.59	1646.57
441.80	1816.55
442.00	1738.73
442.21	1855.46
442.41	1673.19
442.62	1767.40
442.82	1630.18
443.02	1726.44
443.23	1703.91
443.43	1701.86
443.64	1859.56
443.84	1652.71
444.05	1757.16
444.25	1695.72
444.46	1687.53
444.66	1798.12
444.87	1855.46
445.07	1697.77
445.28	1732.58
445.48	1783.78
445.69	1853.41
445.89	1853.41
446.09	1787.88
446.30	1974.24
446.50	2652.12
446.71	3633.10
446.91	4343.74
447.12	4761.53
447.32	4956.08
447.53	4396.99
447.73	3786.69
447.93	3559.37
448.14	3418.06
448.34	3225.55
448.55	3002.32
448.75	2875.35
448.96	2656.22
449.16	2400.22
449.36	2379.74
449.57	2097.12
449.77	1877.99
449.98	1816.55
450.18	1783.78
450.39	1765.35
450.59	1798.12
450.79	1783.78
451.00	1681.38
451.20	1718.25
451.41	1789.92
451.61	1746.92
451.81	1775.59
452.02	1794.02
452.22	1757.16
452.43	1744.87
452.63	1748.97
