SpectraSuite Data File
++++++++++++++++++++++++++++++++++++
Date: Mon Jun 06 16:09:57 CEST 2016
User: root
Dark Spectrum Present: No
Reference Spectrum Present: No
Number of Sampled Component Spectra: 1
Spectrometers: USB4C02835
Integration Time (usec): 100000 (USB4C02835)
Spectra Averaged: 1 (USB4C02835)
Boxcar Smoothing: 0 (USB4C02835)
Correct for Electrical Dark: No (USB4C02835)
Strobe/Lamp Enabled: No (USB4C02835)
Correct for Detector Non-linearity: No (USB4C02835)
Correct for Stray Light: No (USB4C02835)
Number of Pixels in Processed Spectrum: 3648
>>>>>Begin Processed Spectral Data<<<<<
177.47	1517.54
177.69	1517.54
177.91	1517.54
178.13	1482.73
178.36	1497.07
178.58	1742.82
178.80	1724.39
179.02	1662.95
179.24	1671.14
179.46	1718.25
179.68	1708.01
179.90	1722.34
180.13	1689.57
180.35	1617.90
180.57	1671.14
180.79	1810.40
181.01	1660.90
181.23	1763.30
181.45	1767.40
181.67	1787.88
181.90	1769.44
182.12	1609.70
182.34	1640.42
182.56	1769.44
182.78	1705.96
183.00	1802.21
183.22	1765.35
183.44	1595.37
183.66	1814.50
183.89	1775.59
184.11	1783.78
184.33	1773.54
184.55	1779.68
184.77	1714.15
184.99	1794.02
185.21	1718.25
185.43	1877.99
185.65	1679.33
185.87	1677.29
186.10	1841.12
186.32	1966.05
186.54	1714.15
186.76	1791.97
186.98	1759.21
187.20	1777.64
187.42	1734.63
187.64	1646.57
187.86	1771.49
188.08	1783.78
188.30	1681.38
188.52	1718.25
188.75	1714.15
188.97	1824.74
189.19	1574.89
189.41	1773.54
189.63	1726.44
189.85	1687.53
190.07	1634.28
190.29	1665.00
190.51	1865.70
190.73	1611.75
190.95	1738.73
191.17	1679.33
191.39	1552.36
191.61	1728.49
191.84	1736.68
192.06	1767.40
192.28	1566.70
192.50	1882.08
192.72	1722.34
192.94	1779.68
193.16	1775.59
193.38	1751.01
193.60	1634.28
193.82	1673.19
194.04	1742.82
194.26	1775.59
194.48	1699.81
194.70	1677.29
194.92	1677.29
195.14	1789.92
195.36	1673.19
195.58	1742.82
195.80	1660.90
196.02	1718.25
196.24	1718.25
196.46	1777.64
196.69	1654.76
196.91	1867.75
197.13	1710.05
197.35	1742.82
197.57	1701.86
197.79	1761.25
198.01	1681.38
198.23	1816.55
198.45	1687.53
198.67	1646.57
198.89	1673.19
199.11	1708.01
199.33	1710.05
199.55	1630.18
199.77	1574.89
199.99	1785.83
200.21	1662.95
200.43	1710.05
200.65	1636.33
200.87	1601.51
201.09	1689.57
201.31	1748.97
201.53	1757.16
201.75	1746.92
201.97	1683.43
202.19	1687.53
202.41	1693.67
202.63	1888.23
202.85	1656.81
203.07	1787.88
203.29	1679.33
203.51	1677.29
203.73	1695.72
203.95	1904.61
204.17	1716.20
204.39	1697.77
204.61	1701.86
204.83	1658.85
205.05	1765.35
205.27	1789.92
205.49	1843.17
205.71	1724.39
205.93	1621.99
206.15	1718.25
206.37	1677.29
206.59	1673.19
206.81	1681.38
207.03	1705.96
207.25	1611.75
207.47	1755.11
207.69	1755.11
207.91	1859.56
208.13	1789.92
208.34	1640.42
208.56	1722.34
208.78	1798.12
209.00	1703.91
209.22	1660.90
209.44	1716.20
209.66	1728.49
209.88	1710.05
210.10	1675.24
210.32	1648.61
210.54	1763.30
210.76	1726.44
210.98	1730.53
211.20	1599.46
211.42	1722.34
211.64	1757.16
211.86	1699.81
212.08	1703.91
212.30	1701.86
212.52	1662.95
212.74	1763.30
212.96	1708.01
213.17	1742.82
213.39	1767.40
213.61	1763.30
213.83	1738.73
214.05	1636.33
214.27	1794.02
214.49	1660.90
214.71	1718.25
214.93	1814.50
215.15	1673.19
215.37	1716.20
215.59	1691.62
215.81	1748.97
216.03	1794.02
216.24	1712.10
216.46	1626.09
216.68	1677.29
216.90	1738.73
217.12	1812.45
217.34	1724.39
217.56	1648.61
217.78	1757.16
218.00	1865.70
218.22	1720.29
218.44	1732.58
218.66	1740.77
218.87	1718.25
219.09	1757.16
219.31	1742.82
219.53	1789.92
219.75	1673.19
219.97	1740.77
220.19	1708.01
220.41	1718.25
220.63	1679.33
220.85	1703.91
221.06	1734.63
221.28	1828.84
221.50	1746.92
221.72	1712.10
221.94	1714.15
222.16	1642.47
222.38	1708.01
222.60	1734.63
222.82	1718.25
223.03	1738.73
223.25	1699.81
223.47	1800.16
223.69	1865.70
223.91	1720.29
224.13	1710.05
224.35	1693.67
224.57	1681.38
224.78	1765.35
225.00	1724.39
225.22	1679.33
225.44	1722.34
225.66	1767.40
225.88	1705.96
226.10	1726.44
226.32	1712.10
226.53	1794.02
226.75	1683.43
226.97	1677.29
227.19	1716.20
227.41	1691.62
227.63	1665.00
227.85	1662.95
228.06	1734.63
228.28	1740.77
228.50	1804.26
228.72	1650.66
228.94	1693.67
229.16	1654.76
229.37	1695.72
229.59	1632.23
229.81	1851.36
230.03	1656.81
230.25	1665.00
230.47	1644.52
230.69	1642.47
230.90	1740.77
231.12	1689.57
231.34	1714.15
231.56	1812.45
231.78	1673.19
232.00	1763.30
232.21	1757.16
232.43	1677.29
232.65	1636.33
232.87	1759.21
233.09	1689.57
233.30	1673.19
233.52	1722.34
233.74	1681.38
233.96	1642.47
234.18	1751.01
234.40	1701.86
234.61	1867.75
234.83	1644.52
235.05	1636.33
235.27	1837.03
235.49	1796.07
235.70	1818.60
235.92	1773.54
236.14	1685.48
236.36	1822.69
236.58	1628.14
236.79	1697.77
237.01	1652.71
237.23	1716.20
237.45	1779.68
237.67	1722.34
237.88	1757.16
238.10	1877.99
238.32	1665.00
238.54	1685.48
238.76	1689.57
238.97	1607.66
239.19	1611.75
239.41	1736.68
239.63	1738.73
239.85	1697.77
240.06	1695.72
240.28	1701.86
240.50	1742.82
240.72	1742.82
240.93	1697.77
241.15	1730.53
241.37	1724.39
241.59	1818.60
241.81	1697.77
242.02	1656.81
242.24	1777.64
242.46	1734.63
242.68	1714.15
242.89	1724.39
243.11	1748.97
243.33	1691.62
243.55	1667.05
243.76	1712.10
243.98	1677.29
244.20	1703.91
244.42	1730.53
244.64	1732.58
244.85	1726.44
245.07	1609.70
245.29	1732.58
245.51	1728.49
245.72	1673.19
245.94	1765.35
246.16	1724.39
246.38	1740.77
246.59	1601.51
246.81	1574.89
247.03	1667.05
247.24	1554.41
247.46	1683.43
247.68	1730.53
247.90	1652.71
248.11	1722.34
248.33	1804.26
248.55	1675.24
248.77	1720.29
248.98	1785.83
249.20	1759.21
249.42	1703.91
249.64	1757.16
249.85	1724.39
250.07	1644.52
250.29	1677.29
250.50	1751.01
250.72	1685.48
250.94	1783.78
251.16	1808.36
251.37	1757.16
251.59	1732.58
251.81	1767.40
252.02	1816.55
252.24	1693.67
252.46	1886.18
252.68	1710.05
252.89	1615.85
253.11	1648.61
253.33	1783.78
253.54	1722.34
253.76	1675.24
253.98	1650.66
254.20	1660.90
254.41	1773.54
254.63	1779.68
254.85	1691.62
255.06	1683.43
255.28	1740.77
255.50	1763.30
255.71	1644.52
255.93	1712.10
256.15	1683.43
256.36	1738.73
256.58	1636.33
256.80	1740.77
257.02	1763.30
257.23	1708.01
257.45	1748.97
257.67	1738.73
257.88	1640.42
258.10	1783.78
258.32	1671.14
258.53	1753.06
258.75	1794.02
258.97	1603.56
259.18	1703.91
259.40	1732.58
259.62	1785.83
259.83	1886.18
260.05	1681.38
260.27	1947.62
260.48	1703.91
260.70	1650.66
260.92	1677.29
261.13	1777.64
261.35	1759.21
261.57	1701.86
261.78	1640.42
262.00	1667.05
262.22	1734.63
262.43	1691.62
262.65	1712.10
262.86	1703.91
263.08	1873.89
263.30	1681.38
263.51	1599.46
263.73	1591.27
263.95	1748.97
264.16	1626.09
264.38	1630.18
264.60	1791.97
264.81	1705.96
265.03	1822.69
265.25	1806.31
265.46	1656.81
265.68	1812.45
265.89	1708.01
266.11	1660.90
266.33	1748.97
266.54	1822.69
266.76	1757.16
266.98	1685.48
267.19	1791.97
267.41	1761.25
267.62	1705.96
267.84	1583.08
268.06	1802.21
268.27	1740.77
268.49	1789.92
268.70	1751.01
268.92	1703.91
269.14	1722.34
269.35	1701.86
269.57	1669.09
269.79	1708.01
270.00	1613.80
270.22	1896.42
270.43	1656.81
270.65	1603.56
270.87	1710.05
271.08	1662.95
271.30	1808.36
271.51	1660.90
271.73	1689.57
271.95	1779.68
272.16	1728.49
272.38	1685.48
272.59	1660.90
272.81	1685.48
273.02	1742.82
273.24	1746.92
273.46	1794.02
273.67	1693.67
273.89	1693.67
274.10	1730.53
274.32	1724.39
274.54	1703.91
274.75	1736.68
274.97	1697.77
275.18	1744.87
275.40	1738.73
275.61	1699.81
275.83	1712.10
276.05	1634.28
276.26	1697.77
276.48	1726.44
276.69	1583.08
276.91	1732.58
277.12	1808.36
277.34	1720.29
277.55	1673.19
277.77	1746.92
277.99	1648.61
278.20	1691.62
278.42	1632.23
278.63	1640.42
278.85	1624.04
279.06	1689.57
279.28	1779.68
279.49	1669.09
279.71	1785.83
279.93	1712.10
280.14	1695.72
280.36	1689.57
280.57	1759.21
280.79	1781.73
281.00	1673.19
281.22	1714.15
281.43	1818.60
281.65	1632.23
281.86	1576.94
282.08	1785.83
282.29	1804.26
282.51	1589.22
282.73	1652.71
282.94	1675.24
283.16	1757.16
283.37	1814.50
283.59	1738.73
283.80	1712.10
284.02	1658.85
284.23	1724.39
284.45	1656.81
284.66	1736.68
284.88	1728.49
285.09	1710.05
285.31	1755.11
285.52	1722.34
285.74	1550.31
285.95	1779.68
286.17	1738.73
286.38	1726.44
286.60	1677.29
286.81	1632.23
287.03	1695.72
287.24	1708.01
287.46	1738.73
287.67	1732.58
287.89	1798.12
288.10	1761.25
288.32	1755.11
288.53	1769.44
288.75	1757.16
288.96	1767.40
289.18	1732.58
289.39	1712.10
289.61	1705.96
289.82	1824.74
290.04	1800.16
290.25	1714.15
290.47	1724.39
290.68	1685.48
290.90	1767.40
291.11	1632.23
291.33	1720.29
291.54	1718.25
291.76	1687.53
291.97	1724.39
292.18	1699.81
292.40	1681.38
292.61	1648.61
292.83	1806.31
293.04	1755.11
293.26	1777.64
293.47	1648.61
293.69	1718.25
293.90	1642.47
294.12	1777.64
294.33	1673.19
294.55	1751.01
294.76	1730.53
294.97	1794.02
295.19	1849.32
295.40	1662.95
295.62	1773.54
295.83	1816.55
296.05	1693.67
296.26	1703.91
296.48	1685.48
296.69	1734.63
296.90	1787.88
297.12	1746.92
297.33	1800.16
297.55	1712.10
297.76	1779.68
297.98	1773.54
298.19	1753.06
298.41	1716.20
298.62	1705.96
298.83	1783.78
299.05	1673.19
299.26	1681.38
299.48	1685.48
299.69	1773.54
299.90	1703.91
300.12	1638.38
300.33	1755.11
300.55	1689.57
300.76	1736.68
300.98	1710.05
301.19	1794.02
301.40	1660.90
301.62	1718.25
301.83	1787.88
302.05	1673.19
302.26	1660.90
302.47	1705.96
302.69	1662.95
302.90	1699.81
303.12	1607.66
303.33	1763.30
303.54	1796.07
303.76	1703.91
303.97	1740.77
304.19	1757.16
304.40	1726.44
304.61	1701.86
304.83	1755.11
305.04	1804.26
305.26	1742.82
305.47	1662.95
305.68	1738.73
305.90	1640.42
306.11	1753.06
306.33	1716.20
306.54	1660.90
306.75	1699.81
306.97	1648.61
307.18	1683.43
307.39	1722.34
307.61	1755.11
307.82	1695.72
308.04	1693.67
308.25	1630.18
308.46	1624.04
308.68	1718.25
308.89	1732.58
309.10	1701.86
309.32	1751.01
309.53	1681.38
309.74	1736.68
309.96	1738.73
310.17	1761.25
310.39	1695.72
310.60	1720.29
310.81	1767.40
311.03	1662.95
311.24	1808.36
311.45	1660.90
311.67	1800.16
311.88	1779.68
312.09	1681.38
312.31	1640.42
312.52	1798.12
312.73	1689.57
312.95	1646.57
313.16	1689.57
313.37	1724.39
313.59	1808.36
313.80	1802.21
314.01	1808.36
314.23	1642.47
314.44	1660.90
314.65	1636.33
314.87	1693.67
315.08	1675.24
315.29	1730.53
315.51	1681.38
315.72	1658.85
315.93	1820.64
316.15	1826.79
316.36	1710.05
316.57	1722.34
316.79	1763.30
317.00	1746.92
317.21	1738.73
317.43	1632.23
317.64	1669.09
317.85	1708.01
318.07	1789.92
318.28	1767.40
318.49	1818.60
318.70	1961.95
318.92	1779.68
319.13	1832.93
319.34	1822.69
319.56	1804.26
319.77	1730.53
319.98	1773.54
320.20	1832.93
320.41	1691.62
320.62	1695.72
320.83	1662.95
321.05	1880.04
321.26	1695.72
321.47	1681.38
321.69	1824.74
321.90	1730.53
322.11	1738.73
322.32	1742.82
322.54	1759.21
322.75	1722.34
322.96	1781.73
323.18	1568.74
323.39	1648.61
323.60	1759.21
323.81	1830.88
324.03	1673.19
324.24	1714.15
324.45	1775.59
324.66	1671.14
324.88	1773.54
325.09	1785.83
325.30	1683.43
325.52	1724.39
325.73	1687.53
325.94	1755.11
326.15	1683.43
326.37	1685.48
326.58	1732.58
326.79	1773.54
327.00	1632.23
327.22	1665.00
327.43	1697.77
327.64	1665.00
327.85	1685.48
328.07	1724.39
328.28	1830.88
328.49	1675.24
328.70	1708.01
328.92	1665.00
329.13	1646.57
329.34	1705.96
329.55	1826.79
329.76	1763.30
329.98	1722.34
330.19	1699.81
330.40	1716.20
330.61	1683.43
330.83	1662.95
331.04	1708.01
331.25	1757.16
331.46	1697.77
331.68	1583.08
331.89	1771.49
332.10	1679.33
332.31	1691.62
332.52	1728.49
332.74	1751.01
332.95	1617.90
333.16	1740.77
333.37	1746.92
333.58	1632.23
333.80	1722.34
334.01	1607.66
334.22	1669.09
334.43	1644.52
334.64	1650.66
334.86	1667.05
335.07	1697.77
335.28	1751.01
335.49	1601.51
335.70	1730.53
335.92	1763.30
336.13	1800.16
336.34	1773.54
336.55	1820.64
336.76	1718.25
336.98	1675.24
337.19	1728.49
337.40	1775.59
337.61	1920.99
337.82	1687.53
338.04	1712.10
338.25	1632.23
338.46	1660.90
338.67	1716.20
338.88	1640.42
339.09	1638.38
339.31	1724.39
339.52	1605.61
339.73	1746.92
339.94	1605.61
340.15	1800.16
340.36	1673.19
340.58	1712.10
340.79	1673.19
341.00	1701.86
341.21	1613.80
341.42	1867.75
341.63	1701.86
341.85	1738.73
342.06	1640.42
342.27	1681.38
342.48	1732.58
342.69	1712.10
342.90	1656.81
343.12	1779.68
343.33	1712.10
343.54	1630.18
343.75	1832.93
343.96	1695.72
344.17	1691.62
344.38	1683.43
344.60	1685.48
344.81	1722.34
345.02	1673.19
345.23	1843.17
345.44	1777.64
345.65	1716.20
345.86	1765.35
346.07	1665.00
346.29	1677.29
346.50	1736.68
346.71	1710.05
346.92	1845.22
347.13	1894.37
347.34	1652.71
347.55	1689.57
347.76	1673.19
347.98	1652.71
348.19	1759.21
348.40	1783.78
348.61	1646.57
348.82	1816.55
349.03	1820.64
349.24	1667.05
349.45	1761.25
349.66	1552.36
349.88	1703.91
350.09	1718.25
350.30	1767.40
350.51	1798.12
350.72	1679.33
350.93	1845.22
351.14	1648.61
351.35	1810.40
351.56	1665.00
351.77	1748.97
351.99	1761.25
352.20	1855.46
352.41	1742.82
352.62	1658.85
352.83	1714.15
353.04	1712.10
353.25	1738.73
353.46	1802.21
353.67	1757.16
353.88	1636.33
354.09	1777.64
354.30	1648.61
354.52	1791.97
354.73	1722.34
354.94	1730.53
355.15	1720.29
355.36	1755.11
355.57	1710.05
355.78	1751.01
355.99	1646.57
356.20	1736.68
356.41	1673.19
356.62	1714.15
356.83	1775.59
357.04	1753.06
357.25	1675.24
357.46	1705.96
357.68	1652.71
357.89	1585.13
358.10	1730.53
358.31	1687.53
358.52	1695.72
358.73	1648.61
358.94	1712.10
359.15	1701.86
359.36	1767.40
359.57	1697.77
359.78	1757.16
359.99	1712.10
360.20	1693.67
360.41	1804.26
360.62	1798.12
360.83	1697.77
361.04	1681.38
361.25	1742.82
361.46	1902.56
361.67	1738.73
361.88	1753.06
362.09	1773.54
362.30	1656.81
362.51	1650.66
362.72	1687.53
362.93	1748.97
363.14	1771.49
363.35	1640.42
363.56	1634.28
363.78	1755.11
363.99	1755.11
364.20	1646.57
364.41	1722.34
364.62	1730.53
364.83	1675.24
365.04	1722.34
365.25	1679.33
365.46	1740.77
365.67	1667.05
365.88	1681.38
366.09	1755.11
366.30	1697.77
366.51	1656.81
366.72	1679.33
366.93	1705.96
367.14	1605.61
367.35	1802.21
367.56	1714.15
367.77	1783.78
367.98	1705.96
368.18	1736.68
368.39	1757.16
368.60	1562.60
368.81	1808.36
369.02	1787.88
369.23	1656.81
369.44	1630.18
369.65	1681.38
369.86	1701.86
370.07	1771.49
370.28	1689.57
370.49	1785.83
370.70	1708.01
370.91	1640.42
371.12	1658.85
371.33	1822.69
371.54	1720.29
371.75	1871.84
371.96	1650.66
372.17	1705.96
372.38	1669.09
372.59	1800.16
372.80	1732.58
373.01	1667.05
373.22	1738.73
373.43	1705.96
373.64	1669.09
373.85	1775.59
374.06	1824.74
374.26	1785.83
374.47	1669.09
374.68	1789.92
374.89	1705.96
375.10	1722.34
375.31	1834.98
375.52	1718.25
375.73	1693.67
375.94	1675.24
376.15	1812.45
376.36	1730.53
376.57	1630.18
376.78	1716.20
376.99	1736.68
377.20	1738.73
377.40	1611.75
377.61	1806.31
377.82	1628.14
378.03	1853.41
378.24	1822.69
378.45	1665.00
378.66	1769.44
378.87	1697.77
379.08	1662.95
379.29	1624.04
379.50	1763.30
379.71	1656.81
379.91	1796.07
380.12	1740.77
380.33	1734.63
380.54	1722.34
380.75	1746.92
380.96	1677.29
381.17	1839.08
381.38	1675.24
381.59	1761.25
381.80	1712.10
382.00	1873.89
382.21	1740.77
382.42	1804.26
382.63	1855.46
382.84	1812.45
383.05	1751.01
383.26	1757.16
383.47	1753.06
383.68	1777.64
383.88	1769.44
384.09	1697.77
384.30	1910.75
384.51	1765.35
384.72	1744.87
384.93	1734.63
385.14	1740.77
385.35	1837.03
385.55	1654.76
385.76	1779.68
385.97	1697.77
386.18	1648.61
386.39	1724.39
386.60	1689.57
386.81	1714.15
387.02	1638.38
387.22	1654.76
387.43	1769.44
387.64	1773.54
387.85	1898.47
388.06	2113.50
388.27	4280.25
388.48	6635.42
388.68	8103.81
388.89	9574.25
389.10	9817.96
389.31	8624.00
389.52	7505.81
389.73	6569.88
389.93	6096.80
390.14	5816.23
390.35	5138.35
390.56	4566.97
390.77	3872.71
390.98	3141.58
391.18	2504.67
391.39	2076.64
391.60	1849.32
391.81	1855.46
392.02	1714.15
392.23	1867.75
392.43	1818.60
392.64	1783.78
392.85	1748.97
393.06	1802.21
393.27	1781.73
393.47	1732.58
393.68	1777.64
393.89	1714.15
394.10	1763.30
394.31	1701.86
394.52	1710.05
394.72	1714.15
394.93	1839.08
395.14	1669.09
395.35	1714.15
395.56	1677.29
395.76	1691.62
395.97	1748.97
396.18	1791.97
396.39	1810.40
396.60	2093.02
396.80	1908.71
397.01	1824.74
397.22	1882.08
397.43	1849.32
397.64	1728.49
397.84	1814.50
398.05	1865.70
398.26	1748.97
398.47	1787.88
398.67	1724.39
398.88	1826.79
399.09	1781.73
399.30	1703.91
399.51	1755.11
399.71	1615.85
399.92	1695.72
400.13	1789.92
400.34	1755.11
400.54	1714.15
400.75	1839.08
400.96	1757.16
401.17	1781.73
401.37	1728.49
401.58	1748.97
401.79	1761.25
402.00	1871.84
402.21	1970.15
402.41	2017.25
402.62	1996.77
402.83	2029.54
403.04	2019.30
403.24	2103.26
403.45	1894.37
403.66	1896.42
403.87	1898.47
404.07	1869.80
404.28	1943.52
404.49	1886.18
404.70	1755.11
404.90	1871.84
405.11	1720.29
405.32	1822.69
405.52	1693.67
405.73	1665.00
405.94	1722.34
406.15	1699.81
406.35	1755.11
406.56	1705.96
406.77	1710.05
406.98	1830.88
407.18	1656.81
407.39	1853.41
407.60	1779.68
407.80	1800.16
408.01	1748.97
408.22	1718.25
408.43	1587.18
408.63	1761.25
408.84	1761.25
409.05	1789.92
409.25	1671.14
409.46	1722.34
409.67	1726.44
409.88	1746.92
410.08	1789.92
410.29	1687.53
410.50	1822.69
410.70	1804.26
410.91	1630.18
411.12	1718.25
411.32	1679.33
411.53	1673.19
411.74	1869.80
411.95	1757.16
412.15	1728.49
412.36	1710.05
412.57	1751.01
412.77	1837.03
412.98	1689.57
413.19	1767.40
413.39	1769.44
413.60	1849.32
413.81	1837.03
414.01	1636.33
414.22	1718.25
414.43	1777.64
414.63	1714.15
414.84	1820.64
415.05	1693.67
415.25	1734.63
415.46	1871.84
415.67	1656.81
415.87	1710.05
416.08	1642.47
416.29	1697.77
416.49	1785.83
416.70	1671.14
416.91	1697.77
417.11	1710.05
417.32	1837.03
417.53	1796.07
417.73	1714.15
417.94	1791.97
418.15	1738.73
418.35	1738.73
418.56	1675.24
418.77	1877.99
418.97	1726.44
419.18	1771.49
419.38	1576.94
419.59	1708.01
419.80	1787.88
420.00	1689.57
420.21	1789.92
420.42	1738.73
420.62	1669.09
420.83	1615.85
421.04	1748.97
421.24	1693.67
421.45	1716.20
421.65	1777.64
421.86	1718.25
422.07	1755.11
422.27	1789.92
422.48	1746.92
422.69	1656.81
422.89	1683.43
423.10	1761.25
423.30	1656.81
423.51	1665.00
423.72	1718.25
423.92	1783.78
424.13	1660.90
424.33	1724.39
424.54	1689.57
424.75	1746.92
424.95	1791.97
425.16	1708.01
425.36	1693.67
425.57	1771.49
425.78	1751.01
425.98	1730.53
426.19	1751.01
426.39	1665.00
426.60	1796.07
426.81	1785.83
427.01	1751.01
427.22	1697.77
427.42	1574.89
427.63	1665.00
427.83	1775.59
428.04	1822.69
428.25	1742.82
428.45	1859.56
428.66	1742.82
428.86	1679.33
429.07	1794.02
429.28	1759.21
429.48	1681.38
429.69	1699.81
429.89	1746.92
430.10	1685.48
430.30	1710.05
430.51	1783.78
430.71	1677.29
430.92	1720.29
431.13	1740.77
431.33	1759.21
431.54	1767.40
431.74	1828.84
431.95	1834.98
432.15	1634.28
432.36	1697.77
432.56	1708.01
432.77	1896.42
432.98	1763.30
433.18	1753.06
433.39	1742.82
433.59	1728.49
433.80	1816.55
434.00	1851.36
434.21	1753.06
434.41	1734.63
434.62	1845.22
434.82	1632.23
435.03	1656.81
435.23	1820.64
435.44	1703.91
435.64	1677.29
435.85	1738.73
436.06	1763.30
436.26	1708.01
436.47	1714.15
436.67	1671.14
436.88	1658.85
437.08	1738.73
437.29	1798.12
437.49	1824.74
437.70	1808.36
437.90	1740.77
438.11	1822.69
438.31	1871.84
438.52	1851.36
438.72	1769.44
438.93	1992.67
439.13	1791.97
439.34	1861.60
439.54	1785.83
439.75	1800.16
439.95	1855.46
440.16	1724.39
440.36	1806.31
440.57	1808.36
440.77	1751.01
440.98	1818.60
441.18	1734.63
441.39	1730.53
441.59	1693.67
441.80	1818.60
442.00	1804.26
442.21	1875.94
442.41	1644.52
442.62	1816.55
442.82	1656.81
443.02	1714.15
443.23	1726.44
443.43	1748.97
443.64	1738.73
443.84	1695.72
444.05	1787.88
444.25	1777.64
444.46	1712.10
444.66	1767.40
444.87	1820.64
445.07	1708.01
445.28	1673.19
445.48	1718.25
445.69	1769.44
445.89	1886.18
446.09	1773.54
446.30	2060.26
446.50	2598.87
446.71	3815.37
446.91	4349.89
447.12	4804.53
447.32	4693.94
447.53	4327.36
447.73	3833.80
447.93	3487.69
448.14	3313.61
448.34	3266.51
448.55	2893.78
448.75	2809.81
448.96	2742.23
449.16	2490.33
449.36	2263.01
449.57	2082.78
449.77	1888.23
449.98	1818.60
450.18	1798.12
450.39	1875.94
450.59	1820.64
450.79	1746.92
451.00	1677.29
451.20	1796.07
451.41	1755.11
451.61	1748.97
451.81	1730.53
452.02	1677.29
452.22	1701.86
452.43	1783.78
452.63	1701.86
