SpectraSuite Data File
++++++++++++++++++++++++++++++++++++
Date: Mon Jun 06 15:38:57 CEST 2016
User: root
Dark Spectrum Present: No
Reference Spectrum Present: No
Number of Sampled Component Spectra: 1
Spectrometers: USB4C02835
Integration Time (usec): 100000 (USB4C02835)
Spectra Averaged: 1 (USB4C02835)
Boxcar Smoothing: 0 (USB4C02835)
Correct for Electrical Dark: No (USB4C02835)
Strobe/Lamp Enabled: No (USB4C02835)
Correct for Detector Non-linearity: No (USB4C02835)
Correct for Stray Light: No (USB4C02835)
Number of Pixels in Processed Spectrum: 3648
>>>>>Begin Processed Spectral Data<<<<<
177.47	1411.05
177.69	1411.05
177.91	1411.05
178.13	1376.24
178.36	1421.29
178.58	1617.90
178.80	1724.39
179.02	1640.42
179.24	1624.04
179.46	1708.01
179.68	1767.40
179.90	1726.44
180.13	1755.11
180.35	1621.99
180.57	1665.00
180.79	1720.29
181.01	1718.25
181.23	1742.82
181.45	1804.26
181.67	1730.53
181.90	1746.92
182.12	1724.39
182.34	1667.05
182.56	1765.35
182.78	1697.77
183.00	1777.64
183.22	1636.33
183.44	1681.38
183.66	1800.16
183.89	1816.55
184.11	1767.40
184.33	1753.06
184.55	1757.16
184.77	1650.66
184.99	1734.63
185.21	1712.10
185.43	1857.51
185.65	1687.53
185.87	1648.61
186.10	1837.03
186.32	1722.34
186.54	1773.54
186.76	1771.49
186.98	1753.06
187.20	1667.05
187.42	1642.47
187.64	1730.53
187.86	1687.53
188.08	1746.92
188.30	1687.53
188.52	1677.29
188.75	1748.97
188.97	1751.01
189.19	1650.66
189.41	1685.48
189.63	1779.68
189.85	1681.38
190.07	1589.22
190.29	1607.66
190.51	1755.11
190.73	1634.28
190.95	1781.73
191.17	1665.00
191.39	1695.72
191.61	1640.42
191.84	1742.82
192.06	1787.88
192.28	1562.60
192.50	1929.19
192.72	1689.57
192.94	1660.90
193.16	1759.21
193.38	1681.38
193.60	1638.38
193.82	1718.25
194.04	1767.40
194.26	1777.64
194.48	1802.21
194.70	1693.67
194.92	1648.61
195.14	1685.48
195.36	1677.29
195.58	1759.21
195.80	1716.20
196.02	1660.90
196.24	1771.49
196.46	1722.34
196.69	1630.18
196.91	1806.31
197.13	1714.15
197.35	1687.53
197.57	1757.16
197.79	1781.73
198.01	1718.25
198.23	1716.20
198.45	1693.67
198.67	1628.14
198.89	1705.96
199.11	1679.33
199.33	1730.53
199.55	1628.14
199.77	1726.44
199.99	1687.53
200.21	1695.72
200.43	1773.54
200.65	1638.38
200.87	1603.56
201.09	1613.80
201.31	1693.67
201.53	1783.78
201.75	1705.96
201.97	1714.15
202.19	1699.81
202.41	1724.39
202.63	1849.32
202.85	1712.10
203.07	1697.77
203.29	1738.73
203.51	1658.85
203.73	1636.33
203.95	1855.46
204.17	1816.55
204.39	1771.49
204.61	1693.67
204.83	1714.15
205.05	1804.26
205.27	1826.79
205.49	1814.50
205.71	1769.44
205.93	1640.42
206.15	1693.67
206.37	1732.58
206.59	1753.06
206.81	1667.05
207.03	1656.81
207.25	1648.61
207.47	1830.88
207.69	1693.67
207.91	1744.87
208.13	1794.02
208.34	1632.23
208.56	1681.38
208.78	1708.01
209.00	1669.09
209.22	1634.28
209.44	1658.85
209.66	1683.43
209.88	1708.01
210.10	1708.01
210.32	1705.96
210.54	1837.03
210.76	1642.47
210.98	1763.30
211.20	1607.66
211.42	1718.25
211.64	1722.34
211.86	1748.97
212.08	1759.21
212.30	1814.50
212.52	1705.96
212.74	1738.73
212.96	1736.68
213.17	1773.54
213.39	1687.53
213.61	1808.36
213.83	1732.58
214.05	1605.61
214.27	1712.10
214.49	1650.66
214.71	1679.33
214.93	1779.68
215.15	1681.38
215.37	1765.35
215.59	1679.33
215.81	1697.77
216.03	1755.11
216.24	1753.06
216.46	1640.42
216.68	1699.81
216.90	1757.16
217.12	1755.11
217.34	1728.49
217.56	1724.39
217.78	1761.25
218.00	1712.10
218.22	1763.30
218.44	1728.49
218.66	1679.33
218.87	1798.12
219.09	1744.87
219.31	1773.54
219.53	1755.11
219.75	1722.34
219.97	1689.57
220.19	1726.44
220.41	1667.05
220.63	1824.74
220.85	1714.15
221.06	1773.54
221.28	1810.40
221.50	1826.79
221.72	1730.53
221.94	1703.91
222.16	1773.54
222.38	1730.53
222.60	1791.97
222.82	1693.67
223.03	1767.40
223.25	1636.33
223.47	1705.96
223.69	1853.41
223.91	1724.39
224.13	1697.77
224.35	1693.67
224.57	1808.36
224.78	1773.54
225.00	1697.77
225.22	1716.20
225.44	1742.82
225.66	1755.11
225.88	1671.14
226.10	1716.20
226.32	1703.91
226.53	1787.88
226.75	1681.38
226.97	1685.48
227.19	1689.57
227.41	1675.24
227.63	1662.95
227.85	1646.57
228.06	1779.68
228.28	1722.34
228.50	1789.92
228.72	1628.14
228.94	1683.43
229.16	1636.33
229.37	1550.31
229.59	1646.57
229.81	1767.40
230.03	1689.57
230.25	1730.53
230.47	1660.90
230.69	1671.14
230.90	1748.97
231.12	1652.71
231.34	1765.35
231.56	1757.16
231.78	1611.75
232.00	1738.73
232.21	1742.82
232.43	1726.44
232.65	1613.80
232.87	1730.53
233.09	1693.67
233.30	1628.14
233.52	1720.29
233.74	1677.29
233.96	1730.53
234.18	1761.25
234.40	1742.82
234.61	1773.54
234.83	1603.56
235.05	1601.51
235.27	1859.56
235.49	1808.36
235.70	1718.25
235.92	1738.73
236.14	1767.40
236.36	1859.56
236.58	1699.81
236.79	1658.85
237.01	1636.33
237.23	1771.49
237.45	1800.16
237.67	1685.48
237.88	1724.39
238.10	1751.01
238.32	1654.76
238.54	1701.86
238.76	1683.43
238.97	1675.24
239.19	1687.53
239.41	1757.16
239.63	1744.87
239.85	1683.43
240.06	1710.05
240.28	1746.92
240.50	1798.12
240.72	1716.20
240.93	1667.05
241.15	1773.54
241.37	1697.77
241.59	1751.01
241.81	1703.91
242.02	1740.77
242.24	1726.44
242.46	1759.21
242.68	1744.87
242.89	1691.62
243.11	1726.44
243.33	1738.73
243.55	1697.77
243.76	1806.31
243.98	1615.85
244.20	1734.63
244.42	1658.85
244.64	1681.38
244.85	1683.43
245.07	1728.49
245.29	1662.95
245.51	1619.94
245.72	1757.16
245.94	1802.21
246.16	1734.63
246.38	1791.97
246.59	1673.19
246.81	1660.90
247.03	1673.19
247.24	1624.04
247.46	1714.15
247.68	1687.53
247.90	1646.57
248.11	1767.40
248.33	1699.81
248.55	1677.29
248.77	1771.49
248.98	1789.92
249.20	1861.60
249.42	1693.67
249.64	1681.38
249.85	1705.96
250.07	1697.77
250.29	1771.49
250.50	1873.89
250.72	1660.90
250.94	1697.77
251.16	1882.08
251.37	1757.16
251.59	1695.72
251.81	1771.49
252.02	1744.87
252.24	1656.81
252.46	1675.24
252.68	1683.43
252.89	1691.62
253.11	1683.43
253.33	1818.60
253.54	1861.60
253.76	1595.37
253.98	1648.61
254.20	1697.77
254.41	1585.13
254.63	1689.57
254.85	1593.32
255.06	1746.92
255.28	1693.67
255.50	1691.62
255.71	1712.10
255.93	1601.51
256.15	1742.82
256.36	1724.39
256.58	1714.15
256.80	1751.01
257.02	1667.05
257.23	1658.85
257.45	1755.11
257.67	1755.11
257.88	1654.76
258.10	1724.39
258.32	1679.33
258.53	1755.11
258.75	1830.88
258.97	1662.95
259.18	1699.81
259.40	1767.40
259.62	1832.93
259.83	1832.93
260.05	1767.40
260.27	1939.43
260.48	1781.73
260.70	1677.29
260.92	1681.38
261.13	1701.86
261.35	1728.49
261.57	1724.39
261.78	1611.75
262.00	1716.20
262.22	1746.92
262.43	1740.77
262.65	1669.09
262.86	1716.20
263.08	1847.27
263.30	1724.39
263.51	1583.08
263.73	1685.48
263.95	1779.68
264.16	1619.94
264.38	1720.29
264.60	1695.72
264.81	1699.81
265.03	1730.53
265.25	1751.01
265.46	1728.49
265.68	1824.74
265.89	1722.34
266.11	1675.24
266.33	1810.40
266.54	1724.39
266.76	1771.49
266.98	1650.66
267.19	1814.50
267.41	1714.15
267.62	1656.81
267.84	1656.81
268.06	1748.97
268.27	1757.16
268.49	1708.01
268.70	1757.16
268.92	1699.81
269.14	1628.14
269.35	1597.42
269.57	1728.49
269.79	1787.88
270.00	1710.05
270.22	1785.83
270.43	1683.43
270.65	1589.22
270.87	1746.92
271.08	1783.78
271.30	1728.49
271.51	1771.49
271.73	1720.29
271.95	1781.73
272.16	1791.97
272.38	1718.25
272.59	1710.05
272.81	1679.33
273.02	1759.21
273.24	1771.49
273.46	1794.02
273.67	1673.19
273.89	1669.09
274.10	1665.00
274.32	1771.49
274.54	1691.62
274.75	1732.58
274.97	1656.81
275.18	1765.35
275.40	1802.21
275.61	1708.01
275.83	1705.96
276.05	1677.29
276.26	1720.29
276.48	1781.73
276.69	1701.86
276.91	1669.09
277.12	1820.64
277.34	1777.64
277.55	1791.97
277.77	1675.24
277.99	1681.38
278.20	1642.47
278.42	1671.14
278.63	1695.72
278.85	1724.39
279.06	1634.28
279.28	1746.92
279.49	1722.34
279.71	1771.49
279.93	1648.61
280.14	1652.71
280.36	1669.09
280.57	1761.25
280.79	1763.30
281.00	1712.10
281.22	1681.38
281.43	1779.68
281.65	1621.99
281.86	1710.05
282.08	1703.91
282.29	1794.02
282.51	1597.42
282.73	1624.04
282.94	1630.18
283.16	1740.77
283.37	1808.36
283.59	1669.09
283.80	1755.11
284.02	1753.06
284.23	1740.77
284.45	1691.62
284.66	1570.79
284.88	1716.20
285.09	1728.49
285.31	1798.12
285.52	1683.43
285.74	1595.37
285.95	1808.36
286.17	1728.49
286.38	1791.97
286.60	1753.06
286.81	1697.77
287.03	1646.57
287.24	1665.00
287.46	1685.48
287.67	1687.53
287.89	1837.03
288.10	1718.25
288.32	1746.92
288.53	1828.84
288.75	1636.33
288.96	1767.40
289.18	1693.67
289.39	1656.81
289.61	1787.88
289.82	1875.94
290.04	1761.25
290.25	1730.53
290.47	1662.95
290.68	1671.14
290.90	1726.44
291.11	1611.75
291.33	1822.69
291.54	1642.47
291.76	1681.38
291.97	1675.24
292.18	1822.69
292.40	1728.49
292.61	1699.81
292.83	1832.93
293.04	1730.53
293.26	1740.77
293.47	1695.72
293.69	1648.61
293.90	1691.62
294.12	1839.08
294.33	1722.34
294.55	1640.42
294.76	1818.60
294.97	1730.53
295.19	1796.07
295.40	1708.01
295.62	1640.42
295.83	1767.40
296.05	1699.81
296.26	1800.16
296.48	1730.53
296.69	1726.44
296.90	1685.48
297.12	1726.44
297.33	1748.97
297.55	1685.48
297.76	1744.87
297.98	1751.01
298.19	1705.96
298.41	1736.68
298.62	1640.42
298.83	1847.27
299.05	1751.01
299.26	1697.77
299.48	1703.91
299.69	1714.15
299.90	1744.87
300.12	1591.27
300.33	1777.64
300.55	1755.11
300.76	1722.34
300.98	1665.00
301.19	1775.59
301.40	1673.19
301.62	1714.15
301.83	1765.35
302.05	1718.25
302.26	1732.58
302.47	1667.05
302.69	1673.19
302.90	1730.53
303.12	1710.05
303.33	1703.91
303.54	1828.84
303.76	1683.43
303.97	1720.29
304.19	1816.55
304.40	1665.00
304.61	1720.29
304.83	1847.27
305.04	1781.73
305.26	1652.71
305.47	1679.33
305.68	1697.77
305.90	1675.24
306.11	1779.68
306.33	1746.92
306.54	1701.86
306.75	1636.33
306.97	1650.66
307.18	1689.57
307.39	1716.20
307.61	1775.59
307.82	1652.71
308.04	1716.20
308.25	1679.33
308.46	1748.97
308.68	1767.40
308.89	1724.39
309.10	1775.59
309.32	1679.33
309.53	1722.34
309.74	1701.86
309.96	1724.39
310.17	1783.78
310.39	1636.33
310.60	1775.59
310.81	1652.71
311.03	1591.27
311.24	1693.67
311.45	1740.77
311.67	1804.26
311.88	1730.53
312.09	1708.01
312.31	1665.00
312.52	1730.53
312.73	1771.49
312.95	1611.75
313.16	1716.20
313.37	1798.12
313.59	1730.53
313.80	1810.40
314.01	1740.77
314.23	1708.01
314.44	1689.57
314.65	1626.09
314.87	1675.24
315.08	1626.09
315.29	1611.75
315.51	1638.38
315.72	1572.84
315.93	1820.64
316.15	1812.45
316.36	1695.72
316.57	1740.77
316.79	1791.97
317.00	1693.67
317.21	1714.15
317.43	1660.90
317.64	1701.86
317.85	1660.90
318.07	1665.00
318.28	1714.15
318.49	1847.27
318.70	1929.19
318.92	1857.51
319.13	1771.49
319.34	1828.84
319.56	1789.92
319.77	1716.20
319.98	1783.78
320.20	1742.82
320.41	1820.64
320.62	1767.40
320.83	1675.24
321.05	1820.64
321.26	1751.01
321.47	1712.10
321.69	1730.53
321.90	1679.33
322.11	1628.14
322.32	1687.53
322.54	1785.83
322.75	1748.97
322.96	1828.84
323.18	1603.56
323.39	1652.71
323.60	1671.14
323.81	1765.35
324.03	1642.47
324.24	1660.90
324.45	1744.87
324.66	1656.81
324.88	1794.02
325.09	1875.94
325.30	1730.53
325.52	1767.40
325.73	1759.21
325.94	1669.09
326.15	1599.46
326.37	1644.52
326.58	1796.07
326.79	1794.02
327.00	1736.68
327.22	1722.34
327.43	1675.24
327.64	1615.85
327.85	1769.44
328.07	1738.73
328.28	1767.40
328.49	1701.86
328.70	1705.96
328.92	1699.81
329.13	1691.62
329.34	1746.92
329.55	1761.25
329.76	1822.69
329.98	1773.54
330.19	1853.41
330.40	1675.24
330.61	1695.72
330.83	1724.39
331.04	1685.48
331.25	1753.06
331.46	1708.01
331.68	1642.47
331.89	1781.73
332.10	1757.16
332.31	1648.61
332.52	1687.53
332.74	1847.27
332.95	1611.75
333.16	1685.48
333.37	1728.49
333.58	1603.56
333.80	1746.92
334.01	1673.19
334.22	1660.90
334.43	1654.76
334.64	1683.43
334.86	1646.57
335.07	1636.33
335.28	1812.45
335.49	1642.47
335.70	1687.53
335.92	1865.70
336.13	1781.73
336.34	1761.25
336.55	1732.58
336.76	1689.57
336.98	1619.94
337.19	1652.71
337.40	1828.84
337.61	1931.23
337.82	1722.34
338.04	1748.97
338.25	1667.05
338.46	1679.33
338.67	1665.00
338.88	1628.14
339.09	1621.99
339.31	1667.05
339.52	1677.29
339.73	1642.47
339.94	1744.87
340.15	1732.58
340.36	1642.47
340.58	1763.30
340.79	1726.44
341.00	1740.77
341.21	1660.90
341.42	1830.88
341.63	1656.81
341.85	1748.97
342.06	1718.25
342.27	1650.66
342.48	1751.01
342.69	1648.61
342.90	1613.80
343.12	1732.58
343.33	1722.34
343.54	1726.44
343.75	1787.88
343.96	1708.01
344.17	1665.00
344.38	1685.48
344.60	1601.51
344.81	1710.05
345.02	1683.43
345.23	1744.87
345.44	1755.11
345.65	1705.96
345.86	1738.73
346.07	1640.42
346.29	1708.01
346.50	1851.36
346.71	1732.58
346.92	1781.73
347.13	1888.23
347.34	1718.25
347.55	1718.25
347.76	1783.78
347.98	1601.51
348.19	1742.82
348.40	1783.78
348.61	1640.42
348.82	1777.64
349.03	1730.53
349.24	1648.61
349.45	1863.65
349.66	1691.62
349.88	1685.48
350.09	1667.05
350.30	1753.06
350.51	1841.12
350.72	1695.72
350.93	1781.73
351.14	1740.77
351.35	1771.49
351.56	1726.44
351.77	1724.39
351.99	1755.11
352.20	1834.98
352.41	1812.45
352.62	1689.57
352.83	1650.66
353.04	1648.61
353.25	1697.77
353.46	1812.45
353.67	1816.55
353.88	1665.00
354.09	1683.43
354.30	1732.58
354.52	1734.63
354.73	1728.49
354.94	1644.52
355.15	1697.77
355.36	1818.60
355.57	1681.38
355.78	1699.81
355.99	1726.44
356.20	1615.85
356.41	1771.49
356.62	1681.38
356.83	1724.39
357.04	1783.78
357.25	1628.14
357.46	1703.91
357.68	1632.23
357.89	1665.00
358.10	1800.16
358.31	1710.05
358.52	1683.43
358.73	1621.99
358.94	1615.85
359.15	1679.33
359.36	1767.40
359.57	1746.92
359.78	1716.20
359.99	1740.77
360.20	1701.86
360.41	1740.77
360.62	1744.87
360.83	1689.57
361.04	1775.59
361.25	1773.54
361.46	1851.36
361.67	1716.20
361.88	1740.77
362.09	1791.97
362.30	1794.02
362.51	1703.91
362.72	1697.77
362.93	1818.60
363.14	1800.16
363.35	1734.63
363.56	1710.05
363.78	1746.92
363.99	1789.92
364.20	1757.16
364.41	1673.19
364.62	1761.25
364.83	1677.29
365.04	1724.39
365.25	1660.90
365.46	1763.30
365.67	1638.38
365.88	1617.90
366.09	1746.92
366.30	1699.81
366.51	1789.92
366.72	1609.70
366.93	1753.06
367.14	1783.78
367.35	1888.23
367.56	1677.29
367.77	1746.92
367.98	1671.14
368.18	1765.35
368.39	1689.57
368.60	1640.42
368.81	1697.77
369.02	1798.12
369.23	1675.24
369.44	1619.94
369.65	1683.43
369.86	1755.11
370.07	1763.30
370.28	1714.15
370.49	1714.15
370.70	1763.30
370.91	1662.95
371.12	1681.38
371.33	1742.82
371.54	1705.96
371.75	1753.06
371.96	1599.46
372.17	1662.95
372.38	1708.01
372.59	1667.05
372.80	1740.77
373.01	1685.48
373.22	1693.67
373.43	1734.63
373.64	1675.24
373.85	1771.49
374.06	1863.65
374.26	1753.06
374.47	1783.78
374.68	1751.01
374.89	1699.81
375.10	1667.05
375.31	1779.68
375.52	1718.25
375.73	1701.86
375.94	1656.81
376.15	1722.34
376.36	1708.01
376.57	1673.19
376.78	1687.53
376.99	1683.43
377.20	1738.73
377.40	1675.24
377.61	1847.27
377.82	1642.47
378.03	1806.31
378.24	1746.92
378.45	1695.72
378.66	1849.32
378.87	1650.66
379.08	1699.81
379.29	1773.54
379.50	1820.64
379.71	1730.53
379.91	1771.49
380.12	1675.24
380.33	1732.58
380.54	1681.38
380.75	1716.20
380.96	1714.15
381.17	1767.40
381.38	1765.35
381.59	1751.01
381.80	1691.62
382.00	1863.65
382.21	1724.39
382.42	1855.46
382.63	1890.28
382.84	1761.25
383.05	1767.40
383.26	1785.83
383.47	1726.44
383.68	1726.44
383.88	1673.19
384.09	1636.33
384.30	1755.11
384.51	1673.19
384.72	1714.15
384.93	1628.14
385.14	1701.86
385.35	1845.22
385.55	1660.90
385.76	1746.92
385.97	1701.86
386.18	1724.39
386.39	1740.77
386.60	1724.39
386.81	1646.57
387.02	1681.38
387.22	1648.61
387.43	1769.44
387.64	1791.97
387.85	1863.65
388.06	2228.19
388.27	4202.43
388.48	6528.92
388.68	8075.14
388.89	9514.86
389.10	9594.73
389.31	8572.80
389.52	7514.00
389.73	6627.23
389.93	6047.65
390.14	5650.35
390.35	5076.91
390.56	4591.55
390.77	3704.78
390.98	2979.79
391.18	2471.90
391.39	2142.18
391.60	1875.94
391.81	1890.28
392.02	1730.53
392.23	1978.34
392.43	1742.82
392.64	1837.03
392.85	1761.25
393.06	1759.21
393.27	1699.81
393.47	1615.85
393.68	1687.53
393.89	1671.14
394.10	1845.22
394.31	1712.10
394.52	1640.42
394.72	1695.72
394.93	1798.12
395.14	1738.73
395.35	1685.48
395.56	1705.96
395.76	1675.24
395.97	1875.94
396.18	1867.75
396.39	1808.36
396.60	2000.87
396.80	1900.52
397.01	1822.69
397.22	1814.50
397.43	1900.52
397.64	1685.48
397.84	1785.83
398.05	1859.56
398.26	1826.79
398.47	1771.49
398.67	1773.54
398.88	1767.40
399.09	1759.21
399.30	1730.53
399.51	1751.01
399.71	1708.01
399.92	1689.57
400.13	1667.05
400.34	1710.05
400.54	1708.01
400.75	1806.31
400.96	1728.49
401.17	1785.83
401.37	1751.01
401.58	1691.62
401.79	1814.50
402.00	1847.27
402.21	2041.82
402.41	1925.09
402.62	2035.68
402.83	1951.71
403.04	1996.77
403.24	2097.12
403.45	1898.47
403.66	1918.95
403.87	1861.60
404.07	1826.79
404.28	1918.95
404.49	1912.80
404.70	1759.21
404.90	1724.39
405.11	1757.16
405.32	1761.25
405.52	1716.20
405.73	1771.49
405.94	1662.95
406.15	1722.34
406.35	1775.59
406.56	1796.07
406.77	1724.39
406.98	1783.78
407.18	1708.01
407.39	1791.97
407.60	1689.57
407.80	1689.57
408.01	1654.76
408.22	1740.77
408.43	1732.58
408.63	1789.92
408.84	1710.05
409.05	1722.34
409.25	1626.09
409.46	1751.01
409.67	1642.47
409.88	1771.49
410.08	1679.33
410.29	1703.91
410.50	1697.77
410.70	1722.34
410.91	1658.85
411.12	1705.96
411.32	1683.43
411.53	1656.81
411.74	1824.74
411.95	1763.30
412.15	1798.12
412.36	1814.50
412.57	1787.88
412.77	1873.89
412.98	1759.21
413.19	1802.21
413.39	1802.21
413.60	1761.25
413.81	1849.32
414.01	1677.29
414.22	1736.68
414.43	1894.37
414.63	1728.49
414.84	1810.40
415.05	1746.92
415.25	1619.94
415.46	1779.68
415.67	1677.29
415.87	1757.16
416.08	1693.67
416.29	1673.19
416.49	1720.29
416.70	1687.53
416.91	1615.85
417.11	1748.97
417.32	1767.40
417.53	1738.73
417.73	1730.53
417.94	1675.24
418.15	1753.06
418.35	1722.34
418.56	1734.63
418.77	1830.88
418.97	1685.48
419.18	1660.90
419.38	1589.22
419.59	1669.09
419.80	1789.92
420.00	1714.15
420.21	1695.72
420.42	1777.64
420.62	1757.16
420.83	1691.62
421.04	1732.58
421.24	1687.53
421.45	1794.02
421.65	1722.34
421.86	1755.11
422.07	1703.91
422.27	1755.11
422.48	1744.87
422.69	1636.33
422.89	1695.72
423.10	1738.73
423.30	1697.77
423.51	1693.67
423.72	1740.77
423.92	1783.78
424.13	1716.20
424.33	1703.91
424.54	1806.31
424.75	1765.35
424.95	1824.74
425.16	1748.97
425.36	1669.09
425.57	1728.49
425.78	1818.60
425.98	1851.36
426.19	1734.63
426.39	1640.42
426.60	1751.01
426.81	1812.45
427.01	1687.53
427.22	1693.67
427.42	1697.77
427.63	1687.53
427.83	1738.73
428.04	1841.12
428.25	1798.12
428.45	1812.45
428.66	1759.21
428.86	1705.96
429.07	1730.53
429.28	1789.92
429.48	1679.33
429.69	1701.86
429.89	1753.06
430.10	1689.57
430.30	1724.39
430.51	1841.12
430.71	1699.81
430.92	1714.15
431.13	1738.73
431.33	1748.97
431.54	1710.05
431.74	1791.97
431.95	1855.46
432.15	1746.92
432.36	1679.33
432.56	1812.45
432.77	1748.97
432.98	1808.36
433.18	1650.66
433.39	1785.83
433.59	1683.43
433.80	1832.93
434.00	1884.13
434.21	1648.61
434.41	1662.95
434.62	1896.42
434.82	1632.23
435.03	1648.61
435.23	1746.92
435.44	1685.48
435.64	1646.57
435.85	1728.49
436.06	1740.77
436.26	1703.91
436.47	1662.95
436.67	1644.52
436.88	1740.77
437.08	1720.29
437.29	1851.36
437.49	1718.25
437.70	1785.83
437.90	1693.67
438.11	1941.47
438.31	1812.45
438.52	1871.84
438.72	1781.73
438.93	1888.23
439.13	1785.83
439.34	1837.03
439.54	1765.35
439.75	1693.67
439.95	1787.88
440.16	1742.82
440.36	1748.97
440.57	1763.30
440.77	1828.84
440.98	1755.11
441.18	1681.38
441.39	1691.62
441.59	1675.24
441.80	1800.16
442.00	1767.40
442.21	1847.27
442.41	1675.24
442.62	1673.19
442.82	1781.73
443.02	1656.81
443.23	1769.44
443.43	1783.78
443.64	1798.12
443.84	1740.77
444.05	1818.60
444.25	1714.15
444.46	1785.83
444.66	1751.01
444.87	1830.88
445.07	1722.34
445.28	1746.92
445.48	1796.07
445.69	1796.07
445.89	1826.79
446.09	1777.64
446.30	2078.69
446.50	2570.20
446.71	3639.24
446.91	4308.93
447.12	4644.79
447.32	4868.02
447.53	4233.15
447.73	3686.34
447.93	3538.89
448.14	3323.85
448.34	3104.72
448.55	2877.40
448.75	2869.20
448.96	2680.79
449.16	2420.70
449.36	2271.20
449.57	2066.40
449.77	1937.38
449.98	1779.68
450.18	1824.74
450.39	1869.80
450.59	1796.07
450.79	1828.84
451.00	1767.40
451.20	1775.59
451.41	1730.53
451.61	1837.03
451.81	1773.54
452.02	1740.77
452.22	1734.63
452.43	1632.23
452.63	1677.29
