SpectraSuite Data File
++++++++++++++++++++++++++++++++++++
Date: Mon Jun 06 17:09:57 CEST 2016
User: root
Dark Spectrum Present: No
Reference Spectrum Present: No
Number of Sampled Component Spectra: 1
Spectrometers: USB4C02835
Integration Time (usec): 100000 (USB4C02835)
Spectra Averaged: 1 (USB4C02835)
Boxcar Smoothing: 0 (USB4C02835)
Correct for Electrical Dark: No (USB4C02835)
Strobe/Lamp Enabled: No (USB4C02835)
Correct for Detector Non-linearity: No (USB4C02835)
Correct for Stray Light: No (USB4C02835)
Number of Pixels in Processed Spectrum: 3648
>>>>>Begin Processed Spectral Data<<<<<
177.47	1460.20
177.69	1460.20
177.91	1460.20
178.13	1517.54
178.36	1558.50
178.58	1685.48
178.80	1738.73
179.02	1607.66
179.24	1699.81
179.46	1665.00
179.68	1771.49
179.90	1683.43
180.13	1683.43
180.35	1613.80
180.57	1718.25
180.79	1697.77
181.01	1681.38
181.23	1744.87
181.45	1742.82
181.67	1800.16
181.90	1730.53
182.12	1757.16
182.34	1611.75
182.56	1691.62
182.78	1781.73
183.00	1722.34
183.22	1722.34
183.44	1630.18
183.66	1884.13
183.89	1789.92
184.11	1708.01
184.33	1740.77
184.55	1746.92
184.77	1716.20
184.99	1753.06
185.21	1624.04
185.43	1810.40
185.65	1689.57
185.87	1728.49
186.10	1904.61
186.32	1826.79
186.54	1736.68
186.76	1746.92
186.98	1718.25
187.20	1734.63
187.42	1681.38
187.64	1718.25
187.86	1693.67
188.08	1759.21
188.30	1693.67
188.52	1716.20
188.75	1755.11
188.97	1781.73
189.19	1687.53
189.41	1648.61
189.63	1703.91
189.85	1642.47
190.07	1611.75
190.29	1632.23
190.51	1687.53
190.73	1648.61
190.95	1814.50
191.17	1634.28
191.39	1648.61
191.61	1632.23
191.84	1736.68
192.06	1687.53
192.28	1595.37
192.50	1826.79
192.72	1777.64
192.94	1689.57
193.16	1777.64
193.38	1775.59
193.60	1640.42
193.82	1691.62
194.04	1800.16
194.26	1722.34
194.48	1726.44
194.70	1753.06
194.92	1695.72
195.14	1759.21
195.36	1687.53
195.58	1685.48
195.80	1716.20
196.02	1697.77
196.24	1714.15
196.46	1656.81
196.69	1665.00
196.91	1804.26
197.13	1724.39
197.35	1632.23
197.57	1738.73
197.79	1773.54
198.01	1736.68
198.23	1791.97
198.45	1718.25
198.67	1593.32
198.89	1722.34
199.11	1693.67
199.33	1714.15
199.55	1640.42
199.77	1701.86
199.99	1730.53
200.21	1720.29
200.43	1714.15
200.65	1691.62
200.87	1540.07
201.09	1738.73
201.31	1669.09
201.53	1755.11
201.75	1714.15
201.97	1722.34
202.19	1738.73
202.41	1773.54
202.63	1888.23
202.85	1744.87
203.07	1716.20
203.29	1681.38
203.51	1697.77
203.73	1652.71
203.95	1890.28
204.17	1765.35
204.39	1726.44
204.61	1712.10
204.83	1681.38
205.05	1818.60
205.27	1708.01
205.49	1882.08
205.71	1710.05
205.93	1685.48
206.15	1689.57
206.37	1648.61
206.59	1724.39
206.81	1669.09
207.03	1716.20
207.25	1601.51
207.47	1716.20
207.69	1701.86
207.91	1777.64
208.13	1738.73
208.34	1773.54
208.56	1636.33
208.78	1746.92
209.00	1681.38
209.22	1689.57
209.44	1724.39
209.66	1701.86
209.88	1708.01
210.10	1683.43
210.32	1722.34
210.54	1787.88
210.76	1601.51
210.98	1769.44
211.20	1572.84
211.42	1703.91
211.64	1732.58
211.86	1734.63
212.08	1757.16
212.30	1644.52
212.52	1656.81
212.74	1730.53
212.96	1728.49
213.17	1724.39
213.39	1677.29
213.61	1757.16
213.83	1808.36
214.05	1697.77
214.27	1748.97
214.49	1642.47
214.71	1595.37
214.93	1800.16
215.15	1736.68
215.37	1746.92
215.59	1662.95
215.81	1773.54
216.03	1785.83
216.24	1748.97
216.46	1624.04
216.68	1759.21
216.90	1701.86
217.12	1722.34
217.34	1681.38
217.56	1714.15
217.78	1812.45
218.00	1677.29
218.22	1777.64
218.44	1658.85
218.66	1771.49
218.87	1777.64
219.09	1615.85
219.31	1753.06
219.53	1812.45
219.75	1681.38
219.97	1705.96
220.19	1646.57
220.41	1654.76
220.63	1742.82
220.85	1671.14
221.06	1714.15
221.28	1802.21
221.50	1748.97
221.72	1716.20
221.94	1726.44
222.16	1753.06
222.38	1689.57
222.60	1693.67
222.82	1751.01
223.03	1761.25
223.25	1583.08
223.47	1650.66
223.69	1857.51
223.91	1798.12
224.13	1753.06
224.35	1642.47
224.57	1853.41
224.78	1746.92
225.00	1705.96
225.22	1675.24
225.44	1691.62
225.66	1701.86
225.88	1722.34
226.10	1744.87
226.32	1673.19
226.53	1847.27
226.75	1726.44
226.97	1658.85
227.19	1732.58
227.41	1687.53
227.63	1705.96
227.85	1687.53
228.06	1794.02
228.28	1720.29
228.50	1759.21
228.72	1689.57
228.94	1665.00
229.16	1636.33
229.37	1585.13
229.59	1751.01
229.81	1832.93
230.03	1724.39
230.25	1656.81
230.47	1638.38
230.69	1624.04
230.90	1718.25
231.12	1611.75
231.34	1828.84
231.56	1767.40
231.78	1701.86
232.00	1796.07
232.21	1761.25
232.43	1724.39
232.65	1603.56
232.87	1718.25
233.09	1626.09
233.30	1701.86
233.52	1763.30
233.74	1650.66
233.96	1695.72
234.18	1736.68
234.40	1681.38
234.61	1787.88
234.83	1673.19
235.05	1632.23
235.27	1914.85
235.49	1705.96
235.70	1722.34
235.92	1763.30
236.14	1777.64
236.36	1834.98
236.58	1681.38
236.79	1769.44
237.01	1675.24
237.23	1685.48
237.45	1781.73
237.67	1640.42
237.88	1693.67
238.10	1855.46
238.32	1671.14
238.54	1689.57
238.76	1710.05
238.97	1646.57
239.19	1656.81
239.41	1755.11
239.63	1773.54
239.85	1767.40
240.06	1673.19
240.28	1740.77
240.50	1738.73
240.72	1730.53
240.93	1703.91
241.15	1710.05
241.37	1779.68
241.59	1812.45
241.81	1724.39
242.02	1716.20
242.24	1628.14
242.46	1714.15
242.68	1648.61
242.89	1695.72
243.11	1800.16
243.33	1755.11
243.55	1746.92
243.76	1777.64
243.98	1720.29
244.20	1751.01
244.42	1710.05
244.64	1712.10
244.85	1689.57
245.07	1724.39
245.29	1783.78
245.51	1734.63
245.72	1693.67
245.94	1804.26
246.16	1644.52
246.38	1771.49
246.59	1695.72
246.81	1685.48
247.03	1658.85
247.24	1662.95
247.46	1652.71
247.68	1685.48
247.90	1757.16
248.11	1689.57
248.33	1718.25
248.55	1753.06
248.77	1697.77
248.98	1765.35
249.20	1771.49
249.42	1720.29
249.64	1751.01
249.85	1619.94
250.07	1583.08
250.29	1806.31
250.50	1818.60
250.72	1626.09
250.94	1748.97
251.16	1828.84
251.37	1726.44
251.59	1720.29
251.81	1724.39
252.02	1820.64
252.24	1789.92
252.46	1814.50
252.68	1677.29
252.89	1685.48
253.11	1603.56
253.33	1828.84
253.54	1794.02
253.76	1578.98
253.98	1722.34
254.20	1671.14
254.41	1642.47
254.63	1744.87
254.85	1617.90
255.06	1683.43
255.28	1683.43
255.50	1669.09
255.71	1669.09
255.93	1656.81
256.15	1665.00
256.36	1695.72
256.58	1636.33
256.80	1779.68
257.02	1648.61
257.23	1724.39
257.45	1757.16
257.67	1738.73
257.88	1636.33
258.10	1746.92
258.32	1724.39
258.53	1734.63
258.75	1781.73
258.97	1687.53
259.18	1730.53
259.40	1738.73
259.62	1777.64
259.83	1824.74
260.05	1687.53
260.27	1982.43
260.48	1718.25
260.70	1609.70
260.92	1734.63
261.13	1695.72
261.35	1718.25
261.57	1732.58
261.78	1646.57
262.00	1626.09
262.22	1718.25
262.43	1791.97
262.65	1679.33
262.86	1742.82
263.08	1832.93
263.30	1818.60
263.51	1558.50
263.73	1640.42
263.95	1796.07
264.16	1605.61
264.38	1617.90
264.60	1701.86
264.81	1765.35
265.03	1777.64
265.25	1789.92
265.46	1716.20
265.68	1775.59
265.89	1849.32
266.11	1587.18
266.33	1738.73
266.54	1767.40
266.76	1773.54
266.98	1794.02
267.19	1748.97
267.41	1843.17
267.62	1683.43
267.84	1738.73
268.06	1765.35
268.27	1751.01
268.49	1732.58
268.70	1802.21
268.92	1751.01
269.14	1648.61
269.35	1654.76
269.57	1806.31
269.79	1714.15
270.00	1720.29
270.22	1773.54
270.43	1658.85
270.65	1581.03
270.87	1726.44
271.08	1740.77
271.30	1732.58
271.51	1703.91
271.73	1677.29
271.95	1816.55
272.16	1701.86
272.38	1703.91
272.59	1726.44
272.81	1722.34
273.02	1683.43
273.24	1767.40
273.46	1769.44
273.67	1634.28
273.89	1712.10
274.10	1738.73
274.32	1679.33
274.54	1667.05
274.75	1775.59
274.97	1669.09
275.18	1794.02
275.40	1769.44
275.61	1710.05
275.83	1738.73
276.05	1581.03
276.26	1761.25
276.48	1724.39
276.69	1669.09
276.91	1656.81
277.12	1789.92
277.34	1771.49
277.55	1755.11
277.77	1798.12
277.99	1689.57
278.20	1726.44
278.42	1701.86
278.63	1640.42
278.85	1716.20
279.06	1624.04
279.28	1718.25
279.49	1755.11
279.71	1771.49
279.93	1726.44
280.14	1679.33
280.36	1648.61
280.57	1767.40
280.79	1800.16
281.00	1644.52
281.22	1730.53
281.43	1759.21
281.65	1626.09
281.86	1652.71
282.08	1671.14
282.29	1755.11
282.51	1609.70
282.73	1665.00
282.94	1648.61
283.16	1755.11
283.37	1759.21
283.59	1689.57
283.80	1814.50
284.02	1724.39
284.23	1710.05
284.45	1689.57
284.66	1697.77
284.88	1654.76
285.09	1748.97
285.31	1798.12
285.52	1775.59
285.74	1640.42
285.95	1779.68
286.17	1718.25
286.38	1720.29
286.60	1638.38
286.81	1671.14
287.03	1624.04
287.24	1751.01
287.46	1769.44
287.67	1681.38
287.89	1857.51
288.10	1740.77
288.32	1722.34
288.53	1769.44
288.75	1667.05
288.96	1753.06
289.18	1656.81
289.39	1685.48
289.61	1796.07
289.82	1847.27
290.04	1794.02
290.25	1654.76
290.47	1642.47
290.68	1662.95
290.90	1759.21
291.11	1593.32
291.33	1734.63
291.54	1658.85
291.76	1712.10
291.97	1708.01
292.18	1708.01
292.40	1728.49
292.61	1701.86
292.83	1812.45
293.04	1710.05
293.26	1765.35
293.47	1677.29
293.69	1628.14
293.90	1734.63
294.12	1828.84
294.33	1763.30
294.55	1693.67
294.76	1822.69
294.97	1736.68
295.19	1832.93
295.40	1673.19
295.62	1648.61
295.83	1736.68
296.05	1781.73
296.26	1826.79
296.48	1683.43
296.69	1712.10
296.90	1689.57
297.12	1726.44
297.33	1828.84
297.55	1685.48
297.76	1722.34
297.98	1699.81
298.19	1828.84
298.41	1671.14
298.62	1634.28
298.83	1802.21
299.05	1710.05
299.26	1695.72
299.48	1595.37
299.69	1740.77
299.90	1828.84
300.12	1710.05
300.33	1736.68
300.55	1701.86
300.76	1710.05
300.98	1687.53
301.19	1765.35
301.40	1722.34
301.62	1767.40
301.83	1787.88
302.05	1703.91
302.26	1712.10
302.47	1722.34
302.69	1691.62
302.90	1746.92
303.12	1576.94
303.33	1734.63
303.54	1886.18
303.76	1634.28
303.97	1753.06
304.19	1753.06
304.40	1718.25
304.61	1832.93
304.83	1812.45
305.04	1751.01
305.26	1779.68
305.47	1697.77
305.68	1796.07
305.90	1712.10
306.11	1800.16
306.33	1761.25
306.54	1658.85
306.75	1642.47
306.97	1611.75
307.18	1595.37
307.39	1693.67
307.61	1742.82
307.82	1748.97
308.04	1693.67
308.25	1701.86
308.46	1742.82
308.68	1691.62
308.89	1677.29
309.10	1800.16
309.32	1722.34
309.53	1710.05
309.74	1746.92
309.96	1740.77
310.17	1800.16
310.39	1685.48
310.60	1779.68
310.81	1665.00
311.03	1634.28
311.24	1736.68
311.45	1748.97
311.67	1726.44
311.88	1751.01
312.09	1691.62
312.31	1675.24
312.52	1699.81
312.73	1798.12
312.95	1581.03
313.16	1607.66
313.37	1763.30
313.59	1714.15
313.80	1714.15
314.01	1834.98
314.23	1689.57
314.44	1683.43
314.65	1740.77
314.87	1740.77
315.08	1673.19
315.29	1726.44
315.51	1662.95
315.72	1720.29
315.93	1810.40
316.15	1675.24
316.36	1738.73
316.57	1701.86
316.79	1722.34
317.00	1708.01
317.21	1685.48
317.43	1708.01
317.64	1757.16
317.85	1669.09
318.07	1699.81
318.28	1796.07
318.49	1767.40
318.70	1912.80
318.92	1826.79
319.13	1841.12
319.34	1794.02
319.56	1787.88
319.77	1763.30
319.98	1816.55
320.20	1855.46
320.41	1804.26
320.62	1685.48
320.83	1775.59
321.05	1830.88
321.26	1761.25
321.47	1677.29
321.69	1791.97
321.90	1613.80
322.11	1681.38
322.32	1746.92
322.54	1787.88
322.75	1693.67
322.96	1812.45
323.18	1585.13
323.39	1636.33
323.60	1730.53
323.81	1744.87
324.03	1648.61
324.24	1722.34
324.45	1708.01
324.66	1636.33
324.88	1746.92
325.09	1748.97
325.30	1742.82
325.52	1787.88
325.73	1679.33
325.94	1624.04
326.15	1599.46
326.37	1742.82
326.58	1828.84
326.79	1775.59
327.00	1738.73
327.22	1769.44
327.43	1673.19
327.64	1738.73
327.85	1746.92
328.07	1775.59
328.28	1853.41
328.49	1726.44
328.70	1765.35
328.92	1718.25
329.13	1775.59
329.34	1746.92
329.55	1789.92
329.76	1740.77
329.98	1775.59
330.19	1791.97
330.40	1730.53
330.61	1701.86
330.83	1734.63
331.04	1703.91
331.25	1662.95
331.46	1689.57
331.68	1701.86
331.89	1730.53
332.10	1693.67
332.31	1615.85
332.52	1724.39
332.74	1742.82
332.95	1669.09
333.16	1730.53
333.37	1755.11
333.58	1734.63
333.80	1697.77
334.01	1574.89
334.22	1634.28
334.43	1648.61
334.64	1689.57
334.86	1658.85
335.07	1701.86
335.28	1683.43
335.49	1660.90
335.70	1671.14
335.92	1718.25
336.13	1972.19
336.34	1718.25
336.55	1724.39
336.76	1720.29
336.98	1660.90
337.19	1718.25
337.40	1742.82
337.61	1865.70
337.82	1673.19
338.04	1773.54
338.25	1646.57
338.46	1759.21
338.67	1746.92
338.88	1609.70
339.09	1581.03
339.31	1677.29
339.52	1583.08
339.73	1734.63
339.94	1681.38
340.15	1802.21
340.36	1699.81
340.58	1701.86
340.79	1626.09
341.00	1720.29
341.21	1617.90
341.42	1841.12
341.63	1652.71
341.85	1697.77
342.06	1734.63
342.27	1626.09
342.48	1734.63
342.69	1660.90
342.90	1697.77
343.12	1740.77
343.33	1695.72
343.54	1732.58
343.75	1789.92
343.96	1712.10
344.17	1705.96
344.38	1619.94
344.60	1644.52
344.81	1697.77
345.02	1673.19
345.23	1765.35
345.44	1865.70
345.65	1761.25
345.86	1726.44
346.07	1767.40
346.29	1746.92
346.50	1714.15
346.71	1767.40
346.92	1746.92
347.13	1808.36
347.34	1679.33
347.55	1685.48
347.76	1728.49
347.98	1636.33
348.19	1710.05
348.40	1732.58
348.61	1734.63
348.82	1761.25
349.03	1802.21
349.24	1724.39
349.45	1771.49
349.66	1605.61
349.88	1771.49
350.09	1705.96
350.30	1804.26
350.51	1751.01
350.72	1615.85
350.93	1779.68
351.14	1738.73
351.35	1744.87
351.56	1681.38
351.77	1718.25
351.99	1767.40
352.20	1791.97
352.41	1718.25
352.62	1724.39
352.83	1685.48
353.04	1687.53
353.25	1644.52
353.46	1789.92
353.67	1683.43
353.88	1615.85
354.09	1665.00
354.30	1767.40
354.52	1755.11
354.73	1724.39
354.94	1660.90
355.15	1734.63
355.36	1769.44
355.57	1632.23
355.78	1714.15
355.99	1656.81
356.20	1724.39
356.41	1767.40
356.62	1691.62
356.83	1806.31
357.04	1779.68
357.25	1652.71
357.46	1656.81
357.68	1630.18
357.89	1712.10
358.10	1687.53
358.31	1681.38
358.52	1722.34
358.73	1687.53
358.94	1636.33
359.15	1722.34
359.36	1718.25
359.57	1699.81
359.78	1746.92
359.99	1751.01
360.20	1607.66
360.41	1679.33
360.62	1722.34
360.83	1624.04
361.04	1675.24
361.25	1736.68
361.46	1822.69
361.67	1755.11
361.88	1757.16
362.09	1812.45
362.30	1677.29
362.51	1673.19
362.72	1751.01
362.93	1683.43
363.14	1789.92
363.35	1667.05
363.56	1730.53
363.78	1802.21
363.99	1787.88
364.20	1712.10
364.41	1732.58
364.62	1796.07
364.83	1724.39
365.04	1673.19
365.25	1781.73
365.46	1810.40
365.67	1736.68
365.88	1724.39
366.09	1578.98
366.30	1689.57
366.51	1775.59
366.72	1632.23
366.93	1685.48
367.14	1671.14
367.35	1738.73
367.56	1751.01
367.77	1837.03
367.98	1630.18
368.18	1787.88
368.39	1705.96
368.60	1705.96
368.81	1755.11
369.02	1738.73
369.23	1716.20
369.44	1671.14
369.65	1703.91
369.86	1746.92
370.07	1755.11
370.28	1656.81
370.49	1748.97
370.70	1722.34
370.91	1644.52
371.12	1621.99
371.33	1808.36
371.54	1732.58
371.75	1800.16
371.96	1599.46
372.17	1705.96
372.38	1695.72
372.59	1724.39
372.80	1654.76
373.01	1730.53
373.22	1714.15
373.43	1726.44
373.64	1646.57
373.85	1824.74
374.06	1771.49
374.26	1791.97
374.47	1677.29
374.68	1808.36
374.89	1681.38
375.10	1787.88
375.31	1755.11
375.52	1720.29
375.73	1644.52
375.94	1722.34
376.15	1816.55
376.36	1648.61
376.57	1640.42
376.78	1673.19
376.99	1716.20
377.20	1748.97
377.40	1705.96
377.61	1748.97
377.82	1646.57
378.03	1783.78
378.24	1791.97
378.45	1667.05
378.66	1720.29
378.87	1636.33
379.08	1615.85
379.29	1697.77
379.50	1779.68
379.71	1689.57
379.91	1837.03
380.12	1693.67
380.33	1791.97
380.54	1783.78
380.75	1728.49
380.96	1638.38
381.17	1765.35
381.38	1720.29
381.59	1687.53
381.80	1718.25
382.00	1845.22
382.21	1746.92
382.42	1843.17
382.63	1837.03
382.84	1755.11
383.05	1824.74
383.26	1751.01
383.47	1665.00
383.68	1812.45
383.88	1785.83
384.09	1722.34
384.30	1828.84
384.51	1759.21
384.72	1656.81
384.93	1601.51
385.14	1728.49
385.35	1794.02
385.55	1617.90
385.76	1718.25
385.97	1712.10
386.18	1642.47
386.39	1712.10
386.60	1710.05
386.81	1705.96
387.02	1693.67
387.22	1634.28
387.43	1726.44
387.64	1757.16
387.85	1882.08
388.06	2133.98
388.27	4290.49
388.48	6883.22
388.68	8152.96
388.89	9697.13
389.10	10102.63
389.31	8617.85
389.52	7792.52
389.73	6850.46
389.93	6328.22
390.14	5916.58
390.35	5277.62
390.56	4638.65
390.77	3874.76
390.98	3211.22
391.18	2559.96
391.39	2068.45
391.60	1814.50
391.81	1847.27
392.02	1687.53
392.23	1890.28
392.43	1804.26
392.64	1865.70
392.85	1634.28
393.06	1857.51
393.27	1705.96
393.47	1673.19
393.68	1740.77
393.89	1695.72
394.10	1740.77
394.31	1759.21
394.52	1699.81
394.72	1650.66
394.93	1791.97
395.14	1632.23
395.35	1714.15
395.56	1671.14
395.76	1755.11
395.97	1828.84
396.18	1920.99
396.39	1771.49
396.60	2015.20
396.80	1888.23
397.01	1882.08
397.22	1841.12
397.43	1951.71
397.64	1746.92
397.84	1771.49
398.05	1843.17
398.26	1771.49
398.47	1767.40
398.67	1804.26
398.88	1861.60
399.09	1773.54
399.30	1642.47
399.51	1742.82
399.71	1650.66
399.92	1701.86
400.13	1787.88
400.34	1695.72
400.54	1796.07
400.75	1927.14
400.96	1781.73
401.17	1816.55
401.37	1757.16
401.58	1708.01
401.79	1751.01
402.00	1826.79
402.21	2125.79
402.41	1980.39
402.62	1978.34
402.83	2062.30
403.04	2019.30
403.24	2084.83
403.45	1845.22
403.66	1945.57
403.87	1873.89
404.07	1847.27
404.28	1961.95
404.49	1855.46
404.70	1748.97
404.90	1812.45
405.11	1746.92
405.32	1765.35
405.52	1699.81
405.73	1644.52
405.94	1648.61
406.15	1755.11
406.35	1830.88
406.56	1751.01
406.77	1726.44
406.98	1667.05
407.18	1744.87
407.39	1757.16
407.60	1718.25
407.80	1730.53
408.01	1710.05
408.22	1744.87
408.43	1701.86
408.63	1693.67
408.84	1785.83
409.05	1699.81
409.25	1669.09
409.46	1697.77
409.67	1716.20
409.88	1693.67
410.08	1794.02
410.29	1689.57
410.50	1787.88
410.70	1705.96
410.91	1626.09
411.12	1652.71
411.32	1667.05
411.53	1675.24
411.74	1697.77
411.95	1794.02
412.15	1732.58
412.36	1806.31
412.57	1769.44
412.77	1783.78
412.98	1710.05
413.19	1685.48
413.39	1791.97
413.60	1771.49
413.81	1808.36
414.01	1648.61
414.22	1730.53
414.43	1771.49
414.63	1665.00
414.84	1806.31
415.05	1712.10
415.25	1634.28
415.46	1767.40
415.67	1724.39
415.87	1730.53
416.08	1755.11
416.29	1691.62
416.49	1724.39
416.70	1714.15
416.91	1689.57
417.11	1720.29
417.32	1751.01
417.53	1859.56
417.73	1720.29
417.94	1742.82
418.15	1744.87
418.35	1683.43
418.56	1673.19
418.77	1824.74
418.97	1722.34
419.18	1710.05
419.38	1607.66
419.59	1656.81
419.80	1783.78
420.00	1718.25
420.21	1691.62
420.42	1794.02
420.62	1769.44
420.83	1712.10
421.04	1720.29
421.24	1726.44
421.45	1730.53
421.65	1783.78
421.86	1705.96
422.07	1812.45
422.27	1714.15
422.48	1718.25
422.69	1642.47
422.89	1753.06
423.10	1738.73
423.30	1679.33
423.51	1691.62
423.72	1765.35
423.92	1744.87
424.13	1634.28
424.33	1708.01
424.54	1732.58
424.75	1722.34
424.95	1779.68
425.16	1730.53
425.36	1667.05
425.57	1693.67
425.78	1783.78
425.98	1703.91
426.19	1681.38
426.39	1609.70
426.60	1699.81
426.81	1814.50
427.01	1701.86
427.22	1628.14
427.42	1630.18
427.63	1628.14
427.83	1722.34
428.04	1824.74
428.25	1800.16
428.45	1826.79
428.66	1716.20
428.86	1691.62
429.07	1650.66
429.28	1742.82
429.48	1656.81
429.69	1654.76
429.89	1730.53
430.10	1599.46
430.30	1769.44
430.51	1757.16
430.71	1624.04
430.92	1796.07
431.13	1685.48
431.33	1744.87
431.54	1650.66
431.74	1785.83
431.95	1873.89
432.15	1640.42
432.36	1662.95
432.56	1765.35
432.77	1728.49
432.98	1787.88
433.18	1751.01
433.39	1816.55
433.59	1763.30
433.80	1834.98
434.00	1857.51
434.21	1699.81
434.41	1722.34
434.62	1789.92
434.82	1695.72
435.03	1638.38
435.23	1701.86
435.44	1658.85
435.64	1730.53
435.85	1718.25
436.06	1693.67
436.26	1753.06
436.47	1724.39
436.67	1728.49
436.88	1740.77
437.08	1710.05
437.29	1826.79
437.49	1720.29
437.70	1746.92
437.90	1701.86
438.11	1824.74
438.31	1841.12
438.52	1896.42
438.72	1824.74
438.93	1818.60
439.13	1847.27
439.34	1814.50
439.54	1785.83
439.75	1816.55
439.95	1843.17
440.16	1751.01
440.36	1730.53
440.57	1734.63
440.77	1810.40
440.98	1751.01
441.18	1736.68
441.39	1767.40
441.59	1683.43
441.80	1818.60
442.00	1716.20
442.21	1800.16
442.41	1689.57
442.62	1687.53
442.82	1642.47
443.02	1751.01
443.23	1714.15
443.43	1761.25
443.64	1865.70
443.84	1736.68
444.05	1779.68
444.25	1763.30
444.46	1808.36
444.66	1753.06
444.87	1814.50
445.07	1710.05
445.28	1818.60
445.48	1828.84
445.69	1837.03
445.89	1855.46
446.09	1804.26
446.30	2072.54
446.50	2695.13
446.71	3725.26
446.91	4478.91
447.12	4741.05
447.32	4847.54
447.53	4331.45
447.73	3966.92
447.93	3637.19
448.14	3293.13
448.34	3241.93
448.55	2893.78
448.75	2893.78
448.96	2729.94
449.16	2447.32
449.36	2236.38
449.57	2070.50
449.77	1910.75
449.98	1818.60
450.18	1808.36
450.39	1843.17
450.59	1822.69
450.79	1759.21
451.00	1681.38
451.20	1822.69
451.41	1691.62
451.61	1849.32
451.81	1685.48
452.02	1779.68
452.22	1777.64
452.43	1720.29
452.63	1714.15
