SpectraSuite Data File
++++++++++++++++++++++++++++++++++++
Date: Mon Jun 06 13:09:57 CEST 2016
User: root
Dark Spectrum Present: No
Reference Spectrum Present: No
Number of Sampled Component Spectra: 1
Spectrometers: USB4C02835
Integration Time (usec): 100000 (USB4C02835)
Spectra Averaged: 1 (USB4C02835)
Boxcar Smoothing: 0 (USB4C02835)
Correct for Electrical Dark: No (USB4C02835)
Strobe/Lamp Enabled: No (USB4C02835)
Correct for Detector Non-linearity: No (USB4C02835)
Correct for Stray Light: No (USB4C02835)
Number of Pixels in Processed Spectrum: 3648
>>>>>Begin Processed Spectral Data<<<<<
177.47	1558.50
177.69	1558.50
177.91	1558.50
178.13	1353.71
178.36	1492.97
178.58	1669.09
178.80	1675.24
179.02	1648.61
179.24	1722.34
179.46	1687.53
179.68	1748.97
179.90	1710.05
180.13	1718.25
180.35	1710.05
180.57	1646.57
180.79	1703.91
181.01	1660.90
181.23	1720.29
181.45	1746.92
181.67	1685.48
181.90	1742.82
182.12	1722.34
182.34	1671.14
182.56	1714.15
182.78	1642.47
183.00	1687.53
183.22	1683.43
183.44	1574.89
183.66	1796.07
183.89	1767.40
184.11	1687.53
184.33	1697.77
184.55	1802.21
184.77	1660.90
184.99	1800.16
185.21	1607.66
185.43	1896.42
185.65	1665.00
185.87	1712.10
186.10	1822.69
186.32	1771.49
186.54	1693.67
186.76	1720.29
186.98	1738.73
187.20	1607.66
187.42	1660.90
187.64	1677.29
187.86	1736.68
188.08	1738.73
188.30	1722.34
188.52	1773.54
188.75	1824.74
188.97	1757.16
189.19	1714.15
189.41	1673.19
189.63	1804.26
189.85	1701.86
190.07	1603.56
190.29	1689.57
190.51	1814.50
190.73	1552.36
190.95	1787.88
191.17	1691.62
191.39	1572.84
191.61	1755.11
191.84	1691.62
192.06	1662.95
192.28	1578.98
192.50	1824.74
192.72	1708.01
192.94	1701.86
193.16	1718.25
193.38	1687.53
193.60	1656.81
193.82	1677.29
194.04	1703.91
194.26	1714.15
194.48	1665.00
194.70	1718.25
194.92	1726.44
195.14	1705.96
195.36	1677.29
195.58	1789.92
195.80	1712.10
196.02	1669.09
196.24	1646.57
196.46	1705.96
196.69	1607.66
196.91	1804.26
197.13	1662.95
197.35	1673.19
197.57	1845.22
197.79	1705.96
198.01	1714.15
198.23	1722.34
198.45	1746.92
198.67	1626.09
198.89	1648.61
199.11	1748.97
199.33	1609.70
199.55	1581.03
199.77	1705.96
199.99	1673.19
200.21	1658.85
200.43	1689.57
200.65	1714.15
200.87	1656.81
201.09	1705.96
201.31	1607.66
201.53	1781.73
201.75	1677.29
201.97	1722.34
202.19	1714.15
202.41	1609.70
202.63	1806.31
202.85	1710.05
203.07	1679.33
203.29	1718.25
203.51	1609.70
203.73	1648.61
203.95	1845.22
204.17	1679.33
204.39	1685.48
204.61	1708.01
204.83	1681.38
205.05	1726.44
205.27	1767.40
205.49	1759.21
205.71	1687.53
205.93	1642.47
206.15	1705.96
206.37	1738.73
206.59	1697.77
206.81	1652.71
207.03	1628.14
207.25	1642.47
207.47	1761.25
207.69	1722.34
207.91	1771.49
208.13	1812.45
208.34	1708.01
208.56	1617.90
208.78	1697.77
209.00	1615.85
209.22	1746.92
209.44	1697.77
209.66	1716.20
209.88	1685.48
210.10	1722.34
210.32	1660.90
210.54	1800.16
210.76	1718.25
210.98	1742.82
211.20	1581.03
211.42	1722.34
211.64	1738.73
211.86	1714.15
212.08	1699.81
212.30	1685.48
212.52	1753.06
212.74	1736.68
212.96	1724.39
213.17	1705.96
213.39	1671.14
213.61	1808.36
213.83	1773.54
214.05	1652.71
214.27	1736.68
214.49	1607.66
214.71	1597.42
214.93	1757.16
215.15	1650.66
215.37	1722.34
215.59	1640.42
215.81	1695.72
216.03	1753.06
216.24	1677.29
216.46	1656.81
216.68	1667.05
216.90	1773.54
217.12	1740.77
217.34	1761.25
217.56	1734.63
217.78	1748.97
218.00	1708.01
218.22	1732.58
218.44	1697.77
218.66	1804.26
218.87	1738.73
219.09	1685.48
219.31	1746.92
219.53	1789.92
219.75	1734.63
219.97	1728.49
220.19	1771.49
220.41	1660.90
220.63	1755.11
220.85	1720.29
221.06	1621.99
221.28	1740.77
221.50	1640.42
221.72	1669.09
221.94	1734.63
222.16	1693.67
222.38	1773.54
222.60	1759.21
222.82	1681.38
223.03	1710.05
223.25	1595.37
223.47	1738.73
223.69	1761.25
223.91	1699.81
224.13	1714.15
224.35	1665.00
224.57	1746.92
224.78	1740.77
225.00	1644.52
225.22	1658.85
225.44	1718.25
225.66	1726.44
225.88	1658.85
226.10	1730.53
226.32	1728.49
226.53	1746.92
226.75	1716.20
226.97	1730.53
227.19	1722.34
227.41	1669.09
227.63	1710.05
227.85	1603.56
228.06	1738.73
228.28	1746.92
228.50	1787.88
228.72	1652.71
228.94	1621.99
229.16	1605.61
229.37	1583.08
229.59	1599.46
229.81	1773.54
230.03	1720.29
230.25	1636.33
230.47	1566.70
230.69	1656.81
230.90	1726.44
231.12	1615.85
231.34	1626.09
231.56	1765.35
231.78	1660.90
232.00	1642.47
232.21	1689.57
232.43	1626.09
232.65	1607.66
232.87	1703.91
233.09	1699.81
233.30	1617.90
233.52	1757.16
233.74	1701.86
233.96	1705.96
234.18	1720.29
234.40	1640.42
234.61	1775.59
234.83	1568.74
235.05	1675.24
235.27	1828.84
235.49	1753.06
235.70	1761.25
235.92	1734.63
236.14	1763.30
236.36	1775.59
236.58	1626.09
236.79	1705.96
237.01	1691.62
237.23	1740.77
237.45	1814.50
237.67	1585.13
237.88	1718.25
238.10	1708.01
238.32	1632.23
238.54	1703.91
238.76	1728.49
238.97	1615.85
239.19	1642.47
239.41	1691.62
239.63	1746.92
239.85	1714.15
240.06	1705.96
240.28	1658.85
240.50	1681.38
240.72	1689.57
240.93	1669.09
241.15	1794.02
241.37	1701.86
241.59	1732.58
241.81	1671.14
242.02	1677.29
242.24	1695.72
242.46	1818.60
242.68	1640.42
242.89	1677.29
243.11	1802.21
243.33	1673.19
243.55	1710.05
243.76	1712.10
243.98	1642.47
244.20	1708.01
244.42	1798.12
244.64	1794.02
244.85	1636.33
245.07	1662.95
245.29	1763.30
245.51	1648.61
245.72	1779.68
245.94	1732.58
246.16	1736.68
246.38	1746.92
246.59	1675.24
246.81	1652.71
247.03	1730.53
247.24	1673.19
247.46	1693.67
247.68	1685.48
247.90	1693.67
248.11	1708.01
248.33	1718.25
248.55	1681.38
248.77	1722.34
248.98	1794.02
249.20	1771.49
249.42	1681.38
249.64	1763.30
249.85	1685.48
250.07	1607.66
250.29	1736.68
250.50	1685.48
250.72	1701.86
250.94	1753.06
251.16	1812.45
251.37	1800.16
251.59	1710.05
251.81	1753.06
252.02	1814.50
252.24	1679.33
252.46	1828.84
252.68	1630.18
252.89	1691.62
253.11	1599.46
253.33	1824.74
253.54	1710.05
253.76	1626.09
253.98	1675.24
254.20	1652.71
254.41	1660.90
254.63	1675.24
254.85	1662.95
255.06	1697.77
255.28	1740.77
255.50	1724.39
255.71	1638.38
255.93	1607.66
256.15	1732.58
256.36	1781.73
256.58	1652.71
256.80	1796.07
257.02	1734.63
257.23	1681.38
257.45	1732.58
257.67	1771.49
257.88	1710.05
258.10	1732.58
258.32	1720.29
258.53	1736.68
258.75	1779.68
258.97	1595.37
259.18	1705.96
259.40	1687.53
259.62	1761.25
259.83	1798.12
260.05	1748.97
260.27	1951.71
260.48	1787.88
260.70	1638.38
260.92	1714.15
261.13	1660.90
261.35	1607.66
261.57	1679.33
261.78	1632.23
262.00	1609.70
262.22	1736.68
262.43	1656.81
262.65	1603.56
262.86	1656.81
263.08	1814.50
263.30	1769.44
263.51	1621.99
263.73	1718.25
263.95	1779.68
264.16	1583.08
264.38	1601.51
264.60	1730.53
264.81	1671.14
265.03	1753.06
265.25	1740.77
265.46	1691.62
265.68	1789.92
265.89	1724.39
266.11	1589.22
266.33	1757.16
266.54	1773.54
266.76	1800.16
266.98	1746.92
267.19	1771.49
267.41	1775.59
267.62	1718.25
267.84	1595.37
268.06	1740.77
268.27	1724.39
268.49	1777.64
268.70	1705.96
268.92	1712.10
269.14	1597.42
269.35	1656.81
269.57	1763.30
269.79	1714.15
270.00	1705.96
270.22	1828.84
270.43	1679.33
270.65	1656.81
270.87	1718.25
271.08	1763.30
271.30	1708.01
271.51	1708.01
271.73	1685.48
271.95	1802.21
272.16	1638.38
272.38	1724.39
272.59	1703.91
272.81	1761.25
273.02	1753.06
273.24	1671.14
273.46	1714.15
273.67	1644.52
273.89	1701.86
274.10	1648.61
274.32	1755.11
274.54	1740.77
274.75	1740.77
274.97	1679.33
275.18	1710.05
275.40	1746.92
275.61	1640.42
275.83	1714.15
276.05	1646.57
276.26	1689.57
276.48	1683.43
276.69	1630.18
276.91	1650.66
277.12	1732.58
277.34	1751.01
277.55	1710.05
277.77	1730.53
277.99	1740.77
278.20	1621.99
278.42	1695.72
278.63	1681.38
278.85	1626.09
279.06	1634.28
279.28	1722.34
279.49	1794.02
279.71	1802.21
279.93	1726.44
280.14	1708.01
280.36	1638.38
280.57	1744.87
280.79	1720.29
281.00	1746.92
281.22	1683.43
281.43	1798.12
281.65	1517.54
281.86	1679.33
282.08	1740.77
282.29	1830.88
282.51	1611.75
282.73	1595.37
282.94	1615.85
283.16	1632.23
283.37	1781.73
283.59	1718.25
283.80	1654.76
284.02	1724.39
284.23	1746.92
284.45	1687.53
284.66	1669.09
284.88	1679.33
285.09	1779.68
285.31	1693.67
285.52	1667.05
285.74	1687.53
285.95	1738.73
286.17	1660.90
286.38	1839.08
286.60	1726.44
286.81	1667.05
287.03	1650.66
287.24	1621.99
287.46	1705.96
287.67	1720.29
287.89	1832.93
288.10	1669.09
288.32	1775.59
288.53	1820.64
288.75	1681.38
288.96	1738.73
289.18	1640.42
289.39	1710.05
289.61	1732.58
289.82	1861.60
290.04	1861.60
290.25	1644.52
290.47	1628.14
290.68	1626.09
290.90	1701.86
291.11	1626.09
291.33	1748.97
291.54	1648.61
291.76	1693.67
291.97	1685.48
292.18	1828.84
292.40	1644.52
292.61	1718.25
292.83	1824.74
293.04	1734.63
293.26	1728.49
293.47	1734.63
293.69	1617.90
293.90	1642.47
294.12	1804.26
294.33	1624.04
294.55	1665.00
294.76	1748.97
294.97	1794.02
295.19	1812.45
295.40	1693.67
295.62	1800.16
295.83	1822.69
296.05	1615.85
296.26	1775.59
296.48	1683.43
296.69	1671.14
296.90	1732.58
297.12	1742.82
297.33	1734.63
297.55	1718.25
297.76	1748.97
297.98	1662.95
298.19	1728.49
298.41	1701.86
298.62	1687.53
298.83	1751.01
299.05	1761.25
299.26	1710.05
299.48	1570.79
299.69	1738.73
299.90	1636.33
300.12	1619.94
300.33	1748.97
300.55	1767.40
300.76	1742.82
300.98	1642.47
301.19	1708.01
301.40	1712.10
301.62	1656.81
301.83	1753.06
302.05	1638.38
302.26	1689.57
302.47	1734.63
302.69	1726.44
302.90	1718.25
303.12	1646.57
303.33	1759.21
303.54	1832.93
303.76	1621.99
303.97	1767.40
304.19	1830.88
304.40	1667.05
304.61	1748.97
304.83	1808.36
305.04	1765.35
305.26	1746.92
305.47	1660.90
305.68	1689.57
305.90	1583.08
306.11	1736.68
306.33	1705.96
306.54	1605.61
306.75	1736.68
306.97	1583.08
307.18	1665.00
307.39	1675.24
307.61	1763.30
307.82	1746.92
308.04	1761.25
308.25	1656.81
308.46	1714.15
308.68	1726.44
308.89	1714.15
309.10	1746.92
309.32	1742.82
309.53	1683.43
309.74	1753.06
309.96	1693.67
310.17	1753.06
310.39	1710.05
310.60	1691.62
310.81	1744.87
311.03	1671.14
311.24	1736.68
311.45	1699.81
311.67	1800.16
311.88	1718.25
312.09	1669.09
312.31	1599.46
312.52	1671.14
312.73	1693.67
312.95	1648.61
313.16	1658.85
313.37	1677.29
313.59	1755.11
313.80	1759.21
314.01	1744.87
314.23	1738.73
314.44	1640.42
314.65	1599.46
314.87	1640.42
315.08	1634.28
315.29	1681.38
315.51	1683.43
315.72	1683.43
315.93	1701.86
316.15	1771.49
316.36	1695.72
316.57	1705.96
316.79	1697.77
317.00	1703.91
317.21	1773.54
317.43	1621.99
317.64	1734.63
317.85	1601.51
318.07	1701.86
318.28	1773.54
318.49	1791.97
318.70	1875.94
318.92	1757.16
319.13	1814.50
319.34	1853.41
319.56	1722.34
319.77	1789.92
319.98	1841.12
320.20	1820.64
320.41	1716.20
320.62	1767.40
320.83	1630.18
321.05	1693.67
321.26	1703.91
321.47	1634.28
321.69	1699.81
321.90	1673.19
322.11	1693.67
322.32	1673.19
322.54	1767.40
322.75	1621.99
322.96	1802.21
323.18	1619.94
323.39	1675.24
323.60	1675.24
323.81	1761.25
324.03	1632.23
324.24	1740.77
324.45	1685.48
324.66	1642.47
324.88	1757.16
325.09	1814.50
325.30	1679.33
325.52	1722.34
325.73	1712.10
325.94	1634.28
326.15	1560.55
326.37	1679.33
326.58	1763.30
326.79	1753.06
327.00	1636.33
327.22	1673.19
327.43	1667.05
327.64	1619.94
327.85	1732.58
328.07	1720.29
328.28	1775.59
328.49	1693.67
328.70	1736.68
328.92	1716.20
329.13	1619.94
329.34	1771.49
329.55	1697.77
329.76	1730.53
329.98	1634.28
330.19	1804.26
330.40	1779.68
330.61	1677.29
330.83	1667.05
331.04	1699.81
331.25	1755.11
331.46	1705.96
331.68	1648.61
331.89	1753.06
332.10	1677.29
332.31	1638.38
332.52	1708.01
332.74	1800.16
332.95	1603.56
333.16	1685.48
333.37	1757.16
333.58	1611.75
333.80	1640.42
334.01	1615.85
334.22	1708.01
334.43	1650.66
334.64	1681.38
334.86	1628.14
335.07	1638.38
335.28	1751.01
335.49	1650.66
335.70	1699.81
335.92	1800.16
336.13	1841.12
336.34	1701.86
336.55	1720.29
336.76	1804.26
336.98	1667.05
337.19	1722.34
337.40	1738.73
337.61	1798.12
337.82	1632.23
338.04	1738.73
338.25	1654.76
338.46	1665.00
338.67	1665.00
338.88	1681.38
339.09	1648.61
339.31	1710.05
339.52	1689.57
339.73	1662.95
339.94	1658.85
340.15	1773.54
340.36	1593.32
340.58	1722.34
340.79	1712.10
341.00	1697.77
341.21	1603.56
341.42	1832.93
341.63	1648.61
341.85	1755.11
342.06	1703.91
342.27	1730.53
342.48	1771.49
342.69	1642.47
342.90	1681.38
343.12	1660.90
343.33	1662.95
343.54	1726.44
343.75	1755.11
343.96	1599.46
344.17	1619.94
344.38	1705.96
344.60	1593.32
344.81	1597.42
345.02	1662.95
345.23	1779.68
345.44	1837.03
345.65	1728.49
345.86	1789.92
346.07	1636.33
346.29	1751.01
346.50	1734.63
346.71	1751.01
346.92	1748.97
347.13	1705.96
347.34	1744.87
347.55	1722.34
347.76	1757.16
347.98	1626.09
348.19	1665.00
348.40	1804.26
348.61	1695.72
348.82	1726.44
349.03	1701.86
349.24	1685.48
349.45	1761.25
349.66	1654.76
349.88	1675.24
350.09	1718.25
350.30	1693.67
350.51	1814.50
350.72	1705.96
350.93	1693.67
351.14	1665.00
351.35	1714.15
351.56	1736.68
351.77	1652.71
351.99	1699.81
352.20	1837.03
352.41	1726.44
352.62	1718.25
352.83	1669.09
353.04	1697.77
353.25	1734.63
353.46	1769.44
353.67	1810.40
353.88	1628.14
354.09	1656.81
354.30	1705.96
354.52	1712.10
354.73	1697.77
354.94	1665.00
355.15	1699.81
355.36	1816.55
355.57	1701.86
355.78	1710.05
355.99	1609.70
356.20	1669.09
356.41	1779.68
356.62	1742.82
356.83	1665.00
357.04	1798.12
357.25	1611.75
357.46	1595.37
357.68	1581.03
357.89	1683.43
358.10	1708.01
358.31	1679.33
358.52	1626.09
358.73	1665.00
358.94	1667.05
359.15	1642.47
359.36	1740.77
359.57	1730.53
359.78	1640.42
359.99	1724.39
360.20	1630.18
360.41	1630.18
360.62	1708.01
360.83	1824.74
361.04	1779.68
361.25	1701.86
361.46	1837.03
361.67	1701.86
361.88	1777.64
362.09	1738.73
362.30	1667.05
362.51	1630.18
362.72	1722.34
362.93	1734.63
363.14	1660.90
363.35	1714.15
363.56	1652.71
363.78	1771.49
363.99	1740.77
364.20	1603.56
364.41	1726.44
364.62	1767.40
364.83	1744.87
365.04	1714.15
365.25	1732.58
365.46	1798.12
365.67	1677.29
365.88	1652.71
366.09	1705.96
366.30	1759.21
366.51	1734.63
366.72	1658.85
366.93	1775.59
367.14	1740.77
367.35	1808.36
367.56	1718.25
367.77	1839.08
367.98	1689.57
368.18	1634.28
368.39	1748.97
368.60	1722.34
368.81	1748.97
369.02	1699.81
369.23	1695.72
369.44	1675.24
369.65	1662.95
369.86	1691.62
370.07	1728.49
370.28	1705.96
370.49	1759.21
370.70	1689.57
370.91	1638.38
371.12	1662.95
371.33	1718.25
371.54	1597.42
371.75	1767.40
371.96	1556.46
372.17	1673.19
372.38	1740.77
372.59	1740.77
372.80	1683.43
373.01	1738.73
373.22	1693.67
373.43	1656.81
373.64	1654.76
373.85	1728.49
374.06	1740.77
374.26	1759.21
374.47	1687.53
374.68	1796.07
374.89	1757.16
375.10	1673.19
375.31	1787.88
375.52	1787.88
375.73	1671.14
375.94	1695.72
376.15	1853.41
376.36	1665.00
376.57	1673.19
376.78	1697.77
376.99	1642.47
377.20	1736.68
377.40	1705.96
377.61	1748.97
377.82	1732.58
378.03	1777.64
378.24	1720.29
378.45	1683.43
378.66	1683.43
378.87	1603.56
379.08	1642.47
379.29	1667.05
379.50	1789.92
379.71	1677.29
379.91	1798.12
380.12	1726.44
380.33	1636.33
380.54	1564.65
380.75	1699.81
380.96	1685.48
381.17	1705.96
381.38	1691.62
381.59	1757.16
381.80	1746.92
382.00	1853.41
382.21	1693.67
382.42	1877.99
382.63	1775.59
382.84	1744.87
383.05	1708.01
383.26	1847.27
383.47	1744.87
383.68	1755.11
383.88	1736.68
384.09	1714.15
384.30	1798.12
384.51	1808.36
384.72	1634.28
384.93	1638.38
385.14	1716.20
385.35	1689.57
385.55	1683.43
385.76	1804.26
385.97	1716.20
386.18	1591.27
386.39	1746.92
386.60	1701.86
386.81	1703.91
387.02	1734.63
387.22	1632.23
387.43	1757.16
387.64	1716.20
387.85	1871.84
388.06	2170.85
388.27	4204.48
388.48	6780.82
388.68	8290.18
388.89	9514.86
389.10	9686.89
389.31	8548.22
389.52	7511.95
389.73	6715.29
389.93	6311.84
390.14	5777.32
390.35	5232.56
390.56	4689.85
390.77	3725.26
390.98	3117.01
391.18	2484.19
391.39	2082.78
391.60	1847.27
391.81	1832.93
392.02	1718.25
392.23	1869.80
392.43	1744.87
392.64	1765.35
392.85	1746.92
393.06	1841.12
393.27	1726.44
393.47	1644.52
393.68	1679.33
393.89	1728.49
394.10	1771.49
394.31	1652.71
394.52	1572.84
394.72	1621.99
394.93	1806.31
395.14	1714.15
395.35	1816.55
395.56	1710.05
395.76	1638.38
395.97	1773.54
396.18	1787.88
396.39	1796.07
396.60	2004.96
396.80	1933.28
397.01	1839.08
397.22	1785.83
397.43	1830.88
397.64	1738.73
397.84	1794.02
398.05	1849.32
398.26	1705.96
398.47	1832.93
398.67	1804.26
398.88	1800.16
399.09	1736.68
399.30	1652.71
399.51	1779.68
399.71	1646.57
399.92	1632.23
400.13	1771.49
400.34	1693.67
400.54	1732.58
400.75	1830.88
400.96	1773.54
401.17	1826.79
401.37	1712.10
401.58	1748.97
401.79	1732.58
402.00	1832.93
402.21	2021.35
402.41	1980.39
402.62	1980.39
402.83	2086.88
403.04	1994.72
403.24	2017.25
403.45	1834.98
403.66	1845.22
403.87	1888.23
404.07	1890.28
404.28	1873.89
404.49	1906.66
404.70	1767.40
404.90	1757.16
405.11	1693.67
405.32	1718.25
405.52	1703.91
405.73	1705.96
405.94	1673.19
406.15	1726.44
406.35	1714.15
406.56	1662.95
406.77	1791.97
406.98	1724.39
407.18	1656.81
407.39	1826.79
407.60	1765.35
407.80	1818.60
408.01	1660.90
408.22	1685.48
408.43	1650.66
408.63	1804.26
408.84	1730.53
409.05	1742.82
409.25	1662.95
409.46	1675.24
409.67	1685.48
409.88	1697.77
410.08	1710.05
410.29	1681.38
410.50	1755.11
410.70	1691.62
410.91	1626.09
411.12	1695.72
411.32	1716.20
411.53	1675.24
411.74	1828.84
411.95	1865.70
412.15	1695.72
412.36	1753.06
412.57	1761.25
412.77	1859.56
412.98	1742.82
413.19	1728.49
413.39	1794.02
413.60	1742.82
413.81	1839.08
414.01	1601.51
414.22	1755.11
414.43	1732.58
414.63	1742.82
414.84	1796.07
415.05	1716.20
415.25	1658.85
415.46	1744.87
415.67	1714.15
415.87	1755.11
416.08	1697.77
416.29	1679.33
416.49	1693.67
416.70	1658.85
416.91	1681.38
417.11	1730.53
417.32	1685.48
417.53	1736.68
417.73	1732.58
417.94	1683.43
418.15	1705.96
418.35	1734.63
418.56	1789.92
418.77	1834.98
418.97	1701.86
419.18	1615.85
419.38	1634.28
419.59	1701.86
419.80	1890.28
420.00	1736.68
420.21	1681.38
420.42	1783.78
420.62	1732.58
420.83	1611.75
421.04	1716.20
421.24	1695.72
421.45	1714.15
421.65	1753.06
421.86	1669.09
422.07	1748.97
422.27	1701.86
422.48	1638.38
422.69	1640.42
422.89	1665.00
423.10	1679.33
423.30	1599.46
423.51	1681.38
423.72	1736.68
423.92	1681.38
424.13	1671.14
424.33	1685.48
424.54	1785.83
424.75	1679.33
424.95	1783.78
425.16	1746.92
425.36	1701.86
425.57	1730.53
425.78	1798.12
425.98	1738.73
426.19	1611.75
426.39	1595.37
426.60	1648.61
426.81	1751.01
427.01	1705.96
427.22	1691.62
427.42	1603.56
427.63	1675.24
427.83	1720.29
428.04	1867.75
428.25	1771.49
428.45	1798.12
428.66	1791.97
428.86	1656.81
429.07	1669.09
429.28	1740.77
429.48	1652.71
429.69	1656.81
429.89	1681.38
430.10	1650.66
430.30	1718.25
430.51	1755.11
430.71	1697.77
430.92	1705.96
431.13	1734.63
431.33	1781.73
431.54	1755.11
431.74	1785.83
431.95	1853.41
432.15	1722.34
432.36	1728.49
432.56	1691.62
432.77	1841.12
432.98	1763.30
433.18	1748.97
433.39	1746.92
433.59	1687.53
433.80	1871.84
434.00	1875.94
434.21	1624.04
434.41	1652.71
434.62	1875.94
434.82	1681.38
435.03	1640.42
435.23	1828.84
435.44	1648.61
435.64	1728.49
435.85	1710.05
436.06	1761.25
436.26	1765.35
436.47	1660.90
436.67	1716.20
436.88	1710.05
437.08	1718.25
437.29	1824.74
437.49	1798.12
437.70	1847.27
437.90	1669.09
438.11	1746.92
438.31	1787.88
438.52	1820.64
438.72	1908.71
438.93	1896.42
439.13	1863.65
439.34	1753.06
439.54	1734.63
439.75	1748.97
439.95	1771.49
440.16	1734.63
440.36	1658.85
440.57	1742.82
440.77	1759.21
440.98	1718.25
441.18	1763.30
441.39	1636.33
441.59	1728.49
441.80	1877.99
442.00	1720.29
442.21	1798.12
442.41	1665.00
442.62	1800.16
442.82	1689.57
443.02	1736.68
443.23	1781.73
443.43	1705.96
443.64	1820.64
443.84	1816.55
444.05	1724.39
444.25	1681.38
444.46	1644.52
444.66	1765.35
444.87	1746.92
445.07	1648.61
445.28	1689.57
445.48	1775.59
445.69	1824.74
445.89	1849.32
446.09	1732.58
446.30	2002.91
446.50	2590.68
446.71	3680.20
446.91	4325.31
447.12	4708.28
447.32	4724.66
447.53	4331.45
447.73	3848.13
447.93	3575.75
448.14	3315.66
448.34	3170.26
448.55	2906.07
448.75	2797.53
448.96	2631.64
449.16	2406.36
449.36	2289.63
449.57	2052.06
449.77	1898.47
449.98	1740.77
450.18	1785.83
450.39	1820.64
450.59	1730.53
450.79	1783.78
451.00	1722.34
451.20	1816.55
451.41	1777.64
451.61	1744.87
451.81	1798.12
452.02	1648.61
452.22	1738.73
452.43	1712.10
452.63	1667.05
