SpectraSuite Data File
++++++++++++++++++++++++++++++++++++
Date: Mon Jun 06 14:53:57 CEST 2016
User: root
Dark Spectrum Present: No
Reference Spectrum Present: No
Number of Sampled Component Spectra: 1
Spectrometers: USB4C02835
Integration Time (usec): 100000 (USB4C02835)
Spectra Averaged: 1 (USB4C02835)
Boxcar Smoothing: 0 (USB4C02835)
Correct for Electrical Dark: No (USB4C02835)
Strobe/Lamp Enabled: No (USB4C02835)
Correct for Detector Non-linearity: No (USB4C02835)
Correct for Stray Light: No (USB4C02835)
Number of Pixels in Processed Spectrum: 3648
>>>>>Begin Processed Spectral Data<<<<<
177.47	1507.30
177.69	1507.30
177.91	1507.30
178.13	1378.28
178.36	1456.11
178.58	1677.29
178.80	1726.44
179.02	1650.66
179.24	1634.28
179.46	1699.81
179.68	1789.92
179.90	1660.90
180.13	1746.92
180.35	1728.49
180.57	1673.19
180.79	1845.22
181.01	1697.77
181.23	1734.63
181.45	1720.29
181.67	1755.11
181.90	1730.53
182.12	1679.33
182.34	1632.23
182.56	1718.25
182.78	1742.82
183.00	1703.91
183.22	1689.57
183.44	1615.85
183.66	1822.69
183.89	1808.36
184.11	1748.97
184.33	1791.97
184.55	1742.82
184.77	1701.86
184.99	1734.63
185.21	1675.24
185.43	1832.93
185.65	1628.14
185.87	1626.09
186.10	1822.69
186.32	1837.03
186.54	1693.67
186.76	1695.72
186.98	1691.62
187.20	1675.24
187.42	1650.66
187.64	1658.85
187.86	1710.05
188.08	1724.39
188.30	1699.81
188.52	1699.81
188.75	1753.06
188.97	1826.79
189.19	1644.52
189.41	1654.76
189.63	1771.49
189.85	1701.86
190.07	1546.22
190.29	1703.91
190.51	1673.19
190.73	1533.93
190.95	1712.10
191.17	1732.58
191.39	1609.70
191.61	1687.53
191.84	1609.70
192.06	1652.71
192.28	1570.79
192.50	1900.52
192.72	1740.77
192.94	1751.01
193.16	1716.20
193.38	1697.77
193.60	1738.73
193.82	1609.70
194.04	1775.59
194.26	1681.38
194.48	1689.57
194.70	1652.71
194.92	1595.37
195.14	1771.49
195.36	1642.47
195.58	1738.73
195.80	1583.08
196.02	1701.86
196.24	1732.58
196.46	1718.25
196.69	1654.76
196.91	1826.79
197.13	1742.82
197.35	1691.62
197.57	1810.40
197.79	1697.77
198.01	1722.34
198.23	1763.30
198.45	1718.25
198.67	1626.09
198.89	1695.72
199.11	1667.05
199.33	1665.00
199.55	1509.35
199.77	1689.57
199.99	1765.35
200.21	1716.20
200.43	1748.97
200.65	1540.07
200.87	1589.22
201.09	1693.67
201.31	1675.24
201.53	1744.87
201.75	1677.29
201.97	1728.49
202.19	1683.43
202.41	1650.66
202.63	1800.16
202.85	1685.48
203.07	1751.01
203.29	1697.77
203.51	1685.48
203.73	1662.95
203.95	1830.88
204.17	1751.01
204.39	1671.14
204.61	1617.90
204.83	1638.38
205.05	1814.50
205.27	1748.97
205.49	1816.55
205.71	1712.10
205.93	1638.38
206.15	1652.71
206.37	1744.87
206.59	1708.01
206.81	1591.27
207.03	1720.29
207.25	1617.90
207.47	1734.63
207.69	1632.23
207.91	1755.11
208.13	1769.44
208.34	1638.38
208.56	1660.90
208.78	1712.10
209.00	1732.58
209.22	1689.57
209.44	1626.09
209.66	1611.75
209.88	1638.38
210.10	1695.72
210.32	1665.00
210.54	1730.53
210.76	1710.05
210.98	1740.77
211.20	1550.31
211.42	1736.68
211.64	1746.92
211.86	1662.95
212.08	1716.20
212.30	1730.53
212.52	1724.39
212.74	1714.15
212.96	1744.87
213.17	1734.63
213.39	1765.35
213.61	1847.27
213.83	1716.20
214.05	1626.09
214.27	1765.35
214.49	1597.42
214.71	1624.04
214.93	1822.69
215.15	1673.19
215.37	1740.77
215.59	1656.81
215.81	1718.25
216.03	1826.79
216.24	1691.62
216.46	1669.09
216.68	1660.90
216.90	1734.63
217.12	1759.21
217.34	1746.92
217.56	1716.20
217.78	1722.34
218.00	1779.68
218.22	1665.00
218.44	1712.10
218.66	1765.35
218.87	1802.21
219.09	1699.81
219.31	1640.42
219.53	1689.57
219.75	1638.38
219.97	1662.95
220.19	1714.15
220.41	1640.42
220.63	1851.36
220.85	1701.86
221.06	1650.66
221.28	1853.41
221.50	1800.16
221.72	1691.62
221.94	1712.10
222.16	1703.91
222.38	1771.49
222.60	1767.40
222.82	1746.92
223.03	1763.30
223.25	1646.57
223.47	1751.01
223.69	1796.07
223.91	1646.57
224.13	1746.92
224.35	1646.57
224.57	1781.73
224.78	1781.73
225.00	1615.85
225.22	1634.28
225.44	1718.25
225.66	1685.48
225.88	1669.09
226.10	1783.78
226.32	1746.92
226.53	1685.48
226.75	1665.00
226.97	1628.14
227.19	1679.33
227.41	1624.04
227.63	1701.86
227.85	1613.80
228.06	1705.96
228.28	1728.49
228.50	1777.64
228.72	1728.49
228.94	1718.25
229.16	1550.31
229.37	1562.60
229.59	1705.96
229.81	1746.92
230.03	1701.86
230.25	1605.61
230.47	1607.66
230.69	1611.75
230.90	1624.04
231.12	1636.33
231.34	1697.77
231.56	1791.97
231.78	1679.33
232.00	1730.53
232.21	1671.14
232.43	1624.04
232.65	1576.94
232.87	1740.77
233.09	1636.33
233.30	1697.77
233.52	1689.57
233.74	1654.76
233.96	1687.53
234.18	1652.71
234.40	1587.18
234.61	1824.74
234.83	1634.28
235.05	1646.57
235.27	1847.27
235.49	1789.92
235.70	1687.53
235.92	1746.92
236.14	1660.90
236.36	1894.37
236.58	1687.53
236.79	1738.73
237.01	1716.20
237.23	1652.71
237.45	1769.44
237.67	1570.79
237.88	1679.33
238.10	1791.97
238.32	1648.61
238.54	1740.77
238.76	1683.43
238.97	1705.96
239.19	1652.71
239.41	1757.16
239.63	1730.53
239.85	1621.99
240.06	1669.09
240.28	1628.14
240.50	1753.06
240.72	1621.99
240.93	1630.18
241.15	1748.97
241.37	1738.73
241.59	1714.15
241.81	1703.91
242.02	1667.05
242.24	1646.57
242.46	1671.14
242.68	1628.14
242.89	1681.38
243.11	1720.29
243.33	1656.81
243.55	1673.19
243.76	1724.39
243.98	1685.48
244.20	1660.90
244.42	1724.39
244.64	1685.48
244.85	1691.62
245.07	1628.14
245.29	1705.96
245.51	1722.34
245.72	1697.77
245.94	1708.01
246.16	1673.19
246.38	1730.53
246.59	1705.96
246.81	1693.67
247.03	1667.05
247.24	1607.66
247.46	1662.95
247.68	1658.85
247.90	1671.14
248.11	1648.61
248.33	1671.14
248.55	1742.82
248.77	1716.20
248.98	1773.54
249.20	1787.88
249.42	1718.25
249.64	1695.72
249.85	1687.53
250.07	1634.28
250.29	1669.09
250.50	1740.77
250.72	1535.98
250.94	1677.29
251.16	1816.55
251.37	1730.53
251.59	1730.53
251.81	1736.68
252.02	1738.73
252.24	1638.38
252.46	1818.60
252.68	1638.38
252.89	1757.16
253.11	1667.05
253.33	1824.74
253.54	1767.40
253.76	1619.94
253.98	1718.25
254.20	1628.14
254.41	1591.27
254.63	1660.90
254.85	1624.04
255.06	1714.15
255.28	1796.07
255.50	1691.62
255.71	1644.52
255.93	1652.71
256.15	1632.23
256.36	1746.92
256.58	1677.29
256.80	1753.06
257.02	1681.38
257.23	1642.47
257.45	1619.94
257.67	1697.77
257.88	1695.72
258.10	1697.77
258.32	1705.96
258.53	1658.85
258.75	1769.44
258.97	1757.16
259.18	1714.15
259.40	1675.24
259.62	1843.17
259.83	1773.54
260.05	1728.49
260.27	1953.76
260.48	1796.07
260.70	1708.01
260.92	1685.48
261.13	1632.23
261.35	1673.19
261.57	1712.10
261.78	1613.80
262.00	1656.81
262.22	1667.05
262.43	1701.86
262.65	1710.05
262.86	1738.73
263.08	1824.74
263.30	1677.29
263.51	1568.74
263.73	1722.34
263.95	1701.86
264.16	1619.94
264.38	1671.14
264.60	1789.92
264.81	1558.50
265.03	1761.25
265.25	1681.38
265.46	1724.39
265.68	1744.87
265.89	1697.77
266.11	1624.04
266.33	1732.58
266.54	1798.12
266.76	1695.72
266.98	1734.63
267.19	1785.83
267.41	1705.96
267.62	1693.67
267.84	1619.94
268.06	1695.72
268.27	1689.57
268.49	1773.54
268.70	1740.77
268.92	1691.62
269.14	1644.52
269.35	1650.66
269.57	1740.77
269.79	1726.44
270.00	1691.62
270.22	1820.64
270.43	1632.23
270.65	1490.92
270.87	1695.72
271.08	1716.20
271.30	1775.59
271.51	1740.77
271.73	1845.22
271.95	1732.58
272.16	1681.38
272.38	1683.43
272.59	1630.18
272.81	1699.81
273.02	1724.39
273.24	1742.82
273.46	1746.92
273.67	1564.65
273.89	1693.67
274.10	1662.95
274.32	1714.15
274.54	1644.52
274.75	1773.54
274.97	1685.48
275.18	1785.83
275.40	1691.62
275.61	1636.33
275.83	1730.53
276.05	1660.90
276.26	1705.96
276.48	1724.39
276.69	1675.24
276.91	1695.72
277.12	1765.35
277.34	1759.21
277.55	1820.64
277.77	1716.20
277.99	1763.30
278.20	1626.09
278.42	1673.19
278.63	1695.72
278.85	1665.00
279.06	1593.32
279.28	1708.01
279.49	1732.58
279.71	1783.78
279.93	1669.09
280.14	1742.82
280.36	1718.25
280.57	1765.35
280.79	1759.21
281.00	1701.86
281.22	1679.33
281.43	1863.65
281.65	1650.66
281.86	1615.85
282.08	1726.44
282.29	1839.08
282.51	1609.70
282.73	1628.14
282.94	1638.38
283.16	1748.97
283.37	1816.55
283.59	1705.96
283.80	1701.86
284.02	1673.19
284.23	1771.49
284.45	1632.23
284.66	1673.19
284.88	1693.67
285.09	1681.38
285.31	1718.25
285.52	1718.25
285.74	1681.38
285.95	1742.82
286.17	1775.59
286.38	1777.64
286.60	1648.61
286.81	1685.48
287.03	1644.52
287.24	1699.81
287.46	1705.96
287.67	1708.01
287.89	1800.16
288.10	1677.29
288.32	1697.77
288.53	1843.17
288.75	1730.53
288.96	1695.72
289.18	1642.47
289.39	1660.90
289.61	1837.03
289.82	1806.31
290.04	1816.55
290.25	1669.09
290.47	1669.09
290.68	1722.34
290.90	1726.44
291.11	1654.76
291.33	1767.40
291.54	1665.00
291.76	1656.81
291.97	1646.57
292.18	1763.30
292.40	1656.81
292.61	1640.42
292.83	1851.36
293.04	1722.34
293.26	1789.92
293.47	1724.39
293.69	1650.66
293.90	1665.00
294.12	1832.93
294.33	1775.59
294.55	1695.72
294.76	1759.21
294.97	1769.44
295.19	1832.93
295.40	1671.14
295.62	1683.43
295.83	1710.05
296.05	1581.03
296.26	1802.21
296.48	1691.62
296.69	1669.09
296.90	1652.71
297.12	1773.54
297.33	1746.92
297.55	1748.97
297.76	1769.44
297.98	1697.77
298.19	1699.81
298.41	1718.25
298.62	1656.81
298.83	1728.49
299.05	1642.47
299.26	1687.53
299.48	1624.04
299.69	1759.21
299.90	1693.67
300.12	1652.71
300.33	1714.15
300.55	1671.14
300.76	1683.43
300.98	1644.52
301.19	1814.50
301.40	1701.86
301.62	1693.67
301.83	1677.29
302.05	1730.53
302.26	1689.57
302.47	1673.19
302.69	1619.94
302.90	1695.72
303.12	1607.66
303.33	1673.19
303.54	1806.31
303.76	1644.52
303.97	1714.15
304.19	1742.82
304.40	1708.01
304.61	1660.90
304.83	1828.84
305.04	1740.77
305.26	1724.39
305.47	1710.05
305.68	1677.29
305.90	1570.79
306.11	1744.87
306.33	1650.66
306.54	1697.77
306.75	1581.03
306.97	1640.42
307.18	1640.42
307.39	1701.86
307.61	1767.40
307.82	1722.34
308.04	1701.86
308.25	1683.43
308.46	1705.96
308.68	1714.15
308.89	1738.73
309.10	1681.38
309.32	1767.40
309.53	1656.81
309.74	1796.07
309.96	1714.15
310.17	1765.35
310.39	1669.09
310.60	1783.78
310.81	1701.86
311.03	1665.00
311.24	1748.97
311.45	1652.71
311.67	1783.78
311.88	1705.96
312.09	1699.81
312.31	1738.73
312.52	1652.71
312.73	1648.61
312.95	1685.48
313.16	1652.71
313.37	1732.58
313.59	1710.05
313.80	1697.77
314.01	1755.11
314.23	1681.38
314.44	1671.14
314.65	1605.61
314.87	1662.95
315.08	1650.66
315.29	1640.42
315.51	1615.85
315.72	1644.52
315.93	1802.21
316.15	1841.12
316.36	1716.20
316.57	1660.90
316.79	1767.40
317.00	1671.14
317.21	1759.21
317.43	1665.00
317.64	1648.61
317.85	1679.33
318.07	1642.47
318.28	1742.82
318.49	1867.75
318.70	1929.19
318.92	1851.36
319.13	1738.73
319.34	1824.74
319.56	1830.88
319.77	1837.03
319.98	1820.64
320.20	1853.41
320.41	1767.40
320.62	1787.88
320.83	1691.62
321.05	1834.98
321.26	1734.63
321.47	1728.49
321.69	1675.24
321.90	1673.19
322.11	1673.19
322.32	1677.29
322.54	1771.49
322.75	1753.06
322.96	1867.75
323.18	1734.63
323.39	1632.23
323.60	1695.72
323.81	1814.50
324.03	1675.24
324.24	1708.01
324.45	1691.62
324.66	1671.14
324.88	1730.53
325.09	1802.21
325.30	1673.19
325.52	1714.15
325.73	1673.19
325.94	1650.66
326.15	1517.54
326.37	1656.81
326.58	1746.92
326.79	1771.49
327.00	1603.56
327.22	1685.48
327.43	1693.67
327.64	1648.61
327.85	1779.68
328.07	1681.38
328.28	1802.21
328.49	1644.52
328.70	1667.05
328.92	1683.43
329.13	1708.01
329.34	1753.06
329.55	1783.78
329.76	1824.74
329.98	1759.21
330.19	1726.44
330.40	1689.57
330.61	1656.81
330.83	1738.73
331.04	1665.00
331.25	1734.63
331.46	1667.05
331.68	1624.04
331.89	1732.58
332.10	1716.20
332.31	1656.81
332.52	1628.14
332.74	1800.16
332.95	1636.33
333.16	1718.25
333.37	1710.05
333.58	1669.09
333.80	1753.06
334.01	1613.80
334.22	1705.96
334.43	1652.71
334.64	1638.38
334.86	1632.23
335.07	1638.38
335.28	1757.16
335.49	1605.61
335.70	1699.81
335.92	1806.31
336.13	1826.79
336.34	1662.95
336.55	1673.19
336.76	1724.39
336.98	1646.57
337.19	1660.90
337.40	1787.88
337.61	1859.56
337.82	1740.77
338.04	1695.72
338.25	1574.89
338.46	1658.85
338.67	1718.25
338.88	1634.28
339.09	1669.09
339.31	1691.62
339.52	1593.32
339.73	1630.18
339.94	1699.81
340.15	1699.81
340.36	1642.47
340.58	1804.26
340.79	1658.85
341.00	1660.90
341.21	1568.74
341.42	1814.50
341.63	1691.62
341.85	1746.92
342.06	1775.59
342.27	1613.80
342.48	1705.96
342.69	1652.71
342.90	1757.16
343.12	1732.58
343.33	1699.81
343.54	1767.40
343.75	1728.49
343.96	1695.72
344.17	1611.75
344.38	1728.49
344.60	1646.57
344.81	1599.46
345.02	1742.82
345.23	1697.77
345.44	1710.05
345.65	1718.25
345.86	1769.44
346.07	1695.72
346.29	1728.49
346.50	1791.97
346.71	1767.40
346.92	1755.11
347.13	1748.97
347.34	1683.43
347.55	1693.67
347.76	1720.29
347.98	1558.50
348.19	1701.86
348.40	1802.21
348.61	1638.38
348.82	1877.99
349.03	1736.68
349.24	1726.44
349.45	1800.16
349.66	1630.18
349.88	1740.77
350.09	1693.67
350.30	1763.30
350.51	1728.49
350.72	1720.29
350.93	1601.51
351.14	1705.96
351.35	1722.34
351.56	1646.57
351.77	1718.25
351.99	1683.43
352.20	1832.93
352.41	1751.01
352.62	1595.37
352.83	1636.33
353.04	1673.19
353.25	1642.47
353.46	1732.58
353.67	1789.92
353.88	1603.56
354.09	1767.40
354.30	1738.73
354.52	1753.06
354.73	1652.71
354.94	1632.23
355.15	1736.68
355.36	1855.46
355.57	1673.19
355.78	1708.01
355.99	1744.87
356.20	1681.38
356.41	1783.78
356.62	1753.06
356.83	1757.16
357.04	1777.64
357.25	1538.02
357.46	1615.85
357.68	1685.48
357.89	1644.52
358.10	1609.70
358.31	1701.86
358.52	1683.43
358.73	1671.14
358.94	1652.71
359.15	1701.86
359.36	1718.25
359.57	1671.14
359.78	1689.57
359.99	1740.77
360.20	1642.47
360.41	1650.66
360.62	1710.05
360.83	1665.00
361.04	1691.62
361.25	1665.00
361.46	1808.36
361.67	1740.77
361.88	1601.51
362.09	1742.82
362.30	1669.09
362.51	1617.90
362.72	1712.10
362.93	1794.02
363.14	1705.96
363.35	1681.38
363.56	1695.72
363.78	1734.63
363.99	1697.77
364.20	1722.34
364.41	1693.67
364.62	1882.08
364.83	1665.00
365.04	1699.81
365.25	1667.05
365.46	1810.40
365.67	1642.47
365.88	1646.57
366.09	1673.19
366.30	1701.86
366.51	1650.66
366.72	1628.14
366.93	1714.15
367.14	1718.25
367.35	1765.35
367.56	1681.38
367.77	1748.97
367.98	1615.85
368.18	1767.40
368.39	1705.96
368.60	1685.48
368.81	1812.45
369.02	1720.29
369.23	1740.77
369.44	1650.66
369.65	1681.38
369.86	1652.71
370.07	1656.81
370.28	1632.23
370.49	1777.64
370.70	1734.63
370.91	1628.14
371.12	1562.60
371.33	1773.54
371.54	1689.57
371.75	1746.92
371.96	1511.40
372.17	1689.57
372.38	1677.29
372.59	1751.01
372.80	1634.28
373.01	1669.09
373.22	1703.91
373.43	1800.16
373.64	1642.47
373.85	1812.45
374.06	1794.02
374.26	1722.34
374.47	1755.11
374.68	1791.97
374.89	1720.29
375.10	1712.10
375.31	1710.05
375.52	1708.01
375.73	1701.86
375.94	1667.05
376.15	1724.39
376.36	1572.84
376.57	1568.74
376.78	1730.53
376.99	1722.34
377.20	1742.82
377.40	1626.09
377.61	1837.03
377.82	1679.33
378.03	1734.63
378.24	1753.06
378.45	1701.86
378.66	1763.30
378.87	1697.77
379.08	1599.46
379.29	1671.14
379.50	1693.67
379.71	1701.86
379.91	1693.67
380.12	1718.25
380.33	1691.62
380.54	1736.68
380.75	1722.34
380.96	1695.72
381.17	1718.25
381.38	1665.00
381.59	1816.55
381.80	1703.91
382.00	1861.60
382.21	1755.11
382.42	1785.83
382.63	1808.36
382.84	1763.30
383.05	1822.69
383.26	1826.79
383.47	1781.73
383.68	1757.16
383.88	1771.49
384.09	1632.23
384.30	1767.40
384.51	1755.11
384.72	1673.19
384.93	1636.33
385.14	1701.86
385.35	1740.77
385.55	1626.09
385.76	1695.72
385.97	1632.23
386.18	1687.53
386.39	1679.33
386.60	1638.38
386.81	1701.86
387.02	1628.14
387.22	1673.19
387.43	1808.36
387.64	1804.26
387.85	1841.12
388.06	2260.96
388.27	4030.40
388.48	6623.13
388.68	7974.79
388.89	9351.03
389.10	9422.70
389.31	8232.83
389.52	7372.69
389.73	6442.91
389.93	6195.11
390.14	5754.79
390.35	5038.00
390.56	4435.90
390.77	3766.21
390.98	3030.99
391.18	2570.20
391.39	2035.68
391.60	1853.41
391.81	1751.01
392.02	1701.86
392.23	1834.98
392.43	1722.34
392.64	1824.74
392.85	1632.23
393.06	1800.16
393.27	1683.43
393.47	1673.19
393.68	1740.77
393.89	1703.91
394.10	1712.10
394.31	1673.19
394.52	1638.38
394.72	1595.37
394.93	1779.68
395.14	1673.19
395.35	1712.10
395.56	1634.28
395.76	1728.49
395.97	1820.64
396.18	1839.08
396.39	1769.44
396.60	2017.25
396.80	1865.70
397.01	1816.55
397.22	1826.79
397.43	1925.09
397.64	1746.92
397.84	1787.88
398.05	1888.23
398.26	1779.68
398.47	1755.11
398.67	1787.88
398.88	1681.38
399.09	1765.35
399.30	1638.38
399.51	1658.85
399.71	1660.90
399.92	1658.85
400.13	1656.81
400.34	1718.25
400.54	1662.95
400.75	1826.79
400.96	1673.19
401.17	1849.32
401.37	1777.64
401.58	1658.85
401.79	1695.72
402.00	1900.52
402.21	2015.20
402.41	1923.04
402.62	1996.77
402.83	1927.14
403.04	1955.81
403.24	2047.97
403.45	1849.32
403.66	1945.57
403.87	1863.65
404.07	1871.84
404.28	1857.51
404.49	1906.66
404.70	1787.88
404.90	1796.07
405.11	1697.77
405.32	1746.92
405.52	1689.57
405.73	1675.24
405.94	1642.47
406.15	1722.34
406.35	1689.57
406.56	1726.44
406.77	1787.88
406.98	1701.86
407.18	1679.33
407.39	1726.44
407.60	1701.86
407.80	1701.86
408.01	1722.34
408.22	1691.62
408.43	1730.53
408.63	1769.44
408.84	1773.54
409.05	1701.86
409.25	1654.76
409.46	1607.66
409.67	1667.05
409.88	1712.10
410.08	1728.49
410.29	1687.53
410.50	1773.54
410.70	1632.23
410.91	1687.53
411.12	1703.91
411.32	1675.24
411.53	1689.57
411.74	1787.88
411.95	1751.01
412.15	1662.95
412.36	1763.30
412.57	1791.97
412.77	1804.26
412.98	1703.91
413.19	1765.35
413.39	1722.34
413.60	1753.06
413.81	1798.12
414.01	1710.05
414.22	1759.21
414.43	1759.21
414.63	1708.01
414.84	1703.91
415.05	1738.73
415.25	1599.46
415.46	1779.68
415.67	1687.53
415.87	1785.83
416.08	1691.62
416.29	1642.47
416.49	1810.40
416.70	1628.14
416.91	1650.66
417.11	1667.05
417.32	1708.01
417.53	1789.92
417.73	1691.62
417.94	1681.38
418.15	1791.97
418.35	1738.73
418.56	1732.58
418.77	1800.16
418.97	1730.53
419.18	1693.67
419.38	1533.93
419.59	1656.81
419.80	1818.60
420.00	1638.38
420.21	1724.39
420.42	1681.38
420.62	1667.05
420.83	1714.15
421.04	1648.61
421.24	1742.82
421.45	1753.06
421.65	1701.86
421.86	1667.05
422.07	1734.63
422.27	1767.40
422.48	1732.58
422.69	1669.09
422.89	1681.38
423.10	1685.48
423.30	1634.28
423.51	1720.29
423.72	1665.00
423.92	1710.05
424.13	1568.74
424.33	1691.62
424.54	1759.21
424.75	1708.01
424.95	1796.07
425.16	1732.58
425.36	1701.86
425.57	1787.88
425.78	1832.93
425.98	1804.26
426.19	1669.09
426.39	1630.18
426.60	1732.58
426.81	1722.34
427.01	1687.53
427.22	1615.85
427.42	1535.98
427.63	1648.61
427.83	1751.01
428.04	1746.92
428.25	1789.92
428.45	1755.11
428.66	1728.49
428.86	1667.05
429.07	1742.82
429.28	1697.77
429.48	1712.10
429.69	1615.85
429.89	1681.38
430.10	1576.94
430.30	1734.63
430.51	1757.16
430.71	1695.72
430.92	1669.09
431.13	1767.40
431.33	1771.49
431.54	1740.77
431.74	1779.68
431.95	1822.69
432.15	1638.38
432.36	1669.09
432.56	1730.53
432.77	1740.77
432.98	1818.60
433.18	1787.88
433.39	1724.39
433.59	1708.01
433.80	1847.27
434.00	1853.41
434.21	1701.86
434.41	1695.72
434.62	1818.60
434.82	1662.95
435.03	1640.42
435.23	1691.62
435.44	1632.23
435.64	1738.73
435.85	1732.58
436.06	1740.77
436.26	1755.11
436.47	1720.29
436.67	1593.32
436.88	1734.63
437.08	1744.87
437.29	1783.78
437.49	1769.44
437.70	1759.21
437.90	1677.29
438.11	1847.27
438.31	1763.30
438.52	1789.92
438.72	1896.42
438.93	1861.60
439.13	1751.01
439.34	1847.27
439.54	1710.05
439.75	1828.84
439.95	1765.35
440.16	1716.20
440.36	1744.87
440.57	1796.07
440.77	1791.97
440.98	1724.39
441.18	1748.97
441.39	1677.29
441.59	1701.86
441.80	1845.22
442.00	1695.72
442.21	1796.07
442.41	1605.61
442.62	1728.49
442.82	1681.38
443.02	1703.91
443.23	1746.92
443.43	1691.62
443.64	1810.40
443.84	1644.52
444.05	1814.50
444.25	1808.36
444.46	1705.96
444.66	1714.15
444.87	1785.83
445.07	1654.76
445.28	1683.43
445.48	1730.53
445.69	1855.46
445.89	1863.65
446.09	1689.57
446.30	2039.78
446.50	2631.64
446.71	3583.95
446.91	4220.86
447.12	4597.69
447.32	4663.22
447.53	4235.20
447.73	3792.84
447.93	3542.99
448.14	3307.47
448.34	3063.76
448.55	2838.48
448.75	2717.65
448.96	2705.37
449.16	2344.92
449.36	2271.20
449.57	2074.59
449.77	1939.43
449.98	1779.68
450.18	1808.36
450.39	1736.68
450.59	1730.53
450.79	1703.91
451.00	1669.09
451.20	1812.45
451.41	1720.29
451.61	1816.55
451.81	1740.77
452.02	1714.15
452.22	1751.01
452.43	1720.29
452.63	1691.62
