SpectraSuite Data File
++++++++++++++++++++++++++++++++++++
Date: Mon Jun 06 16:55:57 CEST 2016
User: root
Dark Spectrum Present: No
Reference Spectrum Present: No
Number of Sampled Component Spectra: 1
Spectrometers: USB4C02835
Integration Time (usec): 100000 (USB4C02835)
Spectra Averaged: 1 (USB4C02835)
Boxcar Smoothing: 0 (USB4C02835)
Correct for Electrical Dark: No (USB4C02835)
Strobe/Lamp Enabled: No (USB4C02835)
Correct for Detector Non-linearity: No (USB4C02835)
Correct for Stray Light: No (USB4C02835)
Number of Pixels in Processed Spectrum: 3648
>>>>>Begin Processed Spectral Data<<<<<
177.47	1488.87
177.69	1488.87
177.91	1488.87
178.13	1482.73
178.36	1458.15
178.58	1644.52
178.80	1814.50
179.02	1642.47
179.24	1644.52
179.46	1705.96
179.68	1683.43
179.90	1718.25
180.13	1693.67
180.35	1650.66
180.57	1599.46
180.79	1734.63
181.01	1665.00
181.23	1746.92
181.45	1757.16
181.67	1755.11
181.90	1718.25
182.12	1660.90
182.34	1632.23
182.56	1736.68
182.78	1832.93
183.00	1738.73
183.22	1738.73
183.44	1601.51
183.66	1877.99
183.89	1806.31
184.11	1736.68
184.33	1681.38
184.55	1755.11
184.77	1683.43
184.99	1671.14
185.21	1619.94
185.43	1851.36
185.65	1656.81
185.87	1742.82
186.10	1832.93
186.32	1818.60
186.54	1734.63
186.76	1656.81
186.98	1710.05
187.20	1724.39
187.42	1714.15
187.64	1658.85
187.86	1837.03
188.08	1800.16
188.30	1734.63
188.52	1697.77
188.75	1761.25
188.97	1857.51
189.19	1693.67
189.41	1724.39
189.63	1748.97
189.85	1748.97
190.07	1673.19
190.29	1581.03
190.51	1736.68
190.73	1656.81
190.95	1828.84
191.17	1714.15
191.39	1628.14
191.61	1724.39
191.84	1763.30
192.06	1718.25
192.28	1572.84
192.50	1912.80
192.72	1734.63
192.94	1751.01
193.16	1759.21
193.38	1734.63
193.60	1683.43
193.82	1646.57
194.04	1787.88
194.26	1662.95
194.48	1644.52
194.70	1689.57
194.92	1681.38
195.14	1765.35
195.36	1595.37
195.58	1818.60
195.80	1779.68
196.02	1703.91
196.24	1660.90
196.46	1814.50
196.69	1652.71
196.91	1845.22
197.13	1730.53
197.35	1654.76
197.57	1804.26
197.79	1740.77
198.01	1808.36
198.23	1728.49
198.45	1777.64
198.67	1642.47
198.89	1759.21
199.11	1746.92
199.33	1619.94
199.55	1544.17
199.77	1732.58
199.99	1677.29
200.21	1681.38
200.43	1683.43
200.65	1550.31
200.87	1591.27
201.09	1714.15
201.31	1626.09
201.53	1693.67
201.75	1794.02
201.97	1726.44
202.19	1738.73
202.41	1761.25
202.63	1871.84
202.85	1703.91
203.07	1689.57
203.29	1695.72
203.51	1658.85
203.73	1703.91
203.95	1837.03
204.17	1722.34
204.39	1832.93
204.61	1716.20
204.83	1626.09
205.05	1751.01
205.27	1699.81
205.49	1824.74
205.71	1703.91
205.93	1591.27
206.15	1724.39
206.37	1685.48
206.59	1689.57
206.81	1658.85
207.03	1736.68
207.25	1654.76
207.47	1736.68
207.69	1634.28
207.91	1775.59
208.13	1816.55
208.34	1685.48
208.56	1662.95
208.78	1683.43
209.00	1726.44
209.22	1699.81
209.44	1722.34
209.66	1656.81
209.88	1757.16
210.10	1736.68
210.32	1652.71
210.54	1716.20
210.76	1712.10
210.98	1763.30
211.20	1683.43
211.42	1718.25
211.64	1783.78
211.86	1732.58
212.08	1685.48
212.30	1755.11
212.52	1701.86
212.74	1718.25
212.96	1785.83
213.17	1746.92
213.39	1773.54
213.61	1718.25
213.83	1685.48
214.05	1648.61
214.27	1781.73
214.49	1652.71
214.71	1611.75
214.93	1828.84
215.15	1744.87
215.37	1724.39
215.59	1665.00
215.81	1777.64
216.03	1847.27
216.24	1652.71
216.46	1744.87
216.68	1667.05
216.90	1724.39
217.12	1748.97
217.34	1689.57
217.56	1673.19
217.78	1740.77
218.00	1665.00
218.22	1728.49
218.44	1726.44
218.66	1781.73
218.87	1732.58
219.09	1701.86
219.31	1808.36
219.53	1658.85
219.75	1705.96
219.97	1705.96
220.19	1693.67
220.41	1701.86
220.63	1812.45
220.85	1748.97
221.06	1605.61
221.28	1746.92
221.50	1701.86
221.72	1695.72
221.94	1681.38
222.16	1708.01
222.38	1779.68
222.60	1767.40
222.82	1699.81
223.03	1701.86
223.25	1658.85
223.47	1703.91
223.69	1794.02
223.91	1726.44
224.13	1777.64
224.35	1556.46
224.57	1789.92
224.78	1753.06
225.00	1640.42
225.22	1728.49
225.44	1648.61
225.66	1714.15
225.88	1705.96
226.10	1740.77
226.32	1705.96
226.53	1773.54
226.75	1763.30
226.97	1693.67
227.19	1693.67
227.41	1755.11
227.63	1691.62
227.85	1607.66
228.06	1726.44
228.28	1718.25
228.50	1714.15
228.72	1642.47
228.94	1691.62
229.16	1593.32
229.37	1615.85
229.59	1656.81
229.81	1804.26
230.03	1673.19
230.25	1726.44
230.47	1609.70
230.69	1617.90
230.90	1722.34
231.12	1726.44
231.34	1710.05
231.56	1794.02
231.78	1624.04
232.00	1753.06
232.21	1681.38
232.43	1693.67
232.65	1605.61
232.87	1667.05
233.09	1611.75
233.30	1697.77
233.52	1734.63
233.74	1691.62
233.96	1685.48
234.18	1662.95
234.40	1722.34
234.61	1869.80
234.83	1632.23
235.05	1642.47
235.27	1814.50
235.49	1769.44
235.70	1675.24
235.92	1789.92
236.14	1757.16
236.36	1755.11
236.58	1630.18
236.79	1751.01
237.01	1632.23
237.23	1613.80
237.45	1814.50
237.67	1609.70
237.88	1730.53
238.10	1908.71
238.32	1673.19
238.54	1703.91
238.76	1712.10
238.97	1624.04
239.19	1705.96
239.41	1736.68
239.63	1832.93
239.85	1665.00
240.06	1675.24
240.28	1572.84
240.50	1734.63
240.72	1671.14
240.93	1718.25
241.15	1724.39
241.37	1681.38
241.59	1791.97
241.81	1669.09
242.02	1660.90
242.24	1802.21
242.46	1728.49
242.68	1652.71
242.89	1755.11
243.11	1798.12
243.33	1681.38
243.55	1763.30
243.76	1767.40
243.98	1671.14
244.20	1757.16
244.42	1697.77
244.64	1791.97
244.85	1679.33
245.07	1636.33
245.29	1751.01
245.51	1681.38
245.72	1712.10
245.94	1755.11
246.16	1718.25
246.38	1779.68
246.59	1681.38
246.81	1642.47
247.03	1652.71
247.24	1650.66
247.46	1619.94
247.68	1716.20
247.90	1626.09
248.11	1714.15
248.33	1718.25
248.55	1679.33
248.77	1720.29
248.98	1755.11
249.20	1877.99
249.42	1611.75
249.64	1830.88
249.85	1734.63
250.07	1613.80
250.29	1699.81
250.50	1763.30
250.72	1646.57
250.94	1738.73
251.16	1798.12
251.37	1810.40
251.59	1712.10
251.81	1685.48
252.02	1830.88
252.24	1609.70
252.46	1763.30
252.68	1712.10
252.89	1648.61
253.11	1607.66
253.33	1755.11
253.54	1763.30
253.76	1601.51
253.98	1613.80
254.20	1624.04
254.41	1660.90
254.63	1675.24
254.85	1599.46
255.06	1734.63
255.28	1716.20
255.50	1812.45
255.71	1652.71
255.93	1718.25
256.15	1644.52
256.36	1759.21
256.58	1665.00
256.80	1738.73
257.02	1724.39
257.23	1705.96
257.45	1783.78
257.67	1732.58
257.88	1583.08
258.10	1683.43
258.32	1751.01
258.53	1757.16
258.75	1734.63
258.97	1691.62
259.18	1787.88
259.40	1714.15
259.62	1798.12
259.83	1802.21
260.05	1757.16
260.27	1947.62
260.48	1810.40
260.70	1656.81
260.92	1691.62
261.13	1757.16
261.35	1744.87
261.57	1703.91
261.78	1621.99
262.00	1648.61
262.22	1742.82
262.43	1689.57
262.65	1708.01
262.86	1753.06
263.08	1800.16
263.30	1701.86
263.51	1535.98
263.73	1630.18
263.95	1748.97
264.16	1638.38
264.38	1685.48
264.60	1771.49
264.81	1683.43
265.03	1771.49
265.25	1744.87
265.46	1740.77
265.68	1703.91
265.89	1740.77
266.11	1687.53
266.33	1748.97
266.54	1773.54
266.76	1710.05
266.98	1767.40
267.19	1757.16
267.41	1716.20
267.62	1701.86
267.84	1630.18
268.06	1712.10
268.27	1658.85
268.49	1722.34
268.70	1732.58
268.92	1650.66
269.14	1679.33
269.35	1578.98
269.57	1654.76
269.79	1736.68
270.00	1660.90
270.22	1814.50
270.43	1687.53
270.65	1503.21
270.87	1681.38
271.08	1771.49
271.30	1718.25
271.51	1695.72
271.73	1722.34
271.95	1771.49
272.16	1732.58
272.38	1740.77
272.59	1667.05
272.81	1753.06
273.02	1689.57
273.24	1798.12
273.46	1828.84
273.67	1675.24
273.89	1769.44
274.10	1755.11
274.32	1773.54
274.54	1746.92
274.75	1712.10
274.97	1667.05
275.18	1755.11
275.40	1718.25
275.61	1697.77
275.83	1746.92
276.05	1703.91
276.26	1722.34
276.48	1746.92
276.69	1687.53
276.91	1665.00
277.12	1724.39
277.34	1710.05
277.55	1802.21
277.77	1701.86
277.99	1740.77
278.20	1607.66
278.42	1675.24
278.63	1634.28
278.85	1687.53
279.06	1615.85
279.28	1759.21
279.49	1710.05
279.71	1814.50
279.93	1751.01
280.14	1705.96
280.36	1634.28
280.57	1724.39
280.79	1773.54
281.00	1656.81
281.22	1701.86
281.43	1773.54
281.65	1540.07
281.86	1634.28
282.08	1726.44
282.29	1767.40
282.51	1587.18
282.73	1652.71
282.94	1621.99
283.16	1710.05
283.37	1812.45
283.59	1724.39
283.80	1787.88
284.02	1746.92
284.23	1669.09
284.45	1755.11
284.66	1589.22
284.88	1773.54
285.09	1671.14
285.31	1673.19
285.52	1771.49
285.74	1593.32
285.95	1712.10
286.17	1736.68
286.38	1787.88
286.60	1624.04
286.81	1648.61
287.03	1697.77
287.24	1650.66
287.46	1777.64
287.67	1718.25
287.89	1875.94
288.10	1769.44
288.32	1824.74
288.53	1773.54
288.75	1761.25
288.96	1722.34
289.18	1714.15
289.39	1728.49
289.61	1791.97
289.82	1845.22
290.04	1787.88
290.25	1640.42
290.47	1755.11
290.68	1710.05
290.90	1751.01
291.11	1646.57
291.33	1771.49
291.54	1648.61
291.76	1673.19
291.97	1744.87
292.18	1710.05
292.40	1681.38
292.61	1660.90
292.83	1816.55
293.04	1699.81
293.26	1681.38
293.47	1617.90
293.69	1669.09
293.90	1675.24
294.12	1789.92
294.33	1734.63
294.55	1699.81
294.76	1724.39
294.97	1882.08
295.19	1771.49
295.40	1685.48
295.62	1730.53
295.83	1757.16
296.05	1675.24
296.26	1679.33
296.48	1710.05
296.69	1681.38
296.90	1636.33
297.12	1726.44
297.33	1751.01
297.55	1705.96
297.76	1771.49
297.98	1769.44
298.19	1701.86
298.41	1705.96
298.62	1679.33
298.83	1763.30
299.05	1738.73
299.26	1714.15
299.48	1773.54
299.69	1736.68
299.90	1755.11
300.12	1630.18
300.33	1722.34
300.55	1753.06
300.76	1714.15
300.98	1621.99
301.19	1726.44
301.40	1589.22
301.62	1810.40
301.83	1708.01
302.05	1738.73
302.26	1720.29
302.47	1722.34
302.69	1599.46
302.90	1671.14
303.12	1630.18
303.33	1740.77
303.54	1847.27
303.76	1671.14
303.97	1695.72
304.19	1834.98
304.40	1665.00
304.61	1785.83
304.83	1757.16
305.04	1726.44
305.26	1787.88
305.47	1675.24
305.68	1656.81
305.90	1658.85
306.11	1748.97
306.33	1767.40
306.54	1669.09
306.75	1675.24
306.97	1564.65
307.18	1656.81
307.39	1710.05
307.61	1742.82
307.82	1693.67
308.04	1757.16
308.25	1697.77
308.46	1742.82
308.68	1724.39
308.89	1712.10
309.10	1796.07
309.32	1765.35
309.53	1673.19
309.74	1755.11
309.96	1736.68
310.17	1791.97
310.39	1665.00
310.60	1781.73
310.81	1705.96
311.03	1646.57
311.24	1732.58
311.45	1683.43
311.67	1863.65
311.88	1794.02
312.09	1689.57
312.31	1646.57
312.52	1759.21
312.73	1691.62
312.95	1603.56
313.16	1689.57
313.37	1742.82
313.59	1748.97
313.80	1724.39
314.01	1865.70
314.23	1638.38
314.44	1570.79
314.65	1632.23
314.87	1669.09
315.08	1740.77
315.29	1789.92
315.51	1679.33
315.72	1626.09
315.93	1814.50
316.15	1814.50
316.36	1683.43
316.57	1720.29
316.79	1697.77
317.00	1730.53
317.21	1763.30
317.43	1716.20
317.64	1671.14
317.85	1701.86
318.07	1755.11
318.28	1689.57
318.49	1843.17
318.70	1918.95
318.92	1853.41
319.13	1877.99
319.34	1890.28
319.56	1785.83
319.77	1818.60
319.98	1826.79
320.20	1798.12
320.41	1826.79
320.62	1720.29
320.83	1699.81
321.05	1763.30
321.26	1703.91
321.47	1654.76
321.69	1785.83
321.90	1566.70
322.11	1660.90
322.32	1716.20
322.54	1802.21
322.75	1687.53
322.96	1845.22
323.18	1630.18
323.39	1615.85
323.60	1658.85
323.81	1843.17
324.03	1705.96
324.24	1742.82
324.45	1699.81
324.66	1656.81
324.88	1736.68
325.09	1748.97
325.30	1656.81
325.52	1775.59
325.73	1701.86
325.94	1642.47
326.15	1646.57
326.37	1691.62
326.58	1718.25
326.79	1775.59
327.00	1687.53
327.22	1722.34
327.43	1734.63
327.64	1650.66
327.85	1740.77
328.07	1728.49
328.28	1834.98
328.49	1685.48
328.70	1609.70
328.92	1644.52
329.13	1638.38
329.34	1740.77
329.55	1826.79
329.76	1777.64
329.98	1667.05
330.19	1791.97
330.40	1683.43
330.61	1791.97
330.83	1810.40
331.04	1667.05
331.25	1691.62
331.46	1630.18
331.68	1621.99
331.89	1748.97
332.10	1705.96
332.31	1689.57
332.52	1710.05
332.74	1789.92
332.95	1617.90
333.16	1708.01
333.37	1705.96
333.58	1638.38
333.80	1718.25
334.01	1660.90
334.22	1677.29
334.43	1701.86
334.64	1755.11
334.86	1687.53
335.07	1673.19
335.28	1787.88
335.49	1644.52
335.70	1779.68
335.92	1697.77
336.13	1839.08
336.34	1703.91
336.55	1783.78
336.76	1652.71
336.98	1662.95
337.19	1662.95
337.40	1748.97
337.61	1849.32
337.82	1658.85
338.04	1716.20
338.25	1699.81
338.46	1611.75
338.67	1671.14
338.88	1677.29
339.09	1742.82
339.31	1673.19
339.52	1652.71
339.73	1732.58
339.94	1810.40
340.15	1726.44
340.36	1732.58
340.58	1765.35
340.79	1652.71
341.00	1751.01
341.21	1716.20
341.42	1886.18
341.63	1669.09
341.85	1738.73
342.06	1744.87
342.27	1628.14
342.48	1746.92
342.69	1624.04
342.90	1767.40
343.12	1832.93
343.33	1710.05
343.54	1734.63
343.75	1746.92
343.96	1669.09
344.17	1710.05
344.38	1738.73
344.60	1642.47
344.81	1628.14
345.02	1716.20
345.23	1767.40
345.44	1802.21
345.65	1703.91
345.86	1726.44
346.07	1703.91
346.29	1712.10
346.50	1724.39
346.71	1730.53
346.92	1746.92
347.13	1871.84
347.34	1701.86
347.55	1636.33
347.76	1687.53
347.98	1650.66
348.19	1652.71
348.40	1779.68
348.61	1656.81
348.82	1804.26
349.03	1740.77
349.24	1695.72
349.45	1769.44
349.66	1648.61
349.88	1658.85
350.09	1681.38
350.30	1771.49
350.51	1849.32
350.72	1806.31
350.93	1689.57
351.14	1681.38
351.35	1753.06
351.56	1656.81
351.77	1636.33
351.99	1705.96
352.20	1787.88
352.41	1787.88
352.62	1603.56
352.83	1736.68
353.04	1751.01
353.25	1642.47
353.46	1818.60
353.67	1787.88
353.88	1607.66
354.09	1734.63
354.30	1624.04
354.52	1724.39
354.73	1699.81
354.94	1746.92
355.15	1687.53
355.36	1796.07
355.57	1652.71
355.78	1708.01
355.99	1673.19
356.20	1740.77
356.41	1861.60
356.62	1759.21
356.83	1734.63
357.04	1824.74
357.25	1607.66
357.46	1648.61
357.68	1615.85
357.89	1710.05
358.10	1787.88
358.31	1671.14
358.52	1677.29
358.73	1646.57
358.94	1621.99
359.15	1673.19
359.36	1677.29
359.57	1695.72
359.78	1675.24
359.99	1763.30
360.20	1732.58
360.41	1667.05
360.62	1691.62
360.83	1759.21
361.04	1673.19
361.25	1722.34
361.46	1824.74
361.67	1775.59
361.88	1773.54
362.09	1697.77
362.30	1673.19
362.51	1697.77
362.72	1691.62
362.93	1708.01
363.14	1732.58
363.35	1665.00
363.56	1697.77
363.78	1767.40
363.99	1699.81
364.20	1660.90
364.41	1759.21
364.62	1800.16
364.83	1789.92
365.04	1693.67
365.25	1708.01
365.46	1828.84
365.67	1665.00
365.88	1572.84
366.09	1695.72
366.30	1624.04
366.51	1665.00
366.72	1642.47
366.93	1685.48
367.14	1751.01
367.35	1802.21
367.56	1642.47
367.77	1738.73
367.98	1646.57
368.18	1783.78
368.39	1767.40
368.60	1662.95
368.81	1695.72
369.02	1837.03
369.23	1656.81
369.44	1617.90
369.65	1646.57
369.86	1722.34
370.07	1730.53
370.28	1660.90
370.49	1736.68
370.70	1812.45
370.91	1656.81
371.12	1708.01
371.33	1736.68
371.54	1669.09
371.75	1804.26
371.96	1560.55
372.17	1767.40
372.38	1777.64
372.59	1748.97
372.80	1769.44
373.01	1667.05
373.22	1755.11
373.43	1677.29
373.64	1656.81
373.85	1787.88
374.06	1843.17
374.26	1857.51
374.47	1697.77
374.68	1755.11
374.89	1683.43
375.10	1726.44
375.31	1775.59
375.52	1697.77
375.73	1638.38
375.94	1656.81
376.15	1787.88
376.36	1644.52
376.57	1667.05
376.78	1744.87
376.99	1699.81
377.20	1814.50
377.40	1759.21
377.61	1800.16
377.82	1738.73
378.03	1834.98
378.24	1796.07
378.45	1699.81
378.66	1685.48
378.87	1669.09
379.08	1570.79
379.29	1746.92
379.50	1783.78
379.71	1660.90
379.91	1781.73
380.12	1624.04
380.33	1718.25
380.54	1689.57
380.75	1712.10
380.96	1722.34
381.17	1804.26
381.38	1751.01
381.59	1781.73
381.80	1708.01
382.00	1916.90
382.21	1779.68
382.42	1894.37
382.63	1859.56
382.84	1757.16
383.05	1708.01
383.26	1746.92
383.47	1720.29
383.68	1738.73
383.88	1761.25
384.09	1783.78
384.30	1855.46
384.51	1730.53
384.72	1757.16
384.93	1636.33
385.14	1685.48
385.35	1705.96
385.55	1626.09
385.76	1757.16
385.97	1695.72
386.18	1714.15
386.39	1665.00
386.60	1683.43
386.81	1755.11
387.02	1667.05
387.22	1667.05
387.43	1800.16
387.64	1779.68
387.85	1863.65
388.06	2148.32
388.27	4124.61
388.48	6686.62
388.68	8304.51
388.89	9535.34
389.10	9709.42
389.31	8425.34
389.52	7395.22
389.73	6614.94
389.93	6102.95
390.14	5810.09
390.35	5242.80
390.56	4485.05
390.77	3887.04
390.98	3098.58
391.18	2463.71
391.39	2224.09
391.60	1890.28
391.81	1894.37
392.02	1796.07
392.23	1841.12
392.43	1800.16
392.64	1828.84
392.85	1685.48
393.06	1826.79
393.27	1705.96
393.47	1714.15
393.68	1730.53
393.89	1656.81
394.10	1804.26
394.31	1695.72
394.52	1703.91
394.72	1734.63
394.93	1804.26
395.14	1628.14
395.35	1773.54
395.56	1775.59
395.76	1728.49
395.97	1740.77
396.18	1865.70
396.39	1843.17
396.60	2115.55
396.80	1837.03
397.01	1822.69
397.22	1773.54
397.43	1873.89
397.64	1720.29
397.84	1779.68
398.05	1849.32
398.26	1748.97
398.47	1748.97
398.67	1832.93
398.88	1767.40
399.09	1683.43
399.30	1730.53
399.51	1746.92
399.71	1724.39
399.92	1671.14
400.13	1755.11
400.34	1693.67
400.54	1642.47
400.75	1822.69
400.96	1761.25
401.17	1841.12
401.37	1667.05
401.58	1705.96
401.79	1710.05
402.00	1888.23
402.21	2043.87
402.41	1830.88
402.62	1998.82
402.83	2039.78
403.04	2002.91
403.24	2107.36
403.45	1869.80
403.66	1953.76
403.87	1910.75
404.07	1898.47
404.28	1845.22
404.49	1910.75
404.70	1753.06
404.90	1806.31
405.11	1746.92
405.32	1767.40
405.52	1667.05
405.73	1699.81
405.94	1607.66
406.15	1718.25
406.35	1730.53
406.56	1738.73
406.77	1701.86
406.98	1769.44
407.18	1648.61
407.39	1783.78
407.60	1687.53
407.80	1746.92
408.01	1671.14
408.22	1751.01
408.43	1624.04
408.63	1789.92
408.84	1785.83
409.05	1853.41
409.25	1701.86
409.46	1677.29
409.67	1673.19
409.88	1699.81
410.08	1644.52
410.29	1650.66
410.50	1753.06
410.70	1712.10
410.91	1703.91
411.12	1695.72
411.32	1746.92
411.53	1732.58
411.74	1816.55
411.95	1806.31
412.15	1806.31
412.36	1742.82
412.57	1677.29
412.77	1877.99
412.98	1697.77
413.19	1671.14
413.39	1845.22
413.60	1810.40
413.81	1767.40
414.01	1660.90
414.22	1769.44
414.43	1779.68
414.63	1685.48
414.84	1794.02
415.05	1787.88
415.25	1730.53
415.46	1794.02
415.67	1677.29
415.87	1736.68
416.08	1796.07
416.29	1757.16
416.49	1757.16
416.70	1681.38
416.91	1714.15
417.11	1693.67
417.32	1730.53
417.53	1755.11
417.73	1708.01
417.94	1699.81
418.15	1650.66
418.35	1671.14
418.56	1724.39
418.77	1884.13
418.97	1765.35
419.18	1605.61
419.38	1607.66
419.59	1730.53
419.80	1708.01
420.00	1748.97
420.21	1708.01
420.42	1841.12
420.62	1722.34
420.83	1718.25
421.04	1732.58
421.24	1714.15
421.45	1656.81
421.65	1703.91
421.86	1656.81
422.07	1669.09
422.27	1820.64
422.48	1783.78
422.69	1697.77
422.89	1681.38
423.10	1722.34
423.30	1624.04
423.51	1701.86
423.72	1773.54
423.92	1728.49
424.13	1654.76
424.33	1732.58
424.54	1753.06
424.75	1708.01
424.95	1798.12
425.16	1716.20
425.36	1679.33
425.57	1757.16
425.78	1783.78
425.98	1787.88
426.19	1681.38
426.39	1654.76
426.60	1783.78
426.81	1822.69
427.01	1730.53
427.22	1654.76
427.42	1636.33
427.63	1728.49
427.83	1693.67
428.04	1818.60
428.25	1732.58
428.45	1796.07
428.66	1818.60
428.86	1718.25
429.07	1718.25
429.28	1648.61
429.48	1724.39
429.69	1714.15
429.89	1759.21
430.10	1669.09
430.30	1716.20
430.51	1693.67
430.71	1681.38
430.92	1671.14
431.13	1701.86
431.33	1734.63
431.54	1777.64
431.74	1812.45
431.95	1816.55
432.15	1640.42
432.36	1730.53
432.56	1726.44
432.77	1869.80
432.98	1744.87
433.18	1658.85
433.39	1742.82
433.59	1740.77
433.80	1800.16
434.00	1763.30
434.21	1654.76
434.41	1667.05
434.62	1923.04
434.82	1748.97
435.03	1665.00
435.23	1757.16
435.44	1689.57
435.64	1730.53
435.85	1736.68
436.06	1685.48
436.26	1759.21
436.47	1677.29
436.67	1640.42
436.88	1771.49
437.08	1746.92
437.29	1720.29
437.49	1724.39
437.70	1820.64
437.90	1746.92
438.11	1857.51
438.31	1812.45
438.52	1834.98
438.72	1896.42
438.93	1923.04
439.13	1794.02
439.34	1859.56
439.54	1755.11
439.75	1771.49
439.95	1847.27
440.16	1658.85
440.36	1757.16
440.57	1769.44
440.77	1708.01
440.98	1701.86
441.18	1732.58
441.39	1695.72
441.59	1775.59
441.80	1794.02
442.00	1787.88
442.21	1763.30
442.41	1751.01
442.62	1857.51
442.82	1708.01
443.02	1810.40
443.23	1730.53
443.43	1716.20
443.64	1810.40
443.84	1730.53
444.05	1763.30
444.25	1689.57
444.46	1658.85
444.66	1738.73
444.87	1890.28
445.07	1705.96
445.28	1757.16
445.48	1820.64
445.69	1775.59
445.89	1908.71
446.09	1779.68
446.30	2066.40
446.50	2691.03
446.71	3606.47
446.91	4249.54
447.12	4786.10
447.32	4829.11
447.53	4323.26
447.73	3885.00
447.93	3432.40
448.14	3221.45
448.34	3198.93
448.55	2936.79
448.75	2820.05
448.96	2639.83
449.16	2406.36
449.36	2392.03
449.57	2027.49
449.77	1918.95
449.98	1734.63
450.18	1705.96
450.39	1832.93
450.59	1804.26
450.79	1753.06
451.00	1697.77
451.20	1751.01
451.41	1708.01
451.61	1759.21
451.81	1716.20
452.02	1714.15
452.22	1718.25
452.43	1720.29
452.63	1736.68
