SpectraSuite Data File
++++++++++++++++++++++++++++++++++++
Date: Mon Jun 06 15:54:57 CEST 2016
User: root
Dark Spectrum Present: No
Reference Spectrum Present: No
Number of Sampled Component Spectra: 1
Spectrometers: USB4C02835
Integration Time (usec): 100000 (USB4C02835)
Spectra Averaged: 1 (USB4C02835)
Boxcar Smoothing: 0 (USB4C02835)
Correct for Electrical Dark: No (USB4C02835)
Strobe/Lamp Enabled: No (USB4C02835)
Correct for Detector Non-linearity: No (USB4C02835)
Correct for Stray Light: No (USB4C02835)
Number of Pixels in Processed Spectrum: 3648
>>>>>Begin Processed Spectral Data<<<<<
177.47	1474.54
177.69	1474.54
177.91	1474.54
178.13	1517.54
178.36	1454.06
178.58	1611.75
178.80	1783.78
179.02	1630.18
179.24	1724.39
179.46	1679.33
179.68	1740.77
179.90	1712.10
180.13	1695.72
180.35	1714.15
180.57	1673.19
180.79	1683.43
181.01	1705.96
181.23	1773.54
181.45	1708.01
181.67	1761.25
181.90	1681.38
182.12	1689.57
182.34	1619.94
182.56	1748.97
182.78	1740.77
183.00	1667.05
183.22	1738.73
183.44	1560.55
183.66	1869.80
183.89	1849.32
184.11	1759.21
184.33	1705.96
184.55	1738.73
184.77	1783.78
184.99	1722.34
185.21	1699.81
185.43	1863.65
185.65	1712.10
185.87	1673.19
186.10	1865.70
186.32	1959.91
186.54	1789.92
186.76	1671.14
186.98	1662.95
187.20	1763.30
187.42	1658.85
187.64	1734.63
187.86	1785.83
188.08	1759.21
188.30	1722.34
188.52	1650.66
188.75	1693.67
188.97	1832.93
189.19	1695.72
189.41	1665.00
189.63	1720.29
189.85	1667.05
190.07	1683.43
190.29	1662.95
190.51	1693.67
190.73	1652.71
190.95	1800.16
191.17	1681.38
191.39	1646.57
191.61	1689.57
191.84	1712.10
192.06	1806.31
192.28	1634.28
192.50	1877.99
192.72	1800.16
192.94	1648.61
193.16	1773.54
193.38	1726.44
193.60	1689.57
193.82	1691.62
194.04	1714.15
194.26	1751.01
194.48	1656.81
194.70	1683.43
194.92	1689.57
195.14	1800.16
195.36	1683.43
195.58	1759.21
195.80	1697.77
196.02	1626.09
196.24	1716.20
196.46	1673.19
196.69	1726.44
196.91	1914.85
197.13	1720.29
197.35	1654.76
197.57	1705.96
197.79	1736.68
198.01	1714.15
198.23	1722.34
198.45	1671.14
198.67	1595.37
198.89	1665.00
199.11	1791.97
199.33	1662.95
199.55	1564.65
199.77	1720.29
199.99	1779.68
200.21	1675.24
200.43	1634.28
200.65	1701.86
200.87	1624.04
201.09	1683.43
201.31	1675.24
201.53	1699.81
201.75	1658.85
201.97	1734.63
202.19	1667.05
202.41	1757.16
202.63	1812.45
202.85	1712.10
203.07	1746.92
203.29	1660.90
203.51	1634.28
203.73	1728.49
203.95	1837.03
204.17	1748.97
204.39	1755.11
204.61	1724.39
204.83	1679.33
205.05	1769.44
205.27	1755.11
205.49	1800.16
205.71	1748.97
205.93	1626.09
206.15	1640.42
206.37	1722.34
206.59	1693.67
206.81	1630.18
207.03	1732.58
207.25	1581.03
207.47	1738.73
207.69	1695.72
207.91	1693.67
208.13	1802.21
208.34	1667.05
208.56	1685.48
208.78	1738.73
209.00	1677.29
209.22	1730.53
209.44	1693.67
209.66	1738.73
209.88	1697.77
210.10	1748.97
210.32	1650.66
210.54	1736.68
210.76	1701.86
210.98	1699.81
211.20	1636.33
211.42	1724.39
211.64	1794.02
211.86	1714.15
212.08	1699.81
212.30	1705.96
212.52	1642.47
212.74	1746.92
212.96	1755.11
213.17	1734.63
213.39	1724.39
213.61	1871.84
213.83	1796.07
214.05	1607.66
214.27	1763.30
214.49	1662.95
214.71	1753.06
214.93	1779.68
215.15	1753.06
215.37	1755.11
215.59	1640.42
215.81	1755.11
216.03	1796.07
216.24	1673.19
216.46	1746.92
216.68	1669.09
216.90	1796.07
217.12	1689.57
217.34	1687.53
217.56	1662.95
217.78	1703.91
218.00	1693.67
218.22	1685.48
218.44	1695.72
218.66	1697.77
218.87	1810.40
219.09	1691.62
219.31	1761.25
219.53	1699.81
219.75	1718.25
219.97	1656.81
220.19	1746.92
220.41	1714.15
220.63	1763.30
220.85	1695.72
221.06	1681.38
221.28	1732.58
221.50	1687.53
221.72	1736.68
221.94	1652.71
222.16	1738.73
222.38	1806.31
222.60	1794.02
222.82	1640.42
223.03	1794.02
223.25	1615.85
223.47	1779.68
223.69	1765.35
223.91	1712.10
224.13	1665.00
224.35	1613.80
224.57	1693.67
224.78	1740.77
225.00	1658.85
225.22	1785.83
225.44	1673.19
225.66	1710.05
225.88	1636.33
226.10	1767.40
226.32	1681.38
226.53	1701.86
226.75	1705.96
226.97	1705.96
227.19	1732.58
227.41	1712.10
227.63	1638.38
227.85	1624.04
228.06	1712.10
228.28	1769.44
228.50	1767.40
228.72	1628.14
228.94	1763.30
229.16	1693.67
229.37	1648.61
229.59	1720.29
229.81	1779.68
230.03	1714.15
230.25	1656.81
230.47	1650.66
230.69	1724.39
230.90	1796.07
231.12	1675.24
231.34	1775.59
231.56	1724.39
231.78	1624.04
232.00	1728.49
232.21	1744.87
232.43	1677.29
232.65	1638.38
232.87	1734.63
233.09	1660.90
233.30	1656.81
233.52	1718.25
233.74	1679.33
233.96	1652.71
234.18	1726.44
234.40	1697.77
234.61	1798.12
234.83	1568.74
235.05	1675.24
235.27	1845.22
235.49	1779.68
235.70	1648.61
235.92	1808.36
236.14	1689.57
236.36	1837.03
236.58	1665.00
236.79	1810.40
237.01	1708.01
237.23	1708.01
237.45	1742.82
237.67	1742.82
237.88	1667.05
238.10	1767.40
238.32	1638.38
238.54	1701.86
238.76	1712.10
238.97	1654.76
239.19	1695.72
239.41	1781.73
239.63	1744.87
239.85	1703.91
240.06	1705.96
240.28	1693.67
240.50	1767.40
240.72	1701.86
240.93	1757.16
241.15	1763.30
241.37	1714.15
241.59	1806.31
241.81	1742.82
242.02	1685.48
242.24	1656.81
242.46	1714.15
242.68	1701.86
242.89	1845.22
243.11	1796.07
243.33	1693.67
243.55	1677.29
243.76	1828.84
243.98	1689.57
244.20	1771.49
244.42	1677.29
244.64	1652.71
244.85	1683.43
245.07	1740.77
245.29	1740.77
245.51	1675.24
245.72	1685.48
245.94	1738.73
246.16	1789.92
246.38	1789.92
246.59	1671.14
246.81	1658.85
247.03	1693.67
247.24	1644.52
247.46	1634.28
247.68	1710.05
247.90	1681.38
248.11	1699.81
248.33	1787.88
248.55	1701.86
248.77	1644.52
248.98	1734.63
249.20	1804.26
249.42	1689.57
249.64	1767.40
249.85	1712.10
250.07	1644.52
250.29	1738.73
250.50	1673.19
250.72	1632.23
250.94	1693.67
251.16	1826.79
251.37	1884.13
251.59	1689.57
251.81	1755.11
252.02	1818.60
252.24	1724.39
252.46	1730.53
252.68	1699.81
252.89	1744.87
253.11	1632.23
253.33	1751.01
253.54	1859.56
253.76	1638.38
253.98	1632.23
254.20	1755.11
254.41	1611.75
254.63	1634.28
254.85	1646.57
255.06	1691.62
255.28	1738.73
255.50	1748.97
255.71	1619.94
255.93	1669.09
256.15	1681.38
256.36	1722.34
256.58	1650.66
256.80	1730.53
257.02	1689.57
257.23	1589.22
257.45	1816.55
257.67	1734.63
257.88	1726.44
258.10	1796.07
258.32	1726.44
258.53	1689.57
258.75	1787.88
258.97	1705.96
259.18	1679.33
259.40	1689.57
259.62	1820.64
259.83	1763.30
260.05	1712.10
260.27	2002.91
260.48	1800.16
260.70	1626.09
260.92	1701.86
261.13	1691.62
261.35	1712.10
261.57	1699.81
261.78	1720.29
262.00	1728.49
262.22	1781.73
262.43	1697.77
262.65	1667.05
262.86	1689.57
263.08	1818.60
263.30	1746.92
263.51	1632.23
263.73	1681.38
263.95	1796.07
264.16	1644.52
264.38	1712.10
264.60	1734.63
264.81	1771.49
265.03	1787.88
265.25	1800.16
265.46	1689.57
265.68	1791.97
265.89	1724.39
266.11	1617.90
266.33	1681.38
266.54	1841.12
266.76	1720.29
266.98	1689.57
267.19	1839.08
267.41	1738.73
267.62	1638.38
267.84	1656.81
268.06	1740.77
268.27	1738.73
268.49	1796.07
268.70	1720.29
268.92	1710.05
269.14	1652.71
269.35	1601.51
269.57	1720.29
269.79	1744.87
270.00	1636.33
270.22	1775.59
270.43	1705.96
270.65	1669.09
270.87	1740.77
271.08	1730.53
271.30	1742.82
271.51	1712.10
271.73	1785.83
271.95	1613.80
272.16	1669.09
272.38	1751.01
272.59	1689.57
272.81	1710.05
273.02	1642.47
273.24	1712.10
273.46	1820.64
273.67	1689.57
273.89	1687.53
274.10	1667.05
274.32	1812.45
274.54	1718.25
274.75	1728.49
274.97	1581.03
275.18	1724.39
275.40	1681.38
275.61	1705.96
275.83	1716.20
276.05	1665.00
276.26	1751.01
276.48	1753.06
276.69	1681.38
276.91	1679.33
277.12	1822.69
277.34	1753.06
277.55	1748.97
277.77	1710.05
277.99	1685.48
278.20	1595.37
278.42	1642.47
278.63	1609.70
278.85	1615.85
279.06	1624.04
279.28	1751.01
279.49	1738.73
279.71	1652.71
279.93	1656.81
280.14	1699.81
280.36	1630.18
280.57	1794.02
280.79	1798.12
281.00	1593.32
281.22	1683.43
281.43	1763.30
281.65	1626.09
281.86	1640.42
282.08	1724.39
282.29	1871.84
282.51	1671.14
282.73	1636.33
282.94	1609.70
283.16	1822.69
283.37	1841.12
283.59	1689.57
283.80	1738.73
284.02	1677.29
284.23	1751.01
284.45	1677.29
284.66	1605.61
284.88	1708.01
285.09	1779.68
285.31	1718.25
285.52	1722.34
285.74	1624.04
285.95	1734.63
286.17	1712.10
286.38	1816.55
286.60	1656.81
286.81	1638.38
287.03	1683.43
287.24	1724.39
287.46	1691.62
287.67	1728.49
287.89	1871.84
288.10	1732.58
288.32	1740.77
288.53	1767.40
288.75	1744.87
288.96	1789.92
289.18	1705.96
289.39	1681.38
289.61	1738.73
289.82	1808.36
290.04	1748.97
290.25	1576.94
290.47	1740.77
290.68	1644.52
290.90	1751.01
291.11	1628.14
291.33	1730.53
291.54	1665.00
291.76	1656.81
291.97	1691.62
292.18	1632.23
292.40	1675.24
292.61	1697.77
292.83	1814.50
293.04	1761.25
293.26	1720.29
293.47	1685.48
293.69	1671.14
293.90	1656.81
294.12	1740.77
294.33	1812.45
294.55	1769.44
294.76	1789.92
294.97	1810.40
295.19	1843.17
295.40	1675.24
295.62	1730.53
295.83	1775.59
296.05	1673.19
296.26	1744.87
296.48	1636.33
296.69	1658.85
296.90	1751.01
297.12	1740.77
297.33	1773.54
297.55	1665.00
297.76	1763.30
297.98	1761.25
298.19	1777.64
298.41	1648.61
298.62	1683.43
298.83	1753.06
299.05	1808.36
299.26	1695.72
299.48	1638.38
299.69	1716.20
299.90	1730.53
300.12	1681.38
300.33	1757.16
300.55	1703.91
300.76	1773.54
300.98	1705.96
301.19	1812.45
301.40	1794.02
301.62	1685.48
301.83	1673.19
302.05	1708.01
302.26	1677.29
302.47	1730.53
302.69	1640.42
302.90	1718.25
303.12	1574.89
303.33	1705.96
303.54	1773.54
303.76	1722.34
303.97	1736.68
304.19	1804.26
304.40	1630.18
304.61	1736.68
304.83	1873.89
305.04	1845.22
305.26	1701.86
305.47	1712.10
305.68	1693.67
305.90	1630.18
306.11	1730.53
306.33	1695.72
306.54	1785.83
306.75	1671.14
306.97	1621.99
307.18	1691.62
307.39	1740.77
307.61	1818.60
307.82	1695.72
308.04	1761.25
308.25	1636.33
308.46	1689.57
308.68	1683.43
308.89	1705.96
309.10	1791.97
309.32	1755.11
309.53	1832.93
309.74	1693.67
309.96	1685.48
310.17	1710.05
310.39	1677.29
310.60	1746.92
310.81	1738.73
311.03	1624.04
311.24	1820.64
311.45	1712.10
311.67	1820.64
311.88	1767.40
312.09	1644.52
312.31	1714.15
312.52	1712.10
312.73	1693.67
312.95	1667.05
313.16	1667.05
313.37	1843.17
313.59	1693.67
313.80	1767.40
314.01	1812.45
314.23	1640.42
314.44	1734.63
314.65	1716.20
314.87	1599.46
315.08	1732.58
315.29	1767.40
315.51	1640.42
315.72	1570.79
315.93	1859.56
316.15	1789.92
316.36	1654.76
316.57	1689.57
316.79	1738.73
317.00	1710.05
317.21	1722.34
317.43	1636.33
317.64	1804.26
317.85	1599.46
318.07	1656.81
318.28	1708.01
318.49	1806.31
318.70	1892.32
318.92	1814.50
319.13	1789.92
319.34	1812.45
319.56	1845.22
319.77	1810.40
319.98	1796.07
320.20	1822.69
320.41	1789.92
320.62	1726.44
320.83	1720.29
321.05	1810.40
321.26	1724.39
321.47	1712.10
321.69	1789.92
321.90	1734.63
322.11	1683.43
322.32	1771.49
322.54	1773.54
322.75	1689.57
322.96	1779.68
323.18	1681.38
323.39	1667.05
323.60	1615.85
323.81	1746.92
324.03	1636.33
324.24	1728.49
324.45	1748.97
324.66	1736.68
324.88	1705.96
325.09	1785.83
325.30	1740.77
325.52	1767.40
325.73	1722.34
325.94	1703.91
326.15	1654.76
326.37	1679.33
326.58	1705.96
326.79	1753.06
327.00	1691.62
327.22	1710.05
327.43	1695.72
327.64	1642.47
327.85	1791.97
328.07	1705.96
328.28	1820.64
328.49	1738.73
328.70	1693.67
328.92	1720.29
329.13	1726.44
329.34	1689.57
329.55	1798.12
329.76	1732.58
329.98	1679.33
330.19	1767.40
330.40	1703.91
330.61	1708.01
330.83	1781.73
331.04	1644.52
331.25	1814.50
331.46	1755.11
331.68	1638.38
331.89	1763.30
332.10	1742.82
332.31	1640.42
332.52	1740.77
332.74	1828.84
332.95	1687.53
333.16	1656.81
333.37	1740.77
333.58	1669.09
333.80	1720.29
334.01	1652.71
334.22	1679.33
334.43	1632.23
334.64	1705.96
334.86	1677.29
335.07	1656.81
335.28	1855.46
335.49	1648.61
335.70	1722.34
335.92	1718.25
336.13	1820.64
336.34	1701.86
336.55	1671.14
336.76	1767.40
336.98	1632.23
337.19	1720.29
337.40	1839.08
337.61	1849.32
337.82	1736.68
338.04	1824.74
338.25	1626.09
338.46	1742.82
338.67	1683.43
338.88	1626.09
339.09	1611.75
339.31	1601.51
339.52	1628.14
339.73	1667.05
339.94	1701.86
340.15	1673.19
340.36	1714.15
340.58	1701.86
340.79	1638.38
341.00	1710.05
341.21	1587.18
341.42	1769.44
341.63	1699.81
341.85	1785.83
342.06	1677.29
342.27	1683.43
342.48	1767.40
342.69	1636.33
342.90	1771.49
343.12	1753.06
343.33	1646.57
343.54	1751.01
343.75	1779.68
343.96	1728.49
344.17	1699.81
344.38	1693.67
344.60	1699.81
344.81	1646.57
345.02	1763.30
345.23	1755.11
345.44	1853.41
345.65	1703.91
345.86	1720.29
346.07	1740.77
346.29	1597.42
346.50	1691.62
346.71	1730.53
346.92	1798.12
347.13	1804.26
347.34	1820.64
347.55	1679.33
347.76	1791.97
347.98	1581.03
348.19	1665.00
348.40	1816.55
348.61	1646.57
348.82	1681.38
349.03	1740.77
349.24	1730.53
349.45	1812.45
349.66	1595.37
349.88	1607.66
350.09	1660.90
350.30	1781.73
350.51	1742.82
350.72	1687.53
350.93	1695.72
351.14	1767.40
351.35	1751.01
351.56	1734.63
351.77	1722.34
351.99	1757.16
352.20	1832.93
352.41	1718.25
352.62	1587.18
352.83	1703.91
353.04	1732.58
353.25	1689.57
353.46	1722.34
353.67	1691.62
353.88	1560.55
354.09	1771.49
354.30	1791.97
354.52	1798.12
354.73	1769.44
354.94	1714.15
355.15	1769.44
355.36	1796.07
355.57	1699.81
355.78	1761.25
355.99	1617.90
356.20	1640.42
356.41	1777.64
356.62	1763.30
356.83	1648.61
357.04	1822.69
357.25	1626.09
357.46	1705.96
357.68	1632.23
357.89	1671.14
358.10	1689.57
358.31	1673.19
358.52	1744.87
358.73	1665.00
358.94	1665.00
359.15	1759.21
359.36	1726.44
359.57	1800.16
359.78	1638.38
359.99	1806.31
360.20	1615.85
360.41	1640.42
360.62	1734.63
360.83	1724.39
361.04	1621.99
361.25	1722.34
361.46	1863.65
361.67	1720.29
361.88	1728.49
362.09	1769.44
362.30	1746.92
362.51	1714.15
362.72	1759.21
362.93	1775.59
363.14	1675.24
363.35	1724.39
363.56	1687.53
363.78	1736.68
363.99	1779.68
364.20	1710.05
364.41	1654.76
364.62	1738.73
364.83	1759.21
365.04	1691.62
365.25	1724.39
365.46	1777.64
365.67	1734.63
365.88	1654.76
366.09	1683.43
366.30	1726.44
366.51	1732.58
366.72	1708.01
366.93	1673.19
367.14	1785.83
367.35	1824.74
367.56	1718.25
367.77	1787.88
367.98	1712.10
368.18	1757.16
368.39	1744.87
368.60	1648.61
368.81	1662.95
369.02	1730.53
369.23	1724.39
369.44	1589.22
369.65	1640.42
369.86	1673.19
370.07	1746.92
370.28	1669.09
370.49	1687.53
370.70	1755.11
370.91	1626.09
371.12	1648.61
371.33	1791.97
371.54	1718.25
371.75	1837.03
371.96	1603.56
372.17	1697.77
372.38	1681.38
372.59	1812.45
372.80	1775.59
373.01	1708.01
373.22	1740.77
373.43	1669.09
373.64	1658.85
373.85	1753.06
374.06	1822.69
374.26	1767.40
374.47	1726.44
374.68	1767.40
374.89	1734.63
375.10	1687.53
375.31	1775.59
375.52	1701.86
375.73	1689.57
375.94	1578.98
376.15	1699.81
376.36	1656.81
376.57	1691.62
376.78	1751.01
376.99	1677.29
377.20	1832.93
377.40	1705.96
377.61	1828.84
377.82	1708.01
378.03	1730.53
378.24	1736.68
378.45	1671.14
378.66	1665.00
378.87	1626.09
379.08	1601.51
379.29	1679.33
379.50	1798.12
379.71	1665.00
379.91	1757.16
380.12	1712.10
380.33	1708.01
380.54	1718.25
380.75	1720.29
380.96	1648.61
381.17	1701.86
381.38	1765.35
381.59	1738.73
381.80	1693.67
382.00	1853.41
382.21	1802.21
382.42	1886.18
382.63	1841.12
382.84	1761.25
383.05	1775.59
383.26	1796.07
383.47	1630.18
383.68	1845.22
383.88	1816.55
384.09	1720.29
384.30	1857.51
384.51	1759.21
384.72	1759.21
384.93	1685.48
385.14	1775.59
385.35	1744.87
385.55	1593.32
385.76	1816.55
385.97	1728.49
386.18	1617.90
386.39	1763.30
386.60	1722.34
386.81	1759.21
387.02	1697.77
387.22	1662.95
387.43	1812.45
387.64	1904.61
387.85	1875.94
388.06	2193.37
388.27	4220.86
388.48	6576.03
388.68	8181.64
388.89	9443.18
389.10	9629.55
389.31	8419.20
389.52	7427.98
389.73	6586.27
389.93	6289.31
390.14	5650.35
390.35	5083.06
390.56	4542.39
390.77	3839.94
390.98	3002.32
391.18	2525.15
391.39	2068.45
391.60	1906.66
391.81	1804.26
392.02	1738.73
392.23	1906.66
392.43	1755.11
392.64	1820.64
392.85	1697.77
393.06	1808.36
393.27	1757.16
393.47	1603.56
393.68	1714.15
393.89	1613.80
394.10	1712.10
394.31	1701.86
394.52	1632.23
394.72	1740.77
394.93	1824.74
395.14	1671.14
395.35	1726.44
395.56	1589.22
395.76	1734.63
395.97	1771.49
396.18	1882.08
396.39	1849.32
396.60	2017.25
396.80	1871.84
397.01	1834.98
397.22	1914.85
397.43	1869.80
397.64	1781.73
397.84	1751.01
398.05	1871.84
398.26	1791.97
398.47	1869.80
398.67	1830.88
398.88	1738.73
399.09	1697.77
399.30	1701.86
399.51	1777.64
399.71	1802.21
399.92	1689.57
400.13	1779.68
400.34	1732.58
400.54	1701.86
400.75	1816.55
400.96	1734.63
401.17	1863.65
401.37	1710.05
401.58	1693.67
401.79	1767.40
402.00	1808.36
402.21	2068.45
402.41	2007.01
402.62	1947.62
402.83	2045.92
403.04	1955.81
403.24	2107.36
403.45	1843.17
403.66	1886.18
403.87	1912.80
404.07	1910.75
404.28	1877.99
404.49	1791.97
404.70	1834.98
404.90	1822.69
405.11	1748.97
405.32	1738.73
405.52	1701.86
405.73	1648.61
405.94	1701.86
406.15	1640.42
406.35	1716.20
406.56	1773.54
406.77	1736.68
406.98	1701.86
407.18	1615.85
407.39	1781.73
407.60	1699.81
407.80	1693.67
408.01	1708.01
408.22	1677.29
408.43	1621.99
408.63	1730.53
408.84	1791.97
409.05	1726.44
409.25	1634.28
409.46	1685.48
409.67	1673.19
409.88	1652.71
410.08	1808.36
410.29	1695.72
410.50	1701.86
410.70	1777.64
410.91	1673.19
411.12	1832.93
411.32	1728.49
411.53	1708.01
411.74	1761.25
411.95	1826.79
412.15	1820.64
412.36	1732.58
412.57	1798.12
412.77	1845.22
412.98	1654.76
413.19	1705.96
413.39	1730.53
413.60	1765.35
413.81	1787.88
414.01	1748.97
414.22	1718.25
414.43	1708.01
414.63	1742.82
414.84	1757.16
415.05	1742.82
415.25	1609.70
415.46	1757.16
415.67	1773.54
415.87	1730.53
416.08	1695.72
416.29	1699.81
416.49	1789.92
416.70	1755.11
416.91	1669.09
417.11	1681.38
417.32	1683.43
417.53	1777.64
417.73	1665.00
417.94	1681.38
418.15	1794.02
418.35	1708.01
418.56	1695.72
418.77	1920.99
418.97	1742.82
419.18	1710.05
419.38	1562.60
419.59	1734.63
419.80	1796.07
420.00	1613.80
420.21	1636.33
420.42	1753.06
420.62	1757.16
420.83	1677.29
421.04	1648.61
421.24	1744.87
421.45	1830.88
421.65	1669.09
421.86	1730.53
422.07	1726.44
422.27	1781.73
422.48	1734.63
422.69	1665.00
422.89	1789.92
423.10	1777.64
423.30	1673.19
423.51	1658.85
423.72	1740.77
423.92	1746.92
424.13	1646.57
424.33	1632.23
424.54	1873.89
424.75	1744.87
424.95	1806.31
425.16	1783.78
425.36	1644.52
425.57	1787.88
425.78	1730.53
425.98	1726.44
426.19	1669.09
426.39	1599.46
426.60	1705.96
426.81	1794.02
427.01	1800.16
427.22	1714.15
427.42	1644.52
427.63	1677.29
427.83	1738.73
428.04	1814.50
428.25	1736.68
428.45	1820.64
428.66	1701.86
428.86	1650.66
429.07	1763.30
429.28	1667.05
429.48	1642.47
429.69	1740.77
429.89	1751.01
430.10	1624.04
430.30	1779.68
430.51	1845.22
430.71	1718.25
430.92	1685.48
431.13	1669.09
431.33	1673.19
431.54	1716.20
431.74	1783.78
431.95	1880.04
432.15	1662.95
432.36	1665.00
432.56	1794.02
432.77	1767.40
432.98	1763.30
433.18	1796.07
433.39	1689.57
433.59	1685.48
433.80	1771.49
434.00	1847.27
434.21	1716.20
434.41	1640.42
434.62	1867.75
434.82	1697.77
435.03	1716.20
435.23	1705.96
435.44	1660.90
435.64	1791.97
435.85	1746.92
436.06	1794.02
436.26	1779.68
436.47	1667.05
436.67	1693.67
436.88	1669.09
437.08	1798.12
437.29	1781.73
437.49	1751.01
437.70	1757.16
437.90	1728.49
438.11	1863.65
438.31	1712.10
438.52	1886.18
438.72	1851.36
438.93	1964.00
439.13	1796.07
439.34	1771.49
439.54	1880.04
439.75	1789.92
439.95	1785.83
440.16	1759.21
440.36	1775.59
440.57	1779.68
440.77	1775.59
440.98	1681.38
441.18	1708.01
441.39	1755.11
441.59	1615.85
441.80	1861.60
442.00	1701.86
442.21	1808.36
442.41	1673.19
442.62	1744.87
442.82	1726.44
443.02	1726.44
443.23	1712.10
443.43	1808.36
443.64	1834.98
443.84	1587.18
444.05	1841.12
444.25	1759.21
444.46	1718.25
444.66	1626.09
444.87	1791.97
445.07	1638.38
445.28	1744.87
445.48	1806.31
445.69	1812.45
445.89	1877.99
446.09	1837.03
446.30	2105.31
446.50	2645.98
446.71	3626.95
446.91	4280.25
447.12	4636.60
447.32	4843.45
447.53	4310.97
447.73	3887.04
447.93	3608.52
448.14	3207.12
448.34	3225.55
448.55	2854.87
448.75	2691.03
448.96	2678.74
449.16	2365.40
449.36	2260.96
449.57	2031.58
449.77	1923.04
449.98	1787.88
450.18	1816.55
450.39	1929.19
450.59	1830.88
450.79	1697.77
451.00	1689.57
451.20	1843.17
451.41	1855.46
451.61	1791.97
451.81	1693.67
452.02	1705.96
452.22	1763.30
452.43	1681.38
452.63	1675.24
