SpectraSuite Data File
++++++++++++++++++++++++++++++++++++
Date: Mon Jun 06 17:26:37 CEST 2016
User: root
Dark Spectrum Present: No
Reference Spectrum Present: No
Number of Sampled Component Spectra: 1
Spectrometers: USB4C02835
Integration Time (usec): 100000 (USB4C02835)
Spectra Averaged: 1 (USB4C02835)
Boxcar Smoothing: 0 (USB4C02835)
Correct for Electrical Dark: No (USB4C02835)
Strobe/Lamp Enabled: No (USB4C02835)
Correct for Detector Non-linearity: No (USB4C02835)
Correct for Stray Light: No (USB4C02835)
Number of Pixels in Processed Spectrum: 3648
>>>>>Begin Processed Spectral Data<<<<<
177.47	1503.21
177.69	1503.21
177.91	1503.21
178.13	1476.59
178.36	1464.30
178.58	1679.33
178.80	1724.39
179.02	1609.70
179.24	1720.29
179.46	1708.01
179.68	1783.78
179.90	1632.23
180.13	1714.15
180.35	1701.86
180.57	1738.73
180.79	1886.18
181.01	1728.49
181.23	1798.12
181.45	1716.20
181.67	1722.34
181.90	1738.73
182.12	1695.72
182.34	1613.80
182.56	1808.36
182.78	1703.91
183.00	1652.71
183.22	1695.72
183.44	1607.66
183.66	1900.52
183.89	1808.36
184.11	1722.34
184.33	1720.29
184.55	1763.30
184.77	1742.82
184.99	1705.96
185.21	1675.24
185.43	1824.74
185.65	1685.48
185.87	1638.38
186.10	1906.66
186.32	1898.47
186.54	1730.53
186.76	1644.52
186.98	1728.49
187.20	1691.62
187.42	1757.16
187.64	1738.73
187.86	1738.73
188.08	1755.11
188.30	1689.57
188.52	1779.68
188.75	1763.30
188.97	1777.64
189.19	1665.00
189.41	1697.77
189.63	1755.11
189.85	1718.25
190.07	1634.28
190.29	1578.98
190.51	1720.29
190.73	1691.62
190.95	1845.22
191.17	1730.53
191.39	1699.81
191.61	1667.05
191.84	1732.58
192.06	1763.30
192.28	1611.75
192.50	1966.05
192.72	1669.09
192.94	1744.87
193.16	1822.69
193.38	1757.16
193.60	1650.66
193.82	1675.24
194.04	1794.02
194.26	1738.73
194.48	1751.01
194.70	1681.38
194.92	1726.44
195.14	1755.11
195.36	1656.81
195.58	1783.78
195.80	1662.95
196.02	1570.79
196.24	1736.68
196.46	1751.01
196.69	1648.61
196.91	1974.24
197.13	1710.05
197.35	1697.77
197.57	1777.64
197.79	1703.91
198.01	1736.68
198.23	1779.68
198.45	1724.39
198.67	1667.05
198.89	1712.10
199.11	1736.68
199.33	1699.81
199.55	1570.79
199.77	1722.34
199.99	1806.31
200.21	1638.38
200.43	1699.81
200.65	1732.58
200.87	1613.80
201.09	1654.76
201.31	1689.57
201.53	1718.25
201.75	1736.68
201.97	1791.97
202.19	1685.48
202.41	1767.40
202.63	1939.43
202.85	1718.25
203.07	1687.53
203.29	1646.57
203.51	1593.32
203.73	1599.46
203.95	1781.73
204.17	1740.77
204.39	1685.48
204.61	1691.62
204.83	1834.98
205.05	1742.82
205.27	1755.11
205.49	1882.08
205.71	1734.63
205.93	1599.46
206.15	1714.15
206.37	1746.92
206.59	1763.30
206.81	1626.09
207.03	1656.81
207.25	1677.29
207.47	1761.25
207.69	1695.72
207.91	1785.83
208.13	1699.81
208.34	1732.58
208.56	1640.42
208.78	1748.97
209.00	1740.77
209.22	1714.15
209.44	1679.33
209.66	1705.96
209.88	1683.43
210.10	1689.57
210.32	1794.02
210.54	1814.50
210.76	1646.57
210.98	1781.73
211.20	1650.66
211.42	1656.81
211.64	1830.88
211.86	1773.54
212.08	1773.54
212.30	1730.53
212.52	1726.44
212.74	1703.91
212.96	1665.00
213.17	1761.25
213.39	1744.87
213.61	1765.35
213.83	1697.77
214.05	1705.96
214.27	1693.67
214.49	1667.05
214.71	1607.66
214.93	1765.35
215.15	1724.39
215.37	1763.30
215.59	1648.61
215.81	1683.43
216.03	1820.64
216.24	1697.77
216.46	1685.48
216.68	1794.02
216.90	1669.09
217.12	1781.73
217.34	1669.09
217.56	1734.63
217.78	1775.59
218.00	1773.54
218.22	1724.39
218.44	1714.15
218.66	1837.03
218.87	1761.25
219.09	1810.40
219.31	1759.21
219.53	1669.09
219.75	1783.78
219.97	1699.81
220.19	1742.82
220.41	1738.73
220.63	1798.12
220.85	1693.67
221.06	1730.53
221.28	1779.68
221.50	1763.30
221.72	1726.44
221.94	1742.82
222.16	1708.01
222.38	1812.45
222.60	1701.86
222.82	1628.14
223.03	1767.40
223.25	1617.90
223.47	1744.87
223.69	1828.84
223.91	1816.55
224.13	1636.33
224.35	1662.95
224.57	1787.88
224.78	1800.16
225.00	1593.32
225.22	1699.81
225.44	1652.71
225.66	1763.30
225.88	1722.34
226.10	1757.16
226.32	1779.68
226.53	1746.92
226.75	1693.67
226.97	1699.81
227.19	1738.73
227.41	1712.10
227.63	1673.19
227.85	1675.24
228.06	1738.73
228.28	1703.91
228.50	1763.30
228.72	1662.95
228.94	1722.34
229.16	1677.29
229.37	1640.42
229.59	1726.44
229.81	1820.64
230.03	1658.85
230.25	1660.90
230.47	1740.77
230.69	1695.72
230.90	1742.82
231.12	1611.75
231.34	1744.87
231.56	1734.63
231.78	1609.70
232.00	1685.48
232.21	1726.44
232.43	1751.01
232.65	1626.09
232.87	1748.97
233.09	1585.13
233.30	1695.72
233.52	1771.49
233.74	1695.72
233.96	1640.42
234.18	1724.39
234.40	1722.34
234.61	1822.69
234.83	1619.94
235.05	1681.38
235.27	1800.16
235.49	1791.97
235.70	1712.10
235.92	1763.30
236.14	1654.76
236.36	1798.12
236.58	1654.76
236.79	1779.68
237.01	1697.77
237.23	1665.00
237.45	1751.01
237.67	1683.43
237.88	1761.25
238.10	1804.26
238.32	1648.61
238.54	1662.95
238.76	1718.25
238.97	1718.25
239.19	1687.53
239.41	1693.67
239.63	1834.98
239.85	1732.58
240.06	1710.05
240.28	1656.81
240.50	1814.50
240.72	1734.63
240.93	1634.28
241.15	1777.64
241.37	1648.61
241.59	1771.49
241.81	1632.23
242.02	1693.67
242.24	1724.39
242.46	1753.06
242.68	1718.25
242.89	1755.11
243.11	1695.72
243.33	1763.30
243.55	1759.21
243.76	1724.39
243.98	1669.09
244.20	1746.92
244.42	1685.48
244.64	1665.00
244.85	1691.62
245.07	1624.04
245.29	1716.20
245.51	1699.81
245.72	1789.92
245.94	1834.98
246.16	1703.91
246.38	1765.35
246.59	1638.38
246.81	1572.84
247.03	1705.96
247.24	1591.27
247.46	1644.52
247.68	1685.48
247.90	1638.38
248.11	1710.05
248.33	1843.17
248.55	1675.24
248.77	1771.49
248.98	1757.16
249.20	1841.12
249.42	1738.73
249.64	1859.56
249.85	1716.20
250.07	1742.82
250.29	1746.92
250.50	1718.25
250.72	1660.90
250.94	1736.68
251.16	1882.08
251.37	1806.31
251.59	1736.68
251.81	1796.07
252.02	1830.88
252.24	1742.82
252.46	1826.79
252.68	1689.57
252.89	1677.29
253.11	1607.66
253.33	1771.49
253.54	1726.44
253.76	1685.48
253.98	1646.57
254.20	1734.63
254.41	1644.52
254.63	1697.77
254.85	1613.80
255.06	1708.01
255.28	1755.11
255.50	1675.24
255.71	1714.15
255.93	1683.43
256.15	1728.49
256.36	1763.30
256.58	1714.15
256.80	1665.00
257.02	1671.14
257.23	1753.06
257.45	1728.49
257.67	1798.12
257.88	1675.24
258.10	1806.31
258.32	1730.53
258.53	1697.77
258.75	1859.56
258.97	1732.58
259.18	1728.49
259.40	1730.53
259.62	1800.16
259.83	1822.69
260.05	1800.16
260.27	2021.35
260.48	1791.97
260.70	1605.61
260.92	1712.10
261.13	1691.62
261.35	1628.14
261.57	1757.16
261.78	1603.56
262.00	1767.40
262.22	1742.82
262.43	1708.01
262.65	1781.73
262.86	1617.90
263.08	1851.36
263.30	1724.39
263.51	1648.61
263.73	1673.19
263.95	1746.92
264.16	1671.14
264.38	1703.91
264.60	1710.05
264.81	1681.38
265.03	1738.73
265.25	1775.59
265.46	1705.96
265.68	1824.74
265.89	1773.54
266.11	1632.23
266.33	1759.21
266.54	1734.63
266.76	1716.20
266.98	1820.64
267.19	1828.84
267.41	1732.58
267.62	1722.34
267.84	1662.95
268.06	1746.92
268.27	1734.63
268.49	1765.35
268.70	1771.49
268.92	1785.83
269.14	1681.38
269.35	1599.46
269.57	1695.72
269.79	1802.21
270.00	1656.81
270.22	1732.58
270.43	1708.01
270.65	1619.94
270.87	1779.68
271.08	1722.34
271.30	1763.30
271.51	1742.82
271.73	1734.63
271.95	1736.68
272.16	1728.49
272.38	1738.73
272.59	1724.39
272.81	1728.49
273.02	1683.43
273.24	1771.49
273.46	1855.46
273.67	1630.18
273.89	1658.85
274.10	1710.05
274.32	1755.11
274.54	1722.34
274.75	1695.72
274.97	1742.82
275.18	1744.87
275.40	1720.29
275.61	1744.87
275.83	1751.01
276.05	1677.29
276.26	1769.44
276.48	1720.29
276.69	1689.57
276.91	1683.43
277.12	1796.07
277.34	1775.59
277.55	1773.54
277.77	1708.01
277.99	1677.29
278.20	1685.48
278.42	1689.57
278.63	1718.25
278.85	1665.00
279.06	1574.89
279.28	1705.96
279.49	1771.49
279.71	1734.63
279.93	1683.43
280.14	1746.92
280.36	1722.34
280.57	1820.64
280.79	1763.30
281.00	1755.11
281.22	1669.09
281.43	1755.11
281.65	1540.07
281.86	1693.67
282.08	1767.40
282.29	1832.93
282.51	1621.99
282.73	1650.66
282.94	1708.01
283.16	1779.68
283.37	1791.97
283.59	1746.92
283.80	1769.44
284.02	1689.57
284.23	1703.91
284.45	1703.91
284.66	1656.81
284.88	1710.05
285.09	1705.96
285.31	1744.87
285.52	1738.73
285.74	1533.93
285.95	1769.44
286.17	1748.97
286.38	1748.97
286.60	1634.28
286.81	1683.43
287.03	1683.43
287.24	1679.33
287.46	1748.97
287.67	1701.86
287.89	1814.50
288.10	1757.16
288.32	1681.38
288.53	1773.54
288.75	1691.62
288.96	1763.30
289.18	1626.09
289.39	1724.39
289.61	1769.44
289.82	1796.07
290.04	1785.83
290.25	1644.52
290.47	1742.82
290.68	1726.44
290.90	1716.20
291.11	1654.76
291.33	1810.40
291.54	1677.29
291.76	1687.53
291.97	1716.20
292.18	1726.44
292.40	1712.10
292.61	1695.72
292.83	1794.02
293.04	1734.63
293.26	1794.02
293.47	1791.97
293.69	1652.71
293.90	1687.53
294.12	1802.21
294.33	1720.29
294.55	1697.77
294.76	1812.45
294.97	1732.58
295.19	1808.36
295.40	1693.67
295.62	1740.77
295.83	1716.20
296.05	1660.90
296.26	1820.64
296.48	1677.29
296.69	1689.57
296.90	1714.15
297.12	1738.73
297.33	1705.96
297.55	1828.84
297.76	1703.91
297.98	1767.40
298.19	1769.44
298.41	1652.71
298.62	1654.76
298.83	1755.11
299.05	1687.53
299.26	1665.00
299.48	1658.85
299.69	1744.87
299.90	1646.57
300.12	1640.42
300.33	1767.40
300.55	1712.10
300.76	1802.21
300.98	1646.57
301.19	1732.58
301.40	1615.85
301.62	1650.66
301.83	1734.63
302.05	1673.19
302.26	1714.15
302.47	1654.76
302.69	1685.48
302.90	1716.20
303.12	1607.66
303.33	1763.30
303.54	1837.03
303.76	1683.43
303.97	1697.77
304.19	1789.92
304.40	1591.27
304.61	1687.53
304.83	1810.40
305.04	1830.88
305.26	1728.49
305.47	1634.28
305.68	1720.29
305.90	1621.99
306.11	1812.45
306.33	1619.94
306.54	1710.05
306.75	1656.81
306.97	1648.61
307.18	1671.14
307.39	1689.57
307.61	1757.16
307.82	1730.53
308.04	1724.39
308.25	1697.77
308.46	1730.53
308.68	1802.21
308.89	1742.82
309.10	1710.05
309.32	1718.25
309.53	1716.20
309.74	1636.33
309.96	1662.95
310.17	1771.49
310.39	1689.57
310.60	1722.34
310.81	1681.38
311.03	1632.23
311.24	1812.45
311.45	1765.35
311.67	1882.08
311.88	1720.29
312.09	1712.10
312.31	1652.71
312.52	1718.25
312.73	1787.88
312.95	1667.05
313.16	1720.29
313.37	1789.92
313.59	1748.97
313.80	1783.78
314.01	1851.36
314.23	1699.81
314.44	1695.72
314.65	1675.24
314.87	1640.42
315.08	1701.86
315.29	1679.33
315.51	1619.94
315.72	1699.81
315.93	1806.31
316.15	1769.44
316.36	1652.71
316.57	1691.62
316.79	1738.73
317.00	1726.44
317.21	1748.97
317.43	1738.73
317.64	1669.09
317.85	1687.53
318.07	1714.15
318.28	1728.49
318.49	1828.84
318.70	1923.04
318.92	1826.79
319.13	1834.98
319.34	1843.17
319.56	1800.16
319.77	1791.97
319.98	1781.73
320.20	1746.92
320.41	1806.31
320.62	1812.45
320.83	1748.97
321.05	1820.64
321.26	1798.12
321.47	1693.67
321.69	1843.17
321.90	1638.38
322.11	1775.59
322.32	1708.01
322.54	1791.97
322.75	1624.04
322.96	1834.98
323.18	1679.33
323.39	1560.55
323.60	1640.42
323.81	1806.31
324.03	1714.15
324.24	1681.38
324.45	1705.96
324.66	1720.29
324.88	1759.21
325.09	1771.49
325.30	1800.16
325.52	1671.14
325.73	1710.05
325.94	1693.67
326.15	1693.67
326.37	1716.20
326.58	1763.30
326.79	1761.25
327.00	1603.56
327.22	1699.81
327.43	1677.29
327.64	1677.29
327.85	1746.92
328.07	1787.88
328.28	1849.32
328.49	1701.86
328.70	1689.57
328.92	1691.62
329.13	1681.38
329.34	1701.86
329.55	1826.79
329.76	1718.25
329.98	1665.00
330.19	1791.97
330.40	1742.82
330.61	1746.92
330.83	1791.97
331.04	1646.57
331.25	1734.63
331.46	1656.81
331.68	1691.62
331.89	1708.01
332.10	1689.57
332.31	1656.81
332.52	1679.33
332.74	1789.92
332.95	1650.66
333.16	1693.67
333.37	1755.11
333.58	1695.72
333.80	1730.53
334.01	1658.85
334.22	1640.42
334.43	1732.58
334.64	1753.06
334.86	1646.57
335.07	1744.87
335.28	1820.64
335.49	1699.81
335.70	1728.49
335.92	1824.74
336.13	1773.54
336.34	1730.53
336.55	1769.44
336.76	1730.53
336.98	1609.70
337.19	1701.86
337.40	1834.98
337.61	1875.94
337.82	1628.14
338.04	1861.60
338.25	1540.07
338.46	1728.49
338.67	1695.72
338.88	1699.81
339.09	1615.85
339.31	1609.70
339.52	1630.18
339.73	1757.16
339.94	1675.24
340.15	1806.31
340.36	1628.14
340.58	1705.96
340.79	1619.94
341.00	1730.53
341.21	1667.05
341.42	1869.80
341.63	1644.52
341.85	1771.49
342.06	1751.01
342.27	1619.94
342.48	1818.60
342.69	1601.51
342.90	1740.77
343.12	1705.96
343.33	1624.04
343.54	1775.59
343.75	1826.79
343.96	1716.20
344.17	1748.97
344.38	1681.38
344.60	1724.39
344.81	1660.90
345.02	1777.64
345.23	1775.59
345.44	1744.87
345.65	1765.35
345.86	1679.33
346.07	1648.61
346.29	1712.10
346.50	1714.15
346.71	1736.68
346.92	1798.12
347.13	1824.74
347.34	1636.33
347.55	1691.62
347.76	1701.86
347.98	1681.38
348.19	1634.28
348.40	1787.88
348.61	1662.95
348.82	1812.45
349.03	1769.44
349.24	1722.34
349.45	1812.45
349.66	1652.71
349.88	1757.16
350.09	1726.44
350.30	1777.64
350.51	1820.64
350.72	1685.48
350.93	1681.38
351.14	1701.86
351.35	1775.59
351.56	1722.34
351.77	1724.39
351.99	1734.63
352.20	1808.36
352.41	1791.97
352.62	1634.28
352.83	1695.72
353.04	1783.78
353.25	1681.38
353.46	1783.78
353.67	1832.93
353.88	1658.85
354.09	1669.09
354.30	1714.15
354.52	1783.78
354.73	1683.43
354.94	1730.53
355.15	1769.44
355.36	1808.36
355.57	1791.97
355.78	1722.34
355.99	1595.37
356.20	1687.53
356.41	1841.12
356.62	1753.06
356.83	1738.73
357.04	1796.07
357.25	1642.47
357.46	1656.81
357.68	1683.43
357.89	1636.33
358.10	1730.53
358.31	1787.88
358.52	1617.90
358.73	1646.57
358.94	1705.96
359.15	1671.14
359.36	1796.07
359.57	1736.68
359.78	1701.86
359.99	1708.01
360.20	1644.52
360.41	1699.81
360.62	1763.30
360.83	1779.68
361.04	1726.44
361.25	1720.29
361.46	1806.31
361.67	1667.05
361.88	1787.88
362.09	1789.92
362.30	1722.34
362.51	1652.71
362.72	1693.67
362.93	1669.09
363.14	1742.82
363.35	1708.01
363.56	1626.09
363.78	1798.12
363.99	1779.68
364.20	1689.57
364.41	1761.25
364.62	1722.34
364.83	1718.25
365.04	1695.72
365.25	1685.48
365.46	1832.93
365.67	1669.09
365.88	1669.09
366.09	1660.90
366.30	1716.20
366.51	1701.86
366.72	1652.71
366.93	1712.10
367.14	1701.86
367.35	1746.92
367.56	1685.48
367.77	1810.40
367.98	1671.14
368.18	1705.96
368.39	1650.66
368.60	1634.28
368.81	1718.25
369.02	1701.86
369.23	1746.92
369.44	1677.29
369.65	1693.67
369.86	1748.97
370.07	1742.82
370.28	1730.53
370.49	1677.29
370.70	1753.06
370.91	1705.96
371.12	1671.14
371.33	1822.69
371.54	1617.90
371.75	1826.79
371.96	1609.70
372.17	1710.05
372.38	1669.09
372.59	1673.19
372.80	1689.57
373.01	1728.49
373.22	1646.57
373.43	1683.43
373.64	1691.62
373.85	1777.64
374.06	1734.63
374.26	1748.97
374.47	1740.77
374.68	1794.02
374.89	1687.53
375.10	1759.21
375.31	1697.77
375.52	1771.49
375.73	1718.25
375.94	1638.38
376.15	1769.44
376.36	1628.14
376.57	1722.34
376.78	1779.68
376.99	1673.19
377.20	1808.36
377.40	1675.24
377.61	1892.32
377.82	1703.91
378.03	1800.16
378.24	1712.10
378.45	1703.91
378.66	1699.81
378.87	1626.09
379.08	1677.29
379.29	1736.68
379.50	1777.64
379.71	1751.01
379.91	1759.21
380.12	1753.06
380.33	1677.29
380.54	1716.20
380.75	1718.25
380.96	1685.48
381.17	1798.12
381.38	1687.53
381.59	1767.40
381.80	1791.97
382.00	1818.60
382.21	1724.39
382.42	1755.11
382.63	1877.99
382.84	1740.77
383.05	1806.31
383.26	1697.77
383.47	1742.82
383.68	1775.59
383.88	1798.12
384.09	1691.62
384.30	1834.98
384.51	1746.92
384.72	1712.10
384.93	1724.39
385.14	1716.20
385.35	1767.40
385.55	1693.67
385.76	1781.73
385.97	1730.53
386.18	1730.53
386.39	1681.38
386.60	1671.14
386.81	1673.19
387.02	1681.38
387.22	1734.63
387.43	1775.59
387.64	1748.97
387.85	1806.31
388.06	2203.61
388.27	4315.07
388.48	6655.90
388.68	8269.70
388.89	9774.95
389.10	9756.52
389.31	8519.55
389.52	7597.96
389.73	6707.10
389.93	6342.56
390.14	5988.26
390.35	5302.19
390.56	4620.22
390.77	3887.04
390.98	3098.58
391.18	2494.43
391.39	2127.84
391.60	1902.56
391.81	1816.55
392.02	1701.86
392.23	1824.74
392.43	1755.11
392.64	1863.65
392.85	1734.63
393.06	1832.93
393.27	1642.47
393.47	1683.43
393.68	1714.15
393.89	1708.01
394.10	1787.88
394.31	1693.67
394.52	1683.43
394.72	1751.01
394.93	1775.59
395.14	1560.55
395.35	1744.87
395.56	1621.99
395.76	1740.77
395.97	1882.08
396.18	1832.93
396.39	1810.40
396.60	2033.63
396.80	1966.05
397.01	1935.33
397.22	1771.49
397.43	1918.95
397.64	1732.58
397.84	1771.49
398.05	1916.90
398.26	1763.30
398.47	1845.22
398.67	1849.32
398.88	1779.68
399.09	1816.55
399.30	1669.09
399.51	1742.82
399.71	1654.76
399.92	1822.69
400.13	1742.82
400.34	1744.87
400.54	1726.44
400.75	1828.84
400.96	1732.58
401.17	1849.32
401.37	1785.83
401.58	1763.30
401.79	1691.62
402.00	1914.85
402.21	2009.06
402.41	1943.52
402.62	1990.63
402.83	2017.25
403.04	1972.19
403.24	2111.46
403.45	1869.80
403.66	1970.15
403.87	1959.91
404.07	1894.37
404.28	1875.94
404.49	1798.12
404.70	1818.60
404.90	1726.44
405.11	1755.11
405.32	1683.43
405.52	1746.92
405.73	1650.66
405.94	1683.43
406.15	1728.49
406.35	1859.56
406.56	1791.97
406.77	1662.95
406.98	1683.43
407.18	1665.00
407.39	1726.44
407.60	1748.97
407.80	1759.21
408.01	1716.20
408.22	1712.10
408.43	1671.14
408.63	1791.97
408.84	1689.57
409.05	1847.27
409.25	1742.82
409.46	1619.94
409.67	1677.29
409.88	1660.90
410.08	1759.21
410.29	1665.00
410.50	1734.63
410.70	1787.88
410.91	1648.61
411.12	1763.30
411.32	1724.39
411.53	1705.96
411.74	1816.55
411.95	1779.68
412.15	1837.03
412.36	1812.45
412.57	1781.73
412.77	1755.11
412.98	1732.58
413.19	1701.86
413.39	1779.68
413.60	1849.32
413.81	1832.93
414.01	1693.67
414.22	1716.20
414.43	1726.44
414.63	1652.71
414.84	1781.73
415.05	1677.29
415.25	1628.14
415.46	1748.97
415.67	1636.33
415.87	1679.33
416.08	1748.97
416.29	1679.33
416.49	1705.96
416.70	1665.00
416.91	1656.81
417.11	1724.39
417.32	1828.84
417.53	1722.34
417.73	1759.21
417.94	1755.11
418.15	1652.71
418.35	1748.97
418.56	1732.58
418.77	1814.50
418.97	1767.40
419.18	1734.63
419.38	1634.28
419.59	1710.05
419.80	1832.93
420.00	1753.06
420.21	1603.56
420.42	1800.16
420.62	1767.40
420.83	1697.77
421.04	1783.78
421.24	1621.99
421.45	1761.25
421.65	1714.15
421.86	1742.82
422.07	1785.83
422.27	1767.40
422.48	1808.36
422.69	1667.05
422.89	1769.44
423.10	1710.05
423.30	1691.62
423.51	1740.77
423.72	1748.97
423.92	1755.11
424.13	1636.33
424.33	1652.71
424.54	1783.78
424.75	1722.34
424.95	1775.59
425.16	1681.38
425.36	1767.40
425.57	1787.88
425.78	1710.05
425.98	1771.49
426.19	1677.29
426.39	1667.05
426.60	1789.92
426.81	1849.32
427.01	1783.78
427.22	1587.18
427.42	1615.85
427.63	1740.77
427.83	1724.39
428.04	1855.46
428.25	1710.05
428.45	1767.40
428.66	1773.54
428.86	1703.91
429.07	1744.87
429.28	1683.43
429.48	1630.18
429.69	1675.24
429.89	1746.92
430.10	1656.81
430.30	1703.91
430.51	1812.45
430.71	1695.72
430.92	1722.34
431.13	1753.06
431.33	1726.44
431.54	1720.29
431.74	1869.80
431.95	1820.64
432.15	1667.05
432.36	1638.38
432.56	1757.16
432.77	1777.64
432.98	1834.98
433.18	1681.38
433.39	1718.25
433.59	1693.67
433.80	1841.12
434.00	1822.69
434.21	1767.40
434.41	1714.15
434.62	1888.23
434.82	1710.05
435.03	1607.66
435.23	1755.11
435.44	1660.90
435.64	1722.34
435.85	1785.83
436.06	1757.16
436.26	1757.16
436.47	1728.49
436.67	1665.00
436.88	1701.86
437.08	1796.07
437.29	1791.97
437.49	1783.78
437.70	1730.53
437.90	1763.30
438.11	1896.42
438.31	1816.55
438.52	1886.18
438.72	1867.75
438.93	1914.85
439.13	1777.64
439.34	1798.12
439.54	1642.47
439.75	1744.87
439.95	1769.44
440.16	1699.81
440.36	1761.25
440.57	1744.87
440.77	1861.60
440.98	1748.97
441.18	1800.16
441.39	1705.96
441.59	1642.47
441.80	1845.22
442.00	1726.44
442.21	1744.87
442.41	1683.43
442.62	1826.79
442.82	1640.42
443.02	1728.49
443.23	1765.35
443.43	1759.21
443.64	1851.36
443.84	1794.02
444.05	1867.75
444.25	1716.20
444.46	1695.72
444.66	1791.97
444.87	1845.22
445.07	1650.66
445.28	1738.73
445.48	1847.27
445.69	1841.12
445.89	1949.67
446.09	1757.16
446.30	2103.26
446.50	2592.73
446.71	3698.63
446.91	4265.92
447.12	4790.20
447.32	4769.72
447.53	4419.52
447.73	3942.34
447.93	3604.42
448.14	3276.75
448.34	3223.50
448.55	2985.94
448.75	2854.87
448.96	2772.95
449.16	2471.90
449.36	2260.96
449.57	2045.92
449.77	1908.71
449.98	1722.34
450.18	1808.36
450.39	1884.13
450.59	1775.59
450.79	1726.44
451.00	1740.77
451.20	1746.92
451.41	1714.15
451.61	1791.97
451.81	1730.53
452.02	1716.20
452.22	1722.34
452.43	1748.97
452.63	1703.91
