SpectraSuite Data File
++++++++++++++++++++++++++++++++++++
Date: Mon Jun 06 17:09:37 CEST 2016
User: root
Dark Spectrum Present: No
Reference Spectrum Present: No
Number of Sampled Component Spectra: 1
Spectrometers: USB4C02835
Integration Time (usec): 100000 (USB4C02835)
Spectra Averaged: 1 (USB4C02835)
Boxcar Smoothing: 0 (USB4C02835)
Correct for Electrical Dark: No (USB4C02835)
Strobe/Lamp Enabled: No (USB4C02835)
Correct for Detector Non-linearity: No (USB4C02835)
Correct for Stray Light: No (USB4C02835)
Number of Pixels in Processed Spectrum: 3648
>>>>>Begin Processed Spectral Data<<<<<
177.47	1456.11
177.69	1456.11
177.91	1456.11
178.13	1460.20
178.36	1501.16
178.58	1671.14
178.80	1728.49
179.02	1648.61
179.24	1628.14
179.46	1724.39
179.68	1771.49
179.90	1675.24
180.13	1718.25
180.35	1724.39
180.57	1683.43
180.79	1697.77
181.01	1730.53
181.23	1804.26
181.45	1701.86
181.67	1726.44
181.90	1773.54
182.12	1738.73
182.34	1587.18
182.56	1757.16
182.78	1730.53
183.00	1734.63
183.22	1714.15
183.44	1619.94
183.66	1830.88
183.89	1818.60
184.11	1753.06
184.33	1691.62
184.55	1748.97
184.77	1783.78
184.99	1787.88
185.21	1648.61
185.43	1763.30
185.65	1714.15
185.87	1746.92
186.10	1798.12
186.32	1785.83
186.54	1755.11
186.76	1775.59
186.98	1845.22
187.20	1714.15
187.42	1710.05
187.64	1695.72
187.86	1765.35
188.08	1767.40
188.30	1632.23
188.52	1730.53
188.75	1759.21
188.97	1800.16
189.19	1697.77
189.41	1699.81
189.63	1738.73
189.85	1773.54
190.07	1593.32
190.29	1730.53
190.51	1777.64
190.73	1667.05
190.95	1845.22
191.17	1685.48
191.39	1673.19
191.61	1708.01
191.84	1650.66
192.06	1734.63
192.28	1619.94
192.50	1843.17
192.72	1705.96
192.94	1734.63
193.16	1814.50
193.38	1710.05
193.60	1662.95
193.82	1695.72
194.04	1740.77
194.26	1665.00
194.48	1726.44
194.70	1671.14
194.92	1699.81
195.14	1734.63
195.36	1660.90
195.58	1746.92
195.80	1683.43
196.02	1695.72
196.24	1746.92
196.46	1718.25
196.69	1667.05
196.91	1882.08
197.13	1753.06
197.35	1628.14
197.57	1742.82
197.79	1753.06
198.01	1763.30
198.23	1724.39
198.45	1716.20
198.67	1607.66
198.89	1761.25
199.11	1740.77
199.33	1693.67
199.55	1576.94
199.77	1716.20
199.99	1695.72
200.21	1693.67
200.43	1619.94
200.65	1617.90
200.87	1587.18
201.09	1755.11
201.31	1644.52
201.53	1753.06
201.75	1728.49
201.97	1767.40
202.19	1718.25
202.41	1730.53
202.63	1837.03
202.85	1726.44
203.07	1748.97
203.29	1693.67
203.51	1648.61
203.73	1701.86
203.95	1886.18
204.17	1748.97
204.39	1738.73
204.61	1738.73
204.83	1722.34
205.05	1697.77
205.27	1734.63
205.49	1839.08
205.71	1712.10
205.93	1574.89
206.15	1679.33
206.37	1687.53
206.59	1751.01
206.81	1646.57
207.03	1640.42
207.25	1617.90
207.47	1757.16
207.69	1656.81
207.91	1785.83
208.13	1777.64
208.34	1662.95
208.56	1617.90
208.78	1779.68
209.00	1695.72
209.22	1701.86
209.44	1746.92
209.66	1632.23
209.88	1755.11
210.10	1646.57
210.32	1722.34
210.54	1783.78
210.76	1699.81
210.98	1812.45
211.20	1611.75
211.42	1710.05
211.64	1751.01
211.86	1701.86
212.08	1753.06
212.30	1724.39
212.52	1720.29
212.74	1716.20
212.96	1695.72
213.17	1710.05
213.39	1763.30
213.61	1781.73
213.83	1693.67
214.05	1652.71
214.27	1753.06
214.49	1660.90
214.71	1718.25
214.93	1785.83
215.15	1718.25
215.37	1775.59
215.59	1619.94
215.81	1693.67
216.03	1806.31
216.24	1748.97
216.46	1638.38
216.68	1724.39
216.90	1787.88
217.12	1779.68
217.34	1716.20
217.56	1705.96
217.78	1791.97
218.00	1734.63
218.22	1705.96
218.44	1708.01
218.66	1783.78
218.87	1779.68
219.09	1728.49
219.31	1732.58
219.53	1771.49
219.75	1665.00
219.97	1742.82
220.19	1710.05
220.41	1634.28
220.63	1724.39
220.85	1751.01
221.06	1689.57
221.28	1798.12
221.50	1785.83
221.72	1742.82
221.94	1765.35
222.16	1718.25
222.38	1636.33
222.60	1681.38
222.82	1648.61
223.03	1714.15
223.25	1675.24
223.47	1787.88
223.69	1787.88
223.91	1773.54
224.13	1712.10
224.35	1648.61
224.57	1791.97
224.78	1730.53
225.00	1656.81
225.22	1693.67
225.44	1710.05
225.66	1742.82
225.88	1697.77
226.10	1763.30
226.32	1703.91
226.53	1765.35
226.75	1705.96
226.97	1736.68
227.19	1710.05
227.41	1695.72
227.63	1648.61
227.85	1662.95
228.06	1720.29
228.28	1732.58
228.50	1843.17
228.72	1675.24
228.94	1701.86
229.16	1560.55
229.37	1718.25
229.59	1740.77
229.81	1785.83
230.03	1697.77
230.25	1675.24
230.47	1638.38
230.69	1705.96
230.90	1767.40
231.12	1667.05
231.34	1761.25
231.56	1759.21
231.78	1677.29
232.00	1740.77
232.21	1658.85
232.43	1677.29
232.65	1607.66
232.87	1699.81
233.09	1642.47
233.30	1652.71
233.52	1632.23
233.74	1624.04
233.96	1673.19
234.18	1667.05
234.40	1716.20
234.61	1828.84
234.83	1640.42
235.05	1587.18
235.27	1804.26
235.49	1804.26
235.70	1675.24
235.92	1808.36
236.14	1746.92
236.36	1929.19
236.58	1652.71
236.79	1714.15
237.01	1763.30
237.23	1712.10
237.45	1845.22
237.67	1652.71
237.88	1783.78
238.10	1763.30
238.32	1636.33
238.54	1683.43
238.76	1703.91
238.97	1656.81
239.19	1656.81
239.41	1765.35
239.63	1730.53
239.85	1662.95
240.06	1689.57
240.28	1718.25
240.50	1820.64
240.72	1761.25
240.93	1728.49
241.15	1798.12
241.37	1712.10
241.59	1828.84
241.81	1718.25
242.02	1621.99
242.24	1701.86
242.46	1791.97
242.68	1662.95
242.89	1679.33
243.11	1746.92
243.33	1714.15
243.55	1712.10
243.76	1718.25
243.98	1660.90
244.20	1689.57
244.42	1732.58
244.64	1751.01
244.85	1617.90
245.07	1634.28
245.29	1773.54
245.51	1691.62
245.72	1669.09
245.94	1767.40
246.16	1677.29
246.38	1761.25
246.59	1687.53
246.81	1693.67
247.03	1665.00
247.24	1599.46
247.46	1671.14
247.68	1771.49
247.90	1701.86
248.11	1648.61
248.33	1726.44
248.55	1687.53
248.77	1691.62
248.98	1804.26
249.20	1814.50
249.42	1796.07
249.64	1757.16
249.85	1763.30
250.07	1734.63
250.29	1730.53
250.50	1806.31
250.72	1685.48
250.94	1710.05
251.16	1812.45
251.37	1751.01
251.59	1740.77
251.81	1826.79
252.02	1830.88
252.24	1650.66
252.46	1812.45
252.68	1630.18
252.89	1679.33
253.11	1628.14
253.33	1779.68
253.54	1845.22
253.76	1638.38
253.98	1632.23
254.20	1662.95
254.41	1705.96
254.63	1578.98
254.85	1650.66
255.06	1665.00
255.28	1656.81
255.50	1714.15
255.71	1718.25
255.93	1615.85
256.15	1712.10
256.36	1718.25
256.58	1677.29
256.80	1726.44
257.02	1652.71
257.23	1732.58
257.45	1714.15
257.67	1744.87
257.88	1656.81
258.10	1730.53
258.32	1755.11
258.53	1722.34
258.75	1777.64
258.97	1638.38
259.18	1705.96
259.40	1693.67
259.62	1765.35
259.83	1832.93
260.05	1781.73
260.27	1992.67
260.48	1738.73
260.70	1634.28
260.92	1640.42
261.13	1675.24
261.35	1683.43
261.57	1789.92
261.78	1617.90
262.00	1632.23
262.22	1753.06
262.43	1665.00
262.65	1687.53
262.86	1763.30
263.08	1841.12
263.30	1724.39
263.51	1544.17
263.73	1681.38
263.95	1796.07
264.16	1630.18
264.38	1615.85
264.60	1658.85
264.81	1773.54
265.03	1863.65
265.25	1751.01
265.46	1689.57
265.68	1806.31
265.89	1718.25
266.11	1697.77
266.33	1763.30
266.54	1726.44
266.76	1777.64
266.98	1671.14
267.19	1761.25
267.41	1832.93
267.62	1681.38
267.84	1722.34
268.06	1767.40
268.27	1759.21
268.49	1851.36
268.70	1748.97
268.92	1662.95
269.14	1597.42
269.35	1636.33
269.57	1708.01
269.79	1744.87
270.00	1681.38
270.22	1849.32
270.43	1650.66
270.65	1558.50
270.87	1689.57
271.08	1732.58
271.30	1714.15
271.51	1697.77
271.73	1708.01
271.95	1730.53
272.16	1658.85
272.38	1771.49
272.59	1667.05
272.81	1718.25
273.02	1775.59
273.24	1703.91
273.46	1759.21
273.67	1667.05
273.89	1654.76
274.10	1689.57
274.32	1800.16
274.54	1740.77
274.75	1675.24
274.97	1693.67
275.18	1701.86
275.40	1648.61
275.61	1695.72
275.83	1687.53
276.05	1656.81
276.26	1703.91
276.48	1763.30
276.69	1677.29
276.91	1660.90
277.12	1773.54
277.34	1644.52
277.55	1753.06
277.77	1765.35
277.99	1681.38
278.20	1681.38
278.42	1626.09
278.63	1691.62
278.85	1626.09
279.06	1601.51
279.28	1751.01
279.49	1814.50
279.71	1718.25
279.93	1730.53
280.14	1675.24
280.36	1699.81
280.57	1757.16
280.79	1748.97
281.00	1656.81
281.22	1638.38
281.43	1730.53
281.65	1634.28
281.86	1648.61
282.08	1771.49
282.29	1771.49
282.51	1638.38
282.73	1669.09
282.94	1628.14
283.16	1732.58
283.37	1755.11
283.59	1724.39
283.80	1722.34
284.02	1703.91
284.23	1775.59
284.45	1669.09
284.66	1642.47
284.88	1685.48
285.09	1730.53
285.31	1755.11
285.52	1763.30
285.74	1605.61
285.95	1796.07
286.17	1732.58
286.38	1828.84
286.60	1720.29
286.81	1642.47
287.03	1695.72
287.24	1705.96
287.46	1767.40
287.67	1705.96
287.89	1808.36
288.10	1685.48
288.32	1691.62
288.53	1740.77
288.75	1718.25
288.96	1771.49
289.18	1640.42
289.39	1740.77
289.61	1759.21
289.82	1800.16
290.04	1771.49
290.25	1728.49
290.47	1701.86
290.68	1701.86
290.90	1742.82
291.11	1734.63
291.33	1679.33
291.54	1699.81
291.76	1693.67
291.97	1746.92
292.18	1822.69
292.40	1712.10
292.61	1619.94
292.83	1820.64
293.04	1789.92
293.26	1738.73
293.47	1679.33
293.69	1701.86
293.90	1724.39
294.12	1761.25
294.33	1705.96
294.55	1703.91
294.76	1783.78
294.97	1738.73
295.19	1859.56
295.40	1650.66
295.62	1632.23
295.83	1728.49
296.05	1648.61
296.26	1794.02
296.48	1714.15
296.69	1779.68
296.90	1712.10
297.12	1722.34
297.33	1787.88
297.55	1708.01
297.76	1763.30
297.98	1775.59
298.19	1689.57
298.41	1746.92
298.62	1665.00
298.83	1806.31
299.05	1677.29
299.26	1675.24
299.48	1665.00
299.69	1722.34
299.90	1720.29
300.12	1535.98
300.33	1740.77
300.55	1689.57
300.76	1767.40
300.98	1669.09
301.19	1697.77
301.40	1720.29
301.62	1701.86
301.83	1722.34
302.05	1738.73
302.26	1654.76
302.47	1683.43
302.69	1650.66
302.90	1783.78
303.12	1703.91
303.33	1777.64
303.54	1869.80
303.76	1673.19
303.97	1697.77
304.19	1804.26
304.40	1714.15
304.61	1740.77
304.83	1855.46
305.04	1748.97
305.26	1697.77
305.47	1759.21
305.68	1726.44
305.90	1683.43
306.11	1759.21
306.33	1650.66
306.54	1669.09
306.75	1652.71
306.97	1650.66
307.18	1654.76
307.39	1675.24
307.61	1648.61
307.82	1677.29
308.04	1744.87
308.25	1675.24
308.46	1701.86
308.68	1652.71
308.89	1712.10
309.10	1818.60
309.32	1724.39
309.53	1718.25
309.74	1771.49
309.96	1697.77
310.17	1837.03
310.39	1710.05
310.60	1695.72
310.81	1736.68
311.03	1566.70
311.24	1804.26
311.45	1722.34
311.67	1769.44
311.88	1712.10
312.09	1652.71
312.31	1699.81
312.52	1736.68
312.73	1677.29
312.95	1652.71
313.16	1693.67
313.37	1837.03
313.59	1751.01
313.80	1826.79
314.01	1853.41
314.23	1718.25
314.44	1619.94
314.65	1650.66
314.87	1652.71
315.08	1654.76
315.29	1634.28
315.51	1669.09
315.72	1656.81
315.93	1802.21
316.15	1767.40
316.36	1699.81
316.57	1708.01
316.79	1699.81
317.00	1642.47
317.21	1781.73
317.43	1720.29
317.64	1761.25
317.85	1705.96
318.07	1763.30
318.28	1765.35
318.49	1820.64
318.70	1890.28
318.92	1751.01
319.13	1845.22
319.34	1902.56
319.56	1763.30
319.77	1794.02
319.98	1779.68
320.20	1763.30
320.41	1701.86
320.62	1746.92
320.83	1665.00
321.05	1880.04
321.26	1787.88
321.47	1703.91
321.69	1740.77
321.90	1669.09
322.11	1673.19
322.32	1800.16
322.54	1820.64
322.75	1677.29
322.96	1818.60
323.18	1624.04
323.39	1617.90
323.60	1671.14
323.81	1720.29
324.03	1759.21
324.24	1679.33
324.45	1671.14
324.66	1683.43
324.88	1820.64
325.09	1855.46
325.30	1736.68
325.52	1693.67
325.73	1746.92
325.94	1724.39
326.15	1656.81
326.37	1677.29
326.58	1787.88
326.79	1787.88
327.00	1648.61
327.22	1769.44
327.43	1615.85
327.64	1591.27
327.85	1722.34
328.07	1744.87
328.28	1820.64
328.49	1683.43
328.70	1681.38
328.92	1742.82
329.13	1685.48
329.34	1775.59
329.55	1779.68
329.76	1759.21
329.98	1705.96
330.19	1763.30
330.40	1722.34
330.61	1708.01
330.83	1787.88
331.04	1660.90
331.25	1763.30
331.46	1781.73
331.68	1652.71
331.89	1789.92
332.10	1738.73
332.31	1603.56
332.52	1734.63
332.74	1759.21
332.95	1662.95
333.16	1705.96
333.37	1755.11
333.58	1658.85
333.80	1748.97
334.01	1697.77
334.22	1667.05
334.43	1626.09
334.64	1753.06
334.86	1617.90
335.07	1718.25
335.28	1832.93
335.49	1636.33
335.70	1724.39
335.92	1757.16
336.13	1816.55
336.34	1744.87
336.55	1722.34
336.76	1769.44
336.98	1611.75
337.19	1687.53
337.40	1761.25
337.61	1802.21
337.82	1658.85
338.04	1791.97
338.25	1593.32
338.46	1673.19
338.67	1697.77
338.88	1636.33
339.09	1648.61
339.31	1646.57
339.52	1695.72
339.73	1636.33
339.94	1820.64
340.15	1822.69
340.36	1767.40
340.58	1705.96
340.79	1683.43
341.00	1751.01
341.21	1675.24
341.42	1781.73
341.63	1652.71
341.85	1802.21
342.06	1755.11
342.27	1667.05
342.48	1783.78
342.69	1613.80
342.90	1765.35
343.12	1732.58
343.33	1609.70
343.54	1761.25
343.75	1753.06
343.96	1742.82
344.17	1718.25
344.38	1650.66
344.60	1601.51
344.81	1714.15
345.02	1638.38
345.23	1769.44
345.44	1748.97
345.65	1759.21
345.86	1695.72
346.07	1689.57
346.29	1650.66
346.50	1734.63
346.71	1691.62
346.92	1763.30
347.13	1734.63
347.34	1681.38
347.55	1705.96
347.76	1714.15
347.98	1613.80
348.19	1675.24
348.40	1744.87
348.61	1671.14
348.82	1812.45
349.03	1783.78
349.24	1658.85
349.45	1816.55
349.66	1574.89
349.88	1718.25
350.09	1683.43
350.30	1765.35
350.51	1802.21
350.72	1714.15
350.93	1783.78
351.14	1697.77
351.35	1708.01
351.56	1683.43
351.77	1714.15
351.99	1724.39
352.20	1794.02
352.41	1773.54
352.62	1615.85
352.83	1673.19
353.04	1722.34
353.25	1689.57
353.46	1769.44
353.67	1695.72
353.88	1648.61
354.09	1648.61
354.30	1673.19
354.52	1640.42
354.73	1691.62
354.94	1726.44
355.15	1697.77
355.36	1849.32
355.57	1697.77
355.78	1728.49
355.99	1648.61
356.20	1720.29
356.41	1734.63
356.62	1720.29
356.83	1708.01
357.04	1822.69
357.25	1601.51
357.46	1728.49
357.68	1609.70
357.89	1708.01
358.10	1644.52
358.31	1691.62
358.52	1763.30
358.73	1609.70
358.94	1691.62
359.15	1615.85
359.36	1710.05
359.57	1654.76
359.78	1695.72
359.99	1699.81
360.20	1665.00
360.41	1638.38
360.62	1701.86
360.83	1732.58
361.04	1738.73
361.25	1763.30
361.46	1787.88
361.67	1730.53
361.88	1699.81
362.09	1755.11
362.30	1757.16
362.51	1681.38
362.72	1757.16
362.93	1751.01
363.14	1789.92
363.35	1775.59
363.56	1701.86
363.78	1757.16
363.99	1718.25
364.20	1689.57
364.41	1712.10
364.62	1841.12
364.83	1732.58
365.04	1660.90
365.25	1757.16
365.46	1849.32
365.67	1673.19
365.88	1642.47
366.09	1597.42
366.30	1722.34
366.51	1718.25
366.72	1685.48
366.93	1660.90
367.14	1683.43
367.35	1794.02
367.56	1667.05
367.77	1789.92
367.98	1662.95
368.18	1677.29
368.39	1701.86
368.60	1628.14
368.81	1804.26
369.02	1748.97
369.23	1730.53
369.44	1624.04
369.65	1769.44
369.86	1716.20
370.07	1773.54
370.28	1699.81
370.49	1746.92
370.70	1669.09
370.91	1652.71
371.12	1603.56
371.33	1779.68
371.54	1671.14
371.75	1783.78
371.96	1624.04
372.17	1654.76
372.38	1705.96
372.59	1724.39
372.80	1652.71
373.01	1652.71
373.22	1777.64
373.43	1785.83
373.64	1648.61
373.85	1802.21
374.06	1808.36
374.26	1791.97
374.47	1744.87
374.68	1779.68
374.89	1710.05
375.10	1755.11
375.31	1796.07
375.52	1730.53
375.73	1693.67
375.94	1599.46
376.15	1796.07
376.36	1648.61
376.57	1632.23
376.78	1685.48
376.99	1787.88
377.20	1783.78
377.40	1662.95
377.61	1820.64
377.82	1673.19
378.03	1757.16
378.24	1722.34
378.45	1787.88
378.66	1675.24
378.87	1669.09
379.08	1648.61
379.29	1705.96
379.50	1730.53
379.71	1689.57
379.91	1757.16
380.12	1683.43
380.33	1652.71
380.54	1697.77
380.75	1744.87
380.96	1662.95
381.17	1777.64
381.38	1665.00
381.59	1759.21
381.80	1730.53
382.00	1900.52
382.21	1744.87
382.42	1779.68
382.63	1843.17
382.84	1828.84
383.05	1775.59
383.26	1708.01
383.47	1759.21
383.68	1685.48
383.88	1632.23
384.09	1708.01
384.30	1828.84
384.51	1761.25
384.72	1710.05
384.93	1607.66
385.14	1744.87
385.35	1785.83
385.55	1576.94
385.76	1804.26
385.97	1720.29
386.18	1648.61
386.39	1609.70
386.60	1642.47
386.81	1724.39
387.02	1685.48
387.22	1677.29
387.43	1810.40
387.64	1763.30
387.85	1779.68
388.06	2222.05
388.27	4267.97
388.48	6610.84
388.68	8093.57
388.89	9641.84
389.10	9750.38
389.31	8642.43
389.52	7763.85
389.73	6860.70
389.93	6195.11
390.14	5879.72
390.35	5150.64
390.56	4523.96
390.77	3948.48
390.98	3047.38
391.18	2566.10
391.39	2160.61
391.60	1802.21
391.81	1820.64
392.02	1673.19
392.23	1914.85
392.43	1787.88
392.64	1724.39
392.85	1665.00
393.06	1773.54
393.27	1705.96
393.47	1681.38
393.68	1693.67
393.89	1722.34
394.10	1794.02
394.31	1695.72
394.52	1712.10
394.72	1681.38
394.93	1767.40
395.14	1722.34
395.35	1804.26
395.56	1679.33
395.76	1738.73
395.97	1771.49
396.18	1863.65
396.39	1920.99
396.60	1992.67
396.80	1884.13
397.01	1789.92
397.22	1808.36
397.43	1820.64
397.64	1781.73
397.84	1849.32
398.05	1902.56
398.26	1697.77
398.47	1877.99
398.67	1824.74
398.88	1726.44
399.09	1724.39
399.30	1732.58
399.51	1738.73
399.71	1652.71
399.92	1771.49
400.13	1761.25
400.34	1716.20
400.54	1691.62
400.75	1716.20
400.96	1708.01
401.17	1845.22
401.37	1738.73
401.58	1728.49
401.79	1748.97
402.00	1892.32
402.21	2023.39
402.41	1972.19
402.62	1976.29
402.83	2035.68
403.04	1986.53
403.24	2023.39
403.45	1802.21
403.66	1898.47
403.87	1804.26
404.07	1949.67
404.28	1896.42
404.49	1882.08
404.70	1816.55
404.90	1865.70
405.11	1748.97
405.32	1697.77
405.52	1646.57
405.73	1697.77
405.94	1683.43
406.15	1734.63
406.35	1738.73
406.56	1791.97
406.77	1751.01
406.98	1732.58
407.18	1648.61
407.39	1744.87
407.60	1751.01
407.80	1789.92
408.01	1771.49
408.22	1751.01
408.43	1714.15
408.63	1726.44
408.84	1751.01
409.05	1710.05
409.25	1677.29
409.46	1617.90
409.67	1679.33
409.88	1708.01
410.08	1732.58
410.29	1665.00
410.50	1695.72
410.70	1740.77
410.91	1669.09
411.12	1771.49
411.32	1738.73
411.53	1730.53
411.74	1816.55
411.95	1796.07
412.15	1751.01
412.36	1800.16
412.57	1755.11
412.77	1783.78
412.98	1697.77
413.19	1751.01
413.39	1853.41
413.60	1726.44
413.81	1863.65
414.01	1570.79
414.22	1783.78
414.43	1822.69
414.63	1662.95
414.84	1798.12
415.05	1767.40
415.25	1667.05
415.46	1789.92
415.67	1681.38
415.87	1736.68
416.08	1769.44
416.29	1730.53
416.49	1748.97
416.70	1660.90
416.91	1744.87
417.11	1714.15
417.32	1728.49
417.53	1742.82
417.73	1714.15
417.94	1677.29
418.15	1619.94
418.35	1734.63
418.56	1712.10
418.77	1802.21
418.97	1779.68
419.18	1693.67
419.38	1624.04
419.59	1697.77
419.80	1898.47
420.00	1783.78
420.21	1640.42
420.42	1865.70
420.62	1697.77
420.83	1738.73
421.04	1761.25
421.24	1665.00
421.45	1794.02
421.65	1781.73
421.86	1673.19
422.07	1744.87
422.27	1689.57
422.48	1728.49
422.69	1640.42
422.89	1675.24
423.10	1638.38
423.30	1730.53
423.51	1738.73
423.72	1701.86
423.92	1757.16
424.13	1599.46
424.33	1746.92
424.54	1748.97
424.75	1621.99
424.95	1830.88
425.16	1677.29
425.36	1677.29
425.57	1748.97
425.78	1804.26
425.98	1746.92
426.19	1724.39
426.39	1660.90
426.60	1710.05
426.81	1714.15
427.01	1720.29
427.22	1677.29
427.42	1677.29
427.63	1722.34
427.83	1748.97
428.04	1853.41
428.25	1763.30
428.45	1779.68
428.66	1757.16
428.86	1767.40
429.07	1724.39
429.28	1716.20
429.48	1705.96
429.69	1683.43
429.89	1787.88
430.10	1701.86
430.30	1716.20
430.51	1689.57
430.71	1673.19
430.92	1794.02
431.13	1722.34
431.33	1726.44
431.54	1734.63
431.74	1824.74
431.95	1771.49
432.15	1691.62
432.36	1734.63
432.56	1785.83
432.77	1882.08
432.98	1771.49
433.18	1748.97
433.39	1603.56
433.59	1703.91
433.80	1849.32
434.00	1853.41
434.21	1624.04
434.41	1628.14
434.62	1843.17
434.82	1683.43
435.03	1673.19
435.23	1671.14
435.44	1624.04
435.64	1763.30
435.85	1726.44
436.06	1812.45
436.26	1751.01
436.47	1634.28
436.67	1691.62
436.88	1720.29
437.08	1814.50
437.29	1798.12
437.49	1775.59
437.70	1781.73
437.90	1751.01
438.11	1826.79
438.31	1791.97
438.52	1902.56
438.72	1875.94
438.93	1859.56
439.13	1802.21
439.34	1804.26
439.54	1673.19
439.75	1806.31
439.95	1826.79
440.16	1806.31
440.36	1746.92
440.57	1798.12
440.77	1722.34
440.98	1740.77
441.18	1710.05
441.39	1648.61
441.59	1687.53
441.80	1843.17
442.00	1798.12
442.21	1816.55
442.41	1708.01
442.62	1736.68
442.82	1693.67
443.02	1712.10
443.23	1742.82
443.43	1742.82
443.64	1832.93
443.84	1609.70
444.05	1812.45
444.25	1722.34
444.46	1726.44
444.66	1753.06
444.87	1808.36
445.07	1624.04
445.28	1755.11
445.48	1791.97
445.69	1757.16
445.89	1910.75
446.09	1767.40
446.30	2095.07
446.50	2621.40
446.71	3719.11
446.91	4380.61
447.12	4845.49
447.32	5009.33
447.53	4399.04
447.73	3833.80
447.93	3499.98
448.14	3311.57
448.34	3145.68
448.55	2979.79
448.75	2856.92
448.96	2697.17
449.16	2416.60
449.36	2295.77
449.57	2072.54
449.77	1927.14
449.98	1810.40
450.18	1779.68
450.39	1789.92
450.59	1769.44
450.79	1742.82
451.00	1763.30
451.20	1791.97
451.41	1728.49
451.61	1869.80
451.81	1828.84
452.02	1781.73
452.22	1693.67
452.43	1695.72
452.63	1712.10
