SpectraSuite Data File
++++++++++++++++++++++++++++++++++++
Date: Mon Jun 06 14:28:17 CEST 2016
User: root
Dark Spectrum Present: No
Reference Spectrum Present: No
Number of Sampled Component Spectra: 1
Spectrometers: USB4C02835
Integration Time (usec): 100000 (USB4C02835)
Spectra Averaged: 1 (USB4C02835)
Boxcar Smoothing: 0 (USB4C02835)
Correct for Electrical Dark: No (USB4C02835)
Strobe/Lamp Enabled: No (USB4C02835)
Correct for Detector Non-linearity: No (USB4C02835)
Correct for Stray Light: No (USB4C02835)
Number of Pixels in Processed Spectrum: 3648
>>>>>Begin Processed Spectral Data<<<<<
177.47	1454.06
177.69	1454.06
177.91	1454.06
178.13	1497.07
178.36	1497.07
178.58	1599.46
178.80	1751.01
179.02	1611.75
179.24	1658.85
179.46	1671.14
179.68	1722.34
179.90	1708.01
180.13	1814.50
180.35	1644.52
180.57	1697.77
180.79	1732.58
181.01	1748.97
181.23	1789.92
181.45	1775.59
181.67	1667.05
181.90	1732.58
182.12	1673.19
182.34	1665.00
182.56	1697.77
182.78	1675.24
183.00	1763.30
183.22	1646.57
183.44	1648.61
183.66	1847.27
183.89	1796.07
184.11	1736.68
184.33	1677.29
184.55	1738.73
184.77	1683.43
184.99	1681.38
185.21	1728.49
185.43	1841.12
185.65	1728.49
185.87	1611.75
186.10	1789.92
186.32	1877.99
186.54	1769.44
186.76	1703.91
186.98	1724.39
187.20	1650.66
187.42	1642.47
187.64	1683.43
187.86	1644.52
188.08	1744.87
188.30	1640.42
188.52	1683.43
188.75	1771.49
188.97	1779.68
189.19	1689.57
189.41	1710.05
189.63	1736.68
189.85	1679.33
190.07	1683.43
190.29	1683.43
190.51	1757.16
190.73	1662.95
190.95	1748.97
191.17	1744.87
191.39	1529.83
191.61	1679.33
191.84	1691.62
192.06	1679.33
192.28	1673.19
192.50	1861.60
192.72	1708.01
192.94	1724.39
193.16	1769.44
193.38	1720.29
193.60	1726.44
193.82	1689.57
194.04	1746.92
194.26	1681.38
194.48	1626.09
194.70	1738.73
194.92	1613.80
195.14	1757.16
195.36	1660.90
195.58	1714.15
195.80	1685.48
196.02	1630.18
196.24	1638.38
196.46	1681.38
196.69	1624.04
196.91	1837.03
197.13	1728.49
197.35	1654.76
197.57	1826.79
197.79	1662.95
198.01	1730.53
198.23	1767.40
198.45	1665.00
198.67	1628.14
198.89	1701.86
199.11	1667.05
199.33	1748.97
199.55	1576.94
199.77	1669.09
199.99	1751.01
200.21	1691.62
200.43	1742.82
200.65	1693.67
200.87	1603.56
201.09	1687.53
201.31	1708.01
201.53	1826.79
201.75	1734.63
201.97	1753.06
202.19	1693.67
202.41	1751.01
202.63	1806.31
202.85	1708.01
203.07	1730.53
203.29	1636.33
203.51	1691.62
203.73	1626.09
203.95	1877.99
204.17	1732.58
204.39	1714.15
204.61	1712.10
204.83	1677.29
205.05	1751.01
205.27	1708.01
205.49	1843.17
205.71	1683.43
205.93	1634.28
206.15	1695.72
206.37	1660.90
206.59	1751.01
206.81	1632.23
207.03	1628.14
207.25	1646.57
207.47	1734.63
207.69	1689.57
207.91	1785.83
208.13	1787.88
208.34	1613.80
208.56	1630.18
208.78	1777.64
209.00	1722.34
209.22	1677.29
209.44	1671.14
209.66	1759.21
209.88	1603.56
210.10	1746.92
210.32	1650.66
210.54	1748.97
210.76	1673.19
210.98	1775.59
211.20	1535.98
211.42	1736.68
211.64	1755.11
211.86	1734.63
212.08	1785.83
212.30	1734.63
212.52	1701.86
212.74	1761.25
212.96	1716.20
213.17	1705.96
213.39	1767.40
213.61	1746.92
213.83	1685.48
214.05	1697.77
214.27	1757.16
214.49	1703.91
214.71	1619.94
214.93	1785.83
215.15	1746.92
215.37	1730.53
215.59	1640.42
215.81	1718.25
216.03	1763.30
216.24	1718.25
216.46	1648.61
216.68	1624.04
216.90	1722.34
217.12	1740.77
217.34	1738.73
217.56	1751.01
217.78	1794.02
218.00	1714.15
218.22	1665.00
218.44	1742.82
218.66	1695.72
218.87	1796.07
219.09	1613.80
219.31	1755.11
219.53	1671.14
219.75	1701.86
219.97	1640.42
220.19	1767.40
220.41	1693.67
220.63	1800.16
220.85	1722.34
221.06	1693.67
221.28	1753.06
221.50	1751.01
221.72	1693.67
221.94	1636.33
222.16	1693.67
222.38	1705.96
222.60	1761.25
222.82	1697.77
223.03	1626.09
223.25	1619.94
223.47	1771.49
223.69	1804.26
223.91	1759.21
224.13	1665.00
224.35	1601.51
224.57	1705.96
224.78	1787.88
225.00	1642.47
225.22	1679.33
225.44	1693.67
225.66	1761.25
225.88	1673.19
226.10	1748.97
226.32	1665.00
226.53	1845.22
226.75	1738.73
226.97	1587.18
227.19	1683.43
227.41	1714.15
227.63	1667.05
227.85	1609.70
228.06	1701.86
228.28	1763.30
228.50	1837.03
228.72	1624.04
228.94	1624.04
229.16	1615.85
229.37	1583.08
229.59	1642.47
229.81	1718.25
230.03	1632.23
230.25	1642.47
230.47	1730.53
230.69	1538.02
230.90	1753.06
231.12	1671.14
231.34	1718.25
231.56	1748.97
231.78	1652.71
232.00	1777.64
232.21	1693.67
232.43	1689.57
232.65	1556.46
232.87	1769.44
233.09	1550.31
233.30	1619.94
233.52	1724.39
233.74	1714.15
233.96	1697.77
234.18	1644.52
234.40	1648.61
234.61	1812.45
234.83	1701.86
235.05	1644.52
235.27	1900.52
235.49	1773.54
235.70	1712.10
235.92	1669.09
236.14	1658.85
236.36	1839.08
236.58	1658.85
236.79	1746.92
237.01	1724.39
237.23	1687.53
237.45	1734.63
237.67	1648.61
237.88	1718.25
238.10	1820.64
238.32	1640.42
238.54	1738.73
238.76	1669.09
238.97	1658.85
239.19	1775.59
239.41	1703.91
239.63	1828.84
239.85	1724.39
240.06	1681.38
240.28	1574.89
240.50	1730.53
240.72	1685.48
240.93	1638.38
241.15	1740.77
241.37	1701.86
241.59	1781.73
241.81	1771.49
242.02	1701.86
242.24	1699.81
242.46	1783.78
242.68	1712.10
242.89	1734.63
243.11	1798.12
243.33	1683.43
243.55	1697.77
243.76	1738.73
243.98	1710.05
244.20	1738.73
244.42	1646.57
244.64	1689.57
244.85	1683.43
245.07	1619.94
245.29	1673.19
245.51	1722.34
245.72	1773.54
245.94	1757.16
246.16	1699.81
246.38	1806.31
246.59	1699.81
246.81	1609.70
247.03	1648.61
247.24	1574.89
247.46	1572.84
247.68	1765.35
247.90	1722.34
248.11	1636.33
248.33	1779.68
248.55	1665.00
248.77	1671.14
248.98	1673.19
249.20	1771.49
249.42	1761.25
249.64	1699.81
249.85	1724.39
250.07	1722.34
250.29	1767.40
250.50	1820.64
250.72	1609.70
250.94	1744.87
251.16	1773.54
251.37	1775.59
251.59	1724.39
251.81	1759.21
252.02	1822.69
252.24	1716.20
252.46	1798.12
252.68	1669.09
252.89	1648.61
253.11	1609.70
253.33	1726.44
253.54	1697.77
253.76	1626.09
253.98	1701.86
254.20	1738.73
254.41	1673.19
254.63	1636.33
254.85	1634.28
255.06	1724.39
255.28	1689.57
255.50	1640.42
255.71	1699.81
255.93	1685.48
256.15	1703.91
256.36	1798.12
256.58	1638.38
256.80	1755.11
257.02	1650.66
257.23	1701.86
257.45	1726.44
257.67	1777.64
257.88	1650.66
258.10	1769.44
258.32	1658.85
258.53	1710.05
258.75	1789.92
258.97	1642.47
259.18	1708.01
259.40	1734.63
259.62	1837.03
259.83	1751.01
260.05	1734.63
260.27	2027.49
260.48	1697.77
260.70	1673.19
260.92	1712.10
261.13	1738.73
261.35	1701.86
261.57	1644.52
261.78	1636.33
262.00	1646.57
262.22	1753.06
262.43	1669.09
262.65	1673.19
262.86	1781.73
263.08	1837.03
263.30	1628.14
263.51	1589.22
263.73	1669.09
263.95	1763.30
264.16	1599.46
264.38	1613.80
264.60	1705.96
264.81	1677.29
265.03	1757.16
265.25	1804.26
265.46	1665.00
265.68	1699.81
265.89	1761.25
266.11	1607.66
266.33	1820.64
266.54	1746.92
266.76	1722.34
266.98	1759.21
267.19	1781.73
267.41	1691.62
267.62	1755.11
267.84	1572.84
268.06	1779.68
268.27	1720.29
268.49	1751.01
268.70	1781.73
268.92	1624.04
269.14	1683.43
269.35	1638.38
269.57	1734.63
269.79	1738.73
270.00	1673.19
270.22	1757.16
270.43	1654.76
270.65	1572.84
270.87	1732.58
271.08	1669.09
271.30	1728.49
271.51	1691.62
271.73	1740.77
271.95	1728.49
272.16	1785.83
272.38	1738.73
272.59	1779.68
272.81	1675.24
273.02	1734.63
273.24	1718.25
273.46	1705.96
273.67	1691.62
273.89	1685.48
274.10	1642.47
274.32	1726.44
274.54	1736.68
274.75	1718.25
274.97	1767.40
275.18	1716.20
275.40	1755.11
275.61	1681.38
275.83	1742.82
276.05	1617.90
276.26	1669.09
276.48	1742.82
276.69	1691.62
276.91	1660.90
277.12	1804.26
277.34	1714.15
277.55	1697.77
277.77	1738.73
277.99	1738.73
278.20	1607.66
278.42	1642.47
278.63	1632.23
278.85	1679.33
279.06	1650.66
279.28	1724.39
279.49	1779.68
279.71	1718.25
279.93	1683.43
280.14	1673.19
280.36	1669.09
280.57	1757.16
280.79	1714.15
281.00	1652.71
281.22	1691.62
281.43	1728.49
281.65	1626.09
281.86	1603.56
282.08	1757.16
282.29	1826.79
282.51	1648.61
282.73	1665.00
282.94	1630.18
283.16	1673.19
283.37	1855.46
283.59	1669.09
283.80	1748.97
284.02	1710.05
284.23	1775.59
284.45	1626.09
284.66	1660.90
284.88	1748.97
285.09	1695.72
285.31	1755.11
285.52	1699.81
285.74	1652.71
285.95	1777.64
286.17	1765.35
286.38	1804.26
286.60	1654.76
286.81	1595.37
287.03	1726.44
287.24	1748.97
287.46	1732.58
287.67	1804.26
287.89	1882.08
288.10	1734.63
288.32	1718.25
288.53	1746.92
288.75	1673.19
288.96	1703.91
289.18	1658.85
289.39	1685.48
289.61	1751.01
289.82	1763.30
290.04	1859.56
290.25	1722.34
290.47	1740.77
290.68	1716.20
290.90	1771.49
291.11	1611.75
291.33	1681.38
291.54	1591.27
291.76	1662.95
291.97	1648.61
292.18	1763.30
292.40	1685.48
292.61	1656.81
292.83	1800.16
293.04	1736.68
293.26	1748.97
293.47	1642.47
293.69	1687.53
293.90	1718.25
294.12	1748.97
294.33	1654.76
294.55	1742.82
294.76	1689.57
294.97	1724.39
295.19	1767.40
295.40	1675.24
295.62	1714.15
295.83	1791.97
296.05	1667.05
296.26	1800.16
296.48	1705.96
296.69	1681.38
296.90	1724.39
297.12	1767.40
297.33	1732.58
297.55	1675.24
297.76	1671.14
297.98	1783.78
298.19	1689.57
298.41	1683.43
298.62	1603.56
298.83	1814.50
299.05	1712.10
299.26	1673.19
299.48	1667.05
299.69	1681.38
299.90	1701.86
300.12	1685.48
300.33	1783.78
300.55	1699.81
300.76	1751.01
300.98	1585.13
301.19	1757.16
301.40	1734.63
301.62	1660.90
301.83	1740.77
302.05	1669.09
302.26	1673.19
302.47	1753.06
302.69	1687.53
302.90	1716.20
303.12	1581.03
303.33	1751.01
303.54	1800.16
303.76	1699.81
303.97	1712.10
304.19	1783.78
304.40	1628.14
304.61	1740.77
304.83	1763.30
305.04	1791.97
305.26	1777.64
305.47	1669.09
305.68	1585.13
305.90	1611.75
306.11	1791.97
306.33	1665.00
306.54	1718.25
306.75	1642.47
306.97	1550.31
307.18	1642.47
307.39	1683.43
307.61	1734.63
307.82	1632.23
308.04	1714.15
308.25	1665.00
308.46	1626.09
308.68	1714.15
308.89	1665.00
309.10	1755.11
309.32	1787.88
309.53	1726.44
309.74	1759.21
309.96	1710.05
310.17	1767.40
310.39	1574.89
310.60	1732.58
310.81	1763.30
311.03	1685.48
311.24	1710.05
311.45	1665.00
311.67	1820.64
311.88	1769.44
312.09	1665.00
312.31	1738.73
312.52	1753.06
312.73	1652.71
312.95	1624.04
313.16	1683.43
313.37	1716.20
313.59	1744.87
313.80	1720.29
314.01	1841.12
314.23	1652.71
314.44	1705.96
314.65	1697.77
314.87	1591.27
315.08	1675.24
315.29	1675.24
315.51	1761.25
315.72	1624.04
315.93	1767.40
316.15	1765.35
316.36	1671.14
316.57	1728.49
316.79	1722.34
317.00	1685.48
317.21	1634.28
317.43	1665.00
317.64	1724.39
317.85	1671.14
318.07	1679.33
318.28	1714.15
318.49	1834.98
318.70	1937.38
318.92	1789.92
319.13	1806.31
319.34	1853.41
319.56	1689.57
319.77	1824.74
319.98	1763.30
320.20	1718.25
320.41	1740.77
320.62	1722.34
320.83	1628.14
321.05	1777.64
321.26	1660.90
321.47	1693.67
321.69	1832.93
321.90	1644.52
322.11	1687.53
322.32	1736.68
322.54	1783.78
322.75	1701.86
322.96	1779.68
323.18	1656.81
323.39	1603.56
323.60	1660.90
323.81	1748.97
324.03	1636.33
324.24	1656.81
324.45	1740.77
324.66	1644.52
324.88	1818.60
325.09	1703.91
325.30	1705.96
325.52	1767.40
325.73	1691.62
325.94	1574.89
326.15	1687.53
326.37	1716.20
326.58	1742.82
326.79	1822.69
327.00	1636.33
327.22	1728.49
327.43	1699.81
327.64	1675.24
327.85	1734.63
328.07	1740.77
328.28	1728.49
328.49	1746.92
328.70	1757.16
328.92	1705.96
329.13	1626.09
329.34	1755.11
329.55	1728.49
329.76	1720.29
329.98	1724.39
330.19	1820.64
330.40	1755.11
330.61	1679.33
330.83	1748.97
331.04	1691.62
331.25	1759.21
331.46	1722.34
331.68	1626.09
331.89	1798.12
332.10	1712.10
332.31	1644.52
332.52	1708.01
332.74	1767.40
332.95	1710.05
333.16	1673.19
333.37	1748.97
333.58	1646.57
333.80	1746.92
334.01	1644.52
334.22	1728.49
334.43	1642.47
334.64	1613.80
334.86	1591.27
335.07	1677.29
335.28	1765.35
335.49	1605.61
335.70	1669.09
335.92	1808.36
336.13	1808.36
336.34	1755.11
336.55	1673.19
336.76	1708.01
336.98	1554.41
337.19	1658.85
337.40	1849.32
337.61	1869.80
337.82	1632.23
338.04	1755.11
338.25	1554.41
338.46	1699.81
338.67	1677.29
338.88	1597.42
339.09	1624.04
339.31	1675.24
339.52	1673.19
339.73	1654.76
339.94	1607.66
340.15	1802.21
340.36	1701.86
340.58	1742.82
340.79	1609.70
341.00	1755.11
341.21	1603.56
341.42	1802.21
341.63	1677.29
341.85	1767.40
342.06	1689.57
342.27	1636.33
342.48	1777.64
342.69	1652.71
342.90	1734.63
343.12	1679.33
343.33	1705.96
343.54	1751.01
343.75	1814.50
343.96	1720.29
344.17	1640.42
344.38	1777.64
344.60	1665.00
344.81	1673.19
345.02	1730.53
345.23	1775.59
345.44	1812.45
345.65	1734.63
345.86	1650.66
346.07	1650.66
346.29	1589.22
346.50	1738.73
346.71	1673.19
346.92	1748.97
347.13	1777.64
347.34	1732.58
347.55	1783.78
347.76	1638.38
347.98	1593.32
348.19	1677.29
348.40	1773.54
348.61	1638.38
348.82	1812.45
349.03	1705.96
349.24	1693.67
349.45	1748.97
349.66	1570.79
349.88	1697.77
350.09	1644.52
350.30	1814.50
350.51	1773.54
350.72	1646.57
350.93	1748.97
351.14	1681.38
351.35	1714.15
351.56	1710.05
351.77	1679.33
351.99	1736.68
352.20	1781.73
352.41	1808.36
352.62	1619.94
352.83	1726.44
353.04	1658.85
353.25	1662.95
353.46	1810.40
353.67	1677.29
353.88	1599.46
354.09	1730.53
354.30	1746.92
354.52	1722.34
354.73	1708.01
354.94	1613.80
355.15	1665.00
355.36	1755.11
355.57	1781.73
355.78	1732.58
355.99	1691.62
356.20	1669.09
356.41	1787.88
356.62	1701.86
356.83	1701.86
357.04	1767.40
357.25	1667.05
357.46	1730.53
357.68	1679.33
357.89	1630.18
358.10	1660.90
358.31	1751.01
358.52	1730.53
358.73	1595.37
358.94	1708.01
359.15	1699.81
359.36	1703.91
359.57	1683.43
359.78	1765.35
359.99	1734.63
360.20	1724.39
360.41	1712.10
360.62	1718.25
360.83	1703.91
361.04	1734.63
361.25	1839.08
361.46	1744.87
361.67	1697.77
361.88	1656.81
362.09	1656.81
362.30	1734.63
362.51	1609.70
362.72	1693.67
362.93	1718.25
363.14	1767.40
363.35	1708.01
363.56	1636.33
363.78	1699.81
363.99	1705.96
364.20	1712.10
364.41	1751.01
364.62	1806.31
364.83	1640.42
365.04	1673.19
365.25	1718.25
365.46	1775.59
365.67	1699.81
365.88	1677.29
366.09	1695.72
366.30	1705.96
366.51	1796.07
366.72	1642.47
366.93	1728.49
367.14	1677.29
367.35	1812.45
367.56	1687.53
367.77	1775.59
367.98	1658.85
368.18	1759.21
368.39	1767.40
368.60	1697.77
368.81	1773.54
369.02	1724.39
369.23	1705.96
369.44	1566.70
369.65	1667.05
369.86	1699.81
370.07	1660.90
370.28	1652.71
370.49	1730.53
370.70	1732.58
370.91	1578.98
371.12	1648.61
371.33	1753.06
371.54	1679.33
371.75	1826.79
371.96	1601.51
372.17	1732.58
372.38	1689.57
372.59	1718.25
372.80	1665.00
373.01	1673.19
373.22	1701.86
373.43	1687.53
373.64	1652.71
373.85	1808.36
374.06	1828.84
374.26	1732.58
374.47	1751.01
374.68	1740.77
374.89	1695.72
375.10	1658.85
375.31	1697.77
375.52	1701.86
375.73	1699.81
375.94	1652.71
376.15	1789.92
376.36	1742.82
376.57	1654.76
376.78	1804.26
376.99	1730.53
377.20	1687.53
377.40	1683.43
377.61	1736.68
377.82	1722.34
378.03	1804.26
378.24	1755.11
378.45	1701.86
378.66	1644.52
378.87	1611.75
379.08	1613.80
379.29	1720.29
379.50	1787.88
379.71	1753.06
379.91	1685.48
380.12	1697.77
380.33	1687.53
380.54	1746.92
380.75	1712.10
380.96	1732.58
381.17	1757.16
381.38	1701.86
381.59	1681.38
381.80	1693.67
382.00	1794.02
382.21	1791.97
382.42	1861.60
382.63	1849.32
382.84	1699.81
383.05	1734.63
383.26	1853.41
383.47	1728.49
383.68	1716.20
383.88	1798.12
384.09	1669.09
384.30	1779.68
384.51	1779.68
384.72	1658.85
384.93	1652.71
385.14	1693.67
385.35	1796.07
385.55	1648.61
385.76	1783.78
385.97	1705.96
386.18	1566.70
386.39	1722.34
386.60	1705.96
386.81	1759.21
387.02	1736.68
387.22	1636.33
387.43	1808.36
387.64	1765.35
387.85	1877.99
388.06	2207.71
388.27	4173.76
388.48	6815.64
388.68	8300.42
388.89	9836.39
389.10	10182.50
389.31	8603.52
389.52	7714.70
389.73	6629.27
389.93	6371.23
390.14	5801.90
390.35	5257.14
390.56	4532.15
390.77	3893.19
390.98	3065.81
391.18	2504.67
391.39	2127.84
391.60	1861.60
391.81	1929.19
392.02	1695.72
392.23	1808.36
392.43	1816.55
392.64	1787.88
392.85	1751.01
393.06	1742.82
393.27	1716.20
393.47	1624.04
393.68	1701.86
393.89	1744.87
394.10	1732.58
394.31	1665.00
394.52	1703.91
394.72	1677.29
394.93	1812.45
395.14	1624.04
395.35	1757.16
395.56	1687.53
395.76	1687.53
395.97	1802.21
396.18	1826.79
396.39	1845.22
396.60	1939.43
396.80	1910.75
397.01	1773.54
397.22	1794.02
397.43	1914.85
397.64	1751.01
397.84	1751.01
398.05	1929.19
398.26	1748.97
398.47	1769.44
398.67	1806.31
398.88	1763.30
399.09	1703.91
399.30	1695.72
399.51	1736.68
399.71	1605.61
399.92	1751.01
400.13	1798.12
400.34	1701.86
400.54	1679.33
400.75	1869.80
400.96	1701.86
401.17	1783.78
401.37	1730.53
401.58	1712.10
401.79	1681.38
402.00	1865.70
402.21	2027.49
402.41	1920.99
402.62	2078.69
402.83	2015.20
403.04	2011.11
403.24	2082.78
403.45	1826.79
403.66	1914.85
403.87	1822.69
404.07	1882.08
404.28	1857.51
404.49	1839.08
404.70	1781.73
404.90	1777.64
405.11	1730.53
405.32	1806.31
405.52	1701.86
405.73	1644.52
405.94	1603.56
406.15	1621.99
406.35	1712.10
406.56	1787.88
406.77	1695.72
406.98	1673.19
407.18	1660.90
407.39	1687.53
407.60	1781.73
407.80	1699.81
408.01	1722.34
408.22	1703.91
408.43	1705.96
408.63	1744.87
408.84	1730.53
409.05	1720.29
409.25	1650.66
409.46	1632.23
409.67	1759.21
409.88	1601.51
410.08	1753.06
410.29	1634.28
410.50	1720.29
410.70	1691.62
410.91	1693.67
411.12	1648.61
411.32	1722.34
411.53	1644.52
411.74	1738.73
411.95	1761.25
412.15	1775.59
412.36	1802.21
412.57	1687.53
412.77	1841.12
412.98	1693.67
413.19	1712.10
413.39	1730.53
413.60	1765.35
413.81	1759.21
414.01	1642.47
414.22	1769.44
414.43	1730.53
414.63	1677.29
414.84	1824.74
415.05	1705.96
415.25	1681.38
415.46	1726.44
415.67	1701.86
415.87	1740.77
416.08	1746.92
416.29	1607.66
416.49	1701.86
416.70	1697.77
416.91	1716.20
417.11	1683.43
417.32	1742.82
417.53	1726.44
417.73	1722.34
417.94	1785.83
418.15	1691.62
418.35	1775.59
418.56	1683.43
418.77	1787.88
418.97	1687.53
419.18	1701.86
419.38	1644.52
419.59	1654.76
419.80	1789.92
420.00	1626.09
420.21	1716.20
420.42	1767.40
420.62	1814.50
420.83	1634.28
421.04	1724.39
421.24	1662.95
421.45	1767.40
421.65	1728.49
421.86	1814.50
422.07	1708.01
422.27	1701.86
422.48	1742.82
422.69	1624.04
422.89	1785.83
423.10	1677.29
423.30	1609.70
423.51	1689.57
423.72	1767.40
423.92	1718.25
424.13	1624.04
424.33	1656.81
424.54	1712.10
424.75	1748.97
424.95	1802.21
425.16	1785.83
425.36	1599.46
425.57	1779.68
425.78	1753.06
425.98	1767.40
426.19	1701.86
426.39	1667.05
426.60	1732.58
426.81	1800.16
427.01	1757.16
427.22	1681.38
427.42	1572.84
427.63	1626.09
427.83	1771.49
428.04	1841.12
428.25	1812.45
428.45	1746.92
428.66	1763.30
428.86	1720.29
429.07	1722.34
429.28	1734.63
429.48	1654.76
429.69	1681.38
429.89	1742.82
430.10	1617.90
430.30	1714.15
430.51	1644.52
430.71	1683.43
430.92	1699.81
431.13	1693.67
431.33	1746.92
431.54	1736.68
431.74	1830.88
431.95	1767.40
432.15	1656.81
432.36	1703.91
432.56	1751.01
432.77	1796.07
432.98	1785.83
433.18	1775.59
433.39	1753.06
433.59	1732.58
433.80	1826.79
434.00	1791.97
434.21	1632.23
434.41	1605.61
434.62	1853.41
434.82	1656.81
435.03	1660.90
435.23	1710.05
435.44	1615.85
435.64	1755.11
435.85	1765.35
436.06	1732.58
436.26	1730.53
436.47	1683.43
436.67	1691.62
436.88	1748.97
437.08	1789.92
437.29	1783.78
437.49	1687.53
437.70	1789.92
437.90	1771.49
438.11	1839.08
438.31	1845.22
438.52	1826.79
438.72	1830.88
438.93	1892.32
439.13	1814.50
439.34	1822.69
439.54	1773.54
439.75	1744.87
439.95	1916.90
440.16	1710.05
440.36	1748.97
440.57	1710.05
440.77	1746.92
440.98	1652.71
441.18	1781.73
441.39	1771.49
441.59	1677.29
441.80	1873.89
442.00	1761.25
442.21	1853.41
442.41	1779.68
442.62	1763.30
442.82	1744.87
443.02	1687.53
443.23	1771.49
443.43	1742.82
443.64	1857.51
443.84	1611.75
444.05	1798.12
444.25	1720.29
444.46	1693.67
444.66	1699.81
444.87	1757.16
445.07	1728.49
445.28	1738.73
445.48	1861.60
445.69	1781.73
445.89	1787.88
446.09	1763.30
446.30	1982.43
446.50	2645.98
446.71	3760.07
446.91	4319.17
447.12	4779.96
447.32	4802.49
447.53	4421.56
447.73	3864.52
447.93	3596.23
448.14	3330.00
448.34	3139.54
448.55	2934.74
448.75	2934.74
448.96	2750.42
449.16	2496.47
449.36	2435.03
449.57	2068.45
449.77	1886.18
449.98	1742.82
450.18	1791.97
450.39	1814.50
450.59	1734.63
450.79	1693.67
451.00	1658.85
451.20	1808.36
451.41	1763.30
451.61	1679.33
451.81	1779.68
452.02	1705.96
452.22	1654.76
452.43	1673.19
452.63	1730.53
