SpectraSuite Data File
++++++++++++++++++++++++++++++++++++
Date: Mon Jun 06 12:36:17 CEST 2016
User: root
Dark Spectrum Present: No
Reference Spectrum Present: No
Number of Sampled Component Spectra: 1
Spectrometers: USB4C02835
Integration Time (usec): 100000 (USB4C02835)
Spectra Averaged: 1 (USB4C02835)
Boxcar Smoothing: 0 (USB4C02835)
Correct for Electrical Dark: No (USB4C02835)
Strobe/Lamp Enabled: No (USB4C02835)
Correct for Detector Non-linearity: No (USB4C02835)
Correct for Stray Light: No (USB4C02835)
Number of Pixels in Processed Spectrum: 3648
>>>>>Begin Processed Spectral Data<<<<<
177.47	1409.00
177.69	1409.00
177.91	1409.00
178.13	1431.53
178.36	1454.06
178.58	1669.09
178.80	1740.77
179.02	1679.33
179.24	1550.31
179.46	1726.44
179.68	1722.34
179.90	1695.72
180.13	1687.53
180.35	1701.86
180.57	1673.19
180.79	1726.44
181.01	1740.77
181.23	1720.29
181.45	1751.01
181.67	1744.87
181.90	1689.57
182.12	1585.13
182.34	1701.86
182.56	1755.11
182.78	1677.29
183.00	1650.66
183.22	1726.44
183.44	1611.75
183.66	1841.12
183.89	1779.68
184.11	1665.00
184.33	1757.16
184.55	1761.25
184.77	1687.53
184.99	1693.67
185.21	1628.14
185.43	1802.21
185.65	1628.14
185.87	1685.48
186.10	1812.45
186.32	1796.07
186.54	1740.77
186.76	1828.84
186.98	1683.43
187.20	1722.34
187.42	1724.39
187.64	1691.62
187.86	1744.87
188.08	1728.49
188.30	1667.05
188.52	1689.57
188.75	1757.16
188.97	1703.91
189.19	1665.00
189.41	1728.49
189.63	1658.85
189.85	1675.24
190.07	1591.27
190.29	1589.22
190.51	1742.82
190.73	1673.19
190.95	1847.27
191.17	1730.53
191.39	1562.60
191.61	1712.10
191.84	1652.71
192.06	1718.25
192.28	1558.50
192.50	1796.07
192.72	1746.92
192.94	1697.77
193.16	1767.40
193.38	1615.85
193.60	1640.42
193.82	1634.28
194.04	1783.78
194.26	1738.73
194.48	1689.57
194.70	1714.15
194.92	1689.57
195.14	1775.59
195.36	1652.71
195.58	1679.33
195.80	1630.18
196.02	1699.81
196.24	1669.09
196.46	1746.92
196.69	1662.95
196.91	1804.26
197.13	1697.77
197.35	1638.38
197.57	1726.44
197.79	1703.91
198.01	1687.53
198.23	1757.16
198.45	1794.02
198.67	1652.71
198.89	1710.05
199.11	1673.19
199.33	1695.72
199.55	1613.80
199.77	1738.73
199.99	1820.64
200.21	1634.28
200.43	1683.43
200.65	1626.09
200.87	1609.70
201.09	1667.05
201.31	1687.53
201.53	1701.86
201.75	1714.15
201.97	1693.67
202.19	1697.77
202.41	1675.24
202.63	1839.08
202.85	1759.21
203.07	1722.34
203.29	1697.77
203.51	1597.42
203.73	1679.33
203.95	1804.26
204.17	1751.01
204.39	1742.82
204.61	1603.56
204.83	1638.38
205.05	1783.78
205.27	1726.44
205.49	1894.37
205.71	1714.15
205.93	1597.42
206.15	1689.57
206.37	1757.16
206.59	1654.76
206.81	1665.00
207.03	1665.00
207.25	1650.66
207.47	1779.68
207.69	1685.48
207.91	1802.21
208.13	1724.39
208.34	1662.95
208.56	1615.85
208.78	1632.23
209.00	1689.57
209.22	1730.53
209.44	1681.38
209.66	1654.76
209.88	1738.73
210.10	1634.28
210.32	1708.01
210.54	1746.92
210.76	1646.57
210.98	1699.81
211.20	1660.90
211.42	1687.53
211.64	1785.83
211.86	1708.01
212.08	1708.01
212.30	1708.01
212.52	1613.80
212.74	1738.73
212.96	1685.48
213.17	1822.69
213.39	1726.44
213.61	1783.78
213.83	1687.53
214.05	1615.85
214.27	1804.26
214.49	1621.99
214.71	1652.71
214.93	1640.42
215.15	1675.24
215.37	1767.40
215.59	1628.14
215.81	1699.81
216.03	1767.40
216.24	1693.67
216.46	1675.24
216.68	1609.70
216.90	1673.19
217.12	1757.16
217.34	1763.30
217.56	1787.88
217.78	1738.73
218.00	1742.82
218.22	1619.94
218.44	1738.73
218.66	1630.18
218.87	1820.64
219.09	1724.39
219.31	1685.48
219.53	1720.29
219.75	1634.28
219.97	1665.00
220.19	1665.00
220.41	1701.86
220.63	1761.25
220.85	1751.01
221.06	1656.81
221.28	1789.92
221.50	1738.73
221.72	1669.09
221.94	1689.57
222.16	1677.29
222.38	1755.11
222.60	1769.44
222.82	1699.81
223.03	1765.35
223.25	1607.66
223.47	1738.73
223.69	1794.02
223.91	1765.35
224.13	1638.38
224.35	1632.23
224.57	1722.34
224.78	1759.21
225.00	1648.61
225.22	1650.66
225.44	1665.00
225.66	1720.29
225.88	1628.14
226.10	1660.90
226.32	1806.31
226.53	1683.43
226.75	1746.92
226.97	1660.90
227.19	1679.33
227.41	1693.67
227.63	1759.21
227.85	1640.42
228.06	1716.20
228.28	1644.52
228.50	1671.14
228.72	1681.38
228.94	1691.62
229.16	1619.94
229.37	1673.19
229.59	1689.57
229.81	1683.43
230.03	1652.71
230.25	1593.32
230.47	1648.61
230.69	1638.38
230.90	1722.34
231.12	1632.23
231.34	1652.71
231.56	1689.57
231.78	1617.90
232.00	1736.68
232.21	1683.43
232.43	1730.53
232.65	1560.55
232.87	1785.83
233.09	1613.80
233.30	1665.00
233.52	1744.87
233.74	1691.62
233.96	1642.47
234.18	1675.24
234.40	1679.33
234.61	1851.36
234.83	1583.08
235.05	1716.20
235.27	1824.74
235.49	1722.34
235.70	1679.33
235.92	1783.78
236.14	1738.73
236.36	1857.51
236.58	1615.85
236.79	1687.53
237.01	1718.25
237.23	1667.05
237.45	1771.49
237.67	1712.10
237.88	1779.68
238.10	1773.54
238.32	1601.51
238.54	1681.38
238.76	1763.30
238.97	1644.52
239.19	1632.23
239.41	1728.49
239.63	1814.50
239.85	1595.37
240.06	1671.14
240.28	1716.20
240.50	1773.54
240.72	1681.38
240.93	1689.57
241.15	1810.40
241.37	1691.62
241.59	1757.16
241.81	1726.44
242.02	1619.94
242.24	1738.73
242.46	1691.62
242.68	1640.42
242.89	1716.20
243.11	1810.40
243.33	1630.18
243.55	1710.05
243.76	1779.68
243.98	1716.20
244.20	1683.43
244.42	1726.44
244.64	1718.25
244.85	1669.09
245.07	1681.38
245.29	1689.57
245.51	1693.67
245.72	1730.53
245.94	1716.20
246.16	1644.52
246.38	1697.77
246.59	1708.01
246.81	1712.10
247.03	1632.23
247.24	1650.66
247.46	1587.18
247.68	1755.11
247.90	1636.33
248.11	1675.24
248.33	1751.01
248.55	1697.77
248.77	1693.67
248.98	1755.11
249.20	1810.40
249.42	1712.10
249.64	1695.72
249.85	1708.01
250.07	1705.96
250.29	1765.35
250.50	1751.01
250.72	1570.79
250.94	1697.77
251.16	1789.92
251.37	1806.31
251.59	1710.05
251.81	1724.39
252.02	1796.07
252.24	1660.90
252.46	1763.30
252.68	1648.61
252.89	1683.43
253.11	1624.04
253.33	1818.60
253.54	1755.11
253.76	1609.70
253.98	1650.66
254.20	1675.24
254.41	1634.28
254.63	1712.10
254.85	1673.19
255.06	1791.97
255.28	1710.05
255.50	1699.81
255.71	1617.90
255.93	1583.08
256.15	1710.05
256.36	1771.49
256.58	1642.47
256.80	1695.72
257.02	1681.38
257.23	1693.67
257.45	1708.01
257.67	1685.48
257.88	1615.85
258.10	1722.34
258.32	1712.10
258.53	1665.00
258.75	1755.11
258.97	1654.76
259.18	1728.49
259.40	1693.67
259.62	1740.77
259.83	1806.31
260.05	1718.25
260.27	1978.34
260.48	1708.01
260.70	1562.60
260.92	1685.48
261.13	1677.29
261.35	1677.29
261.57	1714.15
261.78	1581.03
262.00	1665.00
262.22	1685.48
262.43	1638.38
262.65	1656.81
262.86	1697.77
263.08	1822.69
263.30	1695.72
263.51	1669.09
263.73	1660.90
263.95	1804.26
264.16	1671.14
264.38	1675.24
264.60	1751.01
264.81	1683.43
265.03	1722.34
265.25	1732.58
265.46	1681.38
265.68	1796.07
265.89	1730.53
266.11	1628.14
266.33	1722.34
266.54	1695.72
266.76	1673.19
266.98	1724.39
267.19	1763.30
267.41	1722.34
267.62	1642.47
267.84	1576.94
268.06	1710.05
268.27	1705.96
268.49	1787.88
268.70	1757.16
268.92	1689.57
269.14	1716.20
269.35	1576.94
269.57	1662.95
269.79	1775.59
270.00	1675.24
270.22	1736.68
270.43	1640.42
270.65	1560.55
270.87	1746.92
271.08	1773.54
271.30	1771.49
271.51	1726.44
271.73	1734.63
271.95	1701.86
272.16	1681.38
272.38	1738.73
272.59	1601.51
272.81	1777.64
273.02	1763.30
273.24	1730.53
273.46	1687.53
273.67	1689.57
273.89	1626.09
274.10	1740.77
274.32	1796.07
274.54	1777.64
274.75	1775.59
274.97	1613.80
275.18	1710.05
275.40	1812.45
275.61	1673.19
275.83	1771.49
276.05	1644.52
276.26	1683.43
276.48	1710.05
276.69	1677.29
276.91	1568.74
277.12	1763.30
277.34	1720.29
277.55	1769.44
277.77	1724.39
277.99	1728.49
278.20	1656.81
278.42	1718.25
278.63	1652.71
278.85	1619.94
279.06	1550.31
279.28	1607.66
279.49	1744.87
279.71	1701.86
279.93	1687.53
280.14	1673.19
280.36	1609.70
280.57	1738.73
280.79	1722.34
281.00	1714.15
281.22	1636.33
281.43	1802.21
281.65	1570.79
281.86	1671.14
282.08	1648.61
282.29	1744.87
282.51	1574.89
282.73	1658.85
282.94	1619.94
283.16	1691.62
283.37	1753.06
283.59	1720.29
283.80	1695.72
284.02	1697.77
284.23	1675.24
284.45	1648.61
284.66	1621.99
284.88	1656.81
285.09	1675.24
285.31	1779.68
285.52	1777.64
285.74	1611.75
285.95	1677.29
286.17	1824.74
286.38	1765.35
286.60	1708.01
286.81	1646.57
287.03	1644.52
287.24	1669.09
287.46	1771.49
287.67	1742.82
287.89	1802.21
288.10	1701.86
288.32	1699.81
288.53	1736.68
288.75	1789.92
288.96	1753.06
289.18	1640.42
289.39	1718.25
289.61	1677.29
289.82	1755.11
290.04	1779.68
290.25	1685.48
290.47	1685.48
290.68	1675.24
290.90	1734.63
291.11	1605.61
291.33	1675.24
291.54	1656.81
291.76	1660.90
291.97	1652.71
292.18	1701.86
292.40	1705.96
292.61	1730.53
292.83	1818.60
293.04	1748.97
293.26	1685.48
293.47	1689.57
293.69	1669.09
293.90	1732.58
294.12	1748.97
294.33	1712.10
294.55	1697.77
294.76	1748.97
294.97	1789.92
295.19	1843.17
295.40	1646.57
295.62	1759.21
295.83	1695.72
296.05	1636.33
296.26	1722.34
296.48	1593.32
296.69	1677.29
296.90	1800.16
297.12	1726.44
297.33	1730.53
297.55	1689.57
297.76	1716.20
297.98	1751.01
298.19	1681.38
298.41	1642.47
298.62	1681.38
298.83	1779.68
299.05	1720.29
299.26	1703.91
299.48	1636.33
299.69	1783.78
299.90	1677.29
300.12	1662.95
300.33	1708.01
300.55	1685.48
300.76	1751.01
300.98	1759.21
301.19	1691.62
301.40	1705.96
301.62	1636.33
301.83	1693.67
302.05	1712.10
302.26	1630.18
302.47	1722.34
302.69	1683.43
302.90	1736.68
303.12	1550.31
303.33	1675.24
303.54	1804.26
303.76	1658.85
303.97	1751.01
304.19	1701.86
304.40	1662.95
304.61	1673.19
304.83	1753.06
305.04	1722.34
305.26	1638.38
305.47	1652.71
305.68	1714.15
305.90	1630.18
306.11	1832.93
306.33	1703.91
306.54	1605.61
306.75	1656.81
306.97	1626.09
307.18	1677.29
307.39	1673.19
307.61	1703.91
307.82	1710.05
308.04	1665.00
308.25	1728.49
308.46	1665.00
308.68	1667.05
308.89	1660.90
309.10	1832.93
309.32	1652.71
309.53	1675.24
309.74	1703.91
309.96	1650.66
310.17	1785.83
310.39	1615.85
310.60	1689.57
310.81	1671.14
311.03	1634.28
311.24	1755.11
311.45	1634.28
311.67	1740.77
311.88	1753.06
312.09	1628.14
312.31	1677.29
312.52	1642.47
312.73	1697.77
312.95	1679.33
313.16	1613.80
313.37	1751.01
313.59	1720.29
313.80	1687.53
314.01	1789.92
314.23	1658.85
314.44	1673.19
314.65	1746.92
314.87	1595.37
315.08	1730.53
315.29	1560.55
315.51	1562.60
315.72	1673.19
315.93	1791.97
316.15	1738.73
316.36	1642.47
316.57	1648.61
316.79	1677.29
317.00	1646.57
317.21	1681.38
317.43	1642.47
317.64	1734.63
317.85	1665.00
318.07	1691.62
318.28	1667.05
318.49	1728.49
318.70	1927.14
318.92	1791.97
319.13	1857.51
319.34	1894.37
319.56	1753.06
319.77	1761.25
319.98	1837.03
320.20	1726.44
320.41	1716.20
320.62	1755.11
320.83	1679.33
321.05	1785.83
321.26	1712.10
321.47	1705.96
321.69	1751.01
321.90	1669.09
322.11	1687.53
322.32	1705.96
322.54	1796.07
322.75	1662.95
322.96	1832.93
323.18	1650.66
323.39	1593.32
323.60	1624.04
323.81	1751.01
324.03	1687.53
324.24	1718.25
324.45	1761.25
324.66	1716.20
324.88	1732.58
325.09	1779.68
325.30	1685.48
325.52	1740.77
325.73	1712.10
325.94	1714.15
326.15	1587.18
326.37	1634.28
326.58	1740.77
326.79	1845.22
327.00	1662.95
327.22	1738.73
327.43	1720.29
327.64	1591.27
327.85	1746.92
328.07	1656.81
328.28	1742.82
328.49	1650.66
328.70	1658.85
328.92	1714.15
329.13	1621.99
329.34	1730.53
329.55	1845.22
329.76	1699.81
329.98	1638.38
330.19	1722.34
330.40	1716.20
330.61	1673.19
330.83	1781.73
331.04	1642.47
331.25	1785.83
331.46	1667.05
331.68	1626.09
331.89	1746.92
332.10	1658.85
332.31	1671.14
332.52	1652.71
332.74	1802.21
332.95	1650.66
333.16	1730.53
333.37	1740.77
333.58	1650.66
333.80	1640.42
334.01	1703.91
334.22	1730.53
334.43	1675.24
334.64	1675.24
334.86	1587.18
335.07	1636.33
335.28	1814.50
335.49	1607.66
335.70	1771.49
335.92	1775.59
336.13	1812.45
336.34	1755.11
336.55	1662.95
336.76	1738.73
336.98	1597.42
337.19	1705.96
337.40	1730.53
337.61	1861.60
337.82	1665.00
338.04	1718.25
338.25	1560.55
338.46	1683.43
338.67	1626.09
338.88	1632.23
339.09	1677.29
339.31	1775.59
339.52	1722.34
339.73	1636.33
339.94	1728.49
340.15	1720.29
340.36	1683.43
340.58	1716.20
340.79	1589.22
341.00	1746.92
341.21	1646.57
341.42	1789.92
341.63	1673.19
341.85	1693.67
342.06	1705.96
342.27	1605.61
342.48	1787.88
342.69	1634.28
342.90	1699.81
343.12	1748.97
343.33	1634.28
343.54	1708.01
343.75	1755.11
343.96	1593.32
344.17	1638.38
344.38	1699.81
344.60	1632.23
344.81	1665.00
345.02	1740.77
345.23	1757.16
345.44	1824.74
345.65	1718.25
345.86	1681.38
346.07	1703.91
346.29	1591.27
346.50	1783.78
346.71	1781.73
346.92	1767.40
347.13	1757.16
347.34	1730.53
347.55	1632.23
347.76	1724.39
347.98	1615.85
348.19	1755.11
348.40	1751.01
348.61	1689.57
348.82	1789.92
349.03	1722.34
349.24	1673.19
349.45	1814.50
349.66	1578.98
349.88	1730.53
350.09	1708.01
350.30	1783.78
350.51	1753.06
350.72	1642.47
350.93	1689.57
351.14	1746.92
351.35	1748.97
351.56	1712.10
351.77	1714.15
351.99	1748.97
352.20	1746.92
352.41	1734.63
352.62	1542.12
352.83	1681.38
353.04	1695.72
353.25	1718.25
353.46	1751.01
353.67	1714.15
353.88	1599.46
354.09	1755.11
354.30	1705.96
354.52	1705.96
354.73	1738.73
354.94	1683.43
355.15	1681.38
355.36	1753.06
355.57	1673.19
355.78	1669.09
355.99	1654.76
356.20	1708.01
356.41	1746.92
356.62	1677.29
356.83	1708.01
357.04	1779.68
357.25	1583.08
357.46	1728.49
357.68	1595.37
357.89	1648.61
358.10	1714.15
358.31	1683.43
358.52	1685.48
358.73	1718.25
358.94	1650.66
359.15	1640.42
359.36	1742.82
359.57	1685.48
359.78	1687.53
359.99	1720.29
360.20	1642.47
360.41	1730.53
360.62	1771.49
360.83	1712.10
361.04	1720.29
361.25	1759.21
361.46	1787.88
361.67	1708.01
361.88	1771.49
362.09	1710.05
362.30	1681.38
362.51	1681.38
362.72	1699.81
362.93	1761.25
363.14	1714.15
363.35	1757.16
363.56	1656.81
363.78	1761.25
363.99	1687.53
364.20	1640.42
364.41	1679.33
364.62	1740.77
364.83	1722.34
365.04	1671.14
365.25	1660.90
365.46	1863.65
365.67	1619.94
365.88	1669.09
366.09	1683.43
366.30	1669.09
366.51	1726.44
366.72	1640.42
366.93	1722.34
367.14	1675.24
367.35	1777.64
367.56	1683.43
367.77	1777.64
367.98	1677.29
368.18	1730.53
368.39	1669.09
368.60	1665.00
368.81	1767.40
369.02	1734.63
369.23	1685.48
369.44	1609.70
369.65	1697.77
369.86	1634.28
370.07	1748.97
370.28	1654.76
370.49	1652.71
370.70	1714.15
370.91	1636.33
371.12	1650.66
371.33	1746.92
371.54	1662.95
371.75	1855.46
371.96	1646.57
372.17	1658.85
372.38	1755.11
372.59	1734.63
372.80	1685.48
373.01	1761.25
373.22	1701.86
373.43	1759.21
373.64	1665.00
373.85	1679.33
374.06	1722.34
374.26	1783.78
374.47	1738.73
374.68	1767.40
374.89	1703.91
375.10	1726.44
375.31	1732.58
375.52	1687.53
375.73	1720.29
375.94	1613.80
376.15	1794.02
376.36	1599.46
376.57	1656.81
376.78	1656.81
376.99	1656.81
377.20	1757.16
377.40	1662.95
377.61	1859.56
377.82	1679.33
378.03	1771.49
378.24	1724.39
378.45	1718.25
378.66	1673.19
378.87	1644.52
379.08	1611.75
379.29	1644.52
379.50	1794.02
379.71	1689.57
379.91	1716.20
380.12	1748.97
380.33	1665.00
380.54	1636.33
380.75	1724.39
380.96	1701.86
381.17	1775.59
381.38	1767.40
381.59	1689.57
381.80	1712.10
382.00	1886.18
382.21	1759.21
382.42	1890.28
382.63	1945.57
382.84	1714.15
383.05	1849.32
383.26	1812.45
383.47	1673.19
383.68	1751.01
383.88	1712.10
384.09	1712.10
384.30	1787.88
384.51	1808.36
384.72	1650.66
384.93	1695.72
385.14	1708.01
385.35	1755.11
385.55	1609.70
385.76	1722.34
385.97	1755.11
386.18	1681.38
386.39	1658.85
386.60	1697.77
386.81	1671.14
387.02	1642.47
387.22	1660.90
387.43	1837.03
387.64	1796.07
387.85	1806.31
388.06	2250.72
388.27	4331.45
388.48	6766.49
388.68	8376.19
388.89	9715.56
389.10	9881.45
389.31	8638.33
389.52	7739.27
389.73	6760.34
389.93	6231.97
390.14	5916.58
390.35	5248.94
390.56	4652.98
390.77	3768.26
390.98	3100.62
391.18	2557.91
391.39	2123.74
391.60	1845.22
391.81	1830.88
392.02	1683.43
392.23	1812.45
392.43	1683.43
392.64	1753.06
392.85	1673.19
393.06	1751.01
393.27	1779.68
393.47	1681.38
393.68	1675.24
393.89	1705.96
394.10	1714.15
394.31	1714.15
394.52	1636.33
394.72	1697.77
394.93	1787.88
395.14	1636.33
395.35	1693.67
395.56	1671.14
395.76	1783.78
395.97	1771.49
396.18	1789.92
396.39	1869.80
396.60	2029.54
396.80	1941.47
397.01	1845.22
397.22	1920.99
397.43	1902.56
397.64	1673.19
397.84	1691.62
398.05	1824.74
398.26	1726.44
398.47	1820.64
398.67	1771.49
398.88	1675.24
399.09	1763.30
399.30	1665.00
399.51	1697.77
399.71	1675.24
399.92	1761.25
400.13	1740.77
400.34	1755.11
400.54	1605.61
400.75	1730.53
400.96	1693.67
401.17	1765.35
401.37	1785.83
401.58	1705.96
401.79	1724.39
402.00	1892.32
402.21	2050.02
402.41	2013.15
402.62	1927.14
402.83	1994.72
403.04	2025.44
403.24	2025.44
403.45	1847.27
403.66	1904.61
403.87	1812.45
404.07	1845.22
404.28	1908.71
404.49	1871.84
404.70	1734.63
404.90	1806.31
405.11	1703.91
405.32	1751.01
405.52	1757.16
405.73	1673.19
405.94	1646.57
406.15	1794.02
406.35	1755.11
406.56	1771.49
406.77	1724.39
406.98	1728.49
407.18	1679.33
407.39	1853.41
407.60	1693.67
407.80	1716.20
408.01	1699.81
408.22	1775.59
408.43	1681.38
408.63	1779.68
408.84	1714.15
409.05	1732.58
409.25	1662.95
409.46	1654.76
409.67	1695.72
409.88	1705.96
410.08	1748.97
410.29	1679.33
410.50	1771.49
410.70	1736.68
410.91	1689.57
411.12	1746.92
411.32	1650.66
411.53	1697.77
411.74	1837.03
411.95	1763.30
412.15	1794.02
412.36	1771.49
412.57	1759.21
412.77	1759.21
412.98	1775.59
413.19	1804.26
413.39	1677.29
413.60	1732.58
413.81	1791.97
414.01	1652.71
414.22	1765.35
414.43	1775.59
414.63	1671.14
414.84	1740.77
415.05	1720.29
415.25	1652.71
415.46	1736.68
415.67	1675.24
415.87	1654.76
416.08	1714.15
416.29	1650.66
416.49	1734.63
416.70	1665.00
416.91	1708.01
417.11	1705.96
417.32	1761.25
417.53	1759.21
417.73	1783.78
417.94	1669.09
418.15	1794.02
418.35	1718.25
418.56	1703.91
418.77	1894.37
418.97	1710.05
419.18	1683.43
419.38	1621.99
419.59	1771.49
419.80	1832.93
420.00	1609.70
420.21	1658.85
420.42	1824.74
420.62	1746.92
420.83	1683.43
421.04	1640.42
421.24	1679.33
421.45	1773.54
421.65	1765.35
421.86	1693.67
422.07	1665.00
422.27	1773.54
422.48	1675.24
422.69	1675.24
422.89	1654.76
423.10	1656.81
423.30	1662.95
423.51	1685.48
423.72	1765.35
423.92	1734.63
424.13	1650.66
424.33	1712.10
424.54	1746.92
424.75	1699.81
424.95	1681.38
425.16	1751.01
425.36	1636.33
425.57	1693.67
425.78	1734.63
425.98	1853.41
426.19	1746.92
426.39	1636.33
426.60	1742.82
426.81	1748.97
427.01	1726.44
427.22	1732.58
427.42	1624.04
427.63	1615.85
427.83	1699.81
428.04	1869.80
428.25	1738.73
428.45	1718.25
428.66	1738.73
428.86	1746.92
429.07	1681.38
429.28	1734.63
429.48	1675.24
429.69	1660.90
429.89	1697.77
430.10	1665.00
430.30	1720.29
430.51	1746.92
430.71	1673.19
430.92	1714.15
431.13	1662.95
431.33	1746.92
431.54	1705.96
431.74	1806.31
431.95	1884.13
432.15	1677.29
432.36	1773.54
432.56	1771.49
432.77	1736.68
432.98	1837.03
433.18	1755.11
433.39	1665.00
433.59	1714.15
433.80	1812.45
434.00	1875.94
434.21	1689.57
434.41	1675.24
434.62	1853.41
434.82	1677.29
435.03	1634.28
435.23	1701.86
435.44	1601.51
435.64	1730.53
435.85	1806.31
436.06	1759.21
436.26	1791.97
436.47	1728.49
436.67	1708.01
436.88	1677.29
437.08	1742.82
437.29	1783.78
437.49	1705.96
437.70	1712.10
437.90	1671.14
438.11	1865.70
438.31	1703.91
438.52	1791.97
438.72	1822.69
438.93	1914.85
439.13	1810.40
439.34	1728.49
439.54	1710.05
439.75	1800.16
439.95	1744.87
440.16	1753.06
440.36	1755.11
440.57	1779.68
440.77	1761.25
440.98	1712.10
441.18	1740.77
441.39	1691.62
441.59	1675.24
441.80	1798.12
442.00	1679.33
442.21	1859.56
442.41	1615.85
442.62	1779.68
442.82	1648.61
443.02	1648.61
443.23	1734.63
443.43	1679.33
443.64	1853.41
443.84	1621.99
444.05	1787.88
444.25	1791.97
444.46	1710.05
444.66	1695.72
444.87	1855.46
445.07	1636.33
445.28	1759.21
445.48	1779.68
445.69	1783.78
445.89	1855.46
446.09	1708.01
446.30	1994.72
446.50	2762.71
446.71	3684.30
446.91	4429.76
447.12	4710.33
447.32	4777.91
447.53	4427.71
447.73	3880.90
447.93	3645.38
448.14	3327.95
448.34	3241.93
448.55	2928.60
448.75	2850.77
448.96	2664.41
449.16	2404.32
449.36	2330.59
449.57	2015.20
449.77	1857.51
449.98	1873.89
450.18	1751.01
450.39	1863.65
450.59	1806.31
450.79	1691.62
451.00	1720.29
451.20	1791.97
451.41	1691.62
451.61	1859.56
451.81	1757.16
452.02	1626.09
452.22	1763.30
452.43	1703.91
452.63	1714.15
