SpectraSuite Data File
++++++++++++++++++++++++++++++++++++
Date: Mon Jun 06 14:10:57 CEST 2016
User: root
Dark Spectrum Present: No
Reference Spectrum Present: No
Number of Sampled Component Spectra: 1
Spectrometers: USB4C02835
Integration Time (usec): 100000 (USB4C02835)
Spectra Averaged: 1 (USB4C02835)
Boxcar Smoothing: 0 (USB4C02835)
Correct for Electrical Dark: No (USB4C02835)
Strobe/Lamp Enabled: No (USB4C02835)
Correct for Detector Non-linearity: No (USB4C02835)
Correct for Stray Light: No (USB4C02835)
Number of Pixels in Processed Spectrum: 3648
>>>>>Begin Processed Spectral Data<<<<<
177.47	1464.30
177.69	1464.30
177.91	1464.30
178.13	1433.58
178.36	1445.87
178.58	1656.81
178.80	1722.34
179.02	1607.66
179.24	1665.00
179.46	1699.81
179.68	1759.21
179.90	1681.38
180.13	1669.09
180.35	1724.39
180.57	1746.92
180.79	1824.74
181.01	1687.53
181.23	1785.83
181.45	1728.49
181.67	1708.01
181.90	1744.87
182.12	1632.23
182.34	1640.42
182.56	1748.97
182.78	1638.38
183.00	1705.96
183.22	1685.48
183.44	1601.51
183.66	1927.14
183.89	1773.54
184.11	1724.39
184.33	1708.01
184.55	1798.12
184.77	1665.00
184.99	1746.92
185.21	1685.48
185.43	1800.16
185.65	1677.29
185.87	1683.43
186.10	1849.32
186.32	1720.29
186.54	1746.92
186.76	1722.34
186.98	1775.59
187.20	1714.15
187.42	1703.91
187.64	1665.00
187.86	1746.92
188.08	1773.54
188.30	1728.49
188.52	1710.05
188.75	1771.49
188.97	1818.60
189.19	1757.16
189.41	1671.14
189.63	1703.91
189.85	1693.67
190.07	1628.14
190.29	1701.86
190.51	1718.25
190.73	1642.47
190.95	1814.50
191.17	1691.62
191.39	1648.61
191.61	1669.09
191.84	1685.48
192.06	1718.25
192.28	1640.42
192.50	1906.66
192.72	1753.06
192.94	1677.29
193.16	1773.54
193.38	1708.01
193.60	1665.00
193.82	1615.85
194.04	1746.92
194.26	1656.81
194.48	1761.25
194.70	1669.09
194.92	1638.38
195.14	1806.31
195.36	1732.58
195.58	1726.44
195.80	1710.05
196.02	1679.33
196.24	1667.05
196.46	1730.53
196.69	1691.62
196.91	1771.49
197.13	1632.23
197.35	1734.63
197.57	1761.25
197.79	1791.97
198.01	1734.63
198.23	1726.44
198.45	1691.62
198.67	1607.66
198.89	1763.30
199.11	1718.25
199.33	1681.38
199.55	1718.25
199.77	1671.14
199.99	1736.68
200.21	1611.75
200.43	1746.92
200.65	1613.80
200.87	1591.27
201.09	1755.11
201.31	1665.00
201.53	1716.20
201.75	1730.53
201.97	1738.73
202.19	1759.21
202.41	1734.63
202.63	1849.32
202.85	1767.40
203.07	1744.87
203.29	1656.81
203.51	1624.04
203.73	1619.94
203.95	1902.56
204.17	1722.34
204.39	1751.01
204.61	1724.39
204.83	1673.19
205.05	1677.29
205.27	1791.97
205.49	1830.88
205.71	1681.38
205.93	1642.47
206.15	1667.05
206.37	1654.76
206.59	1697.77
206.81	1632.23
207.03	1609.70
207.25	1675.24
207.47	1728.49
207.69	1705.96
207.91	1812.45
208.13	1761.25
208.34	1767.40
208.56	1671.14
208.78	1724.39
209.00	1732.58
209.22	1703.91
209.44	1708.01
209.66	1662.95
209.88	1697.77
210.10	1640.42
210.32	1662.95
210.54	1710.05
210.76	1701.86
210.98	1759.21
211.20	1576.94
211.42	1708.01
211.64	1746.92
211.86	1697.77
212.08	1763.30
212.30	1681.38
212.52	1722.34
212.74	1689.57
212.96	1652.71
213.17	1767.40
213.39	1824.74
213.61	1765.35
213.83	1730.53
214.05	1609.70
214.27	1699.81
214.49	1628.14
214.71	1626.09
214.93	1779.68
215.15	1755.11
215.37	1814.50
215.59	1634.28
215.81	1732.58
216.03	1767.40
216.24	1701.86
216.46	1609.70
216.68	1724.39
216.90	1730.53
217.12	1722.34
217.34	1794.02
217.56	1708.01
217.78	1763.30
218.00	1621.99
218.22	1675.24
218.44	1769.44
218.66	1720.29
218.87	1855.46
219.09	1679.33
219.31	1722.34
219.53	1710.05
219.75	1687.53
219.97	1662.95
220.19	1730.53
220.41	1665.00
220.63	1789.92
220.85	1708.01
221.06	1738.73
221.28	1710.05
221.50	1740.77
221.72	1751.01
221.94	1695.72
222.16	1697.77
222.38	1804.26
222.60	1718.25
222.82	1705.96
223.03	1681.38
223.25	1642.47
223.47	1742.82
223.69	1800.16
223.91	1722.34
224.13	1665.00
224.35	1746.92
224.57	1740.77
224.78	1812.45
225.00	1720.29
225.22	1611.75
225.44	1648.61
225.66	1726.44
225.88	1683.43
226.10	1785.83
226.32	1730.53
226.53	1744.87
226.75	1671.14
226.97	1679.33
227.19	1677.29
227.41	1708.01
227.63	1638.38
227.85	1609.70
228.06	1765.35
228.28	1685.48
228.50	1697.77
228.72	1671.14
228.94	1607.66
229.16	1632.23
229.37	1599.46
229.59	1652.71
229.81	1775.59
230.03	1693.67
230.25	1613.80
230.47	1630.18
230.69	1667.05
230.90	1746.92
231.12	1662.95
231.34	1675.24
231.56	1806.31
231.78	1701.86
232.00	1767.40
232.21	1626.09
232.43	1632.23
232.65	1576.94
232.87	1705.96
233.09	1671.14
233.30	1695.72
233.52	1724.39
233.74	1677.29
233.96	1699.81
234.18	1695.72
234.40	1654.76
234.61	1859.56
234.83	1669.09
235.05	1636.33
235.27	1855.46
235.49	1771.49
235.70	1654.76
235.92	1775.59
236.14	1697.77
236.36	1806.31
236.58	1574.89
236.79	1736.68
237.01	1671.14
237.23	1621.99
237.45	1818.60
237.67	1679.33
237.88	1695.72
238.10	1847.27
238.32	1640.42
238.54	1632.23
238.76	1716.20
238.97	1654.76
239.19	1710.05
239.41	1718.25
239.63	1734.63
239.85	1652.71
240.06	1693.67
240.28	1619.94
240.50	1751.01
240.72	1722.34
240.93	1660.90
241.15	1773.54
241.37	1689.57
241.59	1804.26
241.81	1679.33
242.02	1654.76
242.24	1783.78
242.46	1687.53
242.68	1646.57
242.89	1716.20
243.11	1767.40
243.33	1726.44
243.55	1689.57
243.76	1791.97
243.98	1669.09
244.20	1728.49
244.42	1718.25
244.64	1652.71
244.85	1654.76
245.07	1609.70
245.29	1761.25
245.51	1632.23
245.72	1693.67
245.94	1771.49
246.16	1679.33
246.38	1644.52
246.59	1630.18
246.81	1595.37
247.03	1708.01
247.24	1628.14
247.46	1658.85
247.68	1738.73
247.90	1761.25
248.11	1683.43
248.33	1785.83
248.55	1722.34
248.77	1718.25
248.98	1748.97
249.20	1722.34
249.42	1667.05
249.64	1648.61
249.85	1705.96
250.07	1574.89
250.29	1789.92
250.50	1718.25
250.72	1613.80
250.94	1738.73
251.16	1888.23
251.37	1712.10
251.59	1771.49
251.81	1748.97
252.02	1740.77
252.24	1595.37
252.46	1804.26
252.68	1675.24
252.89	1667.05
253.11	1503.21
253.33	1812.45
253.54	1777.64
253.76	1544.17
253.98	1681.38
254.20	1695.72
254.41	1615.85
254.63	1734.63
254.85	1705.96
255.06	1681.38
255.28	1753.06
255.50	1671.14
255.71	1597.42
255.93	1574.89
256.15	1628.14
256.36	1736.68
256.58	1679.33
256.80	1621.99
257.02	1646.57
257.23	1677.29
257.45	1701.86
257.67	1738.73
257.88	1650.66
258.10	1675.24
258.32	1724.39
258.53	1736.68
258.75	1767.40
258.97	1617.90
259.18	1667.05
259.40	1787.88
259.62	1783.78
259.83	1777.64
260.05	1767.40
260.27	1980.39
260.48	1718.25
260.70	1648.61
260.92	1714.15
261.13	1761.25
261.35	1710.05
261.57	1730.53
261.78	1587.18
262.00	1654.76
262.22	1767.40
262.43	1654.76
262.65	1652.71
262.86	1755.11
263.08	1843.17
263.30	1738.73
263.51	1556.46
263.73	1630.18
263.95	1798.12
264.16	1699.81
264.38	1732.58
264.60	1753.06
264.81	1632.23
265.03	1806.31
265.25	1744.87
265.46	1722.34
265.68	1748.97
265.89	1744.87
266.11	1619.94
266.33	1755.11
266.54	1779.68
266.76	1701.86
266.98	1771.49
267.19	1746.92
267.41	1732.58
267.62	1699.81
267.84	1642.47
268.06	1716.20
268.27	1701.86
268.49	1773.54
268.70	1753.06
268.92	1755.11
269.14	1644.52
269.35	1613.80
269.57	1662.95
269.79	1759.21
270.00	1714.15
270.22	1779.68
270.43	1611.75
270.65	1644.52
270.87	1722.34
271.08	1777.64
271.30	1722.34
271.51	1732.58
271.73	1716.20
271.95	1744.87
272.16	1701.86
272.38	1701.86
272.59	1687.53
272.81	1716.20
273.02	1736.68
273.24	1683.43
273.46	1710.05
273.67	1634.28
273.89	1638.38
274.10	1675.24
274.32	1669.09
274.54	1693.67
274.75	1689.57
274.97	1617.90
275.18	1773.54
275.40	1722.34
275.61	1720.29
275.83	1724.39
276.05	1671.14
276.26	1726.44
276.48	1804.26
276.69	1714.15
276.91	1617.90
277.12	1800.16
277.34	1834.98
277.55	1708.01
277.77	1775.59
277.99	1697.77
278.20	1638.38
278.42	1630.18
278.63	1654.76
278.85	1714.15
279.06	1605.61
279.28	1621.99
279.49	1771.49
279.71	1728.49
279.93	1642.47
280.14	1665.00
280.36	1626.09
280.57	1718.25
280.79	1718.25
281.00	1591.27
281.22	1685.48
281.43	1765.35
281.65	1589.22
281.86	1632.23
282.08	1718.25
282.29	1812.45
282.51	1593.32
282.73	1619.94
282.94	1660.90
283.16	1763.30
283.37	1810.40
283.59	1738.73
283.80	1730.53
284.02	1746.92
284.23	1599.46
284.45	1675.24
284.66	1673.19
284.88	1617.90
285.09	1757.16
285.31	1779.68
285.52	1802.21
285.74	1603.56
285.95	1785.83
286.17	1720.29
286.38	1744.87
286.60	1726.44
286.81	1693.67
287.03	1714.15
287.24	1697.77
287.46	1769.44
287.67	1701.86
287.89	1837.03
288.10	1765.35
288.32	1808.36
288.53	1789.92
288.75	1693.67
288.96	1726.44
289.18	1619.94
289.39	1685.48
289.61	1744.87
289.82	1796.07
290.04	1781.73
290.25	1699.81
290.47	1716.20
290.68	1650.66
290.90	1791.97
291.11	1603.56
291.33	1763.30
291.54	1599.46
291.76	1705.96
291.97	1806.31
292.18	1722.34
292.40	1669.09
292.61	1603.56
292.83	1863.65
293.04	1736.68
293.26	1726.44
293.47	1722.34
293.69	1703.91
293.90	1751.01
294.12	1798.12
294.33	1710.05
294.55	1675.24
294.76	1718.25
294.97	1734.63
295.19	1806.31
295.40	1671.14
295.62	1650.66
295.83	1814.50
296.05	1640.42
296.26	1761.25
296.48	1650.66
296.69	1691.62
296.90	1708.01
297.12	1810.40
297.33	1728.49
297.55	1699.81
297.76	1720.29
297.98	1761.25
298.19	1722.34
298.41	1695.72
298.62	1566.70
298.83	1748.97
299.05	1638.38
299.26	1771.49
299.48	1691.62
299.69	1703.91
299.90	1755.11
300.12	1744.87
300.33	1738.73
300.55	1671.14
300.76	1679.33
300.98	1652.71
301.19	1771.49
301.40	1730.53
301.62	1681.38
301.83	1783.78
302.05	1611.75
302.26	1712.10
302.47	1738.73
302.69	1665.00
302.90	1714.15
303.12	1667.05
303.33	1779.68
303.54	1820.64
303.76	1685.48
303.97	1699.81
304.19	1804.26
304.40	1595.37
304.61	1806.31
304.83	1753.06
305.04	1796.07
305.26	1763.30
305.47	1671.14
305.68	1738.73
305.90	1626.09
306.11	1824.74
306.33	1656.81
306.54	1626.09
306.75	1693.67
306.97	1632.23
307.18	1648.61
307.39	1677.29
307.61	1703.91
307.82	1669.09
308.04	1701.86
308.25	1677.29
308.46	1726.44
308.68	1689.57
308.89	1718.25
309.10	1705.96
309.32	1693.67
309.53	1759.21
309.74	1716.20
309.96	1673.19
310.17	1708.01
310.39	1683.43
310.60	1736.68
310.81	1736.68
311.03	1566.70
311.24	1646.57
311.45	1779.68
311.67	1714.15
311.88	1708.01
312.09	1730.53
312.31	1712.10
312.52	1722.34
312.73	1693.67
312.95	1566.70
313.16	1724.39
313.37	1796.07
313.59	1691.62
313.80	1708.01
314.01	1783.78
314.23	1685.48
314.44	1689.57
314.65	1617.90
314.87	1607.66
315.08	1632.23
315.29	1681.38
315.51	1669.09
315.72	1621.99
315.93	1718.25
316.15	1734.63
316.36	1671.14
316.57	1744.87
316.79	1787.88
317.00	1621.99
317.21	1746.92
317.43	1718.25
317.64	1693.67
317.85	1642.47
318.07	1716.20
318.28	1679.33
318.49	1832.93
318.70	1859.56
318.92	1882.08
319.13	1777.64
319.34	1886.18
319.56	1777.64
319.77	1828.84
319.98	1806.31
320.20	1806.31
320.41	1757.16
320.62	1658.85
320.83	1665.00
321.05	1867.75
321.26	1718.25
321.47	1669.09
321.69	1705.96
321.90	1650.66
322.11	1689.57
322.32	1660.90
322.54	1757.16
322.75	1703.91
322.96	1880.04
323.18	1636.33
323.39	1656.81
323.60	1662.95
323.81	1773.54
324.03	1691.62
324.24	1671.14
324.45	1720.29
324.66	1730.53
324.88	1763.30
325.09	1796.07
325.30	1718.25
325.52	1734.63
325.73	1714.15
325.94	1615.85
326.15	1640.42
326.37	1693.67
326.58	1738.73
326.79	1796.07
327.00	1658.85
327.22	1740.77
327.43	1705.96
327.64	1634.28
327.85	1781.73
328.07	1777.64
328.28	1777.64
328.49	1648.61
328.70	1697.77
328.92	1705.96
329.13	1730.53
329.34	1818.60
329.55	1808.36
329.76	1812.45
329.98	1689.57
330.19	1738.73
330.40	1755.11
330.61	1732.58
330.83	1769.44
331.04	1632.23
331.25	1736.68
331.46	1667.05
331.68	1677.29
331.89	1773.54
332.10	1714.15
332.31	1609.70
332.52	1763.30
332.74	1718.25
332.95	1669.09
333.16	1761.25
333.37	1691.62
333.58	1679.33
333.80	1734.63
334.01	1730.53
334.22	1599.46
334.43	1675.24
334.64	1697.77
334.86	1619.94
335.07	1677.29
335.28	1777.64
335.49	1634.28
335.70	1722.34
335.92	1763.30
336.13	1818.60
336.34	1755.11
336.55	1773.54
336.76	1720.29
336.98	1648.61
337.19	1679.33
337.40	1845.22
337.61	1855.46
337.82	1675.24
338.04	1736.68
338.25	1628.14
338.46	1742.82
338.67	1640.42
338.88	1603.56
339.09	1634.28
339.31	1718.25
339.52	1640.42
339.73	1689.57
339.94	1710.05
340.15	1724.39
340.36	1683.43
340.58	1669.09
340.79	1617.90
341.00	1697.77
341.21	1646.57
341.42	1816.55
341.63	1667.05
341.85	1738.73
342.06	1665.00
342.27	1734.63
342.48	1738.73
342.69	1755.11
342.90	1632.23
343.12	1712.10
343.33	1695.72
343.54	1665.00
343.75	1765.35
343.96	1665.00
344.17	1660.90
344.38	1714.15
344.60	1662.95
344.81	1652.71
345.02	1677.29
345.23	1794.02
345.44	1843.17
345.65	1701.86
345.86	1685.48
346.07	1720.29
346.29	1636.33
346.50	1773.54
346.71	1718.25
346.92	1746.92
347.13	1789.92
347.34	1697.77
347.55	1675.24
347.76	1751.01
347.98	1587.18
348.19	1695.72
348.40	1796.07
348.61	1710.05
348.82	1804.26
349.03	1722.34
349.24	1652.71
349.45	1871.84
349.66	1615.85
349.88	1703.91
350.09	1677.29
350.30	1710.05
350.51	1699.81
350.72	1697.77
350.93	1746.92
351.14	1621.99
351.35	1689.57
351.56	1736.68
351.77	1742.82
351.99	1703.91
352.20	1857.51
352.41	1816.55
352.62	1624.04
352.83	1697.77
353.04	1650.66
353.25	1683.43
353.46	1734.63
353.67	1722.34
353.88	1681.38
354.09	1677.29
354.30	1626.09
354.52	1730.53
354.73	1728.49
354.94	1701.86
355.15	1677.29
355.36	1822.69
355.57	1681.38
355.78	1798.12
355.99	1697.77
356.20	1648.61
356.41	1755.11
356.62	1716.20
356.83	1667.05
357.04	1791.97
357.25	1708.01
357.46	1679.33
357.68	1609.70
357.89	1642.47
358.10	1777.64
358.31	1644.52
358.52	1681.38
358.73	1595.37
358.94	1708.01
359.15	1677.29
359.36	1765.35
359.57	1650.66
359.78	1693.67
359.99	1773.54
360.20	1632.23
360.41	1621.99
360.62	1689.57
360.83	1718.25
361.04	1667.05
361.25	1736.68
361.46	1767.40
361.67	1708.01
361.88	1785.83
362.09	1708.01
362.30	1697.77
362.51	1640.42
362.72	1699.81
362.93	1763.30
363.14	1722.34
363.35	1714.15
363.56	1703.91
363.78	1744.87
363.99	1800.16
364.20	1671.14
364.41	1742.82
364.62	1818.60
364.83	1767.40
365.04	1665.00
365.25	1712.10
365.46	1857.51
365.67	1687.53
365.88	1597.42
366.09	1710.05
366.30	1644.52
366.51	1724.39
366.72	1640.42
366.93	1677.29
367.14	1671.14
367.35	1781.73
367.56	1726.44
367.77	1738.73
367.98	1615.85
368.18	1679.33
368.39	1779.68
368.60	1650.66
368.81	1714.15
369.02	1652.71
369.23	1703.91
369.44	1597.42
369.65	1654.76
369.86	1746.92
370.07	1724.39
370.28	1554.41
370.49	1736.68
370.70	1691.62
370.91	1705.96
371.12	1638.38
371.33	1710.05
371.54	1701.86
371.75	1742.82
371.96	1546.22
372.17	1728.49
372.38	1693.67
372.59	1746.92
372.80	1720.29
373.01	1689.57
373.22	1722.34
373.43	1669.09
373.64	1677.29
373.85	1738.73
374.06	1857.51
374.26	1691.62
374.47	1703.91
374.68	1742.82
374.89	1667.05
375.10	1697.77
375.31	1708.01
375.52	1689.57
375.73	1722.34
375.94	1648.61
376.15	1755.11
376.36	1714.15
376.57	1681.38
376.78	1671.14
376.99	1720.29
377.20	1818.60
377.40	1650.66
377.61	1746.92
377.82	1689.57
378.03	1763.30
378.24	1730.53
378.45	1634.28
378.66	1798.12
378.87	1685.48
379.08	1560.55
379.29	1701.86
379.50	1781.73
379.71	1615.85
379.91	1755.11
380.12	1687.53
380.33	1716.20
380.54	1658.85
380.75	1685.48
380.96	1746.92
381.17	1751.01
381.38	1640.42
381.59	1728.49
381.80	1744.87
382.00	1908.71
382.21	1757.16
382.42	1845.22
382.63	1869.80
382.84	1734.63
383.05	1722.34
383.26	1812.45
383.47	1703.91
383.68	1654.76
383.88	1744.87
384.09	1787.88
384.30	1841.12
384.51	1726.44
384.72	1669.09
384.93	1634.28
385.14	1673.19
385.35	1796.07
385.55	1628.14
385.76	1746.92
385.97	1708.01
386.18	1677.29
386.39	1654.76
386.60	1665.00
386.81	1640.42
387.02	1671.14
387.22	1634.28
387.43	1800.16
387.64	1789.92
387.85	1826.79
388.06	2119.65
388.27	4198.34
388.48	6813.59
388.68	8224.64
388.89	9707.37
389.10	9682.80
389.31	8546.17
389.52	7688.07
389.73	6737.82
389.93	6301.60
390.14	5853.09
390.35	5234.61
390.56	4507.58
390.77	3868.61
390.98	3030.99
391.18	2531.29
391.39	2164.70
391.60	1853.41
391.81	1845.22
392.02	1695.72
392.23	1886.18
392.43	1738.73
392.64	1808.36
392.85	1675.24
393.06	1832.93
393.27	1693.67
393.47	1544.17
393.68	1669.09
393.89	1748.97
394.10	1806.31
394.31	1701.86
394.52	1660.90
394.72	1683.43
394.93	1824.74
395.14	1660.90
395.35	1714.15
395.56	1724.39
395.76	1759.21
395.97	1832.93
396.18	1880.04
396.39	1804.26
396.60	2052.06
396.80	1880.04
397.01	1783.78
397.22	1718.25
397.43	1888.23
397.64	1751.01
397.84	1767.40
398.05	1896.42
398.26	1759.21
398.47	1734.63
398.67	1765.35
398.88	1726.44
399.09	1734.63
399.30	1619.94
399.51	1783.78
399.71	1640.42
399.92	1705.96
400.13	1683.43
400.34	1685.48
400.54	1720.29
400.75	1736.68
400.96	1734.63
401.17	1722.34
401.37	1763.30
401.58	1683.43
401.79	1679.33
402.00	1918.95
402.21	2017.25
402.41	1935.33
402.62	2000.87
402.83	2033.63
403.04	1996.77
403.24	2076.64
403.45	1820.64
403.66	1816.55
403.87	1908.71
404.07	1945.57
404.28	1851.36
404.49	1841.12
404.70	1808.36
404.90	1718.25
405.11	1753.06
405.32	1703.91
405.52	1677.29
405.73	1632.23
405.94	1685.48
406.15	1665.00
406.35	1714.15
406.56	1748.97
406.77	1646.57
406.98	1705.96
407.18	1648.61
407.39	1665.00
407.60	1685.48
407.80	1734.63
408.01	1628.14
408.22	1714.15
408.43	1671.14
408.63	1763.30
408.84	1751.01
409.05	1777.64
409.25	1665.00
409.46	1642.47
409.67	1648.61
409.88	1673.19
410.08	1708.01
410.29	1636.33
410.50	1671.14
410.70	1761.25
410.91	1675.24
411.12	1718.25
411.32	1773.54
411.53	1636.33
411.74	1820.64
411.95	1769.44
412.15	1785.83
412.36	1703.91
412.57	1742.82
412.77	1771.49
412.98	1730.53
413.19	1763.30
413.39	1744.87
413.60	1779.68
413.81	1796.07
414.01	1693.67
414.22	1712.10
414.43	1705.96
414.63	1671.14
414.84	1730.53
415.05	1761.25
415.25	1652.71
415.46	1761.25
415.67	1667.05
415.87	1708.01
416.08	1701.86
416.29	1648.61
416.49	1673.19
416.70	1644.52
416.91	1656.81
417.11	1693.67
417.32	1726.44
417.53	1761.25
417.73	1689.57
417.94	1681.38
418.15	1744.87
418.35	1740.77
418.56	1730.53
418.77	1816.55
418.97	1775.59
419.18	1652.71
419.38	1591.27
419.59	1693.67
419.80	1736.68
420.00	1734.63
420.21	1718.25
420.42	1777.64
420.62	1708.01
420.83	1689.57
421.04	1611.75
421.24	1742.82
421.45	1701.86
421.65	1710.05
421.86	1697.77
422.07	1767.40
422.27	1724.39
422.48	1621.99
422.69	1708.01
422.89	1726.44
423.10	1667.05
423.30	1720.29
423.51	1691.62
423.72	1652.71
423.92	1718.25
424.13	1656.81
424.33	1728.49
424.54	1773.54
424.75	1765.35
424.95	1853.41
425.16	1779.68
425.36	1675.24
425.57	1757.16
425.78	1746.92
425.98	1755.11
426.19	1599.46
426.39	1689.57
426.60	1763.30
426.81	1826.79
427.01	1693.67
427.22	1681.38
427.42	1681.38
427.63	1652.71
427.83	1730.53
428.04	1849.32
428.25	1775.59
428.45	1734.63
428.66	1775.59
428.86	1734.63
429.07	1671.14
429.28	1728.49
429.48	1722.34
429.69	1660.90
429.89	1724.39
430.10	1667.05
430.30	1738.73
430.51	1710.05
430.71	1677.29
430.92	1634.28
431.13	1757.16
431.33	1697.77
431.54	1656.81
431.74	1779.68
431.95	1830.88
432.15	1599.46
432.36	1677.29
432.56	1710.05
432.77	1767.40
432.98	1863.65
433.18	1738.73
433.39	1738.73
433.59	1669.09
433.80	1886.18
434.00	1855.46
434.21	1740.77
434.41	1669.09
434.62	1896.42
434.82	1644.52
435.03	1636.33
435.23	1751.01
435.44	1617.90
435.64	1632.23
435.85	1720.29
436.06	1763.30
436.26	1646.57
436.47	1730.53
436.67	1658.85
436.88	1724.39
437.08	1740.77
437.29	1861.60
437.49	1769.44
437.70	1787.88
437.90	1718.25
438.11	1822.69
438.31	1761.25
438.52	1845.22
438.72	1869.80
438.93	1920.99
439.13	1796.07
439.34	1861.60
439.54	1849.32
439.75	1830.88
439.95	1832.93
440.16	1734.63
440.36	1697.77
440.57	1769.44
440.77	1714.15
440.98	1814.50
441.18	1755.11
441.39	1630.18
441.59	1642.47
441.80	1810.40
442.00	1689.57
442.21	1851.36
442.41	1705.96
442.62	1722.34
442.82	1730.53
443.02	1677.29
443.23	1693.67
443.43	1667.05
443.64	1779.68
443.84	1681.38
444.05	1824.74
444.25	1740.77
444.46	1748.97
444.66	1689.57
444.87	1746.92
445.07	1712.10
445.28	1685.48
445.48	1800.16
445.69	1697.77
445.89	1882.08
446.09	1798.12
446.30	2115.55
446.50	2594.78
446.71	3729.35
446.91	4249.54
447.12	4833.21
447.32	4786.10
447.53	4208.58
447.73	3848.13
447.93	3520.46
448.14	3332.05
448.34	3241.93
448.55	2863.06
448.75	2795.48
448.96	2605.02
449.16	2443.23
449.36	2369.50
449.57	2066.40
449.77	1976.29
449.98	1875.94
450.18	1814.50
450.39	1845.22
450.59	1746.92
450.79	1724.39
451.00	1695.72
451.20	1755.11
451.41	1730.53
451.61	1767.40
451.81	1738.73
452.02	1728.49
452.22	1722.34
452.43	1708.01
452.63	1697.77
