SpectraSuite Data File
++++++++++++++++++++++++++++++++++++
Date: Mon Jun 06 12:25:37 CEST 2016
User: root
Dark Spectrum Present: No
Reference Spectrum Present: No
Number of Sampled Component Spectra: 1
Spectrometers: USB4C02835
Integration Time (usec): 100000 (USB4C02835)
Spectra Averaged: 1 (USB4C02835)
Boxcar Smoothing: 0 (USB4C02835)
Correct for Electrical Dark: No (USB4C02835)
Strobe/Lamp Enabled: No (USB4C02835)
Correct for Detector Non-linearity: No (USB4C02835)
Correct for Stray Light: No (USB4C02835)
Number of Pixels in Processed Spectrum: 3648
>>>>>Begin Processed Spectral Data<<<<<
177.47	1456.11
177.69	1456.11
177.91	1456.11
178.13	1394.67
178.36	1464.30
178.58	1613.80
178.80	1746.92
179.02	1638.38
179.24	1642.47
179.46	1648.61
179.68	1822.69
179.90	1644.52
180.13	1634.28
180.35	1703.91
180.57	1697.77
180.79	1701.86
181.01	1708.01
181.23	1742.82
181.45	1730.53
181.67	1730.53
181.90	1679.33
182.12	1609.70
182.34	1679.33
182.56	1708.01
182.78	1722.34
183.00	1677.29
183.22	1689.57
183.44	1611.75
183.66	1861.60
183.89	1757.16
184.11	1755.11
184.33	1734.63
184.55	1779.68
184.77	1728.49
184.99	1708.01
185.21	1658.85
185.43	1828.84
185.65	1718.25
185.87	1642.47
186.10	1800.16
186.32	1830.88
186.54	1691.62
186.76	1767.40
186.98	1732.58
187.20	1738.73
187.42	1710.05
187.64	1720.29
187.86	1751.01
188.08	1742.82
188.30	1617.90
188.52	1712.10
188.75	1769.44
188.97	1738.73
189.19	1634.28
189.41	1714.15
189.63	1708.01
189.85	1734.63
190.07	1644.52
190.29	1658.85
190.51	1734.63
190.73	1656.81
190.95	1728.49
191.17	1636.33
191.39	1650.66
191.61	1683.43
191.84	1648.61
192.06	1730.53
192.28	1634.28
192.50	1820.64
192.72	1753.06
192.94	1636.33
193.16	1740.77
193.38	1693.67
193.60	1648.61
193.82	1648.61
194.04	1710.05
194.26	1621.99
194.48	1714.15
194.70	1624.04
194.92	1650.66
195.14	1738.73
195.36	1660.90
195.58	1677.29
195.80	1673.19
196.02	1705.96
196.24	1675.24
196.46	1669.09
196.69	1726.44
196.91	1779.68
197.13	1665.00
197.35	1656.81
197.57	1814.50
197.79	1830.88
198.01	1771.49
198.23	1734.63
198.45	1642.47
198.67	1660.90
198.89	1642.47
199.11	1718.25
199.33	1679.33
199.55	1626.09
199.77	1716.20
199.99	1769.44
200.21	1640.42
200.43	1662.95
200.65	1630.18
200.87	1570.79
201.09	1619.94
201.31	1673.19
201.53	1730.53
201.75	1685.48
201.97	1679.33
202.19	1630.18
202.41	1718.25
202.63	1763.30
202.85	1644.52
203.07	1769.44
203.29	1699.81
203.51	1583.08
203.73	1693.67
203.95	1839.08
204.17	1791.97
204.39	1718.25
204.61	1677.29
204.83	1628.14
205.05	1791.97
205.27	1683.43
205.49	1806.31
205.71	1699.81
205.93	1675.24
206.15	1671.14
206.37	1722.34
206.59	1654.76
206.81	1617.90
207.03	1642.47
207.25	1634.28
207.47	1771.49
207.69	1667.05
207.91	1746.92
208.13	1804.26
208.34	1667.05
208.56	1630.18
208.78	1763.30
209.00	1583.08
209.22	1714.15
209.44	1681.38
209.66	1669.09
209.88	1691.62
210.10	1665.00
210.32	1693.67
210.54	1755.11
210.76	1617.90
210.98	1738.73
211.20	1687.53
211.42	1691.62
211.64	1714.15
211.86	1720.29
212.08	1683.43
212.30	1703.91
212.52	1640.42
212.74	1712.10
212.96	1710.05
213.17	1718.25
213.39	1701.86
213.61	1767.40
213.83	1685.48
214.05	1660.90
214.27	1765.35
214.49	1658.85
214.71	1646.57
214.93	1769.44
215.15	1617.90
215.37	1695.72
215.59	1626.09
215.81	1732.58
216.03	1736.68
216.24	1714.15
216.46	1677.29
216.68	1671.14
216.90	1701.86
217.12	1736.68
217.34	1712.10
217.56	1687.53
217.78	1753.06
218.00	1705.96
218.22	1718.25
218.44	1781.73
218.66	1705.96
218.87	1822.69
219.09	1619.94
219.31	1744.87
219.53	1728.49
219.75	1669.09
219.97	1660.90
220.19	1734.63
220.41	1658.85
220.63	1748.97
220.85	1744.87
221.06	1685.48
221.28	1730.53
221.50	1714.15
221.72	1679.33
221.94	1710.05
222.16	1757.16
222.38	1714.15
222.60	1667.05
222.82	1652.71
223.03	1722.34
223.25	1701.86
223.47	1763.30
223.69	1740.77
223.91	1789.92
224.13	1656.81
224.35	1648.61
224.57	1751.01
224.78	1728.49
225.00	1697.77
225.22	1621.99
225.44	1705.96
225.66	1701.86
225.88	1722.34
226.10	1732.58
226.32	1665.00
226.53	1767.40
226.75	1673.19
226.97	1693.67
227.19	1665.00
227.41	1576.94
227.63	1648.61
227.85	1597.42
228.06	1796.07
228.28	1708.01
228.50	1699.81
228.72	1650.66
228.94	1667.05
229.16	1578.98
229.37	1687.53
229.59	1671.14
229.81	1732.58
230.03	1662.95
230.25	1615.85
230.47	1662.95
230.69	1648.61
230.90	1804.26
231.12	1638.38
231.34	1722.34
231.56	1718.25
231.78	1638.38
232.00	1681.38
232.21	1634.28
232.43	1697.77
232.65	1595.37
232.87	1771.49
233.09	1671.14
233.30	1621.99
233.52	1753.06
233.74	1683.43
233.96	1642.47
234.18	1665.00
234.40	1708.01
234.61	1888.23
234.83	1669.09
235.05	1615.85
235.27	1857.51
235.49	1724.39
235.70	1665.00
235.92	1763.30
236.14	1679.33
236.36	1906.66
236.58	1589.22
236.79	1718.25
237.01	1636.33
237.23	1665.00
237.45	1818.60
237.67	1656.81
237.88	1703.91
238.10	1710.05
238.32	1626.09
238.54	1652.71
238.76	1683.43
238.97	1665.00
239.19	1642.47
239.41	1695.72
239.63	1781.73
239.85	1699.81
240.06	1632.23
240.28	1708.01
240.50	1689.57
240.72	1718.25
240.93	1624.04
241.15	1693.67
241.37	1703.91
241.59	1740.77
241.81	1746.92
242.02	1681.38
242.24	1695.72
242.46	1748.97
242.68	1677.29
242.89	1720.29
243.11	1708.01
243.33	1732.58
243.55	1673.19
243.76	1681.38
243.98	1675.24
244.20	1665.00
244.42	1662.95
244.64	1705.96
244.85	1650.66
245.07	1673.19
245.29	1716.20
245.51	1724.39
245.72	1640.42
245.94	1718.25
246.16	1701.86
246.38	1697.77
246.59	1636.33
246.81	1652.71
247.03	1677.29
247.24	1570.79
247.46	1632.23
247.68	1624.04
247.90	1644.52
248.11	1632.23
248.33	1783.78
248.55	1685.48
248.77	1714.15
248.98	1759.21
249.20	1755.11
249.42	1685.48
249.64	1722.34
249.85	1691.62
250.07	1705.96
250.29	1765.35
250.50	1691.62
250.72	1597.42
250.94	1777.64
251.16	1812.45
251.37	1775.59
251.59	1728.49
251.81	1759.21
252.02	1755.11
252.24	1669.09
252.46	1841.12
252.68	1691.62
252.89	1675.24
253.11	1628.14
253.33	1771.49
253.54	1775.59
253.76	1660.90
253.98	1673.19
254.20	1699.81
254.41	1576.94
254.63	1658.85
254.85	1671.14
255.06	1714.15
255.28	1667.05
255.50	1705.96
255.71	1632.23
255.93	1675.24
256.15	1601.51
256.36	1714.15
256.58	1615.85
256.80	1771.49
257.02	1687.53
257.23	1714.15
257.45	1724.39
257.67	1703.91
257.88	1626.09
258.10	1681.38
258.32	1734.63
258.53	1732.58
258.75	1796.07
258.97	1730.53
259.18	1695.72
259.40	1734.63
259.62	1802.21
259.83	1789.92
260.05	1738.73
260.27	1925.09
260.48	1742.82
260.70	1636.33
260.92	1716.20
261.13	1767.40
261.35	1654.76
261.57	1681.38
261.78	1585.13
262.00	1617.90
262.22	1689.57
262.43	1613.80
262.65	1681.38
262.86	1695.72
263.08	1808.36
263.30	1718.25
263.51	1619.94
263.73	1718.25
263.95	1769.44
264.16	1634.28
264.38	1703.91
264.60	1708.01
264.81	1730.53
265.03	1736.68
265.25	1726.44
265.46	1697.77
265.68	1800.16
265.89	1705.96
266.11	1587.18
266.33	1736.68
266.54	1712.10
266.76	1779.68
266.98	1779.68
267.19	1794.02
267.41	1714.15
267.62	1716.20
267.84	1705.96
268.06	1763.30
268.27	1701.86
268.49	1744.87
268.70	1705.96
268.92	1675.24
269.14	1566.70
269.35	1656.81
269.57	1662.95
269.79	1753.06
270.00	1691.62
270.22	1841.12
270.43	1621.99
270.65	1546.22
270.87	1746.92
271.08	1732.58
271.30	1708.01
271.51	1730.53
271.73	1708.01
271.95	1710.05
272.16	1675.24
272.38	1755.11
272.59	1607.66
272.81	1724.39
273.02	1691.62
273.24	1675.24
273.46	1783.78
273.67	1591.27
273.89	1652.71
274.10	1669.09
274.32	1673.19
274.54	1697.77
274.75	1724.39
274.97	1642.47
275.18	1773.54
275.40	1687.53
275.61	1646.57
275.83	1699.81
276.05	1656.81
276.26	1667.05
276.48	1726.44
276.69	1597.42
276.91	1632.23
277.12	1843.17
277.34	1654.76
277.55	1736.68
277.77	1708.01
277.99	1662.95
278.20	1677.29
278.42	1679.33
278.63	1601.51
278.85	1656.81
279.06	1562.60
279.28	1710.05
279.49	1789.92
279.71	1744.87
279.93	1693.67
280.14	1675.24
280.36	1626.09
280.57	1708.01
280.79	1761.25
281.00	1687.53
281.22	1667.05
281.43	1787.88
281.65	1605.61
281.86	1683.43
282.08	1759.21
282.29	1773.54
282.51	1605.61
282.73	1628.14
282.94	1607.66
283.16	1634.28
283.37	1746.92
283.59	1621.99
283.80	1671.14
284.02	1724.39
284.23	1742.82
284.45	1699.81
284.66	1703.91
284.88	1636.33
285.09	1769.44
285.31	1736.68
285.52	1669.09
285.74	1626.09
285.95	1695.72
286.17	1691.62
286.38	1767.40
286.60	1648.61
286.81	1619.94
287.03	1691.62
287.24	1656.81
287.46	1722.34
287.67	1685.48
287.89	1853.41
288.10	1673.19
288.32	1736.68
288.53	1759.21
288.75	1708.01
288.96	1693.67
289.18	1699.81
289.39	1718.25
289.61	1744.87
289.82	1853.41
290.04	1808.36
290.25	1658.85
290.47	1650.66
290.68	1730.53
290.90	1710.05
291.11	1634.28
291.33	1796.07
291.54	1687.53
291.76	1681.38
291.97	1777.64
292.18	1677.29
292.40	1667.05
292.61	1652.71
292.83	1798.12
293.04	1783.78
293.26	1675.24
293.47	1675.24
293.69	1605.61
293.90	1683.43
294.12	1726.44
294.33	1662.95
294.55	1607.66
294.76	1726.44
294.97	1671.14
295.19	1853.41
295.40	1667.05
295.62	1779.68
295.83	1775.59
296.05	1632.23
296.26	1691.62
296.48	1660.90
296.69	1656.81
296.90	1681.38
297.12	1753.06
297.33	1718.25
297.55	1714.15
297.76	1705.96
297.98	1810.40
298.19	1675.24
298.41	1683.43
298.62	1660.90
298.83	1753.06
299.05	1681.38
299.26	1648.61
299.48	1603.56
299.69	1744.87
299.90	1730.53
300.12	1644.52
300.33	1748.97
300.55	1708.01
300.76	1726.44
300.98	1581.03
301.19	1722.34
301.40	1701.86
301.62	1697.77
301.83	1705.96
302.05	1599.46
302.26	1710.05
302.47	1724.39
302.69	1587.18
302.90	1744.87
303.12	1681.38
303.33	1716.20
303.54	1841.12
303.76	1624.04
303.97	1738.73
304.19	1763.30
304.40	1652.71
304.61	1708.01
304.83	1855.46
305.04	1806.31
305.26	1744.87
305.47	1689.57
305.68	1748.97
305.90	1595.37
306.11	1695.72
306.33	1710.05
306.54	1708.01
306.75	1609.70
306.97	1654.76
307.18	1626.09
307.39	1720.29
307.61	1740.77
307.82	1720.29
308.04	1708.01
308.25	1679.33
308.46	1695.72
308.68	1654.76
308.89	1726.44
309.10	1757.16
309.32	1732.58
309.53	1654.76
309.74	1675.24
309.96	1710.05
310.17	1761.25
310.39	1705.96
310.60	1734.63
310.81	1683.43
311.03	1703.91
311.24	1683.43
311.45	1722.34
311.67	1761.25
311.88	1710.05
312.09	1720.29
312.31	1583.08
312.52	1734.63
312.73	1699.81
312.95	1665.00
313.16	1685.48
313.37	1757.16
313.59	1804.26
313.80	1718.25
314.01	1736.68
314.23	1658.85
314.44	1646.57
314.65	1671.14
314.87	1654.76
315.08	1626.09
315.29	1652.71
315.51	1628.14
315.72	1599.46
315.93	1787.88
316.15	1701.86
316.36	1626.09
316.57	1675.24
316.79	1728.49
317.00	1654.76
317.21	1757.16
317.43	1658.85
317.64	1691.62
317.85	1718.25
318.07	1708.01
318.28	1722.34
318.49	1800.16
318.70	1894.37
318.92	1816.55
319.13	1769.44
319.34	1824.74
319.56	1757.16
319.77	1744.87
319.98	1781.73
320.20	1753.06
320.41	1730.53
320.62	1740.77
320.83	1650.66
321.05	1804.26
321.26	1691.62
321.47	1652.71
321.69	1734.63
321.90	1640.42
322.11	1640.42
322.32	1708.01
322.54	1730.53
322.75	1689.57
322.96	1818.60
323.18	1599.46
323.39	1617.90
323.60	1675.24
323.81	1751.01
324.03	1669.09
324.24	1689.57
324.45	1658.85
324.66	1632.23
324.88	1718.25
325.09	1748.97
325.30	1642.47
325.52	1738.73
325.73	1665.00
325.94	1642.47
326.15	1718.25
326.37	1617.90
326.58	1691.62
326.79	1796.07
327.00	1656.81
327.22	1701.86
327.43	1703.91
327.64	1642.47
327.85	1683.43
328.07	1667.05
328.28	1814.50
328.49	1628.14
328.70	1691.62
328.92	1718.25
329.13	1611.75
329.34	1742.82
329.55	1757.16
329.76	1740.77
329.98	1636.33
330.19	1798.12
330.40	1761.25
330.61	1757.16
330.83	1759.21
331.04	1574.89
331.25	1732.58
331.46	1673.19
331.68	1603.56
331.89	1787.88
332.10	1734.63
332.31	1636.33
332.52	1667.05
332.74	1773.54
332.95	1636.33
333.16	1652.71
333.37	1775.59
333.58	1648.61
333.80	1761.25
334.01	1550.31
334.22	1746.92
334.43	1728.49
334.64	1708.01
334.86	1699.81
335.07	1632.23
335.28	1796.07
335.49	1699.81
335.70	1710.05
335.92	1789.92
336.13	1820.64
336.34	1675.24
336.55	1712.10
336.76	1753.06
336.98	1621.99
337.19	1611.75
337.40	1791.97
337.61	1894.37
337.82	1683.43
338.04	1742.82
338.25	1691.62
338.46	1718.25
338.67	1648.61
338.88	1656.81
339.09	1681.38
339.31	1652.71
339.52	1578.98
339.73	1605.61
339.94	1734.63
340.15	1722.34
340.36	1759.21
340.58	1679.33
340.79	1701.86
341.00	1806.31
341.21	1617.90
341.42	1781.73
341.63	1781.73
341.85	1751.01
342.06	1734.63
342.27	1646.57
342.48	1710.05
342.69	1589.22
342.90	1654.76
343.12	1730.53
343.33	1667.05
343.54	1673.19
343.75	1701.86
343.96	1648.61
344.17	1593.32
344.38	1673.19
344.60	1652.71
344.81	1599.46
345.02	1683.43
345.23	1742.82
345.44	1732.58
345.65	1726.44
345.86	1695.72
346.07	1673.19
346.29	1742.82
346.50	1697.77
346.71	1703.91
346.92	1712.10
347.13	1812.45
347.34	1732.58
347.55	1673.19
347.76	1767.40
347.98	1527.78
348.19	1652.71
348.40	1796.07
348.61	1720.29
348.82	1742.82
349.03	1767.40
349.24	1685.48
349.45	1812.45
349.66	1591.27
349.88	1644.52
350.09	1660.90
350.30	1791.97
350.51	1703.91
350.72	1656.81
350.93	1722.34
351.14	1718.25
351.35	1714.15
351.56	1658.85
351.77	1683.43
351.99	1740.77
352.20	1867.75
352.41	1771.49
352.62	1587.18
352.83	1767.40
353.04	1681.38
353.25	1697.77
353.46	1632.23
353.67	1718.25
353.88	1615.85
354.09	1734.63
354.30	1769.44
354.52	1689.57
354.73	1699.81
354.94	1665.00
355.15	1648.61
355.36	1816.55
355.57	1621.99
355.78	1718.25
355.99	1685.48
356.20	1632.23
356.41	1773.54
356.62	1716.20
356.83	1665.00
357.04	1761.25
357.25	1644.52
357.46	1658.85
357.68	1646.57
357.89	1632.23
358.10	1693.67
358.31	1667.05
358.52	1767.40
358.73	1619.94
358.94	1662.95
359.15	1624.04
359.36	1783.78
359.57	1720.29
359.78	1701.86
359.99	1689.57
360.20	1687.53
360.41	1705.96
360.62	1710.05
360.83	1742.82
361.04	1724.39
361.25	1695.72
361.46	1753.06
361.67	1726.44
361.88	1751.01
362.09	1699.81
362.30	1759.21
362.51	1658.85
362.72	1673.19
362.93	1734.63
363.14	1816.55
363.35	1710.05
363.56	1646.57
363.78	1763.30
363.99	1753.06
364.20	1712.10
364.41	1654.76
364.62	1837.03
364.83	1695.72
365.04	1697.77
365.25	1593.32
365.46	1779.68
365.67	1660.90
365.88	1656.81
366.09	1695.72
366.30	1693.67
366.51	1675.24
366.72	1617.90
366.93	1654.76
367.14	1742.82
367.35	1775.59
367.56	1648.61
367.77	1742.82
367.98	1646.57
368.18	1781.73
368.39	1814.50
368.60	1648.61
368.81	1763.30
369.02	1730.53
369.23	1726.44
369.44	1621.99
369.65	1697.77
369.86	1732.58
370.07	1722.34
370.28	1685.48
370.49	1740.77
370.70	1726.44
370.91	1595.37
371.12	1638.38
371.33	1742.82
371.54	1640.42
371.75	1828.84
371.96	1515.50
372.17	1708.01
372.38	1619.94
372.59	1742.82
372.80	1619.94
373.01	1673.19
373.22	1642.47
373.43	1679.33
373.64	1632.23
373.85	1728.49
374.06	1789.92
374.26	1697.77
374.47	1708.01
374.68	1691.62
374.89	1648.61
375.10	1687.53
375.31	1781.73
375.52	1632.23
375.73	1662.95
375.94	1626.09
376.15	1771.49
376.36	1689.57
376.57	1660.90
376.78	1667.05
376.99	1763.30
377.20	1775.59
377.40	1630.18
377.61	1755.11
377.82	1632.23
378.03	1837.03
378.24	1685.48
378.45	1730.53
378.66	1714.15
378.87	1642.47
379.08	1677.29
379.29	1615.85
379.50	1746.92
379.71	1701.86
379.91	1701.86
380.12	1615.85
380.33	1716.20
380.54	1683.43
380.75	1716.20
380.96	1710.05
381.17	1746.92
381.38	1617.90
381.59	1660.90
381.80	1730.53
382.00	1765.35
382.21	1755.11
382.42	1824.74
382.63	1935.33
382.84	1726.44
383.05	1734.63
383.26	1746.92
383.47	1738.73
383.68	1769.44
383.88	1783.78
384.09	1755.11
384.30	1689.57
384.51	1775.59
384.72	1677.29
384.93	1652.71
385.14	1761.25
385.35	1787.88
385.55	1652.71
385.76	1765.35
385.97	1685.48
386.18	1609.70
386.39	1673.19
386.60	1714.15
386.81	1681.38
387.02	1675.24
387.22	1619.94
387.43	1755.11
387.64	1738.73
387.85	1918.95
388.06	2197.47
388.27	4245.44
388.48	6862.74
388.68	8275.84
388.89	9582.45
389.10	9770.86
389.31	8537.98
389.52	7522.19
389.73	6725.53
389.93	6236.06
390.14	5855.14
390.35	5187.50
390.56	4499.39
390.77	3780.55
390.98	3131.34
391.18	2537.43
391.39	2146.27
391.60	1808.36
391.81	1794.02
392.02	1691.62
392.23	1806.31
392.43	1703.91
392.64	1763.30
392.85	1640.42
393.06	1802.21
393.27	1712.10
393.47	1642.47
393.68	1734.63
393.89	1728.49
394.10	1839.08
394.31	1615.85
394.52	1621.99
394.72	1671.14
394.93	1802.21
395.14	1560.55
395.35	1800.16
395.56	1646.57
395.76	1648.61
395.97	1710.05
396.18	1832.93
396.39	1877.99
396.60	1968.10
396.80	1890.28
397.01	1804.26
397.22	1789.92
397.43	1847.27
397.64	1755.11
397.84	1824.74
398.05	1859.56
398.26	1724.39
398.47	1826.79
398.67	1773.54
398.88	1718.25
399.09	1689.57
399.30	1636.33
399.51	1808.36
399.71	1742.82
399.92	1665.00
400.13	1689.57
400.34	1724.39
400.54	1693.67
400.75	1744.87
400.96	1724.39
401.17	1806.31
401.37	1759.21
401.58	1679.33
401.79	1794.02
402.00	1859.56
402.21	2045.92
402.41	1964.00
402.62	1941.47
402.83	2068.45
403.04	1943.52
403.24	2033.63
403.45	1839.08
403.66	1923.04
403.87	1863.65
404.07	1929.19
404.28	1886.18
404.49	1804.26
404.70	1779.68
404.90	1818.60
405.11	1699.81
405.32	1644.52
405.52	1701.86
405.73	1654.76
405.94	1638.38
406.15	1794.02
406.35	1697.77
406.56	1701.86
406.77	1724.39
406.98	1726.44
407.18	1634.28
407.39	1802.21
407.60	1648.61
407.80	1798.12
408.01	1759.21
408.22	1710.05
408.43	1624.04
408.63	1730.53
408.84	1734.63
409.05	1708.01
409.25	1564.65
409.46	1619.94
409.67	1679.33
409.88	1660.90
410.08	1671.14
410.29	1726.44
410.50	1746.92
410.70	1744.87
410.91	1669.09
411.12	1757.16
411.32	1701.86
411.53	1609.70
411.74	1800.16
411.95	1738.73
412.15	1748.97
412.36	1720.29
412.57	1808.36
412.77	1693.67
412.98	1757.16
413.19	1708.01
413.39	1791.97
413.60	1720.29
413.81	1812.45
414.01	1615.85
414.22	1746.92
414.43	1714.15
414.63	1673.19
414.84	1791.97
415.05	1689.57
415.25	1697.77
415.46	1675.24
415.67	1718.25
415.87	1681.38
416.08	1779.68
416.29	1710.05
416.49	1781.73
416.70	1619.94
416.91	1701.86
417.11	1636.33
417.32	1767.40
417.53	1765.35
417.73	1761.25
417.94	1703.91
418.15	1718.25
418.35	1673.19
418.56	1705.96
418.77	1808.36
418.97	1734.63
419.18	1671.14
419.38	1636.33
419.59	1675.24
419.80	1773.54
420.00	1681.38
420.21	1771.49
420.42	1789.92
420.62	1753.06
420.83	1683.43
421.04	1656.81
421.24	1648.61
421.45	1683.43
421.65	1685.48
421.86	1667.05
422.07	1724.39
422.27	1705.96
422.48	1671.14
422.69	1656.81
422.89	1691.62
423.10	1677.29
423.30	1681.38
423.51	1767.40
423.72	1730.53
423.92	1730.53
424.13	1673.19
424.33	1681.38
424.54	1806.31
424.75	1736.68
424.95	1830.88
425.16	1705.96
425.36	1683.43
425.57	1767.40
425.78	1812.45
425.98	1755.11
426.19	1683.43
426.39	1660.90
426.60	1734.63
426.81	1781.73
427.01	1705.96
427.22	1669.09
427.42	1611.75
427.63	1675.24
427.83	1736.68
428.04	1863.65
428.25	1759.21
428.45	1734.63
428.66	1775.59
428.86	1691.62
429.07	1744.87
429.28	1732.58
429.48	1660.90
429.69	1685.48
429.89	1738.73
430.10	1665.00
430.30	1693.67
430.51	1794.02
430.71	1626.09
430.92	1703.91
431.13	1667.05
431.33	1652.71
431.54	1722.34
431.74	1771.49
431.95	1814.50
432.15	1673.19
432.36	1697.77
432.56	1695.72
432.77	1779.68
432.98	1804.26
433.18	1763.30
433.39	1662.95
433.59	1691.62
433.80	1755.11
434.00	1820.64
434.21	1654.76
434.41	1632.23
434.62	1861.60
434.82	1650.66
435.03	1646.57
435.23	1710.05
435.44	1695.72
435.64	1740.77
435.85	1701.86
436.06	1800.16
436.26	1755.11
436.47	1671.14
436.67	1648.61
436.88	1671.14
437.08	1773.54
437.29	1822.69
437.49	1734.63
437.70	1863.65
437.90	1642.47
438.11	1816.55
438.31	1734.63
438.52	1824.74
438.72	1781.73
438.93	1941.47
439.13	1783.78
439.34	1847.27
439.54	1791.97
439.75	1744.87
439.95	1734.63
440.16	1701.86
440.36	1765.35
440.57	1718.25
440.77	1716.20
440.98	1724.39
441.18	1685.48
441.39	1677.29
441.59	1681.38
441.80	1820.64
442.00	1751.01
442.21	1839.08
442.41	1703.91
442.62	1865.70
442.82	1662.95
443.02	1736.68
443.23	1736.68
443.43	1720.29
443.64	1757.16
443.84	1621.99
444.05	1753.06
444.25	1701.86
444.46	1658.85
444.66	1658.85
444.87	1804.26
445.07	1646.57
445.28	1693.67
445.48	1834.98
445.69	1816.55
445.89	1839.08
446.09	1693.67
446.30	2035.68
446.50	2740.18
446.71	3760.07
446.91	4278.21
447.12	4708.28
447.32	4714.42
447.53	4321.21
447.73	3903.43
447.93	3514.31
448.14	3246.03
448.34	3143.63
448.55	2889.68
448.75	2750.42
448.96	2787.29
449.16	2447.32
449.36	2279.39
449.57	2054.11
449.77	1837.03
449.98	1789.92
450.18	1773.54
450.39	1767.40
450.59	1689.57
450.79	1779.68
451.00	1591.27
451.20	1863.65
451.41	1624.04
451.61	1771.49
451.81	1654.76
452.02	1689.57
452.22	1632.23
452.43	1726.44
452.63	1677.29
