SpectraSuite Data File
++++++++++++++++++++++++++++++++++++
Date: Mon Jun 06 12:43:17 CEST 2016
User: root
Dark Spectrum Present: No
Reference Spectrum Present: No
Number of Sampled Component Spectra: 1
Spectrometers: USB4C02835
Integration Time (usec): 100000 (USB4C02835)
Spectra Averaged: 1 (USB4C02835)
Boxcar Smoothing: 0 (USB4C02835)
Correct for Electrical Dark: No (USB4C02835)
Strobe/Lamp Enabled: No (USB4C02835)
Correct for Detector Non-linearity: No (USB4C02835)
Correct for Stray Light: No (USB4C02835)
Number of Pixels in Processed Spectrum: 3648
>>>>>Begin Processed Spectral Data<<<<<
177.47	1435.63
177.69	1435.63
177.91	1435.63
178.13	1513.45
178.36	1441.77
178.58	1617.90
178.80	1677.29
179.02	1621.99
179.24	1599.46
179.46	1683.43
179.68	1728.49
179.90	1640.42
180.13	1658.85
180.35	1677.29
180.57	1669.09
180.79	1767.40
181.01	1621.99
181.23	1785.83
181.45	1732.58
181.67	1806.31
181.90	1794.02
182.12	1699.81
182.34	1595.37
182.56	1734.63
182.78	1693.67
183.00	1646.57
183.22	1644.52
183.44	1589.22
183.66	1806.31
183.89	1785.83
184.11	1656.81
184.33	1632.23
184.55	1689.57
184.77	1746.92
184.99	1779.68
185.21	1685.48
185.43	1789.92
185.65	1681.38
185.87	1740.77
186.10	1859.56
186.32	1800.16
186.54	1673.19
186.76	1716.20
186.98	1759.21
187.20	1738.73
187.42	1632.23
187.64	1708.01
187.86	1705.96
188.08	1681.38
188.30	1718.25
188.52	1734.63
188.75	1832.93
188.97	1828.84
189.19	1710.05
189.41	1677.29
189.63	1689.57
189.85	1697.77
190.07	1652.71
190.29	1595.37
190.51	1761.25
190.73	1675.24
190.95	1722.34
191.17	1697.77
191.39	1630.18
191.61	1646.57
191.84	1669.09
192.06	1730.53
192.28	1644.52
192.50	1808.36
192.72	1746.92
192.94	1755.11
193.16	1757.16
193.38	1689.57
193.60	1687.53
193.82	1658.85
194.04	1751.01
194.26	1730.53
194.48	1656.81
194.70	1636.33
194.92	1665.00
195.14	1802.21
195.36	1669.09
195.58	1720.29
195.80	1701.86
196.02	1648.61
196.24	1605.61
196.46	1714.15
196.69	1630.18
196.91	1843.17
197.13	1705.96
197.35	1638.38
197.57	1779.68
197.79	1771.49
198.01	1652.71
198.23	1748.97
198.45	1755.11
198.67	1621.99
198.89	1703.91
199.11	1701.86
199.33	1701.86
199.55	1585.13
199.77	1677.29
199.99	1724.39
200.21	1710.05
200.43	1744.87
200.65	1621.99
200.87	1609.70
201.09	1675.24
201.31	1722.34
201.53	1738.73
201.75	1689.57
201.97	1628.14
202.19	1695.72
202.41	1767.40
202.63	1847.27
202.85	1796.07
203.07	1681.38
203.29	1679.33
203.51	1693.67
203.73	1675.24
203.95	1882.08
204.17	1648.61
204.39	1669.09
204.61	1757.16
204.83	1652.71
205.05	1769.44
205.27	1660.90
205.49	1853.41
205.71	1695.72
205.93	1640.42
206.15	1648.61
206.37	1785.83
206.59	1691.62
206.81	1671.14
207.03	1648.61
207.25	1634.28
207.47	1710.05
207.69	1687.53
207.91	1820.64
208.13	1757.16
208.34	1705.96
208.56	1591.27
208.78	1701.86
209.00	1665.00
209.22	1705.96
209.44	1710.05
209.66	1652.71
209.88	1697.77
210.10	1681.38
210.32	1712.10
210.54	1773.54
210.76	1730.53
210.98	1691.62
211.20	1603.56
211.42	1712.10
211.64	1837.03
211.86	1677.29
212.08	1628.14
212.30	1765.35
212.52	1693.67
212.74	1712.10
212.96	1658.85
213.17	1751.01
213.39	1701.86
213.61	1761.25
213.83	1734.63
214.05	1609.70
214.27	1800.16
214.49	1636.33
214.71	1714.15
214.93	1716.20
215.15	1691.62
215.37	1777.64
215.59	1656.81
215.81	1806.31
216.03	1748.97
216.24	1705.96
216.46	1701.86
216.68	1701.86
216.90	1751.01
217.12	1730.53
217.34	1640.42
217.56	1781.73
217.78	1828.84
218.00	1634.28
218.22	1738.73
218.44	1695.72
218.66	1673.19
218.87	1816.55
219.09	1683.43
219.31	1691.62
219.53	1701.86
219.75	1632.23
219.97	1679.33
220.19	1699.81
220.41	1699.81
220.63	1769.44
220.85	1730.53
221.06	1697.77
221.28	1789.92
221.50	1724.39
221.72	1705.96
221.94	1736.68
222.16	1650.66
222.38	1753.06
222.60	1773.54
222.82	1650.66
223.03	1787.88
223.25	1705.96
223.47	1771.49
223.69	1779.68
223.91	1753.06
224.13	1722.34
224.35	1740.77
224.57	1718.25
224.78	1767.40
225.00	1624.04
225.22	1658.85
225.44	1697.77
225.66	1738.73
225.88	1652.71
226.10	1738.73
226.32	1738.73
226.53	1845.22
226.75	1746.92
226.97	1691.62
227.19	1648.61
227.41	1691.62
227.63	1708.01
227.85	1609.70
228.06	1665.00
228.28	1734.63
228.50	1697.77
228.72	1638.38
228.94	1652.71
229.16	1677.29
229.37	1652.71
229.59	1695.72
229.81	1755.11
230.03	1699.81
230.25	1654.76
230.47	1665.00
230.69	1550.31
230.90	1708.01
231.12	1673.19
231.34	1665.00
231.56	1679.33
231.78	1665.00
232.00	1675.24
232.21	1683.43
232.43	1705.96
232.65	1630.18
232.87	1681.38
233.09	1687.53
233.30	1677.29
233.52	1708.01
233.74	1646.57
233.96	1710.05
234.18	1685.48
234.40	1593.32
234.61	1761.25
234.83	1679.33
235.05	1607.66
235.27	1890.28
235.49	1804.26
235.70	1677.29
235.92	1757.16
236.14	1779.68
236.36	1804.26
236.58	1687.53
236.79	1710.05
237.01	1638.38
237.23	1730.53
237.45	1783.78
237.67	1595.37
237.88	1703.91
238.10	1775.59
238.32	1718.25
238.54	1660.90
238.76	1656.81
238.97	1646.57
239.19	1671.14
239.41	1800.16
239.63	1773.54
239.85	1652.71
240.06	1683.43
240.28	1665.00
240.50	1785.83
240.72	1716.20
240.93	1679.33
241.15	1800.16
241.37	1679.33
241.59	1783.78
241.81	1703.91
242.02	1699.81
242.24	1687.53
242.46	1693.67
242.68	1673.19
242.89	1714.15
243.11	1732.58
243.33	1703.91
243.55	1748.97
243.76	1722.34
243.98	1636.33
244.20	1697.77
244.42	1658.85
244.64	1781.73
244.85	1669.09
245.07	1597.42
245.29	1785.83
245.51	1710.05
245.72	1820.64
245.94	1841.12
246.16	1732.58
246.38	1695.72
246.59	1673.19
246.81	1601.51
247.03	1650.66
247.24	1546.22
247.46	1681.38
247.68	1687.53
247.90	1763.30
248.11	1611.75
248.33	1753.06
248.55	1738.73
248.77	1763.30
248.98	1738.73
249.20	1777.64
249.42	1652.71
249.64	1734.63
249.85	1722.34
250.07	1654.76
250.29	1781.73
250.50	1751.01
250.72	1603.56
250.94	1726.44
251.16	1796.07
251.37	1796.07
251.59	1753.06
251.81	1816.55
252.02	1779.68
252.24	1654.76
252.46	1779.68
252.68	1650.66
252.89	1697.77
253.11	1619.94
253.33	1820.64
253.54	1697.77
253.76	1644.52
253.98	1701.86
254.20	1673.19
254.41	1603.56
254.63	1751.01
254.85	1642.47
255.06	1677.29
255.28	1660.90
255.50	1640.42
255.71	1701.86
255.93	1581.03
256.15	1675.24
256.36	1775.59
256.58	1697.77
256.80	1779.68
257.02	1722.34
257.23	1611.75
257.45	1757.16
257.67	1740.77
257.88	1681.38
258.10	1740.77
258.32	1681.38
258.53	1775.59
258.75	1828.84
258.97	1701.86
259.18	1699.81
259.40	1677.29
259.62	1806.31
259.83	1769.44
260.05	1734.63
260.27	1957.86
260.48	1650.66
260.70	1630.18
260.92	1671.14
261.13	1728.49
261.35	1677.29
261.57	1726.44
261.78	1646.57
262.00	1646.57
262.22	1656.81
262.43	1712.10
262.65	1722.34
262.86	1763.30
263.08	1763.30
263.30	1769.44
263.51	1599.46
263.73	1671.14
263.95	1777.64
264.16	1640.42
264.38	1665.00
264.60	1705.96
264.81	1658.85
265.03	1798.12
265.25	1714.15
265.46	1724.39
265.68	1740.77
265.89	1783.78
266.11	1593.32
266.33	1783.78
266.54	1714.15
266.76	1701.86
266.98	1675.24
267.19	1812.45
267.41	1832.93
267.62	1714.15
267.84	1644.52
268.06	1765.35
268.27	1646.57
268.49	1742.82
268.70	1705.96
268.92	1718.25
269.14	1673.19
269.35	1636.33
269.57	1755.11
269.79	1669.09
270.00	1718.25
270.22	1777.64
270.43	1630.18
270.65	1560.55
270.87	1683.43
271.08	1722.34
271.30	1785.83
271.51	1685.48
271.73	1732.58
271.95	1714.15
272.16	1644.52
272.38	1724.39
272.59	1634.28
272.81	1816.55
273.02	1683.43
273.24	1720.29
273.46	1748.97
273.67	1656.81
273.89	1712.10
274.10	1640.42
274.32	1753.06
274.54	1728.49
274.75	1687.53
274.97	1658.85
275.18	1761.25
275.40	1732.58
275.61	1705.96
275.83	1665.00
276.05	1587.18
276.26	1630.18
276.48	1667.05
276.69	1728.49
276.91	1644.52
277.12	1689.57
277.34	1738.73
277.55	1689.57
277.77	1726.44
277.99	1701.86
278.20	1656.81
278.42	1654.76
278.63	1632.23
278.85	1708.01
279.06	1660.90
279.28	1777.64
279.49	1753.06
279.71	1705.96
279.93	1687.53
280.14	1701.86
280.36	1615.85
280.57	1738.73
280.79	1742.82
281.00	1693.67
281.22	1624.04
281.43	1822.69
281.65	1574.89
281.86	1640.42
282.08	1789.92
282.29	1787.88
282.51	1648.61
282.73	1626.09
282.94	1609.70
283.16	1724.39
283.37	1775.59
283.59	1673.19
283.80	1746.92
284.02	1714.15
284.23	1683.43
284.45	1615.85
284.66	1662.95
284.88	1646.57
285.09	1705.96
285.31	1667.05
285.52	1763.30
285.74	1589.22
285.95	1798.12
286.17	1757.16
286.38	1761.25
286.60	1755.11
286.81	1630.18
287.03	1697.77
287.24	1703.91
287.46	1710.05
287.67	1728.49
287.89	1816.55
288.10	1742.82
288.32	1697.77
288.53	1867.75
288.75	1757.16
288.96	1746.92
289.18	1730.53
289.39	1648.61
289.61	1740.77
289.82	1804.26
290.04	1839.08
290.25	1621.99
290.47	1675.24
290.68	1728.49
290.90	1740.77
291.11	1662.95
291.33	1701.86
291.54	1615.85
291.76	1693.67
291.97	1628.14
292.18	1755.11
292.40	1716.20
292.61	1671.14
292.83	1890.28
293.04	1673.19
293.26	1728.49
293.47	1701.86
293.69	1601.51
293.90	1697.77
294.12	1767.40
294.33	1658.85
294.55	1675.24
294.76	1667.05
294.97	1753.06
295.19	1824.74
295.40	1708.01
295.62	1734.63
295.83	1722.34
296.05	1636.33
296.26	1748.97
296.48	1708.01
296.69	1685.48
296.90	1699.81
297.12	1773.54
297.33	1697.77
297.55	1654.76
297.76	1781.73
297.98	1730.53
298.19	1695.72
298.41	1652.71
298.62	1628.14
298.83	1796.07
299.05	1685.48
299.26	1708.01
299.48	1720.29
299.69	1712.10
299.90	1724.39
300.12	1595.37
300.33	1712.10
300.55	1691.62
300.76	1761.25
300.98	1617.90
301.19	1798.12
301.40	1730.53
301.62	1705.96
301.83	1613.80
302.05	1726.44
302.26	1714.15
302.47	1683.43
302.69	1578.98
302.90	1724.39
303.12	1572.84
303.33	1775.59
303.54	1761.25
303.76	1658.85
303.97	1701.86
304.19	1757.16
304.40	1652.71
304.61	1789.92
304.83	1761.25
305.04	1716.20
305.26	1640.42
305.47	1628.14
305.68	1714.15
305.90	1658.85
306.11	1683.43
306.33	1757.16
306.54	1669.09
306.75	1662.95
306.97	1624.04
307.18	1562.60
307.39	1669.09
307.61	1689.57
307.82	1665.00
308.04	1689.57
308.25	1705.96
308.46	1699.81
308.68	1740.77
308.89	1730.53
309.10	1816.55
309.32	1714.15
309.53	1683.43
309.74	1679.33
309.96	1654.76
310.17	1722.34
310.39	1681.38
310.60	1732.58
310.81	1714.15
311.03	1658.85
311.24	1779.68
311.45	1685.48
311.67	1861.60
311.88	1755.11
312.09	1710.05
312.31	1652.71
312.52	1712.10
312.73	1720.29
312.95	1701.86
313.16	1708.01
313.37	1759.21
313.59	1660.90
313.80	1679.33
314.01	1871.84
314.23	1675.24
314.44	1685.48
314.65	1671.14
314.87	1595.37
315.08	1746.92
315.29	1660.90
315.51	1714.15
315.72	1665.00
315.93	1798.12
316.15	1734.63
316.36	1744.87
316.57	1648.61
316.79	1765.35
317.00	1708.01
317.21	1656.81
317.43	1671.14
317.64	1658.85
317.85	1673.19
318.07	1640.42
318.28	1726.44
318.49	1685.48
318.70	1980.39
318.92	1796.07
319.13	1769.44
319.34	1845.22
319.56	1771.49
319.77	1765.35
319.98	1816.55
320.20	1753.06
320.41	1771.49
320.62	1806.31
320.83	1736.68
321.05	1863.65
321.26	1697.77
321.47	1658.85
321.69	1791.97
321.90	1671.14
322.11	1746.92
322.32	1724.39
322.54	1781.73
322.75	1697.77
322.96	1832.93
323.18	1628.14
323.39	1587.18
323.60	1656.81
323.81	1718.25
324.03	1675.24
324.24	1734.63
324.45	1665.00
324.66	1654.76
324.88	1728.49
325.09	1730.53
325.30	1681.38
325.52	1775.59
325.73	1677.29
325.94	1671.14
326.15	1652.71
326.37	1693.67
326.58	1771.49
326.79	1773.54
327.00	1697.77
327.22	1730.53
327.43	1738.73
327.64	1628.14
327.85	1748.97
328.07	1751.01
328.28	1781.73
328.49	1712.10
328.70	1638.38
328.92	1712.10
329.13	1650.66
329.34	1634.28
329.55	1744.87
329.76	1693.67
329.98	1710.05
330.19	1783.78
330.40	1736.68
330.61	1679.33
330.83	1753.06
331.04	1673.19
331.25	1611.75
331.46	1671.14
331.68	1621.99
331.89	1730.53
332.10	1712.10
332.31	1658.85
332.52	1730.53
332.74	1818.60
332.95	1626.09
333.16	1697.77
333.37	1718.25
333.58	1783.78
333.80	1794.02
334.01	1646.57
334.22	1681.38
334.43	1671.14
334.64	1667.05
334.86	1648.61
335.07	1681.38
335.28	1767.40
335.49	1601.51
335.70	1703.91
335.92	1783.78
336.13	1779.68
336.34	1730.53
336.55	1697.77
336.76	1679.33
336.98	1587.18
337.19	1660.90
337.40	1804.26
337.61	1845.22
337.82	1667.05
338.04	1759.21
338.25	1642.47
338.46	1683.43
338.67	1648.61
338.88	1621.99
339.09	1648.61
339.31	1695.72
339.52	1716.20
339.73	1730.53
339.94	1681.38
340.15	1703.91
340.36	1656.81
340.58	1677.29
340.79	1626.09
341.00	1716.20
341.21	1658.85
341.42	1759.21
341.63	1703.91
341.85	1734.63
342.06	1720.29
342.27	1685.48
342.48	1716.20
342.69	1599.46
342.90	1765.35
343.12	1695.72
343.33	1720.29
343.54	1728.49
343.75	1798.12
343.96	1734.63
344.17	1685.48
344.38	1726.44
344.60	1701.86
344.81	1656.81
345.02	1705.96
345.23	1718.25
345.44	1812.45
345.65	1732.58
345.86	1771.49
346.07	1642.47
346.29	1636.33
346.50	1724.39
346.71	1769.44
346.92	1753.06
347.13	1791.97
347.34	1728.49
347.55	1722.34
347.76	1800.16
347.98	1675.24
348.19	1738.73
348.40	1789.92
348.61	1703.91
348.82	1779.68
349.03	1755.11
349.24	1628.14
349.45	1861.60
349.66	1585.13
349.88	1642.47
350.09	1699.81
350.30	1853.41
350.51	1753.06
350.72	1671.14
350.93	1730.53
351.14	1708.01
351.35	1748.97
351.56	1652.71
351.77	1675.24
351.99	1705.96
352.20	1761.25
352.41	1736.68
352.62	1578.98
352.83	1716.20
353.04	1656.81
353.25	1673.19
353.46	1744.87
353.67	1810.40
353.88	1636.33
354.09	1755.11
354.30	1644.52
354.52	1736.68
354.73	1681.38
354.94	1689.57
355.15	1677.29
355.36	1798.12
355.57	1652.71
355.78	1714.15
355.99	1693.67
356.20	1673.19
356.41	1716.20
356.62	1728.49
356.83	1691.62
357.04	1845.22
357.25	1601.51
357.46	1626.09
357.68	1656.81
357.89	1744.87
358.10	1662.95
358.31	1685.48
358.52	1697.77
358.73	1673.19
358.94	1646.57
359.15	1599.46
359.36	1746.92
359.57	1716.20
359.78	1697.77
359.99	1732.58
360.20	1589.22
360.41	1693.67
360.62	1701.86
360.83	1771.49
361.04	1708.01
361.25	1705.96
361.46	1830.88
361.67	1671.14
361.88	1712.10
362.09	1708.01
362.30	1679.33
362.51	1542.12
362.72	1830.88
362.93	1730.53
363.14	1789.92
363.35	1730.53
363.56	1636.33
363.78	1755.11
363.99	1781.73
364.20	1683.43
364.41	1751.01
364.62	1865.70
364.83	1767.40
365.04	1722.34
365.25	1705.96
365.46	1761.25
365.67	1708.01
365.88	1644.52
366.09	1667.05
366.30	1703.91
366.51	1718.25
366.72	1730.53
366.93	1685.48
367.14	1724.39
367.35	1730.53
367.56	1644.52
367.77	1781.73
367.98	1744.87
368.18	1746.92
368.39	1697.77
368.60	1703.91
368.81	1611.75
369.02	1757.16
369.23	1677.29
369.44	1644.52
369.65	1671.14
369.86	1746.92
370.07	1775.59
370.28	1628.14
370.49	1746.92
370.70	1722.34
370.91	1701.86
371.12	1599.46
371.33	1679.33
371.54	1650.66
371.75	1785.83
371.96	1587.18
372.17	1667.05
372.38	1667.05
372.59	1751.01
372.80	1675.24
373.01	1634.28
373.22	1718.25
373.43	1798.12
373.64	1642.47
373.85	1812.45
374.06	1742.82
374.26	1722.34
374.47	1753.06
374.68	1726.44
374.89	1722.34
375.10	1712.10
375.31	1744.87
375.52	1665.00
375.73	1837.03
375.94	1673.19
376.15	1753.06
376.36	1685.48
376.57	1769.44
376.78	1568.74
376.99	1685.48
377.20	1800.16
377.40	1738.73
377.61	1757.16
377.82	1656.81
378.03	1685.48
378.24	1783.78
378.45	1697.77
378.66	1724.39
378.87	1613.80
379.08	1599.46
379.29	1718.25
379.50	1726.44
379.71	1693.67
379.91	1781.73
380.12	1703.91
380.33	1697.77
380.54	1718.25
380.75	1732.58
380.96	1654.76
381.17	1853.41
381.38	1728.49
381.59	1691.62
381.80	1615.85
382.00	1779.68
382.21	1732.58
382.42	1726.44
382.63	1884.13
382.84	1777.64
383.05	1730.53
383.26	1751.01
383.47	1728.49
383.68	1847.27
383.88	1681.38
384.09	1667.05
384.30	1824.74
384.51	1767.40
384.72	1734.63
384.93	1671.14
385.14	1728.49
385.35	1681.38
385.55	1656.81
385.76	1779.68
385.97	1724.39
386.18	1652.71
386.39	1695.72
386.60	1601.51
386.81	1642.47
387.02	1708.01
387.22	1667.05
387.43	1732.58
387.64	1779.68
387.85	1970.15
388.06	2168.80
388.27	4263.87
388.48	6766.49
388.68	8245.12
388.89	9725.80
389.10	10106.73
389.31	8769.40
389.52	7636.88
389.73	6772.63
389.93	6211.49
390.14	5912.49
390.35	5109.68
390.56	4597.69
390.77	3811.27
390.98	3030.99
391.18	2502.62
391.39	2068.45
391.60	1828.84
391.81	1888.23
392.02	1699.81
392.23	1753.06
392.43	1748.97
392.64	1808.36
392.85	1753.06
393.06	1763.30
393.27	1703.91
393.47	1626.09
393.68	1685.48
393.89	1677.29
394.10	1779.68
394.31	1671.14
394.52	1679.33
394.72	1605.61
394.93	1771.49
395.14	1685.48
395.35	1767.40
395.56	1681.38
395.76	1705.96
395.97	1763.30
396.18	1802.21
396.39	1769.44
396.60	2088.93
396.80	1933.28
397.01	1826.79
397.22	1796.07
397.43	1820.64
397.64	1738.73
397.84	1861.60
398.05	1892.32
398.26	1730.53
398.47	1783.78
398.67	1726.44
398.88	1685.48
399.09	1740.77
399.30	1632.23
399.51	1705.96
399.71	1660.90
399.92	1665.00
400.13	1814.50
400.34	1806.31
400.54	1669.09
400.75	1818.60
400.96	1742.82
401.17	1855.46
401.37	1765.35
401.58	1771.49
401.79	1728.49
402.00	1839.08
402.21	1957.86
402.41	1947.62
402.62	2017.25
402.83	1984.48
403.04	1943.52
403.24	2078.69
403.45	1853.41
403.66	1904.61
403.87	1918.95
404.07	1898.47
404.28	1927.14
404.49	1931.23
404.70	1806.31
404.90	1757.16
405.11	1781.73
405.32	1671.14
405.52	1730.53
405.73	1669.09
405.94	1660.90
406.15	1665.00
406.35	1732.58
406.56	1681.38
406.77	1703.91
406.98	1787.88
407.18	1718.25
407.39	1816.55
407.60	1724.39
407.80	1697.77
408.01	1689.57
408.22	1771.49
408.43	1644.52
408.63	1755.11
408.84	1748.97
409.05	1738.73
409.25	1726.44
409.46	1648.61
409.67	1773.54
409.88	1705.96
410.08	1685.48
410.29	1728.49
410.50	1765.35
410.70	1763.30
410.91	1665.00
411.12	1708.01
411.32	1716.20
411.53	1740.77
411.74	1796.07
411.95	1734.63
412.15	1755.11
412.36	1773.54
412.57	1744.87
412.77	1755.11
412.98	1802.21
413.19	1734.63
413.39	1746.92
413.60	1722.34
413.81	1779.68
414.01	1621.99
414.22	1691.62
414.43	1753.06
414.63	1697.77
414.84	1834.98
415.05	1701.86
415.25	1609.70
415.46	1660.90
415.67	1726.44
415.87	1746.92
416.08	1685.48
416.29	1738.73
416.49	1753.06
416.70	1693.67
416.91	1683.43
417.11	1675.24
417.32	1759.21
417.53	1726.44
417.73	1681.38
417.94	1773.54
418.15	1746.92
418.35	1757.16
418.56	1708.01
418.77	1794.02
418.97	1683.43
419.18	1699.81
419.38	1578.98
419.59	1734.63
419.80	1769.44
420.00	1642.47
420.21	1720.29
420.42	1812.45
420.62	1703.91
420.83	1742.82
421.04	1746.92
421.24	1708.01
421.45	1712.10
421.65	1742.82
421.86	1755.11
422.07	1736.68
422.27	1759.21
422.48	1708.01
422.69	1720.29
422.89	1755.11
423.10	1712.10
423.30	1669.09
423.51	1783.78
423.72	1695.72
423.92	1728.49
424.13	1642.47
424.33	1705.96
424.54	1753.06
424.75	1705.96
424.95	1863.65
425.16	1820.64
425.36	1630.18
425.57	1730.53
425.78	1755.11
425.98	1701.86
426.19	1650.66
426.39	1695.72
426.60	1746.92
426.81	1781.73
427.01	1730.53
427.22	1638.38
427.42	1593.32
427.63	1662.95
427.83	1705.96
428.04	1781.73
428.25	1775.59
428.45	1726.44
428.66	1738.73
428.86	1705.96
429.07	1736.68
429.28	1753.06
429.48	1662.95
429.69	1648.61
429.89	1693.67
430.10	1632.23
430.30	1775.59
430.51	1826.79
430.71	1591.27
430.92	1712.10
431.13	1660.90
431.33	1806.31
431.54	1718.25
431.74	1822.69
431.95	1841.12
432.15	1589.22
432.36	1761.25
432.56	1658.85
432.77	1853.41
432.98	1804.26
433.18	1763.30
433.39	1726.44
433.59	1691.62
433.80	1855.46
434.00	1855.46
434.21	1621.99
434.41	1644.52
434.62	1837.03
434.82	1677.29
435.03	1642.47
435.23	1738.73
435.44	1671.14
435.64	1714.15
435.85	1705.96
436.06	1740.77
436.26	1755.11
436.47	1673.19
436.67	1679.33
436.88	1675.24
437.08	1738.73
437.29	1794.02
437.49	1755.11
437.70	1734.63
437.90	1683.43
438.11	1875.94
438.31	1773.54
438.52	1898.47
438.72	1834.98
438.93	1828.84
439.13	1830.88
439.34	1787.88
439.54	1683.43
439.75	1761.25
439.95	1763.30
440.16	1689.57
440.36	1783.78
440.57	1646.57
440.77	1656.81
440.98	1728.49
441.18	1820.64
441.39	1710.05
441.59	1685.48
441.80	1779.68
442.00	1695.72
442.21	1771.49
442.41	1677.29
442.62	1769.44
442.82	1722.34
443.02	1667.05
443.23	1654.76
443.43	1748.97
443.64	1767.40
443.84	1652.71
444.05	1734.63
444.25	1804.26
444.46	1632.23
444.66	1759.21
444.87	1871.84
445.07	1662.95
445.28	1697.77
445.48	1804.26
445.69	1712.10
445.89	1867.75
446.09	1837.03
446.30	1955.81
446.50	2643.93
446.71	3680.20
446.91	4224.96
447.12	4720.57
447.32	4880.31
447.53	4259.78
447.73	3827.65
447.93	3547.08
448.14	3364.81
448.34	3194.83
448.55	2930.64
448.75	2891.73
448.96	2779.09
449.16	2377.69
449.36	2215.90
449.57	2043.87
449.77	1910.75
449.98	1832.93
450.18	1843.17
450.39	1818.60
450.59	1798.12
450.79	1742.82
451.00	1679.33
451.20	1777.64
451.41	1724.39
451.61	1716.20
451.81	1787.88
452.02	1671.14
452.22	1681.38
452.43	1728.49
452.63	1615.85
