SpectraSuite Data File
++++++++++++++++++++++++++++++++++++
Date: Mon Jun 06 14:13:57 CEST 2016
User: root
Dark Spectrum Present: No
Reference Spectrum Present: No
Number of Sampled Component Spectra: 1
Spectrometers: USB4C02835
Integration Time (usec): 100000 (USB4C02835)
Spectra Averaged: 1 (USB4C02835)
Boxcar Smoothing: 0 (USB4C02835)
Correct for Electrical Dark: No (USB4C02835)
Strobe/Lamp Enabled: No (USB4C02835)
Correct for Detector Non-linearity: No (USB4C02835)
Correct for Stray Light: No (USB4C02835)
Number of Pixels in Processed Spectrum: 3648
>>>>>Begin Processed Spectral Data<<<<<
177.47	1490.92
177.69	1490.92
177.91	1490.92
178.13	1482.73
178.36	1542.12
178.58	1607.66
178.80	1730.53
179.02	1626.09
179.24	1677.29
179.46	1673.19
179.68	1724.39
179.90	1617.90
180.13	1816.55
180.35	1630.18
180.57	1667.05
180.79	1763.30
181.01	1675.24
181.23	1808.36
181.45	1736.68
181.67	1769.44
181.90	1714.15
182.12	1783.78
182.34	1644.52
182.56	1730.53
182.78	1748.97
183.00	1714.15
183.22	1669.09
183.44	1626.09
183.66	1869.80
183.89	1812.45
184.11	1681.38
184.33	1718.25
184.55	1716.20
184.77	1798.12
184.99	1708.01
185.21	1654.76
185.43	1824.74
185.65	1652.71
185.87	1673.19
186.10	1767.40
186.32	1875.94
186.54	1697.77
186.76	1724.39
186.98	1744.87
187.20	1693.67
187.42	1646.57
187.64	1648.61
187.86	1703.91
188.08	1771.49
188.30	1624.04
188.52	1673.19
188.75	1710.05
188.97	1730.53
189.19	1703.91
189.41	1685.48
189.63	1726.44
189.85	1689.57
190.07	1587.18
190.29	1632.23
190.51	1656.81
190.73	1609.70
190.95	1841.12
191.17	1662.95
191.39	1652.71
191.61	1648.61
191.84	1683.43
192.06	1751.01
192.28	1589.22
192.50	1863.65
192.72	1738.73
192.94	1718.25
193.16	1798.12
193.38	1730.53
193.60	1656.81
193.82	1658.85
194.04	1697.77
194.26	1665.00
194.48	1699.81
194.70	1638.38
194.92	1652.71
195.14	1791.97
195.36	1705.96
195.58	1736.68
195.80	1712.10
196.02	1689.57
196.24	1605.61
196.46	1705.96
196.69	1644.52
196.91	1734.63
197.13	1662.95
197.35	1689.57
197.57	1787.88
197.79	1720.29
198.01	1767.40
198.23	1705.96
198.45	1658.85
198.67	1650.66
198.89	1695.72
199.11	1738.73
199.33	1720.29
199.55	1621.99
199.77	1751.01
199.99	1834.98
200.21	1654.76
200.43	1732.58
200.65	1675.24
200.87	1574.89
201.09	1658.85
201.31	1761.25
201.53	1718.25
201.75	1730.53
201.97	1652.71
202.19	1689.57
202.41	1753.06
202.63	1806.31
202.85	1710.05
203.07	1781.73
203.29	1673.19
203.51	1689.57
203.73	1665.00
203.95	1918.95
204.17	1708.01
204.39	1689.57
204.61	1660.90
204.83	1699.81
205.05	1708.01
205.27	1746.92
205.49	1765.35
205.71	1708.01
205.93	1587.18
206.15	1730.53
206.37	1740.77
206.59	1685.48
206.81	1646.57
207.03	1597.42
207.25	1703.91
207.47	1806.31
207.69	1685.48
207.91	1732.58
208.13	1781.73
208.34	1705.96
208.56	1699.81
208.78	1722.34
209.00	1671.14
209.22	1656.81
209.44	1609.70
209.66	1658.85
209.88	1730.53
210.10	1759.21
210.32	1687.53
210.54	1703.91
210.76	1669.09
210.98	1769.44
211.20	1576.94
211.42	1660.90
211.64	1763.30
211.86	1716.20
212.08	1722.34
212.30	1740.77
212.52	1648.61
212.74	1746.92
212.96	1724.39
213.17	1789.92
213.39	1777.64
213.61	1759.21
213.83	1714.15
214.05	1652.71
214.27	1759.21
214.49	1650.66
214.71	1632.23
214.93	1775.59
215.15	1701.86
215.37	1699.81
215.59	1665.00
215.81	1742.82
216.03	1822.69
216.24	1722.34
216.46	1626.09
216.68	1697.77
216.90	1802.21
217.12	1744.87
217.34	1771.49
217.56	1691.62
217.78	1787.88
218.00	1791.97
218.22	1703.91
218.44	1734.63
218.66	1638.38
218.87	1832.93
219.09	1587.18
219.31	1779.68
219.53	1738.73
219.75	1669.09
219.97	1730.53
220.19	1671.14
220.41	1667.05
220.63	1861.60
220.85	1785.83
221.06	1585.13
221.28	1787.88
221.50	1689.57
221.72	1656.81
221.94	1710.05
222.16	1689.57
222.38	1767.40
222.60	1779.68
222.82	1665.00
223.03	1779.68
223.25	1552.36
223.47	1757.16
223.69	1783.78
223.91	1710.05
224.13	1693.67
224.35	1656.81
224.57	1783.78
224.78	1736.68
225.00	1632.23
225.22	1681.38
225.44	1673.19
225.66	1789.92
225.88	1626.09
226.10	1789.92
226.32	1714.15
226.53	1796.07
226.75	1689.57
226.97	1697.77
227.19	1718.25
227.41	1669.09
227.63	1703.91
227.85	1619.94
228.06	1738.73
228.28	1681.38
228.50	1705.96
228.72	1671.14
228.94	1720.29
229.16	1572.84
229.37	1624.04
229.59	1597.42
229.81	1816.55
230.03	1673.19
230.25	1638.38
230.47	1656.81
230.69	1566.70
230.90	1734.63
231.12	1652.71
231.34	1718.25
231.56	1701.86
231.78	1628.14
232.00	1640.42
232.21	1667.05
232.43	1716.20
232.65	1595.37
232.87	1722.34
233.09	1685.48
233.30	1660.90
233.52	1718.25
233.74	1654.76
233.96	1665.00
234.18	1640.42
234.40	1671.14
234.61	1767.40
234.83	1615.85
235.05	1665.00
235.27	1843.17
235.49	1734.63
235.70	1751.01
235.92	1732.58
236.14	1685.48
236.36	1902.56
236.58	1646.57
236.79	1771.49
237.01	1648.61
237.23	1689.57
237.45	1839.08
237.67	1626.09
237.88	1681.38
238.10	1769.44
238.32	1597.42
238.54	1724.39
238.76	1673.19
238.97	1656.81
239.19	1648.61
239.41	1812.45
239.63	1751.01
239.85	1667.05
240.06	1736.68
240.28	1689.57
240.50	1734.63
240.72	1662.95
240.93	1732.58
241.15	1738.73
241.37	1667.05
241.59	1732.58
241.81	1771.49
242.02	1615.85
242.24	1753.06
242.46	1703.91
242.68	1658.85
242.89	1708.01
243.11	1730.53
243.33	1710.05
243.55	1685.48
243.76	1605.61
243.98	1683.43
244.20	1626.09
244.42	1679.33
244.64	1683.43
244.85	1650.66
245.07	1710.05
245.29	1796.07
245.51	1695.72
245.72	1757.16
245.94	1755.11
246.16	1644.52
246.38	1726.44
246.59	1705.96
246.81	1671.14
247.03	1697.77
247.24	1640.42
247.46	1591.27
247.68	1720.29
247.90	1746.92
248.11	1677.29
248.33	1820.64
248.55	1632.23
248.77	1693.67
248.98	1722.34
249.20	1730.53
249.42	1730.53
249.64	1681.38
249.85	1671.14
250.07	1648.61
250.29	1742.82
250.50	1746.92
250.72	1603.56
250.94	1673.19
251.16	1810.40
251.37	1847.27
251.59	1744.87
251.81	1779.68
252.02	1757.16
252.24	1658.85
252.46	1763.30
252.68	1718.25
252.89	1671.14
253.11	1607.66
253.33	1730.53
253.54	1726.44
253.76	1583.08
253.98	1628.14
254.20	1677.29
254.41	1581.03
254.63	1722.34
254.85	1673.19
255.06	1681.38
255.28	1673.19
255.50	1716.20
255.71	1695.72
255.93	1591.27
256.15	1730.53
256.36	1791.97
256.58	1613.80
256.80	1724.39
257.02	1640.42
257.23	1667.05
257.45	1718.25
257.67	1771.49
257.88	1617.90
258.10	1779.68
258.32	1656.81
258.53	1634.28
258.75	1716.20
258.97	1636.33
259.18	1681.38
259.40	1693.67
259.62	1724.39
259.83	1767.40
260.05	1675.24
260.27	2021.35
260.48	1775.59
260.70	1656.81
260.92	1740.77
261.13	1714.15
261.35	1656.81
261.57	1708.01
261.78	1570.79
262.00	1615.85
262.22	1808.36
262.43	1683.43
262.65	1626.09
262.86	1734.63
263.08	1832.93
263.30	1652.71
263.51	1626.09
263.73	1619.94
263.95	1767.40
264.16	1652.71
264.38	1746.92
264.60	1710.05
264.81	1738.73
265.03	1744.87
265.25	1794.02
265.46	1681.38
265.68	1779.68
265.89	1748.97
266.11	1681.38
266.33	1771.49
266.54	1761.25
266.76	1714.15
266.98	1742.82
267.19	1787.88
267.41	1720.29
267.62	1603.56
267.84	1572.84
268.06	1720.29
268.27	1714.15
268.49	1716.20
268.70	1798.12
268.92	1697.77
269.14	1685.48
269.35	1640.42
269.57	1654.76
269.79	1826.79
270.00	1609.70
270.22	1761.25
270.43	1660.90
270.65	1609.70
270.87	1671.14
271.08	1714.15
271.30	1751.01
271.51	1705.96
271.73	1710.05
271.95	1726.44
272.16	1681.38
272.38	1701.86
272.59	1662.95
272.81	1724.39
273.02	1769.44
273.24	1771.49
273.46	1763.30
273.67	1669.09
273.89	1685.48
274.10	1665.00
274.32	1767.40
274.54	1732.58
274.75	1675.24
274.97	1726.44
275.18	1705.96
275.40	1708.01
275.61	1681.38
275.83	1689.57
276.05	1689.57
276.26	1771.49
276.48	1740.77
276.69	1564.65
276.91	1603.56
277.12	1824.74
277.34	1703.91
277.55	1753.06
277.77	1781.73
277.99	1671.14
278.20	1693.67
278.42	1689.57
278.63	1642.47
278.85	1677.29
279.06	1599.46
279.28	1781.73
279.49	1748.97
279.71	1746.92
279.93	1667.05
280.14	1687.53
280.36	1632.23
280.57	1767.40
280.79	1701.86
281.00	1601.51
281.22	1634.28
281.43	1775.59
281.65	1603.56
281.86	1681.38
282.08	1783.78
282.29	1789.92
282.51	1595.37
282.73	1611.75
282.94	1634.28
283.16	1658.85
283.37	1742.82
283.59	1650.66
283.80	1714.15
284.02	1695.72
284.23	1769.44
284.45	1669.09
284.66	1683.43
284.88	1624.04
285.09	1744.87
285.31	1757.16
285.52	1708.01
285.74	1621.99
285.95	1728.49
286.17	1720.29
286.38	1730.53
286.60	1595.37
286.81	1669.09
287.03	1781.73
287.24	1695.72
287.46	1720.29
287.67	1615.85
287.89	1849.32
288.10	1660.90
288.32	1718.25
288.53	1767.40
288.75	1685.48
288.96	1665.00
289.18	1597.42
289.39	1718.25
289.61	1783.78
289.82	1787.88
290.04	1789.92
290.25	1640.42
290.47	1732.58
290.68	1658.85
290.90	1783.78
291.11	1703.91
291.33	1738.73
291.54	1722.34
291.76	1589.22
291.97	1734.63
292.18	1677.29
292.40	1693.67
292.61	1705.96
292.83	1898.47
293.04	1746.92
293.26	1712.10
293.47	1642.47
293.69	1689.57
293.90	1624.04
294.12	1787.88
294.33	1689.57
294.55	1673.19
294.76	1716.20
294.97	1888.23
295.19	1828.84
295.40	1648.61
295.62	1673.19
295.83	1687.53
296.05	1617.90
296.26	1669.09
296.48	1640.42
296.69	1736.68
296.90	1751.01
297.12	1701.86
297.33	1697.77
297.55	1687.53
297.76	1732.58
297.98	1767.40
298.19	1732.58
298.41	1695.72
298.62	1691.62
298.83	1699.81
299.05	1667.05
299.26	1609.70
299.48	1669.09
299.69	1689.57
299.90	1746.92
300.12	1619.94
300.33	1697.77
300.55	1736.68
300.76	1744.87
300.98	1660.90
301.19	1773.54
301.40	1648.61
301.62	1697.77
301.83	1732.58
302.05	1751.01
302.26	1759.21
302.47	1699.81
302.69	1675.24
302.90	1697.77
303.12	1583.08
303.33	1591.27
303.54	1665.00
303.76	1611.75
303.97	1681.38
304.19	1820.64
304.40	1611.75
304.61	1718.25
304.83	1851.36
305.04	1798.12
305.26	1771.49
305.47	1669.09
305.68	1724.39
305.90	1624.04
306.11	1791.97
306.33	1658.85
306.54	1677.29
306.75	1603.56
306.97	1585.13
307.18	1583.08
307.39	1654.76
307.61	1804.26
307.82	1595.37
308.04	1724.39
308.25	1697.77
308.46	1640.42
308.68	1691.62
308.89	1650.66
309.10	1734.63
309.32	1748.97
309.53	1656.81
309.74	1669.09
309.96	1654.76
310.17	1787.88
310.39	1671.14
310.60	1714.15
310.81	1746.92
311.03	1720.29
311.24	1767.40
311.45	1693.67
311.67	1837.03
311.88	1693.67
312.09	1667.05
312.31	1693.67
312.52	1665.00
312.73	1691.62
312.95	1650.66
313.16	1636.33
313.37	1718.25
313.59	1779.68
313.80	1736.68
314.01	1830.88
314.23	1730.53
314.44	1726.44
314.65	1597.42
314.87	1652.71
315.08	1632.23
315.29	1757.16
315.51	1644.52
315.72	1615.85
315.93	1726.44
316.15	1714.15
316.36	1714.15
316.57	1716.20
316.79	1732.58
317.00	1652.71
317.21	1777.64
317.43	1650.66
317.64	1636.33
317.85	1617.90
318.07	1636.33
318.28	1720.29
318.49	1814.50
318.70	1904.61
318.92	1759.21
319.13	1785.83
319.34	1796.07
319.56	1798.12
319.77	1671.14
319.98	1808.36
320.20	1755.11
320.41	1763.30
320.62	1685.48
320.83	1681.38
321.05	1816.55
321.26	1755.11
321.47	1753.06
321.69	1730.53
321.90	1683.43
322.11	1689.57
322.32	1822.69
322.54	1730.53
322.75	1685.48
322.96	1787.88
323.18	1587.18
323.39	1503.21
323.60	1683.43
323.81	1751.01
324.03	1753.06
324.24	1712.10
324.45	1767.40
324.66	1722.34
324.88	1763.30
325.09	1738.73
325.30	1746.92
325.52	1615.85
325.73	1716.20
325.94	1607.66
326.15	1634.28
326.37	1724.39
326.58	1734.63
326.79	1759.21
327.00	1615.85
327.22	1744.87
327.43	1685.48
327.64	1658.85
327.85	1796.07
328.07	1710.05
328.28	1800.16
328.49	1710.05
328.70	1697.77
328.92	1732.58
329.13	1697.77
329.34	1746.92
329.55	1785.83
329.76	1796.07
329.98	1658.85
330.19	1814.50
330.40	1734.63
330.61	1665.00
330.83	1736.68
331.04	1681.38
331.25	1734.63
331.46	1648.61
331.68	1609.70
331.89	1759.21
332.10	1710.05
332.31	1624.04
332.52	1628.14
332.74	1757.16
332.95	1632.23
333.16	1728.49
333.37	1791.97
333.58	1619.94
333.80	1662.95
334.01	1673.19
334.22	1673.19
334.43	1738.73
334.64	1816.55
334.86	1677.29
335.07	1667.05
335.28	1816.55
335.49	1665.00
335.70	1730.53
335.92	1810.40
336.13	1736.68
336.34	1673.19
336.55	1738.73
336.76	1726.44
336.98	1540.07
337.19	1697.77
337.40	1755.11
337.61	1800.16
337.82	1751.01
338.04	1806.31
338.25	1581.03
338.46	1710.05
338.67	1740.77
338.88	1656.81
339.09	1654.76
339.31	1736.68
339.52	1640.42
339.73	1665.00
339.94	1732.58
340.15	1734.63
340.36	1691.62
340.58	1660.90
340.79	1656.81
341.00	1742.82
341.21	1683.43
341.42	1826.79
341.63	1669.09
341.85	1767.40
342.06	1738.73
342.27	1585.13
342.48	1744.87
342.69	1617.90
342.90	1671.14
343.12	1796.07
343.33	1705.96
343.54	1841.12
343.75	1800.16
343.96	1718.25
344.17	1574.89
344.38	1726.44
344.60	1626.09
344.81	1667.05
345.02	1708.01
345.23	1791.97
345.44	1775.59
345.65	1775.59
345.86	1671.14
346.07	1726.44
346.29	1669.09
346.50	1736.68
346.71	1759.21
346.92	1779.68
347.13	1763.30
347.34	1773.54
347.55	1693.67
347.76	1748.97
347.98	1591.27
348.19	1685.48
348.40	1751.01
348.61	1687.53
348.82	1796.07
349.03	1767.40
349.24	1644.52
349.45	1781.73
349.66	1546.22
349.88	1779.68
350.09	1660.90
350.30	1771.49
350.51	1701.86
350.72	1701.86
350.93	1771.49
351.14	1710.05
351.35	1736.68
351.56	1681.38
351.77	1718.25
351.99	1757.16
352.20	1826.79
352.41	1775.59
352.62	1572.84
352.83	1742.82
353.04	1722.34
353.25	1722.34
353.46	1785.83
353.67	1804.26
353.88	1587.18
354.09	1658.85
354.30	1705.96
354.52	1742.82
354.73	1738.73
354.94	1687.53
355.15	1746.92
355.36	1843.17
355.57	1720.29
355.78	1685.48
355.99	1705.96
356.20	1712.10
356.41	1730.53
356.62	1767.40
356.83	1728.49
357.04	1796.07
357.25	1697.77
357.46	1669.09
357.68	1683.43
357.89	1611.75
358.10	1699.81
358.31	1720.29
358.52	1656.81
358.73	1650.66
358.94	1638.38
359.15	1718.25
359.36	1763.30
359.57	1728.49
359.78	1677.29
359.99	1673.19
360.20	1599.46
360.41	1681.38
360.62	1708.01
360.83	1724.39
361.04	1640.42
361.25	1728.49
361.46	1824.74
361.67	1685.48
361.88	1714.15
362.09	1755.11
362.30	1730.53
362.51	1650.66
362.72	1703.91
362.93	1724.39
363.14	1771.49
363.35	1712.10
363.56	1642.47
363.78	1761.25
363.99	1689.57
364.20	1691.62
364.41	1673.19
364.62	1816.55
364.83	1695.72
365.04	1685.48
365.25	1718.25
365.46	1730.53
365.67	1689.57
365.88	1619.94
366.09	1691.62
366.30	1708.01
366.51	1787.88
366.72	1581.03
366.93	1726.44
367.14	1665.00
367.35	1791.97
367.56	1753.06
367.77	1814.50
367.98	1650.66
368.18	1720.29
368.39	1820.64
368.60	1705.96
368.81	1744.87
369.02	1683.43
369.23	1714.15
369.44	1599.46
369.65	1726.44
369.86	1710.05
370.07	1691.62
370.28	1681.38
370.49	1716.20
370.70	1699.81
370.91	1628.14
371.12	1540.07
371.33	1736.68
371.54	1687.53
371.75	1751.01
371.96	1636.33
372.17	1679.33
372.38	1665.00
372.59	1767.40
372.80	1705.96
373.01	1699.81
373.22	1771.49
373.43	1728.49
373.64	1632.23
373.85	1771.49
374.06	1734.63
374.26	1746.92
374.47	1738.73
374.68	1775.59
374.89	1744.87
375.10	1701.86
375.31	1826.79
375.52	1673.19
375.73	1726.44
375.94	1619.94
376.15	1779.68
376.36	1632.23
376.57	1687.53
376.78	1722.34
376.99	1716.20
377.20	1732.58
377.40	1658.85
377.61	1853.41
377.82	1697.77
378.03	1785.83
378.24	1722.34
378.45	1687.53
378.66	1771.49
378.87	1570.79
379.08	1601.51
379.29	1685.48
379.50	1740.77
379.71	1710.05
379.91	1751.01
380.12	1734.63
380.33	1675.24
380.54	1703.91
380.75	1689.57
380.96	1648.61
381.17	1822.69
381.38	1716.20
381.59	1689.57
381.80	1636.33
382.00	1851.36
382.21	1769.44
382.42	1808.36
382.63	1863.65
382.84	1830.88
383.05	1718.25
383.26	1830.88
383.47	1687.53
383.68	1761.25
383.88	1675.24
384.09	1718.25
384.30	1818.60
384.51	1732.58
384.72	1724.39
384.93	1712.10
385.14	1626.09
385.35	1765.35
385.55	1660.90
385.76	1753.06
385.97	1603.56
386.18	1601.51
386.39	1628.14
386.60	1714.15
386.81	1703.91
387.02	1675.24
387.22	1669.09
387.43	1738.73
387.64	1800.16
387.85	1812.45
388.06	2207.71
388.27	4243.39
388.48	6858.65
388.68	8368.00
388.89	9678.70
389.10	9967.46
389.31	8685.44
389.52	7751.56
389.73	6799.26
389.93	6322.08
390.14	5861.29
390.35	5345.20
390.56	4691.90
390.77	3850.18
390.98	3039.19
391.18	2541.53
391.39	2131.94
391.60	1939.43
391.81	1914.85
392.02	1689.57
392.23	1832.93
392.43	1744.87
392.64	1775.59
392.85	1714.15
393.06	1802.21
393.27	1716.20
393.47	1632.23
393.68	1755.11
393.89	1671.14
394.10	1777.64
394.31	1669.09
394.52	1634.28
394.72	1611.75
394.93	1789.92
395.14	1652.71
395.35	1767.40
395.56	1675.24
395.76	1724.39
395.97	1779.68
396.18	1732.58
396.39	1861.60
396.60	1945.57
396.80	1873.89
397.01	1892.32
397.22	1816.55
397.43	1841.12
397.64	1683.43
397.84	1812.45
398.05	1865.70
398.26	1753.06
398.47	1759.21
398.67	1806.31
398.88	1730.53
399.09	1746.92
399.30	1738.73
399.51	1779.68
399.71	1712.10
399.92	1783.78
400.13	1705.96
400.34	1632.23
400.54	1726.44
400.75	1859.56
400.96	1765.35
401.17	1802.21
401.37	1689.57
401.58	1734.63
401.79	1794.02
402.00	1828.84
402.21	1976.29
402.41	2029.54
402.62	1976.29
402.83	2072.54
403.04	1976.29
403.24	2082.78
403.45	1839.08
403.66	1966.05
403.87	1892.32
404.07	1933.28
404.28	1894.37
404.49	1875.94
404.70	1781.73
404.90	1757.16
405.11	1740.77
405.32	1796.07
405.52	1716.20
405.73	1667.05
405.94	1669.09
406.15	1691.62
406.35	1787.88
406.56	1734.63
406.77	1755.11
406.98	1652.71
407.18	1646.57
407.39	1779.68
407.60	1648.61
407.80	1734.63
408.01	1738.73
408.22	1755.11
408.43	1730.53
408.63	1736.68
408.84	1746.92
409.05	1724.39
409.25	1650.66
409.46	1654.76
409.67	1671.14
409.88	1683.43
410.08	1693.67
410.29	1673.19
410.50	1777.64
410.70	1732.58
410.91	1757.16
411.12	1742.82
411.32	1728.49
411.53	1708.01
411.74	1839.08
411.95	1767.40
412.15	1773.54
412.36	1779.68
412.57	1705.96
412.77	1773.54
412.98	1675.24
413.19	1798.12
413.39	1724.39
413.60	1728.49
413.81	1814.50
414.01	1697.77
414.22	1800.16
414.43	1710.05
414.63	1710.05
414.84	1687.53
415.05	1697.77
415.25	1619.94
415.46	1712.10
415.67	1759.21
415.87	1724.39
416.08	1648.61
416.29	1726.44
416.49	1687.53
416.70	1730.53
416.91	1705.96
417.11	1675.24
417.32	1718.25
417.53	1714.15
417.73	1828.84
417.94	1697.77
418.15	1804.26
418.35	1714.15
418.56	1732.58
418.77	1837.03
418.97	1724.39
419.18	1644.52
419.38	1583.08
419.59	1658.85
419.80	1798.12
420.00	1724.39
420.21	1660.90
420.42	1796.07
420.62	1755.11
420.83	1712.10
421.04	1665.00
421.24	1693.67
421.45	1767.40
421.65	1742.82
421.86	1689.57
422.07	1720.29
422.27	1697.77
422.48	1697.77
422.69	1652.71
422.89	1710.05
423.10	1718.25
423.30	1677.29
423.51	1685.48
423.72	1691.62
423.92	1787.88
424.13	1572.84
424.33	1728.49
424.54	1699.81
424.75	1705.96
424.95	1775.59
425.16	1681.38
425.36	1724.39
425.57	1710.05
425.78	1757.16
425.98	1744.87
426.19	1681.38
426.39	1605.61
426.60	1654.76
426.81	1839.08
427.01	1669.09
427.22	1660.90
427.42	1603.56
427.63	1650.66
427.83	1724.39
428.04	1837.03
428.25	1826.79
428.45	1787.88
428.66	1718.25
428.86	1648.61
429.07	1681.38
429.28	1759.21
429.48	1697.77
429.69	1667.05
429.89	1697.77
430.10	1660.90
430.30	1746.92
430.51	1779.68
430.71	1671.14
430.92	1689.57
431.13	1660.90
431.33	1718.25
431.54	1701.86
431.74	1755.11
431.95	1800.16
432.15	1617.90
432.36	1759.21
432.56	1746.92
432.77	1808.36
432.98	1769.44
433.18	1742.82
433.39	1677.29
433.59	1656.81
433.80	1798.12
434.00	1824.74
434.21	1705.96
434.41	1665.00
434.62	1861.60
434.82	1697.77
435.03	1712.10
435.23	1757.16
435.44	1658.85
435.64	1738.73
435.85	1716.20
436.06	1738.73
436.26	1794.02
436.47	1636.33
436.67	1597.42
436.88	1771.49
437.08	1765.35
437.29	1757.16
437.49	1773.54
437.70	1787.88
437.90	1681.38
438.11	1765.35
438.31	1783.78
438.52	1771.49
438.72	1802.21
438.93	1892.32
439.13	1787.88
439.34	1791.97
439.54	1763.30
439.75	1751.01
439.95	1849.32
440.16	1687.53
440.36	1751.01
440.57	1751.01
440.77	1796.07
440.98	1679.33
441.18	1855.46
441.39	1656.81
441.59	1603.56
441.80	1886.18
442.00	1720.29
442.21	1767.40
442.41	1673.19
442.62	1781.73
442.82	1732.58
443.02	1726.44
443.23	1673.19
443.43	1720.29
443.64	1757.16
443.84	1624.04
444.05	1857.51
444.25	1728.49
444.46	1748.97
444.66	1714.15
444.87	1775.59
445.07	1716.20
445.28	1714.15
445.48	1769.44
445.69	1816.55
445.89	1783.78
446.09	1771.49
446.30	2035.68
446.50	2654.17
446.71	3803.08
446.91	4460.48
447.12	4755.38
447.32	4812.73
447.53	4329.41
447.73	3835.85
447.93	3698.63
448.14	3354.57
448.34	3168.21
448.55	2893.78
448.75	2867.16
448.96	2678.74
449.16	2457.56
449.36	2316.25
449.57	2037.73
449.77	1894.37
449.98	1832.93
450.18	1808.36
450.39	1882.08
450.59	1791.97
450.79	1744.87
451.00	1652.71
451.20	1775.59
451.41	1613.80
451.61	1830.88
451.81	1677.29
452.02	1734.63
452.22	1738.73
452.43	1681.38
452.63	1650.66
